DTS Sentinel unit serial number:	SN413079Multiplexer serial number:	ORYXHardware model number:	OX4-SRSoftware version number:	ORYX F/W v4.00 Oryx Data Collector v3.7.2.0data status	okinstallation	princeton_trtdifferential loss correction	single-endedforward channel	channel 4reverse channel	N/Adate	2019/09/13time	19:05:35forward acquisition time	60.00reverse acquisition time	0.00gamma	496.2192k internal	0.2312k external	0.2312temperature offset calibration	1.0168default loss term (dB/km)	0.3790temperature slope calibration	1.0000multiplexer offset coefficient	1.0000multiplexer slope coefficient	1.0000fibre end	0.00T internal ref (°C)	31.73T ext. ref 1 (°C)	3.88T ext. ref 2 (°C)	25.01length (m)	temperature (°C)	Stokes	anti-Stokes-747.200	19.564	-0.104	-0.085
-746.185	-11.587	-0.122	0.081
-745.171	-67.429	-0.292	0.116
-744.156	-200.000	0.039	0.240
-743.142	-200.000	0.019	0.159
-742.127	800.000	0.055	0.170
-741.112	-21.783	0.353	0.218
-740.098	-107.966	-0.403	0.089
-739.083	800.000	-0.043	0.147
-738.069	341.494	-0.067	0.132
-737.054	167.057	0.080	0.115
-736.039	125.804	0.215	-0.275
-735.025	210.122	-0.070	0.112
-734.010	-111.181	-0.035	0.007
-732.996	-87.830	-0.342	0.104
-731.981	60.624	0.213	-0.215
-730.966	-200.000	-0.053	-0.338
-729.952	156.419	0.057	-0.080
-728.937	-133.635	-0.044	0.006
-727.923	49.513	-0.144	0.137
-726.908	105.056	-0.032	-0.039
-725.894	71.982	-0.148	0.156
-724.879	31.335	-0.045	0.040
-723.864	60.988	-0.168	0.169
-722.850	800.000	0.055	-0.225
-721.835	-173.165	-0.455	-0.014
-720.821	-120.374	-0.107	-0.018
-719.806	-200.000	-0.005	0.185
-718.791	32.979	-0.149	0.131
-717.777	351.599	0.046	0.093
-716.762	-98.554	0.216	-0.056
-715.748	32.016	0.061	-0.053
-714.733	-118.191	0.194	-0.035
-713.718	590.447	-0.154	0.386
-712.704	167.352	-0.055	0.079
-711.689	-76.016	-0.358	-0.128
-710.675	-62.708	-0.200	-0.084
-709.660	30.560	-0.221	0.192
-708.645	235.875	-0.198	0.332
-707.631	-58.224	0.120	0.053
-706.616	280.540	0.006	0.010
-705.602	-95.098	-0.320	-0.088
-704.587	275.389	0.095	-0.170
-703.572	407.453	-0.101	0.216
-702.558	-66.589	0.147	-0.059
-701.543	-148.193	0.379	0.032
-700.529	-200.000	0.002	-0.124
-699.514	9.326	0.143	0.110
-698.499	-200.000	-0.007	-0.239
-697.485	35.513	-0.237	-0.211
-696.470	-14.193	0.122	0.080
-695.456	688.656	0.045	-0.120
-694.441	497.134	0.168	0.392
-693.426	52.114	-0.157	0.152
-692.412	77.014	0.031	-0.033
-691.397	55.094	-0.103	0.101
-690.383	101.668	-0.108	0.127
-689.368	-38.006	0.209	-0.112
-688.354	153.524	-0.091	0.126
-687.339	108.347	0.225	-0.272
-686.324	800.000	-0.065	-0.227
-685.310	-154.560	0.040	-0.003
-684.295	96.742	0.170	-0.197
-683.281	169.470	0.085	-0.123
-682.266	186.703	-0.130	0.196
-681.251	-106.553	-0.282	-0.064
-680.237	794.680	-0.030	-0.084
-679.222	800.000	0.035	-0.120
-678.208	-51.413	-0.191	-0.090
-677.193	38.115	0.158	-0.142
-676.178	446.972	-0.072	-0.161
-675.164	-189.711	0.298	-0.003
-674.149	800.000	-0.069	-0.260
-673.135	248.204	-0.202	-0.346
-672.120	-8.981	0.237	-0.161
-671.105	-200.000	0.028	0.152
-670.091	144.513	0.100	0.135
-669.076	-200.000	-0.020	-0.108
-668.062	-81.532	0.155	-0.051
-667.047	292.627	-0.125	0.231
-666.032	15.667	0.087	0.069
-665.018	-90.100	-0.061	0.018
-664.003	800.000	0.126	0.371
-662.989	51.761	-0.126	0.121
-661.974	800.000	0.103	-0.345
-660.959	32.004	-0.074	0.064
-659.945	55.793	-0.259	-0.254
-658.930	195.970	0.076	-0.117
-657.916	38.892	-0.246	-0.222
-656.901	-102.810	0.349	0.084
-655.886	43.167	-0.349	0.323
-654.872	323.145	-0.191	-0.369
-653.857	166.517	-0.193	-0.276
-652.843	-190.893	-0.241	-0.003
-651.828	-200.000	-0.014	-0.134
-650.814	-17.417	-0.100	0.064
-649.799	137.073	-0.072	-0.095
-648.784	-163.079	0.251	0.012
-647.770	-30.179	-0.480	-0.276
-646.755	42.607	0.073	0.067
-645.741	82.903	0.156	-0.172
-644.726	112.506	-0.146	0.179
-643.711	534.050	-0.121	-0.289
-642.697	149.352	-0.042	-0.058
-641.682	-200.000	-0.040	0.205
-640.668	-200.000	0.021	0.248
-639.653	-149.893	0.122	-0.010
-638.638	-9.744	0.192	0.129
-637.624	800.000	0.021	-0.077
-636.609	-27.507	-0.090	0.053
-635.595	-200.000	0.002	-0.077
-634.580	627.852	-0.114	0.292
-633.565	4.853	0.105	0.078
-632.551	29.328	0.262	0.225
-631.536	318.717	-0.120	-0.230
-630.522	233.862	0.046	0.076
-629.507	33.275	-0.227	-0.199
-628.492	-81.773	0.286	0.095
-627.478	144.378	-0.204	0.276
-626.463	800.000	-0.029	0.085
-625.449	37.189	0.224	-0.200
-624.434	165.135	-0.192	-0.274
-623.419	-200.000	-0.007	0.291
-622.405	-50.805	0.156	0.074
-621.390	-150.258	-0.397	-0.031
-620.376	800.000	0.042	-0.130
-619.361	800.000	0.031	0.100
-618.346	12.601	-0.137	-0.106
-617.332	105.708	-0.307	0.367
-616.317	22.482	-0.261	-0.215
-615.303	-39.266	-0.163	0.086
-614.288	-83.090	0.121	-0.039
-613.273	-30.771	-0.094	0.054
-612.259	800.000	-0.037	-0.154
-611.244	-146.654	0.315	0.028
-610.230	-90.542	-0.223	-0.065
-609.215	800.000	-0.056	0.180
-608.201	-200.000	-0.050	0.232
-607.186	-200.000	-0.335	-0.000
-606.171	134.890	-0.068	-0.089
-605.157	342.475	-0.176	-0.348
-604.142	76.255	-0.041	0.044
-603.128	-122.820	-0.156	-0.025
-602.113	-200.000	-0.018	-0.169
-601.098	-108.711	0.356	-0.077
-600.084	-191.155	-0.096	0.001
-599.069	-200.000	0.012	0.431
-598.055	488.551	-0.193	0.446
-597.040	-102.511	0.269	0.065
-596.025	-100.090	-0.177	0.044
-595.011	800.000	-0.013	-0.058
-593.996	-33.467	-0.220	0.123
-592.982	-131.291	0.131	-0.018
-591.967	-200.000	0.013	-0.121
-590.952	-200.000	0.007	-0.062
-589.938	800.000	-0.041	-0.154
-588.923	615.219	0.125	0.316
-587.909	-178.886	-0.070	0.002
-586.894	-12.742	-0.302	-0.198
-585.879	-118.683	0.166	0.029
-584.865	77.063	-0.186	0.199
-583.850	535.164	0.057	-0.137
-582.836	-31.689	0.180	-0.102
-581.821	-68.779	-0.418	-0.163
-580.806	800.000	0.096	-0.422
-579.792	800.000	-0.004	-0.014
-578.777	-66.304	-0.179	-0.072
-577.763	-1.123	-0.158	0.113
-576.748	11.368	-0.241	0.186
-575.733	-95.159	0.154	-0.042
-574.719	-54.960	0.069	-0.031
-573.704	-150.748	0.266	0.020
-572.690	693.585	0.014	0.038
-571.675	31.118	-0.211	-0.182
-570.661	124.587	0.171	-0.216
-569.646	-44.206	-0.050	0.025
-568.631	4.889	0.264	-0.195
-567.617	-200.000	0.002	-0.046
-566.602	-200.000	-0.002	0.038
-565.588	297.577	-0.131	0.242
-564.573	619.133	-0.034	0.085
-563.558	13.164	0.269	0.210
-562.544	-200.000	-0.003	0.107
-561.529	-200.000	0.011	0.343
-560.515	288.126	-0.145	0.265
-559.500	-43.940	0.330	0.167
-558.485	539.399	0.094	-0.226
-557.471	52.642	-0.238	-0.229
-556.456	26.939	0.189	-0.160
-555.442	-158.286	0.179	0.010
-554.427	-200.000	-0.017	0.101
-553.412	12.388	-0.179	0.139
-552.398	-40.306	-0.255	-0.133
-551.383	275.324	-0.039	0.070
-550.369	456.873	0.059	-0.132
-549.354	-200.000	-0.024	0.208
-548.339	-151.668	-0.211	0.016
-547.325	710.750	0.026	-0.070
-546.310	800.000	0.075	0.312
-545.296	-103.434	-0.088	-0.021
-544.281	256.739	0.081	-0.140
-543.266	72.536	-0.198	-0.207
-542.252	-200.000	-0.072	0.388
-541.237	198.943	0.127	0.196
-540.223	800.000	-0.081	0.231
-539.208	77.175	-0.141	-0.151
-538.193	-47.276	0.161	-0.079
-537.179	-29.666	0.095	0.054
-536.164	-115.161	-0.109	0.021
-535.150	-200.000	-0.044	0.224
-534.135	-59.363	0.243	-0.105
-533.121	181.251	-0.017	0.026
-532.106	686.393	0.074	-0.196
-531.091	49.346	-0.119	0.113
-530.077	680.476	0.042	0.111
-529.062	-77.175	0.248	0.087
-528.048	220.831	0.112	0.181
-527.033	-98.745	-0.162	0.041
-526.018	-32.466	-0.235	0.132
-525.004	-200.000	0.004	0.107
-523.989	39.076	-0.077	-0.069
-522.975	-60.442	0.215	0.092
-521.960	-200.000	0.003	0.017
-520.945	112.007	-0.107	0.131
-519.931	15.175	0.085	-0.067
-518.916	226.359	-0.229	0.373
-517.902	194.616	0.185	-0.282
-516.887	514.444	-0.079	-0.184
-515.872	-200.000	-0.008	-0.213
-514.858	-19.243	0.258	-0.161
-513.843	-14.454	-0.216	-0.140
-512.829	-146.993	0.079	0.007
-511.814	-125.932	0.231	0.035
-510.799	46.469	-0.170	0.158
-509.785	472.743	0.036	-0.082
-508.770	-73.092	-0.305	0.112
-507.756	-18.482	-0.187	-0.117
-506.741	-71.779	-0.242	-0.091
-505.726	188.799	-0.167	0.252
-504.712	297.395	-0.117	0.216
-503.697	208.885	-0.058	-0.091
-502.683	303.651	0.164	-0.305
-501.668	72.436	-0.070	-0.074
-500.653	-13.648	-0.111	-0.072
-499.639	42.141	0.130	-0.118
-498.624	713.520	-0.169	-0.451
-497.610	-78.513	0.129	-0.044
-496.595	-200.000	-0.041	-0.181
-495.581	-200.000	-0.016	0.155
-494.566	575.231	0.026	-0.065
-493.551	-200.000	0.011	0.175
-492.537	-47.635	-0.217	0.106
-491.522	-200.000	-0.021	-0.185
-490.508	800.000	0.043	-0.153
-489.493	-20.449	-0.366	0.226
-488.478	1.367	-0.073	-0.053
-487.464	-167.156	-0.225	0.009
-486.449	641.369	-0.109	-0.279
-485.435	-200.000	0.006	-0.204
-484.420	-200.000	0.003	0.108
-483.405	-200.000	0.024	0.320
-482.391	-200.000	-0.056	0.248
-481.376	-90.928	0.319	-0.092
-480.362	10.823	-0.186	-0.143
-479.347	-76.047	0.426	0.151
-478.332	167.017	-0.215	-0.306
-477.318	-49.098	0.238	0.114
-476.303	205.842	0.034	-0.052
-475.289	-200.000	-0.046	-0.251
-474.274	-34.808	0.121	0.066
-473.259	-148.494	0.088	0.007
-472.245	800.000	0.073	-0.204
-471.230	-116.993	0.036	0.007
-470.216	-144.779	-0.069	0.006
-469.201	-150.322	0.339	0.026
-468.186	-93.659	0.109	0.030
-467.172	2.362	-0.083	0.060
-466.157	-181.653	-0.388	0.008
-465.143	-32.664	0.058	-0.032
-464.128	404.615	-0.082	-0.174
-463.113	510.868	-0.061	0.142
-462.099	-109.291	0.396	-0.084
-461.084	-157.342	-0.076	-0.005
-460.070	-150.160	0.242	0.019
-459.055	4.652	0.238	0.175
-458.040	-36.056	0.222	0.120
-457.026	42.198	0.171	-0.156
-456.011	-11.792	-0.272	0.179
-454.997	419.036	-0.071	0.152
-453.982	-200.000	-0.064	-0.300
-452.968	51.091	-0.080	-0.076
-451.953	76.274	0.082	0.087
-450.938	-86.619	-0.167	-0.051
-449.924	-117.058	0.099	-0.018
-448.909	-180.169	0.239	-0.005
-447.895	360.115	-0.075	-0.151
-446.880	19.304	-0.131	-0.105
-445.865	286.461	-0.131	-0.237
-444.851	-80.885	-0.072	-0.024
-443.836	494.553	0.103	-0.238
-442.822	8.503	-0.035	-0.026
-441.807	-126.334	-0.280	0.042
-440.792	12.839	0.352	0.272
-439.778	-26.740	-0.345	-0.203
-438.763	-200.000	0.033	-0.338
-437.749	-44.796	0.228	0.114
-436.734	-36.994	-0.551	0.296
-435.719	-117.908	-0.155	0.028
-434.705	-94.210	-0.193	0.053
-433.690	143.156	-0.124	-0.165
-432.676	-17.776	0.358	-0.225
-431.661	800.000	-0.012	0.038
-430.646	198.093	0.028	0.042
-429.632	788.558	-0.123	0.338
-428.617	697.945	0.164	-0.432
-427.603	-200.000	0.015	-0.097
-426.588	-200.000	0.015	-0.121
-425.573	800.000	0.048	-0.139
-424.559	117.205	0.140	0.172
-423.544	-130.331	0.183	0.025
-422.530	-113.480	-0.200	0.039
-421.515	-12.675	-0.298	0.194
-420.500	800.000	0.041	-0.114
-419.486	-66.142	0.386	0.154
-418.471	-63.312	-0.235	0.097
-417.457	208.644	-0.077	-0.121
-416.442	800.000	-0.067	-0.205
-415.428	-74.564	0.042	-0.015
-414.413	34.425	0.066	0.057
-413.398	-0.818	0.106	-0.075
-412.384	-200.000	0.002	-0.029
-411.369	375.407	-0.100	0.204
-410.355	502.452	0.134	0.311
-409.340	41.479	0.139	0.126
-408.325	800.000	0.024	0.105
-407.311	-88.239	-0.254	0.076
-406.296	113.074	0.113	-0.137
-405.282	4.886	0.081	-0.060
-404.267	99.881	-0.068	-0.079
-403.252	-92.585	0.095	0.027
-402.238	-200.000	0.022	0.256
-401.223	28.930	0.126	0.107
-400.209	-153.224	-0.352	-0.025
-399.194	14.677	0.185	0.145
-398.179	30.423	0.131	0.112
-397.165	-134.056	-0.474	-0.059
-396.150	-105.198	-0.195	0.045
-395.136	-200.000	-0.001	0.006
-394.121	32.243	-0.194	0.168
-393.106	-148.539	0.184	0.015
-392.092	-119.558	-0.313	-0.054
-391.077	-200.000	0.021	0.219
-390.063	-43.894	0.060	-0.030
-389.048	800.000	-0.025	0.079
-388.033	-200.000	0.040	0.311
-387.019	-200.000	-0.001	-0.281
-386.004	5.570	-0.257	-0.190
-384.990	-82.123	0.057	0.019
-383.975	-200.000	0.016	0.077
-382.960	-127.589	-0.279	-0.041
-381.946	800.000	0.059	-0.199
-380.931	5.891	0.131	-0.097
-379.917	-200.000	0.020	0.165
-378.902	82.435	0.186	0.202
-377.888	-40.618	-0.240	-0.125
-376.873	-121.103	0.084	-0.014
-375.858	70.378	-0.310	0.320
-374.844	-97.458	0.286	-0.074
-373.829	554.376	-0.114	-0.274
-372.815	800.000	-0.072	0.212
-371.800	110.993	0.121	-0.146
-370.785	25.886	-0.061	0.051
-369.771	77.181	0.114	0.121
-368.756	-200.000	-0.023	-0.172
-367.742	-200.000	-0.003	0.080
-366.727	800.000	0.033	0.116
-365.712	800.000	0.060	0.218
-364.698	11.636	0.051	0.039
-363.683	686.604	-0.035	0.092
-362.669	800.000	-0.032	0.116
-361.654	-200.000	0.035	0.196
-360.639	-200.000	-0.004	-0.032
-359.625	144.701	0.070	-0.094
-358.610	-6.357	0.234	0.160
-357.596	151.967	-0.185	0.252
-356.581	62.596	0.132	-0.132
-355.566	-200.000	0.009	0.139
-354.552	343.980	-0.078	-0.152
-353.537	-96.288	-0.038	-0.010
-352.523	-101.818	-0.107	-0.026
-351.508	372.738	-0.183	0.372
-350.493	119.203	0.088	-0.109
-349.479	113.426	0.018	0.022
-348.464	121.624	0.217	-0.271
-347.450	232.944	-0.153	-0.251
-346.435	-93.679	-0.329	-0.091
-345.420	-73.187	0.234	0.086
-344.406	-200.000	-0.003	-0.041
-343.391	21.277	0.208	-0.169
-342.377	-115.576	0.403	-0.076
-341.362	20.551	0.189	-0.153
-340.348	-200.000	-0.019	-0.123
-339.333	136.410	0.058	0.075
-338.318	-49.405	-0.261	0.124
-337.304	112.289	-0.203	0.245
-336.289	-84.954	0.269	0.084
-335.275	800.000	-0.067	0.189
-334.260	-21.135	-0.023	0.014
-333.245	-108.119	0.083	0.018
-332.231	251.123	0.077	0.131
-331.216	-71.407	0.331	0.124
-330.202	800.000	-0.055	0.171
-329.187	54.203	-0.116	0.111
-328.172	-200.000	0.034	-0.327
-327.158	-200.000	0.021	-0.159
-326.143	6.864	0.242	0.180
-325.129	-150.839	0.249	-0.019
-324.114	-21.493	-0.121	-0.074
-323.099	-70.331	-0.156	-0.059
-322.085	-200.000	0.025	0.123
-321.070	55.104	0.070	0.067
-320.056	-129.933	0.220	0.030
-319.041	-185.119	-0.173	-0.003
-318.026	164.059	-0.138	0.194
-317.012	-200.000	-0.021	0.406
-315.997	287.578	-0.091	0.164
-314.983	-130.405	-0.183	-0.025
-313.968	714.717	0.152	-0.403
-312.953	305.122	0.154	-0.285
-311.939	-33.663	0.260	0.143
-310.924	800.000	-0.047	0.139
-309.910	-185.445	0.163	0.002
-308.895	86.449	0.198	0.218
-307.880	-102.247	-0.171	0.041
-306.866	-53.250	-0.278	0.127
-305.851	432.101	0.129	0.279
-304.837	-200.000	0.039	-0.328
-303.822	-27.188	-0.100	0.058
-302.807	-48.453	0.246	0.118
-301.793	800.000	-0.070	0.236
-300.778	-64.340	0.297	-0.121
-299.764	-200.000	0.009	-0.218
-298.749	-51.890	0.182	0.085
-297.735	-90.417	-0.136	0.039
-296.720	-61.743	0.261	0.109
-295.705	-7.437	0.280	-0.189
-294.691	800.000	0.072	-0.228
-293.676	-74.122	0.205	0.074
-292.662	-169.784	0.075	-0.003
-291.647	59.607	-0.168	0.165
-290.632	226.790	-0.067	0.108
-289.618	800.000	-0.064	0.198
-288.603	15.267	-0.237	0.186
-287.589	-46.024	0.075	0.037
-286.574	-200.000	-0.014	-0.063
-285.559	496.602	0.095	0.218
-284.545	36.341	0.233	-0.204
-283.530	-58.891	-0.321	-0.138
-282.516	-82.380	0.248	-0.080
-281.501	-200.000	0.005	-0.112
-280.486	41.833	-0.198	0.178
-279.472	153.628	-0.080	0.109
-278.457	478.254	0.085	-0.191
-277.443	-91.358	-0.104	0.030
-276.428	-85.369	0.289	-0.090
-275.413	-113.468	0.473	-0.092
-274.399	-200.000	-0.036	-0.282
-273.384	800.000	0.029	0.099
-272.370	61.336	0.230	-0.228
-271.355	-17.850	0.257	0.161
-270.340	-13.826	0.241	-0.155
-269.326	800.000	0.104	-0.290
-268.311	-62.713	-0.108	-0.045
-267.297	-200.000	0.004	-0.045
-266.282	-133.878	0.018	-0.002
-265.267	56.314	0.232	0.224
-264.253	-200.000	0.026	-0.247
-263.238	-200.000	0.070	-0.323
-262.224	-148.719	0.376	-0.030
-261.209	-8.187	-0.067	-0.045
-260.195	-63.930	-0.335	0.136
-259.180	306.663	-0.093	-0.173
-258.165	174.715	-0.091	-0.131
-257.151	153.836	0.051	0.070
-256.136	35.176	0.188	0.164
-255.122	-164.298	-0.111	-0.005
-254.107	86.819	0.019	-0.021
-253.092	-23.459	0.121	0.072
-252.078	386.724	-0.111	0.228
-251.063	107.097	-0.103	-0.121
-250.049	56.892	-0.086	0.083
-249.034	-38.369	0.178	-0.094
-248.019	-75.219	-0.226	0.080
-247.005	-113.245	0.251	0.049
-245.990	-14.061	0.226	0.145
-244.976	-200.000	-0.036	-0.269
-243.961	443.027	0.030	0.066
-242.946	800.000	0.004	0.017
-241.932	32.203	-0.228	-0.196
-240.917	9.575	-0.089	-0.067
-239.903	143.067	0.101	0.134
-238.888	-132.974	-0.052	0.007
-237.873	-61.299	-0.032	0.013
-236.859	272.424	0.156	-0.275
-235.844	262.760	0.123	-0.212
-234.830	-200.000	0.023	0.265
-233.815	573.013	-0.103	0.249
-232.800	-125.849	0.061	-0.009
-231.786	44.519	0.285	-0.260
-230.771	0.922	-0.207	-0.148
-229.757	-72.035	-0.094	0.035
-228.742	-200.000	-0.000	0.046
-227.727	299.866	-0.222	-0.407
-226.713	496.752	-0.051	0.117
-225.698	94.942	0.080	-0.090
-224.684	275.342	0.029	0.052
-223.669	278.992	-0.072	-0.127
-222.655	-162.235	0.207	-0.010
-221.640	-184.133	-0.378	-0.006
-220.625	800.000	0.051	0.188
-219.611	627.264	-0.137	-0.345
-218.596	-80.638	0.178	0.059
-217.582	359.596	0.078	0.155
-216.567	242.290	0.075	-0.125
-215.552	72.222	-0.045	-0.047
-214.538	536.380	-0.029	0.067
-213.523	-69.127	0.032	0.012
-212.509	800.000	0.084	0.245
-211.494	-27.460	0.198	0.115
-210.479	-16.967	0.226	-0.142
-209.465	110.821	0.219	-0.261
-208.450	800.000	0.109	-0.309
-207.436	13.076	0.121	-0.093
-206.421	-144.739	-0.370	0.034
-205.406	170.048	-0.079	0.113
-204.392	-12.003	-0.182	-0.118
-203.377	240.715	0.043	0.072
-202.363	319.712	-0.041	0.077
-201.348	-58.231	0.168	-0.073
-200.333	-142.159	-0.303	-0.030
-199.319	-200.000	0.036	0.227
-198.304	193.470	-0.147	0.220
-197.290	6.738	0.204	-0.151
-196.275	194.019	-0.139	-0.209
-195.260	-200.000	-0.019	0.339
-194.246	-91.455	-0.270	0.077
-193.231	-138.781	0.155	-0.017
-192.217	351.689	0.114	0.224
-191.202	800.000	0.062	0.265
-190.187	-10.724	0.300	-0.197
-189.173	-135.038	-0.052	0.006
-188.158	158.439	0.140	-0.192
-187.144	-78.846	-0.314	0.106
-186.129	-200.000	-0.024	-0.231
-185.114	225.431	-0.126	-0.202
-184.100	637.125	-0.043	-0.109
-183.085	-200.000	-0.017	0.242
-182.071	124.564	0.082	-0.102
-181.056	-45.723	-0.206	0.101
-180.042	357.160	-0.016	-0.032
-179.027	800.000	0.027	-0.095
-178.012	-35.393	-0.353	0.190
-176.998	229.767	0.066	-0.108
-175.983	800.000	-0.112	-0.319
-174.969	-170.949	-0.390	-0.013
-173.954	-102.797	0.113	-0.027
-172.939	-102.316	-0.062	-0.015
-171.925	-5.349	0.272	-0.186
-170.910	-200.000	0.013	-0.119
-169.896	219.498	-0.217	-0.344
-168.881	158.103	-0.222	0.305
-167.866	65.682	0.060	-0.060
-166.852	-19.843	-0.210	-0.129
-165.837	-162.799	0.174	0.008
-164.823	-93.743	-0.152	-0.042
-163.808	800.000	0.026	0.111
-162.793	-90.103	-0.048	-0.014
-161.779	-51.598	0.121	0.056
-160.764	422.448	0.136	-0.291
-159.750	119.199	-0.123	-0.150
-158.735	800.000	0.076	-0.300
-157.720	49.109	-0.063	0.059
-156.706	78.193	-0.025	-0.026
-155.691	74.421	-0.060	0.062
-154.677	-118.348	0.401	-0.071
-153.662	138.594	0.059	0.077
-152.647	-164.753	0.309	-0.014
-151.633	-53.119	0.371	0.169
-150.618	-153.607	0.124	-0.008
-149.604	-2.500	0.078	0.054
-148.589	-178.261	0.165	0.004
-147.574	-120.669	-0.116	-0.019
-146.560	152.803	0.258	0.350
-145.545	18.512	0.110	0.087
-144.531	301.258	-0.074	0.135
-143.516	313.027	0.134	-0.250
-142.502	-200.000	0.006	-0.228
-141.487	-200.000	0.009	-0.173
-140.472	800.000	-0.010	0.041
-139.458	-200.000	-0.008	0.279
-138.443	-12.556	0.103	-0.067
-137.429	148.177	-0.166	-0.223
-136.414	-51.195	-0.023	-0.011
-135.399	800.000	-0.053	0.166
-134.385	379.489	0.154	0.313
-133.370	800.000	-0.033	0.096
-132.356	-200.000	0.021	0.169
-131.341	209.576	0.061	-0.095
-130.326	35.326	0.300	0.261
-129.312	220.270	-0.044	0.070
-128.297	-200.000	-0.026	0.175
-127.283	36.890	0.101	-0.089
-126.268	-189.799	0.186	-0.002
-125.253	-72.101	0.219	-0.081
-124.239	-200.000	0.025	0.201
-123.224	-147.759	0.200	0.017
-122.210	-63.130	-0.020	-0.008
-121.195	-200.000	-0.016	-0.394
-120.180	-200.000	-0.001	0.242
