DTS Sentinel unit serial number:	SN413079Multiplexer serial number:	ORYXHardware model number:	OX4-SRSoftware version number:	ORYX F/W v4.00 Oryx Data Collector v3.7.2.0data status	okinstallation	princeton_trtdifferential loss correction	single-endedforward channel	channel 4reverse channel	N/Adate	2019/09/19time	15:33:35forward acquisition time	60.00reverse acquisition time	0.00gamma	496.2192k internal	0.2301k external	0.2301temperature offset calibration	1.0023default loss term (dB/km)	0.3790temperature slope calibration	1.0000multiplexer offset coefficient	1.0000multiplexer slope coefficient	1.0000fibre end	0.00T internal ref (°C)	34.19T ext. ref 1 (°C)	1.15T ext. ref 2 (°C)	31.67length (m)	temperature (°C)	Stokes	anti-Stokes-747.200	-200.000	-0.014	-0.295
-746.185	-200.000	0.022	0.180
-745.171	237.928	-0.067	-0.114
-744.156	70.600	-0.273	0.288
-743.142	-89.738	0.031	0.009
-742.127	307.641	-0.137	0.261
-741.112	-80.906	0.206	0.070
-740.098	800.000	-0.103	0.325
-739.083	9.917	-0.172	0.133
-738.069	-114.386	0.143	0.028
-737.054	1.663	0.348	-0.255
-736.039	-10.763	-0.265	0.178
-735.025	-82.483	0.118	-0.039
-734.010	318.963	0.259	-0.500
-732.996	-72.995	-0.341	-0.128
-731.981	6.457	-0.183	-0.139
-730.966	53.592	0.173	0.169
-729.952	203.641	-0.067	-0.106
-728.937	-200.000	-0.070	-0.319
-727.923	7.680	-0.119	-0.091
-726.908	800.000	0.070	0.231
-725.894	-61.107	-0.286	-0.123
-724.879	-139.612	0.110	-0.012
-723.864	-140.957	-0.223	0.023
-722.850	38.782	-0.165	-0.150
-721.835	-200.000	0.035	0.201
-720.821	93.660	-0.212	-0.244
-719.806	62.288	0.115	-0.117
-718.791	-11.426	-0.244	-0.163
-717.777	515.689	0.113	-0.268
-716.762	800.000	0.084	-0.372
-715.748	60.035	-0.181	0.182
-714.733	-94.308	-0.292	0.081
-713.718	-133.918	-0.246	-0.031
-712.704	226.974	-0.260	0.429
-711.689	95.410	-0.156	0.181
-710.675	-188.778	0.247	-0.003
-709.660	95.036	0.124	-0.144
-708.645	-82.501	-0.177	0.058
-707.631	-88.399	-0.237	-0.072
-706.616	119.827	-0.177	0.224
-705.602	-200.000	-0.033	0.257
-704.587	31.714	-0.364	0.319
-703.572	424.399	-0.046	-0.101
-702.558	-200.000	0.030	0.163
-701.543	-136.832	-0.352	-0.041
-700.529	261.119	-0.138	0.243
-699.514	-111.556	-0.637	0.132
-698.499	287.696	0.170	-0.314
-697.485	-200.000	0.017	0.082
-696.470	64.126	-0.137	0.140
-695.456	-200.000	0.002	-0.018
-694.441	88.861	-0.104	-0.118
-693.426	-134.146	-0.346	0.043
-692.412	-58.138	-0.276	-0.122
-691.397	156.383	0.071	-0.100
-690.383	74.093	0.132	0.141
-689.368	-47.149	-0.190	0.094
-688.354	95.216	0.222	-0.257
-687.339	-135.917	-0.390	-0.047
-686.324	-200.000	0.043	-0.226
-685.310	800.000	-0.087	-0.305
-684.295	582.251	0.018	0.046
-683.281	80.830	-0.082	-0.090
-682.266	-48.284	0.239	0.117
-681.251	227.310	-0.139	0.230
-680.237	269.597	0.091	0.163
-679.222	176.301	-0.060	-0.089
-678.208	77.400	-0.173	-0.187
-677.193	-200.000	0.013	0.318
-676.178	-121.109	-0.116	0.020
-675.164	-128.534	-0.324	0.047
-674.149	-130.487	-0.318	0.044
-673.135	103.607	0.288	-0.344
-672.120	135.304	-0.113	0.149
-671.105	114.450	-0.033	-0.041
-670.091	13.243	0.092	-0.073
-669.076	176.002	-0.259	-0.382
-668.062	12.961	-0.158	-0.124
-667.047	161.273	-0.202	-0.287
-666.032	-200.000	0.023	-0.224
-665.018	713.313	-0.070	-0.189
-664.003	10.538	-0.120	0.093
-662.989	113.812	0.303	-0.374
-661.974	-200.000	-0.040	-0.264
-660.959	-200.000	0.023	-0.136
-659.945	800.000	0.050	-0.179
-658.930	543.049	0.051	0.124
-657.916	-200.000	-0.018	0.254
-656.901	-39.226	-0.075	0.040
-655.886	-94.277	-0.149	-0.041
-654.872	800.000	0.042	-0.171
-653.857	555.801	0.122	0.298
-652.843	-57.200	-0.112	-0.050
-651.828	-85.791	0.472	-0.149
-650.814	-27.504	0.086	-0.051
-649.799	542.301	0.068	-0.165
-648.784	-84.861	-0.327	-0.104
-647.770	-16.723	0.072	-0.046
-646.755	-84.693	0.062	0.020
-645.741	-143.518	-0.159	-0.015
-644.726	484.354	-0.098	-0.226
-643.711	-61.044	-0.342	0.147
-642.697	-200.000	-0.022	-0.292
-641.682	83.145	0.090	-0.099
-640.668	-89.480	0.162	0.048
-639.653	16.446	-0.061	0.049
-638.638	-23.388	-0.290	-0.177
-637.624	-95.605	-0.165	-0.045
-636.609	-200.000	-0.008	-0.173
-635.595	800.000	-0.069	0.273
-634.580	161.657	-0.057	0.081
-633.565	351.295	0.160	0.321
-632.551	-25.930	0.295	-0.176
-631.536	800.000	0.053	-0.213
-630.522	-200.000	0.010	0.119
-629.507	800.000	-0.133	-0.446
-628.492	245.017	0.034	-0.058
-627.478	152.648	0.072	0.100
-626.463	-7.171	-0.353	-0.243
-625.449	-177.218	0.114	0.003
-624.434	74.546	0.124	-0.132
-623.419	-128.727	-0.193	0.028
-622.405	-18.778	-0.306	-0.194
-621.390	-200.000	-0.055	0.329
-620.376	-98.841	-0.147	-0.038
-619.361	-200.000	-0.071	0.000
-618.346	-43.316	0.055	0.028
-617.332	-21.882	-0.149	0.092
-616.317	-111.435	-0.137	0.028
-615.303	-89.017	0.265	-0.080
-614.288	-130.663	0.293	-0.040
-613.273	136.680	-0.137	0.181
-612.259	-200.000	0.060	0.289
-611.244	-4.135	0.272	-0.191
-610.230	-200.000	-0.021	-0.142
-609.215	22.022	-0.030	-0.024
-608.201	-137.199	-0.249	-0.029
-607.186	580.190	0.131	-0.326
-606.171	354.457	0.055	0.111
-605.157	-200.000	-0.017	0.258
-604.142	-200.000	0.003	0.216
-603.128	22.871	-0.136	0.113
-602.113	-13.301	-0.122	0.080
-601.098	203.806	-0.143	0.224
-600.084	313.399	-0.214	-0.409
-599.069	654.088	-0.050	-0.131
-598.055	-129.848	-0.179	0.025
-597.040	-95.251	0.058	0.016
-596.025	-200.000	0.017	-0.146
-595.011	-2.410	0.089	-0.064
-593.996	-107.844	0.198	-0.044
-592.982	4.505	-0.226	-0.168
-591.967	99.127	0.207	-0.243
-590.952	88.523	0.196	0.220
-589.938	-200.000	0.033	-0.256
-588.923	-56.160	0.324	0.146
-587.909	800.000	-0.030	-0.121
-586.894	-43.680	0.208	-0.106
-585.879	342.759	-0.151	0.299
-584.865	800.000	0.095	0.286
-583.850	-41.596	-0.040	0.021
-582.836	119.869	0.109	-0.137
-581.821	-177.149	0.448	0.011
-580.806	-200.000	-0.052	-0.294
-579.792	-200.000	0.020	-0.197
-578.777	-43.936	-0.200	0.102
-577.763	729.085	-0.116	0.315
-576.748	800.000	0.013	0.043
-575.733	800.000	0.072	0.319
-574.719	-200.000	0.009	0.091
-573.704	167.507	-0.183	0.263
-572.690	93.155	0.131	-0.150
-571.675	242.360	0.093	0.158
-570.661	-171.678	0.224	0.007
-569.646	77.620	-0.054	-0.058
-568.631	46.323	-0.147	0.138
-567.617	51.378	-0.097	0.093
-566.602	-54.767	-0.297	-0.136
-565.588	133.256	0.029	-0.038
-564.573	12.868	-0.137	-0.107
-563.558	6.717	-0.177	-0.133
-562.544	202.559	0.122	0.191
-561.529	-200.000	0.026	0.289
-560.515	-55.623	-0.196	-0.089
-559.500	-87.437	0.246	0.075
-558.485	-141.113	-0.112	-0.012
-557.471	306.083	0.134	0.252
-556.456	-74.611	0.341	-0.124
-555.442	-200.000	0.005	-0.258
-554.427	452.868	-0.087	-0.196
-553.412	-17.560	0.245	-0.156
-552.398	-36.584	0.096	-0.052
-551.383	350.323	-0.140	0.279
-550.369	78.616	-0.159	-0.172
-549.354	-129.254	0.152	-0.021
-548.339	-14.643	0.364	0.237
-547.325	125.058	-0.278	-0.354
-546.310	-55.742	0.147	0.067
-545.296	123.175	-0.044	-0.055
-544.281	-143.372	0.062	0.006
-543.266	-79.325	0.152	-0.052
-542.252	19.577	-0.117	0.095
-541.237	-200.000	0.061	0.446
-540.223	-75.527	0.117	0.042
-539.208	-115.292	0.103	0.020
-538.193	800.000	-0.073	0.217
-537.179	-200.000	0.005	-0.080
-536.164	4.698	0.110	-0.082
-535.150	-149.876	-0.219	-0.017
-534.135	-200.000	0.016	0.093
-533.121	354.813	-0.197	-0.395
-532.106	107.341	-0.114	0.137
-531.091	2.301	0.182	0.133
-530.077	-29.038	0.041	-0.024
-529.062	117.002	-0.108	-0.134
-528.048	104.674	-0.394	-0.469
-527.033	-87.815	0.155	0.047
-526.018	-16.758	0.178	-0.114
-525.004	145.528	0.065	-0.088
-523.989	641.500	0.092	-0.237
-522.975	800.000	0.044	0.151
-521.960	360.831	-0.176	-0.356
-520.945	80.622	0.215	0.234
-519.931	-200.000	-0.026	-0.118
-518.916	800.000	0.069	0.229
-517.902	-200.000	0.013	0.095
-516.887	-13.119	-0.176	0.116
-515.872	6.760	-0.112	-0.084
-514.858	-120.898	0.242	-0.041
-513.843	247.834	0.124	-0.212
-512.829	-66.850	-0.117	-0.047
-511.814	30.469	0.233	0.201
-510.799	383.910	0.080	-0.166
-509.785	130.975	-0.347	-0.450
-508.770	800.000	-0.061	0.243
-507.756	-66.566	-0.128	-0.051
-506.741	-107.383	-0.292	-0.065
-505.726	85.448	-0.071	-0.079
-504.712	-57.636	-0.074	0.033
-503.697	-200.000	0.001	-0.173
-502.683	-48.652	-0.222	0.108
-501.668	109.096	-0.188	-0.227
-500.653	444.149	-0.142	-0.314
-499.639	-147.710	-0.290	0.025
-498.624	800.000	0.035	-0.107
-497.610	-182.450	0.018	0.000
-496.595	-86.127	-0.067	0.021
-495.581	-200.000	0.007	0.112
-494.566	800.000	0.049	-0.148
-493.551	-176.385	-0.138	0.004
-492.537	-39.155	-0.230	-0.122
-491.522	264.407	0.220	-0.387
-490.508	49.781	0.092	-0.088
-489.493	-178.312	-0.199	-0.005
-488.478	97.453	-0.136	-0.158
-487.464	107.436	0.189	0.228
-486.449	-96.338	0.255	0.068
-485.435	65.023	-0.145	0.148
-484.420	-98.522	-0.194	0.050
-483.405	-144.114	-0.122	-0.012
-482.391	-77.502	-0.087	0.030
-481.376	23.736	0.226	-0.188
-480.362	-200.000	-0.037	0.000
-479.347	-198.861	-0.046	-0.000
-478.332	-200.000	-0.029	0.317
-477.318	-179.216	-0.167	0.004
-476.303	800.000	-0.049	0.147
-475.289	112.135	0.174	-0.213
-474.274	800.000	-0.014	-0.055
-473.259	44.036	-0.189	0.175
-472.245	716.537	0.126	0.338
-471.230	-174.115	-0.361	-0.011
-470.216	691.803	-0.101	-0.267
-469.201	-47.669	0.186	-0.091
-468.186	18.315	0.268	0.216
-467.172	-7.789	0.156	0.107
-466.157	88.760	0.085	-0.096
-465.143	175.370	0.154	0.225
-464.128	-75.058	-0.498	-0.180
-463.113	298.102	0.067	-0.125
-462.099	262.904	0.031	-0.055
-461.084	-140.693	0.306	0.032
-460.070	73.522	0.171	0.181
-459.055	127.056	-0.078	-0.100
-458.040	-40.686	0.035	0.018
-457.026	-30.707	-0.112	0.064
-456.011	-31.358	0.137	-0.078
-454.997	-49.815	-0.270	-0.129
-453.982	-200.000	0.029	-0.192
-452.968	98.969	-0.094	-0.109
-451.953	-11.758	-0.195	-0.129
-450.938	800.000	0.046	0.185
-449.924	136.907	-0.167	0.220
-448.909	88.459	0.179	0.200
-447.895	-66.940	0.145	0.058
-446.880	313.078	0.099	-0.187
-445.865	-200.000	-0.063	0.336
-444.851	-28.241	0.281	0.164
-443.836	-200.000	-0.023	0.490
-442.822	64.816	-0.072	0.073
-441.807	777.049	-0.039	0.108
-440.792	-103.287	-0.192	0.046
-439.778	80.435	0.223	-0.242
-438.763	384.548	0.069	0.143
-437.749	-97.241	-0.246	0.065
-436.734	-58.742	0.176	0.077
-435.719	180.147	-0.181	0.267
-434.705	342.922	0.090	0.178
-433.690	-200.000	0.033	-0.266
-432.676	800.000	0.043	-0.132
-431.661	350.331	-0.048	-0.096
-430.646	259.253	0.020	-0.036
-429.632	-102.440	-0.225	-0.054
-428.617	800.000	-0.060	-0.211
-427.603	-34.717	-0.065	0.036
-426.588	667.787	-0.046	-0.121
-425.573	558.223	0.064	0.156
-424.559	74.637	-0.193	0.205
-423.544	201.862	0.061	0.095
-422.530	245.125	0.231	-0.392
-421.515	-200.000	0.016	0.203
-420.500	235.507	0.065	-0.108
-419.486	-75.399	0.356	0.128
-418.471	-96.807	0.291	0.077
-417.457	207.858	0.030	-0.047
-416.442	-200.000	0.008	0.276
-415.428	8.972	-0.252	-0.192
-414.413	-28.148	-0.247	-0.144
-413.398	-88.162	0.448	-0.135
-412.384	-98.590	-0.239	0.062
-411.369	37.486	0.045	0.040
-410.355	30.319	-0.176	0.152
-409.340	0.575	-0.296	-0.213
-408.325	14.742	-0.123	0.097
-407.311	255.141	-0.165	0.285
-406.296	-29.033	0.327	0.189
-405.282	-23.172	0.138	-0.084
-404.267	17.164	-0.102	-0.081
-403.252	-200.000	-0.001	-0.162
-402.238	-141.456	0.204	-0.021
-401.223	-200.000	-0.020	-0.181
-400.209	-106.465	0.143	-0.032
-399.194	163.853	-0.288	-0.408
-398.179	127.706	-0.216	-0.276
-397.165	343.737	0.067	-0.132
-396.150	800.000	0.090	0.314
-395.136	-30.470	0.337	-0.192
-394.121	49.922	-0.251	0.238
-393.106	320.280	-0.097	-0.185
-392.092	128.360	-0.114	-0.145
-391.077	-200.000	-0.039	-0.201
-390.063	66.288	-0.081	-0.082
-389.048	-17.438	0.178	-0.112
-388.033	-30.328	0.031	-0.018
-387.019	662.303	0.152	-0.394
-386.004	-200.000	0.008	-0.238
-384.990	-200.000	-0.064	-0.403
-383.975	-0.087	0.131	-0.094
-382.960	-28.720	-0.205	0.119
-381.946	74.543	0.137	-0.145
-380.931	-117.468	-0.131	0.024
-379.917	-200.000	-0.008	0.105
-378.902	399.384	-0.151	0.317
-377.888	-48.947	0.091	-0.044
-376.873	-90.142	0.291	-0.085
-375.858	39.833	-0.170	0.153
-374.844	370.619	-0.114	0.232
-373.829	140.092	0.097	-0.128
-372.815	263.752	0.136	-0.238
-371.800	-55.984	0.118	-0.053
-370.785	315.047	0.166	0.314
-369.771	-145.139	-0.393	0.036
-368.756	-76.800	-0.127	-0.045
-367.742	-30.748	0.175	0.100
-366.727	166.613	-0.342	0.488
-365.712	-200.000	-0.036	0.322
-364.698	-57.834	0.177	0.078
-363.683	-100.789	0.096	0.024
-362.669	125.743	-0.164	0.207
-361.654	800.000	-0.071	0.294
-360.639	-200.000	-0.005	0.194
-359.625	15.639	-0.203	0.160
-358.610	26.648	-0.204	-0.171
-357.596	800.000	-0.068	0.210
-356.581	-56.447	0.270	-0.120
-355.566	-129.423	-0.315	-0.044
-354.552	74.978	0.131	-0.138
-353.537	92.071	0.134	-0.151
-352.523	-144.758	0.297	-0.027
-351.508	-106.245	0.285	0.064
-350.493	-27.743	-0.114	-0.066
-349.479	-159.722	0.245	0.014
-348.464	-8.429	-0.218	-0.147
-347.450	574.277	-0.098	-0.241
-346.435	23.430	0.194	0.160
-345.420	-41.377	-0.394	0.204
-344.406	-197.584	-0.126	0.001
-343.391	82.703	-0.197	-0.215
-342.377	675.762	-0.048	0.125
-341.362	-200.000	0.047	0.291
-340.348	-34.516	0.226	0.124
-339.333	-200.000	0.009	-0.120
-338.318	800.000	-0.006	-0.018
-337.304	-200.000	-0.026	-0.257
-336.289	-200.000	-0.008	-0.378
-335.275	-55.865	-0.168	-0.075
-334.260	301.089	-0.070	0.130
-333.245	109.262	0.177	0.213
-332.231	147.468	0.112	0.152
-331.216	446.301	0.161	-0.355
-330.202	211.817	0.245	-0.387
-329.187	52.113	0.370	-0.353
-328.172	84.424	-0.242	0.266
-327.158	415.861	-0.064	0.137
-326.143	262.183	0.136	-0.237
-325.129	158.941	0.128	0.179
-324.114	-97.348	0.080	0.021
-323.099	332.065	0.089	0.173
-322.085	800.000	0.026	0.095
-321.070	-46.081	0.195	0.096
-320.056	222.499	-0.136	-0.219
-319.041	-71.141	-0.287	-0.108
-318.026	784.949	0.186	0.511
-317.012	800.000	-0.031	-0.090
-315.997	-200.000	-0.022	-0.172
-314.983	105.390	-0.158	-0.187
-313.968	208.217	-0.036	0.057
-312.953	43.073	-0.296	0.270
-311.939	-19.530	-0.281	0.175
-310.924	-119.228	-0.173	-0.030
-309.910	-33.513	0.135	0.075
-308.895	379.387	-0.117	0.241
-307.880	-173.438	-0.099	0.003
-306.866	-70.289	-0.054	0.021
-305.851	-116.994	0.452	-0.083
-304.837	-103.473	0.377	-0.089
-303.822	-111.953	0.116	0.023
-302.807	-7.321	0.144	-0.098
-301.793	66.472	-0.111	0.113
-300.778	-111.024	0.112	-0.023
-299.764	-30.746	0.020	0.011
-298.749	-200.000	0.059	-0.333
-297.735	-112.615	-0.213	0.043
-296.720	58.463	-0.051	0.050
-295.705	382.525	-0.048	-0.098
-294.691	34.486	0.243	0.213
-293.676	-185.547	0.246	0.004
-292.662	-103.494	0.005	0.001
-291.647	197.438	0.064	-0.098
-290.632	123.674	0.070	-0.088
-289.618	27.198	-0.190	-0.160
-288.603	-197.361	0.040	-0.000
-287.589	-170.107	-0.114	0.004
-286.574	-52.482	-0.265	-0.123
-285.559	-200.000	0.074	-0.342
-284.545	141.130	-0.259	-0.343
-283.530	-138.014	-0.212	0.024
-282.516	64.651	0.199	0.201
-281.501	800.000	0.085	0.302
-280.486	254.085	-0.062	-0.106
-279.472	-7.502	0.026	-0.018
-278.457	-200.000	0.027	0.506
-277.443	653.929	0.133	0.341
-276.428	153.823	0.045	-0.062
-275.413	761.749	-0.040	-0.109
-274.399	-200.000	0.011	0.052
-273.384	800.000	0.087	0.341
-272.370	15.136	0.186	0.146
-271.355	184.869	0.180	0.267
-270.340	-2.438	0.034	0.024
-269.326	320.775	-0.162	-0.308
-268.311	274.048	-0.083	0.147
-267.297	-159.823	-0.117	0.006
-266.282	188.010	-0.086	0.129
-265.267	-88.525	0.141	-0.042
-264.253	98.907	-0.079	0.091
-263.238	61.684	-0.136	-0.136
-262.224	27.141	-0.461	-0.387
-261.209	44.883	-0.009	-0.008
-260.195	-61.466	0.328	0.138
-259.180	-200.000	-0.019	0.256
-258.165	-200.000	-0.025	0.442
-257.151	468.413	0.065	0.145
-256.136	-111.744	0.074	0.015
-255.122	-101.639	-0.296	-0.072
-254.107	-200.000	-0.031	0.206
-253.092	-166.218	-0.210	-0.009
-252.078	-69.182	0.241	0.093
-251.063	36.792	0.097	-0.086
-250.049	-75.169	0.115	-0.041
-249.034	351.516	-0.047	0.094
-248.019	-200.000	0.007	0.031
-247.005	-143.360	0.141	0.014
-245.990	-73.281	-0.110	0.040
-244.976	-200.000	-0.033	0.184
-243.961	26.115	0.114	0.095
-242.946	-75.811	0.162	0.057
-241.932	269.204	-0.113	0.199
-240.917	-125.060	0.116	-0.018
-239.903	431.606	0.073	0.157
-238.888	111.051	0.126	0.152
-237.873	28.530	-0.113	-0.095
-236.859	535.676	0.072	0.170
-235.844	-81.443	0.256	-0.084
-234.830	203.061	-0.151	-0.234
-233.815	621.657	-0.021	0.052
-232.800	514.788	0.146	-0.341
-231.786	-200.000	0.030	-0.204
-230.771	-200.000	-0.015	0.223
-229.757	-85.128	-0.147	-0.046
-228.742	316.561	0.054	0.103
-227.727	-78.945	-0.297	0.101
-226.713	-91.372	0.259	-0.074
-225.698	800.000	-0.043	0.160
-224.684	-22.343	-0.173	0.105
-223.669	201.180	0.086	0.132
-222.655	-123.699	-0.366	-0.058
-221.640	113.669	-0.284	-0.345
-220.625	176.919	-0.074	-0.107
-219.611	-200.000	0.039	0.190
-218.596	-142.603	0.171	-0.017
-217.582	-200.000	0.040	0.200
-216.567	-200.000	0.045	-0.211
-215.552	-98.557	0.383	0.098
-214.538	7.101	-0.309	-0.231
-213.523	322.552	0.100	0.190
-212.509	-61.806	-0.214	-0.089
-211.494	161.048	-0.132	-0.184
-210.479	641.264	-0.085	-0.215
-209.465	-200.000	-0.048	0.331
-208.450	308.533	-0.180	0.335
-207.436	800.000	-0.039	0.108
-206.421	23.488	0.125	-0.103
-205.406	-19.832	0.191	-0.118
-204.392	-74.940	-0.139	-0.050
-203.377	-200.000	-0.002	0.186
-202.363	-105.561	0.293	-0.066
-201.348	145.315	-0.115	-0.153
-200.333	-200.000	0.171	-0.000
-199.319	404.512	0.021	0.044
-198.304	-200.000	0.021	0.123
-197.290	-190.915	0.174	0.002
-196.275	11.213	0.153	-0.117
-195.260	-200.000	0.002	-0.028
-194.246	289.276	0.050	-0.090
-193.231	210.270	0.275	-0.431
-192.217	-20.334	0.049	-0.030
-191.202	-118.828	-0.144	-0.025
-190.187	-5.348	-0.228	-0.156
-189.173	-164.337	0.314	-0.014
-188.158	13.270	-0.191	0.148
-187.144	-14.894	-0.301	-0.193
-186.129	-122.207	0.148	0.024
-185.114	115.324	-0.102	-0.125
-184.100	-200.000	0.030	-0.310
-183.085	-112.339	-0.304	0.061
-182.071	-200.000	-0.076	-0.377
-181.056	117.960	0.125	-0.154
-180.042	-121.826	0.289	0.048
-179.027	73.350	-0.155	-0.162
-178.012	8.278	0.147	0.110
-176.998	16.187	0.219	-0.172
-175.983	109.606	0.216	0.258
-174.969	-200.000	0.022	0.145
-173.954	-79.178	0.382	0.129
-172.939	-113.275	0.125	0.025
-171.925	-48.994	-0.075	-0.036
-170.910	117.879	0.125	-0.154
-169.896	-200.000	-0.096	0.451
-168.881	-63.264	-0.158	0.065
-167.866	-76.440	-0.363	0.127
-166.852	-55.414	0.163	-0.073
-165.837	57.347	-0.297	-0.289
-164.823	-157.096	0.184	0.011
-163.808	166.940	-0.118	0.167
-162.793	46.608	-0.196	0.182
-161.779	-26.315	0.477	0.279
-160.764	800.000	-0.109	0.365
-159.750	-124.602	-0.140	-0.022
-158.735	-135.111	-0.152	-0.018
-157.720	54.751	0.241	0.231
-156.706	-19.123	0.158	-0.098
-155.691	43.094	0.108	-0.098
-154.677	800.000	0.042	-0.115
-153.662	107.636	0.388	0.460
-152.647	-117.473	0.226	-0.041
-151.633	-13.902	0.226	-0.145
-150.618	212.166	0.173	0.272
-149.604	426.115	-0.075	0.162
-148.589	-39.808	0.342	0.178
-147.574	98.102	0.112	0.128
-146.560	-85.703	-0.197	0.061
-145.545	-125.125	-0.062	-0.009
-144.531	737.931	0.115	-0.307
-143.516	-59.444	0.158	-0.068
-142.502	800.000	0.111	0.326
-141.487	800.000	-0.059	-0.214
-140.472	358.243	0.171	-0.340
-139.458	103.215	-0.141	0.165
-138.443	800.000	-0.119	0.468
-137.429	69.040	0.153	-0.156
-136.414	-91.524	-0.207	-0.059
-135.399	-33.100	0.155	0.086
-134.385	10.077	-0.139	-0.105
-133.370	-145.331	-0.332	-0.030
-132.356	-193.984	0.031	-0.000
-131.341	-27.122	0.185	0.108
-130.326	-27.700	0.177	0.102
-129.312	-58.156	0.254	0.110
-128.297	-87.679	-0.322	-0.097
-127.283	24.950	0.023	0.019
-126.268	800.000	-0.052	-0.158
-125.253	-46.121	-0.104	-0.051
-124.239	68.403	-0.153	-0.156
-123.224	-91.739	-0.134	0.038
-122.210	36.649	0.150	-0.132
-121.195	606.340	-0.030	0.073
