DTS Sentinel unit serial number:	SN413079Multiplexer serial number:	ORYXHardware model number:	OX4-SRSoftware version number:	ORYX F/W v4.00 Oryx Data Collector v3.7.2.0data status	okinstallation	princeton_trtdifferential loss correction	single-endedforward channel	channel 4reverse channel	N/Adate	2019/09/18time	04:53:34forward acquisition time	60.00reverse acquisition time	0.00gamma	496.2192k internal	0.2332k external	0.2332temperature offset calibration	0.9992default loss term (dB/km)	0.3790temperature slope calibration	1.0000multiplexer offset coefficient	1.0000multiplexer slope coefficient	1.0000fibre end	0.00T internal ref (°C)	23.50T ext. ref 1 (°C)	0.19T ext. ref 2 (°C)	17.95length (m)	temperature (°C)	Stokes	anti-Stokes-747.200	800.000	-0.058	-0.168
-746.185	65.296	-0.175	0.178
-745.171	-97.825	-0.231	-0.060
-744.156	-142.292	-0.158	0.016
-743.142	800.000	-0.113	-0.318
-742.127	564.418	-0.100	0.243
-741.112	-200.000	0.021	-0.247
-740.098	-91.800	-0.446	-0.127
-739.083	95.692	-0.202	0.231
-738.069	-153.476	-0.183	0.013
-737.054	-200.000	-0.030	-0.358
-736.039	-36.246	-0.177	0.096
-735.025	146.953	0.137	0.185
-734.010	-128.225	-0.291	0.042
-732.996	-44.699	0.024	-0.012
-731.981	134.585	0.112	-0.147
-730.966	800.000	-0.035	0.147
-729.952	-4.490	-0.189	0.131
-728.937	-33.923	-0.260	-0.144
-727.923	-65.721	-0.232	-0.094
-726.908	29.137	-0.161	0.138
-725.894	-48.203	-0.326	-0.158
-724.879	-61.387	-0.056	0.024
-723.864	-93.562	-0.470	-0.131
-722.850	-0.083	-0.155	-0.111
-721.835	-200.000	0.027	-0.125
-720.821	-200.000	-0.016	-0.536
-719.806	-118.214	-0.245	0.044
-718.791	800.000	-0.091	-0.391
-717.777	127.820	-0.221	-0.283
-716.762	-96.590	0.237	0.063
-715.748	-115.081	-0.229	0.044
-714.733	32.512	0.073	0.064
-713.718	800.000	-0.028	0.079
-712.704	-178.351	0.158	0.004
-711.689	-78.019	0.137	-0.048
-710.675	67.992	-0.096	0.099
-709.660	-85.200	0.237	-0.075
-708.645	105.280	0.284	-0.337
-707.631	125.756	-0.139	-0.176
-706.616	-157.922	-0.305	0.018
-705.602	-178.477	-0.402	0.009
-704.587	-200.000	0.030	0.289
-703.572	-97.495	-0.142	0.037
-702.558	-84.835	0.109	0.034
-701.543	-44.722	-0.162	0.081
-700.529	543.249	0.050	-0.119
-699.514	-200.000	0.007	-0.173
-698.499	28.047	-0.162	-0.137
-697.485	-200.000	0.037	-0.289
-696.470	-124.716	-0.283	0.044
-695.456	-0.425	-0.194	-0.139
-694.441	447.263	0.057	-0.126
-693.426	-115.540	0.164	-0.031
-692.412	-149.602	0.217	0.017
-691.397	71.618	-0.071	0.074
-690.383	312.674	0.111	-0.209
-689.368	-127.086	0.243	0.036
-688.354	-200.000	0.020	-0.104
-687.339	16.264	-0.177	-0.140
-686.324	-98.113	-0.089	-0.023
-685.310	33.210	0.063	-0.055
-684.295	-65.662	-0.211	-0.085
-683.281	373.100	-0.090	-0.184
-682.266	-200.000	-0.011	-0.073
-681.251	693.017	-0.040	-0.104
-680.237	800.000	-0.116	-0.461
-679.222	603.985	-0.051	-0.129
-678.208	-26.708	-0.030	0.018
-677.193	800.000	-0.054	0.169
-676.178	248.774	0.105	0.179
-675.164	173.003	-0.221	0.320
-674.149	680.465	0.007	-0.019
-673.135	267.478	-0.165	-0.290
-672.120	-200.000	0.024	0.124
-671.105	36.003	0.077	-0.068
-670.091	-3.681	0.098	-0.068
-669.076	-10.166	-0.401	0.267
-668.062	-140.029	-0.339	0.036
-667.047	181.140	-0.098	-0.144
-666.032	-178.646	0.168	0.004
-665.018	102.961	-0.061	0.071
-664.003	292.575	-0.106	-0.193
-662.989	-18.110	-0.231	-0.145
-661.974	-144.288	-0.385	-0.036
-660.959	-200.000	-0.014	-0.380
-659.945	28.398	-0.108	0.091
-658.930	262.542	-0.067	-0.117
-657.916	-62.601	-0.137	0.057
-656.901	800.000	0.064	-0.184
-655.886	47.259	-0.123	-0.115
-654.872	370.872	0.142	-0.288
-653.857	-200.000	-0.002	-0.247
-652.843	-164.332	-0.238	-0.011
-651.828	-200.000	0.000	0.068
-650.814	-45.627	0.153	0.076
-649.799	-45.796	-0.104	0.051
-648.784	9.983	-0.097	0.074
-647.770	369.345	-0.115	-0.233
-646.755	-95.807	-0.322	-0.086
-645.741	-99.920	0.151	-0.038
-644.726	272.224	0.100	-0.176
-643.711	92.347	0.218	-0.246
-642.697	289.189	0.198	0.359
-641.682	-200.000	0.005	-0.177
-640.668	800.000	0.051	-0.155
-639.653	-27.199	0.156	-0.091
-638.638	-56.036	-0.368	-0.164
-637.624	74.122	-0.181	-0.190
-636.609	-59.708	0.242	0.104
-635.595	187.240	0.146	-0.219
-634.580	82.339	0.107	0.116
-633.565	-139.330	-0.120	0.013
-632.551	800.000	0.054	-0.154
-631.536	5.625	0.152	0.113
-630.522	-10.159	-0.108	0.072
-629.507	-200.000	0.013	0.091
-628.492	107.124	-0.135	0.161
-627.478	-200.000	0.016	0.239
-626.463	195.873	-0.143	-0.218
-625.449	800.000	0.047	0.208
-624.434	-105.642	0.156	0.035
-623.419	617.128	0.178	0.447
-622.405	48.700	-0.155	-0.145
-621.390	-142.714	-0.184	0.018
-620.376	274.508	-0.059	0.105
-619.361	69.584	-0.238	0.245
-618.346	306.937	-0.143	-0.266
-617.332	85.916	0.270	0.297
-616.317	-87.425	0.092	-0.028
-615.303	800.000	0.055	0.182
-614.288	-22.128	-0.116	-0.070
-613.273	-131.481	-0.477	-0.063
-612.259	424.253	-0.066	-0.142
-611.244	-200.000	0.000	-0.448
-610.230	-22.288	0.289	-0.175
-609.215	-105.523	0.119	-0.027
-608.201	-71.243	-0.240	-0.090
-607.186	-21.230	0.109	-0.067
-606.171	-200.000	0.005	0.242
-605.157	-78.280	0.316	-0.108
-604.142	445.028	-0.022	-0.048
-603.128	-111.916	0.002	0.000
-602.113	197.940	-0.148	-0.227
-601.098	161.129	-0.175	0.244
-600.084	51.580	0.056	0.053
-599.069	-85.198	-0.356	-0.111
-598.055	446.325	0.049	-0.107
-597.040	528.920	0.203	-0.480
-596.025	800.000	-0.071	-0.217
-595.011	325.977	-0.022	0.042
-593.996	-168.850	-0.283	-0.011
-592.982	-31.932	0.176	-0.098
-591.967	4.200	0.179	-0.131
-590.952	800.000	-0.026	0.103
-589.938	-122.264	-0.047	0.008
-588.923	-71.278	-0.236	0.088
-587.909	84.302	-0.205	-0.225
-586.894	-200.000	-0.007	-0.321
-585.879	800.000	0.062	-0.236
-584.865	-76.988	-0.128	-0.045
-583.850	-58.957	0.111	-0.048
-582.836	-26.166	-0.095	0.056
-581.821	800.000	0.082	0.253
-580.806	-200.000	0.001	-0.255
-579.792	12.089	0.123	-0.095
-578.777	-55.356	-0.189	0.085
-577.763	-89.724	-0.184	0.054
-576.748	-200.000	-0.036	-0.215
-575.733	-160.063	-0.163	-0.009
-574.719	173.934	-0.134	-0.194
-573.704	105.371	0.068	-0.080
-572.690	800.000	-0.042	-0.142
-571.675	61.207	-0.168	0.167
-570.661	154.832	-0.076	0.105
-569.646	66.810	-0.140	-0.143
-568.631	-155.828	0.163	0.010
-567.617	23.261	-0.068	-0.056
-566.602	145.277	0.135	-0.180
-565.588	800.000	-0.115	0.485
-564.573	90.781	-0.145	0.163
-563.558	338.085	0.015	0.030
-562.544	-124.190	0.188	-0.029
-561.529	268.729	-0.132	0.232
-560.515	139.885	0.203	-0.267
-559.500	-76.281	0.503	-0.177
-558.485	-50.641	-0.130	0.061
-557.471	-90.795	0.276	-0.079
-556.456	60.094	0.141	0.139
-555.442	-118.137	-0.290	-0.052
-554.427	-156.523	-0.339	0.021
-553.412	3.896	-0.127	0.093
-552.398	800.000	-0.055	0.211
-551.383	-138.388	-0.108	0.012
-550.369	1.666	0.085	0.061
-549.354	-200.000	-0.035	-0.179
-548.339	84.598	-0.233	-0.255
-547.325	326.740	0.275	-0.526
-546.310	-103.752	-0.170	0.040
-545.296	-200.000	-0.015	-0.216
-544.281	-200.000	0.076	0.358
-543.266	30.668	-0.241	-0.206
-542.252	729.271	-0.024	0.063
-541.237	-128.082	0.144	-0.021
-540.223	-71.557	0.304	-0.113
-539.208	332.440	-0.021	-0.040
-538.193	-160.851	0.138	0.007
-537.179	35.305	0.072	0.063
-536.164	-9.878	-0.102	0.068
-535.150	-85.767	0.088	-0.027
-534.135	723.910	0.128	-0.340
-533.121	-200.000	-0.025	-0.334
-532.106	35.393	-0.353	0.309
-531.091	-92.575	0.069	0.019
-530.077	57.961	-0.108	-0.105
-529.062	-59.723	0.139	-0.059
-528.048	20.144	0.133	-0.107
-527.033	800.000	-0.091	-0.284
-526.018	-96.629	-0.288	-0.076
-525.004	-135.013	0.307	0.037
-523.989	-96.721	-0.276	-0.072
-522.975	-200.000	0.029	0.273
-521.960	21.521	-0.082	-0.067
-520.945	-135.536	0.190	-0.022
-519.931	-67.388	-0.219	-0.086
-518.916	201.775	0.077	0.119
-517.902	-39.263	0.177	-0.093
-516.887	-200.000	0.030	-0.258
-515.872	102.500	-0.091	-0.106
-514.858	-74.327	0.380	0.137
-513.843	-137.443	-0.489	-0.055
-512.829	-200.000	-0.030	-0.209
-511.814	800.000	-0.079	0.320
-510.799	-42.886	-0.363	0.184
-509.785	800.000	0.081	0.281
-508.770	-20.523	-0.114	0.070
-507.756	28.150	-0.141	0.119
-506.741	24.084	0.259	0.213
-505.726	800.000	0.083	0.312
-504.712	124.999	0.221	-0.277
-503.697	-200.000	-0.002	-0.334
-502.683	-162.303	0.311	0.015
-501.668	-123.994	-0.384	-0.060
-500.653	-40.569	-0.126	-0.065
-499.639	-110.227	0.355	0.074
-498.624	612.927	-0.072	-0.180
-497.610	-80.258	0.113	0.038
-496.595	-8.940	0.217	0.145
-495.581	-140.198	0.276	-0.029
-494.566	-200.000	0.020	0.156
-493.551	169.229	-0.150	-0.213
-492.537	-66.646	0.145	-0.057
-491.522	-47.678	0.126	-0.061
-490.508	431.619	0.084	0.182
-489.493	229.222	-0.033	-0.053
-488.478	65.781	0.128	-0.129
-487.464	36.458	0.274	-0.241
-486.449	280.620	0.164	0.292
-485.435	-200.000	0.060	0.271
-484.420	29.944	0.185	-0.157
-483.405	-2.175	0.172	0.120
-482.391	257.947	-0.009	-0.016
-481.376	287.467	-0.018	-0.033
-480.362	-116.526	0.229	0.042
-479.347	-35.932	0.429	0.231
-478.332	-37.334	-0.271	0.144
-477.318	4.123	-0.165	0.121
-476.303	377.744	0.107	-0.219
-475.289	436.899	-0.035	-0.077
-474.274	379.959	-0.076	-0.156
-473.259	-200.000	-0.034	-0.196
-472.245	800.000	-0.071	-0.257
-471.230	-62.994	0.130	0.054
-470.216	-161.861	-0.438	0.022
-469.201	-115.973	-0.196	-0.036
-468.186	677.732	-0.102	-0.264
-467.172	-160.505	0.137	0.007
-466.157	-49.859	-0.332	-0.157
-465.143	-70.436	-0.308	-0.116
-464.128	-41.459	0.159	-0.081
-463.113	167.253	0.057	-0.080
-462.099	800.000	0.021	-0.086
-461.084	383.389	0.160	-0.328
-460.070	233.191	0.053	-0.086
-459.055	347.794	-0.085	0.166
-458.040	292.054	-0.067	0.121
-457.026	800.000	-0.036	0.117
-456.011	19.423	-0.104	0.083
-454.997	-100.732	-0.231	-0.057
-453.982	800.000	-0.057	0.177
-452.968	-154.736	0.393	-0.026
-451.953	-94.173	-0.488	0.133
-450.938	-200.000	-0.004	0.212
-449.924	-143.222	0.113	0.011
-448.909	-200.000	-0.005	-0.063
-447.895	-55.246	0.123	-0.055
-446.880	-40.625	-0.166	0.086
-445.865	45.480	0.075	0.069
-444.851	-136.961	-0.256	-0.029
-443.836	55.667	0.200	0.192
-442.822	800.000	0.026	-0.073
-441.807	800.000	0.086	-0.241
-440.792	367.540	0.028	-0.057
-439.778	-200.000	-0.032	0.467
-438.763	415.089	0.146	0.310
-437.749	142.469	0.128	0.169
-436.734	-68.697	0.322	0.124
-435.719	372.911	-0.013	-0.027
-434.705	-166.327	-0.191	-0.008
-433.690	-36.793	-0.181	0.096
-432.676	-200.000	0.048	0.255
-431.661	20.090	0.173	-0.139
-430.646	6.873	-0.126	0.093
-429.632	369.315	0.035	-0.070
-428.617	354.398	-0.145	0.286
-427.603	-74.282	-0.184	-0.066
-426.588	-55.474	0.284	0.127
-425.573	-30.607	0.221	-0.124
-424.559	-200.000	-0.010	0.133
-423.544	-71.495	0.120	-0.044
-422.530	7.324	-0.281	-0.209
-421.515	-98.963	-0.116	-0.029
-420.500	-200.000	-0.033	0.208
-419.486	113.584	-0.183	0.221
-418.471	-97.971	-0.119	-0.031
-417.457	6.416	0.190	0.140
-416.442	761.455	0.053	0.143
-415.428	21.271	-0.093	0.075
-414.413	800.000	0.037	-0.123
-413.398	-86.951	0.269	0.082
-412.384	24.703	0.243	0.200
-411.369	-98.683	-0.078	-0.020
-410.355	-100.272	0.082	-0.020
-409.340	-151.678	-0.081	0.006
-408.325	3.778	-0.091	0.066
-407.311	-13.462	-0.152	-0.098
-406.296	103.934	0.263	-0.306
-405.282	-200.000	0.008	-0.123
-404.267	800.000	-0.028	-0.098
-403.252	6.328	-0.211	0.155
-402.238	-200.000	-0.053	0.266
-401.223	-8.896	-0.245	0.163
-400.209	22.286	-0.077	-0.062
-399.194	173.533	0.161	0.230
-398.179	-117.248	-0.164	0.030
-397.165	-170.666	-0.250	-0.009
-396.150	-200.000	0.028	-0.204
-395.136	114.427	0.056	-0.068
-394.121	606.989	-0.134	0.331
-393.106	-115.824	0.223	0.041
-392.092	-19.129	0.425	0.262
-391.077	504.406	0.037	-0.086
-390.063	127.477	-0.071	0.090
-389.048	376.072	-0.102	-0.206
-388.033	-25.718	0.200	-0.117
-387.019	132.995	-0.116	-0.149
-386.004	213.537	-0.062	-0.098
-384.990	-62.319	0.149	-0.062
-383.975	-101.192	-0.063	0.015
-382.960	-200.000	0.065	0.292
-381.946	136.274	-0.165	0.214
-380.931	49.859	-0.275	0.258
-379.917	-119.562	-0.274	-0.047
-378.902	270.991	-0.105	0.184
-377.888	78.570	-0.124	0.131
-376.873	98.460	0.119	0.136
-375.858	206.457	-0.168	-0.260
-374.844	-116.344	-0.116	-0.021
-373.829	800.000	-0.077	-0.248
-372.815	-200.000	-0.042	0.234
-371.800	-200.000	-0.087	0.382
-370.785	-200.000	0.007	0.225
-369.771	-200.000	0.003	0.159
-368.756	-200.000	-0.039	0.209
-367.742	317.209	0.076	0.142
-366.727	42.727	-0.024	-0.022
-365.712	-89.649	-0.228	-0.066
-364.698	93.173	0.181	0.203
-363.683	-200.000	0.039	0.262
-362.669	-58.035	0.064	0.028
-361.654	68.815	0.157	-0.160
-360.639	-200.000	-0.003	0.204
-359.625	-200.000	-0.045	-0.226
-358.610	-200.000	0.056	-0.285
-357.596	-132.994	-0.234	0.030
-356.581	-66.159	0.236	0.093
-355.566	85.245	0.137	0.149
-354.552	718.864	-0.165	-0.433
-353.537	62.471	-0.246	-0.243
-352.523	-200.000	-0.020	0.233
-351.508	-200.000	0.003	0.016
-350.493	-86.433	0.173	-0.053
-349.479	104.622	-0.186	0.217
-348.464	-67.871	0.165	0.064
-347.450	-143.096	0.245	0.023
-346.435	190.345	-0.030	0.045
-345.420	5.358	0.140	-0.102
-344.406	-200.000	0.006	-0.100
-343.391	274.548	0.125	-0.219
-342.377	-200.000	0.105	-0.000
-341.362	0.116	-0.171	-0.121
-340.348	-73.847	-0.120	0.043
-339.333	645.804	0.031	0.079
-338.318	800.000	0.078	0.264
-337.304	-16.392	0.068	0.043
-336.289	-144.514	0.168	-0.015
-335.275	186.126	0.143	0.210
-334.260	-200.000	-0.012	0.327
-333.245	196.757	0.168	0.253
-332.231	340.731	0.099	0.192
-331.216	86.188	-0.068	0.074
-330.202	-200.000	0.009	-0.100
-329.187	-1.281	-0.198	-0.138
-328.172	800.000	-0.048	-0.190
-327.158	-200.000	0.059	0.315
-326.143	146.393	0.235	0.313
-325.129	421.336	-0.111	0.235
-324.114	383.988	-0.036	0.074
-323.099	-139.330	0.559	0.059
-322.085	-50.718	-0.232	-0.108
-321.070	-200.000	-0.046	-0.205
-320.056	23.962	-0.307	-0.250
-319.041	800.000	-0.065	0.207
-318.026	97.382	-0.181	0.206
-317.012	8.421	0.244	0.182
-315.997	258.513	-0.072	0.122
-314.983	23.775	0.196	-0.160
-313.968	800.000	-0.021	-0.084
-312.953	-16.732	0.069	-0.043
-311.939	-45.674	-0.235	-0.115
-310.924	-112.321	0.232	-0.046
-309.910	-200.000	0.054	0.374
-308.895	167.786	-0.108	-0.152
-307.880	-29.604	0.133	-0.075
-306.866	-200.000	-0.019	0.273
-305.851	1.027	0.176	-0.125
-304.837	420.698	0.101	0.215
-303.822	357.417	-0.088	-0.173
-302.807	-55.963	-0.245	0.108
-301.793	-64.170	0.300	-0.121
-300.778	-200.000	0.050	0.560
-299.764	-200.000	-0.060	-0.280
-298.749	272.619	0.103	0.180
-297.735	-118.425	-0.302	-0.053
-296.720	800.000	-0.050	-0.163
-295.705	-77.199	0.270	-0.093
-294.691	-29.950	0.223	-0.126
-293.676	-69.103	0.276	-0.105
-292.662	188.129	-0.115	0.169
-291.647	-14.365	0.231	-0.147
-290.632	137.661	0.116	-0.150
-289.618	-151.324	-0.316	0.023
-288.603	-106.330	0.184	0.041
-287.589	-104.585	0.188	-0.043
-286.574	109.186	-0.196	-0.231
-285.559	-200.000	0.078	0.366
-284.545	745.465	-0.133	0.354
-283.530	-200.000	0.006	-0.111
-282.516	353.530	0.044	-0.086
-281.501	268.737	0.137	-0.238
-280.486	-200.000	-0.025	0.115
-279.472	700.837	-0.085	-0.222
-278.457	-41.140	0.327	0.167
-277.443	-101.077	-0.236	-0.057
-276.428	37.703	0.316	-0.278
-275.413	252.100	0.084	-0.142
-274.399	113.692	0.101	-0.121
-273.384	1.677	-0.058	0.041
-272.370	24.088	-0.050	-0.040
-271.355	800.000	-0.105	-0.310
-270.340	-59.813	-0.386	-0.163
-269.326	-74.062	-0.161	-0.057
-268.311	-127.976	0.179	0.025
-267.297	48.872	0.189	0.175
-266.282	-200.000	-0.057	-0.409
-265.267	-200.000	0.021	0.283
-264.253	-200.000	-0.009	-0.512
-263.238	-144.525	-0.097	-0.009
-262.224	251.128	0.109	0.182
-261.209	-200.000	-0.018	0.230
-260.195	-64.340	0.147	0.059
-259.180	423.590	-0.047	-0.100
-258.165	-135.833	-0.045	0.005
-257.151	-47.473	-0.187	-0.090
-256.136	187.541	0.074	-0.108
-255.122	163.919	0.264	0.367
-254.107	239.422	0.245	-0.402
-253.092	-87.116	-0.094	0.028
-252.078	149.806	0.022	-0.029
-251.063	-200.000	-0.004	-0.079
-250.049	119.847	-0.190	0.232
-249.034	800.000	-0.092	0.372
-248.019	-74.631	-0.449	0.159
-247.005	12.635	-0.123	-0.094
-245.990	-169.160	0.417	0.015
-244.976	341.127	0.016	0.031
-243.961	3.661	0.239	0.172
-242.946	225.189	0.147	0.235
-241.932	800.000	-0.070	-0.280
-240.917	-200.000	0.086	-0.376
-239.903	764.775	-0.114	-0.306
-238.888	658.021	0.136	0.346
-237.873	-86.306	0.172	-0.052
-236.859	-65.562	0.122	0.048
-235.844	-118.546	0.144	-0.025
-234.830	18.662	-0.174	-0.137
-233.815	-200.000	-0.046	0.263
-232.800	800.000	0.047	0.181
-231.786	-56.434	0.391	0.171
-230.771	-175.430	-0.139	0.004
-229.757	26.002	0.187	0.154
-228.742	57.413	-0.193	0.186
-227.727	85.651	0.164	-0.178
-226.713	103.719	-0.045	0.052
-225.698	800.000	-0.017	-0.070
-224.684	-200.000	-0.018	0.321
-223.669	-63.234	0.157	-0.064
-222.655	-200.000	0.038	-0.167
-221.640	-200.000	-0.005	-0.024
-220.625	64.935	-0.295	0.293
-219.611	219.422	-0.290	0.457
-218.596	-16.322	-0.181	0.113
-217.582	-140.817	-0.117	-0.012
-216.567	-79.722	0.046	-0.015
-215.552	-155.330	0.424	0.027
-214.538	-110.578	0.414	-0.084
-213.523	192.836	0.044	-0.066
-212.509	197.066	-0.030	-0.044
-211.494	39.900	0.161	0.142
-210.479	-10.459	-0.314	0.205
-209.465	186.043	-0.170	-0.248
-208.450	-38.171	0.142	-0.074
-207.436	10.259	-0.359	-0.269
-206.421	206.946	-0.044	-0.068
-205.406	30.692	0.072	0.061
-204.392	-200.000	-0.084	-0.598
-203.377	-48.175	-0.151	-0.072
-202.363	38.523	0.156	0.137
-201.348	105.985	-0.231	-0.269
-200.333	-12.992	0.323	0.207
-199.319	645.236	-0.146	-0.367
-198.304	-57.528	-0.260	-0.112
-197.290	800.000	0.041	-0.138
-196.275	800.000	-0.076	-0.217
-195.260	800.000	0.153	0.426
-194.246	-78.162	-0.169	0.057
-193.231	-138.765	-0.232	0.025
-192.217	800.000	-0.057	0.182
-191.202	413.930	-0.150	0.314
-190.187	-155.400	0.217	0.014
-189.173	-156.270	-0.415	-0.026
-188.158	50.587	0.170	-0.159
-187.144	510.239	0.119	-0.273
-186.129	98.909	-0.156	-0.177
-185.114	293.652	-0.153	-0.275
-184.100	800.000	-0.080	0.242
-183.085	305.791	-0.135	0.247
-182.071	-200.000	0.069	-0.000
-181.056	-200.000	-0.072	0.000
-180.042	-35.815	-0.263	-0.140
-179.027	800.000	0.113	0.318
-178.012	-83.220	0.368	-0.116
-176.998	120.381	-0.253	-0.309
-175.983	133.678	0.166	-0.211
-174.969	800.000	-0.066	-0.216
-173.954	88.770	-0.203	-0.222
-172.939	800.000	0.113	-0.377
-171.925	63.979	0.227	0.224
-170.910	-143.655	0.211	-0.020
-169.896	-113.043	0.097	-0.019
-168.881	-200.000	0.014	0.066
-167.866	758.583	0.137	0.364
-166.852	119.046	0.251	-0.306
-165.837	11.538	-0.271	-0.205
-164.823	-104.472	-0.449	0.102
-163.808	-62.911	0.453	0.184
-162.793	-139.016	0.153	-0.016
-161.779	-106.378	-0.175	0.039
-160.764	-95.796	-0.284	0.075
-159.750	26.476	0.074	0.061
-158.735	-200.000	-0.044	-0.240
-157.720	39.260	-0.263	-0.231
-156.706	-78.500	0.313	0.105
-155.691	-200.000	0.072	0.412
-154.677	-200.000	-0.002	0.088
-153.662	212.771	-0.059	-0.092
-152.647	-7.833	0.229	-0.152
-151.633	800.000	-0.073	0.219
-150.618	15.482	-0.127	-0.098
-149.604	-11.620	0.152	-0.098
-148.589	-112.629	0.135	-0.027
-147.574	34.268	0.370	0.317
-146.560	-24.503	0.335	0.196
-145.545	-35.341	0.239	-0.128
-144.531	800.000	-0.047	0.144
-143.516	-136.355	-0.404	0.046
-142.502	-136.048	0.067	0.008
-141.487	-100.761	0.246	0.060
-140.472	-147.208	0.308	-0.026
-139.458	1.714	-0.262	0.185
-138.443	18.285	0.075	0.059
-137.429	7.696	0.465	0.342
-136.414	593.407	0.047	0.115
-135.399	-200.000	0.015	-0.207
-134.385	78.072	0.083	-0.087
-133.370	800.000	0.046	0.128
-132.356	43.439	0.195	-0.175
-131.341	-97.158	-0.430	0.110
-130.326	254.434	-0.192	0.323
-129.312	-61.735	0.231	-0.095
-128.297	63.392	-0.435	0.429
-127.283	71.545	0.183	0.186
-126.268	2.264	0.083	-0.059
-125.253	-11.548	-0.227	-0.147
-124.239	246.610	0.168	-0.278
-123.224	-187.319	-0.259	0.003
-122.210	800.000	0.033	0.131
-121.195	-200.000	0.040	0.391
