DTS Sentinel unit serial number:	SN413079Multiplexer serial number:	ORYXHardware model number:	OX4-SRSoftware version number:	ORYX F/W v4.00 Oryx Data Collector v3.7.2.0data status	okinstallation	princeton_trtdifferential loss correction	single-endedforward channel	channel 4reverse channel	N/Adate	2019/09/15time	08:09:34forward acquisition time	60.00reverse acquisition time	0.00gamma	496.2192k internal	0.2309k external	0.2309temperature offset calibration	1.0030default loss term (dB/km)	0.3790temperature slope calibration	1.0000multiplexer offset coefficient	1.0000multiplexer slope coefficient	1.0000fibre end	0.00T internal ref (°C)	30.94T ext. ref 1 (°C)	4.99T ext. ref 2 (°C)	27.49length (m)	temperature (°C)	Stokes	anti-Stokes-747.200	136.902	0.057	0.076
-746.185	800.000	-0.057	0.168
-745.171	18.231	-0.228	0.185
-744.156	-200.000	0.024	0.617
-743.142	50.310	-0.237	0.228
-742.127	87.642	0.064	-0.072
-741.112	-47.029	0.226	0.112
-740.098	129.949	0.114	0.148
-739.083	-200.000	0.030	0.409
-738.069	282.848	-0.067	0.122
-737.054	261.215	0.045	-0.079
-736.039	-42.182	-0.284	-0.147
-735.025	800.000	0.072	0.254
-734.010	169.304	-0.111	-0.160
-732.996	-55.552	-0.175	-0.080
-731.981	88.020	0.108	-0.121
-730.966	-96.268	-0.290	0.078
-729.952	-126.790	-0.123	-0.018
-728.937	-135.299	-0.271	-0.033
-727.923	-35.148	0.107	0.059
-726.908	249.958	-0.223	0.384
-725.894	236.073	-0.029	0.048
-724.879	800.000	-0.079	-0.229
-723.864	87.483	0.303	0.340
-722.850	-200.000	-0.008	0.065
-721.835	800.000	-0.091	-0.402
-720.821	85.541	-0.141	-0.157
-719.806	438.092	0.023	-0.050
-718.791	-5.238	0.152	-0.106
-717.777	-81.098	-0.208	0.070
-716.762	-50.631	-0.236	-0.113
-715.748	-70.832	0.293	-0.112
-714.733	-200.000	-0.007	-0.301
-713.718	647.225	0.067	-0.175
-712.704	-28.245	0.149	-0.087
-711.689	-74.740	0.096	-0.035
-710.675	-13.210	-0.229	-0.151
-709.660	41.405	-0.265	0.244
-708.645	-159.007	0.255	0.015
-707.631	-52.274	-0.329	-0.155
-706.616	-111.782	0.121	-0.025
-705.602	-200.000	-0.003	-0.169
-704.587	-200.000	0.004	0.148
-703.572	-200.000	-0.009	-0.100
-702.558	722.127	0.083	0.223
-701.543	486.335	-0.116	0.268
-700.529	-175.100	0.038	-0.001
-699.514	-200.000	-0.099	0.000
-698.499	-61.829	-0.052	0.022
-697.485	-76.237	-0.086	0.031
-696.470	-200.000	0.035	0.221
-695.456	800.000	0.093	0.263
-694.441	-18.274	-0.351	0.222
-693.426	54.975	0.158	-0.155
-692.412	315.481	-0.092	-0.177
-691.397	800.000	-0.034	-0.097
-690.383	143.763	-0.044	0.059
-689.368	-113.087	0.413	-0.083
-688.354	-57.290	0.208	-0.093
-687.339	-179.707	-0.209	0.005
-686.324	-151.319	0.430	-0.032
-685.310	20.698	-0.014	-0.011
-684.295	152.515	0.292	-0.404
-683.281	-200.000	0.065	-0.348
-682.266	-200.000	0.052	-0.356
-681.251	-88.185	0.205	0.062
-680.237	-60.307	0.049	0.021
-679.222	-92.932	0.314	-0.089
-678.208	-42.056	0.208	-0.108
-677.193	800.000	0.034	-0.109
-676.178	322.363	0.078	-0.150
-675.164	27.672	0.248	0.212
-674.149	-64.872	0.095	-0.039
-673.135	-42.109	-0.171	0.088
-672.120	-7.673	-0.245	-0.168
-671.105	-96.193	0.288	0.078
-670.091	-200.000	0.020	0.096
-669.076	145.862	-0.017	-0.023
-668.062	546.460	-0.050	0.121
-667.047	-124.409	0.174	-0.027
-666.032	-62.269	0.116	-0.049
-665.018	473.723	-0.114	-0.261
-664.003	6.067	-0.121	0.091
-662.989	-116.287	-0.164	-0.031
-661.974	387.505	0.047	-0.099
-660.959	800.000	0.092	0.272
-659.945	31.152	-0.167	-0.145
-658.930	203.231	-0.057	0.090
-657.916	-200.000	-0.003	0.135
-656.901	-98.256	0.113	0.029
-655.886	-5.280	0.211	0.147
-654.872	38.460	0.101	0.091
-653.857	-142.384	-0.344	0.034
-652.843	103.446	-0.101	0.120
-651.828	800.000	0.035	-0.148
-650.814	201.915	0.022	-0.035
-649.799	-200.000	0.004	0.078
-648.784	307.703	0.106	-0.200
-647.770	800.000	-0.041	0.178
-646.755	7.525	-0.099	0.075
-645.741	-156.765	-0.319	-0.020
-644.726	-170.366	0.138	-0.005
-643.711	397.463	0.050	-0.106
-642.697	-112.153	0.453	-0.092
-641.682	6.613	-0.374	0.282
-640.668	185.971	0.272	-0.409
-639.653	-177.385	-0.261	0.006
-638.638	158.504	-0.099	0.139
-637.624	-33.394	0.156	-0.087
-636.609	-145.866	0.172	-0.015
-635.595	385.428	-0.148	-0.308
-634.580	33.387	-0.123	-0.108
-633.565	-92.964	0.136	0.038
-632.551	-8.198	-0.318	0.217
-631.536	-82.706	-0.202	-0.066
-630.522	173.122	0.106	-0.155
-629.507	74.386	0.327	0.348
-628.492	-180.011	0.179	0.004
-627.478	78.170	0.088	-0.095
-626.463	202.872	0.072	-0.112
-625.449	-14.966	-0.109	0.071
-624.434	-94.691	-0.410	-0.113
-623.419	146.342	-0.104	-0.141
-622.405	800.000	-0.101	-0.290
-621.390	-57.939	-0.242	0.107
-620.376	-12.479	0.129	0.085
-619.361	-89.640	0.101	0.030
-618.346	48.099	-0.064	-0.060
-617.332	-39.327	0.188	-0.099
-616.317	140.290	0.062	0.082
-615.303	4.179	-0.236	0.175
-614.288	62.549	-0.226	-0.228
-613.273	631.771	-0.038	-0.098
-612.259	-200.000	-0.040	0.182
-611.244	221.040	-0.151	0.245
-610.230	403.112	-0.104	0.221
-609.215	-58.291	0.196	0.086
-608.201	-75.151	0.164	0.059
-607.186	265.202	0.045	-0.080
-606.171	-191.636	-0.193	-0.002
-605.157	800.000	0.060	0.244
-604.142	62.739	-0.132	-0.133
-603.128	3.710	0.203	-0.149
-602.113	-108.201	0.404	0.088
-601.098	-22.560	0.317	-0.194
-600.084	800.000	-0.037	-0.121
-599.069	-30.591	-0.259	0.148
-598.055	-200.000	0.023	0.106
-597.040	800.000	-0.097	-0.283
-596.025	-95.808	-0.088	0.024
-595.011	-34.310	-0.324	0.179
-593.996	800.000	0.109	0.364
-592.982	259.436	0.197	-0.344
-591.967	-0.090	0.199	0.143
-590.952	7.415	-0.147	-0.111
-589.938	583.746	-0.133	-0.331
-588.923	-124.665	-0.447	-0.070
-587.909	-87.079	0.255	-0.078
-586.894	-79.473	-0.128	0.044
-585.879	-167.283	-0.160	-0.007
-584.865	800.000	0.078	-0.311
-583.850	-115.632	-0.275	-0.052
-582.836	254.590	0.171	-0.296
-581.821	77.812	0.050	0.054
-580.806	373.350	-0.205	-0.420
-579.792	78.147	0.169	-0.182
-578.777	800.000	0.049	-0.162
-577.763	-92.867	-0.364	0.103
-576.748	-200.000	-0.011	0.294
-575.733	-134.291	-0.170	0.021
-574.719	-18.541	-0.288	0.181
-573.704	-86.516	0.148	-0.046
-572.690	-200.000	0.043	0.271
-571.675	253.124	0.149	0.256
-570.661	-64.475	0.139	0.057
-569.646	-200.000	0.015	0.209
-568.631	114.765	-0.107	0.132
-567.617	-139.108	-0.216	0.024
-566.602	800.000	-0.061	-0.250
-565.588	-87.077	-0.216	-0.066
-564.573	800.000	-0.056	-0.164
-563.558	66.339	0.177	0.181
-562.544	800.000	-0.018	-0.075
-561.529	-91.987	-0.030	0.009
-560.515	-75.728	0.172	-0.061
-559.500	381.170	0.090	-0.186
-558.485	-115.470	-0.086	-0.016
-557.471	-200.000	-0.004	-0.133
-556.456	-200.000	0.046	0.235
-555.442	84.118	-0.194	-0.214
-554.427	-40.557	0.309	-0.162
-553.412	165.089	-0.026	-0.038
-552.398	-65.179	0.387	-0.157
-551.383	22.095	-0.022	0.018
-550.369	78.150	-0.080	0.086
-549.354	800.000	0.067	-0.276
-548.339	166.681	-0.193	0.276
-547.325	-200.000	-0.071	0.330
-546.310	100.913	-0.238	-0.280
-545.296	-200.000	0.033	-0.339
-544.281	-59.243	0.381	0.165
-543.266	-200.000	-0.050	0.310
-542.252	-118.622	0.348	0.062
-541.237	-73.219	-0.246	0.091
-540.223	-94.345	-0.372	-0.102
-539.208	-200.000	-0.021	-0.115
-538.193	-169.617	0.288	-0.011
-537.179	-61.399	-0.248	-0.105
-536.164	230.411	-0.191	0.315
-535.150	-94.155	-0.226	0.062
-534.135	112.171	0.266	0.324
-533.121	-68.956	0.180	0.070
-532.106	-200.000	-0.013	0.380
-531.091	211.382	0.101	0.160
-530.077	800.000	-0.064	0.234
-529.062	87.288	0.119	0.133
-528.048	-200.000	-0.017	0.167
-527.033	-179.945	0.275	0.006
-526.018	-32.259	-0.199	0.112
-525.004	-28.739	-0.120	-0.069
-523.989	-84.258	0.023	0.007
-522.975	175.819	0.157	-0.229
-521.960	32.777	0.306	-0.267
-520.945	134.229	0.173	-0.225
-519.931	-110.971	0.145	0.030
-518.916	-59.973	-0.088	0.038
-517.902	192.161	-0.167	-0.253
-516.887	-200.000	-0.003	0.121
-515.872	-200.000	0.030	0.456
-514.858	-200.000	-0.056	0.350
-513.843	173.504	0.099	0.144
-512.829	-93.383	0.106	-0.030
-511.814	-200.000	0.110	0.000
-510.799	350.186	0.095	-0.189
-509.785	-200.000	-0.014	0.076
-508.770	-200.000	0.003	0.245
-507.756	800.000	0.168	-0.540
-506.741	-89.082	-0.170	0.051
-505.726	800.000	0.070	-0.266
-504.712	101.748	-0.211	0.247
-503.697	-145.009	0.478	0.044
-502.683	800.000	-0.003	-0.010
-501.668	-41.450	-0.125	-0.065
-500.653	-74.354	-0.284	-0.103
-499.639	33.984	-0.175	0.154
-498.624	750.228	-0.079	0.214
-497.610	-200.000	-0.084	0.423
-496.595	-200.000	-0.030	0.425
-495.581	-134.804	0.273	0.033
-494.566	-87.665	0.245	-0.074
-493.551	-50.601	-0.045	-0.021
-492.537	-139.192	-0.152	-0.016
-491.522	-79.209	0.265	-0.091
-490.508	296.625	0.184	-0.339
-489.493	-100.928	-0.310	-0.077
-488.478	-200.000	-0.010	-0.326
-487.464	287.490	0.044	0.079
-486.449	0.921	0.249	0.180
-485.435	229.345	-0.156	-0.256
-484.420	-155.765	0.062	-0.004
-483.405	800.000	0.066	-0.185
-482.391	-126.905	0.118	0.017
-481.376	800.000	0.085	-0.320
-480.362	274.124	0.046	-0.082
-479.347	-200.000	0.001	0.156
-478.332	-108.336	-0.376	-0.082
-477.318	-45.723	-0.267	-0.133
-476.303	340.211	-0.203	0.398
-475.289	379.132	0.045	0.092
-474.274	307.815	-0.073	-0.136
-473.259	800.000	0.030	0.109
-472.245	-200.000	-0.031	0.000
-471.230	800.000	0.051	-0.209
-470.216	-0.609	-0.075	0.053
-469.201	-200.000	-0.017	0.204
-468.186	-153.497	-0.079	-0.005
-467.172	74.627	0.291	-0.307
-466.157	-137.563	-0.299	0.034
-465.143	-85.651	0.261	-0.081
-464.128	-200.000	0.013	-0.271
-463.113	253.364	-0.209	-0.359
-462.099	-98.930	-0.281	0.072
-461.084	10.358	-0.162	-0.124
-460.070	95.389	-0.151	-0.173
-459.055	-14.370	-0.287	0.186
-458.040	-200.000	0.004	-0.060
-457.026	34.259	0.142	0.124
-456.011	-200.000	0.012	-0.102
-454.997	800.000	-0.016	-0.046
-453.982	800.000	-0.033	-0.134
-452.968	-10.805	-0.205	-0.136
-451.953	20.668	-0.074	-0.060
-450.938	7.351	-0.095	-0.072
-449.924	719.395	-0.065	-0.174
-448.909	556.931	0.099	0.240
-447.895	69.997	0.134	-0.139
-446.880	-72.083	0.245	-0.091
-445.865	800.000	-0.093	0.300
-444.851	-200.000	0.047	0.222
-443.836	52.915	0.148	0.142
-442.822	-200.000	0.006	-0.192
-441.807	233.720	0.173	0.286
-440.792	571.754	-0.147	0.360
-439.778	-90.710	-0.124	0.036
-438.763	-200.000	-0.005	0.421
-437.749	-152.277	0.063	0.005
-436.734	141.994	0.254	-0.338
-435.719	38.506	0.225	-0.201
-434.705	27.905	-0.080	0.068
-433.690	-200.000	0.020	-0.174
-432.676	-27.603	-0.417	0.243
-431.661	800.000	0.047	-0.204
-430.646	-16.052	0.204	-0.130
-429.632	-200.000	0.007	0.033
-428.617	-200.000	0.043	-0.577
-427.603	-185.342	0.249	0.004
-426.588	-77.620	0.305	-0.106
-425.573	-200.000	-0.030	-0.146
-424.559	114.866	0.115	-0.141
-423.544	-200.000	-0.008	0.386
-422.530	71.497	0.071	-0.074
-421.515	-122.605	-0.551	-0.090
-420.500	-78.937	0.251	-0.086
-419.486	282.660	-0.238	0.428
-418.471	174.049	-0.119	0.173
-417.457	800.000	-0.052	0.185
-416.442	800.000	0.064	-0.250
-415.428	80.107	-0.110	0.118
-414.413	-200.000	0.056	0.296
-413.398	-138.622	0.136	0.015
-412.384	800.000	0.064	-0.208
-411.369	275.926	-0.146	-0.259
-410.355	-145.782	-0.203	-0.018
-409.340	-133.590	0.221	0.028
-408.325	266.922	0.133	0.234
-407.311	-41.076	0.124	-0.064
-406.296	-53.003	-0.146	0.067
-405.282	800.000	-0.049	-0.201
-404.267	-125.722	-0.259	-0.039
-403.252	130.166	0.183	0.235
-402.238	-17.109	0.215	0.136
-401.223	-47.442	0.215	0.105
-400.209	34.666	0.160	-0.140
-399.194	153.455	0.053	-0.073
-398.179	3.084	0.103	-0.075
-397.165	99.203	0.040	-0.046
-396.150	-141.661	0.147	0.015
-395.136	175.562	0.053	-0.077
-394.121	552.007	-0.059	0.141
-393.106	-200.000	0.015	0.121
-392.092	-122.709	0.188	0.031
-391.077	157.172	0.081	0.112
-390.063	-200.000	0.008	0.090
-389.048	0.180	-0.298	-0.213
-388.033	144.415	0.059	0.079
-387.019	135.521	-0.053	0.070
-386.004	800.000	-0.113	-0.478
-384.990	-37.896	0.313	0.167
-383.975	-200.000	-0.019	-0.159
-382.960	400.746	0.051	0.108
-381.946	-100.558	0.176	-0.043
-380.931	63.646	-0.160	0.161
-379.917	-13.117	0.134	0.087
-378.902	-200.000	-0.025	-0.272
-377.888	-148.019	-0.240	0.020
-376.873	-200.000	-0.004	-0.232
-375.858	-54.522	-0.237	-0.107
-374.844	18.785	0.156	-0.125
-373.829	-155.370	-0.105	0.007
-372.815	-200.000	-0.011	0.181
-371.800	148.487	0.188	0.254
-370.785	-200.000	-0.006	-0.102
-369.771	-185.636	-0.433	-0.007
-368.756	-100.243	-0.241	0.060
-367.742	-87.108	-0.092	0.028
-366.727	-130.650	0.355	-0.048
-365.712	-128.308	-0.291	0.041
-364.698	800.000	-0.054	0.233
-363.683	-100.309	-0.054	-0.014
-362.669	-179.718	-0.357	-0.008
-361.654	-61.294	0.339	-0.143
-360.639	-119.210	0.100	0.017
-359.625	-95.018	0.221	-0.060
-358.610	-123.090	-0.050	-0.008
-357.596	-30.604	-0.118	0.067
-356.581	800.000	0.022	0.088
-355.566	-14.368	0.259	-0.167
-354.552	-15.453	0.158	0.101
-353.537	-154.962	-0.135	0.009
-352.523	-183.209	-0.083	0.001
-351.508	291.437	-0.131	0.239
-350.493	157.614	0.102	-0.141
-349.479	-81.953	0.266	0.087
-348.464	-200.000	-0.012	0.166
-347.450	-20.670	0.242	0.149
-346.435	-200.000	0.019	0.105
-345.420	601.860	0.021	-0.052
-344.406	800.000	-0.094	-0.405
-343.391	0.878	0.062	-0.044
-342.377	93.163	0.261	0.296
-341.362	112.645	-0.046	0.055
-340.348	-17.927	-0.199	0.125
-339.333	141.654	-0.229	0.304
-338.318	-200.000	-0.032	0.509
-337.304	-200.000	-0.012	0.104
-336.289	-189.316	-0.276	0.003
-335.275	132.071	0.238	0.307
-334.260	-200.000	0.021	-0.099
-333.245	-17.450	-0.162	0.102
-332.231	-200.000	-0.030	-0.138
-331.216	-45.573	-0.199	-0.099
-330.202	46.333	0.096	0.089
-329.187	800.000	0.017	-0.075
-328.172	122.254	-0.106	0.133
-327.158	111.879	0.136	-0.164
-326.143	38.640	0.035	0.031
-325.129	2.817	0.123	0.089
-324.114	-200.000	-0.034	0.307
-323.099	-200.000	0.003	-0.096
-322.085	-200.000	0.027	0.382
-321.070	222.536	-0.055	0.088
-320.056	195.600	0.157	-0.239
-319.041	192.352	0.090	0.135
-318.026	800.000	-0.046	-0.141
-317.012	-112.083	0.192	-0.039
-315.997	-200.000	-0.053	0.461
-314.983	-200.000	-0.019	-0.205
-313.968	-146.304	-0.224	-0.020
-312.953	189.164	-0.092	-0.138
-311.939	510.972	0.077	-0.179
-310.924	620.622	0.155	0.389
-309.910	-200.000	0.009	0.084
-308.895	-43.404	0.071	0.036
-307.880	-139.327	0.159	-0.017
-306.866	-18.919	0.218	0.136
-305.851	-200.000	-0.013	0.066
-304.837	800.000	-0.067	0.203
-303.822	11.862	-0.220	-0.169
-302.807	-166.261	-0.344	0.015
-301.793	-63.978	-0.364	-0.149
-300.778	-81.693	0.170	-0.056
-299.764	424.672	-0.048	-0.102
-298.749	22.755	0.072	-0.059
-297.735	-60.408	0.265	-0.113
-296.720	-22.335	-0.187	-0.113
-295.705	62.258	-0.232	0.231
-294.691	-200.000	-0.028	0.127
-293.676	800.000	0.083	-0.254
-292.662	-200.000	0.093	-0.524
-291.647	-133.605	-0.156	-0.019
-290.632	-0.712	-0.259	0.183
-289.618	67.669	-0.123	-0.125
-288.603	73.954	-0.203	-0.212
-287.589	476.982	0.121	-0.273
-286.574	-24.567	0.077	-0.046
-285.559	-63.111	-0.075	-0.031
-284.545	-27.380	0.333	0.193
-283.530	586.712	-0.112	0.275
-282.516	-200.000	0.004	0.017
-281.501	-200.000	-0.023	-0.191
-280.486	-40.449	-0.217	-0.112
-279.472	-3.804	-0.311	-0.216
-278.457	-41.045	0.229	0.118
-277.443	129.705	0.031	0.040
-276.428	30.234	-0.174	-0.148
-275.413	7.715	-0.365	0.273
-274.399	67.982	-0.130	0.132
-273.384	-88.719	0.136	-0.040
-272.370	800.000	-0.013	0.042
-271.355	-72.443	-0.236	-0.087
-270.340	-130.758	-0.043	0.006
-269.326	118.346	0.090	-0.111
-268.311	-57.175	-0.349	0.153
-267.297	-172.415	0.314	-0.010
-266.282	-56.876	-0.102	-0.045
-265.267	-130.891	0.176	0.024
-264.253	-96.714	-0.316	-0.083
-263.238	26.128	-0.190	0.158
-262.224	-62.390	-0.214	-0.089
-261.209	-53.319	0.243	0.111
-260.195	256.897	-0.107	0.183
-259.180	117.044	-0.108	0.132
-258.165	800.000	0.083	0.311
-257.151	-200.000	-0.011	0.156
-256.136	-200.000	-0.001	0.010
-255.122	-43.632	0.361	-0.181
-254.107	-200.000	0.043	-0.252
-253.092	-200.000	0.014	0.128
-252.078	-159.295	0.141	-0.008
-251.063	21.585	-0.086	-0.070
-250.049	-110.306	0.238	0.049
-249.034	-65.410	0.236	-0.094
-248.019	800.000	-0.134	-0.440
-247.005	-200.000	0.002	-0.272
-245.990	-153.355	-0.126	-0.009
-244.976	-48.928	0.211	-0.101
-243.961	-200.000	-0.009	-0.116
-242.946	136.466	-0.047	-0.061
-241.932	241.170	0.116	0.193
-240.917	93.239	0.224	0.253
-239.903	-88.048	-0.081	0.024
-238.888	-125.946	0.306	-0.046
-237.873	-200.000	0.022	-0.211
-236.859	-200.000	0.043	-0.217
-235.844	31.078	0.221	0.189
-234.830	508.368	-0.035	-0.082
-233.815	338.441	-0.076	-0.148
-232.800	-46.557	0.079	0.039
-231.786	66.435	0.112	-0.113
-230.771	-200.000	0.085	0.378
-229.757	97.694	0.199	-0.228
-228.742	-62.341	-0.076	-0.031
-227.727	491.678	-0.115	0.263
-226.713	-200.000	-0.071	-0.402
-225.698	800.000	0.088	-0.316
-224.684	-97.306	-0.214	0.056
-223.669	427.821	0.092	0.198
-222.655	76.182	0.082	-0.087
-221.640	-134.305	-0.057	0.007
-220.625	800.000	-0.038	-0.118
-219.611	-19.772	-0.159	-0.098
-218.596	54.075	-0.227	-0.218
-217.582	-200.000	0.034	0.152
-216.567	515.440	0.115	0.267
-215.552	-94.559	0.168	-0.045
-214.538	-132.064	0.418	0.054
-213.523	426.674	-0.075	0.162
-212.509	-157.137	0.181	0.011
-211.494	-200.000	0.046	-0.305
-210.479	257.990	-0.033	0.057
-209.465	261.242	-0.059	-0.102
-208.450	-114.533	0.279	0.053
-207.436	424.909	0.195	0.417
-206.421	88.243	0.042	0.047
-205.406	-71.270	0.424	0.158
-204.392	558.191	-0.014	-0.034
-203.377	-137.271	-0.274	-0.031
-202.363	25.603	0.140	-0.116
-201.348	48.650	-0.090	0.084
-200.333	-200.000	-0.010	0.070
-199.319	-120.391	0.172	0.029
-198.304	32.400	0.120	-0.103
-197.290	9.297	0.154	-0.115
-196.275	-200.000	0.088	-0.410
-195.260	800.000	0.057	-0.194
-194.246	-200.000	0.057	-0.334
-193.231	-86.539	-0.336	0.102
-192.217	-200.000	-0.038	0.218
-191.202	0.609	0.121	-0.086
-190.187	800.000	0.095	-0.346
-189.173	-200.000	-0.063	-0.282
-188.158	81.581	0.078	-0.084
-187.144	128.427	0.077	0.097
-186.129	-103.057	0.161	-0.038
-185.114	-123.579	0.420	0.066
-184.100	-200.000	-0.009	-0.157
-183.085	-31.085	-0.318	-0.178
-182.071	-200.000	-0.011	0.166
-181.056	-200.000	-0.071	0.311
-180.042	186.152	-0.163	-0.241
-179.027	534.254	-0.086	0.203
-178.012	-109.799	0.170	0.036
-176.998	-200.000	0.010	0.339
-175.983	73.887	-0.104	-0.108
-174.969	135.617	-0.085	-0.110
-173.954	-47.005	-0.124	0.060
-172.939	-200.000	0.054	0.267
-171.925	135.066	-0.111	0.143
-170.910	800.000	-0.016	-0.058
-169.896	-163.967	0.196	-0.009
-168.881	11.035	-0.185	0.141
-167.866	800.000	-0.066	0.186
-166.852	158.851	0.088	-0.122
-165.837	59.694	-0.117	0.115
-164.823	-97.354	-0.178	-0.046
-163.808	800.000	-0.054	0.230
-162.793	76.561	-0.187	0.197
-161.779	20.574	0.248	-0.199
-160.764	-200.000	0.003	-0.285
-159.750	-156.116	-0.236	0.015
-158.735	773.993	0.021	0.057
-157.720	-200.000	-0.023	-0.105
-156.706	800.000	-0.034	-0.138
-155.691	800.000	0.057	0.197
-154.677	-34.479	-0.169	-0.092
-153.662	-155.059	0.453	-0.030
-152.647	800.000	0.027	-0.116
-151.633	471.529	-0.190	0.425
-150.618	105.082	-0.045	-0.053
-149.604	-100.062	-0.128	0.032
-148.589	201.205	0.094	0.144
-147.574	-158.174	-0.319	-0.019
-146.560	-4.524	-0.069	-0.047
-145.545	-200.000	0.037	0.327
-144.531	789.400	-0.070	-0.191
-143.516	-177.053	-0.154	0.004
-142.502	-159.221	-0.071	0.004
-141.487	-176.593	0.273	0.007
-140.472	-9.837	0.275	-0.181
-139.458	-108.932	-0.341	-0.072
-138.443	-93.640	0.390	0.107
-137.429	-200.000	0.045	0.210
-136.414	-18.264	-0.186	0.116
-135.399	-200.000	-0.007	0.079
-134.385	450.242	0.049	-0.106
-133.370	-200.000	-0.042	0.403
-132.356	383.099	-0.070	0.142
-131.341	-104.657	0.109	-0.025
-130.326	-88.470	0.116	0.034
-129.312	-200.000	-0.030	0.171
-128.297	28.131	0.163	-0.136
-127.283	160.305	-0.120	-0.167
-126.268	-164.092	0.225	0.010
-125.253	-64.201	0.154	0.062
-124.239	-102.343	-0.236	-0.056
-123.224	5.129	-0.162	0.118
-122.210	-200.000	0.018	0.446
