DTS Sentinel unit serial number:	SN413079Multiplexer serial number:	ORYXHardware model number:	OX4-SRSoftware version number:	ORYX F/W v4.00 Oryx Data Collector v3.7.2.0data status	okinstallation	princeton_trtdifferential loss correction	single-endedforward channel	channel 4reverse channel	N/Adate	2019/09/17time	21:01:34forward acquisition time	60.00reverse acquisition time	0.00gamma	496.2192k internal	0.2324k external	0.2324temperature offset calibration	0.9988default loss term (dB/km)	0.3790temperature slope calibration	1.0000multiplexer offset coefficient	1.0000multiplexer slope coefficient	1.0000fibre end	0.00T internal ref (°C)	28.58T ext. ref 1 (°C)	0.20T ext. ref 2 (°C)	20.11length (m)	temperature (°C)	Stokes	anti-Stokes-747.200	-200.000	-0.004	0.121
-746.185	-151.885	-0.150	-0.011
-745.171	-200.000	0.030	0.273
-744.156	611.955	-0.041	0.103
-743.142	26.205	0.168	-0.142
-742.127	800.000	-0.038	0.159
-741.112	800.000	0.004	-0.014
-740.098	39.891	-0.207	-0.188
-739.083	113.080	0.131	-0.160
-738.069	437.149	-0.200	0.439
-737.054	75.725	-0.292	0.311
-736.039	-51.455	-0.202	0.095
-735.025	389.024	0.037	-0.078
-734.010	20.213	0.054	-0.044
-732.996	-40.670	-0.166	0.087
-731.981	-200.000	-0.050	-0.253
-730.966	-4.646	0.323	-0.225
-729.952	-200.000	-0.031	0.158
-728.937	-200.000	0.035	-0.229
-727.923	215.346	-0.040	-0.064
-726.908	-193.028	-0.168	0.002
-725.894	-49.070	0.194	0.094
-724.879	-50.203	-0.362	-0.173
-723.864	-81.823	0.267	0.088
-722.850	-72.192	0.335	0.125
-721.835	93.691	-0.091	0.103
-720.821	642.066	-0.048	0.124
-719.806	29.595	0.132	-0.114
-718.791	750.592	0.113	-0.307
-717.777	24.399	0.110	0.092
-716.762	-200.000	-0.010	-0.247
-715.748	26.655	0.151	-0.128
-714.733	761.293	0.034	-0.092
-713.718	-200.000	-0.010	-0.169
-712.704	-200.000	-0.030	-0.374
-711.689	94.853	0.057	-0.066
-710.675	48.845	-0.199	0.188
-709.660	484.961	0.077	0.176
-708.645	48.305	0.137	-0.129
-707.631	153.127	0.422	-0.582
-706.616	582.706	0.187	-0.463
-705.602	-99.039	-0.170	-0.044
-704.587	-146.192	0.161	0.014
-703.572	-200.000	0.023	0.140
-702.558	-21.521	0.125	0.077
-701.543	296.448	-0.066	-0.121
-700.529	195.059	-0.243	0.372
-699.514	-200.000	0.047	-0.222
-698.499	101.943	-0.127	-0.150
-697.485	-19.603	0.225	-0.140
-696.470	-200.000	-0.003	-0.019
-695.456	158.937	0.196	-0.274
-694.441	9.350	-0.127	0.097
-693.426	9.522	-0.238	0.182
-692.412	21.703	0.332	0.272
-691.397	-41.861	-0.119	-0.061
-690.383	-84.616	-0.158	-0.050
-689.368	-50.811	0.243	-0.115
-688.354	-173.034	-0.218	-0.007
-687.339	-138.348	0.300	-0.033
-686.324	367.171	0.036	0.073
-685.310	-155.803	0.246	-0.016
-684.295	341.748	-0.092	0.182
-683.281	-37.523	0.259	-0.139
-682.266	273.491	-0.138	0.245
-681.251	474.161	0.121	-0.275
-680.237	-48.301	-0.297	0.144
-679.222	-89.906	-0.250	0.074
-678.208	-118.326	-0.157	0.028
-677.193	-95.695	0.108	0.029
-676.178	800.000	-0.033	0.102
-675.164	-200.000	-0.037	-0.344
-674.149	82.763	0.107	-0.117
-673.135	800.000	-0.106	0.331
-672.120	-158.710	0.454	-0.026
-671.105	-200.000	0.024	0.211
-670.091	800.000	0.030	-0.116
-669.076	358.624	0.130	-0.262
-668.062	-7.932	-0.079	-0.053
-667.047	-92.480	0.097	0.027
-666.032	800.000	-0.074	-0.242
-665.018	30.450	0.175	0.151
-664.003	800.000	-0.044	-0.136
-662.989	800.000	0.092	-0.282
-661.974	-200.000	-0.018	0.119
-660.959	219.230	-0.238	0.383
-659.945	-27.965	0.173	0.101
-658.930	-48.587	-0.230	-0.111
-657.916	-41.139	-0.060	0.031
-656.901	-12.835	0.104	-0.068
-655.886	-200.000	-0.056	-0.549
-654.872	-200.000	-0.036	0.440
-653.857	66.802	-0.055	-0.057
-652.843	800.000	0.083	-0.242
-651.828	-38.683	-0.434	0.230
-650.814	-114.002	-0.295	0.058
-649.799	-200.000	-0.001	0.316
-648.784	-200.000	0.015	0.149
-647.770	90.432	0.088	-0.099
-646.755	-53.207	0.101	0.047
-645.741	35.802	0.134	0.118
-644.726	-38.999	0.159	-0.084
-643.711	-200.000	0.033	0.164
-642.697	-150.991	-0.045	0.003
-641.682	-140.915	-0.177	0.018
-640.668	-135.385	0.293	0.035
-639.653	-28.157	-0.095	0.055
-638.638	27.765	-0.157	0.133
-637.624	-77.063	0.148	0.052
-636.609	-69.045	-0.136	-0.053
-635.595	-197.346	-0.358	0.002
-634.580	-200.000	0.038	0.307
-633.565	-200.000	-0.045	-0.278
-632.551	-5.075	0.162	0.112
-631.536	659.172	0.128	-0.330
-630.522	34.331	-0.055	-0.048
-629.507	-0.488	-0.088	0.063
-628.492	63.144	-0.125	-0.126
-627.478	-200.000	0.012	-0.252
-626.463	800.000	-0.066	-0.206
-625.449	-200.000	0.058	-0.256
-624.434	202.177	-0.170	-0.264
-623.419	510.860	-0.121	-0.283
-622.405	-122.139	-0.096	0.016
-621.390	-1.776	0.098	-0.069
-620.376	-124.968	0.068	-0.010
-619.361	-200.000	-0.029	-0.273
-618.346	313.843	-0.123	-0.233
-617.332	-107.958	0.201	-0.044
-616.317	48.178	-0.221	-0.207
-615.303	-200.000	0.015	0.147
-614.288	-69.194	-0.223	-0.086
-613.273	199.184	-0.120	0.185
-612.259	92.397	0.091	-0.103
-611.244	-155.769	-0.467	0.030
-610.230	200.302	0.142	-0.218
-609.215	128.140	0.136	-0.173
-608.201	-122.898	-0.025	0.004
-607.186	446.503	0.056	0.123
-606.171	27.770	0.082	-0.069
-605.157	-59.624	0.153	0.066
-604.142	170.117	-0.121	-0.174
-603.128	800.000	0.074	-0.238
-602.113	-73.115	0.122	0.045
-601.098	-154.957	0.102	0.007
-600.084	427.391	-0.137	-0.297
-599.069	338.969	0.018	-0.035
-598.055	60.026	-0.124	0.123
-597.040	67.416	0.142	0.145
-596.025	57.641	-0.128	-0.125
-595.011	168.039	-0.110	0.157
-593.996	8.895	0.138	-0.104
-592.982	92.137	-0.108	-0.122
-591.967	85.147	-0.195	0.214
-590.952	266.345	-0.095	0.166
-589.938	-124.077	0.031	0.005
-588.923	22.373	-0.078	-0.064
-587.909	166.118	-0.045	-0.063
-586.894	800.000	-0.087	-0.264
-585.879	95.819	0.061	0.069
-584.865	800.000	-0.047	0.185
-583.850	606.339	-0.120	-0.300
-582.836	-120.594	0.138	-0.024
-581.821	-79.376	-0.328	0.111
-580.806	-102.468	-0.323	0.078
-579.792	104.900	-0.109	0.129
-578.777	87.849	0.073	-0.081
-577.763	159.339	0.081	-0.113
-576.748	159.160	-0.035	0.049
-575.733	-200.000	0.009	-0.185
-574.719	-200.000	0.005	0.076
-573.704	-200.000	0.013	-0.147
-572.690	96.064	0.241	-0.276
-571.675	38.706	-0.092	-0.082
-570.661	2.774	0.146	0.106
-569.646	-72.018	0.129	0.048
-568.631	89.470	-0.251	-0.281
-567.617	-86.118	-0.267	-0.083
-566.602	800.000	-0.050	0.182
-565.588	597.162	-0.055	0.136
-564.573	-179.921	-0.106	0.002
-563.558	-200.000	-0.023	0.249
-562.544	2.772	-0.201	-0.146
-561.529	-200.000	-0.016	-0.076
-560.515	-71.580	-0.160	0.060
-559.500	188.902	-0.042	-0.063
-558.485	-124.287	-0.259	-0.041
-557.471	46.000	0.207	0.192
-556.456	225.984	0.131	0.213
-555.442	-106.419	-0.251	0.056
-554.427	-25.103	-0.114	-0.068
-553.412	800.000	0.038	0.127
-552.398	-200.000	-0.024	-0.221
-551.383	800.000	-0.116	-0.421
-550.369	40.612	-0.092	-0.083
-549.354	419.431	-0.063	0.134
-548.339	-38.268	-0.026	-0.014
-547.325	292.013	-0.263	-0.480
-546.310	55.118	0.050	0.049
-545.296	800.000	0.089	0.327
-544.281	456.366	0.096	-0.214
-543.266	36.143	0.141	-0.124
-542.252	100.543	-0.149	-0.173
-541.237	800.000	-0.126	0.436
-540.223	101.777	-0.206	0.241
-539.208	-115.005	0.302	0.058
-538.193	-4.320	-0.327	0.226
-537.179	104.544	0.098	0.116
-536.164	103.466	0.091	-0.107
-535.150	3.588	-0.219	0.160
-534.135	-200.000	-0.034	-0.387
-533.121	221.331	0.047	0.075
-532.106	448.381	-0.119	0.262
-531.091	157.659	0.051	0.070
-530.077	-62.289	-0.159	0.066
-529.062	-3.674	0.049	-0.034
-528.048	99.719	-0.182	0.211
-527.033	9.676	-0.088	0.067
-526.018	-200.000	-0.027	0.463
-525.004	-28.653	-0.260	-0.150
-523.989	-14.639	0.055	-0.035
-522.975	799.971	0.033	-0.092
-521.960	-84.997	-0.397	-0.124
-520.945	4.827	0.317	0.233
-519.931	-53.372	0.126	-0.058
-518.916	-200.000	0.005	-0.135
-517.902	-174.159	-0.072	0.002
-516.887	800.000	-0.033	-0.110
-515.872	71.231	0.143	0.148
-514.858	-172.237	0.147	-0.005
-513.843	267.580	0.060	-0.106
-512.829	800.000	0.051	-0.174
-511.814	41.701	-0.203	-0.184
-510.799	49.841	-0.099	0.093
-509.785	36.022	0.052	-0.046
-508.770	-58.867	0.244	-0.106
-507.756	438.350	0.129	-0.282
-506.741	-108.969	-0.432	0.092
-505.726	-200.000	0.022	0.515
-504.712	-98.436	0.133	-0.034
-503.697	800.000	0.063	0.183
-502.683	800.000	-0.046	0.183
-501.668	179.125	0.226	-0.331
-500.653	800.000	0.096	-0.335
-499.639	-81.997	-0.175	-0.057
-498.624	348.724	-0.150	0.296
-497.610	192.512	0.051	0.077
-496.595	83.164	0.194	-0.211
-495.581	-200.000	0.063	-0.325
-494.566	-110.894	0.110	0.023
-493.551	-67.712	0.141	0.055
-492.537	367.508	-0.060	-0.121
-491.522	-200.000	0.036	-0.166
-490.508	368.437	-0.068	-0.138
-489.493	166.403	-0.090	-0.128
-488.478	217.129	0.170	-0.271
-487.464	-200.000	-0.037	-0.183
-486.449	800.000	-0.109	-0.363
-485.435	285.434	-0.142	-0.256
-484.420	-60.038	-0.226	0.096
-483.405	-83.855	0.232	-0.074
-482.391	-200.000	-0.010	-0.072
-481.376	85.329	0.095	-0.104
-480.362	110.209	0.223	-0.267
-479.347	679.095	0.054	0.141
-478.332	-126.828	-0.058	-0.009
-477.318	-200.000	-0.013	0.106
-476.303	168.515	0.078	-0.111
-475.289	800.000	-0.058	0.223
-474.274	-200.000	0.021	-0.125
-473.259	107.036	-0.180	-0.213
-472.245	-200.000	0.043	-0.323
-471.230	-29.569	0.234	0.133
-470.216	130.301	0.075	0.096
-469.201	-200.000	0.021	0.201
-468.186	11.690	0.113	-0.087
-467.172	-76.635	-0.063	-0.022
-466.157	201.453	-0.195	-0.300
-465.143	-176.933	-0.257	-0.006
-464.128	-120.244	0.161	0.027
-463.113	217.863	0.204	0.324
-462.099	-200.000	-0.016	0.411
-461.084	-89.213	-0.404	-0.119
-460.070	-181.794	-0.254	-0.005
-459.055	-200.000	0.007	-0.141
-458.040	33.566	0.126	0.109
-457.026	-104.739	-0.162	0.037
-456.011	277.233	-0.168	-0.299
-454.997	56.646	0.056	0.054
-453.982	76.211	-0.115	0.122
-452.968	-200.000	0.030	0.221
-451.953	-31.083	0.325	0.183
-450.938	-182.213	-0.256	0.005
-449.924	289.966	-0.068	0.122
-448.909	-141.694	0.016	-0.002
-447.895	-200.000	0.021	-0.180
-446.880	-200.000	-0.011	0.049
-445.865	-98.895	0.291	0.074
-444.851	73.953	-0.118	-0.123
-443.836	-76.475	0.225	0.079
-442.822	-200.000	0.017	-0.081
-441.807	-200.000	0.005	-0.404
-440.792	800.000	0.091	0.272
-439.778	259.237	-0.233	-0.400
-438.763	155.244	-0.251	0.344
-437.749	272.619	0.158	0.278
-436.734	-135.104	0.315	-0.038
-435.719	-92.495	-0.235	0.066
-434.705	-8.455	0.371	-0.249
-433.690	-36.915	-0.438	-0.234
-432.676	800.000	0.015	0.066
-431.661	102.511	-0.173	0.202
-430.646	41.480	0.064	-0.058
-429.632	-98.316	-0.142	0.036
-428.617	-9.491	-0.066	0.044
-427.603	-200.000	-0.034	0.202
-426.588	-50.288	0.030	0.014
-425.573	88.372	-0.083	0.092
-424.559	-166.106	-0.179	0.008
-423.544	674.833	0.099	0.257
-422.530	75.597	0.061	-0.064
-421.515	25.899	0.177	-0.147
-420.500	9.265	-0.152	-0.114
-419.486	-200.000	0.045	-0.199
-418.471	337.322	-0.089	-0.173
-417.457	60.321	-0.025	-0.025
-416.442	-112.011	0.291	-0.058
-415.428	-90.787	-0.135	-0.039
-414.413	-88.992	0.231	0.068
-413.398	-140.900	-0.278	0.028
-412.384	-200.000	-0.027	-0.183
-411.369	146.105	0.097	0.129
-410.355	-21.681	0.039	0.024
-409.340	800.000	-0.050	0.169
-408.325	-200.000	0.030	-0.362
-407.311	-200.000	-0.015	0.099
-406.296	-53.651	0.219	0.100
-405.282	-200.000	-0.026	-0.261
-404.267	-158.548	-0.304	-0.017
-403.252	-32.828	-0.136	-0.075
-402.238	283.929	0.079	0.141
-401.223	-118.854	0.147	-0.026
-400.209	219.795	0.113	0.180
-399.194	-200.000	0.028	0.199
-398.179	-200.000	0.106	0.000
-397.165	-200.000	0.005	0.199
-396.150	639.447	0.056	0.142
-395.136	92.598	-0.240	-0.269
-394.121	-86.870	-0.276	0.084
-393.106	5.146	-0.322	0.236
-392.092	-149.224	0.279	-0.022
-391.077	-200.000	-0.024	0.125
-390.063	800.000	0.057	0.171
-389.048	-92.133	-0.251	-0.071
-388.033	14.509	0.116	-0.090
-387.019	-200.000	-0.028	-0.127
-386.004	-64.679	0.301	-0.121
-384.990	276.058	0.045	-0.080
-383.975	-153.258	0.501	-0.035
-382.960	72.558	0.150	0.156
-381.946	340.856	-0.153	0.297
-380.931	-58.890	0.194	0.083
-379.917	89.468	-0.038	0.043
-378.902	149.404	-0.187	-0.252
-377.888	95.414	-0.265	0.301
-376.873	-200.000	0.010	0.253
-375.858	382.464	0.142	0.290
-374.844	-63.875	-0.226	-0.092
-373.829	74.962	0.172	-0.181
-372.815	-34.527	-0.199	0.108
-371.800	664.997	0.078	-0.201
-370.785	3.741	-0.201	0.146
-369.771	650.258	0.078	0.199
-368.756	-130.023	0.199	-0.027
-367.742	495.313	0.123	-0.280
-366.727	-33.577	0.287	0.158
-365.712	-4.514	-0.126	0.086
-364.698	800.000	0.045	-0.135
-363.683	152.260	-0.124	-0.168
-362.669	-97.879	0.105	-0.027
-361.654	49.217	-0.085	0.080
-360.639	253.327	0.161	0.273
-359.625	103.216	0.097	0.113
-358.610	-91.878	0.047	-0.013
-357.596	-120.224	-0.212	0.036
-356.581	-78.440	-0.085	0.029
-355.566	800.000	0.059	-0.215
-354.552	-94.885	-0.240	0.065
-353.537	399.807	0.078	0.163
-352.523	-88.856	-0.367	-0.108
-351.508	-200.000	-0.004	0.030
-350.493	-118.424	0.298	-0.053
-349.479	-200.000	0.318	0.000
-348.464	-47.418	-0.225	-0.109
-347.450	65.622	0.244	-0.246
-346.435	7.481	0.134	-0.099
-345.420	8.621	0.225	-0.168
-344.406	344.324	0.115	0.224
-343.391	-25.726	0.133	0.078
-342.377	-200.000	0.063	0.276
-341.362	-90.931	-0.155	0.044
-340.348	-200.000	-0.028	0.126
-339.333	-64.859	-0.476	-0.191
-338.318	-133.807	0.281	-0.035
-337.304	-81.985	0.298	0.097
-336.289	272.649	-0.042	-0.074
-335.275	800.000	-0.024	0.093
-334.260	-166.619	0.123	0.005
-333.245	-97.089	0.404	0.105
-332.231	235.635	0.095	0.156
-331.216	-28.504	0.186	0.107
-330.202	-22.767	-0.252	-0.151
-329.187	800.000	-0.064	0.189
-328.172	-46.097	-0.066	-0.032
-327.158	32.620	-0.116	-0.100
-326.143	-103.243	0.144	0.034
-325.129	60.432	-0.175	-0.172
-324.114	372.538	0.027	-0.054
-323.099	800.000	-0.123	0.357
-322.085	66.204	0.018	-0.018
-321.070	-29.489	0.224	0.127
-320.056	49.590	-0.210	-0.196
-319.041	553.694	0.083	0.199
-318.026	-51.180	0.209	-0.097
-317.012	-22.723	0.297	0.178
-315.997	554.254	0.071	-0.169
-314.983	-119.341	0.129	0.022
-313.968	-28.121	0.197	-0.113
-312.953	23.074	0.189	0.154
-311.939	663.721	0.079	0.202
-310.924	-38.693	-0.195	0.102
-309.910	-52.510	0.249	0.114
-308.895	-63.147	0.159	0.065
-307.880	-56.364	0.235	-0.104
-306.866	-200.000	0.002	0.431
-305.851	256.609	0.057	-0.098
-304.837	-131.152	0.177	-0.023
-303.822	-10.832	-0.155	0.102
-302.807	104.066	-0.174	0.203
-301.793	-91.592	-0.047	-0.013
-300.778	-83.803	-0.249	0.079
-299.764	130.769	-0.140	-0.178
-298.749	-200.000	0.050	-0.436
-297.735	117.323	0.114	-0.139
-296.720	-12.075	0.154	0.100
-295.705	-87.267	-0.269	0.081
-294.691	264.326	0.200	-0.345
-293.676	55.862	-0.232	0.223
-292.662	-200.000	0.077	-0.403
-291.647	-198.242	-0.134	0.001
-290.632	-200.000	0.007	-0.144
-289.618	-85.351	-0.281	0.087
-288.603	314.537	0.128	-0.239
-287.589	-200.000	-0.002	0.038
-286.574	14.757	0.078	0.060
-285.559	-200.000	0.036	0.158
-284.545	-21.435	0.231	-0.139
-283.530	-200.000	-0.005	-0.145
-282.516	800.000	0.077	0.228
-281.501	43.357	-0.161	-0.146
-280.486	800.000	0.027	0.090
-279.472	800.000	0.056	-0.183
-278.457	84.130	0.119	-0.129
-277.443	11.699	0.204	-0.155
-276.428	-120.918	-0.165	-0.028
-275.413	-64.765	0.118	0.047
-274.399	442.823	-0.084	0.181
-273.384	-200.000	0.016	-0.152
-272.370	790.159	0.094	0.255
-271.355	400.185	0.053	0.109
-270.340	-200.000	-0.018	0.219
-269.326	-200.000	-0.015	0.253
-268.311	-200.000	0.011	0.113
-267.297	295.658	-0.089	0.161
-266.282	800.000	-0.068	0.230
-265.267	793.546	0.077	-0.209
-264.253	-200.000	-0.014	-0.176
-263.238	800.000	0.026	0.103
-262.224	-200.000	0.030	0.417
-261.209	12.177	0.034	0.026
-260.195	-100.107	-0.131	0.032
-259.180	-200.000	0.005	-0.155
-258.165	401.561	0.102	0.213
-257.151	157.949	0.053	0.073
-256.136	401.936	0.093	-0.194
-255.122	-20.618	0.203	-0.123
-254.107	-200.000	-0.016	0.339
-253.092	165.676	0.214	0.300
-252.078	-79.146	-0.024	-0.008
-251.063	70.259	-0.233	-0.238
-250.049	-55.914	-0.120	0.053
-249.034	-27.414	-0.193	0.111
-248.019	-200.000	-0.023	-0.194
-247.005	-35.988	0.197	0.105
-245.990	86.069	-0.247	0.269
-244.976	-200.000	0.001	0.027
-243.961	136.449	-0.087	0.112
-242.946	12.226	0.296	0.226
-241.932	-20.580	-0.066	0.040
-240.917	-21.186	0.103	0.062
-239.903	-65.402	0.280	0.111
-238.888	171.957	-0.088	-0.126
-237.873	259.536	0.174	-0.297
-236.859	-135.108	0.378	-0.045
-235.844	4.501	-0.260	0.189
-234.830	-84.653	-0.095	-0.030
-233.815	-189.691	0.239	0.003
-232.800	800.000	-0.007	-0.021
-231.786	171.254	0.080	0.113
-230.771	122.647	-0.142	-0.175
-229.757	-145.532	0.245	-0.022
-228.742	-43.154	0.041	0.021
-227.727	-89.246	-0.220	0.064
-226.713	-200.000	0.027	0.359
-225.698	233.735	0.125	-0.203
-224.684	73.587	-0.091	0.094
-223.669	-200.000	-0.000	0.275
-222.655	-89.470	0.184	-0.053
-221.640	-200.000	-0.030	-0.280
-220.625	214.636	0.197	0.308
-219.611	26.871	-0.158	-0.131
-218.596	65.599	0.227	-0.227
-217.582	-83.470	0.185	0.058
-216.567	-51.506	0.126	-0.058
-215.552	-114.820	-0.344	-0.065
-214.538	10.740	0.081	0.061
-213.523	27.517	-0.166	-0.138
-212.509	-131.134	0.411	0.054
-211.494	-135.540	-0.163	-0.019
-210.479	-98.596	-0.106	0.027
-209.465	331.412	0.262	0.499
-208.450	-200.000	0.079	0.530
-207.436	-186.672	-0.093	-0.001
-206.421	-200.000	-0.035	-0.186
-205.406	168.671	0.133	-0.187
-204.392	-131.526	0.133	0.017
-203.377	-172.412	0.138	0.004
-202.363	-95.660	-0.175	-0.046
-201.348	-200.000	0.015	-0.091
-200.333	643.811	0.057	0.143
-199.319	-200.000	0.031	-0.136
-198.304	-12.931	0.307	0.197
-197.290	-200.000	-0.032	-0.382
-196.275	-91.561	-0.198	-0.056
-195.260	292.634	0.111	-0.200
-194.246	11.597	-0.354	0.268
-193.231	-20.189	-0.202	-0.123
-192.217	439.928	-0.129	0.279
-191.202	-200.000	-0.021	0.127
-190.187	800.000	-0.033	0.103
-189.173	-127.464	0.341	-0.049
-188.158	93.434	-0.095	-0.106
-187.144	-200.000	-0.020	-0.292
-186.129	188.057	-0.082	0.121
-185.114	-22.772	-0.305	0.182
-184.100	-81.984	-0.190	-0.061
-183.085	373.705	0.149	0.299
-182.071	275.662	0.231	0.405
-181.056	800.000	0.092	-0.335
-180.042	800.000	0.046	0.157
-179.027	98.370	-0.207	0.236
-178.012	460.801	0.166	0.365
-176.998	460.491	-0.161	-0.355
-175.983	800.000	-0.034	-0.119
-174.969	247.508	0.034	-0.057
-173.954	112.583	-0.137	-0.163
-172.939	-76.838	0.211	-0.073
-171.925	-10.030	0.250	0.164
-170.910	-15.068	0.213	-0.134
-169.896	454.752	0.150	0.329
-168.881	643.763	0.017	-0.043
-167.866	12.718	0.376	-0.286
-166.852	-85.593	-0.078	0.024
-165.837	-80.190	0.053	0.018
-164.823	-39.677	-0.177	0.091
-163.808	77.503	0.222	-0.233
-162.793	-139.094	-0.293	-0.031
-161.779	69.288	-0.100	0.101
-160.764	-175.287	-0.438	0.012
-159.750	12.936	0.142	0.109
-158.735	22.264	0.143	0.115
-157.720	-44.807	-0.208	-0.102
-156.706	-200.000	-0.026	-0.532
-155.691	441.301	-0.063	-0.137
-154.677	-128.212	-0.240	-0.034
-153.662	173.214	0.093	-0.132
-152.647	-25.676	-0.345	0.201
-151.633	-96.122	0.106	-0.028
-150.618	-54.187	0.319	0.143
-149.604	-86.020	0.118	0.036
-148.589	-200.000	0.029	0.495
-147.574	59.287	0.249	0.242
-146.560	800.000	-0.045	-0.147
-145.545	-200.000	0.057	-0.283
-144.531	800.000	0.024	0.073
-143.516	518.999	0.140	0.323
-142.502	417.082	0.144	-0.302
-141.487	-174.316	-0.235	0.007
-140.472	35.934	-0.246	-0.213
-139.458	367.289	-0.077	0.154
-138.443	542.823	-0.067	-0.158
-137.429	-12.443	0.214	0.138
-136.414	316.775	0.181	0.337
-135.399	-200.000	0.001	-0.095
-134.385	251.310	0.142	0.238
-133.370	242.694	-0.070	-0.116
-132.356	76.657	0.169	-0.177
-131.341	82.674	0.183	-0.196
-130.326	-110.536	0.158	0.032
-129.312	37.872	-0.278	0.243
-128.297	33.930	0.092	0.079
-127.283	145.440	-0.148	0.195
-126.268	100.468	-0.017	0.019
-125.253	655.316	0.129	-0.327
-124.239	-125.973	-0.320	0.047
-123.224	800.000	0.027	0.113
-122.210	-200.000	-0.051	0.338
-121.195	-35.243	0.135	0.072
-120.180	41.847	-0.197	-0.176
-119.166	152.018	0.109	-0.147
