DTS Sentinel unit serial number:	SN413079Multiplexer serial number:	ORYXHardware model number:	OX4-SRSoftware version number:	ORYX F/W v4.00 Oryx Data Collector v3.7.2.0data status	okinstallation	princeton_trtdifferential loss correction	single-endedforward channel	channel 4reverse channel	N/Adate	2019/09/16time	05:17:34forward acquisition time	60.00reverse acquisition time	0.00gamma	496.2192k internal	0.2321k external	0.2321temperature offset calibration	0.9979default loss term (dB/km)	0.3790temperature slope calibration	1.0000multiplexer offset coefficient	1.0000multiplexer slope coefficient	1.0000fibre end	0.00T internal ref (°C)	27.25T ext. ref 1 (°C)	11.07T ext. ref 2 (°C)	22.08length (m)	temperature (°C)	Stokes	anti-Stokes-747.200	-95.985	0.214	-0.057
-746.185	-62.404	0.220	0.093
-745.171	76.330	-0.167	-0.179
-744.156	227.926	0.053	-0.087
-743.142	-200.000	0.045	-0.271
-742.127	-35.966	-0.451	0.247
-741.112	70.236	0.203	-0.211
-740.098	-200.000	-0.107	0.578
-739.083	9.825	0.132	0.102
-738.069	17.634	0.307	0.247
-737.054	-200.000	0.010	0.243
-736.039	130.373	0.256	0.331
-735.025	800.000	-0.059	0.248
-734.010	-143.394	-0.393	0.038
-732.996	55.646	0.251	-0.246
-731.981	-18.555	0.334	-0.210
-730.966	200.914	-0.036	0.056
-729.952	180.348	-0.188	0.279
-728.937	800.000	0.086	-0.286
-727.923	-106.907	-0.159	-0.035
-726.908	-200.000	0.082	-0.379
-725.894	800.000	-0.032	-0.116
-724.879	24.823	-0.279	-0.233
-723.864	-200.000	0.022	-0.248
-722.850	-154.135	0.073	-0.005
-721.835	-137.373	-0.156	0.018
-720.821	800.000	0.069	0.198
-719.806	-139.787	-0.063	0.007
-718.791	800.000	0.028	0.093
-717.777	-72.109	0.251	0.094
-716.762	-48.870	0.183	0.089
-715.748	-30.706	0.171	0.098
-714.733	678.709	0.141	0.370
-713.718	103.618	0.112	0.133
-712.704	-200.000	0.007	0.131
-711.689	771.638	0.085	-0.235
-710.675	-35.714	-0.348	-0.191
-709.660	-33.251	-0.220	-0.123
-708.645	-200.000	0.007	0.178
-707.631	800.000	-0.063	0.257
-706.616	481.386	-0.077	-0.176
-705.602	520.234	0.185	-0.437
-704.587	294.892	-0.043	-0.079
-703.572	-200.000	0.039	0.193
-702.558	4.808	0.127	0.094
-701.543	-52.923	0.289	-0.134
-700.529	-28.875	-0.198	-0.115
-699.514	97.887	-0.056	0.065
-698.499	381.161	0.131	0.272
-697.485	-17.087	0.082	-0.052
-696.470	-181.378	0.451	0.009
-695.456	79.238	-0.255	0.276
-694.441	-99.034	-0.065	0.017
-693.426	-87.561	0.313	0.095
-692.412	-59.919	-0.236	-0.102
-691.397	-143.158	-0.469	-0.046
-690.383	-79.760	-0.281	0.095
-689.368	-200.000	0.075	-0.372
-688.354	-200.000	0.009	-0.104
-687.339	-200.000	0.045	-0.241
-686.324	23.342	0.102	-0.085
-685.310	800.000	-0.045	-0.172
-684.295	264.267	-0.114	-0.200
-683.281	513.583	-0.076	0.180
-682.266	-200.000	-0.023	0.223
-681.251	800.000	-0.044	-0.128
-680.237	-1.994	0.128	-0.091
-679.222	800.000	-0.100	0.293
-678.208	81.164	-0.264	0.288
-677.193	800.000	-0.025	0.083
-676.178	-21.667	-0.176	0.108
-675.164	-200.000	-0.031	0.220
-674.149	-182.481	0.338	0.006
-673.135	-45.180	-0.453	0.227
-672.120	126.080	-0.092	-0.117
-671.105	27.383	-0.132	-0.112
-670.091	-200.000	-0.025	-0.261
-669.076	-109.790	-0.161	-0.034
-668.062	-80.795	0.382	-0.128
-667.047	-57.548	-0.241	-0.106
-666.032	-44.016	-0.170	0.086
-665.018	-200.000	0.007	-0.169
-664.003	-42.537	-0.118	-0.061
-662.989	-65.240	-0.199	0.081
-661.974	245.720	-0.247	-0.419
-660.959	215.960	0.208	-0.333
-659.945	555.113	-0.066	0.160
-658.930	138.403	-0.095	-0.126
-657.916	-70.613	0.217	0.083
-656.901	-200.000	-0.048	-0.261
-655.886	189.899	-0.098	-0.149
-654.872	-39.783	-0.116	0.061
-653.857	-156.807	-0.235	0.015
-652.843	-81.743	-0.257	0.085
-651.828	800.000	0.057	0.232
-650.814	-134.668	-0.213	0.026
-649.799	-60.611	0.219	-0.094
-648.784	-200.000	-0.013	-0.117
-647.770	29.749	-0.253	0.217
-646.755	251.130	-0.108	-0.184
-645.741	-42.075	0.169	-0.087
-644.726	241.878	-0.087	0.146
-643.711	257.252	-0.097	-0.167
-642.697	-52.631	0.215	-0.100
-641.682	-200.000	0.041	-0.222
-640.668	-200.000	-0.013	-0.082
-639.653	161.611	0.077	0.109
-638.638	-88.190	-0.389	0.117
-637.624	-67.572	-0.126	0.050
-636.609	-105.602	-0.354	0.081
-635.595	-102.969	0.056	-0.013
-634.580	800.000	-0.077	0.241
-633.565	91.173	0.327	-0.370
-632.551	56.142	-0.092	0.089
-631.536	247.631	-0.083	-0.141
-630.522	-89.724	-0.240	0.071
-629.507	-188.118	0.130	0.002
-628.492	332.464	-0.052	-0.100
-627.478	-119.938	0.409	-0.071
-626.463	-63.540	0.094	0.039
-625.449	-22.321	-0.058	0.036
-624.434	800.000	-0.103	-0.298
-623.419	800.000	-0.065	0.279
-622.405	-43.860	-0.160	-0.081
-621.390	334.411	0.102	-0.198
-620.376	374.955	0.093	-0.190
-619.361	96.245	-0.161	-0.185
-618.346	731.734	-0.065	0.175
-617.332	-105.938	0.250	-0.057
-616.317	466.652	0.121	-0.273
-615.303	-68.575	-0.091	0.035
-614.288	-130.024	0.376	-0.052
-613.273	-200.000	-0.012	0.260
-612.259	-200.000	0.027	-0.213
-611.244	172.344	-0.087	0.125
-610.230	97.455	0.253	-0.292
-609.215	-200.000	0.003	-0.015
-608.201	-80.029	0.188	0.064
-607.186	35.001	0.251	0.221
-606.171	567.137	-0.130	0.316
-605.157	-133.859	0.401	-0.050
-604.142	-108.658	0.186	0.040
-603.128	-200.000	-0.036	-0.244
-602.113	-155.771	0.179	-0.011
-601.098	-120.758	0.145	0.025
-600.084	800.000	-0.116	-0.378
-599.069	135.705	0.095	-0.124
-598.055	605.004	-0.078	0.195
-597.040	800.000	0.037	-0.124
-596.025	-152.558	-0.327	0.023
-595.011	-110.287	0.044	-0.009
-593.996	-89.639	0.307	-0.090
-592.982	88.226	0.199	0.222
-591.967	-200.000	0.005	0.120
-590.952	-122.283	-0.340	-0.056
-589.938	-75.521	0.283	-0.101
-588.923	53.300	-0.198	0.190
-587.909	443.072	-0.123	-0.271
-586.894	-114.738	0.094	0.018
-585.879	-87.798	0.329	0.100
-584.865	-75.815	-0.280	0.100
-583.850	-65.148	0.041	-0.017
-582.836	-153.539	-0.120	0.008
-581.821	-152.493	0.213	-0.015
-580.806	114.842	-0.058	-0.072
-579.792	-62.026	0.525	-0.220
-578.777	800.000	0.097	-0.346
-577.763	116.087	-0.132	-0.162
-576.748	-200.000	0.054	0.407
-575.733	-68.084	-0.132	-0.052
-574.719	-16.869	-0.353	0.224
-573.704	800.000	0.095	0.409
-572.690	258.568	-0.052	0.089
-571.675	-12.092	0.059	-0.039
-570.661	-52.958	-0.350	-0.162
-569.646	703.801	0.087	0.229
-568.631	7.842	-0.177	-0.133
-567.617	-9.727	0.305	-0.204
-566.602	-145.550	0.181	-0.016
-565.588	-200.000	0.033	-0.434
-564.573	20.220	0.200	-0.162
-563.558	-36.666	-0.121	-0.065
-562.544	25.155	-0.162	0.135
-561.529	-94.073	0.292	-0.080
-560.515	-200.000	-0.003	0.196
-559.500	338.096	-0.065	0.127
-558.485	-200.000	0.011	0.386
-557.471	800.000	0.110	0.355
-556.456	-200.000	-0.018	0.080
-555.442	-58.952	-0.444	-0.192
-554.427	-109.253	0.505	0.107
-553.412	362.313	-0.069	-0.139
-552.398	-24.484	-0.357	-0.213
-551.383	187.901	0.159	-0.238
-550.369	-75.495	0.149	-0.053
-549.354	96.746	-0.120	-0.138
-548.339	-13.276	-0.004	-0.002
-547.325	800.000	-0.029	-0.124
-546.310	-200.000	-0.040	0.198
-545.296	243.698	0.041	0.068
-544.281	800.000	-0.112	-0.416
-543.266	-39.382	0.150	-0.079
-542.252	-122.611	-0.128	-0.021
-541.237	-200.000	-0.008	-0.278
-540.223	553.208	-0.134	-0.324
-539.208	419.021	-0.092	-0.198
-538.193	800.000	-0.023	-0.080
-537.179	53.926	-0.070	-0.067
-536.164	174.581	0.132	-0.192
-535.150	800.000	0.078	0.251
-534.135	-167.875	-0.223	0.009
-533.121	-190.284	0.168	0.002
-532.106	-14.045	-0.225	0.146
-531.091	-99.696	-0.207	0.052
-530.077	-3.655	0.027	0.019
-529.062	-200.000	-0.049	0.236
-528.048	-124.393	0.436	-0.068
-527.033	60.785	0.204	-0.203
-526.018	800.000	-0.069	-0.292
-525.004	-200.000	0.080	0.490
-523.989	-200.000	0.002	0.264
-522.975	-62.694	-0.125	0.052
-521.960	45.849	0.138	-0.128
-520.945	-139.084	0.174	-0.019
-519.931	333.907	0.132	-0.257
-518.916	359.646	0.033	0.066
-517.902	37.834	0.119	0.106
-516.887	320.411	-0.185	-0.352
-515.872	-14.060	0.147	0.095
-514.858	-88.892	0.466	0.139
-513.843	-134.960	0.403	0.049
-512.829	-144.964	0.130	0.012
-511.814	254.802	0.124	-0.213
-510.799	-200.000	0.014	-0.190
-509.785	-162.058	-0.121	0.006
-508.770	-78.986	-0.106	0.036
-507.756	42.159	-0.061	-0.056
-506.741	146.955	-0.040	-0.054
-505.726	609.933	-0.155	-0.389
-504.712	-80.699	0.375	0.125
-503.697	35.893	0.206	-0.182
-502.683	-73.217	-0.258	-0.094
-501.668	544.841	0.063	0.150
-500.653	-82.803	-0.067	0.022
-499.639	357.810	0.163	0.325
-498.624	16.689	-0.090	-0.071
-497.610	-200.000	0.002	-0.063
-496.595	800.000	-0.157	0.449
-495.581	-95.397	0.282	0.076
-494.566	453.911	0.106	0.235
-493.551	800.000	-0.083	0.260
-492.537	-73.763	-0.194	0.071
-491.522	76.942	0.167	0.177
-490.508	162.578	0.047	-0.066
-489.493	-68.207	-0.097	-0.038
-488.478	-95.401	-0.199	-0.054
-487.464	28.038	0.233	0.197
-486.449	81.194	0.079	-0.086
-485.435	100.918	-0.248	0.288
-484.420	-200.000	-0.012	0.092
-483.405	-34.079	-0.335	-0.184
-482.391	-121.791	0.207	-0.034
-481.376	77.787	-0.162	0.173
-480.362	-97.378	-0.331	0.086
-479.347	236.134	0.124	-0.205
-478.332	-72.392	-0.098	0.036
-477.318	50.139	0.237	-0.224
-476.303	-107.213	-0.365	0.080
-475.289	-86.374	0.392	-0.120
-474.274	-108.436	-0.082	0.018
-473.259	45.221	0.227	0.210
-472.245	167.457	-0.028	0.040
-471.230	17.890	-0.191	-0.152
-470.216	275.962	0.298	0.528
-469.201	206.799	0.199	-0.310
-468.186	8.462	0.172	0.129
-467.172	128.076	-0.104	0.133
-466.157	800.000	0.067	0.198
-465.143	-200.000	0.034	-0.199
-464.128	-200.000	0.003	0.086
-463.113	-123.680	-0.020	-0.003
-462.099	-200.000	-0.006	0.172
-461.084	-200.000	0.004	-0.275
-460.070	313.634	-0.106	0.199
-459.055	29.613	-0.212	-0.181
-458.040	-20.199	-0.146	-0.090
-457.026	-167.064	0.308	-0.013
-456.011	164.160	-0.089	0.126
-454.997	11.755	0.309	0.237
-453.982	-8.453	0.324	-0.217
-452.968	-141.595	-0.155	0.016
-451.953	-110.501	-0.082	0.017
-450.938	657.257	0.064	0.165
-449.924	428.386	-0.066	0.142
-448.909	-70.494	-0.128	0.049
-447.895	-200.000	0.003	0.072
-446.880	-99.690	0.371	-0.093
-445.865	-129.966	-0.382	0.052
-444.851	-59.855	0.150	-0.064
-443.836	-38.107	0.249	-0.132
-442.822	-80.096	-0.263	-0.088
-441.807	12.631	0.149	-0.115
-440.792	-200.000	-0.037	0.178
-439.778	-200.000	-0.005	-0.096
-438.763	-80.093	0.370	0.124
-437.749	335.188	0.069	0.134
-436.734	-200.000	0.013	0.112
-435.719	-123.610	0.133	0.021
-434.705	-12.085	-0.207	0.135
-433.690	4.052	0.204	-0.149
-432.676	65.789	0.260	-0.263
-431.661	108.467	-0.042	0.050
-430.646	-200.000	0.002	0.068
-429.632	-52.533	0.029	-0.014
-428.617	-47.052	0.100	0.049
-427.603	-45.738	-0.335	0.165
-426.588	352.227	-0.081	0.161
-425.573	-151.404	-0.466	-0.035
-424.559	-111.216	0.353	-0.072
-423.544	-5.820	0.035	0.024
-422.530	-200.000	-0.007	0.351
-421.515	-75.809	-0.077	0.027
-420.500	800.000	-0.083	-0.243
-419.486	24.256	0.197	0.163
-418.471	-138.062	-0.317	-0.035
-417.457	-200.000	0.068	0.402
-416.442	64.474	0.292	-0.294
-415.428	-200.000	0.024	0.114
-414.413	-161.886	-0.353	0.018
-413.398	493.540	-0.218	-0.500
-412.384	-200.000	0.039	-0.281
-411.369	543.793	0.065	-0.155
-410.355	-200.000	-0.078	-0.377
-409.340	323.451	0.178	-0.339
-408.325	-177.230	-0.100	-0.002
-407.311	10.518	0.200	0.152
-406.296	-102.762	-0.324	0.077
-405.282	89.229	-0.106	-0.118
-404.267	-73.956	-0.339	-0.123
-403.252	-16.295	0.350	0.222
-402.238	230.406	0.078	-0.127
-401.223	-129.178	0.350	-0.049
-400.209	645.586	0.057	-0.144
-399.194	-200.000	-0.029	-0.346
-398.179	80.892	0.033	-0.036
-397.165	112.630	0.128	-0.155
-396.150	800.000	-0.058	0.226
-395.136	-200.000	0.057	-0.266
-394.121	321.485	0.099	-0.187
-393.106	-93.747	-0.215	-0.059
-392.092	800.000	-0.089	-0.359
-391.077	44.208	-0.153	0.140
-390.063	22.088	0.024	0.020
-389.048	-85.581	-0.324	-0.100
-388.033	-13.221	-0.271	-0.175
-387.019	-75.392	0.084	0.030
-386.004	164.898	-0.099	0.140
-384.990	-17.311	-0.338	0.212
-383.975	-200.000	-0.022	0.137
-382.960	7.374	-0.415	0.309
-381.946	800.000	-0.076	0.213
-380.931	800.000	0.041	-0.156
-379.917	-200.000	0.055	0.281
-378.902	618.960	0.129	0.323
-377.888	-200.000	-0.005	-0.218
-376.873	52.357	0.191	0.182
-375.858	800.000	-0.110	0.341
-374.844	211.880	-0.214	0.336
-373.829	800.000	-0.076	-0.283
-372.815	12.030	0.279	0.214
-371.800	-123.786	-0.149	-0.024
-370.785	-137.738	-0.259	0.029
-369.771	234.580	0.193	0.317
-368.756	701.804	-0.056	0.146
-367.742	571.670	-0.119	-0.289
-366.727	-28.354	-0.207	0.119
-365.712	165.874	-0.151	0.212
-364.698	-129.460	0.237	0.033
-363.683	52.215	-0.096	0.091
-362.669	-200.000	0.039	-0.221
-361.654	-23.644	0.427	0.255
-360.639	-200.000	0.068	0.336
-359.625	-8.640	-0.106	0.071
-358.610	-18.989	0.106	-0.066
-357.596	62.106	-0.225	0.223
-356.581	-93.229	0.061	-0.017
-355.566	-87.647	0.142	0.043
-354.552	-200.000	-0.079	-0.349
-353.537	-66.328	0.205	-0.081
-352.523	-200.000	-0.007	-0.034
-351.508	186.595	0.120	-0.177
-350.493	-94.367	0.158	0.043
-349.479	-142.135	0.134	0.013
-348.464	10.566	0.166	-0.126
-347.450	-68.613	-0.328	0.126
-346.435	-200.000	0.033	0.145
-345.420	-37.686	-0.191	-0.101
-344.406	-125.775	0.119	0.018
-343.391	69.725	-0.123	0.126
-342.377	33.001	0.099	-0.085
-341.362	786.271	-0.015	0.041
-340.348	370.983	0.066	-0.134
-339.333	-156.174	0.197	0.012
-338.318	-200.000	0.002	0.119
-337.304	-200.000	0.037	-0.262
-336.289	800.000	-0.088	-0.250
-335.275	-29.149	0.194	0.110
-334.260	800.000	0.051	-0.157
-333.245	230.940	-0.158	-0.258
-332.231	-100.541	0.093	0.023
-331.216	-23.159	0.244	-0.146
-330.202	800.000	0.034	-0.108
-329.187	-60.048	-0.181	0.077
-328.172	-170.399	0.062	0.002
-327.158	-101.783	0.337	-0.081
-326.143	-48.073	0.316	0.152
-325.129	-57.194	-0.133	0.058
-324.114	654.792	-0.079	0.202
-323.099	-15.872	0.218	0.138
-322.085	268.891	-0.088	-0.154
-321.070	800.000	0.038	0.132
-320.056	-107.541	-0.399	0.087
-319.041	-200.000	-0.004	0.072
-318.026	164.803	-0.167	0.234
-317.012	800.000	0.066	0.282
-315.997	-154.016	0.418	0.028
-314.983	37.403	0.239	-0.211
-313.968	-200.000	0.014	-0.134
-312.953	-45.287	-0.330	0.163
-311.939	-136.290	0.181	0.021
-310.924	36.232	-0.196	-0.172
-309.910	21.972	-0.135	-0.109
-308.895	61.363	-0.089	-0.088
-307.880	-89.337	0.278	0.081
-306.866	-20.658	-0.301	-0.183
-305.851	648.993	-0.058	0.148
-304.837	-200.000	-0.006	0.096
-303.822	800.000	0.055	0.161
-302.807	-77.043	0.139	-0.048
-301.793	800.000	0.072	0.204
-300.778	354.880	0.169	0.333
-299.764	-200.000	-0.025	0.206
-298.749	111.707	-0.170	-0.203
-297.735	-70.459	-0.288	-0.108
-296.720	-200.000	0.018	-0.264
-295.705	219.860	-0.148	-0.236
-294.691	-38.864	0.272	-0.142
-293.676	800.000	0.105	0.308
-292.662	109.875	-0.144	0.172
-291.647	-15.747	-0.172	0.109
-290.632	-137.477	-0.299	0.034
-289.618	1.759	0.224	-0.161
-288.603	-30.347	0.243	-0.137
-287.589	-200.000	-0.006	-0.041
-286.574	-200.000	0.002	-0.073
-285.559	-35.320	-0.084	-0.045
-284.545	-27.272	-0.177	0.102
-283.530	91.594	0.219	-0.244
-282.516	-96.282	0.128	-0.034
-281.501	800.000	-0.104	-0.286
-280.486	-200.000	0.011	0.087
-279.472	-108.020	0.141	-0.030
-278.457	225.277	0.008	-0.012
-277.443	-141.429	-0.350	0.035
-276.428	30.308	0.163	0.138
-275.413	-4.497	0.257	0.176
-274.399	183.044	-0.127	0.186
-273.384	358.912	0.036	-0.071
-272.370	222.044	0.063	0.101
-271.355	73.945	0.132	0.137
-270.340	-35.905	0.039	-0.021
-269.326	362.022	0.032	0.064
-268.311	-1.049	-0.347	-0.243
-267.297	-21.337	0.304	0.184
-266.282	-36.676	-0.205	0.109
-265.267	-131.449	0.119	0.016
-264.253	-200.000	-0.010	0.077
-263.238	278.947	0.048	-0.085
-262.224	31.444	0.044	0.037
-261.209	-200.000	-0.078	0.414
-260.195	24.757	-0.164	0.134
-259.180	-153.017	-0.298	-0.021
-258.165	-95.895	0.106	-0.028
-257.151	-191.622	-0.037	0.000
-256.136	-15.497	0.072	0.046
-255.122	-8.435	-0.411	0.274
-254.107	346.555	-0.107	-0.208
-253.092	80.701	-0.088	-0.094
-252.078	121.837	0.113	-0.140
-251.063	-74.641	-0.161	-0.057
-250.049	-200.000	-0.004	0.144
-249.034	-200.000	-0.009	-0.091
-248.019	-200.000	0.017	-0.203
-247.005	-72.770	-0.279	0.102
-245.990	136.117	0.104	-0.134
-244.976	40.584	-0.215	-0.192
-243.961	97.361	0.055	0.063
-242.946	-64.194	0.125	0.050
-241.932	-200.000	-0.027	0.166
-240.917	130.854	0.131	0.166
-239.903	443.192	-0.073	-0.158
-238.888	360.641	0.058	-0.116
-237.873	-97.797	-0.324	-0.083
-236.859	800.000	-0.031	-0.089
-235.844	800.000	-0.039	0.124
-234.830	-200.000	-0.002	0.139
-233.815	250.648	-0.189	-0.318
-232.800	517.463	-0.053	0.124
-231.786	-152.266	-0.193	0.014
-230.771	-200.000	-0.020	0.154
-229.757	133.771	-0.147	0.189
-228.742	-95.550	-0.357	-0.095
-227.727	-49.728	-0.272	-0.128
-226.713	-77.769	-0.301	-0.103
-225.698	307.992	-0.186	-0.344
-224.684	-200.000	-0.006	0.144
-223.669	800.000	-0.019	0.060
-222.655	-46.369	0.249	-0.121
-221.640	-90.805	0.364	-0.104
-220.625	-139.675	0.186	-0.020
-219.611	800.000	-0.051	0.196
-218.596	147.567	-0.084	-0.112
-217.582	-33.311	0.139	0.076
-216.567	-1.897	0.190	-0.132
-215.552	179.898	0.084	-0.123
-214.538	75.378	-0.292	0.305
-213.523	-15.117	-0.129	-0.081
-212.509	201.071	-0.175	-0.267
-211.494	-200.000	0.022	0.322
-210.479	-75.909	0.122	-0.043
-209.465	-200.000	-0.030	0.365
-208.450	-118.282	-0.214	0.038
-207.436	-107.103	-0.081	-0.018
-206.421	-200.000	-0.007	-0.314
-205.406	-61.804	-0.153	-0.063
-204.392	-145.783	0.299	-0.026
-203.377	-200.000	-0.057	-0.339
-202.363	-200.000	0.009	-0.158
-201.348	189.831	0.081	0.120
-200.333	65.995	-0.197	-0.197
-199.319	90.109	0.182	0.202
-198.304	800.000	0.088	-0.307
-197.290	-34.304	0.100	-0.054
-196.275	9.962	-0.408	-0.307
-195.260	-200.000	0.041	0.270
-194.246	800.000	0.048	-0.166
-193.231	-200.000	-0.024	-0.124
-192.217	-56.922	-0.167	0.073
-191.202	195.170	0.071	0.107
-190.187	647.343	0.100	-0.253
-189.173	-135.638	-0.242	-0.028
-188.158	237.887	0.160	0.262
-187.144	-200.000	-0.067	0.423
-186.129	-88.909	-0.177	-0.052
-185.114	-108.387	-0.091	-0.019
-184.100	-4.425	-0.076	-0.052
-183.085	-92.921	0.116	0.032
-182.071	177.795	0.203	0.292
-181.056	224.464	-0.090	0.144
-180.042	20.358	0.116	-0.092
-179.027	136.758	0.102	0.132
-178.012	-200.000	-0.004	0.029
-176.998	800.000	-0.120	0.339
-175.983	800.000	-0.015	-0.054
-174.969	-3.487	-0.161	0.111
-173.954	-4.224	0.135	-0.092
-172.939	-72.967	0.206	-0.075
-171.925	-200.000	0.016	0.199
-170.910	-87.868	0.345	0.103
-169.896	-182.954	-0.357	-0.006
-168.881	-152.425	-0.183	-0.013
-167.866	-124.813	-0.140	0.021
-166.852	690.990	0.195	0.505
-165.837	-123.767	0.209	-0.033
-164.823	-200.000	0.037	-0.458
-163.808	800.000	-0.061	-0.188
-162.793	-19.675	0.175	-0.107
-161.779	-68.371	0.137	0.052
-160.764	-106.397	-0.584	0.129
-159.750	164.598	-0.141	-0.196
-158.735	442.782	-0.084	-0.183
-157.720	37.074	-0.318	-0.278
-156.706	-67.750	-0.168	-0.065
-155.691	131.161	0.239	0.303
-154.677	-200.000	-0.023	-0.150
-153.662	-24.272	0.095	0.056
-152.647	-200.000	-0.010	0.390
-151.633	558.922	-0.069	0.164
-150.618	-200.000	0.015	-0.299
-149.604	3.522	0.107	-0.077
-148.589	370.192	0.147	0.294
-147.574	133.882	0.148	-0.189
-146.560	282.885	0.188	-0.333
-145.545	-170.128	-0.392	0.014
-144.531	-87.986	-0.124	-0.037
-143.516	-171.512	0.138	-0.005
-142.502	252.264	0.022	-0.037
-141.487	23.544	-0.231	-0.187
-140.472	41.053	-0.199	-0.177
-139.458	-105.426	0.289	-0.065
-138.443	-72.471	-0.209	-0.076
-137.429	41.833	-0.105	0.094
-136.414	800.000	0.085	0.259
-135.399	-68.851	0.088	-0.034
-134.385	-200.000	0.004	-0.018
-133.370	-79.690	-0.079	-0.026
-132.356	-200.000	-0.008	0.315
-131.341	-167.634	-0.282	0.011
-130.326	800.000	-0.153	0.439
-129.312	221.093	-0.050	0.080
-128.297	55.814	-0.170	0.162
-127.283	667.099	0.162	0.412
-126.268	800.000	-0.121	-0.351
-125.253	-200.000	-0.045	-0.200
-124.239	118.245	0.026	0.031
-123.224	-22.817	0.340	0.202
-122.210	-172.165	-0.422	0.013
