DTS Sentinel unit serial number:	SN413079Multiplexer serial number:	ORYXHardware model number:	OX4-SRSoftware version number:	ORYX F/W v4.00 Oryx Data Collector v3.7.2.0data status	okinstallation	princeton_trtdifferential loss correction	single-endedforward channel	channel 4reverse channel	N/Adate	2019/09/12time	19:20:19forward acquisition time	15.00reverse acquisition time	0.00gamma	496.2192k internal	0.2308k external	0.2308temperature offset calibration	1.0147default loss term (dB/km)	0.3790temperature slope calibration	1.0000multiplexer offset coefficient	1.0000multiplexer slope coefficient	1.0000fibre end	0.00T internal ref (°C)	32.44T ext. ref 1 (°C)	3.23T ext. ref 2 (°C)	27.02length (m)	temperature (°C)	Stokes	anti-Stokes-747.200	-200.000	-0.650	-0.003
-746.185	-200.000	0.059	0.516
-745.171	40.069	-0.486	0.444
-744.156	319.404	-0.467	0.900
-743.142	8.570	-0.246	-0.188
-742.127	-46.849	0.596	-0.296
-741.112	140.624	0.241	-0.323
-740.098	381.940	0.344	-0.718
-739.083	1.929	-0.162	-0.119
-738.069	-10.353	-0.689	-0.464
-737.054	-171.464	0.386	-0.013
-736.039	-85.383	-0.496	0.157
-735.025	-200.000	0.025	-0.191
-734.010	-72.407	0.343	0.129
-732.996	25.912	-0.223	-0.189
-731.981	-85.235	0.442	-0.140
-730.966	-200.000	0.030	-0.166
-729.952	-200.000	-0.013	-0.608
-728.937	800.000	-0.283	-0.846
-727.923	-68.790	-0.670	-0.263
-726.908	-39.011	-0.211	0.113
-725.894	252.369	-0.170	-0.295
-724.879	-142.169	0.777	0.078
-723.864	-200.000	-0.042	-0.298
-722.850	332.539	0.057	-0.112
-721.835	-113.756	0.447	0.088
-720.821	-184.177	-0.682	-0.011
-719.806	207.792	0.312	-0.494
-718.791	-25.456	0.519	-0.311
-717.777	-69.300	-0.196	0.077
-716.762	-9.361	0.295	0.200
-715.748	81.284	0.436	0.479
-714.733	-35.394	0.759	0.419
-713.718	-200.000	0.013	-0.582
-712.704	368.880	-0.114	0.235
-711.689	-152.588	-0.654	-0.047
-710.675	-65.651	-0.503	-0.205
-709.660	800.000	0.200	-0.575
-708.645	-63.279	-0.330	-0.138
-707.631	-200.000	0.197	0.996
-706.616	49.036	0.131	0.125
-705.602	-101.852	-0.449	-0.110
-704.587	-200.000	-0.107	0.511
-703.572	-164.521	-0.689	0.032
-702.558	745.906	0.265	0.725
-701.543	34.406	-0.570	0.505
-700.529	-38.740	0.569	-0.304
-699.514	14.108	0.421	-0.333
-698.499	-33.841	0.279	-0.156
-697.485	-200.000	-0.056	0.792
-696.470	-200.000	-0.003	-0.146
-695.456	800.000	0.156	-0.511
-694.441	82.425	-0.697	-0.768
-693.426	-40.321	-0.644	0.339
-692.412	19.726	-0.850	0.694
-691.397	-6.693	0.307	0.212
-690.383	-10.263	-0.364	-0.245
-689.368	-187.383	-0.979	-0.013
-688.354	-200.000	0.017	-0.156
-687.339	178.749	-0.500	-0.741
-686.324	-62.854	-0.689	-0.289
-685.310	-104.368	0.760	0.179
-684.295	800.000	-0.044	0.184
-683.281	366.314	-0.343	0.700
-682.266	-120.804	-0.156	0.027
-681.251	800.000	-0.140	0.521
-680.237	-10.638	0.106	0.071
-679.222	800.000	0.216	-0.670
-678.208	-40.475	-0.454	-0.239
-677.193	-153.121	-0.499	-0.035
-676.178	-48.356	-0.103	0.051
-675.164	-54.076	0.369	-0.170
-674.149	213.594	0.036	-0.058
-673.135	35.380	-0.192	0.171
-672.120	19.826	-0.330	0.270
-671.105	800.000	-0.212	0.706
-670.091	87.155	-0.408	-0.457
-669.076	133.852	0.574	-0.753
-668.062	-167.523	0.619	0.025
-667.047	-200.000	0.151	0.875
-666.032	-99.453	-0.865	0.221
-665.018	40.030	0.523	0.476
-664.003	-80.246	0.788	0.267
-662.989	-200.000	-0.074	0.374
-661.974	-50.841	-0.449	0.214
-660.959	-36.946	-0.101	-0.055
-659.945	-40.443	-0.210	-0.111
-658.930	88.007	0.222	-0.249
-657.916	77.249	-0.337	-0.363
-656.901	-117.625	0.426	-0.078
-655.886	558.465	-0.253	0.617
-654.872	-54.413	-0.525	0.241
-653.857	-200.000	-0.047	0.314
-652.843	13.720	-0.293	-0.231
-651.828	-186.833	0.468	0.007
-650.814	-48.485	-0.359	-0.175
-649.799	-50.102	0.493	0.237
-648.784	-200.000	-0.011	-0.209
-647.770	-3.262	-0.166	0.117
-646.755	-200.000	0.009	-0.453
-645.741	-104.712	-0.284	-0.066
-644.726	-86.575	-0.190	0.059
-643.711	-90.421	-0.381	-0.112
-642.697	49.609	0.063	0.060
-641.682	155.856	-0.314	-0.438
-640.668	-66.852	-0.724	-0.290
-639.653	756.734	-0.282	-0.771
-638.638	-51.263	-1.117	0.529
-637.624	-107.181	0.408	-0.091
-636.609	-62.268	-0.237	0.100
-635.595	55.449	-0.573	-0.561
-634.580	-54.952	-0.437	0.199
-633.565	224.145	-0.231	0.378
-632.551	272.059	0.238	0.425
-631.536	64.275	-0.406	0.414
-630.522	-193.424	0.045	-0.000
-629.507	800.000	0.310	-0.924
-628.492	-20.557	-0.027	0.017
-627.478	-76.522	0.640	-0.228
-626.463	800.000	-0.037	-0.163
-625.449	-188.614	-0.427	-0.005
-624.434	-164.839	0.474	0.022
-623.419	-10.011	-0.141	-0.095
-622.405	45.425	-0.348	-0.325
-621.390	-143.592	0.535	-0.051
-620.376	-107.898	-0.384	-0.085
-619.361	429.105	-0.353	0.771
-618.346	-128.153	0.749	0.108
-617.332	321.890	0.206	-0.397
-616.317	335.107	-0.322	0.631
-615.303	421.274	0.122	-0.265
-614.288	37.488	0.378	-0.339
-613.273	364.434	0.316	0.643
-612.259	-149.847	0.162	-0.013
-611.244	168.944	0.447	-0.645
-610.230	-200.000	-0.034	-0.532
-609.215	800.000	-0.251	0.866
-608.201	-142.825	0.543	0.053
-607.186	153.900	0.111	-0.154
-606.171	-200.000	-0.012	-0.248
-605.157	175.583	-0.094	-0.138
-604.142	232.504	-0.389	-0.645
-603.128	-141.016	-0.875	0.091
-602.113	-89.045	0.937	-0.280
-601.098	800.000	-0.087	-0.275
-600.084	106.566	0.085	0.102
-599.069	173.268	-0.274	-0.400
-598.055	-200.000	-0.067	0.504
-597.040	-200.000	-0.001	0.164
-596.025	453.504	-0.161	0.360
-595.011	89.908	-0.308	-0.348
-593.996	-152.612	0.176	0.013
-592.982	93.572	0.701	0.802
-591.967	-38.554	0.374	0.200
-590.952	61.421	0.653	-0.656
-589.938	-48.079	0.236	0.115
-588.923	-108.212	0.146	-0.032
-587.909	147.325	0.336	-0.457
-586.894	105.303	0.146	-0.174
-585.879	-110.033	-0.792	0.167
-584.865	-87.548	-0.574	-0.175
-583.850	800.000	0.163	-0.539
-582.836	7.423	-0.477	-0.360
-581.821	97.426	0.699	0.811
-580.806	-108.094	0.925	0.203
-579.792	29.093	0.234	-0.201
-578.777	32.065	0.231	0.201
-577.763	-10.234	0.293	-0.197
-576.748	54.794	-0.522	-0.509
-575.733	182.897	0.079	0.118
-574.719	-164.638	-0.350	0.016
-573.704	-25.414	-0.502	-0.300
-572.690	24.431	0.553	0.461
-571.675	-200.000	-0.088	-0.459
-570.661	-200.000	-0.049	1.680
-569.646	-39.456	0.227	0.120
-568.631	-124.392	0.540	-0.085
-567.617	-3.960	-0.354	0.248
-566.602	-200.000	-0.076	-0.537
-565.588	437.810	0.201	0.443
-564.573	800.000	-0.257	-0.871
-563.558	158.546	-0.093	-0.131
-562.544	-12.075	-0.492	0.325
-561.529	-62.384	0.118	0.049
-560.515	274.662	0.480	-0.859
-559.500	-18.269	0.447	-0.282
-558.485	-52.202	0.104	0.049
-557.471	-200.000	0.038	1.264
-556.456	118.646	0.437	-0.545
-555.442	166.656	-0.370	0.529
-554.427	-132.398	0.379	-0.049
-553.412	149.691	0.483	0.661
-552.398	-102.684	-0.361	0.087
-551.383	73.151	0.128	0.135
-550.369	-200.000	0.008	-0.720
-549.354	-32.176	0.332	0.187
-548.339	-105.089	-0.329	0.076
-547.325	-28.676	-0.166	0.097
-546.310	-60.624	-0.223	-0.096
-545.296	800.000	0.103	-0.371
-544.281	101.168	-0.488	0.573
-543.266	46.647	-0.250	-0.234
-542.252	-43.921	0.549	0.278
-541.237	77.280	0.444	-0.476
-540.223	377.546	-0.251	0.518
-539.208	227.253	0.056	0.092
-538.193	683.556	0.224	0.590
-537.179	6.623	-0.689	-0.517
-536.164	31.966	0.754	-0.655
-535.150	-109.156	-0.608	0.130
-534.135	-31.245	0.308	0.175
-533.121	-200.000	-0.134	-0.660
-532.106	-116.436	-0.535	-0.100
-531.091	-183.202	-0.425	-0.008
-530.077	-200.000	0.041	-0.540
-529.062	-95.163	0.135	0.037
-528.048	-115.749	-0.310	-0.058
-527.033	-31.753	-0.270	0.152
-526.018	-200.000	-0.052	0.412
-525.004	-200.000	0.059	0.441
-523.989	61.394	-0.502	-0.502
-522.975	-10.557	0.471	-0.314
-521.960	-117.757	-0.438	0.079
-520.945	352.091	0.161	-0.321
-519.931	-53.860	-0.912	-0.419
-518.916	-21.153	-0.568	0.350
-517.902	-200.000	0.049	-0.412
-516.887	-183.028	-1.125	0.020
-515.872	-85.566	0.349	0.109
-514.858	323.404	-0.236	-0.453
-513.843	-23.576	-0.512	-0.310
-512.829	196.673	0.291	-0.446
-511.814	-91.233	0.745	-0.215
-510.799	-200.000	-0.009	-0.303
-509.785	-43.907	-0.322	-0.163
-508.770	225.938	0.381	-0.623
-507.756	-44.540	-0.075	0.038
-506.741	171.279	0.111	-0.160
-505.726	272.138	-0.318	-0.564
-504.712	-200.000	-0.053	-0.669
-503.697	146.568	0.561	-0.758
-502.683	800.000	-0.095	0.295
-501.668	-115.806	0.510	0.096
-500.653	800.000	0.099	0.288
-499.639	-96.645	-0.625	0.166
-498.624	186.994	0.234	-0.350
-497.610	-60.191	0.391	-0.168
-496.595	-75.471	-0.163	-0.058
-495.581	800.000	0.263	-0.989
-494.566	76.755	0.552	-0.589
-493.551	104.507	-0.702	0.832
-492.537	-98.407	0.670	-0.173
-491.522	25.474	0.239	-0.200
-490.508	13.848	0.396	0.310
-489.493	413.223	-0.465	-0.996
-488.478	48.134	0.217	-0.204
-487.464	-11.482	-0.669	0.443
-486.449	-48.130	-0.211	-0.103
-485.435	-61.026	0.564	0.240
-484.420	-139.202	0.329	-0.036
-483.405	-92.550	-0.385	0.109
-482.391	74.633	-0.129	0.137
-481.376	142.586	-0.005	-0.006
-480.362	-172.275	-0.394	-0.013
-479.347	-145.030	-0.544	0.050
-478.332	-200.000	-0.061	0.278
-477.318	-3.692	-0.473	-0.331
-476.303	-200.000	0.023	-0.472
-475.289	800.000	0.126	0.419
-474.274	-4.125	0.625	-0.435
-473.259	414.015	0.189	0.405
-472.245	800.000	0.131	0.381
-471.230	43.486	0.337	-0.310
-470.216	24.917	-0.304	-0.254
-469.201	-185.429	0.263	0.004
-468.186	2.242	0.409	-0.298
-467.172	353.476	-0.286	0.571
-466.157	-116.926	0.752	0.138
-465.143	-141.094	-0.390	-0.040
-464.128	-200.000	0.018	0.283
-463.113	800.000	0.086	-0.308
-462.099	125.891	-0.629	0.798
-461.084	578.680	0.034	-0.084
-460.070	20.977	-0.359	0.292
-459.055	-89.357	-0.885	0.262
-458.040	-15.131	-0.446	-0.287
-457.026	-1.744	-0.284	0.201
-456.011	-26.326	-0.362	0.214
-454.997	-99.292	0.274	-0.070
-453.982	39.727	-0.186	-0.167
-452.968	383.008	0.329	0.680
-451.953	-200.000	0.085	-0.874
-450.938	800.000	0.096	0.420
-449.924	236.160	-0.498	-0.828
-448.909	9.785	-0.397	0.303
-447.895	-155.353	-0.563	-0.037
-446.880	-200.000	-0.150	-0.919
-445.865	800.000	0.216	-0.621
-444.851	5.539	1.205	0.894
-443.836	254.878	-0.145	-0.250
-442.822	800.000	-0.123	-0.342
-441.807	-200.000	0.085	-0.442
-440.792	157.279	0.185	0.257
-439.778	-90.640	1.191	-0.346
-438.763	-52.805	0.643	0.297
-437.749	-122.646	0.354	-0.058
-436.734	-126.024	1.314	0.198
-435.719	-19.181	-0.601	0.375
-434.705	-102.730	-0.591	0.141
-433.690	-200.000	0.091	-0.547
-432.676	174.388	-0.403	0.585
-431.661	201.164	0.488	0.754
-430.646	800.000	0.074	0.271
-429.632	-59.311	0.573	-0.248
-428.617	83.170	-0.520	0.568
-427.603	-200.000	0.007	0.293
-426.588	-41.042	0.668	0.346
-425.573	-200.000	-0.124	0.921
-424.559	-45.523	0.271	-0.135
-423.544	660.342	-0.033	0.085
-422.530	101.279	-0.145	0.169
-421.515	-147.038	-0.493	0.042
-420.500	-144.737	-0.816	-0.075
-419.486	-76.420	0.453	0.160
-418.471	-200.000	-0.111	0.886
-417.457	519.711	0.290	-0.682
-416.442	800.000	-0.063	-0.262
-415.428	-119.280	0.486	0.085
-414.413	-50.980	0.650	-0.306
-413.398	33.615	0.531	0.463
-412.384	-132.838	-0.965	0.124
-411.369	800.000	-0.098	0.305
-410.355	323.640	0.249	-0.476
-409.340	64.935	-0.549	0.556
-408.325	75.027	-0.161	-0.170
-407.311	-36.651	0.499	-0.269
-406.296	-181.227	-0.912	0.018
-405.282	3.180	-0.286	-0.208
-404.267	49.033	0.334	-0.315
-403.252	-111.112	0.670	-0.138
-402.238	503.745	0.300	0.695
-401.223	326.444	0.100	0.193
-400.209	-200.000	0.085	0.465
-399.194	-148.980	-0.575	-0.046
-398.179	-28.498	0.241	0.139
-397.165	95.509	0.233	-0.266
-396.150	52.435	0.187	0.179
-395.136	-200.000	-0.094	0.521
-394.121	-136.078	-1.095	0.129
-393.106	-45.348	-0.626	0.312
-392.092	63.392	-0.493	-0.496
-391.077	195.511	-0.180	-0.274
-390.063	-121.528	-0.231	0.038
-389.048	46.001	0.418	0.388
-388.033	457.174	-0.327	-0.727
-387.019	141.445	0.260	-0.345
-386.004	800.000	-0.199	0.596
-384.990	591.991	0.332	0.823
-383.975	-200.000	0.099	-0.760
-382.960	800.000	-0.030	-0.119
-381.946	98.096	-0.509	-0.587
-380.931	281.237	0.069	0.123
-379.917	800.000	0.128	0.506
-378.902	-103.892	0.610	0.143
-377.888	368.155	-0.392	0.794
-376.873	-8.038	0.131	0.088
-375.858	261.563	0.726	1.260
-374.844	-60.094	0.857	0.366
-373.829	-11.662	0.631	-0.415
-372.815	-200.000	-0.011	-0.595
-371.800	161.655	-0.264	0.371
-370.785	75.067	-0.271	-0.286
-369.771	800.000	0.151	-0.557
-368.756	204.640	0.243	-0.378
-367.742	800.000	-0.144	-0.529
-366.727	-200.000	-0.001	-0.164
-365.712	-200.000	-0.067	-0.362
-364.698	-123.021	0.082	-0.013
-363.683	14.969	-0.398	0.312
-362.669	-80.485	-0.832	-0.278
-361.654	-200.000	0.037	-1.242
-360.639	-93.741	-0.776	0.214
-359.625	-137.544	-0.831	0.094
-358.610	800.000	0.224	0.797
-357.596	-200.000	0.055	0.578
-356.581	286.794	0.110	-0.199
-355.566	-52.378	1.013	0.470
-354.552	225.033	0.151	0.244
-353.537	-54.706	-0.697	0.316
-352.523	-84.381	-0.637	-0.202
-351.508	-81.094	-0.232	0.077
-350.493	800.000	0.169	0.512
-349.479	-200.000	-0.095	0.634
-348.464	109.331	0.682	0.817
-347.450	462.254	-0.363	-0.811
-346.435	-94.520	0.515	-0.140
-345.420	-200.000	0.036	0.680
-344.406	800.000	0.183	0.647
-343.391	-200.000	0.001	-0.251
-342.377	800.000	-0.122	0.392
-341.362	-12.055	0.536	-0.351
-340.348	-181.288	-1.688	-0.033
-339.333	-12.424	-0.253	-0.165
-338.318	800.000	0.152	-0.492
-337.304	7.568	0.513	0.384
-336.289	800.000	-0.182	0.635
-335.275	133.173	-0.227	0.294
-334.260	120.200	0.263	0.327
-333.245	279.261	-0.166	-0.296
-332.231	-200.000	0.041	-0.846
-331.216	-84.155	-0.373	0.118
-330.202	373.856	0.276	-0.562
-329.187	-128.307	0.291	0.041
-328.172	-200.000	-0.023	-0.246
-327.158	-200.000	0.197	-1.091
-326.143	159.139	0.359	-0.499
-325.129	349.815	0.137	0.271
-324.114	-113.865	0.299	-0.058
-323.099	-200.000	0.126	-0.625
-322.085	176.536	0.200	-0.290
-321.070	-200.000	0.200	-0.940
-320.056	-89.377	-0.266	-0.078
-319.041	-102.784	-0.884	-0.210
-318.026	52.581	-0.507	0.484
-317.012	104.394	-0.504	-0.593
-315.997	80.078	0.496	-0.533
-314.983	-200.000	0.090	0.501
-313.968	325.224	-0.135	0.258
-312.953	-200.000	0.111	0.902
-311.939	146.941	-0.050	-0.067
-310.924	-16.635	0.426	-0.269
-309.910	95.106	0.355	0.404
-308.895	-185.674	-0.477	0.007
-307.880	-111.448	0.824	-0.168
-306.866	303.105	0.276	-0.510
-305.851	-200.000	0.034	0.178
-304.837	-45.388	-0.190	0.094
-303.822	-59.708	-1.069	0.458
-302.807	11.174	-0.303	0.232
-301.793	-31.596	0.653	-0.367
-300.778	-35.731	0.204	0.111
-299.764	-44.332	0.290	-0.145
-298.749	-200.000	0.085	-0.383
-297.735	-91.042	0.839	-0.241
-296.720	800.000	0.048	0.168
-295.705	-68.210	-0.510	-0.198
-294.691	5.827	0.743	0.549
-293.676	-200.000	-0.010	-0.592
-292.662	-40.408	-0.304	0.158
-291.647	64.661	-0.291	0.293
-290.632	-67.390	0.289	-0.114
-289.618	800.000	-0.078	-0.285
-288.603	-130.135	0.622	0.085
-287.589	-17.902	0.134	-0.084
-286.574	39.042	0.519	-0.464
-285.559	800.000	0.334	-0.972
-284.545	42.991	-0.227	-0.207
-283.530	-10.660	0.659	0.435
-282.516	800.000	0.036	-0.148
-281.501	-59.442	-0.705	-0.302
-280.486	-56.502	-0.366	-0.162
-279.472	-89.417	0.328	-0.096
-278.457	611.234	-0.269	0.672
-277.443	-18.040	0.256	0.160
-276.428	-17.038	-0.086	-0.054
-275.413	284.986	0.340	-0.612
-274.399	-200.000	0.069	0.371
-273.384	92.498	-0.307	0.345
-272.370	113.139	0.647	0.782
-271.355	-70.209	-0.651	0.247
-270.340	-85.009	-0.532	0.166
-269.326	348.271	-0.390	0.767
-268.311	-82.119	0.747	-0.243
-267.297	306.553	0.223	0.414
-266.282	-37.421	0.349	-0.186
-265.267	6.898	0.297	-0.221
-264.253	326.094	0.087	0.166
-263.238	124.104	0.254	0.318
-262.224	538.895	0.316	-0.751
-261.209	-111.936	-0.223	0.045
-260.195	-44.131	0.220	-0.110
-259.180	-70.403	-0.599	-0.226
-258.165	-48.505	-0.609	0.292
-257.151	-101.182	-0.929	-0.226
-256.136	-137.723	0.677	0.076
-255.122	13.750	0.273	-0.212
-254.107	-26.864	0.559	0.325
-253.092	60.314	0.384	0.378
-252.078	800.000	0.125	-0.395
-251.063	-200.000	-0.006	-0.283
-250.049	648.621	-0.232	0.592
-249.034	259.524	-0.354	0.610
-248.019	-71.840	0.478	0.178
-247.005	19.431	0.161	0.129
-245.990	90.639	-0.218	-0.243
-244.976	-122.143	-0.566	0.092
-243.961	-200.000	-0.132	-0.629
-242.946	800.000	-0.169	-0.651
-241.932	70.097	-0.437	0.450
-240.917	61.721	-0.366	0.363
-239.903	-50.826	-0.769	-0.360
-238.888	5.591	0.714	0.526
-237.873	119.967	0.166	-0.205
-236.859	343.637	0.319	0.622
-235.844	-97.356	-0.665	-0.173
-234.830	27.192	-0.779	0.651
-233.815	-18.690	1.031	0.640
-232.800	123.263	-0.489	0.611
-231.786	80.609	0.067	0.072
-230.771	-85.337	-0.845	-0.263
-229.757	177.890	0.746	1.084
-228.742	122.447	-0.366	-0.456
-227.727	450.670	-0.264	-0.580
-226.713	800.000	-0.070	0.204
-225.698	-130.058	-0.392	0.053
-224.684	-83.737	-0.478	0.152
-223.669	-200.000	0.072	0.417
-222.655	330.128	0.707	-1.355
-221.640	-200.000	-0.004	-0.288
-220.625	72.049	0.531	0.550
-219.611	-7.804	-0.527	-0.355
-218.596	-37.556	0.484	0.257
-217.582	57.710	-0.284	-0.276
-216.567	-200.000	0.005	-0.030
-215.552	-69.626	-0.502	-0.191
-214.538	139.413	0.258	-0.338
-213.523	20.175	-0.494	-0.397
-212.509	-200.000	0.029	-0.211
-211.494	51.453	0.422	0.399
-210.479	353.757	-0.362	0.716
-209.465	-200.000	0.009	-1.155
-208.450	-2.249	-0.750	0.524
-207.436	153.603	0.260	-0.355
-206.421	-83.628	-0.651	-0.207
-205.406	22.221	0.396	0.322
-204.392	34.284	-0.453	0.393
-203.377	73.771	0.335	0.349
-202.363	-32.216	0.486	-0.270
-201.348	-63.155	0.508	0.208
-200.333	800.000	0.186	0.569
-199.319	46.077	0.584	-0.538
-198.304	-145.397	-1.042	-0.093
-197.290	743.677	0.172	-0.459
-196.275	-200.000	-0.090	-0.465
-195.260	-69.605	0.477	-0.182
-194.246	-123.668	-0.112	0.018
-193.231	146.955	-0.149	-0.199
-192.217	604.013	-0.132	0.327
-191.202	-51.864	0.942	0.436
-190.187	-200.000	-0.036	-0.496
-189.173	-56.083	0.554	0.246
-188.158	15.335	0.864	0.674
-187.144	278.320	-0.131	-0.232
-186.129	481.246	0.153	0.346
-185.114	-200.000	-0.197	1.068
-184.100	-116.293	-0.442	-0.081
-183.085	-200.000	-0.067	-0.448
-182.071	-200.000	0.036	0.173
-181.056	800.000	0.214	0.902
-180.042	143.911	-0.233	0.308
-179.027	32.488	-0.544	-0.467
-178.012	800.000	-0.287	0.928
-176.998	-64.636	-0.303	-0.122
-175.983	800.000	0.141	0.490
-174.969	-200.000	0.053	0.380
-173.954	15.979	-0.411	0.322
-172.939	113.658	0.716	0.864
-171.925	211.043	0.561	-0.877
-170.910	48.353	0.764	0.711
-169.896	-200.000	0.022	-0.565
-168.881	-70.506	-0.148	-0.056
-167.866	-163.475	-0.427	-0.020
-166.852	33.730	-0.736	0.636
-165.837	-3.185	0.903	-0.625
-164.823	-57.625	-0.878	0.382
-163.808	148.911	0.275	-0.370
-162.793	-200.000	-0.116	-0.521
-161.779	-87.217	0.555	-0.167
-160.764	2.016	0.726	-0.520
-159.750	-115.475	-0.855	-0.160
-158.735	301.776	-0.223	-0.409
-157.720	-27.838	0.218	-0.125
-156.706	-200.000	-0.005	0.324
-155.691	164.740	-0.264	-0.369
-154.677	-200.000	0.070	0.434
-153.662	-108.534	-0.411	0.088
-152.647	-15.115	1.010	0.642
-151.633	662.313	-0.294	0.752
-150.618	-80.790	-0.362	0.119
-149.604	800.000	-0.381	-1.079
-148.589	-86.011	0.961	-0.295
-147.574	81.979	-0.428	0.461
-146.560	96.230	0.257	0.292
-145.545	-200.000	0.035	-0.221
-144.531	-200.000	-0.166	-1.022
-143.516	-200.000	0.074	-0.627
-142.502	-200.000	-0.028	0.131
-141.487	34.470	-0.206	0.179
-140.472	-148.170	-0.672	0.055
-139.458	207.964	0.137	0.213
-138.443	134.002	-0.135	0.174
-137.429	800.000	0.149	0.545
-136.414	-69.971	0.468	-0.177
-135.399	800.000	-0.094	-0.362
-134.385	800.000	0.377	-1.156
-133.370	371.028	-0.347	0.699
-132.356	-108.851	-0.367	-0.078
-131.341	800.000	-0.093	0.369
-130.326	286.160	-0.121	-0.216
-129.312	-200.000	0.068	0.646
-128.297	-200.000	0.158	-0.947
-127.283	84.143	-0.248	-0.269
-126.268	-103.743	-0.439	-0.102
-125.253	81.412	0.211	-0.226
-124.239	-12.485	-1.037	0.672
-123.224	-118.968	1.062	-0.185
-122.210	-91.434	0.214	0.061
-121.195	800.000	-0.239	-0.967
