DTS Sentinel unit serial number:	SN413079Multiplexer serial number:	ORYXHardware model number:	OX4-SRSoftware version number:	ORYX F/W v4.00 Oryx Data Collector v3.7.2.0data status	okinstallation	princeton_trtdifferential loss correction	single-endedforward channel	channel 4reverse channel	N/Adate	2019/09/15time	17:45:35forward acquisition time	60.00reverse acquisition time	0.00gamma	496.2192k internal	0.2275k external	0.2275temperature offset calibration	0.9922default loss term (dB/km)	0.3790temperature slope calibration	1.0000multiplexer offset coefficient	1.0000multiplexer slope coefficient	1.0000fibre end	0.00T internal ref (°C)	44.87T ext. ref 1 (°C)	6.30T ext. ref 2 (°C)	39.74length (m)	temperature (°C)	Stokes	anti-Stokes-747.200	-126.389	0.075	-0.012
-746.185	800.000	0.126	0.393
-745.171	410.055	-0.068	0.148
-744.156	166.537	-0.146	0.213
-743.142	35.020	-0.038	-0.034
-742.127	55.996	-0.118	0.118
-741.112	-200.000	-0.024	-0.181
-740.098	-200.000	0.013	0.279
-739.083	-81.162	0.178	-0.061
-738.069	-65.707	-0.248	0.103
-737.054	-121.096	-0.290	-0.050
-736.039	800.000	-0.060	0.194
-735.025	30.949	-0.004	-0.004
-734.010	42.185	-0.255	-0.238
-732.996	156.729	-0.205	0.292
-731.981	460.315	0.032	-0.073
-730.966	-42.844	-0.061	-0.032
-729.952	800.000	-0.051	-0.221
-728.937	-163.698	-0.059	-0.003
-727.923	-112.209	-0.246	-0.051
-726.908	-118.467	0.299	0.055
-725.894	-75.640	-0.108	-0.040
-724.879	-200.000	-0.007	-0.047
-723.864	800.000	-0.051	-0.223
-722.850	175.498	0.101	-0.150
-721.835	-200.000	-0.021	0.117
-720.821	209.069	-0.204	0.329
-719.806	-49.713	-0.225	-0.110
-718.791	800.000	0.026	-0.103
-717.777	-45.236	-0.154	-0.079
-716.762	-200.000	0.015	0.189
-715.748	-59.268	-0.327	-0.145
-714.733	31.709	-0.220	0.195
-713.718	174.279	-0.051	-0.076
-712.704	42.125	-0.262	-0.245
-711.689	-38.097	-0.181	0.099
-710.675	-8.972	0.191	-0.132
-709.660	-86.691	0.228	0.072
-708.645	-200.000	-0.088	-0.453
-707.631	-94.533	-0.099	0.028
-706.616	-99.289	0.236	0.061
-705.602	-55.722	0.326	-0.150
-704.587	23.586	-0.354	-0.300
-703.572	-200.000	-0.036	-0.264
-702.558	-26.608	0.027	0.016
-701.543	123.246	-0.441	-0.569
-700.529	-200.000	0.035	0.182
-699.514	-38.075	-0.266	-0.145
-698.499	-174.967	0.030	0.001
-697.485	800.000	-0.043	0.165
-696.470	-16.934	0.058	0.038
-695.456	-200.000	-0.011	0.127
-694.441	-87.294	0.336	-0.105
-693.426	-200.000	0.052	0.260
-692.412	-200.000	0.039	-0.350
-691.397	-200.000	0.004	-0.260
-690.383	489.536	-0.160	0.377
-689.368	376.299	0.069	0.144
-688.354	321.503	-0.055	-0.108
-687.339	144.034	0.262	-0.359
-686.324	800.000	-0.184	-0.572
-685.310	-112.652	0.211	-0.043
-684.295	71.746	0.276	0.295
-683.281	-142.975	-0.251	-0.025
-682.266	-200.000	-0.025	-0.509
-681.251	204.075	-0.061	0.097
-680.237	313.286	-0.104	-0.201
-679.222	-65.155	-0.279	0.116
-678.208	119.911	0.092	-0.117
-677.193	429.718	-0.050	-0.112
-676.178	-184.312	0.341	0.006
-675.164	19.341	-0.370	-0.306
-674.149	-93.682	-0.117	0.033
-673.135	-7.269	0.121	0.085
-672.120	-91.112	0.235	0.069
-671.105	-65.082	0.138	-0.057
-670.091	-138.958	0.255	-0.028
-669.076	-178.575	-0.407	-0.010
-668.062	-112.552	-0.374	-0.077
-667.047	-14.949	-0.148	0.098
-666.032	800.000	-0.041	-0.161
-665.018	-42.211	-0.134	0.070
-664.003	-103.299	0.229	0.056
-662.989	88.019	0.106	-0.121
-661.974	-33.365	-0.119	-0.068
-660.959	22.647	-0.045	-0.038
-659.945	-87.041	-0.414	0.130
-658.930	-200.000	0.026	-0.311
-657.916	-200.000	-0.041	-0.306
-656.901	-82.295	0.159	0.053
-655.886	-158.293	-0.294	-0.018
-654.872	90.887	0.271	-0.312
-653.857	364.316	0.048	-0.099
-652.843	461.099	0.226	0.518
-651.828	-44.264	0.334	-0.172
-650.814	-200.000	-0.015	-0.174
-649.799	-31.690	0.143	-0.083
-648.784	71.319	0.196	-0.209
-647.770	156.100	-0.059	-0.083
-646.755	800.000	-0.125	0.475
-645.741	-69.265	0.163	-0.064
-644.726	5.340	-0.211	0.160
-643.711	-93.634	0.352	-0.100
-642.697	760.701	-0.056	0.156
-641.682	262.644	-0.058	0.104
-640.668	-24.622	0.128	0.078
-639.653	78.617	0.161	-0.177
-638.638	-52.443	0.270	-0.128
-637.624	800.000	-0.053	-0.165
-636.609	-53.512	-0.243	-0.114
-635.595	-200.000	-0.015	-0.327
-634.580	800.000	-0.145	0.435
-633.565	-17.003	-0.229	0.148
-632.551	-193.289	0.175	-0.002
-631.536	800.000	-0.030	-0.135
-630.522	201.372	-0.142	-0.225
-629.507	39.784	0.157	0.145
-628.492	-127.957	0.124	-0.018
-627.478	-71.120	0.357	0.138
-626.463	46.247	0.071	-0.068
-625.449	127.450	0.189	-0.246
-624.434	114.184	-0.060	-0.074
-623.419	-46.645	0.178	-0.090
-622.405	313.655	0.107	0.207
-621.390	-19.442	-0.163	-0.104
-620.376	-64.391	0.189	0.079
-619.361	-130.448	-0.183	-0.025
-618.346	369.234	0.242	0.503
-617.332	-136.191	-0.258	0.031
-616.317	-105.797	-0.337	0.078
-615.303	115.416	0.094	-0.118
-614.288	-75.689	0.227	-0.083
-613.273	74.299	0.109	-0.118
-612.259	501.962	-0.063	0.150
-611.244	800.000	0.104	-0.339
-610.230	40.175	-0.154	-0.142
-609.215	218.578	-0.096	-0.158
-608.201	-16.484	-0.079	-0.051
-607.186	93.606	-0.327	0.380
-606.171	134.792	0.040	0.054
-605.157	-100.502	-0.066	0.017
-604.142	-122.276	0.064	0.011
-603.128	-51.229	-0.196	0.094
-602.113	-200.000	-0.014	-0.247
-601.098	-200.000	-0.036	0.188
-600.084	-86.594	0.099	-0.031
-599.069	162.914	-0.142	-0.204
-598.055	-67.298	-0.027	-0.011
-597.040	-200.000	0.029	0.136
-596.025	-22.270	0.086	0.053
-595.011	-33.707	0.275	-0.156
-593.996	170.783	-0.232	0.341
-592.982	-79.100	0.179	0.062
-591.967	100.996	-0.119	0.141
-590.952	65.595	0.322	0.334
-589.938	-119.328	-0.119	-0.021
-588.923	116.775	-0.101	-0.127
-587.909	-115.661	-0.212	0.041
-586.894	600.707	-0.111	-0.282
-585.879	233.125	0.071	-0.120
-584.865	800.000	0.120	-0.420
-583.850	67.011	0.313	-0.327
-582.836	120.568	-0.135	-0.172
-581.821	447.446	0.109	-0.247
-580.806	-82.150	0.142	0.048
-579.792	-14.323	-0.073	0.048
-578.777	177.057	0.050	0.075
-577.763	-99.707	0.296	0.076
-576.748	570.406	-0.108	-0.270
-575.733	-89.859	0.205	-0.061
-574.719	800.000	0.058	0.223
-573.704	-89.316	0.324	-0.098
-572.690	-34.485	-0.076	-0.043
-571.675	2.816	-0.108	-0.080
-570.661	138.858	-0.073	-0.098
-569.646	-121.400	0.256	0.044
-568.631	6.620	-0.295	0.224
-567.617	-200.000	-0.057	0.305
-566.602	156.134	-0.186	-0.262
-565.588	404.918	-0.181	-0.391
-564.573	-200.000	0.011	0.070
-563.558	434.452	0.097	0.215
-562.544	423.933	0.047	0.103
-561.529	241.639	0.152	-0.260
-560.515	61.200	0.505	-0.513
-559.500	-200.000	0.012	0.090
-558.485	95.715	0.049	0.057
-557.471	-20.731	0.153	0.096
-556.456	118.383	-0.028	-0.035
-555.442	0.684	-0.039	0.028
-554.427	-62.180	0.052	0.022
-553.412	39.614	0.029	0.027
-552.398	-66.996	-0.139	-0.056
-551.383	-146.100	-0.279	-0.025
-550.369	-69.372	-0.125	0.049
-549.354	-4.665	0.362	-0.255
-548.339	-175.636	-0.227	0.006
-547.325	800.000	-0.020	0.069
-546.310	360.326	0.104	-0.214
-545.296	-148.097	-0.450	0.038
-544.281	-107.859	-0.224	0.050
-543.266	-47.433	0.097	0.048
-542.252	-83.172	-0.265	0.087
-541.237	-24.358	-0.133	0.081
-540.223	-99.358	0.076	0.019
-539.208	66.926	-0.273	-0.284
-538.193	344.897	-0.092	-0.185
-537.179	-85.285	-0.150	-0.048
-536.164	-77.924	-0.259	0.091
-535.150	-4.042	0.133	-0.095
-534.135	44.163	-0.072	0.067
-533.121	349.049	-0.019	0.039
-532.106	-24.813	-0.276	0.167
-531.091	348.639	-0.133	-0.269
-530.077	-117.217	0.331	-0.061
-529.062	-110.458	-0.099	-0.021
-528.048	-81.704	-0.215	0.072
-527.033	153.691	0.073	-0.102
-526.018	800.000	0.058	0.184
-525.004	90.862	-0.082	-0.094
-523.989	-200.000	0.025	0.245
-522.975	-166.424	0.200	0.009
-521.960	-66.735	-0.232	-0.094
-520.945	800.000	-0.049	0.176
-519.931	62.341	-0.180	-0.183
-518.916	222.244	0.070	-0.115
-517.902	-58.817	-0.030	0.013
-516.887	-30.833	-0.370	0.214
-515.872	-151.757	0.091	0.007
-514.858	-155.221	0.432	-0.029
-513.843	-91.795	0.140	-0.041
-512.829	74.890	-0.141	0.152
-511.814	-200.000	0.017	-0.116
-510.799	-36.968	-0.088	0.048
-509.785	-200.000	-0.016	0.236
-508.770	-52.659	0.369	0.174
-507.756	99.715	-0.093	-0.110
-506.741	-23.408	0.113	-0.070
-505.726	-70.309	-0.155	0.060
-504.712	800.000	-0.075	0.279
-503.697	94.694	0.067	-0.078
-502.683	-99.950	-0.158	0.040
-501.668	-60.624	0.180	-0.078
-500.653	-4.630	0.111	-0.079
-499.639	-4.702	-0.130	-0.092
-498.624	289.639	0.216	0.401
-497.610	-200.000	-0.023	-0.155
-496.595	642.852	-0.061	-0.158
-495.581	519.662	-0.096	-0.230
-494.566	-200.000	-0.002	0.129
-493.551	232.311	-0.138	0.231
-492.537	-77.924	-0.172	-0.061
-491.522	3.051	0.169	-0.126
-490.508	-133.644	0.296	-0.038
-489.493	-200.000	0.053	-0.312
-488.478	-27.117	0.101	-0.060
-487.464	423.183	-0.202	-0.443
-486.449	-187.176	-0.161	-0.002
-485.435	-200.000	0.105	-0.560
-484.420	1.858	0.156	0.115
-483.405	-9.673	0.095	0.065
-482.391	-151.560	0.483	-0.036
-481.376	800.000	0.070	0.201
-480.362	-200.000	-0.009	0.443
-479.347	-190.070	0.044	0.000
-478.332	365.902	0.191	-0.393
-477.318	61.684	0.090	0.091
-476.303	-141.242	0.140	-0.015
-475.289	-142.870	0.151	0.015
-474.274	160.401	-0.096	-0.136
-473.259	100.355	0.095	-0.112
-472.245	390.383	0.031	-0.066
-471.230	-200.000	0.005	-0.088
-470.216	34.537	0.179	0.160
-469.201	-200.000	0.015	0.091
-468.186	162.527	-0.126	0.180
-467.172	-182.189	0.088	0.002
-466.157	-110.170	0.241	0.051
-465.143	133.868	0.166	-0.219
-464.128	-200.000	0.012	-0.172
-463.113	15.029	0.099	-0.079
-462.099	52.771	0.183	-0.179
-461.084	-120.082	0.628	0.110
-460.070	103.128	-0.092	0.110
-459.055	211.299	0.178	0.286
-458.040	-35.898	0.239	-0.132
-457.026	800.000	0.006	-0.024
-456.011	-200.000	0.016	0.104
-454.997	11.816	-0.064	0.050
-453.982	71.444	0.204	-0.216
-452.968	-126.413	0.262	-0.040
-451.953	-13.644	-0.114	-0.075
-450.938	-200.000	0.015	0.169
-449.924	-12.546	-0.214	-0.142
-448.909	519.363	0.147	0.352
-447.895	651.403	-0.076	-0.199
-446.880	-83.986	0.406	0.132
-445.865	-116.442	-0.315	0.059
-444.851	-43.945	-0.122	-0.062
-443.836	81.426	-0.099	-0.109
-442.822	-70.742	-0.020	0.008
-441.807	-200.000	0.022	-0.269
-440.792	111.373	0.141	-0.173
-439.778	-139.148	-0.248	0.027
-438.763	-200.000	0.009	-0.158
-437.749	-77.249	-0.164	-0.058
-436.734	139.781	-0.070	-0.094
-435.719	-73.946	-0.064	-0.024
-434.705	57.444	0.109	-0.108
-433.690	-43.568	-0.175	-0.090
-432.676	160.578	0.123	0.175
-431.661	-31.626	0.181	-0.104
-430.646	-33.446	-0.067	0.038
-429.632	132.046	-0.082	-0.108
-428.617	800.000	0.050	-0.187
-427.603	568.065	0.138	-0.341
-426.588	-60.063	-0.098	-0.043
-425.573	-15.653	0.126	0.082
-424.559	-139.199	-0.076	-0.008
-423.544	-33.898	0.303	-0.170
-422.530	345.147	-0.145	0.290
-421.515	-200.000	-0.003	-0.224
-420.500	-200.000	-0.004	0.116
-419.486	-4.469	0.395	-0.278
-418.471	272.911	0.114	0.205
-417.457	-148.830	0.158	-0.013
-416.442	-200.000	0.011	-0.113
-415.428	800.000	-0.049	0.184
-414.413	-64.764	-0.096	0.039
-413.398	800.000	-0.050	0.212
-412.384	192.740	-0.299	-0.460
-411.369	-59.549	-0.159	0.069
-410.355	800.000	-0.106	0.412
-409.340	-200.000	-0.017	0.161
-408.325	-200.000	0.037	0.215
-407.311	800.000	-0.102	-0.361
-406.296	-80.119	-0.197	0.067
-405.282	85.206	0.133	0.149
-404.267	344.587	0.064	-0.127
-403.252	30.875	0.106	0.093
-402.238	-17.554	-0.134	-0.086
-401.223	453.954	0.026	-0.059
-400.209	75.702	0.377	0.405
-399.194	601.996	0.064	0.162
-398.179	293.680	-0.149	0.277
-397.165	44.911	0.168	-0.158
-396.150	-67.523	-0.057	0.023
-395.136	-168.165	-0.221	0.009
-394.121	-105.437	-0.266	0.061
-393.106	413.801	0.125	0.271
-392.092	-200.000	0.015	-0.235
-391.077	38.267	-0.196	-0.177
-390.063	143.349	-0.152	-0.205
-389.048	-175.052	-0.270	-0.008
-388.033	708.587	-0.132	0.354
-387.019	-63.490	-0.421	-0.176
-386.004	156.532	-0.110	0.155
-384.990	116.292	-0.152	0.190
-383.975	-16.142	0.193	0.125
-382.960	30.496	-0.151	-0.131
-381.946	759.208	0.062	-0.170
-380.931	800.000	-0.057	-0.186
-379.917	-20.081	-0.230	-0.144
-378.902	-200.000	-0.070	-0.325
-377.888	-87.568	-0.171	-0.053
-376.873	171.138	-0.044	0.064
-375.858	800.000	-0.168	0.556
-374.844	-12.870	0.065	0.043
-373.829	-200.000	0.033	0.175
-372.815	-116.571	-0.309	-0.058
-371.800	363.128	-0.170	-0.346
-370.785	455.320	-0.031	0.070
-369.771	-68.804	0.294	-0.116
-368.756	-102.661	0.306	0.074
-367.742	330.134	0.085	-0.167
-366.727	356.294	-0.035	-0.071
-365.712	67.194	-0.060	0.062
-364.698	-89.696	0.086	-0.026
-363.683	-107.098	-0.113	-0.025
-362.669	546.133	-0.094	0.229
-361.654	-41.138	0.186	-0.097
-360.639	-21.483	0.203	-0.126
-359.625	-200.000	-0.004	-0.071
-358.610	-135.884	0.197	-0.024
-357.596	-56.914	-0.097	0.043
-356.581	-47.909	-0.264	-0.130
-355.566	-126.981	0.216	0.032
-354.552	228.672	0.132	-0.219
-353.537	-117.008	-0.365	0.068
-352.523	-35.803	-0.267	-0.147
-351.508	244.765	0.114	0.194
-350.493	84.914	0.078	0.087
-349.479	-32.979	0.111	0.063
-348.464	202.345	-0.213	-0.334
-347.450	22.022	-0.262	-0.217
-346.435	-107.156	0.228	0.051
-345.420	-200.000	-0.039	0.198
-344.406	-141.892	-0.302	-0.031
-343.391	32.364	0.122	-0.107
-342.377	136.992	0.148	-0.197
-341.362	5.775	0.125	0.094
-340.348	-200.000	0.004	0.056
-339.333	3.806	-0.169	-0.126
-338.318	132.540	0.189	-0.247
-337.304	503.975	-0.080	-0.189
-336.289	63.064	-0.197	0.201
-335.275	-200.000	0.036	0.404
-334.260	-200.000	-0.017	-0.170
-333.245	800.000	-0.028	0.107
-332.231	271.996	0.142	0.254
-331.216	-97.673	0.149	0.039
-330.202	654.038	0.107	0.280
-329.187	800.000	0.021	0.079
-328.172	800.000	-0.086	-0.354
-327.158	-25.499	0.269	0.161
-326.143	424.206	0.109	0.239
-325.129	140.940	-0.137	-0.183
-324.114	-121.929	-0.241	0.040
-323.099	-200.000	0.056	0.292
-322.085	-200.000	-0.038	-0.318
-321.070	97.009	0.268	-0.311
-320.056	358.632	0.098	0.199
-319.041	201.373	-0.021	0.033
-318.026	400.024	0.177	-0.376
-317.012	345.746	0.201	-0.400
-315.997	-87.976	-0.088	0.027
-314.983	-59.293	0.471	0.206
-313.968	800.000	0.019	-0.073
-312.953	4.366	-0.186	0.138
-311.939	-108.273	-0.034	-0.008
-310.924	800.000	0.072	-0.218
-309.910	-177.287	-0.320	-0.008
-308.895	-57.072	-0.218	0.097
-307.880	-6.784	-0.036	-0.025
-306.866	526.195	-0.077	0.183
-305.851	321.757	-0.144	-0.277
-304.837	-6.324	0.169	0.117
-303.822	119.520	-0.183	-0.230
-302.807	49.510	0.156	0.149
-301.793	-200.000	-0.005	-0.088
-300.778	-200.000	0.042	-0.290
-299.764	-98.385	0.217	-0.056
-298.749	-182.265	0.050	0.001
-297.735	-72.662	-0.180	0.067
-296.720	214.872	-0.051	0.081
-295.705	-34.072	-0.105	0.058
-294.691	77.106	0.149	-0.160
-293.676	-70.543	0.172	0.066
-292.662	92.684	-0.248	-0.284
-291.647	-58.790	-0.116	0.051
-290.632	-0.158	0.166	0.120
-289.618	-124.207	-0.090	-0.014
-288.603	159.923	0.045	-0.063
-287.589	-200.000	0.005	0.142
-286.574	-74.199	-0.091	-0.033
-285.559	-39.323	-0.080	-0.043
-284.545	800.000	-0.077	0.287
-283.530	-200.000	-0.004	-0.233
-282.516	-69.808	-0.315	0.122
-281.501	332.239	-0.067	-0.131
-280.486	800.000	-0.063	-0.234
-279.472	400.340	0.098	0.208
-278.457	800.000	-0.071	0.313
-277.443	-36.131	-0.274	0.150
-276.428	-61.359	-0.067	0.029
-275.413	-200.000	0.014	-0.203
-274.399	-200.000	0.024	0.353
-273.384	-200.000	-0.012	0.397
-272.370	-64.867	0.229	0.094
-271.355	-200.000	-0.006	0.054
-270.340	-126.740	0.093	0.014
-269.326	18.813	-0.279	-0.226
-268.311	322.688	0.071	-0.137
-267.297	103.952	0.129	0.154
-266.282	422.620	0.026	0.056
-265.267	-30.843	-0.122	0.070
-264.253	108.641	-0.214	0.259
-263.238	610.366	-0.121	0.306
-262.224	30.964	-0.042	0.037
-261.209	-73.519	0.042	-0.016
-260.195	-174.881	-0.088	0.002
-259.180	-16.895	0.088	-0.057
-258.165	-121.391	-0.243	0.041
-257.151	-30.864	0.257	0.147
-256.136	800.000	0.072	0.230
-255.122	138.782	-0.122	-0.162
-254.107	499.448	-0.017	-0.039
-253.092	158.637	0.189	0.266
-252.078	-110.262	-0.144	-0.030
-251.063	-200.000	-0.096	-0.550
-250.049	45.218	0.116	-0.108
-249.034	-200.000	0.024	0.286
-248.019	47.964	0.267	0.252
-247.005	358.784	-0.149	0.302
-245.990	-54.961	0.112	-0.051
-244.976	294.345	0.180	0.334
-243.961	-136.886	-0.514	0.060
-242.946	-200.000	-0.051	0.575
-241.932	-104.691	0.142	-0.033
-240.917	-140.800	-0.337	-0.035
-239.903	224.593	-0.171	-0.279
-238.888	-117.610	0.092	-0.017
-237.873	-112.971	-0.051	-0.010
-236.859	-200.000	0.006	-0.071
-235.844	-200.000	0.002	-0.296
-234.830	237.780	0.031	0.052
-233.815	655.998	-0.057	-0.149
-232.800	-165.332	-0.163	0.007
-231.786	-47.891	-0.198	-0.097
-230.771	800.000	0.067	0.257
-229.757	233.377	-0.116	-0.193
-228.742	-27.291	0.044	-0.026
-227.727	-177.730	-0.223	-0.005
-226.713	19.090	0.361	0.293
-225.698	800.000	-0.038	0.138
-224.684	-200.000	-0.034	0.234
-223.669	2.010	-0.014	0.010
-222.655	50.834	-0.122	-0.117
-221.640	17.817	0.086	-0.070
-220.625	217.195	0.032	0.051
-219.611	-200.000	0.006	0.103
-218.596	13.608	0.290	0.228
-217.582	-18.004	-0.111	0.070
-216.567	-55.721	-0.176	-0.080
-215.552	-3.613	0.106	0.074
-214.538	68.055	-0.205	-0.212
-213.523	439.495	-0.236	-0.521
-212.509	-200.000	-0.039	0.202
-211.494	800.000	-0.053	0.204
-210.479	-148.172	-0.236	0.020
-209.465	-11.118	-0.036	0.024
-208.450	-116.009	-0.151	0.028
-207.436	21.208	-0.141	0.116
-206.421	138.213	-0.170	-0.225
-205.406	-106.346	-0.034	0.008
-204.392	432.980	0.032	-0.070
-203.377	343.815	-0.121	-0.239
-202.363	156.482	-0.123	0.171
-201.348	-87.991	0.264	0.080
-200.333	67.882	-0.115	-0.119
-199.319	800.000	-0.051	0.224
-198.304	-200.000	-0.025	-0.332
-197.290	43.435	-0.146	-0.134
-196.275	1.139	0.104	0.075
-195.260	-44.735	0.169	0.085
-194.246	-118.215	-0.035	-0.006
-193.231	158.128	-0.159	0.222
-192.217	-125.478	0.088	-0.013
-191.202	314.367	0.089	0.170
-190.187	-86.678	0.336	0.104
-189.173	260.651	-0.062	0.108
-188.158	185.501	0.098	-0.147
-187.144	136.617	0.033	-0.044
-186.129	-97.245	0.096	-0.025
-185.114	-200.000	0.015	-0.172
-184.100	-100.640	-0.320	0.080
-183.085	361.555	0.097	0.197
-182.071	-200.000	-0.015	-0.237
-181.056	-79.495	-0.120	0.041
-180.042	-68.322	0.130	0.051
-179.027	-18.711	-0.223	0.140
-178.012	-71.146	-0.243	0.092
-176.998	309.825	-0.051	0.097
-175.983	412.069	0.042	0.090
-174.969	800.000	0.027	-0.076
-173.954	361.945	0.123	-0.249
-172.939	-102.677	-0.119	0.029
-171.925	-125.399	0.072	0.011
-170.910	-147.133	0.206	-0.018
-169.896	56.888	0.249	0.245
-168.881	-161.166	0.198	-0.010
-167.866	148.858	0.087	-0.118
-166.852	-26.861	0.397	0.234
-165.837	6.087	-0.148	0.110
-164.823	-114.581	-0.149	0.029
-163.808	-41.812	0.196	-0.101
-162.793	-15.530	-0.104	0.067
-161.779	703.050	0.066	-0.176
-160.764	-132.424	0.004	-0.000
-159.750	800.000	-0.085	0.249
-158.735	153.110	0.150	0.207
-157.720	93.383	-0.190	0.217
-156.706	53.109	0.146	-0.141
-155.691	-136.082	0.285	0.034
-154.677	-11.151	0.185	0.123
-153.662	512.828	-0.104	0.245
-152.647	153.098	0.129	0.177
-151.633	446.874	0.105	0.233
-150.618	31.166	-0.296	-0.256
-149.604	-60.602	-0.024	0.010
-148.589	451.900	-0.132	-0.294
-147.574	-44.639	0.132	0.067
-146.560	-126.925	-0.134	0.020
-145.545	161.749	0.166	-0.234
-144.531	-124.072	0.255	-0.040
-143.516	421.960	-0.093	0.201
-142.502	309.364	0.079	0.148
-141.487	-200.000	0.000	0.276
-140.472	43.738	-0.139	0.128
-139.458	187.679	-0.180	-0.270
-138.443	-200.000	-0.021	0.280
-137.429	-82.447	-0.124	0.041
-136.414	-180.748	0.124	-0.003
-135.399	-200.000	0.037	-0.214
-134.385	-114.262	0.136	-0.026
-133.370	800.000	0.067	-0.220
-132.356	622.612	0.018	0.046
-131.341	250.178	0.137	0.234
-130.326	800.000	0.113	0.392
-129.312	800.000	0.018	0.054
-128.297	4.540	-0.160	-0.118
-127.283	-160.479	0.057	-0.003
-126.268	-200.000	0.013	0.231
-125.253	800.000	0.084	-0.316
-124.239	-200.000	0.006	-0.076
-123.224	-13.965	-0.103	-0.067
-122.210	-53.758	0.284	0.130
-121.195	241.902	-0.048	-0.080
