DTS Sentinel unit serial number:	SN413079Multiplexer serial number:	ORYXHardware model number:	OX4-SRSoftware version number:	ORYX F/W v4.00 Oryx Data Collector v3.7.2.0data status	okinstallation	princeton_trtdifferential loss correction	single-endedforward channel	channel 4reverse channel	N/Adate	2019/09/18time	14:17:35forward acquisition time	60.00reverse acquisition time	0.00gamma	496.2192k internal	0.2302k external	0.2302temperature offset calibration	0.9998default loss term (dB/km)	0.3790temperature slope calibration	1.0000multiplexer offset coefficient	1.0000multiplexer slope coefficient	1.0000fibre end	0.00T internal ref (°C)	34.31T ext. ref 1 (°C)	0.67T ext. ref 2 (°C)	29.06length (m)	temperature (°C)	Stokes	anti-Stokes-747.200	377.456	-0.134	0.278
-746.185	30.798	-0.139	-0.122
-745.171	-200.000	0.490	-0.002
-744.156	-122.780	-0.279	-0.046
-743.142	800.000	0.030	-0.122
-742.127	40.818	0.100	0.092
-741.112	-130.288	-0.210	-0.029
-740.098	-41.249	-0.417	0.219
-739.083	-200.000	0.031	0.200
-738.069	-118.317	-0.231	0.042
-737.054	800.000	0.069	-0.307
-736.039	42.336	-0.104	-0.096
-735.025	-195.735	0.179	0.001
-734.010	260.782	-0.238	-0.420
-732.996	800.000	0.006	0.020
-731.981	-200.000	-0.001	0.013
-730.966	30.117	0.200	0.174
-729.952	800.000	0.077	-0.260
-728.937	14.193	0.041	0.033
-727.923	-71.964	-0.179	-0.068
-726.908	-96.549	0.308	-0.083
-725.894	-51.055	0.181	-0.087
-724.879	800.000	0.078	0.284
-723.864	-200.000	-0.009	0.220
-722.850	-34.591	-0.093	-0.052
-721.835	-158.324	-0.287	-0.017
-720.821	383.436	0.116	0.243
-719.806	-141.141	0.205	-0.021
-718.791	-68.910	-0.249	0.098
-717.777	-200.000	-0.048	-0.237
-716.762	88.682	0.137	-0.155
-715.748	-200.000	0.008	-0.036
-714.733	136.663	0.054	-0.071
-713.718	141.286	-0.323	0.435
-712.704	-200.000	-0.002	-0.086
-711.689	-147.597	-0.248	0.021
-710.675	338.135	0.163	0.323
-709.660	-200.000	0.010	-0.226
-708.645	81.027	-0.046	-0.050
-707.631	216.975	-0.106	0.172
-706.616	105.636	-0.003	0.004
-705.602	-120.003	-0.484	0.085
-704.587	264.019	0.090	0.159
-703.572	42.201	0.239	-0.221
-702.558	-167.410	-0.327	0.013
-701.543	172.297	0.109	-0.159
-700.529	166.801	-0.247	0.357
-699.514	576.622	-0.079	-0.195
-698.499	-93.649	0.099	-0.028
-697.485	-0.173	-0.153	0.111
-696.470	31.268	0.042	-0.037
-695.456	-198.307	-0.168	-0.001
-694.441	4.920	0.088	-0.066
-693.426	-200.000	-0.012	0.210
-692.412	-200.000	0.047	-0.401
-691.397	-200.000	0.007	0.059
-690.383	-200.000	-0.008	0.299
-689.368	800.000	-0.066	-0.243
-688.354	-23.652	-0.151	0.092
-687.339	152.366	-0.122	0.169
-686.324	-200.000	-0.058	0.293
-685.310	-200.000	-0.019	-0.145
-684.295	9.566	0.234	-0.180
-683.281	-187.957	-0.309	0.004
-682.266	-152.344	0.466	-0.034
-681.251	-200.000	0.006	-0.078
-680.237	-200.000	-0.010	-0.126
-679.222	142.179	-0.157	-0.211
-678.208	800.000	-0.022	0.080
-677.193	-200.000	0.055	-0.331
-676.178	-200.000	0.005	-0.063
-675.164	-56.910	0.115	0.051
-674.149	-55.624	0.181	-0.082
-673.135	-200.000	-0.019	0.113
-672.120	-123.543	-0.171	-0.028
-671.105	-62.497	-0.215	-0.091
-670.091	40.687	0.183	0.167
-669.076	-104.816	-0.252	0.059
-668.062	-166.438	-0.118	0.005
-667.047	70.020	-0.342	-0.358
-666.032	73.769	0.222	-0.236
-665.018	-200.000	-0.023	0.129
-664.003	-200.000	-0.038	-0.233
-662.989	-200.000	-0.012	-0.197
-661.974	131.086	-0.151	-0.197
-660.959	-200.000	-0.010	-0.248
-659.945	72.355	-0.016	-0.017
-658.930	-8.792	-0.091	0.062
-657.916	164.613	0.103	-0.147
-656.901	-200.000	0.038	0.214
-655.886	400.982	-0.061	0.129
-654.872	42.231	0.047	0.043
-653.857	800.000	0.067	0.297
-652.843	-148.227	-0.125	-0.010
-651.828	-73.695	-0.146	0.054
-650.814	800.000	-0.077	-0.217
-649.799	-200.000	0.026	-0.228
-648.784	-182.373	-0.208	0.004
-647.770	-142.209	0.199	0.020
-646.755	274.066	-0.083	0.149
-645.741	-186.872	-0.072	0.001
-644.726	-76.880	0.083	-0.029
-643.711	-117.850	0.272	-0.050
-642.697	311.995	-0.249	0.475
-641.682	60.784	-0.199	-0.201
-640.668	40.828	0.396	-0.362
-639.653	20.611	0.209	-0.172
-638.638	172.884	0.101	-0.147
-637.624	49.342	-0.012	-0.011
-636.609	-75.069	-0.184	0.067
-635.595	800.000	0.053	-0.226
-634.580	224.379	0.045	0.074
-633.565	-63.181	0.346	-0.145
-632.551	316.174	-0.076	0.145
-631.536	-113.914	-0.040	-0.008
-630.522	-64.041	0.138	0.057
-629.507	-140.085	0.285	0.030
-628.492	-96.350	0.451	0.121
-627.478	198.481	-0.142	-0.220
-626.463	-63.567	-0.202	-0.084
-625.449	-87.743	-0.286	-0.088
-624.434	800.000	-0.062	0.221
-623.419	800.000	-0.061	-0.240
-622.405	-121.651	0.195	0.033
-621.390	-167.784	0.055	0.002
-620.376	-71.067	-0.170	0.065
-619.361	-148.012	-0.499	-0.042
-618.346	122.710	-0.177	-0.225
-617.332	800.000	0.052	-0.181
-616.317	-200.000	0.008	-0.421
-615.303	331.221	-0.020	-0.040
-614.288	-200.000	0.018	-0.414
-613.273	-200.000	-0.033	0.194
-612.259	-88.079	0.200	0.061
-611.244	-200.000	0.032	-0.428
-610.230	-111.891	0.151	0.031
-609.215	-46.477	0.180	-0.090
-608.201	-72.498	-0.221	-0.083
-607.186	113.234	0.033	-0.040
-606.171	609.151	0.138	0.350
-605.157	-63.741	0.333	0.138
-604.142	473.019	-0.082	0.186
-603.128	257.892	-0.078	-0.137
-602.113	-69.962	-0.191	0.074
-601.098	-86.515	-0.242	-0.075
-600.084	-117.315	-0.217	-0.040
-599.069	60.858	0.234	-0.235
-598.055	-22.268	0.204	-0.126
-597.040	152.929	0.111	0.153
-596.025	-200.000	-0.007	0.075
-595.011	511.974	0.076	0.180
-593.996	-65.231	0.034	0.014
-592.982	480.502	0.132	0.303
-591.967	-57.662	0.286	0.127
-590.952	53.564	-0.256	-0.249
-589.938	800.000	-0.028	-0.119
-588.923	-200.000	-0.041	0.239
-587.909	77.579	-0.040	0.043
-586.894	-12.674	-0.204	-0.135
-585.879	-154.399	0.230	0.016
-584.865	670.197	0.152	-0.398
-583.850	-131.983	-0.407	-0.054
-582.836	-0.205	0.051	0.036
-581.821	-87.137	-0.178	-0.055
-580.806	-86.202	0.196	-0.061
-579.792	-200.000	0.013	0.106
-578.777	800.000	0.076	0.259
-577.763	-59.222	0.180	0.079
-576.748	-20.846	0.062	0.039
-575.733	168.159	-0.099	0.143
-574.719	-200.000	-0.021	-0.263
-573.704	-200.000	-0.037	-0.343
-572.690	800.000	-0.095	-0.274
-571.675	243.371	0.125	-0.212
-570.661	-173.448	-0.296	0.009
-569.646	800.000	0.064	-0.207
-568.631	-200.000	0.022	-0.117
-567.617	110.134	0.298	-0.362
-566.602	-35.456	-0.326	-0.179
-565.588	163.505	0.097	0.138
-564.573	-200.000	0.082	0.500
-563.558	-200.000	-0.037	0.188
-562.544	320.617	-0.155	0.299
-561.529	775.919	-0.049	-0.137
-560.515	-140.443	0.051	0.005
-559.500	-40.647	-0.206	-0.108
-558.485	-200.000	-0.003	0.510
-557.471	800.000	0.065	-0.199
-556.456	-41.176	0.098	-0.051
-555.442	102.388	0.140	-0.165
-554.427	800.000	0.095	0.327
-553.412	-108.718	0.089	0.019
-552.398	-93.445	-0.392	0.110
-551.383	58.819	0.108	0.107
-550.369	128.068	0.027	-0.035
-549.354	211.981	-0.068	0.109
-548.339	-123.622	-0.212	0.034
-547.325	462.317	0.090	-0.204
-546.310	-148.790	0.060	-0.005
-545.296	-200.000	-0.039	0.270
-544.281	-21.483	-0.233	0.144
-543.266	-200.000	-0.045	-0.222
-542.252	86.320	0.045	-0.050
-541.237	-187.948	-0.166	-0.002
-540.223	-66.651	0.426	-0.171
-539.208	103.328	-0.140	-0.166
-538.193	235.246	-0.068	-0.113
-537.179	208.316	-0.176	0.278
-536.164	202.194	-0.198	0.308
-535.150	-95.676	-0.268	-0.073
-534.135	545.937	0.037	0.090
-533.121	-200.000	0.005	-0.255
-532.106	-200.000	-0.026	-0.263
-531.091	36.366	0.150	0.134
-530.077	-136.716	-0.079	0.009
-529.062	32.285	-0.168	-0.146
-528.048	-200.000	0.018	-0.100
-527.033	33.739	-0.161	-0.142
-526.018	-115.407	-0.354	-0.067
-525.004	-111.534	-0.131	-0.027
-523.989	800.000	-0.078	0.333
-522.975	-148.044	0.148	-0.012
-521.960	-13.863	0.218	-0.142
-520.945	668.877	-0.130	0.340
-519.931	-33.533	-0.097	0.054
-518.916	-200.000	-0.043	0.195
-517.902	-32.759	0.101	-0.057
-516.887	20.314	0.169	-0.138
-515.872	-200.000	-0.000	-0.004
-514.858	-200.000	-0.029	0.153
-513.843	-133.786	0.330	0.042
-512.829	-40.695	0.180	-0.094
-511.814	-200.000	-0.009	0.133
-510.799	-200.000	-0.015	-0.085
-509.785	29.865	0.183	-0.157
-508.770	800.000	0.044	-0.182
-507.756	106.269	0.089	-0.107
-506.741	637.209	-0.040	0.104
-505.726	316.556	-0.278	0.530
-504.712	16.050	-0.127	-0.101
-503.697	-200.000	-0.029	-0.240
-502.683	226.673	0.240	-0.393
-501.668	17.579	0.191	0.153
-500.653	263.322	-0.034	0.059
-499.639	-200.000	-0.038	0.406
-498.624	279.751	-0.086	0.155
-497.610	-178.217	0.201	-0.005
-496.595	-200.000	0.016	0.110
-495.581	-173.085	-0.230	-0.007
-494.566	800.000	-0.071	-0.199
-493.551	198.988	-0.195	-0.302
-492.537	-97.579	0.165	-0.043
-491.522	-200.000	-0.034	0.210
-490.508	800.000	0.064	-0.207
-489.493	-109.830	-0.180	0.038
-488.478	35.562	-0.112	0.099
-487.464	118.877	-0.120	0.149
-486.449	-62.175	0.137	0.057
-485.435	278.939	0.085	-0.152
-484.420	365.658	-0.069	-0.140
-483.405	-200.000	-0.019	-0.215
-482.391	800.000	0.015	0.042
-481.376	88.578	-0.252	-0.283
-480.362	33.935	-0.135	0.119
-479.347	-200.000	-0.006	-0.092
-478.332	800.000	0.084	0.263
-477.318	97.344	-0.182	0.210
-476.303	-101.459	0.301	0.074
-475.289	-200.000	-0.039	-0.353
-474.274	-146.757	-0.018	-0.002
-473.259	-131.269	0.292	0.039
-472.245	-195.905	-0.241	-0.002
-471.230	56.056	0.121	0.118
-470.216	59.225	-0.160	0.158
-469.201	-36.019	0.248	-0.135
-468.186	-54.286	0.202	-0.092
-467.172	52.948	-0.108	0.104
-466.157	800.000	0.031	-0.086
-465.143	-200.000	0.004	-0.112
-464.128	-92.307	0.102	0.029
-463.113	568.742	0.099	-0.242
-462.099	-154.565	0.423	-0.028
-461.084	-13.986	-0.121	0.079
-460.070	-200.000	0.015	-0.207
-459.055	571.801	-0.033	-0.080
-458.040	380.920	-0.145	-0.300
-457.026	800.000	0.064	0.241
-456.011	94.491	0.084	-0.096
-454.997	-86.673	0.143	0.044
-453.982	800.000	-0.117	-0.440
-452.968	-93.992	0.366	-0.101
-451.953	320.124	-0.102	0.195
-450.938	-200.000	0.017	0.236
-449.924	41.243	-0.035	0.032
-448.909	800.000	-0.066	0.286
-447.895	-200.000	0.074	0.356
-446.880	-153.875	-0.268	-0.018
-445.865	59.446	0.169	0.168
-444.851	-61.236	-0.107	-0.046
-443.836	65.829	-0.100	0.102
-442.822	-200.000	0.016	-0.317
-441.807	566.872	-0.077	-0.189
-440.792	177.074	0.118	-0.173
-439.778	33.509	-0.058	-0.050
-438.763	-128.308	-0.182	-0.026
-437.749	-133.365	0.005	-0.001
-436.734	-57.661	0.214	0.094
-435.719	-59.916	-0.074	0.032
-434.705	-90.612	0.213	0.062
-433.690	52.989	-0.213	-0.205
-432.676	65.263	0.187	0.190
-431.661	254.090	0.133	-0.230
-430.646	-200.000	-0.066	0.447
-429.632	-167.700	0.174	-0.007
-428.617	-73.415	-0.188	0.069
-427.603	800.000	-0.059	-0.225
-426.588	303.162	0.262	0.489
-425.573	800.000	0.063	-0.221
-424.559	-133.858	-0.244	0.031
-423.544	95.405	-0.089	0.102
-422.530	-130.965	-0.357	-0.048
-421.515	800.000	0.087	-0.281
-420.500	27.463	-0.233	-0.197
-419.486	-26.982	-0.290	0.170
-418.471	227.676	0.156	0.255
-417.457	-162.480	-0.202	-0.010
-416.442	121.508	0.129	-0.162
-415.428	8.668	0.383	0.290
-414.413	-168.231	-0.221	0.009
-413.398	245.629	-0.051	0.086
-412.384	233.757	0.235	0.390
-411.369	-95.202	0.074	-0.020
-410.355	38.566	0.127	-0.114
-409.340	3.257	0.071	-0.052
-408.325	-45.283	-0.206	0.103
-407.311	119.038	0.157	-0.195
-406.296	43.988	0.114	0.106
-405.282	-200.000	-0.003	-0.127
-404.267	57.070	0.131	-0.128
-403.252	288.042	-0.066	-0.120
-402.238	-150.213	0.179	0.014
-401.223	-74.256	0.224	-0.081
-400.209	-6.150	-0.155	0.107
-399.194	157.216	-0.273	0.379
-398.179	-10.601	-0.202	-0.135
-397.165	139.260	0.168	-0.222
-396.150	-64.246	-0.278	-0.114
-395.136	800.000	-0.043	0.161
-394.121	55.089	0.271	0.263
-393.106	34.927	0.228	0.200
-392.092	538.241	-0.100	0.239
-391.077	-200.000	-0.008	-0.270
-390.063	-181.445	0.303	-0.006
-389.048	-52.438	-0.344	0.160
-388.033	170.037	-0.282	-0.405
-387.019	-200.000	-0.052	-0.332
-386.004	-54.566	0.315	0.143
-384.990	113.496	0.103	-0.125
-383.975	-89.951	0.099	0.029
-382.960	800.000	0.043	-0.129
-381.946	-49.217	0.159	0.076
-380.931	-60.636	-0.206	0.088
-379.917	77.321	0.091	-0.097
-378.902	-59.170	-0.266	0.115
-377.888	-200.000	-0.048	0.222
-376.873	87.262	0.179	-0.199
-375.858	777.947	-0.102	0.280
-374.844	-200.000	0.001	0.235
-373.829	800.000	0.045	-0.131
-372.815	-50.205	-0.272	-0.129
-371.800	119.269	0.096	0.119
-370.785	-99.665	-0.297	-0.075
-369.771	-200.000	-0.020	-0.175
-368.756	800.000	0.130	-0.474
-367.742	651.143	-0.117	0.301
-366.727	-200.000	0.058	-0.300
-365.712	6.459	0.103	0.077
-364.698	-200.000	0.008	0.117
-363.683	-200.000	0.025	-0.133
-362.669	374.755	0.059	0.120
-361.654	53.219	-0.046	0.044
-360.639	172.100	0.149	0.215
-359.625	-200.000	-0.022	0.258
-358.610	118.574	-0.085	-0.105
-357.596	264.102	0.059	0.103
-356.581	351.003	-0.055	0.109
-355.566	-22.635	-0.043	-0.026
-354.552	-200.000	-0.014	-0.130
-353.537	800.000	0.036	0.103
-352.523	800.000	-0.022	0.084
-351.508	800.000	-0.050	-0.172
-350.493	-96.596	-0.202	-0.054
-349.479	-135.291	0.194	-0.023
-348.464	760.107	0.057	0.155
-347.450	-8.689	-0.122	0.082
-346.435	273.356	-0.262	-0.464
-345.420	-164.545	-0.401	-0.018
-344.406	327.894	0.105	-0.202
-343.391	-97.498	0.032	-0.008
-342.377	490.482	0.089	-0.205
-341.362	7.029	0.197	0.148
-340.348	-200.000	-0.023	0.159
-339.333	-42.778	0.225	-0.115
-338.318	-83.068	-0.393	-0.127
-337.304	78.924	-0.076	-0.081
-336.289	-200.000	0.023	0.367
-335.275	800.000	0.108	-0.357
-334.260	-132.559	0.330	0.043
-333.245	126.155	-0.109	0.138
-332.231	41.961	-0.209	0.190
-331.216	-200.000	0.017	0.109
-330.202	-104.660	0.351	-0.081
-329.187	-71.387	-0.416	-0.156
-328.172	-106.333	-0.355	-0.080
-327.158	-200.000	0.055	-0.266
-326.143	95.993	0.093	0.106
-325.129	-91.415	-0.195	0.056
-324.114	800.000	0.090	0.298
-323.099	-146.602	0.191	-0.017
-322.085	216.270	0.085	0.136
-321.070	-200.000	0.022	0.324
-320.056	-200.000	-0.025	0.195
-319.041	800.000	-0.032	0.136
-318.026	722.818	0.041	-0.109
-317.012	-200.000	-0.002	-0.229
-315.997	-138.836	0.191	0.021
-314.983	0.267	0.203	-0.145
-313.968	179.582	-0.055	0.080
-312.953	-23.543	-0.171	-0.103
-311.939	442.787	0.008	0.017
-310.924	800.000	-0.040	0.164
-309.910	-121.778	-0.214	0.035
-308.895	64.149	-0.095	0.096
-307.880	-200.000	0.037	0.191
-306.866	-98.826	-0.388	-0.099
-305.851	-0.619	-0.234	-0.166
-304.837	-103.422	0.364	0.086
-303.822	-200.000	-0.004	0.200
-302.807	52.558	0.138	0.132
-301.793	-93.447	-0.178	-0.049
-300.778	175.654	-0.067	-0.097
-299.764	-200.000	-0.044	0.301
-298.749	308.725	-0.147	-0.274
-297.735	-111.815	0.336	-0.068
-296.720	-37.379	0.284	-0.152
-295.705	323.373	-0.102	-0.194
-294.691	-200.000	-0.021	0.148
-293.676	800.000	0.062	0.247
-292.662	-39.637	0.211	-0.110
-291.647	-37.505	0.027	-0.015
-290.632	126.751	-0.106	0.134
-289.618	-73.580	0.254	0.093
-288.603	27.100	-0.086	-0.072
-287.589	-76.884	0.295	0.103
-286.574	26.889	-0.266	-0.223
-285.559	-200.000	0.054	-0.361
-284.545	108.832	0.045	0.054
-283.530	145.088	0.164	0.219
-282.516	160.982	-0.138	0.193
-281.501	-200.000	-0.015	0.149
-280.486	255.633	-0.123	0.211
-279.472	426.559	0.033	0.071
-278.457	163.136	-0.134	0.189
-277.443	180.599	-0.018	-0.026
-276.428	-141.874	-0.169	-0.017
-275.413	800.000	0.037	0.129
-274.399	-192.034	0.171	-0.002
-273.384	202.856	0.073	0.112
-272.370	231.650	0.098	-0.160
-271.355	-200.000	0.074	0.428
-270.340	398.564	0.088	-0.184
-269.326	800.000	0.022	-0.088
-268.311	29.228	-0.118	0.100
-267.297	164.867	-0.153	0.216
-266.282	21.305	0.146	-0.118
-265.267	-103.382	0.251	-0.059
-264.253	42.686	-0.140	-0.128
-263.238	-98.364	0.373	-0.096
-262.224	251.108	0.102	0.174
-261.209	-117.328	0.204	0.037
-260.195	-105.431	-0.169	0.038
-259.180	-34.418	-0.123	0.067
-258.165	792.936	0.066	-0.181
-257.151	-200.000	0.019	-0.128
-256.136	69.158	-0.231	-0.238
-255.122	388.228	-0.093	0.192
-254.107	-200.000	0.017	0.102
-253.092	53.544	0.131	-0.125
-252.078	-16.484	-0.040	-0.026
-251.063	-56.749	0.359	0.159
-250.049	-90.011	-0.355	-0.104
-249.034	-53.128	0.018	0.008
-248.019	112.635	-0.111	0.134
-247.005	-66.361	-0.333	-0.133
-245.990	107.361	0.083	-0.099
-244.976	-139.209	0.164	0.018
-243.961	436.075	0.009	0.019
-242.946	-49.998	0.267	-0.127
-241.932	57.878	-0.086	0.084
-240.917	215.604	-0.252	0.399
-239.903	65.770	-0.112	-0.114
-238.888	254.186	-0.195	0.332
-237.873	800.000	-0.058	0.192
-236.859	-27.055	-0.326	0.190
-235.844	-75.892	-0.284	0.100
-234.830	-48.000	0.083	0.040
-233.815	-200.000	-0.016	-0.262
-232.800	-132.978	0.151	0.019
-231.786	286.097	-0.126	-0.227
-230.771	-71.732	0.340	0.127
-229.757	213.026	-0.030	0.047
-228.742	-200.000	-0.008	0.115
-227.727	403.245	-0.089	-0.188
-226.713	109.733	-0.149	0.178
-225.698	-200.000	0.067	0.435
-224.684	256.175	0.122	-0.209
-223.669	-145.587	0.192	0.017
-222.655	800.000	0.038	0.119
-221.640	158.580	0.132	0.183
-220.625	-200.000	0.007	0.092
-219.611	-37.985	0.239	0.127
-218.596	93.511	-0.051	0.058
-217.582	287.648	-0.074	-0.134
-216.567	-66.108	-0.215	0.085
-215.552	476.149	-0.072	-0.162
-214.538	800.000	0.126	0.410
-213.523	-56.568	0.198	-0.088
-212.509	647.611	-0.151	-0.385
-211.494	501.369	-0.070	-0.162
-210.479	-200.000	0.044	0.362
-209.465	800.000	-0.097	0.296
-208.450	145.966	-0.161	-0.215
-207.436	-101.232	0.229	-0.056
-206.421	-105.165	-0.186	-0.042
-205.406	-84.627	-0.009	-0.003
-204.392	-200.000	-0.034	0.253
-203.377	-34.803	-0.237	0.129
-202.363	357.337	0.089	0.176
-201.348	21.900	-0.245	0.199
-200.333	-13.001	-0.093	0.061
-199.319	-53.926	0.281	-0.128
-198.304	-181.892	0.128	0.002
-197.290	106.036	0.162	-0.191
-196.275	800.000	-0.067	-0.209
-195.260	-90.275	0.211	0.061
-194.246	168.917	0.194	-0.275
-193.231	-66.109	0.473	0.188
-192.217	-123.436	-0.185	-0.029
-191.202	-200.000	-0.043	-0.195
-190.187	-49.684	-0.120	0.057
-189.173	-127.537	0.112	-0.016
-188.158	-111.381	-0.223	-0.045
-187.144	-112.824	0.080	0.016
-186.129	39.624	-0.185	0.165
-185.114	474.616	-0.057	-0.128
-184.100	-50.550	0.115	-0.054
-183.085	-120.388	-0.225	-0.038
-182.071	112.640	-0.108	0.131
-181.056	21.805	-0.230	0.187
-180.042	800.000	0.074	-0.270
-179.027	-15.683	-0.094	-0.060
-178.012	270.917	-0.160	0.281
-176.998	-121.775	0.409	-0.067
-175.983	-110.409	-0.136	-0.028
-174.969	453.864	-0.132	-0.291
-173.954	-112.332	0.299	-0.060
-172.939	-200.000	0.029	0.156
-171.925	1.958	-0.259	0.186
-170.910	800.000	0.022	0.088
-169.896	800.000	-0.085	-0.273
-168.881	122.379	0.143	-0.179
-167.866	-67.748	0.143	-0.056
-166.852	-121.805	-0.043	-0.007
-165.837	800.000	0.064	0.180
-164.823	-42.886	-0.209	-0.106
-163.808	178.183	-0.176	-0.255
-162.793	140.284	0.152	0.200
-161.779	-57.789	-0.061	-0.027
-160.764	-200.000	0.034	-0.520
-159.750	89.443	0.279	-0.310
-158.735	-27.013	0.340	0.198
-157.720	-154.904	0.108	-0.007
-156.706	-15.030	0.167	0.106
-155.691	60.358	0.310	0.306
-154.677	-56.452	0.091	-0.040
-153.662	-91.383	-0.146	-0.042
-152.647	43.095	0.017	0.015
-151.633	-13.225	-0.426	-0.275
-150.618	35.924	0.331	0.290
-149.604	-149.447	0.225	-0.018
-148.589	-43.978	0.071	0.036
-147.574	44.180	0.167	0.152
-146.560	104.788	0.189	-0.222
-145.545	69.004	0.141	0.144
-144.531	-33.808	-0.189	-0.104
-143.516	36.789	0.067	0.059
-142.502	-90.287	0.065	0.019
-141.487	-95.684	-0.195	0.052
-140.472	800.000	0.065	0.194
-139.458	190.997	-0.029	0.043
-138.443	-12.901	0.047	0.031
-137.429	43.982	-0.214	0.195
-136.414	-91.587	0.159	0.045
-135.399	33.110	-0.109	-0.094
-134.385	58.242	0.009	0.009
-133.370	-118.560	0.225	0.040
-132.356	306.371	-0.145	-0.269
-131.341	716.978	-0.054	-0.143
-130.326	800.000	-0.056	-0.207
-129.312	-15.443	-0.076	-0.048
-128.297	-40.753	-0.117	0.060
-127.283	-200.000	0.165	0.000
-126.268	-58.267	0.252	-0.109
-125.253	-200.000	0.030	-0.191
-124.239	15.418	0.094	0.073
-123.224	-96.132	-0.166	-0.044
-122.210	0.695	-0.215	0.153
