DTS Sentinel unit serial number:	SN413079Multiplexer serial number:	ORYXHardware model number:	OX4-SRSoftware version number:	ORYX F/W v4.00 Oryx Data Collector v3.7.2.0data status	okinstallation	princeton_trtdifferential loss correction	single-endedforward channel	channel 4reverse channel	N/Adate	2019/09/11time	11:23:11forward acquisition time	60.00reverse acquisition time	0.00gamma	496.2192k internal	0.2292k external	0.2292temperature offset calibration	0.9969default loss term (dB/km)	0.3790temperature slope calibration	1.0000multiplexer offset coefficient	1.0000multiplexer slope coefficient	1.0000fibre end	0.00T internal ref (°C)	37.81T ext. ref 1 (°C)	0.18T ext. ref 2 (°C)	35.39length (m)	temperature (°C)	Stokes	anti-Stokes-747.200	-8.662	-0.237	0.163
-746.185	-200.000	0.026	0.160
-745.171	116.510	-0.259	-0.325
-744.156	790.299	-0.072	0.202
-743.142	-24.491	0.209	-0.127
-742.127	33.417	-0.157	0.140
-741.112	15.827	-0.226	0.182
-740.098	-67.116	0.132	0.053
-739.083	-142.026	0.235	-0.024
-738.069	544.086	-0.032	0.078
-737.054	-115.752	0.333	-0.064
-736.039	17.722	-0.022	0.018
-735.025	344.985	-0.116	0.234
-734.010	-131.245	-0.317	-0.043
-732.996	-200.000	-0.015	-0.075
-731.981	110.745	-0.144	0.177
-730.966	800.000	0.015	0.059
-729.952	-200.000	-0.017	-0.406
-728.937	-75.926	-0.405	-0.147
-727.923	-200.000	0.010	-0.047
-726.908	800.000	-0.037	-0.138
-725.894	-200.000	-0.085	-0.386
-724.879	66.249	-0.126	0.131
-723.864	-140.779	-0.190	0.020
-722.850	-43.305	-0.119	-0.062
-721.835	105.081	-0.284	0.343
-720.821	-109.006	0.333	-0.073
-719.806	-50.981	-0.130	-0.062
-718.791	116.083	-0.126	-0.158
-717.777	191.237	-0.046	-0.071
-716.762	-53.369	-0.185	0.087
-715.748	82.460	-0.171	0.190
-714.733	-59.918	0.303	-0.132
-713.718	323.115	0.110	-0.214
-712.704	-121.624	-0.028	0.005
-711.689	800.000	0.036	-0.103
-710.675	471.047	-0.113	-0.259
-709.660	94.779	0.105	-0.122
-708.645	45.506	-0.161	0.152
-707.631	-105.588	0.189	0.044
-706.616	-176.017	0.287	-0.008
-705.602	-164.514	-0.154	0.007
-704.587	307.367	-0.075	-0.143
-703.572	-71.140	-0.094	-0.036
-702.558	33.986	0.353	0.314
-701.543	283.752	-0.143	0.262
-700.529	-106.993	-0.122	-0.028
-699.514	217.463	0.137	0.223
-698.499	-200.000	-0.002	-0.027
-697.485	13.314	-0.203	0.161
-696.470	382.013	-0.114	0.239
-695.456	28.559	-0.072	-0.063
-694.441	-200.000	0.030	-0.168
-693.426	-69.537	-0.122	-0.048
-692.412	-167.256	0.300	0.012
-691.397	161.939	0.126	-0.181
-690.383	480.138	-0.064	0.148
-689.368	380.152	0.204	-0.427
-688.354	-22.717	0.131	-0.081
-687.339	-13.715	-0.174	-0.115
-686.324	40.747	0.304	0.280
-685.310	15.987	-0.177	0.142
-684.295	-200.000	-0.002	0.281
-683.281	-113.754	0.220	-0.044
-682.266	-179.704	0.344	-0.008
-681.251	-65.290	0.084	0.034
-680.237	-35.996	-0.375	-0.207
-679.222	168.036	-0.214	-0.311
-678.208	1.957	0.281	-0.207
-677.193	-38.978	0.218	-0.117
-676.178	21.142	-0.230	-0.191
-675.164	-19.569	-0.286	0.181
-674.149	-101.775	-0.218	0.054
-673.135	73.739	0.068	0.073
-672.120	-97.536	0.174	0.046
-671.105	179.974	0.148	0.222
-670.091	20.835	0.248	0.205
-669.076	-112.318	0.314	-0.064
-668.062	68.665	-0.144	0.151
-667.047	544.449	-0.044	0.108
-666.032	-6.289	-0.135	0.094
-665.018	800.000	-0.101	-0.325
-664.003	-65.327	0.059	-0.024
-662.989	-22.350	-0.020	-0.013
-661.974	70.995	-0.245	-0.259
-660.959	-9.251	0.106	-0.072
-659.945	800.000	0.066	-0.231
-658.930	25.239	-0.076	0.065
-657.916	800.000	0.007	0.025
-656.901	396.651	-0.159	-0.339
-655.886	117.542	0.124	-0.155
-654.872	-100.946	0.325	-0.081
-653.857	-200.000	0.007	-0.177
-652.843	-130.737	-0.518	0.071
-651.828	136.323	-0.075	-0.100
-650.814	294.883	-0.176	-0.328
-649.799	-200.000	0.030	-0.172
-648.784	800.000	0.060	0.172
-647.770	-93.196	-0.332	-0.094
-646.755	-200.000	0.003	-0.364
-645.741	202.164	-0.102	-0.161
-644.726	-135.749	-0.278	0.034
-643.711	-136.726	-0.288	-0.034
-642.697	-86.862	0.158	0.049
-641.682	22.714	0.193	-0.161
-640.668	1.438	-0.047	-0.034
-639.653	-82.749	0.118	0.039
-638.638	-16.302	-0.296	0.192
-637.624	391.644	-0.117	-0.248
-636.609	-13.496	-0.084	0.055
-635.595	800.000	-0.069	-0.290
-634.580	-200.000	0.018	0.355
-633.565	-80.557	-0.379	0.129
-632.551	53.742	0.107	-0.105
-631.536	800.000	0.052	0.166
-630.522	-6.543	-0.134	-0.093
-629.507	102.639	0.091	-0.108
-628.492	-49.151	-0.132	-0.064
-627.478	-14.080	-0.178	0.117
-626.463	-200.000	0.023	0.115
-625.449	694.118	-0.181	-0.483
-624.434	-200.000	-0.092	-0.415
-623.419	-123.923	0.350	0.056
-622.405	752.789	-0.084	0.232
-621.390	-112.873	-0.039	0.008
-620.376	-200.000	0.034	-0.184
-619.361	-65.121	-0.099	-0.041
-618.346	-56.544	-0.215	0.097
-617.332	-41.064	-0.206	0.108
-616.317	203.240	0.194	-0.305
-615.303	-71.064	-0.170	-0.065
-614.288	99.906	0.228	-0.269
-613.273	79.661	-0.086	0.094
-612.259	518.335	-0.134	0.321
-611.244	525.000	-0.050	-0.121
-610.230	-68.271	-0.115	-0.046
-609.215	728.511	-0.077	0.210
-608.201	-164.713	0.291	0.013
-607.186	-200.000	-0.027	-0.152
-606.171	319.884	0.119	-0.231
-605.157	138.957	0.037	-0.049
-604.142	496.000	0.040	0.094
-603.128	288.250	0.081	-0.149
-602.113	-44.620	0.142	0.072
-601.098	-52.491	-0.343	0.161
-600.084	-160.584	-0.376	-0.020
-599.069	-200.000	0.032	0.242
-598.055	-200.000	0.039	0.334
-597.040	800.000	-0.119	0.406
-596.025	-48.995	-0.232	0.113
-595.011	536.042	-0.110	0.267
-593.996	-63.584	-0.037	-0.016
-592.982	-131.228	-0.203	-0.027
-591.967	800.000	-0.043	0.166
-590.952	69.974	0.191	0.200
-589.938	-113.488	0.355	-0.071
-588.923	800.000	0.072	-0.298
-587.909	800.000	-0.103	-0.368
-586.894	631.723	0.056	-0.145
-585.879	224.834	-0.026	-0.042
-584.865	-200.000	0.026	-0.173
-583.850	-89.162	-0.159	0.048
-582.836	800.000	0.080	0.349
-581.821	94.733	-0.110	-0.128
-580.806	-200.000	0.021	-0.177
-579.792	219.203	-0.139	0.226
-578.777	206.832	-0.256	0.406
-577.763	94.875	-0.322	0.372
-576.748	1.534	-0.195	-0.143
-575.733	-200.000	0.064	-0.437
-574.719	303.674	0.097	-0.183
-573.704	-59.475	0.112	0.049
-572.690	-93.831	-0.125	-0.035
-571.675	-128.961	-0.305	0.043
-570.661	-76.369	0.233	-0.083
-569.646	800.000	-0.079	-0.261
-568.631	-65.800	-0.332	0.135
-567.617	800.000	-0.037	0.162
-566.602	-119.706	-0.368	0.065
-565.588	-87.424	0.269	0.083
-564.573	-200.000	0.017	0.096
-563.558	-79.262	0.492	-0.170
-562.544	566.623	0.029	-0.072
-561.529	-137.938	0.105	-0.012
-560.515	800.000	-0.113	-0.361
-559.500	-57.774	-0.219	0.097
-558.485	677.828	0.037	-0.097
-557.471	534.985	0.003	-0.008
-556.456	399.229	-0.058	0.123
-555.442	38.493	0.091	0.082
-554.427	-200.000	-0.064	-0.374
-553.412	-80.893	-0.373	0.126
-552.398	-130.514	0.516	0.071
-551.383	71.688	0.254	-0.268
-550.369	-200.000	-0.007	-0.090
-549.354	28.710	-0.178	-0.154
-548.339	-92.744	-0.339	-0.096
-547.325	-200.000	0.001	0.271
-546.310	-52.470	-0.078	-0.037
-545.296	-126.632	-0.089	0.013
-544.281	-153.327	-0.177	0.013
-543.266	-37.187	-0.201	0.109
-542.252	-118.381	0.174	-0.031
-541.237	79.495	-0.226	-0.246
-540.223	-200.000	0.017	0.251
-539.208	-81.860	-0.170	-0.056
-538.193	-200.000	0.032	0.248
-537.179	800.000	-0.112	0.386
-536.164	113.663	0.082	0.101
-535.150	251.275	0.187	-0.322
-534.135	50.733	0.046	-0.044
-533.121	2.449	-0.317	-0.233
-532.106	-49.722	-0.223	-0.108
-531.091	800.000	-0.113	0.324
-530.077	-65.471	-0.187	-0.076
-529.062	-68.831	-0.258	0.101
-528.048	-200.000	0.010	0.423
-527.033	14.024	0.083	0.066
-526.018	775.685	-0.051	0.142
-525.004	-122.827	0.220	-0.036
-523.989	-82.674	-0.050	0.016
-522.975	-56.944	0.400	0.179
-521.960	-200.000	0.055	-0.395
-520.945	-200.000	0.026	0.209
-519.931	94.511	-0.204	0.235
-518.916	85.529	0.170	-0.190
-517.902	45.567	0.109	-0.102
-516.887	159.370	-0.213	-0.300
-515.872	800.000	-0.027	-0.085
-514.858	62.167	0.276	-0.279
-513.843	-200.000	0.025	0.142
-512.829	-88.693	0.162	-0.049
-511.814	-200.000	-0.024	-0.245
-510.799	-200.000	0.006	-0.094
-509.785	-23.595	0.217	-0.132
-508.770	204.493	-0.178	-0.280
-507.756	-53.765	-0.262	-0.121
-506.741	-92.916	0.112	-0.032
-505.726	-94.669	-0.250	-0.069
-504.712	800.000	0.078	0.265
-503.697	6.713	0.172	-0.130
-502.683	-106.168	0.226	0.051
-501.668	-96.042	-0.242	-0.065
-500.653	-130.941	-0.368	0.050
-499.639	22.030	0.282	0.233
-498.624	-6.168	0.488	-0.338
-497.610	-15.955	-0.292	0.188
-496.595	-121.171	-0.228	0.039
-495.581	146.914	-0.067	-0.091
-494.566	11.888	0.172	-0.134
-493.551	800.000	0.041	0.163
-492.537	-40.955	-0.164	-0.086
-491.522	27.831	0.153	-0.131
-490.508	796.427	-0.050	0.139
-489.493	-200.000	0.001	-0.331
-488.478	-48.078	-0.193	-0.095
-487.464	51.473	-0.256	0.247
-486.449	-172.714	-0.129	-0.004
-485.435	-61.673	0.051	0.022
-484.420	-180.336	0.320	-0.007
-483.405	-127.357	0.172	0.025
-482.391	221.802	-0.121	-0.198
-481.376	573.035	0.072	-0.177
-480.362	-11.389	-0.195	0.130
-479.347	-24.412	0.054	0.033
-478.332	0.012	-0.353	-0.255
-477.318	10.772	-0.252	-0.195
-476.303	353.076	0.055	-0.110
-475.289	800.000	0.103	0.334
-474.274	800.000	0.021	0.066
-473.259	800.000	-0.012	0.044
-472.245	461.176	-0.032	-0.072
-471.230	134.283	-0.114	0.149
-470.216	-200.000	-0.031	0.155
-469.201	-40.543	0.159	0.083
-468.186	-21.277	-0.144	-0.089
-467.172	-4.380	0.300	-0.210
-466.157	380.827	0.100	0.207
-465.143	800.000	-0.034	0.144
-464.128	184.750	0.076	-0.114
-463.113	-200.000	0.036	0.244
-462.099	-155.329	0.062	-0.004
-461.084	33.705	0.116	0.102
-460.070	71.348	0.133	0.139
-459.055	119.860	-0.053	-0.067
-458.040	-27.156	0.280	0.165
-457.026	-13.354	-0.227	-0.149
-456.011	-158.784	0.277	0.016
-454.997	138.221	-0.221	0.293
-453.982	-110.967	-0.194	-0.040
-452.968	-2.339	0.232	0.164
-451.953	188.907	-0.120	0.182
-450.938	100.928	-0.093	-0.109
-449.924	-91.521	-0.246	-0.071
-448.909	-122.128	0.327	-0.054
-447.895	355.344	-0.119	-0.240
-446.880	-200.000	0.065	0.402
-445.865	-142.861	0.358	-0.035
-444.851	-138.190	-0.092	0.010
-443.836	44.972	-0.260	0.242
-442.822	-130.776	0.184	-0.025
-441.807	-200.000	-0.005	-0.283
-440.792	-200.000	0.044	0.259
-439.778	-200.000	-0.065	0.412
-438.763	161.278	-0.075	0.106
-437.749	6.871	-0.123	0.093
-436.734	-66.325	0.080	0.032
-435.719	1.241	0.294	0.214
-434.705	701.919	0.100	0.268
-433.690	102.765	0.034	-0.041
-432.676	59.854	0.213	-0.212
-431.661	-122.262	-0.052	-0.009
-430.646	-200.000	-0.021	0.285
-429.632	-89.723	0.417	-0.123
-428.617	161.343	0.071	0.100
-427.603	378.221	-0.135	0.280
-426.588	-200.000	0.047	0.331
-425.573	198.900	0.245	0.380
-424.559	40.220	-0.097	-0.088
-423.544	-200.000	0.017	0.126
-422.530	-42.005	-0.019	0.010
-421.515	159.022	-0.063	0.088
-420.500	-131.941	-0.251	-0.033
-419.486	751.025	-0.040	0.110
-418.471	489.749	0.057	-0.131
-417.457	800.000	-0.080	-0.328
-416.442	800.000	-0.050	-0.154
-415.428	440.446	0.048	-0.106
-414.413	676.280	0.177	-0.466
-413.398	800.000	0.078	-0.272
-412.384	-200.000	0.029	0.175
-411.369	438.776	-0.104	0.230
-410.355	79.095	0.191	-0.207
-409.340	-200.000	-0.025	0.214
-408.325	194.475	0.151	0.231
-407.311	-200.000	0.013	0.201
-406.296	-33.859	-0.140	0.078
-405.282	186.621	0.122	-0.184
-404.267	800.000	-0.081	0.275
-403.252	-77.496	0.324	-0.113
-402.238	800.000	0.163	0.497
-401.223	2.707	-0.046	0.034
-400.209	58.875	-0.154	-0.152
-399.194	-112.322	-0.175	0.035
-398.179	450.838	0.133	0.296
-397.165	-108.937	0.317	-0.068
-396.150	355.792	-0.161	0.324
-395.136	-105.476	0.333	0.076
-394.121	-200.000	0.005	-0.123
-393.106	58.724	-0.254	0.252
-392.092	800.000	0.097	-0.300
-391.077	389.425	0.226	-0.473
-390.063	63.968	0.088	-0.089
-389.048	-200.000	-0.034	-0.254
-388.033	-200.000	0.022	-0.273
-387.019	-200.000	-0.017	0.097
-386.004	390.830	0.012	0.026
-384.990	-51.593	0.066	-0.031
-383.975	-122.981	0.210	-0.034
-382.960	-89.635	-0.244	0.072
-381.946	19.774	0.196	0.159
-380.931	-80.310	-0.232	-0.078
-379.917	-41.826	-0.204	0.106
-378.902	-200.000	-0.041	0.295
-377.888	323.632	0.147	0.283
-376.873	-19.160	-0.141	-0.088
-375.858	33.857	-0.093	-0.082
-374.844	68.437	0.188	-0.195
-373.829	-65.855	-0.211	-0.085
-372.815	-102.325	0.121	0.029
-371.800	654.421	-0.042	0.110
-370.785	-69.353	-0.132	-0.051
-369.771	800.000	-0.067	0.234
-368.756	800.000	-0.004	0.016
-367.742	-200.000	-0.009	0.139
-366.727	-200.000	-0.047	0.250
-365.712	-72.415	-0.077	0.029
-364.698	-36.793	0.084	-0.046
-363.683	800.000	-0.032	0.121
-362.669	800.000	0.027	-0.120
-361.654	-200.000	-0.048	-0.373
-360.639	800.000	-0.109	0.363
-359.625	-47.030	-0.154	-0.076
-358.610	-57.735	0.281	0.124
-357.596	-200.000	0.004	-0.115
-356.581	-200.000	0.008	0.230
-355.566	-143.993	0.212	-0.020
-354.552	197.045	0.127	0.195
-353.537	137.369	-0.106	0.140
-352.523	511.489	0.229	-0.537
-351.508	800.000	0.047	-0.189
-350.493	-124.387	0.476	0.075
-349.479	800.000	-0.014	-0.044
-348.464	-200.000	0.015	-0.223
-347.450	-149.436	0.308	-0.025
-346.435	800.000	0.043	0.166
-345.420	193.105	0.126	0.192
-344.406	-32.942	-0.350	-0.196
-343.391	-160.383	-0.182	-0.010
-342.377	-46.201	0.154	0.076
-341.362	-18.997	-0.105	-0.066
-340.348	5.381	-0.262	-0.195
-339.333	-59.929	0.245	-0.105
-338.318	42.449	-0.297	-0.272
-337.304	339.513	-0.107	-0.211
-336.289	-105.282	0.116	0.027
-335.275	252.938	0.156	-0.269
-334.260	-88.559	-0.147	-0.044
-333.245	-200.000	0.014	-0.110
-332.231	-200.000	-0.010	-0.168
-331.216	-200.000	-0.061	-0.350
-330.202	-66.881	0.247	0.098
-329.187	800.000	-0.026	-0.095
-328.172	-99.995	-0.179	0.045
-327.158	16.387	-0.170	-0.135
-326.143	800.000	0.079	-0.271
-325.129	-88.631	0.180	0.054
-324.114	-200.000	-0.052	-0.374
-323.099	43.066	0.064	-0.059
-322.085	-103.533	-0.283	0.067
-321.070	-96.109	-0.348	0.093
-320.056	385.440	-0.035	0.074
-319.041	26.578	-0.171	-0.144
-318.026	-103.066	0.264	0.063
-317.012	64.703	-0.123	0.125
-315.997	49.886	0.060	-0.057
-314.983	-200.000	-0.032	-0.192
-313.968	-200.000	0.015	0.203
-312.953	16.920	0.113	-0.090
-311.939	-125.130	-0.261	0.040
-310.924	-98.738	0.210	-0.054
-309.910	259.002	0.068	0.118
-308.895	659.012	0.112	-0.291
-307.880	-200.000	0.034	-0.239
-306.866	316.166	-0.206	-0.391
-305.851	-130.386	0.328	0.045
-304.837	19.375	-0.022	-0.018
-303.822	-3.410	-0.235	0.165
-302.807	83.122	0.153	0.168
-301.793	-121.819	-0.360	-0.060
-300.778	-139.928	0.140	0.015
-299.764	-114.015	0.372	-0.073
-298.749	154.892	0.107	-0.148
-297.735	99.388	0.206	-0.240
-296.720	-135.689	-0.357	-0.043
-295.705	-200.000	0.013	0.293
-294.691	800.000	-0.077	0.243
-293.676	-200.000	-0.092	-0.426
-292.662	58.693	0.182	0.180
-291.647	-140.056	0.070	0.007
-290.632	15.358	0.086	-0.068
-289.618	762.322	-0.043	0.117
-288.603	293.412	0.023	0.041
-287.589	800.000	0.047	-0.197
-286.574	-94.446	-0.046	-0.013
-285.559	-200.000	0.008	-0.434
-284.545	56.254	-0.098	-0.095
-283.530	-83.231	0.294	-0.095
-282.516	321.348	-0.124	0.237
-281.501	-200.000	0.024	-0.124
-280.486	800.000	-0.054	-0.184
-279.472	-200.000	0.016	0.289
-278.457	-103.601	-0.267	0.063
-277.443	-65.584	0.128	-0.052
-276.428	-200.000	-0.034	-0.188
-275.413	-157.194	0.149	0.009
-274.399	-200.000	-0.035	0.357
-273.384	80.159	-0.177	-0.191
-272.370	84.181	0.085	0.093
-271.355	800.000	0.077	-0.317
-270.340	43.060	0.159	-0.145
-269.326	800.000	-0.070	0.271
-268.311	800.000	-0.061	-0.187
-267.297	234.142	-0.087	-0.145
-266.282	483.939	0.057	0.130
-265.267	105.207	0.204	0.242
-264.253	388.043	0.019	0.039
-263.238	-73.579	0.306	0.112
-262.224	98.049	0.125	-0.145
-261.209	285.383	-0.056	-0.101
-260.195	-15.894	-0.205	0.131
-259.180	76.183	-0.200	0.212
-258.165	732.117	0.058	-0.155
-257.151	-57.626	-0.073	-0.032
-256.136	-200.000	0.006	0.230
-255.122	-10.598	0.412	0.274
-254.107	569.930	-0.041	-0.100
-253.092	-28.896	0.034	0.020
-252.078	-57.863	-0.249	-0.109
-251.063	-46.311	0.157	0.077
-250.049	-118.894	0.177	0.031
-249.034	139.404	0.092	-0.122
-248.019	-200.000	-0.017	-0.318
-247.005	565.013	0.058	-0.141
-245.990	-113.372	0.073	0.014
-244.976	-88.299	0.477	0.143
-243.961	-200.000	0.001	-0.050
-242.946	-110.476	-0.470	-0.098
-241.932	-78.448	-0.287	-0.099
-240.917	261.794	-0.032	-0.056
-239.903	-200.000	0.037	-0.182
-238.888	-2.412	-0.246	-0.173
-237.873	73.023	0.070	-0.073
-236.859	172.757	0.227	0.327
-235.844	-87.628	0.041	-0.013
-234.830	-14.607	0.285	-0.184
-233.815	352.183	-0.035	0.069
-232.800	-16.749	0.225	-0.143
-231.786	12.286	-0.075	-0.058
-230.771	-86.994	-0.199	0.061
-229.757	-81.599	0.288	0.095
-228.742	-158.484	0.085	0.005
-227.727	-200.000	0.024	-0.281
-226.713	446.505	0.200	0.442
-225.698	322.583	0.157	-0.301
-224.684	165.372	-0.172	0.244
-223.669	-100.854	0.462	0.114
-222.655	-19.171	-0.040	0.025
-221.640	349.328	-0.058	0.115
-220.625	-39.055	-0.175	-0.092
-219.611	-106.756	0.572	-0.127
-218.596	-200.000	0.065	-0.333
-217.582	-0.456	0.486	0.346
-216.567	4.691	0.251	0.185
-215.552	-122.580	-0.120	0.020
-214.538	5.868	-0.156	-0.116
-213.523	-32.578	0.070	-0.039
-212.509	153.551	-0.131	-0.180
-211.494	250.459	-0.156	-0.266
-210.479	-76.168	-0.256	-0.091
-209.465	35.956	0.243	-0.214
-208.450	112.770	0.181	-0.220
-207.436	-165.134	-0.245	-0.011
-206.421	267.126	0.070	0.123
-205.406	74.329	0.221	0.233
-204.392	800.000	0.118	-0.339
-203.377	-65.667	0.285	-0.114
-202.363	216.838	-0.131	0.209
-201.348	244.134	-0.113	-0.191
-200.333	-200.000	0.020	0.352
-199.319	-105.203	0.148	0.034
-198.304	-77.223	-0.239	-0.083
-197.290	800.000	-0.115	0.457
-196.275	41.640	-0.203	0.185
-195.260	26.202	0.215	0.180
-194.246	-200.000	-0.047	0.277
-193.231	-200.000	0.016	-0.113
-192.217	-90.161	-0.346	-0.101
-191.202	410.662	0.119	0.252
-190.187	-107.231	-0.443	0.098
-189.173	171.156	0.317	-0.455
-188.158	-200.000	0.071	0.404
-187.144	175.824	-0.146	0.212
-186.129	16.001	0.101	0.080
-185.114	147.487	0.134	0.181
-184.100	-18.204	0.216	0.136
-183.085	800.000	0.049	0.169
-182.071	-200.000	0.023	0.161
-181.056	201.129	0.156	0.241
-180.042	-200.000	0.047	0.269
-179.027	1.776	0.238	0.172
-178.012	296.870	0.101	-0.185
-176.998	10.476	0.303	0.231
-175.983	73.864	0.167	0.175
-174.969	800.000	-0.023	-0.093
-173.954	400.242	0.051	0.107
-172.939	-14.111	0.307	0.198
-171.925	-97.077	0.228	0.060
-170.910	139.000	-0.132	-0.173
-169.896	-1.374	0.231	-0.163
-168.881	-200.000	-0.005	0.115
-167.866	-70.031	-0.189	-0.072
-166.852	-200.000	0.008	-0.116
-165.837	800.000	-0.100	-0.335
-164.823	-200.000	-0.061	-0.459
-163.808	-200.000	0.037	-0.214
-162.793	12.439	-0.156	0.120
-161.779	-132.650	-0.259	-0.033
-160.764	-109.174	0.181	-0.039
-159.750	-104.800	-0.311	0.072
-158.735	13.134	-0.134	-0.104
-157.720	43.227	-0.103	-0.094
-156.706	-200.000	-0.025	0.351
-155.691	-200.000	0.078	0.398
-154.677	19.619	-0.264	0.213
-153.662	-53.770	-0.478	0.218
-152.647	-58.431	-0.274	0.119
-151.633	-186.198	0.129	-0.002
-150.618	382.553	0.034	0.070
-149.604	56.906	-0.225	0.219
-148.589	-92.274	0.144	-0.041
-147.574	-66.361	-0.456	0.181
-146.560	-200.000	0.019	0.172
-145.545	-200.000	-0.065	-0.393
-144.531	64.045	0.202	-0.203
-143.516	-200.000	0.024	0.151
-142.502	244.606	0.073	0.122
-141.487	100.009	0.295	0.342
-140.472	-176.957	0.261	-0.007
-139.458	654.478	-0.006	-0.016
-138.443	32.214	-0.122	0.105
-137.429	-31.312	0.303	-0.171
-136.414	-116.133	0.120	-0.022
-135.399	800.000	0.067	-0.197
-134.385	-200.000	-0.009	0.351
-133.370	227.778	-0.123	0.200
-132.356	-200.000	0.000	-0.149
-131.341	54.064	0.175	0.168
-130.326	-1.058	0.062	0.044
-129.312	-200.000	0.041	0.296
-128.297	4.770	0.344	-0.253
-127.283	800.000	-0.101	-0.289
-126.268	-200.000	0.041	-0.180
-125.253	6.833	-0.148	0.110
-124.239	-152.203	-0.139	0.010
-123.224	33.935	0.228	-0.199
-122.210	800.000	0.035	0.105
-121.195	25.609	0.134	0.111
