DTS Sentinel unit serial number:	SN413079Multiplexer serial number:	ORYXHardware model number:	OX4-SRSoftware version number:	ORYX F/W v4.00 Oryx Data Collector v3.7.2.0data status	okinstallation	princeton_trtdifferential loss correction	single-endedforward channel	channel 4reverse channel	N/Adate	2019/09/12time	11:55:11forward acquisition time	60.00reverse acquisition time	0.00gamma	496.2192k internal	0.2290k external	0.2290temperature offset calibration	1.0074default loss term (dB/km)	0.3790temperature slope calibration	1.0000multiplexer offset coefficient	1.0000multiplexer slope coefficient	1.0000fibre end	0.00T internal ref (°C)	40.14T ext. ref 1 (°C)	2.02T ext. ref 2 (°C)	37.82length (m)	temperature (°C)	Stokes	anti-Stokes-747.200	-200.000	-0.005	0.286
-746.185	-200.000	-0.069	0.355
-745.171	132.834	-0.034	-0.045
-744.156	524.020	0.171	0.412
-743.142	-0.389	-0.144	0.105
-742.127	800.000	-0.150	0.482
-741.112	188.648	-0.096	-0.146
-740.098	-125.699	0.508	-0.079
-739.083	800.000	0.072	-0.267
-738.069	800.000	0.058	0.216
-737.054	-44.030	-0.186	-0.096
-736.039	-75.244	0.083	-0.031
-735.025	-200.000	0.018	-0.173
-734.010	198.569	0.069	0.108
-732.996	368.638	-0.094	0.194
-731.981	-62.291	-0.150	0.064
-730.966	-10.834	0.030	-0.020
-729.952	72.273	-0.216	-0.231
-728.937	-50.286	0.115	-0.056
-727.923	-200.000	-0.052	0.275
-726.908	-200.000	-0.009	0.168
-725.894	633.204	0.031	-0.080
-724.879	243.696	0.133	0.228
-723.864	228.575	0.124	0.207
-722.850	800.000	0.101	0.421
-721.835	800.000	-0.095	-0.369
-720.821	-200.000	-0.033	-0.220
-719.806	46.493	-0.245	0.233
-718.791	-200.000	0.041	0.324
-717.777	-62.751	-0.261	-0.111
-716.762	-89.379	0.084	0.025
-715.748	800.000	-0.044	-0.193
-714.733	-41.877	-0.267	0.140
-713.718	-90.597	0.241	-0.071
-712.704	-108.133	0.261	-0.058
-711.689	-200.000	0.006	-0.057
-710.675	-45.760	-0.348	-0.176
-709.660	652.458	0.126	-0.331
-708.645	268.416	-0.249	-0.447
-707.631	653.484	-0.128	-0.336
-706.616	42.756	-0.259	-0.241
-705.602	-149.840	0.273	-0.022
-704.587	-200.000	-0.226	-0.000
-703.572	557.076	-0.064	0.157
-702.558	-59.470	0.350	-0.154
-701.543	43.444	0.134	-0.125
-700.529	800.000	0.018	0.064
-699.514	-11.343	0.237	0.160
-698.499	66.164	0.061	-0.064
-697.485	191.236	0.060	0.092
-696.470	362.390	0.104	0.214
-695.456	127.914	-0.033	-0.043
-694.441	-140.130	0.332	0.036
-693.426	-28.387	0.189	0.112
-692.412	-37.111	0.205	0.112
-691.397	-89.444	0.211	-0.064
-690.383	136.326	0.146	0.194
-689.368	5.463	0.167	-0.126
-688.354	667.746	-0.212	-0.560
-687.339	-134.461	-0.240	-0.030
-686.324	-200.000	-0.057	0.263
-685.310	-200.000	0.046	-0.413
-684.295	-200.000	-0.018	-0.148
-683.281	88.373	0.092	0.104
-682.266	61.444	0.061	0.062
-681.251	800.000	0.059	-0.181
-680.237	-121.851	0.149	-0.025
-679.222	800.000	0.023	0.097
-678.208	-3.964	0.146	-0.103
-677.193	-74.767	0.191	-0.070
-676.178	800.000	-0.032	-0.108
-675.164	246.978	-0.084	0.145
-674.149	48.097	0.074	0.071
-673.135	-200.000	-0.019	0.088
-672.120	308.729	-0.040	-0.077
-671.105	-103.606	-0.169	-0.040
-670.091	-34.582	0.249	-0.139
-669.076	-96.924	0.162	-0.043
-668.062	800.000	0.067	0.202
-667.047	-200.000	0.064	0.320
-666.032	114.442	-0.249	0.309
-665.018	-135.424	0.209	-0.025
-664.003	-200.000	0.001	0.091
-662.989	-31.932	0.348	-0.199
-661.974	24.269	-0.032	0.027
-660.959	264.524	-0.072	-0.127
-659.945	-200.000	0.053	-0.626
-658.930	93.914	-0.121	-0.140
-657.916	-36.472	0.090	0.049
-656.901	41.921	0.167	-0.154
-655.886	-200.000	0.035	0.204
-654.872	684.504	0.043	-0.114
-653.857	141.074	0.227	-0.307
-652.843	800.000	-0.071	-0.281
-651.828	-75.494	-0.251	-0.091
-650.814	800.000	-0.063	-0.177
-649.799	38.509	0.068	-0.062
-648.784	-92.424	-0.247	0.071
-647.770	-200.000	0.040	0.338
-646.755	-103.362	-0.128	0.031
-645.741	2.141	-0.299	-0.221
-644.726	800.000	-0.032	-0.091
-643.711	-200.000	0.003	-0.246
-642.697	-68.646	0.416	0.164
-641.682	58.429	-0.149	0.149
-640.668	-63.649	0.264	-0.111
-639.653	-200.000	-0.038	-0.374
-638.638	-200.000	-0.008	-0.479
-637.624	800.000	0.038	-0.124
-636.609	-200.000	0.016	0.088
-635.595	25.542	0.339	-0.288
-634.580	31.265	0.199	0.174
-633.565	-148.367	0.339	0.028
-632.551	348.218	-0.085	0.171
-631.536	1.373	0.180	0.132
-630.522	-43.652	0.134	0.069
-629.507	66.709	-0.244	-0.253
-628.492	-200.000	0.050	0.353
-627.478	-3.053	-0.176	0.126
-626.463	-87.043	-0.157	-0.049
-625.449	-102.597	-0.140	0.034
-624.434	-109.590	-0.223	-0.048
-623.419	-117.927	-0.228	-0.042
-622.405	527.139	-0.048	0.115
-621.390	61.065	0.335	-0.340
-620.376	-200.000	0.004	-0.224
-619.361	280.823	-0.221	0.403
-618.346	157.055	-0.118	0.166
-617.332	-159.528	0.449	-0.025
-616.317	-103.485	-0.099	-0.024
-615.303	-56.512	-0.219	-0.099
-614.288	-118.033	-0.140	-0.025
-613.273	50.134	0.170	-0.164
-612.259	-200.000	-0.041	0.420
-611.244	-69.359	-0.187	0.073
-610.230	150.178	0.175	-0.242
-609.215	460.913	-0.087	0.197
-608.201	-200.000	0.004	0.231
-607.186	-200.000	0.038	-0.267
-606.171	-73.388	0.526	0.196
-605.157	74.172	-0.104	-0.112
-604.142	800.000	-0.045	-0.188
-603.128	52.076	0.281	-0.273
-602.113	-102.487	-0.313	-0.076
-601.098	30.584	0.052	-0.045
-600.084	-78.208	0.024	0.008
-599.069	-38.022	0.248	0.134
-598.055	73.716	-0.165	-0.176
-597.040	203.478	-0.113	0.179
-596.025	-62.874	0.242	-0.102
-595.011	14.002	0.324	0.257
-593.996	-33.731	-0.030	0.017
-592.982	-200.000	0.040	-0.201
-591.967	-79.383	0.264	-0.091
-590.952	-91.620	0.014	0.004
-589.938	800.000	-0.095	-0.283
-588.923	-23.364	-0.090	-0.055
-587.909	581.524	0.085	-0.213
-586.894	4.992	-0.057	0.042
-585.879	-14.698	0.219	0.143
-584.865	-62.811	-0.419	0.177
-583.850	-40.094	-0.395	0.210
-582.836	-200.000	-0.013	-0.220
-581.821	204.419	-0.175	0.276
-580.806	-200.000	-0.004	-0.259
-579.792	203.820	0.022	0.035
-578.777	-106.881	0.406	-0.092
-577.763	-5.870	-0.161	0.112
-576.748	-90.610	-0.136	-0.040
-575.733	-9.613	0.160	0.108
-574.719	-66.637	0.269	-0.108
-573.704	96.748	0.069	0.081
-572.690	-143.142	-0.070	-0.007
-571.675	-200.000	0.019	0.272
-570.661	-80.633	-0.232	-0.079
-569.646	-61.358	0.211	0.090
-568.631	-99.711	0.111	0.028
-567.617	207.734	0.204	-0.323
-566.602	-168.067	-0.301	-0.012
-565.588	-54.740	0.111	-0.051
-564.573	-64.433	-0.182	0.075
-563.558	279.280	-0.080	-0.146
-562.544	-97.034	0.436	0.116
-561.529	0.303	0.132	0.096
-560.515	595.653	0.092	0.233
-559.500	-164.831	-0.207	-0.009
-558.485	-200.000	0.043	-0.218
-557.471	64.703	0.055	0.056
-556.456	-185.694	-0.121	-0.002
-555.442	-200.000	-0.060	-0.344
-554.427	-16.824	-0.061	-0.039
-553.412	-13.888	-0.223	-0.147
-552.398	-23.635	0.151	-0.092
-551.383	139.960	-0.043	0.058
-550.369	45.442	0.141	0.132
-549.354	-103.302	-0.112	-0.027
-548.339	38.181	0.103	0.094
-547.325	-200.000	-0.016	0.258
-546.310	624.410	0.139	0.357
-545.296	-49.704	0.355	0.171
-544.281	800.000	-0.026	-0.088
-543.266	16.089	0.086	-0.069
-542.252	-52.652	-0.184	0.086
-541.237	-200.000	0.014	-0.260
-540.223	800.000	-0.031	-0.119
-539.208	648.062	-0.132	-0.342
-538.193	-156.335	-0.267	0.017
-537.179	-64.551	-0.144	0.059
-536.164	396.439	-0.058	-0.123
-535.150	366.649	-0.087	0.178
-534.135	97.928	0.138	-0.162
-533.121	-118.965	0.156	-0.028
-532.106	71.487	0.252	-0.266
-531.091	-91.293	0.105	-0.031
-530.077	-200.000	0.034	0.187
-529.062	800.000	-0.107	0.406
-528.048	-200.000	0.036	0.353
-527.033	412.316	0.105	-0.227
-526.018	800.000	-0.034	0.106
-525.004	-21.490	-0.145	0.090
-523.989	-200.000	0.038	0.291
-522.975	199.834	0.275	0.429
-521.960	540.709	-0.086	0.209
-520.945	-35.834	-0.146	0.080
-519.931	-136.188	0.204	0.024
-518.916	59.185	0.281	0.281
-517.902	-63.685	-0.190	-0.079
-516.887	160.306	-0.151	-0.214
-515.872	339.285	0.056	-0.111
-514.858	315.246	0.124	-0.237
-513.843	-109.107	0.033	0.007
-512.829	2.570	-0.238	-0.175
-511.814	-9.888	0.150	0.101
-510.799	800.000	0.017	-0.070
-509.785	628.398	-0.051	-0.130
-508.770	-200.000	0.056	-0.250
-507.756	234.880	-0.085	0.142
-506.741	-161.975	-0.174	0.009
-505.726	-150.331	-0.094	0.007
-504.712	37.340	-0.252	-0.227
-503.697	800.000	0.091	-0.357
-502.683	-155.053	0.236	-0.016
-501.668	-197.847	0.375	0.002
-500.653	-28.187	-0.208	-0.122
-499.639	200.461	-0.100	0.155
-498.624	136.141	-0.109	-0.144
-497.610	800.000	0.030	-0.125
-496.595	-9.633	0.140	0.095
-495.581	-200.000	0.007	-0.150
-494.566	-57.940	0.075	-0.033
-493.551	-85.564	-0.206	0.065
-492.537	595.261	0.101	0.254
-491.522	-200.000	0.066	-0.345
-490.508	231.937	-0.187	0.312
-489.493	-38.582	-0.119	-0.064
-488.478	800.000	-0.074	-0.305
-487.464	-66.070	0.264	0.107
-486.449	337.284	-0.158	0.312
-485.435	-46.956	-0.088	0.044
-484.420	-46.143	0.263	-0.131
-483.405	-200.000	0.066	-0.311
-482.391	501.865	0.123	-0.289
-481.376	-41.540	-0.264	0.138
-480.362	800.000	0.028	0.083
-479.347	53.682	-0.122	0.119
-478.332	800.000	0.109	0.366
-477.318	-200.000	-0.064	-0.354
-476.303	-57.668	-0.041	-0.018
-475.289	156.356	0.102	0.143
-474.274	800.000	0.060	0.173
-473.259	-96.722	-0.249	0.067
-472.245	443.671	-0.027	-0.059
-471.230	-91.319	-0.016	-0.005
-470.216	-13.877	-0.215	0.141
-469.201	-118.438	-0.280	-0.050
-468.186	-69.655	-0.152	-0.059
-467.172	-118.808	0.215	-0.038
-466.157	304.855	0.089	-0.167
-465.143	-36.698	-0.118	-0.064
-464.128	-116.107	0.200	-0.038
-463.113	-150.770	0.169	-0.013
-462.099	97.784	0.191	-0.223
-461.084	60.113	0.156	-0.156
-460.070	800.000	-0.041	-0.153
-459.055	-51.384	0.319	-0.151
-458.040	800.000	-0.084	-0.358
-457.026	-200.000	-0.009	-0.062
-456.011	296.609	-0.031	-0.058
-454.997	-23.650	0.220	-0.133
-453.982	800.000	0.063	-0.249
-452.968	-121.091	0.110	0.019
-451.953	800.000	0.042	0.146
-450.938	616.263	-0.082	0.208
-449.924	89.216	-0.014	0.015
-448.909	-67.679	0.105	0.042
-447.895	-120.694	0.275	0.047
-446.880	800.000	0.045	-0.156
-445.865	-200.000	0.112	-0.516
-444.851	202.783	0.217	-0.339
-443.836	200.658	0.235	-0.367
-442.822	-50.854	0.345	-0.164
-441.807	16.954	-0.039	0.031
-440.792	-200.000	-0.017	0.115
-439.778	242.787	0.156	0.265
-438.763	-16.767	-0.115	0.074
-437.749	-41.999	0.124	-0.064
-436.734	-107.177	-0.206	-0.046
-435.719	-46.416	-0.334	0.166
-434.705	-200.000	-0.054	0.387
-433.690	-200.000	-0.043	0.199
-432.676	267.539	-0.042	0.074
-431.661	-139.101	0.118	-0.013
-430.646	74.171	-0.233	-0.247
-429.632	-1.571	-0.179	-0.128
-428.617	148.606	-0.104	0.142
-427.603	-183.557	0.138	0.002
-426.588	133.121	-0.067	-0.088
-425.573	-158.288	0.329	-0.019
-424.559	-47.993	-0.309	0.151
-423.544	292.227	-0.126	-0.232
-422.530	609.143	0.046	-0.117
-421.515	-51.220	0.202	0.096
-420.500	338.097	-0.043	0.084
-419.486	800.000	-0.103	0.392
-418.471	-200.000	0.007	0.288
-417.457	-155.498	-0.102	-0.007
-416.442	486.035	-0.084	-0.194
-415.428	800.000	0.053	-0.189
-414.413	-8.830	0.039	0.026
-413.398	-118.630	0.107	0.019
-412.384	285.431	-0.066	0.121
-411.369	800.000	0.019	-0.065
-410.355	64.829	0.020	-0.020
-409.340	-72.482	-0.267	0.100
-408.325	-200.000	-0.003	-0.364
-407.311	84.932	-0.405	-0.448
-406.296	208.456	0.215	0.340
-405.282	139.414	-0.061	-0.081
-404.267	-200.000	-0.028	-0.158
-403.252	168.718	-0.062	0.090
-402.238	800.000	-0.125	-0.394
-401.223	-153.873	0.188	-0.013
-400.209	-139.263	-0.358	-0.039
-399.194	-101.138	-0.252	-0.062
-398.179	-46.702	0.146	0.072
-397.165	34.863	-0.105	0.093
-396.150	84.020	-0.070	-0.078
-395.136	800.000	0.063	-0.190
-394.121	800.000	-0.016	-0.056
-393.106	-148.088	-0.045	0.004
-392.092	800.000	-0.137	0.415
-391.077	-200.000	0.026	0.260
-390.063	800.000	-0.093	0.276
-389.048	6.125	0.264	-0.198
-388.033	-98.952	-0.062	-0.016
-387.019	368.336	-0.082	0.167
-386.004	43.003	-0.111	0.102
-384.990	-200.000	0.031	0.228
-383.975	-200.000	0.002	-0.142
-382.960	-11.703	0.273	-0.181
-381.946	360.405	0.165	0.333
-380.931	-101.400	-0.208	-0.051
-379.917	-200.000	-0.019	0.291
-378.902	-200.000	0.004	0.151
-377.888	-19.621	-0.088	0.055
-376.873	-11.395	-0.345	-0.230
-375.858	-200.000	0.020	-0.179
-374.844	800.000	-0.081	-0.244
-373.829	-127.167	0.201	-0.030
-372.815	800.000	0.049	-0.182
-371.800	-200.000	0.044	-0.219
-370.785	-200.000	0.047	-0.327
-369.771	800.000	-0.138	-0.410
-368.756	9.919	-0.108	-0.083
-367.742	46.011	-0.140	0.131
-366.727	729.662	0.056	-0.151
-365.712	-77.952	-0.104	0.036
-364.698	329.042	0.090	0.174
-363.683	800.000	-0.054	-0.200
-362.669	-85.310	0.082	-0.026
-361.654	-91.992	-0.155	0.044
-360.639	689.255	-0.019	-0.049
-359.625	-200.000	-0.018	-0.088
-358.610	-200.000	0.213	0.000
-357.596	182.865	0.044	-0.065
-356.581	-36.231	0.141	0.077
-355.566	-6.778	-0.078	-0.053
-354.552	-200.000	0.029	-0.318
-353.537	-200.000	0.013	0.260
-352.523	-200.000	-0.049	0.262
-351.508	-200.000	0.002	0.248
-350.493	-186.345	-0.278	0.004
-349.479	-4.459	-0.122	0.085
-348.464	-200.000	-0.001	0.096
-347.450	-2.426	-0.271	0.191
-346.435	326.809	0.056	-0.109
-345.420	73.578	-0.182	0.192
-344.406	-164.043	-0.166	0.008
-343.391	-77.880	-0.077	0.027
-342.377	-39.740	-0.337	-0.178
-341.362	-81.761	0.298	0.099
-340.348	53.222	-0.156	-0.151
-339.333	-35.879	0.196	-0.107
-338.318	72.080	0.127	0.133
-337.304	-200.000	0.036	-0.282
-336.289	800.000	-0.052	0.168
-335.275	52.848	0.312	0.301
-334.260	101.387	0.007	-0.008
-333.245	310.516	-0.118	-0.222
-332.231	800.000	0.119	-0.356
-331.216	-56.622	0.072	0.032
-330.202	566.697	-0.228	0.558
-329.187	48.951	0.233	0.221
-328.172	226.967	0.026	0.043
-327.158	-18.107	0.088	0.055
-326.143	-200.000	-0.066	0.298
-325.129	110.116	-0.047	-0.057
-324.114	8.504	0.044	0.034
-323.099	-10.988	0.104	-0.069
-322.085	83.231	-0.107	-0.118
-321.070	120.295	0.087	-0.108
-320.056	-96.968	0.198	-0.052
-319.041	609.723	-0.086	0.216
-318.026	800.000	0.113	0.363
-317.012	-75.067	-0.050	-0.018
-315.997	273.410	0.085	-0.151
-314.983	-200.000	0.018	0.289
-313.968	-200.000	-0.024	0.245
-312.953	-75.295	-0.206	0.074
-311.939	-200.000	0.034	0.210
-310.924	-67.210	0.212	0.084
-309.910	-95.528	-0.221	-0.060
-308.895	55.888	-0.242	-0.237
-307.880	800.000	0.039	0.111
-306.866	-63.648	0.212	-0.088
-305.851	-117.975	0.110	0.020
-304.837	-63.098	0.126	0.053
-303.822	800.000	-0.097	0.286
-302.807	-200.000	0.024	-0.129
-301.793	39.814	0.159	-0.143
-300.778	-27.217	0.262	0.154
-299.764	-106.734	-0.228	0.051
-298.749	416.239	-0.014	0.030
-297.735	-31.906	-0.095	-0.054
-296.720	613.007	-0.076	0.193
-295.705	337.704	0.055	-0.107
-294.691	-200.000	-0.043	-0.239
-293.676	-94.835	0.070	0.019
-292.662	-28.742	-0.254	0.147
-291.647	-4.994	-0.251	-0.174
-290.632	236.889	-0.123	0.206
-289.618	14.451	-0.137	-0.107
-288.603	-135.641	0.348	0.042
-287.589	-74.929	0.216	0.078
-286.574	-133.800	-0.099	0.012
-285.559	-82.941	-0.513	-0.166
-284.545	-179.400	-0.050	0.001
-283.530	239.807	-0.082	-0.138
-282.516	-13.813	0.108	-0.070
-281.501	27.797	-0.159	-0.135
-280.486	11.991	-0.299	-0.231
-279.472	132.141	0.100	0.130
-278.457	5.394	0.088	-0.065
-277.443	-19.021	0.172	-0.107
-276.428	311.402	0.126	-0.238
-275.413	258.765	0.129	0.224
-274.399	-142.881	-0.239	-0.023
-273.384	9.272	-0.175	-0.133
-272.370	-74.129	0.089	-0.033
-271.355	-200.000	0.003	-0.259
-270.340	-103.411	-0.176	-0.042
-269.326	321.538	0.089	0.170
-268.311	11.829	-0.117	0.091
-267.297	449.524	0.159	0.352
-266.282	-200.000	0.008	0.139
-265.267	-31.124	-0.096	0.055
-264.253	-146.908	-0.364	-0.032
-263.238	41.300	-0.159	0.144
-262.224	50.712	0.281	0.268
-261.209	800.000	-0.113	-0.329
-260.195	520.790	0.083	0.195
-259.180	-102.982	-0.169	0.040
-258.165	227.215	-0.065	0.106
-257.151	800.000	0.028	0.090
-256.136	56.053	0.135	-0.132
-255.122	-159.993	0.247	0.014
-254.107	402.058	-0.022	0.047
-253.092	-165.757	0.071	-0.003
-252.078	-200.000	-0.013	0.081
-251.063	-115.880	-0.356	0.067
-250.049	-200.000	-0.014	0.105
-249.034	156.806	-0.067	-0.093
-248.019	-200.000	-0.026	0.225
-247.005	800.000	-0.050	-0.148
-245.990	-34.940	0.287	-0.158
-244.976	800.000	-0.010	0.033
-243.961	-60.357	0.198	0.085
-242.946	-72.039	0.244	-0.091
-241.932	-200.000	-0.031	-0.227
-240.917	173.558	0.193	0.280
-239.903	800.000	0.022	-0.067
-238.888	-120.501	0.222	-0.038
-237.873	-136.851	-0.238	0.028
-236.859	217.066	-0.116	-0.185
-235.844	489.822	0.075	-0.172
-234.830	-200.000	-0.007	0.157
-233.815	-84.966	0.117	-0.037
-232.800	-96.043	0.092	0.025
-231.786	-109.789	0.213	-0.045
-230.771	109.264	-0.028	0.033
-229.757	159.048	-0.136	-0.190
-228.742	-112.099	0.316	-0.064
-227.727	-82.409	0.247	0.081
-226.713	-34.185	-0.115	-0.064
-225.698	-40.960	-0.120	-0.062
-224.684	-200.000	0.017	0.197
-223.669	-200.000	0.016	-0.153
-222.655	-200.000	0.055	0.410
-221.640	118.097	-0.018	-0.023
-220.625	361.273	0.081	-0.163
-219.611	-72.068	-0.162	-0.060
-218.596	-200.000	0.040	-0.192
-217.582	586.936	-0.095	0.234
-216.567	155.004	-0.062	0.085
-215.552	534.188	-0.154	-0.367
-214.538	476.311	0.083	0.188
-213.523	800.000	0.044	0.136
-212.509	67.181	-0.105	-0.107
-211.494	58.770	0.056	0.055
-210.479	44.363	0.136	0.126
-209.465	-11.494	-0.177	0.116
-208.450	68.659	0.139	0.143
-207.436	495.822	-0.096	0.221
-206.421	-68.454	-0.149	-0.058
-205.406	15.858	-0.138	0.109
-204.392	544.117	0.065	-0.157
-203.377	-200.000	0.011	0.128
-202.363	-200.000	0.007	0.263
-201.348	-70.206	-0.421	-0.161
-200.333	129.932	-0.015	0.019
-199.319	-200.000	0.018	-0.264
-198.304	-200.000	-0.025	0.163
-197.290	-4.777	0.132	0.092
-196.275	340.936	0.020	-0.039
-195.260	-66.741	-0.220	0.087
-194.246	-200.000	0.034	-0.299
-193.231	800.000	0.152	-0.424
-192.217	800.000	0.026	0.116
-191.202	483.709	0.069	0.158
-190.187	161.095	-0.124	-0.174
-189.173	-54.525	-0.146	0.066
-188.158	455.023	-0.098	-0.218
-187.144	-200.000	-0.101	0.546
-186.129	-37.674	-0.127	-0.068
-185.114	105.673	-0.048	-0.057
-184.100	52.912	-0.087	0.083
-183.085	60.218	0.482	-0.478
-182.071	47.654	-0.105	0.099
-181.056	142.608	0.136	0.181
-180.042	-111.848	0.533	-0.108
-179.027	-99.010	0.280	0.071
-178.012	65.512	-0.137	-0.139
-176.998	800.000	-0.155	0.449
-175.983	459.795	0.078	0.173
-174.969	235.815	0.137	-0.227
-173.954	-136.210	-0.264	0.031
-172.939	26.010	-0.242	0.202
-171.925	800.000	0.087	0.345
-170.910	427.755	0.077	-0.166
-169.896	44.620	-0.179	-0.165
-168.881	69.384	-0.125	-0.129
-167.866	-20.960	0.062	0.038
-166.852	-26.962	-0.091	0.053
-165.837	242.076	0.261	0.437
-164.823	-200.000	0.044	0.263
-163.808	-71.162	-0.401	-0.151
-162.793	396.811	0.056	0.118
-161.779	-185.856	-0.181	0.003
-160.764	800.000	0.096	0.362
-159.750	-60.835	0.253	0.107
-158.735	-200.000	0.039	-0.289
-157.720	-195.065	0.267	-0.002
-156.706	102.040	-0.181	-0.212
-155.691	92.364	-0.102	-0.115
-154.677	-38.431	-0.162	-0.086
-153.662	-200.000	0.042	0.286
-152.647	96.262	0.293	0.336
-151.633	-99.072	0.066	-0.017
-150.618	23.427	0.161	-0.133
-149.604	800.000	-0.042	-0.131
-148.589	-109.378	-0.351	0.074
-147.574	-200.000	0.030	-0.220
-146.560	267.353	0.093	-0.163
-145.545	-92.344	-0.181	-0.051
-144.531	800.000	0.067	-0.193
-143.516	-107.121	0.201	-0.044
-142.502	-161.846	-0.209	0.011
-141.487	800.000	-0.062	0.206
-140.472	-200.000	0.008	0.190
-139.458	318.784	0.106	-0.201
-138.443	-200.000	0.025	-0.241
-137.429	800.000	-0.029	0.090
-136.414	-63.655	-0.138	-0.056
-135.399	244.948	0.244	-0.411
-134.385	86.891	-0.026	-0.029
-133.370	443.897	0.146	0.320
-132.356	-146.087	-0.076	0.007
-131.341	7.579	0.135	0.101
-130.326	-200.000	-0.046	0.224
-129.312	-200.000	0.014	0.219
-128.297	-179.499	-0.281	0.006
-127.283	-116.448	0.075	-0.014
-126.268	64.041	0.318	-0.320
-125.253	-200.000	0.006	0.315
-124.239	-92.546	-0.155	-0.044
-123.224	-24.904	-0.163	0.097
-122.210	593.336	0.082	0.202
-121.195	38.334	0.115	-0.103
