DTS Sentinel unit serial number:	SN413079Multiplexer serial number:	ORYXHardware model number:	OX4-SRSoftware version number:	ORYX F/W v4.00 Oryx Data Collector v3.7.2.0data status	okinstallation	princeton_trtdifferential loss correction	single-endedforward channel	channel 4reverse channel	N/Adate	2019/09/12time	13:43:11forward acquisition time	60.00reverse acquisition time	0.00gamma	496.2192k internal	0.2287k external	0.2287temperature offset calibration	1.0084default loss term (dB/km)	0.3790temperature slope calibration	1.0000multiplexer offset coefficient	1.0000multiplexer slope coefficient	1.0000fibre end	0.00T internal ref (°C)	41.00T ext. ref 1 (°C)	2.16T ext. ref 2 (°C)	35.48length (m)	temperature (°C)	Stokes	anti-Stokes-747.200	-200.000	-0.064	0.431
-746.185	800.000	-0.062	0.185
-745.171	-119.681	0.249	0.044
-744.156	11.706	0.042	-0.033
-743.142	-200.000	-0.033	0.446
-742.127	-160.030	-0.224	-0.013
-741.112	174.741	0.133	-0.197
-740.098	349.191	-0.127	0.257
-739.083	-6.384	0.168	0.118
-738.069	227.711	0.067	-0.111
-737.054	614.736	0.165	-0.423
-736.039	800.000	0.029	0.095
-735.025	-108.582	0.234	0.052
-734.010	-127.844	-0.346	0.051
-732.996	-200.000	0.027	-0.177
-731.981	800.000	-0.110	-0.349
-730.966	7.167	0.107	-0.082
-729.952	-200.000	0.045	0.221
-728.937	-66.860	-0.408	-0.165
-727.923	271.109	-0.137	-0.247
-726.908	-50.282	-0.139	-0.067
-725.894	-131.557	-0.193	-0.026
-724.879	-60.245	-0.309	-0.135
-723.864	-127.333	-0.534	0.080
-722.850	800.000	0.074	-0.291
-721.835	-200.000	-0.081	-0.466
-720.821	800.000	0.039	0.126
-719.806	-87.668	-0.178	-0.055
-718.791	-93.520	-0.175	-0.050
-717.777	51.056	-0.070	0.068
-716.762	66.471	-0.064	-0.067
-715.748	165.880	0.165	-0.240
-714.733	-63.498	0.211	-0.089
-713.718	-200.000	-0.002	-0.172
-712.704	800.000	-0.039	0.142
-711.689	800.000	-0.055	-0.172
-710.675	-200.000	0.010	0.058
-709.660	-152.082	-0.089	0.007
-708.645	26.751	-0.107	0.092
-707.631	-32.527	0.320	0.183
-706.616	-187.403	-0.187	-0.003
-705.602	170.165	-0.171	-0.251
-704.587	12.954	0.024	0.019
-703.572	-86.595	-0.306	-0.096
-702.558	-140.550	0.226	0.024
-701.543	-81.149	0.344	0.117
-700.529	-75.543	0.375	-0.136
-699.514	-200.000	0.002	0.238
-698.499	12.472	0.103	0.081
-697.485	141.295	0.214	-0.289
-696.470	-71.192	0.236	0.091
-695.456	139.990	-0.190	0.257
-694.441	163.647	0.167	0.241
-693.426	-112.861	-0.528	-0.107
-692.412	91.168	0.100	-0.114
-691.397	80.717	0.101	-0.112
-690.383	392.725	-0.031	0.066
-689.368	-65.702	-0.171	0.070
-688.354	-105.924	-0.071	0.016
-687.339	-61.775	-0.141	-0.061
-686.324	50.111	-0.148	0.143
-685.310	-13.109	-0.351	0.234
-684.295	350.532	0.098	-0.198
-683.281	-167.225	-0.253	-0.010
-682.266	-200.000	-0.020	0.349
-681.251	-69.022	-0.101	-0.040
-680.237	92.928	-0.308	-0.356
-679.222	-200.000	-0.009	-0.407
-678.208	-200.000	0.007	-0.067
-677.193	448.044	0.108	-0.244
-676.178	-57.754	-0.512	-0.229
-675.164	-200.000	-0.023	-0.135
-674.149	800.000	-0.061	0.181
-673.135	-124.289	-0.153	-0.024
-672.120	-200.000	0.054	-0.393
-671.105	-145.968	-0.347	0.031
-670.091	-3.303	0.274	-0.195
-669.076	139.526	-0.080	-0.107
-668.062	-200.000	-0.013	0.151
-667.047	-141.071	-0.257	0.027
-666.032	46.138	0.160	-0.151
-665.018	-200.000	-0.021	-0.229
-664.003	-200.000	0.012	-0.145
-662.989	-200.000	0.020	-0.337
-661.974	-135.879	0.361	-0.044
-660.959	800.000	0.077	-0.272
-659.945	-113.476	0.250	0.050
-658.930	-64.694	0.175	0.073
-657.916	-200.000	-0.020	0.134
-656.901	286.362	0.106	0.195
-655.886	-4.395	-0.191	-0.135
-654.872	7.572	0.244	0.187
-653.857	44.582	-0.281	0.264
-652.843	-200.000	0.006	-0.335
-651.828	1.383	-0.196	-0.144
-650.814	-157.568	0.275	0.017
-649.799	-200.000	0.009	0.225
-648.784	55.365	-0.251	0.248
-647.770	-23.407	-0.097	-0.059
-646.755	-110.501	-0.260	0.055
-645.741	-6.910	-0.305	0.212
-644.726	214.468	0.223	0.361
-643.711	206.698	-0.113	-0.180
-642.697	-200.000	0.024	-0.130
-641.682	-87.356	-0.401	0.124
-640.668	82.023	-0.170	-0.188
-639.653	-74.773	-0.203	0.074
-638.638	-200.000	0.008	0.220
-637.624	800.000	-0.022	-0.077
-636.609	-7.535	-0.112	0.077
-635.595	-67.620	-0.107	-0.043
-634.580	-200.000	0.008	-0.206
-633.565	-200.000	0.004	0.064
-632.551	181.849	-0.203	0.305
-631.536	86.094	-0.172	0.194
-630.522	-200.000	-0.163	-0.000
-629.507	-200.000	-0.048	0.401
-628.492	-91.438	0.139	-0.041
-627.478	56.721	0.140	0.139
-626.463	-140.031	0.263	0.028
-625.449	800.000	-0.070	0.231
-624.434	800.000	0.014	-0.045
-623.419	98.247	-0.113	0.133
-622.405	13.372	-0.066	0.052
-621.390	54.550	-0.127	0.124
-620.376	438.678	-0.136	-0.302
-619.361	-64.888	-0.155	-0.064
-618.346	630.365	-0.090	-0.232
-617.332	-169.261	-0.239	0.009
-616.317	-136.722	0.114	0.013
-615.303	-200.000	-0.016	0.103
-614.288	-200.000	-0.058	0.536
-613.273	-200.000	0.025	0.190
-612.259	800.000	-0.055	-0.168
-611.244	654.470	-0.048	-0.127
-610.230	-145.093	-0.338	0.031
-609.215	-34.142	-0.067	0.038
-608.201	209.129	-0.145	-0.231
-607.186	-39.994	-0.329	-0.175
-606.171	8.158	-0.231	-0.177
-605.157	-164.658	0.361	-0.017
-604.142	81.367	-0.179	0.197
-603.128	-125.009	-0.145	-0.023
-602.113	247.530	-0.165	-0.284
-601.098	149.124	0.028	-0.038
-600.084	-104.687	-0.086	0.020
-599.069	-144.068	0.120	-0.011
-598.055	-96.195	0.159	0.043
-597.040	-67.748	0.095	-0.038
-596.025	587.108	0.021	0.052
-595.011	-145.446	-0.195	0.018
-593.996	9.618	0.200	-0.155
-592.982	-31.623	-0.289	0.166
-591.967	613.231	-0.135	0.344
-590.952	-116.912	0.169	-0.032
-589.938	23.306	0.529	0.443
-588.923	34.156	0.108	-0.096
-587.909	13.152	-0.203	-0.160
-586.894	-72.095	0.207	0.078
-585.879	-28.049	-0.103	-0.060
-584.865	203.560	-0.207	-0.327
-583.850	17.232	-0.216	-0.175
-582.836	-49.697	-0.068	0.033
-581.821	238.630	0.056	-0.094
-580.806	-106.810	0.273	-0.062
-579.792	800.000	-0.097	-0.302
-578.777	-20.968	-0.304	0.190
-577.763	-200.000	0.019	0.241
-576.748	-111.769	-0.124	-0.026
-575.733	86.122	-0.098	0.110
-574.719	-37.670	-0.144	-0.078
-573.704	-7.960	-0.074	-0.051
-572.690	-200.000	0.029	-0.147
-571.675	-128.762	0.150	-0.022
-570.661	800.000	0.067	-0.286
-569.646	246.514	0.058	-0.100
-568.631	800.000	-0.108	-0.307
-567.617	-200.000	0.019	0.155
-566.602	800.000	0.074	0.306
-565.588	-157.790	0.330	0.020
-564.573	-41.348	0.055	-0.029
-563.558	-88.787	0.122	0.037
-562.544	-200.000	0.007	0.104
-561.529	151.329	-0.152	-0.211
-560.515	-150.030	-0.196	0.016
-559.500	800.000	-0.053	0.148
-558.485	-116.679	0.067	0.013
-557.471	288.868	-0.057	-0.105
-556.456	-82.978	-0.248	0.081
-555.442	-200.000	0.021	-0.163
-554.427	-127.662	0.217	0.032
-553.412	800.000	0.042	-0.145
-552.398	90.929	-0.149	0.170
-551.383	-60.471	-0.122	0.053
-550.369	53.020	0.012	-0.012
-549.354	-168.302	-0.240	-0.009
-548.339	540.453	-0.078	-0.190
-547.325	429.820	-0.090	-0.197
-546.310	-131.635	0.093	0.012
-545.296	-165.594	-0.411	-0.018
-544.281	9.211	-0.125	0.096
-543.266	800.000	0.114	0.336
-542.252	-59.838	-0.283	0.123
-541.237	-160.317	-0.229	-0.013
-540.223	15.007	0.351	0.280
-539.208	-200.000	0.011	-0.244
-538.193	-13.929	0.216	-0.142
-537.179	175.110	-0.025	-0.036
-536.164	-6.008	0.188	0.131
-535.150	-139.063	0.486	0.054
-534.135	313.273	0.108	-0.206
-533.121	455.630	-0.081	0.183
-532.106	-200.000	-0.015	-0.107
-531.091	65.427	0.104	0.107
-530.077	-104.025	0.456	0.108
-529.062	-35.548	-0.116	0.064
-528.048	-200.000	-0.042	0.356
-527.033	-42.513	-0.159	-0.082
-526.018	-12.715	-0.455	-0.302
-525.004	-66.822	0.194	-0.078
-523.989	-3.470	0.125	0.088
-522.975	-86.720	-0.324	-0.101
-521.960	-109.302	0.485	0.104
-520.945	26.541	0.334	-0.284
-519.931	-21.931	-0.084	-0.052
-518.916	288.266	-0.156	-0.287
-517.902	-39.254	0.040	-0.021
-516.887	-142.262	-0.450	-0.045
-515.872	83.958	-0.235	-0.261
-514.858	-200.000	-0.023	0.152
-513.843	-28.794	-0.136	0.080
-512.829	800.000	-0.102	0.303
-511.814	-77.813	0.096	-0.034
-510.799	232.892	-0.138	0.231
-509.785	-104.683	-0.569	0.133
-508.770	-57.110	0.122	-0.055
-507.756	-172.947	0.173	0.005
-506.741	-200.000	-0.025	-0.144
-505.726	137.868	0.113	0.150
-504.712	-28.305	0.206	-0.121
-503.697	-200.000	-0.018	-0.276
-502.683	267.129	-0.088	-0.156
-501.668	-200.000	0.016	-0.138
-500.653	-200.000	-0.027	-0.461
-499.639	-0.748	-0.129	-0.093
-498.624	0.448	0.143	-0.104
-497.610	800.000	0.014	0.041
-496.595	-200.000	-0.037	0.235
-495.581	-51.749	0.399	0.189
-494.566	-38.777	-0.136	0.073
-493.551	-200.000	-0.068	-0.353
-492.537	253.235	-0.175	-0.303
-491.522	-200.000	-0.028	-0.360
-490.508	177.183	0.131	-0.193
-489.493	-200.000	0.006	-0.091
-488.478	-172.872	-0.402	-0.013
-487.464	592.725	-0.125	0.313
-486.449	-29.509	-0.092	0.054
-485.435	-82.192	0.252	-0.083
-484.420	11.610	0.147	-0.114
-483.405	-200.000	0.050	0.227
-482.391	735.075	-0.053	-0.144
-481.376	713.456	0.050	0.134
-480.362	-200.000	-0.028	0.160
-479.347	120.938	0.107	0.135
-478.332	-126.875	-0.120	0.018
-477.318	-200.000	0.017	0.333
-476.303	-122.171	-0.278	-0.046
-475.289	415.994	-0.145	0.314
-474.274	-61.485	0.086	0.037
-473.259	-200.000	-0.044	-0.378
-472.245	-200.000	-0.004	-0.026
-471.230	-85.393	0.068	0.022
-470.216	228.687	0.244	0.404
-469.201	-61.089	-0.086	-0.037
-468.186	620.916	-0.032	-0.081
-467.172	-147.408	0.248	0.021
-466.157	132.607	-0.080	-0.105
-465.143	-90.980	0.074	0.022
-464.128	-176.408	0.262	0.007
-463.113	67.147	0.161	-0.166
-462.099	-200.000	0.013	-0.265
-461.084	-200.000	0.011	-0.176
-460.070	-200.000	-0.040	0.000
-459.055	-184.516	0.427	-0.007
-458.040	-200.000	-0.038	-0.373
-457.026	52.263	-0.118	-0.114
-456.011	-110.029	0.097	0.021
-454.997	204.049	-0.041	-0.064
-453.982	-105.344	-0.097	0.022
-452.968	-68.182	-0.227	0.090
-451.953	-200.000	0.013	-0.172
-450.938	800.000	-0.058	-0.224
-449.924	-35.716	0.211	0.116
-448.909	422.867	0.054	-0.117
-447.895	-93.956	0.157	-0.044
-446.880	65.884	-0.063	-0.065
-445.865	-68.511	0.280	0.110
-444.851	-200.000	0.050	0.264
-443.836	439.454	0.098	-0.216
-442.822	-24.694	0.067	-0.041
-441.807	490.045	0.174	-0.403
-440.792	27.770	-0.146	-0.125
-439.778	-81.855	-0.049	-0.016
-438.763	-63.777	0.098	-0.041
-437.749	-32.629	-0.196	0.110
-436.734	65.203	0.141	0.145
-435.719	-150.091	0.184	-0.014
-434.705	-54.495	0.194	0.089
-433.690	-9.721	-0.195	-0.132
-432.676	384.117	-0.054	0.113
-431.661	-200.000	0.008	0.445
-430.646	123.492	-0.128	-0.163
-429.632	-192.896	-0.252	0.002
-428.617	-200.000	-0.010	-0.131
-427.603	88.968	-0.274	-0.309
-426.588	-79.436	-0.142	0.049
-425.573	87.636	-0.137	-0.154
-424.559	221.779	-0.054	0.087
-423.544	-9.314	0.235	-0.159
-422.530	-200.000	-0.043	-0.272
-421.515	-113.047	0.342	-0.068
-420.500	-91.252	-0.507	0.147
-419.486	249.300	-0.059	0.101
-418.471	137.779	0.035	-0.046
-417.457	106.612	0.084	0.101
-416.442	-179.333	-0.184	0.004
-415.428	570.630	-0.155	-0.383
-414.413	87.059	-0.110	-0.123
-413.398	-200.000	-0.029	-0.209
-412.384	471.046	-0.005	-0.011
-411.369	-161.819	-0.293	-0.015
-410.355	-79.651	-0.169	-0.058
-409.340	764.648	-0.083	0.228
-408.325	213.143	0.032	0.050
-407.311	-120.674	0.322	0.055
-406.296	-141.628	-0.179	0.018
-405.282	401.660	0.068	-0.144
-404.267	45.918	0.124	-0.116
-403.252	399.708	0.111	0.235
-402.238	-200.000	0.014	-0.088
-401.223	-33.746	0.293	-0.163
-400.209	67.047	-0.144	0.149
-399.194	-200.000	0.006	0.216
-398.179	270.423	0.024	0.043
-397.165	244.455	-0.100	0.171
-396.150	-200.000	-0.007	0.119
-395.136	-52.000	-0.245	0.115
-394.121	236.243	0.166	0.279
-393.106	-200.000	0.006	-0.036
-392.092	-127.654	0.282	-0.041
-391.077	-200.000	-0.011	-0.125
-390.063	-200.000	-0.018	-0.308
-389.048	184.823	0.050	0.075
-388.033	-77.001	0.096	-0.034
-387.019	-105.576	0.172	0.040
-386.004	213.627	-0.146	0.234
-384.990	-159.512	-0.139	0.008
-383.975	-150.368	0.094	-0.007
-382.960	150.353	0.132	0.181
-381.946	-200.000	-0.014	-0.099
-380.931	564.780	0.023	-0.057
-379.917	-88.780	0.017	0.005
-378.902	171.963	0.112	0.163
-377.888	-200.000	-0.057	-0.306
-376.873	-71.932	0.025	-0.009
-375.858	-72.681	-0.096	-0.036
-374.844	-200.000	-0.012	-0.075
-373.829	-200.000	0.029	-0.210
-372.815	-43.034	0.264	-0.135
-371.800	325.768	-0.077	0.149
-370.785	800.000	-0.060	0.172
-369.771	800.000	0.047	-0.163
-368.756	354.589	0.176	0.353
-367.742	-84.356	-0.194	0.062
-366.727	-109.937	-0.363	-0.077
-365.712	86.867	-0.077	-0.086
-364.698	-200.000	0.010	0.066
-363.683	-104.497	-0.102	-0.024
-362.669	-200.000	-0.010	-0.329
-361.654	20.469	-0.124	0.101
-360.639	800.000	-0.102	0.332
-359.625	-122.503	0.057	-0.009
-358.610	240.970	-0.102	0.172
-357.596	6.531	0.237	-0.178
-356.581	-200.000	0.007	-0.067
-355.566	796.017	0.031	0.087
-354.552	-98.871	0.215	-0.055
-353.537	-5.117	0.121	-0.084
-352.523	-84.787	0.382	0.121
-351.508	-200.000	0.013	0.344
-350.493	316.908	0.202	0.386
-349.479	300.578	-0.040	-0.074
-348.464	-92.694	0.302	-0.085
-347.450	-48.946	0.086	-0.042
-346.435	234.668	-0.075	-0.125
-345.420	-51.466	0.119	0.056
-344.406	28.198	0.196	-0.167
-343.391	-104.484	-0.159	-0.037
-342.377	-145.473	0.169	-0.015
-341.362	-200.000	-0.018	0.269
-340.348	-11.651	-0.089	0.059
-339.333	-42.822	0.263	0.135
-338.318	476.973	0.104	0.238
-337.304	117.275	-0.105	0.130
-336.289	-159.191	-0.210	-0.012
-335.275	-126.803	0.330	0.049
-334.260	-10.746	-0.122	0.081
-333.245	293.207	0.055	0.102
-332.231	763.432	0.051	-0.139
-331.216	-134.893	-0.156	0.019
-330.202	-200.000	-0.004	0.297
-329.187	-200.000	0.018	-0.257
-328.172	-99.589	-0.196	0.050
-327.158	-16.636	0.306	0.195
-326.143	800.000	-0.037	-0.107
-325.129	-85.978	-0.147	-0.046
-324.114	3.326	-0.167	0.123
-323.099	-200.000	-0.008	-0.190
-322.085	-89.179	-0.052	0.016
-321.070	-134.709	-0.167	-0.021
-320.056	-19.623	-0.173	-0.108
-319.041	-61.745	0.108	-0.046
-318.026	-200.000	-0.022	0.109
-317.012	-200.000	-0.008	0.101
-315.997	-64.870	-0.174	0.071
-314.983	-60.812	0.308	-0.131
-313.968	391.291	0.110	-0.229
-312.953	800.000	0.070	-0.206
-311.939	420.274	-0.152	-0.328
-310.924	123.209	0.259	0.327
-309.910	491.615	-0.061	0.140
-308.895	-124.917	0.091	-0.014
-307.880	-200.000	0.039	0.296
-306.866	-76.731	0.091	-0.032
-305.851	-200.000	0.024	-0.317
-304.837	554.136	0.091	-0.221
-303.822	106.504	-0.192	-0.229
-302.807	800.000	0.020	0.060
-301.793	698.811	-0.058	0.155
-300.778	90.267	-0.138	0.155
-299.764	-23.651	-0.162	0.098
-298.749	702.551	0.103	-0.273
-297.735	85.384	0.275	0.304
-296.720	449.829	0.057	0.127
-295.705	18.564	-0.220	0.177
-294.691	535.259	-0.082	-0.195
-293.676	-37.791	0.242	-0.130
-292.662	-92.512	-0.236	0.067
-291.647	145.870	0.062	-0.084
-290.632	191.364	0.128	-0.194
-289.618	148.434	0.166	0.226
-288.603	117.104	0.148	0.183
-287.589	-200.000	0.008	-0.220
-286.574	262.459	-0.202	-0.353
-285.559	-74.767	-0.126	0.046
-284.545	62.782	0.095	-0.095
-283.530	23.839	-0.343	0.285
-282.516	800.000	0.045	-0.185
-281.501	-114.654	0.180	-0.035
-280.486	-200.000	-0.005	0.083
-279.472	-72.566	0.049	-0.018
-278.457	-200.000	0.017	0.139
-277.443	320.510	-0.031	0.060
-276.428	-200.000	0.015	0.315
-275.413	94.165	0.200	-0.229
-274.399	104.849	0.087	0.103
-273.384	800.000	0.059	0.205
-272.370	335.926	0.096	0.188
-271.355	-65.028	-0.081	0.033
-270.340	-62.111	0.102	0.043
-269.326	-79.798	0.238	-0.081
-268.311	59.513	-0.082	-0.082
-267.297	800.000	-0.060	-0.243
-266.282	-136.621	-0.324	-0.038
-265.267	800.000	0.055	0.170
-264.253	-4.982	0.091	-0.063
-263.238	782.683	-0.088	0.244
-262.224	-88.464	0.294	-0.088
-261.209	-59.052	-0.261	0.113
-260.195	248.775	-0.191	0.326
-259.180	-42.167	-0.272	-0.140
-258.165	-200.000	0.055	0.333
-257.151	-115.218	0.070	0.013
-256.136	-46.115	0.303	0.150
-255.122	-61.213	-0.251	0.106
-254.107	126.878	0.127	0.162
-253.092	-178.099	0.452	-0.011
-252.078	800.000	0.059	-0.225
-251.063	11.990	0.101	-0.078
-250.049	800.000	0.018	-0.070
-249.034	800.000	0.067	0.210
-248.019	-200.000	-0.019	-0.298
-247.005	633.252	-0.103	-0.263
-245.990	-200.000	0.022	-0.184
-244.976	114.789	0.165	-0.203
-243.961	329.669	-0.006	-0.012
-242.946	-157.883	-0.131	0.008
-241.932	596.171	0.015	0.038
-240.917	-148.446	0.244	-0.020
-239.903	-83.403	0.272	0.088
-238.888	157.766	-0.129	-0.180
-237.873	590.510	0.040	-0.100
-236.859	185.285	0.179	0.266
-235.844	112.100	-0.084	-0.102
-234.830	325.834	0.062	-0.119
-233.815	-200.000	-0.021	0.133
-232.800	70.027	0.137	0.142
-231.786	152.889	-0.176	-0.242
-230.771	-20.353	0.201	-0.125
-229.757	-200.000	0.019	-0.110
-228.742	121.846	0.176	-0.221
-227.727	-150.416	-0.078	0.006
-226.713	-121.686	0.069	0.012
-225.698	-200.000	0.008	-0.045
-224.684	90.064	-0.195	0.219
-223.669	162.182	0.166	0.234
-222.655	-133.745	0.527	-0.066
-221.640	-200.000	0.022	0.300
-220.625	119.499	0.160	0.199
-219.611	800.000	0.038	0.117
-218.596	-200.000	0.019	-0.086
-217.582	-130.229	0.208	-0.028
-216.567	483.813	-0.104	0.237
-215.552	-7.883	0.144	-0.098
-214.538	-54.179	-0.119	0.054
-213.523	255.291	0.128	-0.220
-212.509	800.000	0.064	0.233
-211.494	211.149	-0.122	-0.193
-210.479	5.045	0.158	0.117
-209.465	-200.000	0.019	-0.296
-208.450	95.701	-0.182	0.209
-207.436	-165.358	0.139	-0.006
-206.421	-39.196	0.233	-0.123
-205.406	800.000	-0.043	-0.148
-204.392	18.718	0.057	-0.046
-203.377	-200.000	-0.013	-0.178
-202.363	-200.000	-0.024	-0.150
-201.348	800.000	-0.031	-0.109
-200.333	489.406	-0.154	-0.354
-199.319	-82.035	-0.250	0.082
-198.304	233.682	-0.067	-0.110
-197.290	-200.000	-0.003	-0.058
-196.275	-97.040	-0.157	0.041
-195.260	-166.358	-0.312	0.013
-194.246	173.611	0.036	0.052
-193.231	800.000	-0.071	-0.243
-192.217	-103.787	-0.051	-0.012
-191.202	12.523	-0.057	0.044
-190.187	800.000	0.075	-0.242
-189.173	-140.797	0.256	0.027
-188.158	800.000	-0.032	-0.108
-187.144	51.056	-0.042	0.040
-186.129	-136.882	0.168	-0.019
-185.114	163.609	-0.175	0.246
-184.100	31.963	-0.138	0.120
-183.085	28.742	-0.084	-0.071
-182.071	26.121	0.221	0.185
-181.056	98.922	0.079	-0.091
-180.042	-103.969	-0.220	0.051
-179.027	-164.898	-0.346	0.016
-178.012	-137.069	0.134	0.015
-176.998	82.316	0.116	-0.126
-175.983	-200.000	-0.060	-0.369
-174.969	-200.000	-0.036	0.373
-173.954	800.000	-0.038	-0.166
-172.939	103.116	0.145	-0.170
-171.925	-120.033	0.382	-0.066
-170.910	-98.164	0.113	-0.029
-169.896	-16.038	0.193	0.123
-168.881	-55.241	-0.021	0.010
-167.866	-83.879	-0.228	-0.073
-166.852	514.369	0.084	0.196
-165.837	-47.999	0.315	-0.152
-164.823	-150.972	0.405	0.031
-163.808	130.988	0.262	0.337
-162.793	-63.278	-0.185	-0.076
-161.779	800.000	-0.059	0.206
-160.764	191.075	0.143	0.216
-159.750	-200.000	-0.020	0.360
-158.735	381.263	-0.065	-0.134
-157.720	800.000	0.051	-0.202
-156.706	5.809	0.164	0.122
-155.691	126.179	0.201	0.255
-154.677	-200.000	-0.010	-0.146
-153.662	222.384	-0.177	0.285
-152.647	54.486	-0.142	0.137
-151.633	40.031	-0.041	0.037
-150.618	-72.063	-0.013	-0.005
-149.604	-58.306	0.351	-0.153
-148.589	139.900	0.058	-0.076
-147.574	71.630	0.259	0.270
-146.560	240.356	0.091	-0.152
-145.545	160.140	0.103	0.144
-144.531	-135.454	0.424	-0.051
-143.516	-33.791	0.420	0.232
-142.502	-42.699	-0.207	0.106
-141.487	-37.879	0.308	0.164
-140.472	110.246	-0.193	0.232
-139.458	-16.486	0.225	0.143
-138.443	-2.577	-0.182	-0.128
-137.429	-200.000	-0.060	-0.529
-136.414	61.322	0.216	0.215
-135.399	648.950	-0.126	-0.324
-134.385	75.310	-0.184	-0.194
-133.370	800.000	0.010	-0.042
-132.356	-184.861	-0.230	0.004
-131.341	800.000	-0.067	-0.222
-130.326	64.738	-0.202	-0.204
-129.312	-156.547	-0.046	-0.003
-128.297	355.461	-0.176	0.351
-127.283	-200.000	-0.030	0.162
-126.268	273.641	0.029	-0.052
-125.253	800.000	-0.068	0.189
-124.239	800.000	0.042	-0.157
-123.224	135.967	-0.144	0.188
