DTS Sentinel unit serial number:	SN413079Multiplexer serial number:	ORYXHardware model number:	OX4-SRSoftware version number:	ORYX F/W v4.00 Oryx Data Collector v3.7.2.0data status	okinstallation	princeton_trtdifferential loss correction	single-endedforward channel	channel 4reverse channel	N/Adate	2019/09/17time	20:57:34forward acquisition time	60.00reverse acquisition time	0.00gamma	496.2192k internal	0.2323k external	0.2323temperature offset calibration	0.9990default loss term (dB/km)	0.3790temperature slope calibration	1.0000multiplexer offset coefficient	1.0000multiplexer slope coefficient	1.0000fibre end	0.00T internal ref (°C)	28.81T ext. ref 1 (°C)	0.20T ext. ref 2 (°C)	20.33length (m)	temperature (°C)	Stokes	anti-Stokes-747.200	-73.070	-0.373	-0.138
-746.185	49.486	-0.211	0.201
-745.171	-200.000	0.002	-0.059
-744.156	800.000	0.033	0.104
-743.142	-102.025	-0.292	0.071
-742.127	800.000	-0.174	0.518
-741.112	67.649	0.033	0.034
-740.098	-168.554	0.207	0.008
-739.083	-200.000	-0.021	0.292
-738.069	15.049	0.278	0.220
-737.054	-67.996	-0.232	-0.091
-736.039	-37.495	-0.268	-0.144
-735.025	-200.000	0.016	-0.137
-734.010	214.179	-0.216	-0.344
-732.996	-28.282	-0.200	-0.117
-731.981	-200.000	-0.035	0.281
-730.966	339.318	0.054	0.107
-729.952	27.171	-0.178	-0.151
-728.937	-8.094	-0.315	-0.214
-727.923	800.000	-0.086	-0.360
-726.908	-139.367	0.101	-0.011
-725.894	800.000	-0.030	0.106
-724.879	41.687	-0.052	-0.047
-723.864	478.821	-0.052	-0.119
-722.850	-200.000	0.024	-0.442
-721.835	-200.000	0.030	0.198
-720.821	800.000	-0.068	-0.254
-719.806	-127.997	-0.104	0.015
-718.791	63.809	0.043	0.044
-717.777	-100.377	0.233	0.058
-716.762	-100.914	-0.244	0.060
-715.748	800.000	0.005	0.016
-714.733	46.745	-0.073	-0.068
-713.718	231.634	0.049	-0.081
-712.704	-150.931	-0.245	0.019
-711.689	31.730	-0.256	0.223
-710.675	-187.746	0.235	0.003
-709.660	87.413	0.049	-0.055
-708.645	158.644	0.176	-0.246
-707.631	254.282	0.055	-0.094
-706.616	0.346	0.100	-0.072
-705.602	16.199	0.155	-0.124
-704.587	60.976	-0.245	0.246
-703.572	194.469	0.158	0.241
-702.558	800.000	-0.128	-0.464
-701.543	131.392	-0.220	0.286
-700.529	-200.000	-0.038	0.289
-699.514	800.000	-0.061	-0.195
-698.499	237.933	-0.095	0.159
-697.485	-31.475	-0.403	0.229
-696.470	-14.196	-0.257	-0.167
-695.456	-200.000	0.023	-0.263
-694.441	-101.425	0.333	-0.082
-693.426	-52.614	-0.310	0.144
-692.412	-95.965	0.274	-0.074
-691.397	-200.000	0.032	-0.289
-690.383	-129.791	0.224	0.031
-689.368	-200.000	-0.029	0.133
-688.354	-165.196	-0.140	-0.006
-687.339	116.989	0.124	-0.153
-686.324	-155.657	0.085	-0.005
-685.310	-37.262	-0.073	0.040
-684.295	-164.009	-0.481	-0.023
-683.281	347.404	-0.054	-0.108
-682.266	-38.448	0.149	-0.079
-681.251	-132.953	-0.126	0.016
-680.237	144.729	0.161	0.216
-679.222	-19.474	-0.122	-0.076
-678.208	133.478	-0.193	-0.251
-677.193	63.600	-0.247	0.250
-676.178	-64.771	0.116	-0.047
-675.164	-39.296	0.200	0.106
-674.149	-200.000	0.005	0.256
-673.135	-200.000	0.042	-0.307
-672.120	-101.330	-0.130	0.032
-671.105	-38.581	0.221	-0.118
-670.091	-143.626	0.175	0.017
-669.076	15.967	-0.238	-0.189
-668.062	126.751	-0.061	-0.078
-667.047	-149.714	-0.114	0.009
-666.032	-200.000	-0.003	-0.202
-665.018	253.144	0.052	-0.089
-664.003	-14.665	-0.422	-0.273
-662.989	40.589	0.242	-0.219
-661.974	-91.129	0.193	-0.056
-660.959	-63.379	-0.110	-0.046
-659.945	-89.502	-0.195	-0.058
-658.930	-200.000	-0.030	0.235
-657.916	-200.000	0.029	-0.139
-656.901	800.000	-0.038	0.135
-655.886	172.549	-0.088	0.127
-654.872	-200.000	-0.023	0.128
-653.857	36.119	0.126	0.112
-652.843	2.229	-0.254	0.184
-651.828	225.886	-0.054	-0.088
-650.814	-42.734	0.194	-0.099
-649.799	-6.926	-0.163	-0.111
-648.784	32.853	-0.094	0.081
-647.770	-118.520	0.201	0.036
-646.755	-200.000	-0.024	0.116
-645.741	-8.103	-0.282	-0.191
-644.726	-200.000	-0.038	-0.313
-643.711	483.662	-0.103	0.237
-642.697	-98.576	0.327	0.084
-641.682	-130.763	-0.134	-0.018
-640.668	-69.974	0.401	0.154
-639.653	-148.347	-0.601	0.050
-638.638	-200.000	-0.076	-0.355
-637.624	95.148	0.048	-0.055
-636.609	-200.000	0.026	-0.345
-635.595	58.070	0.040	-0.039
-634.580	57.118	-0.113	-0.111
-633.565	91.577	-0.226	0.256
-632.551	-113.117	-0.274	-0.054
-631.536	31.430	-0.192	-0.166
-630.522	-200.000	0.004	0.104
-629.507	397.451	0.083	-0.174
-628.492	-200.000	0.154	-0.000
-627.478	800.000	-0.074	-0.316
-626.463	800.000	-0.083	0.242
-625.449	-27.094	0.153	-0.090
-624.434	-11.081	-0.318	-0.211
-623.419	55.572	-0.150	-0.146
-622.405	-200.000	-0.017	0.094
-621.390	762.818	-0.088	-0.241
-620.376	44.060	-0.116	-0.107
-619.361	-34.939	0.190	-0.104
-618.346	57.831	-0.113	-0.111
-617.332	-44.952	0.153	0.077
-616.317	-65.073	-0.067	-0.027
-615.303	-100.914	-0.119	0.029
-614.288	699.845	0.181	0.478
-613.273	68.664	-0.077	-0.079
-612.259	18.878	-0.184	0.148
-611.244	-46.715	0.157	-0.077
-610.230	800.000	-0.054	-0.227
-609.215	-94.796	-0.267	-0.073
-608.201	-200.000	-0.025	-0.253
-607.186	-200.000	-0.015	0.111
-606.171	-175.245	-0.394	0.011
-605.157	-107.497	-0.255	0.056
-604.142	-44.745	-0.447	0.224
-603.128	-129.714	-0.274	0.038
-602.113	-67.148	-0.100	-0.039
-601.098	134.840	-0.308	-0.402
-600.084	2.729	0.143	-0.104
-599.069	-153.600	-0.145	-0.010
-598.055	-34.650	0.148	-0.081
-597.040	502.186	0.181	0.419
-596.025	328.638	-0.056	-0.108
-595.011	127.833	-0.080	-0.103
-593.996	800.000	0.057	-0.199
-592.982	174.010	0.138	0.201
-591.967	-76.091	0.167	0.059
-590.952	-106.812	0.306	0.068
-589.938	-179.327	0.176	-0.004
-588.923	-34.360	-0.111	0.061
-587.909	307.963	-0.127	0.238
-586.894	-78.864	0.313	0.107
-585.879	-200.000	0.039	-0.177
-584.865	800.000	-0.119	-0.343
-583.850	800.000	0.094	-0.409
-582.836	522.230	-0.121	0.284
-581.821	12.343	0.060	0.047
-580.806	376.620	-0.082	0.169
-579.792	-19.193	-0.227	-0.141
-578.777	-46.539	-0.142	0.070
-577.763	-200.000	0.036	0.216
-576.748	25.659	-0.112	-0.093
-575.733	215.028	-0.097	0.154
-574.719	-5.558	-0.239	-0.165
-573.704	-45.382	0.224	-0.111
-572.690	75.294	0.247	-0.262
-571.675	-200.000	0.037	0.308
-570.661	-200.000	-0.010	0.218
-569.646	-200.000	-0.011	0.334
-568.631	800.000	-0.036	-0.134
-567.617	393.350	0.147	0.308
-566.602	90.286	-0.170	-0.191
-565.588	-68.601	-0.117	-0.045
-564.573	-187.869	-0.238	-0.003
-563.558	-169.095	0.289	0.011
-562.544	189.568	0.063	-0.094
-561.529	-200.000	-0.006	-0.197
-560.515	76.776	-0.255	-0.271
-559.500	-114.743	-0.161	0.031
-558.485	-59.601	0.040	0.017
-557.471	138.318	0.106	-0.139
-556.456	126.877	-0.427	-0.542
-555.442	800.000	0.047	-0.142
-554.427	-164.515	-0.328	-0.015
-553.412	-200.000	-0.022	-0.227
-552.398	-115.633	0.043	0.008
-551.383	-158.302	-0.070	0.004
-550.369	-83.048	0.302	0.097
-549.354	61.716	-0.117	-0.117
-548.339	-38.440	-0.150	-0.079
-547.325	-1.968	-0.083	0.059
-546.310	-45.183	-0.147	0.073
-545.296	-1.929	0.286	-0.202
-544.281	-141.426	0.177	-0.018
-543.266	115.732	-0.262	-0.322
-542.252	30.069	-0.024	-0.021
-541.237	800.000	0.030	-0.099
-540.223	-200.000	-0.006	-0.149
-539.208	-70.921	0.128	0.048
-538.193	-3.387	0.120	-0.084
-537.179	204.981	-0.035	0.055
-536.164	-200.000	-0.004	-0.225
-535.150	-85.794	-0.312	-0.097
-534.135	162.207	0.037	0.052
-533.121	800.000	-0.077	0.250
-532.106	455.017	-0.133	0.296
-531.091	126.669	0.064	0.081
-530.077	224.718	0.154	0.249
-529.062	600.339	-0.127	-0.316
-528.048	-62.435	0.240	-0.100
-527.033	-78.475	-0.365	-0.125
-526.018	-15.157	-0.064	0.041
-525.004	-73.914	-0.317	-0.115
-523.989	-51.929	-0.121	-0.056
-522.975	-102.635	-0.320	0.076
-521.960	-52.749	0.203	-0.094
-520.945	70.618	-0.272	0.282
-519.931	201.180	0.167	-0.257
-518.916	94.460	-0.083	-0.095
-517.902	-100.491	-0.257	0.064
-516.887	344.142	-0.168	-0.329
-515.872	-162.240	-0.418	0.021
-514.858	-12.790	0.206	0.135
-513.843	88.222	0.255	0.284
-512.829	-200.000	0.023	0.118
-511.814	-133.714	0.140	-0.017
-510.799	-200.000	0.003	-0.056
-509.785	-200.000	-0.040	-0.205
-508.770	389.527	0.049	-0.102
-507.756	-91.272	-0.119	-0.034
-506.741	-172.858	0.273	-0.008
-505.726	529.687	0.077	0.181
-504.712	105.269	-0.158	-0.187
-503.697	-200.000	-0.024	-0.148
-502.683	171.216	0.063	0.091
-501.668	800.000	-0.022	0.063
-500.653	238.792	-0.167	-0.278
-499.639	-60.045	-0.140	0.060
-498.624	30.228	-0.214	-0.183
-497.610	-200.000	0.008	-0.239
-496.595	44.715	0.228	0.210
-495.581	95.362	-0.146	0.167
-494.566	-107.532	0.445	0.097
-493.551	240.288	0.144	0.240
-492.537	80.953	-0.149	0.161
-491.522	-200.000	0.012	0.276
-490.508	-10.620	0.243	0.161
-489.493	-200.000	-0.010	0.161
-488.478	-124.886	0.127	0.020
-487.464	113.727	0.034	0.041
-486.449	-52.270	0.385	0.178
-485.435	-65.529	0.107	0.043
-484.420	-138.368	0.285	-0.031
-483.405	513.510	0.107	0.251
-482.391	201.616	0.125	-0.193
-481.376	800.000	-0.015	0.058
-480.362	-47.939	-0.188	-0.091
-479.347	280.897	0.235	0.420
-478.332	-87.996	-0.251	-0.075
-477.318	-200.000	0.046	0.306
-476.303	-167.111	0.181	0.007
-475.289	800.000	0.034	-0.127
-474.274	-41.045	0.209	-0.108
-473.259	-55.570	0.131	-0.059
-472.245	427.033	0.210	-0.453
-471.230	-100.719	0.271	0.067
-470.216	72.281	-0.253	0.263
-469.201	165.250	0.134	0.189
-468.186	-200.000	-0.048	-0.220
-467.172	19.412	0.222	-0.179
-466.157	-200.000	-0.040	-0.191
-465.143	-156.042	0.403	-0.025
-464.128	8.779	0.144	-0.108
-463.113	109.713	0.131	-0.156
-462.099	-155.751	-0.261	-0.017
-461.084	513.970	0.058	0.134
-460.070	-46.288	-0.355	0.174
-459.055	-200.000	0.026	0.258
-458.040	540.648	0.165	0.391
-457.026	269.785	-0.069	0.122
-456.011	27.098	-0.151	-0.126
-454.997	-200.000	0.033	0.220
-453.982	-104.906	-0.221	-0.051
-452.968	-6.587	-0.319	0.217
-451.953	-200.000	0.006	-0.041
-450.938	-98.890	-0.223	0.057
-449.924	220.751	0.103	-0.165
-448.909	349.693	0.201	-0.397
-447.895	280.830	-0.021	-0.037
-446.880	-75.764	0.241	-0.085
-445.865	-91.692	-0.295	-0.084
-444.851	733.772	-0.097	-0.258
-443.836	94.308	0.042	0.048
-442.822	-91.015	-0.118	0.034
-441.807	67.895	0.096	-0.098
-440.792	-26.469	-0.195	0.114
-439.778	800.000	-0.075	-0.315
-438.763	-200.000	0.009	-0.067
-437.749	72.326	-0.140	0.146
-436.734	-68.523	-0.031	0.012
-435.719	-31.063	-0.295	-0.166
-434.705	471.262	0.029	0.065
-433.690	152.804	-0.293	0.399
-432.676	-200.000	-0.009	-0.194
-431.661	-200.000	0.048	0.394
-430.646	-69.720	0.328	-0.125
-429.632	-45.763	-0.208	0.103
-428.617	-68.063	-0.130	-0.051
-427.603	146.454	0.169	0.227
-426.588	644.617	0.057	0.146
-425.573	9.924	-0.315	-0.239
-424.559	176.611	-0.161	0.234
-423.544	-200.000	-0.009	0.043
-422.530	-41.041	-0.234	0.121
-421.515	126.487	0.125	-0.157
-420.500	-134.446	0.339	-0.041
-419.486	99.048	-0.151	-0.173
-418.471	3.957	0.169	-0.123
-417.457	-137.657	0.330	-0.037
-416.442	-46.429	0.050	-0.024
-415.428	800.000	-0.031	0.101
-414.413	-7.012	0.307	0.208
-413.398	79.559	-0.105	0.113
-412.384	800.000	-0.040	0.136
-411.369	-78.425	-0.065	-0.022
-410.355	-200.000	0.040	-0.304
-409.340	-59.764	0.152	0.065
-408.325	-200.000	0.008	-0.099
-407.311	-64.812	-0.277	0.112
-406.296	-200.000	-0.011	-0.331
-405.282	-49.015	0.192	-0.092
-404.267	-200.000	0.054	-0.260
-403.252	800.000	-0.139	-0.439
-402.238	-200.000	-0.020	0.189
-401.223	162.022	-0.125	0.174
-400.209	182.659	-0.044	-0.065
-399.194	418.549	-0.224	0.478
-398.179	-200.000	0.044	0.476
-397.165	148.375	-0.121	0.162
-396.150	-192.824	-0.327	0.003
-395.136	-200.000	-0.006	0.067
-394.121	800.000	0.034	0.115
-393.106	-137.928	-0.131	0.015
-392.092	3.613	0.326	-0.237
-391.077	-55.793	-0.410	0.182
-390.063	-32.922	-0.141	0.078
-389.048	-200.000	0.065	0.291
-388.033	-200.000	-0.029	0.193
-387.019	203.074	0.030	-0.046
-386.004	6.217	0.183	0.135
-384.990	-115.252	0.302	0.057
-383.975	-87.657	0.364	-0.109
-382.960	538.995	0.107	0.252
-381.946	-200.000	0.002	-0.223
-380.931	-200.000	0.024	-0.238
-379.917	277.967	0.039	-0.068
-378.902	-200.000	-0.047	0.364
-377.888	-88.405	-0.346	0.103
-376.873	23.543	-0.182	0.149
-375.858	-28.675	0.254	-0.145
-374.844	-156.650	-0.244	-0.015
-373.829	-85.575	-0.172	-0.053
-372.815	-111.980	0.195	0.039
-371.800	-111.160	0.140	-0.028
-370.785	-200.000	-0.006	0.195
-369.771	-111.227	-0.109	0.022
-368.756	-61.809	-0.213	0.089
-367.742	53.161	-0.265	0.252
-366.727	51.300	0.259	-0.245
-365.712	112.034	-0.106	-0.127
-364.698	49.892	-0.188	0.177
-363.683	800.000	0.030	0.130
-362.669	-131.036	0.217	-0.029
-361.654	-200.000	-0.025	0.311
-360.639	63.449	0.125	-0.124
-359.625	39.448	0.134	0.119
-358.610	74.959	0.355	0.372
-357.596	-24.540	0.199	0.118
-356.581	800.000	0.048	0.149
-355.566	312.552	-0.161	-0.300
-354.552	-14.480	0.215	0.137
-353.537	-200.000	-0.019	-0.164
-352.523	-8.542	-0.241	0.161
-351.508	-150.756	-0.231	0.017
-350.493	319.503	-0.074	-0.140
-349.479	229.591	-0.030	-0.049
-348.464	296.677	0.093	-0.170
-347.450	800.000	0.068	0.190
-346.435	68.252	-0.222	0.226
-345.420	183.954	0.139	-0.205
-344.406	-51.732	-0.033	-0.015
-343.391	207.831	0.234	0.363
-342.377	46.327	0.052	0.048
-341.362	-200.000	-0.043	0.258
-340.348	800.000	-0.091	0.368
-339.333	-130.412	-0.238	-0.032
-338.318	-200.000	-0.001	0.165
-337.304	-106.508	0.321	0.071
-336.289	17.746	-0.331	0.262
-335.275	-160.876	0.184	0.010
-334.260	294.376	-0.020	0.036
-333.245	510.290	0.155	-0.359
-332.231	33.527	0.095	0.082
-331.216	-198.659	0.186	-0.001
-330.202	176.729	0.081	-0.117
-329.187	253.951	-0.059	-0.101
-328.172	-200.000	0.017	0.203
-327.158	-23.565	0.280	0.167
-326.143	33.238	-0.275	0.237
-325.129	-165.995	0.196	0.008
-324.114	-174.398	0.294	0.008
-323.099	-122.707	0.287	-0.046
-322.085	701.210	0.066	0.174
-321.070	212.758	-0.141	0.220
-320.056	-35.682	0.330	-0.178
-319.041	-146.056	0.265	0.023
-318.026	-124.090	0.361	0.056
-317.012	800.000	0.030	0.117
-315.997	-200.000	0.050	-0.289
-314.983	-132.695	-0.190	-0.024
-313.968	-63.670	-0.146	-0.059
-312.953	800.000	-0.098	-0.404
-311.939	-11.639	-0.094	-0.061
-310.924	49.647	-0.337	-0.315
-309.910	800.000	-0.150	0.415
-308.895	-29.820	0.253	-0.143
-307.880	236.010	-0.067	-0.110
-306.866	-147.968	-0.201	-0.017
-305.851	-40.344	0.213	0.110
-304.837	88.565	0.174	0.192
-303.822	-103.333	-0.239	0.056
-302.807	106.283	0.107	0.126
-301.793	-68.972	-0.147	-0.056
-300.778	-99.313	0.083	-0.021
-299.764	-28.783	0.204	0.116
-298.749	-149.893	0.115	-0.009
-297.735	777.471	0.060	-0.162
-296.720	253.654	0.041	0.070
-295.705	-52.992	0.240	0.109
-294.691	-200.000	-0.063	0.366
-293.676	-125.956	-0.267	0.040
-292.662	-200.000	-0.010	0.202
-291.647	-49.447	0.301	0.142
-290.632	-43.331	0.168	0.084
-289.618	258.166	-0.206	-0.352
-288.603	-26.125	-0.441	0.257
-287.589	-127.029	0.233	0.034
-286.574	278.619	-0.101	-0.179
-285.559	-200.000	-0.006	0.082
-284.545	361.542	-0.052	-0.103
-283.530	126.679	-0.053	-0.067
-282.516	-13.657	-0.092	0.059
-281.501	35.234	-0.212	-0.184
-280.486	-200.000	0.015	0.300
-279.472	-61.676	0.214	0.089
-278.457	-8.723	0.146	-0.097
-277.443	800.000	-0.072	-0.200
-276.428	174.267	-0.124	-0.178
-275.413	440.462	-0.129	-0.279
-274.399	800.000	-0.037	0.123
-273.384	-51.774	0.210	-0.097
-272.370	72.347	-0.121	0.125
-271.355	-7.537	0.135	-0.091
-270.340	159.015	-0.209	-0.288
-269.326	-145.434	-0.075	-0.007
-268.311	-192.789	-0.246	0.002
-267.297	-1.109	0.188	0.132
-266.282	-200.000	0.040	-0.213
-265.267	-97.259	0.218	-0.056
-264.253	-87.074	0.059	-0.018
-263.238	-113.277	0.212	0.041
-262.224	-112.868	-0.240	0.047
-261.209	-178.948	0.163	0.004
-260.195	-86.422	0.086	0.026
-259.180	383.306	0.079	0.161
-258.165	800.000	-0.047	0.147
-257.151	-71.845	0.310	-0.114
-256.136	-127.900	-0.270	-0.039
-255.122	800.000	0.036	-0.122
-254.107	88.287	0.150	-0.165
-253.092	80.074	0.195	0.207
-252.078	221.047	0.132	0.210
-251.063	-49.677	-0.323	-0.152
-250.049	45.713	-0.105	0.096
-249.034	148.845	0.104	0.139
-248.019	8.500	0.174	0.130
-247.005	-31.178	-0.120	0.067
-245.990	-73.993	0.351	0.126
-244.976	-65.714	-0.142	-0.056
-243.961	-143.997	0.231	0.021
-242.946	800.000	-0.051	-0.216
-241.932	51.001	-0.097	-0.091
-240.917	80.207	-0.184	-0.196
-239.903	-135.010	0.171	0.020
-238.888	-200.000	0.027	-0.340
-237.873	-200.000	0.037	0.307
-236.859	-200.000	0.076	0.410
-235.844	412.774	0.075	-0.158
-234.830	-40.687	-0.427	-0.219
-233.815	20.865	0.148	-0.119
-232.800	271.421	0.078	0.135
-231.786	72.100	0.136	-0.141
-230.771	-23.579	-0.177	-0.105
-229.757	232.828	0.058	-0.094
-228.742	91.146	-0.019	-0.021
-227.727	36.159	-0.178	0.155
-226.713	-84.031	-0.210	-0.066
-225.698	-108.671	-0.341	-0.072
-224.684	-84.074	0.404	-0.127
-223.669	-200.000	-0.015	-0.115
-222.655	238.615	0.074	0.122
-221.640	800.000	-0.115	0.424
-220.625	-200.000	0.044	-0.264
-219.611	-11.395	-0.210	0.137
-218.596	602.131	-0.043	-0.105
-217.582	-99.076	0.189	0.047
-216.567	273.407	0.193	0.338
-215.552	800.000	0.013	-0.051
-214.538	498.040	0.046	0.104
-213.523	-200.000	-0.022	-0.137
-212.509	136.470	0.097	0.125
-211.494	10.629	-0.027	-0.020
-210.479	-143.057	0.111	0.011
-209.465	-137.926	0.024	0.003
-208.450	-114.335	0.248	0.047
-207.436	-64.516	0.302	0.121
-206.421	-48.969	-0.153	-0.073
-205.406	-71.114	0.203	0.075
-204.392	-46.470	-0.285	-0.138
-203.377	621.802	-0.089	0.222
-202.363	-51.011	-0.172	-0.080
-201.348	462.389	0.067	-0.149
-200.333	69.726	0.256	0.261
-199.319	109.885	-0.044	-0.052
-198.304	800.000	-0.078	-0.333
-197.290	-200.000	-0.035	-0.310
-196.275	-17.135	0.253	0.158
-195.260	-118.099	-0.108	0.019
-194.246	-132.591	0.125	-0.016
-193.231	23.602	0.103	0.084
-192.217	60.078	0.324	-0.316
-191.202	82.525	-0.231	0.248
-190.187	-200.000	0.021	-0.256
-189.173	-168.803	-0.227	0.008
-188.158	-200.000	0.037	0.301
-187.144	-36.574	0.049	0.026
-186.129	-88.051	0.227	0.067
-185.114	-200.000	0.006	-0.265
-184.100	-56.506	0.197	-0.086
-183.085	800.000	0.069	0.248
-182.071	134.046	-0.134	0.171
-181.056	-200.000	0.010	-0.301
-180.042	30.336	0.088	-0.074
-179.027	-86.326	0.335	0.102
-178.012	-18.496	0.224	-0.138
-176.998	10.431	-0.034	-0.026
-175.983	206.454	0.115	-0.177
-174.969	613.458	0.090	-0.222
-173.954	-200.000	0.016	0.085
-172.939	-112.909	-0.282	-0.055
-171.925	800.000	0.153	0.423
-170.910	800.000	0.094	-0.279
-169.896	119.897	0.159	-0.195
-168.881	272.584	0.119	-0.208
-167.866	12.863	0.214	-0.164
-166.852	63.232	-0.099	0.098
-165.837	51.100	0.073	0.068
-164.823	-200.000	0.027	-0.304
-163.808	149.698	0.024	0.032
-162.793	-200.000	-0.029	0.201
-161.779	800.000	0.095	-0.381
-160.764	-200.000	0.031	-0.153
-159.750	-171.713	-0.177	0.006
-158.735	363.946	-0.068	0.134
-157.720	244.473	0.074	0.122
-156.706	-135.929	0.189	0.022
-155.691	-200.000	-0.064	0.304
-154.677	-200.000	0.095	-0.410
-153.662	46.734	-0.100	0.092
-152.647	-134.019	-0.091	0.011
-151.633	-200.000	-0.013	-0.239
-150.618	-46.656	-0.282	-0.136
-149.604	-118.280	-0.070	0.012
-148.589	271.667	0.172	0.299
-147.574	-200.000	0.062	0.410
-146.560	375.856	-0.060	0.121
-145.545	-59.625	0.006	-0.003
-144.531	-109.453	-0.111	0.023
-143.516	-157.587	0.215	0.013
-142.502	-7.236	0.213	-0.142
-141.487	315.857	0.079	0.148
-140.472	-19.636	0.429	0.262
-139.458	-200.000	0.003	0.092
-138.443	-89.594	0.295	0.085
-137.429	88.279	0.176	-0.192
-136.414	99.848	0.202	-0.231
-135.399	-147.312	0.293	-0.025
-134.385	-69.274	0.171	0.065
-133.370	-200.000	0.002	-0.234
-132.356	307.790	-0.018	-0.034
-131.341	427.715	0.104	0.221
-130.326	-20.882	0.181	0.110
-129.312	800.000	0.057	0.200
-128.297	-200.000	0.034	0.230
-127.283	227.697	0.086	-0.137
-126.268	-200.000	-0.001	0.133
-125.253	-200.000	-0.008	0.073
-124.239	-109.150	-0.236	0.049
-123.224	721.085	-0.061	-0.160
-122.210	-10.875	0.162	0.106
-121.195	12.492	0.267	0.203
