DTS Sentinel unit serial number:	SN413079Multiplexer serial number:	ORYXHardware model number:	OX4-SRSoftware version number:	ORYX F/W v4.00 Oryx Data Collector v3.7.2.0data status	okinstallation	princeton_trtdifferential loss correction	single-endedforward channel	channel 4reverse channel	N/Adate	2019/09/17time	23:29:35forward acquisition time	60.00reverse acquisition time	0.00gamma	496.2192k internal	0.2332k external	0.2332temperature offset calibration	0.9995default loss term (dB/km)	0.3790temperature slope calibration	1.0000multiplexer offset coefficient	1.0000multiplexer slope coefficient	1.0000fibre end	0.00T internal ref (°C)	24.27T ext. ref 1 (°C)	0.17T ext. ref 2 (°C)	17.61length (m)	temperature (°C)	Stokes	anti-Stokes-747.200	579.197	-0.039	0.095
-746.185	92.225	-0.132	0.150
-745.171	-200.000	0.023	-0.159
-744.156	-200.000	-0.026	0.252
-743.142	-97.537	-0.013	0.003
-742.127	-179.246	0.141	0.003
-741.112	192.675	-0.036	-0.055
-740.098	8.711	-0.381	0.289
-739.083	-200.000	0.126	0.629
-738.069	149.928	0.049	0.067
-737.054	44.378	0.067	0.061
-736.039	-107.328	-0.435	0.096
-735.025	15.194	0.226	-0.178
-734.010	-41.831	-0.139	0.072
-732.996	2.764	-0.420	0.307
-731.981	800.000	-0.057	-0.201
-730.966	126.991	-0.258	-0.329
-729.952	-1.109	0.145	-0.103
-728.937	-200.000	0.006	0.138
-727.923	141.238	0.127	-0.169
-726.908	-150.196	-0.416	0.032
-725.894	66.628	0.175	-0.179
-724.879	-36.364	-0.327	0.177
-723.864	-48.691	-0.244	0.118
-722.850	-200.000	-0.008	-0.061
-721.835	-200.000	0.002	-0.036
-720.821	122.547	0.158	-0.199
-719.806	65.953	0.116	0.118
-718.791	-89.310	-0.370	0.110
-717.777	468.978	-0.062	0.140
-716.762	-50.910	0.182	-0.086
-715.748	481.013	-0.012	0.027
-714.733	-200.000	0.048	-0.230
-713.718	487.237	0.052	-0.120
-712.704	-200.000	0.012	-0.074
-711.689	-200.000	0.002	-0.598
-710.675	-105.584	0.081	0.018
-709.660	0.043	0.296	0.212
-708.645	225.076	0.147	-0.239
-707.631	155.291	0.154	0.213
-706.616	-200.000	0.029	-0.210
-705.602	-200.000	0.016	0.388
-704.587	5.685	-0.098	0.073
-703.572	-25.049	0.096	0.057
-702.558	51.670	0.176	0.168
-701.543	-200.000	0.029	-0.150
-700.529	86.575	-0.027	-0.029
-699.514	-51.000	0.185	-0.087
-698.499	800.000	-0.043	-0.143
-697.485	-200.000	0.018	-0.113
-696.470	182.903	0.209	0.310
-695.456	-200.000	-0.196	-0.000
-694.441	-200.000	0.009	-0.227
-693.426	79.596	0.339	-0.366
-692.412	-200.000	0.033	0.198
-691.397	71.691	-0.020	-0.021
-690.383	20.595	-0.373	0.303
-689.368	-99.146	0.091	0.023
-688.354	-147.116	-0.334	0.029
-687.339	505.211	0.155	-0.361
-686.324	-88.556	-0.184	-0.055
-685.310	-83.665	0.335	0.107
-684.295	-14.896	-0.114	-0.073
-683.281	-44.050	-0.173	-0.087
-682.266	-172.874	-0.179	-0.006
-681.251	-72.057	-0.114	-0.043
-680.237	705.585	0.038	-0.100
-679.222	-77.937	0.242	0.084
-678.208	411.971	0.120	-0.257
-677.193	-2.384	0.224	0.157
-676.178	-86.309	-0.353	0.109
-675.164	-200.000	0.001	0.031
-674.149	532.245	0.161	0.382
-673.135	-48.435	-0.234	-0.113
-672.120	-200.000	-0.031	0.150
-671.105	0.094	0.087	-0.062
-670.091	-200.000	-0.016	0.316
-669.076	528.480	0.070	0.165
-668.062	-115.355	0.203	-0.038
-667.047	615.382	0.053	-0.132
-666.032	25.766	-0.123	0.102
-665.018	31.854	0.162	-0.140
-664.003	-39.013	0.247	-0.131
-662.989	12.985	-0.068	0.053
-661.974	-166.428	-0.091	-0.004
-660.959	-28.327	0.128	0.074
-659.945	-159.108	-0.312	0.018
-658.930	-104.346	-0.216	0.050
-657.916	227.631	-0.231	0.377
-656.901	-28.397	0.317	0.183
-655.886	-169.617	0.197	0.007
-654.872	134.759	-0.067	0.087
-653.857	81.882	0.210	0.228
-652.843	49.611	-0.138	-0.130
-651.828	-93.634	0.049	-0.013
-650.814	-23.397	-0.148	0.089
-649.799	-200.000	0.019	-0.181
-648.784	-27.037	-0.155	0.091
-647.770	154.325	0.056	-0.077
-646.755	-65.519	-0.507	0.204
-645.741	-200.000	0.007	0.289
-644.726	-161.040	0.143	-0.008
-643.711	-14.183	-0.328	0.212
-642.697	-78.812	-0.538	0.184
-641.682	-200.000	-0.016	-0.116
-640.668	521.689	0.191	-0.450
-639.653	800.000	0.092	-0.293
-638.638	-64.271	0.175	-0.072
-637.624	60.400	0.158	-0.157
-636.609	-141.528	0.025	0.003
-635.595	-200.000	-0.006	0.155
-634.580	104.715	-0.096	0.114
-633.565	-77.850	-0.168	-0.058
-632.551	308.223	0.051	0.095
-631.536	-200.000	-0.014	0.149
-630.522	132.063	0.333	-0.429
-629.507	287.927	0.101	-0.184
-628.492	-127.049	0.290	-0.043
-627.478	43.307	-0.180	-0.165
-626.463	159.832	0.096	0.134
-625.449	-45.537	-0.124	0.061
-624.434	-107.690	-0.192	-0.042
-623.419	68.827	-0.221	0.228
-622.405	-115.868	-0.259	-0.048
-621.390	-69.151	-0.246	0.095
-620.376	-113.899	0.248	0.048
-619.361	-200.000	-0.002	0.062
-618.346	-200.000	0.045	-0.290
-617.332	-200.000	-0.011	0.209
-616.317	-200.000	0.010	-0.257
-615.303	-81.739	0.199	-0.065
-614.288	-32.287	0.344	-0.192
-613.273	224.001	0.100	-0.162
-612.259	66.935	0.189	-0.193
-611.244	800.000	-0.090	-0.288
-610.230	-12.005	-0.087	0.057
-609.215	68.639	0.339	-0.348
-608.201	-77.143	0.207	-0.072
-607.186	202.323	0.013	0.020
-606.171	-152.590	-0.145	-0.010
-605.157	734.704	0.035	-0.093
-604.142	102.820	0.091	-0.106
-603.128	-7.522	-0.093	-0.063
-602.113	25.653	-0.293	-0.244
-601.098	800.000	-0.030	0.124
-600.084	-200.000	-0.062	-0.522
-599.069	293.884	-0.098	0.179
-598.055	-200.000	-0.045	0.217
-597.040	-169.880	-0.218	-0.008
-596.025	150.334	-0.120	-0.164
-595.011	138.711	0.149	-0.196
-593.996	-16.506	-0.343	-0.217
-592.982	72.708	0.250	0.261
-591.967	72.851	0.126	-0.132
-590.952	4.425	-0.253	-0.186
-589.938	16.985	0.055	-0.044
-588.923	-200.000	-0.002	0.181
-587.909	-200.000	-0.010	-0.100
-586.894	-200.000	-0.040	0.191
-585.879	-109.903	-0.118	0.025
-584.865	342.582	0.089	0.174
-583.850	95.480	0.092	-0.105
-582.836	-128.963	0.468	-0.066
-581.821	57.145	-0.153	0.149
-580.806	-17.351	-0.134	0.084
-579.792	800.000	-0.116	0.358
-578.777	12.840	0.222	-0.172
-577.763	-94.798	-0.173	-0.047
-576.748	-73.314	-0.167	-0.061
-575.733	-172.459	-0.064	-0.002
-574.719	85.552	0.238	-0.261
-573.704	-200.000	-0.016	0.313
-572.690	-48.469	0.188	-0.091
-571.675	-200.000	0.043	0.282
-570.661	-69.698	-0.261	-0.100
-569.646	-200.000	-0.015	0.246
-568.631	-127.306	-0.159	0.023
-567.617	-85.952	-0.353	0.109
-566.602	257.300	0.148	-0.254
-565.588	-136.035	-0.456	0.054
-564.573	73.648	-0.181	0.189
-563.558	800.000	0.038	0.145
-562.544	-50.818	0.138	-0.065
-561.529	800.000	0.018	-0.073
-560.515	-200.000	0.027	-0.210
-559.500	-23.463	0.205	-0.123
-558.485	-66.225	-0.109	0.043
-557.471	-200.000	-0.007	-0.200
-556.456	-200.000	-0.013	0.174
-555.442	-99.205	-0.173	-0.044
-554.427	-89.366	0.306	-0.090
-553.412	-200.000	0.054	0.277
-552.398	-49.279	0.148	-0.071
-551.383	-200.000	-0.139	-0.699
-550.369	800.000	-0.102	-0.441
-549.354	61.852	-0.074	0.073
-548.339	210.990	-0.175	0.275
-547.325	800.000	-0.084	0.232
-546.310	93.575	0.177	0.200
-545.296	-133.799	0.240	0.030
-544.281	546.952	0.068	0.162
-543.266	-200.000	-0.014	-0.076
-542.252	-54.491	0.296	-0.134
-541.237	-128.834	0.322	-0.045
-540.223	-36.232	-0.289	-0.156
-539.208	-93.194	-0.391	-0.109
-538.193	-107.990	0.276	-0.060
-537.179	37.415	0.182	0.161
-536.164	12.839	-0.289	-0.223
-535.150	-44.160	0.138	0.069
-534.135	-50.625	-0.094	0.044
-533.121	-200.000	0.016	0.239
-532.106	-102.200	-0.101	-0.024
-531.091	119.911	-0.118	0.146
-530.077	800.000	0.070	0.202
-529.062	-166.496	-0.363	0.015
-528.048	-63.124	-0.140	0.058
-527.033	-151.230	-0.238	-0.018
-526.018	131.577	0.104	0.133
-525.004	-200.000	-0.051	-0.351
-523.989	245.279	-0.069	0.116
-522.975	38.494	-0.101	0.090
-521.960	800.000	0.025	-0.072
-520.945	-200.000	0.012	-0.192
-519.931	239.995	-0.232	-0.386
-518.916	-121.583	-0.122	-0.020
-517.902	-41.963	0.163	-0.083
-516.887	-13.428	0.088	-0.057
-515.872	284.489	0.164	-0.294
-514.858	162.908	0.172	-0.241
-513.843	-46.956	0.172	0.084
-512.829	-200.000	-0.009	-0.170
-511.814	383.291	-0.040	-0.083
-510.799	-116.716	0.153	-0.028
-509.785	259.910	-0.271	-0.466
-508.770	-99.918	0.122	0.030
-507.756	-162.480	-0.264	-0.013
-506.741	-79.958	0.428	-0.143
-505.726	-200.000	-0.032	-0.312
-504.712	57.289	-0.194	0.189
-503.697	144.711	0.272	0.363
-502.683	-130.126	0.431	0.059
-501.668	-58.411	0.197	-0.085
-500.653	-123.952	0.291	0.046
-499.639	-108.283	0.097	-0.021
-498.624	35.335	-0.188	0.164
-497.610	54.505	0.213	0.205
-496.595	-7.232	0.051	-0.035
-495.581	-21.100	-0.162	-0.099
-494.566	-197.171	-0.298	-0.002
-493.551	-171.565	0.371	-0.012
-492.537	1.855	-0.115	0.082
-491.522	-120.497	0.092	0.016
-490.508	48.609	0.016	-0.015
-489.493	800.000	-0.057	-0.228
-488.478	154.473	0.041	0.056
-487.464	800.000	0.026	-0.087
-486.449	-181.526	-0.457	-0.009
-485.435	-60.390	0.297	0.126
-484.420	-150.506	-0.089	-0.007
-483.405	165.084	-0.199	0.280
-482.391	-179.425	0.252	0.006
-481.376	17.273	0.218	-0.172
-480.362	94.664	-0.138	0.157
-479.347	-88.973	-0.310	0.092
-478.332	178.071	-0.149	0.216
-477.318	-59.636	-0.079	0.034
-476.303	-51.527	-0.338	-0.157
-475.289	800.000	0.041	0.172
-474.274	-200.000	-0.086	0.515
-473.259	-200.000	0.041	-0.217
-472.245	-0.748	-0.333	-0.235
-471.230	-56.025	-0.200	-0.089
-470.216	299.186	-0.086	0.157
-469.201	-15.327	0.281	-0.179
-468.186	-123.367	0.344	0.055
-467.172	-200.000	-0.009	0.089
-466.157	-84.153	0.218	-0.069
-465.143	-200.000	-0.021	0.276
-464.128	172.029	-0.057	-0.082
-463.113	-102.971	0.092	0.022
-462.099	-20.147	-0.177	0.109
-461.084	-136.680	0.209	0.024
-460.070	15.699	-0.146	0.114
-459.055	16.096	0.257	-0.201
-458.040	-200.000	0.018	0.097
-457.026	-122.167	-0.269	0.044
-456.011	-75.033	0.190	0.068
-454.997	717.756	-0.128	-0.337
-453.982	-200.000	0.001	0.198
-452.968	800.000	-0.023	0.076
-451.953	175.989	-0.204	-0.295
-450.938	60.525	-0.214	-0.210
-449.924	-115.524	0.267	-0.050
-448.909	-65.266	-0.299	0.120
-447.895	800.000	-0.031	0.122
-446.880	-106.003	-0.104	0.023
-445.865	165.475	0.097	0.137
-444.851	220.308	-0.108	0.172
-443.836	-200.000	0.015	-0.162
-442.822	379.773	0.167	0.340
-441.807	-79.733	0.238	0.080
-440.792	299.684	0.061	-0.112
-439.778	-90.165	-0.464	-0.134
-438.763	180.105	0.061	0.090
-437.749	-5.644	0.057	-0.039
-436.734	-128.242	-0.343	0.049
-435.719	465.632	0.037	0.082
-434.705	800.000	-0.057	-0.176
-433.690	136.331	-0.134	-0.173
-432.676	-14.960	-0.273	-0.174
-431.661	-76.970	-0.156	-0.054
-430.646	94.813	-0.099	-0.112
-429.632	-0.507	0.058	-0.041
-428.617	82.899	-0.150	-0.162
-427.603	-33.740	-0.051	-0.028
-426.588	647.788	-0.208	0.530
-425.573	800.000	0.118	0.348
-424.559	-83.351	-0.093	0.030
-423.544	800.000	0.131	0.420
-422.530	-200.000	0.020	0.144
-421.515	-60.859	-0.240	-0.101
-420.500	219.164	-0.201	0.320
-419.486	229.664	-0.093	-0.150
-418.471	-64.070	-0.231	-0.093
-417.457	47.550	-0.265	0.245
-416.442	-155.249	0.200	0.013
-415.428	0.973	-0.038	0.027
-414.413	75.717	-0.099	0.104
-413.398	63.166	-0.273	-0.272
-412.384	-186.622	-0.066	0.001
-411.369	279.352	-0.179	-0.317
-410.355	-200.000	0.006	0.135
-409.340	25.252	-0.200	-0.165
-408.325	386.637	0.168	-0.344
-407.311	291.566	0.071	0.128
-406.296	-151.700	0.113	-0.008
-405.282	-106.636	-0.320	0.071
-404.267	-200.000	0.022	0.108
-403.252	-40.664	0.023	-0.012
-402.238	67.741	0.205	-0.208
-401.223	87.922	-0.096	-0.105
-400.209	-89.746	-0.160	0.047
-399.194	1.098	0.330	-0.235
-398.179	-143.750	-0.438	-0.041
-397.165	36.712	-0.079	0.069
-396.150	114.409	0.109	-0.132
-395.136	44.142	0.168	0.153
-394.121	-4.882	0.223	0.152
-393.106	-81.037	0.079	-0.026
-392.092	-19.034	0.326	-0.201
-391.077	-179.414	-0.225	0.005
-390.063	221.121	-0.100	0.159
-389.048	-66.775	-0.067	0.026
-388.033	-70.325	-0.082	0.031
-387.019	504.139	-0.076	0.174
-386.004	174.054	0.097	-0.139
-384.990	521.403	-0.034	-0.080
-383.975	-130.491	0.128	-0.017
-382.960	-65.822	0.269	-0.107
-381.946	382.463	-0.004	-0.007
-380.931	-82.412	0.257	0.083
-379.917	0.154	-0.164	0.116
-378.902	-65.762	0.247	0.098
-377.888	50.068	-0.127	-0.119
-376.873	465.240	0.061	0.135
-375.858	-156.925	-0.131	-0.008
-374.844	-124.764	0.100	0.015
-373.829	722.404	0.085	-0.224
-372.815	-112.598	0.085	0.017
-371.800	-64.586	-0.171	0.069
-370.785	69.535	0.238	-0.243
-369.771	-28.338	-0.161	-0.092
-368.756	123.993	0.318	-0.396
-367.742	-111.259	0.044	0.009
-366.727	800.000	0.070	0.224
-365.712	800.000	0.054	0.219
-364.698	-33.347	-0.110	-0.060
-363.683	93.907	-0.220	0.248
-362.669	156.582	0.101	-0.138
-361.654	-37.058	0.171	0.091
-360.639	800.000	-0.060	0.257
-359.625	124.663	0.265	0.331
-358.610	-200.000	-0.042	0.474
-357.596	-200.000	0.045	-0.340
-356.581	-200.000	-0.007	-0.046
-355.566	158.515	0.146	0.201
-354.552	12.110	-0.093	0.071
-353.537	33.293	-0.032	0.027
-352.523	25.122	-0.317	0.261
-351.508	170.218	-0.035	0.050
-350.493	33.463	0.097	-0.083
-349.479	-200.000	0.025	-0.171
-348.464	21.153	-0.172	-0.138
-347.450	-200.000	0.044	0.221
-346.435	56.051	-0.098	0.095
-345.420	-95.609	0.236	-0.063
-344.406	161.422	0.032	0.044
-343.391	-200.000	-0.005	-0.068
-342.377	800.000	0.115	0.341
-341.362	-17.013	0.116	-0.072
-340.348	800.000	-0.114	-0.453
-339.333	128.099	0.145	0.182
-338.318	517.418	-0.082	0.191
-337.304	-200.000	0.031	-0.301
-336.289	800.000	0.076	0.293
-335.275	-119.596	0.204	-0.035
-334.260	25.128	-0.119	0.098
-333.245	373.771	-0.061	-0.123
-332.231	-128.623	-0.084	-0.012
-331.216	519.986	-0.197	-0.458
-330.202	-129.732	0.294	0.040
-329.187	121.589	0.216	-0.267
-328.172	-137.149	0.213	0.024
-327.158	-4.373	-0.123	-0.084
-326.143	476.047	0.090	-0.202
-325.129	-111.454	0.209	-0.042
-324.114	-84.297	0.138	-0.043
-323.099	115.295	-0.121	0.146
-322.085	403.958	0.062	0.129
-321.070	-200.000	0.004	-0.082
-320.056	-98.270	0.026	0.007
-319.041	-14.642	0.057	0.036
-318.026	-200.000	-0.002	0.260
-317.012	-77.543	0.324	0.111
-315.997	-103.021	0.394	-0.092
-314.983	793.980	-0.049	-0.135
-313.968	5.747	0.109	0.080
-312.953	-17.274	0.159	-0.099
-311.939	-86.690	-0.385	0.117
-310.924	556.506	-0.093	0.221
-309.910	-101.145	-0.228	-0.055
-308.895	-2.885	-0.175	-0.121
-307.880	40.888	0.202	0.181
-306.866	172.466	-0.238	0.339
-305.851	-58.471	0.096	0.041
-304.837	-200.000	0.077	-0.360
-303.822	-19.420	-0.177	-0.108
-302.807	-142.414	0.452	-0.044
-301.793	-186.102	0.248	0.004
-300.778	-9.677	0.242	0.159
-299.764	-200.000	0.018	0.214
-298.749	139.387	-0.115	-0.150
-297.735	-136.775	0.131	-0.015
-296.720	-200.000	0.001	0.375
-295.705	43.380	0.138	-0.125
-294.691	-200.000	0.019	-0.097
-293.676	256.539	0.213	-0.362
-292.662	-50.566	-0.194	-0.090
-291.647	263.552	-0.055	0.094
-290.632	-59.149	-0.156	-0.067
-289.618	14.194	-0.050	0.039
-288.603	-200.000	-0.031	0.154
-287.589	800.000	0.086	-0.254
-286.574	427.177	0.121	0.259
-285.559	-200.000	-0.032	0.264
-284.545	-23.965	-0.117	0.069
-283.530	430.187	-0.123	-0.264
-282.516	-156.458	-0.127	-0.008
-281.501	-10.510	0.511	-0.335
-280.486	759.998	0.031	0.082
-279.472	-84.104	0.160	-0.050
-278.457	-200.000	0.036	-0.229
-277.443	-65.896	0.118	-0.047
-276.428	174.241	-0.238	-0.340
-275.413	143.358	-0.046	-0.061
-274.399	139.670	0.066	0.086
-273.384	-200.000	0.024	-0.235
-272.370	800.000	0.106	0.302
-271.355	161.666	0.170	0.235
-270.340	800.000	-0.073	0.245
-269.326	69.797	-0.060	0.061
-268.311	-101.999	0.122	-0.029
-267.297	800.000	0.019	0.073
-266.282	176.272	0.075	0.107
-265.267	-200.000	0.012	0.259
-264.253	-131.428	0.037	0.005
-263.238	28.017	0.115	-0.095
-262.224	233.460	-0.091	-0.147
-261.209	602.212	-0.061	0.150
-260.195	460.144	0.111	0.243
-259.180	167.260	0.154	-0.217
-258.165	800.000	0.078	0.243
-257.151	-200.000	-0.017	0.146
-256.136	284.576	-0.179	0.317
-255.122	800.000	-0.049	-0.173
-254.107	-144.719	-0.452	-0.041
-253.092	800.000	-0.043	-0.133
-252.078	29.149	-0.277	0.232
-251.063	-92.986	0.410	-0.113
-250.049	421.981	-0.104	0.220
-249.034	800.000	-0.139	0.448
-248.019	800.000	-0.109	-0.343
-247.005	-64.878	-0.057	0.023
-245.990	-46.842	0.238	0.115
-244.976	-200.000	0.016	0.268
-243.961	-200.000	0.006	0.154
-242.946	-75.048	-0.192	0.068
-241.932	170.994	-0.094	-0.133
-240.917	-77.751	-0.221	-0.075
-239.903	-200.000	-0.023	-0.188
-238.888	-32.438	0.236	-0.130
-237.873	-104.384	-0.289	-0.066
-236.859	448.287	-0.199	-0.432
-235.844	-155.339	0.124	-0.008
-234.830	138.644	-0.170	0.220
-233.815	108.038	0.320	0.376
-232.800	-33.655	0.103	-0.056
-231.786	473.487	-0.141	0.313
-230.771	546.552	-0.085	0.201
-229.757	155.436	-0.166	-0.225
-228.742	121.119	-0.197	0.242
-227.727	-131.251	-0.235	-0.031
-226.713	-57.681	0.322	-0.139
-225.698	771.552	-0.124	-0.332
-224.684	-44.682	-0.309	0.152
-223.669	13.392	-0.101	0.077
-222.655	583.030	0.089	-0.215
-221.640	170.875	-0.162	-0.229
-220.625	800.000	-0.022	0.088
-219.611	255.931	0.049	0.083
-218.596	-105.438	0.188	-0.042
-217.582	-105.578	0.156	-0.035
-216.567	-143.799	0.193	0.018
-215.552	-200.000	-0.004	0.022
-214.538	367.335	-0.066	0.131
-213.523	-20.057	0.223	0.136
-212.509	-34.770	-0.221	0.119
-211.494	-132.949	-0.223	0.028
-210.479	127.772	0.144	0.180
-209.465	-59.611	-0.420	0.178
-208.450	298.707	-0.202	-0.367
-207.436	-183.621	0.497	-0.008
-206.421	-141.601	-0.209	-0.021
-205.406	-110.149	0.361	0.074
-204.392	12.974	0.342	0.260
-203.377	-84.339	0.165	-0.052
-202.363	-116.202	-0.291	-0.053
-201.348	-26.132	0.149	0.086
-200.333	554.720	0.082	-0.195
-199.319	-102.178	-0.256	-0.061
-198.304	-40.786	-0.117	-0.060
-197.290	710.217	-0.105	0.274
-196.275	153.431	0.071	0.095
-195.260	-70.592	-0.104	0.039
-194.246	653.149	0.164	-0.413
-193.231	-200.000	0.032	0.207
-192.217	320.500	-0.108	0.202
-191.202	421.697	-0.099	0.208
-190.187	-161.832	-0.115	-0.006
-189.173	-136.078	-0.267	0.031
-188.158	-200.000	0.227	-0.001
-187.144	41.630	0.225	0.200
-186.129	-171.520	-0.427	0.014
-185.114	-108.978	0.113	0.024
-184.100	62.076	0.055	0.054
-183.085	731.857	-0.010	-0.026
-182.071	800.000	-0.062	-0.241
-181.056	82.605	-0.030	0.032
-180.042	-156.580	0.372	0.023
-179.027	415.574	-0.243	-0.509
-178.012	-35.203	0.252	-0.135
-176.998	80.516	0.013	-0.013
-175.983	-200.000	-0.009	-0.102
-174.969	-37.548	0.270	0.142
-173.954	-200.000	0.053	0.344
-172.939	-79.242	0.105	-0.035
-171.925	-71.662	0.216	0.079
-170.910	-105.861	0.225	0.050
-169.896	-29.722	-0.050	-0.028
-168.881	-37.015	-0.244	-0.129
-167.866	101.114	-0.151	0.173
-166.852	47.806	0.238	0.219
-165.837	-200.000	-0.018	0.216
-164.823	123.073	-0.160	-0.197
-163.808	-200.000	-0.048	-0.487
-162.793	-47.066	-0.007	-0.004
-161.779	320.454	-0.044	-0.082
-160.764	-12.233	0.178	0.114
-159.750	-4.340	0.302	0.205
-158.735	-17.340	0.278	-0.172
-157.720	-39.730	0.297	-0.153
-156.706	115.613	-0.161	0.194
-155.691	157.654	0.032	0.044
-154.677	147.129	0.146	-0.193
-153.662	-94.355	0.218	0.059
-152.647	256.706	0.197	0.333
-151.633	459.711	-0.043	-0.095
-150.618	-200.000	0.011	0.208
-149.604	402.819	0.100	0.206
-148.589	-157.016	-0.110	-0.007
-147.574	-110.959	0.249	0.050
-146.560	732.063	-0.088	0.232
-145.545	484.314	0.159	0.356
-144.531	-200.000	0.041	0.422
-143.516	-63.208	-0.083	0.034
-142.502	-24.462	-0.048	0.028
-141.487	800.000	-0.041	0.151
-140.472	-200.000	-0.057	0.281
-139.458	156.065	0.122	0.166
-138.443	-135.701	-0.093	-0.011
-137.429	1.679	-0.216	0.153
-136.414	65.133	0.266	-0.265
-135.399	111.048	-0.110	0.131
-134.385	362.678	0.067	-0.132
-133.370	-195.742	0.298	0.002
-132.356	48.530	0.132	-0.121
-131.341	13.555	-0.282	0.215
-130.326	800.000	0.097	0.310
-129.312	-200.000	0.012	0.110
-128.297	-200.000	0.032	0.211
-127.283	499.993	0.129	-0.291
-126.268	117.839	-0.348	-0.421
-125.253	-112.934	-0.157	0.031
-124.239	-76.306	0.290	-0.100
-123.224	-200.000	0.030	0.604
-122.210	-200.000	0.024	0.309
-121.195	-37.611	-0.184	-0.096
