DTS Sentinel unit serial number:	SN413079Multiplexer serial number:	ORYXHardware model number:	OX4-SRSoftware version number:	ORYX F/W v4.00 Oryx Data Collector v3.7.2.0data status	okinstallation	princeton_trtdifferential loss correction	single-endedforward channel	channel 4reverse channel	N/Adate	2019/09/13time	14:05:34forward acquisition time	60.00reverse acquisition time	0.00gamma	496.2192k internal	0.2295k external	0.2295temperature offset calibration	1.0213default loss term (dB/km)	0.3790temperature slope calibration	1.0000multiplexer offset coefficient	1.0000multiplexer slope coefficient	1.0000fibre end	0.00T internal ref (°C)	35.30T ext. ref 1 (°C)	4.59T ext. ref 2 (°C)	31.17length (m)	temperature (°C)	Stokes	anti-Stokes-747.200	136.286	0.089	-0.119
-746.185	244.551	-0.036	0.063
-745.171	744.374	0.030	0.082
-744.156	20.576	-0.174	0.144
-743.142	-155.472	-0.315	0.021
-742.127	800.000	-0.125	0.409
-741.112	800.000	0.051	-0.213
-740.098	-26.279	-0.096	0.058
-739.083	605.189	0.098	0.249
-738.069	-39.806	-0.170	0.091
-737.054	-0.081	0.174	-0.126
-736.039	254.902	-0.239	-0.419
-735.025	800.000	0.135	0.516
-734.010	-123.874	-0.339	0.055
-732.996	453.377	-0.083	0.188
-731.981	201.946	0.135	0.213
-730.966	169.283	-0.183	-0.267
-729.952	-129.289	0.260	-0.037
-728.937	88.147	0.067	-0.076
-727.923	577.177	-0.072	-0.180
-726.908	-16.615	0.275	-0.178
-725.894	-200.000	-0.019	-0.223
-724.879	-165.162	-0.248	-0.011
-723.864	800.000	0.074	0.225
-722.850	-200.000	-0.000	-0.014
-721.835	41.889	0.222	0.206
-720.821	-82.013	0.171	0.057
-719.806	-121.328	-0.315	-0.054
-718.791	42.307	-0.142	-0.132
-717.777	-109.262	0.244	0.053
-716.762	-36.964	-0.107	0.059
-715.748	-181.070	-0.213	-0.004
-714.733	-200.000	-0.044	-0.269
-713.718	-120.203	0.110	-0.019
-712.704	-47.239	-0.403	0.200
-711.689	47.181	-0.172	0.164
-710.675	174.559	-0.139	0.206
-709.660	-43.034	0.068	-0.035
-708.645	351.463	0.111	-0.224
-707.631	2.499	-0.173	0.128
-706.616	24.489	-0.443	0.374
-705.602	-122.201	-0.104	0.017
-704.587	585.023	0.077	0.193
-703.572	106.410	0.095	-0.114
-702.558	0.096	-0.218	-0.159
-701.543	-200.000	0.062	-0.355
-700.529	800.000	0.038	-0.167
-699.514	314.326	0.037	-0.071
-698.499	383.222	-0.284	-0.596
-697.485	305.989	0.099	-0.189
-696.470	-200.000	-0.008	0.289
-695.456	800.000	0.011	-0.036
-694.441	27.724	-0.076	-0.065
-693.426	108.218	0.233	-0.283
-692.412	205.168	0.164	-0.260
-691.397	150.678	0.073	-0.102
-690.383	-200.000	0.041	-0.194
-689.368	-131.139	0.261	0.035
-688.354	-200.000	0.016	0.154
-687.339	18.887	0.191	0.156
-686.324	-43.671	0.266	-0.137
-685.310	800.000	-0.097	0.399
-684.295	-70.301	-0.188	-0.073
-683.281	-33.571	0.238	-0.134
-682.266	13.081	-0.162	0.128
-681.251	-200.000	0.001	-0.148
-680.237	-200.000	-0.018	-0.171
-679.222	244.617	-0.057	-0.097
-678.208	113.722	0.202	0.250
-677.193	-131.083	-0.384	-0.052
-676.178	203.911	0.059	0.093
-675.164	-200.000	-0.027	-0.306
-674.149	-154.956	-0.264	-0.018
-673.135	-37.444	-0.307	-0.167
-672.120	-200.000	0.062	-0.505
-671.105	-141.408	-0.498	-0.051
-670.091	-51.359	-0.163	0.078
-669.076	218.526	0.234	-0.381
-668.062	-200.000	0.069	-0.413
-667.047	-200.000	0.014	0.135
-666.032	-200.000	-0.014	0.374
-665.018	-78.754	0.153	0.053
-664.003	-33.547	-0.101	-0.057
-662.989	-42.144	0.098	0.051
-661.974	-84.444	-0.423	-0.136
-660.959	-107.694	-0.142	-0.031
-659.945	-200.000	-0.027	0.139
-658.930	91.466	0.253	0.289
-657.916	-200.000	-0.001	0.074
-656.901	-46.781	0.102	0.051
-655.886	-99.013	-0.366	-0.095
-654.872	-26.170	-0.212	-0.127
-653.857	-10.006	-0.150	0.102
-652.843	496.080	-0.105	0.245
-651.828	-200.000	-0.020	0.398
-650.814	800.000	0.007	0.025
-649.799	-170.898	-0.249	0.009
-648.784	800.000	-0.014	0.044
-647.770	141.293	-0.220	-0.297
-646.755	-148.661	0.323	0.027
-645.741	800.000	-0.057	0.195
-644.726	-162.542	-0.152	0.008
-643.711	-176.508	0.279	-0.007
-642.697	-200.000	-0.030	0.312
-641.682	-78.864	-0.343	-0.119
-640.668	-56.376	-0.160	0.072
-639.653	382.613	-0.065	0.136
-638.638	-36.661	0.211	0.115
-637.624	-40.278	-0.089	0.047
-636.609	-155.778	-0.398	0.026
-635.595	206.408	-0.201	0.319
-634.580	-65.911	-0.142	-0.058
-633.565	42.610	-0.292	-0.270
-632.551	238.530	0.115	0.194
-631.536	-57.170	-0.342	0.153
-630.522	115.371	-0.093	-0.116
-629.507	-158.099	0.227	-0.014
-628.492	-22.995	0.357	-0.219
-627.478	-162.821	0.276	-0.014
-626.463	591.826	-0.070	-0.175
-625.449	335.386	-0.066	0.131
-624.434	0.898	-0.343	0.250
-623.419	-200.000	-0.140	0.656
-622.405	800.000	0.033	-0.137
-621.390	-65.328	-0.234	-0.096
-620.376	-23.001	-0.290	-0.178
-619.361	638.335	-0.117	-0.301
-618.346	558.782	0.114	0.279
-617.332	288.937	0.070	0.130
-616.317	-17.845	-0.274	-0.175
-615.303	11.755	0.297	-0.232
-614.288	6.769	0.339	-0.256
-613.273	95.809	-0.160	-0.186
-612.259	104.824	-0.018	0.022
-611.244	-55.484	0.274	-0.125
-610.230	-200.000	0.006	-0.199
-609.215	106.649	0.237	0.285
-608.201	144.987	-0.015	0.020
-607.186	-200.000	0.033	-0.185
-606.171	140.669	0.053	-0.071
-605.157	22.077	-0.136	-0.112
-604.142	-72.559	-0.002	-0.001
-603.128	783.454	0.058	0.161
-602.113	800.000	0.083	-0.247
-601.098	-56.014	0.265	0.120
-600.084	288.506	0.117	-0.215
-599.069	-200.000	0.012	-0.058
-598.055	-111.639	-0.223	0.046
-597.040	-156.243	-0.078	0.005
-596.025	342.400	0.059	-0.117
-595.011	800.000	0.061	-0.175
-593.996	-90.443	0.052	-0.015
-592.982	539.126	0.048	-0.116
-591.967	193.498	-0.173	0.266
-590.952	-99.734	-0.248	-0.063
-589.938	-136.447	0.122	-0.014
-588.923	-97.010	-0.123	0.033
-587.909	-147.534	0.224	0.019
-586.894	-52.423	-0.332	-0.156
-585.879	-74.669	-0.180	0.066
-584.865	-119.425	0.141	-0.025
-583.850	496.777	-0.131	0.306
-582.836	223.485	0.069	-0.113
-581.821	64.448	0.196	-0.201
-580.806	-143.793	0.113	-0.011
-579.792	777.906	-0.058	-0.161
-578.777	-199.373	-0.403	-0.002
-577.763	563.928	0.113	0.279
-576.748	226.471	-0.084	0.138
-575.733	-88.154	0.263	-0.080
-574.719	-115.414	0.083	0.016
-573.704	800.000	0.030	0.116
-572.690	-71.717	-0.256	-0.097
-571.675	51.557	0.139	0.134
-570.661	-0.658	-0.269	0.194
-569.646	266.394	-0.079	0.139
-568.631	-154.284	-0.623	0.043
-567.617	-91.863	0.240	0.069
-566.602	-200.000	-0.007	-0.325
-565.588	-118.891	-0.297	-0.053
-564.573	-115.020	0.120	-0.023
-563.558	-72.790	-0.290	0.108
-562.544	4.632	0.195	0.145
-561.529	109.171	-0.100	0.121
-560.515	-130.634	0.097	0.013
-559.500	-90.264	-0.174	-0.051
-558.485	-200.000	-0.029	0.205
-557.471	-200.000	0.069	0.460
-556.456	319.290	-0.147	-0.282
-555.442	-81.780	-0.089	0.030
-554.427	448.132	0.070	0.156
-553.412	-65.481	0.100	0.041
-552.398	-91.529	0.122	-0.035
-551.383	-200.000	-0.013	-0.183
-550.369	44.612	-0.296	0.276
-549.354	260.087	-0.206	0.360
-548.339	800.000	0.082	-0.238
-547.325	306.794	-0.137	-0.259
-546.310	17.900	-0.063	-0.051
-545.296	800.000	-0.099	0.361
-544.281	-15.345	0.427	-0.277
-543.266	136.312	-0.133	-0.176
-542.252	-194.293	0.244	-0.002
-541.237	-17.753	0.230	0.146
-540.223	463.531	-0.043	-0.098
-539.208	-179.307	0.147	-0.003
-538.193	-200.000	-0.021	-0.453
-537.179	185.557	-0.127	-0.191
-536.164	-79.476	0.201	0.069
-535.150	-117.548	0.168	0.031
-534.135	-56.506	-0.195	-0.088
-533.121	-104.574	0.160	-0.037
-532.106	20.193	-0.110	0.090
-531.091	-200.000	-0.028	0.162
-530.077	-147.099	0.168	0.015
-529.062	-200.000	-0.024	-0.254
-528.048	1.530	0.130	0.095
-527.033	-200.000	-0.030	0.316
-526.018	-105.159	-0.356	-0.082
-525.004	-154.770	-0.155	-0.010
-523.989	391.395	0.013	-0.028
-522.975	554.608	0.182	-0.444
-521.960	34.413	0.132	0.117
-520.945	142.108	0.141	-0.189
-519.931	88.453	-0.380	-0.428
-518.916	-51.402	0.340	-0.161
-517.902	-52.990	0.178	0.083
-516.887	800.000	0.056	0.245
-515.872	-43.909	-0.082	-0.042
-514.858	87.879	-0.112	0.126
-513.843	38.188	-0.247	0.223
-512.829	50.081	0.296	0.283
-511.814	800.000	-0.049	0.208
-510.799	-107.732	0.251	0.056
-509.785	-24.380	-0.072	0.043
-508.770	-200.000	-0.005	-0.059
-507.756	101.110	-0.284	-0.335
-506.741	35.142	-0.235	0.209
-505.726	-114.346	-0.414	-0.081
-504.712	87.969	0.080	-0.089
-503.697	229.945	0.176	-0.291
-502.683	800.000	-0.016	-0.062
-501.668	718.185	0.073	0.196
-500.653	-200.000	0.014	0.416
-499.639	100.298	-0.332	-0.390
-498.624	800.000	-0.062	-0.251
-497.610	-200.000	-0.016	-0.162
-496.595	-200.000	0.032	-0.233
-495.581	-61.359	-0.234	0.100
-494.566	118.251	0.104	-0.130
-493.551	138.687	0.162	-0.215
-492.537	-32.037	-0.146	0.083
-491.522	-97.811	-0.218	-0.057
-490.508	29.515	0.182	-0.157
-489.493	228.973	-0.057	0.095
-488.478	-148.074	-0.250	0.021
-487.464	-50.446	-0.296	-0.142
-486.449	-20.654	-0.060	0.037
-485.435	60.376	-0.226	-0.226
-484.420	-104.633	0.097	0.023
-483.405	424.508	0.114	0.247
-482.391	64.158	0.264	0.269
-481.376	800.000	-0.063	-0.176
-480.362	143.095	-0.283	0.381
-479.347	-97.493	-0.085	0.022
-478.332	181.707	0.073	0.108
-477.318	276.652	-0.171	-0.307
-476.303	-81.618	0.284	-0.094
-475.289	-34.081	0.157	0.087
-474.274	734.137	-0.077	0.209
-473.259	107.557	-0.023	0.027
-472.245	-102.352	-0.120	-0.029
-471.230	-200.000	-0.011	0.074
-470.216	800.000	-0.085	0.308
-469.201	154.558	0.105	-0.146
-468.186	78.398	-0.235	-0.254
-467.172	182.537	0.121	-0.180
-466.157	-115.311	0.372	-0.071
-465.143	53.809	-0.236	-0.229
-464.128	-200.000	0.013	-0.235
-463.113	-200.000	0.006	-0.126
-462.099	235.866	-0.062	-0.104
-461.084	800.000	0.038	0.117
-460.070	-197.972	-0.180	-0.001
-459.055	8.605	-0.136	-0.104
-458.040	-121.196	-0.078	0.013
-457.026	-156.412	-0.412	-0.026
-456.011	35.503	0.230	-0.204
-454.997	800.000	0.103	0.296
-453.982	-105.394	-0.156	0.036
-452.968	-178.802	-0.248	0.006
-451.953	120.277	-0.032	-0.040
-450.938	-75.025	0.047	-0.017
-449.924	-200.000	0.005	-0.155
-448.909	63.280	-0.104	0.106
-447.895	143.131	-0.097	-0.130
-446.880	675.206	0.034	0.089
-445.865	105.131	-0.173	-0.207
-444.851	-165.977	0.259	0.011
-443.836	-76.689	0.168	0.060
-442.822	75.607	-0.102	-0.109
-441.807	24.921	0.300	-0.251
-440.792	219.714	-0.061	0.098
-439.778	163.057	0.149	0.211
-438.763	-106.931	-0.043	0.010
-437.749	105.279	-0.254	0.303
-436.734	800.000	0.041	0.139
-435.719	18.256	0.151	-0.122
-434.705	273.440	0.235	-0.419
-433.690	-200.000	0.006	0.045
-432.676	11.468	0.139	-0.108
-431.661	462.521	0.073	-0.164
-430.646	-83.746	-0.167	-0.054
-429.632	-42.032	-0.111	-0.057
-428.617	-200.000	0.004	-0.058
-427.603	-200.000	0.043	-0.396
-426.588	51.575	0.227	-0.218
-425.573	-200.000	0.005	0.212
-424.559	-30.670	0.320	-0.183
-423.544	-200.000	-0.009	-0.273
-422.530	16.313	0.255	-0.203
-421.515	84.401	-0.198	-0.219
-420.500	231.714	-0.016	0.027
-419.486	7.724	-0.177	0.134
-418.471	23.348	0.091	-0.076
-417.457	210.312	-0.086	0.136
-416.442	288.916	-0.070	0.127
-415.428	800.000	0.052	-0.180
-414.413	-155.530	0.085	-0.006
-413.398	23.286	-0.054	0.044
-412.384	2.154	0.332	0.242
-411.369	-67.769	0.047	0.019
-410.355	800.000	0.043	0.167
-409.340	800.000	-0.049	-0.140
-408.325	46.174	0.149	-0.139
-407.311	-134.001	0.020	0.002
-406.296	-200.000	0.043	0.321
-405.282	469.916	-0.037	-0.085
-404.267	-30.860	0.041	0.023
-403.252	-8.957	-0.319	0.216
-402.238	3.339	0.056	0.041
-401.223	-62.665	0.284	-0.119
-400.209	19.389	0.341	-0.276
-399.194	800.000	-0.076	-0.225
-398.179	-102.699	0.349	0.084
-397.165	310.574	-0.087	-0.164
-396.150	-84.970	-0.243	0.077
-395.136	-67.702	0.203	0.080
-394.121	13.366	0.310	-0.242
-393.106	-200.000	0.010	0.155
-392.092	249.274	-0.151	-0.258
-391.077	43.670	-0.025	0.023
-390.063	-200.000	0.022	0.171
-389.048	800.000	-0.094	0.309
-388.033	-120.288	0.281	0.048
-387.019	114.087	0.186	0.228
-386.004	-200.000	-0.040	0.249
-384.990	793.183	0.092	0.255
-383.975	-68.489	-0.326	0.127
-382.960	69.569	0.113	-0.117
-381.946	-200.000	0.050	0.360
-380.931	-40.233	0.276	0.144
-379.917	-200.000	-0.042	0.248
-378.902	3.001	-0.262	-0.192
-377.888	98.487	-0.087	0.101
-376.873	413.026	0.020	-0.043
-375.858	224.283	0.109	0.177
-374.844	800.000	-0.109	0.311
-373.829	-73.790	-0.154	0.057
-372.815	74.850	-0.244	-0.259
-371.800	-68.226	-0.206	-0.081
-370.785	25.114	0.267	-0.223
-369.771	37.169	-0.232	0.207
-368.756	800.000	-0.070	-0.222
-367.742	-74.822	-0.186	0.067
-366.727	-138.588	0.439	-0.049
-365.712	-12.180	0.049	0.032
-364.698	-92.215	-0.247	-0.070
-363.683	-52.616	0.080	0.037
-362.669	37.464	-0.040	0.036
-361.654	139.737	0.083	0.110
-360.639	339.621	0.025	0.049
-359.625	253.174	0.097	0.167
-358.610	108.391	0.149	-0.179
-357.596	-63.159	-0.157	-0.065
-356.581	-200.000	0.018	0.180
-355.566	35.169	0.076	0.067
-354.552	-113.704	-0.031	-0.006
-353.537	800.000	-0.027	0.117
-352.523	-200.000	-0.017	-0.195
-351.508	8.495	0.128	0.097
-350.493	-63.295	0.177	0.073
-349.479	-200.000	0.025	0.195
-348.464	224.266	-0.095	0.154
-347.450	800.000	0.033	0.096
-346.435	-200.000	-0.026	-0.193
-345.420	-76.734	0.325	-0.115
-344.406	-32.231	0.218	0.123
-343.391	61.361	-0.041	-0.041
-342.377	-35.176	0.162	0.089
-341.362	-11.396	-0.125	0.083
-340.348	-10.107	-0.179	0.120
-339.333	-200.000	-0.007	0.121
-338.318	47.703	-0.477	-0.448
-337.304	222.339	0.238	-0.385
-336.289	-31.328	-0.294	-0.167
-335.275	52.184	0.097	0.093
-334.260	-69.407	0.234	0.090
-333.245	800.000	-0.013	0.042
-332.231	-121.557	-0.146	0.024
-331.216	49.986	0.226	-0.214
-330.202	-12.348	0.174	0.114
-329.187	800.000	0.102	-0.396
-328.172	-87.442	-0.114	-0.035
-327.158	61.762	0.109	0.109
-326.143	12.670	-0.306	0.238
-325.129	800.000	-0.086	0.264
-324.114	380.549	0.082	-0.169
-323.099	-200.000	0.346	-0.000
-322.085	100.890	0.279	-0.326
-321.070	-25.885	0.214	0.127
-320.056	324.124	-0.106	-0.203
-319.041	800.000	-0.090	-0.300
-318.026	-68.692	-0.213	0.083
-317.012	-139.278	0.369	0.040
-315.997	-126.786	0.339	-0.050
-314.983	345.358	0.095	0.188
-313.968	31.804	-0.203	0.176
-312.953	120.873	-0.082	0.103
-311.939	800.000	0.062	0.180
-310.924	-92.796	0.108	-0.030
-309.910	42.776	0.145	0.133
-308.895	-108.308	0.208	-0.045
-307.880	-80.360	0.395	-0.133
-306.866	-98.317	0.138	-0.036
-305.851	77.673	-0.099	-0.106
-304.837	76.782	0.125	-0.134
-303.822	-200.000	0.064	-0.376
-302.807	180.923	-0.114	0.169
-301.793	53.855	0.071	0.069
-300.778	63.383	0.079	-0.080
-299.764	-1.256	0.132	0.093
-298.749	125.159	0.143	0.180
-297.735	-59.040	-0.276	-0.120
-296.720	164.541	-0.188	0.266
-295.705	-200.000	0.053	0.264
-294.691	-65.470	-0.142	-0.057
-293.676	-94.581	-0.313	-0.086
-292.662	-142.743	0.040	0.004
-291.647	-163.782	0.071	0.003
-290.632	-2.237	0.140	-0.099
-289.618	-140.425	-0.416	0.044
-288.603	182.217	-0.030	-0.045
-287.589	466.487	-0.115	0.258
-286.574	-78.965	-0.298	-0.102
-285.559	-196.682	0.340	-0.002
-284.545	-45.425	-0.177	0.088
-283.530	-154.398	0.144	-0.010
-282.516	-23.628	0.293	0.176
-281.501	-200.000	-0.013	0.062
-280.486	-200.000	-0.064	0.289
-279.472	258.857	0.059	-0.101
-278.457	291.837	-0.060	0.110
-277.443	10.394	0.266	0.203
-276.428	570.169	0.034	0.082
-275.413	-170.414	0.049	0.002
-274.399	-55.675	0.224	0.101
-273.384	-193.145	-0.194	0.002
-272.370	582.560	-0.148	-0.365
-271.355	-81.971	0.097	-0.032
-270.340	-111.487	0.234	-0.048
-269.326	58.598	0.166	0.164
-268.311	43.443	-0.087	0.080
-267.297	-137.720	0.188	0.021
-266.282	-31.325	0.147	-0.083
-265.267	-98.106	-0.370	0.096
-264.253	-49.357	-0.092	0.044
-263.238	-57.268	-0.063	-0.028
-262.224	-70.805	0.086	-0.032
-261.209	-104.333	-0.224	0.052
-260.195	164.003	-0.208	0.294
-259.180	-43.599	0.103	-0.052
-258.165	-4.389	0.176	0.122
-257.151	800.000	-0.010	0.033
-256.136	341.112	0.074	0.145
-255.122	80.308	-0.119	-0.129
-254.107	247.811	0.217	-0.368
-253.092	38.508	-0.114	0.102
-252.078	-117.468	0.075	0.014
-251.063	226.224	-0.041	-0.067
-250.049	-200.000	0.004	-0.066
-249.034	-7.238	-0.107	-0.072
-248.019	-24.296	-0.206	0.123
-247.005	24.602	-0.166	-0.137
-245.990	522.235	0.085	-0.201
-244.976	39.146	0.343	-0.307
-243.961	8.385	-0.119	0.089
-242.946	203.755	0.176	0.273
-241.932	222.563	-0.165	-0.267
-240.917	-125.116	-0.194	-0.030
-239.903	-141.200	-0.372	0.038
-238.888	-140.372	0.229	-0.024
-237.873	-23.172	0.102	0.062
-236.859	-7.843	-0.076	-0.051
-235.844	-25.472	-0.082	-0.048
-234.830	-200.000	-0.014	0.119
-233.815	-200.000	-0.012	-0.262
-232.800	197.811	-0.209	-0.320
-231.786	6.094	-0.355	-0.264
-230.771	25.985	-0.206	0.172
-229.757	1.934	-0.151	0.109
-228.742	-4.759	0.133	0.092
-227.727	-80.905	-0.082	-0.027
-226.713	54.754	-0.193	0.186
-225.698	-200.000	0.027	-0.194
-224.684	276.484	-0.083	0.147
-223.669	800.000	0.097	0.282
-222.655	-164.628	-0.208	0.009
-221.640	-176.840	0.400	-0.010
-220.625	182.317	-0.098	-0.145
-219.611	-62.689	-0.185	-0.077
-218.596	-155.308	0.213	0.014
-217.582	-79.515	0.050	0.017
-216.567	5.774	-0.173	-0.128
-215.552	39.130	-0.166	-0.148
-214.538	8.154	0.206	0.155
-213.523	800.000	-0.054	0.201
-212.509	373.595	-0.217	-0.442
-211.494	-106.387	-0.146	-0.033
-210.479	79.117	0.152	0.163
-209.465	-81.966	0.138	0.045
-208.450	-89.478	-0.140	-0.041
-207.436	187.795	-0.111	-0.166
-206.421	-200.000	0.041	0.319
-205.406	74.117	0.305	-0.321
-204.392	800.000	-0.015	-0.051
-203.377	-0.489	-0.093	-0.066
-202.363	207.075	-0.024	0.038
-201.348	295.650	-0.053	-0.098
-200.333	-200.000	0.038	-0.189
-199.319	-200.000	-0.000	0.170
-198.304	-75.234	0.305	0.109
-197.290	-69.528	-0.105	-0.040
-196.275	182.201	-0.267	0.394
-195.260	-200.000	-0.017	0.411
-194.246	153.674	0.178	-0.245
-193.231	311.504	-0.031	-0.059
-192.217	-66.492	0.099	0.039
-191.202	139.081	0.061	-0.080
-190.187	-48.527	-0.157	-0.076
-189.173	-128.996	0.168	0.023
-188.158	-67.515	-0.332	0.130
-187.144	-97.878	0.212	0.055
-186.129	-168.067	0.176	-0.007
-185.114	-17.238	0.188	0.119
-184.100	267.839	-0.134	0.234
-183.085	629.351	0.030	-0.076
-182.071	298.155	-0.007	0.012
-181.056	457.309	0.099	-0.220
-180.042	2.078	-0.338	-0.244
-179.027	58.696	0.222	0.218
-178.012	563.783	0.114	0.275
-176.998	77.589	0.037	-0.039
-175.983	-19.678	0.156	0.097
-174.969	173.720	0.229	0.330
-173.954	-178.846	-0.231	-0.005
-172.939	191.178	-0.172	-0.259
-171.925	-84.728	0.235	0.074
-170.910	-166.555	0.176	-0.007
-169.896	-104.065	0.207	0.048
-168.881	-22.589	0.213	0.129
-167.866	36.073	-0.129	0.114
-166.852	-67.341	-0.262	-0.103
-165.837	0.438	0.214	0.153
-164.823	800.000	-0.083	0.246
-163.808	-200.000	-0.023	-0.305
-162.793	-145.190	-0.340	0.031
-161.779	-74.241	-0.031	-0.011
-160.764	-200.000	0.043	0.566
-159.750	-82.456	0.246	-0.080
-158.735	-106.826	0.164	0.036
-157.720	165.138	0.086	-0.122
-156.706	198.751	-0.144	0.220
-155.691	106.710	0.309	-0.366
-154.677	-55.700	0.449	0.201
-153.662	-12.002	-0.085	0.056
-152.647	-91.369	0.293	-0.084
-151.633	17.536	0.091	-0.073
-150.618	552.560	0.152	-0.364
-149.604	-87.884	-0.165	0.049
-148.589	-5.794	-0.131	0.090
-147.574	60.533	-0.251	0.248
-146.560	-200.000	0.041	0.253
-145.545	-69.820	-0.163	0.062
-144.531	94.221	0.415	0.470
-143.516	800.000	0.079	0.324
-142.502	-88.764	0.110	-0.033
-141.487	-21.551	-0.203	-0.124
-140.472	-167.677	0.077	0.003
-139.458	-53.011	0.319	-0.146
-138.443	-200.000	-0.010	0.340
-137.429	-41.319	0.286	-0.147
-136.414	388.750	0.095	-0.196
-135.399	800.000	0.065	-0.258
-134.385	-104.729	0.436	0.100
-133.370	282.674	-0.052	0.093
-132.356	-58.183	0.550	-0.239
-131.341	5.541	-0.072	-0.053
-130.326	-100.393	0.076	-0.019
-129.312	-113.250	-0.081	0.016
-128.297	-5.784	0.073	-0.050
-127.283	-200.000	-0.019	0.174
-126.268	-77.250	-0.189	0.066
-125.253	-142.022	0.286	0.028
-124.239	-65.595	-0.223	0.089
-123.224	-192.541	0.197	-0.002
-122.210	-145.577	0.152	0.014
-121.195	-164.445	0.315	0.014
-120.180	-200.000	-0.066	-0.503
