DTS Sentinel unit serial number:	SN413079Multiplexer serial number:	ORYXHardware model number:	OX4-SRSoftware version number:	ORYX F/W v4.00 Oryx Data Collector v3.7.2.0data status	okinstallation	princeton_trtdifferential loss correction	single-endedforward channel	channel 4reverse channel	N/Adate	2019/09/12time	18:09:19forward acquisition time	15.00reverse acquisition time	0.00gamma	496.2192k internal	0.2307k external	0.2307temperature offset calibration	1.0137default loss term (dB/km)	0.3790temperature slope calibration	1.0000multiplexer offset coefficient	1.0000multiplexer slope coefficient	1.0000fibre end	0.00T internal ref (°C)	33.62T ext. ref 1 (°C)	2.89T ext. ref 2 (°C)	28.15length (m)	temperature (°C)	Stokes	anti-Stokes-747.200	-136.090	0.318	-0.038
-746.185	247.018	0.095	0.163
-745.171	-5.591	-0.747	0.521
-744.156	800.000	-0.091	0.309
-743.142	-56.970	-0.457	-0.205
-742.127	43.092	0.183	0.169
-741.112	69.260	0.223	-0.233
-740.098	111.666	0.139	0.170
-739.083	-51.381	-0.494	0.235
-738.069	406.189	-0.214	-0.458
-737.054	37.202	0.191	-0.172
-736.039	-122.372	-0.602	0.100
-735.025	800.000	-0.184	0.801
-734.010	-200.000	0.160	-0.774
-732.996	-40.925	0.290	-0.152
-731.981	15.852	0.674	0.539
-730.966	-32.753	0.443	-0.251
-729.952	-6.601	-0.444	-0.308
-728.937	-18.117	-0.677	-0.431
-727.923	19.646	-0.033	-0.027
-726.908	15.755	-0.550	-0.440
-725.894	-200.000	0.178	-0.848
-724.879	-95.563	0.196	0.053
-723.864	88.761	-0.573	-0.647
-722.850	192.266	-0.286	-0.439
-721.835	-15.772	0.727	-0.471
-720.821	-200.000	-0.050	-0.795
-719.806	-149.141	-0.383	0.031
-718.791	322.487	0.260	-0.503
-717.777	72.876	0.372	0.395
-716.762	-54.013	-0.398	0.184
-715.748	-200.000	0.010	0.119
-714.733	-167.509	-0.769	0.031
-713.718	-56.763	-0.457	-0.205
-712.704	-62.700	-0.042	-0.018
-711.689	-10.456	-0.154	-0.104
-710.675	-31.376	0.270	-0.154
-709.660	152.975	-0.047	0.065
-708.645	-136.129	-0.374	-0.045
-707.631	-167.952	-0.412	-0.016
-706.616	-120.578	-0.328	0.056
-705.602	-200.000	-0.012	0.648
-704.587	129.320	-0.194	0.251
-703.572	252.858	-0.141	-0.244
-702.558	12.868	-0.680	0.533
-701.543	288.601	0.138	0.253
-700.529	178.045	-0.442	-0.654
-699.514	-200.000	0.023	0.614
-698.499	800.000	-0.291	0.841
-697.485	-54.832	0.378	-0.173
-696.470	-6.483	0.777	-0.538
-695.456	-200.000	-0.008	-0.190
-694.441	371.567	-0.159	-0.328
-693.426	105.194	0.177	-0.212
-692.412	-81.332	-0.474	-0.159
-691.397	-26.407	1.080	-0.643
-690.383	-198.822	-0.853	-0.005
-689.368	368.352	-0.050	-0.103
-688.354	15.785	-0.250	-0.199
-687.339	-116.769	0.141	0.026
-686.324	18.286	-0.423	0.342
-685.310	-200.000	0.102	-0.503
-684.295	449.457	0.068	0.153
-683.281	-41.098	0.244	-0.128
-682.266	454.421	-0.260	-0.585
-681.251	-131.412	0.342	-0.046
-680.237	120.831	0.294	0.371
-679.222	15.201	0.487	-0.387
-678.208	12.759	-0.179	0.140
-677.193	86.997	-0.565	0.633
-676.178	-114.229	0.573	-0.112
-675.164	-200.000	-0.071	-0.420
-674.149	552.772	-0.255	-0.620
-673.135	-155.088	-0.531	0.035
-672.120	-89.992	-0.859	-0.254
-671.105	800.000	0.191	0.662
-670.091	-200.000	0.001	0.228
-669.076	-200.000	-0.190	-0.857
-668.062	-117.499	-0.154	-0.028
-667.047	-97.269	-0.807	0.213
-666.032	164.177	-0.075	0.107
-665.018	-200.000	0.032	-0.254
-664.003	375.774	-0.328	-0.678
-662.989	-11.174	0.557	0.372
-661.974	-20.333	-0.425	0.265
-660.959	257.810	-0.262	0.458
-659.945	-126.402	-0.495	0.075
-658.930	-79.669	-0.811	0.277
-657.916	-110.808	0.753	-0.157
-656.901	651.103	0.208	-0.540
-655.886	-118.111	0.125	-0.023
-654.872	800.000	-0.208	0.836
-653.857	32.556	0.386	-0.338
-652.843	-78.496	0.253	-0.088
-651.828	251.203	-0.057	-0.098
-650.814	-166.823	-0.133	-0.006
-649.799	51.696	0.779	0.751
-648.784	183.966	-0.332	0.497
-647.770	-153.152	-0.597	0.042
-646.755	-101.512	0.692	0.171
-645.741	-146.948	0.582	-0.051
-644.726	-128.352	0.280	-0.040
-643.711	78.747	0.619	-0.670
-642.697	-17.066	-0.494	-0.316
-641.682	-21.607	-0.378	0.233
-640.668	-200.000	0.092	-1.239
-639.653	167.520	-0.393	-0.565
-638.638	-200.000	-0.007	-0.465
-637.624	-200.000	-0.027	0.175
-636.609	-200.000	-0.001	-0.049
-635.595	-189.737	-0.480	-0.006
-634.580	-162.365	0.704	-0.035
-633.565	107.311	-0.423	-0.510
-632.551	-200.000	0.080	0.418
-631.536	800.000	0.070	0.231
-630.522	-200.000	-0.024	0.405
-629.507	800.000	0.257	0.760
-628.492	18.797	-0.674	-0.547
-627.478	-128.052	0.243	0.035
-626.463	-120.146	0.715	-0.124
-625.449	561.010	0.358	-0.877
-624.434	-200.000	0.034	-0.285
-623.419	98.752	0.584	0.681
-622.405	-200.000	-0.062	0.885
-621.390	-111.145	-0.519	-0.108
-620.376	-128.251	0.850	0.123
-619.361	-24.109	-0.095	-0.058
-618.346	-200.000	0.022	0.203
-617.332	-74.061	0.106	0.039
-616.317	-200.000	0.142	-0.700
-615.303	295.327	0.102	-0.189
-614.288	-200.000	-0.022	-0.983
-613.273	-8.123	0.436	-0.297
-612.259	242.972	0.135	0.229
-611.244	3.518	-0.151	-0.111
-610.230	800.000	0.116	0.370
-609.215	-28.973	-0.251	0.146
-608.201	-200.000	0.030	-0.186
-607.186	-200.000	-0.066	0.483
-606.171	31.269	0.230	0.200
-605.157	-152.955	-0.374	-0.027
-604.142	-75.298	0.307	-0.111
-603.128	-108.348	0.447	-0.097
-602.113	-200.000	0.015	-0.271
-601.098	90.999	0.249	-0.283
-600.084	458.874	0.098	0.219
-599.069	-14.189	0.170	0.111
-598.055	800.000	-0.074	0.286
-597.040	231.676	-0.161	-0.268
-596.025	451.270	0.154	0.344
-595.011	-8.674	-0.275	0.187
-593.996	-140.621	-0.616	-0.065
-592.982	378.651	-0.435	0.901
-591.967	-200.000	0.018	-0.082
-590.952	334.057	-0.305	-0.597
-589.938	-63.800	-0.985	-0.408
-588.923	-6.115	0.217	-0.150
-587.909	190.467	-0.684	1.038
-586.894	-100.489	0.553	-0.138
-585.879	800.000	-0.086	0.245
-584.865	56.303	-0.434	-0.426
-583.850	375.241	0.261	0.537
-582.836	-200.000	-0.001	0.473
-581.821	35.008	-0.228	-0.202
-580.806	-82.990	-1.052	0.343
-579.792	-92.825	-0.130	-0.037
-578.777	-130.206	-0.709	-0.098
-577.763	200.692	0.197	-0.306
-576.748	-122.418	0.098	0.016
-575.733	119.522	-0.118	0.148
-574.719	-26.136	0.254	-0.151
-573.704	11.529	-0.266	0.206
-572.690	40.608	0.287	0.262
-571.675	463.680	0.151	-0.341
-570.661	-200.000	-0.019	-0.272
-569.646	64.828	0.441	-0.449
-568.631	397.035	-0.142	0.300
-567.617	800.000	-0.073	-0.310
-566.602	-44.915	0.346	-0.174
-565.588	-200.000	-0.027	-0.660
-564.573	97.528	-0.340	-0.394
-563.558	800.000	-0.051	0.197
-562.544	800.000	0.301	0.923
-561.529	2.891	0.785	-0.576
-560.515	63.936	0.371	-0.376
-559.500	-48.343	0.756	0.368
-558.485	-200.000	-0.054	0.255
-557.471	-138.670	0.552	0.061
-556.456	800.000	-0.190	-0.582
-555.442	212.859	-0.353	-0.562
-554.427	-200.000	0.060	-0.590
-553.412	-129.228	-0.444	0.062
-552.398	800.000	-0.253	-0.802
-551.383	-116.139	-0.635	-0.119
-550.369	27.474	0.475	0.403
-549.354	-200.000	0.022	-0.117
-548.339	236.473	0.131	0.219
-547.325	800.000	0.188	-0.610
-546.310	371.081	-0.202	-0.413
-545.296	800.000	0.055	-0.192
-544.281	24.470	-0.393	-0.328
-543.266	-54.365	-0.669	0.306
-542.252	546.547	0.156	-0.375
-541.237	670.217	-0.374	-0.978
-540.223	800.000	-0.216	-0.608
-539.208	-27.013	-0.149	0.088
-538.193	-112.906	-0.415	-0.083
-537.179	-116.677	0.857	-0.159
-536.164	7.622	0.693	0.523
-535.150	-119.327	-0.492	-0.086
-534.135	-42.650	-0.591	-0.303
-533.121	-68.882	-0.431	-0.168
-532.106	-76.518	0.315	0.111
-531.091	9.926	-0.319	0.244
-530.077	-52.296	-0.198	0.093
-529.062	800.000	0.234	0.913
-528.048	-200.000	0.108	0.579
-527.033	-52.934	-0.501	0.233
-526.018	-152.068	0.792	0.058
-525.004	-128.163	0.568	-0.082
-523.989	-200.000	0.173	-0.802
-522.975	-67.709	0.212	0.084
-521.960	800.000	-0.159	-0.686
-520.945	270.018	0.570	-1.009
-519.931	440.108	0.290	-0.639
-518.916	-91.433	0.812	0.234
-517.902	-122.781	-0.491	0.080
-516.887	398.578	0.284	0.600
-515.872	159.020	-0.474	-0.664
-514.858	375.344	-0.126	0.259
-513.843	309.977	0.093	0.175
-512.829	-117.055	-0.747	0.137
-511.814	621.877	0.197	0.500
-510.799	-102.843	-0.600	-0.144
-509.785	-22.530	-0.329	0.201
-508.770	348.938	0.211	0.420
-507.756	348.460	0.365	-0.725
-506.741	-22.667	-0.378	-0.230
-505.726	292.779	-0.276	-0.507
-504.712	800.000	-0.258	-0.792
-503.697	717.189	-0.132	0.353
-502.683	55.849	-0.552	0.539
-501.668	194.009	0.139	0.213
-500.653	-119.806	-0.946	0.164
-499.639	-144.944	0.571	-0.052
-498.624	-145.649	-0.602	-0.054
-497.610	-200.000	-0.088	0.507
-496.595	73.352	0.113	-0.119
-495.581	-200.000	-0.137	0.852
-494.566	227.047	0.086	-0.141
-493.551	463.892	-0.399	0.898
-492.537	-200.000	0.125	0.777
-491.522	-53.091	-0.513	-0.237
-490.508	245.744	-0.438	-0.742
-489.493	125.102	0.211	0.267
-488.478	592.130	-0.324	-0.805
-487.464	87.912	0.044	-0.049
-486.449	-26.235	-0.752	-0.445
-485.435	-65.279	-0.307	0.125
-484.420	-123.226	0.558	-0.090
-483.405	-200.000	-0.071	0.402
-482.391	-133.128	-0.740	-0.094
-481.376	368.452	0.120	0.244
-480.362	123.806	0.357	-0.451
-479.347	-69.531	1.001	0.386
-478.332	188.691	-0.200	0.301
-477.318	-160.693	-0.505	0.027
-476.303	-184.171	0.604	-0.010
-475.289	800.000	-0.034	-0.147
-474.274	175.200	-0.498	0.727
-473.259	-168.529	-0.706	0.027
-472.245	800.000	0.094	0.409
-471.230	-150.352	0.577	0.045
-470.216	177.982	-0.323	0.474
-469.201	54.579	0.428	-0.415
-468.186	9.649	-0.655	-0.499
-467.172	800.000	-0.160	-0.669
-466.157	-30.794	-0.416	0.236
-465.143	-48.241	0.363	-0.176
-464.128	19.598	-0.578	0.467
-463.113	800.000	0.206	-0.609
-462.099	63.939	0.128	0.129
-461.084	484.431	0.426	-0.975
-460.070	452.956	0.276	-0.615
-459.055	-200.000	0.012	-0.120
-458.040	-155.706	-0.429	0.028
-457.026	40.241	-0.284	0.257
-456.011	-117.555	0.516	0.094
-454.997	-64.676	0.783	-0.319
-453.982	-142.100	-1.163	-0.116
-452.968	-44.839	0.426	0.214
-451.953	-15.310	0.654	-0.420
-450.938	-180.528	0.719	0.015
-449.924	-53.747	-0.712	0.327
-448.909	57.192	-0.145	0.142
-447.895	265.047	-0.230	0.402
-446.880	734.980	-0.104	0.279
-445.865	-74.323	0.707	-0.257
-444.851	-26.227	0.796	0.470
-443.836	-200.000	0.054	-1.094
-442.822	-99.662	0.474	0.119
-441.807	-86.491	0.284	0.088
-440.792	112.477	-0.438	0.532
-439.778	-97.108	0.328	-0.086
-438.763	-200.000	0.031	-0.160
-437.749	323.219	-0.499	0.957
-436.734	-93.680	0.709	0.196
-435.719	-71.607	0.742	0.278
-434.705	21.376	0.221	-0.180
-433.690	-200.000	-0.002	-0.070
-432.676	13.294	-0.269	0.209
-431.661	70.703	-0.115	0.119
-430.646	-156.520	-0.338	0.021
-429.632	-27.127	0.352	-0.206
-428.617	-200.000	-0.020	1.042
-427.603	-200.000	-0.068	-0.410
-426.588	-132.768	0.974	0.125
-425.573	510.708	-0.146	-0.342
-424.559	477.508	-0.240	0.545
-423.544	-200.000	0.091	1.035
-422.530	-31.901	-0.474	-0.266
-421.515	-200.000	-0.169	-0.827
-420.500	31.595	0.310	0.268
-419.486	-200.000	0.049	-0.260
-418.471	314.582	0.210	-0.397
-417.457	-200.000	-0.002	-0.292
-416.442	-133.381	-0.382	-0.048
-415.428	29.116	0.532	0.453
-414.413	-75.160	0.012	0.004
-413.398	-78.635	-0.397	0.136
-412.384	169.044	0.246	-0.352
-411.369	4.726	0.618	-0.456
-410.355	-200.000	-0.046	0.702
-409.340	260.860	-0.143	0.248
-408.325	-52.568	-0.884	-0.410
-407.311	757.859	0.202	0.549
-406.296	463.811	-0.056	-0.126
-405.282	654.165	0.369	-0.951
-404.267	102.354	-0.147	0.173
-403.252	-21.799	-0.443	-0.271
-402.238	-90.991	0.347	-0.100
-401.223	12.773	0.363	0.281
-400.209	-184.618	0.238	0.004
-399.194	800.000	-0.094	-0.309
-398.179	150.361	-0.387	-0.528
-397.165	-127.187	-0.185	0.027
-396.150	236.262	0.424	0.703
-395.136	-200.000	0.025	0.432
-394.121	346.163	-0.122	0.240
-393.106	-100.415	0.862	0.214
-392.092	13.497	0.039	-0.031
-391.077	181.594	0.377	-0.556
-390.063	89.019	0.283	-0.315
-389.048	-200.000	0.079	-0.567
-388.033	-125.391	0.619	0.095
-387.019	-200.000	0.017	-0.198
-386.004	9.889	-0.444	0.338
-384.990	101.161	-0.162	0.189
-383.975	-35.388	0.845	-0.461
-382.960	60.213	-0.379	-0.375
-381.946	-72.750	0.294	-0.109
-380.931	-36.198	-0.481	0.260
-379.917	-45.085	0.260	0.130
-378.902	800.000	0.128	0.398
-377.888	142.375	0.410	-0.546
-376.873	-82.816	-0.298	0.097
-375.858	-86.826	-0.517	0.158
-374.844	83.575	0.460	-0.502
-373.829	-200.000	-0.006	0.026
-372.815	246.872	-0.200	0.339
-371.800	383.229	0.331	0.682
-370.785	-9.810	-0.766	0.511
-369.771	258.572	0.369	-0.637
-368.756	197.835	0.405	0.619
-367.742	-66.261	0.219	-0.087
-366.727	187.879	-0.465	0.696
-365.712	39.310	0.301	0.270
-364.698	155.885	-0.296	-0.409
-363.683	14.670	-0.205	-0.160
-362.669	-43.676	0.398	-0.201
-361.654	-125.906	-0.859	-0.130
-360.639	589.699	-0.346	-0.854
-359.625	-66.603	0.346	-0.138
-358.610	324.941	-0.172	-0.329
-357.596	-31.149	-0.316	-0.178
-356.581	-200.000	-0.007	0.182
-355.566	65.599	-0.398	-0.403
-354.552	135.471	0.244	0.318
-353.537	82.854	0.348	0.379
-352.523	325.141	0.506	-0.970
-351.508	-200.000	-0.082	-0.396
-350.493	800.000	-0.189	0.810
-349.479	-182.324	0.767	0.014
-348.464	-46.010	0.522	-0.258
-347.450	-200.000	-0.010	0.332
-346.435	-44.278	0.776	0.390
-345.420	-200.000	-0.081	0.797
-344.406	328.233	0.128	-0.246
-343.391	220.540	-0.259	0.415
-342.377	-55.091	-0.166	-0.075
-341.362	341.986	-0.312	0.611
-340.348	-5.881	0.154	0.105
-339.333	264.528	-0.223	0.388
-338.318	-97.933	0.350	0.090
-337.304	104.412	-0.238	0.281
-336.289	-46.197	0.332	-0.164
-335.275	58.071	-0.263	-0.257
-334.260	63.506	-0.317	0.318
-333.245	-200.000	-0.001	-0.583
-332.231	22.018	0.448	0.366
-331.216	-200.000	-0.019	0.265
-330.202	-162.258	0.452	-0.023
-329.187	225.820	-0.304	0.492
-328.172	800.000	-0.125	0.457
-327.158	750.746	-0.319	0.861
-326.143	69.548	0.266	0.274
-325.129	60.513	0.700	0.693
-324.114	-200.000	-0.034	0.235
-323.099	-67.704	-0.499	0.195
-322.085	-16.982	-0.437	-0.276
-321.070	-200.000	-0.096	-0.738
-320.056	-66.524	-0.590	0.234
-319.041	38.307	0.084	0.075
-318.026	-200.000	-0.038	0.910
-317.012	-26.295	-0.400	0.235
-315.997	-200.000	0.016	-0.495
-314.983	136.876	-0.180	-0.235
-313.968	-182.991	0.050	-0.001
-312.953	-56.700	0.365	0.162
-311.939	-200.000	0.220	-1.064
-310.924	232.240	-0.666	1.093
-309.910	490.758	0.195	-0.446
-308.895	55.693	-0.279	-0.270
-307.880	78.685	0.151	-0.161
-306.866	-200.000	-0.008	-0.068
-305.851	89.204	0.592	-0.659
-304.837	-87.618	0.249	-0.075
-303.822	-200.000	0.105	0.540
-302.807	361.105	0.236	0.472
-301.793	140.703	-0.307	-0.405
-300.778	-3.319	-0.837	-0.583
-299.764	76.487	0.422	0.447
-298.749	-137.944	0.519	0.058
-297.735	-150.009	-1.232	-0.096
-296.720	197.719	-0.413	-0.630
-295.705	-154.211	0.233	0.016
-294.691	-200.000	0.102	-0.662
-293.676	-14.725	0.343	-0.220
-292.662	-200.000	0.013	-0.605
-291.647	-168.056	-0.784	0.031
-290.632	-200.000	-0.007	-0.248
-289.618	-153.843	0.347	-0.024
-288.603	-8.057	0.353	-0.238
-287.589	2.506	0.602	0.435
-286.574	-65.063	-0.871	-0.351
-285.559	-149.173	0.525	-0.042
-284.545	201.203	-0.323	0.496
-283.530	70.861	-0.291	0.301
-282.516	800.000	-0.186	0.565
-281.501	158.902	0.039	-0.055
-280.486	-102.020	-0.864	0.208
-279.472	-46.456	-0.226	0.111
-278.457	-46.807	-0.470	0.230
-277.443	78.974	-0.422	-0.451
-276.428	-200.000	0.003	-0.038
-275.413	-136.116	0.356	0.042
-274.399	-5.941	0.349	0.238
-273.384	34.251	-0.132	0.115
-272.370	-200.000	-0.014	0.115
-271.355	-57.422	-0.698	0.306
-270.340	-98.241	-0.218	-0.056
-269.326	108.540	-0.017	-0.020
-268.311	-43.351	-0.475	-0.240
-267.297	-18.406	0.332	-0.207
-266.282	-200.000	-0.079	0.590
-265.267	-66.085	0.360	0.143
-264.253	7.412	0.781	0.582
-263.238	-68.943	-0.158	-0.061
-262.224	800.000	-0.132	0.514
-261.209	-200.000	0.054	-0.617
-260.195	-200.000	-0.097	-0.685
-259.180	-4.812	-0.128	0.088
-258.165	-79.747	-1.019	-0.343
-257.151	-200.000	-0.092	0.770
-256.136	-112.116	0.113	-0.023
-255.122	355.279	0.116	-0.230
-254.107	-200.000	0.079	-1.003
-253.092	-31.055	0.433	-0.244
-252.078	9.211	-0.575	-0.434
-251.063	106.549	0.214	0.253
-250.049	-136.519	0.259	-0.030
-249.034	106.369	-0.685	0.810
-248.019	-61.618	0.947	-0.396
-247.005	51.549	0.491	-0.465
-245.990	120.954	0.133	0.165
-244.976	579.515	-0.148	0.361
-243.961	218.900	0.313	0.499
-242.946	-59.284	-0.444	-0.191
-241.932	39.209	0.204	-0.182
-240.917	35.521	0.771	0.675
-239.903	4.081	-0.895	0.653
-238.888	-29.666	-0.708	-0.403
-237.873	59.631	-0.479	-0.471
-236.859	-200.000	0.058	-0.339
-235.844	53.138	0.175	-0.167
-234.830	-9.328	-1.052	0.701
-233.815	-49.930	0.463	-0.219
-232.800	22.043	-0.159	-0.130
-231.786	344.647	-0.179	-0.350
-230.771	29.895	0.290	0.247
-229.757	-68.462	-0.224	0.087
-228.742	800.000	-0.155	-0.588
-227.727	-123.888	0.861	-0.135
-226.713	-94.878	0.813	0.219
-225.698	303.808	0.245	-0.453
-224.684	-38.258	0.390	-0.206
-223.669	283.272	-0.096	-0.171
-222.655	800.000	0.131	0.551
-221.640	-128.194	-0.078	0.011
-220.625	-69.133	-0.471	-0.181
-219.611	-28.368	-0.690	0.397
-218.596	-200.000	-0.109	0.806
-217.582	36.319	0.731	-0.642
-216.567	0.233	-0.401	-0.285
-215.552	30.985	-0.283	-0.242
-214.538	800.000	-0.164	0.458
-213.523	-200.000	-0.045	-0.218
-212.509	-106.074	-0.485	0.108
-211.494	405.182	0.340	-0.714
-210.479	208.794	0.198	0.308
-209.465	-66.883	-0.543	0.214
-208.450	21.281	-0.322	0.260
-207.436	800.000	0.410	1.676
-206.421	-200.000	-0.009	-0.089
-205.406	-200.000	-0.090	-0.962
-204.392	9.805	-0.522	0.394
-203.377	-13.265	-0.547	0.354
-202.363	800.000	0.235	0.809
-201.348	-134.920	0.016	-0.002
-200.333	33.044	-0.493	0.425
-199.319	-200.000	-0.072	0.379
-198.304	213.449	-0.389	-0.611
-197.290	-200.000	0.035	0.518
-196.275	-162.633	-0.674	0.033
-195.260	800.000	0.270	-0.743
-194.246	-126.314	0.619	0.092
-193.231	-28.578	1.117	-0.640
-192.217	479.798	0.425	-0.958
-191.202	-119.638	-0.551	-0.095
-190.187	-7.969	-0.467	0.313
-189.173	140.418	0.350	0.460
-188.158	381.662	-0.444	0.907
-187.144	-120.078	0.373	-0.064
-186.129	418.905	0.189	0.402
-185.114	-200.000	0.009	-0.520
-184.100	-89.477	1.180	-0.345
-183.085	244.695	0.432	0.722
-182.071	76.173	0.392	-0.413
-181.056	-22.010	-0.599	-0.362
-180.042	800.000	-0.214	0.787
-179.027	137.312	-0.477	0.621
-178.012	-146.826	0.826	-0.071
-176.998	-200.000	0.140	-0.679
-175.983	-200.000	0.010	-0.165
-174.969	166.233	-0.317	-0.447
-173.954	-58.290	0.294	-0.127
-172.939	-200.000	-0.101	0.653
-171.925	-9.028	1.091	0.726
-170.910	800.000	0.081	-0.335
-169.896	18.850	-0.234	0.186
-168.881	257.171	-0.195	0.333
-167.866	309.900	-0.153	0.285
-166.852	12.979	-0.175	0.134
-165.837	149.909	0.234	-0.315
-164.823	-200.000	0.026	0.249
-163.808	800.000	0.065	-0.222
-162.793	-17.911	0.361	-0.225
-161.779	54.844	-0.577	0.554
-160.764	800.000	0.178	0.705
-159.750	-134.880	0.931	0.112
-158.735	-136.334	-0.701	0.081
-157.720	199.557	0.249	-0.379
-156.706	206.660	-0.235	-0.364
-155.691	-9.013	-0.510	-0.340
-154.677	154.501	0.402	0.549
-153.662	-200.000	-0.033	-0.288
-152.647	364.136	-0.145	-0.291
-151.633	7.206	0.634	-0.471
-150.618	800.000	0.095	-0.365
-149.604	-124.737	-0.272	-0.042
-148.589	-116.787	0.639	-0.116
-147.574	800.000	0.206	-0.814
-146.560	129.030	0.424	0.537
-145.545	-200.000	0.033	-0.454
-144.531	281.826	0.019	-0.034
-143.516	88.041	0.184	-0.203
-142.502	-71.287	-0.594	0.221
-141.487	-24.862	-0.378	0.223
-140.472	-200.000	-0.168	1.153
-139.458	-200.000	-0.376	0.002
-138.443	-200.000	0.036	0.660
-137.429	54.530	-0.116	0.111
-136.414	-93.320	0.422	-0.116
-135.399	-26.760	-0.239	0.139
-134.385	200.986	-0.262	-0.401
-133.370	-109.207	0.408	-0.086
-132.356	17.595	-0.304	0.240
-131.341	138.460	0.452	0.588
-130.326	-4.932	-0.362	-0.248
-129.312	-200.000	0.147	-0.776
-128.297	-200.000	0.021	0.152
-127.283	800.000	-0.128	-0.478
-126.268	-200.000	0.012	-0.061
-125.253	68.524	0.373	-0.380
-124.239	-200.000	0.059	-0.458
-123.224	-157.500	-0.370	0.022
-122.210	740.492	-0.215	-0.573
