DTS Sentinel unit serial number:	SN413079Multiplexer serial number:	ORYXHardware model number:	OX4-SRSoftware version number:	ORYX F/W v4.00 Oryx Data Collector v3.7.2.0data status	okinstallation	princeton_trtdifferential loss correction	single-endedforward channel	channel 4reverse channel	N/Adate	2019/09/15time	04:33:35forward acquisition time	60.00reverse acquisition time	0.00gamma	496.2192k internal	0.2311k external	0.2311temperature offset calibration	1.0029default loss term (dB/km)	0.3790temperature slope calibration	1.0000multiplexer offset coefficient	1.0000multiplexer slope coefficient	1.0000fibre end	0.00T internal ref (°C)	30.87T ext. ref 1 (°C)	4.69T ext. ref 2 (°C)	25.47length (m)	temperature (°C)	Stokes	anti-Stokes-747.200	-16.455	-0.262	-0.169
-746.185	-200.000	0.004	-0.069
-745.171	125.926	-0.182	-0.233
-744.156	463.596	0.129	0.293
-743.142	-27.654	-0.212	-0.125
-742.127	5.443	-0.475	0.356
-741.112	-75.712	-0.110	0.040
-740.098	304.264	0.124	0.233
-739.083	91.591	0.063	-0.071
-738.069	-93.345	-0.040	0.011
-737.054	-48.489	-0.262	0.128
-736.039	34.239	0.141	0.125
-735.025	274.299	0.080	-0.143
-734.010	-49.012	-0.293	0.142
-732.996	-138.815	-0.225	-0.025
-731.981	-200.000	-0.013	0.083
-730.966	64.837	0.229	-0.235
-729.952	308.531	0.147	-0.279
-728.937	392.939	-0.080	-0.168
-727.923	-79.033	0.382	0.132
-726.908	-109.287	-0.124	-0.027
-725.894	-61.441	0.137	0.059
-724.879	-29.433	-0.165	0.096
-723.864	62.494	0.172	-0.174
-722.850	64.885	-0.163	0.167
-721.835	-52.462	0.124	-0.058
-720.821	800.000	0.027	-0.095
-719.806	766.315	-0.100	0.275
-718.791	-107.557	-0.255	-0.057
-717.777	-50.099	0.130	-0.063
-716.762	-200.000	0.007	0.143
-715.748	-92.079	-0.149	-0.043
-714.733	751.668	0.093	-0.256
-713.718	217.819	-0.283	-0.458
-712.704	-200.000	0.025	0.288
-711.689	-124.932	0.236	-0.037
-710.675	-86.355	-0.131	-0.041
-709.660	-148.554	0.292	-0.024
-708.645	-97.115	0.495	-0.131
-707.631	-18.271	-0.101	-0.064
-706.616	9.618	-0.400	-0.308
-705.602	3.266	-0.121	-0.089
-704.587	-200.000	-0.066	-0.365
-703.572	-115.387	0.296	0.057
-702.558	-200.000	0.023	-0.157
-701.543	381.272	0.172	-0.357
-700.529	-51.432	-0.274	-0.130
-699.514	27.050	-0.103	0.087
-698.499	509.736	0.106	-0.249
-697.485	117.740	-0.087	-0.109
-696.470	-106.851	-0.086	0.019
-695.456	54.683	-0.202	-0.198
-694.441	-200.000	-0.006	0.142
-693.426	-200.000	0.007	0.253
-692.412	-117.796	0.269	-0.049
-691.397	-200.000	-0.001	-0.021
-690.383	800.000	0.028	0.100
-689.368	-200.000	-0.016	-0.200
-688.354	107.182	0.135	-0.162
-687.339	-200.000	0.011	-0.164
-686.324	-60.731	0.144	0.062
-685.310	78.888	0.083	0.090
-684.295	800.000	-0.043	-0.189
-683.281	-109.876	-0.479	-0.102
-682.266	-87.916	-0.409	-0.125
-681.251	-200.000	-0.002	0.109
-680.237	800.000	0.048	-0.189
-679.222	-90.432	-0.137	-0.040
-678.208	-92.061	-0.185	-0.053
-677.193	-200.000	0.023	0.170
-676.178	800.000	0.034	0.147
-675.164	800.000	0.088	-0.368
-674.149	-200.000	-0.002	-0.357
-673.135	429.243	-0.144	-0.315
-672.120	159.383	-0.086	0.121
-671.105	-200.000	0.003	0.020
-670.091	800.000	-0.162	0.649
-669.076	-173.700	-0.240	-0.007
-668.062	-176.184	0.269	-0.007
-667.047	238.680	0.176	-0.296
-666.032	-164.228	0.050	0.002
-665.018	-56.758	-0.111	-0.049
-664.003	800.000	-0.039	-0.127
-662.989	31.656	0.161	0.140
-661.974	-200.000	0.004	-0.151
-660.959	-200.000	-0.028	0.284
-659.945	169.748	-0.264	0.381
-658.930	56.963	0.058	-0.057
-657.916	-113.297	0.130	-0.026
-656.901	-29.630	-0.303	0.175
-655.886	-69.475	0.291	0.113
-654.872	-174.088	-0.335	-0.010
-653.857	-200.000	0.052	0.387
-652.843	363.445	-0.244	0.497
-651.828	-200.000	-0.019	-0.096
-650.814	-200.000	0.014	0.212
-649.799	-154.506	-0.336	-0.023
-648.784	-48.066	-0.263	0.129
-647.770	-125.212	0.171	-0.026
-646.755	-119.409	-0.169	0.030
-645.741	41.412	-0.235	0.215
-644.726	8.779	0.152	-0.116
-643.711	-117.412	0.262	-0.048
-642.697	51.917	0.065	-0.063
-641.682	-200.000	-0.043	-0.208
-640.668	161.870	0.095	-0.135
-639.653	-108.931	0.031	0.007
-638.638	-51.735	0.083	-0.039
-637.624	90.309	0.116	-0.131
-636.609	-84.803	0.105	0.033
-635.595	-109.272	-0.255	-0.055
-634.580	-81.723	0.308	0.102
-633.565	-26.033	-0.190	-0.113
-632.551	205.531	0.069	0.108
-631.536	-36.596	-0.119	-0.065
-630.522	-70.601	0.307	0.117
-629.507	-90.099	-0.284	0.084
-628.492	-154.987	0.565	0.038
-627.478	467.878	-0.023	0.052
-626.463	255.073	0.082	0.141
-625.449	800.000	-0.022	-0.071
-624.434	-80.910	-0.238	0.080
-623.419	-200.000	-0.006	-0.074
-622.405	170.712	-0.183	0.264
-621.390	-3.315	0.284	0.200
-620.376	718.157	0.074	-0.200
-619.361	-83.661	-0.176	-0.057
-618.346	-88.669	0.038	0.011
-617.332	-200.000	-0.033	0.332
-616.317	7.901	-0.137	0.104
-615.303	55.944	-0.156	-0.153
-614.288	-200.000	-0.077	0.468
-613.273	164.303	-0.099	0.141
-612.259	-82.649	0.276	-0.090
-611.244	-128.351	0.313	-0.045
-610.230	2.174	0.258	0.188
-609.215	24.782	-0.196	-0.164
-608.201	212.138	0.133	0.212
-607.186	5.151	0.244	0.182
-606.171	-200.000	0.008	0.073
-605.157	-14.603	0.316	-0.205
-604.142	314.261	0.123	0.235
-603.128	-200.000	-0.072	0.372
-602.113	8.495	0.121	-0.092
-601.098	-1.164	-0.142	-0.101
-600.084	-0.472	-0.164	-0.118
-599.069	603.617	-0.024	-0.059
-598.055	59.592	-0.030	-0.030
-597.040	-131.508	-0.340	-0.045
-596.025	-135.734	0.086	0.010
-595.011	-108.242	-0.301	0.066
-593.996	374.468	-0.135	0.278
-592.982	-63.478	-0.211	-0.087
-591.967	-124.154	-0.258	0.041
-590.952	220.558	0.105	0.170
-589.938	-96.911	-0.120	0.032
-588.923	543.948	0.087	-0.208
-587.909	-200.000	0.022	-0.221
-586.894	30.821	0.196	-0.169
-585.879	140.124	-0.103	-0.137
-584.865	-87.632	-0.257	-0.078
-583.850	85.298	0.334	0.370
-582.836	-200.000	0.024	-0.306
-581.821	-141.145	-0.120	0.012
-580.806	80.985	-0.212	-0.231
-579.792	293.553	-0.115	-0.211
-578.777	167.866	0.138	-0.198
-577.763	-38.661	-0.147	0.078
-576.748	25.398	0.176	0.148
-575.733	-46.556	-0.077	0.038
-574.719	302.367	0.127	0.236
-573.704	-200.000	0.011	0.087
-572.690	800.000	0.114	-0.429
-571.675	-38.855	-0.205	-0.109
-570.661	15.563	-0.253	0.200
-569.646	96.836	-0.266	-0.307
-568.631	34.870	-0.103	0.091
-567.617	43.651	-0.208	-0.192
-566.602	-200.000	-0.051	0.512
-565.588	473.045	0.083	0.189
-564.573	90.700	0.164	-0.185
-563.558	38.910	0.084	0.075
-562.544	-9.898	0.234	0.157
-561.529	-54.359	0.194	0.089
-560.515	-200.000	-0.070	0.320
-559.500	-6.251	-0.175	-0.121
-558.485	15.593	0.181	-0.144
-557.471	-101.933	0.219	0.053
-556.456	-34.831	0.068	-0.038
-555.442	-90.784	0.284	-0.083
-554.427	-125.403	-0.324	0.050
-553.412	51.766	0.080	0.076
-552.398	-200.000	-0.003	-0.055
-551.383	-74.517	-0.184	-0.067
-550.369	71.199	0.133	-0.139
-549.354	-200.000	0.021	-0.128
-548.339	111.981	-0.147	-0.178
-547.325	236.354	-0.136	-0.228
-546.310	490.355	-0.082	-0.190
-545.296	-200.000	-0.044	-0.251
-544.281	20.620	-0.107	0.087
-543.266	124.910	-0.199	-0.253
-542.252	-47.891	0.260	-0.127
-541.237	-12.500	-0.220	0.145
-540.223	-124.653	-0.184	0.029
-539.208	-200.000	0.010	0.163
-538.193	-200.000	-0.027	0.272
-537.179	-163.011	-0.307	0.015
-536.164	473.792	-0.107	0.244
-535.150	130.563	-0.147	0.190
-534.135	-200.000	0.038	-0.179
-533.121	10.363	0.295	-0.226
-532.106	70.672	0.128	0.133
-531.091	-200.000	-0.029	-0.455
-530.077	29.119	0.239	0.204
-529.062	374.711	-0.048	0.099
-528.048	-53.647	-0.028	-0.013
-527.033	-108.760	-0.173	-0.037
-526.018	537.608	0.105	0.252
-525.004	-200.000	-0.019	0.272
-523.989	-119.985	-0.201	-0.035
-522.975	-79.262	0.091	-0.031
-521.960	-200.000	-0.021	0.155
-520.945	800.000	0.032	0.119
-519.931	-8.657	-0.189	-0.128
-518.916	-169.177	-0.215	0.008
-517.902	-101.279	0.332	-0.082
-516.887	101.510	-0.084	0.098
-515.872	134.028	-0.236	0.308
-514.858	3.910	-0.078	0.058
-513.843	-19.219	-0.297	-0.185
-512.829	41.373	0.023	0.021
-511.814	137.904	-0.101	0.134
-510.799	490.539	-0.105	0.243
-509.785	314.606	0.187	-0.354
-508.770	48.287	-0.212	-0.200
-507.756	146.041	0.033	0.045
-506.741	503.252	-0.152	0.353
-505.726	-152.499	-0.051	0.004
-504.712	800.000	-0.043	0.157
-503.697	-200.000	0.027	-0.166
-502.683	763.770	-0.151	-0.413
-501.668	324.716	-0.087	0.166
-500.653	-200.000	-0.019	0.101
-499.639	800.000	-0.023	-0.097
-498.624	-200.000	0.034	0.184
-497.610	-90.878	0.396	-0.115
-496.595	-13.985	0.099	-0.065
-495.581	-102.591	-0.222	0.053
-494.566	70.765	0.122	-0.127
-493.551	-143.930	0.212	-0.020
-492.537	13.909	-0.141	-0.111
-491.522	800.000	-0.019	-0.080
-490.508	-200.000	-0.001	0.052
-489.493	192.885	-0.187	-0.284
-488.478	-56.485	-0.234	-0.104
-487.464	39.727	0.077	0.069
-486.449	-168.290	0.294	-0.011
-485.435	82.509	0.168	0.183
-484.420	-123.604	-0.038	0.006
-483.405	-200.000	0.010	0.135
-482.391	124.368	-0.023	0.029
-481.376	75.503	0.215	0.228
-480.362	355.377	0.132	-0.263
-479.347	14.179	-0.068	-0.054
-478.332	800.000	-0.067	-0.204
-477.318	479.709	0.149	-0.339
-476.303	-200.000	-0.030	-0.265
-475.289	264.154	-0.059	0.104
-474.274	-94.722	-0.245	-0.067
-473.259	101.571	-0.161	0.188
-472.245	5.787	-0.084	-0.063
-471.230	480.751	0.066	-0.150
-470.216	-106.584	-0.091	-0.020
-469.201	104.576	0.132	-0.157
-468.186	391.958	0.071	0.148
-467.172	14.984	-0.276	-0.217
-466.157	-200.000	-0.004	-0.133
-465.143	23.648	-0.433	-0.358
-464.128	116.203	0.048	-0.059
-463.113	-99.687	-0.142	0.036
-462.099	260.044	0.162	0.282
-461.084	-200.000	0.011	0.074
-460.070	-47.027	0.310	0.152
-459.055	-76.819	-0.239	0.084
-458.040	-59.268	-0.162	0.070
-457.026	58.066	-0.085	0.083
-456.011	-200.000	0.001	0.147
-454.997	-171.574	0.155	0.005
-453.982	-100.688	-0.265	-0.066
-452.968	129.269	0.109	-0.140
-451.953	-121.910	-0.187	0.031
-450.938	-161.263	-0.167	0.009
-449.924	-60.708	0.394	-0.168
-448.909	-200.000	0.021	0.488
-447.895	-200.000	0.009	0.347
-446.880	-2.080	-0.076	-0.054
-445.865	554.964	0.113	-0.273
-444.851	-51.611	-0.253	0.118
-443.836	-26.430	-0.078	0.046
-442.822	1.955	0.072	0.052
-441.807	-150.541	0.288	0.022
-440.792	29.460	0.157	-0.134
-439.778	-200.000	0.010	0.227
-438.763	-42.659	-0.163	0.083
-437.749	600.779	-0.031	0.077
-436.734	-95.873	0.373	0.100
-435.719	-161.481	-0.382	0.020
-434.705	-163.146	0.309	0.015
-433.690	-14.315	-0.166	-0.107
-432.676	-200.000	-0.040	-0.262
-431.661	254.744	-0.067	0.114
-430.646	-31.078	0.145	-0.082
-429.632	196.317	-0.137	0.209
-428.617	-93.156	0.079	-0.022
-427.603	800.000	-0.123	-0.344
-426.588	-94.154	-0.203	-0.056
-425.573	-74.852	-0.254	-0.091
-424.559	-13.723	-0.053	0.034
-423.544	-114.847	0.346	-0.066
-422.530	-200.000	-0.004	-0.353
-421.515	-55.541	0.104	-0.047
-420.500	19.780	-0.161	0.130
-419.486	122.648	-0.123	-0.154
-418.471	-46.502	0.293	0.144
-417.457	-138.377	0.099	0.011
-416.442	402.021	-0.018	0.039
-415.428	-86.369	-0.202	0.062
-414.413	-200.000	0.005	0.041
-413.398	-200.000	-0.009	0.249
-412.384	-45.167	0.171	-0.085
-411.369	64.680	0.255	-0.258
-410.355	-200.000	0.008	0.072
-409.340	-44.437	-0.167	0.084
-408.325	-73.119	0.292	0.107
-407.311	-141.256	0.346	-0.035
-406.296	-121.354	-0.248	0.041
-405.282	404.669	0.050	-0.105
-404.267	90.302	-0.036	0.041
-403.252	800.000	-0.065	-0.240
-402.238	800.000	-0.075	0.211
-401.223	-200.000	0.003	0.151
-400.209	800.000	0.060	0.205
-399.194	43.792	-0.241	0.221
-398.179	290.220	0.122	0.221
-397.165	-200.000	-0.041	0.220
-396.150	-103.413	-0.102	0.024
-395.136	32.309	-0.130	-0.112
-394.121	-200.000	-0.005	-0.125
-393.106	-200.000	-0.014	0.363
-392.092	800.000	-0.076	0.263
-391.077	742.224	0.055	-0.149
-390.063	217.806	-0.147	0.234
-389.048	-109.444	0.167	-0.035
-388.033	-69.465	0.246	0.095
-387.019	-71.686	-0.338	0.126
-386.004	-1.981	-0.222	-0.156
-384.990	-84.514	-0.186	-0.059
-383.975	-3.912	-0.434	0.301
-382.960	174.588	0.128	0.185
-381.946	-138.854	-0.309	-0.034
-380.931	800.000	0.080	-0.277
-379.917	-200.000	-0.006	0.028
-378.902	-71.311	0.381	0.143
-377.888	101.750	0.201	0.235
-376.873	-138.710	-0.180	0.020
-375.858	-144.949	-0.264	0.024
-374.844	-60.173	-0.240	0.102
-373.829	7.911	-0.223	0.167
-372.815	-86.229	0.515	-0.159
-371.800	121.487	-0.118	-0.147
-370.785	-101.639	-0.199	-0.048
-369.771	81.745	-0.174	0.189
-368.756	-96.688	-0.077	0.020
-367.742	-60.542	0.175	-0.074
-366.727	800.000	0.019	-0.075
-365.712	-200.000	0.055	-0.287
-364.698	343.831	-0.163	-0.319
-363.683	22.584	0.033	0.027
-362.669	5.268	-0.059	0.043
-361.654	71.100	-0.123	0.127
-360.639	-123.468	0.353	0.056
-359.625	-200.000	0.028	-0.152
-358.610	360.784	0.064	-0.128
-357.596	297.226	-0.102	0.187
-356.581	-109.305	0.238	0.050
-355.566	-93.541	-0.011	0.003
-354.552	800.000	0.105	-0.314
-353.537	222.721	-0.060	0.097
-352.523	-5.549	0.142	-0.097
-351.508	-151.570	0.150	0.011
-350.493	-114.325	-0.322	0.062
-349.479	462.508	0.048	0.106
-348.464	-103.862	-0.673	0.157
-347.450	3.403	0.256	-0.186
-346.435	-132.659	-0.116	-0.015
-345.420	111.704	0.074	0.089
-344.406	55.662	0.132	0.128
-343.391	392.503	-0.093	0.194
-342.377	83.204	0.084	0.091
-341.362	-46.068	0.128	0.063
-340.348	-140.639	0.376	-0.039
-339.333	231.132	0.043	-0.070
-338.318	-34.664	0.241	-0.132
-337.304	55.793	0.201	-0.195
-336.289	-80.568	-0.153	0.051
-335.275	-200.000	-0.341	0.001
-334.260	39.606	-0.266	0.238
-333.245	70.803	0.052	0.054
-332.231	175.549	0.102	-0.148
-331.216	152.651	0.195	-0.266
-330.202	-200.000	0.071	0.347
-329.187	276.026	-0.042	-0.075
-328.172	-174.399	-0.202	0.006
-327.158	-200.000	-0.048	0.304
-326.143	-143.073	-0.247	-0.024
-325.129	624.284	0.060	0.151
-324.114	-200.000	-0.024	0.156
-323.099	-200.000	0.022	0.207
-322.085	-156.077	0.371	0.023
-321.070	-90.038	0.046	-0.013
-320.056	277.554	-0.054	-0.095
-319.041	13.964	0.114	0.089
-318.026	-67.805	0.105	0.041
-317.012	-61.549	0.162	-0.068
-315.997	-81.219	-0.129	0.042
-314.983	236.251	-0.219	-0.362
-313.968	-90.836	0.172	-0.049
-312.953	150.218	0.066	0.090
-311.939	-200.000	0.031	0.308
-310.924	10.843	-0.184	0.140
-309.910	-102.180	0.309	-0.074
-308.895	-45.330	0.148	-0.074
-307.880	187.271	-0.295	-0.439
-306.866	648.601	0.037	0.094
-305.851	19.701	0.315	0.253
-304.837	158.249	0.211	-0.292
-303.822	605.605	0.005	0.013
-302.807	184.621	-0.132	0.195
-301.793	-129.424	0.209	0.029
-300.778	357.372	0.192	0.381
-299.764	-144.183	-0.516	-0.048
-298.749	442.694	0.108	-0.237
-297.735	800.000	-0.048	-0.197
-296.720	82.500	0.205	0.222
-295.705	324.185	0.116	-0.221
-294.691	460.961	0.086	-0.191
-293.676	-26.058	0.156	0.092
-292.662	549.098	0.116	-0.277
-291.647	-200.000	0.043	0.292
-290.632	-73.979	0.119	-0.043
-289.618	-200.000	0.008	-0.160
-288.603	67.841	0.031	0.032
-287.589	108.931	0.055	-0.066
-286.574	486.690	0.007	-0.016
-285.559	-93.064	0.155	0.043
-284.545	-200.000	-0.005	-0.068
-283.530	-72.981	-0.121	-0.044
-282.516	42.563	-0.223	0.203
-281.501	214.698	-0.104	-0.165
-280.486	-13.497	0.215	0.139
-279.472	77.613	-0.215	0.228
-278.457	-200.000	0.011	-0.174
-277.443	613.595	0.125	-0.313
-276.428	-83.295	0.164	-0.052
-275.413	-112.697	-0.223	-0.044
-274.399	-84.404	-0.078	-0.025
-273.384	800.000	0.048	0.143
-272.370	676.735	-0.064	0.166
-271.355	-46.307	0.277	-0.136
-270.340	-200.000	0.018	-0.238
-269.326	-54.077	-0.208	-0.094
-268.311	-153.962	-0.323	0.022
-267.297	-200.000	0.013	0.327
-266.282	-200.000	0.006	0.229
-265.267	62.905	-0.048	-0.048
-264.253	-17.550	0.111	0.069
-263.238	800.000	-0.090	-0.270
-262.224	-64.186	-0.065	0.026
-261.209	-19.742	-0.130	-0.080
-260.195	27.358	0.029	-0.024
-259.180	800.000	0.007	0.020
-258.165	459.287	0.069	-0.153
-257.151	800.000	-0.039	-0.128
-256.136	24.650	-0.139	-0.114
-255.122	470.656	0.031	0.070
-254.107	-66.695	0.182	-0.072
-253.092	-60.113	0.121	0.052
-252.078	351.780	0.052	0.102
-251.063	-76.673	0.226	-0.079
-250.049	-41.127	0.198	-0.102
-249.034	-19.739	-0.196	-0.121
-248.019	-107.184	-0.255	-0.056
-247.005	36.871	0.081	-0.071
-245.990	-12.983	0.230	0.149
-244.976	-133.361	0.421	-0.053
-243.961	-177.444	0.108	0.003
-242.946	-69.651	-0.082	-0.031
-241.932	28.272	-0.090	-0.075
-240.917	-112.970	-0.166	0.033
-239.903	-150.186	0.130	0.010
-238.888	-63.953	-0.215	0.087
-237.873	-200.000	-0.004	-0.132
-236.859	659.293	0.057	0.145
-235.844	44.203	0.117	-0.107
-234.830	584.200	-0.011	-0.026
-233.815	-82.672	0.161	-0.052
-232.800	-200.000	-0.011	-0.232
-231.786	176.151	0.121	0.174
-230.771	-79.280	0.344	0.116
-229.757	-61.608	0.048	-0.020
-228.742	702.604	-0.097	-0.253
-227.727	163.572	-0.080	0.112
-226.713	-49.168	0.418	-0.199
-225.698	-200.000	-0.009	-0.280
-224.684	143.811	0.215	0.285
-223.669	-117.877	-0.134	0.024
-222.655	542.093	0.078	-0.184
-221.640	211.887	0.158	-0.247
-220.625	180.075	-0.184	-0.268
-219.611	5.712	-0.115	-0.085
-218.596	120.918	0.129	-0.160
-217.582	-58.470	0.126	-0.054
-216.567	-15.053	0.257	0.164
-215.552	26.868	-0.140	-0.117
-214.538	601.747	0.091	-0.226
-213.523	-200.000	0.015	-0.167
-212.509	-4.077	-0.365	0.252
-211.494	266.405	0.146	0.253
-210.479	-200.000	0.044	0.250
-209.465	-200.000	-0.041	-0.254
-208.450	-200.000	-0.019	0.146
-207.436	-31.172	0.348	0.195
-206.421	-81.229	0.152	-0.050
-205.406	39.012	-0.193	-0.172
-204.392	800.000	0.094	-0.395
-203.377	352.675	0.114	-0.224
-202.363	-121.413	0.096	0.016
-201.348	0.021	-0.264	0.187
-200.333	-200.000	0.011	0.467
-199.319	-118.306	0.149	-0.026
-198.304	29.277	-0.246	0.208
-197.290	-47.632	0.043	-0.021
-196.275	64.083	0.073	0.073
-195.260	-60.380	-0.290	0.123
-194.246	-92.408	-0.131	0.037
-193.231	46.413	0.264	-0.243
-192.217	-9.527	0.459	-0.304
-191.202	106.114	-0.114	-0.134
-190.187	-53.850	-0.148	0.067
-189.173	-68.293	0.326	-0.126
-188.158	-64.800	-0.200	-0.080
-187.144	800.000	0.141	0.473
-186.129	-52.410	-0.255	0.117
-185.114	32.254	-0.291	-0.249
-184.100	134.137	0.048	-0.062
-183.085	174.235	-0.110	-0.158
-182.071	-75.626	0.082	-0.029
-181.056	180.610	-0.110	-0.161
-180.042	96.642	0.026	-0.029
-179.027	-130.816	0.238	-0.032
-178.012	38.608	0.140	0.124
-176.998	134.225	-0.079	0.101
-175.983	558.556	-0.019	0.045
-174.969	-27.037	-0.403	0.233
-173.954	-2.313	-0.195	-0.136
-172.939	-200.000	0.010	0.068
-171.925	155.213	-0.284	-0.388
-170.910	-171.989	0.337	-0.011
-169.896	8.484	0.197	0.147
-168.881	94.694	-0.097	0.110
-167.866	405.696	0.083	-0.173
-166.852	-125.773	0.172	0.026
-165.837	-80.694	0.197	0.065
-164.823	62.362	0.322	-0.319
-163.808	6.051	0.188	0.138
-162.793	-159.706	0.103	-0.006
-161.779	331.325	0.085	-0.163
-160.764	-101.025	-0.297	0.072
-159.750	-93.337	-0.063	0.017
-158.735	-200.000	0.006	-0.026
-157.720	55.751	-0.123	0.118
-156.706	-77.193	0.202	-0.070
-155.691	-200.000	0.023	0.302
-154.677	-185.858	-0.069	0.001
-153.662	353.766	-0.067	-0.133
-152.647	-28.361	-0.111	-0.064
-151.633	277.781	0.032	-0.057
-150.618	-32.063	0.138	0.076
-149.604	-155.056	0.267	0.017
-148.589	9.331	0.223	-0.168
-147.574	-29.003	0.064	0.036
-146.560	113.033	0.087	0.105
-145.545	-200.000	0.160	-0.001
-144.531	143.946	-0.040	0.053
-143.516	-43.182	0.149	-0.075
-142.502	800.000	0.025	0.104
-141.487	-200.000	0.082	-0.358
-140.472	620.967	0.036	0.090
-139.458	-31.376	-0.260	-0.145
-138.443	-25.357	0.296	0.173
-137.429	82.499	0.312	0.336
-136.414	-34.007	-0.173	-0.094
-135.399	800.000	0.037	-0.152
-134.385	3.163	0.328	0.237
-133.370	84.577	-0.042	-0.046
-132.356	30.427	-0.054	-0.046
-131.341	-28.455	-0.181	0.103
-130.326	800.000	-0.097	-0.282
-129.312	155.231	-0.135	0.185
-128.297	-129.936	-0.091	-0.012
-127.283	-65.568	0.273	0.109
-126.268	-200.000	-0.037	0.201
-125.253	-12.171	0.465	0.302
-124.239	-135.889	-0.241	-0.028
-123.224	121.061	-0.256	-0.315
-122.210	255.551	0.081	0.137
-121.195	31.883	-0.175	0.149
-120.180	-149.344	0.091	-0.007
