DTS Sentinel unit serial number:	SN413079Multiplexer serial number:	ORYXHardware model number:	OX4-SRSoftware version number:	ORYX F/W v4.00 Oryx Data Collector v3.7.2.0data status	okinstallation	princeton_trtdifferential loss correction	single-endedforward channel	channel 4reverse channel	N/Adate	2019/09/18time	07:05:35forward acquisition time	60.00reverse acquisition time	0.00gamma	496.2192k internal	0.2333k external	0.2333temperature offset calibration	0.9994default loss term (dB/km)	0.3790temperature slope calibration	1.0000multiplexer offset coefficient	1.0000multiplexer slope coefficient	1.0000fibre end	0.00T internal ref (°C)	23.19T ext. ref 1 (°C)	0.18T ext. ref 2 (°C)	17.27length (m)	temperature (°C)	Stokes	anti-Stokes-747.200	225.932	-0.121	-0.198
-746.185	-71.940	-0.143	0.053
-745.171	73.122	-0.104	0.109
-744.156	-200.000	0.004	0.037
-743.142	201.112	-0.119	0.184
-742.127	-38.699	0.245	0.130
-741.112	-200.000	0.051	0.268
-740.098	-77.868	-0.259	0.090
-739.083	-171.102	0.231	0.008
-738.069	-22.857	-0.173	-0.105
-737.054	45.758	-0.276	-0.256
-736.039	-35.905	-0.194	-0.106
-735.025	456.871	-0.037	-0.082
-734.010	61.990	-0.025	-0.025
-732.996	-91.109	-0.163	-0.047
-731.981	420.362	-0.056	0.121
-730.966	115.878	-0.129	-0.158
-729.952	800.000	0.071	0.233
-728.937	118.432	0.225	-0.279
-727.923	113.091	-0.115	0.140
-726.908	137.614	0.075	0.098
-725.894	17.702	-0.247	0.197
-724.879	60.873	0.063	0.063
-723.864	30.536	-0.162	-0.139
-722.850	484.113	-0.039	0.089
-721.835	308.045	-0.065	-0.122
-720.821	800.000	0.020	0.063
-719.806	167.833	0.116	-0.166
-718.791	201.002	0.178	-0.275
-717.777	-38.218	-0.096	-0.051
-716.762	152.768	0.137	0.188
-715.748	-92.898	-0.387	-0.109
-714.733	800.000	-0.093	0.294
-713.718	434.798	-0.165	-0.361
-712.704	-200.000	0.109	-0.605
-711.689	-200.000	0.003	0.568
-710.675	800.000	0.087	-0.368
-709.660	119.701	-0.057	-0.071
-708.645	638.270	-0.093	-0.238
-707.631	-113.644	0.123	-0.024
-706.616	-4.180	0.399	0.277
-705.602	-65.829	-0.170	-0.068
-704.587	-200.000	0.016	0.112
-703.572	-200.000	0.010	0.143
-702.558	-44.084	-0.161	0.081
-701.543	3.006	0.105	-0.076
-700.529	-40.042	0.195	-0.102
-699.514	-128.783	-0.684	0.097
-698.499	-50.229	0.149	-0.071
-697.485	-200.000	0.009	-0.096
-696.470	-200.000	-0.026	-0.304
-695.456	-5.825	0.139	-0.096
-694.441	197.269	0.075	0.114
-693.426	221.517	-0.195	0.314
-692.412	-200.000	0.048	0.269
-691.397	-5.184	0.071	0.049
-690.383	-73.848	-0.324	-0.118
-689.368	-154.843	-0.180	0.012
-688.354	-35.281	-0.337	-0.184
-687.339	-114.258	0.251	0.049
-686.324	-19.729	-0.389	-0.241
-685.310	-20.494	-0.179	-0.110
-684.295	28.684	0.115	-0.097
-683.281	664.240	0.113	-0.293
-682.266	679.117	-0.126	-0.329
-681.251	661.428	0.204	-0.528
-680.237	82.602	0.075	-0.082
-679.222	-116.100	-0.194	-0.036
-678.208	-119.388	-0.295	-0.051
-677.193	-110.444	-0.086	0.018
-676.178	-200.000	-0.036	-0.194
-675.164	4.369	0.006	-0.005
-674.149	119.486	-0.293	-0.364
-673.135	-23.779	-0.107	-0.064
-672.120	-91.622	-0.105	0.030
-671.105	800.000	0.080	-0.234
-670.091	-19.865	0.334	-0.207
-669.076	-75.082	-0.109	0.039
-668.062	152.843	0.150	-0.206
-667.047	-200.000	-0.027	0.293
-666.032	-123.838	-0.373	-0.059
-665.018	38.393	0.219	-0.196
-664.003	201.942	0.126	-0.195
-662.989	-91.544	0.118	-0.034
-661.974	403.837	-0.134	0.283
-660.959	226.297	0.004	0.006
-659.945	-95.635	-0.211	0.057
-658.930	-129.845	-0.069	-0.009
-657.916	-136.789	0.300	-0.035
-656.901	-194.412	0.173	0.001
-655.886	800.000	-0.081	-0.257
-654.872	-173.137	0.098	0.003
-653.857	-67.957	-0.143	0.056
-652.843	38.575	-0.139	-0.124
-651.828	-200.000	-0.006	-0.244
-650.814	-123.252	0.134	-0.021
-649.799	233.851	0.244	-0.403
-648.784	299.952	-0.055	-0.102
-647.770	800.000	0.034	0.107
-646.755	91.535	0.116	-0.130
-645.741	700.607	0.118	0.312
-644.726	127.040	-0.061	0.078
-643.711	53.618	-0.211	0.203
-642.697	-200.000	-0.075	-0.348
-641.682	33.256	0.260	-0.226
-640.668	800.000	0.066	-0.220
-639.653	-131.807	0.100	-0.013
-638.638	208.515	-0.279	-0.437
-637.624	800.000	0.004	-0.015
-636.609	6.975	-0.160	0.120
-635.595	126.557	-0.092	-0.116
-634.580	617.377	-0.109	-0.275
-633.565	-42.524	0.031	-0.016
-632.551	800.000	-0.042	0.166
-631.536	800.000	0.067	-0.211
-630.522	800.000	0.077	0.229
-629.507	133.427	0.259	0.335
-628.492	92.954	-0.113	-0.127
-627.478	173.993	-0.124	0.179
-626.463	72.409	0.172	-0.179
-625.449	-169.981	0.128	-0.005
-624.434	-200.000	-0.013	0.186
-623.419	-98.887	0.321	0.082
-622.405	-2.205	-0.092	0.065
-621.390	-2.228	0.067	0.047
-620.376	-13.632	-0.204	0.132
-619.361	800.000	0.034	0.145
-618.346	-74.069	-0.152	-0.055
-617.332	793.015	-0.081	-0.223
-616.317	-200.000	-0.041	-0.227
-615.303	144.088	-0.093	-0.125
-614.288	-200.000	0.010	-0.049
-613.273	-172.854	-0.205	-0.006
-612.259	-195.166	0.105	0.001
-611.244	-72.093	0.278	-0.103
-610.230	675.843	-0.115	-0.299
-609.215	163.987	-0.074	0.104
-608.201	-128.141	0.179	-0.026
-607.186	-117.518	0.365	-0.066
-606.171	4.987	0.088	-0.065
-605.157	146.669	0.243	0.327
-604.142	29.408	-0.213	-0.181
-603.128	-39.581	-0.201	0.105
-602.113	540.774	-0.038	0.091
-601.098	263.796	0.165	-0.287
-600.084	107.966	-0.086	-0.103
-599.069	54.432	-0.251	-0.242
-598.055	-53.609	0.092	-0.042
-597.040	18.178	0.264	0.211
-596.025	161.798	-0.080	-0.111
-595.011	105.254	0.054	0.064
-593.996	23.763	-0.171	0.140
-592.982	99.482	-0.186	-0.215
-591.967	-52.999	-0.254	0.117
-590.952	800.000	0.015	0.044
-589.938	-82.349	-0.423	0.137
-588.923	275.325	-0.013	0.023
-587.909	-200.000	-0.030	-0.181
-586.894	-66.417	0.170	-0.068
-585.879	-99.197	-0.131	-0.033
-584.865	202.811	0.077	-0.119
-583.850	-200.000	-0.011	0.232
-582.836	-1.924	0.334	-0.235
-581.821	-52.575	0.246	-0.113
-580.806	-80.658	-0.269	0.090
-579.792	-18.068	0.318	0.199
-578.777	-3.617	-0.364	0.253
-577.763	800.000	0.056	-0.188
-576.748	-41.787	-0.371	-0.190
-575.733	-125.850	0.156	-0.024
-574.719	44.520	-0.097	-0.089
-573.704	233.403	0.128	0.211
-572.690	-200.000	-0.026	0.241
-571.675	-200.000	-0.046	-0.357
-570.661	190.350	-0.124	0.186
-569.646	-22.370	-0.314	0.190
-568.631	800.000	-0.042	-0.175
-567.617	-128.079	-0.258	0.037
-566.602	117.357	-0.067	-0.083
-565.588	-40.953	-0.311	-0.160
-564.573	-147.425	-0.423	0.036
-563.558	119.004	-0.129	0.160
-562.544	-92.409	0.409	-0.115
-561.529	301.893	0.099	0.183
-560.515	763.028	-0.108	-0.293
-559.500	-84.879	-0.138	-0.043
-558.485	-200.000	0.071	0.342
-557.471	731.987	0.176	0.471
-556.456	800.000	-0.116	-0.352
-555.442	800.000	-0.048	-0.181
-554.427	-166.105	0.371	-0.016
-553.412	345.867	-0.108	-0.212
-552.398	-90.015	-0.053	-0.016
-551.383	-125.102	0.089	0.014
-550.369	-69.875	0.181	0.069
-549.354	-193.083	-0.190	0.002
-548.339	439.247	0.119	-0.259
-547.325	800.000	-0.066	0.220
-546.310	-35.798	0.104	0.056
-545.296	40.324	0.138	0.124
-544.281	800.000	0.130	0.374
-543.266	138.499	-0.094	-0.123
-542.252	262.476	0.122	0.212
-541.237	139.207	0.157	-0.206
-540.223	-86.521	-0.274	0.084
-539.208	50.973	-0.290	-0.274
-538.193	30.535	-0.180	0.153
-537.179	-9.803	0.205	0.136
-536.164	-44.261	-0.307	0.154
-535.150	-116.163	-0.263	-0.049
-534.135	56.652	0.183	0.178
-533.121	800.000	0.095	0.288
-532.106	-14.337	-0.110	-0.070
-531.091	699.748	-0.044	0.115
-530.077	800.000	-0.061	-0.211
-529.062	279.883	-0.054	-0.097
-528.048	264.242	-0.161	-0.280
-527.033	800.000	-0.078	0.250
-526.018	102.706	-0.059	0.068
-525.004	-17.729	-0.046	0.029
-523.989	-25.307	0.339	0.200
-522.975	621.879	0.101	-0.254
-521.960	800.000	-0.084	-0.237
-520.945	-100.938	0.115	0.028
-519.931	-66.968	0.310	0.122
-518.916	446.086	0.045	0.099
-517.902	209.531	-0.145	0.226
-516.887	388.912	0.197	-0.406
-515.872	163.828	-0.178	-0.249
-514.858	-134.230	-0.227	-0.028
-513.843	-51.450	0.322	0.150
-512.829	-57.170	-0.227	0.100
-511.814	-128.048	0.326	-0.047
-510.799	-200.000	-0.033	0.160
-509.785	-136.662	-0.172	0.020
-508.770	-109.572	-0.049	-0.010
-507.756	732.344	0.076	-0.202
-506.741	-76.163	-0.099	-0.035
-505.726	-2.192	0.111	0.078
-504.712	139.884	0.092	0.121
-503.697	20.461	-0.107	-0.086
-502.683	-85.340	-0.233	0.072
-501.668	800.000	0.046	0.160
-500.653	-136.759	0.226	-0.026
-499.639	-188.628	-0.387	0.005
-498.624	67.471	-0.299	-0.303
-497.610	-200.000	-0.001	0.158
-496.595	59.490	-0.094	-0.092
-495.581	56.505	0.416	-0.403
-494.566	-27.355	-0.197	-0.114
-493.551	98.841	-0.192	0.220
-492.537	-200.000	-0.011	-0.192
-491.522	466.330	-0.065	0.144
-490.508	-108.008	0.224	-0.048
-489.493	-200.000	-0.026	-0.169
-488.478	800.000	-0.036	0.116
-487.464	-25.592	-0.055	-0.032
-486.449	800.000	0.083	-0.248
-485.435	-20.574	-0.524	-0.321
-484.420	75.166	0.130	-0.136
-483.405	-56.314	-0.264	0.117
-482.391	-200.000	-0.034	-0.181
-481.376	-48.052	-0.260	-0.125
-480.362	-23.489	0.385	-0.230
-479.347	-200.000	0.023	-0.121
-478.332	160.205	-0.078	-0.108
-477.318	-151.512	-0.576	0.042
-476.303	-96.830	0.117	-0.031
-475.289	-200.000	0.042	0.348
-474.274	-127.168	-0.033	0.005
-473.259	405.437	-0.093	0.195
-472.245	345.847	-0.096	-0.188
-471.230	-200.000	0.005	-0.048
-470.216	-200.000	-0.017	0.075
-469.201	165.215	0.142	0.199
-468.186	25.277	-0.183	-0.152
-467.172	-122.261	0.213	-0.035
-466.157	89.261	-0.202	-0.224
-465.143	-26.515	0.233	-0.135
-464.128	-200.000	-0.030	0.139
-463.113	529.945	-0.104	-0.245
-462.099	-51.506	-0.113	-0.052
-461.084	-85.902	0.135	-0.042
-460.070	-178.654	-0.076	-0.002
-459.055	99.835	-0.037	0.042
-458.040	-200.000	0.004	-0.315
-457.026	-34.836	0.213	0.116
-456.011	388.217	-0.057	-0.118
-454.997	54.867	0.108	0.104
-453.982	800.000	-0.087	-0.254
-452.968	800.000	0.022	0.061
-451.953	-9.826	-0.253	-0.168
-450.938	800.000	0.085	-0.265
-449.924	-109.875	-0.086	0.018
-448.909	19.718	0.059	0.047
-447.895	-200.000	0.053	-0.277
-446.880	141.203	0.051	0.067
-445.865	-200.000	-0.020	-0.485
-444.851	79.033	0.128	-0.136
-443.836	-200.000	-0.011	0.275
-442.822	-65.400	-0.389	0.155
-441.807	-74.048	0.161	-0.058
-440.792	800.000	-0.034	-0.104
-439.778	-101.442	0.079	0.019
-438.763	-56.663	0.099	0.044
-437.749	86.559	-0.109	0.119
-436.734	-115.795	-0.130	-0.024
-435.719	800.000	-0.034	0.100
-434.705	800.000	0.109	0.376
-433.690	-200.000	-0.001	-0.101
-432.676	-200.000	-0.000	0.208
-431.661	-200.000	0.005	-0.179
-430.646	-78.174	-0.202	-0.069
-429.632	667.838	-0.086	0.221
-428.617	662.524	0.086	0.221
-427.603	277.271	0.129	-0.227
-426.588	-200.000	-0.003	0.068
-425.573	-200.000	0.054	-0.284
-424.559	70.437	-0.070	-0.072
-423.544	43.320	-0.126	0.114
-422.530	-49.038	-0.206	-0.098
-421.515	-200.000	-0.012	0.132
-420.500	-96.371	0.129	-0.034
-419.486	4.562	-0.160	-0.117
-418.471	65.211	-0.196	0.196
-417.457	95.318	0.153	0.174
-416.442	-200.000	0.038	-0.405
-415.428	411.233	0.157	-0.330
-414.413	443.113	-0.170	-0.370
-413.398	-72.481	0.351	0.129
-412.384	-200.000	-0.001	0.353
-411.369	-200.000	0.002	0.011
-410.355	-200.000	-0.011	0.149
-409.340	-200.000	-0.016	-0.124
-408.325	119.221	0.088	-0.108
-407.311	226.686	0.146	0.235
-406.296	238.919	0.034	0.056
-405.282	70.413	0.126	0.129
-404.267	-123.580	-0.289	0.046
-403.252	-127.297	-0.048	0.007
-402.238	-119.214	-0.236	-0.041
-401.223	90.010	0.338	-0.374
-400.209	9.328	-0.148	0.111
-399.194	311.810	-0.042	0.078
-398.179	-11.973	0.172	-0.112
-397.165	-8.785	-0.243	0.162
-396.150	170.301	-0.145	-0.206
-395.136	-74.460	0.262	0.094
-394.121	156.530	-0.114	-0.157
-393.106	93.208	0.194	-0.218
-392.092	0.003	-0.334	0.236
-391.077	-39.093	0.175	-0.091
-390.063	-76.595	0.078	-0.027
-389.048	159.696	-0.077	0.107
-388.033	138.169	-0.156	0.202
-387.019	228.748	-0.086	-0.139
-386.004	-126.050	-0.363	0.054
-384.990	-200.000	0.076	-0.356
-383.975	176.224	0.223	0.320
-382.960	-200.000	-0.016	-0.112
-381.946	-200.000	0.011	-0.194
-380.931	-155.625	0.134	0.009
-379.917	226.836	0.108	-0.174
-378.902	-200.000	0.013	0.132
-377.888	800.000	-0.099	-0.331
-376.873	-92.897	-0.384	-0.106
-375.858	398.053	0.089	-0.184
-374.844	522.193	0.080	0.186
-373.829	-85.786	-0.286	-0.088
-372.815	-116.824	0.263	0.048
-371.800	-200.000	0.000	0.061
-370.785	38.186	0.041	0.036
-369.771	-9.542	-0.149	0.098
-368.756	-85.401	0.238	-0.074
-367.742	-87.849	-0.198	0.059
-366.727	-97.092	0.239	0.062
-365.712	-18.276	0.158	0.098
-364.698	800.000	0.092	0.387
-363.683	368.595	0.138	0.276
-362.669	800.000	-0.060	0.246
-361.654	-99.541	0.291	-0.072
-360.639	-96.262	-0.214	0.056
-359.625	202.919	0.160	0.245
-358.610	-200.000	-0.011	0.127
-357.596	57.627	-0.043	0.042
-356.581	-200.000	-0.022	-0.164
-355.566	-200.000	0.064	-0.322
-354.552	4.559	0.197	0.143
-353.537	-200.000	0.025	-0.150
-352.523	-200.000	0.062	0.281
-351.508	539.673	0.058	-0.136
-350.493	-36.784	0.218	-0.116
-349.479	153.925	0.236	-0.320
-348.464	-121.253	-0.331	0.055
-347.450	-164.784	0.060	0.003
-346.435	21.733	-0.181	0.146
-345.420	-200.000	0.032	-0.219
-344.406	62.985	0.285	0.282
-343.391	-200.000	0.036	0.293
-342.377	800.000	0.101	0.319
-341.362	4.215	0.146	0.106
-340.348	-51.862	0.349	-0.161
-339.333	-199.044	-0.335	0.002
-338.318	14.421	0.264	0.204
-337.304	112.290	-0.272	0.326
-336.289	382.099	-0.170	-0.346
-335.275	61.777	0.068	-0.067
-334.260	27.760	-0.083	-0.069
-333.245	-70.794	0.096	0.036
-332.231	-105.460	0.040	-0.009
-331.216	-0.213	-0.261	0.184
-330.202	-200.000	0.030	0.190
-329.187	-173.742	-0.489	0.014
-328.172	-133.318	-0.298	0.037
-327.158	-26.571	0.451	-0.261
-326.143	-200.000	0.034	-0.294
-325.129	-200.000	0.027	0.260
-324.114	208.646	0.066	0.101
-323.099	-146.322	-0.295	-0.026
-322.085	-200.000	0.000	-0.126
-321.070	-116.633	-0.151	0.027
-320.056	-125.036	0.062	-0.009
-319.041	-187.994	-0.150	-0.002
-318.026	110.377	0.184	-0.218
-317.012	-200.000	-0.022	-0.240
-315.997	-73.225	-0.113	0.041
-314.983	97.423	-0.094	-0.106
-313.968	-200.000	-0.023	-0.141
-312.953	-163.062	0.261	-0.012
-311.939	184.147	-0.110	0.161
-310.924	160.684	-0.131	0.181
-309.910	178.469	-0.016	0.023
-308.895	-47.086	0.408	0.197
-307.880	382.608	0.024	-0.050
-306.866	114.374	0.084	0.101
-305.851	150.874	0.097	0.131
-304.837	-200.000	0.026	-0.288
-303.822	10.543	0.125	-0.094
-302.807	-200.000	-0.003	-0.136
-301.793	-159.010	0.070	0.004
-300.778	-91.809	-0.161	0.045
-299.764	361.830	0.073	0.145
-298.749	-200.000	-0.023	0.277
-297.735	-77.007	-0.229	-0.079
-296.720	-87.354	0.160	0.048
-295.705	403.151	0.046	0.095
-294.691	-136.271	0.237	-0.027
-293.676	388.318	0.040	0.082
-292.662	0.149	-0.230	-0.162
-291.647	-92.760	0.217	0.060
-290.632	-75.760	-0.276	0.097
-289.618	200.588	0.145	0.220
-288.603	-64.421	0.081	-0.032
-287.589	-121.534	0.218	0.036
-286.574	46.900	0.330	0.303
-285.559	-74.623	-0.100	-0.036
-284.545	-199.803	-0.116	-0.001
-283.530	-200.000	-0.042	0.371
-282.516	-128.426	0.107	0.015
-281.501	-95.177	0.114	0.030
-280.486	-144.334	-0.134	-0.012
-279.472	94.522	0.145	0.162
-278.457	63.508	0.151	0.150
-277.443	-163.448	-0.121	0.006
-276.428	-200.000	0.012	0.190
-275.413	16.812	0.196	0.153
-274.399	114.214	0.087	0.105
-273.384	800.000	0.117	0.363
-272.370	-200.000	0.001	-0.030
-271.355	623.788	0.173	-0.429
-270.340	-118.393	0.227	-0.040
-269.326	-90.307	0.196	0.056
-268.311	-200.000	0.026	-0.196
-267.297	58.172	0.249	0.241
-266.282	-200.000	-0.010	-0.045
-265.267	-3.516	-0.084	0.057
-264.253	-200.000	0.055	-0.280
-263.238	259.250	0.109	-0.186
-262.224	800.000	0.088	-0.286
-261.209	64.179	0.274	-0.272
-260.195	-26.504	0.222	-0.128
-259.180	126.249	-0.282	0.352
-258.165	-200.000	-0.013	-0.313
-257.151	-125.092	0.287	-0.043
-256.136	-37.776	-0.148	0.078
-255.122	800.000	0.047	-0.137
-254.107	17.269	-0.074	-0.058
-253.092	-200.000	-0.004	0.039
-252.078	280.709	0.067	-0.118
-251.063	659.058	0.085	-0.215
-250.049	65.172	0.162	0.161
-249.034	674.612	-0.051	0.131
-248.019	-200.000	-0.011	-0.052
-247.005	800.000	-0.007	0.022
-245.990	353.782	0.116	0.228
-244.976	800.000	0.056	0.178
-243.961	135.290	0.017	-0.022
-242.946	800.000	0.089	0.308
-241.932	-167.493	0.229	-0.009
-240.917	-97.961	0.068	-0.017
-239.903	221.970	0.142	-0.224
-238.888	79.974	0.111	0.118
-237.873	800.000	0.065	-0.207
-236.859	-90.960	-0.616	-0.174
-235.844	-4.433	-0.271	0.185
-234.830	-200.000	0.108	0.000
-233.815	800.000	0.077	0.246
-232.800	-200.000	-0.017	0.438
-231.786	76.690	0.185	0.193
-230.771	-153.138	0.323	0.022
-229.757	133.838	-0.024	-0.031
-228.742	800.000	0.072	-0.203
-227.727	-138.360	0.177	-0.019
-226.713	-1.569	-0.379	0.263
-225.698	-122.722	0.144	-0.023
-224.684	-200.000	0.011	-0.104
-223.669	774.229	0.035	-0.094
-222.655	-200.000	0.033	0.362
-221.640	-195.716	-0.253	0.002
-220.625	-48.368	-0.075	0.036
-219.611	141.503	0.022	0.029
-218.596	70.470	0.064	-0.066
-217.582	162.895	-0.039	-0.054
-216.567	399.883	0.127	0.261
-215.552	-200.000	0.001	-0.012
-214.538	-200.000	0.013	0.243
-213.523	-71.335	-0.119	-0.044
-212.509	103.789	0.237	0.275
-211.494	-2.121	0.086	0.059
-210.479	-172.322	0.272	-0.009
-209.465	384.992	0.104	0.211
-208.450	800.000	-0.019	0.074
-207.436	-100.797	0.040	0.010
-206.421	-19.784	-0.271	0.165
-205.406	67.141	-0.155	0.156
-204.392	-128.074	0.048	0.007
-203.377	-154.817	0.178	0.012
-202.363	-44.455	-0.200	-0.098
-201.348	140.639	0.169	0.220
-200.333	328.641	0.130	0.247
-199.319	-57.870	0.407	-0.175
-198.304	-32.872	0.172	-0.094
-197.290	-200.000	0.004	-0.192
-196.275	158.146	0.167	0.228
-195.260	458.166	-0.072	-0.158
-194.246	-16.238	-0.307	-0.192
-193.231	216.938	-0.106	-0.166
-192.217	-200.000	0.040	-0.202
-191.202	52.251	0.172	0.161
-190.187	-5.010	0.117	-0.079
-189.173	-200.000	-0.006	0.060
-188.158	-61.328	-0.270	-0.112
-187.144	-200.000	0.022	-0.192
-186.129	-161.496	0.318	-0.016
-185.114	33.949	0.098	0.084
-184.100	-103.623	-0.350	-0.081
-183.085	-164.281	0.257	0.012
-182.071	-95.139	0.113	0.030
-181.056	-84.861	-0.184	-0.057
-180.042	-114.800	0.229	0.043
-179.027	312.057	-0.124	0.228
-178.012	-200.000	-0.002	0.204
-176.998	325.147	-0.120	-0.225
-175.983	-117.479	-0.161	-0.029
-174.969	-165.574	-0.267	-0.011
-173.954	500.966	-0.016	0.037
-172.939	-200.000	-0.023	0.337
-171.925	-83.216	-0.097	0.031
-170.910	410.079	0.118	-0.247
-169.896	-54.384	-0.200	-0.089
-168.881	324.677	-0.069	0.130
-167.866	-70.887	-0.428	0.158
-166.852	142.213	-0.155	0.202
-165.837	-200.000	0.017	0.160
-164.823	-116.465	0.288	0.052
-163.808	-84.879	-0.177	-0.055
-162.793	319.401	-0.102	0.190
-161.779	-63.268	-0.429	0.174
-160.764	-47.967	-0.125	-0.060
-159.750	463.374	-0.053	0.116
-158.735	-84.210	-0.307	-0.096
-157.720	190.900	0.136	-0.201
-156.706	-200.000	-0.059	-0.259
-155.691	-33.120	-0.197	-0.108
-154.677	164.279	0.151	-0.209
-153.662	-79.264	0.233	0.078
-152.647	-118.927	-0.168	-0.029
-151.633	60.077	0.272	0.264
-150.618	-66.419	-0.306	-0.119
-149.604	-200.000	-0.027	0.173
-148.589	-200.000	0.033	0.142
-147.574	-65.748	0.046	-0.018
-146.560	800.000	-0.056	-0.236
-145.545	-32.343	-0.338	0.185
-144.531	302.012	0.067	-0.122
-143.516	605.916	0.102	0.249
-142.502	51.364	-0.245	-0.229
-141.487	39.002	-0.121	-0.106
-140.472	278.522	0.083	-0.145
-139.458	473.520	0.111	0.245
-138.443	121.661	0.137	0.168
-137.429	-200.000	0.011	0.313
-136.414	28.466	0.175	-0.146
-135.399	0.348	0.314	0.220
-134.385	32.573	0.093	-0.079
-133.370	270.820	-0.034	-0.059
-132.356	800.000	-0.098	-0.299
-131.341	3.157	-0.426	-0.304
-130.326	288.938	-0.052	-0.093
-129.312	-89.390	-0.039	0.011
-128.297	98.271	-0.178	-0.201
-127.283	-131.619	0.097	0.013
-126.268	-200.000	-0.041	-0.313
-125.253	13.728	-0.315	-0.241
-124.239	14.935	0.112	0.086
-123.224	-71.250	0.147	0.054
-122.210	-70.501	-0.261	-0.097
-121.195	-200.000	0.002	-0.009
