DTS Sentinel unit serial number:	SN413079Multiplexer serial number:	ORYXHardware model number:	OX4-SRSoftware version number:	ORYX F/W v4.00 Oryx Data Collector v3.7.2.0data status	okinstallation	princeton_trtdifferential loss correction	single-endedforward channel	channel 4reverse channel	N/Adate	2019/09/16time	08:25:34forward acquisition time	60.00reverse acquisition time	0.00gamma	496.2192k internal	0.2313k external	0.2313temperature offset calibration	0.9977default loss term (dB/km)	0.3790temperature slope calibration	1.0000multiplexer offset coefficient	1.0000multiplexer slope coefficient	1.0000fibre end	0.00T internal ref (°C)	29.19T ext. ref 1 (°C)	11.88T ext. ref 2 (°C)	25.64length (m)	temperature (°C)	Stokes	anti-Stokes-747.200	262.162	0.192	0.338
-746.185	522.378	-0.135	0.321
-745.171	213.219	0.162	0.259
-744.156	-133.044	0.032	-0.004
-743.142	-169.982	-0.224	-0.008
-742.127	284.726	-0.019	0.034
-741.112	-52.985	-0.094	-0.044
-740.098	155.131	-0.158	-0.221
-739.083	47.528	0.280	0.264
-738.069	749.489	-0.099	0.272
-737.054	180.822	0.097	0.145
-736.039	-67.759	-0.320	-0.127
-735.025	-109.376	0.400	0.086
-734.010	-47.841	-0.255	-0.125
-732.996	-68.344	-0.246	0.097
-731.981	-13.081	-0.234	-0.154
-730.966	114.618	-0.308	-0.380
-729.952	131.403	0.170	-0.222
-728.937	-156.004	-0.176	0.011
-727.923	283.346	-0.249	-0.453
-726.908	-183.988	-0.150	0.003
-725.894	72.468	-0.102	0.108
-724.879	-56.850	0.127	-0.057
-723.864	-200.000	-0.003	-0.058
-722.850	800.000	0.022	0.068
-721.835	-22.233	-0.103	-0.063
-720.821	-200.000	0.027	0.168
-719.806	-149.389	-0.204	0.016
-718.791	-0.980	0.031	0.022
-717.777	-200.000	0.060	0.348
-716.762	-175.403	0.306	0.008
-715.748	-200.000	-0.003	0.036
-714.733	-200.000	-0.001	0.050
-713.718	78.685	0.299	0.324
-712.704	800.000	-0.076	-0.222
-711.689	-200.000	0.006	0.138
-710.675	-91.678	0.283	-0.082
-709.660	-200.000	0.036	-0.212
-708.645	164.664	0.100	0.143
-707.631	7.215	-0.027	0.020
-706.616	29.963	0.303	-0.261
-705.602	-72.383	-0.238	0.089
-704.587	14.957	0.124	0.098
-703.572	-200.000	-0.019	-0.102
-702.558	71.186	-0.201	0.211
-701.543	800.000	-0.054	-0.155
-700.529	190.119	-0.085	-0.129
-699.514	15.884	0.025	-0.020
-698.499	800.000	-0.082	0.294
-697.485	-146.496	0.048	-0.004
-696.470	24.167	-0.104	0.087
-695.456	62.203	0.041	-0.041
-694.441	-200.000	-0.037	0.170
-693.426	12.422	0.235	-0.183
-692.412	248.946	-0.042	0.071
-691.397	-0.871	-0.127	0.091
-690.383	-58.068	0.037	-0.016
-689.368	-132.857	-0.162	-0.021
-688.354	800.000	0.091	-0.328
-687.339	-200.000	-0.030	0.136
-686.324	-153.242	-0.247	-0.017
-685.310	-200.000	-0.012	0.093
-684.295	-144.771	-0.127	-0.012
-683.281	800.000	-0.184	-0.542
-682.266	412.808	0.123	-0.265
-681.251	800.000	-0.072	-0.249
-680.237	-117.796	-0.217	0.039
-679.222	636.375	0.045	-0.115
-678.208	-200.000	-0.003	-0.215
-677.193	-126.868	0.241	-0.036
-676.178	-200.000	0.030	-0.143
-675.164	800.000	0.081	-0.244
-674.149	-65.811	-0.231	0.094
-673.135	-200.000	-0.025	0.164
-672.120	-88.061	0.166	-0.051
-671.105	-171.396	-0.306	0.010
-670.091	-125.173	0.282	0.044
-669.076	800.000	-0.074	0.260
-668.062	10.342	-0.436	0.335
-667.047	-77.056	0.044	0.016
-666.032	-109.894	0.214	0.045
-665.018	152.417	-0.064	-0.089
-664.003	-99.088	0.164	0.042
-662.989	56.644	-0.204	-0.200
-661.974	800.000	-0.054	0.185
-660.959	-200.000	0.027	0.302
-659.945	-63.839	0.112	0.046
-658.930	-63.913	-0.250	0.103
-657.916	800.000	0.067	-0.202
-656.901	202.733	0.140	0.218
-655.886	-17.617	0.323	-0.205
-654.872	800.000	0.085	-0.303
-653.857	-200.000	0.018	-0.321
-652.843	800.000	-0.104	-0.350
-651.828	800.000	0.094	-0.332
-650.814	6.152	-0.136	0.102
-649.799	212.320	0.098	-0.156
-648.784	-51.099	0.184	-0.087
-647.770	-50.672	-0.163	0.077
-646.755	-71.938	-0.076	0.029
-645.741	46.027	-0.125	-0.116
-644.726	-135.676	0.181	-0.022
-643.711	-7.453	-0.075	-0.051
-642.697	800.000	-0.097	-0.274
-641.682	800.000	-0.091	0.392
-640.668	35.817	0.163	0.145
-639.653	486.760	-0.053	-0.123
-638.638	8.802	0.321	0.244
-637.624	-121.106	-0.441	0.075
-636.609	-200.000	0.074	-0.384
-635.595	-117.330	-0.032	0.006
-634.580	-200.000	0.032	0.155
-633.565	-79.801	-0.318	0.108
-632.551	0.098	-0.227	-0.163
-631.536	-42.522	-0.251	-0.129
-630.522	602.914	-0.117	-0.293
-629.507	147.302	0.048	-0.066
-628.492	55.383	-0.129	-0.126
-627.478	-114.213	-0.167	0.032
-626.463	139.432	0.003	-0.004
-625.449	107.152	-0.198	-0.237
-624.434	-200.000	0.002	-0.155
-623.419	800.000	-0.079	-0.263
-622.405	-200.000	-0.030	-0.221
-621.390	85.875	0.034	0.038
-620.376	114.145	-0.188	0.231
-619.361	197.163	0.125	-0.193
-618.346	634.620	0.057	0.146
-617.332	197.649	0.160	-0.246
-616.317	210.610	0.145	-0.230
-615.303	-81.627	-0.096	-0.032
-614.288	58.511	0.128	-0.126
-613.273	800.000	0.090	-0.352
-612.259	-200.000	0.076	0.363
-611.244	-200.000	-0.012	-0.084
-610.230	583.368	0.101	-0.250
-609.215	75.828	-0.353	-0.377
-608.201	-155.072	0.295	0.020
-607.186	219.802	0.125	0.202
-606.171	-119.851	-0.155	-0.027
-605.157	12.585	-0.266	0.207
-604.142	-77.001	-0.358	0.126
-603.128	124.189	0.047	0.060
-602.113	-125.641	-0.177	0.027
-601.098	-107.154	-0.191	0.043
-600.084	-101.124	-0.011	0.003
-599.069	-86.070	-0.103	-0.032
-598.055	-200.000	-0.021	0.223
-597.040	228.798	0.034	-0.056
-596.025	52.972	-0.123	-0.118
-595.011	-200.000	-0.018	0.193
-593.996	509.733	-0.087	0.204
-592.982	800.000	0.032	0.138
-591.967	-200.000	0.261	-0.000
-590.952	-200.000	-0.008	0.070
-589.938	-84.806	-0.146	0.046
-588.923	262.719	0.066	-0.116
-587.909	-200.000	-0.060	-0.263
-586.894	-34.136	-0.455	-0.252
-585.879	480.352	0.045	-0.103
-584.865	-184.019	0.388	0.007
-583.850	82.809	-0.203	-0.222
-582.836	-71.106	0.089	-0.034
-581.821	-75.611	0.216	-0.077
-580.806	21.828	0.190	0.156
-579.792	-200.000	0.010	0.245
-578.777	502.663	-0.085	0.198
-577.763	-43.103	-0.324	0.165
-576.748	-62.217	0.256	0.108
-575.733	9.299	-0.121	0.092
-574.719	615.738	-0.089	-0.225
-573.704	-110.918	0.042	-0.009
-572.690	4.805	-0.201	0.149
-571.675	-66.056	0.335	0.135
-570.661	312.070	0.139	-0.263
-569.646	99.879	0.154	-0.180
-568.631	-200.000	-0.086	-0.398
-567.617	168.128	-0.160	-0.230
-566.602	32.249	0.165	0.144
-565.588	697.814	0.102	-0.270
-564.573	163.694	0.172	-0.243
-563.558	-20.209	-0.218	0.135
-562.544	-18.471	-0.264	-0.166
-561.529	198.650	-0.057	0.088
-560.515	112.610	0.106	-0.130
-559.500	101.407	0.093	-0.109
-558.485	118.670	0.053	0.066
-557.471	-200.000	0.007	-0.422
-556.456	-200.000	0.016	-0.106
-555.442	-29.002	-0.232	0.134
-554.427	88.503	-0.110	0.123
-553.412	4.892	-0.131	-0.097
-552.398	800.000	0.091	-0.342
-551.383	-79.720	0.538	-0.183
-550.369	37.648	-0.176	-0.157
-549.354	-200.000	0.021	0.109
-548.339	-119.746	-0.300	-0.052
-547.325	461.847	0.053	0.119
-546.310	-200.000	0.013	0.100
-545.296	34.611	-0.378	0.333
-544.281	-114.322	-0.423	-0.082
-543.266	161.528	0.227	-0.320
-542.252	-200.000	-0.026	0.178
-541.237	20.007	-0.175	-0.142
-540.223	169.906	-0.066	0.094
-539.208	5.582	0.256	0.190
-538.193	800.000	-0.062	0.261
-537.179	-63.813	-0.122	-0.050
-536.164	-200.000	0.056	0.377
-535.150	-112.607	0.188	0.038
-534.135	99.823	0.226	-0.263
-533.121	-89.773	-0.123	0.036
-532.106	-37.005	0.233	0.125
-531.091	40.278	0.142	-0.129
-530.077	3.121	-0.238	0.174
-529.062	800.000	0.069	0.199
-528.048	161.118	-0.200	0.281
-527.033	-200.000	-0.061	0.320
-526.018	-200.000	-0.005	0.190
-525.004	1.089	0.171	0.123
-523.989	-85.114	0.256	0.081
-522.975	580.440	-0.097	0.240
-521.960	15.898	0.038	-0.030
-520.945	-37.284	-0.125	-0.067
-519.931	14.378	0.280	-0.219
-518.916	-104.827	0.170	-0.039
-517.902	-61.113	0.364	-0.154
-516.887	-37.758	0.262	-0.140
-515.872	647.225	0.093	0.238
-514.858	80.813	0.151	-0.164
-513.843	-63.913	-0.036	0.015
-512.829	-200.000	-0.013	0.134
-511.814	-96.017	0.146	-0.039
-510.799	-200.000	0.140	0.001
-509.785	-41.990	-0.234	-0.121
-508.770	-33.386	0.165	-0.092
-507.756	-108.115	0.129	-0.028
-506.741	800.000	-0.026	0.109
-505.726	252.426	0.021	0.036
-504.712	800.000	0.033	-0.105
-503.697	-172.251	0.074	0.002
-502.683	800.000	0.049	0.150
-501.668	-200.000	-0.023	0.242
-500.653	-15.095	0.109	-0.070
-499.639	-106.570	-0.184	-0.041
-498.624	-54.572	-0.109	-0.050
-497.610	-59.484	-0.082	0.035
-496.595	-53.187	0.232	0.107
-495.581	198.069	0.038	-0.059
-494.566	800.000	-0.066	-0.223
-493.551	69.228	-0.402	-0.415
-492.537	373.373	-0.038	0.077
-491.522	-42.129	-0.138	-0.071
-490.508	-100.632	-0.160	-0.040
-489.493	800.000	-0.018	-0.077
-488.478	-158.920	0.131	-0.007
-487.464	-53.687	0.126	-0.058
-486.449	277.755	-0.059	-0.105
-485.435	-200.000	0.034	-0.199
-484.420	-200.000	0.031	-0.245
-483.405	-152.484	-0.119	-0.009
-482.391	-200.000	-0.010	-0.204
-481.376	-166.937	0.202	0.008
-480.362	258.316	-0.159	-0.275
-479.347	48.718	-0.101	0.095
-478.332	88.000	-0.139	0.155
-477.318	800.000	0.062	0.194
-476.303	-200.000	0.020	0.164
-475.289	-200.000	-0.035	0.227
-474.274	-105.064	0.339	0.078
-473.259	176.544	-0.074	-0.107
-472.245	-200.000	0.025	0.225
-471.230	-84.317	-0.380	0.121
-470.216	-63.055	-0.056	0.023
-469.201	-10.388	0.178	0.119
-468.186	445.590	-0.043	-0.095
-467.172	44.332	-0.130	-0.120
-466.157	-46.862	0.322	-0.158
-465.143	25.420	0.227	-0.189
-464.128	-200.000	-0.012	0.247
-463.113	800.000	0.025	-0.099
-462.099	-23.276	0.178	-0.107
-461.084	18.398	-0.161	-0.129
-460.070	-82.072	-0.466	0.153
-459.055	-200.000	0.037	-0.182
-458.040	11.948	0.070	-0.054
-457.026	590.566	-0.111	0.274
-456.011	-95.221	0.300	0.081
-454.997	-112.560	-0.282	0.056
-453.982	41.989	-0.089	-0.081
-452.968	52.519	0.229	0.219
-451.953	-22.747	0.347	-0.210
-450.938	-79.472	0.226	0.077
-449.924	289.462	-0.096	0.174
-448.909	15.251	0.185	-0.146
-447.895	-89.957	0.077	-0.023
-446.880	-76.566	0.081	0.029
-445.865	-55.635	0.169	-0.076
-444.851	-200.000	0.024	-0.134
-443.836	736.725	0.063	-0.170
-442.822	-200.000	0.029	-0.161
-441.807	-24.585	-0.108	-0.064
-440.792	-69.881	-0.211	0.081
-439.778	-178.363	-0.302	0.007
-438.763	-76.027	0.428	-0.152
-437.749	-77.546	0.341	0.119
-436.734	-192.942	-0.200	0.002
-435.719	-200.000	0.002	-0.190
-434.705	-34.453	0.277	-0.152
-433.690	-190.586	-0.046	-0.000
-432.676	452.246	-0.077	-0.171
-431.661	137.105	-0.129	-0.169
-430.646	800.000	-0.145	0.408
-429.632	76.508	0.096	0.102
-428.617	-200.000	-0.007	0.422
-427.603	162.260	0.079	-0.111
-426.588	265.760	-0.144	-0.252
-425.573	-40.502	-0.228	0.119
-424.559	-16.855	0.128	-0.081
-423.544	800.000	-0.090	0.325
-422.530	-200.000	0.010	0.092
-421.515	-26.541	-0.184	0.108
-420.500	175.669	-0.056	-0.082
-419.486	-59.455	-0.123	-0.053
-418.471	78.138	-0.089	0.095
-417.457	184.493	0.310	-0.460
-416.442	-200.000	0.021	0.205
-415.428	146.200	0.103	-0.138
-414.413	-132.258	0.273	-0.035
-413.398	157.619	0.290	-0.402
-412.384	-200.000	0.005	-0.109
-411.369	-133.196	0.395	0.050
-410.355	-200.000	0.006	0.050
-409.340	-37.959	-0.245	-0.130
-408.325	197.582	0.161	0.245
-407.311	800.000	0.057	-0.185
-406.296	655.257	-0.060	-0.154
-405.282	-200.000	0.018	-0.226
-404.267	43.009	0.109	-0.099
-403.252	276.915	-0.121	-0.216
-402.238	-200.000	0.002	0.193
-401.223	-117.270	0.244	0.044
-400.209	776.773	-0.013	-0.036
-399.194	-157.436	-0.400	-0.024
-398.179	70.725	0.150	-0.155
-397.165	-94.085	0.146	-0.040
-396.150	33.180	0.196	-0.170
-395.136	-117.019	-0.151	-0.028
-394.121	-138.692	0.070	-0.008
-393.106	-112.264	-0.215	-0.043
-392.092	246.433	0.117	-0.197
-391.077	681.917	-0.074	0.193
-390.063	800.000	-0.083	0.308
-389.048	-16.481	-0.355	0.225
-388.033	-128.202	0.254	0.036
-387.019	7.412	-0.160	0.119
-386.004	319.960	0.094	0.178
-384.990	235.274	-0.132	-0.218
-383.975	-57.358	0.198	0.087
-382.960	-100.508	0.314	0.078
-381.946	-191.656	-0.490	-0.005
-380.931	-91.207	0.111	0.032
-379.917	412.948	0.067	0.142
-378.902	-78.144	-0.263	0.091
-377.888	87.400	-0.012	0.014
-376.873	30.620	0.235	0.201
-375.858	-43.301	-0.212	-0.107
-374.844	-11.776	0.081	0.053
-373.829	-200.000	-0.000	0.100
-372.815	-154.336	-0.273	0.018
-371.800	283.087	0.043	0.077
-370.785	67.089	0.064	0.065
-369.771	55.659	0.126	-0.122
-368.756	800.000	-0.089	0.293
-367.742	112.807	-0.160	-0.194
-366.727	-25.937	-0.190	-0.112
-365.712	-60.439	0.287	0.122
-364.698	-32.810	-0.293	-0.163
-363.683	-110.650	0.060	-0.012
-362.669	-200.000	0.050	0.311
-361.654	33.051	-0.062	0.054
-360.639	-160.618	-0.110	-0.006
-359.625	-175.079	-0.230	0.006
-358.610	163.336	0.111	0.156
-357.596	-47.245	-0.059	-0.029
-356.581	-182.525	0.205	-0.004
-355.566	104.559	-0.075	0.089
-354.552	800.000	-0.120	-0.387
-353.537	-65.349	0.325	-0.131
-352.523	180.224	-0.025	0.037
-351.508	296.147	-0.093	0.170
-350.493	246.315	-0.148	-0.250
-349.479	-18.841	0.045	0.028
-348.464	-200.000	0.032	-0.205
-347.450	-74.698	-0.245	-0.088
-346.435	-200.000	-0.010	-0.473
-345.420	12.211	0.054	0.041
-344.406	116.370	0.036	-0.044
-343.391	127.822	-0.053	-0.067
-342.377	800.000	0.083	-0.347
-341.362	-141.831	0.108	0.011
-340.348	-200.000	0.004	0.067
-339.333	-200.000	0.064	0.282
-338.318	-200.000	0.037	-0.182
-337.304	-79.857	0.097	0.032
-336.289	221.783	-0.090	0.144
-335.275	-126.348	-0.519	-0.077
-334.260	185.848	-0.029	-0.044
-333.245	-200.000	-0.027	-0.183
-332.231	494.177	0.048	-0.109
-331.216	-64.842	-0.110	0.044
-330.202	-87.941	0.259	-0.078
-329.187	-160.763	-0.253	0.013
-328.172	183.583	0.215	0.317
-327.158	144.719	-0.174	0.232
-326.143	-88.425	-0.112	0.033
-325.129	92.098	0.130	0.146
-324.114	-64.093	0.185	0.075
-323.099	-49.910	0.236	0.112
-322.085	46.153	-0.185	0.171
-321.070	-91.412	0.222	-0.063
-320.056	-200.000	0.024	-0.206
-319.041	-82.854	0.108	-0.035
-318.026	800.000	-0.091	0.313
-317.012	-200.000	0.026	-0.242
-315.997	-56.386	-0.415	0.184
-314.983	204.306	0.163	0.252
-313.968	-142.266	0.139	-0.014
-312.953	-12.731	-0.199	0.129
-311.939	-46.826	0.179	0.087
-310.924	224.709	0.132	-0.212
-309.910	231.249	0.075	-0.122
-308.895	353.028	-0.083	0.164
-307.880	-117.655	-0.318	0.057
-306.866	-54.243	-0.403	-0.182
-305.851	-171.038	0.086	0.003
-304.837	800.000	-0.068	-0.286
-303.822	55.101	0.058	-0.055
-302.807	800.000	-0.023	0.089
-301.793	428.185	0.107	0.231
-300.778	-63.804	-0.291	0.119
-299.764	-200.000	-0.007	0.250
-298.749	-90.816	0.233	-0.067
-297.735	-200.000	-0.019	-0.142
-296.720	479.528	-0.099	0.225
-295.705	-200.000	-0.041	0.194
-294.691	155.733	0.043	0.059
-293.676	-71.463	0.231	0.086
-292.662	800.000	-0.091	0.294
-291.647	800.000	-0.125	-0.375
-290.632	-9.557	-0.256	0.170
-289.618	-126.665	-0.358	-0.053
-288.603	508.083	0.172	0.398
-287.589	451.305	0.099	0.218
-286.574	25.592	0.220	-0.183
-285.559	-126.076	0.349	0.052
-284.545	-108.229	-0.404	-0.087
-283.530	363.855	0.073	0.145
-282.516	-200.000	-0.022	0.122
-281.501	-16.824	0.066	0.042
-280.486	-200.000	-0.019	-0.259
-279.472	-200.000	-0.022	0.108
-278.457	800.000	-0.084	-0.238
-277.443	152.395	0.076	0.103
-276.428	-103.417	-0.217	0.051
-275.413	-200.000	-0.050	-0.270
-274.399	800.000	0.060	0.239
-273.384	-15.936	-0.105	0.067
-272.370	-46.599	0.082	-0.040
-271.355	-200.000	-0.042	0.254
-270.340	-128.663	-0.176	0.025
-269.326	173.099	0.197	-0.283
-268.311	468.581	-0.067	0.151
-267.297	-10.638	0.298	0.196
-266.282	41.349	-0.085	-0.077
-265.267	-200.000	-0.003	-0.042
-264.253	92.054	0.222	-0.249
-263.238	-112.577	-0.171	0.034
-262.224	37.719	0.213	0.188
-261.209	-43.186	-0.107	0.054
-260.195	555.434	0.020	0.049
-259.180	800.000	-0.026	0.103
-258.165	-46.950	0.092	-0.045
-257.151	229.492	-0.027	-0.044
-256.136	-38.175	0.120	-0.063
-255.122	100.480	0.300	0.346
-254.107	307.709	0.108	0.201
-253.092	-125.059	0.356	-0.054
-252.078	-67.035	0.107	0.042
-251.063	-200.000	-0.009	0.100
-250.049	-31.189	0.097	0.054
-249.034	80.296	0.103	0.110
-248.019	465.233	0.007	0.015
-247.005	-61.154	0.326	0.137
-245.990	-98.251	0.240	0.061
-244.976	-127.966	-0.150	-0.021
-243.961	-140.107	-0.295	0.031
-242.946	-131.297	-0.288	-0.038
-241.932	800.000	0.090	-0.262
-240.917	125.844	0.188	0.236
-239.903	181.703	-0.054	0.079
-238.888	-109.554	-0.240	0.050
-237.873	589.760	-0.025	-0.061
-236.859	-77.172	-0.150	0.052
-235.844	-11.471	0.197	0.129
-234.830	-44.657	0.105	-0.052
-233.815	800.000	0.088	0.292
-232.800	287.306	0.130	0.233
-231.786	-139.394	-0.054	0.006
-230.771	-131.896	0.300	-0.039
-229.757	-200.000	0.088	-0.465
-228.742	-200.000	-0.018	-0.118
-227.727	136.742	-0.207	0.269
-226.713	-48.488	0.217	0.104
-225.698	222.731	0.152	0.244
-224.684	-154.671	-0.283	-0.019
-223.669	168.359	0.141	-0.199
-222.655	342.626	-0.033	0.064
-221.640	-200.000	0.008	0.107
-220.625	-11.547	0.060	0.039
-219.611	-61.703	-0.172	0.072
-218.596	-55.288	-0.163	0.073
-217.582	-60.234	-0.263	-0.111
-216.567	800.000	-0.103	0.344
-215.552	4.427	-0.082	-0.059
-214.538	800.000	0.081	0.246
-213.523	261.719	0.166	0.285
-212.509	-200.000	0.015	0.110
-211.494	-200.000	-0.007	-0.234
-210.479	-44.043	0.214	-0.107
-209.465	-69.511	-0.193	-0.073
-208.450	-200.000	-0.054	-0.443
-207.436	29.906	0.098	-0.083
-206.421	52.849	-0.192	-0.182
-205.406	-92.171	0.018	0.005
-204.392	81.177	-0.102	-0.109
-203.377	-97.545	0.130	-0.033
-202.363	-151.168	0.214	0.016
-201.348	-123.008	0.187	0.030
-200.333	-9.310	-0.071	-0.047
-199.319	-69.076	0.513	-0.196
-198.304	-200.000	0.073	-0.401
-197.290	506.176	0.067	-0.153
-196.275	800.000	0.108	0.340
-195.260	203.775	0.129	0.198
-194.246	14.238	0.356	0.275
-193.231	-200.000	0.033	-0.170
-192.217	-152.517	0.126	0.009
-191.202	94.395	-0.146	-0.165
-190.187	-31.683	-0.224	0.125
-189.173	91.356	0.197	-0.219
-188.158	-109.025	-0.324	0.069
-187.144	-0.884	0.118	0.083
-186.129	-143.270	-0.192	0.018
-185.114	-72.530	0.110	0.040
-184.100	-112.854	0.167	0.033
-183.085	-88.121	0.133	-0.040
-182.071	-45.054	-0.272	0.134
-181.056	-6.021	0.248	-0.168
-180.042	415.403	-0.100	-0.212
-179.027	-165.538	-0.134	0.006
-178.012	52.047	0.051	0.048
-176.998	800.000	-0.061	0.253
-175.983	-125.293	-0.143	0.022
-174.969	-115.517	-0.055	-0.010
-173.954	-200.000	-0.069	0.334
-172.939	-173.756	0.085	-0.002
-171.925	-20.568	-0.193	0.118
-170.910	-64.188	0.229	-0.093
-169.896	-85.406	-0.230	0.071
-168.881	-200.000	-0.005	0.124
-167.866	-172.558	-0.352	-0.011
-166.852	-200.000	0.003	0.229
-165.837	800.000	0.062	-0.250
-164.823	84.024	0.074	0.080
-163.808	-50.477	0.222	0.104
-162.793	-200.000	-0.023	-0.389
-161.779	-53.693	-0.319	0.144
-160.764	-34.945	-0.196	-0.106
-159.750	-101.120	-0.342	-0.083
-158.735	-20.899	0.174	-0.106
-157.720	367.713	-0.049	0.098
-156.706	800.000	0.120	0.442
-155.691	-200.000	0.021	-0.355
-154.677	-200.000	-0.002	0.168
-153.662	800.000	-0.047	-0.137
-152.647	-37.264	0.181	-0.096
-151.633	83.556	-0.365	0.395
-150.618	-97.328	0.241	-0.062
-149.604	-38.399	0.104	-0.054
-148.589	387.011	0.119	-0.244
-147.574	13.488	-0.284	0.218
-146.560	-107.052	-0.166	-0.036
-145.545	-26.400	0.232	-0.135
-144.531	-99.407	0.295	0.074
-143.516	-200.000	-0.058	-0.000
-142.502	-88.378	0.283	-0.084
-141.487	92.156	0.223	-0.249
-140.472	336.246	0.088	-0.169
-139.458	341.308	0.099	-0.191
-138.443	-200.000	-0.011	0.082
-137.429	287.668	0.067	0.120
-136.414	-157.265	0.361	0.022
-135.399	-2.433	0.041	-0.029
-134.385	253.083	0.144	-0.244
-133.370	-52.668	-0.106	0.048
-132.356	273.896	-0.041	-0.072
-131.341	-5.824	0.168	0.114
-130.326	534.246	-0.081	-0.191
-129.312	194.063	-0.092	0.138
-128.297	-161.856	-0.433	-0.022
-127.283	-90.250	-0.080	-0.023
-126.268	241.874	-0.167	-0.277
-125.253	62.060	0.161	0.159
-124.239	125.175	0.277	0.346
-123.224	-134.990	0.208	0.025
-122.210	-200.000	-0.035	-0.257
-121.195	800.000	0.058	-0.181
