DTS Sentinel unit serial number:	SN413079Multiplexer serial number:	ORYXHardware model number:	OX4-SRSoftware version number:	ORYX F/W v4.00 Oryx Data Collector v3.7.2.0data status	okinstallation	princeton_trtdifferential loss correction	single-endedforward channel	channel 4reverse channel	N/Adate	2019/09/11time	22:55:10forward acquisition time	60.00reverse acquisition time	0.00gamma	496.2192k internal	0.2308k external	0.2308temperature offset calibration	1.0077default loss term (dB/km)	0.3790temperature slope calibration	1.0000multiplexer offset coefficient	1.0000multiplexer slope coefficient	1.0000fibre end	0.00T internal ref (°C)	34.69T ext. ref 1 (°C)	1.81T ext. ref 2 (°C)	29.36length (m)	temperature (°C)	Stokes	anti-Stokes-747.200	-90.399	-0.170	0.050
-746.185	-176.633	-0.142	0.004
-745.171	-200.000	-0.007	-0.125
-744.156	109.154	0.274	0.333
-743.142	-29.833	0.123	-0.071
-742.127	165.325	-0.142	0.204
-741.112	-20.411	-0.328	0.205
-740.098	-3.354	0.115	0.081
-739.083	-83.556	-0.276	0.090
-738.069	204.152	0.171	0.270
-737.054	-98.140	0.336	-0.088
-736.039	-185.629	-0.347	0.005
-735.025	-134.614	0.330	0.041
-734.010	-99.231	0.181	-0.046
-732.996	-64.028	-0.184	-0.076
-731.981	13.655	0.181	0.143
-730.966	-58.570	0.285	0.126
-729.952	168.547	-0.145	-0.210
-728.937	800.000	0.016	-0.063
-727.923	-160.104	0.078	-0.004
-726.908	-192.002	0.224	-0.002
-725.894	-28.312	-0.468	-0.274
-724.879	-77.229	-0.207	-0.073
-723.864	575.269	-0.029	-0.072
-722.850	86.745	-0.299	-0.336
-721.835	500.909	-0.104	-0.243
-720.821	59.295	-0.135	-0.135
-719.806	-200.000	0.029	-0.273
-718.791	-155.457	-0.205	-0.013
-717.777	17.599	0.106	0.086
-716.762	-80.290	-0.287	0.097
-715.748	800.000	-0.012	-0.042
-714.733	800.000	0.045	-0.136
-713.718	270.254	-0.042	0.075
-712.704	75.438	0.130	-0.139
-711.689	741.042	-0.107	0.291
-710.675	777.088	0.051	0.141
-709.660	129.030	-0.051	-0.066
-708.645	800.000	-0.022	0.078
-707.631	-196.555	0.132	-0.001
-706.616	-159.320	0.199	0.011
-705.602	26.710	-0.250	-0.213
-704.587	800.000	0.034	-0.108
-703.572	-148.657	-0.073	0.006
-702.558	-39.931	0.191	-0.101
-701.543	78.377	-0.215	-0.233
-700.529	-200.000	-0.013	-0.092
-699.514	-105.914	-0.221	0.051
-698.499	249.780	-0.178	0.306
-697.485	731.766	-0.036	0.099
-696.470	-200.000	-0.007	0.074
-695.456	59.828	0.231	-0.232
-694.441	800.000	0.116	-0.356
-693.426	40.304	-0.249	-0.227
-692.412	-54.088	-0.239	0.110
-691.397	-200.000	-0.002	-0.286
-690.383	-109.671	-0.251	0.054
-689.368	-200.000	-0.030	-0.335
-688.354	-200.000	0.019	0.338
-687.339	-105.803	-0.293	-0.067
-686.324	3.523	-0.380	-0.281
-685.310	800.000	-0.143	0.413
-684.295	-45.793	0.440	0.220
-683.281	800.000	0.042	0.175
-682.266	17.797	-0.104	0.084
-681.251	-155.989	-0.606	0.039
-680.237	-61.485	0.113	-0.048
-679.222	170.336	-0.129	-0.187
-678.208	-200.000	0.007	-0.077
-677.193	-81.796	0.144	-0.048
-676.178	-4.312	0.141	0.099
-675.164	291.987	0.036	-0.066
-674.149	382.871	-0.101	-0.210
-673.135	390.600	0.046	0.096
-672.120	-129.657	-0.236	0.033
-671.105	386.608	-0.119	-0.250
-670.091	510.027	-0.013	-0.030
-669.076	-77.611	-0.132	0.046
-668.062	-103.437	-0.406	-0.097
-667.047	-200.000	0.030	0.173
-666.032	-57.082	-0.344	0.154
-665.018	13.149	0.098	-0.077
-664.003	-200.000	0.026	-0.201
-662.989	46.015	-0.175	-0.164
-661.974	106.647	-0.102	0.123
-660.959	-79.614	0.254	-0.087
-659.945	85.106	-0.219	0.244
-658.930	-34.762	-0.102	-0.056
-657.916	-200.000	-0.011	0.202
-656.901	109.752	-0.166	-0.202
-655.886	252.919	-0.118	0.205
-654.872	-0.926	0.262	0.188
-653.857	196.143	0.070	-0.109
-652.843	204.571	-0.112	0.176
-651.828	224.697	-0.125	0.205
-650.814	15.824	-0.266	0.212
-649.799	-200.000	0.006	0.074
-648.784	-33.781	0.306	0.171
-647.770	-107.221	-0.068	-0.015
-646.755	-200.000	0.025	0.245
-645.741	57.172	0.220	0.218
-644.726	-179.705	-0.108	0.002
-643.711	37.853	-0.251	-0.226
-642.697	-6.270	-0.189	-0.131
-641.682	-114.774	0.152	-0.029
-640.668	-118.659	-0.332	0.059
-639.653	93.204	0.070	0.081
-638.638	-89.681	0.394	0.117
-637.624	184.299	-0.047	0.070
-636.609	800.000	0.077	-0.332
-635.595	-54.945	-0.104	0.047
-634.580	139.783	-0.195	-0.260
-633.565	800.000	0.051	-0.178
-632.551	-200.000	-0.030	-0.175
-631.536	-200.000	-0.029	-0.416
-630.522	800.000	-0.097	-0.332
-629.507	-14.146	0.104	-0.068
-628.492	-62.735	-0.036	0.015
-627.478	303.176	0.142	0.266
-626.463	422.441	-0.043	-0.094
-625.449	216.142	0.121	-0.194
-624.434	86.100	-0.260	0.289
-623.419	-200.000	-0.039	0.206
-622.405	466.010	-0.106	-0.240
-621.390	-129.471	0.073	0.010
-620.376	119.372	0.072	0.090
-619.361	-93.248	0.389	0.109
-618.346	-71.146	0.196	0.075
-617.332	-28.518	-0.381	-0.222
-616.317	117.333	0.093	0.115
-615.303	-131.937	-0.186	0.024
-614.288	147.104	-0.122	-0.166
-613.273	-200.000	-0.006	0.063
-612.259	800.000	0.044	-0.164
-611.244	94.669	-0.143	0.165
-610.230	-44.668	0.274	0.138
-609.215	-41.084	0.245	-0.128
-608.201	-200.000	0.014	0.186
-607.186	85.568	0.059	0.065
-606.171	206.512	-0.223	-0.351
-605.157	800.000	-0.085	-0.295
-604.142	-200.000	0.026	0.164
-603.128	159.217	0.174	-0.245
-602.113	276.890	-0.117	0.210
-601.098	78.702	-0.064	-0.070
-600.084	415.455	-0.038	0.083
-599.069	137.699	0.146	0.193
-598.055	800.000	0.034	-0.100
-597.040	800.000	0.071	-0.205
-596.025	-119.542	-0.332	0.058
-595.011	105.447	0.097	-0.116
-593.996	177.872	0.016	0.024
-592.982	93.591	0.352	-0.403
-591.967	-200.000	0.042	0.435
-590.952	-200.000	0.064	-0.323
-589.938	48.392	0.191	-0.180
-588.923	-200.000	-0.001	-0.025
-587.909	114.708	-0.149	0.184
-586.894	-200.000	0.044	-0.214
-585.879	-200.000	-0.020	-0.209
-584.865	562.471	-0.087	0.214
-583.850	13.179	-0.134	-0.105
-582.836	-200.000	-0.044	0.220
-581.821	-54.084	-0.107	-0.049
-580.806	-26.363	-0.072	0.043
-579.792	279.554	-0.139	0.251
-578.777	800.000	0.050	0.152
-577.763	35.587	0.082	-0.073
-576.748	-2.161	0.326	0.231
-575.733	174.616	-0.165	-0.240
-574.719	135.172	0.085	0.111
-573.704	-200.000	-0.022	-0.266
-572.690	-200.000	-0.039	-0.246
-571.675	223.907	-0.106	0.173
-570.661	147.873	0.163	0.222
-569.646	220.652	-0.080	0.129
-568.631	-96.786	0.119	0.032
-567.617	24.039	0.126	0.105
-566.602	183.922	-0.145	0.216
-565.588	800.000	-0.102	0.312
-564.573	44.173	0.199	-0.184
-563.558	-20.136	0.276	-0.172
-562.544	-54.358	-0.206	0.094
-561.529	142.167	-0.389	-0.521
-560.515	-53.056	0.090	0.042
-559.500	-70.179	-0.078	0.030
-558.485	195.079	-0.038	0.058
-557.471	225.115	-0.047	-0.077
-556.456	17.402	0.117	0.094
-555.442	-81.942	-0.258	0.085
-554.427	239.297	-0.026	0.043
-553.412	-200.000	-0.240	-0.000
-552.398	800.000	0.134	0.408
-551.383	321.022	0.054	0.104
-550.369	-24.677	-0.064	0.039
-549.354	133.749	-0.092	0.121
-548.339	10.110	0.083	-0.064
-547.325	800.000	-0.113	-0.337
-546.310	-200.000	-0.021	0.234
-545.296	264.628	0.091	0.161
-544.281	-86.399	0.180	-0.056
-543.266	110.504	0.088	0.106
-542.252	304.268	-0.060	-0.113
-541.237	800.000	-0.062	-0.215
-540.223	-149.942	0.049	0.004
-539.208	418.586	-0.069	-0.150
-538.193	-111.987	-0.196	-0.040
-537.179	-103.138	0.126	0.030
-536.164	-200.000	-0.224	-0.000
-535.150	410.902	-0.125	-0.268
-534.135	48.805	0.274	0.259
-533.121	2.947	-0.184	0.135
-532.106	-200.000	0.022	0.313
-531.091	4.417	0.362	-0.267
-530.077	800.000	0.023	0.081
-529.062	-119.744	0.274	0.048
-528.048	-87.451	-0.207	-0.063
-527.033	634.302	-0.066	-0.169
-526.018	48.804	-0.269	-0.254
-525.004	314.589	-0.172	0.326
-523.989	-200.000	-0.017	0.082
-522.975	311.681	0.065	0.123
-521.960	725.790	-0.050	-0.135
-520.945	28.001	0.133	-0.113
-519.931	-200.000	-0.035	0.200
-518.916	104.977	0.154	-0.183
-517.902	-80.067	-0.031	-0.011
-516.887	24.690	-0.168	0.140
-515.872	43.932	0.063	-0.058
-514.858	-200.000	0.035	-0.187
-513.843	800.000	0.012	0.045
-512.829	-49.607	-0.225	-0.108
-511.814	18.712	-0.206	-0.166
-510.799	-200.000	0.001	-0.156
-509.785	800.000	-0.018	-0.068
-508.770	-160.561	0.196	-0.011
-507.756	776.987	-0.128	0.353
-506.741	3.663	0.266	0.195
-505.726	-193.101	0.383	0.003
-504.712	322.497	-0.045	0.087
-503.697	-86.509	-0.122	-0.038
-502.683	40.204	0.092	0.083
-501.668	-200.000	-0.144	-0.652
-500.653	800.000	-0.091	-0.314
-499.639	237.103	-0.181	0.302
-498.624	-55.334	0.272	0.123
-497.610	800.000	0.156	-0.528
-496.595	82.284	0.231	-0.253
-495.581	58.367	0.169	-0.167
-494.566	-50.334	0.108	-0.051
-493.551	-152.289	-0.144	-0.011
-492.537	800.000	-0.083	-0.343
-491.522	-165.608	-0.244	-0.011
-490.508	108.169	0.161	0.193
-489.493	-175.418	-0.247	-0.007
-488.478	-92.268	-0.276	-0.078
-487.464	209.950	-0.158	-0.250
-486.449	-200.000	0.022	-0.385
-485.435	-41.254	0.320	-0.166
-484.420	218.178	-0.010	-0.016
-483.405	324.870	-0.051	-0.098
-482.391	-92.205	-0.150	-0.043
-481.376	8.607	0.154	-0.116
-480.362	-67.053	0.257	0.102
-479.347	-25.978	0.198	0.117
-478.332	800.000	0.114	-0.333
-477.318	-10.420	-0.205	-0.137
-476.303	-121.479	-0.310	-0.052
-475.289	-159.410	-0.235	0.013
-474.274	-158.907	0.204	0.012
-473.259	89.928	0.247	0.278
-472.245	-177.119	0.295	0.007
-471.230	-30.346	-0.100	-0.057
-470.216	-118.852	0.149	0.026
-469.201	103.819	-0.130	0.154
-468.186	208.236	-0.057	0.090
-467.172	-44.877	-0.393	-0.197
-466.157	800.000	0.043	-0.182
-465.143	-200.000	-0.081	0.360
-464.128	-51.093	-0.176	0.083
-463.113	132.559	0.107	-0.139
-462.099	-19.171	-0.022	0.014
-461.084	-96.148	0.306	-0.082
-460.070	-200.000	0.007	0.092
-459.055	35.327	0.053	0.047
-458.040	-105.549	-0.216	0.049
-457.026	256.413	-0.067	-0.115
-456.011	42.417	-0.416	0.380
-454.997	276.411	0.200	0.358
-453.982	-122.068	-0.145	-0.024
-452.968	-136.299	0.081	0.010
-451.953	800.000	-0.059	0.254
-450.938	-22.622	-0.087	0.053
-449.924	-150.285	-0.115	-0.009
-448.909	-66.042	0.159	-0.064
-447.895	-200.000	-0.046	-0.478
-446.880	-200.000	0.027	-0.145
-445.865	250.222	0.247	0.421
-444.851	-200.000	-0.008	0.203
-443.836	-112.390	0.057	-0.011
-442.822	-191.573	-0.263	-0.003
-441.807	618.212	0.028	-0.069
-440.792	-103.913	-0.189	0.044
-439.778	45.417	-0.037	-0.035
-438.763	8.405	0.190	-0.143
-437.749	-132.550	0.292	0.038
-436.734	-22.329	0.236	-0.143
-435.719	15.703	-0.217	0.172
-434.705	200.428	0.184	0.284
-433.690	-67.967	0.382	-0.150
-432.676	434.843	0.026	0.057
-431.661	603.344	-0.109	0.273
-430.646	800.000	-0.096	0.331
-429.632	-200.000	0.021	0.106
-428.617	-129.870	-0.115	0.016
-427.603	280.401	0.142	0.255
-426.588	20.023	-0.092	-0.074
-425.573	-146.995	-0.256	0.022
-424.559	182.006	0.203	0.299
-423.544	168.316	0.142	-0.203
-422.530	544.188	-0.200	0.479
-421.515	-200.000	0.047	0.348
-420.500	-200.000	0.036	0.170
-419.486	-180.259	0.332	-0.007
-418.471	-200.000	0.022	0.096
-417.457	-29.986	-0.122	0.070
-416.442	-94.146	-0.184	-0.051
-415.428	181.176	0.079	-0.116
-414.413	37.637	-0.274	0.244
-413.398	800.000	-0.135	-0.409
-412.384	-115.049	0.198	-0.038
-411.369	161.871	0.246	0.345
-410.355	800.000	-0.097	0.356
-409.340	-133.221	0.085	-0.011
-408.325	-19.384	-0.115	-0.071
-407.311	12.146	-0.035	-0.027
-406.296	-200.000	-0.005	-0.226
-405.282	-138.178	0.133	-0.015
-404.267	112.970	0.140	-0.170
-403.252	688.294	0.040	0.106
-402.238	-100.477	-0.196	-0.049
-401.223	-200.000	0.037	-0.297
-400.209	-200.000	-0.036	-0.220
-399.194	-200.000	0.042	0.438
-398.179	4.371	0.240	-0.176
-397.165	800.000	-0.091	0.282
-396.150	-42.140	-0.244	-0.125
-395.136	205.792	0.311	0.484
-394.121	67.661	0.198	-0.202
-393.106	511.582	-0.096	0.225
-392.092	249.583	0.190	0.323
-391.077	100.273	-0.031	0.036
-390.063	484.267	-0.123	-0.280
-389.048	128.345	-0.100	0.127
-388.033	-200.000	0.032	0.209
-387.019	8.683	0.179	-0.135
-386.004	241.464	-0.167	-0.279
-384.990	215.038	0.030	0.048
-383.975	800.000	-0.054	0.220
-382.960	-9.165	0.029	-0.019
-381.946	326.868	0.058	-0.111
-380.931	-160.252	0.433	-0.023
-379.917	-200.000	-0.014	-0.063
-378.902	624.968	-0.058	-0.147
-377.888	39.625	-0.183	0.165
-376.873	-197.235	0.235	-0.001
-375.858	-173.278	0.164	-0.005
-374.844	-200.000	0.010	0.216
-373.829	-200.000	0.034	-0.178
-372.815	800.000	0.016	0.046
-371.800	124.014	0.185	-0.233
-370.785	-88.093	0.414	-0.125
-369.771	33.779	-0.222	-0.194
-368.756	800.000	0.053	0.218
-367.742	505.629	-0.062	0.145
-366.727	-133.629	0.085	-0.011
-365.712	-7.654	0.119	0.080
-364.698	-52.821	-0.183	-0.085
-363.683	-59.194	-0.365	0.158
-362.669	-172.658	-0.268	0.008
-361.654	279.803	0.115	0.205
-360.639	107.888	0.037	0.044
-359.625	-200.000	0.072	-0.371
-358.610	200.704	-0.176	-0.271
-357.596	245.158	0.146	-0.247
-356.581	-70.707	-0.209	0.079
-355.566	-127.775	0.113	-0.016
-354.552	161.595	-0.219	0.306
-353.537	120.930	-0.073	0.091
-352.523	-86.514	-0.260	0.080
-351.508	195.937	-0.168	-0.256
-350.493	-100.315	-0.017	0.004
-349.479	106.588	-0.183	0.217
-348.464	-53.973	-0.203	-0.093
-347.450	-66.282	0.098	-0.039
-346.435	-200.000	0.007	0.060
-345.420	33.553	0.143	-0.124
-344.406	70.479	0.041	-0.042
-343.391	284.117	0.138	0.248
-342.377	-200.000	-0.057	0.345
-341.362	96.479	-0.084	0.097
-340.348	-200.000	-0.006	0.100
-339.333	-134.009	0.444	-0.055
-338.318	800.000	-0.052	-0.146
-337.304	-89.889	-0.248	-0.073
-336.289	62.039	-0.199	0.198
-335.275	187.550	-0.099	0.148
-334.260	-200.000	-0.015	0.240
-333.245	-60.730	-0.287	0.121
-332.231	27.995	-0.165	0.139
-331.216	109.813	0.177	0.212
-330.202	478.789	0.201	-0.456
-329.187	95.161	0.208	-0.237
-328.172	-200.000	0.032	-0.437
-327.158	-91.821	-0.402	-0.114
-326.143	87.979	0.206	0.229
-325.129	-200.000	-0.015	0.095
-324.114	382.474	-0.116	-0.238
-323.099	268.671	-0.102	-0.180
-322.085	-163.578	-0.345	0.016
-321.070	-200.000	-0.003	-0.115
-320.056	57.174	-0.134	-0.131
-319.041	-28.128	-0.116	-0.067
-318.026	-200.000	-0.010	-0.182
-317.012	-30.099	0.174	0.099
-315.997	-79.074	0.263	-0.089
-314.983	419.171	0.093	0.200
-313.968	197.492	-0.256	0.391
-312.953	-200.000	-0.026	0.317
-311.939	607.479	-0.064	0.160
-310.924	800.000	-0.053	-0.155
-309.910	-29.873	0.241	-0.137
-308.895	-200.000	0.071	-0.400
-307.880	-191.894	-0.151	0.001
-306.866	79.299	-0.294	-0.315
-305.851	360.328	-0.117	-0.234
-304.837	329.102	0.069	-0.132
-303.822	237.140	0.106	0.176
-302.807	-67.049	0.229	-0.090
-301.793	-100.561	-0.045	0.011
-300.778	73.309	0.061	-0.063
-299.764	800.000	0.024	0.101
-298.749	557.439	0.121	0.291
-297.735	-34.288	0.215	-0.118
-296.720	116.890	-0.267	0.327
-295.705	-200.000	-0.043	-0.191
-294.691	-16.337	-0.174	-0.110
-293.676	44.310	-0.088	0.081
-292.662	116.420	0.078	0.095
-291.647	-200.000	0.020	0.142
-290.632	-31.953	0.314	-0.175
-289.618	-151.245	-0.028	0.002
-288.603	292.480	0.052	0.095
-287.589	-33.108	0.110	-0.061
-286.574	800.000	-0.041	0.147
-285.559	-44.883	-0.352	0.175
-284.545	-200.000	-0.012	-0.559
-283.530	159.414	-0.045	-0.062
-282.516	-128.045	0.221	0.032
-281.501	-115.944	-0.138	-0.026
-280.486	112.844	0.105	-0.127
-279.472	59.475	0.262	-0.258
-278.457	442.748	-0.192	0.420
-277.443	523.317	0.097	0.228
-276.428	800.000	0.037	0.118
-275.413	614.363	0.066	0.166
-274.399	94.577	-0.228	0.259
-273.384	798.500	-0.069	-0.189
-272.370	110.295	-0.196	0.235
-271.355	47.714	0.094	0.088
-270.340	-200.000	0.077	-0.548
-269.326	-200.000	0.053	0.236
-268.311	-104.053	0.204	-0.047
-267.297	800.000	0.028	0.082
-266.282	265.113	0.075	0.131
-265.267	-65.868	-0.297	-0.118
-264.253	-82.335	0.150	-0.049
-263.238	-159.945	-0.239	0.013
-262.224	-48.504	-0.201	0.097
-261.209	-200.000	-0.007	0.046
-260.195	4.380	-0.370	0.270
-259.180	437.029	0.112	0.244
-258.165	743.840	0.101	0.271
-257.151	-83.071	-0.264	-0.085
-256.136	800.000	-0.059	-0.235
-255.122	-49.935	0.183	-0.087
-254.107	-23.734	-0.422	0.252
-253.092	800.000	-0.030	0.106
-252.078	800.000	-0.051	-0.146
-251.063	-200.000	-0.030	0.379
-250.049	-188.464	0.097	0.001
-249.034	201.590	0.218	-0.334
-248.019	-200.000	-0.039	-0.229
-247.005	-21.099	0.254	0.155
-245.990	-54.648	0.088	-0.040
-244.976	-60.752	-0.100	-0.042
-243.961	-200.000	-0.045	0.491
-242.946	-200.000	0.026	0.127
-241.932	800.000	0.049	-0.186
-240.917	-176.884	0.277	-0.007
-239.903	-86.614	-0.052	0.016
-238.888	-151.288	-0.098	-0.007
-237.873	-24.453	0.493	0.293
-236.859	10.916	0.105	-0.080
-235.844	6.975	-0.127	0.094
-234.830	800.000	0.141	-0.399
-233.815	219.122	0.121	-0.193
-232.800	-79.708	0.273	0.092
-231.786	41.777	0.247	-0.223
-230.771	478.910	-0.149	-0.335
-229.757	-157.544	-0.087	-0.005
-228.742	-200.000	0.038	0.322
-227.727	-196.619	0.337	0.002
-226.713	101.756	0.087	0.102
-225.698	84.943	-0.262	-0.286
-224.684	482.508	-0.134	-0.302
-223.669	146.556	-0.141	0.188
-222.655	3.652	-0.160	-0.116
-221.640	-80.526	0.208	0.069
-220.625	800.000	0.177	0.518
-219.611	-140.927	-0.186	0.019
-218.596	-32.085	-0.135	-0.075
-217.582	-115.120	-0.207	0.039
-216.567	-47.436	-0.148	0.072
-215.552	800.000	0.069	-0.231
-214.538	54.128	0.117	-0.113
-213.523	-0.834	0.261	0.184
-212.509	-144.508	-0.201	-0.019
-211.494	150.342	-0.123	0.166
-210.479	-44.308	0.213	-0.106
-209.465	-23.963	-0.327	-0.195
-208.450	44.173	0.168	-0.153
-207.436	-200.000	0.058	0.286
-206.421	14.508	-0.049	-0.038
-205.406	-200.000	-0.006	0.046
-204.392	5.474	0.192	-0.141
-203.377	-173.310	0.264	-0.008
-202.363	800.000	-0.104	-0.331
-201.348	800.000	0.081	0.293
-200.333	-63.430	0.108	0.044
-199.319	-30.612	-0.079	0.044
-198.304	13.758	-0.050	0.039
-197.290	-111.597	-0.349	0.070
-196.275	43.626	-0.049	0.044
-195.260	-200.000	-0.063	0.422
-194.246	800.000	-0.068	-0.257
-193.231	70.978	-0.122	-0.125
-192.217	168.864	0.175	0.248
-191.202	335.439	0.076	0.146
-190.187	-14.692	0.173	-0.111
-189.173	73.900	-0.166	-0.173
-188.158	-53.128	0.209	0.096
-187.144	-200.000	-0.034	0.218
-186.129	33.561	-0.138	-0.119
-185.114	800.000	-0.012	0.038
-184.100	152.386	-0.329	-0.446
-183.085	800.000	0.147	-0.485
-182.071	524.109	0.075	-0.175
-181.056	-200.000	0.011	-0.204
-180.042	-0.067	-0.109	0.077
-179.027	325.207	0.170	-0.324
-178.012	-108.612	0.363	0.078
-176.998	-71.356	0.266	0.099
-175.983	-197.333	-0.168	-0.001
-174.969	-98.630	0.122	-0.031
-173.954	-200.000	0.025	-0.145
-172.939	-50.681	0.279	0.130
-171.925	-73.035	0.145	0.053
-170.910	-47.946	-0.215	0.103
-169.896	-53.903	-0.153	-0.069
-168.881	-200.000	0.000	-0.069
-167.866	-200.000	0.009	-0.062
-166.852	35.295	0.176	-0.153
-165.837	-105.155	-0.325	-0.074
-164.823	53.946	-0.180	0.172
-163.808	-57.718	0.317	0.138
-162.793	568.113	0.055	0.134
-161.779	112.239	0.191	0.229
-160.764	23.458	0.191	-0.156
-159.750	749.431	0.032	0.085
-158.735	-158.110	-0.404	-0.024
-157.720	800.000	-0.106	0.301
-156.706	121.055	-0.259	-0.320
-155.691	-125.808	-0.202	0.030
-154.677	246.601	0.125	-0.209
-153.662	52.518	0.019	-0.018
-152.647	-68.569	-0.135	-0.052
-151.633	-88.659	0.161	-0.048
-150.618	236.041	0.043	0.070
-149.604	629.078	0.030	-0.077
-148.589	98.630	-0.023	-0.026
-147.574	280.874	-0.100	0.177
-146.560	134.687	0.152	-0.196
-145.545	-200.000	0.005	0.169
-144.531	-13.101	0.100	0.065
-143.516	73.557	-0.061	0.064
-142.502	-62.126	0.127	0.053
-141.487	27.513	-0.033	-0.027
-140.472	-43.841	0.218	0.109
-139.458	-75.547	0.163	0.058
-138.443	176.379	-0.162	-0.234
-137.429	16.360	-0.148	0.116
-136.414	19.354	-0.371	-0.296
-135.399	800.000	0.081	0.231
-134.385	-51.653	-0.257	-0.119
-133.370	-136.254	0.406	-0.047
-132.356	-200.000	-0.026	-0.118
-131.341	651.726	0.065	-0.165
-130.326	-200.000	0.038	0.241
-129.312	118.452	-0.100	-0.123
-128.297	254.898	-0.216	0.366
-127.283	27.193	-0.202	0.168
-126.268	142.303	0.050	0.066
-125.253	235.568	0.056	0.091
-124.239	389.313	-0.068	-0.141
-123.224	800.000	0.069	0.258
-122.210	83.183	0.084	-0.091
-121.195	-200.000	-0.016	-0.299
