DTS Sentinel unit serial number:	SN413079Multiplexer serial number:	ORYXHardware model number:	OX4-SRSoftware version number:	ORYX F/W v4.00 Oryx Data Collector v3.7.2.0data status	okinstallation	princeton_trtdifferential loss correction	single-endedforward channel	channel 4reverse channel	N/Adate	2019/09/12time	18:40:18forward acquisition time	15.00reverse acquisition time	0.00gamma	496.2192k internal	0.2307k external	0.2307temperature offset calibration	1.0137default loss term (dB/km)	0.3790temperature slope calibration	1.0000multiplexer offset coefficient	1.0000multiplexer slope coefficient	1.0000fibre end	0.00T internal ref (°C)	33.06T ext. ref 1 (°C)	2.97T ext. ref 2 (°C)	27.64length (m)	temperature (°C)	Stokes	anti-Stokes-747.200	-144.363	-0.209	-0.020
-746.185	-200.000	-0.101	-0.472
-745.171	-114.521	-0.391	0.076
-744.156	-118.645	-0.492	-0.088
-743.142	270.573	0.142	-0.254
-742.127	-147.266	0.600	-0.052
-741.112	225.337	0.116	0.190
-740.098	122.170	0.211	0.269
-739.083	-200.000	0.047	0.382
-738.069	52.135	-0.386	0.374
-737.054	800.000	-0.248	-0.869
-736.039	-25.523	-0.430	0.258
-735.025	800.000	0.116	-0.372
-734.010	169.516	0.577	-0.838
-732.996	-6.697	-1.154	-0.798
-731.981	-21.757	-0.460	-0.285
-730.966	252.668	-0.115	-0.199
-729.952	-93.174	0.658	0.186
-728.937	-19.746	-0.217	0.136
-727.923	-91.989	-0.582	-0.167
-726.908	29.129	-0.216	-0.186
-725.894	-200.000	0.037	0.282
-724.879	-36.737	0.405	0.221
-723.864	-8.196	0.253	0.173
-722.850	-90.209	0.511	0.151
-721.835	-27.852	-0.493	0.290
-720.821	-46.169	-0.160	-0.080
-719.806	15.055	-0.493	0.393
-718.791	42.868	0.306	-0.284
-717.777	-13.180	0.625	-0.413
-716.762	800.000	0.060	-0.239
-715.748	395.719	0.203	0.430
-714.733	-130.884	-0.617	0.084
-713.718	85.317	-0.383	-0.427
-712.704	-193.612	1.434	0.012
-711.689	-200.000	0.026	-0.715
-710.675	-175.231	-0.456	0.013
-709.660	158.963	0.122	-0.172
-708.645	-133.129	-0.461	-0.059
-707.631	582.366	-0.259	0.645
-706.616	6.888	-0.242	-0.183
-705.602	-156.201	-0.189	-0.012
-704.587	144.212	-0.485	-0.657
-703.572	231.326	0.331	0.551
-702.558	-200.000	0.088	0.421
-701.543	-83.585	-0.527	-0.171
-700.529	650.411	0.215	-0.559
-699.514	-140.672	-0.560	0.059
-698.499	94.307	-0.699	-0.806
-697.485	800.000	0.197	-0.753
-696.470	-200.000	-0.075	-0.492
-695.456	800.000	0.129	0.534
-694.441	-200.000	0.001	0.350
-693.426	800.000	-0.235	0.723
-692.412	-50.681	0.263	-0.126
-691.397	17.245	-0.468	-0.377
-690.383	9.305	0.437	-0.335
-689.368	-170.296	0.257	-0.009
-688.354	-200.000	0.147	0.684
-687.339	29.414	-0.127	0.110
-686.324	-34.871	0.328	-0.182
-685.310	-112.677	1.106	-0.223
-684.295	-88.682	-0.153	-0.046
-683.281	766.683	0.196	0.540
-682.266	800.000	0.254	-0.786
-681.251	-177.436	0.594	0.015
-680.237	-22.687	-0.440	-0.270
-679.222	-101.314	-0.377	0.093
-678.208	0.014	0.345	-0.249
-677.193	-182.341	0.258	-0.005
-676.178	-99.977	-0.476	0.121
-675.164	-51.750	0.855	0.404
-674.149	238.556	0.387	-0.652
-673.135	-200.000	0.076	-1.000
-672.120	49.839	-0.750	-0.717
-671.105	800.000	0.054	0.220
-670.091	53.340	0.102	0.099
-669.076	-152.123	-1.469	-0.108
-668.062	-38.848	-0.218	0.117
-667.047	22.389	0.489	0.406
-666.032	-130.319	-0.536	0.074
-665.018	-89.315	-0.225	0.067
-664.003	116.319	-0.058	-0.072
-662.989	139.560	-0.703	0.939
-661.974	-72.865	0.601	0.224
-660.959	-102.005	0.183	0.045
-659.945	800.000	-0.025	0.083
-658.930	-47.334	-0.464	0.229
-657.916	147.828	-0.571	0.780
-656.901	331.378	0.283	-0.554
-655.886	-200.000	0.001	-0.786
-654.872	-97.019	-1.045	0.277
-653.857	-77.557	0.862	0.303
-652.843	160.888	-0.290	0.410
-651.828	-117.564	-0.666	-0.122
-650.814	780.367	0.083	0.231
-649.799	-16.391	0.455	0.293
-648.784	-75.737	-0.092	-0.033
-647.770	-159.046	-0.094	-0.005
-646.755	-92.661	0.306	0.087
-645.741	800.000	-0.078	-0.270
-644.726	31.120	-0.885	-0.769
-643.711	-200.000	0.138	-0.792
-642.697	-50.182	-0.441	-0.211
-641.682	-66.436	-0.589	-0.237
-640.668	-33.608	-0.454	-0.254
-639.653	-200.000	0.020	0.419
-638.638	23.716	-0.569	0.475
-637.624	6.561	0.028	0.021
-636.609	6.306	0.257	0.193
-635.595	-129.790	-0.123	-0.017
-634.580	-23.551	0.429	-0.261
-633.565	341.782	0.374	0.741
-632.551	-200.000	-0.048	-0.858
-631.536	-200.000	-0.086	-0.429
-630.522	800.000	-0.120	0.356
-629.507	-200.000	0.199	-1.492
-628.492	-200.000	-0.033	-0.409
-627.478	-200.000	0.033	0.788
-626.463	112.949	0.802	0.984
-625.449	-125.322	-0.489	-0.076
-624.434	-200.000	0.111	0.876
-623.419	800.000	0.374	1.062
-622.405	612.890	0.143	-0.362
-621.390	-22.939	0.518	0.316
-620.376	473.241	0.219	-0.500
-619.361	-78.515	0.709	-0.246
-618.346	-129.833	-0.548	-0.076
-617.332	-136.703	-0.860	0.100
-616.317	-200.000	-0.145	-0.740
-615.303	56.224	-0.504	0.495
-614.288	-200.000	0.152	-0.816
-613.273	-137.696	0.248	0.028
-612.259	-139.898	-0.345	-0.037
-611.244	-87.435	-0.726	0.222
-610.230	115.200	-0.318	0.392
-609.215	-67.302	-0.624	-0.248
-608.201	-200.000	0.013	-0.316
-607.186	-50.095	0.702	0.337
-606.171	-86.583	0.108	-0.034
-605.157	153.971	-0.259	0.360
-604.142	186.897	-0.457	-0.688
-603.128	250.791	-0.128	-0.221
-602.113	-200.000	-0.052	-0.301
-601.098	-176.542	-0.968	0.025
-600.084	-20.691	-0.539	0.335
-599.069	13.491	0.487	0.382
-598.055	-116.825	0.947	-0.176
-597.040	331.239	-0.668	-1.301
-596.025	800.000	-0.203	-0.806
-595.011	800.000	0.069	-0.288
-593.996	-200.000	-0.172	1.141
-592.982	-160.808	-1.007	0.054
-591.967	704.859	0.275	-0.733
-590.952	-1.985	-0.304	-0.216
-589.938	-62.099	0.056	-0.024
-588.923	-110.725	0.654	-0.137
-587.909	77.323	-0.547	-0.588
-586.894	-108.132	-0.237	0.052
-585.879	800.000	0.138	-0.531
-584.865	-144.468	-0.680	-0.064
-583.850	-118.339	0.276	0.050
-582.836	-44.211	0.495	-0.251
-581.821	-200.000	-0.014	-0.146
-580.806	132.426	0.551	0.718
-579.792	-52.012	0.551	0.259
-578.777	-200.000	0.044	0.364
-577.763	-200.000	0.006	0.034
-576.748	62.414	0.058	-0.058
-575.733	217.365	0.364	0.586
-574.719	10.947	-0.236	0.182
-573.704	-74.669	-0.379	0.138
-572.690	-107.961	0.387	0.085
-571.675	-73.443	0.333	0.123
-570.661	800.000	0.291	0.880
-569.646	-30.704	0.614	0.351
-568.631	95.737	0.549	0.633
-567.617	64.070	0.742	0.753
-566.602	-35.962	-0.325	0.177
-565.588	-32.459	0.347	0.195
-564.573	64.604	-0.314	-0.320
-563.558	800.000	-0.250	-0.735
-562.544	430.080	0.207	0.451
-561.529	336.846	0.288	0.565
-560.515	218.705	-0.489	-0.789
-559.500	-200.000	0.003	0.408
-558.485	104.848	-0.171	-0.204
-557.471	-45.597	0.369	-0.185
-556.456	800.000	0.185	0.601
-555.442	-200.000	-0.015	-0.199
-554.427	-145.229	-0.494	-0.045
-553.412	108.585	-0.220	0.265
-552.398	-134.176	-0.126	-0.016
-551.383	212.369	-0.131	-0.208
-550.369	230.551	0.396	-0.654
-549.354	-39.967	-0.454	-0.239
-548.339	86.925	-0.150	-0.167
-547.325	-200.000	-0.117	-0.948
-546.310	680.377	0.316	-0.829
-545.296	-113.988	-0.167	0.033
-544.281	-84.314	-0.375	0.120
-543.266	-144.954	-0.727	0.067
-542.252	-114.283	0.842	0.164
-541.237	-200.000	-0.035	0.336
-540.223	-150.341	0.482	-0.037
-539.208	47.427	0.222	-0.209
-538.193	-200.000	-0.131	-0.737
-537.179	-111.335	-0.661	-0.136
-536.164	800.000	-0.373	-1.119
-535.150	-43.021	-0.470	-0.240
-534.135	-131.912	0.762	0.100
-533.121	-20.837	-0.254	0.157
-532.106	-84.264	-0.579	-0.185
-531.091	65.297	-0.302	0.308
-530.077	131.505	-0.574	0.744
-529.062	-11.223	0.144	-0.096
-528.048	131.544	-0.736	0.955
-527.033	-49.270	0.150	-0.072
-526.018	-54.229	-0.601	0.275
-525.004	-131.893	0.164	0.022
-523.989	-107.756	0.856	-0.188
-522.975	-180.439	-0.566	-0.012
-521.960	-41.145	-0.456	-0.237
-520.945	-106.291	-0.736	0.166
-519.931	199.379	-0.213	-0.328
-518.916	-200.000	-0.099	-0.694
-517.902	800.000	0.225	0.670
-516.887	-200.000	0.022	0.639
-515.872	-30.893	-0.437	0.249
-514.858	-200.000	-0.206	0.001
-513.843	-86.957	0.579	-0.178
-512.829	-65.240	-0.403	-0.164
-511.814	311.366	-0.383	-0.723
-510.799	322.534	-0.184	0.354
-509.785	503.262	-0.288	0.671
-508.770	800.000	0.224	0.773
-507.756	17.521	0.226	-0.181
-506.741	-200.000	0.191	-1.043
-505.726	-72.546	-0.395	0.147
-504.712	69.599	-0.181	-0.188
-503.697	382.433	0.070	-0.145
-502.683	-49.902	-0.316	0.151
-501.668	-20.055	0.791	0.492
-500.653	-21.826	-0.628	0.385
-499.639	800.000	-0.033	0.110
-498.624	60.566	-0.753	-0.752
-497.610	11.986	0.214	0.166
-496.595	96.429	-0.085	-0.098
-495.581	-67.824	-1.110	0.437
-494.566	800.000	-0.077	0.306
-493.551	30.282	-0.589	-0.507
-492.537	535.138	-0.187	0.447
-491.522	-200.000	0.072	0.414
-490.508	-121.585	0.491	0.082
-489.493	800.000	0.143	0.580
-488.478	-6.561	0.427	0.293
-487.464	103.629	0.153	-0.181
-486.449	-138.592	1.086	0.120
-485.435	800.000	0.251	-0.767
-484.420	262.810	-0.185	-0.324
-483.405	-200.000	0.010	-0.341
-482.391	273.013	0.295	0.525
-481.376	-75.924	-1.041	0.371
-480.362	226.834	-0.389	-0.636
-479.347	-200.000	0.075	-0.394
-478.332	800.000	-0.119	-0.512
-477.318	790.025	-0.144	0.398
-476.303	-67.381	-0.999	-0.395
-475.289	-65.124	0.175	-0.071
-474.274	-49.130	-0.532	-0.256
-473.259	-66.356	0.621	-0.248
-472.245	189.311	-0.303	-0.456
-471.230	800.000	-0.046	0.156
-470.216	108.028	-0.201	-0.242
-469.201	418.281	0.407	-0.876
-468.186	-25.273	-0.651	-0.388
-467.172	100.637	-0.095	0.111
-466.157	-200.000	0.163	0.748
-465.143	-50.540	-0.233	-0.111
-464.128	-167.067	0.621	0.025
-463.113	-200.000	-0.179	-0.802
-462.099	-132.829	-0.816	-0.105
-461.084	556.735	-0.291	-0.706
-460.070	-88.141	-0.150	-0.045
-459.055	169.881	0.151	-0.218
-458.040	-200.000	0.000	-0.575
-457.026	564.067	0.085	0.207
-456.011	-200.000	0.165	0.866
-454.997	-36.366	-0.206	-0.112
-453.982	-102.303	-0.225	-0.054
-452.968	513.654	-0.112	0.262
-451.953	449.910	-0.343	-0.760
-450.938	-200.000	0.035	0.595
-449.924	-44.720	-0.956	-0.480
-448.909	13.430	0.420	0.328
-447.895	-139.604	0.794	0.085
-446.880	-200.000	0.036	0.321
-445.865	96.631	0.108	-0.124
-444.851	420.770	-0.107	-0.230
-443.836	20.758	0.455	0.370
-442.822	396.990	-0.097	0.203
-441.807	-40.919	0.816	0.424
-440.792	-124.120	0.312	-0.049
-439.778	-200.000	-0.013	0.257
-438.763	-129.080	0.743	0.104
-437.749	-71.402	0.709	-0.267
-436.734	-71.594	-1.037	0.389
-435.719	-76.974	0.206	0.072
-434.705	-200.000	0.011	-0.099
-433.690	239.729	0.084	-0.141
-432.676	260.185	0.521	0.904
-431.661	325.463	-0.101	-0.193
-430.646	-107.959	0.192	0.042
-429.632	10.601	0.214	-0.164
-428.617	544.224	0.404	-0.968
-427.603	231.614	-0.288	0.475
-426.588	-200.000	0.132	0.671
-425.573	54.228	0.731	-0.707
-424.559	136.054	-0.300	-0.393
-423.544	554.309	-0.162	-0.391
-422.530	162.692	0.133	-0.187
-421.515	-79.157	-0.614	-0.209
-420.500	246.542	0.445	-0.753
-419.486	-31.869	0.301	-0.169
-418.471	-72.958	-0.101	0.037
-417.457	-80.017	-0.278	-0.094
-416.442	-135.475	1.092	0.131
-415.428	-200.000	-0.023	0.125
-414.413	-35.192	-0.488	0.267
-413.398	-64.683	0.064	0.026
-412.384	384.908	0.149	0.308
-411.369	-188.045	0.152	-0.002
-410.355	442.222	0.208	-0.458
-409.340	-4.463	0.985	0.683
-408.325	-39.513	0.205	-0.108
-407.311	331.632	-0.066	-0.128
-406.296	-43.734	0.709	0.359
-405.282	73.314	0.231	0.243
-404.267	-200.000	-0.151	0.693
-403.252	0.133	0.759	0.543
-402.238	12.449	0.220	0.170
-401.223	-75.659	0.188	-0.067
-400.209	89.313	0.147	0.164
-399.194	-200.000	0.136	-0.617
-398.179	-200.000	-0.138	0.639
-397.165	106.666	-0.345	0.411
-396.150	12.451	0.638	-0.494
-395.136	-71.425	0.275	0.103
-394.121	221.095	-0.144	-0.232
-393.106	-88.572	-0.527	0.157
-392.092	-162.919	0.890	-0.043
-391.077	-77.417	-0.520	-0.181
-390.063	-12.272	0.428	-0.281
-389.048	36.391	-0.316	-0.279
-388.033	82.256	0.487	-0.530
-387.019	-8.893	0.390	0.262
-386.004	-200.000	0.034	-0.735
-384.990	74.036	-0.534	-0.562
-383.975	-114.280	1.147	-0.222
-382.960	79.285	0.400	-0.429
-381.946	-55.786	0.134	-0.060
-380.931	-200.000	-0.087	-0.607
-379.917	216.702	0.062	0.099
-378.902	97.902	0.249	-0.287
-377.888	-164.942	-0.437	0.020
-376.873	457.543	-0.283	-0.629
-375.858	-91.496	-0.358	-0.103
-374.844	119.492	-0.364	-0.452
-373.829	140.839	-0.112	0.149
-372.815	-18.527	0.212	-0.132
-371.800	2.802	-0.484	-0.352
-370.785	17.063	-0.227	0.180
-369.771	17.455	0.343	-0.273
-368.756	800.000	0.140	-0.461
-367.742	87.300	-0.389	0.432
-366.727	398.500	0.096	0.201
-365.712	800.000	0.026	-0.100
-364.698	-200.000	-0.203	1.136
-363.683	-167.955	0.322	-0.013
-362.669	-148.447	-0.093	-0.008
-361.654	481.062	0.328	-0.746
-360.639	794.610	0.113	-0.312
-359.625	198.882	0.646	-0.991
-358.610	-200.000	0.029	0.243
-357.596	200.386	-0.369	-0.567
-356.581	26.371	-0.148	-0.124
-355.566	-132.122	0.280	-0.036
-354.552	130.471	-0.081	-0.104
-353.537	-144.458	-0.567	0.053
-352.523	455.846	0.321	0.714
-351.508	100.147	0.467	0.542
-350.493	4.379	0.368	-0.270
-349.479	233.272	-0.408	-0.671
-348.464	-148.232	0.163	0.013
-347.450	-81.872	0.198	-0.065
-346.435	-200.000	0.398	-0.001
-345.420	7.671	0.764	-0.573
-344.406	87.199	-0.388	-0.429
-343.391	-200.000	0.008	-0.364
-342.377	171.169	0.225	0.323
-341.362	240.612	-0.129	0.215
-340.348	-200.000	0.102	-0.454
-339.333	-200.000	-0.061	0.533
-338.318	75.506	0.607	0.641
-337.304	-130.890	-0.146	0.020
-336.289	25.986	0.406	-0.339
-335.275	-4.881	0.483	0.333
-334.260	800.000	-0.065	0.186
-333.245	25.997	0.215	0.179
-332.231	-30.669	0.328	0.186
-331.216	52.786	-0.162	-0.155
-330.202	81.619	-0.295	-0.320
-329.187	196.607	0.129	0.197
-328.172	196.633	-0.527	0.803
-327.158	-200.000	-0.059	-0.389
-326.143	377.011	0.262	0.536
-325.129	-112.603	0.382	0.076
-324.114	800.000	-0.210	-0.720
-323.099	-200.000	-0.080	0.778
-322.085	800.000	-0.013	-0.056
-321.070	705.522	0.145	-0.383
-320.056	-200.000	-0.053	0.656
-319.041	102.407	-0.344	0.402
-318.026	91.848	-0.311	-0.349
-317.012	-155.208	0.350	-0.023
-315.997	-93.416	-1.013	-0.281
-314.983	-26.835	0.209	0.122
-313.968	17.553	0.246	0.196
-312.953	-175.873	0.617	0.016
-311.939	800.000	-0.115	-0.447
-310.924	-44.086	-0.276	0.139
-309.910	-69.007	-0.704	0.271
-308.895	-75.022	-0.660	0.236
-307.880	-56.211	-0.406	-0.180
-306.866	35.625	-0.543	0.477
-305.851	-200.000	-0.097	0.708
-304.837	545.876	-0.131	0.312
-303.822	-90.093	0.367	-0.107
-302.807	474.035	-0.292	-0.659
-301.793	7.043	0.561	0.418
-300.778	-25.272	-0.256	0.151
-299.764	101.686	-0.480	-0.560
-298.749	-200.000	-0.001	-0.068
-297.735	800.000	0.189	0.744
-296.720	-14.019	-0.052	0.034
-295.705	800.000	0.048	0.169
-294.691	800.000	-0.159	0.578
-293.676	334.082	-0.175	0.339
-292.662	9.766	0.375	-0.285
-291.647	137.778	0.125	-0.164
-290.632	33.595	0.479	0.416
-289.618	-200.000	0.112	-1.121
-288.603	-13.758	0.172	-0.111
-287.589	-141.209	0.666	0.068
-286.574	-200.000	0.142	-0.866
-285.559	80.693	-0.231	-0.249
-284.545	501.992	-0.317	-0.732
-283.530	210.641	-0.392	0.615
-282.516	-91.079	-1.059	0.304
-281.501	6.374	0.283	0.210
-280.486	-200.000	-0.039	-0.421
-279.472	1.303	0.950	0.682
-278.457	800.000	0.282	-0.828
-277.443	160.756	-0.251	0.350
-276.428	-200.000	0.120	-0.650
-275.413	800.000	0.217	0.768
-274.399	-99.870	-0.152	0.038
-273.384	-131.737	-0.167	0.022
-272.370	-68.879	-0.580	-0.223
-271.355	-39.499	0.659	0.345
-270.340	67.380	-0.274	0.279
-269.326	94.850	-0.481	-0.547
-268.311	-105.113	-0.889	-0.203
-267.297	-147.282	-0.312	-0.026
-266.282	-200.000	0.073	-0.387
-265.267	46.366	0.055	0.051
-264.253	286.917	-0.444	-0.801
-263.238	-143.999	-0.314	-0.029
-262.224	215.442	0.096	0.152
-261.209	0.440	0.574	0.409
-260.195	108.050	0.309	0.367
-259.180	-200.000	-0.049	0.596
-258.165	689.339	-0.132	0.345
-257.151	-81.766	-0.722	0.236
-256.136	-59.021	0.964	-0.415
-255.122	164.912	0.111	-0.156
-254.107	399.227	0.230	0.480
-253.092	405.482	-0.350	-0.736
-252.078	-136.400	-0.306	-0.035
-251.063	-111.092	-0.144	0.030
-250.049	549.092	-0.294	0.703
-249.034	64.850	0.294	0.296
-248.019	-79.654	-0.653	-0.220
-247.005	-200.000	0.007	-0.312
-245.990	640.149	-0.144	0.367
-244.976	-137.414	0.626	-0.071
-243.961	-200.000	0.031	-0.268
-242.946	71.849	0.141	0.147
-241.932	-126.086	-0.536	-0.080
-240.917	-90.793	-1.066	0.306
-239.903	-200.000	0.042	0.193
-238.888	227.887	-0.159	0.258
-237.873	-200.000	-0.096	-0.523
-236.859	195.140	0.493	0.746
-235.844	-39.711	0.313	-0.163
-234.830	-200.000	0.152	-0.732
-233.815	-167.010	-0.255	-0.010
-232.800	319.449	0.270	0.511
-231.786	-93.245	0.404	0.112
-230.771	6.471	0.163	-0.120
-229.757	-122.713	0.438	0.071
-228.742	-105.116	-0.947	-0.216
-227.727	212.984	0.193	0.303
-226.713	-140.582	0.582	0.060
-225.698	-200.000	-0.057	-0.444
-224.684	-97.841	0.537	0.138
-223.669	-200.000	-0.034	-0.393
-222.655	-183.264	0.726	0.013
-221.640	-31.266	0.679	0.381
-220.625	800.000	-0.074	0.232
-219.611	800.000	-0.135	0.503
-218.596	-200.000	-0.090	0.778
-217.582	800.000	0.289	1.147
-216.567	-10.170	-0.329	0.217
-215.552	-143.812	0.583	0.055
-214.538	-59.321	0.232	-0.100
-213.523	10.010	-0.335	0.254
-212.509	-200.000	0.035	0.198
-211.494	-93.673	1.546	0.425
-210.479	104.019	-0.296	-0.347
-209.465	47.418	-0.238	0.220
-208.450	433.092	0.111	0.239
-207.436	38.550	0.685	-0.608
-206.421	800.000	0.145	0.617
-205.406	-144.554	0.599	-0.055
-204.392	-200.000	-0.076	-0.422
-203.377	-200.000	0.077	0.544
-202.363	-200.000	-0.041	-0.495
-201.348	800.000	-0.130	-0.478
-200.333	-70.873	-0.304	0.114
-199.319	-200.000	-0.007	-0.145
-198.304	423.709	0.034	-0.074
-197.290	48.331	0.302	-0.281
-196.275	-200.000	0.028	-0.255
-195.260	-18.544	0.190	0.118
-194.246	8.713	0.328	0.246
-193.231	108.300	-0.475	0.564
-192.217	-85.397	0.389	-0.121
-191.202	-200.000	0.032	-0.169
-190.187	456.595	0.289	0.638
-189.173	373.000	-0.256	0.518
-188.158	-60.464	0.954	0.403
-187.144	-200.000	0.028	-0.480
-186.129	-125.519	-0.640	-0.097
-185.114	-82.091	-0.123	-0.040
-184.100	751.870	0.291	-0.782
-183.085	34.204	-0.307	0.267
-182.071	-200.000	-0.115	-0.556
-181.056	68.550	-0.481	-0.490
-180.042	-56.733	-0.465	0.205
-179.027	-87.256	-0.376	0.114
-178.012	800.000	0.085	0.320
-176.998	-124.420	-0.902	0.140
-175.983	-58.602	0.423	0.182
-174.969	-61.895	-0.474	0.197
-173.954	-69.870	-0.259	-0.098
-172.939	488.957	0.043	0.097
-171.925	99.955	0.223	-0.257
-170.910	-200.000	-0.050	0.529
-169.896	209.506	0.415	0.646
-168.881	86.299	0.567	-0.622
-167.866	48.783	0.501	-0.467
-166.852	-96.227	-0.107	0.028
-165.837	-111.920	0.989	-0.198
-164.823	-200.000	-0.042	0.464
-163.808	-90.367	0.258	-0.074
-162.793	260.436	-0.438	0.752
-161.779	40.802	-0.320	0.287
-160.764	348.671	0.384	0.753
-159.750	-183.448	-0.240	0.004
-158.735	71.006	-0.924	-0.952
-157.720	307.263	0.313	0.579
-156.706	-200.000	0.143	0.660
-155.691	-200.000	0.001	0.658
-154.677	800.000	-0.312	0.862
-153.662	637.930	-0.325	0.821
-152.647	-73.170	-0.574	-0.209
-151.633	-2.358	0.312	-0.218
-150.618	-200.000	-0.080	0.475
-149.604	-52.693	0.255	0.117
-148.589	-200.000	-0.017	0.220
-147.574	49.975	0.063	-0.059
-146.560	800.000	-0.135	0.434
-145.545	-200.000	0.001	0.175
-144.531	8.080	0.858	0.640
-143.516	-6.897	-0.523	0.353
-142.502	26.566	0.515	0.428
-141.487	-25.091	-0.470	0.277
-140.472	800.000	0.142	-0.538
-139.458	-11.390	-0.477	0.312
-138.443	313.884	0.541	-1.011
-137.429	-83.833	-0.559	-0.177
-136.414	-118.975	-0.719	-0.125
-135.399	800.000	-0.163	0.682
-134.385	63.275	0.143	0.142
-133.370	416.209	-0.070	-0.149
-132.356	740.325	0.104	0.277
-131.341	141.689	0.414	-0.545
-130.326	-200.000	-0.021	-0.437
-129.312	-200.000	0.125	0.589
-128.297	-200.000	-0.007	0.419
-127.283	99.603	-0.840	-0.966
-126.268	-33.488	-0.194	-0.106
-125.253	-137.448	-0.516	0.058
-124.239	-200.000	-0.015	-0.344
-123.224	753.456	0.304	0.814
-122.210	-53.646	-0.495	0.225
-121.195	104.767	-0.464	0.543
