DTS Sentinel unit serial number:	SN413079Multiplexer serial number:	ORYXHardware model number:	OX4-SRSoftware version number:	ORYX F/W v4.00 Oryx Data Collector v3.7.2.0data status	okinstallation	princeton_trtdifferential loss correction	single-endedforward channel	channel 4reverse channel	N/Adate	2019/09/14time	05:29:35forward acquisition time	60.00reverse acquisition time	0.00gamma	496.2192k internal	0.2320k external	0.2320temperature offset calibration	1.0136default loss term (dB/km)	0.3790temperature slope calibration	1.0000multiplexer offset coefficient	1.0000multiplexer slope coefficient	1.0000fibre end	0.00T internal ref (°C)	26.92T ext. ref 1 (°C)	3.39T ext. ref 2 (°C)	21.87length (m)	temperature (°C)	Stokes	anti-Stokes-747.200	800.000	-0.050	0.144
-746.185	202.622	-0.187	0.292
-745.171	800.000	0.045	-0.158
-744.156	302.771	0.026	-0.049
-743.142	-100.279	-0.401	0.101
-742.127	40.270	0.225	0.205
-741.112	-143.297	-0.118	-0.011
-740.098	5.554	0.193	-0.144
-739.083	-40.859	-0.069	0.036
-738.069	800.000	-0.074	0.288
-737.054	-200.000	-0.037	0.236
-736.039	130.835	-0.282	0.366
-735.025	-91.956	0.433	0.124
-734.010	-200.000	0.012	-0.436
-732.996	-51.358	-0.330	-0.156
-731.981	674.507	0.092	-0.241
-730.966	-36.119	0.045	-0.024
-729.952	-11.494	-0.186	0.123
-728.937	209.948	0.145	0.230
-727.923	-200.000	-0.027	0.317
-726.908	800.000	0.033	0.101
-725.894	-126.168	-0.331	0.050
-724.879	-5.542	0.407	-0.282
-723.864	-43.435	-0.215	-0.110
-722.850	503.893	-0.049	-0.114
-721.835	-200.000	-0.025	0.189
-720.821	-28.201	-0.123	0.072
-719.806	-153.037	0.041	-0.003
-718.791	40.937	-0.036	-0.033
-717.777	-200.000	-0.158	-0.000
-716.762	-200.000	-0.090	-0.000
-715.748	-200.000	0.019	0.176
-714.733	-200.000	0.040	-0.338
-713.718	800.000	-0.094	-0.294
-712.704	646.691	0.069	-0.179
-711.689	-200.000	-0.015	-0.225
-710.675	228.984	0.169	-0.278
-709.660	-132.661	0.310	0.040
-708.645	-157.403	-0.268	-0.016
-707.631	-65.042	-0.155	0.063
-706.616	-66.995	0.154	0.062
-705.602	-156.167	0.093	-0.006
-704.587	800.000	0.081	-0.314
-703.572	-200.000	0.005	0.164
-702.558	70.255	0.096	-0.100
-701.543	-110.182	0.067	-0.014
-700.529	-66.078	0.201	0.081
-699.514	-17.842	0.012	0.007
-698.499	-122.882	0.092	-0.015
-697.485	41.627	0.115	0.105
-696.470	139.933	-0.100	-0.133
-695.456	88.026	-0.116	-0.130
-694.441	51.955	0.207	-0.199
-693.426	1.489	0.099	-0.072
-692.412	-13.345	-0.179	-0.117
-691.397	-166.735	0.342	0.014
-690.383	-12.393	0.140	-0.092
-689.368	28.143	0.273	-0.232
-688.354	-98.743	0.125	-0.032
-687.339	145.582	-0.106	0.143
-686.324	-200.000	0.006	0.177
-685.310	-62.272	0.115	-0.048
-684.295	-200.000	0.004	-0.242
-683.281	-5.813	-0.103	0.071
-682.266	-59.126	0.317	0.138
-681.251	170.270	-0.053	0.076
-680.237	25.460	0.229	-0.192
-679.222	-177.923	0.054	-0.001
-678.208	-200.000	0.063	-0.391
-677.193	-200.000	-0.041	0.246
-676.178	359.670	-0.103	-0.207
-675.164	-25.523	0.269	-0.160
-674.149	308.724	0.049	0.093
-673.135	177.018	0.070	-0.102
-672.120	449.804	-0.116	0.259
-671.105	-40.521	-0.217	-0.113
-670.091	1.250	0.099	0.072
-669.076	-200.000	0.033	-0.177
-668.062	612.735	-0.088	-0.223
-667.047	160.557	-0.075	-0.105
-666.032	800.000	-0.023	0.094
-665.018	721.730	-0.104	-0.279
-664.003	-105.024	0.244	0.056
-662.989	25.866	-0.362	-0.304
-661.974	-200.000	0.012	0.105
-660.959	800.000	0.009	-0.037
-659.945	800.000	-0.017	0.051
-658.930	243.944	0.175	-0.296
-657.916	-32.302	0.376	-0.212
-656.901	-35.627	-0.271	0.148
-655.886	57.895	-0.038	0.037
-654.872	169.144	-0.125	-0.180
-653.857	-76.719	0.227	-0.080
-652.843	-200.000	-0.027	0.159
-651.828	109.766	0.039	0.047
-650.814	542.688	0.149	-0.357
-649.799	-29.598	-0.132	0.076
-648.784	-95.876	0.142	-0.038
-647.770	134.410	-0.128	0.167
-646.755	-142.696	0.111	-0.011
-645.741	-200.000	0.006	-0.060
-644.726	178.050	-0.126	0.185
-643.711	-200.000	-0.043	0.357
-642.697	28.516	0.075	0.063
-641.682	73.483	-0.056	0.059
-640.668	-20.549	0.431	0.267
-639.653	-200.000	0.043	-0.260
-638.638	-200.000	-0.061	0.391
-637.624	800.000	0.061	-0.240
-636.609	413.078	0.039	0.083
-635.595	186.410	-0.080	0.119
-634.580	-12.493	0.126	0.083
-633.565	73.819	-0.009	-0.010
-632.551	46.440	-0.271	0.253
-631.536	24.551	-0.324	-0.269
-630.522	159.049	0.135	-0.189
-629.507	23.829	0.188	0.156
-628.492	-75.429	-0.110	-0.039
-627.478	-45.517	0.228	0.114
-626.463	25.090	0.083	0.070
-625.449	313.822	-0.093	-0.177
-624.434	427.991	-0.158	0.342
-623.419	63.748	0.321	0.324
-622.405	181.493	0.188	-0.278
-621.390	-58.457	-0.145	0.064
-620.376	-200.000	-0.037	0.313
-619.361	162.572	-0.125	0.177
-618.346	-109.222	0.224	-0.048
-617.332	126.256	-0.125	0.159
-616.317	-200.000	0.010	-0.178
-615.303	-143.835	-0.256	0.024
-614.288	-200.000	-0.054	0.281
-613.273	-97.392	0.273	-0.072
-612.259	291.902	-0.013	-0.024
-611.244	800.000	-0.023	0.069
-610.230	72.060	0.206	-0.215
-609.215	652.678	0.072	-0.184
-608.201	-59.625	0.162	0.070
-607.186	-32.195	0.204	-0.115
-606.171	-73.434	0.169	-0.062
-605.157	-19.124	0.152	0.095
-604.142	-104.312	-0.199	0.046
-603.128	716.363	-0.070	-0.188
-602.113	-121.773	0.452	-0.075
-601.098	-114.608	0.255	-0.049
-600.084	150.712	-0.024	-0.033
-599.069	-98.812	0.172	0.044
-598.055	-29.962	-0.203	-0.116
-597.040	417.936	0.063	-0.135
-596.025	-100.752	0.187	0.046
-595.011	-101.450	-0.196	-0.048
-593.996	24.395	0.036	-0.030
-592.982	-34.296	0.166	0.092
-591.967	303.185	0.109	0.202
-590.952	-3.576	0.209	0.146
-589.938	-24.765	-0.065	-0.039
-588.923	800.000	0.076	0.331
-587.909	-56.392	0.361	0.161
-586.894	231.554	0.171	-0.282
-585.879	-200.000	-0.020	0.146
-584.865	-72.940	0.489	-0.181
-583.850	265.090	-0.112	-0.196
-582.836	-98.094	-0.195	-0.051
-581.821	5.285	0.258	-0.191
-580.806	800.000	0.024	-0.086
-579.792	-32.363	0.285	-0.160
-578.777	363.349	-0.087	-0.175
-577.763	-200.000	-0.013	0.126
-576.748	-200.000	-0.032	0.209
-575.733	32.182	0.219	-0.190
-574.719	82.518	-0.122	0.133
-573.704	-200.000	0.008	0.366
-572.690	464.117	0.058	0.131
-571.675	29.778	-0.074	0.063
-570.661	223.494	-0.185	0.299
-569.646	-200.000	0.002	-0.060
-568.631	19.821	0.279	-0.225
-567.617	-200.000	0.031	-0.198
-566.602	-28.601	-0.174	-0.100
-565.588	-0.443	-0.185	0.132
-564.573	-31.033	0.127	-0.072
-563.558	-37.897	-0.366	0.195
-562.544	-74.039	-0.329	0.120
-561.529	558.340	0.082	-0.198
-560.515	372.529	0.012	0.024
-559.500	27.290	0.120	-0.101
-558.485	267.696	-0.165	-0.290
-557.471	703.736	0.056	-0.148
-556.456	-200.000	-0.044	0.276
-555.442	24.449	-0.279	0.232
-554.427	260.028	0.163	0.283
-553.412	-70.220	-0.226	-0.086
-552.398	-200.000	0.010	0.181
-551.383	126.531	-0.139	0.177
-550.369	-84.078	0.187	-0.060
-549.354	-200.000	0.004	-0.175
-548.339	400.365	0.112	-0.236
-547.325	50.183	-0.110	0.104
-546.310	543.129	0.155	0.371
-545.296	-31.687	-0.148	-0.084
-544.281	741.060	0.052	0.139
-543.266	-77.404	-0.090	0.031
-542.252	-200.000	0.017	-0.102
-541.237	-200.000	-0.010	-0.243
-540.223	-200.000	0.039	0.202
-539.208	800.000	0.036	-0.141
-538.193	176.894	0.017	-0.025
-537.179	-200.000	-0.002	-0.157
-536.164	-86.272	-0.172	0.053
-535.150	-143.652	-0.260	-0.025
-534.135	-17.097	-0.106	0.067
-533.121	252.423	-0.046	0.079
-532.106	-200.000	0.001	0.346
-531.091	-139.498	-0.651	0.070
-530.077	-189.223	0.312	0.004
-529.062	52.647	0.104	0.099
-528.048	-27.844	-0.205	-0.119
-527.033	103.930	-0.164	-0.194
-526.018	80.655	-0.030	0.033
-525.004	-144.840	0.099	0.009
-523.989	-119.680	-0.172	-0.030
-522.975	-184.407	-0.292	0.005
-521.960	681.826	0.074	-0.193
-520.945	800.000	-0.074	-0.237
-519.931	286.077	-0.071	-0.129
-518.916	-52.737	-0.314	-0.145
-517.902	-82.230	0.247	0.080
-516.887	-32.878	0.305	-0.170
-515.872	530.247	0.061	0.143
-514.858	582.988	-0.054	-0.133
-513.843	-13.153	0.298	0.194
-512.829	557.154	-0.088	-0.212
-511.814	-200.000	-0.001	-0.016
-510.799	-78.632	-0.174	-0.060
-509.785	92.979	0.207	0.235
-508.770	-99.186	-0.143	-0.036
-507.756	185.622	0.103	-0.153
-506.741	-24.362	-0.124	0.074
-505.726	667.125	-0.087	-0.226
-504.712	1.044	0.448	-0.322
-503.697	584.982	0.087	0.214
-502.683	-21.975	-0.073	-0.044
-501.668	-19.818	0.169	-0.104
-500.653	-159.252	0.114	0.006
-499.639	-79.008	0.167	-0.057
-498.624	313.357	-0.110	-0.207
-497.610	586.357	-0.064	-0.158
-496.595	-200.000	0.010	0.201
-495.581	-96.203	-0.124	0.033
-494.566	-123.841	0.222	-0.035
-493.551	-60.616	-0.224	-0.095
-492.537	800.000	-0.095	-0.289
-491.522	0.695	0.315	0.226
-490.508	101.283	-0.050	0.058
-489.493	183.853	-0.085	-0.125
-488.478	24.146	0.305	0.252
-487.464	-20.481	-0.208	-0.128
-486.449	292.724	-0.119	0.216
-485.435	-117.639	-0.265	0.048
-484.420	-117.807	0.352	-0.063
-483.405	-200.000	-0.007	0.113
-482.391	393.305	0.026	0.055
-481.376	800.000	-0.184	-0.517
-480.362	-110.573	-0.251	0.052
-479.347	167.836	0.047	0.068
-478.332	-141.299	0.289	0.029
-477.318	746.052	0.058	-0.156
-476.303	244.361	0.177	0.298
-475.289	-200.000	-0.032	0.256
-474.274	-200.000	0.009	-0.139
-473.259	-175.999	-0.162	-0.004
-472.245	224.757	0.075	-0.121
-471.230	-48.338	0.393	-0.189
-470.216	-123.111	-0.191	-0.031
-469.201	245.000	-0.046	0.077
-468.186	800.000	-0.043	0.145
-467.172	-164.277	-0.026	-0.001
-466.157	641.832	-0.064	0.163
-465.143	-200.000	-0.005	-0.159
-464.128	486.692	-0.062	0.141
-463.113	88.310	-0.121	-0.135
-462.099	43.250	-0.154	-0.141
-461.084	631.549	-0.073	0.185
-460.070	-200.000	0.061	0.338
-459.055	-46.547	-0.306	-0.150
-458.040	-200.000	0.023	0.139
-457.026	-153.087	0.099	0.007
-456.011	-139.639	0.204	-0.022
-454.997	-89.825	-0.139	0.041
-453.982	-0.224	-0.240	-0.171
-452.968	800.000	0.078	-0.216
-451.953	-200.000	-0.030	-0.194
-450.938	-187.859	-0.398	-0.005
-449.924	-189.252	0.166	0.002
-448.909	-5.127	-0.099	-0.068
-447.895	-0.361	-0.106	0.075
-446.880	-200.000	0.006	0.036
-445.865	-113.860	0.203	-0.039
-444.851	48.848	-0.173	0.162
-443.836	800.000	-0.030	-0.114
-442.822	-103.240	0.091	0.021
-441.807	800.000	0.036	0.112
-440.792	157.309	-0.142	-0.196
-439.778	800.000	0.071	0.256
-438.763	150.908	-0.159	0.216
-437.749	-87.205	0.047	0.014
-436.734	68.327	0.054	-0.055
-435.719	-149.763	-0.168	-0.013
-434.705	-200.000	-0.041	-0.377
-433.690	-120.478	-0.150	0.026
-432.676	800.000	0.025	0.097
-431.661	-126.644	0.336	0.050
-430.646	-41.787	-0.342	-0.175
-429.632	-91.967	-0.122	-0.035
-428.617	-117.433	0.148	0.027
-427.603	-200.000	0.020	-0.100
-426.588	800.000	-0.054	0.161
-425.573	233.752	-0.054	-0.089
-424.559	88.695	0.159	0.177
-423.544	-168.831	0.180	-0.007
-422.530	800.000	0.036	0.122
-421.515	-39.005	-0.187	-0.098
-420.500	-93.221	-0.268	-0.074
-419.486	-126.118	0.056	0.008
-418.471	800.000	-0.023	-0.065
-417.457	127.501	0.267	0.339
-416.442	-148.483	-0.183	0.015
-415.428	-76.288	-0.338	0.119
-414.413	303.464	-0.106	-0.195
-413.398	800.000	-0.023	-0.067
-412.384	-44.695	-0.070	-0.035
-411.369	-65.084	-0.231	-0.093
-410.355	-72.312	0.136	-0.050
-409.340	-113.444	-0.467	-0.091
-408.325	-80.806	0.314	-0.104
-407.311	-117.030	-0.084	-0.015
-406.296	-103.443	0.126	-0.030
-405.282	-92.606	0.295	0.083
-404.267	277.122	0.119	-0.211
-403.252	32.675	-0.157	-0.136
-402.238	-109.091	0.239	0.051
-401.223	-119.847	0.350	0.060
-400.209	-16.868	0.123	-0.078
-399.194	314.518	-0.158	-0.298
-398.179	-24.012	-0.162	0.097
-397.165	160.948	-0.128	0.179
-396.150	800.000	-0.023	-0.087
-395.136	372.479	-0.157	0.317
-394.121	-200.000	0.019	-0.102
-393.106	-9.353	0.153	0.102
-392.092	534.494	-0.047	0.112
-391.077	-53.372	0.316	-0.144
-390.063	-96.697	-0.429	0.113
-389.048	-2.651	0.296	0.207
-388.033	-185.529	-0.166	0.003
-387.019	211.920	-0.231	-0.362
-386.004	-1.407	-0.195	-0.137
-384.990	-80.294	-0.150	-0.050
-383.975	33.621	-0.125	0.108
-382.960	-200.000	0.015	-0.219
-381.946	194.285	0.093	0.141
-380.931	-12.671	-0.153	0.100
-379.917	559.393	0.068	0.162
-378.902	-89.876	0.184	-0.054
-377.888	-200.000	-0.006	-0.158
-376.873	-21.556	0.142	-0.086
-375.858	-200.000	0.003	-0.147
-374.844	272.128	-0.094	-0.165
-373.829	-102.767	0.212	-0.050
-372.815	45.467	-0.090	-0.083
-371.800	-58.596	-0.030	-0.013
-370.785	242.324	-0.050	0.083
-369.771	-39.330	-0.050	0.026
-368.756	-15.130	0.121	-0.077
-367.742	-45.703	0.136	-0.067
-366.727	45.548	0.166	0.153
-365.712	-34.555	0.068	-0.037
-364.698	-200.000	-0.031	-0.257
-363.683	-200.000	0.007	0.260
-362.669	-82.979	-0.099	0.032
-361.654	-141.542	-0.057	-0.006
-360.639	429.839	-0.248	-0.534
-359.625	800.000	-0.048	0.165
-358.610	-63.584	0.315	0.129
-357.596	-90.841	-0.117	-0.033
-356.581	554.940	-0.202	-0.484
-355.566	-200.000	-0.039	-0.230
-354.552	152.387	-0.284	-0.386
-353.537	53.000	0.096	0.091
-352.523	-126.050	-0.122	0.018
-351.508	56.147	0.082	-0.080
-350.493	298.692	-0.048	0.087
-349.479	-109.876	-0.212	-0.044
-348.464	800.000	-0.076	0.290
-347.450	168.965	0.213	-0.303
-346.435	-200.000	-0.044	0.226
-345.420	165.763	0.104	-0.147
-344.406	-16.377	0.080	-0.051
-343.391	-130.659	-0.131	0.017
-342.377	153.093	-0.201	-0.273
-341.362	-35.308	0.239	0.130
-340.348	-115.301	0.060	-0.011
-339.333	227.757	-0.075	0.121
-338.318	-200.000	0.005	0.059
-337.304	798.083	0.052	0.142
-336.289	-109.832	0.226	-0.047
-335.275	102.638	0.166	0.193
-334.260	138.790	0.140	0.183
-333.245	637.698	0.057	0.144
-332.231	-200.000	-0.051	-0.300
-331.216	-200.000	-0.026	-0.151
-330.202	-53.521	-0.079	0.036
-329.187	-200.000	-0.012	-0.107
-328.172	-200.000	-0.025	0.159
-327.158	270.300	-0.114	-0.200
-326.143	338.615	-0.113	0.219
-325.129	-74.572	0.222	0.080
-324.114	545.832	-0.046	-0.110
-323.099	-91.614	-0.182	-0.052
-322.085	-195.741	-0.160	-0.001
-321.070	-25.848	-0.253	0.148
-320.056	-46.917	0.261	-0.127
-319.041	13.220	-0.064	-0.050
-318.026	-200.000	-0.000	0.257
-317.012	-59.742	0.283	0.120
-315.997	716.988	0.077	0.203
-314.983	13.880	0.127	0.098
-313.968	86.145	0.142	0.155
-312.953	-139.135	-0.322	0.035
-311.939	220.361	0.056	0.090
-310.924	254.256	-0.131	-0.222
-309.910	21.001	0.073	0.059
-308.895	-139.103	-0.072	-0.008
-307.880	81.780	-0.219	-0.236
-306.866	-200.000	0.015	0.244
-305.851	33.010	0.159	0.137
-304.837	-200.000	0.036	0.218
-303.822	-33.339	-0.331	-0.182
-302.807	7.762	-0.187	0.139
-301.793	-13.883	0.147	0.095
-300.778	800.000	0.045	-0.180
-299.764	-94.728	0.403	0.109
-298.749	228.459	0.177	-0.287
-297.735	-114.704	0.200	0.038
-296.720	-49.244	0.072	-0.034
-295.705	49.253	0.277	-0.258
-294.691	-86.377	-0.304	-0.093
-293.676	-200.000	-0.018	0.177
-292.662	-200.000	-0.017	-0.108
-291.647	118.270	0.196	-0.240
-290.632	10.135	-0.142	0.107
-289.618	-200.000	0.003	-0.260
-288.603	37.453	-0.165	0.145
-287.589	800.000	0.109	-0.426
-286.574	-151.527	-0.163	-0.012
-285.559	-183.514	-0.434	0.007
-284.545	206.045	-0.101	0.157
-283.530	-200.000	0.007	0.084
-282.516	-119.783	-0.183	-0.031
-281.501	-105.775	0.544	0.122
-280.486	171.123	0.024	0.034
-279.472	800.000	0.017	-0.066
-278.457	-121.794	0.051	-0.008
-277.443	-122.726	-0.175	-0.028
-276.428	379.011	-0.091	-0.184
-275.413	-36.887	-0.012	0.006
-274.399	128.727	0.123	-0.155
-273.384	66.539	0.040	0.040
-272.370	-89.801	0.400	-0.116
-271.355	-108.431	-0.144	0.031
-270.340	-112.649	0.101	0.020
-269.326	240.846	-0.245	0.406
-268.311	-83.117	0.182	-0.058
-267.297	-11.460	0.187	-0.122
-266.282	-70.111	-0.145	0.055
-265.267	-13.039	-0.182	0.118
-264.253	-161.821	0.218	0.011
-263.238	-200.000	-0.014	-0.274
-262.224	800.000	-0.046	0.194
-261.209	-132.276	0.282	0.036
-260.195	-104.474	-0.091	-0.021
-259.180	-162.928	-0.251	-0.012
-258.165	14.162	0.110	0.085
-257.151	800.000	0.103	-0.337
-256.136	-39.296	-0.159	-0.083
-255.122	366.041	-0.100	0.200
-254.107	-25.807	0.189	-0.110
-253.092	-83.908	0.435	0.137
-252.078	0.154	0.231	0.163
-251.063	-13.806	-0.116	-0.074
-250.049	-31.956	0.275	0.153
-249.034	-67.762	-0.138	0.054
-248.019	-66.692	0.320	0.126
-247.005	-68.005	-0.299	0.116
-245.990	800.000	0.055	0.206
-244.976	-200.000	-0.013	-0.300
-243.961	389.900	0.059	-0.121
-242.946	358.597	0.079	0.156
-241.932	800.000	-0.050	-0.213
-240.917	-29.746	0.072	-0.041
-239.903	-200.000	0.015	0.084
-238.888	-17.718	-0.188	0.117
-237.873	-15.295	-0.391	0.248
-236.859	146.057	0.038	-0.051
-235.844	72.620	-0.128	-0.133
-234.830	-95.471	0.251	-0.067
-233.815	92.162	0.166	0.186
-232.800	81.771	-0.031	0.033
-231.786	-200.000	-0.056	-0.271
-230.771	69.257	0.161	-0.164
-229.757	63.717	-0.082	-0.081
-228.742	261.753	-0.119	-0.204
-227.727	-107.137	-0.127	-0.028
-226.713	-119.877	0.076	-0.013
-225.698	-200.000	-0.008	0.051
-224.684	-39.008	0.200	0.104
-223.669	-132.963	-0.061	-0.008
-222.655	-32.854	0.258	0.142
-221.640	-104.809	-0.165	0.038
-220.625	-142.310	-0.271	-0.026
-219.611	-114.593	-0.430	-0.082
-218.596	376.223	-0.301	-0.609
-217.582	-132.818	-0.278	-0.035
-216.567	77.141	0.185	0.194
-215.552	95.072	0.199	-0.225
-214.538	233.623	-0.064	0.104
-213.523	-72.842	0.230	0.084
-212.509	294.577	0.091	0.165
-211.494	-71.978	-0.316	0.117
-210.479	-41.529	-0.058	0.030
-209.465	9.612	0.090	-0.068
-208.450	-72.955	0.100	-0.036
-207.436	134.118	0.081	-0.104
-206.421	-104.079	-0.259	0.060
-205.406	-156.326	-0.234	-0.015
-204.392	512.230	0.140	-0.322
-203.377	-86.422	0.101	-0.031
-202.363	490.006	0.030	0.067
-201.348	-96.984	-0.153	0.040
-200.333	89.944	0.239	0.264
-199.319	800.000	0.061	-0.256
-198.304	8.540	-0.122	-0.091
-197.290	-65.893	-0.206	0.081
-196.275	-91.192	-0.210	0.060
-195.260	-180.159	0.177	-0.004
-194.246	-79.217	-0.044	-0.015
-193.231	800.000	0.078	-0.305
-192.217	-102.195	0.328	0.078
-191.202	-147.387	-0.150	-0.013
-190.187	-67.501	0.012	-0.005
-189.173	-14.136	-0.269	0.172
-188.158	-17.350	-0.329	0.205
-187.144	800.000	0.068	0.245
-186.129	-200.000	-0.013	0.112
-185.114	170.440	0.195	0.276
-184.100	800.000	-0.072	0.234
-183.085	8.441	-0.059	0.044
-182.071	-107.103	-0.344	0.075
-181.056	-66.029	-0.098	-0.039
-180.042	800.000	-0.111	0.349
-179.027	157.522	0.058	0.080
-178.012	-64.741	0.217	0.087
-176.998	-124.097	0.169	0.026
-175.983	427.594	-0.188	0.400
-174.969	-37.150	0.167	0.088
-173.954	-75.797	0.179	-0.063
-172.939	56.519	-0.168	0.162
-171.925	-189.022	-0.234	-0.003
-170.910	14.857	0.181	0.140
-169.896	-40.009	0.331	0.171
-168.881	725.262	-0.084	-0.221
-167.866	800.000	-0.050	-0.152
-166.852	174.342	0.118	-0.169
-165.837	-44.506	0.096	0.047
-164.823	22.990	0.136	-0.110
-163.808	-55.853	-0.154	0.068
-162.793	242.724	0.111	0.183
-161.779	177.388	-0.140	-0.201
-160.764	-7.119	0.153	-0.102
-159.750	232.498	-0.125	-0.203
-158.735	-130.406	-0.395	0.053
-157.720	40.498	0.185	0.165
-156.706	338.217	0.071	-0.136
-155.691	800.000	-0.068	-0.233
-154.677	-158.855	0.342	0.019
-153.662	-200.000	-0.011	0.185
-152.647	34.398	0.317	-0.273
-151.633	110.578	-0.081	0.096
-150.618	-48.579	-0.242	0.115
-149.604	800.000	-0.055	0.211
-148.589	-26.085	-0.366	-0.213
-147.574	800.000	-0.033	-0.100
-146.560	-103.862	-0.250	-0.058
-145.545	800.000	0.138	0.461
-144.531	-121.218	0.266	-0.044
-143.516	-67.167	0.110	-0.043
-142.502	-49.879	-0.077	-0.036
-141.487	-141.069	0.220	0.022
-140.472	-77.932	-0.357	0.122
-139.458	-145.350	-0.246	-0.022
-138.443	285.982	-0.188	-0.334
-137.429	-200.000	-0.042	-0.303
-136.414	800.000	-0.053	-0.183
-135.399	231.477	-0.035	0.057
-134.385	-57.854	0.073	-0.032
-133.370	34.992	-0.216	0.187
-132.356	800.000	0.067	-0.196
-131.341	647.058	0.028	-0.072
-130.326	700.345	-0.063	-0.163
-129.312	-147.036	0.536	-0.045
-128.297	101.897	0.121	0.139
-127.283	-74.242	-0.101	-0.036
-126.268	-16.700	0.177	0.111
-125.253	-69.292	-0.222	0.084
-124.239	-118.293	0.060	-0.011
-123.224	251.612	-0.178	0.299
-122.210	-200.000	0.015	0.510
