DTS Sentinel unit serial number:	SN413079Multiplexer serial number:	ORYXHardware model number:	OX4-SRSoftware version number:	ORYX F/W v4.00 Oryx Data Collector v3.7.2.0data status	okinstallation	princeton_trtdifferential loss correction	single-endedforward channel	channel 4reverse channel	N/Adate	2019/09/15time	17:33:35forward acquisition time	60.00reverse acquisition time	0.00gamma	496.2192k internal	0.2274k external	0.2274temperature offset calibration	0.9924default loss term (dB/km)	0.3790temperature slope calibration	1.0000multiplexer offset coefficient	1.0000multiplexer slope coefficient	1.0000fibre end	0.00T internal ref (°C)	44.81T ext. ref 1 (°C)	6.18T ext. ref 2 (°C)	40.40length (m)	temperature (°C)	Stokes	anti-Stokes-747.200	800.000	-0.056	-0.201
-746.185	-54.897	-0.313	-0.146
-745.171	160.739	-0.234	0.338
-744.156	-85.328	0.123	-0.040
-743.142	73.726	-0.110	-0.119
-742.127	-200.000	-0.009	0.057
-741.112	-120.154	0.024	0.004
-740.098	-200.000	0.035	0.374
-739.083	-17.009	-0.113	-0.074
-738.069	-200.000	0.001	0.228
-737.054	-66.881	0.047	-0.019
-736.039	-119.009	0.251	-0.045
-735.025	-92.345	0.152	0.044
-734.010	-110.439	0.140	-0.030
-732.996	-200.000	-0.008	-0.230
-731.981	37.414	-0.249	0.227
-730.966	83.216	-0.068	-0.076
-729.952	-200.000	0.006	0.035
-728.937	212.653	0.120	-0.195
-727.923	210.240	-0.171	-0.277
-726.908	800.000	-0.075	0.252
-725.894	-28.798	-0.161	0.095
-724.879	147.083	-0.191	0.264
-723.864	800.000	0.041	-0.162
-722.850	23.068	0.263	-0.222
-721.835	57.934	0.073	-0.073
-720.821	-25.892	-0.076	0.046
-719.806	57.963	-0.083	0.084
-718.791	214.729	0.198	-0.323
-717.777	-200.000	-0.005	-0.210
-716.762	34.629	-0.179	-0.161
-715.748	-69.620	0.505	-0.199
-714.733	759.235	0.101	0.282
-713.718	-47.896	0.367	0.183
-712.704	-57.935	-0.310	0.139
-711.689	-147.454	-0.348	0.030
-710.675	-46.336	-0.191	0.096
-709.660	190.688	-0.061	0.094
-708.645	-110.060	-0.213	0.046
-707.631	-200.000	0.032	-0.293
-706.616	496.835	-0.109	0.258
-705.602	-93.245	-0.236	0.067
-704.587	-30.245	-0.116	0.068
-703.572	-100.662	-0.244	0.062
-702.558	4.900	0.033	0.025
-701.543	211.560	-0.078	-0.127
-700.529	-26.150	-0.192	-0.116
-699.514	-94.381	0.326	-0.092
-698.499	-59.348	0.249	-0.110
-697.485	76.489	0.233	-0.254
-696.470	-200.000	0.047	0.255
-695.456	-121.394	-0.169	0.029
-694.441	613.502	0.090	0.233
-693.426	800.000	-0.013	-0.042
-692.412	-153.911	-0.381	0.027
-691.397	266.610	0.163	-0.293
-690.383	-114.432	-0.295	-0.058
-689.368	-200.000	0.014	-0.361
-688.354	-200.000	-0.001	-0.115
-687.339	37.524	0.305	-0.278
-686.324	113.303	0.172	0.215
-685.310	-94.571	-0.279	-0.078
-684.295	-126.902	0.158	-0.024
-683.281	672.518	-0.082	-0.220
-682.266	-39.310	0.134	-0.072
-681.251	-71.314	0.200	-0.077
-680.237	509.278	0.079	0.189
-679.222	-58.093	0.292	0.131
-678.208	-165.204	-0.232	0.011
-677.193	-13.584	-0.119	0.080
-676.178	349.444	0.074	-0.151
-675.164	-152.039	0.055	0.004
-674.149	29.397	0.112	0.098
-673.135	-88.113	0.252	0.078
-672.120	152.118	-0.153	0.215
-671.105	-200.000	0.040	-0.188
-670.091	145.839	-0.213	-0.294
-669.076	800.000	0.040	-0.114
-668.062	646.220	0.073	-0.192
-667.047	-200.000	-0.052	-0.286
-666.032	-115.484	0.146	0.028
-665.018	392.265	-0.122	-0.262
-664.003	322.939	0.136	-0.266
-662.989	-96.872	-0.029	0.008
-661.974	104.920	-0.059	-0.071
-660.959	395.162	0.056	-0.119
-659.945	-200.000	0.017	0.112
-658.930	170.420	-0.043	0.063
-657.916	-33.367	-0.148	-0.084
-656.901	306.926	-0.211	-0.405
-655.886	-138.384	-0.053	-0.006
-654.872	-200.000	-0.009	0.078
-653.857	174.596	-0.047	0.070
-652.843	-95.890	-0.265	0.073
-651.828	-200.000	-0.012	0.132
-650.814	-95.892	-0.307	0.084
-649.799	-200.000	-0.032	0.153
-648.784	194.705	-0.133	-0.207
-647.770	118.945	0.154	-0.195
-646.755	65.006	0.136	-0.141
-645.741	299.757	-0.152	0.288
-644.726	33.716	0.078	0.069
-643.711	-73.688	0.096	-0.036
-642.697	-156.754	-0.419	-0.027
-641.682	-200.000	0.031	-0.333
-640.668	-53.828	-0.059	-0.028
-639.653	-200.000	-0.052	0.292
-638.638	154.211	-0.256	0.361
-637.624	-110.740	-0.138	0.029
-636.609	-119.913	-0.073	0.013
-635.595	-174.060	-0.352	0.011
-634.580	603.107	-0.086	-0.219
-633.565	-200.000	-0.011	-0.174
-632.551	800.000	0.076	0.329
-631.536	-200.000	-0.057	0.289
-630.522	-134.570	0.241	0.030
-629.507	-69.314	-0.070	0.028
-628.492	35.143	-0.035	-0.032
-627.478	-51.413	-0.236	0.114
-626.463	-131.357	0.277	0.038
-625.449	-68.967	-0.209	0.083
-624.434	33.433	0.177	-0.158
-623.419	-200.000	-0.003	-0.098
-622.405	-97.034	0.367	-0.099
-621.390	-200.000	-0.002	-0.137
-620.376	496.712	-0.177	-0.418
-619.361	-138.619	-0.154	0.017
-618.346	-100.459	-0.106	-0.027
-617.332	-182.994	-0.300	0.005
-616.317	17.232	0.218	0.178
-615.303	800.000	0.205	0.596
-614.288	150.519	-0.095	0.133
-613.273	-80.733	0.098	-0.033
-612.259	-200.000	0.030	0.206
-611.244	-24.461	-0.222	0.136
-610.230	-200.000	0.012	0.064
-609.215	71.879	-0.052	0.056
-608.201	-150.748	-0.296	0.023
-607.186	119.974	-0.174	-0.221
-606.171	-111.390	0.173	-0.036
-605.157	-62.573	-0.163	0.069
-604.142	-129.551	0.287	-0.041
-603.128	-94.626	-0.268	-0.075
-602.113	-180.953	-0.273	-0.006
-601.098	-33.115	-0.172	0.098
-600.084	-52.702	-0.196	0.093
-599.069	84.860	0.246	0.277
-598.055	-61.037	-0.264	-0.114
-597.040	-108.486	-0.089	-0.020
-596.025	-200.000	0.057	0.260
-595.011	75.915	0.058	-0.063
-593.996	-200.000	0.037	0.293
-592.982	-69.032	0.149	0.059
-591.967	800.000	-0.026	-0.095
-590.952	114.828	-0.284	-0.355
-589.938	322.291	-0.195	-0.380
-588.923	262.748	0.089	0.158
-587.909	-59.193	0.137	-0.061
-586.894	210.096	-0.078	0.126
-585.879	-176.114	-0.138	-0.004
-584.865	219.934	0.109	0.178
-583.850	-200.000	-0.003	-0.089
-582.836	-200.000	-0.003	0.120
-581.821	137.223	-0.078	0.105
-580.806	266.617	-0.139	-0.248
-579.792	42.874	-0.251	-0.234
-578.777	-33.333	-0.323	-0.183
-577.763	-1.279	0.225	0.163
-576.748	-31.190	0.287	-0.166
-575.733	-200.000	-0.007	-0.180
-574.719	-28.350	-0.216	-0.128
-573.704	-101.925	-0.223	0.055
-572.690	800.000	0.028	-0.094
-571.675	-200.000	0.014	0.222
-570.661	-28.982	-0.102	-0.060
-569.646	800.000	-0.148	-0.499
-568.631	-161.928	0.541	0.028
-567.617	-200.000	-0.014	-0.073
-566.602	176.050	0.140	-0.208
-565.588	41.157	0.198	-0.183
-564.573	-200.000	-0.042	-0.230
-563.558	-200.000	-0.008	0.076
-562.544	-200.000	0.054	0.341
-561.529	155.495	-0.072	-0.101
-560.515	-200.000	-0.067	0.308
-559.500	297.458	0.083	0.155
-558.485	-80.470	-0.089	-0.030
-557.471	246.026	-0.105	-0.180
-556.456	64.004	-0.149	-0.154
-555.442	-70.952	0.154	0.059
-554.427	-46.881	0.297	-0.149
-553.412	-82.514	0.158	0.053
-552.398	2.948	0.246	-0.183
-551.383	104.562	0.327	-0.394
-550.369	2.630	0.249	0.185
-549.354	-49.719	0.109	-0.053
-548.339	-29.618	0.247	0.144
-547.325	-117.370	-0.122	-0.023
-546.310	-31.592	0.056	-0.032
-545.296	281.102	-0.073	0.133
-544.281	380.820	-0.066	-0.139
-543.266	-200.000	0.005	0.264
-542.252	800.000	-0.102	-0.363
-541.237	-200.000	0.023	-0.112
-540.223	-200.000	0.005	0.242
-539.208	107.340	0.083	-0.101
-538.193	761.807	0.161	-0.447
-537.179	-200.000	-0.007	0.149
-536.164	-156.146	-0.071	0.005
-535.150	-143.847	0.282	-0.027
-534.135	-120.471	0.266	-0.046
-533.121	-22.343	-0.235	-0.145
-532.106	-119.040	-0.257	0.046
-531.091	-75.943	0.297	-0.107
-530.077	113.863	0.237	-0.295
-529.062	-200.000	0.023	0.202
-528.048	362.606	0.047	0.097
-527.033	-200.000	-0.002	0.051
-526.018	-21.249	0.178	-0.111
-525.004	800.000	0.104	-0.387
-523.989	800.000	-0.075	-0.289
-522.975	-200.000	-0.016	-0.098
-521.960	-96.547	-0.210	0.057
-520.945	-127.050	0.052	-0.008
-519.931	-90.813	-0.397	0.117
-518.916	-105.868	0.101	-0.023
-517.902	210.408	0.040	0.064
-516.887	-65.440	-0.205	-0.084
-515.872	75.898	-0.213	-0.230
-514.858	383.985	-0.090	0.190
-513.843	-147.150	-0.261	0.023
-512.829	399.055	-0.066	0.141
-511.814	-79.330	0.224	-0.078
-510.799	192.372	-0.155	-0.239
-509.785	583.765	0.143	-0.358
-508.770	-200.000	-0.437	-0.002
-507.756	190.499	0.077	-0.118
-506.741	-200.000	-0.011	0.125
-505.726	107.171	0.274	0.333
-504.712	-163.027	0.297	-0.015
-503.697	800.000	-0.084	0.245
-502.683	186.008	0.064	0.097
-501.668	334.883	0.078	-0.154
-500.653	-133.013	0.142	0.018
-499.639	256.996	-0.050	-0.089
-498.624	-24.678	0.195	0.118
-497.610	-200.000	0.002	0.193
-496.595	800.000	-0.098	-0.330
-495.581	-136.709	0.107	-0.013
-494.566	154.423	-0.191	-0.268
-493.551	-108.056	-0.272	0.060
-492.537	-200.000	0.058	0.291
-491.522	-152.328	-0.386	0.028
-490.508	-43.403	0.071	-0.036
-489.493	78.347	-0.183	0.200
-488.478	-66.468	-0.214	-0.087
-487.464	126.053	-0.191	-0.247
-486.449	-114.736	-0.512	-0.100
-485.435	-84.314	-0.353	0.114
-484.420	-136.544	0.444	0.053
-483.405	-7.595	0.039	0.027
-482.391	0.253	0.217	0.158
-481.376	800.000	0.071	-0.207
-480.362	800.000	-0.086	0.252
-479.347	-82.066	0.128	-0.043
-478.332	-200.000	-0.021	-0.374
-477.318	-134.633	0.373	-0.046
-476.303	47.515	0.207	-0.197
-475.289	43.627	0.093	-0.087
-474.274	-69.449	-0.150	-0.059
-473.259	309.080	0.034	-0.064
-472.245	-197.143	0.304	0.002
-471.230	749.100	0.105	-0.289
-470.216	297.992	-0.096	-0.179
-469.201	800.000	-0.049	0.185
-468.186	-171.023	0.462	-0.016
-467.172	45.487	0.101	-0.095
-466.157	-38.112	0.228	-0.123
-465.143	-200.000	0.002	-0.176
-464.128	-200.000	0.001	0.069
-463.113	142.697	-0.167	-0.226
-462.099	141.910	-0.196	0.265
-461.084	800.000	0.058	0.173
-460.070	-200.000	-0.046	0.308
-459.055	-100.343	0.089	-0.023
-458.040	20.611	-0.139	0.115
-457.026	128.767	0.030	0.038
-456.011	800.000	0.007	-0.025
-454.997	-156.238	-0.142	-0.009
-453.982	191.421	-0.101	0.155
-452.968	800.000	-0.008	-0.026
-451.953	131.014	-0.153	0.200
-450.938	800.000	-0.016	-0.060
-449.924	-18.208	0.188	0.120
-448.909	385.498	0.030	-0.063
-447.895	115.748	0.243	-0.303
-446.880	-4.809	0.135	0.095
-445.865	-200.000	-0.032	0.270
-444.851	-76.097	-0.217	0.078
-443.836	-200.000	-0.023	0.155
-442.822	-76.626	0.327	0.117
-441.807	-115.819	-0.243	-0.046
-440.792	-125.227	0.178	0.028
-439.778	29.103	0.139	-0.120
-438.763	34.007	0.121	0.107
-437.749	7.657	-0.098	-0.075
-436.734	-46.138	0.061	-0.031
-435.719	-93.829	-0.341	-0.096
-434.705	-18.137	-0.137	-0.087
-433.690	-50.249	0.283	-0.136
-432.676	673.345	-0.187	-0.494
-431.661	324.579	-0.053	-0.104
-430.646	129.150	0.133	-0.173
-429.632	130.581	0.183	-0.239
-428.617	-141.352	-0.224	0.023
-427.603	709.099	-0.089	0.241
-426.588	-200.000	0.011	0.173
-425.573	800.000	-0.056	-0.177
-424.559	21.300	-0.054	0.045
-423.544	-12.890	0.110	0.073
-422.530	110.569	0.110	0.135
-421.515	-200.000	0.056	0.267
-420.500	-143.733	-0.163	-0.016
-419.486	-200.000	-0.084	-0.454
-418.471	-200.000	0.023	-0.122
-417.457	140.046	-0.283	-0.380
-416.442	-2.597	0.040	0.029
-415.428	-42.617	-0.195	-0.101
-414.413	-200.000	-0.012	0.225
-413.398	-200.000	0.008	0.081
-412.384	-44.928	0.209	-0.106
-411.369	2.796	-0.227	0.168
-410.355	54.424	0.119	-0.117
-409.340	-200.000	-0.038	-0.258
-408.325	358.050	-0.032	0.065
-407.311	40.904	-0.225	-0.207
-406.296	800.000	0.083	0.251
-405.282	-112.517	-0.517	-0.105
-404.267	283.256	-0.051	0.093
-403.252	669.057	-0.039	-0.102
-402.238	320.093	0.096	0.186
-401.223	4.258	-0.129	0.096
-400.209	-74.545	-0.436	0.160
-399.194	-167.035	0.182	-0.008
-398.179	-200.000	-0.003	0.479
-397.165	-87.334	0.407	0.125
-396.150	-200.000	0.024	0.193
-395.136	-118.872	0.109	-0.020
-394.121	-85.576	-0.065	-0.020
-393.106	22.093	-0.086	0.071
-392.092	-126.375	-0.220	-0.033
-391.077	-89.270	-0.057	0.017
-390.063	-200.000	-0.014	0.186
-389.048	646.907	0.112	-0.291
-388.033	-31.058	-0.307	0.176
-387.019	-17.285	0.187	-0.120
-386.004	119.329	0.209	-0.263
-384.990	-92.730	0.316	0.090
-383.975	800.000	0.032	0.098
-382.960	-59.633	0.354	0.155
-381.946	-12.946	-0.159	0.106
-380.931	154.664	-0.149	0.208
-379.917	-200.000	0.027	0.141
-378.902	800.000	-0.031	0.105
-377.888	66.256	0.230	0.237
-376.873	-155.387	-0.118	0.008
-375.858	-128.422	-0.225	-0.033
-374.844	-90.823	0.297	-0.087
-373.829	38.490	-0.082	-0.075
-372.815	11.120	0.219	-0.170
-371.800	-200.000	-0.001	0.227
-370.785	6.725	-0.055	0.041
-369.771	-200.000	-0.018	0.156
-368.756	17.839	0.080	0.064
-367.742	52.473	0.174	-0.169
-366.727	-168.427	0.416	0.016
-365.712	-65.972	-0.130	0.053
-364.698	175.441	0.159	-0.234
-363.683	54.515	-0.041	0.040
-362.669	-200.000	0.044	-0.231
-361.654	-200.000	0.012	-0.385
-360.639	35.490	-0.163	0.146
-359.625	-32.825	0.315	-0.178
-358.610	-62.469	0.096	-0.041
-357.596	21.652	-0.150	0.124
-356.581	45.280	0.078	-0.073
-355.566	27.412	-0.189	0.161
-354.552	-15.088	-0.089	0.058
-353.537	-25.799	0.178	-0.107
-352.523	800.000	0.075	-0.239
-351.508	20.292	-0.020	0.016
-350.493	-71.710	0.227	0.086
-349.479	-24.674	0.356	0.215
-348.464	-200.000	0.018	-0.441
-347.450	-186.586	0.086	-0.001
-346.435	-40.321	-0.228	-0.120
-345.420	32.771	-0.086	0.076
-344.406	-200.000	-0.023	0.107
-343.391	-85.488	0.254	-0.080
-342.377	-137.540	0.321	0.037
-341.362	128.230	-0.075	0.097
-340.348	-200.000	-0.035	0.174
-339.333	-193.116	-0.190	0.002
-338.318	-200.000	0.067	-0.368
-337.304	-200.000	-0.016	-0.372
-336.289	-200.000	-0.028	0.164
-335.275	56.093	-0.132	-0.130
-334.260	-200.000	0.012	-0.114
-333.245	158.935	0.173	-0.243
-332.231	83.927	-0.168	-0.186
-331.216	663.427	-0.028	0.072
-330.202	-18.254	0.278	-0.177
-329.187	144.038	-0.074	-0.100
-328.172	-200.000	0.040	0.237
-327.158	-200.000	0.020	-0.149
-326.143	-50.207	0.284	0.136
-325.129	-45.792	0.103	0.052
-324.114	800.000	0.055	-0.227
-323.099	-67.309	-0.164	-0.066
-322.085	-200.000	-0.032	-0.232
-321.070	800.000	0.033	-0.102
-320.056	-42.898	-0.197	0.101
-319.041	91.950	0.175	-0.200
-318.026	-28.162	-0.088	0.051
-317.012	-93.171	0.084	-0.024
-315.997	151.913	-0.039	0.055
-314.983	-48.530	0.199	0.097
-313.968	-56.887	0.318	0.143
-312.953	-182.989	-0.298	-0.005
-311.939	-200.000	-0.024	-0.117
-310.924	-190.852	0.202	0.002
-309.910	800.000	0.060	0.178
-308.895	-200.000	0.023	0.117
-307.880	-200.000	0.045	0.326
-306.866	-188.891	0.119	-0.001
-305.851	142.555	-0.144	0.194
-304.837	447.729	-0.072	-0.161
-303.822	-35.424	-0.173	-0.095
-302.807	358.879	0.066	0.133
-301.793	-171.278	0.102	0.003
-300.778	-28.297	0.094	-0.055
-299.764	-200.000	0.017	0.169
-298.749	74.547	-0.228	0.243
-297.735	305.696	0.062	0.117
-296.720	-13.911	-0.282	0.185
-295.705	-75.228	-0.157	-0.057
-294.691	-104.682	-0.109	0.025
-293.676	-74.380	-0.107	0.039
-292.662	-57.029	-0.196	-0.088
-291.647	318.017	-0.099	0.189
-290.632	69.733	0.191	-0.200
-289.618	-81.976	-0.362	-0.120
-288.603	273.482	-0.015	-0.028
-287.589	-69.907	0.409	-0.158
-286.574	495.780	0.053	0.123
-285.559	-146.557	0.314	0.028
-284.545	271.329	0.042	-0.074
-283.530	-109.125	-0.240	-0.052
-282.516	410.728	-0.058	0.124
-281.501	-10.096	-0.043	-0.029
-280.486	-42.140	-0.078	-0.040
-279.472	-200.000	-0.027	-0.274
-278.457	-124.090	-0.160	-0.025
-277.443	119.656	-0.155	-0.194
-276.428	102.889	0.109	0.129
-275.413	-34.465	-0.309	-0.172
-274.399	-93.137	0.166	0.047
-273.384	-34.334	-0.119	0.066
-272.370	800.000	0.107	-0.323
-271.355	666.530	0.038	-0.099
-270.340	41.346	-0.081	0.075
-269.326	-200.000	-0.027	-0.219
-268.311	-155.654	-0.099	-0.006
-267.297	84.823	0.138	0.153
-266.282	229.825	-0.213	-0.353
-265.267	-200.000	0.017	-0.288
-264.253	196.028	0.033	-0.051
-263.238	341.581	0.037	-0.073
-262.224	71.922	0.120	0.126
-261.209	-85.607	0.085	-0.027
-260.195	-76.056	-0.161	-0.058
-259.180	-200.000	-0.013	-0.119
-258.165	800.000	-0.111	-0.374
-257.151	-106.752	-0.196	-0.044
-256.136	162.370	0.063	0.089
-255.122	-30.890	-0.148	-0.085
-254.107	-2.958	-0.228	0.161
-253.092	-70.780	0.189	0.072
-252.078	233.851	-0.091	0.151
-251.063	-130.527	-0.103	0.014
-250.049	-56.004	-0.197	-0.089
-249.034	-16.668	-0.217	-0.139
-248.019	533.704	0.074	-0.178
-247.005	-61.470	-0.097	0.041
-245.990	-81.424	0.151	0.050
-244.976	800.000	0.075	0.281
-243.961	447.377	0.057	-0.127
-242.946	-181.424	-0.242	0.005
-241.932	-4.062	-0.101	0.071
-240.917	-151.418	0.135	0.010
-239.903	-200.000	-0.012	-0.090
-238.888	-127.785	-0.278	0.041
-237.873	-200.000	-0.015	0.152
-236.859	-57.928	-0.045	-0.020
-235.844	333.806	0.035	0.069
-234.830	3.866	0.232	-0.172
-233.815	-200.000	0.032	0.214
-232.800	-61.186	0.169	0.072
-231.786	402.745	-0.160	0.339
-230.771	-172.048	-0.252	-0.008
-229.757	800.000	0.012	-0.045
-228.742	-77.553	-0.096	0.034
-227.727	604.430	-0.068	0.170
-226.713	-200.000	0.034	0.295
-225.698	-200.000	0.171	-0.000
-224.684	29.182	-0.216	0.185
-223.669	-4.210	0.210	0.147
-222.655	-140.783	-0.421	0.044
-221.640	228.054	0.087	-0.142
-220.625	238.495	-0.060	-0.100
-219.611	-62.451	0.262	0.110
-218.596	-25.891	0.297	0.177
-217.582	192.806	-0.179	-0.274
-216.567	-106.473	-0.380	0.086
-215.552	419.438	0.068	0.148
-214.538	138.245	-0.181	0.240
-213.523	-35.136	-0.104	-0.057
-212.509	224.059	-0.122	-0.200
-211.494	800.000	0.052	0.151
-210.479	-200.000	0.013	0.450
-209.465	-125.832	-0.065	-0.010
-208.450	-125.047	0.335	-0.052
-207.436	35.586	-0.034	0.030
-206.421	800.000	0.063	0.176
-205.406	-31.824	0.181	-0.102
-204.392	226.123	-0.029	0.048
-203.377	-76.352	-0.254	0.090
-202.363	7.342	0.285	0.215
-201.348	-104.104	0.165	-0.039
-200.333	-200.000	-0.035	0.309
-199.319	-52.141	-0.465	-0.218
-198.304	40.743	0.134	0.122
-197.290	82.323	-0.086	0.094
-196.275	-200.000	0.021	0.196
-195.260	197.062	0.218	-0.336
-194.246	597.990	-0.079	0.197
-193.231	-101.882	0.093	0.023
-192.217	800.000	0.027	0.088
-191.202	-26.901	0.150	0.089
-190.187	103.651	-0.126	0.149
-189.173	-107.131	-0.136	0.030
-188.158	-200.000	0.001	0.115
-187.144	-200.000	-0.049	0.317
-186.129	-57.660	-0.226	-0.100
-185.114	110.303	-0.218	-0.265
-184.100	-84.679	-0.104	0.033
-183.085	-171.514	0.134	-0.005
-182.071	-200.000	0.044	0.225
-181.056	-200.000	-0.017	0.113
-180.042	-88.291	0.205	-0.062
-179.027	357.747	0.075	-0.152
-178.012	-83.930	-0.218	0.070
-176.998	-26.447	0.431	-0.255
-175.983	42.204	-0.066	0.060
-174.969	-97.092	-0.317	-0.084
-173.954	800.000	-0.076	0.235
-172.939	546.125	0.109	-0.264
-171.925	27.841	0.159	-0.135
-170.910	44.595	0.437	0.406
-169.896	-39.100	0.319	0.169
-168.881	143.506	0.303	0.408
-167.866	176.039	-0.106	0.155
-166.852	308.097	0.155	0.293
-165.837	-139.324	-0.098	-0.011
-164.823	-108.553	-0.219	0.048
-163.808	-200.000	0.014	0.168
-162.793	59.627	0.262	-0.261
-161.779	7.392	-0.268	0.202
-160.764	5.226	-0.119	-0.088
-159.750	-200.000	0.016	0.302
-158.735	-33.569	0.312	0.173
-157.720	-114.782	0.227	0.044
-156.706	-32.762	0.160	0.090
-155.691	-99.436	0.393	0.100
-154.677	-41.970	0.288	-0.149
-153.662	-200.000	0.060	-0.377
-152.647	-74.579	0.381	0.138
-151.633	-58.824	-0.078	0.034
-150.618	-24.363	-0.300	0.180
-149.604	64.380	0.167	0.170
-148.589	-20.566	0.111	0.068
-147.574	-54.912	0.226	0.103
-146.560	39.213	0.197	0.178
-145.545	-200.000	-0.023	0.203
-144.531	-72.165	0.174	-0.065
-143.516	-200.000	-0.025	-0.401
-142.502	800.000	-0.089	0.297
-141.487	29.644	-0.388	-0.332
-140.472	136.550	0.161	-0.211
-139.458	-199.043	-0.124	-0.001
-138.443	126.596	-0.139	0.177
-137.429	298.807	-0.084	-0.155
-136.414	213.045	-0.153	-0.243
-135.399	-157.678	0.054	-0.003
-134.385	775.374	0.110	-0.302
-133.370	10.073	0.094	-0.072
-132.356	-111.099	0.402	-0.083
-131.341	-84.777	-0.309	0.098
-130.326	-15.373	-0.181	-0.116
-129.312	800.000	-0.029	-0.109
-128.297	-66.188	0.201	-0.081
-127.283	-200.000	0.037	0.246
-126.268	-8.593	-0.265	0.179
-125.253	308.838	0.145	0.272
-124.239	58.328	-0.258	-0.255
-123.224	-98.895	0.300	0.077
-122.210	-122.083	0.286	-0.047
