DTS Sentinel unit serial number:	SN413079Multiplexer serial number:	ORYXHardware model number:	OX4-SRSoftware version number:	ORYX F/W v4.00 Oryx Data Collector v3.7.2.0data status	okinstallation	princeton_trtdifferential loss correction	single-endedforward channel	channel 4reverse channel	N/Adate	2019/09/12time	16:27:11forward acquisition time	60.00reverse acquisition time	0.00gamma	496.2192k internal	0.2302k external	0.2302temperature offset calibration	1.0109default loss term (dB/km)	0.3790temperature slope calibration	1.0000multiplexer offset coefficient	1.0000multiplexer slope coefficient	1.0000fibre end	0.00T internal ref (°C)	37.50T ext. ref 1 (°C)	2.55T ext. ref 2 (°C)	29.85length (m)	temperature (°C)	Stokes	anti-Stokes-747.200	-170.001	-0.227	0.008
-746.185	-200.000	-0.003	0.085
-745.171	-89.574	0.268	0.080
-744.156	207.333	0.253	0.403
-743.142	-104.191	0.341	0.081
-742.127	800.000	0.055	0.235
-741.112	800.000	0.034	-0.140
-740.098	255.311	-0.090	0.157
-739.083	83.289	-0.300	0.332
-738.069	-103.517	-0.163	0.039
-737.054	-121.745	0.096	0.016
-736.039	-81.236	-0.135	-0.045
-735.025	120.513	0.261	0.331
-734.010	4.839	-0.263	0.197
-732.996	-20.804	0.050	0.031
-731.981	31.730	-0.278	-0.244
-730.966	-200.000	0.011	-0.279
-729.952	-2.967	0.108	0.077
-728.937	-124.122	-0.311	-0.050
-727.923	-18.758	-0.113	-0.071
-726.908	-200.000	0.004	-0.063
-725.894	-125.145	-0.451	-0.070
-724.879	194.407	-0.082	0.126
-723.864	-200.000	-0.365	-0.001
-722.850	-4.055	-0.124	-0.087
-721.835	194.307	-0.173	0.266
-720.821	154.359	0.183	-0.256
-719.806	-193.820	-0.159	-0.001
-718.791	-200.000	-0.022	-0.186
-717.777	-94.640	-0.163	-0.045
-716.762	51.119	0.093	0.090
-715.748	-83.554	0.518	-0.169
-714.733	31.709	-0.126	-0.110
-713.718	-200.000	0.052	0.265
-712.704	-200.000	0.035	0.301
-711.689	518.631	-0.116	-0.276
-710.675	-200.000	-0.000	-0.281
-709.660	450.397	0.071	0.160
-708.645	150.801	0.137	0.189
-707.631	-162.018	-0.122	-0.006
-706.616	-200.000	-0.018	-0.101
-705.602	-140.337	-0.172	0.018
-704.587	570.631	0.086	0.213
-703.572	297.029	0.122	0.228
-702.558	-34.290	0.099	0.055
-701.543	800.000	0.048	0.172
-700.529	167.953	0.138	0.200
-699.514	-131.468	0.100	-0.013
-698.499	800.000	0.081	-0.304
-697.485	-139.447	0.458	0.050
-696.470	726.697	-0.117	0.318
-695.456	6.889	0.200	-0.152
-694.441	-75.539	0.092	0.033
-693.426	-74.923	-0.120	0.044
-692.412	32.317	0.064	-0.056
-691.397	-13.997	-0.170	-0.111
-690.383	800.000	-0.093	-0.291
-689.368	23.674	-0.228	0.191
-688.354	783.480	-0.060	0.167
-687.339	-88.652	-0.368	0.111
-686.324	-137.086	0.101	0.012
-685.310	-59.247	0.234	-0.103
-684.295	800.000	0.071	0.258
-683.281	-118.458	-0.250	0.045
-682.266	100.239	-0.133	0.157
-681.251	48.995	0.149	0.142
-680.237	-93.021	-0.170	0.048
-679.222	93.406	-0.237	0.272
-678.208	-173.169	0.251	0.008
-677.193	148.592	-0.038	0.053
-676.178	363.783	-0.069	0.142
-675.164	-46.215	0.106	0.053
-674.149	800.000	0.034	-0.108
-673.135	-200.000	-0.015	0.187
-672.120	734.972	-0.219	-0.596
-671.105	-77.953	-0.169	0.059
-670.091	-53.930	-0.133	0.062
-669.076	-200.000	-0.027	0.313
-668.062	31.015	-0.069	0.060
-667.047	81.186	-0.262	0.287
-666.032	-2.675	-0.325	0.231
-665.018	270.918	0.181	0.323
-664.003	-135.033	-0.141	-0.017
-662.989	535.564	-0.190	-0.459
-661.974	-4.267	0.149	0.105
-660.959	-45.444	0.166	-0.084
-659.945	-200.000	0.050	0.450
-658.930	-28.855	0.118	0.069
-657.916	-49.924	0.200	0.097
-656.901	307.051	-0.111	0.210
-655.886	-121.094	-0.252	-0.043
-654.872	-200.000	0.010	0.130
-653.857	-22.018	0.198	-0.122
-652.843	800.000	0.082	-0.282
-651.828	-200.000	-0.014	0.101
-650.814	-72.519	-0.120	0.045
-649.799	398.974	-0.097	0.206
-648.784	84.118	-0.032	0.035
-647.770	-200.000	-0.057	-0.314
-646.755	175.708	0.106	-0.156
-645.741	-121.509	-0.077	0.013
-644.726	-200.000	0.031	0.238
-643.711	18.236	0.353	-0.286
-642.697	-96.424	0.116	-0.031
-641.682	-34.396	0.302	-0.168
-640.668	-200.000	0.025	0.292
-639.653	-112.693	-0.163	-0.033
-638.638	-133.344	0.066	0.008
-637.624	-57.775	-0.416	-0.185
-636.609	612.943	0.087	-0.221
-635.595	62.385	-0.142	-0.144
-634.580	30.788	-0.314	0.273
-633.565	-102.572	0.135	0.033
-632.551	-87.237	-0.379	-0.117
-631.536	-137.707	-0.347	0.040
-630.522	-137.866	0.189	-0.021
-629.507	216.703	-0.107	-0.173
-628.492	-200.000	0.033	-0.170
-627.478	800.000	-0.013	-0.046
-626.463	269.120	-0.075	0.133
-625.449	800.000	0.056	-0.217
-624.434	-34.045	0.268	0.150
-623.419	57.526	0.244	-0.242
-622.405	494.550	0.141	-0.329
-621.390	800.000	-0.024	-0.087
-620.376	-44.920	0.140	-0.071
-619.361	50.651	0.183	0.175
-618.346	-55.223	0.289	0.132
-617.332	-107.169	-0.108	0.024
-616.317	620.483	-0.043	0.109
-615.303	40.507	0.253	-0.231
-614.288	-18.588	-0.121	0.076
-613.273	-49.890	-0.136	0.065
-612.259	-86.417	0.152	-0.047
-611.244	94.560	0.015	-0.017
-610.230	-145.606	0.143	-0.013
-609.215	-49.866	-0.273	-0.131
-608.201	308.722	-0.055	-0.104
-607.186	-15.116	-0.218	-0.142
-606.171	-35.484	-0.047	0.026
-605.157	-200.000	-0.024	0.240
-604.142	-1.890	0.117	0.084
-603.128	293.551	-0.122	0.226
-602.113	709.182	0.102	-0.272
-601.098	-200.000	0.030	0.260
-600.084	144.219	0.145	-0.196
-599.069	49.787	0.141	0.134
-598.055	-97.076	0.379	-0.101
-597.040	31.930	-0.216	-0.189
-596.025	-200.000	0.004	-0.158
-595.011	755.669	0.132	0.361
-593.996	-56.217	-0.212	0.095
-592.982	800.000	-0.069	0.206
-591.967	248.757	0.055	-0.094
-590.952	281.259	-0.182	-0.329
-589.938	18.630	0.121	-0.098
-588.923	22.308	0.087	0.072
-587.909	800.000	-0.073	-0.287
-586.894	-20.492	-0.347	0.216
-585.879	-200.000	0.012	0.180
-584.865	264.259	-0.039	-0.070
-583.850	720.647	-0.066	0.178
-582.836	-200.000	0.003	-0.200
-581.821	504.636	0.048	0.112
-580.806	-92.710	0.211	-0.060
-579.792	-108.533	0.179	0.039
-578.777	-200.000	-0.035	0.221
-577.763	-107.707	0.172	0.038
-576.748	-70.302	0.191	-0.074
-575.733	-22.923	-0.284	0.173
-574.719	-200.000	0.013	0.137
-573.704	104.311	0.126	0.150
-572.690	-140.645	0.108	-0.011
-571.675	-131.245	0.226	0.030
-570.661	35.171	-0.222	0.197
-569.646	202.381	0.149	0.232
-568.631	-200.000	-0.003	0.421
-567.617	292.823	0.122	0.225
-566.602	800.000	0.019	-0.068
-565.588	198.368	-0.151	0.234
-564.573	194.029	0.111	-0.170
-563.558	380.010	0.066	0.136
-562.544	-200.000	0.007	-0.133
-561.529	-200.000	0.004	-0.100
-560.515	-200.000	-0.059	-0.357
-559.500	-200.000	-0.011	-0.051
-558.485	-125.442	-0.168	0.026
-557.471	427.337	0.095	-0.208
-556.456	-200.000	-0.096	0.427
-555.442	39.088	-0.195	-0.176
-554.427	-44.997	-0.096	0.048
-553.412	-91.068	0.125	0.036
-552.398	431.989	0.173	-0.380
-551.383	800.000	-0.052	0.207
-550.369	15.871	0.170	-0.135
-549.354	-62.235	0.161	0.068
-548.339	-200.000	0.007	0.076
-547.325	58.163	-0.069	-0.068
-546.310	160.220	-0.219	-0.308
-545.296	-71.118	-0.090	-0.034
-544.281	218.448	-0.093	0.150
-543.266	2.775	-0.270	-0.198
-542.252	-15.318	0.351	-0.227
-541.237	143.585	0.109	-0.147
-540.223	-108.026	-0.155	0.034
-539.208	-190.859	-0.142	-0.002
-538.193	-98.271	-0.243	-0.063
-537.179	143.325	-0.139	-0.187
-536.164	15.403	0.260	0.206
-535.150	-159.234	-0.189	-0.011
-534.135	-200.000	-0.042	-0.281
-533.121	623.344	-0.039	-0.100
-532.106	40.116	0.221	0.201
-531.091	162.060	-0.154	0.218
-530.077	800.000	0.050	-0.210
-529.062	-103.404	-0.143	0.034
-528.048	800.000	0.037	0.110
-527.033	69.926	0.198	0.206
-526.018	800.000	-0.038	0.122
-525.004	252.221	-0.180	0.310
-523.989	-3.340	0.167	-0.117
-522.975	-130.573	-0.479	0.065
-521.960	-193.641	-0.235	0.002
-520.945	336.136	-0.107	-0.210
-519.931	-3.998	-0.093	-0.065
-518.916	800.000	0.065	-0.281
-517.902	-81.204	0.316	0.105
-516.887	800.000	0.047	0.175
-515.872	-101.249	0.236	0.058
-514.858	151.028	-0.040	0.055
-513.843	-75.983	0.253	0.090
-512.829	-103.905	0.372	0.088
-511.814	-16.546	0.063	-0.041
-510.799	-27.716	0.102	0.060
-509.785	-200.000	-0.004	0.160
-508.770	-125.403	0.150	0.023
-507.756	637.298	-0.069	0.177
-506.741	-200.000	0.020	0.244
-505.726	-200.000	-0.022	-0.229
-504.712	-200.000	0.002	0.304
-503.697	-58.824	0.394	0.172
-502.683	-161.845	0.090	-0.005
-501.668	23.569	-0.070	-0.058
-500.653	49.318	-0.129	-0.123
-499.639	-102.622	-0.234	0.056
-498.624	-36.015	0.181	0.099
-497.610	-35.991	-0.084	-0.046
-496.595	111.485	0.169	-0.206
-495.581	-200.000	-0.016	-0.162
-494.566	119.717	-0.184	-0.230
-493.551	-91.108	-0.287	-0.083
-492.537	-200.000	0.052	-0.371
-491.522	40.768	-0.068	-0.062
-490.508	-68.975	0.388	0.151
-489.493	-200.000	-0.057	-0.447
-488.478	-1.939	0.108	0.077
-487.464	424.949	-0.126	0.273
-486.449	-27.451	-0.164	0.096
-485.435	-36.217	0.276	0.150
-484.420	800.000	0.064	-0.265
-483.405	-92.860	-0.187	0.053
-482.391	426.744	-0.055	0.120
-481.376	-200.000	-0.008	0.192
-480.362	-143.428	-0.260	0.025
-479.347	72.329	-0.049	0.052
-478.332	-84.331	0.265	0.085
-477.318	97.627	-0.192	0.223
-476.303	-200.000	-0.018	0.146
-475.289	-200.000	0.012	0.132
-474.274	31.582	0.032	-0.027
-473.259	-200.000	-0.014	0.109
-472.245	-6.675	-0.148	0.102
-471.230	-82.112	-0.087	0.029
-470.216	-18.059	0.214	-0.135
-469.201	334.682	-0.035	-0.068
-468.186	800.000	0.020	0.073
-467.172	-76.101	-0.230	-0.082
-466.157	-171.957	-0.114	-0.004
-465.143	-97.198	0.280	0.074
-464.128	-44.218	0.241	-0.122
-463.113	44.188	0.120	-0.111
-462.099	103.850	-0.217	0.257
-461.084	580.511	0.120	0.297
-460.070	124.429	-0.164	0.208
-459.055	40.196	-0.100	-0.091
-458.040	-139.837	0.163	-0.017
-457.026	246.479	-0.172	0.291
-456.011	82.181	-0.161	0.176
-454.997	-24.141	0.116	-0.070
-453.982	-40.842	-0.349	-0.182
-452.968	235.497	-0.091	-0.151
-451.953	38.912	0.234	-0.210
-450.938	800.000	-0.087	-0.271
-449.924	800.000	0.161	-0.610
-448.909	-108.152	0.166	-0.036
-447.895	-20.997	0.271	-0.167
-446.880	-200.000	0.018	-0.310
-445.865	-151.710	0.108	-0.008
-444.851	212.493	0.097	0.154
-443.836	-55.558	0.193	-0.087
-442.822	800.000	-0.096	-0.281
-441.807	-128.479	0.071	0.010
-440.792	-83.149	0.243	-0.079
-439.778	-200.000	0.006	-0.262
-438.763	127.006	0.156	-0.199
-437.749	800.000	-0.030	0.124
-436.734	800.000	-0.018	0.065
-435.719	-200.000	0.035	-0.319
-434.705	800.000	-0.083	0.282
-433.690	-140.194	0.191	-0.020
-432.676	56.087	-0.126	-0.123
-431.661	457.936	-0.161	-0.360
-430.646	-200.000	-0.017	0.519
-429.632	723.359	-0.115	0.309
-428.617	-101.527	-0.427	0.104
-427.603	-200.000	-0.091	0.415
-426.588	43.806	0.018	0.017
-425.573	-52.727	0.162	-0.075
-424.559	427.764	0.113	0.245
-423.544	128.862	0.105	0.135
-422.530	81.579	0.146	-0.159
-421.515	-19.979	-0.207	0.129
-420.500	-33.830	-0.123	-0.068
-419.486	6.351	-0.114	-0.085
-418.471	130.108	0.131	-0.168
-417.457	-58.248	-0.121	0.053
-416.442	-200.000	-0.008	0.157
-415.428	-74.373	0.144	-0.052
-414.413	-200.000	0.001	0.188
-413.398	254.973	-0.141	0.242
-412.384	-73.875	-0.296	-0.108
-411.369	595.300	-0.110	0.274
-410.355	-156.200	0.222	0.014
-409.340	-200.000	0.002	-0.131
-408.325	-200.000	-0.040	0.224
-407.311	161.823	0.273	-0.385
-406.296	-190.169	-0.018	-0.000
-405.282	-48.256	0.203	0.099
-404.267	-19.029	0.230	0.143
-403.252	307.446	0.139	-0.261
-402.238	-200.000	0.025	-0.173
-401.223	-76.842	0.067	-0.024
-400.209	-168.543	-0.200	0.008
-399.194	-150.586	-0.172	-0.013
-398.179	-53.280	0.152	-0.070
-397.165	157.764	0.167	-0.233
-396.150	-122.286	0.226	0.037
-395.136	96.746	-0.181	-0.208
-394.121	22.974	0.400	-0.329
-393.106	49.634	0.101	-0.096
-392.092	-200.000	-0.016	-0.096
-391.077	-172.403	0.117	-0.004
-390.063	-43.815	-0.082	0.042
-389.048	-120.949	0.281	0.047
-388.033	178.472	-0.183	0.268
-387.019	-78.177	-0.098	0.034
-386.004	-200.000	0.029	0.184
-384.990	-37.800	-0.120	-0.064
-383.975	-37.530	-0.223	-0.120
-382.960	-197.766	0.483	0.003
-381.946	800.000	0.057	0.229
-380.931	308.793	0.091	-0.171
-379.917	800.000	0.017	0.067
-378.902	585.289	0.047	-0.116
-377.888	-41.781	0.108	-0.056
-376.873	800.000	0.056	-0.169
-375.858	-130.152	-0.159	-0.022
-374.844	-134.611	0.140	-0.017
-373.829	-200.000	-0.056	0.318
-372.815	126.101	0.142	-0.181
-371.800	-0.898	-0.047	0.034
-370.785	194.916	0.088	-0.134
-369.771	59.182	-0.122	-0.120
-368.756	434.867	-0.149	0.326
-367.742	38.327	-0.215	0.192
-366.727	-124.719	0.074	-0.011
-365.712	-63.209	0.175	0.072
-364.698	459.616	-0.044	-0.099
-363.683	206.808	0.061	-0.095
-362.669	99.097	-0.167	0.193
-361.654	-73.995	-0.272	0.099
-360.639	-200.000	-0.003	0.066
-359.625	148.067	0.176	0.239
-358.610	-15.542	-0.264	-0.169
-357.596	-138.952	-0.338	-0.037
-356.581	7.054	0.253	-0.189
-355.566	-99.196	-0.119	0.030
-354.552	30.570	0.042	0.036
-353.537	437.363	0.072	0.158
-352.523	248.726	0.129	-0.220
-351.508	800.000	-0.044	-0.182
-350.493	-20.486	-0.373	0.230
-349.479	-200.000	-0.036	0.212
-348.464	373.209	-0.218	0.444
-347.450	800.000	-0.121	0.464
-346.435	-200.000	0.018	0.192
-345.420	-200.000	0.013	-0.333
-344.406	-179.834	0.256	-0.006
-343.391	800.000	0.045	-0.168
-342.377	-13.951	-0.387	-0.251
-341.362	-65.338	-0.109	-0.044
-340.348	24.953	-0.247	0.205
-339.333	800.000	-0.017	0.046
-338.318	-91.429	-0.073	-0.021
-337.304	-200.000	0.002	-0.143
-336.289	447.029	0.185	-0.408
-335.275	-93.922	0.237	0.065
-334.260	-121.347	0.064	0.011
-333.245	380.989	-0.018	-0.036
-332.231	-64.498	0.229	-0.093
-331.216	-120.487	-0.186	0.032
-330.202	162.977	0.230	0.324
-329.187	-23.794	-0.208	-0.125
-328.172	-106.770	-0.165	0.037
-327.158	-100.279	-0.496	0.124
-326.143	-114.984	0.138	0.026
-325.129	-78.003	-0.275	0.095
-324.114	-22.506	-0.366	-0.222
-323.099	-200.000	0.020	-0.104
-322.085	-75.196	-0.198	-0.071
-321.070	800.000	-0.024	0.072
-320.056	-16.429	-0.331	-0.211
-319.041	33.217	-0.231	0.200
-318.026	-8.822	-0.236	-0.158
-317.012	-48.921	0.141	-0.068
-315.997	800.000	-0.038	0.148
-314.983	43.956	-0.080	0.073
-313.968	-36.889	-0.415	0.223
-312.953	234.629	0.042	0.070
-311.939	800.000	-0.030	-0.126
-310.924	-0.329	-0.252	0.180
-309.910	-200.000	-0.010	-0.144
-308.895	-138.108	-0.169	0.019
-307.880	-84.965	-0.129	-0.041
-306.866	470.033	-0.086	-0.194
-305.851	-200.000	-0.026	0.384
-304.837	-39.313	0.304	-0.160
-303.822	-90.352	-0.066	-0.019
-302.807	-120.445	0.144	-0.025
-301.793	60.994	-0.298	-0.296
-300.778	-21.202	0.234	0.143
-299.764	-88.104	0.245	-0.074
-298.749	-17.343	-0.248	0.156
-297.735	-7.040	-0.210	-0.143
-296.720	-200.000	0.010	0.054
-295.705	800.000	0.052	-0.223
-294.691	-46.041	-0.324	0.160
-293.676	-126.682	-0.212	0.031
-292.662	-200.000	0.001	-0.184
-291.647	-54.501	0.346	-0.157
-290.632	583.874	0.106	-0.261
-289.618	-41.633	-0.414	-0.213
-288.603	-66.659	-0.144	0.057
-287.589	221.335	-0.033	0.054
-286.574	-45.998	-0.024	-0.012
-285.559	126.772	0.102	-0.130
-284.545	-120.566	-0.190	0.032
-283.530	-145.237	-0.386	0.035
-282.516	-200.000	0.204	-0.001
-281.501	-200.000	-0.067	0.356
-280.486	8.110	-0.307	0.230
-279.472	-23.346	0.149	0.089
-278.457	-41.801	0.151	0.077
-277.443	-114.231	0.218	-0.042
-276.428	-200.000	0.001	-0.081
-275.413	-114.719	-0.133	0.026
-274.399	707.627	0.134	0.354
-273.384	47.972	0.131	0.123
-272.370	-61.601	0.341	0.143
-271.355	40.756	0.121	0.109
-270.340	151.322	-0.268	0.364
-269.326	72.322	-0.125	0.130
-268.311	-200.000	0.064	-0.442
-267.297	101.847	-0.125	0.146
-266.282	-53.031	0.393	-0.181
-265.267	-108.833	-0.275	-0.059
-264.253	800.000	0.042	-0.118
-263.238	70.793	0.314	-0.325
-262.224	-131.441	0.336	-0.044
-261.209	444.808	-0.189	-0.415
-260.195	-68.275	0.039	-0.015
-259.180	-16.088	0.386	0.245
-258.165	-101.122	0.285	-0.070
-257.151	-151.725	0.232	0.017
-256.136	-92.832	0.201	-0.056
-255.122	23.702	-0.182	0.150
-254.107	78.130	0.105	-0.112
-253.092	0.324	-0.055	-0.039
-252.078	-63.042	0.210	0.087
-251.063	170.408	0.234	-0.335
-250.049	29.539	-0.057	0.048
-249.034	800.000	-0.077	0.222
-248.019	150.948	-0.129	0.175
-247.005	154.634	0.156	-0.214
-245.990	-98.877	0.370	0.094
-244.976	14.107	0.337	0.262
-243.961	-81.689	0.229	-0.075
-242.946	-38.200	-0.088	0.047
-241.932	215.343	-0.042	0.066
-240.917	49.138	-0.062	0.058
-239.903	574.185	0.146	-0.356
-238.888	-100.921	0.439	-0.108
-237.873	-200.000	0.017	-0.076
-236.859	-200.000	0.032	-0.198
-235.844	95.398	-0.064	0.073
-234.830	11.136	0.106	-0.081
-233.815	-200.000	0.020	-0.129
-232.800	-109.879	0.213	-0.045
-231.786	302.480	-0.080	-0.148
-230.771	27.995	-0.402	0.339
-229.757	136.093	-0.092	0.120
-228.742	-83.848	-0.179	0.057
-227.727	76.970	0.116	-0.123
-226.713	-79.179	-0.298	-0.101
-225.698	-17.252	-0.379	0.239
-224.684	-27.057	-0.231	0.134
-223.669	18.996	0.285	-0.228
-222.655	-67.138	0.145	0.057
-221.640	51.784	-0.181	0.172
-220.625	-200.000	0.036	0.398
-219.611	661.140	-0.129	0.331
-218.596	55.506	0.086	-0.083
-217.582	-88.233	0.144	0.043
-216.567	185.793	-0.101	0.150
-215.552	-133.864	0.304	-0.038
-214.538	-129.852	0.226	0.031
-213.523	53.097	0.162	0.155
-212.509	-11.514	0.070	-0.046
-211.494	-31.569	-0.338	-0.189
-210.479	800.000	0.034	0.112
-209.465	49.993	0.139	0.130
-208.450	-200.000	0.036	0.273
-207.436	292.927	0.148	0.269
-206.421	-5.295	-0.200	0.137
-205.406	211.813	0.131	-0.206
-204.392	-44.034	0.227	-0.114
-203.377	-200.000	0.037	0.244
-202.363	-80.662	-0.207	0.069
-201.348	48.303	-0.090	-0.084
-200.333	800.000	0.051	0.211
-199.319	566.268	-0.038	0.091
-198.304	-200.000	0.003	-0.117
-197.290	7.212	0.338	-0.252
-196.275	-200.000	0.028	0.146
-195.260	-94.088	0.217	0.059
-194.246	171.194	0.085	-0.121
-193.231	800.000	0.051	-0.141
-192.217	800.000	-0.020	0.085
-191.202	-125.120	0.168	-0.026
-190.187	-115.069	-0.298	-0.056
-189.173	19.410	-0.103	0.083
-188.158	-29.494	-0.014	0.008
-187.144	15.298	-0.139	-0.109
-186.129	-38.496	-0.400	0.211
-185.114	-27.496	-0.225	-0.130
-184.100	-200.000	-0.002	0.260
-183.085	800.000	0.042	-0.129
-182.071	-61.265	0.243	0.102
-181.056	-200.000	-0.005	-0.099
-180.042	-101.291	-0.152	0.037
-179.027	-57.535	-0.059	-0.026
-178.012	-106.591	-0.155	-0.034
-176.998	-95.544	0.340	-0.091
-175.983	23.911	0.104	0.085
-174.969	-200.000	-0.050	-0.378
-173.954	-100.993	-0.140	-0.034
-172.939	-200.000	-0.031	-0.293
-171.925	-111.640	-0.182	-0.037
-170.910	-21.876	0.285	-0.173
-169.896	-92.661	-0.267	0.075
-168.881	70.105	-0.119	0.123
-167.866	-102.582	0.077	-0.018
-166.852	-104.089	0.313	-0.073
-165.837	-43.090	-0.138	0.070
-164.823	-10.227	-0.302	0.200
-163.808	-200.000	0.010	-0.123
-162.793	-42.380	0.298	0.151
-161.779	-107.120	-0.183	0.040
-160.764	800.000	0.073	-0.240
-159.750	800.000	-0.010	0.030
-158.735	13.390	0.098	-0.075
-157.720	301.746	0.167	-0.307
-156.706	-96.421	-0.443	-0.117
-155.691	142.264	-0.113	0.149
-154.677	-94.976	-0.113	-0.030
-153.662	193.263	0.087	-0.131
-152.647	228.427	0.083	-0.134
-151.633	17.159	-0.139	0.110
-150.618	-53.796	0.211	0.096
-149.604	71.686	0.050	-0.052
-148.589	465.724	-0.180	-0.402
-147.574	-37.685	0.098	-0.052
-146.560	-123.937	0.347	-0.054
-145.545	-200.000	-0.007	-0.098
-144.531	-126.340	-0.203	0.030
-143.516	-200.000	0.015	0.075
-142.502	-200.000	-0.016	-0.184
-141.487	75.745	0.141	0.149
-140.472	322.088	-0.056	0.106
-139.458	800.000	0.054	-0.148
-138.443	-136.717	0.360	0.041
-137.429	800.000	0.085	0.334
-136.414	97.942	-0.090	-0.103
-135.399	-1.454	0.224	-0.157
-134.385	-154.299	0.183	0.012
-133.370	-145.708	-0.336	0.030
-132.356	130.070	-0.251	0.319
-131.341	-200.000	0.044	0.263
-130.326	-181.784	0.220	-0.004
-129.312	100.594	-0.139	0.160
-128.297	257.805	0.211	0.361
-127.283	-140.521	0.207	-0.021
-126.268	171.591	0.039	0.055
-125.253	41.227	-0.041	0.036
-124.239	-176.441	0.336	-0.009
-123.224	35.557	-0.135	0.118
-122.210	411.080	0.156	-0.330
-121.195	-165.190	-0.237	-0.010
