DTS Sentinel unit serial number:	SN413079Multiplexer serial number:	ORYXHardware model number:	OX4-SRSoftware version number:	ORYX F/W v4.00 Oryx Data Collector v3.7.2.0data status	okinstallation	princeton_trtdifferential loss correction	single-endedforward channel	channel 4reverse channel	N/Adate	2019/09/18time	16:57:35forward acquisition time	60.00reverse acquisition time	0.00gamma	496.2192k internal	0.2289k external	0.2289temperature offset calibration	1.0008default loss term (dB/km)	0.3790temperature slope calibration	1.0000multiplexer offset coefficient	1.0000multiplexer slope coefficient	1.0000fibre end	0.00T internal ref (°C)	40.06T ext. ref 1 (°C)	0.86T ext. ref 2 (°C)	35.35length (m)	temperature (°C)	Stokes	anti-Stokes-747.200	-8.514	-0.250	-0.172
-746.185	-1.941	-0.184	0.133
-745.171	-200.000	0.003	0.231
-744.156	-200.000	-0.049	0.558
-743.142	624.617	-0.097	-0.251
-742.127	329.163	-0.230	0.454
-741.112	-200.000	0.043	-0.404
-740.098	-14.171	-0.192	0.127
-739.083	-81.609	-0.161	0.054
-738.069	800.000	-0.098	0.409
-737.054	95.160	-0.246	0.288
-736.039	25.518	-0.086	-0.073
-735.025	-200.000	0.012	-0.161
-734.010	-200.000	0.032	0.177
-732.996	128.831	-0.181	0.236
-731.981	232.871	-0.137	0.230
-730.966	265.976	-0.119	-0.213
-729.952	66.159	-0.104	-0.108
-728.937	-75.732	-0.108	0.039
-727.923	-58.192	0.165	0.074
-726.908	-30.644	-0.375	-0.218
-725.894	-200.000	0.014	-0.521
-724.879	-200.000	0.005	-0.271
-723.864	-1.956	-0.266	-0.191
-722.850	189.524	-0.107	-0.164
-721.835	132.698	0.072	0.095
-720.821	-200.000	-0.014	0.105
-719.806	-170.847	-0.013	0.000
-718.791	181.464	0.041	0.062
-717.777	-22.218	0.443	-0.275
-716.762	-127.728	-0.224	0.033
-715.748	781.092	-0.111	0.312
-714.733	-110.774	0.059	0.012
-713.718	-93.068	-0.219	0.062
-712.704	-25.719	0.160	-0.097
-711.689	653.501	-0.142	-0.374
-710.675	-200.000	-0.008	0.201
-709.660	96.793	0.109	-0.128
-708.645	-192.221	-0.288	-0.003
-707.631	800.000	-0.138	0.450
-706.616	281.147	-0.082	-0.149
-705.602	-165.042	0.124	-0.006
-704.587	406.810	-0.083	-0.180
-703.572	-200.000	-0.057	-0.446
-702.558	-159.176	0.347	-0.020
-701.543	-23.012	-0.093	-0.058
-700.529	31.720	-0.062	0.054
-699.514	-110.528	-0.321	-0.068
-698.499	41.862	0.017	0.016
-697.485	154.038	-0.062	-0.088
-696.470	21.640	0.166	-0.138
-695.456	96.704	0.200	0.234
-694.441	-146.384	-0.141	0.013
-693.426	-200.000	-0.024	-0.172
-692.412	-200.000	-0.008	-0.074
-691.397	490.020	-0.071	-0.166
-690.383	-200.000	-0.011	0.075
-689.368	-22.534	0.202	-0.125
-688.354	23.879	-0.082	-0.069
-687.339	-200.000	-0.021	-0.263
-686.324	-77.532	-0.250	-0.089
-685.310	41.874	-0.043	-0.040
-684.295	288.971	-0.082	-0.152
-683.281	-18.644	-0.145	0.093
-682.266	0.181	-0.415	0.302
-681.251	25.948	0.237	-0.202
-680.237	49.711	0.211	-0.203
-679.222	48.581	0.165	0.158
-678.208	-71.462	-0.091	-0.035
-677.193	-104.734	0.339	0.080
-676.178	-63.293	0.079	-0.033
-675.164	-112.232	-0.231	0.047
-674.149	-200.000	-0.072	-0.365
-673.135	157.234	0.195	0.276
-672.120	418.671	0.018	-0.039
-671.105	-200.000	0.034	-0.439
-670.091	-200.000	-0.031	0.288
-669.076	459.022	0.128	-0.292
-668.062	-200.000	0.010	0.274
-667.047	385.286	0.036	-0.075
-666.032	-64.945	-0.129	-0.053
-665.018	143.722	-0.066	0.090
-664.003	-71.940	0.165	-0.063
-662.989	215.705	0.172	0.280
-661.974	579.337	0.062	0.156
-660.959	-118.495	-0.321	-0.058
-659.945	-200.000	-0.024	-0.309
-658.930	-200.000	-0.005	0.068
-657.916	-200.000	-0.010	0.162
-656.901	-56.081	-0.239	-0.109
-655.886	-200.000	0.002	-0.236
-654.872	53.302	-0.162	-0.158
-653.857	-80.981	-0.119	-0.040
-652.843	800.000	-0.065	-0.248
-651.828	54.573	-0.064	-0.063
-650.814	-200.000	0.017	-0.128
-649.799	-57.188	0.321	0.144
-648.784	-5.047	-0.374	-0.263
-647.770	169.061	-0.129	0.189
-646.755	-200.000	-0.009	0.149
-645.741	149.377	-0.144	0.199
-644.726	52.670	-0.026	-0.025
-643.711	343.212	-0.109	0.218
-642.697	73.830	0.174	0.186
-641.682	-29.984	-0.114	-0.066
-640.668	-37.383	0.136	-0.074
-639.653	18.631	-0.165	-0.135
-638.638	154.779	-0.104	0.146
-637.624	-1.026	0.185	0.133
-636.609	-173.812	0.294	0.009
-635.595	-4.962	-0.098	0.069
-634.580	-130.930	0.253	0.035
-633.565	8.778	-0.305	-0.235
-632.551	63.684	0.140	0.143
-631.536	196.031	-0.125	-0.194
-630.522	10.484	0.036	0.028
-629.507	51.038	-0.208	-0.201
-628.492	320.077	0.074	0.142
-627.478	-200.000	-0.027	0.274
-626.463	122.049	-0.081	0.103
-625.449	800.000	0.044	0.163
-624.434	13.942	0.093	0.073
-623.419	-200.000	-0.018	-0.278
-622.405	196.895	0.102	-0.159
-621.390	-140.686	0.112	-0.012
-620.376	30.828	0.239	0.209
-619.361	-200.000	-0.040	0.351
-618.346	-115.945	-0.128	-0.024
-617.332	-145.867	0.257	-0.023
-616.317	-6.553	0.159	-0.110
-615.303	124.688	0.167	-0.215
-614.288	330.481	0.140	0.276
-613.273	-91.297	-0.210	-0.061
-612.259	345.494	-0.065	0.131
-611.244	21.533	0.344	-0.285
-610.230	-82.839	0.254	-0.084
-609.215	-41.801	0.321	-0.168
-608.201	-55.508	0.302	-0.138
-607.186	344.795	-0.087	-0.174
-606.171	-86.500	-0.361	0.113
-605.157	-176.072	-0.479	-0.013
-604.142	-200.000	-0.009	-0.373
-603.128	-45.705	-0.096	-0.048
-602.113	-200.000	0.023	-0.370
-601.098	-136.162	-0.178	-0.021
-600.084	-200.000	-0.014	0.131
-599.069	34.541	0.137	-0.122
-598.055	-41.412	-0.177	-0.093
-597.040	-26.221	-0.109	-0.065
-596.025	669.713	0.084	-0.221
-595.011	159.306	-0.094	-0.134
-593.996	-113.619	0.116	0.023
-592.982	-83.346	0.106	0.035
-591.967	-200.000	-0.006	-0.113
-590.952	-14.179	-0.097	0.064
-589.938	168.822	-0.070	-0.101
-588.923	272.457	0.178	-0.319
-587.909	225.366	-0.039	0.065
-586.894	800.000	0.114	-0.357
-585.879	800.000	-0.121	-0.376
-584.865	-74.049	0.362	-0.134
-583.850	-147.534	-0.344	0.030
-582.836	-82.156	-0.209	0.069
-581.821	800.000	0.070	0.228
-580.806	-56.727	0.380	0.171
-579.792	59.989	0.231	-0.233
-578.777	-54.839	0.220	0.101
-577.763	471.493	-0.080	-0.183
-576.748	116.233	-0.110	-0.138
-575.733	301.346	-0.187	-0.352
-574.719	-109.068	-0.253	0.055
-573.704	-15.590	-0.057	0.037
-572.690	-73.912	0.172	0.063
-571.675	-45.468	-0.245	-0.124
-570.661	800.000	-0.080	-0.302
-569.646	-41.763	0.180	0.094
-568.631	-104.182	-0.119	0.028
-567.617	800.000	-0.089	-0.303
-566.602	800.000	-0.056	-0.197
-565.588	236.853	-0.186	0.314
-564.573	69.676	-0.257	0.270
-563.558	-200.000	0.071	-0.320
-562.544	-200.000	-0.018	-0.196
-561.529	800.000	-0.042	0.132
-560.515	9.165	-0.180	0.138
-559.500	-113.963	-0.280	0.055
-558.485	-49.595	0.081	0.039
-557.471	-115.596	-0.342	0.065
-556.456	484.474	-0.088	0.203
-555.442	-200.000	-0.042	-0.302
-554.427	95.865	0.315	0.365
-553.412	800.000	0.046	0.146
-552.398	-200.000	-0.054	-0.739
-551.383	-31.860	0.119	0.068
-550.369	76.128	0.290	-0.313
-549.354	-200.000	0.024	-0.384
-548.339	320.251	-0.119	-0.230
-547.325	261.246	0.080	0.141
-546.310	-200.000	-0.019	-0.240
-545.296	122.758	-0.166	-0.211
-544.281	-200.000	0.035	0.470
-543.266	-19.811	0.194	0.122
-542.252	-8.620	-0.105	0.072
-541.237	105.758	-0.202	0.243
-540.223	10.813	0.271	0.210
-539.208	32.936	-0.049	0.043
-538.193	-135.249	-0.362	-0.044
-537.179	-200.000	-0.022	-0.167
-536.164	-41.008	-0.015	-0.008
-535.150	234.612	0.023	0.039
-534.135	92.622	-0.172	0.197
-533.121	800.000	-0.131	0.490
-532.106	-84.790	0.331	0.106
-531.091	-78.997	-0.330	0.114
-530.077	-169.724	-0.218	-0.008
-529.062	-161.193	-0.308	0.016
-528.048	800.000	-0.078	0.307
-527.033	800.000	0.022	0.086
-526.018	-200.000	0.039	-0.225
-525.004	-127.765	-0.241	-0.035
-523.989	212.509	-0.092	-0.148
-522.975	-147.907	0.089	-0.008
-521.960	800.000	-0.035	0.104
-520.945	148.354	-0.128	0.175
-519.931	452.807	-0.050	0.113
-518.916	-200.000	0.029	0.174
-517.902	138.959	-0.241	0.321
-516.887	800.000	0.044	0.194
-515.872	-200.000	0.085	-0.493
-514.858	-55.793	-0.134	0.061
-513.843	468.741	-0.191	0.435
-512.829	213.095	0.151	0.242
-511.814	-102.692	-0.203	-0.049
-510.799	81.644	0.060	0.066
-509.785	800.000	-0.028	0.087
-508.770	-95.826	-0.096	0.026
-507.756	298.446	0.123	-0.229
-506.741	-41.131	-0.058	-0.030
-505.726	-200.000	-0.018	0.104
-504.712	1.796	-0.131	0.096
-503.697	-200.000	-0.068	0.345
-502.683	-142.553	0.107	-0.011
-501.668	800.000	-0.099	0.339
-500.653	800.000	-0.077	-0.237
-499.639	346.569	-0.224	-0.447
-498.624	54.171	-0.179	-0.175
-497.610	-2.450	0.166	-0.118
-496.595	57.681	-0.201	0.199
-495.581	24.131	-0.028	0.023
-494.566	-200.000	0.008	-0.180
-493.551	800.000	0.049	0.159
-492.537	-200.000	0.027	-0.240
-491.522	-85.206	-0.075	0.024
-490.508	233.179	0.139	0.233
-489.493	256.500	-0.081	-0.142
-488.478	-51.539	0.036	0.017
-487.464	298.631	-0.109	-0.204
-486.449	777.012	-0.142	-0.394
-485.435	61.258	0.086	-0.086
-484.420	467.901	0.016	-0.036
-483.405	800.000	0.094	0.371
-482.391	-200.000	-0.042	0.218
-481.376	-27.834	0.407	-0.239
-480.362	-74.777	-0.341	0.124
-479.347	12.830	-0.107	-0.084
-478.332	-30.881	0.201	0.115
-477.318	42.759	0.076	0.070
-476.303	-143.047	0.076	0.007
-475.289	-47.523	-0.178	0.088
-474.274	-200.000	0.030	-0.202
-473.259	-162.227	0.085	-0.004
-472.245	97.117	-0.147	-0.171
-471.230	-152.756	-0.181	0.013
-470.216	564.071	0.104	0.255
-469.201	346.734	-0.190	0.378
-468.186	13.736	0.291	0.229
-467.172	-39.837	0.177	-0.094
-466.157	209.623	0.047	-0.075
-465.143	-200.000	-0.005	-0.083
-464.128	170.456	0.114	0.166
-463.113	-107.495	0.261	0.058
-462.099	800.000	-0.060	-0.205
-461.084	-200.000	-0.006	-0.209
-460.070	-200.000	0.038	0.238
-459.055	-200.000	-0.016	-0.237
-458.040	204.175	0.145	0.227
-457.026	-102.050	0.147	-0.036
-456.011	-103.806	0.068	0.016
-454.997	800.000	-0.092	0.334
-453.982	-200.000	0.023	0.310
-452.968	-200.000	0.029	-0.235
-451.953	-105.283	-0.277	0.064
-450.938	-115.373	-0.135	0.026
-449.924	242.937	-0.107	-0.181
-448.909	-50.766	-0.138	0.066
-447.895	353.966	0.107	0.215
-446.880	-200.000	-0.026	0.207
-445.865	-200.000	0.265	0.001
-444.851	-178.765	0.262	-0.006
-443.836	33.751	-0.177	0.156
-442.822	-136.847	-0.246	-0.029
-441.807	95.836	0.182	-0.210
-440.792	152.895	0.064	-0.089
-439.778	-200.000	-0.035	-0.217
-438.763	-104.784	0.244	-0.057
-437.749	3.531	-0.276	-0.204
-436.734	-131.443	-0.288	0.039
-435.719	396.070	0.122	-0.259
-434.705	275.758	-0.225	-0.404
-433.690	-84.958	-0.060	-0.019
-432.676	158.723	0.116	0.163
-431.661	635.799	-0.095	0.244
-430.646	-200.000	-0.010	0.230
-429.632	-200.000	-0.038	-0.249
-428.617	-106.466	0.475	-0.107
-427.603	84.423	-0.116	-0.128
-426.588	-13.366	0.070	0.046
-425.573	62.064	0.344	-0.347
-424.559	-98.484	0.151	0.039
-423.544	-200.000	-0.001	-0.049
-422.530	233.256	0.222	0.370
-421.515	-60.024	-0.336	0.145
-420.500	334.901	0.126	-0.248
-419.486	800.000	-0.120	0.520
-418.471	800.000	0.098	0.323
-417.457	-119.791	-0.093	-0.016
-416.442	800.000	-0.067	-0.220
-415.428	-193.127	0.329	0.003
-414.413	-93.751	0.152	0.042
-413.398	-200.000	0.038	-0.212
-412.384	-200.000	0.063	0.295
-411.369	-36.160	-0.238	-0.130
-410.355	355.363	-0.115	0.232
-409.340	-21.654	0.189	-0.117
-408.325	-144.959	0.099	-0.009
-407.311	-185.888	-0.158	-0.002
-406.296	800.000	-0.149	0.468
-405.282	800.000	0.069	-0.225
-404.267	800.000	-0.044	0.126
-403.252	-90.548	-0.234	0.068
-402.238	87.357	0.255	-0.285
-401.223	-73.671	0.226	0.083
-400.209	124.272	0.076	-0.096
-399.194	122.807	0.178	-0.225
-398.179	139.700	-0.064	-0.086
-397.165	3.462	0.114	-0.084
-396.150	11.763	-0.166	-0.129
-395.136	529.977	-0.055	-0.132
-394.121	-23.943	0.354	-0.214
-393.106	-12.917	0.235	0.155
-392.092	26.469	-0.148	0.125
-391.077	7.132	-0.158	-0.119
-390.063	-89.350	0.166	0.050
-389.048	-91.323	0.421	-0.122
-388.033	-8.317	-0.126	0.086
-387.019	136.996	-0.036	0.048
-386.004	-26.168	-0.329	0.195
-384.990	85.464	0.115	0.128
-383.975	224.126	0.214	0.350
-382.960	-200.000	-0.097	0.570
-381.946	30.289	0.299	0.258
-380.931	-200.000	0.000	0.199
-379.917	13.096	0.313	0.245
-378.902	-123.476	-0.074	0.012
-377.888	-200.000	-0.057	-0.253
-376.873	152.392	-0.213	-0.294
-375.858	800.000	-0.080	0.257
-374.844	208.343	0.052	0.083
-373.829	-181.330	0.037	-0.001
-372.815	-61.243	-0.051	0.022
-371.800	74.255	-0.052	-0.055
-370.785	-3.123	-0.061	-0.043
-369.771	-73.524	-0.065	-0.024
-368.756	-17.886	-0.115	0.073
-367.742	130.914	-0.117	-0.152
-366.727	79.588	0.048	0.052
-365.712	-41.424	-0.312	0.162
-364.698	-84.316	-0.297	0.095
-363.683	-200.000	-0.036	-0.332
-362.669	-100.881	-0.030	0.008
-361.654	800.000	-0.129	-0.396
-360.639	-200.000	-0.030	0.000
-359.625	38.084	0.028	-0.025
-358.610	200.114	0.129	-0.200
-357.596	-103.402	0.482	0.115
-356.581	-131.063	0.159	0.021
-355.566	161.890	-0.106	0.150
-354.552	-12.332	0.167	-0.110
-353.537	0.455	0.278	0.200
-352.523	-123.676	-0.143	-0.023
-351.508	94.323	0.216	0.248
-350.493	80.667	0.112	0.122
-349.479	800.000	0.034	-0.098
-348.464	220.882	-0.109	0.177
-347.450	-87.995	0.086	-0.026
-346.435	-117.392	0.211	-0.039
-345.420	-114.226	0.140	-0.027
-344.406	-163.456	-0.260	-0.012
-343.391	-107.349	-0.250	0.055
-342.377	47.872	0.184	-0.173
-341.362	8.946	0.234	0.178
-340.348	-40.937	-0.243	-0.127
-339.333	244.316	0.161	-0.272
-338.318	130.691	0.166	0.215
-337.304	193.736	0.119	-0.181
-336.289	-121.477	0.134	-0.023
-335.275	518.799	0.052	-0.122
-334.260	118.341	0.208	-0.259
-333.245	800.000	-0.048	-0.207
-332.231	800.000	-0.146	0.437
-331.216	-89.417	0.176	0.052
-330.202	-121.988	0.127	-0.021
-329.187	217.040	-0.092	-0.148
-328.172	126.015	0.273	-0.347
-327.158	207.601	-0.088	-0.139
-326.143	289.038	-0.095	0.174
-325.129	-200.000	-0.026	-0.391
-324.114	-43.224	-0.092	-0.047
-323.099	-197.409	-0.350	-0.002
-322.085	-103.062	-0.217	0.052
-321.070	-136.240	-0.090	0.011
-320.056	457.000	0.105	-0.235
-319.041	-44.477	-0.253	0.128
-318.026	-64.744	-0.201	0.082
-317.012	-200.000	-0.029	-0.299
-315.997	-10.816	-0.223	0.148
-314.983	-200.000	0.019	-0.088
-313.968	-54.748	-0.174	-0.079
-312.953	219.714	-0.159	0.256
-311.939	180.098	0.043	0.063
-310.924	34.169	-0.040	-0.035
-309.910	16.108	-0.158	0.125
-308.895	-13.109	-0.070	-0.046
-307.880	94.935	-0.269	-0.308
-306.866	-119.912	0.354	0.061
-305.851	-150.944	-0.177	0.013
-304.837	800.000	-0.059	0.233
-303.822	-29.015	0.111	-0.064
-302.807	262.102	-0.163	0.284
-301.793	-200.000	-0.000	0.042
-300.778	24.345	0.084	-0.070
-299.764	97.666	0.112	0.130
-298.749	-139.372	-0.118	-0.013
-297.735	16.463	-0.241	0.192
-296.720	-200.000	0.004	0.362
-295.705	491.462	-0.040	-0.091
-294.691	89.217	-0.077	-0.086
-293.676	365.462	0.138	0.281
-292.662	-89.998	0.255	-0.075
-291.647	-7.751	0.061	0.041
-290.632	-19.562	-0.305	0.190
-289.618	-129.283	0.137	-0.019
-288.603	-200.000	-0.006	-0.057
-287.589	-152.043	-0.279	0.020
-286.574	4.475	0.154	0.114
-285.559	-200.000	0.004	-0.030
-284.545	-116.332	-0.230	0.043
-283.530	123.284	-0.178	-0.225
-282.516	17.425	0.247	-0.198
-281.501	-200.000	-0.005	0.072
-280.486	8.380	-0.223	0.169
-279.472	240.667	-0.089	-0.149
-278.457	-200.000	0.007	-0.077
-277.443	485.529	0.121	-0.276
-276.428	-57.676	0.081	0.036
-275.413	-157.210	-0.314	-0.019
-274.399	-200.000	0.021	0.451
-273.384	-19.910	0.478	0.297
-272.370	800.000	0.048	-0.154
-271.355	-91.831	-0.270	0.077
-270.340	347.781	0.089	-0.177
-269.326	-30.197	0.139	0.079
-268.311	141.185	-0.103	0.137
-267.297	-149.009	-0.378	-0.031
-266.282	-200.000	-0.028	0.197
-265.267	-200.000	0.014	-0.481
-264.253	-114.267	0.270	-0.052
-263.238	46.055	-0.091	0.085
-262.224	-200.000	-0.008	-0.096
-261.209	66.035	0.244	0.248
-260.195	-200.000	-0.048	0.242
-259.180	-200.000	0.024	-0.288
-258.165	-200.000	0.003	-0.036
-257.151	800.000	-0.052	-0.177
-256.136	-45.788	0.331	-0.164
-255.122	-0.701	-0.200	0.142
-254.107	29.808	0.256	-0.220
-253.092	51.471	0.108	0.103
-252.078	-200.000	-0.009	-0.194
-251.063	800.000	0.021	0.077
-250.049	-143.840	-0.247	-0.023
-249.034	-95.704	0.111	0.030
-248.019	-66.291	0.230	-0.092
-247.005	52.526	-0.093	-0.089
-245.990	199.768	0.142	-0.220
-244.976	-200.000	0.017	0.185
-243.961	616.327	0.031	0.079
-242.946	88.732	0.091	-0.102
-241.932	-200.000	0.004	0.052
-240.917	13.250	0.280	-0.218
-239.903	99.040	-0.190	-0.221
-238.888	-153.765	0.108	-0.007
-237.873	-13.045	0.155	-0.102
-236.859	-162.341	0.377	-0.019
-235.844	-200.000	-0.036	-0.387
-234.830	376.107	-0.112	-0.229
-233.815	239.206	0.104	-0.174
-232.800	-119.648	-0.150	0.026
-231.786	-200.000	0.002	-0.066
-230.771	-200.000	-0.028	0.178
-229.757	275.011	-0.122	-0.218
-228.742	-200.000	0.030	-0.145
-227.727	-200.000	-0.062	-0.292
-226.713	800.000	-0.023	0.072
-225.698	-200.000	-0.018	0.231
-224.684	-51.850	-0.339	0.159
-223.669	-96.335	-0.278	-0.074
-222.655	-67.903	0.123	0.048
-221.640	-79.737	0.248	-0.084
-220.625	-55.920	0.108	-0.048
-219.611	86.040	-0.041	0.046
-218.596	-200.000	-0.014	-0.173
-217.582	15.267	0.048	0.038
-216.567	225.138	0.221	0.359
-215.552	-200.000	0.021	0.277
-214.538	388.351	0.116	0.241
-213.523	-14.772	-0.028	-0.018
-212.509	-200.000	-0.010	-0.159
-211.494	-45.182	-0.211	0.105
-210.479	-200.000	-0.017	-0.199
-209.465	-110.104	0.244	-0.051
-208.450	70.902	-0.108	-0.112
-207.436	527.333	-0.066	-0.155
-206.421	-133.514	0.355	0.045
-205.406	-36.714	-0.125	-0.068
-204.392	-20.059	0.189	-0.117
-203.377	-112.559	0.128	-0.026
-202.363	98.900	-0.122	-0.141
-201.348	-200.000	0.005	-0.066
-200.333	-31.357	0.229	-0.129
-199.319	-124.976	-0.165	0.026
-198.304	-91.123	0.314	-0.090
-197.290	138.989	-0.069	0.090
-196.275	800.000	-0.014	0.038
-195.260	-78.992	-0.148	0.051
-194.246	-23.527	0.149	-0.089
-193.231	304.542	0.113	-0.211
-192.217	44.080	0.189	0.174
-191.202	294.940	0.087	0.160
-190.187	58.033	0.180	0.177
-189.173	-200.000	0.058	0.349
-188.158	-200.000	-0.019	-0.198
-187.144	-25.474	-0.213	0.126
-186.129	-35.216	0.156	0.085
-185.114	-94.132	-0.217	-0.060
-184.100	36.864	-0.064	0.057
-183.085	-200.000	-0.010	-0.228
-182.071	696.498	0.011	-0.029
-181.056	800.000	0.054	-0.162
-180.042	-158.126	0.356	0.021
-179.027	-200.000	-0.042	0.347
-178.012	67.890	-0.211	-0.217
-176.998	-184.552	-0.275	0.004
-175.983	66.566	-0.322	0.328
-174.969	800.000	-0.064	0.201
-173.954	800.000	-0.041	0.115
-172.939	-88.705	0.299	-0.089
-171.925	-200.000	-0.026	0.244
-170.910	-200.000	0.066	-0.336
-169.896	239.426	-0.140	-0.233
-168.881	-88.383	-0.420	-0.126
-167.866	800.000	-0.108	0.313
-166.852	149.051	0.232	0.314
-165.837	256.672	-0.023	0.040
-164.823	247.262	-0.124	0.209
-163.808	-134.023	-0.242	-0.030
-162.793	-94.247	-0.215	0.059
-161.779	-109.630	0.241	0.051
-160.764	439.527	-0.049	0.107
-159.750	-0.640	0.156	-0.111
-158.735	-200.000	0.040	-0.298
-157.720	178.356	-0.045	-0.066
-156.706	201.537	0.125	0.193
-155.691	-80.276	0.317	0.106
-154.677	-200.000	-0.008	0.108
-153.662	130.239	0.110	0.142
-152.647	504.264	0.127	0.295
-151.633	-152.800	0.338	-0.024
-150.618	-90.926	-0.277	0.080
-149.604	-73.073	-0.231	0.085
-148.589	9.172	-0.241	-0.182
-147.574	800.000	-0.049	-0.191
-146.560	101.226	0.252	-0.294
-145.545	800.000	0.033	-0.097
-144.531	146.226	-0.175	-0.236
-143.516	207.410	-0.072	0.112
-142.502	800.000	0.023	-0.075
-141.487	-89.654	0.072	0.021
-140.472	800.000	0.033	-0.117
-139.458	-200.000	0.048	-0.290
-138.443	230.696	0.126	-0.207
-137.429	-172.956	0.378	0.012
-136.414	-200.000	0.015	-0.214
-135.399	24.279	-0.204	-0.169
-134.385	225.548	0.134	0.218
-133.370	123.615	0.087	0.109
-132.356	412.084	0.117	0.248
-131.341	-33.008	0.100	-0.055
-130.326	800.000	0.042	0.161
-129.312	800.000	0.051	0.214
-128.297	-135.681	-0.071	-0.008
-127.283	-200.000	0.040	-0.532
-126.268	-147.567	-0.162	0.014
-125.253	-200.000	-0.050	-0.347
-124.239	448.647	-0.122	-0.269
-123.224	800.000	0.038	-0.142
