DTS Sentinel unit serial number:	SN413079Multiplexer serial number:	ORYXHardware model number:	OX4-SRSoftware version number:	ORYX F/W v4.00 Oryx Data Collector v3.7.2.0data status	okinstallation	princeton_trtdifferential loss correction	single-endedforward channel	channel 4reverse channel	N/Adate	2019/09/15time	09:57:35forward acquisition time	60.00reverse acquisition time	0.00gamma	496.2192k internal	0.2298k external	0.2298temperature offset calibration	1.0017default loss term (dB/km)	0.3790temperature slope calibration	1.0000multiplexer offset coefficient	1.0000multiplexer slope coefficient	1.0000fibre end	0.00T internal ref (°C)	34.11T ext. ref 1 (°C)	4.99T ext. ref 2 (°C)	29.88length (m)	temperature (°C)	Stokes	anti-Stokes-747.200	378.461	0.169	0.354
-746.185	3.820	0.148	0.111
-745.171	-98.600	0.359	-0.093
-744.156	-200.000	-0.028	0.247
-743.142	-33.669	-0.289	0.163
-742.127	-117.636	0.494	0.091
-741.112	216.067	0.076	0.123
-740.098	-32.357	-0.113	0.065
-739.083	-200.000	0.015	-0.362
-738.069	-13.720	0.101	-0.067
-737.054	800.000	0.098	-0.321
-736.039	-65.236	-0.244	-0.100
-735.025	-98.196	0.135	0.035
-734.010	800.000	-0.084	-0.335
-732.996	-20.367	0.205	-0.129
-731.981	-200.000	0.018	-0.124
-730.966	736.838	0.048	-0.132
-729.952	1.027	0.199	0.146
-728.937	-200.000	0.013	-0.360
-727.923	-147.724	-0.280	-0.024
-726.908	77.240	-0.372	0.403
-725.894	-200.000	0.023	-0.197
-724.879	-200.000	0.015	-0.275
-723.864	800.000	0.039	-0.142
-722.850	-131.421	-0.142	-0.019
-721.835	-124.167	-0.187	-0.030
-720.821	-8.521	-0.181	-0.124
-719.806	50.441	0.168	-0.162
-718.791	-186.205	0.176	0.003
-717.777	20.187	0.118	-0.097
-716.762	-96.728	-0.158	-0.042
-715.748	172.754	-0.136	0.200
-714.733	82.798	-0.214	0.237
-713.718	800.000	0.017	-0.070
-712.704	-200.000	-0.006	0.083
-711.689	-77.153	0.176	0.062
-710.675	-99.651	0.034	-0.009
-709.660	-200.000	0.004	0.418
-708.645	-39.371	0.109	0.058
-707.631	567.556	-0.058	0.143
-706.616	102.643	0.162	-0.193
-705.602	-106.775	-0.204	0.046
-704.587	16.075	-0.122	-0.098
-703.572	110.367	0.169	-0.207
-702.558	22.469	0.172	-0.144
-701.543	-200.000	0.013	-0.275
-700.529	259.319	-0.144	-0.252
-699.514	454.268	-0.038	-0.085
-698.499	800.000	-0.052	-0.202
-697.485	800.000	0.069	-0.258
-696.470	-11.454	-0.282	-0.189
-695.456	183.285	0.081	-0.122
-694.441	-50.752	0.140	0.067
-693.426	-82.191	-0.326	-0.108
-692.412	428.603	-0.080	-0.175
-691.397	-196.105	-0.216	-0.002
-690.383	-118.618	-0.032	-0.006
-689.368	274.102	0.123	-0.221
-688.354	378.913	0.075	0.157
-687.339	271.499	0.223	-0.399
-686.324	-200.000	-0.033	-0.245
-685.310	-29.239	-0.446	-0.260
-684.295	-200.000	-0.011	-0.190
-683.281	527.399	-0.105	0.253
-682.266	147.586	-0.273	0.375
-681.251	-200.000	0.051	-0.415
-680.237	-99.722	0.260	-0.066
-679.222	-58.790	0.152	-0.067
-678.208	182.951	-0.085	-0.128
-677.193	-176.752	-0.712	0.018
-676.178	-165.195	0.236	0.011
-675.164	-200.000	0.001	-0.105
-674.149	-121.412	0.202	-0.034
-673.135	800.000	0.017	0.069
-672.120	800.000	-0.048	-0.208
-671.105	-47.932	0.177	0.087
-670.091	355.297	-0.054	0.109
-669.076	501.017	-0.106	-0.248
-668.062	96.584	0.139	0.162
-667.047	-200.000	0.001	-0.258
-666.032	610.975	-0.035	-0.089
-665.018	56.461	-0.162	-0.160
-664.003	569.269	0.083	-0.204
-662.989	-200.000	-0.002	0.029
-661.974	399.525	0.061	-0.129
-660.959	-79.265	-0.216	-0.074
-659.945	-161.201	-0.164	0.009
-658.930	428.237	0.088	-0.194
-657.916	395.845	0.030	-0.064
-656.901	350.163	0.063	0.127
-655.886	280.268	-0.091	-0.165
-654.872	12.675	-0.242	-0.190
-653.857	334.286	-0.067	0.131
-652.843	-200.000	-0.415	-0.001
-651.828	17.463	-0.081	0.066
-650.814	493.297	0.109	-0.253
-649.799	389.269	0.099	-0.208
-648.784	412.222	-0.047	0.101
-647.770	-104.359	0.074	-0.017
-646.755	-200.000	-0.010	0.076
-645.741	-135.305	0.217	0.026
-644.726	59.541	0.196	-0.196
-643.711	-18.296	-0.052	0.033
-642.697	-200.000	-0.244	-0.001
-641.682	-173.699	-0.046	-0.001
-640.668	-171.086	0.049	-0.002
-639.653	145.285	0.102	-0.139
-638.638	488.356	0.089	0.207
-637.624	-117.350	-0.106	-0.019
-636.609	-82.773	0.115	-0.038
-635.595	-32.068	0.261	-0.148
-634.580	-200.000	-0.014	-0.172
-633.565	-17.514	0.164	-0.105
-632.551	-122.149	-0.286	-0.048
-631.536	800.000	0.063	0.212
-630.522	-49.404	-0.209	-0.101
-629.507	-77.642	-0.070	0.025
-628.492	-200.000	-0.046	-0.357
-627.478	-132.949	0.164	-0.021
-626.463	-46.434	-0.045	0.022
-625.449	108.007	-0.231	0.280
-624.434	-171.936	0.240	0.008
-623.419	-75.520	0.054	0.020
-622.405	481.809	0.055	-0.126
-621.390	-31.764	0.190	-0.108
-620.376	-200.000	-0.033	-0.218
-619.361	-109.009	-0.174	-0.038
-618.346	234.217	-0.101	0.170
-617.332	-115.715	0.056	-0.011
-616.317	-200.000	-0.017	-0.102
-615.303	55.356	-0.088	-0.087
-614.288	-90.716	0.061	-0.018
-613.273	390.601	-0.076	0.161
-612.259	-50.149	-0.178	-0.085
-611.244	-122.735	-0.144	0.024
-610.230	567.062	-0.011	0.028
-609.215	-200.000	0.018	-0.230
-608.201	-175.999	-0.145	-0.004
-607.186	-137.145	0.125	0.014
-606.171	-53.213	0.265	0.124
-605.157	-21.356	-0.292	0.181
-604.142	-200.000	0.025	-0.199
-603.128	-68.320	0.030	-0.012
-602.113	-148.450	-0.104	0.009
-601.098	416.075	0.064	0.139
-600.084	-78.232	0.225	-0.078
-599.069	-59.326	0.473	-0.206
-598.055	-78.846	0.161	0.056
-597.040	0.954	0.285	0.207
-596.025	185.191	-0.122	-0.184
-595.011	330.551	-0.076	-0.148
-593.996	458.579	-0.056	0.126
-592.982	-89.080	0.331	-0.099
-591.967	800.000	0.080	0.291
-590.952	-14.112	-0.203	-0.133
-589.938	-110.898	0.267	0.056
-588.923	-57.840	0.413	0.183
-587.909	-70.929	0.148	-0.057
-586.894	54.888	0.197	0.193
-585.879	457.940	0.127	0.287
-584.865	-200.000	0.013	-0.158
-583.850	-85.107	0.282	0.089
-582.836	8.281	-0.092	0.070
-581.821	409.527	0.037	-0.080
-580.806	-200.000	-0.009	-0.081
-579.792	-43.696	-0.089	0.045
-578.777	-79.907	-0.119	0.041
-577.763	-143.734	-0.141	0.014
-576.748	-120.328	-0.143	-0.025
-575.733	-71.863	-0.214	-0.081
-574.719	-200.000	-0.004	-0.126
-573.704	-182.697	-0.367	0.007
-572.690	-200.000	-0.069	0.493
-571.675	137.833	-0.110	-0.147
-570.661	-42.461	-0.344	0.178
-569.646	800.000	0.007	-0.022
-568.631	-200.000	-0.005	-0.196
-567.617	-42.944	0.088	0.045
-566.602	31.852	0.194	0.170
-565.588	-200.000	0.018	-0.527
-564.573	46.937	0.248	0.234
-563.558	47.514	-0.119	0.113
-562.544	-200.000	-0.034	-0.464
-561.529	-200.000	-0.025	0.252
-560.515	34.487	0.175	-0.155
-559.500	148.603	-0.079	0.108
-558.485	-200.000	0.003	0.113
-557.471	63.835	-0.257	0.262
-556.456	-150.319	-0.286	0.022
-555.442	89.381	-0.122	-0.138
-554.427	-35.300	-0.214	0.118
-553.412	-33.795	-0.091	-0.051
-552.398	-100.540	-0.129	-0.032
-551.383	-17.562	0.226	0.144
-550.369	-200.000	-0.227	-0.000
-549.354	-98.995	-0.158	-0.041
-548.339	800.000	0.104	0.360
-547.325	678.710	-0.041	-0.109
-546.310	-29.343	-0.143	0.083
-545.296	255.058	-0.029	-0.050
-544.281	72.163	-0.119	0.126
-543.266	362.700	0.024	0.050
-542.252	454.681	0.026	0.058
-541.237	38.971	-0.233	-0.211
-540.223	-200.000	0.017	-0.246
-539.208	-73.502	0.183	-0.068
-538.193	800.000	-0.033	0.134
-537.179	-155.291	-0.283	0.019
-536.164	143.423	-0.118	-0.159
-535.150	800.000	0.051	-0.221
-534.135	-71.939	-0.041	0.016
-533.121	88.472	0.286	-0.321
-532.106	538.356	-0.088	-0.212
-531.091	489.017	-0.072	0.166
-530.077	117.964	0.171	0.213
-529.062	-187.535	0.213	-0.003
-528.048	-61.310	-0.244	-0.104
-527.033	484.698	-0.056	-0.130
-526.018	-80.508	0.458	0.154
-525.004	-25.158	-0.169	0.101
-523.989	-84.416	-0.066	0.021
-522.975	187.092	-0.126	0.191
-521.960	744.583	0.077	-0.210
-520.945	112.220	-0.145	0.177
-519.931	-200.000	0.020	-0.101
-518.916	-7.149	-0.131	-0.090
-517.902	131.512	0.055	-0.072
-516.887	183.378	0.233	0.349
-515.872	376.681	0.157	0.324
-514.858	800.000	-0.040	0.159
-513.843	800.000	-0.024	-0.104
-512.829	-80.295	0.194	-0.066
-511.814	-200.000	-0.043	-0.235
-510.799	235.953	-0.074	0.124
-509.785	47.609	-0.184	0.173
-508.770	800.000	-0.050	-0.187
-507.756	-105.304	-0.131	-0.030
-506.741	-128.942	0.200	0.028
-505.726	-176.310	0.266	-0.007
-504.712	-85.902	0.103	0.032
-503.697	-200.000	0.006	0.083
-502.683	-83.844	-0.105	-0.034
-501.668	-167.293	-0.075	0.003
-500.653	598.649	-0.102	-0.257
-499.639	685.647	-0.035	0.091
-498.624	91.225	-0.031	-0.035
-497.610	-39.142	0.174	-0.092
-496.595	-200.000	-0.018	0.165
-495.581	-90.662	0.156	-0.045
-494.566	357.139	0.117	-0.236
-493.551	-131.298	0.350	-0.047
-492.537	-171.308	-0.200	0.007
-491.522	692.027	0.068	-0.181
-490.508	49.495	-0.099	-0.094
-489.493	-36.482	0.115	-0.063
-488.478	78.879	0.141	0.153
-487.464	335.153	0.064	-0.126
-486.449	-120.554	-0.099	0.017
-485.435	-185.660	0.412	-0.006
-484.420	46.037	-0.157	0.146
-483.405	-58.743	-0.197	-0.086
-482.391	97.421	-0.122	0.141
-481.376	-200.000	0.012	0.067
-480.362	800.000	0.082	0.246
-479.347	-200.000	-0.017	-0.085
-478.332	-200.000	-0.017	-0.105
-477.318	800.000	-0.009	0.029
-476.303	-26.058	0.294	0.175
-475.289	-93.306	-0.079	-0.022
-474.274	-200.000	-0.006	0.131
-473.259	-93.705	-0.245	0.068
-472.245	-49.494	0.377	-0.181
-471.230	-65.763	-0.131	-0.053
-470.216	-189.508	-0.270	-0.003
-469.201	32.081	-0.002	0.002
-468.186	800.000	0.061	0.256
-467.172	-43.150	-0.132	0.067
-466.157	89.717	-0.155	-0.174
-465.143	8.278	-0.159	-0.120
-464.128	-200.000	0.043	-0.252
-463.113	-200.000	0.001	-0.094
-462.099	-200.000	0.024	-0.383
-461.084	-97.954	0.340	0.088
-460.070	-200.000	-0.009	0.198
-459.055	11.395	-0.169	-0.131
-458.040	-25.217	0.244	0.146
-457.026	443.825	-0.099	0.220
-456.011	-200.000	-0.000	-0.014
-454.997	147.788	0.198	-0.269
-453.982	10.798	-0.104	-0.080
-452.968	-160.396	0.222	-0.012
-451.953	-50.228	0.044	-0.021
-450.938	-200.000	-0.036	-0.287
-449.924	-183.059	0.152	-0.003
-448.909	70.217	0.114	0.119
-447.895	-126.423	-0.087	0.013
-446.880	-107.841	0.216	-0.047
-445.865	97.974	-0.119	0.138
-444.851	21.201	0.142	0.116
-443.836	-200.000	-0.000	-0.084
-442.822	-57.560	-0.281	-0.124
-441.807	403.016	0.090	-0.192
-440.792	-200.000	0.027	-0.367
-439.778	193.030	-0.064	-0.097
-438.763	800.000	-0.037	0.137
-437.749	-60.539	0.341	0.146
-436.734	-73.472	0.134	0.049
-435.719	52.842	-0.201	0.194
-434.705	-17.704	0.322	-0.204
-433.690	-127.993	0.096	-0.014
-432.676	800.000	0.025	-0.069
-431.661	-143.096	0.303	0.029
-430.646	-90.439	-0.302	0.088
-429.632	800.000	-0.043	0.181
-428.617	49.220	-0.055	-0.052
-427.603	-29.742	-0.390	-0.224
-426.588	75.149	-0.105	-0.112
-425.573	-80.327	-0.138	0.046
-424.559	-152.842	0.115	-0.008
-423.544	-75.951	0.057	0.020
-422.530	-200.000	0.037	0.383
-421.515	-89.765	0.468	0.138
-420.500	85.085	-0.050	-0.055
-419.486	459.483	0.060	-0.136
-418.471	-200.000	0.027	-0.156
-417.457	458.394	0.101	0.226
-416.442	-200.000	0.042	-0.357
-415.428	75.984	0.044	0.047
-414.413	-200.000	0.001	0.033
-413.398	159.636	0.171	0.240
-412.384	-123.283	0.081	0.013
-411.369	800.000	0.064	-0.183
-410.355	800.000	-0.035	-0.124
-409.340	800.000	0.026	0.083
-408.325	800.000	-0.033	0.095
-407.311	-200.000	0.029	0.307
-406.296	-69.595	-0.057	-0.022
-405.282	351.763	0.138	-0.276
-404.267	256.895	0.154	-0.267
-403.252	-23.472	-0.155	-0.094
-402.238	48.826	-0.224	0.212
-401.223	-92.175	0.139	0.040
-400.209	-115.345	0.205	-0.039
-399.194	439.456	0.030	-0.066
-398.179	-23.944	0.163	-0.098
-397.165	-200.000	0.037	-0.170
-396.150	-200.000	0.006	0.248
-395.136	-200.000	-0.023	0.161
-394.121	-200.000	0.022	0.264
-393.106	-80.037	0.065	0.022
-392.092	-133.828	-0.087	-0.011
-391.077	-7.673	0.205	-0.139
-390.063	-200.000	0.040	0.178
-389.048	800.000	-0.068	-0.196
-388.033	-7.391	0.236	-0.161
-387.019	17.635	-0.069	-0.055
-386.004	141.138	0.117	0.156
-384.990	800.000	0.054	-0.229
-383.975	158.069	-0.103	0.144
-382.960	-82.293	-0.307	0.101
-381.946	-23.070	-0.127	0.077
-380.931	-200.000	0.037	-0.404
-379.917	800.000	0.042	-0.184
-378.902	-139.371	0.341	0.037
-377.888	800.000	-0.070	-0.199
-376.873	398.271	0.114	-0.241
-375.858	178.784	0.246	0.362
-374.844	343.035	0.034	-0.066
-373.829	676.749	-0.201	0.525
-372.815	-200.000	0.017	0.237
-371.800	-200.000	-0.035	0.319
-370.785	-200.000	-0.025	0.133
-369.771	-119.259	-0.264	-0.046
-368.756	740.285	0.098	-0.263
-367.742	800.000	-0.079	-0.223
-366.727	-200.000	-0.044	0.200
-365.712	-51.771	-0.247	-0.116
-364.698	-200.000	0.005	-0.077
-363.683	-70.034	0.186	-0.071
-362.669	-29.509	0.350	0.201
-361.654	-45.763	-0.267	-0.133
-360.639	-135.015	-0.291	-0.035
-359.625	265.881	0.152	0.266
-358.610	-200.000	-0.077	0.382
-357.596	41.178	-0.213	0.193
-356.581	-20.766	-0.153	0.095
-355.566	-118.858	0.148	-0.026
-354.552	800.000	0.046	-0.168
-353.537	207.525	-0.211	0.331
-352.523	60.078	0.124	0.123
-351.508	-200.000	-0.006	0.179
-350.493	222.745	-0.264	0.427
-349.479	-134.908	0.061	-0.007
-348.464	-168.453	0.252	-0.010
-347.450	321.812	0.179	0.342
-346.435	167.925	0.264	0.377
-345.420	-92.776	-0.071	0.020
-344.406	-37.312	-0.244	-0.131
-343.391	-200.000	-0.013	-0.556
-342.377	104.135	0.208	-0.246
-341.362	28.546	-0.104	0.088
-340.348	-19.606	-0.117	-0.073
-339.333	296.829	-0.123	0.226
-338.318	725.063	0.047	0.125
-337.304	136.386	0.200	-0.262
-336.289	713.365	0.083	-0.221
-335.275	325.683	0.087	0.167
-334.260	-137.374	0.248	-0.028
-333.245	-41.063	0.087	0.045
-332.231	14.275	-0.315	-0.247
-331.216	-93.513	-0.219	-0.061
-330.202	284.591	-0.084	0.152
-329.187	800.000	0.044	-0.136
-328.172	-20.014	-0.257	0.159
-327.158	100.675	-0.073	0.085
-326.143	-67.509	0.346	-0.136
-325.129	210.718	-0.093	-0.146
-324.114	800.000	0.043	0.156
-323.099	680.032	0.095	0.249
-322.085	-200.000	0.019	0.344
-321.070	-200.000	0.043	-0.229
-320.056	-9.077	0.065	0.044
-319.041	-200.000	0.009	-0.163
-318.026	-84.850	0.319	-0.101
-317.012	-35.461	0.081	-0.044
-315.997	800.000	-0.091	-0.386
-314.983	-84.982	0.120	0.038
-313.968	-130.353	0.166	-0.023
-312.953	25.709	-0.344	0.288
-311.939	-76.082	0.079	0.028
-310.924	309.569	0.100	-0.187
-309.910	33.220	0.132	0.115
-308.895	-53.910	-0.202	0.092
-307.880	134.045	-0.303	0.394
-306.866	800.000	0.020	-0.079
-305.851	230.395	-0.111	-0.182
-304.837	800.000	0.043	-0.134
-303.822	-102.963	-0.154	-0.037
-302.807	119.786	0.120	-0.149
-301.793	800.000	0.048	-0.177
-300.778	154.913	-0.075	-0.103
-299.764	-200.000	-0.027	0.278
-298.749	-127.884	-0.250	-0.036
-297.735	800.000	0.098	-0.349
-296.720	25.473	-0.176	-0.147
-295.705	98.777	0.086	-0.100
-294.691	-61.910	0.166	0.069
-293.676	-74.869	-0.069	0.025
-292.662	276.187	0.212	-0.378
-291.647	761.073	-0.019	0.052
-290.632	-166.309	0.370	-0.016
-289.618	-200.000	0.033	0.208
-288.603	327.909	-0.141	0.271
-287.589	-114.562	-0.215	-0.041
-286.574	-126.263	-0.299	0.045
-285.559	19.013	0.117	0.094
-284.545	40.963	-0.172	0.156
-283.530	-200.000	-0.012	0.240
-282.516	-111.582	0.114	0.023
-281.501	-17.608	-0.075	-0.047
-280.486	534.512	-0.052	-0.122
-279.472	-34.280	0.114	0.063
-278.457	-43.335	-0.199	0.101
-277.443	800.000	-0.069	-0.212
-276.428	97.399	0.303	0.349
-275.413	-43.105	0.096	0.049
-274.399	-36.421	0.204	-0.110
-273.384	-104.379	-0.201	-0.047
-272.370	800.000	-0.100	-0.287
-271.355	-79.559	0.030	-0.010
-270.340	107.693	-0.156	-0.186
-269.326	122.821	0.149	0.186
-268.311	121.751	-0.186	-0.233
-267.297	-22.969	0.405	-0.245
-266.282	-49.758	-0.082	0.039
-265.267	-139.518	-0.112	0.012
-264.253	261.997	-0.042	-0.073
-263.238	351.233	0.064	0.126
-262.224	370.988	-0.132	0.269
-261.209	117.061	-0.163	-0.201
-260.195	-138.344	0.121	-0.013
-259.180	770.981	-0.114	-0.312
-258.165	10.928	-0.210	0.161
-257.151	-147.099	0.245	0.021
-256.136	-75.303	0.080	0.029
-255.122	-0.871	0.090	-0.063
-254.107	37.593	-0.092	0.082
-253.092	150.616	-0.028	-0.038
-252.078	-101.638	-0.188	-0.046
-251.063	-103.509	0.534	-0.126
-250.049	-137.343	0.117	0.013
-249.034	205.396	0.109	0.169
-248.019	-200.000	0.029	-0.283
-247.005	800.000	0.044	-0.179
-245.990	2.279	-0.307	0.222
-244.976	-66.196	-0.140	0.056
-243.961	-61.973	0.408	0.171
-242.946	-19.775	-0.102	0.063
-241.932	-75.242	-0.215	-0.077
-240.917	800.000	-0.026	-0.073
-239.903	-28.638	0.061	-0.035
-238.888	-131.690	0.290	-0.038
-237.873	-15.237	-0.139	-0.089
-236.859	12.919	-0.251	0.194
-235.844	-165.298	0.133	0.006
-234.830	-127.389	0.130	0.019
-233.815	85.313	0.126	-0.138
-232.800	-200.000	-0.010	0.141
-231.786	374.498	-0.198	0.404
-230.771	-200.000	-0.039	0.205
-229.757	-151.845	-0.179	0.013
-228.742	800.000	-0.075	0.221
-227.727	89.971	-0.365	0.408
-226.713	-200.000	0.018	-0.082
-225.698	-8.207	-0.125	0.084
-224.684	-140.687	-0.100	0.010
-223.669	36.298	-0.046	-0.040
-222.655	-200.000	0.004	-0.189
-221.640	-132.341	-0.250	0.032
-220.625	21.154	0.134	0.109
-219.611	800.000	0.067	-0.225
-218.596	12.541	-0.263	0.203
-217.582	194.859	0.077	-0.117
-216.567	-92.756	0.198	0.055
-215.552	-156.619	0.183	-0.011
-214.538	494.174	0.117	-0.269
-213.523	800.000	0.051	-0.199
-212.509	83.736	-0.093	0.101
-211.494	-99.245	0.048	-0.012
-210.479	351.559	-0.132	-0.261
-209.465	17.924	0.239	-0.191
-208.450	219.515	-0.095	0.152
-207.436	60.268	0.086	0.085
-206.421	-117.677	-0.311	0.056
-205.406	-200.000	-0.016	-0.092
-204.392	800.000	-0.049	0.207
-203.377	-39.994	0.305	-0.159
-202.363	-76.147	-0.255	0.090
-201.348	8.358	-0.181	-0.136
-200.333	-200.000	0.059	0.274
-199.319	-37.128	-0.094	-0.050
-198.304	476.058	0.084	-0.190
-197.290	-192.568	0.070	-0.001
-196.275	-125.283	0.236	0.036
-195.260	-200.000	0.000	-0.018
-194.246	-200.000	0.026	-0.129
-193.231	-23.764	-0.043	0.026
-192.217	234.398	0.157	-0.259
-191.202	52.205	-0.200	-0.191
-190.187	6.192	0.039	-0.029
-189.173	771.759	0.017	-0.045
-188.158	238.654	-0.097	0.161
-187.144	185.666	0.358	0.531
-186.129	8.222	-0.182	0.136
-185.114	227.566	0.130	-0.211
-184.100	-131.687	-0.246	0.032
-183.085	404.649	-0.098	-0.206
-182.071	-110.556	-0.496	-0.103
-181.056	270.478	-0.133	0.234
-180.042	71.917	0.344	-0.357
-179.027	-24.374	-0.115	-0.069
-178.012	-10.834	0.130	0.086
-176.998	-133.476	-0.187	-0.023
-175.983	-168.150	0.079	0.003
-174.969	-115.616	-0.046	0.009
-173.954	46.251	0.061	-0.056
-172.939	20.586	0.230	0.186
-171.925	-117.938	-0.330	0.059
-170.910	130.731	-0.107	0.137
-169.896	-62.205	-0.126	0.052
-168.881	-65.128	-0.120	-0.048
-167.866	-200.000	0.028	-0.151
-166.852	352.954	-0.072	0.142
-165.837	-104.519	-0.227	0.052
-164.823	-122.602	-0.138	-0.022
-163.808	516.511	-0.073	0.169
-162.793	20.964	-0.114	-0.093
-161.779	-79.982	-0.278	-0.093
-160.764	475.029	0.031	-0.070
-159.750	37.586	-0.236	0.209
-158.735	-200.000	0.032	0.449
-157.720	-18.027	-0.455	-0.284
-156.706	-200.000	0.039	-0.220
-155.691	800.000	0.009	0.031
-154.677	40.564	0.193	-0.173
-153.662	27.907	0.088	0.074
-152.647	148.921	-0.147	0.199
-151.633	106.129	0.101	-0.119
-150.618	151.534	-0.239	0.324
-149.604	352.301	0.016	0.031
-148.589	800.000	0.081	0.288
-147.574	165.026	0.062	-0.087
-146.560	95.361	-0.197	-0.224
-145.545	-110.897	-0.314	-0.064
-144.531	-97.058	-0.165	-0.043
-143.516	25.705	0.337	0.280
-142.502	-200.000	-0.080	0.479
-141.487	-161.290	-0.294	0.015
-140.472	299.068	-0.129	-0.236
-139.458	-101.356	0.240	0.058
-138.443	46.278	0.046	0.042
-137.429	101.425	-0.114	-0.132
-136.414	269.954	-0.170	-0.298
-135.399	334.040	-0.109	0.210
-134.385	185.386	0.100	0.148
-133.370	-7.192	0.138	0.093
-132.356	800.000	0.015	0.045
-131.341	15.204	-0.192	-0.150
-130.326	-200.000	0.032	0.179
-129.312	14.800	0.189	-0.147
-128.297	-78.935	-0.348	-0.118
-127.283	800.000	-0.029	-0.095
-126.268	-101.676	0.021	-0.005
-125.253	46.967	0.082	-0.076
-124.239	-8.948	0.213	-0.142
-123.224	111.898	0.167	-0.201
-122.210	-23.336	0.120	-0.072
