DTS Sentinel unit serial number:	SN413079Multiplexer serial number:	ORYXHardware model number:	OX4-SRSoftware version number:	ORYX F/W v4.00 Oryx Data Collector v3.7.2.0data status	okinstallation	princeton_trtdifferential loss correction	single-endedforward channel	channel 4reverse channel	N/Adate	2019/09/18time	18:49:35forward acquisition time	60.00reverse acquisition time	0.00gamma	496.2192k internal	0.2300k external	0.2300temperature offset calibration	1.0026default loss term (dB/km)	0.3790temperature slope calibration	1.0000multiplexer offset coefficient	1.0000multiplexer slope coefficient	1.0000fibre end	0.00T internal ref (°C)	37.11T ext. ref 1 (°C)	0.94T ext. ref 2 (°C)	27.02length (m)	temperature (°C)	Stokes	anti-Stokes-747.200	284.417	-0.223	0.410
-746.185	-200.000	-0.030	0.380
-745.171	78.614	0.236	-0.257
-744.156	485.848	0.045	0.106
-743.142	-200.000	-0.044	0.207
-742.127	-60.476	-0.186	-0.081
-741.112	-105.855	-0.462	-0.106
-740.098	-200.000	-0.049	0.305
-739.083	-61.762	-0.216	0.092
-738.069	459.038	0.126	0.285
-737.054	66.567	0.332	-0.344
-736.039	83.885	0.042	-0.047
-735.025	64.826	0.194	0.199
-734.010	215.143	-0.205	0.331
-732.996	107.111	-0.230	-0.278
-731.981	-98.293	-0.072	-0.019
-730.966	800.000	-0.076	0.278
-729.952	-130.283	-0.396	-0.055
-728.937	-141.122	-0.183	-0.019
-727.923	-200.000	0.021	0.140
-726.908	-200.000	-0.040	-0.431
-725.894	18.666	-0.237	0.193
-724.879	399.208	-0.111	-0.237
-723.864	267.020	0.156	0.277
-722.850	-200.000	-0.006	-0.060
-721.835	443.091	0.076	-0.170
-720.821	-59.821	0.102	0.045
-719.806	-200.000	0.045	0.235
-718.791	-200.000	-0.010	0.056
-717.777	3.910	0.084	0.063
-716.762	-33.966	0.174	-0.097
-715.748	-2.457	0.262	-0.187
-714.733	-61.764	0.091	0.039
-713.718	-200.000	0.036	-0.267
-712.704	-171.124	0.053	0.002
-711.689	-58.477	-0.074	-0.033
-710.675	1.010	-0.079	-0.057
-709.660	-200.000	-0.007	-0.080
-708.645	-21.950	-0.243	0.150
-707.631	280.623	-0.192	0.349
-706.616	800.000	0.037	-0.131
-705.602	-37.929	0.101	0.055
-704.587	-108.047	0.062	0.014
-703.572	-42.448	0.284	-0.148
-702.558	800.000	-0.073	0.211
-701.543	-118.475	0.170	0.031
-700.529	-200.000	0.008	-0.162
-699.514	487.028	0.043	0.100
-698.499	15.040	0.377	0.301
-697.485	169.415	0.127	0.185
-696.470	-1.317	0.021	0.015
-695.456	647.564	0.049	-0.128
-694.441	-66.159	0.064	0.026
-693.426	9.936	0.064	-0.050
-692.412	3.435	0.168	0.125
-691.397	118.822	0.217	-0.272
-690.383	800.000	0.106	-0.467
-689.368	15.189	0.101	-0.081
-688.354	-200.000	-0.019	-0.347
-687.339	48.634	0.045	0.042
-686.324	-24.719	0.214	0.130
-685.310	-170.859	0.065	0.002
-684.295	-16.474	0.259	-0.167
-683.281	-200.000	-0.046	-0.212
-682.266	59.474	-0.086	0.087
-681.251	114.531	-0.020	-0.024
-680.237	-146.903	-0.183	0.016
-679.222	-60.111	-0.297	0.129
-678.208	-83.211	-0.256	-0.084
-677.193	118.184	0.228	-0.285
-676.178	-108.406	0.098	-0.021
-675.164	-84.951	0.161	0.052
-674.149	670.870	-0.028	-0.074
-673.135	232.782	-0.039	-0.066
-672.120	332.364	0.013	-0.025
-671.105	-200.000	-0.013	-0.439
-670.091	800.000	0.061	-0.211
-669.076	52.117	0.445	0.431
-668.062	-16.677	0.131	0.084
-667.047	-200.000	0.016	-0.140
-666.032	-35.830	0.406	-0.223
-665.018	-62.436	0.219	-0.093
-664.003	-51.289	0.196	-0.093
-662.989	-33.566	0.332	0.187
-661.974	-86.819	-0.163	0.051
-660.959	-200.000	0.005	-0.121
-659.945	-50.743	-0.038	0.018
-658.930	367.209	-0.112	0.229
-657.916	790.721	-0.018	0.049
-656.901	-187.492	-0.483	0.007
-655.886	-116.517	0.313	-0.059
-654.872	-146.707	-0.232	-0.020
-653.857	-21.912	0.081	0.050
-652.843	-51.831	-0.180	-0.085
-651.828	-186.380	0.180	-0.003
-650.814	50.816	-0.415	-0.400
-649.799	167.751	0.020	0.029
-648.784	152.409	-0.083	-0.115
-647.770	215.781	0.116	0.187
-646.755	22.366	-0.041	-0.034
-645.741	385.223	0.080	-0.167
-644.726	459.405	-0.067	0.151
-643.711	-102.517	-0.067	0.016
-642.697	-84.957	-0.163	-0.052
-641.682	800.000	-0.049	0.175
-640.668	19.151	0.084	-0.068
-639.653	-53.522	-0.229	0.107
-638.638	-134.956	-0.209	0.026
-637.624	-47.910	0.052	-0.025
-636.609	-200.000	0.073	-0.354
-635.595	-68.259	0.174	0.069
-634.580	-200.000	0.002	0.227
-633.565	800.000	0.088	0.259
-632.551	447.442	-0.074	-0.165
-631.536	516.533	-0.083	-0.198
-630.522	-200.000	0.021	0.106
-629.507	168.855	-0.085	0.124
-628.492	-200.000	0.005	-0.032
-627.478	232.384	0.054	-0.090
-626.463	-16.296	0.328	-0.211
-625.449	-83.865	-0.238	-0.077
-624.434	-120.316	-0.386	-0.067
-623.419	25.159	0.159	-0.134
-622.405	-76.014	-0.177	-0.064
-621.390	-22.980	-0.076	-0.046
-620.376	-118.549	0.240	-0.043
-619.361	800.000	-0.044	0.185
-618.346	-89.243	-0.324	-0.097
-617.332	74.847	-0.136	0.145
-616.317	-63.745	0.239	-0.099
-615.303	126.354	-0.224	0.288
-614.288	-187.425	0.242	0.003
-613.273	800.000	0.127	-0.433
-612.259	-200.000	0.035	0.237
-611.244	83.678	0.099	0.109
-610.230	-200.000	-0.012	-0.090
-609.215	-71.301	0.198	0.075
-608.201	237.902	0.111	-0.187
-607.186	-130.309	-0.063	0.009
-606.171	133.913	0.021	-0.028
-605.157	139.985	-0.118	-0.158
-604.142	7.889	0.203	-0.154
-603.128	167.989	0.052	0.075
-602.113	-125.746	0.417	-0.064
-601.098	800.000	-0.067	-0.256
-600.084	-171.787	0.264	0.009
-599.069	478.761	0.191	-0.439
-598.055	25.716	-0.155	-0.131
-597.040	-200.000	0.022	-0.140
-596.025	-168.530	-0.321	-0.012
-595.011	-124.449	-0.253	-0.040
-593.996	50.353	-0.038	0.037
-592.982	-108.689	0.228	0.050
-591.967	-73.331	-0.124	-0.046
-590.952	-43.636	0.166	-0.085
-589.938	-28.209	-0.219	-0.128
-588.923	61.414	-0.239	0.241
-587.909	-200.000	-0.022	-0.316
-586.894	22.840	0.188	-0.156
-585.879	286.154	0.044	-0.081
-584.865	-81.792	0.164	-0.054
-583.850	-46.536	-0.301	0.150
-582.836	53.849	-0.016	-0.015
-581.821	-200.000	-0.040	-0.260
-580.806	-200.000	0.005	-0.168
-579.792	-200.000	0.007	0.079
-578.777	-92.486	0.145	-0.041
-577.763	-94.548	0.291	-0.080
-576.748	30.645	-0.122	-0.106
-575.733	75.506	-0.132	-0.141
-574.719	202.670	0.178	0.279
-573.704	33.097	0.121	-0.106
-572.690	-15.058	-0.383	0.248
-571.675	-60.668	-0.235	-0.101
-570.661	800.000	-0.014	-0.052
-569.646	-200.000	-0.047	-0.214
-568.631	245.760	-0.133	0.227
-567.617	800.000	0.158	0.621
-566.602	520.273	-0.124	-0.293
-565.588	-145.059	0.254	-0.023
-564.573	-200.000	-0.013	0.235
-563.558	-200.000	0.007	-0.133
-562.544	800.000	-0.057	-0.243
-561.529	-90.847	-0.181	0.053
-560.515	-86.488	0.187	-0.058
-559.500	342.586	0.066	-0.131
-558.485	-48.884	-0.305	0.148
-557.471	800.000	-0.046	0.165
-556.456	-63.524	0.219	0.091
-555.442	-44.039	0.228	0.116
-554.427	800.000	-0.009	-0.040
-553.412	-36.585	0.265	-0.144
-552.398	-200.000	0.017	-0.105
-551.383	34.278	-0.149	0.132
-550.369	-72.529	-0.183	-0.068
-549.354	67.983	-0.146	-0.151
-548.339	-54.457	0.208	0.095
-547.325	126.326	0.145	-0.186
-546.310	-17.270	0.261	0.167
-545.296	-127.054	-0.283	0.042
-544.281	-84.978	-0.185	0.059
-543.266	-146.469	0.316	-0.028
-542.252	-200.000	0.022	-0.158
-541.237	139.691	-0.107	0.142
-540.223	26.206	0.173	0.146
-539.208	4.878	0.317	0.236
-538.193	487.277	0.113	0.260
-537.179	411.694	-0.013	-0.028
-536.164	79.852	0.175	-0.190
-535.150	1.453	0.067	-0.049
-534.135	10.934	-0.074	-0.057
-533.121	800.000	0.044	-0.145
-532.106	-200.000	-0.030	0.250
-531.091	800.000	-0.081	0.328
-530.077	-200.000	0.029	-0.327
-529.062	101.034	-0.131	0.154
-528.048	30.219	-0.084	0.072
-527.033	800.000	-0.105	-0.336
-526.018	-20.065	-0.188	-0.117
-525.004	-14.842	0.224	-0.145
-523.989	99.589	-0.093	0.109
-522.975	356.734	0.097	-0.196
-521.960	687.254	0.049	0.128
-520.945	225.076	-0.228	0.373
-519.931	-121.426	-0.064	-0.011
-518.916	-200.000	0.027	-0.308
-517.902	-55.993	0.187	-0.084
-516.887	25.842	-0.174	0.147
-515.872	75.793	0.138	-0.147
-514.858	-200.000	-0.009	-0.524
-513.843	-149.550	0.261	-0.021
-512.829	-9.135	-0.098	-0.066
-511.814	-159.784	-0.281	0.016
-510.799	-69.813	-0.099	0.038
-509.785	85.732	0.256	0.285
-508.770	-117.110	0.187	0.034
-507.756	-26.654	-0.130	0.077
-506.741	115.384	-0.152	-0.187
-505.726	180.119	-0.236	-0.349
-504.712	93.250	0.122	0.139
-503.697	-200.000	-0.040	0.179
-502.683	-200.000	0.045	0.230
-501.668	-200.000	0.048	-0.391
-500.653	-85.985	-0.197	-0.061
-499.639	556.492	0.063	-0.154
-498.624	-200.000	0.005	-0.234
-497.610	800.000	-0.073	-0.252
-496.595	-200.000	-0.016	0.077
-495.581	-112.453	0.127	0.026
-494.566	-200.000	-0.035	-0.206
-493.551	56.751	0.121	-0.119
-492.537	-200.000	-0.044	0.309
-491.522	237.245	-0.113	0.189
-490.508	125.697	-0.091	0.116
-489.493	-111.546	-0.082	0.017
-488.478	800.000	-0.068	0.238
-487.464	-200.000	-0.024	-0.273
-486.449	148.175	-0.083	-0.113
-485.435	63.670	-0.024	-0.024
-484.420	-36.750	-0.206	0.112
-483.405	146.937	-0.066	-0.089
-482.391	-8.829	-0.135	-0.092
-481.376	-171.439	0.080	0.003
-480.362	49.424	0.200	0.190
-479.347	660.354	0.083	-0.217
-478.332	-200.000	-0.003	-0.086
-477.318	-96.924	-0.188	-0.050
-476.303	452.712	-0.144	0.321
-475.289	-36.234	-0.247	0.134
-474.274	800.000	0.031	0.109
-473.259	800.000	-0.074	-0.293
-472.245	228.876	0.211	0.347
-471.230	-200.000	0.008	0.328
-470.216	343.105	-0.119	-0.235
-469.201	27.252	0.232	0.196
-468.186	-200.000	-0.011	-0.247
-467.172	800.000	0.137	-0.445
-466.157	178.033	0.038	0.057
-465.143	-200.000	0.026	0.185
-464.128	-20.047	-0.125	0.078
-463.113	800.000	0.030	-0.101
-462.099	100.248	0.021	0.025
-461.084	-200.000	-0.008	0.057
-460.070	-200.000	-0.014	0.388
-459.055	-200.000	-0.007	0.064
-458.040	203.923	0.301	0.470
-457.026	-82.099	-0.231	0.076
-456.011	-200.000	-0.054	-0.323
-454.997	30.965	0.092	-0.080
-453.982	-91.493	0.354	-0.102
-452.968	13.005	-0.249	-0.194
-451.953	578.674	-0.031	0.076
-450.938	-72.202	0.184	-0.069
-449.924	800.000	-0.027	0.097
-448.909	-92.763	0.204	-0.058
-447.895	-19.539	0.220	-0.137
-446.880	468.896	-0.051	-0.116
-445.865	-200.000	-0.006	-0.259
-444.851	17.165	0.232	0.186
-443.836	19.528	0.128	-0.104
-442.822	800.000	-0.057	0.162
-441.807	89.279	-0.071	-0.080
-440.792	-145.056	0.163	-0.015
-439.778	223.601	0.119	-0.194
-438.763	800.000	0.061	0.173
-437.749	37.224	-0.170	-0.152
-436.734	414.823	-0.140	-0.300
-435.719	193.293	0.076	0.116
-434.705	95.276	0.118	-0.135
-433.690	-63.659	-0.133	-0.055
-432.676	-200.000	-0.007	-0.148
-431.661	-56.194	0.092	-0.041
-430.646	-91.433	0.374	-0.108
-429.632	-48.867	-0.320	-0.155
-428.617	61.659	-0.238	-0.238
-427.603	-173.480	0.028	-0.001
-426.588	305.890	-0.094	0.175
-425.573	-200.000	0.056	0.320
-424.559	81.121	-0.184	0.200
-423.544	-25.927	-0.285	-0.169
-422.530	720.521	0.004	-0.011
-421.515	554.560	0.052	0.125
-420.500	133.929	0.073	0.095
-419.486	800.000	-0.012	-0.048
-418.471	455.144	-0.051	0.113
-417.457	-200.000	0.005	-0.031
-416.442	58.270	-0.089	-0.088
-415.428	-141.760	-0.215	0.022
-414.413	350.493	0.058	0.116
-413.398	293.051	0.050	-0.092
-412.384	-134.612	-0.256	-0.031
-411.369	-200.000	0.016	-0.127
-410.355	23.621	-0.060	0.050
-409.340	-200.000	0.001	-0.007
-408.325	147.797	0.035	-0.048
-407.311	307.557	-0.087	-0.163
-406.296	359.120	-0.152	0.306
-405.282	35.777	-0.109	0.097
-404.267	366.302	-0.121	0.246
-403.252	87.031	0.272	-0.302
-402.238	-200.000	0.007	0.215
-401.223	120.616	0.058	0.072
-400.209	-171.213	-0.382	0.013
-399.194	13.462	0.276	-0.215
-398.179	-63.348	-0.166	-0.069
-397.165	-64.333	0.241	-0.099
-396.150	-34.061	0.205	-0.113
-395.136	621.481	-0.096	0.242
-394.121	361.889	-0.135	0.271
-393.106	666.907	0.085	0.221
-392.092	-200.000	-0.017	0.222
-391.077	482.085	0.059	0.136
-390.063	74.847	-0.027	0.028
-389.048	7.463	-0.066	-0.050
-388.033	31.141	0.101	-0.087
-387.019	557.913	-0.027	-0.066
-386.004	-60.066	0.098	-0.042
-384.990	61.163	-0.096	0.096
-383.975	-200.000	-0.024	-0.276
-382.960	-200.000	-0.059	-0.305
-381.946	-200.000	-0.002	-0.174
-380.931	-120.275	-0.056	-0.010
-379.917	-171.954	0.092	0.003
-378.902	76.303	0.109	-0.117
-377.888	-118.340	-0.203	-0.036
-376.873	-85.184	-0.142	-0.045
-375.858	-200.000	0.029	-0.165
-374.844	-143.660	-0.257	0.025
-373.829	348.812	0.010	-0.019
-372.815	-55.615	-0.383	-0.172
-371.800	-200.000	0.060	0.372
-370.785	800.000	0.053	-0.225
-369.771	40.301	0.117	0.105
-368.756	-103.657	0.206	-0.049
-367.742	800.000	-0.043	0.121
-366.727	33.850	-0.259	-0.227
-365.712	800.000	-0.078	-0.322
-364.698	-122.151	-0.389	0.064
-363.683	800.000	-0.076	0.240
-362.669	279.603	-0.074	0.133
-361.654	57.164	0.391	-0.383
-360.639	-91.701	-0.186	0.053
-359.625	-2.696	-0.284	-0.200
-358.610	161.250	-0.138	0.194
-357.596	358.055	0.094	0.188
-356.581	800.000	0.034	0.149
-355.566	-200.000	0.008	0.052
-354.552	-55.969	0.146	0.066
-353.537	33.114	-0.038	-0.033
-352.523	800.000	0.064	0.197
-351.508	-200.000	0.017	-0.103
-350.493	-200.000	0.013	-0.086
-349.479	117.440	0.023	0.029
-348.464	-200.000	0.014	-0.088
-347.450	150.058	-0.043	-0.059
-346.435	-60.278	-0.040	0.017
-345.420	800.000	0.012	0.052
-344.406	-91.788	-0.032	0.009
-343.391	-200.000	-0.053	-0.333
-342.377	-74.116	-0.348	-0.126
-341.362	189.392	-0.044	0.067
-340.348	-200.000	-0.004	0.134
-339.333	-200.000	-0.030	-0.325
-338.318	288.595	0.041	-0.074
-337.304	292.488	0.128	0.235
-336.289	-200.000	0.018	0.202
-335.275	-25.887	0.388	-0.229
-334.260	-87.192	0.303	-0.092
-333.245	-200.000	-0.004	0.268
-332.231	72.921	0.099	0.104
-331.216	8.017	-0.042	0.031
-330.202	-48.263	0.094	-0.046
-329.187	49.517	-0.084	0.079
-328.172	746.826	0.038	-0.101
-327.158	-20.257	-0.377	0.233
-326.143	800.000	-0.079	0.293
-325.129	-200.000	-0.003	-0.116
-324.114	-200.000	-0.001	-0.184
-323.099	-116.090	0.049	0.009
-322.085	-200.000	0.002	0.027
-321.070	-200.000	0.004	0.076
-320.056	-200.000	-0.043	0.361
-319.041	409.956	-0.056	-0.120
-318.026	-200.000	-0.027	-0.208
-317.012	-200.000	-0.016	-0.336
-315.997	-166.236	0.258	-0.011
-314.983	-34.525	-0.156	0.086
-313.968	246.936	-0.068	0.116
-312.953	62.148	0.199	-0.199
-311.939	-134.774	0.072	0.009
-310.924	-200.000	-0.003	-0.196
-309.910	3.334	0.505	-0.368
-308.895	-95.203	0.165	-0.044
-307.880	-62.013	0.339	-0.142
-306.866	129.995	-0.175	-0.225
-305.851	400.681	-0.011	-0.024
-304.837	37.565	0.130	0.116
-303.822	522.859	0.181	0.426
-302.807	12.506	-0.156	0.121
-301.793	585.015	0.047	-0.117
-300.778	198.000	0.049	-0.076
-299.764	-79.447	0.280	-0.095
-298.749	57.240	-0.160	-0.157
-297.735	800.000	-0.053	-0.171
-296.720	110.150	-0.044	0.052
-295.705	-41.662	-0.258	0.133
-294.691	99.851	-0.065	-0.075
-293.676	-151.164	-0.018	0.001
-292.662	315.273	0.127	0.239
-291.647	-200.000	0.043	0.303
-290.632	575.429	0.033	-0.080
-289.618	-21.566	-0.215	0.131
-288.603	-200.000	0.012	-0.088
-287.589	-11.861	0.111	-0.073
-286.574	108.848	0.076	-0.091
-285.559	-200.000	0.007	-0.052
-284.545	489.136	0.183	0.420
-283.530	-68.380	-0.422	-0.164
-282.516	78.589	0.020	-0.021
-281.501	28.015	0.290	-0.245
-280.486	800.000	0.030	0.093
-279.472	-133.511	-0.146	-0.018
-278.457	-55.659	-0.066	0.030
-277.443	38.189	0.197	-0.175
-276.428	-200.000	-0.011	0.297
-275.413	-146.692	0.132	0.011
-274.399	-200.000	0.072	0.433
-273.384	310.914	-0.189	0.354
-272.370	-13.810	0.191	-0.124
-271.355	-37.780	-0.094	0.050
-270.340	800.000	-0.084	0.289
-269.326	29.276	-0.156	-0.132
-268.311	-42.803	-0.075	0.038
-267.297	-39.633	0.313	-0.164
-266.282	-93.712	0.313	0.087
-265.267	-200.000	-0.017	0.089
-264.253	-101.269	-0.266	0.065
-263.238	33.372	-0.113	0.098
-262.224	58.807	0.020	0.020
-261.209	228.209	-0.088	0.143
-260.195	342.100	-0.048	0.095
-259.180	-200.000	0.020	-0.290
-258.165	800.000	0.071	0.196
-257.151	200.173	0.162	0.249
-256.136	325.900	-0.018	-0.035
-255.122	-200.000	0.001	-0.121
-254.107	-112.615	0.422	-0.084
-253.092	104.313	0.244	0.287
-252.078	-200.000	-0.041	-0.281
-251.063	-102.621	-0.075	-0.018
-250.049	-200.000	0.002	0.215
-249.034	50.051	-0.090	0.085
-248.019	800.000	-0.050	0.191
-247.005	28.950	0.212	0.179
-245.990	-151.064	-0.173	-0.013
-244.976	48.019	0.223	-0.209
-243.961	-125.831	-0.078	-0.012
-242.946	-98.550	-0.092	0.024
-241.932	-200.000	-0.210	0.000
-240.917	44.814	-0.236	0.217
-239.903	43.479	0.215	-0.197
-238.888	288.004	-0.015	0.028
-237.873	62.321	-0.105	0.105
-236.859	341.755	-0.091	0.178
-235.844	800.000	0.145	-0.458
-234.830	351.046	0.076	-0.150
-233.815	-200.000	0.005	0.146
-232.800	21.914	-0.094	-0.077
-231.786	18.558	-0.411	0.329
-230.771	142.249	-0.088	-0.117
-229.757	-200.000	0.003	0.047
-228.742	75.396	-0.228	0.241
-227.727	-78.034	-0.204	0.070
-226.713	638.017	0.051	-0.130
-225.698	-200.000	0.023	-0.185
-224.684	-200.000	0.034	-0.229
-223.669	-94.315	0.329	-0.090
-222.655	-200.000	-0.006	0.115
-221.640	-120.531	0.094	0.016
-220.625	-200.000	-0.036	0.165
-219.611	82.438	-0.182	0.198
-218.596	9.292	0.146	0.110
-217.582	-162.272	-0.229	-0.011
-216.567	-67.635	-0.176	0.069
-215.552	42.637	0.243	-0.221
-214.538	-200.000	0.051	0.281
-213.523	-22.101	-0.249	0.151
-212.509	317.853	-0.022	-0.041
-211.494	800.000	0.056	0.179
-210.479	252.140	0.121	0.206
-209.465	292.751	-0.077	0.140
-208.450	800.000	-0.057	-0.163
-207.436	-137.053	0.164	0.019
-206.421	-73.066	-0.279	-0.102
-205.406	-21.455	0.069	-0.042
-204.392	-19.104	0.189	-0.117
-203.377	-23.086	-0.109	-0.066
-202.363	95.301	0.043	-0.049
-201.348	408.185	-0.154	0.325
-200.333	-181.560	-0.182	-0.004
-199.319	-13.587	-0.177	-0.115
-198.304	-19.875	-0.205	0.126
-197.290	-71.650	0.069	0.026
-196.275	-110.922	-0.257	-0.053
-195.260	-21.910	-0.205	0.125
-194.246	-52.783	0.384	-0.177
-193.231	-61.509	0.128	0.054
-192.217	-200.000	0.064	0.484
-191.202	-66.651	-0.185	0.073
-190.187	197.482	-0.153	0.232
-189.173	1.459	0.027	-0.019
-188.158	34.497	0.118	0.102
-187.144	-27.182	0.307	0.178
-186.129	279.774	-0.148	0.263
-185.114	62.746	0.187	-0.186
-184.100	-100.254	-0.081	-0.020
-183.085	78.964	0.308	-0.329
-182.071	324.198	0.045	0.086
-181.056	-85.244	-0.210	0.065
-180.042	-20.310	-0.179	-0.110
-179.027	-200.000	0.020	0.202
-178.012	-92.942	-0.066	0.018
-176.998	-200.000	-0.008	-0.069
-175.983	800.000	0.063	0.177
-174.969	-55.858	0.345	-0.154
-173.954	565.263	0.068	0.163
-172.939	52.680	-0.119	-0.113
-171.925	375.951	-0.025	-0.051
-170.910	112.329	0.100	-0.120
-169.896	-130.154	0.154	-0.021
-168.881	-200.000	-0.010	-0.154
-167.866	-83.212	0.140	-0.045
-166.852	88.281	0.173	-0.191
-165.837	174.096	0.109	0.157
-164.823	800.000	-0.090	0.314
-163.808	122.319	-0.061	0.076
-162.793	-14.620	-0.087	-0.056
-161.779	124.118	0.254	0.318
-160.764	800.000	0.093	0.286
-159.750	-127.230	-0.243	0.035
-158.735	-200.000	0.018	-0.203
-157.720	-72.514	0.118	-0.044
-156.706	318.831	0.085	0.160
-155.691	-63.033	0.310	0.128
-154.677	-118.897	0.155	-0.027
-153.662	-200.000	0.015	-0.159
-152.647	-100.631	-0.127	0.031
-151.633	-25.378	0.081	0.048
-150.618	-116.208	-0.107	-0.020
-149.604	92.012	0.107	0.120
-148.589	-115.728	-0.340	0.063
-147.574	310.135	-0.047	0.087
-146.560	-54.950	-0.232	-0.104
-145.545	624.222	0.011	-0.028
-144.531	330.251	-0.053	-0.102
-143.516	-51.009	-0.340	0.159
-142.502	92.177	-0.243	0.272
-141.487	78.588	0.325	-0.346
-140.472	367.782	-0.081	-0.163
-139.458	100.110	0.335	0.387
-138.443	-172.081	0.257	-0.008
-137.429	5.004	0.235	-0.172
-136.414	-92.751	0.340	0.095
-135.399	-67.917	0.184	0.072
-134.385	671.161	0.042	-0.109
-133.370	800.000	-0.061	0.222
-132.356	145.281	-0.075	-0.099
-131.341	532.648	0.016	-0.037
-130.326	381.894	-0.151	0.309
-129.312	59.777	0.204	0.201
-128.297	221.006	0.144	0.230
-127.283	-89.409	0.233	-0.068
-126.268	800.000	0.072	-0.295
-125.253	545.496	-0.053	0.125
-124.239	127.886	0.152	0.193
-123.224	385.570	-0.162	0.332
-122.210	-42.077	0.185	-0.094
-121.195	-67.779	0.312	-0.121
