DTS Sentinel unit serial number:	SN413079Multiplexer serial number:	ORYXHardware model number:	OX4-SRSoftware version number:	ORYX F/W v4.00 Oryx Data Collector v3.7.2.0data status	okinstallation	princeton_trtdifferential loss correction	single-endedforward channel	channel 4reverse channel	N/Adate	2019/09/17time	16:21:35forward acquisition time	60.00reverse acquisition time	0.00gamma	496.2192k internal	0.2284k external	0.2284temperature offset calibration	0.9983default loss term (dB/km)	0.3790temperature slope calibration	1.0000multiplexer offset coefficient	1.0000multiplexer slope coefficient	1.0000fibre end	0.00T internal ref (°C)	41.16T ext. ref 1 (°C)	0.38T ext. ref 2 (°C)	38.81length (m)	temperature (°C)	Stokes	anti-Stokes-747.200	555.569	-0.092	-0.228
-746.185	364.898	0.173	0.357
-745.171	-67.563	-0.171	0.069
-744.156	-8.497	-0.121	0.084
-743.142	-83.186	0.259	-0.085
-742.127	-46.396	-0.191	0.096
-741.112	-70.813	0.119	-0.046
-740.098	-106.062	0.216	0.050
-739.083	256.830	0.139	-0.245
-738.069	192.160	-0.202	0.313
-737.054	72.855	0.224	-0.241
-736.039	-40.980	-0.234	-0.124
-735.025	-92.891	-0.207	0.059
-734.010	351.269	0.043	-0.087
-732.996	800.000	-0.069	-0.210
-731.981	-32.026	-0.416	-0.239
-730.966	-104.441	-0.231	-0.055
-729.952	800.000	-0.011	-0.044
-728.937	-187.150	-0.144	-0.002
-727.923	-36.073	0.418	-0.232
-726.908	-76.144	-0.160	-0.058
-725.894	53.678	-0.039	0.039
-724.879	-200.000	-0.021	-0.233
-723.864	270.291	-0.145	0.262
-722.850	-106.618	-0.134	-0.031
-721.835	800.000	-0.049	-0.154
-720.821	-106.103	-0.153	0.035
-719.806	-200.000	0.101	-0.526
-718.791	800.000	-0.035	-0.140
-717.777	-119.016	0.341	-0.061
-716.762	-72.317	-0.091	0.034
-715.748	-51.432	-0.126	-0.060
-714.733	-27.847	0.265	0.157
-713.718	-200.000	-0.023	0.124
-712.704	404.174	-0.096	-0.207
-711.689	-192.381	0.226	-0.002
-710.675	-200.000	-0.013	0.083
-709.660	-67.399	-0.110	-0.044
-708.645	-170.929	0.210	-0.007
-707.631	485.820	0.079	0.184
-706.616	750.098	-0.062	-0.173
-705.602	-200.000	-0.045	0.210
-704.587	132.597	0.136	0.180
-703.572	-87.095	-0.182	-0.057
-702.558	32.294	-0.059	-0.052
-701.543	-87.613	-0.074	0.023
-700.529	-47.916	-0.174	0.086
-699.514	-98.573	-0.073	-0.019
-698.499	-117.414	0.103	0.019
-697.485	-14.781	-0.555	0.366
-696.470	36.801	0.135	-0.123
-695.456	524.404	0.029	-0.069
-694.441	-199.086	0.117	0.001
-693.426	-49.818	0.211	-0.103
-692.412	-45.529	0.260	-0.132
-691.397	772.674	0.077	-0.215
-690.383	-200.000	-0.060	-0.284
-689.368	7.972	0.273	0.210
-688.354	-10.284	0.251	0.171
-687.339	-139.015	-0.161	0.018
-686.324	-72.342	-0.205	0.078
-685.310	-200.000	0.029	0.142
-684.295	-62.686	-0.184	0.078
-683.281	-104.175	-0.456	0.109
-682.266	-1.999	-0.287	-0.206
-681.251	-173.260	0.070	-0.002
-680.237	-200.000	-0.018	-0.143
-679.222	-81.169	-0.236	-0.080
-678.208	-78.147	-0.123	-0.043
-677.193	-39.518	-0.274	-0.147
-676.178	-200.000	0.015	-0.231
-675.164	-200.000	-0.010	-0.068
-674.149	-64.449	0.423	0.176
-673.135	-200.000	-0.021	-0.265
-672.120	-91.156	0.042	-0.012
-671.105	-67.743	-0.036	-0.014
-670.091	-62.384	0.378	-0.161
-669.076	-133.673	-0.143	0.018
-668.062	757.254	0.081	-0.225
-667.047	521.585	0.189	0.454
-666.032	247.742	-0.016	0.028
-665.018	93.248	0.169	0.195
-664.003	-9.313	0.132	0.090
-662.989	-51.025	-0.102	-0.049
-661.974	-37.428	-0.109	0.059
-660.959	90.364	-0.092	0.105
-659.945	800.000	-0.068	0.294
-658.930	800.000	0.076	0.286
-657.916	-185.958	-0.192	-0.003
-656.901	698.621	0.036	-0.098
-655.886	-45.811	-0.375	0.190
-654.872	800.000	-0.044	-0.187
-653.857	148.030	-0.071	-0.098
-652.843	1.110	0.195	-0.144
-651.828	-6.484	0.095	0.066
-650.814	150.203	-0.163	0.226
-649.799	-34.292	0.024	-0.013
-648.784	30.014	0.144	-0.126
-647.770	-68.611	0.096	0.038
-646.755	79.407	0.131	-0.144
-645.741	0.391	-0.213	-0.156
-644.726	33.118	-0.234	-0.208
-643.711	-200.000	-0.040	0.237
-642.697	356.120	-0.224	-0.456
-641.682	181.070	-0.150	-0.226
-640.668	-52.165	0.281	-0.133
-639.653	-136.503	-0.322	0.038
-638.638	199.711	-0.221	-0.347
-637.624	326.612	0.209	0.410
-636.609	800.000	-0.032	0.120
-635.595	-82.862	-0.268	-0.088
-634.580	9.044	0.268	0.207
-633.565	-112.384	0.077	-0.016
-632.551	50.547	0.065	0.063
-631.536	-170.395	-0.233	0.008
-630.522	18.382	-0.166	-0.135
-629.507	-90.526	-0.323	0.096
-628.492	800.000	0.110	0.431
-627.478	-200.000	0.031	-0.194
-626.463	240.818	-0.108	-0.185
-625.449	-133.709	-0.193	-0.025
-624.434	-60.959	-0.223	-0.096
-623.419	144.980	-0.026	-0.035
-622.405	165.522	0.067	-0.097
-621.390	92.533	-0.157	-0.181
-620.376	-64.898	0.276	0.114
-619.361	-129.685	-0.165	0.023
-618.346	80.738	-0.200	-0.221
-617.332	100.447	0.123	-0.146
-616.317	191.643	-0.084	0.130
-615.303	-11.244	0.106	0.072
-614.288	-69.793	0.163	0.064
-613.273	-200.000	-0.072	0.435
-612.259	284.975	0.010	0.019
-611.244	-200.000	0.004	0.067
-610.230	-200.000	0.020	-0.261
-609.215	19.632	0.107	-0.088
-608.201	427.808	-0.103	-0.228
-607.186	-56.485	-0.415	-0.188
-606.171	800.000	0.085	0.250
-605.157	225.785	-0.110	-0.183
-604.142	384.368	-0.071	-0.150
-603.128	21.425	-0.213	-0.177
-602.113	-95.088	-0.266	-0.073
-601.098	26.803	-0.163	0.139
-600.084	-124.993	0.312	-0.049
-599.069	-60.227	0.156	-0.068
-598.055	-11.235	-0.131	0.088
-597.040	-4.024	-0.210	0.149
-596.025	-173.592	0.181	0.006
-595.011	23.027	-0.086	-0.072
-593.996	800.000	0.082	-0.279
-592.982	36.735	-0.215	-0.194
-591.967	480.797	-0.037	0.087
-590.952	25.352	0.111	0.094
-589.938	-200.000	0.101	-0.514
-588.923	76.347	0.205	-0.221
-587.909	-95.030	0.152	-0.042
-586.894	-123.023	0.312	-0.051
-585.879	-42.389	0.035	0.018
-584.865	32.297	0.176	0.155
-583.850	-200.000	-0.011	0.297
-582.836	-44.791	-0.140	0.071
-581.821	-88.754	-0.355	-0.108
-580.806	614.506	0.116	0.297
-579.792	800.000	0.070	0.284
-578.777	247.017	0.025	0.043
-577.763	29.567	-0.368	0.320
-576.748	-200.000	0.027	-0.137
-575.733	-161.275	-0.035	-0.002
-574.719	-76.022	-0.111	0.040
-573.704	186.371	0.106	-0.161
-572.690	800.000	-0.037	-0.122
-571.675	652.237	-0.018	-0.047
-570.661	-200.000	0.042	-0.245
-569.646	800.000	-0.066	0.272
-568.631	-83.517	-0.191	-0.062
-567.617	73.549	-0.147	-0.157
-566.602	-89.256	0.150	0.045
-565.588	113.811	-0.208	-0.258
-564.573	800.000	0.102	0.410
-563.558	-1.930	-0.211	0.151
-562.544	-103.411	0.370	0.089
-561.529	800.000	0.046	0.191
-560.515	-2.700	0.118	-0.084
-559.500	33.634	0.229	0.203
-558.485	16.143	-0.122	0.098
-557.471	-200.000	-0.032	-0.172
-556.456	-86.434	-0.355	-0.111
-555.442	9.648	-0.150	0.116
-554.427	-200.000	0.087	0.432
-553.412	394.695	-0.062	-0.132
-552.398	-17.021	-0.139	-0.090
-551.383	16.249	-0.252	-0.202
-550.369	-60.829	-0.086	0.037
-549.354	7.046	0.116	0.088
-548.339	37.356	-0.215	-0.194
-547.325	-5.691	-0.105	-0.073
-546.310	-4.528	0.516	-0.363
-545.296	-20.541	-0.245	-0.153
-544.281	752.949	0.149	-0.411
-543.266	109.383	0.118	0.143
-542.252	-200.000	-0.037	0.286
-541.237	-145.514	-0.172	0.016
-540.223	-200.000	-0.037	-0.180
-539.208	-172.692	0.261	0.008
-538.193	800.000	0.063	0.208
-537.179	-132.663	-0.312	-0.041
-536.164	-200.000	0.063	-0.343
-535.150	-200.000	0.009	-0.094
-534.135	403.999	0.119	-0.254
-533.121	-144.749	-0.217	-0.020
-532.106	-93.885	-0.344	-0.096
-531.091	27.199	-0.120	-0.103
-530.077	-29.085	-0.164	0.096
-529.062	-200.000	0.039	-0.301
-528.048	730.968	-0.031	0.083
-527.033	-195.291	-0.111	-0.001
-526.018	-56.738	0.178	0.080
-525.004	-43.892	-0.051	0.026
-523.989	800.000	-0.075	0.255
-522.975	383.390	0.119	-0.249
-521.960	108.635	0.259	-0.315
-520.945	408.588	0.049	-0.106
-519.931	-48.258	0.147	0.072
-518.916	-200.000	-0.043	-0.509
-517.902	-26.693	-0.392	0.233
-516.887	36.873	-0.083	0.075
-515.872	-8.405	0.098	-0.067
-514.858	-14.166	0.336	-0.221
-513.843	-87.882	0.384	0.118
-512.829	106.320	0.040	0.048
-511.814	8.114	0.181	0.138
-510.799	-21.985	0.441	0.272
-509.785	-159.022	-0.186	0.011
-508.770	142.942	-0.083	0.112
-507.756	-117.874	0.288	0.053
-506.741	-52.982	-0.108	0.051
-505.726	301.400	-0.073	-0.138
-504.712	-96.289	0.075	0.020
-503.697	-200.000	-0.035	0.330
-502.683	388.155	0.054	0.113
-501.668	70.237	-0.064	-0.068
-500.653	49.954	-0.143	0.137
-499.639	-29.307	-0.242	0.141
-498.624	751.644	0.096	-0.263
-497.610	38.599	0.123	0.112
-496.595	-146.656	-0.058	-0.005
-495.581	2.932	-0.183	-0.135
-494.566	-65.291	0.183	0.075
-493.551	-146.886	0.070	0.006
-492.537	17.055	0.061	-0.049
-491.522	-200.000	0.073	-0.328
-490.508	1.740	0.244	-0.179
-489.493	-200.000	0.055	-0.401
-488.478	84.835	0.118	0.131
-487.464	527.122	0.007	-0.017
-486.449	-200.000	0.017	0.081
-485.435	136.731	0.066	-0.088
-484.420	80.577	-0.155	-0.169
-483.405	-114.849	-0.042	0.008
-482.391	-6.057	-0.201	-0.139
-481.376	800.000	0.095	0.339
-480.362	-79.492	-0.101	0.035
-479.347	472.810	-0.112	-0.256
-478.332	-23.445	0.128	-0.078
-477.318	-200.000	0.004	-0.125
-476.303	-76.260	-0.103	0.037
-475.289	-200.000	0.034	-0.371
-474.274	411.099	0.195	0.420
-473.259	-99.128	0.089	-0.023
-472.245	-161.354	-0.498	-0.026
-471.230	105.992	-0.116	-0.139
-470.216	54.894	0.182	0.178
-469.201	312.762	-0.144	0.275
-468.186	133.336	0.136	0.178
-467.172	312.671	-0.173	0.330
-466.157	-108.753	0.133	0.029
-465.143	146.396	-0.227	0.309
-464.128	-40.293	0.098	-0.052
-463.113	205.976	0.064	-0.101
-462.099	793.558	0.018	-0.050
-461.084	254.063	-0.048	-0.083
-460.070	-18.006	0.248	-0.158
-459.055	-165.224	0.137	0.006
-458.040	-143.510	-0.330	-0.032
-457.026	-66.394	-0.187	-0.075
-456.011	198.125	-0.010	0.015
-454.997	356.399	0.205	-0.415
-453.982	-153.698	0.197	-0.014
-452.968	657.672	0.101	0.263
-451.953	-99.496	0.175	0.045
-450.938	335.165	0.053	0.104
-449.924	32.290	0.144	-0.126
-448.909	-200.000	-0.045	0.312
-447.895	64.056	0.126	-0.128
-446.880	155.875	-0.076	0.107
-445.865	-75.424	-0.057	-0.021
-444.851	17.020	-0.218	-0.175
-443.836	172.741	0.104	-0.152
-442.822	-200.000	-0.040	0.192
-441.807	-79.708	-0.067	-0.023
-440.792	800.000	0.069	0.278
-439.778	174.508	-0.331	0.486
-438.763	243.357	0.047	-0.080
-437.749	72.033	-0.159	0.168
-436.734	-14.692	0.244	0.159
-435.719	77.645	0.132	0.142
-434.705	125.980	-0.075	0.096
-433.690	82.659	0.088	0.097
-432.676	25.430	-0.144	0.122
-431.661	-94.476	-0.323	-0.089
-430.646	-75.146	-0.131	0.047
-429.632	219.573	0.097	0.158
-428.617	-89.130	-0.136	-0.041
-427.603	333.364	0.104	0.204
-426.588	800.000	-0.065	0.253
-425.573	289.216	-0.109	-0.200
-424.559	34.405	0.264	-0.233
-423.544	-4.782	0.143	-0.100
-422.530	-10.318	0.271	-0.183
-421.515	-199.335	0.175	0.001
-420.500	47.911	0.174	-0.165
-419.486	800.000	-0.134	0.518
-418.471	-33.366	0.106	-0.059
-417.457	236.938	-0.099	-0.166
-416.442	-23.061	0.096	-0.058
-415.428	-200.000	-0.301	-0.001
-414.413	-147.834	0.192	-0.016
-413.398	-146.478	0.151	-0.013
-412.384	186.313	0.135	0.203
-411.369	-65.214	-0.279	-0.114
-410.355	800.000	0.044	-0.166
-409.340	-67.025	-0.125	-0.050
-408.325	783.378	-0.150	0.416
-407.311	-113.540	-0.119	-0.024
-406.296	111.553	-0.060	-0.073
-405.282	-120.298	-0.313	0.054
-404.267	114.170	0.282	0.348
-403.252	109.760	0.165	-0.200
-402.238	334.971	-0.173	-0.339
-401.223	800.000	-0.071	-0.219
-400.209	74.149	0.125	0.133
-399.194	-200.000	-0.027	-0.179
-398.179	-150.924	-0.136	0.010
-397.165	-200.000	-0.024	0.283
-396.150	800.000	-0.066	0.197
-395.136	64.918	-0.072	0.073
-394.121	-200.000	0.001	-0.011
-393.106	-200.000	-0.006	0.125
-392.092	267.869	-0.083	0.147
-391.077	-200.000	0.008	-0.299
-390.063	50.411	-0.235	0.225
-389.048	800.000	0.042	0.130
-388.033	284.605	0.068	0.125
-387.019	72.888	-0.034	0.035
-386.004	-127.920	-0.420	-0.061
-384.990	453.137	0.094	0.210
-383.975	-147.618	-0.161	-0.014
-382.960	48.991	-0.138	-0.131
-381.946	66.918	0.114	0.117
-380.931	137.265	-0.136	-0.180
-379.917	46.913	-0.078	-0.074
-378.902	62.029	0.062	-0.063
-377.888	-200.000	-0.012	-0.071
-376.873	30.199	0.152	0.131
-375.858	800.000	-0.114	-0.430
-374.844	-87.729	0.086	-0.026
-373.829	149.716	-0.141	-0.193
-372.815	200.169	0.055	0.085
-371.800	-88.870	-0.053	0.016
-370.785	-90.918	0.205	0.060
-369.771	-200.000	0.000	0.067
-368.756	266.092	-0.052	0.091
-367.742	-200.000	-0.040	0.278
-366.727	-48.162	0.371	0.181
-365.712	800.000	-0.029	0.085
-364.698	-11.651	0.424	-0.282
-363.683	-136.042	-0.131	-0.016
-362.669	-58.515	-0.237	-0.104
-361.654	800.000	0.080	0.259
-360.639	10.646	0.442	0.341
-359.625	155.678	-0.152	-0.212
-358.610	-80.782	-0.343	-0.115
-357.596	-115.429	-0.225	0.043
-356.581	-55.840	0.182	0.082
-355.566	31.736	0.174	0.152
-354.552	-156.719	-0.149	-0.009
-353.537	-64.709	0.094	-0.039
-352.523	11.588	-0.167	-0.130
-351.508	-21.890	0.239	0.147
-350.493	-110.996	0.134	0.028
-349.479	-46.700	0.284	-0.141
-348.464	-47.425	-0.180	-0.088
-347.450	-106.808	0.158	0.035
-346.435	-71.056	-0.125	-0.048
-345.420	-0.990	0.006	0.005
-344.406	377.301	-0.159	0.329
-343.391	-30.802	0.213	0.122
-342.377	505.990	-0.011	0.025
-341.362	72.356	0.047	0.049
-340.348	-200.000	-0.002	0.385
-339.333	167.509	0.071	0.102
-338.318	-89.132	-0.136	-0.041
-337.304	86.310	0.060	-0.067
-336.289	800.000	0.064	-0.189
-335.275	-179.051	0.416	-0.009
-334.260	141.957	-0.141	-0.189
-333.245	-200.000	0.014	-0.062
-332.231	-34.700	0.327	0.181
-331.216	800.000	0.065	-0.185
-330.202	303.574	-0.111	-0.207
-329.187	800.000	-0.095	0.297
-328.172	153.652	-0.083	0.115
-327.158	-104.755	0.141	-0.033
-326.143	-200.000	0.001	0.017
-325.129	-116.946	0.342	0.063
-324.114	-54.178	0.165	0.076
-323.099	-200.000	0.030	-0.298
-322.085	422.464	-0.072	0.156
-321.070	72.567	0.124	0.131
-320.056	-90.908	0.088	0.026
-319.041	-40.135	-0.182	0.096
-318.026	-78.313	0.079	-0.027
-317.012	12.639	0.025	-0.020
-315.997	-200.000	0.000	0.145
-314.983	68.803	0.141	0.146
-313.968	228.785	-0.091	-0.151
-312.953	-90.611	0.237	0.069
-311.939	-136.711	0.284	0.033
-310.924	800.000	0.040	0.163
-309.910	179.096	0.063	-0.094
-308.895	320.779	-0.078	0.150
-307.880	-121.155	-0.238	-0.040
-306.866	-200.000	-0.047	0.412
-305.851	-67.234	-0.361	0.143
-304.837	54.960	-0.066	0.065
-303.822	-200.000	-0.050	-0.513
-302.807	800.000	0.173	-0.549
-301.793	308.448	-0.009	-0.017
-300.778	14.802	0.329	0.260
-299.764	-3.087	0.140	-0.099
-298.749	194.260	-0.272	-0.416
-297.735	800.000	0.017	0.072
-296.720	25.681	-0.141	-0.119
-295.705	380.059	-0.125	0.258
-294.691	-200.000	-0.033	0.164
-293.676	-79.674	0.132	0.045
-292.662	73.523	0.163	-0.172
-291.647	800.000	-0.054	0.202
-290.632	-67.385	0.097	-0.038
-289.618	-200.000	-0.003	0.068
-288.603	2.155	-0.125	-0.091
-287.589	-11.885	-0.191	-0.126
-286.574	-99.259	-0.094	-0.024
-285.559	-37.772	0.400	-0.215
-284.545	55.598	0.147	-0.143
-283.530	-200.000	-0.021	0.100
-282.516	-200.000	0.004	-0.104
-281.501	-73.588	-0.095	-0.035
-280.486	36.904	-0.126	0.113
-279.472	-195.967	-0.069	0.000
-278.457	-18.136	0.202	0.128
-277.443	-200.000	-0.024	-0.272
-276.428	-69.604	0.108	0.042
-275.413	-200.000	-0.024	0.187
-274.399	800.000	-0.032	0.130
-273.384	356.695	0.035	-0.070
-272.370	54.674	0.065	0.063
-271.355	800.000	-0.052	0.202
-270.340	-42.481	-0.240	0.123
-269.326	-200.000	0.021	-0.232
-268.311	800.000	-0.061	-0.250
-267.297	1.255	0.051	0.037
-266.282	-200.000	-0.022	-0.231
-265.267	-35.955	-0.284	-0.155
-264.253	-200.000	-0.085	0.429
-263.238	-90.400	-0.238	0.069
-262.224	-18.015	0.289	-0.183
-261.209	314.667	-0.120	0.228
-260.195	-77.704	-0.260	-0.091
-259.180	-152.792	-0.146	0.010
-258.165	42.707	0.268	-0.246
-257.151	662.504	-0.070	-0.183
-256.136	-18.125	0.223	0.141
-255.122	-74.904	0.186	-0.067
-254.107	295.059	0.102	0.188
-253.092	800.000	0.016	0.063
-252.078	800.000	0.043	-0.164
-251.063	116.871	0.059	-0.073
-250.049	79.309	-0.097	-0.104
-249.034	166.994	0.147	-0.210
-248.019	293.013	0.040	-0.074
-247.005	432.920	-0.095	-0.208
-245.990	-126.463	0.146	-0.022
-244.976	-43.320	0.370	0.188
-243.961	-90.283	-0.248	-0.073
-242.946	-140.278	-0.018	-0.002
-241.932	-5.560	-0.264	-0.183
-240.917	627.583	-0.097	-0.248
-239.903	393.086	0.206	-0.431
-238.888	-134.035	0.331	0.041
-237.873	-102.049	-0.327	0.079
-236.859	-48.493	-0.022	0.011
-235.844	258.282	0.106	-0.183
-234.830	-200.000	-0.020	0.143
-233.815	34.506	-0.106	0.093
-232.800	620.323	0.028	0.072
-231.786	-9.236	0.176	-0.118
-230.771	105.228	0.188	0.223
-229.757	-53.321	0.202	-0.093
-228.742	-102.692	0.230	-0.055
-227.727	688.711	-0.079	0.209
-226.713	13.960	-0.343	0.269
-225.698	331.041	-0.092	-0.179
-224.684	7.706	0.122	-0.092
-223.669	800.000	-0.025	0.097
-222.655	-73.524	0.234	0.086
-221.640	527.403	-0.097	-0.229
-220.625	155.295	0.092	0.127
-219.611	-35.433	0.266	0.145
-218.596	-107.227	0.377	0.084
-217.582	-116.115	-0.183	0.034
-216.567	-200.000	-0.033	-0.270
-215.552	-118.871	-0.128	-0.023
-214.538	-14.804	0.089	0.057
-213.523	36.211	0.206	0.183
-212.509	27.672	0.180	-0.153
-211.494	97.576	0.140	0.162
-210.479	-200.000	-0.008	-0.252
-209.465	800.000	-0.084	0.341
-208.450	-148.781	-0.241	-0.020
-207.436	557.326	0.170	-0.413
-206.421	800.000	-0.025	-0.097
-205.406	-105.719	-0.209	-0.048
-204.392	-8.283	0.209	0.141
-203.377	-77.923	-0.217	0.075
-202.363	-200.000	0.090	0.457
-201.348	-139.305	0.124	-0.013
-200.333	44.642	0.224	0.207
-199.319	-200.000	-0.015	-0.234
-198.304	-18.311	-0.065	0.041
-197.290	61.339	0.141	-0.140
-196.275	-46.167	-0.157	-0.078
-195.260	-200.000	-0.005	0.116
-194.246	51.154	0.394	0.376
-193.231	90.527	0.219	0.246
-192.217	25.470	-0.206	0.172
-191.202	800.000	0.023	0.076
-190.187	0.435	-0.213	0.153
-189.173	130.682	0.135	0.173
-188.158	800.000	0.035	0.103
-187.144	-200.000	0.018	-0.140
-186.129	58.782	0.142	-0.140
-185.114	115.699	-0.166	0.204
-184.100	-120.283	-0.093	0.016
-183.085	-200.000	0.013	0.089
-182.071	-200.000	0.008	0.258
-181.056	419.325	-0.148	-0.318
-180.042	106.761	0.073	-0.087
-179.027	32.558	-0.091	-0.079
-178.012	-200.000	-0.056	-0.310
-176.998	201.170	-0.176	-0.273
-175.983	15.662	0.340	-0.268
-174.969	-114.731	-0.173	0.033
-173.954	293.938	-0.133	0.244
-172.939	701.064	0.040	0.107
-171.925	87.392	-0.159	0.177
-170.910	-200.000	-0.031	0.272
-169.896	6.870	0.266	0.199
-168.881	49.653	-0.079	-0.075
-167.866	-126.065	-0.334	-0.050
-166.852	615.373	0.075	-0.190
-165.837	507.280	0.117	0.273
-164.823	800.000	0.036	0.134
-163.808	-133.622	-0.273	-0.034
-162.793	312.027	0.041	-0.078
-161.779	15.045	-0.116	-0.091
-160.764	-99.701	-0.085	0.021
-159.750	-200.000	0.054	-0.268
-158.735	-60.413	-0.332	-0.142
-157.720	-8.243	-0.397	0.269
-156.706	-44.778	0.305	-0.153
-155.691	800.000	-0.048	0.174
-154.677	-200.000	-0.003	-0.146
-153.662	-99.011	0.390	-0.099
-152.647	-200.000	0.025	0.166
-151.633	44.273	0.211	0.194
-150.618	598.326	-0.081	0.202
-149.604	117.723	0.132	0.163
-148.589	32.571	0.193	-0.168
-147.574	-98.677	0.330	0.084
-146.560	209.619	-0.128	-0.201
-145.545	-200.000	-0.001	0.033
-144.531	-108.101	-0.311	-0.068
-143.516	800.000	-0.062	0.200
-142.502	-78.456	-0.318	-0.109
-141.487	142.946	-0.134	-0.179
-140.472	-33.055	0.100	0.056
-139.458	-113.981	0.051	-0.010
-138.443	-90.248	-0.319	-0.093
-137.429	438.504	0.046	0.102
-136.414	158.336	-0.041	-0.056
-135.399	-78.535	0.202	-0.069
-134.385	-75.424	0.115	0.041
-133.370	800.000	0.042	0.175
-132.356	-31.617	0.232	0.131
-131.341	388.567	0.042	-0.086
-130.326	554.313	0.233	0.561
-129.312	93.839	-0.117	-0.133
-128.297	-31.870	0.282	-0.158
-127.283	53.235	-0.127	0.122
-126.268	163.155	0.276	0.388
-125.253	-200.000	0.000	-0.102
-124.239	-200.000	-0.007	-0.305
-123.224	-99.602	-0.031	-0.008
-122.210	602.335	0.164	0.409
-121.195	-127.519	0.249	-0.036
-120.180	-55.952	0.189	0.084
