DTS Sentinel unit serial number:	SN413079Multiplexer serial number:	ORYXHardware model number:	OX4-SRSoftware version number:	ORYX F/W v4.00 Oryx Data Collector v3.7.2.0data status	okinstallation	princeton_trtdifferential loss correction	single-endedforward channel	channel 4reverse channel	N/Adate	2019/09/19time	11:29:35forward acquisition time	60.00reverse acquisition time	0.00gamma	496.2192k internal	0.2326k external	0.2326temperature offset calibration	1.0021default loss term (dB/km)	0.3790temperature slope calibration	1.0000multiplexer offset coefficient	1.0000multiplexer slope coefficient	1.0000fibre end	0.00T internal ref (°C)	25.37T ext. ref 1 (°C)	0.78T ext. ref 2 (°C)	21.23length (m)	temperature (°C)	Stokes	anti-Stokes-747.200	77.224	0.159	0.171
-746.185	-185.137	0.242	-0.004
-745.171	513.468	0.126	0.297
-744.156	-25.294	-0.363	0.217
-743.142	5.004	-0.097	-0.072
-742.127	-11.299	-0.500	0.332
-741.112	435.676	-0.133	0.291
-740.098	-200.000	-0.038	0.228
-739.083	-200.000	0.067	0.328
-738.069	-200.000	-0.042	0.325
-737.054	-200.000	0.010	0.394
-736.039	-78.516	-0.314	0.108
-735.025	-66.774	-0.208	0.083
-734.010	594.817	-0.094	0.235
-732.996	-6.501	-0.249	-0.171
-731.981	652.757	0.171	0.442
-730.966	-200.000	-0.052	0.281
-729.952	-200.000	0.013	-0.169
-728.937	-113.352	-0.278	-0.055
-727.923	122.113	-0.127	0.160
-726.908	-86.325	0.131	-0.041
-725.894	800.000	-0.024	-0.075
-724.879	-131.889	0.069	-0.009
-723.864	800.000	-0.032	-0.114
-722.850	254.131	-0.128	-0.220
-721.835	238.329	0.208	-0.347
-720.821	-185.945	-0.293	-0.004
-719.806	457.612	-0.098	-0.220
-718.791	171.827	0.132	-0.191
-717.777	-48.614	0.076	-0.037
-716.762	-5.128	0.231	-0.160
-715.748	21.118	0.195	0.160
-714.733	-70.726	-0.060	-0.023
-713.718	800.000	-0.069	-0.223
-712.704	800.000	0.014	0.042
-711.689	25.056	-0.073	0.061
-710.675	-70.452	-0.276	-0.105
-709.660	-108.502	0.101	-0.022
-708.645	-200.000	0.043	-0.236
-707.631	35.763	0.196	-0.174
-706.616	395.477	-0.077	0.162
-705.602	-76.234	-0.173	-0.061
-704.587	-129.674	0.154	0.021
-703.572	3.944	-0.055	0.041
-702.558	430.847	0.115	-0.251
-701.543	41.825	-0.125	-0.114
-700.529	-200.000	0.029	0.260
-699.514	142.554	0.140	0.187
-698.499	-200.000	0.000	-0.299
-697.485	235.328	0.037	0.061
-696.470	-200.000	0.004	0.277
-695.456	-32.868	-0.205	-0.115
-694.441	-34.388	0.131	-0.073
-693.426	800.000	0.149	0.431
-692.412	-72.590	-0.206	-0.077
-691.397	203.403	0.257	-0.400
-690.383	111.488	-0.108	-0.131
-689.368	248.128	0.038	-0.064
-688.354	-111.277	-0.342	0.070
-687.339	800.000	0.022	0.061
-686.324	-92.361	-0.314	0.089
-685.310	113.879	0.112	-0.137
-684.295	-200.000	0.022	-0.117
-683.281	-57.637	0.100	0.044
-682.266	-128.851	0.167	-0.024
-681.251	-129.435	-0.334	-0.047
-680.237	33.258	0.077	-0.068
-679.222	569.883	0.167	0.409
-678.208	6.467	0.131	-0.098
-677.193	800.000	0.084	0.244
-676.178	-114.432	-0.046	0.009
-675.164	509.307	0.186	-0.435
-674.149	-200.000	0.056	0.329
-673.135	148.085	0.151	-0.205
-672.120	-200.000	0.063	-0.315
-671.105	-56.302	-0.234	0.105
-670.091	85.002	-0.248	0.274
-669.076	-34.234	-0.040	-0.022
-668.062	140.197	0.034	0.046
-667.047	147.095	-0.148	0.200
-666.032	162.082	0.134	-0.188
-665.018	-130.492	-0.114	0.015
-664.003	-200.000	-0.007	0.232
-662.989	-114.641	0.060	0.011
-661.974	1.382	-0.170	-0.123
-660.959	-149.236	-0.272	0.022
-659.945	-126.768	-0.323	0.048
-658.930	147.630	0.195	0.264
-657.916	52.452	0.074	0.071
-656.901	-200.000	0.025	0.130
-655.886	133.579	-0.055	0.071
-654.872	458.294	-0.046	-0.102
-653.857	-88.040	-0.071	0.021
-652.843	-95.687	0.155	0.042
-651.828	172.485	-0.147	-0.213
-650.814	-66.796	0.177	-0.070
-649.799	800.000	-0.038	-0.144
-648.784	800.000	-0.088	-0.377
-647.770	800.000	0.083	0.233
-646.755	10.839	0.064	0.049
-645.741	-146.506	-0.087	0.008
-644.726	-26.976	-0.012	-0.007
-643.711	25.370	-0.185	-0.154
-642.697	-104.892	0.249	-0.057
-641.682	471.240	-0.197	0.444
-640.668	130.663	0.151	-0.195
-639.653	21.097	-0.302	-0.246
-638.638	-22.886	0.195	0.118
-637.624	-145.132	0.269	-0.025
-636.609	215.647	-0.194	0.309
-635.595	-85.818	-0.037	-0.012
-634.580	-200.000	-0.014	-0.432
-633.565	800.000	0.049	-0.178
-632.551	178.371	0.101	-0.148
-631.536	146.772	0.031	0.042
-630.522	-127.572	-0.163	0.024
-629.507	421.273	-0.088	-0.191
-628.492	800.000	0.104	-0.311
-627.478	-46.323	0.383	-0.189
-626.463	71.981	-0.178	-0.186
-625.449	44.507	-0.142	0.131
-624.434	19.792	0.106	0.086
-623.419	-33.497	0.098	0.054
-622.405	-85.507	-0.211	0.066
-621.390	800.000	0.072	0.302
-620.376	-200.000	-0.024	-0.110
-619.361	34.295	0.203	-0.177
-618.346	-32.362	-0.037	0.021
-617.332	47.109	0.166	0.155
-616.317	800.000	-0.041	0.127
-615.303	800.000	0.075	-0.219
-614.288	-138.883	0.247	-0.027
-613.273	-66.011	-0.234	0.094
-612.259	127.259	-0.070	0.089
-611.244	125.357	-0.172	0.217
-610.230	-157.958	0.250	-0.015
-609.215	800.000	-0.138	-0.399
-608.201	-10.708	0.081	-0.053
-607.186	347.418	0.056	-0.112
-606.171	-62.148	0.414	0.173
-605.157	718.952	0.143	-0.381
-604.142	800.000	-0.009	-0.032
-603.128	180.878	0.181	-0.267
-602.113	-200.000	-0.005	0.068
-601.098	-30.520	-0.148	-0.084
-600.084	634.754	-0.042	0.107
-599.069	-82.898	-0.207	0.067
-598.055	800.000	-0.024	0.090
-597.040	-50.590	-0.411	0.194
-596.025	366.972	-0.105	0.212
-595.011	302.018	-0.046	-0.086
-593.996	-78.201	0.068	-0.023
-592.982	800.000	0.022	0.073
-591.967	136.106	-0.187	0.244
-590.952	-53.358	0.129	0.059
-589.938	-200.000	-0.107	0.513
-588.923	-136.407	0.120	0.014
-587.909	-28.988	0.092	0.053
-586.894	-51.400	0.207	0.097
-585.879	-94.113	0.140	-0.038
-584.865	-133.866	0.393	0.049
-583.850	-72.962	0.243	0.089
-582.836	7.722	-0.152	-0.114
-581.821	-157.374	0.122	-0.007
-580.806	0.605	0.384	0.275
-579.792	24.064	-0.276	0.229
-578.777	65.431	-0.037	0.037
-577.763	351.436	0.108	0.213
-576.748	-117.347	-0.190	0.034
-575.733	38.222	-0.165	0.147
-574.719	-69.415	-0.217	-0.083
-573.704	-200.000	0.004	-0.171
-572.690	-68.693	-0.056	0.022
-571.675	-200.000	0.030	-0.347
-570.661	-68.932	0.224	-0.086
-569.646	800.000	0.019	-0.063
-568.631	-200.000	-0.064	0.340
-567.617	800.000	0.130	0.471
-566.602	-127.529	0.162	0.023
-565.588	8.015	-0.244	0.183
-564.573	1.623	0.153	0.110
-563.558	-97.197	-0.085	-0.022
-562.544	69.519	0.074	-0.077
-561.529	-143.865	0.171	-0.016
-560.515	96.084	-0.269	-0.307
-559.500	-200.000	0.046	0.219
-558.485	102.810	0.161	-0.188
-557.471	-2.501	0.041	-0.029
-556.456	-88.565	0.265	0.079
-555.442	-200.000	0.019	-0.120
-554.427	-34.983	-0.339	-0.185
-553.412	-200.000	0.030	0.158
-552.398	-185.265	0.120	0.002
-551.383	-37.513	-0.103	-0.055
-550.369	135.515	-0.063	-0.083
-549.354	-164.414	0.148	-0.007
-548.339	219.611	0.059	0.094
-547.325	-200.000	-0.017	-0.129
-546.310	-123.896	-0.336	0.053
-545.296	-33.266	-0.260	0.144
-544.281	-85.244	-0.163	0.051
-543.266	71.366	0.142	0.147
-542.252	1.872	0.136	-0.098
-541.237	-54.144	-0.188	0.086
-540.223	800.000	0.089	-0.361
-539.208	-166.877	-0.129	-0.005
-538.193	156.715	-0.033	0.045
-537.179	292.749	-0.237	-0.432
-536.164	-27.063	-0.059	0.034
-535.150	-142.451	-0.149	-0.015
-534.135	249.442	-0.083	-0.141
-533.121	-200.000	0.042	-0.236
-532.106	-63.331	0.142	0.058
-531.091	-101.516	0.118	0.029
-530.077	-190.800	0.092	0.001
-529.062	512.101	0.052	-0.122
-528.048	608.859	-0.071	-0.178
-527.033	-172.393	-0.073	-0.002
-526.018	37.406	-0.280	-0.248
-525.004	-185.144	-0.069	0.001
-523.989	45.542	-0.221	0.204
-522.975	198.917	-0.092	0.141
-521.960	-82.353	0.439	0.143
-520.945	32.754	-0.176	0.152
-519.931	-200.000	-0.017	-0.133
-518.916	572.722	-0.125	0.305
-517.902	41.933	-0.023	-0.021
-516.887	49.377	-0.032	0.030
-515.872	800.000	-0.040	0.137
-514.858	-200.000	-0.019	-0.157
-513.843	220.985	0.061	0.099
-512.829	-66.982	0.361	-0.143
-511.814	800.000	-0.086	-0.238
-510.799	252.047	-0.106	0.181
-509.785	-149.727	0.472	-0.037
-508.770	-132.138	-0.342	-0.044
-507.756	0.277	-0.157	-0.112
-506.741	570.779	0.019	-0.047
-505.726	-33.620	0.212	-0.117
-504.712	-125.178	0.231	-0.035
-503.697	-143.535	-0.347	0.033
-502.683	-200.000	-0.003	0.016
-501.668	-200.000	-0.033	0.195
-500.653	-104.616	0.347	-0.080
-499.639	-134.674	-0.289	-0.035
-498.624	4.202	0.224	0.164
-497.610	338.809	0.060	0.117
-496.595	124.798	0.122	0.153
-495.581	-80.768	-0.088	-0.029
-494.566	-180.603	0.186	-0.004
-493.551	-13.044	-0.139	0.090
-492.537	-33.588	0.223	-0.123
-491.522	-129.756	-0.329	0.045
-490.508	356.740	0.216	-0.429
-489.493	684.545	0.078	0.204
-488.478	130.635	-0.046	-0.058
-487.464	800.000	0.128	-0.438
-486.449	-98.586	-0.173	0.044
-485.435	-4.035	-0.213	-0.147
-484.420	800.000	-0.071	-0.215
-483.405	204.423	-0.111	0.171
-482.391	-168.255	-0.120	0.005
-481.376	800.000	0.036	-0.106
-480.362	-123.376	-0.154	0.024
-479.347	-200.000	-0.048	0.411
-478.332	20.888	0.218	0.176
-477.318	-14.918	-0.096	0.061
-476.303	176.657	-0.153	-0.222
-475.289	-76.813	-0.282	0.098
-474.274	-200.000	0.008	-0.128
-473.259	-136.038	0.286	0.034
-472.245	431.215	-0.093	-0.201
-471.230	-200.000	0.019	-0.404
-470.216	14.411	-0.086	0.067
-469.201	-200.000	0.013	0.152
-468.186	-200.000	0.025	-0.118
-467.172	800.000	-0.093	-0.292
-466.157	-200.000	-0.019	-0.212
-465.143	410.998	-0.095	-0.200
-464.128	800.000	-0.055	-0.172
-463.113	-19.429	0.085	0.052
-462.099	-37.391	-0.057	0.031
-461.084	-200.000	-0.004	0.088
-460.070	144.633	-0.118	-0.158
-459.055	-42.450	0.209	-0.106
-458.040	-121.731	0.312	-0.051
-457.026	368.300	0.147	-0.297
-456.011	-200.000	0.029	0.131
-454.997	702.292	-0.091	-0.240
-453.982	742.935	0.112	-0.299
-452.968	-148.013	0.230	-0.019
-451.953	252.201	-0.121	-0.206
-450.938	-177.237	-0.207	0.005
-449.924	48.857	-0.193	0.181
-448.909	41.915	-0.389	0.352
-447.895	144.771	0.172	0.229
-446.880	297.274	0.094	-0.173
-445.865	-144.384	-0.351	0.033
-444.851	687.000	-0.101	-0.263
-443.836	139.061	-0.095	0.125
-442.822	-200.000	-0.011	0.161
-441.807	657.785	0.106	-0.271
-440.792	-115.943	0.169	0.031
-439.778	-200.000	0.013	-0.216
-438.763	-169.761	-0.220	-0.008
-437.749	296.894	0.126	-0.230
-436.734	-42.350	-0.172	-0.087
-435.719	59.208	0.038	-0.038
-434.705	-200.000	0.008	0.330
-433.690	-133.024	0.111	-0.014
-432.676	25.523	-0.214	0.178
-431.661	274.748	0.116	0.204
-430.646	-200.000	-0.004	0.317
-429.632	-145.665	0.095	0.008
-428.617	-95.970	0.271	0.072
-427.603	-76.124	-0.312	0.110
-426.588	160.613	-0.012	0.017
-425.573	-200.000	-0.000	-0.249
-424.559	-200.000	-0.010	-0.282
-423.544	800.000	0.036	0.126
-422.530	8.840	0.061	0.046
-421.515	-22.073	0.087	-0.053
-420.500	185.466	0.093	-0.138
-419.486	414.748	-0.106	-0.224
-418.471	-71.824	-0.238	0.088
-417.457	-143.916	0.176	0.016
-416.442	-90.964	-0.307	0.088
-415.428	-97.834	-0.506	0.130
-414.413	-49.744	-0.346	-0.164
-413.398	112.811	0.169	-0.204
-412.384	-129.519	0.147	0.020
-411.369	-86.664	-0.389	0.118
-410.355	-74.849	0.145	0.052
-409.340	-200.000	-0.403	-0.002
-408.325	-58.868	-0.098	0.042
-407.311	-13.810	0.142	0.091
-406.296	-200.000	-0.034	-0.277
-405.282	-105.146	-0.102	0.023
-404.267	367.057	0.031	0.061
-403.252	-108.676	0.422	0.090
-402.238	-162.214	0.237	-0.012
-401.223	380.526	0.027	-0.055
-400.209	22.667	-0.299	-0.243
-399.194	13.229	0.117	0.090
-398.179	-115.919	0.099	-0.018
-397.165	-200.000	-0.043	-0.292
-396.150	-200.000	0.014	-0.063
-395.136	800.000	0.094	0.290
-394.121	-6.909	-0.146	0.099
-393.106	80.713	-0.290	-0.311
-392.092	436.939	-0.070	-0.151
-391.077	-9.351	0.092	0.061
-390.063	-200.000	-0.016	0.295
-389.048	-56.155	0.246	0.109
-388.033	-144.044	-0.133	0.012
-387.019	273.257	-0.066	0.116
-386.004	-131.003	0.225	0.030
-384.990	509.002	-0.178	0.412
-383.975	-56.835	-0.126	-0.055
-382.960	-200.000	0.006	-0.223
-381.946	-200.000	-0.020	-0.376
-380.931	2.311	-0.182	-0.131
-379.917	-187.930	0.270	-0.003
-378.902	-28.698	0.045	0.026
-377.888	304.076	-0.052	0.096
-376.873	-141.225	-0.345	-0.035
-375.858	97.991	0.185	0.212
-374.844	-12.561	0.058	-0.038
-373.829	-176.718	-0.400	-0.010
-372.815	-200.000	0.004	0.146
-371.800	320.990	0.092	0.175
-370.785	308.214	-0.195	0.362
-369.771	-200.000	0.040	0.219
-368.756	-75.681	0.145	0.051
-367.742	800.000	-0.088	0.261
-366.727	-89.874	0.093	-0.027
-365.712	-124.472	-0.208	0.032
-364.698	54.098	-0.056	-0.053
-363.683	34.179	-0.227	-0.196
-362.669	-147.927	0.325	0.027
-361.654	-54.299	-0.272	0.123
-360.639	312.143	0.105	0.196
-359.625	183.781	-0.312	0.459
-358.610	-124.336	0.530	-0.082
-357.596	-18.416	0.240	-0.149
-356.581	612.858	-0.162	0.404
-355.566	-6.297	0.109	-0.074
-354.552	-200.000	0.088	-0.463
-353.537	358.963	0.080	0.159
-352.523	-45.168	0.035	0.017
-351.508	139.167	-0.121	0.158
-350.493	292.284	-0.024	-0.044
-349.479	-164.996	-0.169	-0.007
-348.464	800.000	0.105	-0.299
-347.450	160.545	-0.092	-0.127
-346.435	-73.065	0.042	-0.015
-345.420	-200.000	0.001	-0.294
-344.406	-54.685	-0.172	0.077
-343.391	104.945	-0.257	0.301
-342.377	-58.378	-0.247	-0.107
-341.362	-200.000	0.084	0.376
-340.348	-200.000	-0.010	0.130
-339.333	328.245	-0.078	0.149
-338.318	-102.479	0.182	0.043
-337.304	-175.853	0.249	-0.007
-336.289	67.775	-0.328	0.332
-335.275	-200.000	0.005	0.109
-334.260	41.146	0.170	0.152
-333.245	-109.568	0.112	-0.023
-332.231	17.623	-0.247	0.195
-331.216	130.946	0.252	-0.321
-330.202	129.416	0.040	0.051
-329.187	101.923	-0.134	0.155
-328.172	-46.299	-0.108	0.053
-327.158	-108.497	0.344	-0.073
-326.143	257.070	0.082	0.140
-325.129	-143.832	-0.203	-0.019
-324.114	-43.014	0.227	-0.114
-323.099	18.610	0.279	-0.222
-322.085	-43.933	0.065	0.033
-321.070	-173.941	0.104	-0.003
-320.056	-63.907	-0.298	0.121
-319.041	-53.762	0.180	-0.081
-318.026	-200.000	-0.030	0.408
-317.012	-107.691	-0.338	0.073
-315.997	-88.615	0.044	-0.013
-314.983	-67.451	-0.158	-0.062
-313.968	89.018	0.238	-0.263
-312.953	80.220	0.052	0.056
-311.939	299.141	-0.173	0.315
-310.924	-100.797	0.076	-0.018
-309.910	-115.195	0.380	0.071
-308.895	-43.169	-0.131	-0.066
-307.880	-28.564	0.228	-0.130
-306.866	-200.000	-0.020	-0.164
-305.851	-159.739	0.139	0.008
-304.837	-175.320	-0.221	0.006
-303.822	240.620	-0.069	0.115
-302.807	-83.540	0.474	-0.150
-301.793	5.548	-0.024	0.018
-300.778	-200.000	0.039	-0.402
-299.764	-200.000	-0.034	-0.242
-298.749	-200.000	0.011	0.055
-297.735	84.098	0.229	0.248
-296.720	-14.689	0.040	0.025
-295.705	614.724	-0.040	-0.100
-294.691	2.455	-0.127	0.091
-293.676	-200.000	0.072	-0.332
-292.662	800.000	0.134	0.381
-291.647	-163.482	-0.402	-0.019
-290.632	189.701	0.130	-0.192
-289.618	-16.201	-0.276	-0.174
-288.603	800.000	-0.047	-0.144
-287.589	-179.567	0.249	0.005
-286.574	-200.000	0.016	0.081
-285.559	111.566	0.101	0.121
-284.545	63.233	0.230	0.229
-283.530	-200.000	-0.017	-0.249
-282.516	85.208	0.102	-0.111
-281.501	327.115	0.043	-0.082
-280.486	-200.000	0.008	-0.217
-279.472	120.179	-0.115	0.141
-278.457	-200.000	0.061	0.278
-277.443	95.643	-0.183	0.206
-276.428	-200.000	0.014	-0.180
-275.413	-8.934	0.006	0.004
-274.399	-88.316	0.480	-0.142
-273.384	-31.681	0.226	0.126
-272.370	-99.238	0.375	-0.094
-271.355	-161.102	-0.413	0.021
-270.340	56.492	0.216	-0.208
-269.326	-117.732	0.338	0.060
-268.311	-200.000	0.006	0.363
-267.297	73.059	-0.014	-0.015
-266.282	-192.258	-0.229	0.002
-265.267	-125.855	0.169	0.025
-264.253	-200.000	0.049	0.245
-263.238	-200.000	0.032	0.178
-262.224	726.089	-0.120	-0.317
-261.209	800.000	0.073	-0.272
-260.195	-23.014	0.203	0.121
-259.180	-200.000	-0.000	0.348
-258.165	-49.423	0.260	-0.123
-257.151	-156.352	-0.106	0.007
-256.136	30.382	-0.107	0.090
-255.122	73.873	0.216	0.224
-254.107	800.000	-0.070	0.245
-253.092	-200.000	0.000	0.285
-252.078	-200.000	0.036	-0.159
-251.063	95.929	-0.164	-0.185
-250.049	-52.255	-0.423	0.194
-249.034	800.000	-0.093	0.278
-248.019	-185.763	-0.515	-0.008
-247.005	-139.917	0.307	-0.032
-245.990	139.413	-0.143	0.186
-244.976	-49.831	0.155	-0.073
-243.961	-83.060	0.268	-0.085
-242.946	-24.609	-0.163	-0.096
-241.932	-200.000	0.037	-0.332
-240.917	185.126	0.139	-0.204
-239.903	-120.829	-0.161	0.027
-238.888	800.000	0.128	-0.440
-237.873	-88.732	0.272	-0.080
-236.859	222.655	0.140	-0.223
-235.844	372.856	0.108	0.216
-234.830	-200.000	-0.008	0.321
-233.815	-71.333	0.075	0.028
-232.800	-10.229	0.235	0.154
-231.786	800.000	0.009	0.033
-230.771	-99.125	0.035	-0.009
-229.757	560.528	0.121	0.290
-228.742	31.609	0.161	0.137
-227.727	5.936	0.143	-0.105
-226.713	20.674	-0.284	-0.227
-225.698	21.861	0.296	0.238
-224.684	-12.627	0.081	-0.052
-223.669	-21.293	0.115	0.069
-222.655	-198.985	-0.201	0.001
-221.640	-200.000	-0.001	0.196
-220.625	800.000	0.172	-0.533
-219.611	-91.718	-0.187	0.053
-218.596	212.568	-0.058	0.090
-217.582	7.062	0.144	-0.106
-216.567	-74.849	0.209	0.074
-215.552	-200.000	0.007	0.253
-214.538	241.376	0.074	-0.122
-213.523	470.477	-0.044	0.097
-212.509	800.000	-0.070	-0.257
-211.494	-22.833	-0.061	-0.036
-210.479	250.780	-0.018	-0.031
-209.465	218.045	0.128	-0.201
-208.450	-8.649	0.252	0.167
-207.436	-167.792	-0.090	0.003
-206.421	800.000	-0.128	-0.454
-205.406	-200.000	-0.031	-0.174
-204.392	-2.749	-0.184	-0.127
-203.377	322.783	-0.133	0.251
-202.363	-36.466	0.222	-0.118
-201.348	-15.442	-0.116	0.073
-200.333	-33.647	-0.285	0.155
-199.319	-124.440	0.396	0.061
-198.304	-44.120	0.199	0.099
-197.290	57.406	-0.077	-0.074
-196.275	-83.462	0.053	-0.017
-195.260	213.798	0.172	0.268
-194.246	29.151	-0.037	-0.031
-193.231	70.155	0.152	-0.155
-192.217	800.000	0.046	0.163
-191.202	-200.000	0.010	-0.185
-190.187	-200.000	-0.006	-0.065
-189.173	-104.655	-0.319	-0.073
-188.158	-200.000	0.026	-0.238
-187.144	508.282	0.038	0.087
-186.129	-50.202	0.048	-0.022
-185.114	-200.000	-0.082	-0.361
-184.100	-135.381	-0.117	0.014
-183.085	237.291	-0.099	-0.162
-182.071	252.805	-0.270	0.454
-181.056	221.605	0.040	-0.064
-180.042	13.274	-0.193	-0.147
-179.027	800.000	-0.089	-0.314
-178.012	-200.000	-0.089	-0.554
-176.998	800.000	0.123	0.365
-175.983	-7.314	-0.160	0.107
-174.969	-113.168	-0.426	0.083
-173.954	-109.649	-0.219	-0.045
-172.939	-62.220	0.397	0.163
-171.925	-58.139	-0.295	0.127
-170.910	-200.000	-0.029	0.302
-169.896	150.838	-0.172	-0.231
-168.881	-24.681	0.160	-0.094
-167.866	-200.000	0.054	0.422
-166.852	-88.970	0.325	-0.095
-165.837	63.018	-0.232	0.229
-164.823	88.798	0.170	0.186
-163.808	238.156	-0.144	-0.236
-162.793	-200.000	0.083	0.448
-161.779	37.349	-0.135	0.118
-160.764	152.527	0.193	0.259
-159.750	-151.252	-0.023	0.002
-158.735	7.798	0.199	0.147
-157.720	-200.000	-0.004	-0.127
-156.706	-104.295	-0.059	0.013
-155.691	19.187	0.279	0.221
-154.677	573.480	-0.209	-0.503
-153.662	54.330	0.046	-0.044
-152.647	-38.341	-0.334	-0.174
-151.633	-107.885	-0.208	0.045
-150.618	-74.712	-0.174	-0.062
-149.604	-42.365	0.290	0.146
-148.589	800.000	-0.115	0.401
-147.574	800.000	0.085	0.319
-146.560	-200.000	-0.001	-0.147
-145.545	200.821	0.189	-0.286
-144.531	-159.198	-0.108	0.006
-143.516	-53.389	0.082	0.037
-142.502	235.494	0.017	0.028
-141.487	-13.749	-0.229	0.146
-140.472	-84.336	0.370	-0.115
-139.458	-133.088	0.148	0.018
-138.443	-200.000	-0.270	0.000
-137.429	-155.400	0.245	0.016
-136.414	-200.000	0.049	0.219
-135.399	510.485	-0.047	0.107
-134.385	-155.755	-0.236	-0.015
-133.370	-28.022	0.249	-0.142
-132.356	-154.414	-0.277	-0.018
-131.341	14.288	-0.238	-0.182
-130.326	-159.107	-0.089	0.005
-129.312	47.334	0.169	0.155
-128.297	-51.199	0.072	-0.033
-127.283	-119.200	0.264	-0.045
-126.268	61.820	-0.035	-0.035
-125.253	136.825	0.216	-0.278
-124.239	-125.578	0.211	-0.031
-123.224	-144.437	-0.225	-0.021
-122.210	800.000	-0.039	-0.151
-121.195	800.000	0.031	-0.094
