DTS Sentinel unit serial number:	SN413079Multiplexer serial number:	ORYXHardware model number:	OX4-SRSoftware version number:	ORYX F/W v4.00 Oryx Data Collector v3.7.2.0data status	okinstallation	princeton_trtdifferential loss correction	single-endedforward channel	channel 4reverse channel	N/Adate	2019/09/16time	07:57:34forward acquisition time	60.00reverse acquisition time	0.00gamma	496.2192k internal	0.2315k external	0.2315temperature offset calibration	0.9978default loss term (dB/km)	0.3790temperature slope calibration	1.0000multiplexer offset coefficient	1.0000multiplexer slope coefficient	1.0000fibre end	0.00T internal ref (°C)	28.37T ext. ref 1 (°C)	11.75T ext. ref 2 (°C)	24.68length (m)	temperature (°C)	Stokes	anti-Stokes-747.200	186.410	0.058	0.087
-746.185	-95.603	-0.384	-0.104
-745.171	69.364	0.094	-0.098
-744.156	392.741	-0.264	0.556
-743.142	-70.649	0.144	0.055
-742.127	-45.967	-0.216	0.108
-741.112	-76.668	0.159	-0.057
-740.098	-200.000	0.003	0.059
-739.083	800.000	0.037	0.126
-738.069	-200.000	-0.081	0.451
-737.054	-64.127	0.229	-0.095
-736.039	-200.000	-0.034	0.197
-735.025	-124.406	0.395	0.062
-734.010	338.760	-0.168	-0.331
-732.996	75.578	-0.162	0.173
-731.981	63.609	-0.293	0.298
-730.966	416.853	0.063	0.136
-729.952	71.322	0.196	-0.206
-728.937	-71.090	-0.306	-0.117
-727.923	800.000	0.081	-0.319
-726.908	-200.000	0.001	-0.213
-725.894	120.652	-0.130	-0.163
-724.879	-93.536	-0.084	-0.024
-723.864	-200.000	-0.044	0.352
-722.850	-85.108	0.212	0.067
-721.835	425.155	0.169	-0.368
-720.821	-35.019	0.056	0.031
-719.806	-200.000	0.048	-0.274
-718.791	-63.962	-0.130	-0.054
-717.777	-30.655	-0.102	-0.059
-716.762	-89.141	-0.045	0.014
-715.748	-78.788	-0.273	-0.094
-714.733	800.000	0.097	-0.320
-713.718	-28.187	-0.055	-0.032
-712.704	-200.000	-0.040	0.209
-711.689	-200.000	-0.011	0.154
-710.675	-80.052	0.044	-0.015
-709.660	-29.094	0.324	0.188
-708.645	-62.410	-0.115	-0.049
-707.631	-103.959	-0.174	-0.041
-706.616	-35.313	0.109	0.060
-705.602	332.371	-0.087	-0.170
-704.587	-102.820	-0.068	-0.016
-703.572	-200.000	0.030	0.182
-702.558	-101.365	0.089	0.022
-701.543	-82.599	-0.124	0.041
-700.529	-4.705	-0.286	-0.200
-699.514	372.295	-0.120	0.246
-698.499	462.144	-0.098	0.221
-697.485	33.513	0.216	-0.190
-696.470	-200.000	-0.022	0.226
-695.456	86.098	0.136	-0.151
-694.441	504.620	0.051	0.119
-693.426	439.337	0.033	0.073
-692.412	-47.708	-0.160	0.079
-691.397	-133.153	0.334	-0.043
-690.383	321.805	0.088	-0.170
-689.368	244.690	-0.111	-0.189
-688.354	-140.267	-0.193	-0.020
-687.339	-200.000	-0.051	0.488
-686.324	-130.368	-0.187	0.026
-685.310	-135.906	-0.096	0.011
-684.295	-99.391	0.165	0.042
-683.281	119.432	-0.110	0.138
-682.266	800.000	0.054	0.176
-681.251	800.000	-0.063	0.214
-680.237	-200.000	0.094	0.546
-679.222	-200.000	-0.009	0.087
-678.208	-200.000	-0.025	-0.162
-677.193	-27.787	0.288	-0.169
-676.178	496.728	-0.085	-0.197
-675.164	-127.906	-0.056	0.008
-674.149	288.404	-0.014	-0.026
-673.135	55.113	0.011	0.011
-672.120	-200.000	0.204	-0.001
-671.105	-18.855	0.273	0.172
-670.091	-103.397	-0.210	-0.050
-669.076	-119.529	0.190	-0.033
-668.062	114.816	-0.303	0.373
-667.047	30.589	-0.156	-0.135
-666.032	-31.582	0.197	-0.112
-665.018	25.322	-0.057	0.048
-664.003	133.395	0.106	-0.138
-662.989	775.421	0.107	-0.294
-661.974	199.845	-0.126	-0.195
-660.959	-48.711	0.053	0.026
-659.945	-109.824	-0.102	0.022
-658.930	159.350	-0.215	-0.302
-657.916	405.434	0.091	-0.194
-656.901	-19.851	0.195	0.122
-655.886	612.206	-0.060	0.152
-654.872	-200.000	0.064	-0.309
-653.857	0.016	-0.187	-0.134
-652.843	800.000	0.062	-0.259
-651.828	575.068	0.106	-0.261
-650.814	297.678	-0.042	-0.078
-649.799	247.928	0.097	0.166
-648.784	-142.528	0.310	0.031
-647.770	273.583	-0.031	0.055
-646.755	714.059	-0.076	0.203
-645.741	-80.196	0.200	-0.068
-644.726	103.228	-0.198	0.235
-643.711	66.648	0.057	-0.058
-642.697	580.013	0.099	-0.244
-641.682	8.108	0.025	0.019
-640.668	-200.000	0.016	-0.333
-639.653	-200.000	0.046	-0.339
-638.638	-10.918	-0.275	-0.183
-637.624	-200.000	0.024	0.110
-636.609	-200.000	0.016	-0.118
-635.595	-135.022	0.350	-0.043
-634.580	800.000	0.030	-0.105
-633.565	-128.403	-0.150	0.022
-632.551	-200.000	0.032	0.309
-631.536	111.052	0.175	0.212
-630.522	-163.759	0.044	0.002
-629.507	-200.000	-0.012	-0.387
-628.492	68.610	-0.264	-0.274
-627.478	264.084	0.065	-0.115
-626.463	287.009	-0.048	0.088
-625.449	-104.839	0.172	-0.040
-624.434	-118.477	-0.368	-0.066
-623.419	-200.000	0.051	-0.258
-622.405	800.000	-0.027	0.090
-621.390	31.590	-0.269	-0.233
-620.376	116.794	0.134	-0.165
-619.361	152.711	0.116	-0.160
-618.346	-103.944	0.243	0.057
-617.332	609.418	0.076	-0.190
-616.317	-65.306	-0.053	0.021
-615.303	45.275	0.265	-0.247
-614.288	-200.000	-0.020	-0.219
-613.273	24.730	0.295	0.246
-612.259	93.971	-0.025	-0.028
-611.244	-83.863	0.167	-0.054
-610.230	66.684	-0.057	-0.058
-609.215	-95.593	-0.369	-0.100
-608.201	538.368	0.071	0.171
-607.186	-200.000	-0.074	-0.497
-606.171	-73.768	-0.331	-0.121
-605.157	83.939	-0.143	0.158
-604.142	-200.000	-0.049	-0.361
-603.128	572.664	-0.117	0.286
-602.113	-104.319	0.166	-0.039
-601.098	134.423	0.005	-0.007
-600.084	344.783	0.098	-0.194
-599.069	94.399	0.250	-0.286
-598.055	-136.334	-0.149	-0.017
-597.040	18.485	-0.148	0.119
-596.025	149.652	0.106	0.145
-595.011	-200.000	0.035	-0.206
-593.996	-200.000	-0.026	-0.187
-592.982	-22.109	-0.139	0.085
-591.967	139.880	-0.084	0.111
-590.952	65.008	0.102	0.104
-589.938	800.000	-0.055	-0.159
-588.923	-77.776	0.166	-0.058
-587.909	-200.000	-0.037	0.340
-586.894	-105.863	0.429	-0.097
-585.879	-200.000	0.013	0.056
-584.865	193.384	0.190	-0.289
-583.850	308.133	0.129	-0.243
-582.836	-101.510	-0.241	-0.059
-581.821	800.000	-0.042	-0.176
-580.806	-97.141	0.034	-0.009
-579.792	-64.184	0.215	-0.088
-578.777	-200.000	-0.038	0.593
-577.763	-200.000	-0.015	0.212
-576.748	22.690	0.230	0.190
-575.733	189.521	0.063	0.095
-574.719	-200.000	-0.026	-0.175
-573.704	-105.276	-0.113	0.026
-572.690	800.000	0.120	0.393
-571.675	800.000	-0.124	0.401
-570.661	-114.690	0.338	0.065
-569.646	144.669	-0.034	0.046
-568.631	-56.115	0.150	0.067
-567.617	136.958	-0.197	0.259
-566.602	-72.349	-0.442	-0.165
-565.588	82.706	-0.090	-0.099
-564.573	-126.534	-0.203	-0.030
-563.558	-200.000	-0.010	0.524
-562.544	-200.000	-0.014	-0.333
-561.529	98.860	-0.340	-0.395
-560.515	180.748	-0.155	0.229
-559.500	160.057	-0.102	0.143
-558.485	800.000	-0.095	-0.320
-557.471	800.000	-0.037	-0.158
-556.456	148.347	-0.056	0.076
-555.442	-24.564	-0.267	0.160
-554.427	-40.675	0.171	0.089
-553.412	179.703	0.120	-0.177
-552.398	-149.514	0.200	0.016
-551.383	-134.830	-0.168	-0.020
-550.369	103.576	-0.185	-0.218
-549.354	-179.433	-0.403	0.009
-548.339	-200.000	0.014	-0.186
-547.325	-70.149	-0.192	0.073
-546.310	518.606	-0.125	-0.295
-545.296	-29.021	0.247	0.142
-544.281	341.513	-0.062	0.122
-543.266	118.609	0.137	-0.170
-542.252	115.963	0.210	-0.258
-541.237	-200.000	-0.013	0.139
-540.223	-51.716	0.261	-0.122
-539.208	-3.017	0.113	0.079
-538.193	-47.906	-0.246	0.120
-537.179	-134.812	-0.275	-0.033
-536.164	-200.000	-0.048	0.285
-535.150	-200.000	0.086	-0.378
-534.135	-70.455	-0.230	-0.088
-533.121	259.222	0.114	-0.198
-532.106	300.981	-0.067	0.125
-531.091	149.143	0.142	-0.193
-530.077	199.377	0.039	0.060
-529.062	-27.418	-0.095	-0.055
-528.048	323.440	-0.097	0.185
-527.033	-182.651	0.236	0.004
-526.018	146.264	0.166	0.223
-525.004	214.385	-0.097	-0.154
-523.989	-11.519	-0.074	-0.049
-522.975	66.749	0.295	0.302
-521.960	79.016	-0.091	-0.097
-520.945	-200.000	-0.004	0.121
-519.931	201.531	0.034	-0.053
-518.916	349.674	0.125	0.247
-517.902	-200.000	-0.001	-0.077
-516.887	-200.000	-0.007	0.092
-515.872	188.915	0.074	0.112
-514.858	-200.000	0.034	-0.163
-513.843	-191.317	-0.382	0.004
-512.829	-200.000	0.003	0.385
-511.814	146.989	-0.145	0.196
-510.799	-12.841	0.394	-0.257
-509.785	-134.296	0.062	-0.008
-508.770	-200.000	-0.006	0.089
-507.756	190.313	-0.174	0.262
-506.741	-200.000	-0.069	-0.324
-505.726	800.000	-0.010	-0.037
-504.712	-19.575	0.480	0.298
-503.697	-200.000	0.002	0.051
-502.683	595.498	0.095	-0.235
-501.668	55.652	-0.112	-0.109
-500.653	-107.719	-0.259	0.057
-499.639	-70.260	0.188	0.072
-498.624	-149.759	0.141	0.011
-497.610	-49.846	-0.163	0.078
-496.595	74.638	-0.213	-0.225
-495.581	-200.000	-0.064	0.595
-494.566	12.329	-0.166	-0.128
-493.551	-90.353	0.208	-0.061
-492.537	94.314	0.170	-0.194
-491.522	-164.983	-0.307	-0.014
-490.508	180.348	0.064	0.094
-489.493	218.234	-0.125	-0.200
-488.478	-200.000	0.021	-0.382
-487.464	-40.292	0.273	0.143
-486.449	-64.992	0.296	0.120
-485.435	-93.680	0.148	0.041
-484.420	-45.678	-0.156	-0.078
-483.405	-106.209	-0.127	-0.029
-482.391	115.623	-0.351	0.430
-481.376	800.000	0.093	-0.361
-480.362	-182.254	-0.150	-0.003
-479.347	-95.284	0.155	-0.042
-478.332	794.026	0.166	0.459
-477.318	-80.679	-0.147	0.049
-476.303	-200.000	0.007	0.344
-475.289	105.273	-0.048	-0.056
-474.274	-200.000	-0.006	0.053
-473.259	-22.080	-0.247	0.150
-472.245	-200.000	-0.025	-0.137
-471.230	14.437	-0.176	0.137
-470.216	-13.903	0.092	0.060
-469.201	800.000	-0.084	-0.248
-468.186	800.000	-0.049	-0.166
-467.172	-200.000	0.072	-0.339
-466.157	108.043	0.122	-0.146
-465.143	-200.000	-0.050	0.295
-464.128	10.712	0.179	-0.137
-463.113	-200.000	0.029	0.384
-462.099	11.643	-0.250	0.192
-461.084	15.030	-0.105	-0.082
-460.070	-82.405	-0.252	-0.082
-459.055	71.492	0.235	0.244
-458.040	648.889	-0.094	0.240
-457.026	-200.000	0.005	0.092
-456.011	-28.131	0.080	-0.047
-454.997	-36.183	-0.135	0.073
-453.982	-95.795	0.451	0.121
-452.968	66.843	0.059	0.060
-451.953	15.366	0.299	-0.235
-450.938	22.927	-0.137	-0.112
-449.924	-200.000	-0.019	0.108
-448.909	-31.706	0.226	-0.127
-447.895	-200.000	-0.010	-0.160
-446.880	-200.000	-0.006	0.124
-445.865	-75.104	-0.161	0.058
-444.851	800.000	-0.032	-0.115
-443.836	65.835	-0.077	-0.078
-442.822	311.417	-0.008	-0.015
-441.807	-103.060	0.120	-0.028
-440.792	-185.829	0.066	-0.001
-439.778	298.154	-0.110	-0.202
-438.763	144.743	0.184	0.246
-437.749	30.149	0.165	0.141
-436.734	35.825	-0.257	-0.227
-435.719	342.865	0.092	-0.180
-434.705	-43.796	-0.087	-0.044
-433.690	-200.000	0.011	-0.139
-432.676	-57.437	0.193	0.085
-431.661	52.607	0.162	-0.155
-430.646	333.194	0.033	0.064
-429.632	-71.494	0.162	-0.061
-428.617	220.660	-0.044	-0.071
-427.603	1.500	0.193	0.139
-426.588	84.465	0.100	0.109
-425.573	-200.000	-0.002	0.255
-424.559	-97.037	-0.211	-0.055
-423.544	-148.603	0.180	0.015
-422.530	-200.000	-0.002	-0.338
-421.515	4.913	0.111	-0.081
-420.500	42.493	-0.076	0.069
-419.486	-200.000	-0.009	0.252
-418.471	-200.000	-0.011	0.054
-417.457	-42.791	0.213	0.108
-416.442	265.091	-0.128	-0.224
-415.428	-200.000	0.039	-0.288
-414.413	-140.593	0.242	0.025
-413.398	585.248	-0.010	0.024
-412.384	330.372	-0.125	-0.240
-411.369	800.000	0.145	-0.479
-410.355	32.165	0.135	0.116
-409.340	140.851	0.253	0.335
-408.325	800.000	0.072	-0.262
-407.311	-200.000	0.003	-0.131
-406.296	-200.000	0.003	-0.186
-405.282	-38.838	0.112	-0.059
-404.267	342.930	0.054	-0.105
-403.252	301.307	-0.080	-0.147
-402.238	273.151	0.271	-0.478
-401.223	49.823	0.162	-0.153
-400.209	164.518	0.107	0.151
-399.194	-158.617	-0.237	0.014
-398.179	124.971	0.143	0.181
-397.165	-86.388	-0.113	0.035
-396.150	-200.000	-0.026	0.189
-395.136	-70.826	-0.249	-0.094
-394.121	188.697	-0.047	0.070
-393.106	-138.494	0.120	0.013
-392.092	74.213	0.247	-0.259
-391.077	-200.000	0.070	-0.320
-390.063	-60.459	-0.094	-0.040
-389.048	-200.000	-0.021	-0.134
-388.033	-28.325	0.129	0.074
-387.019	-43.595	0.274	-0.138
-386.004	266.448	0.116	0.202
-384.990	-84.168	0.266	0.084
-383.975	-114.328	-0.366	-0.071
-382.960	-46.181	-0.074	-0.037
-381.946	800.000	0.014	0.050
-380.931	303.425	0.200	0.369
-379.917	-200.000	-0.039	-0.266
-378.902	-49.975	-0.361	-0.171
-377.888	-200.000	-0.036	0.420
-376.873	101.609	-0.056	-0.065
-375.858	430.412	-0.030	-0.065
-374.844	-200.000	-0.022	0.231
-373.829	-200.000	0.023	0.245
-372.815	189.182	-0.146	0.219
-371.800	166.451	-0.083	0.117
-370.785	-77.712	-0.292	0.101
-369.771	-177.930	0.313	0.007
-368.756	-45.908	-0.060	0.030
-367.742	-200.000	0.012	-0.109
-366.727	41.919	-0.109	-0.098
-365.712	800.000	-0.023	0.069
-364.698	-20.583	-0.050	-0.030
-363.683	36.728	0.274	0.241
-362.669	800.000	0.095	-0.365
-361.654	22.168	0.110	-0.090
-360.639	10.028	-0.231	0.175
-359.625	-168.664	-0.143	-0.005
-358.610	-115.149	-0.125	0.024
-357.596	-128.661	-0.024	-0.003
-356.581	-200.000	-0.016	0.257
-355.566	-200.000	0.019	0.163
-354.552	497.966	0.068	0.157
-353.537	-200.000	-0.042	0.255
-352.523	800.000	0.039	-0.135
-351.508	-200.000	0.045	0.210
-350.493	168.414	-0.156	-0.222
-349.479	10.900	-0.244	0.186
-348.464	733.638	0.074	0.196
-347.450	175.901	-0.149	0.215
-346.435	800.000	0.047	-0.191
-345.420	-82.462	-0.170	0.055
-344.406	-200.000	0.051	0.343
-343.391	800.000	-0.029	-0.119
-342.377	800.000	0.082	0.329
-341.362	-25.228	-0.140	0.083
-340.348	399.393	-0.035	0.072
-339.333	-200.000	0.024	-0.169
-338.318	-105.719	-0.141	0.032
-337.304	-43.941	0.275	0.138
-336.289	-200.000	0.036	-0.172
-335.275	105.896	-0.242	-0.285
-334.260	16.106	-0.100	0.079
-333.245	-163.185	-0.432	-0.021
-332.231	179.409	0.257	0.376
-331.216	-200.000	0.011	0.373
-330.202	400.775	0.170	0.356
-329.187	-63.559	-0.306	-0.125
-328.172	86.153	0.131	0.144
-327.158	498.423	0.187	0.430
-326.143	-78.547	-0.209	-0.071
-325.129	-60.722	0.308	0.130
-324.114	800.000	-0.049	-0.201
-323.099	7.706	0.126	0.094
-322.085	-200.000	0.023	-0.249
-321.070	68.011	-0.250	-0.254
-320.056	411.087	0.085	0.179
-319.041	-113.301	0.090	0.018
-318.026	-180.184	-0.176	-0.004
-317.012	-63.186	0.364	-0.150
-315.997	-32.154	0.124	0.069
-314.983	190.956	-0.072	-0.108
-313.968	40.505	0.219	-0.197
-312.953	266.578	-0.116	0.203
-311.939	-200.000	-0.018	-0.108
-310.924	-152.579	0.178	-0.013
-309.910	-15.733	-0.340	0.216
-308.895	-71.245	0.048	-0.018
-307.880	15.931	0.036	-0.028
-306.866	-200.000	-0.052	0.231
-305.851	-200.000	-0.009	-0.284
-304.837	-79.358	0.097	-0.033
-303.822	-75.837	0.197	-0.069
-302.807	110.820	0.123	0.147
-301.793	-200.000	-0.040	-0.200
-300.778	-16.835	0.180	-0.113
-299.764	273.210	-0.066	0.116
-298.749	-200.000	-0.025	0.166
-297.735	10.228	0.305	-0.231
-296.720	262.732	0.132	0.228
-295.705	-81.578	-0.108	-0.035
-294.691	-200.000	-0.001	-0.046
-293.676	-103.362	0.385	0.090
-292.662	800.000	-0.015	0.051
-291.647	-200.000	0.011	-0.260
-290.632	-89.884	-0.207	-0.060
-289.618	-12.577	-0.122	-0.079
-288.603	800.000	0.077	0.274
-287.589	374.646	0.084	0.170
-286.574	-200.000	-0.003	0.043
-285.559	151.112	-0.165	0.224
-284.545	-20.838	-0.368	0.224
-283.530	-182.503	-0.396	-0.007
-282.516	-1.055	0.311	-0.219
-281.501	-121.326	-0.159	0.026
-280.486	-200.000	0.038	0.209
-279.472	-80.654	0.134	-0.044
-278.457	53.111	-0.115	-0.110
-277.443	95.597	-0.285	-0.324
-276.428	-85.705	-0.283	0.087
-275.413	663.111	-0.107	0.274
-274.399	800.000	0.104	-0.305
-273.384	-156.677	-0.084	-0.005
-272.370	-14.249	-0.277	-0.177
-271.355	-48.534	-0.160	-0.076
-270.340	-200.000	0.031	0.305
-269.326	-81.811	0.034	-0.011
-268.311	240.541	-0.084	-0.139
-267.297	81.225	0.126	0.136
-266.282	39.835	0.175	0.157
-265.267	-200.000	0.036	-0.311
-264.253	-48.457	0.157	-0.075
-263.238	105.566	-0.326	-0.383
-262.224	-200.000	-0.038	-0.249
-261.209	-200.000	0.031	0.388
-260.195	172.599	0.210	-0.300
-259.180	497.303	-0.071	-0.164
-258.165	75.237	0.280	-0.293
-257.151	-30.214	-0.121	-0.068
-256.136	75.881	-0.279	0.293
-255.122	35.586	-0.179	-0.156
-254.107	800.000	0.078	-0.279
-253.092	-125.385	0.017	0.003
-252.078	249.651	-0.111	0.187
-251.063	-101.395	0.264	0.064
-250.049	37.695	-0.267	0.236
-249.034	-200.000	0.036	0.158
-248.019	-36.162	-0.063	0.034
-247.005	-200.000	0.015	0.112
-245.990	-144.194	0.151	0.014
-244.976	-200.000	0.027	0.264
-243.961	300.092	-0.150	-0.275
-242.946	-200.000	-0.027	0.244
-241.932	-86.664	-0.169	0.051
-240.917	-84.578	-0.043	-0.013
-239.903	47.531	0.207	-0.191
-238.888	800.000	0.087	0.262
-237.873	561.635	0.095	0.228
-236.859	215.253	-0.047	0.074
-235.844	-144.496	-0.415	-0.038
-234.830	800.000	-0.074	-0.232
-233.815	62.109	-0.123	-0.122
-232.800	470.017	0.133	0.297
-231.786	64.153	-0.203	-0.203
-230.771	-62.932	-0.221	-0.091
-229.757	-42.001	0.060	-0.030
-228.742	-21.389	-0.102	0.062
-227.727	800.000	0.057	-0.201
-226.713	800.000	0.056	0.161
-225.698	-200.000	0.097	-0.490
-224.684	-200.000	-0.022	0.240
-223.669	800.000	-0.020	-0.066
-222.655	-80.045	0.242	0.081
-221.640	-200.000	-0.001	0.036
-220.625	-28.743	-0.129	-0.074
-219.611	-119.803	0.461	-0.079
-218.596	19.096	-0.161	0.128
-217.582	-123.948	0.159	-0.025
-216.567	-69.701	0.293	-0.111
-215.552	168.192	0.104	0.147
-214.538	-104.951	0.121	0.028
-213.523	5.950	0.097	0.072
-212.509	448.665	0.181	-0.397
-211.494	-151.204	-0.178	0.013
-210.479	-27.599	-0.126	-0.073
-209.465	39.669	-0.141	-0.126
-208.450	468.183	-0.129	-0.287
-207.436	800.000	-0.032	-0.094
-206.421	-95.028	0.157	-0.042
-205.406	-200.000	-0.040	0.631
-204.392	800.000	-0.071	-0.197
-203.377	-161.678	-0.414	-0.021
-202.363	2.857	0.141	-0.101
-201.348	-200.000	-0.013	0.138
-200.333	616.089	0.068	-0.169
-199.319	421.327	-0.140	0.299
-198.304	3.417	-0.195	-0.141
-197.290	-114.001	0.152	0.029
-196.275	800.000	-0.029	0.122
-195.260	800.000	0.097	-0.320
-194.246	-86.487	-0.439	0.134
-193.231	-75.717	-0.161	0.057
-192.217	487.899	-0.037	-0.084
-191.202	800.000	-0.091	-0.272
-190.187	-154.627	0.126	0.008
-189.173	-53.646	0.302	-0.137
-188.158	57.228	0.190	0.183
-187.144	-166.738	-0.038	-0.002
-186.129	-140.933	0.300	0.031
-185.114	800.000	0.005	0.018
-184.100	-32.385	-0.236	0.131
-183.085	420.366	0.146	0.310
-182.071	-55.157	-0.357	0.159
-181.056	75.752	0.123	-0.128
-180.042	-19.717	0.131	-0.080
-179.027	-34.648	0.164	0.089
-178.012	-72.094	-0.107	0.039
-176.998	-9.308	-0.086	0.057
-175.983	-200.000	0.012	0.247
-174.969	-89.303	0.356	-0.104
-173.954	51.455	0.174	0.164
-172.939	278.129	0.178	0.314
-171.925	386.920	0.181	0.370
-170.910	-200.000	0.044	0.255
-169.896	-158.145	-0.159	0.009
-168.881	-200.000	-0.022	-0.122
-167.866	45.289	0.130	-0.119
-166.852	-158.283	-0.409	0.024
-165.837	-51.344	0.103	-0.048
-164.823	-121.804	-0.421	-0.069
-163.808	-181.206	-0.295	0.006
-162.793	158.581	-0.234	-0.321
-161.779	800.000	-0.022	-0.077
-160.764	91.756	0.105	0.117
-159.750	30.492	0.138	-0.117
-158.735	201.059	0.051	0.078
-157.720	21.498	0.224	0.180
-156.706	110.602	-0.259	-0.308
-155.691	800.000	-0.058	0.207
-154.677	-175.161	0.051	0.001
-153.662	219.926	-0.084	-0.134
-152.647	-157.304	-0.200	-0.012
-151.633	-185.697	0.270	0.004
-150.618	-79.965	0.085	-0.028
-149.604	-46.186	-0.234	-0.114
-148.589	-74.001	0.205	-0.074
-147.574	136.726	-0.119	0.153
-146.560	137.768	0.172	0.223
-145.545	424.304	0.175	-0.372
-144.531	-7.750	0.236	-0.158
-143.516	800.000	0.118	0.328
-142.502	-44.791	-0.218	0.108
-141.487	-200.000	-0.025	-0.122
-140.472	52.878	-0.133	0.126
-139.458	22.287	-0.099	-0.080
-138.443	800.000	-0.091	0.363
-137.429	-200.000	-0.057	0.445
-136.414	800.000	-0.079	-0.278
-135.399	800.000	0.033	0.117
-134.385	-200.000	-0.029	0.225
-133.370	-38.842	-0.040	-0.021
-132.356	-56.031	-0.353	-0.156
-131.341	-122.884	0.084	-0.013
-130.326	-112.674	-0.384	0.076
-129.312	155.026	-0.198	-0.269
-128.297	512.904	-0.029	0.068
-127.283	800.000	-0.084	-0.293
-126.268	800.000	0.016	0.068
-125.253	193.272	0.137	0.205
-124.239	360.883	-0.136	-0.270
-123.224	800.000	-0.042	-0.125
