DTS Sentinel unit serial number:	SN413079Multiplexer serial number:	ORYXHardware model number:	OX4-SRSoftware version number:	ORYX F/W v4.00 Oryx Data Collector v3.7.2.0data status	okinstallation	princeton_trtdifferential loss correction	single-endedforward channel	channel 4reverse channel	N/Adate	2019/09/12time	12:51:11forward acquisition time	60.00reverse acquisition time	0.00gamma	496.2192k internal	0.2287k external	0.2287temperature offset calibration	1.0076default loss term (dB/km)	0.3790temperature slope calibration	1.0000multiplexer offset coefficient	1.0000multiplexer slope coefficient	1.0000fibre end	0.00T internal ref (°C)	40.69T ext. ref 1 (°C)	2.04T ext. ref 2 (°C)	37.27length (m)	temperature (°C)	Stokes	anti-Stokes-747.200	-200.000	-0.086	0.401
-746.185	-41.590	0.239	0.126
-745.171	55.900	0.262	0.260
-744.156	187.696	0.160	0.246
-743.142	-200.000	0.025	-0.216
-742.127	-153.309	-0.492	-0.035
-741.112	418.512	0.019	-0.043
-740.098	-109.547	-0.275	-0.060
-739.083	-200.000	-0.003	-0.144
-738.069	-79.080	0.165	-0.058
-737.054	462.004	-0.102	0.234
-736.039	800.000	-0.082	-0.293
-735.025	-1.281	0.008	-0.006
-734.010	-69.399	-0.294	-0.116
-732.996	23.725	0.132	0.112
-731.981	-94.900	-0.331	-0.092
-730.966	800.000	-0.081	0.303
-729.952	-57.052	-0.101	-0.046
-728.937	294.682	-0.112	0.210
-727.923	-111.539	-0.083	0.017
-726.908	-6.949	0.347	-0.242
-725.894	118.040	0.076	0.096
-724.879	-10.180	0.119	-0.081
-723.864	-135.990	-0.398	0.048
-722.850	-200.000	0.054	-0.307
-721.835	-91.954	-0.243	0.071
-720.821	-200.000	0.001	-0.004
-719.806	83.049	-0.112	0.125
-718.791	-91.825	-0.399	0.116
-717.777	200.519	-0.078	0.123
-716.762	744.256	-0.161	-0.444
-715.748	87.316	-0.015	0.017
-714.733	-1.082	-0.098	0.071
-713.718	-85.497	-0.176	0.056
-712.704	-136.422	0.298	0.036
-711.689	-76.121	-0.101	0.037
-710.675	-200.000	0.020	0.123
-709.660	-153.894	-0.284	-0.020
-708.645	-200.000	0.012	0.065
-707.631	394.342	-0.191	-0.408
-706.616	396.225	0.067	-0.143
-705.602	497.801	0.082	-0.194
-704.587	-200.000	0.057	0.302
-703.572	290.988	0.067	0.125
-702.558	-133.632	-0.245	0.031
-701.543	-20.809	0.131	-0.082
-700.529	99.272	-0.087	-0.103
-699.514	-64.705	-0.140	-0.058
-698.499	-86.574	-0.203	0.064
-697.485	800.000	-0.048	-0.158
-696.470	-200.000	0.026	0.209
-695.456	-200.000	-0.024	0.221
-694.441	-141.288	-0.361	-0.038
-693.426	800.000	-0.060	-0.245
-692.412	-200.000	0.035	0.190
-691.397	287.139	-0.192	0.356
-690.383	-84.726	-0.344	0.111
-689.368	-97.847	-0.323	0.086
-688.354	-5.614	-0.106	-0.074
-687.339	-118.811	-0.273	0.049
-686.324	96.973	0.137	0.161
-685.310	30.807	0.339	0.297
-684.295	-132.023	-0.416	0.055
-683.281	-117.289	0.155	0.029
-682.266	-135.996	-0.042	0.005
-681.251	-125.499	0.160	-0.025
-680.237	-200.000	0.040	0.355
-679.222	800.000	-0.070	-0.302
-678.208	-81.948	0.394	-0.132
-677.193	-146.799	-0.218	0.019
-676.178	-50.627	-0.042	0.020
-675.164	-24.713	0.087	0.053
-674.149	364.526	-0.152	0.314
-673.135	-200.000	-0.031	0.213
-672.120	375.783	-0.089	-0.186
-671.105	-47.918	-0.312	-0.155
-670.091	-90.902	-0.349	0.103
-669.076	-78.681	0.056	0.020
-668.062	-189.799	-0.130	-0.002
-667.047	114.605	-0.053	0.066
-666.032	-194.072	0.629	0.005
-665.018	113.718	-0.236	0.293
-664.003	-151.364	0.162	-0.012
-662.989	45.998	0.092	0.087
-661.974	-178.959	-0.329	-0.008
-660.959	-2.581	0.102	0.073
-659.945	91.162	0.208	0.239
-658.930	-200.000	0.022	0.148
-657.916	-200.000	-0.344	-0.001
-656.901	188.847	0.149	-0.229
-655.886	9.147	0.239	-0.184
-654.872	-200.000	0.013	-0.076
-653.857	-200.000	-0.057	0.318
-652.843	389.136	-0.089	0.189
-651.828	8.643	0.132	0.102
-650.814	-200.000	0.018	0.211
-649.799	-66.241	-0.172	-0.070
-648.784	800.000	-0.033	-0.131
-647.770	110.926	0.039	0.049
-646.755	-152.662	-0.282	0.021
-645.741	-54.297	-0.312	-0.145
-644.726	-98.241	-0.158	0.041
-643.711	408.223	-0.151	0.326
-642.697	-65.329	-0.186	-0.076
-641.682	208.268	0.123	-0.196
-640.668	174.988	0.100	-0.148
-639.653	87.233	-0.105	-0.118
-638.638	-96.663	-0.159	0.043
-637.624	-200.000	0.001	0.144
-636.609	-200.000	0.014	-0.229
-635.595	-200.000	0.045	-0.334
-634.580	702.539	-0.042	0.113
-633.565	-69.448	-0.452	0.177
-632.551	-125.519	0.123	0.019
-631.536	-41.637	0.159	0.083
-630.522	-97.819	-0.164	-0.043
-629.507	134.849	0.168	-0.222
-628.492	-4.015	-0.050	0.036
-627.478	9.967	-0.173	0.134
-626.463	-200.000	-0.011	0.281
-625.449	-66.251	-0.156	0.063
-624.434	-11.326	0.186	-0.125
-623.419	77.564	0.078	-0.085
-622.405	800.000	-0.068	0.229
-621.390	418.313	0.063	-0.137
-620.376	-162.247	-0.257	-0.013
-619.361	67.351	0.058	0.061
-618.346	-20.565	-0.075	-0.047
-617.332	582.863	-0.185	-0.462
-616.317	-200.000	-0.048	-0.269
-615.303	516.341	0.076	-0.182
-614.288	-10.122	-0.179	0.122
-613.273	-20.549	0.074	-0.046
-612.259	-200.000	-0.005	0.192
-611.244	-113.065	0.126	0.025
-610.230	-200.000	-0.047	-0.232
-609.215	-97.634	0.308	-0.081
-608.201	47.351	0.047	-0.045
-607.186	436.870	0.046	-0.103
-606.171	83.724	-0.228	0.253
-605.157	-109.933	-0.185	0.040
-604.142	96.353	0.091	0.106
-603.128	-132.131	0.155	0.021
-602.113	-151.463	-0.121	0.009
-601.098	-143.945	-0.257	0.025
-600.084	800.000	0.060	-0.247
-599.069	-133.541	0.083	0.011
-598.055	-134.152	0.257	0.032
-597.040	795.325	0.066	-0.186
-596.025	263.402	-0.077	0.137
-595.011	-200.000	0.053	0.304
-593.996	180.155	0.197	0.294
-592.982	-200.000	-0.033	0.152
-591.967	-127.714	0.362	0.053
-590.952	428.479	0.149	0.328
-589.938	800.000	-0.100	-0.346
-588.923	407.455	-0.101	-0.218
-587.909	-104.085	0.065	-0.015
-586.894	215.121	0.043	-0.070
-585.879	221.456	0.104	0.171
-584.865	115.138	0.034	0.043
-583.850	800.000	-0.030	-0.120
-582.836	264.588	0.198	-0.351
-581.821	-4.866	0.040	0.028
-580.806	-200.000	0.002	-0.100
-579.792	-141.670	-0.342	-0.035
-578.777	-3.580	-0.041	0.029
-577.763	628.260	0.134	-0.344
-576.748	-89.117	0.125	0.038
-575.733	-151.120	-0.164	0.013
-574.719	6.184	0.158	-0.119
-573.704	-74.930	-0.214	-0.078
-572.690	-117.681	-0.120	0.022
-571.675	-54.783	-0.262	-0.120
-570.661	-80.789	-0.376	-0.127
-569.646	-133.384	0.197	-0.025
-568.631	-43.380	0.334	-0.172
-567.617	155.796	-0.033	-0.046
-566.602	-30.178	-0.222	-0.128
-565.588	24.139	-0.177	0.149
-564.573	-116.621	-0.082	-0.015
-563.558	-34.107	-0.102	-0.057
-562.544	737.150	0.180	0.492
-561.529	98.261	0.236	0.277
-560.515	-200.000	0.025	-0.236
-559.500	-23.451	0.132	-0.081
-558.485	10.006	-0.049	-0.038
-557.471	800.000	-0.086	-0.255
-556.456	301.374	0.017	-0.032
-555.442	-200.000	-0.018	-0.134
-554.427	-200.000	-0.026	0.116
-553.412	152.027	-0.116	0.161
-552.398	-32.878	-0.215	0.122
-551.383	-200.000	-0.008	0.118
-550.369	122.425	0.142	-0.181
-549.354	22.314	-0.223	0.185
-548.339	110.904	0.103	-0.126
-547.325	-120.382	-0.040	-0.007
-546.310	-37.458	0.101	-0.055
-545.296	47.255	-0.256	-0.242
-544.281	129.359	0.140	-0.182
-543.266	-142.141	0.270	-0.027
-542.252	-125.276	0.203	-0.032
-541.237	800.000	0.056	-0.189
-540.223	-106.718	0.192	0.043
-539.208	-110.218	0.472	-0.100
-538.193	800.000	-0.087	-0.265
-537.179	-17.366	-0.091	0.059
-536.164	-19.223	-0.243	-0.153
-535.150	-200.000	0.187	-0.001
-534.135	-64.796	0.314	0.129
-533.121	234.738	0.081	0.136
-532.106	-89.888	-0.198	-0.059
-531.091	59.871	0.228	-0.229
-530.077	-151.506	-0.424	0.032
-529.062	146.541	-0.188	0.256
-528.048	-200.000	0.007	0.043
-527.033	196.716	-0.099	0.154
-526.018	-154.814	0.273	0.018
-525.004	800.000	0.055	-0.208
-523.989	800.000	-0.098	0.397
-522.975	-200.000	0.009	0.166
-521.960	269.700	-0.132	0.235
-520.945	385.659	-0.117	-0.245
-519.931	395.762	-0.085	-0.180
-518.916	214.226	0.035	0.056
-517.902	-168.855	0.305	0.012
-516.887	749.225	0.129	0.353
-515.872	-200.000	-0.043	0.317
-514.858	800.000	-0.011	-0.038
-513.843	-42.861	0.140	-0.072
-512.829	78.973	0.019	-0.021
-511.814	-142.338	-0.077	-0.008
-510.799	-200.000	-0.016	0.352
-509.785	710.114	-0.108	0.291
-508.770	-200.000	-0.015	0.088
-507.756	-75.969	-0.258	-0.093
-506.741	657.666	-0.042	0.108
-505.726	152.359	0.213	0.295
-504.712	551.408	-0.104	-0.254
-503.697	800.000	0.082	0.238
-502.683	62.215	-0.323	0.328
-501.668	-200.000	-0.006	0.350
-500.653	-87.682	0.438	-0.134
-499.639	-64.086	-0.146	-0.061
-498.624	-126.979	0.075	0.011
-497.610	-128.839	0.220	-0.031
-496.595	149.437	-0.177	-0.244
-495.581	-41.540	-0.108	-0.057
-494.566	-89.418	-0.264	0.079
-493.551	-141.463	0.414	0.043
-492.537	-200.000	-0.051	0.258
-491.522	251.650	0.021	0.036
-490.508	4.241	0.062	-0.046
-489.493	800.000	-0.091	-0.306
-488.478	4.533	0.009	0.007
-487.464	-68.636	-0.075	-0.030
-486.449	210.304	0.070	-0.112
-485.435	711.042	-0.155	-0.417
-484.420	800.000	0.020	-0.076
-483.405	-11.011	-0.116	-0.078
-482.391	-28.997	-0.327	-0.191
-481.376	-200.000	0.002	0.152
-480.362	-200.000	0.001	-0.127
-479.347	-133.363	-0.240	0.031
-478.332	-11.462	0.006	0.004
-477.318	-200.000	-0.008	0.186
-476.303	374.995	-0.078	-0.162
-475.289	800.000	0.056	-0.228
-474.274	-72.079	0.439	0.165
-473.259	-121.130	-0.079	-0.013
-472.245	35.831	0.232	0.208
-471.230	-64.767	0.310	-0.128
-470.216	-37.662	0.117	0.063
-469.201	-83.232	-0.294	-0.096
-468.186	103.821	0.033	0.039
-467.172	-69.745	0.133	0.052
-466.157	-140.740	0.309	-0.032
-465.143	-111.832	0.124	-0.026
-464.128	206.511	-0.067	-0.106
-463.113	-48.675	0.130	0.063
-462.099	-29.366	0.345	-0.200
-461.084	-128.169	0.079	-0.011
-460.070	123.240	-0.121	-0.154
-459.055	-32.720	-0.173	0.097
-458.040	-80.546	0.304	0.103
-457.026	-200.000	0.007	0.110
-456.011	-50.657	0.192	-0.092
-454.997	-80.279	-0.165	0.056
-453.982	-123.732	0.172	0.028
-452.968	-57.635	-0.154	-0.068
-451.953	-43.891	0.320	0.164
-450.938	800.000	-0.105	0.335
-449.924	39.364	-0.122	0.110
-448.909	-26.569	0.208	-0.124
-447.895	-33.968	-0.252	-0.141
-446.880	800.000	-0.091	0.337
-445.865	125.186	0.151	-0.193
-444.851	-167.740	-0.199	0.008
-443.836	16.126	0.114	-0.091
-442.822	-22.044	-0.225	0.139
-441.807	-47.542	-0.104	-0.051
-440.792	-27.389	0.254	-0.150
-439.778	67.808	-0.387	-0.402
-438.763	-55.078	-0.255	0.117
-437.749	-200.000	-0.003	-0.157
-436.734	-136.861	0.317	0.037
-435.719	198.883	0.278	0.432
-434.705	186.391	-0.083	-0.126
-433.690	-167.778	0.145	-0.006
-432.676	-64.762	-0.162	0.067
-431.661	3.476	-0.163	0.120
-430.646	-114.193	0.157	0.031
-429.632	488.158	-0.058	0.134
-428.617	-200.000	0.006	-0.335
-427.603	332.515	-0.095	-0.187
-426.588	-60.467	0.248	0.107
-425.573	45.174	0.093	0.087
-424.559	150.395	0.169	0.232
-423.544	81.277	0.052	-0.057
-422.530	-19.678	-0.092	-0.058
-421.515	-119.209	-0.199	0.035
-420.500	782.081	0.027	-0.076
-419.486	-200.000	0.070	0.357
-418.471	3.169	-0.249	-0.184
-417.457	-173.092	-0.475	0.015
-416.442	14.772	-0.162	0.128
-415.428	-65.816	-0.144	0.058
-414.413	-200.000	-0.024	0.170
-413.398	-157.927	0.144	-0.009
-412.384	66.480	-0.290	-0.298
-411.369	-200.000	0.056	0.319
-410.355	-200.000	-0.010	-0.068
-409.340	-62.262	-0.104	0.044
-408.325	800.000	0.023	-0.086
-407.311	-84.617	0.213	-0.068
-406.296	-62.248	-0.144	0.061
-405.282	-27.965	0.143	0.084
-404.267	-200.000	0.025	-0.328
-403.252	-100.164	0.237	-0.060
-402.238	689.722	0.048	0.128
-401.223	139.435	-0.140	0.187
-400.209	800.000	0.059	0.186
-399.194	225.011	0.046	0.076
-398.179	-153.349	0.151	0.011
-397.165	51.959	-0.356	-0.343
-396.150	-144.653	-0.422	-0.039
-395.136	-43.886	0.125	0.064
-394.121	-130.915	0.368	0.050
-393.106	7.369	-0.256	-0.193
-392.092	59.076	-0.255	-0.254
-391.077	408.204	-0.085	-0.182
-390.063	-20.883	-0.080	0.049
-389.048	-200.000	0.024	0.208
-388.033	-107.368	0.317	0.070
-387.019	-107.760	0.318	0.070
-386.004	95.306	0.255	-0.294
-384.990	-200.000	-0.063	0.292
-383.975	-187.680	0.320	0.004
-382.960	277.861	-0.068	-0.122
-381.946	-79.181	-0.283	0.097
-380.931	431.484	-0.128	0.281
-379.917	-95.373	0.106	0.029
-378.902	-47.021	0.138	-0.068
-377.888	39.886	-0.301	0.274
-376.873	-39.022	-0.096	-0.051
-375.858	8.408	0.189	-0.144
-374.844	234.034	0.069	-0.114
-373.829	121.895	0.139	-0.175
-372.815	-21.217	0.278	0.172
-371.800	-53.558	0.357	-0.165
-370.785	88.525	0.178	-0.200
-369.771	383.863	0.113	-0.236
-368.756	17.806	0.294	-0.237
-367.742	18.037	0.318	-0.256
-366.727	253.103	-0.256	-0.442
-365.712	800.000	-0.012	0.046
-364.698	40.494	0.192	-0.174
-363.683	521.763	0.085	0.202
-362.669	-61.238	0.187	-0.080
-361.654	-8.425	-0.089	0.060
-360.639	396.629	-0.201	0.425
-359.625	-30.114	-0.057	-0.033
-358.610	-18.681	-0.163	-0.103
-357.596	800.000	-0.085	-0.294
-356.581	-15.369	-0.229	-0.148
-355.566	-66.411	-0.185	-0.074
-354.552	5.013	0.184	0.137
-353.537	-126.004	0.063	0.010
-352.523	800.000	-0.019	-0.074
-351.508	800.000	-0.092	-0.302
-350.493	-107.708	-0.231	-0.051
-349.479	566.036	-0.058	0.142
-348.464	-163.872	0.078	0.004
-347.450	19.406	-0.027	-0.022
-346.435	-56.147	0.073	-0.033
-345.420	800.000	0.108	-0.370
-344.406	145.831	0.150	-0.203
-343.391	369.412	-0.052	0.106
-342.377	-130.792	0.209	0.028
-341.362	800.000	-0.044	-0.150
-340.348	-108.532	-0.291	0.063
-339.333	-4.191	-0.204	-0.143
-338.318	-2.263	-0.183	-0.130
-337.304	800.000	-0.104	0.361
-336.289	108.512	0.091	-0.110
-335.275	-200.000	-0.045	-0.281
-334.260	115.887	0.062	-0.076
-333.245	331.637	0.257	0.500
-332.231	118.368	-0.065	-0.081
-331.216	-122.878	-0.360	-0.059
-330.202	-200.000	0.005	0.089
-329.187	-34.365	-0.420	-0.233
-328.172	800.000	0.046	-0.169
-327.158	46.833	-0.059	0.056
-326.143	-19.679	0.131	0.082
-325.129	773.413	0.065	-0.178
-324.114	139.972	0.073	-0.097
-323.099	-56.033	-0.173	-0.078
-322.085	285.464	0.094	-0.171
-321.070	601.177	0.082	-0.206
-320.056	-71.016	-0.392	-0.149
-319.041	-176.548	-0.247	-0.006
-318.026	-141.732	0.374	0.038
-317.012	779.412	-0.062	0.172
-315.997	-101.590	-0.628	-0.154
-314.983	510.115	0.054	-0.126
-313.968	-200.000	-0.060	-0.285
-312.953	308.281	-0.088	0.165
-311.939	-2.531	-0.100	0.070
-310.924	140.964	0.216	-0.288
-309.910	-91.957	-0.059	0.017
-308.895	-200.000	-0.051	0.329
-307.880	800.000	0.057	0.214
-306.866	-52.352	-0.412	-0.192
-305.851	9.020	-0.108	0.082
-304.837	90.936	-0.075	0.085
-303.822	23.590	0.159	0.132
-302.807	-200.000	0.007	0.196
-301.793	567.114	0.119	-0.291
-300.778	134.381	-0.134	0.175
-299.764	427.960	-0.021	-0.046
-298.749	23.530	0.218	-0.180
-297.735	109.533	-0.069	-0.083
-296.720	-154.928	-0.047	-0.003
-295.705	42.105	-0.137	0.125
-294.691	354.058	-0.158	0.316
-293.676	-169.860	0.257	0.009
-292.662	42.960	0.123	-0.113
-291.647	-192.033	0.278	-0.003
-290.632	-200.000	0.035	0.227
-289.618	-89.557	0.399	0.118
-288.603	-200.000	-0.009	-0.329
-287.589	322.859	0.200	0.385
-286.574	-62.259	-0.110	-0.046
-285.559	-31.760	-0.167	0.094
-284.545	800.000	0.100	0.366
-283.530	87.308	0.123	0.137
-282.516	800.000	0.075	0.317
-281.501	-161.838	-0.137	-0.007
-280.486	-7.042	0.188	-0.128
-279.472	-11.754	-0.207	-0.137
-278.457	-85.965	-0.257	-0.080
-277.443	-28.839	0.378	0.219
-276.428	-51.650	-0.229	-0.107
-275.413	-200.000	0.016	0.097
-274.399	-135.746	-0.368	0.044
-273.384	124.229	-0.131	0.166
-272.370	-78.463	0.287	0.099
-271.355	-49.872	-0.103	0.049
-270.340	292.477	0.123	0.227
-269.326	87.366	-0.113	0.126
-268.311	-164.486	-0.138	0.006
-267.297	-158.415	0.277	-0.016
-266.282	-200.000	0.031	-0.221
-265.267	-200.000	-0.072	-0.361
-264.253	-200.000	-0.001	0.219
-263.238	292.183	0.047	-0.086
-262.224	298.355	0.092	0.170
-261.209	-10.271	0.189	0.126
-260.195	451.545	-0.064	-0.143
-259.180	800.000	0.036	0.116
-258.165	51.102	-0.270	-0.258
-257.151	-24.631	-0.231	-0.138
-256.136	121.100	0.174	-0.217
-255.122	276.344	0.132	-0.236
-254.107	-200.000	0.014	0.613
-253.092	-75.047	0.202	0.073
-252.078	-66.121	0.137	0.055
-251.063	-86.519	-0.088	0.027
-250.049	-156.074	-0.212	0.013
-249.034	-200.000	0.053	0.389
-248.019	-40.666	0.038	-0.020
-247.005	-200.000	-0.003	0.105
-245.990	106.256	-0.103	-0.123
-244.976	-25.018	0.177	0.105
-243.961	800.000	0.017	0.067
-242.946	-1.102	-0.125	-0.089
-241.932	166.961	0.257	0.368
-240.917	-200.000	-0.004	0.111
-239.903	800.000	-0.074	0.266
-238.888	-13.838	-0.205	0.133
-237.873	187.756	0.345	0.518
-236.859	84.878	-0.377	0.416
-235.844	-36.707	0.334	0.181
-234.830	-118.871	0.158	0.028
-233.815	-97.451	0.226	-0.059
-232.800	800.000	-0.052	-0.168
-231.786	-32.507	-0.050	0.028
-230.771	182.622	0.047	-0.069
-229.757	41.706	0.293	0.267
-228.742	800.000	-0.101	-0.286
-227.727	-200.000	0.018	0.129
-226.713	-168.791	-0.191	0.007
-225.698	32.704	0.392	-0.341
-224.684	323.210	-0.110	-0.211
-223.669	800.000	0.026	-0.077
-222.655	800.000	-0.024	-0.090
-221.640	-21.582	-0.089	0.054
-220.625	800.000	-0.035	0.155
-219.611	-200.000	-0.044	0.196
-218.596	800.000	-0.026	-0.104
-217.582	-200.000	-0.004	-0.392
-216.567	224.368	-0.072	0.117
-215.552	-45.700	-0.075	0.037
-214.538	122.676	0.068	0.085
-213.523	-131.642	0.438	-0.058
-212.509	57.217	-0.165	-0.162
-211.494	131.387	-0.122	0.158
-210.479	131.058	0.135	-0.174
-209.465	-63.976	0.135	-0.055
-208.450	526.917	-0.135	-0.320
-207.436	232.338	-0.097	0.159
-206.421	277.698	0.073	-0.130
-205.406	416.074	-0.067	0.144
-204.392	72.744	-0.397	0.416
-203.377	-181.580	-0.169	-0.003
-202.363	800.000	-0.046	0.135
-201.348	40.708	0.136	0.123
-200.333	-200.000	0.051	0.368
-199.319	-200.000	-0.041	-0.345
-198.304	-200.000	-0.016	0.134
-197.290	-128.000	0.251	-0.036
-196.275	-134.450	-0.134	-0.016
-195.260	281.832	-0.074	-0.133
-194.246	142.214	0.206	-0.275
-193.231	800.000	-0.131	0.409
-192.217	-128.219	-0.119	-0.017
-191.202	-139.977	0.129	-0.014
-190.187	479.349	-0.162	-0.368
-189.173	-200.000	0.021	0.131
-188.158	-102.466	0.153	-0.037
-187.144	271.440	-0.088	0.156
-186.129	466.988	-0.106	-0.238
-185.114	-39.582	-0.055	0.029
-184.100	-18.305	0.145	0.091
-183.085	-74.017	-0.137	-0.050
-182.071	253.454	0.128	0.219
-181.056	-200.000	-0.007	-0.163
-180.042	-95.468	-0.243	0.065
-179.027	153.915	0.110	0.152
-178.012	-30.649	0.169	0.096
-176.998	750.570	-0.056	-0.152
-175.983	-77.496	-0.239	0.083
-174.969	158.678	0.057	0.080
-173.954	-8.644	0.088	0.059
-172.939	73.409	-0.187	0.196
-171.925	535.744	0.099	0.235
-170.910	457.389	-0.112	-0.250
-169.896	-39.371	0.253	-0.133
-168.881	305.700	-0.087	-0.162
-167.866	-44.564	-0.181	0.091
-166.852	171.637	0.113	0.162
-165.837	19.972	0.157	0.127
-164.823	88.728	-0.212	0.237
-163.808	-120.680	-0.255	-0.043
-162.793	-11.530	0.144	-0.095
-161.779	-48.035	-0.114	-0.055
-160.764	188.425	0.138	-0.206
-159.750	-105.037	0.276	-0.063
-158.735	-118.950	-0.316	0.056
-157.720	28.379	-0.078	0.066
-156.706	-120.620	0.315	-0.054
-155.691	-112.280	0.231	0.047
-154.677	115.643	0.171	-0.210
-153.662	31.220	0.198	-0.171
-152.647	-85.323	0.289	-0.090
-151.633	-200.000	0.046	0.239
-150.618	-200.000	-0.037	0.241
-149.604	55.300	-0.062	-0.060
-148.589	560.452	0.089	0.215
-147.574	70.048	0.050	0.052
-146.560	800.000	0.043	0.121
-145.545	7.709	-0.179	0.134
-144.531	120.795	-0.104	0.129
-143.516	-80.574	0.325	0.108
-142.502	-200.000	0.018	-0.245
-141.487	800.000	0.042	-0.141
-140.472	-66.029	-0.162	-0.065
-139.458	-19.803	0.072	0.044
-138.443	-24.247	0.382	0.229
-137.429	-200.000	0.018	0.140
-136.414	-96.388	0.024	0.006
-135.399	-125.753	0.553	0.084
-134.385	133.525	-0.193	0.250
-133.370	402.206	-0.203	0.426
-132.356	37.310	0.134	-0.119
-131.341	-200.000	-0.029	-0.294
-130.326	42.853	0.180	0.164
-129.312	-150.592	0.197	0.015
-128.297	-87.010	0.116	0.035
-127.283	61.627	-0.146	0.146
-126.268	269.450	-0.216	0.380
-125.253	-191.486	0.180	-0.002
-124.239	251.895	0.125	-0.213
-123.224	-200.000	0.012	0.075
-122.210	-139.437	0.203	-0.022
-121.195	45.702	0.106	0.098
