DTS Sentinel unit serial number:	SN413079Multiplexer serial number:	ORYXHardware model number:	OX4-SRSoftware version number:	ORYX F/W v4.00 Oryx Data Collector v3.7.2.0data status	okinstallation	princeton_trtdifferential loss correction	single-endedforward channel	channel 4reverse channel	N/Adate	2019/09/13time	00:57:34forward acquisition time	60.00reverse acquisition time	0.00gamma	496.2192k internal	0.2318k external	0.2318temperature offset calibration	1.0167default loss term (dB/km)	0.3790temperature slope calibration	1.0000multiplexer offset coefficient	1.0000multiplexer slope coefficient	1.0000fibre end	0.00T internal ref (°C)	28.06T ext. ref 1 (°C)	3.66T ext. ref 2 (°C)	22.62length (m)	temperature (°C)	Stokes	anti-Stokes-747.200	-200.000	0.000	-0.152
-746.185	29.662	-0.372	0.321
-745.171	34.888	0.113	0.100
-744.156	-200.000	-0.002	0.116
-743.142	-200.000	0.055	-0.283
-742.127	-49.539	-0.389	-0.187
-741.112	109.267	0.146	0.177
-740.098	-127.025	-0.295	0.044
-739.083	536.880	-0.065	-0.156
-738.069	-14.895	-0.191	0.124
-737.054	-164.434	-0.164	-0.008
-736.039	800.000	0.021	-0.061
-735.025	-36.742	0.261	-0.142
-734.010	-200.000	0.005	-0.155
-732.996	800.000	-0.102	0.386
-731.981	800.000	0.036	-0.136
-730.966	161.296	0.201	0.284
-729.952	-200.000	0.010	-0.182
-728.937	120.010	-0.154	0.194
-727.923	35.415	-0.226	0.201
-726.908	800.000	-0.096	0.268
-725.894	95.250	-0.100	-0.115
-724.879	4.230	-0.246	-0.182
-723.864	-200.000	-0.043	-0.193
-722.850	-200.000	0.012	0.119
-721.835	-47.608	-0.106	-0.052
-720.821	8.682	-0.170	-0.130
-719.806	-148.645	0.150	-0.012
-718.791	-76.853	-0.233	-0.083
-717.777	674.823	0.178	-0.467
-716.762	360.257	0.111	-0.225
-715.748	-57.635	-0.196	0.087
-714.733	800.000	0.040	-0.128
-713.718	93.822	-0.142	-0.162
-712.704	800.000	-0.039	0.151
-711.689	73.497	0.070	-0.074
-710.675	484.907	0.043	0.098
-709.660	20.718	-0.106	0.087
-708.645	800.000	-0.069	-0.291
-707.631	-137.961	0.231	-0.026
-706.616	800.000	-0.066	0.197
-705.602	75.014	0.166	-0.177
-704.587	-98.359	-0.197	0.051
-703.572	-83.530	-0.190	-0.062
-702.558	-128.356	0.389	0.056
-701.543	162.308	0.153	0.216
-700.529	-200.000	0.525	0.002
-699.514	-147.136	-0.090	-0.008
-698.499	-19.889	-0.246	0.153
-697.485	81.047	-0.161	0.175
-696.470	-89.153	0.130	-0.039
-695.456	-79.222	0.084	-0.029
-694.441	76.756	0.089	0.095
-693.426	-84.575	0.272	-0.087
-692.412	-143.870	-0.319	0.030
-691.397	-101.549	-0.207	-0.051
-690.383	-200.000	-0.050	-0.371
-689.368	-114.464	-0.141	-0.027
-688.354	13.265	0.232	0.181
-687.339	170.973	-0.242	0.350
-686.324	-154.313	0.048	-0.003
-685.310	-109.535	-0.465	-0.099
-684.295	63.015	0.132	0.134
-683.281	-129.154	-0.197	-0.028
-682.266	-63.581	-0.252	-0.105
-681.251	-200.000	0.047	-0.410
-680.237	11.598	0.103	-0.080
-679.222	708.204	-0.062	-0.165
-678.208	256.159	0.093	0.161
-677.193	-200.000	0.042	0.437
-676.178	116.410	-0.213	0.263
-675.164	90.682	0.180	0.203
-674.149	-200.000	0.074	-0.554
-673.135	800.000	0.103	-0.318
-672.120	-123.993	0.158	0.025
-671.105	645.023	-0.107	0.275
-670.091	293.610	-0.134	0.246
-669.076	-200.000	0.030	0.145
-668.062	-75.472	-0.173	0.062
-667.047	296.185	-0.313	0.579
-666.032	126.742	0.062	0.080
-665.018	800.000	-0.048	-0.210
-664.003	-82.946	-0.176	0.057
-662.989	-61.658	0.231	0.098
-661.974	15.437	-0.156	0.124
-660.959	-40.709	-0.419	-0.219
-659.945	800.000	0.124	0.346
-658.930	-155.552	0.056	-0.004
-657.916	-200.000	-0.073	-0.458
-656.901	-0.177	0.123	0.088
-655.886	259.016	-0.233	0.406
-654.872	-18.748	-0.037	-0.023
-653.857	800.000	0.036	0.133
-652.843	-200.000	-0.006	0.152
-651.828	-200.000	0.028	0.128
-650.814	488.204	0.076	0.174
-649.799	457.237	0.119	-0.266
-648.784	78.458	-0.068	-0.073
-647.770	206.843	0.084	-0.132
-646.755	-169.408	0.447	0.017
-645.741	800.000	-0.011	0.041
-644.726	159.893	-0.097	-0.136
-643.711	425.939	-0.117	-0.254
-642.697	116.635	-0.053	0.065
-641.682	115.386	-0.090	-0.111
-640.668	800.000	0.086	0.324
-639.653	454.698	-0.033	-0.074
-638.638	-93.612	0.321	-0.089
-637.624	800.000	0.120	0.369
-636.609	-162.769	0.254	-0.013
-635.595	-200.000	-0.040	-0.383
-634.580	216.567	-0.163	0.261
-633.565	415.325	0.133	0.286
-632.551	92.101	-0.228	-0.259
-631.536	37.893	-0.268	0.240
-630.522	-34.712	-0.161	0.089
-629.507	-200.000	0.014	0.083
-628.492	-122.908	0.118	-0.019
-627.478	-200.000	-0.042	-0.323
-626.463	-71.692	-0.173	0.065
-625.449	-87.331	0.155	-0.047
-624.434	-200.000	-0.070	0.356
-623.419	173.248	0.223	0.324
-622.405	-58.966	-0.162	-0.071
-621.390	-6.998	0.105	-0.072
-620.376	-1.210	-0.113	-0.081
-619.361	102.943	0.252	-0.298
-618.346	-87.823	-0.139	-0.042
-617.332	12.364	-0.201	0.156
-616.317	-62.796	-0.106	0.044
-615.303	-62.413	-0.211	-0.088
-614.288	65.179	0.096	0.097
-613.273	-145.425	0.306	-0.028
-612.259	353.159	-0.125	0.249
-611.244	-85.748	-0.314	0.098
-610.230	-32.311	0.133	0.074
-609.215	-84.497	-0.099	0.032
-608.201	-110.154	-0.052	-0.011
-607.186	-148.214	-0.292	0.024
-606.171	-69.520	0.159	-0.061
-605.157	-200.000	-0.019	-0.097
-604.142	-42.112	-0.268	-0.138
-603.128	800.000	0.063	0.208
-602.113	800.000	0.036	-0.147
-601.098	-94.953	-0.144	0.039
-600.084	-14.781	0.100	0.065
-599.069	148.981	-0.064	0.087
-598.055	-200.000	0.347	0.000
-597.040	54.648	0.216	-0.209
-596.025	204.794	0.149	-0.233
-595.011	275.367	-0.102	0.181
-593.996	145.925	0.102	0.137
-592.982	-200.000	0.042	0.250
-591.967	107.791	0.273	0.327
-590.952	168.406	-0.093	0.133
-589.938	-200.000	0.031	-0.391
-588.923	162.574	-0.177	-0.250
-587.909	-37.355	0.347	-0.187
-586.894	-83.448	0.299	0.096
-585.879	-200.000	0.016	-0.141
-584.865	-101.073	0.203	0.050
-583.850	-6.601	0.065	-0.044
-582.836	800.000	-0.067	-0.193
-581.821	-43.408	-0.087	0.044
-580.806	29.478	-0.072	0.061
-579.792	-200.000	-0.044	0.257
-578.777	-200.000	0.091	-0.416
-577.763	9.859	0.065	0.050
-576.748	19.303	0.035	-0.029
-575.733	414.298	-0.124	-0.265
-574.719	-146.580	0.151	-0.013
-573.704	800.000	-0.067	0.196
-572.690	-70.438	-0.163	-0.062
-571.675	675.536	-0.045	0.117
-570.661	-92.737	-0.283	-0.080
-569.646	322.611	-0.092	0.177
-568.631	-76.147	-0.214	-0.076
-567.617	-200.000	-0.017	-0.672
-566.602	-156.757	-0.227	-0.014
-565.588	198.924	0.111	0.172
-564.573	-192.751	-0.193	0.002
-563.558	-20.401	-0.080	-0.050
-562.544	30.161	-0.021	-0.018
-561.529	-200.000	0.029	-0.285
-560.515	108.579	0.160	0.192
-559.500	-200.000	0.014	0.086
-558.485	-69.715	-0.108	0.042
-557.471	60.164	-0.150	-0.149
-556.456	66.650	-0.067	0.069
-555.442	39.123	0.080	0.072
-554.427	272.215	0.180	0.318
-553.412	77.960	0.228	0.244
-552.398	-131.112	-0.079	-0.011
-551.383	-153.371	-0.124	0.009
-550.369	-58.802	-0.213	0.093
-549.354	273.251	-0.154	-0.273
-548.339	-67.161	0.075	-0.030
-547.325	-75.278	0.238	-0.085
-546.310	40.489	0.295	-0.267
-545.296	-67.870	0.054	-0.021
-544.281	-143.551	0.127	0.012
-543.266	284.966	-0.035	0.063
-542.252	534.088	-0.145	0.344
-541.237	800.000	-0.018	-0.070
-540.223	800.000	-0.040	0.136
-539.208	-200.000	0.044	-0.397
-538.193	-84.827	0.245	0.077
-537.179	-200.000	0.028	0.233
-536.164	-118.999	-0.070	-0.012
-535.150	227.487	-0.014	-0.024
-534.135	36.607	0.133	0.118
-533.121	-100.618	0.238	-0.059
-532.106	773.073	0.056	-0.153
-531.091	35.051	-0.116	0.102
-530.077	20.113	0.234	0.189
-529.062	-200.000	-0.005	0.072
-528.048	-123.622	0.139	-0.022
-527.033	-16.626	-0.302	-0.192
-526.018	800.000	-0.183	0.507
-525.004	-65.641	-0.336	0.135
-523.989	102.235	-0.139	0.163
-522.975	601.079	0.071	-0.178
-521.960	323.919	0.126	-0.241
-520.945	-130.652	0.257	0.035
-519.931	230.313	-0.072	0.118
-518.916	-88.970	-0.046	-0.014
-517.902	800.000	0.068	-0.207
-516.887	-65.746	0.169	-0.068
-515.872	148.118	0.139	0.188
-514.858	-31.008	0.047	-0.027
-513.843	108.802	0.086	0.104
-512.829	-133.674	-0.230	-0.029
-511.814	81.390	-0.218	-0.237
-510.799	787.774	-0.099	-0.274
-509.785	618.725	-0.197	-0.496
-508.770	36.999	-0.462	-0.410
-507.756	-128.813	-0.193	0.027
-506.741	-139.103	-0.278	0.030
-505.726	-69.409	0.068	0.026
-504.712	-148.712	0.461	0.038
-503.697	-200.000	-0.041	-0.185
-502.683	69.950	0.166	0.172
-501.668	-131.343	-0.266	-0.035
-500.653	289.975	-0.125	0.227
-499.639	-91.120	0.134	-0.039
-498.624	800.000	0.009	0.028
-497.610	-200.000	0.008	-0.218
-496.595	128.451	0.044	-0.057
-495.581	91.749	-0.128	-0.144
-494.566	-34.180	0.104	-0.057
-493.551	-200.000	0.026	-0.200
-492.537	-54.701	0.201	-0.091
-491.522	-121.421	0.331	-0.055
-490.508	-17.792	0.093	-0.059
-489.493	-91.398	0.268	0.077
-488.478	10.857	-0.394	-0.301
-487.464	2.263	0.189	0.137
-486.449	45.074	-0.192	0.178
-485.435	800.000	-0.024	-0.091
-484.420	-19.698	-0.158	-0.098
-483.405	-107.714	0.090	0.020
-482.391	-200.000	-0.030	-0.329
-481.376	55.289	0.119	-0.115
-480.362	20.479	0.123	-0.099
-479.347	-108.415	0.269	-0.058
-478.332	159.877	0.116	0.162
-477.318	-200.000	-0.027	0.284
-476.303	-85.734	0.316	-0.098
-475.289	800.000	-0.009	-0.033
-474.274	321.134	0.062	-0.118
-473.259	-81.883	0.188	0.062
-472.245	6.539	0.029	-0.021
-471.230	800.000	-0.019	0.076
-470.216	-116.520	-0.314	-0.058
-469.201	-115.314	0.091	0.017
-468.186	800.000	0.078	0.279
-467.172	-1.315	-0.176	-0.124
-466.157	-165.670	-0.056	0.002
-465.143	-64.950	-0.326	0.132
-464.128	347.753	-0.021	0.041
-463.113	-88.721	-0.188	-0.056
-462.099	-67.812	0.126	0.049
-461.084	-20.157	0.189	-0.117
-460.070	-64.057	0.212	-0.087
-459.055	61.839	-0.202	0.201
-458.040	645.424	0.099	0.252
-457.026	74.617	0.169	-0.177
-456.011	-60.118	-0.137	-0.058
-454.997	-200.000	-0.086	0.410
-453.982	800.000	0.014	0.054
-452.968	-31.116	0.081	-0.046
-451.953	800.000	-0.021	0.092
-450.938	227.574	-0.228	-0.371
-449.924	61.777	-0.107	-0.106
-448.909	-92.789	0.368	-0.103
-447.895	-65.312	-0.066	0.026
-446.880	143.994	0.100	0.133
-445.865	207.201	-0.121	0.189
-444.851	-200.000	-0.037	0.192
-443.836	-92.425	-0.341	-0.096
-442.822	-22.977	0.205	-0.124
-441.807	61.515	0.039	-0.039
-440.792	10.002	0.270	0.205
-439.778	-97.621	0.492	0.128
-438.763	-154.737	-0.194	-0.013
-437.749	232.092	-0.140	0.230
-436.734	-200.000	-0.047	-0.227
-435.719	-56.627	-0.247	-0.109
-434.705	50.589	-0.025	0.023
-433.690	-200.000	-0.008	-0.078
-432.676	-200.000	0.031	-0.331
-431.661	-200.000	0.004	-0.359
-430.646	-200.000	-0.008	0.204
-429.632	-200.000	-0.004	0.056
-428.617	47.936	-0.146	0.136
-427.603	-153.134	0.130	-0.009
-426.588	-60.218	0.106	-0.045
-425.573	-200.000	-0.022	-0.098
-424.559	-200.000	0.023	0.361
-423.544	800.000	0.081	-0.283
-422.530	800.000	-0.042	-0.157
-421.515	77.606	0.129	-0.137
-420.500	-75.961	-0.198	-0.070
-419.486	-200.000	0.000	-0.241
-418.471	228.726	0.111	-0.180
-417.457	-64.686	0.215	-0.087
-416.442	733.132	-0.050	-0.134
-415.428	59.628	0.180	0.177
-414.413	-8.550	0.042	0.028
-413.398	-26.693	0.279	-0.163
-412.384	-200.000	0.041	0.213
-411.369	-3.924	0.337	-0.233
-410.355	800.000	-0.047	0.205
-409.340	305.628	-0.214	0.397
-408.325	-200.000	-0.032	-0.289
-407.311	52.002	-0.209	-0.199
-406.296	-98.616	-0.333	-0.085
-405.282	113.970	0.121	-0.147
-404.267	208.108	0.162	-0.253
-403.252	-63.730	-0.235	-0.096
-402.238	474.500	-0.071	-0.160
-401.223	-3.927	-0.331	0.230
-400.209	-31.582	0.114	0.064
-399.194	173.801	-0.063	0.091
-398.179	-101.764	-0.200	-0.048
-397.165	-51.174	0.163	-0.076
-396.150	-200.000	0.000	-0.369
-395.136	-200.000	-0.005	0.171
-394.121	-200.000	0.004	0.118
-393.106	114.301	-0.184	0.224
-392.092	-114.444	-0.285	0.055
-391.077	-74.774	-0.281	-0.101
-390.063	-191.100	0.272	0.003
-389.048	-160.064	-0.402	-0.022
-388.033	182.648	-0.126	0.186
-387.019	-114.003	-0.376	-0.073
-386.004	800.000	-0.050	0.204
-384.990	58.307	0.169	0.166
-383.975	170.166	-0.086	-0.123
-382.960	-200.000	0.008	0.284
-381.946	-121.294	0.315	0.052
-380.931	395.494	-0.051	0.106
-379.917	15.719	-0.178	0.139
-378.902	782.784	0.042	-0.114
-377.888	76.186	-0.063	-0.067
-376.873	4.806	0.189	0.139
-375.858	204.378	-0.085	0.131
-374.844	237.088	-0.165	-0.273
-373.829	-70.869	-0.115	-0.043
-372.815	-11.653	-0.129	-0.084
-371.800	122.273	0.145	-0.180
-370.785	164.638	-0.023	0.032
-369.771	184.572	-0.061	0.090
-368.756	209.165	-0.107	-0.167
-367.742	-47.926	0.248	0.120
-366.727	62.901	-0.045	-0.045
-365.712	-39.978	0.117	-0.061
-364.698	800.000	-0.059	0.234
-363.683	-26.930	0.097	-0.057
-362.669	-200.000	-0.014	0.179
-361.654	189.848	-0.220	-0.329
-360.639	-36.617	0.259	-0.139
-359.625	-147.014	-0.303	0.026
-358.610	-200.000	0.005	0.127
-357.596	-200.000	0.068	0.322
-356.581	-89.704	-0.317	0.093
-355.566	-27.940	-0.355	0.205
-354.552	-200.000	0.002	-0.052
-353.537	-200.000	0.002	0.270
-352.523	800.000	0.056	0.201
-351.508	62.209	0.218	0.217
-350.493	-146.471	-0.125	0.011
-349.479	-200.000	-0.023	-0.192
-348.464	-127.102	0.375	-0.055
-347.450	-181.979	-0.259	-0.005
-346.435	-139.586	0.151	0.016
-345.420	138.627	-0.194	-0.254
-344.406	501.417	-0.035	-0.081
-343.391	117.722	0.132	-0.162
-342.377	-200.000	-0.294	0.001
-341.362	-200.000	0.008	-0.146
-340.348	60.518	0.293	0.290
-339.333	-14.009	0.203	-0.130
-338.318	-58.442	0.217	-0.094
-337.304	-200.000	-0.034	-0.506
-336.289	214.530	0.110	-0.174
-335.275	-109.368	-0.379	0.080
-334.260	3.846	-0.104	0.076
-333.245	800.000	0.057	0.169
-332.231	-144.184	0.372	0.035
-331.216	259.955	-0.023	-0.040
-330.202	-200.000	0.084	-0.511
-329.187	-65.646	0.258	0.103
-328.172	139.467	-0.133	-0.175
-327.158	-13.292	-0.129	0.083
-326.143	-154.249	0.180	-0.012
-325.129	-71.595	-0.075	0.028
-324.114	-71.102	-0.337	0.126
-323.099	120.980	0.186	-0.231
-322.085	261.695	0.035	0.060
-321.070	-116.804	-0.339	0.062
-320.056	202.779	-0.139	-0.214
-319.041	-1.101	0.114	-0.080
-318.026	-8.117	-0.361	-0.242
-317.012	-78.202	-0.158	-0.054
-315.997	110.995	0.104	-0.124
-314.983	-160.275	-0.298	-0.016
-313.968	786.150	0.049	0.135
-312.953	-33.191	-0.296	-0.163
-311.939	-116.437	0.223	0.041
-310.924	-111.603	0.187	-0.038
-309.910	42.163	0.101	0.091
-308.895	135.120	0.145	-0.188
-307.880	28.370	-0.251	0.211
-306.866	-200.000	0.019	0.138
-305.851	309.127	-0.177	0.329
-304.837	-197.069	0.231	0.001
-303.822	-122.847	-0.135	0.022
-302.807	-76.543	-0.234	0.082
-301.793	-80.255	-0.129	-0.043
-300.778	-129.412	-0.206	-0.028
-299.764	118.551	0.126	-0.155
-298.749	85.140	-0.226	0.247
-297.735	-9.172	-0.249	-0.165
-296.720	-53.244	-0.258	-0.118
-295.705	-95.329	-0.057	-0.015
-294.691	-200.000	0.007	0.262
-293.676	116.813	-0.122	0.149
-292.662	800.000	-0.031	0.134
-291.647	233.971	0.102	-0.167
-290.632	-125.212	-0.136	-0.021
-289.618	-57.918	-0.311	0.135
-288.603	286.625	-0.018	0.032
-287.589	-93.190	0.194	-0.054
-286.574	24.152	-0.096	-0.079
-285.559	88.534	-0.197	0.218
-284.545	-134.165	0.312	0.038
-283.530	-13.804	0.040	-0.025
-282.516	74.690	-0.078	0.081
-281.501	-63.569	-0.134	-0.055
-280.486	-107.670	0.083	-0.018
-279.472	187.010	0.015	0.022
-278.457	-200.000	0.030	0.407
-277.443	109.230	0.112	-0.133
-276.428	-68.349	-0.139	0.054
-275.413	-52.228	0.154	-0.071
-274.399	693.943	0.083	0.215
-273.384	-95.477	0.239	-0.064
-272.370	-18.492	0.333	-0.206
-271.355	327.019	0.092	-0.175
-270.340	259.136	0.061	-0.104
-269.326	-16.291	0.078	-0.049
-268.311	-191.162	0.115	0.001
-267.297	314.679	0.191	0.357
-266.282	-2.599	-0.126	0.087
-265.267	-200.000	-0.028	0.445
-264.253	800.000	0.078	-0.227
-263.238	174.787	-0.101	-0.145
-262.224	170.702	0.095	0.136
-261.209	800.000	0.027	-0.105
-260.195	382.490	0.082	0.166
-259.180	800.000	-0.072	0.261
-258.165	32.407	0.183	-0.157
-257.151	800.000	0.075	0.276
-256.136	316.177	-0.058	-0.108
-255.122	776.404	0.031	-0.085
-254.107	69.863	-0.106	-0.108
-253.092	-4.745	0.199	0.136
-252.078	800.000	-0.021	0.059
-251.063	73.739	-0.217	-0.226
-250.049	491.841	0.126	0.287
-249.034	-200.000	-0.337	-0.001
-248.019	-200.000	0.014	0.190
-247.005	-144.992	-0.533	0.048
-245.990	73.451	0.114	-0.118
-244.976	28.465	0.175	-0.147
-243.961	-113.423	-0.122	0.024
-242.946	800.000	0.014	0.054
-241.932	773.452	-0.045	-0.122
-240.917	-3.623	-0.077	0.053
-239.903	-131.231	-0.268	0.035
-238.888	14.952	0.279	0.216
-237.873	-106.946	0.219	-0.048
-236.859	29.594	-0.173	-0.146
-235.844	-94.010	0.079	-0.022
-234.830	800.000	-0.047	-0.196
-233.815	128.897	0.039	-0.049
-232.800	-29.144	0.325	0.185
-231.786	-59.679	0.284	0.121
-230.771	-200.000	-0.024	0.128
-229.757	-120.617	-0.331	0.056
-228.742	485.369	0.052	-0.117
-227.727	212.504	-0.096	-0.150
-226.713	-141.842	0.299	0.030
-225.698	427.026	-0.130	-0.278
-224.684	800.000	0.091	0.277
-223.669	-200.000	-0.080	0.457
-222.655	405.724	-0.068	0.142
-221.640	452.095	-0.074	0.162
-220.625	-83.813	0.458	-0.145
-219.611	-147.346	0.222	-0.019
-218.596	12.043	0.168	0.128
-217.582	-64.025	-0.275	-0.111
-216.567	-200.000	-0.000	0.039
-215.552	800.000	-0.091	-0.392
-214.538	66.083	0.139	-0.140
-213.523	-33.283	0.241	0.132
-212.509	-134.585	0.153	0.018
-211.494	-42.355	0.251	-0.127
-210.479	-40.487	-0.140	0.072
-209.465	-67.794	0.426	0.165
-208.450	-200.000	-0.053	0.280
-207.436	190.895	0.136	0.202
-206.421	341.491	-0.129	0.250
-205.406	-176.701	-0.246	0.006
-204.392	-61.668	0.173	-0.072
-203.377	25.397	0.052	-0.043
-202.363	604.033	0.084	-0.206
-201.348	-133.121	-0.286	0.036
-200.333	127.659	0.161	0.202
-199.319	-200.000	-0.041	-0.308
-198.304	741.720	0.066	0.174
-197.290	85.103	0.134	-0.145
-196.275	368.503	0.125	0.250
-195.260	70.966	0.078	0.080
-194.246	800.000	-0.082	-0.234
-193.231	-149.430	0.633	-0.050
-192.217	-75.705	-0.299	-0.105
-191.202	-200.000	0.029	-0.350
-190.187	-200.000	0.013	0.082
-189.173	-121.647	0.069	0.011
-188.158	-200.000	-0.042	0.230
-187.144	-131.706	-0.145	0.019
-186.129	-200.000	-0.025	-0.430
-185.114	580.383	0.063	-0.154
-184.100	-200.000	0.014	0.354
-183.085	254.041	0.142	0.240
-182.071	-164.355	0.073	0.003
-181.056	-37.784	0.436	0.229
-180.042	386.569	0.105	0.215
-179.027	-176.301	-0.298	0.008
-178.012	-200.000	-0.006	0.165
-176.998	-94.594	-0.102	-0.027
-175.983	-200.000	0.075	-0.340
-174.969	800.000	0.052	0.169
-173.954	-4.304	-0.188	0.128
-172.939	61.538	0.126	0.124
-171.925	-200.000	-0.207	-0.001
-170.910	-200.000	0.013	-0.147
-169.896	-152.027	0.100	0.007
-168.881	-115.370	0.217	-0.040
-167.866	68.951	-0.182	-0.186
-166.852	-200.000	-0.010	0.149
-165.837	356.638	0.175	0.346
-164.823	56.564	-0.126	-0.122
-163.808	-200.000	0.015	-0.406
-162.793	-144.823	-0.229	0.021
-161.779	-200.000	0.001	0.179
-160.764	-200.000	0.010	0.298
-159.750	-35.273	-0.281	-0.151
-158.735	97.262	0.274	0.311
-157.720	-200.000	-0.043	-0.466
-156.706	-200.000	-0.029	-0.237
-155.691	-200.000	0.030	0.280
-154.677	-200.000	-0.029	0.188
-153.662	-64.040	0.186	0.075
-152.647	-63.382	-0.083	-0.034
-151.633	485.691	-0.162	0.365
-150.618	-200.000	0.023	-0.184
-149.604	-143.693	0.227	-0.021
-148.589	-200.000	0.005	0.654
-147.574	-200.000	-0.017	-0.103
-146.560	-105.121	-0.230	-0.052
-145.545	-52.458	0.056	0.025
-144.531	720.936	0.048	-0.127
-143.516	-6.584	0.330	0.222
-142.502	-58.249	0.172	0.074
-141.487	-82.351	0.347	-0.112
-140.472	-200.000	0.018	-0.172
-139.458	-200.000	-0.007	0.115
-138.443	-200.000	0.033	-0.223
-137.429	50.586	0.257	-0.240
-136.414	-200.000	-0.059	0.516
-135.399	5.985	0.300	0.220
-134.385	53.652	-0.476	0.452
-133.370	800.000	0.008	-0.029
-132.356	373.485	0.102	-0.205
-131.341	-126.453	0.280	0.041
-130.326	151.949	-0.032	-0.044
-129.312	643.356	-0.039	0.099
-128.297	-200.000	-0.157	-0.000
-127.283	159.110	-0.141	0.194
-126.268	78.277	0.162	0.171
-125.253	-200.000	-0.002	-0.302
-124.239	110.369	0.180	-0.214
-123.224	109.054	-0.224	0.265
-122.210	78.364	-0.140	0.148
-121.195	-132.638	0.288	0.037
