DTS Sentinel unit serial number:	SN413079Multiplexer serial number:	ORYXHardware model number:	OX4-SRSoftware version number:	ORYX F/W v4.00 Oryx Data Collector v3.7.2.0data status	okinstallation	princeton_trtdifferential loss correction	single-endedforward channel	channel 4reverse channel	N/Adate	2019/09/14time	12:49:35forward acquisition time	60.00reverse acquisition time	0.00gamma	496.2192k internal	0.2292k external	0.2292temperature offset calibration	1.0154default loss term (dB/km)	0.3790temperature slope calibration	1.0000multiplexer offset coefficient	1.0000multiplexer slope coefficient	1.0000fibre end	0.00T internal ref (°C)	38.00T ext. ref 1 (°C)	4.86T ext. ref 2 (°C)	34.10length (m)	temperature (°C)	Stokes	anti-Stokes-747.200	16.135	0.123	0.099
-746.185	-94.895	0.161	-0.045
-745.171	-103.466	0.515	-0.124
-744.156	-19.239	-0.245	0.155
-743.142	141.470	0.189	0.256
-742.127	-72.907	0.120	0.045
-741.112	800.000	-0.040	-0.165
-740.098	23.461	0.333	0.280
-739.083	-8.130	0.204	0.140
-738.069	-33.034	-0.302	0.171
-737.054	-67.279	-0.155	-0.063
-736.039	-89.102	-0.209	-0.063
-735.025	-200.000	-0.287	-0.000
-734.010	800.000	0.005	0.018
-732.996	-94.627	-0.375	-0.104
-731.981	248.772	0.071	0.123
-730.966	-123.268	-0.187	0.031
-729.952	301.308	0.162	-0.307
-728.937	77.202	0.192	0.209
-727.923	21.585	0.169	0.141
-726.908	34.064	-0.076	-0.068
-725.894	465.159	-0.065	-0.150
-724.879	-200.000	0.010	0.137
-723.864	-49.637	0.129	0.063
-722.850	-14.826	0.083	0.054
-721.835	41.400	0.211	0.196
-720.821	-200.000	0.027	-0.174
-719.806	116.755	0.025	-0.031
-718.791	-88.645	-0.410	-0.125
-717.777	383.834	0.039	-0.081
-716.762	-28.688	-0.219	-0.129
-715.748	21.839	0.034	-0.028
-714.733	-186.511	0.144	-0.002
-713.718	-200.000	0.091	-0.515
-712.704	-200.000	0.021	-0.163
-711.689	19.812	-0.098	-0.081
-710.675	-129.620	0.094	-0.013
-709.660	-94.800	-0.397	-0.110
-708.645	-200.000	-0.022	-0.119
-707.631	-131.507	0.136	-0.018
-706.616	-200.000	-0.010	0.165
-705.602	180.153	0.137	0.206
-704.587	800.000	0.073	-0.224
-703.572	394.393	0.131	0.278
-702.558	-94.723	0.192	-0.053
-701.543	72.551	-0.159	-0.169
-700.529	263.938	0.219	0.390
-699.514	314.765	0.105	0.203
-698.499	37.516	-0.389	0.353
-697.485	91.548	-0.258	-0.296
-696.470	-52.688	-0.195	-0.092
-695.456	62.204	0.330	-0.336
-694.441	-200.000	0.000	0.198
-693.426	-200.000	-0.007	-0.182
-692.412	-81.172	-0.333	-0.112
-691.397	-37.413	-0.107	0.058
-690.383	-54.764	0.277	0.128
-689.368	65.308	0.088	0.091
-688.354	-149.494	-0.484	0.039
-687.339	-41.727	0.088	-0.046
-686.324	12.468	-0.076	0.060
-685.310	80.725	0.201	-0.222
-684.295	-150.951	-0.012	-0.001
-683.281	-125.797	-0.184	-0.028
-682.266	-62.688	0.200	0.085
-681.251	-126.573	0.402	-0.061
-680.237	-68.877	0.294	-0.116
-679.222	-40.637	-0.389	-0.206
-678.208	-200.000	0.034	-0.232
-677.193	-179.246	-0.103	-0.002
-676.178	800.000	-0.091	0.277
-675.164	-81.255	-0.299	-0.101
-674.149	46.642	-0.115	0.109
-673.135	-109.474	0.160	-0.035
-672.120	332.696	-0.253	-0.499
-671.105	228.048	0.113	-0.187
-670.091	-44.650	-0.267	-0.136
-669.076	-156.535	-0.246	0.016
-668.062	800.000	-0.059	-0.176
-667.047	-85.817	0.243	-0.077
-666.032	-106.595	-0.115	-0.026
-665.018	49.021	-0.152	-0.145
-664.003	-124.033	0.240	0.039
-662.989	11.067	0.011	-0.008
-661.974	800.000	-0.059	0.210
-660.959	31.235	0.287	-0.251
-659.945	-200.000	0.006	-0.107
-658.930	11.010	-0.181	-0.141
-657.916	-9.693	-0.125	0.085
-656.901	231.114	0.104	-0.174
-655.886	765.666	0.056	0.156
-654.872	109.157	0.128	0.156
-653.857	-161.280	-0.030	0.002
-652.843	-155.963	0.429	0.028
-651.828	-136.608	-0.132	0.016
-650.814	-73.329	-0.180	0.067
-649.799	-53.646	-0.124	0.058
-648.784	-99.764	-0.415	-0.106
-647.770	708.402	-0.076	-0.205
-646.755	131.614	-0.162	-0.212
-645.741	-141.678	0.420	-0.043
-644.726	-200.000	-0.038	-0.195
-643.711	169.466	0.086	-0.125
-642.697	-138.459	-0.215	0.024
-641.682	123.538	-0.065	-0.084
-640.668	800.000	-0.010	0.033
-639.653	257.558	0.024	-0.042
-638.638	-0.392	-0.210	0.152
-637.624	-24.627	0.200	-0.121
-636.609	-41.878	0.322	-0.168
-635.595	95.859	0.059	0.069
-634.580	297.462	0.066	-0.123
-633.565	303.947	-0.133	-0.251
-632.551	109.077	-0.162	-0.198
-631.536	-41.309	-0.228	0.120
-630.522	-36.954	0.239	0.130
-629.507	288.345	-0.125	0.231
-628.492	140.895	0.159	-0.214
-627.478	290.716	-0.121	-0.225
-626.463	616.673	-0.071	0.183
-625.449	-3.628	-0.180	0.127
-624.434	329.054	0.150	0.293
-623.419	-143.120	-0.352	-0.035
-622.405	-143.609	-0.082	0.008
-621.390	166.052	-0.076	0.109
-620.376	-31.063	0.193	-0.111
-619.361	147.803	-0.058	0.080
-618.346	-128.716	0.082	0.012
-617.332	370.519	0.077	0.158
-616.317	452.267	0.042	0.095
-615.303	-40.826	0.086	-0.045
-614.288	108.508	0.182	-0.221
-613.273	800.000	-0.057	-0.165
-612.259	110.576	0.131	0.160
-611.244	-17.232	-0.149	-0.096
-610.230	168.180	0.086	0.124
-609.215	-200.000	0.004	-0.209
-608.201	800.000	0.154	0.441
-607.186	-25.863	-0.069	0.041
-606.171	432.217	-0.127	-0.280
-605.157	435.359	0.111	-0.245
-604.142	800.000	0.110	-0.357
-603.128	70.528	0.150	-0.158
-602.113	-35.115	-0.112	-0.062
-601.098	-4.757	-0.089	0.063
-600.084	15.480	-0.107	0.086
-599.069	-200.000	-0.029	0.163
-598.055	284.725	0.089	0.162
-597.040	-63.795	0.289	-0.121
-596.025	-100.589	-0.207	0.052
-595.011	103.344	-0.149	-0.178
-593.996	9.423	-0.127	-0.098
-592.982	-200.000	-0.047	0.218
-591.967	321.280	0.077	-0.148
-590.952	-110.848	-0.303	-0.063
-589.938	675.241	0.029	-0.076
-588.923	564.292	0.039	-0.097
-587.909	215.892	0.263	-0.425
-586.894	67.287	0.273	-0.284
-585.879	79.148	-0.039	-0.042
-584.865	-41.300	0.035	-0.019
-583.850	800.000	-0.049	-0.194
-582.836	-71.098	-0.124	-0.047
-581.821	363.849	-0.073	-0.149
-580.806	72.379	-0.228	-0.241
-579.792	352.514	-0.074	-0.149
-578.777	-200.000	0.010	-0.105
-577.763	57.694	0.116	0.116
-576.748	-16.824	-0.296	-0.190
-575.733	800.000	-0.083	-0.322
-574.719	270.199	0.112	0.201
-573.704	253.537	0.147	-0.255
-572.690	-75.859	-0.391	-0.141
-571.675	350.593	0.138	0.278
-570.661	-200.000	-0.004	0.084
-569.646	47.191	-0.074	-0.070
-568.631	-200.000	0.023	-0.202
-567.617	-192.272	-0.149	-0.001
-566.602	800.000	-0.053	0.187
-565.588	800.000	-0.053	0.208
-564.573	-200.000	0.018	-0.089
-563.558	-200.000	0.046	-0.000
-562.544	-85.290	0.558	0.177
-561.529	-38.811	0.335	0.180
-560.515	311.951	0.045	-0.086
-559.500	254.637	0.119	-0.206
-558.485	-200.000	-0.001	0.195
-557.471	-200.000	-0.016	0.177
-556.456	-55.526	0.247	-0.112
-555.442	-167.965	0.171	-0.007
-554.427	-127.569	-0.281	-0.041
-553.412	-200.000	0.002	0.060
-552.398	-71.218	0.259	-0.099
-551.383	703.887	-0.089	-0.238
-550.369	-69.786	-0.149	0.058
-549.354	-200.000	-0.021	-0.273
-548.339	470.100	0.143	0.327
-547.325	123.563	0.175	0.223
-546.310	-158.351	-0.422	0.025
-545.296	-5.556	-0.244	0.170
-544.281	-16.250	-0.064	0.041
-543.266	152.957	-0.099	0.137
-542.252	182.768	0.183	0.274
-541.237	338.529	-0.086	0.170
-540.223	-122.895	0.055	-0.009
-539.208	-119.933	0.250	0.044
-538.193	-101.034	-0.145	0.036
-537.179	323.615	0.142	0.274
-536.164	290.827	-0.139	0.256
-535.150	54.912	-0.207	-0.203
-534.135	179.847	0.137	-0.204
-533.121	272.236	0.080	0.142
-532.106	147.788	-0.179	0.245
-531.091	64.984	-0.194	0.199
-530.077	-168.085	0.146	0.006
-529.062	-7.994	-0.346	-0.237
-528.048	326.176	0.078	0.151
-527.033	409.752	-0.035	-0.074
-526.018	800.000	-0.011	-0.038
-525.004	760.576	0.080	-0.219
-523.989	-160.057	-0.197	-0.011
-522.975	-104.259	-0.274	0.065
-521.960	257.810	0.122	0.213
-520.945	-106.752	-0.193	-0.044
-519.931	106.403	0.068	-0.081
-518.916	186.730	-0.110	0.166
-517.902	96.784	0.021	0.024
-516.887	285.837	-0.070	-0.127
-515.872	-200.000	-0.024	-0.263
-514.858	87.886	0.098	-0.110
-513.843	138.868	0.207	0.276
-512.829	770.718	-0.047	-0.129
-511.814	-200.000	0.058	-0.264
-510.799	189.899	0.221	-0.336
-509.785	8.341	-0.260	-0.198
-508.770	315.384	-0.168	-0.321
-507.756	-94.697	-0.172	0.047
-506.741	211.988	0.148	0.237
-505.726	-85.141	-0.265	0.084
-504.712	424.508	0.133	-0.291
-503.697	-200.000	0.005	-0.149
-502.683	-13.390	-0.108	-0.071
-501.668	-38.799	0.042	-0.022
-500.653	294.922	-0.086	0.160
-499.639	-200.000	-0.022	0.220
-498.624	-109.780	-0.258	-0.055
-497.610	173.782	-0.136	0.199
-496.595	-119.261	-0.135	0.024
-495.581	-95.444	-0.304	-0.083
-494.566	-68.455	-0.156	0.061
-493.551	-200.000	-0.022	0.347
-492.537	287.815	-0.123	-0.226
-491.522	-12.217	-0.123	-0.082
-490.508	-42.084	0.291	-0.151
-489.493	800.000	-0.058	-0.171
-488.478	-200.000	-0.015	-0.384
-487.464	-200.000	0.017	0.200
-486.449	-200.000	0.008	-0.180
-485.435	630.093	0.040	0.102
-484.420	-111.102	-0.155	0.032
-483.405	800.000	-0.061	-0.177
-482.391	-22.418	0.293	-0.180
-481.376	259.296	-0.159	0.279
-480.362	-44.761	0.297	0.150
-479.347	-107.373	0.048	0.011
-478.332	800.000	0.040	0.154
-477.318	0.240	-0.076	-0.055
-476.303	-200.000	-0.016	0.104
-475.289	-200.000	0.004	-0.073
-474.274	-110.399	0.248	0.052
-473.259	520.644	-0.072	0.171
-472.245	-90.869	-0.116	0.034
-471.230	16.252	-0.130	-0.104
-470.216	23.704	0.264	-0.220
-469.201	-159.510	0.327	-0.018
-468.186	-160.335	0.093	0.005
-467.172	-79.147	0.260	0.089
-466.157	-78.999	-0.223	-0.077
-465.143	800.000	0.141	-0.414
-464.128	374.418	0.055	0.114
-463.113	228.451	-0.149	-0.245
-462.099	-200.000	0.016	0.077
-461.084	121.970	0.117	0.148
-460.070	-200.000	0.056	0.284
-459.055	488.821	0.212	0.491
-458.040	-200.000	0.028	0.400
-457.026	-125.402	-0.134	-0.021
-456.011	-83.437	-0.347	0.112
-454.997	-156.177	0.172	0.011
-453.982	-68.027	-0.151	-0.059
-452.968	-117.813	-0.103	0.019
-451.953	-200.000	-0.047	0.281
-450.938	-74.511	0.238	-0.087
-449.924	-200.000	0.002	0.114
-448.909	221.444	0.204	-0.332
-447.895	-82.111	-0.299	0.099
-446.880	-200.000	0.047	0.440
-445.865	163.163	0.030	0.042
-444.851	2.324	-0.147	0.108
-443.836	585.425	-0.029	-0.073
-442.822	800.000	0.105	0.466
-441.807	155.475	-0.112	0.156
-440.792	202.613	-0.127	-0.198
-439.778	38.135	-0.184	-0.165
-438.763	800.000	0.117	-0.503
-437.749	-160.262	-0.479	0.026
-436.734	-105.523	-0.163	0.038
-435.719	594.188	0.017	0.042
-434.705	97.750	0.216	-0.251
-433.690	-200.000	-0.024	0.171
-432.676	106.638	0.058	-0.069
-431.661	241.146	0.143	0.242
-430.646	-200.000	0.013	0.072
-429.632	501.555	-0.092	0.214
-428.617	-74.927	0.302	-0.110
-427.603	-179.003	-0.050	-0.001
-426.588	103.373	0.209	0.247
-425.573	-61.355	0.203	0.086
-424.559	-87.241	0.243	-0.075
-423.544	-200.000	-0.047	-0.270
-422.530	142.489	0.052	0.070
-421.515	800.000	-0.133	0.514
-420.500	-91.480	-0.179	-0.052
-419.486	-144.224	0.238	0.022
-418.471	-26.267	0.060	-0.036
-417.457	-200.000	0.026	0.143
-416.442	-200.000	0.022	0.247
-415.428	68.114	0.086	-0.089
-414.413	151.272	0.052	-0.072
-413.398	54.721	0.231	0.225
-412.384	-17.495	0.357	-0.227
-411.369	93.699	-0.174	0.200
-410.355	-200.000	-0.000	-0.262
-409.340	800.000	0.081	-0.330
-408.325	-16.288	-0.162	0.104
-407.311	-24.385	-0.264	-0.159
-406.296	-200.000	-0.013	-0.071
-405.282	-200.000	-0.065	0.396
-404.267	-200.000	0.013	0.063
-403.252	395.904	-0.017	0.037
-402.238	-200.000	0.008	0.227
-401.223	-43.088	-0.386	-0.198
-400.209	-39.984	-0.249	-0.131
-399.194	19.476	0.170	-0.138
-398.179	347.592	-0.162	0.323
-397.165	-44.708	0.231	-0.116
-396.150	-149.353	-0.243	0.020
-395.136	-14.034	-0.149	-0.097
-394.121	-123.143	-0.331	-0.054
-393.106	-99.025	-0.271	-0.069
-392.092	-88.575	-0.285	0.086
-391.077	328.220	0.164	0.317
-390.063	70.797	-0.051	0.054
-389.048	-200.000	-0.021	-0.214
-388.033	800.000	0.019	0.077
-387.019	26.487	-0.234	0.197
-386.004	332.482	-0.171	0.334
-384.990	13.256	-0.064	0.050
-383.975	30.443	0.051	0.044
-382.960	-13.877	0.156	-0.102
-381.946	-76.865	-0.203	-0.072
-380.931	-107.876	0.169	0.037
-379.917	151.141	-0.118	0.162
-378.902	-54.159	-0.288	0.132
-377.888	-123.618	-0.128	-0.021
-376.873	-200.000	-0.016	-0.185
-375.858	-200.000	0.015	-0.125
-374.844	-28.687	-0.055	0.032
-373.829	35.603	-0.209	-0.185
-372.815	-94.326	0.115	-0.032
-371.800	-93.049	0.280	0.079
-370.785	358.070	-0.104	0.210
-369.771	263.599	-0.262	0.459
-368.756	107.912	-0.026	0.031
-367.742	184.018	-0.143	0.214
-366.727	-153.061	0.222	0.016
-365.712	-53.646	-0.062	0.028
-364.698	449.330	-0.044	0.098
-363.683	-96.659	0.244	0.065
-362.669	200.697	0.077	-0.119
-361.654	-27.717	-0.073	0.043
-360.639	45.015	-0.104	0.097
-359.625	223.294	-0.133	-0.217
-358.610	135.959	-0.194	0.254
-357.596	-52.603	-0.159	0.074
-356.581	-68.980	0.240	-0.093
-355.566	800.000	0.081	0.268
-354.552	185.698	-0.083	0.124
-353.537	-88.371	-0.180	0.054
-352.523	103.010	0.046	-0.054
-351.508	-43.137	-0.167	-0.086
-350.493	204.052	0.158	-0.247
-349.479	-63.368	0.281	-0.116
-348.464	314.374	-0.026	-0.049
-347.450	-41.551	0.280	0.145
-346.435	236.741	-0.184	0.307
-345.420	-200.000	-0.025	-0.224
-344.406	-112.948	0.215	0.043
-343.391	-48.760	-0.125	0.061
-342.377	-17.376	0.091	-0.058
-341.362	-91.253	0.213	0.062
-340.348	-156.553	0.181	0.011
-339.333	-18.062	0.189	-0.119
-338.318	-24.325	-0.257	0.154
-337.304	-24.720	0.148	0.089
-336.289	-200.000	0.061	0.322
-335.275	800.000	-0.073	0.226
-334.260	-73.587	0.132	-0.048
-333.245	-200.000	-0.032	-0.267
-332.231	800.000	-0.054	0.235
-331.216	-13.750	-0.131	-0.085
-330.202	476.900	0.040	-0.092
-329.187	205.603	0.236	0.369
-328.172	-89.441	-0.118	-0.035
-327.158	11.617	-0.182	0.141
-326.143	48.836	0.140	-0.132
-325.129	17.634	0.249	-0.199
-324.114	296.505	0.081	-0.149
-323.099	247.982	0.058	-0.098
-322.085	-18.564	0.185	0.116
-321.070	800.000	-0.111	-0.349
-320.056	-18.281	-0.218	-0.137
-319.041	290.478	0.248	-0.454
-318.026	-200.000	0.015	0.356
-317.012	99.519	-0.112	0.131
-315.997	-55.894	-0.140	0.063
-314.983	437.429	0.094	-0.206
-313.968	-68.578	0.414	0.161
-312.953	7.635	0.137	0.103
-311.939	21.332	0.346	-0.283
-310.924	-30.091	-0.196	0.112
-309.910	316.079	-0.062	-0.118
-308.895	-67.034	0.314	0.125
-307.880	296.098	0.073	-0.135
-306.866	800.000	-0.061	0.212
-305.851	-200.000	0.005	0.040
-304.837	-200.000	-0.009	-0.172
-303.822	140.933	-0.135	-0.180
-302.807	-151.180	-0.164	-0.012
-301.793	-131.216	0.140	-0.019
-300.778	189.389	0.116	-0.175
-299.764	-92.364	-0.187	-0.053
-298.749	-34.364	0.176	-0.097
-297.735	-200.000	0.005	-0.140
-296.720	12.471	-0.094	0.073
-295.705	-68.937	0.052	0.020
-294.691	-110.050	-0.112	-0.023
-293.676	57.292	0.113	-0.111
-292.662	-39.442	-0.257	-0.135
-291.647	68.830	-0.079	-0.082
-290.632	800.000	-0.029	0.083
-289.618	-107.190	-0.234	-0.052
-288.603	-200.000	0.014	-0.142
-287.589	341.275	0.122	0.239
-286.574	-96.409	0.198	0.053
-285.559	729.098	0.058	-0.156
-284.545	121.809	0.040	0.050
-283.530	-200.000	-0.045	0.416
-282.516	800.000	-0.081	0.286
-281.501	-200.000	-0.016	0.410
-280.486	292.656	0.218	0.400
-279.472	-44.453	-0.330	0.166
-278.457	170.965	0.120	-0.173
-277.443	695.731	0.172	0.453
-276.428	78.315	-0.262	-0.281
-275.413	20.749	-0.084	-0.069
-274.399	-159.104	0.322	-0.018
-273.384	447.799	-0.106	0.235
-272.370	249.988	-0.146	0.250
-271.355	-100.515	-0.105	0.026
-270.340	800.000	0.081	0.304
-269.326	20.218	0.186	-0.150
-268.311	-127.927	0.193	-0.028
-267.297	252.144	0.073	0.125
-266.282	111.951	0.080	0.097
-265.267	-200.000	-0.063	0.361
-264.253	185.532	-0.133	-0.198
-263.238	53.056	-0.110	-0.106
-262.224	171.954	-0.088	-0.128
-261.209	-5.822	0.255	0.175
-260.195	14.879	0.063	0.050
-259.180	-200.000	0.035	0.179
-258.165	-56.366	0.225	0.100
-257.151	-13.161	-0.103	-0.067
-256.136	-200.000	-0.008	-0.113
-255.122	2.009	-0.133	-0.096
-254.107	800.000	-0.058	0.178
-253.092	270.332	-0.140	0.248
-252.078	-47.602	-0.299	0.146
-251.063	-121.682	-0.318	-0.053
-250.049	-200.000	-0.065	-0.439
-249.034	-40.160	0.275	0.144
-248.019	166.524	-0.134	0.191
-247.005	-200.000	0.019	-0.389
-245.990	-102.650	0.214	0.051
-244.976	-47.204	-0.046	0.023
-243.961	800.000	-0.109	-0.326
-242.946	6.343	0.197	-0.147
-241.932	95.283	0.305	-0.349
-240.917	-115.805	0.100	0.019
-239.903	167.875	-0.090	-0.129
-238.888	42.970	0.189	-0.173
-237.873	-67.471	-0.270	0.106
-236.859	707.063	-0.065	-0.171
-235.844	630.658	0.030	0.076
-234.830	153.933	-0.116	-0.159
-233.815	800.000	-0.046	-0.198
-232.800	800.000	0.060	0.171
-231.786	118.496	0.124	-0.153
-230.771	-200.000	-0.001	0.038
-229.757	-84.617	-0.135	0.043
-228.742	-200.000	0.029	0.270
-227.727	-121.831	0.334	-0.055
-226.713	-78.193	0.074	0.026
-225.698	-173.077	-0.112	-0.003
-224.684	-200.000	-0.017	-0.127
-223.669	731.905	0.102	0.274
-222.655	-155.103	0.475	0.031
-221.640	-15.580	0.141	0.091
-220.625	97.086	-0.248	0.285
-219.611	22.386	0.231	0.189
-218.596	130.271	-0.127	-0.163
-217.582	-200.000	0.016	-0.333
-216.567	686.099	0.027	-0.072
-215.552	-114.667	0.061	0.012
-214.538	77.278	-0.127	-0.135
-213.523	47.442	-0.263	-0.245
-212.509	-178.925	0.325	-0.007
-211.494	143.524	-0.100	0.133
-210.479	126.919	0.100	0.127
-209.465	-95.879	0.167	-0.045
-208.450	33.626	-0.058	-0.051
-207.436	107.009	-0.257	-0.306
-206.421	79.406	0.094	0.101
-205.406	193.721	0.153	0.232
-204.392	-12.802	0.335	-0.219
-203.377	-6.424	0.291	0.199
-202.363	-108.957	-0.321	-0.069
-201.348	678.014	0.094	0.244
-200.333	-200.000	-0.053	-0.304
-199.319	-142.579	0.136	0.013
-198.304	249.616	0.052	0.089
-197.290	297.797	0.119	0.219
-196.275	32.830	-0.159	-0.138
-195.260	-112.596	-0.327	-0.065
-194.246	-200.000	-0.021	-0.119
-193.231	15.866	0.075	-0.059
-192.217	21.337	0.313	-0.255
-191.202	-192.727	-0.068	-0.001
-190.187	-128.563	0.187	-0.027
-189.173	273.789	-0.024	0.042
-188.158	5.278	-0.070	0.052
-187.144	249.606	-0.172	-0.292
-186.129	-118.571	-0.088	-0.016
-185.114	3.303	0.083	0.061
-184.100	-0.315	-0.047	0.034
-183.085	800.000	-0.047	-0.196
-182.071	289.110	-0.140	-0.254
-181.056	-139.719	0.346	-0.037
-180.042	68.177	0.204	0.209
-179.027	-22.372	-0.176	0.107
-178.012	-85.154	-0.082	0.026
-176.998	-28.816	0.171	0.098
-175.983	-72.607	0.284	0.105
-174.969	166.548	0.070	-0.099
-173.954	-94.422	-0.087	0.024
-172.939	76.918	-0.101	0.107
-171.925	800.000	-0.018	0.070
-170.910	-200.000	-0.006	0.110
-169.896	377.153	-0.113	-0.232
-168.881	-8.682	0.269	-0.181
-167.866	-57.470	0.298	-0.131
-166.852	-75.298	-0.057	-0.020
-165.837	-24.378	-0.298	0.178
-164.823	78.854	0.120	0.128
-163.808	-74.766	0.109	-0.039
-162.793	51.680	-0.138	-0.131
-161.779	263.781	0.068	0.118
-160.764	722.388	0.161	-0.428
-159.750	800.000	-0.032	-0.101
-158.735	-200.000	0.050	0.322
-157.720	800.000	-0.068	-0.204
-156.706	-81.229	0.103	0.034
-155.691	800.000	-0.143	-0.411
-154.677	138.785	-0.101	0.133
-153.662	134.754	0.101	-0.132
-152.647	279.529	0.095	-0.170
-151.633	-144.180	0.200	-0.019
-150.618	-200.000	-0.059	-0.320
-149.604	-177.871	-0.565	0.014
-148.589	-141.701	0.099	0.010
-147.574	-90.595	-0.151	0.044
-146.560	800.000	0.087	-0.290
-145.545	7.143	0.361	0.269
-144.531	580.787	0.101	-0.247
-143.516	214.152	-0.019	0.029
-142.502	-200.000	-0.022	0.232
-141.487	503.572	-0.148	0.341
-140.472	133.497	0.121	0.156
-139.458	-10.085	0.362	-0.241
-138.443	299.645	0.069	-0.127
-137.429	27.133	0.062	0.052
-136.414	26.330	-0.136	0.113
-135.399	595.579	0.158	-0.392
-134.385	-101.231	0.389	-0.095
-133.370	-31.545	0.430	0.242
-132.356	-152.205	-0.285	0.021
-131.341	-6.558	0.055	-0.038
-130.326	-200.000	-0.008	0.338
-129.312	-52.617	0.347	-0.160
-128.297	-81.023	0.322	-0.107
-127.283	316.955	-0.116	0.219
-126.268	-200.000	0.004	-0.085
-125.253	-40.994	0.135	0.070
-124.239	48.614	0.135	0.127
-123.224	-200.000	-0.002	0.480
-122.210	102.593	-0.047	-0.055
-121.195	20.066	-0.166	0.134
