DTS Sentinel unit serial number:	SN413079Multiplexer serial number:	ORYXHardware model number:	OX4-SRSoftware version number:	ORYX F/W v4.00 Oryx Data Collector v3.7.2.0data status	okinstallation	princeton_trtdifferential loss correction	single-endedforward channel	channel 4reverse channel	N/Adate	2019/09/19time	14:01:35forward acquisition time	60.00reverse acquisition time	0.00gamma	496.2192k internal	0.2308k external	0.2308temperature offset calibration	1.0017default loss term (dB/km)	0.3790temperature slope calibration	1.0000multiplexer offset coefficient	1.0000multiplexer slope coefficient	1.0000fibre end	0.00T internal ref (°C)	31.17T ext. ref 1 (°C)	1.02T ext. ref 2 (°C)	28.41length (m)	temperature (°C)	Stokes	anti-Stokes-747.200	-200.000	-0.013	0.148
-746.185	-82.256	-0.346	0.114
-745.171	27.389	0.070	-0.060
-744.156	-200.000	0.002	-0.021
-743.142	-105.749	0.189	0.043
-742.127	-68.660	-0.292	-0.115
-741.112	-200.000	0.030	-0.210
-740.098	591.159	-0.047	-0.118
-739.083	339.596	0.156	0.308
-738.069	800.000	0.099	0.420
-737.054	-85.314	0.287	0.091
-736.039	-43.509	-0.073	-0.038
-735.025	-200.000	-0.078	-0.371
-734.010	800.000	-0.076	-0.283
-732.996	81.448	0.146	0.160
-731.981	800.000	0.065	-0.199
-730.966	-200.000	-0.017	0.098
-729.952	105.504	-0.140	-0.168
-728.937	29.946	0.268	-0.232
-727.923	401.812	-0.207	-0.442
-726.908	-54.434	-0.287	0.132
-725.894	-200.000	-0.028	-0.227
-724.879	-156.663	-0.177	-0.011
-723.864	148.054	0.166	-0.228
-722.850	800.000	0.077	-0.299
-721.835	-46.767	-0.326	-0.162
-720.821	-78.153	-0.364	-0.127
-719.806	-125.241	-0.332	-0.051
-718.791	525.491	0.021	0.050
-717.777	-125.953	-0.109	-0.017
-716.762	33.387	-0.077	0.068
-715.748	-149.737	-0.121	-0.010
-714.733	-200.000	0.030	0.562
-713.718	-200.000	-0.052	0.387
-712.704	291.562	-0.047	0.086
-711.689	-59.840	-0.197	0.086
-710.675	-200.000	0.058	-0.289
-709.660	266.016	0.065	0.116
-708.645	162.700	-0.254	-0.362
-707.631	566.065	-0.069	0.170
-706.616	295.709	0.059	-0.110
-705.602	800.000	0.057	-0.166
-704.587	-59.957	-0.338	0.147
-703.572	-200.000	0.006	0.316
-702.558	86.665	0.106	0.119
-701.543	733.603	0.076	-0.207
-700.529	125.233	-0.153	0.195
-699.514	-80.411	-0.156	-0.053
-698.499	210.945	-0.183	-0.292
-697.485	800.000	0.028	0.100
-696.470	-171.097	-0.478	-0.016
-695.456	-200.000	0.020	0.107
-694.441	800.000	0.037	0.106
-693.426	29.067	0.252	0.217
-692.412	-200.000	0.019	-0.141
-691.397	-112.398	-0.073	-0.015
-690.383	-200.000	0.041	-0.220
-689.368	-135.409	0.336	-0.041
-688.354	-53.542	0.035	0.016
-687.339	-29.658	-0.251	-0.145
-686.324	565.341	-0.115	-0.282
-685.310	-82.262	-0.100	0.033
-684.295	74.708	-0.039	0.042
-683.281	376.479	0.046	0.094
-682.266	-200.000	0.012	0.056
-681.251	-12.509	0.184	0.122
-680.237	-200.000	0.017	0.116
-679.222	-83.986	-0.235	-0.076
-678.208	-132.171	0.268	-0.035
-677.193	800.000	-0.043	-0.123
-676.178	-69.960	-0.375	0.145
-675.164	800.000	0.068	-0.300
-674.149	-147.163	-0.264	-0.023
-673.135	-200.000	-0.007	-0.502
-672.120	-62.589	0.121	-0.051
-671.105	-21.102	-0.104	-0.065
-670.091	-52.088	0.224	-0.105
-669.076	-81.811	0.169	-0.056
-668.062	-10.513	-0.092	0.062
-667.047	-192.284	0.341	-0.003
-666.032	-190.697	-0.341	-0.004
-665.018	-49.577	-0.313	-0.151
-664.003	7.424	0.040	-0.030
-662.989	-77.773	0.506	-0.177
-661.974	-200.000	-0.005	-0.131
-660.959	-138.227	-0.333	-0.037
-659.945	-60.201	-0.123	0.053
-658.930	-47.141	0.320	0.158
-657.916	-41.279	-0.321	0.167
-656.901	-200.000	-0.017	-0.158
-655.886	-200.000	0.033	0.161
-654.872	-18.737	0.105	-0.066
-653.857	117.831	-0.095	0.119
-652.843	-199.528	-0.253	0.001
-651.828	163.506	-0.012	-0.017
-650.814	-86.834	-0.009	0.003
-649.799	74.633	0.187	-0.200
-648.784	39.064	-0.123	-0.111
-647.770	491.673	0.089	0.206
-646.755	-83.842	0.288	-0.093
-645.741	-102.323	-0.179	-0.044
-644.726	49.824	0.100	0.096
-643.711	-200.000	-0.005	-0.376
-642.697	-200.000	0.005	-0.147
-641.682	-40.276	0.128	-0.068
-640.668	800.000	0.047	-0.201
-639.653	104.649	-0.249	-0.297
-638.638	-97.989	-0.129	-0.034
-637.624	14.510	-0.251	0.199
-636.609	-200.000	0.013	0.305
-635.595	196.367	-0.097	-0.150
-634.580	-108.302	0.170	-0.037
-633.565	-200.000	-0.040	-0.311
-632.551	442.899	-0.127	0.281
-631.536	-129.289	-0.194	0.027
-630.522	-160.351	0.144	0.008
-629.507	276.495	-0.101	-0.182
-628.492	726.506	0.037	0.099
-627.478	-84.524	0.321	-0.103
-626.463	115.834	0.219	-0.271
-625.449	-200.000	-0.063	0.481
-624.434	31.576	0.093	0.081
-623.419	800.000	-0.076	-0.246
-622.405	-22.153	0.325	0.200
-621.390	-200.000	0.029	-0.136
-620.376	498.092	-0.169	0.394
-619.361	-58.283	0.109	0.048
-618.346	26.418	0.088	0.075
-617.332	457.001	0.064	-0.143
-616.317	-139.043	0.202	0.022
-615.303	-72.852	0.249	-0.093
-614.288	-97.201	-0.271	0.072
-613.273	-25.905	0.259	0.154
-612.259	-200.000	0.015	0.118
-611.244	465.947	0.025	0.056
-610.230	-55.394	-0.281	0.127
-609.215	-180.222	0.169	0.004
-608.201	-84.761	-0.121	0.038
-607.186	3.260	-0.111	0.082
-606.171	-134.168	0.129	-0.016
-605.157	-3.263	-0.301	-0.212
-604.142	-200.000	-0.011	0.137
-603.128	38.932	0.289	0.261
-602.113	-200.000	0.051	0.355
-601.098	147.436	-0.083	0.113
-600.084	-68.935	-0.092	-0.036
-599.069	32.975	0.158	-0.138
-598.055	121.832	0.067	-0.085
-597.040	-130.643	0.150	-0.020
-596.025	-40.171	0.058	-0.030
-595.011	-151.578	-0.247	0.018
-593.996	384.460	0.079	0.164
-592.982	145.110	-0.041	-0.056
-591.967	-200.000	-0.012	0.094
-590.952	-200.000	-0.025	-0.170
-589.938	458.730	-0.236	0.530
-588.923	-170.057	0.257	0.009
-587.909	-32.998	-0.199	-0.112
-586.894	28.002	-0.225	0.192
-585.879	44.423	0.295	-0.274
-584.865	59.664	0.097	0.097
-583.850	250.322	0.114	0.196
-582.836	219.487	-0.199	-0.322
-581.821	90.683	0.135	-0.152
-580.806	-72.478	-0.119	0.044
-579.792	-75.816	0.215	0.077
-578.777	-125.252	0.139	0.021
-577.763	-143.265	-0.225	0.022
-576.748	800.000	0.031	-0.108
-575.733	-185.768	0.343	0.005
-574.719	167.746	0.097	-0.139
-573.704	612.099	0.114	-0.288
-572.690	145.026	-0.059	-0.080
-571.675	-88.251	0.412	0.125
-570.661	-61.821	-0.125	-0.053
-569.646	449.622	-0.086	-0.191
-568.631	10.474	-0.207	-0.159
-567.617	-71.261	-0.247	0.094
-566.602	-66.094	0.101	0.041
-565.588	-55.791	-0.137	0.062
-564.573	800.000	-0.045	-0.171
-563.558	166.510	-0.069	-0.099
-562.544	122.260	-0.117	-0.148
-561.529	186.448	0.021	0.032
-560.515	-9.546	-0.089	-0.060
-559.500	-161.556	-0.212	0.011
-558.485	-77.465	0.147	0.052
-557.471	620.281	-0.054	-0.137
-556.456	120.515	-0.211	0.264
-555.442	-40.999	-0.135	-0.070
-554.427	-40.196	-0.144	-0.076
-553.412	-85.361	0.039	-0.012
-552.398	139.813	-0.186	-0.248
-551.383	515.279	-0.052	-0.123
-550.369	170.789	0.023	0.034
-549.354	-200.000	0.008	0.060
-548.339	-60.716	0.206	-0.088
-547.325	22.441	-0.179	0.147
-546.310	648.136	-0.117	0.303
-545.296	106.164	-0.133	0.158
-544.281	-5.207	-0.208	0.144
-543.266	-200.000	0.028	0.128
-542.252	-74.786	-0.062	-0.022
-541.237	-200.000	-0.036	0.243
-540.223	-110.567	-0.288	0.060
-539.208	-157.408	-0.156	0.009
-538.193	198.720	-0.079	-0.121
-537.179	109.010	-0.330	0.398
-536.164	800.000	-0.037	0.112
-535.150	-200.000	0.018	0.225
-534.135	800.000	0.037	0.146
-533.121	800.000	-0.052	-0.200
-532.106	-60.257	0.100	0.043
-531.091	-73.508	-0.111	0.041
-530.077	-50.947	-0.285	0.135
-529.062	800.000	0.049	-0.146
-528.048	-168.151	-0.212	-0.008
-527.033	83.235	-0.222	-0.244
-526.018	778.203	0.060	-0.166
-525.004	-181.287	-0.142	-0.003
-523.989	84.548	-0.049	0.054
-522.975	-107.034	0.192	-0.043
-521.960	800.000	0.076	0.316
-520.945	800.000	0.060	0.182
-519.931	545.187	-0.185	-0.445
-518.916	-197.353	0.046	0.000
-517.902	-110.829	0.171	-0.035
-516.887	-114.518	0.232	0.045
-515.872	800.000	0.108	-0.339
-514.858	18.776	-0.479	-0.387
-513.843	-70.875	-0.220	-0.084
-512.829	-116.058	-0.237	-0.044
-511.814	800.000	0.079	0.281
-510.799	-86.026	0.150	0.047
-509.785	-200.000	-0.000	-0.089
-508.770	577.760	-0.050	0.124
-507.756	96.407	-0.183	-0.210
-506.741	800.000	-0.064	-0.200
-505.726	-22.065	-0.209	-0.128
-504.712	105.277	0.159	-0.189
-503.697	-186.355	0.203	-0.003
-502.683	31.682	0.107	0.093
-501.668	286.894	0.074	0.134
-500.653	1.702	-0.090	0.065
-499.639	-22.456	0.146	0.089
-498.624	199.412	-0.204	-0.315
-497.610	149.330	-0.160	-0.219
-496.595	-42.595	-0.123	-0.063
-495.581	700.352	0.060	-0.160
-494.566	800.000	-0.128	-0.449
-493.551	-200.000	-0.029	-0.155
-492.537	419.830	-0.063	-0.135
-491.522	800.000	-0.023	0.080
-490.508	-200.000	-0.086	0.435
-489.493	46.003	-0.044	0.041
-488.478	-200.000	0.008	0.065
-487.464	19.643	0.374	0.303
-486.449	-4.419	-0.225	-0.156
-485.435	474.996	0.156	-0.354
-484.420	87.419	0.227	0.253
-483.405	763.115	-0.083	0.228
-482.391	-38.223	0.313	0.167
-481.376	459.444	-0.061	0.136
-480.362	-200.000	0.024	-0.116
-479.347	-200.000	-0.013	0.131
-478.332	152.823	-0.183	0.252
-477.318	-143.295	0.213	-0.021
-476.303	-200.000	-0.042	-0.222
-475.289	-35.092	0.254	0.139
-474.274	-48.993	0.249	-0.120
-473.259	62.752	-0.135	-0.136
-472.245	-200.000	-0.024	-0.135
-471.230	60.085	-0.228	0.227
-470.216	-52.364	-0.216	0.101
-469.201	393.978	-0.055	0.116
-468.186	-200.000	-0.026	-0.520
-467.172	800.000	0.144	-0.411
-466.157	102.786	-0.208	-0.245
-465.143	-200.000	-0.004	-0.101
-464.128	-77.723	0.169	0.059
-463.113	340.728	0.190	0.374
-462.099	-200.000	-0.016	0.134
-461.084	-109.513	-0.139	0.029
-460.070	-95.262	0.290	-0.079
-459.055	45.837	0.156	0.145
-458.040	-10.239	0.176	0.117
-457.026	-200.000	0.023	0.494
-456.011	-0.942	0.353	0.251
-454.997	75.178	0.236	0.250
-453.982	-145.857	0.120	0.011
-452.968	-8.099	-0.252	0.171
-451.953	299.737	0.048	0.088
-450.938	291.948	-0.144	-0.263
-449.924	-5.548	-0.192	-0.132
-448.909	40.802	-0.164	0.148
-447.895	800.000	0.079	0.237
-446.880	800.000	-0.064	0.267
-445.865	800.000	0.075	-0.267
-444.851	442.940	-0.060	-0.131
-443.836	-200.000	0.034	-0.270
-442.822	-39.172	-0.362	0.191
-441.807	532.106	-0.162	0.384
-440.792	308.776	0.104	0.195
-439.778	-150.749	-0.173	-0.013
-438.763	-200.000	0.011	0.262
-437.749	371.765	-0.086	0.176
-436.734	234.493	-0.125	-0.208
-435.719	9.031	-0.121	-0.092
-434.705	119.044	-0.087	0.108
-433.690	-58.350	0.069	0.030
-432.676	-70.514	0.128	-0.049
-431.661	-104.280	-0.222	-0.052
-430.646	-3.202	0.206	-0.144
-429.632	720.633	-0.014	0.038
-428.617	154.202	-0.239	0.329
-427.603	23.915	0.156	-0.129
-426.588	88.444	-0.051	0.057
-425.573	61.721	0.174	-0.174
-424.559	167.595	-0.211	-0.301
-423.544	421.237	-0.133	0.286
-422.530	-200.000	0.010	-0.135
-421.515	400.353	-0.104	-0.219
-420.500	-200.000	0.009	-0.146
-419.486	186.003	0.220	-0.329
-418.471	-115.139	-0.019	-0.004
-417.457	-71.666	-0.098	0.037
-416.442	105.265	-0.134	-0.159
-415.428	-200.000	-0.027	-0.271
-414.413	-141.577	0.213	0.022
-413.398	304.057	0.094	0.176
-412.384	700.105	0.144	0.381
-411.369	-64.156	0.145	-0.059
-410.355	-91.174	-0.235	-0.067
-409.340	160.928	0.087	-0.122
-408.325	147.864	-0.123	0.166
-407.311	342.760	0.022	-0.044
-406.296	-200.000	-0.022	-0.313
-405.282	800.000	0.028	0.114
-404.267	127.049	0.133	0.169
-403.252	-124.784	-0.197	-0.031
-402.238	468.365	-0.062	-0.140
-401.223	-200.000	0.033	-0.299
-400.209	-73.021	-0.251	-0.093
-399.194	103.619	-0.192	0.226
-398.179	-32.701	-0.112	-0.062
-397.165	138.899	0.157	-0.207
-396.150	16.522	-0.077	0.061
-395.136	129.512	0.188	0.240
-394.121	384.602	-0.099	-0.204
-393.106	800.000	0.066	0.223
-392.092	691.789	-0.059	-0.154
-391.077	114.794	-0.126	-0.154
-390.063	217.058	0.059	-0.094
-389.048	-9.965	0.145	-0.097
-388.033	-200.000	-0.020	-0.364
-387.019	-77.603	-0.063	0.022
-386.004	152.091	0.135	0.185
-384.990	-103.168	-0.157	-0.037
-383.975	-15.765	-0.245	0.156
-382.960	369.564	-0.060	-0.121
-381.946	-63.196	0.149	0.061
-380.931	-15.336	0.439	0.281
-379.917	127.357	-0.155	0.197
-378.902	-75.770	0.190	-0.067
-377.888	-200.000	-0.026	0.251
-376.873	-118.657	0.068	0.012
-375.858	102.542	-0.090	0.106
-374.844	800.000	0.027	0.093
-373.829	-121.057	0.435	0.073
-372.815	82.005	0.254	-0.276
-371.800	93.721	0.034	0.038
-370.785	-200.000	-0.025	0.239
-369.771	-79.253	0.382	0.130
-368.756	-112.930	0.293	0.058
-367.742	49.981	0.305	0.288
-366.727	-200.000	-0.002	0.033
-365.712	-200.000	-0.391	-0.001
-364.698	36.635	0.238	0.211
-363.683	31.307	0.286	-0.246
-362.669	-200.000	0.040	0.223
-361.654	31.216	0.140	0.120
-360.639	800.000	-0.087	-0.279
-359.625	-23.818	-0.364	-0.219
-358.610	-200.000	0.033	-0.265
-357.596	101.081	-0.144	-0.168
-356.581	48.731	-0.149	0.140
-355.566	648.992	-0.011	-0.028
-354.552	800.000	0.058	-0.201
-353.537	93.878	-0.146	0.166
-352.523	-133.522	-0.234	-0.029
-351.508	152.629	-0.012	-0.017
-350.493	-87.585	-0.380	-0.115
-349.479	-134.034	0.287	-0.036
-348.464	-61.668	0.112	0.047
-347.450	800.000	0.042	-0.154
-346.435	23.707	-0.117	0.096
-345.420	-29.755	0.168	0.096
-344.406	678.600	0.067	0.174
-343.391	-200.000	-0.036	0.171
-342.377	800.000	-0.072	-0.305
-341.362	-200.000	0.000	-0.139
-340.348	210.544	-0.084	0.132
-339.333	-64.696	-0.150	0.061
-338.318	-186.944	0.225	-0.003
-337.304	0.302	-0.127	-0.091
-336.289	768.418	0.031	-0.083
-335.275	-27.783	-0.055	0.032
-334.260	323.527	-0.209	-0.398
-333.245	25.829	0.218	-0.182
-332.231	-74.142	0.196	0.071
-331.216	-110.368	0.084	0.018
-330.202	-169.069	-0.347	-0.013
-329.187	33.693	-0.145	0.126
-328.172	-200.000	0.026	-0.199
-327.158	-42.614	0.137	0.070
-326.143	-200.000	-0.055	0.243
-325.129	726.751	-0.134	-0.356
-324.114	-67.989	-0.205	0.080
-323.099	-62.937	-0.119	0.049
-322.085	86.899	-0.063	-0.069
-321.070	-171.970	0.200	-0.007
-320.056	213.405	0.108	-0.170
-319.041	-10.709	0.193	0.128
-318.026	-200.000	-0.002	0.171
-317.012	-200.000	-0.008	0.063
-315.997	-200.000	0.047	-0.549
-314.983	-101.018	-0.284	-0.070
-313.968	-65.516	0.186	0.074
-312.953	-66.187	0.166	0.066
-311.939	-67.589	-0.178	0.070
-310.924	85.107	0.072	0.079
-309.910	60.746	-0.336	0.333
-308.895	190.080	0.187	0.280
-307.880	-83.822	-0.150	-0.048
-306.866	515.241	-0.020	-0.047
-305.851	4.086	0.276	0.202
-304.837	123.775	0.337	0.422
-303.822	800.000	-0.103	0.365
-302.807	-51.021	-0.150	0.071
-301.793	59.137	0.131	0.128
-300.778	10.128	0.171	-0.130
-299.764	800.000	0.033	0.122
-298.749	-81.764	0.217	0.071
-297.735	115.207	0.055	0.067
-296.720	-200.000	0.020	0.156
-295.705	43.872	0.287	-0.262
-294.691	246.361	0.211	-0.355
-293.676	-82.849	-0.427	-0.138
-292.662	-200.000	0.007	-0.162
-291.647	-86.413	0.046	-0.014
-290.632	800.000	-0.010	0.044
-289.618	-132.771	-0.245	-0.031
-288.603	-200.000	0.009	-0.260
-287.589	-22.082	0.229	0.139
-286.574	153.353	-0.143	-0.196
-285.559	65.438	0.090	0.091
-284.545	-200.000	0.007	-0.074
-283.530	800.000	0.048	-0.137
-282.516	147.986	-0.185	-0.249
-281.501	-200.000	0.018	0.313
-280.486	-200.000	0.025	-0.176
-279.472	81.028	-0.136	-0.146
-278.457	440.379	-0.282	0.615
-277.443	-49.364	-0.100	-0.048
-276.428	371.632	0.017	-0.034
-275.413	-200.000	0.042	-0.192
-274.399	-36.131	0.334	0.180
-273.384	-74.608	-0.176	0.063
-272.370	298.062	-0.156	-0.286
-271.355	-43.501	0.378	-0.191
-270.340	78.316	0.172	0.183
-269.326	800.000	-0.017	-0.061
-268.311	-30.064	-0.139	0.079
-267.297	473.560	0.151	0.340
-266.282	-136.263	-0.307	0.036
-265.267	-200.000	-0.015	0.178
-264.253	416.408	0.066	-0.140
-263.238	111.181	-0.172	-0.207
-262.224	38.039	0.153	-0.136
-261.209	-28.786	-0.046	0.026
-260.195	800.000	-0.025	0.099
-259.180	-111.896	0.063	0.013
-258.165	-200.000	0.023	-0.200
-257.151	31.509	0.091	0.078
-256.136	-109.730	0.196	0.041
-255.122	606.803	-0.158	-0.393
-254.107	-86.779	-0.059	0.018
-253.092	784.854	-0.079	0.215
-252.078	246.921	-0.084	0.141
-251.063	364.951	0.135	-0.270
-250.049	259.129	-0.104	0.178
-249.034	746.933	-0.073	0.197
-248.019	613.453	-0.056	0.141
-247.005	-14.830	-0.111	0.071
-245.990	-59.418	0.311	0.133
-244.976	-56.904	-0.126	0.055
-243.961	800.000	0.108	0.329
-242.946	240.539	0.065	0.108
-241.932	-81.781	-0.332	-0.108
-240.917	69.937	-0.178	0.183
-239.903	203.142	-0.092	-0.141
-238.888	-20.546	0.141	0.086
-237.873	150.673	0.090	0.122
-236.859	-117.006	0.131	-0.024
-235.844	82.042	-0.197	0.212
-234.830	800.000	0.079	0.253
-233.815	47.141	0.052	-0.048
-232.800	-200.000	-0.021	-0.275
-231.786	-120.500	-0.185	-0.031
-230.771	-200.000	0.008	0.055
-229.757	45.391	0.071	-0.065
-228.742	-103.836	-0.552	-0.129
-227.727	-200.000	0.011	-0.130
-226.713	-52.311	0.132	-0.061
-225.698	86.960	0.226	-0.248
-224.684	-165.952	0.279	-0.012
-223.669	76.091	0.260	-0.274
-222.655	-74.042	0.246	-0.089
-221.640	800.000	0.118	0.395
-220.625	77.493	-0.188	0.199
-219.611	132.291	0.065	0.084
-218.596	-148.727	0.130	-0.011
-217.582	112.781	0.130	-0.157
-216.567	457.622	-0.037	0.081
-215.552	-200.000	0.007	0.122
-214.538	800.000	0.017	-0.056
-213.523	178.136	-0.162	0.235
-212.509	-200.000	0.013	0.239
-211.494	276.172	-0.044	-0.078
-210.479	16.404	0.084	-0.066
-209.465	51.107	0.198	-0.187
-208.450	19.629	0.340	-0.272
-207.436	461.286	-0.115	-0.255
-206.421	307.686	0.088	-0.163
-205.406	800.000	-0.055	0.179
-204.392	-28.414	-0.206	0.118
-203.377	-200.000	0.022	0.097
-202.363	153.915	0.173	0.236
-201.348	-181.545	-0.167	-0.003
-200.333	88.520	-0.119	0.132
-199.319	-200.000	-0.002	0.146
-198.304	-26.669	0.130	-0.076
-197.290	1.944	-0.172	0.123
-196.275	-145.021	-0.103	0.009
-195.260	-73.018	0.223	-0.082
-194.246	19.053	-0.252	-0.201
-193.231	115.383	0.156	-0.190
-192.217	-0.258	-0.093	0.066
-191.202	-200.000	-0.015	-0.363
-190.187	-10.040	-0.268	0.177
-189.173	-115.032	0.130	0.025
-188.158	-200.000	0.055	-0.241
-187.144	-71.363	-0.077	-0.029
-186.129	-200.000	0.006	-0.399
-185.114	163.212	0.075	0.105
-184.100	-124.863	0.194	0.030
-183.085	-56.968	-0.319	-0.140
-182.071	800.000	-0.081	0.252
-181.056	5.853	-0.073	-0.054
-180.042	187.735	-0.111	-0.165
-179.027	-109.516	0.136	-0.029
-178.012	800.000	0.019	-0.081
-176.998	72.006	0.158	0.164
-175.983	-61.626	0.164	0.068
-174.969	-136.111	0.140	-0.016
-173.954	-21.148	-0.269	-0.163
-172.939	-127.825	0.314	0.045
-171.925	-91.290	0.101	-0.029
-170.910	-18.448	0.221	-0.137
-169.896	-109.718	-0.150	-0.031
-168.881	-47.224	0.168	-0.082
-167.866	-70.678	0.221	-0.083
-166.852	-200.000	-0.009	0.176
-165.837	800.000	-0.030	-0.089
-164.823	34.309	0.404	0.350
-163.808	-113.458	-0.109	0.021
-162.793	-32.175	0.355	-0.197
-161.779	-64.506	-0.223	-0.090
-160.764	268.452	0.082	-0.142
-159.750	192.730	0.181	-0.271
-158.735	152.203	-0.175	-0.237
-157.720	-172.225	-0.280	-0.009
-156.706	567.474	-0.074	0.179
-155.691	-200.000	0.020	-0.334
-154.677	-181.476	-0.368	0.007
-153.662	-28.592	0.277	0.158
-152.647	243.997	-0.156	0.261
-151.633	196.389	0.268	0.405
-150.618	-200.000	-0.017	-0.076
-149.604	-165.232	0.237	-0.010
-148.589	10.228	0.140	-0.106
-147.574	708.815	0.136	0.357
-146.560	19.017	-0.218	0.174
-145.545	194.102	0.032	-0.048
-144.531	282.125	0.137	0.243
-143.516	-123.171	-0.195	-0.031
-142.502	-34.206	0.320	-0.175
-141.487	626.563	0.157	0.394
-140.472	220.919	-0.143	-0.227
-139.458	800.000	0.022	-0.070
-138.443	255.064	0.103	-0.175
-137.429	-50.313	0.066	-0.031
-136.414	800.000	0.032	0.124
-135.399	-200.000	0.041	0.191
-134.385	29.642	-0.143	0.120
-133.370	-97.380	-0.150	-0.039
-132.356	-200.000	0.021	0.129
-131.341	-200.000	-0.056	0.434
-130.326	-60.980	0.221	-0.093
-129.312	-58.878	0.335	0.144
-128.297	-27.427	-0.227	0.131
-127.283	451.153	0.066	0.145
-126.268	96.696	-0.276	0.314
-125.253	800.000	0.017	0.069
-124.239	800.000	-0.051	0.213
-123.224	-45.513	-0.536	-0.264
-122.210	-27.760	0.181	0.104
-121.195	569.007	-0.087	-0.209
