DTS Sentinel unit serial number:	SN413079Multiplexer serial number:	ORYXHardware model number:	OX4-SRSoftware version number:	ORYX F/W v4.00 Oryx Data Collector v3.7.2.0data status	okinstallation	princeton_trtdifferential loss correction	single-endedforward channel	channel 4reverse channel	N/Adate	2019/09/14time	11:21:35forward acquisition time	60.00reverse acquisition time	0.00gamma	496.2192k internal	0.2294k external	0.2294temperature offset calibration	1.0155default loss term (dB/km)	0.3790temperature slope calibration	1.0000multiplexer offset coefficient	1.0000multiplexer slope coefficient	1.0000fibre end	0.00T internal ref (°C)	36.69T ext. ref 1 (°C)	4.53T ext. ref 2 (°C)	32.84length (m)	temperature (°C)	Stokes	anti-Stokes-747.200	-200.000	-0.022	0.132
-746.185	-200.000	0.004	0.202
-745.171	106.343	0.090	-0.109
-744.156	716.952	0.070	0.191
-743.142	8.233	0.280	0.215
-742.127	112.789	-0.177	0.219
-741.112	240.001	0.228	0.388
-740.098	-68.260	0.131	-0.052
-739.083	-84.768	-0.055	0.018
-738.069	-17.510	-0.029	0.019
-737.054	108.692	-0.072	0.087
-736.039	-72.986	0.083	0.031
-735.025	-79.009	0.534	0.186
-734.010	205.633	0.100	-0.158
-732.996	-200.000	-0.019	-0.208
-731.981	-160.860	0.113	0.006
-730.966	389.585	-0.081	0.172
-729.952	-92.472	-0.177	-0.051
-728.937	-89.784	-0.289	-0.086
-727.923	177.301	-0.099	-0.147
-726.908	-116.959	-0.220	-0.041
-725.894	127.277	-0.090	-0.116
-724.879	800.000	0.011	0.042
-723.864	-200.000	-0.013	0.232
-722.850	-6.056	0.185	-0.129
-721.835	-141.880	-0.087	-0.009
-720.821	-200.000	-0.098	-0.477
-719.806	88.635	0.157	-0.178
-718.791	800.000	-0.107	-0.325
-717.777	24.458	0.131	-0.110
-716.762	56.456	-0.212	-0.211
-715.748	-58.312	0.311	-0.138
-714.733	136.201	0.194	0.259
-713.718	116.730	0.110	-0.138
-712.704	-69.001	-0.442	-0.174
-711.689	194.358	0.117	-0.182
-710.675	-4.110	-0.070	0.050
-709.660	-103.567	-0.150	-0.036
-708.645	69.430	0.172	-0.181
-707.631	637.695	-0.096	-0.250
-706.616	-200.000	0.011	-0.262
-705.602	800.000	-0.030	0.089
-704.587	-93.473	0.158	-0.045
-703.572	-132.676	0.248	0.032
-702.558	-80.772	-0.567	-0.192
-701.543	-58.457	-0.056	0.025
-700.529	-200.000	-0.019	0.382
-699.514	-85.173	0.286	0.091
-698.499	158.149	-0.153	-0.217
-697.485	800.000	0.059	-0.176
-696.470	0.810	0.218	0.160
-695.456	-62.352	-0.351	0.149
-694.441	-94.119	-0.094	-0.026
-693.426	464.879	0.152	0.346
-692.412	-13.603	0.158	0.104
-691.397	-200.000	0.040	-0.491
-690.383	-200.000	0.004	-0.216
-689.368	208.313	-0.204	-0.325
-688.354	800.000	0.050	-0.150
-687.339	-200.000	-0.073	-0.463
-686.324	-200.000	-0.005	-0.262
-685.310	30.370	0.262	-0.228
-684.295	800.000	0.098	-0.362
-683.281	-174.117	0.160	0.005
-682.266	-112.993	0.324	-0.065
-681.251	121.312	0.047	-0.060
-680.237	213.967	-0.016	-0.025
-679.222	-11.220	0.078	-0.053
-678.208	-31.233	-0.273	0.157
-677.193	-122.286	-0.012	0.002
-676.178	-60.084	0.033	-0.014
-675.164	-125.386	-0.337	0.052
-674.149	106.829	0.212	-0.257
-673.135	-200.000	-0.018	-0.234
-672.120	64.974	0.071	-0.073
-671.105	-169.347	0.329	0.012
-670.091	109.859	0.167	-0.204
-669.076	105.982	0.084	-0.102
-668.062	-200.000	0.001	0.092
-667.047	-118.057	-0.075	-0.014
-666.032	209.028	0.030	-0.047
-665.018	23.141	-0.221	-0.185
-664.003	47.697	0.032	0.030
-662.989	232.627	0.086	0.144
-661.974	121.448	-0.108	-0.138
-660.959	175.918	-0.067	-0.099
-659.945	-134.000	0.026	-0.003
-658.930	800.000	0.005	-0.021
-657.916	-200.000	-0.014	0.148
-656.901	236.805	0.251	0.424
-655.886	800.000	-0.044	0.185
-654.872	216.858	0.055	0.088
-653.857	-200.000	0.045	-0.286
-652.843	-133.999	0.216	0.027
-651.828	-200.000	-0.003	0.118
-650.814	-70.121	-0.235	0.091
-649.799	-200.000	-0.015	0.264
-648.784	368.183	-0.250	-0.515
-647.770	187.046	-0.087	-0.133
-646.755	58.235	0.276	-0.275
-645.741	-45.463	0.480	-0.242
-644.726	800.000	-0.066	-0.223
-643.711	-82.378	-0.042	-0.014
-642.697	-42.627	-0.133	-0.069
-641.682	5.422	0.161	-0.121
-640.668	352.201	0.088	-0.178
-639.653	265.939	0.022	0.039
-638.638	-200.000	0.006	-0.195
-637.624	53.292	0.066	-0.064
-636.609	-59.958	-0.445	0.194
-635.595	-148.097	-0.295	0.025
-634.580	110.181	-0.322	0.394
-633.565	-200.000	-0.032	0.260
-632.551	54.159	-0.200	0.196
-631.536	29.018	0.191	0.165
-630.522	-98.259	-0.138	-0.036
-629.507	180.042	0.087	0.130
-628.492	207.796	0.178	0.282
-627.478	-48.197	0.097	-0.048
-626.463	-121.523	0.287	0.049
-625.449	-200.000	-0.014	-0.146
-624.434	-46.186	0.126	0.063
-623.419	138.772	0.130	-0.174
-622.405	-200.000	0.041	-0.222
-621.390	43.655	-0.165	-0.154
-620.376	-101.732	-0.352	-0.087
-619.361	800.000	-0.102	-0.344
-618.346	-200.000	0.034	-0.287
-617.332	11.741	-0.175	0.136
-616.317	-200.000	-0.025	0.351
-615.303	-200.000	0.026	0.152
-614.288	41.143	-0.260	0.239
-613.273	403.207	0.050	-0.107
-612.259	-31.675	-0.368	-0.210
-611.244	84.097	0.143	-0.159
-610.230	771.142	0.107	-0.296
-609.215	-49.011	-0.394	0.192
-608.201	-175.584	-0.140	-0.004
-607.186	2.411	0.308	-0.227
-606.171	-200.000	-0.010	-0.215
-605.157	40.042	-0.183	0.168
-604.142	800.000	0.030	-0.099
-603.128	-149.048	0.084	-0.007
-602.113	-66.929	0.268	-0.108
-601.098	65.324	-0.163	-0.168
-600.084	207.587	0.024	-0.038
-599.069	-200.000	-0.020	-0.103
-598.055	519.016	0.084	0.200
-597.040	-49.176	-0.073	0.035
-596.025	-133.148	0.428	0.055
-595.011	800.000	0.079	-0.298
-593.996	-200.000	0.036	-0.264
-592.982	-11.547	-0.119	0.079
-591.967	-200.000	-0.018	-0.562
-590.952	-124.724	0.175	-0.028
-589.938	-100.941	0.231	0.058
-588.923	-200.000	-0.021	0.363
-587.909	125.983	-0.118	0.151
-586.894	-200.000	-0.024	0.198
-585.879	302.057	0.186	0.349
-584.865	484.493	0.124	0.288
-583.850	365.614	-0.087	0.179
-582.836	-150.418	-0.208	-0.016
-581.821	800.000	-0.061	0.236
-580.806	-200.000	-0.008	-0.262
-579.792	-8.881	0.209	0.142
-578.777	-51.289	0.138	-0.066
-577.763	223.550	-0.086	-0.142
-576.748	113.020	0.119	-0.146
-575.733	189.613	-0.188	-0.287
-574.719	-12.664	-0.271	0.179
-573.704	446.344	-0.051	-0.114
-572.690	89.468	-0.084	-0.095
-571.675	358.249	0.084	-0.170
-570.661	54.917	-0.389	-0.381
-569.646	708.882	0.084	0.226
-568.631	230.459	0.078	0.130
-567.617	-88.303	-0.168	0.051
-566.602	-11.749	-0.119	0.079
-565.588	800.000	-0.082	-0.237
-564.573	-99.669	0.301	-0.077
-563.558	-127.465	-0.237	-0.035
-562.544	7.817	-0.067	-0.051
-561.529	108.482	0.118	0.143
-560.515	-87.672	0.456	-0.140
-559.500	-71.090	-0.169	-0.065
-558.485	-71.939	-0.050	0.019
-557.471	-26.040	0.323	-0.193
-556.456	82.842	-0.108	-0.119
-555.442	-0.463	0.116	-0.083
-554.427	320.451	0.101	-0.194
-553.412	800.000	0.056	0.193
-552.398	-99.511	-0.355	-0.091
-551.383	-156.653	-0.187	0.012
-550.369	765.304	-0.098	0.269
-549.354	-14.165	-0.205	-0.134
-548.339	-175.484	0.362	-0.010
-547.325	212.739	0.095	0.152
-546.310	24.654	0.183	0.154
-545.296	-56.483	0.318	0.143
-544.281	591.978	-0.078	0.195
-543.266	222.355	0.156	-0.255
-542.252	412.746	-0.153	0.331
-541.237	32.075	0.073	-0.064
-540.223	-19.268	0.120	0.076
-539.208	-200.000	0.018	0.129
-538.193	800.000	0.064	-0.194
-537.179	74.384	0.215	0.229
-536.164	-103.133	0.117	0.028
-535.150	57.192	-0.163	0.161
-534.135	482.135	-0.038	-0.087
-533.121	800.000	-0.020	-0.062
-532.106	-186.654	0.152	0.002
-531.091	-200.000	-0.002	-0.196
-530.077	-200.000	-0.020	0.206
-529.062	194.359	-0.067	0.103
-528.048	3.671	-0.111	0.082
-527.033	525.849	0.094	-0.225
-526.018	265.917	-0.111	-0.197
-525.004	370.000	-0.063	-0.130
-523.989	123.484	-0.104	0.132
-522.975	86.442	-0.104	-0.116
-521.960	800.000	-0.085	0.279
-520.945	-146.943	0.445	0.039
-519.931	-200.000	-0.014	-0.376
-518.916	-77.635	-0.141	-0.049
-517.902	-148.059	0.216	-0.018
-516.887	341.891	-0.133	-0.264
-515.872	-120.311	-0.129	0.022
-514.858	27.422	-0.237	0.202
-513.843	-200.000	0.026	-0.424
-512.829	220.592	-0.094	0.153
-511.814	-38.366	-0.142	-0.076
-510.799	-200.000	0.025	0.359
-509.785	-200.000	0.001	-0.061
-508.770	666.341	-0.113	-0.297
-507.756	422.372	0.052	0.113
-506.741	-82.504	0.221	0.073
-505.726	476.840	0.171	0.392
-504.712	46.160	0.121	0.114
-503.697	-53.429	0.327	0.152
-502.683	169.893	0.047	-0.068
-501.668	-80.248	-0.179	-0.061
-500.653	-67.602	0.281	-0.111
-499.639	-53.594	0.140	0.065
-498.624	-154.698	0.044	0.003
-497.610	112.324	-0.058	0.071
-496.595	241.756	-0.134	-0.228
-495.581	-161.084	0.184	0.010
-494.566	-69.137	-0.303	-0.118
-493.551	109.342	0.066	0.080
-492.537	169.605	0.153	0.222
-491.522	133.045	-0.083	0.108
-490.508	-25.610	0.075	-0.045
-489.493	-138.031	0.334	-0.038
-488.478	800.000	0.082	0.276
-487.464	-189.058	0.375	0.005
-486.449	-11.952	-0.110	0.073
-485.435	12.105	0.107	0.083
-484.420	-94.715	-0.101	0.028
-483.405	-200.000	-0.024	-0.318
-482.391	-200.000	0.003	0.153
-481.376	-131.141	-0.419	0.057
-480.362	-117.525	0.313	-0.057
-479.347	243.358	-0.058	0.098
-478.332	98.779	0.058	0.068
-477.318	17.232	-0.302	-0.242
-476.303	758.875	0.100	-0.275
-475.289	-21.424	-0.220	-0.136
-474.274	-50.248	-0.224	-0.107
-473.259	-110.217	-0.273	0.058
-472.245	142.964	0.048	-0.065
-471.230	-38.705	0.231	-0.123
-470.216	800.000	0.122	0.402
-469.201	-130.538	-0.148	-0.020
-468.186	2.924	0.154	-0.113
-467.172	-112.136	-0.194	-0.039
-466.157	-69.944	-0.325	0.125
-465.143	-200.000	0.008	0.347
-464.128	-3.150	-0.304	-0.214
-463.113	-9.393	0.249	0.168
-462.099	38.757	-0.195	0.176
-461.084	800.000	-0.029	0.104
-460.070	-22.359	-0.136	-0.083
-459.055	470.219	0.045	-0.102
-458.040	-49.714	-0.254	-0.122
-457.026	-200.000	-0.066	0.000
-456.011	-9.926	-0.090	-0.060
-454.997	800.000	0.069	-0.223
-453.982	-156.814	-0.248	0.015
-452.968	1.336	0.169	0.123
-451.953	-118.440	-0.120	-0.022
-450.938	8.565	0.102	0.078
-449.924	365.500	0.069	0.141
-448.909	-200.000	0.034	0.281
-447.895	11.250	-0.145	0.112
-446.880	627.419	0.028	0.072
-445.865	-98.945	-0.185	0.048
-444.851	87.525	-0.325	-0.364
-443.836	-200.000	0.026	0.183
-442.822	102.827	0.304	0.360
-441.807	-112.032	-0.193	-0.039
-440.792	-86.788	-0.486	-0.150
-439.778	46.855	0.191	0.180
-438.763	150.039	0.073	-0.100
-437.749	113.787	-0.046	0.056
-436.734	-79.223	-0.308	-0.106
-435.719	-155.585	0.347	-0.023
-434.705	-200.000	-0.002	0.447
-433.690	-200.000	-0.021	0.178
-432.676	-31.434	-0.121	-0.068
-431.661	-64.501	-0.190	-0.078
-430.646	-124.409	0.323	0.051
-429.632	15.356	-0.287	0.228
-428.617	800.000	-0.082	0.237
-427.603	240.923	0.019	-0.032
-426.588	-165.597	0.065	-0.003
-425.573	-144.610	0.193	-0.018
-424.559	388.817	0.136	-0.283
-423.544	-93.319	0.440	0.123
-422.530	516.741	0.022	0.053
-421.515	55.536	-0.070	0.068
-420.500	707.381	0.029	0.078
-419.486	64.829	-0.206	0.210
-418.471	-49.408	-0.542	0.261
-417.457	69.157	0.247	-0.256
-416.442	783.285	0.087	-0.240
-415.428	-200.000	-0.020	-0.317
-414.413	-149.819	-0.297	-0.024
-413.398	-122.251	0.107	0.018
-412.384	-200.000	-0.003	0.061
-411.369	-64.684	-0.153	-0.063
-410.355	238.233	-0.023	0.038
-409.340	-128.604	0.432	0.062
-408.325	-4.167	-0.222	-0.155
-407.311	25.442	-0.037	0.031
-406.296	-200.000	-0.013	-0.142
-405.282	-49.284	0.163	-0.078
-404.267	26.309	0.106	0.090
-403.252	628.952	-0.017	0.043
-402.238	435.015	0.214	-0.469
-401.223	-168.553	0.139	-0.005
-400.209	781.476	-0.190	-0.526
-399.194	-92.808	-0.315	0.089
-398.179	-2.147	0.042	0.030
-397.165	27.838	0.137	0.117
-396.150	800.000	0.113	-0.339
-395.136	28.112	-0.056	0.048
-394.121	800.000	-0.030	-0.086
-393.106	167.190	0.098	0.140
-392.092	-22.097	-0.212	-0.130
-391.077	613.523	-0.054	-0.136
-390.063	156.742	-0.075	-0.104
-389.048	51.938	0.092	-0.088
-388.033	-200.000	-0.040	0.212
-387.019	96.887	0.098	-0.114
-386.004	-99.799	-0.177	-0.045
-384.990	296.460	-0.101	-0.187
-383.975	-200.000	0.025	0.220
-382.960	-36.110	-0.176	0.096
-381.946	29.554	0.288	-0.247
-380.931	-200.000	-0.059	-0.401
-379.917	-144.066	0.274	0.026
-378.902	204.962	0.100	-0.157
-377.888	218.502	0.075	-0.121
-376.873	800.000	0.052	-0.163
-375.858	-75.625	0.153	0.055
-374.844	84.422	0.101	0.111
-373.829	-19.883	-0.140	0.087
-372.815	800.000	0.039	0.162
-371.800	-2.673	-0.098	0.069
-370.785	29.332	-0.143	0.122
-369.771	-200.000	-0.011	0.114
-368.756	81.398	-0.187	-0.203
-367.742	-43.078	0.138	0.071
-366.727	-200.000	0.012	0.097
-365.712	363.187	0.099	-0.201
-364.698	800.000	0.123	0.371
-363.683	-200.000	0.037	-0.224
-362.669	800.000	-0.078	-0.337
-361.654	74.176	0.179	0.189
-360.639	279.394	-0.115	0.206
-359.625	-123.889	0.162	0.026
-358.610	525.978	0.202	-0.479
-357.596	2.466	0.184	-0.134
-356.581	-200.000	-0.021	-0.150
-355.566	800.000	-0.065	-0.190
-354.552	-118.988	0.018	-0.003
-353.537	-108.952	-0.155	-0.033
-352.523	-96.590	-0.288	0.077
-351.508	-1.803	-0.265	0.188
-350.493	-200.000	0.003	0.243
-349.479	56.245	-0.192	0.188
-348.464	364.930	-0.081	-0.165
-347.450	-200.000	0.323	-0.000
-346.435	748.839	0.080	-0.217
-345.420	-145.572	0.200	0.018
-344.406	800.000	-0.107	0.394
-343.391	800.000	-0.047	0.151
-342.377	-144.935	0.195	-0.018
-341.362	-142.662	0.265	-0.026
-340.348	282.236	-0.155	-0.279
-339.333	-55.787	-0.293	-0.132
-338.318	-165.473	-0.152	0.007
-337.304	-14.572	-0.254	0.164
-336.289	-3.480	-0.155	0.108
-335.275	-21.024	0.110	-0.068
-334.260	26.187	-0.109	0.092
-333.245	85.979	0.038	-0.042
-332.231	-138.018	-0.197	-0.022
-331.216	800.000	0.050	-0.199
-330.202	33.968	0.293	-0.257
-329.187	-200.000	-0.003	-0.201
-328.172	-200.000	-0.030	0.247
-327.158	159.555	0.147	0.206
-326.143	15.093	0.071	-0.056
-325.129	437.425	-0.107	-0.234
-324.114	9.480	0.338	0.258
-323.099	708.592	0.035	0.094
-322.085	59.249	-0.213	-0.211
-321.070	800.000	-0.073	-0.318
-320.056	-31.138	-0.136	0.077
-319.041	723.815	-0.150	-0.402
-318.026	-5.871	-0.196	0.135
-317.012	-68.336	0.053	-0.021
-315.997	-108.330	0.167	0.036
-314.983	-142.086	-0.131	-0.013
-313.968	800.000	-0.043	0.132
-312.953	-44.647	0.219	-0.110
-311.939	-95.239	-0.296	-0.080
-310.924	-24.631	-0.248	-0.149
-309.910	99.289	-0.122	-0.142
-308.895	-100.876	-0.046	-0.011
-307.880	800.000	0.004	-0.012
-306.866	-40.668	0.229	0.119
-305.851	800.000	0.070	0.267
-304.837	-59.803	-0.142	-0.061
-303.822	-66.093	-0.301	-0.121
-302.807	109.638	0.043	0.052
-301.793	-200.000	-0.064	0.297
-300.778	-200.000	0.005	0.073
-299.764	800.000	0.055	0.166
-298.749	800.000	-0.027	0.108
-297.735	-200.000	0.029	0.190
-296.720	-65.442	-0.269	-0.109
-295.705	-165.370	-0.178	-0.008
-294.691	-124.360	-0.068	0.011
-293.676	-79.755	-0.150	-0.051
-292.662	-200.000	-0.006	0.262
-291.647	391.125	-0.038	0.080
-290.632	-118.173	0.056	-0.010
-289.618	-53.099	0.123	0.057
-288.603	-157.975	-0.305	0.018
-287.589	696.632	0.126	-0.332
-286.574	800.000	-0.066	0.265
-285.559	151.632	0.071	0.097
-284.545	800.000	-0.019	0.069
-283.530	259.990	-0.125	0.217
-282.516	-200.000	-0.009	-0.213
-281.501	-200.000	-0.028	-0.169
-280.486	117.802	0.035	0.044
-279.472	-92.087	0.198	0.056
-278.457	155.284	-0.127	-0.175
-277.443	31.347	0.140	-0.121
-276.428	59.263	0.165	0.163
-275.413	-175.577	0.120	-0.003
-274.399	-200.000	0.029	0.272
-273.384	-52.544	0.203	0.094
-272.370	-5.620	-0.465	0.320
-271.355	-17.242	-0.105	-0.067
-270.340	800.000	0.111	-0.340
-269.326	-77.963	-0.255	0.088
-268.311	409.502	0.098	0.209
-267.297	161.593	0.181	-0.254
-266.282	187.956	0.050	-0.075
-265.267	190.625	0.128	0.193
-264.253	800.000	0.035	0.136
-263.238	-119.925	0.256	-0.044
-262.224	128.152	0.113	0.145
-261.209	-21.588	0.064	-0.039
-260.195	-58.779	0.177	-0.077
-259.180	-118.655	0.344	0.061
-258.165	38.686	0.065	-0.058
-257.151	-200.000	0.012	-0.196
-256.136	108.615	0.047	-0.056
-255.122	457.160	-0.017	-0.038
-254.107	-30.087	-0.215	-0.123
-253.092	30.970	0.337	-0.290
-252.078	413.485	-0.018	0.037
-251.063	14.682	0.080	-0.063
-250.049	716.201	-0.094	0.249
-249.034	-59.318	0.173	0.075
-248.019	5.317	0.272	0.201
-247.005	520.011	-0.100	-0.235
-245.990	124.174	-0.128	0.161
-244.976	-200.000	-0.024	0.212
-243.961	-200.000	0.003	-0.033
-242.946	150.150	0.169	0.230
-241.932	-31.664	-0.286	0.161
-240.917	-29.836	-0.156	-0.089
-239.903	272.408	-0.068	0.120
-238.888	-62.090	-0.589	-0.247
-237.873	154.259	0.223	0.307
-236.859	322.989	0.128	0.245
-235.844	154.520	0.129	0.177
-234.830	-182.352	-0.239	-0.004
-233.815	-200.000	0.010	-0.056
-232.800	97.647	-0.171	0.197
-231.786	-35.993	0.059	0.032
-230.771	-16.537	-0.304	0.193
-229.757	-200.000	0.003	-0.194
-228.742	-132.845	0.169	-0.022
-227.727	-67.574	0.336	-0.132
-226.713	87.667	-0.181	-0.201
-225.698	-157.442	-0.388	0.023
-224.684	294.283	-0.036	-0.066
-223.669	-82.406	-0.102	-0.033
-222.655	319.813	0.095	-0.180
-221.640	-200.000	0.060	-0.304
-220.625	145.768	0.144	-0.193
-219.611	-104.880	-0.452	-0.104
-218.596	-200.000	0.007	-0.226
-217.582	-45.999	-0.155	0.077
-216.567	-200.000	0.048	0.218
-215.552	223.576	0.216	0.349
-214.538	294.006	-0.014	-0.026
-213.523	-44.937	-0.182	0.091
-212.509	196.403	-0.116	0.177
-211.494	-121.954	0.122	0.020
-210.479	-52.247	0.293	0.136
-209.465	-191.614	0.277	0.003
-208.450	49.976	-0.203	0.191
-207.436	-128.478	0.045	-0.006
-206.421	788.190	-0.123	0.337
-205.406	-77.089	0.112	0.039
-204.392	599.742	0.002	0.004
-203.377	-30.002	-0.077	0.044
-202.363	58.610	0.021	0.021
-201.348	222.236	0.077	0.124
-200.333	-63.138	0.259	-0.107
-199.319	174.521	0.068	0.099
-198.304	64.406	-0.115	0.116
-197.290	-187.859	-0.133	0.002
-196.275	-72.086	-0.170	0.063
-195.260	101.693	0.077	0.090
-194.246	174.910	0.077	-0.111
-193.231	-200.000	0.039	-0.195
-192.217	307.950	0.032	-0.061
-191.202	-200.000	-0.040	0.264
-190.187	-200.000	-0.005	-0.044
-189.173	-200.000	0.033	-0.215
-188.158	122.399	0.154	-0.193
-187.144	-138.016	0.236	-0.026
-186.129	17.614	0.186	-0.148
-185.114	543.486	-0.133	-0.319
-184.100	-8.153	0.210	-0.141
-183.085	-200.000	-0.030	0.134
-182.071	-129.354	-0.100	-0.014
-181.056	132.887	0.207	0.267
-180.042	-200.000	0.025	0.349
-179.027	31.152	0.065	0.056
-178.012	124.493	0.138	0.173
-176.998	-200.000	-0.020	0.258
-175.983	-79.979	0.135	0.045
-174.969	353.245	0.120	0.237
-173.954	-53.769	0.216	-0.098
-172.939	-147.444	0.338	-0.029
-171.925	-25.209	0.312	0.185
-170.910	-32.471	-0.047	-0.026
-169.896	-173.625	0.184	0.006
-168.881	235.512	-0.055	-0.090
-167.866	800.000	-0.064	0.203
-166.852	640.987	-0.037	-0.095
-165.837	589.645	0.091	0.224
-164.823	-200.000	-0.009	-0.048
-163.808	-17.419	-0.366	0.230
-162.793	-63.043	-0.196	-0.081
-161.779	-200.000	-0.045	-0.282
-160.764	-168.964	-0.022	0.001
-159.750	-87.748	0.272	-0.082
-158.735	-200.000	-0.033	0.152
-157.720	800.000	0.065	0.260
-156.706	-37.120	0.364	-0.195
-155.691	549.220	0.051	0.122
-154.677	75.996	0.092	-0.097
-153.662	284.606	0.109	-0.196
-152.647	-76.397	-0.188	-0.066
-151.633	-200.000	0.008	-0.042
-150.618	293.009	0.173	-0.315
-149.604	295.818	-0.119	0.217
-148.589	-52.656	-0.159	-0.073
-147.574	800.000	0.027	0.096
-146.560	11.452	-0.078	-0.059
-145.545	-128.600	-0.029	-0.004
-144.531	107.937	0.059	0.070
-143.516	-6.849	-0.231	-0.157
-142.502	55.478	-0.198	0.192
-141.487	-94.705	0.137	0.037
-140.472	-43.919	-0.376	-0.189
-139.458	-71.112	-0.061	0.023
-138.443	-200.000	-0.017	0.075
-137.429	-75.118	0.195	0.070
-136.414	63.209	-0.080	-0.080
-135.399	-113.163	0.110	-0.022
-134.385	-130.309	-0.086	0.012
-133.370	212.086	0.073	0.115
-132.356	-27.748	0.242	0.140
-131.341	84.144	-0.064	-0.070
-130.326	214.862	-0.144	0.229
-129.312	82.608	-0.119	0.129
-128.297	-200.000	0.009	0.075
-127.283	204.454	-0.072	-0.112
-126.268	-37.204	-0.190	-0.101
-125.253	497.451	-0.108	0.249
-124.239	141.101	-0.066	-0.087
-123.224	-64.262	0.202	-0.082
-122.210	8.775	0.039	0.029
-121.195	234.062	0.166	0.273
