DTS Sentinel unit serial number:	SN413079Multiplexer serial number:	ORYXHardware model number:	OX4-SRSoftware version number:	ORYX F/W v4.00 Oryx Data Collector v3.7.2.0data status	okinstallation	princeton_trtdifferential loss correction	single-endedforward channel	channel 4reverse channel	N/Adate	2019/09/16time	10:01:35forward acquisition time	60.00reverse acquisition time	0.00gamma	496.2192k internal	0.2303k external	0.2303temperature offset calibration	0.9961default loss term (dB/km)	0.3790temperature slope calibration	1.0000multiplexer offset coefficient	1.0000multiplexer slope coefficient	1.0000fibre end	0.00T internal ref (°C)	33.50T ext. ref 1 (°C)	12.40T ext. ref 2 (°C)	32.01length (m)	temperature (°C)	Stokes	anti-Stokes-747.200	-121.528	0.420	-0.071
-746.185	800.000	-0.032	0.097
-745.171	-41.314	-0.052	-0.027
-744.156	88.412	-0.275	0.311
-743.142	-200.000	0.003	0.064
-742.127	66.727	-0.369	0.382
-741.112	-61.196	0.211	-0.091
-740.098	211.004	-0.166	-0.266
-739.083	-200.000	-0.011	0.189
-738.069	-131.663	0.267	0.036
-737.054	800.000	-0.036	-0.117
-736.039	31.126	-0.302	0.264
-735.025	800.000	-0.012	0.048
-734.010	616.034	-0.123	-0.313
-732.996	-200.000	0.021	-0.131
-731.981	-200.000	0.041	0.201
-730.966	-132.923	-0.350	0.045
-729.952	72.755	-0.061	-0.065
-728.937	-102.288	-0.225	-0.055
-727.923	-200.000	0.044	0.322
-726.908	127.751	-0.191	-0.247
-725.894	-68.050	-0.514	0.204
-724.879	184.396	0.060	-0.090
-723.864	800.000	-0.014	-0.048
-722.850	365.833	0.013	0.027
-721.835	276.740	0.085	0.153
-720.821	-200.000	0.061	0.288
-719.806	800.000	-0.103	0.298
-718.791	6.344	-0.147	0.111
-717.777	560.646	0.081	-0.199
-716.762	188.770	0.127	-0.194
-715.748	281.248	0.168	-0.307
-714.733	-97.512	-0.374	0.099
-713.718	-61.178	0.203	-0.087
-712.704	-114.591	0.170	0.033
-711.689	800.000	-0.055	0.180
-710.675	-41.745	0.259	0.135
-709.660	-144.025	-0.089	0.009
-708.645	-37.274	0.140	0.076
-707.631	-200.000	0.012	-0.131
-706.616	174.002	-0.062	-0.091
-705.602	-34.875	0.103	-0.057
-704.587	-76.165	-0.176	-0.063
-703.572	-200.000	0.033	-0.259
-702.558	-58.721	-0.173	0.076
-701.543	94.584	0.183	-0.211
-700.529	225.836	0.179	0.295
-699.514	45.718	0.313	-0.295
-698.499	443.669	-0.090	-0.201
-697.485	6.660	0.059	-0.045
-696.470	143.503	0.073	0.099
-695.456	302.830	0.072	0.136
-694.441	153.681	-0.122	0.170
-693.426	800.000	0.081	0.294
-692.412	-109.044	-0.427	0.092
-691.397	-200.000	0.011	0.055
-690.383	-105.034	0.429	0.100
-689.368	70.262	0.042	-0.044
-688.354	17.321	-0.098	0.079
-687.339	131.475	0.079	-0.103
-686.324	800.000	0.012	0.045
-685.310	457.965	0.119	-0.268
-684.295	800.000	0.058	0.195
-683.281	-89.224	0.026	0.008
-682.266	-82.753	-0.200	0.066
-681.251	11.883	-0.337	0.263
-680.237	-99.796	-0.202	0.051
-679.222	255.542	0.127	-0.220
-678.208	800.000	-0.108	-0.384
-677.193	373.798	0.110	-0.227
-676.178	57.544	0.164	0.163
-675.164	30.089	-0.277	-0.240
-674.149	83.433	-0.072	0.080
-673.135	92.152	0.167	0.191
-672.120	-26.092	-0.074	0.044
-671.105	-200.000	0.013	0.300
-670.091	77.585	-0.182	0.197
-669.076	-200.000	0.015	-0.208
-668.062	-200.000	-0.005	-0.137
-667.047	-37.260	-0.201	-0.109
-666.032	800.000	0.047	0.161
-665.018	-78.083	0.207	-0.073
-664.003	-200.000	-0.010	-0.369
-662.989	800.000	0.062	-0.198
-661.974	-82.728	0.070	0.023
-660.959	800.000	-0.029	0.107
-659.945	-6.784	0.356	-0.246
-658.930	-200.000	0.023	-0.317
-657.916	186.670	-0.121	0.183
-656.901	156.032	-0.030	-0.041
-655.886	167.474	0.148	-0.213
-654.872	-20.145	0.161	-0.101
-653.857	95.922	-0.061	-0.071
-652.843	347.762	-0.127	-0.255
-651.828	-27.460	-0.123	0.073
-650.814	-131.809	0.114	0.015
-649.799	-200.000	-0.001	-0.297
-648.784	-81.605	0.132	-0.044
-647.770	3.891	0.094	0.070
-646.755	-200.000	-0.026	0.224
-645.741	-200.000	0.054	0.310
-644.726	69.609	-0.206	-0.215
-643.711	-190.335	-0.235	0.003
-642.697	149.627	-0.122	-0.167
-641.682	-88.973	0.171	-0.051
-640.668	-174.278	-0.285	-0.008
-639.653	-20.514	0.105	-0.066
-638.638	373.377	-0.146	-0.300
-637.624	533.617	-0.142	0.341
-636.609	-69.088	-0.222	-0.087
-635.595	800.000	0.024	-0.071
-634.580	323.230	-0.040	-0.078
-633.565	-200.000	0.027	-0.352
-632.551	195.774	-0.054	-0.084
-631.536	-200.000	0.056	-0.281
-630.522	30.297	0.147	0.128
-629.507	-200.000	0.000	-0.098
-628.492	3.023	0.042	-0.031
-627.478	-16.070	-0.359	0.231
-626.463	-88.671	0.234	-0.071
-625.449	800.000	0.079	-0.284
-624.434	77.216	0.216	0.232
-623.419	7.022	-0.080	0.061
-622.405	347.223	-0.036	0.072
-621.390	-108.314	-0.148	0.032
-620.376	-200.000	-0.046	-0.211
-619.361	216.644	0.046	0.074
-618.346	-190.257	-0.113	0.001
-617.332	73.910	-0.118	0.125
-616.317	109.761	-0.130	-0.158
-615.303	-200.000	0.002	0.103
-614.288	-159.024	-0.180	0.010
-613.273	166.326	-0.195	0.280
-612.259	800.000	0.040	-0.128
-611.244	-136.512	0.150	-0.018
-610.230	131.871	0.120	-0.157
-609.215	160.233	-0.038	-0.054
-608.201	-21.149	0.310	0.192
-607.186	-58.380	-0.193	-0.085
-606.171	-126.785	-0.143	0.021
-605.157	-21.754	0.162	0.100
-604.142	174.610	0.283	-0.415
-603.128	95.019	0.065	-0.075
-602.113	-200.000	0.057	-0.309
-601.098	-88.709	-0.521	-0.157
-600.084	-103.780	-0.174	-0.041
-599.069	456.548	-0.173	-0.389
-598.055	325.111	0.084	-0.163
-597.040	-143.073	0.110	-0.011
-596.025	178.715	-0.164	0.242
-595.011	-17.717	0.276	-0.175
-593.996	37.149	-0.165	-0.148
-592.982	16.229	-0.077	0.061
-591.967	-70.284	0.420	-0.161
-590.952	150.310	-0.148	-0.203
-589.938	15.295	0.205	-0.163
-588.923	413.448	-0.028	-0.061
-587.909	-200.000	-0.040	-0.255
-586.894	-200.000	0.051	-0.305
-585.879	-16.337	0.148	0.095
-584.865	382.515	-0.123	-0.257
-583.850	800.000	0.155	0.442
-582.836	-60.167	0.059	-0.026
-581.821	-11.058	0.197	0.131
-580.806	378.583	-0.190	0.394
-579.792	-200.000	-0.052	0.282
-578.777	69.136	-0.146	-0.152
-577.763	622.453	-0.061	-0.155
-576.748	-148.922	-0.166	-0.014
-575.733	-200.000	-0.045	-0.299
-574.719	-26.326	-0.113	-0.067
-573.704	-200.000	0.001	0.057
-572.690	-176.270	-0.267	0.007
-571.675	-175.886	0.190	-0.005
-570.661	-164.264	-0.228	0.011
-569.646	558.143	-0.078	-0.190
-568.631	11.246	0.143	-0.111
-567.617	-42.696	-0.168	-0.087
-566.602	-200.000	-0.038	0.233
-565.588	-85.720	-0.133	-0.042
-564.573	11.739	0.343	0.266
-563.558	28.533	0.163	0.140
-562.544	-136.692	-0.185	-0.022
-561.529	-49.621	0.300	-0.145
-560.515	234.087	0.082	0.137
-559.500	-172.589	-0.277	0.009
-558.485	236.559	0.076	0.127
-557.471	-31.194	0.159	0.090
-556.456	111.958	0.039	-0.047
-555.442	-200.000	-0.032	-0.234
-554.427	-9.640	0.117	-0.079
-553.412	-10.433	-0.145	-0.097
-552.398	-43.041	-0.165	-0.085
-551.383	-96.484	-0.355	0.095
-550.369	-86.452	0.286	0.089
-549.354	-19.446	0.090	-0.056
-548.339	-69.472	0.081	0.032
-547.325	-63.733	-0.179	0.074
-546.310	10.939	0.016	0.013
-545.296	-28.428	0.113	0.066
-544.281	166.027	-0.203	-0.290
-543.266	26.502	-0.054	0.046
-542.252	-166.315	0.075	0.003
-541.237	38.044	0.031	0.028
-540.223	-15.561	0.035	0.023
-539.208	80.134	-0.141	-0.154
-538.193	-154.921	0.124	-0.008
-537.179	46.942	-0.248	-0.233
-536.164	334.242	0.100	-0.195
-535.150	-88.844	0.676	-0.203
-534.135	-17.019	0.191	0.122
-533.121	-127.214	-0.183	-0.027
-532.106	-103.161	-0.172	0.041
-531.091	-200.000	-0.004	-0.150
-530.077	-200.000	0.003	-0.084
-529.062	5.573	-0.136	-0.102
-528.048	115.801	-0.128	-0.158
-527.033	-184.343	-0.282	0.005
-526.018	511.797	0.104	0.244
-525.004	800.000	-0.012	-0.052
-523.989	36.455	-0.093	0.082
-522.975	143.079	-0.157	0.211
-521.960	44.953	-0.121	-0.112
-520.945	231.365	-0.100	0.166
-519.931	-63.666	0.136	0.056
-518.916	-2.325	-0.075	-0.053
-517.902	800.000	-0.084	0.349
-516.887	800.000	0.023	0.081
-515.872	118.846	0.080	0.100
-514.858	-14.712	0.221	-0.143
-513.843	800.000	-0.006	0.022
-512.829	-160.153	0.272	0.015
-511.814	163.007	-0.012	0.017
-510.799	-90.191	0.047	0.014
-509.785	252.206	-0.135	-0.233
-508.770	-200.000	-0.006	0.097
-507.756	124.729	0.122	-0.155
-506.741	-200.000	-0.001	0.058
-505.726	-59.269	0.147	-0.064
-504.712	-119.336	0.185	-0.032
-503.697	-200.000	0.079	0.539
-502.683	-30.533	-0.195	0.112
-501.668	-200.000	-0.044	0.375
-500.653	800.000	-0.042	-0.143
-499.639	-200.000	-0.018	0.344
-498.624	599.051	-0.116	0.291
-497.610	-200.000	-0.035	0.238
-496.595	-142.997	-0.352	-0.034
-495.581	-74.599	-0.246	0.089
-494.566	-159.804	0.189	0.010
-493.551	15.152	-0.119	-0.094
-492.537	-36.376	-0.002	-0.001
-491.522	-93.840	-0.211	0.059
-490.508	303.079	-0.154	0.288
-489.493	-108.267	0.201	0.044
-488.478	-72.851	0.118	0.044
-487.464	169.586	0.180	0.259
-486.449	-200.000	-0.026	-0.379
-485.435	-139.276	-0.207	0.022
-484.420	-200.000	-0.031	0.149
-483.405	-8.388	0.094	0.063
-482.391	-135.872	-0.143	-0.017
-481.376	-100.661	-0.225	0.056
-480.362	290.537	0.065	0.118
-479.347	-200.000	0.047	0.327
-478.332	-200.000	-0.052	0.277
-477.318	-64.554	-0.195	-0.080
-476.303	-53.645	0.125	0.058
-475.289	800.000	0.027	0.098
-474.274	-21.239	-0.278	0.171
-473.259	-111.907	0.197	0.040
-472.245	157.387	-0.077	0.107
-471.230	424.940	-0.089	-0.193
-470.216	-66.785	-0.093	-0.037
-469.201	-153.928	0.141	-0.010
-468.186	-147.903	0.107	-0.009
-467.172	470.776	-0.207	0.469
-466.157	362.575	-0.059	0.119
-465.143	58.512	0.093	0.092
-464.128	-4.481	-0.095	-0.066
-463.113	195.774	0.058	-0.089
-462.099	81.119	0.179	0.195
-461.084	-37.704	-0.281	-0.151
-460.070	291.864	-0.093	0.171
-459.055	191.855	-0.106	-0.161
-458.040	30.363	-0.559	0.481
-457.026	62.425	0.366	-0.368
-456.011	800.000	0.070	-0.199
-454.997	-152.544	-0.326	-0.024
-453.982	54.718	-0.309	0.300
-452.968	-171.172	-0.173	0.006
-451.953	-200.000	0.049	-0.263
-450.938	679.658	-0.073	-0.191
-449.924	800.000	-0.078	0.232
-448.909	402.217	-0.024	0.050
-447.895	800.000	0.028	-0.094
-446.880	-28.052	-0.091	-0.053
-445.865	-200.000	0.013	0.145
-444.851	800.000	0.116	-0.360
-443.836	-200.000	0.007	-0.176
-442.822	-134.390	0.312	0.039
-441.807	-103.197	0.214	0.051
-440.792	160.619	0.079	-0.111
-439.778	-71.073	0.112	-0.042
-438.763	800.000	0.042	-0.120
-437.749	1.253	-0.295	-0.214
-436.734	35.669	-0.121	0.107
-435.719	32.576	-0.301	-0.262
-434.705	-193.744	0.376	0.003
-433.690	-200.000	0.014	0.092
-432.676	800.000	-0.096	0.377
-431.661	-34.921	0.473	0.260
-430.646	-66.900	0.149	-0.059
-429.632	800.000	-0.082	-0.238
-428.617	737.146	0.065	-0.176
-427.603	184.956	0.118	0.176
-426.588	465.140	-0.072	-0.162
-425.573	-121.993	0.262	-0.043
-424.559	17.065	0.137	-0.109
-423.544	32.391	0.161	0.139
-422.530	-200.000	-0.031	-0.283
-421.515	498.147	-0.083	0.191
-420.500	-54.150	-0.138	0.063
-419.486	-17.508	0.127	-0.080
-418.471	-152.245	0.328	0.024
-417.457	528.807	0.119	0.283
-416.442	-36.526	-0.242	0.131
-415.428	123.601	-0.037	0.046
-414.413	-55.027	-0.137	-0.062
-413.398	-200.000	0.010	-0.211
-412.384	308.245	-0.066	-0.123
-411.369	371.392	0.070	-0.142
-410.355	-45.607	0.210	-0.104
-409.340	-30.609	0.214	-0.122
-408.325	130.631	-0.167	0.215
-407.311	768.778	0.104	0.284
-406.296	-200.000	0.045	-0.251
-405.282	-163.169	0.226	-0.011
-404.267	-0.333	-0.145	0.103
-403.252	-39.537	-0.079	-0.042
-402.238	-129.972	-0.238	0.033
-401.223	153.214	-0.068	0.093
-400.209	617.490	0.035	0.087
-399.194	-86.532	0.095	-0.029
-398.179	22.782	0.358	0.295
-397.165	-124.792	0.242	-0.038
-396.150	-154.190	-0.130	0.009
-395.136	-15.597	0.127	0.081
-394.121	199.780	0.064	-0.099
-393.106	40.910	-0.088	0.080
-392.092	13.322	0.180	0.140
-391.077	-200.000	-0.014	0.161
-390.063	-50.104	0.229	0.109
-389.048	25.993	0.244	0.204
-388.033	-35.977	0.020	-0.011
-387.019	-131.965	0.350	-0.046
-386.004	-200.000	-0.006	-0.136
-384.990	-6.048	0.419	0.288
-383.975	250.872	0.065	0.110
-382.960	28.491	0.078	-0.066
-381.946	216.659	0.091	0.145
-380.931	1.027	-0.091	0.066
-379.917	314.047	-0.083	0.157
-378.902	800.000	0.041	-0.118
-377.888	-52.727	-0.141	-0.065
-376.873	121.973	0.164	-0.205
-375.858	-92.749	0.312	0.088
-374.844	-200.000	-0.031	-0.425
-373.829	-200.000	0.001	0.074
-372.815	-102.948	-0.126	-0.030
-371.800	-150.445	0.076	-0.006
-370.785	800.000	-0.025	-0.082
-369.771	-56.435	-0.087	-0.039
-368.756	-137.445	0.150	-0.017
-367.742	193.659	0.044	-0.066
-366.727	-112.944	0.305	-0.060
-365.712	-16.130	0.166	0.106
-364.698	176.980	0.085	0.123
-363.683	381.730	-0.146	-0.301
-362.669	-7.773	0.035	-0.024
-361.654	-200.000	-0.010	0.247
-360.639	460.945	0.039	-0.087
-359.625	-83.981	-0.248	-0.079
-358.610	-114.463	-0.165	-0.032
-357.596	-50.722	-0.321	-0.152
-356.581	800.000	0.085	-0.357
-355.566	53.131	-0.143	0.138
-354.552	-200.000	0.033	0.196
-353.537	545.994	0.074	0.176
-352.523	-135.058	0.209	-0.025
-351.508	488.885	-0.094	-0.215
-350.493	224.058	-0.088	-0.143
-349.479	-83.917	0.335	-0.107
-348.464	-200.000	-0.006	-0.275
-347.450	77.793	0.073	-0.078
-346.435	-84.043	0.222	-0.071
-345.420	800.000	-0.067	0.219
-344.406	-200.000	-0.077	0.652
-343.391	-147.693	0.354	-0.030
-342.377	8.497	0.259	-0.196
-341.362	258.684	0.111	-0.192
-340.348	47.223	-0.166	0.155
-339.333	80.764	0.261	-0.283
-338.318	307.170	-0.216	-0.404
-337.304	-69.906	-0.434	0.166
-336.289	-35.874	-0.187	0.101
-335.275	800.000	0.059	-0.244
-334.260	-169.305	0.404	-0.015
-333.245	-200.000	0.001	-0.031
-332.231	-136.003	-0.144	-0.017
-331.216	38.221	0.178	0.159
-330.202	-76.569	-0.282	-0.099
-329.187	-158.146	-0.242	0.014
-328.172	-53.908	-0.284	-0.130
-327.158	-200.000	-0.148	0.000
-326.143	-10.051	0.095	0.063
-325.129	-200.000	-0.039	-0.239
-324.114	78.168	0.195	0.208
-323.099	273.716	-0.060	0.107
-322.085	-200.000	0.010	-0.170
-321.070	-42.903	-0.073	0.037
-320.056	757.862	0.052	0.141
-319.041	63.056	-0.176	0.177
-318.026	17.886	-0.074	-0.059
-317.012	-117.237	-0.339	0.062
-315.997	-200.000	0.013	-0.091
-314.983	-200.000	-0.005	0.252
-313.968	2.621	-0.133	-0.096
-312.953	-200.000	0.008	-0.227
-311.939	81.474	-0.094	0.102
-310.924	161.474	0.033	0.046
-309.910	800.000	0.055	-0.194
-308.895	-139.861	0.167	0.018
-307.880	146.200	-0.060	-0.081
-306.866	55.067	-0.119	0.115
-305.851	-9.234	0.232	0.155
-304.837	-98.801	-0.180	-0.046
-303.822	9.951	-0.219	0.167
-302.807	800.000	-0.070	0.216
-301.793	-4.777	-0.264	-0.182
-300.778	-40.790	0.162	-0.084
-299.764	-200.000	0.036	-0.256
-298.749	40.074	0.114	-0.103
-297.735	-74.217	0.191	0.069
-296.720	84.490	0.160	-0.176
-295.705	-200.000	-0.001	-0.054
-294.691	-200.000	0.036	-0.165
-293.676	-25.723	0.041	-0.024
-292.662	192.695	0.131	-0.198
-291.647	-52.524	-0.325	-0.150
-290.632	-66.375	0.167	-0.066
-289.618	-132.849	0.159	0.020
-288.603	-36.294	0.192	0.104
-287.589	79.270	-0.167	0.179
-286.574	-89.637	-0.166	0.049
-285.559	59.095	-0.137	0.135
-284.545	-126.956	0.199	0.029
-283.530	-200.000	0.012	0.069
-282.516	-129.483	0.117	-0.016
-281.501	-200.000	0.015	-0.077
-280.486	-200.000	0.040	-0.190
-279.472	585.953	-0.051	0.126
-278.457	257.229	-0.175	-0.301
-277.443	288.974	0.024	0.043
-276.428	614.278	-0.035	0.087
-275.413	800.000	-0.099	-0.354
-274.399	396.357	-0.097	0.202
-273.384	-200.000	-0.047	0.284
-272.370	274.907	-0.112	-0.198
-271.355	87.269	0.128	0.141
-270.340	800.000	-0.045	-0.146
-269.326	-76.487	0.252	-0.089
-268.311	157.187	-0.254	-0.352
-267.297	572.869	-0.153	-0.372
-266.282	657.705	0.198	-0.508
-265.267	-200.000	0.012	0.225
-264.253	168.095	0.202	0.288
-263.238	-200.000	-0.016	0.152
-262.224	-26.935	0.194	-0.113
-261.209	-200.000	0.009	-0.144
-260.195	251.393	-0.085	0.144
-259.180	-94.058	-0.086	-0.024
-258.165	459.126	0.035	-0.079
-257.151	800.000	-0.068	-0.251
-256.136	74.854	-0.182	0.191
-255.122	45.277	-0.148	-0.137
-254.107	-42.091	-0.232	-0.119
-253.092	334.549	-0.080	-0.154
-252.078	376.559	0.139	-0.283
-251.063	-74.137	-0.193	0.070
-250.049	-90.253	0.099	0.029
-249.034	-77.436	-0.084	-0.029
-248.019	-63.980	0.232	0.095
-247.005	628.951	0.132	0.332
-245.990	-142.993	0.159	-0.015
-244.976	-134.200	0.230	0.028
-243.961	39.284	0.180	-0.161
-242.946	-167.190	-0.101	-0.004
-241.932	-27.322	-0.209	0.122
-240.917	14.343	0.081	0.063
-239.903	-130.092	0.194	-0.026
-238.888	19.732	0.189	0.152
-237.873	-133.514	-0.076	-0.010
-236.859	-105.259	0.151	0.034
-235.844	373.996	-0.107	0.218
-234.830	-143.297	-0.425	0.041
-233.815	236.155	0.147	0.242
-232.800	28.288	0.210	-0.177
-231.786	8.254	0.144	0.108
-230.771	-20.946	0.208	0.127
-229.757	-29.916	0.154	0.088
-228.742	136.108	0.136	0.176
-227.727	-200.000	-0.003	0.082
-226.713	-10.725	0.079	0.052
-225.698	655.323	0.085	0.219
-224.684	800.000	0.082	0.314
-223.669	-137.614	0.119	-0.013
-222.655	800.000	0.048	0.162
-221.640	-130.219	-0.108	0.015
-220.625	38.928	0.155	-0.138
-219.611	-72.673	0.156	0.057
-218.596	18.993	0.182	0.146
-217.582	-12.342	0.301	0.196
-216.567	-18.839	-0.173	-0.108
-215.552	-65.879	0.115	-0.046
-214.538	-151.195	-0.281	0.021
-213.523	-149.223	0.118	-0.009
-212.509	398.430	-0.091	0.190
-211.494	-45.293	0.258	0.128
-210.479	-200.000	-0.008	0.046
-209.465	-143.057	0.243	0.023
-208.450	323.513	-0.098	0.186
-207.436	-124.845	-0.113	0.017
-206.421	800.000	-0.037	-0.158
-205.406	-124.285	0.297	-0.046
-204.392	-64.258	0.155	-0.063
-203.377	-122.321	-0.166	-0.027
-202.363	-87.438	-0.340	0.103
-201.348	-57.023	-0.315	0.139
-200.333	-114.309	-0.233	0.045
-199.319	-106.587	-0.165	0.037
-198.304	-120.238	0.075	-0.013
-197.290	800.000	-0.084	-0.280
-196.275	-200.000	-0.018	0.296
-195.260	-200.000	-0.072	0.390
-194.246	409.511	0.109	0.229
-193.231	800.000	0.131	-0.471
-192.217	-188.027	0.110	-0.001
-191.202	284.150	-0.094	0.168
-190.187	-133.395	-0.355	-0.044
-189.173	-140.604	-0.582	0.060
-188.158	800.000	0.062	0.215
-187.144	-86.137	0.318	0.098
-186.129	55.599	-0.185	0.179
-185.114	-72.644	-0.322	-0.118
-184.100	-0.998	0.133	-0.094
-183.085	84.433	-0.186	-0.203
-182.071	-3.528	0.093	0.064
-181.056	800.000	0.012	-0.039
-180.042	48.550	-0.260	-0.243
-179.027	126.227	0.146	0.184
-178.012	-73.295	0.268	-0.098
-176.998	-24.117	-0.092	0.055
-175.983	-168.200	-0.233	0.009
-174.969	181.027	-0.131	0.191
-173.954	-85.553	0.105	-0.033
-172.939	3.541	-0.073	-0.053
-171.925	-82.044	0.196	-0.064
-170.910	432.506	0.044	-0.095
-169.896	-182.422	-0.166	-0.003
-168.881	-28.615	0.087	-0.050
-167.866	44.801	-0.039	0.036
-166.852	72.101	0.048	-0.050
-165.837	-89.175	-0.216	-0.063
-164.823	-148.357	0.420	0.034
-163.808	-17.400	0.083	-0.052
-162.793	-171.431	-0.127	-0.004
-161.779	-200.000	-0.002	0.037
-160.764	689.220	-0.038	-0.098
-159.750	437.589	-0.020	0.044
-158.735	21.985	-0.028	-0.022
-157.720	115.264	0.005	-0.006
-156.706	-77.777	0.116	0.040
-155.691	-56.830	-0.277	0.122
-154.677	84.259	0.125	0.136
-153.662	30.816	-0.108	0.092
-152.647	800.000	-0.013	-0.050
-151.633	6.454	0.252	-0.186
-150.618	-88.625	0.181	-0.054
-149.604	-123.489	-0.335	-0.053
-148.589	-58.553	0.358	-0.155
-147.574	800.000	-0.104	0.297
-146.560	345.054	0.073	-0.143
-145.545	-57.436	-0.027	-0.012
-144.531	-123.919	0.174	0.027
-143.516	-84.778	-0.049	0.015
-142.502	341.648	0.093	0.181
-141.487	24.118	-0.092	0.075
-140.472	-200.000	0.010	-0.130
-139.458	800.000	-0.018	-0.075
-138.443	41.210	-0.195	-0.175
-137.429	406.726	0.063	0.132
-136.414	143.907	0.108	0.143
-135.399	-45.778	0.152	0.075
-134.385	-36.932	-0.144	0.077
-133.370	-45.732	-0.211	-0.104
-132.356	-200.000	-0.037	-0.217
-131.341	800.000	-0.093	-0.277
-130.326	-4.189	-0.138	-0.095
-129.312	15.166	-0.094	0.074
-128.297	-200.000	0.057	0.335
-127.283	-200.000	-0.022	-0.149
-126.268	15.777	0.334	0.261
-125.253	-0.080	0.198	0.140
-124.239	150.144	-0.023	-0.031
-123.224	194.115	0.151	-0.228
-122.210	-200.000	0.025	0.143
-121.195	40.923	-0.083	-0.074
