DTS Sentinel unit serial number:	SN413079Multiplexer serial number:	ORYXHardware model number:	OX4-SRSoftware version number:	ORYX F/W v4.00 Oryx Data Collector v3.7.2.0data status	okinstallation	princeton_trtdifferential loss correction	single-endedforward channel	channel 4reverse channel	N/Adate	2019/09/17time	16:05:35forward acquisition time	60.00reverse acquisition time	0.00gamma	496.2192k internal	0.2287k external	0.2287temperature offset calibration	0.9979default loss term (dB/km)	0.3790temperature slope calibration	1.0000multiplexer offset coefficient	1.0000multiplexer slope coefficient	1.0000fibre end	0.00T internal ref (°C)	40.22T ext. ref 1 (°C)	0.37T ext. ref 2 (°C)	38.70length (m)	temperature (°C)	Stokes	anti-Stokes-747.200	431.959	0.045	-0.099
-746.185	-25.619	-0.243	0.147
-745.171	800.000	0.057	0.167
-744.156	-40.477	-0.083	-0.044
-743.142	20.898	-0.270	0.225
-742.127	126.264	0.357	0.463
-741.112	800.000	0.053	0.202
-740.098	44.207	-0.310	0.292
-739.083	-55.297	0.140	0.065
-738.069	800.000	-0.021	0.066
-737.054	-42.996	-0.092	0.048
-736.039	100.942	-0.356	-0.424
-735.025	-200.000	-0.048	0.254
-734.010	220.904	-0.155	-0.255
-732.996	-103.693	0.035	0.008
-731.981	-66.219	-0.165	0.068
-730.966	351.512	-0.012	0.024
-729.952	45.295	-0.268	-0.254
-728.937	-33.795	-0.195	-0.110
-727.923	-162.108	-0.274	-0.014
-726.908	-132.781	-0.311	-0.041
-725.894	800.000	-0.031	-0.122
-724.879	471.906	0.048	0.110
-723.864	-144.751	-0.189	0.018
-722.850	145.056	0.051	-0.069
-721.835	-35.429	-0.102	0.057
-720.821	-86.807	-0.172	-0.054
-719.806	800.000	0.067	-0.209
-718.791	737.050	-0.108	-0.296
-717.777	136.710	-0.018	-0.024
-716.762	-77.599	-0.125	0.044
-715.748	-88.620	-0.349	0.106
-714.733	-72.243	-0.119	0.045
-713.718	551.787	-0.030	0.073
-712.704	303.142	0.096	0.182
-711.689	154.313	-0.068	0.096
-710.675	-200.000	0.077	0.509
-709.660	304.550	-0.165	0.314
-708.645	245.516	-0.111	0.191
-707.631	-29.769	0.121	0.071
-706.616	-97.892	-0.128	-0.034
-705.602	-153.369	-0.166	-0.012
-704.587	-94.513	-0.126	0.035
-703.572	-200.000	0.030	-0.212
-702.558	-70.042	-0.076	-0.030
-701.543	-114.678	0.228	-0.045
-700.529	98.624	0.145	0.171
-699.514	149.144	0.176	-0.244
-698.499	-151.378	0.388	0.030
-697.485	-44.734	-0.200	-0.102
-696.470	-86.819	-0.210	-0.066
-695.456	-200.000	0.033	0.166
-694.441	-69.597	0.322	-0.126
-693.426	23.520	-0.186	-0.157
-692.412	161.401	-0.238	0.340
-691.397	-200.000	0.044	0.205
-690.383	188.564	0.147	-0.225
-689.368	19.659	-0.105	-0.086
-688.354	679.466	-0.067	-0.178
-687.339	49.106	-0.442	-0.425
-686.324	-200.000	0.003	-0.071
-685.310	-26.243	-0.091	-0.055
-684.295	-45.678	0.033	-0.017
-683.281	-75.213	0.142	-0.052
-682.266	-200.000	0.003	0.093
-681.251	-200.000	0.026	0.334
-680.237	263.759	0.017	0.031
-679.222	-200.000	-0.013	-0.283
-678.208	697.066	0.112	-0.301
-677.193	276.869	0.074	0.134
-676.178	-200.000	-0.047	-0.272
-675.164	-65.036	0.233	-0.096
-674.149	119.463	0.025	-0.031
-673.135	-78.295	0.205	0.072
-672.120	-200.000	0.018	0.157
-671.105	-15.862	-0.109	-0.071
-670.091	27.688	0.014	0.012
-669.076	-8.253	0.098	0.068
-668.062	208.214	0.197	-0.315
-667.047	-69.726	-0.177	-0.069
-666.032	-200.000	-0.034	-0.234
-665.018	27.303	-0.144	0.123
-664.003	-15.335	0.145	0.095
-662.989	-200.000	-0.015	0.138
-661.974	-124.714	-0.332	-0.053
-660.959	-200.000	-0.046	0.224
-659.945	-19.418	-0.247	0.157
-658.930	-120.365	-0.184	0.032
-657.916	-74.610	-0.124	-0.046
-656.901	333.531	0.073	-0.144
-655.886	-200.000	-0.028	-0.205
-654.872	800.000	0.075	0.245
-653.857	765.843	0.056	-0.156
-652.843	-11.746	-0.281	0.188
-651.828	146.286	0.118	0.162
-650.814	-200.000	-0.039	-0.219
-649.799	45.325	0.190	0.179
-648.784	-114.788	0.218	0.043
-647.770	-2.059	0.178	0.128
-646.755	726.511	0.092	-0.250
-645.741	-65.894	-0.274	-0.112
-644.726	188.529	0.273	0.417
-643.711	-200.000	-0.030	0.499
-642.697	32.385	0.287	0.253
-641.682	-54.551	-0.282	0.131
-640.668	114.427	-0.250	0.311
-639.653	18.166	-0.247	0.201
-638.638	137.155	-0.161	-0.215
-637.624	-92.624	-0.402	0.115
-636.609	70.407	-0.221	0.234
-635.595	3.946	-0.111	0.083
-634.580	87.823	-0.093	0.105
-633.565	-136.845	0.260	-0.031
-632.551	-160.927	-0.116	-0.006
-631.536	92.086	-0.023	-0.026
-630.522	-149.291	-0.191	0.016
-629.507	-200.000	0.026	0.217
-628.492	653.303	-0.120	-0.315
-627.478	248.433	-0.130	-0.225
-626.463	-28.006	-0.118	0.069
-625.449	-69.386	0.145	-0.057
-624.434	-70.396	-0.212	-0.082
-623.419	-200.000	-0.057	-0.317
-622.405	-175.703	-0.200	-0.005
-621.390	113.841	0.035	0.043
-620.376	-52.161	0.188	0.089
-619.361	36.949	0.008	-0.008
-618.346	800.000	-0.028	0.108
-617.332	-51.241	-0.188	0.090
-616.317	-131.409	0.121	-0.016
-615.303	-133.191	-0.284	0.037
-614.288	153.339	0.111	0.155
-613.273	253.393	-0.127	-0.221
-612.259	136.743	-0.179	-0.238
-611.244	284.150	-0.109	-0.200
-610.230	-99.513	-0.317	-0.081
-609.215	602.974	-0.146	0.370
-608.201	36.048	0.307	-0.276
-607.186	-94.683	-0.330	-0.092
-606.171	-47.254	0.120	0.059
-605.157	-25.534	-0.271	-0.163
-604.142	-58.702	0.061	-0.027
-603.128	-107.651	-0.247	0.055
-602.113	-83.042	0.346	0.114
-601.098	800.000	-0.087	0.364
-600.084	-33.524	-0.361	0.203
-599.069	31.749	-0.249	-0.218
-598.055	-200.000	-0.051	0.562
-597.040	-20.988	-0.059	-0.037
-596.025	-48.966	-0.358	-0.175
-595.011	635.476	-0.019	-0.050
-593.996	-200.000	-0.018	-0.127
-592.982	-200.000	-0.040	-0.304
-591.967	-106.396	0.177	-0.040
-590.952	243.193	-0.243	-0.416
-589.938	-200.000	0.290	0.001
-588.923	-166.539	-0.187	0.008
-587.909	-200.000	0.012	0.152
-586.894	800.000	0.050	0.184
-585.879	212.902	-0.064	-0.104
-584.865	44.555	0.061	0.058
-583.850	110.956	-0.137	0.168
-582.836	149.899	0.141	0.195
-581.821	19.650	0.185	-0.152
-580.806	52.965	-0.131	-0.128
-579.792	-42.336	0.169	0.088
-578.777	-31.793	0.190	-0.109
-577.763	656.811	-0.026	-0.067
-576.748	-44.271	0.264	-0.135
-575.733	234.599	0.168	-0.282
-574.719	-101.480	0.097	0.024
-573.704	-10.002	0.050	-0.034
-572.690	118.762	-0.087	-0.109
-571.675	800.000	-0.043	-0.137
-570.661	800.000	0.142	0.404
-569.646	-22.320	0.083	0.051
-568.631	200.502	0.057	-0.090
-567.617	217.520	0.213	-0.346
-566.602	-200.000	0.021	-0.156
-565.588	-119.144	0.305	0.054
-564.573	118.623	-0.363	-0.457
-563.558	32.725	-0.118	0.104
-562.544	432.849	0.021	0.047
-561.529	124.595	-0.122	0.157
-560.515	5.621	0.082	-0.062
-559.500	-118.443	0.096	0.017
-558.485	127.150	-0.149	0.192
-557.471	102.688	0.165	0.196
-556.456	-147.966	0.221	-0.019
-555.442	161.714	0.123	-0.175
-554.427	-200.000	0.017	-0.169
-553.412	-97.143	-0.372	-0.099
-552.398	-200.000	0.020	0.489
-551.383	106.745	0.251	-0.303
-550.369	800.000	0.032	0.100
-549.354	538.337	0.085	0.205
-548.339	31.400	0.012	-0.011
-547.325	-200.000	0.010	-0.399
-546.310	270.329	0.213	-0.381
-545.296	-62.511	0.297	-0.126
-544.281	-200.000	-0.007	0.118
-543.266	-70.807	0.229	-0.088
-542.252	-37.863	0.037	0.020
-541.237	-184.883	-0.229	0.004
-540.223	312.134	0.114	-0.218
-539.208	350.287	0.121	0.244
-538.193	0.966	0.123	0.090
-537.179	533.298	-0.030	-0.073
-536.164	452.008	-0.140	-0.314
-535.150	382.423	0.216	0.453
-534.135	-200.000	0.016	-0.324
-533.121	115.989	-0.104	-0.129
-532.106	119.048	0.057	-0.071
-531.091	279.658	0.109	-0.199
-530.077	-105.514	-0.310	0.072
-529.062	87.134	-0.184	0.207
-528.048	-200.000	-0.004	-0.119
-527.033	-21.275	0.216	-0.134
-526.018	-76.829	-0.348	0.124
-525.004	19.332	0.089	-0.072
-523.989	-115.199	0.356	-0.069
-522.975	800.000	0.099	0.311
-521.960	-37.073	-0.105	-0.057
-520.945	800.000	-0.058	-0.222
-519.931	-32.989	0.216	0.122
-518.916	29.490	0.180	0.156
-517.902	-33.918	0.226	0.126
-516.887	-200.000	-0.030	-0.287
-515.872	-137.074	-0.380	0.044
-514.858	-200.000	-0.001	-0.156
-513.843	191.202	-0.027	-0.042
-512.829	-200.000	-0.014	0.119
-511.814	-129.712	-0.391	0.055
-510.799	446.170	-0.190	0.424
-509.785	75.403	0.169	0.181
-508.770	-200.000	0.030	0.311
-507.756	25.574	-0.223	-0.189
-506.741	-28.941	0.122	-0.071
-505.726	18.648	0.050	-0.041
-504.712	800.000	-0.068	0.282
-503.697	147.319	-0.194	-0.265
-502.683	-200.000	-0.006	-0.227
-501.668	-101.103	-0.351	0.087
-500.653	-73.001	-0.175	0.065
-499.639	-200.000	-0.051	-0.275
-498.624	-200.000	0.022	-0.233
-497.610	20.925	0.191	0.157
-496.595	776.853	0.048	0.134
-495.581	800.000	-0.090	-0.291
-494.566	-200.000	0.012	-0.130
-493.551	255.421	0.041	0.072
-492.537	-200.000	0.052	0.268
-491.522	-200.000	0.010	-0.154
-490.508	-40.277	-0.194	0.103
-489.493	670.475	0.095	-0.250
-488.478	-134.933	-0.218	0.027
-487.464	-42.487	0.225	-0.117
-486.449	-155.758	0.217	0.014
-485.435	88.359	-0.182	-0.206
-484.420	-48.821	0.187	-0.091
-483.405	-200.000	-0.010	-0.195
-482.391	278.481	0.029	-0.052
-481.376	42.237	-0.095	-0.088
-480.362	17.733	0.060	0.048
-479.347	-93.499	0.392	0.110
-478.332	-118.176	-0.328	0.059
-477.318	800.000	0.109	0.338
-476.303	-48.070	-0.183	-0.090
-475.289	-93.556	0.132	-0.037
-474.274	-200.000	-0.007	-0.134
-473.259	-124.506	-0.276	0.044
-472.245	-200.000	0.044	0.295
-471.230	161.794	-0.143	-0.203
-470.216	136.002	0.071	0.094
-469.201	800.000	-0.024	0.102
-468.186	-87.477	0.183	0.056
-467.172	-112.316	0.285	0.058
-466.157	333.108	0.100	-0.197
-465.143	-135.271	-0.097	0.012
-464.128	800.000	0.027	0.099
-463.113	124.434	-0.082	0.104
-462.099	-200.000	-0.020	-0.238
-461.084	-200.000	0.022	-0.155
-460.070	-36.736	-0.249	-0.135
-459.055	-200.000	-0.061	-0.284
-458.040	-200.000	-0.004	-0.081
-457.026	633.993	-0.085	0.218
-456.011	-109.807	0.276	-0.059
-454.997	-73.189	-0.213	-0.079
-453.982	-200.000	0.004	0.078
-452.968	-151.062	-0.302	-0.023
-451.953	-70.609	0.215	0.082
-450.938	-127.169	0.066	-0.010
-449.924	-51.681	0.214	-0.101
-448.909	-43.576	-0.223	0.114
-447.895	-83.014	-0.235	-0.077
-446.880	-138.927	-0.231	0.025
-445.865	-37.797	-0.072	0.039
-444.851	54.393	-0.062	-0.061
-443.836	319.449	-0.084	0.162
-442.822	24.382	0.087	0.073
-441.807	800.000	-0.076	0.217
-440.792	-107.725	0.441	0.097
-439.778	-200.000	-0.026	-0.195
-438.763	-200.000	0.077	-0.398
-437.749	-132.227	0.211	0.028
-436.734	-106.273	0.186	0.042
-435.719	364.042	0.122	0.249
-434.705	-200.000	-0.036	-0.352
-433.690	32.569	0.272	-0.238
-432.676	248.370	-0.071	0.122
-431.661	362.944	-0.048	-0.097
-430.646	-60.612	0.350	0.150
-429.632	-10.467	-0.265	-0.178
-428.617	266.103	0.149	0.264
-427.603	10.190	-0.149	0.115
-426.588	165.370	0.073	0.105
-425.573	800.000	-0.066	-0.222
-424.559	-200.000	-0.030	-0.147
-423.544	-75.536	-0.213	-0.077
-422.530	145.704	-0.035	-0.048
-421.515	-200.000	0.105	0.507
-420.500	-45.691	0.141	-0.071
-419.486	-200.000	-0.013	0.180
-418.471	-200.000	0.002	0.167
-417.457	1.920	-0.213	-0.155
-416.442	-65.220	-0.169	0.069
-415.428	-39.216	0.272	-0.145
-414.413	-77.561	0.258	0.090
-413.398	800.000	0.041	0.163
-412.384	165.754	0.051	0.073
-411.369	-200.000	-0.005	0.210
-410.355	-104.563	-0.194	-0.045
-409.340	-158.119	-0.202	-0.012
-408.325	-200.000	-0.012	0.065
-407.311	-200.000	-0.041	-0.206
-406.296	800.000	0.010	0.028
-405.282	55.590	0.270	-0.265
-404.267	-200.000	0.001	0.086
-403.252	-161.681	0.212	0.011
-402.238	-177.547	0.200	-0.005
-401.223	-44.047	-0.304	-0.155
-400.209	330.636	-0.124	-0.241
-399.194	50.736	0.059	0.057
-398.179	-121.326	-0.215	-0.036
-397.165	56.678	-0.082	-0.081
-396.150	-125.915	0.392	0.060
-395.136	125.608	0.091	0.116
-394.121	-129.357	-0.198	-0.028
-393.106	-200.000	-0.074	0.350
-392.092	-101.694	0.061	-0.015
-391.077	-54.416	-0.196	-0.090
-390.063	-200.000	0.018	-0.151
-389.048	248.865	-0.171	-0.294
-388.033	122.557	0.120	0.152
-387.019	-109.738	-0.223	-0.047
-386.004	-78.095	-0.146	-0.051
-384.990	-200.000	0.009	0.104
-383.975	162.808	-0.181	-0.258
-382.960	-46.949	0.252	0.124
-381.946	-58.199	-0.320	0.141
-380.931	-200.000	0.052	-0.408
-379.917	-57.417	0.169	0.075
-378.902	4.686	-0.241	-0.179
-377.888	-8.732	0.098	-0.066
-376.873	-200.000	0.053	0.247
-375.858	110.169	0.202	0.245
-374.844	177.445	-0.297	0.437
-373.829	-8.424	0.148	-0.101
-372.815	132.025	0.090	0.118
-371.800	111.011	-0.050	0.061
-370.785	-81.834	-0.269	-0.089
-369.771	-138.021	0.232	-0.026
-368.756	-101.684	-0.209	-0.051
-367.742	94.710	0.085	-0.097
-366.727	31.168	-0.211	-0.183
-365.712	-200.000	-0.032	-0.252
-364.698	-200.000	0.025	-0.176
-363.683	-200.000	-0.018	-0.229
-362.669	128.618	0.107	0.138
-361.654	-104.836	-0.234	0.054
-360.639	-200.000	0.019	-0.225
-359.625	-113.348	0.198	0.039
-358.610	-162.003	0.212	-0.011
-357.596	800.000	0.070	0.209
-356.581	-87.698	-0.340	-0.104
-355.566	-174.393	-0.287	-0.008
-354.552	-200.000	-0.014	0.315
-353.537	81.108	-0.119	-0.130
-352.523	24.740	0.130	0.108
-351.508	-116.904	0.235	0.044
-350.493	-16.093	-0.087	0.056
-349.479	800.000	0.011	0.039
-348.464	800.000	-0.102	0.411
-347.450	42.522	-0.215	0.197
-346.435	10.748	0.104	-0.080
-345.420	-70.444	0.171	0.066
-344.406	-131.228	-0.143	-0.019
-343.391	215.859	-0.037	0.059
-342.377	-90.987	-0.238	0.069
-341.362	112.286	0.128	-0.157
-340.348	-69.649	0.165	0.064
-339.333	-48.293	0.161	0.078
-338.318	143.553	-0.045	0.060
-337.304	321.308	0.114	-0.218
-336.289	-93.238	-0.058	-0.016
-335.275	-12.294	-0.131	0.086
-334.260	-164.851	0.530	0.024
-333.245	800.000	-0.079	-0.277
-332.231	8.141	0.086	-0.065
-331.216	-200.000	0.028	0.216
-330.202	524.050	-0.050	-0.119
-329.187	97.531	-0.175	0.203
-328.172	-66.381	-0.117	0.047
-327.158	41.055	0.133	0.121
-326.143	339.660	0.070	-0.138
-325.129	-106.797	-0.294	0.066
-324.114	-200.000	-0.046	0.257
-323.099	-200.000	0.068	0.361
-322.085	-79.226	0.215	-0.074
-321.070	526.918	-0.112	0.266
-320.056	-64.265	0.253	-0.104
-319.041	38.981	0.278	-0.251
-318.026	148.607	0.195	-0.266
-317.012	-68.737	0.286	0.112
-315.997	71.891	-0.068	0.071
-314.983	110.958	0.234	0.284
-313.968	-176.278	-0.135	0.004
-312.953	-116.479	0.170	0.032
-311.939	-38.641	0.228	0.121
-310.924	-59.846	0.192	0.083
-309.910	489.015	0.054	-0.124
-308.895	-200.000	0.068	-0.417
-307.880	-149.162	-0.046	-0.004
-306.866	-200.000	0.022	-0.255
-305.851	-35.538	-0.175	-0.096
-304.837	-200.000	-0.017	0.097
-303.822	-1.834	0.118	0.084
-302.807	339.765	-0.121	0.238
-301.793	13.078	-0.089	-0.070
-300.778	502.578	0.108	-0.253
-299.764	-57.310	0.148	-0.066
-298.749	6.382	0.173	0.129
-297.735	-200.000	0.024	-0.155
-296.720	-127.251	-0.350	0.052
-295.705	-200.000	0.049	0.315
-294.691	-73.946	0.396	0.145
-293.676	16.799	0.331	0.264
-292.662	-200.000	-0.029	0.138
-291.647	-109.811	-0.134	-0.028
-290.632	-143.370	-0.278	-0.027
-289.618	27.423	0.269	-0.228
-288.603	-200.000	-0.019	-0.441
-287.589	-129.749	-0.209	0.029
-286.574	-123.681	0.190	-0.030
-285.559	-200.000	-0.006	-0.145
-284.545	306.213	-0.097	0.181
-283.530	140.439	-0.009	0.012
-282.516	-80.175	-0.071	0.024
-281.501	800.000	-0.077	0.251
-280.486	59.803	-0.292	-0.290
-279.472	-96.338	0.201	-0.054
-278.457	800.000	0.061	0.237
-277.443	366.315	-0.020	0.040
-276.428	106.764	0.186	-0.222
-275.413	-52.475	-0.051	0.024
-274.399	-50.544	-0.336	-0.159
-273.384	125.191	-0.061	-0.077
-272.370	10.412	0.103	-0.079
-271.355	7.402	-0.261	-0.196
-270.340	-200.000	-0.054	-0.246
-269.326	142.692	0.067	0.090
-268.311	743.439	0.028	0.075
-267.297	239.875	0.071	-0.119
-266.282	-45.783	0.272	-0.135
-265.267	-17.171	-0.054	-0.034
-264.253	291.195	-0.065	-0.119
-263.238	-66.411	0.013	-0.005
-262.224	800.000	0.120	0.420
-261.209	62.119	0.011	0.011
-260.195	138.620	0.198	-0.261
-259.180	800.000	-0.005	-0.017
-258.165	-106.611	0.196	0.044
-257.151	154.288	0.022	0.030
-256.136	-18.562	0.175	0.110
-255.122	-35.079	-0.181	-0.099
-254.107	270.606	0.099	0.176
-253.092	47.330	0.454	0.426
-252.078	-114.017	0.224	0.044
-251.063	-73.879	-0.089	-0.032
-250.049	-200.000	-0.001	-0.210
-249.034	-145.365	0.250	-0.023
-248.019	41.106	0.178	-0.162
-247.005	59.803	-0.115	-0.114
-245.990	125.156	0.158	-0.201
-244.976	-200.000	-0.014	0.080
-243.961	800.000	0.074	0.248
-242.946	-40.635	-0.122	-0.064
-241.932	-18.843	-0.381	0.239
-240.917	-200.000	0.012	-0.226
-239.903	-39.841	0.128	-0.067
-238.888	82.870	0.290	0.318
-237.873	535.806	-0.038	0.091
-236.859	-57.232	-0.171	0.076
-235.844	-64.974	-0.356	-0.145
-234.830	-89.849	-0.086	0.025
-233.815	168.099	0.108	-0.155
-232.800	-146.440	-0.393	0.035
-231.786	-74.171	-0.257	-0.093
-230.771	330.715	-0.157	-0.304
-229.757	800.000	-0.057	0.243
-228.742	531.282	0.051	-0.122
-227.727	-140.181	0.314	-0.033
-226.713	-200.000	-0.047	-0.253
-225.698	561.922	0.064	0.155
-224.684	13.584	-0.263	-0.206
-223.669	-106.806	0.214	0.048
-222.655	-123.009	-0.073	-0.012
-221.640	-200.000	-0.036	-0.214
-220.625	-190.497	-0.151	-0.002
-219.611	-38.543	0.236	0.126
-218.596	-200.000	0.006	0.078
-217.582	-6.036	0.236	-0.162
-216.567	173.040	-0.150	0.217
-215.552	-200.000	0.077	0.415
-214.538	9.645	-0.111	0.085
-213.523	-161.864	0.191	0.010
-212.509	-141.692	-0.166	-0.017
-211.494	148.313	-0.134	-0.182
-210.479	-200.000	-0.016	0.145
-209.465	167.518	-0.107	0.152
-208.450	-59.771	-0.135	-0.058
-207.436	177.252	-0.099	0.145
-206.421	-181.041	0.324	-0.007
-205.406	-58.672	0.087	-0.038
-204.392	800.000	0.025	-0.076
-203.377	361.264	0.136	0.274
-202.363	53.167	-0.095	0.091
-201.348	-43.941	0.510	0.258
-200.333	800.000	-0.018	0.050
-199.319	-200.000	0.001	0.029
-198.304	-178.573	0.032	-0.001
-197.290	238.851	-0.079	0.132
-196.275	-38.714	0.175	-0.093
-195.260	-123.554	-0.194	-0.031
-194.246	63.467	-0.112	0.113
-193.231	-200.000	-0.002	0.208
-192.217	121.479	-0.164	-0.205
-191.202	-135.268	0.117	0.014
-190.187	800.000	0.080	0.350
-189.173	252.690	0.179	0.306
-188.158	-6.497	-0.216	0.148
-187.144	-200.000	0.068	0.324
-186.129	-7.192	0.133	-0.091
-185.114	-125.508	-0.195	-0.030
-184.100	-200.000	0.044	0.198
-183.085	-180.098	0.088	0.002
-182.071	800.000	0.049	-0.137
-181.056	-189.695	0.202	0.002
-180.042	-182.308	0.175	-0.003
-179.027	-140.349	-0.193	0.020
-178.012	19.545	-0.141	-0.114
-176.998	-200.000	-0.002	-0.162
-175.983	101.434	0.247	-0.289
-174.969	-60.462	-0.149	-0.063
-173.954	-179.490	-0.048	-0.001
-172.939	-83.712	-0.253	0.081
-171.925	-20.660	0.164	0.101
-170.910	29.416	-0.140	0.120
-169.896	174.805	-0.069	0.101
-168.881	-55.173	0.105	0.048
-167.866	335.143	0.051	0.099
-166.852	694.629	-0.088	-0.232
-165.837	-52.700	-0.092	-0.043
-164.823	-24.142	-0.267	-0.160
-163.808	-200.000	-0.067	-0.521
-162.793	150.938	0.094	0.128
-161.779	-132.500	0.138	-0.018
-160.764	65.258	-0.155	0.157
-159.750	156.574	-0.096	-0.133
-158.735	-22.325	-0.113	0.069
-157.720	-127.797	0.145	0.021
-156.706	-99.598	0.134	-0.034
-155.691	-200.000	-0.057	-0.403
-154.677	87.616	0.073	-0.081
-153.662	-9.558	-0.107	0.072
-152.647	-112.972	0.279	-0.055
-151.633	146.468	-0.133	0.178
-150.618	-200.000	-0.002	0.043
-149.604	623.427	-0.027	0.068
-148.589	-32.396	-0.238	0.133
-147.574	-200.000	0.003	-0.054
-146.560	-76.460	0.089	0.031
-145.545	9.545	-0.180	0.136
-144.531	-200.000	-0.029	-0.210
-143.516	54.288	-0.202	-0.195
-142.502	7.354	0.280	0.210
-141.487	-69.773	0.086	-0.033
-140.472	-108.406	0.433	-0.093
-139.458	-30.881	0.181	-0.102
-138.443	-76.164	-0.156	0.055
-137.429	-200.000	0.032	-0.248
-136.414	-55.077	0.235	-0.106
-135.399	-65.096	-0.075	-0.030
-134.385	108.760	-0.114	0.136
-133.370	-200.000	-0.007	0.087
-132.356	-60.956	-0.072	0.031
-131.341	-200.000	0.012	-0.109
-130.326	39.150	0.109	-0.098
-129.312	8.301	-0.045	-0.033
-128.297	-126.610	0.558	0.083
-127.283	117.329	-0.094	-0.116
-126.268	249.059	-0.121	-0.205
-125.253	-80.604	-0.288	0.096
-124.239	-0.023	0.192	0.137
-123.224	-106.467	0.171	-0.038
-122.210	-200.000	-0.044	-0.218
