DTS Sentinel unit serial number:	SN413079Multiplexer serial number:	ORYXHardware model number:	OX4-SRSoftware version number:	ORYX F/W v4.00 Oryx Data Collector v3.7.2.0data status	okinstallation	princeton_trtdifferential loss correction	single-endedforward channel	channel 4reverse channel	N/Adate	2019/09/10time	22:19:11forward acquisition time	60.00reverse acquisition time	0.00gamma	496.2192k internal	0.2315k external	0.2315temperature offset calibration	0.9947default loss term (dB/km)	0.3790temperature slope calibration	1.0000multiplexer offset coefficient	1.0000multiplexer slope coefficient	1.0000fibre end	0.00T internal ref (°C)	30.48T ext. ref 1 (°C)	-0.31T ext. ref 2 (°C)	23.86length (m)	temperature (°C)	Stokes	anti-Stokes-747.200	40.157	0.293	-0.267
-746.185	-200.000	0.014	0.534
-745.171	-133.441	0.094	0.012
-744.156	-34.543	0.160	-0.089
-743.142	3.362	0.191	-0.141
-742.127	125.373	0.133	0.170
-741.112	212.236	0.036	0.058
-740.098	-53.546	-0.201	-0.093
-739.083	273.213	0.203	0.363
-738.069	-133.404	-0.221	-0.028
-737.054	24.025	-0.125	-0.105
-736.039	800.000	-0.090	-0.276
-735.025	155.082	-0.100	0.139
-734.010	178.767	-0.119	0.177
-732.996	48.551	0.248	0.235
-731.981	534.845	-0.063	-0.152
-730.966	127.569	-0.209	-0.268
-729.952	-200.000	-0.031	-0.165
-728.937	547.557	-0.110	-0.267
-727.923	800.000	0.026	0.112
-726.908	101.503	-0.190	-0.224
-725.894	-8.170	0.032	-0.022
-724.879	-11.293	0.031	-0.020
-723.864	-35.442	-0.241	-0.132
-722.850	-171.019	-0.081	0.003
-721.835	-66.248	0.219	0.088
-720.821	276.763	0.055	-0.099
-719.806	73.800	-0.392	0.416
-718.791	21.954	-0.099	-0.082
-717.777	611.208	-0.065	0.166
-716.762	-82.622	-0.287	-0.094
-715.748	166.331	0.166	0.238
-714.733	-200.000	-0.016	-0.222
-713.718	343.089	0.146	0.290
-712.704	206.120	-0.037	0.058
-711.689	-57.774	0.217	0.096
-710.675	-46.169	-0.221	-0.110
-709.660	398.552	-0.078	0.166
-708.645	-112.672	-0.144	0.029
-707.631	58.295	0.184	-0.183
-706.616	-200.000	-0.008	-0.201
-705.602	-69.463	0.269	-0.104
-704.587	200.986	-0.183	0.285
-703.572	800.000	0.029	0.086
-702.558	-200.000	0.080	0.375
-701.543	-197.823	-0.331	-0.002
-700.529	-200.000	-0.008	0.108
-699.514	-153.247	0.187	0.013
-698.499	9.574	-0.084	-0.065
-697.485	7.597	0.137	0.104
-696.470	-150.562	0.157	0.012
-695.456	-73.519	0.131	-0.048
-694.441	64.323	-0.294	0.299
-693.426	-52.193	-0.290	-0.136
-692.412	139.454	-0.072	0.096
-691.397	-36.959	0.226	0.122
-690.383	-200.000	-0.006	-0.160
-689.368	-200.000	0.010	-0.052
-688.354	-200.000	0.005	-0.058
-687.339	-71.603	-0.105	0.040
-686.324	-11.875	-0.126	0.084
-685.310	-25.658	0.147	-0.087
-684.295	86.586	0.260	-0.289
-683.281	35.252	0.153	0.135
-682.266	-86.061	-0.211	-0.066
-681.251	800.000	0.078	-0.228
-680.237	69.187	-0.243	0.253
-679.222	5.255	-0.407	0.303
-678.208	-93.045	-0.168	0.047
-677.193	-200.000	0.003	0.095
-676.178	4.820	0.135	0.100
-675.164	-200.000	-0.015	0.380
-674.149	-200.000	-0.233	-0.001
-673.135	87.732	0.047	-0.053
-672.120	316.902	-0.131	-0.250
-671.105	-200.000	0.008	0.094
-670.091	-32.089	0.243	0.137
-669.076	800.000	-0.006	-0.021
-668.062	-179.899	-0.087	0.002
-667.047	86.043	-0.123	-0.137
-666.032	556.414	0.067	-0.163
-665.018	-82.320	-0.123	-0.040
-664.003	50.504	-0.179	-0.171
-662.989	-109.923	0.341	0.072
-661.974	26.467	0.266	-0.225
-660.959	151.136	-0.060	-0.083
-659.945	274.140	-0.184	0.329
-658.930	800.000	-0.086	-0.335
-657.916	-95.463	-0.054	0.015
-656.901	-120.575	-0.396	-0.068
-655.886	-10.111	0.136	0.091
-654.872	-104.674	-0.100	-0.023
-653.857	-200.000	-0.043	-0.200
-652.843	-53.381	0.148	0.069
-651.828	-200.000	0.076	-0.508
-650.814	-200.000	-0.016	-0.186
-649.799	-200.000	-0.020	-0.333
-648.784	-14.743	-0.207	0.134
-647.770	366.191	0.113	0.229
-646.755	6.295	-0.085	0.063
-645.741	167.757	0.115	0.165
-644.726	6.023	-0.196	-0.147
-643.711	-47.422	-0.273	0.134
-642.697	-37.652	0.513	-0.276
-641.682	-176.269	-0.420	0.011
-640.668	-200.000	0.063	0.389
-639.653	200.433	-0.082	-0.127
-638.638	-26.268	-0.451	-0.267
-637.624	143.437	-0.124	0.167
-636.609	-200.000	-0.031	-0.297
-635.595	800.000	-0.027	0.081
-634.580	-165.258	0.311	0.014
-633.565	757.172	0.107	-0.291
-632.551	204.413	-0.097	-0.152
-631.536	285.759	0.095	0.173
-630.522	-77.497	-0.029	0.010
-629.507	-118.870	0.432	-0.077
-628.492	800.000	-0.116	0.390
-627.478	800.000	-0.040	0.151
-626.463	-147.833	-0.196	0.017
-625.449	374.778	-0.076	-0.156
-624.434	-16.419	-0.179	-0.115
-623.419	800.000	-0.091	-0.267
-622.405	-200.000	0.043	0.261
-621.390	290.043	0.115	-0.211
-620.376	-148.842	-0.297	-0.024
-619.361	731.157	-0.142	0.382
-618.346	562.149	0.089	-0.217
-617.332	-102.562	0.273	-0.066
-616.317	-95.407	-0.112	0.030
-615.303	39.671	-0.137	0.124
-614.288	479.975	0.094	-0.214
-613.273	85.941	-0.201	-0.223
-612.259	800.000	-0.109	0.394
-611.244	-4.055	-0.207	-0.144
-610.230	132.780	0.068	0.088
-609.215	-169.190	-0.037	-0.001
-608.201	533.937	0.168	-0.400
-607.186	-16.633	0.220	-0.140
-606.171	523.802	-0.039	0.093
-605.157	-65.076	-0.257	-0.105
-604.142	-6.881	0.108	-0.074
-603.128	-82.833	-0.224	-0.073
-602.113	32.575	0.034	-0.030
-601.098	-200.000	0.020	-0.166
-600.084	716.312	0.043	-0.114
-599.069	-137.592	0.193	0.022
-598.055	800.000	0.062	-0.211
-597.040	-200.000	-0.022	-0.167
-596.025	-30.575	-0.178	-0.101
-595.011	-200.000	-0.026	-0.164
-593.996	-169.493	-0.263	0.010
-592.982	-200.000	-0.007	0.045
-591.967	-200.000	0.009	0.042
-590.952	-65.878	-0.089	-0.036
-589.938	1.552	-0.295	0.214
-588.923	-200.000	-0.079	-0.381
-587.909	800.000	-0.057	-0.244
-586.894	-161.053	0.159	0.008
-585.879	289.511	0.048	0.088
-584.865	-200.000	-0.001	0.055
-583.850	-99.731	-0.191	0.048
-582.836	34.726	-0.269	0.237
-581.821	-200.000	0.010	-0.134
-580.806	-200.000	0.017	-0.301
-579.792	-50.724	-0.255	0.121
-578.777	119.621	0.120	0.150
-577.763	-163.256	-0.097	-0.005
-576.748	-24.218	0.191	0.115
-575.733	4.593	-0.308	-0.227
-574.719	-200.000	0.009	-0.043
-573.704	642.277	0.022	0.057
-572.690	-200.000	0.020	0.168
-571.675	240.561	0.161	0.271
-570.661	-112.884	0.271	0.054
-569.646	-162.481	-0.136	-0.007
-568.631	214.328	-0.060	-0.095
-567.617	138.525	-0.133	-0.175
-566.602	-200.000	-0.028	0.203
-565.588	-200.000	0.012	0.199
-564.573	11.014	-0.173	-0.133
-563.558	800.000	0.038	-0.165
-562.544	798.564	0.017	-0.048
-561.529	100.567	0.103	-0.120
-560.515	702.198	-0.088	-0.233
-559.500	-157.266	-0.096	0.006
-558.485	77.604	-0.222	0.238
-557.471	-52.594	-0.039	0.018
-556.456	3.317	0.334	-0.244
-555.442	-200.000	0.038	0.274
-554.427	-117.084	0.157	0.029
-553.412	2.892	0.200	-0.146
-552.398	-108.853	0.017	0.004
-551.383	-154.579	-0.143	-0.010
-550.369	-200.000	0.012	-0.232
-549.354	-161.060	-0.143	-0.008
-548.339	-69.905	-0.123	0.047
-547.325	708.529	0.042	0.112
-546.310	31.005	0.065	0.056
-545.296	-156.308	0.150	-0.009
-544.281	126.193	0.146	-0.186
-543.266	-81.561	-0.149	-0.049
-542.252	-101.572	0.371	0.091
-541.237	97.001	-0.347	0.400
-540.223	99.371	-0.101	-0.118
-539.208	-49.514	-0.219	-0.105
-538.193	-99.371	-0.265	-0.067
-537.179	-137.818	-0.403	0.045
-536.164	-99.128	0.194	0.049
-535.150	22.241	-0.098	0.080
-534.135	468.249	-0.119	0.268
-533.121	-36.792	0.138	-0.075
-532.106	-154.422	0.157	-0.011
-531.091	-109.027	-0.322	-0.069
-530.077	-49.354	-0.360	0.173
-529.062	-200.000	0.061	0.355
-528.048	800.000	-0.071	0.246
-527.033	472.055	0.029	0.065
-526.018	211.519	-0.134	0.212
-525.004	46.704	-0.453	-0.423
-523.989	-32.002	0.460	-0.259
-522.975	-81.096	-0.218	-0.072
-521.960	645.099	0.070	-0.179
-520.945	379.254	0.069	-0.143
-519.931	182.310	-0.140	-0.207
-518.916	-103.084	0.070	-0.017
-517.902	-6.733	-0.186	0.127
-516.887	-113.748	-0.348	0.068
-515.872	11.787	-0.085	-0.066
-514.858	-200.000	-0.063	0.515
-513.843	800.000	-0.065	0.200
-512.829	-119.775	0.215	-0.037
-511.814	-200.000	0.031	-0.188
-510.799	135.352	0.220	-0.288
-509.785	-87.528	0.135	-0.041
-508.770	593.695	-0.087	-0.216
-507.756	-200.000	-0.031	-0.194
-506.741	-75.243	-0.290	0.104
-505.726	-79.098	0.085	0.029
-504.712	64.147	-0.100	0.101
-503.697	-200.000	0.032	0.164
-502.683	-200.000	0.035	-0.176
-501.668	-200.000	0.010	0.222
-500.653	-200.000	-0.003	0.113
-499.639	148.590	0.076	0.103
-498.624	74.687	0.228	0.240
-497.610	-200.000	0.023	-0.128
-496.595	53.036	-0.237	0.227
-495.581	288.722	-0.165	-0.301
-494.566	-200.000	0.012	0.082
-493.551	-23.019	0.283	0.171
-492.537	120.469	0.087	-0.108
-491.522	-34.056	-0.233	-0.128
-490.508	121.506	0.162	-0.203
-489.493	-85.879	0.222	0.069
-488.478	125.528	-0.209	0.264
-487.464	681.456	-0.067	0.175
-486.449	66.811	-0.062	0.063
-485.435	-117.621	-0.219	0.040
-484.420	-57.241	0.168	-0.074
-483.405	-98.141	0.060	0.016
-482.391	-200.000	0.001	-0.221
-481.376	-133.408	-0.075	0.009
-480.362	41.937	0.182	-0.166
-479.347	-155.804	-0.422	-0.027
-478.332	-47.105	-0.084	-0.041
-477.318	-162.695	-0.460	0.023
-476.303	-156.826	0.278	-0.017
-475.289	800.000	-0.099	0.286
-474.274	-170.031	0.169	-0.006
-473.259	-73.154	0.347	-0.128
-472.245	-200.000	-0.004	0.264
-471.230	-69.298	-0.107	0.041
-470.216	-200.000	0.024	-0.154
-469.201	336.119	-0.089	-0.174
-468.186	-179.760	-0.258	-0.006
-467.172	-200.000	-0.055	0.247
-466.157	-40.133	-0.268	0.140
-465.143	-127.398	-0.077	-0.011
-464.128	449.454	0.024	-0.053
-463.113	-200.000	0.001	0.013
-462.099	-200.000	0.012	-0.366
-461.084	-56.469	-0.216	-0.096
-460.070	25.374	0.330	-0.275
-459.055	-200.000	-0.016	-0.125
-458.040	-42.994	-0.162	0.082
-457.026	800.000	-0.056	0.236
-456.011	800.000	-0.071	-0.246
-454.997	798.723	-0.120	0.331
-453.982	-37.502	-0.238	-0.127
-452.968	800.000	-0.036	-0.141
-451.953	-81.129	-0.266	0.088
-450.938	4.569	0.307	-0.225
-449.924	-200.000	0.002	0.197
-448.909	-185.786	-0.231	-0.003
-447.895	441.471	0.140	0.306
-446.880	-122.117	0.021	-0.003
-445.865	-91.928	0.270	-0.077
-444.851	-200.000	-0.000	-0.161
-443.836	117.839	-0.105	-0.129
-442.822	-200.000	0.015	0.088
-441.807	800.000	-0.107	-0.308
-440.792	-61.648	-0.132	-0.055
-439.778	338.843	-0.050	0.097
-438.763	188.486	-0.022	-0.033
-437.749	45.859	-0.306	-0.284
-436.734	100.706	0.218	-0.254
-435.719	-83.643	-0.415	0.133
-434.705	-61.570	-0.183	0.077
-433.690	800.000	-0.131	-0.363
-432.676	-156.332	0.225	-0.014
-431.661	692.891	-0.064	0.168
-430.646	-112.563	-0.307	0.061
-429.632	10.606	-0.218	0.167
-428.617	187.329	0.104	-0.155
-427.603	-24.438	0.198	-0.118
-426.588	299.697	-0.103	-0.189
-425.573	212.832	0.027	-0.042
-424.559	800.000	0.045	0.148
-423.544	594.714	-0.033	0.081
-422.530	-200.000	-0.025	-0.212
-421.515	-200.000	-0.011	-0.275
-420.500	-26.384	-0.058	-0.034
-419.486	-19.040	0.223	0.139
-418.471	55.550	-0.097	0.094
-417.457	-99.127	0.326	-0.083
-416.442	39.011	0.069	0.062
-415.428	-134.984	-0.148	0.018
-414.413	-110.833	0.110	0.023
-413.398	51.243	0.138	0.131
-412.384	-200.000	-0.004	-0.209
-411.369	296.263	0.046	0.084
-410.355	-61.711	0.217	-0.091
-409.340	-77.489	0.111	0.039
-408.325	5.430	-0.295	-0.217
-407.311	-130.128	0.391	0.053
-406.296	169.409	0.226	0.323
-405.282	-73.095	0.194	-0.071
-404.267	-200.000	0.026	0.184
-403.252	574.764	-0.211	-0.515
-402.238	141.085	0.194	-0.257
-401.223	485.516	0.039	0.089
-400.209	-174.902	-0.334	-0.009
-399.194	-33.557	-0.016	0.009
-398.179	-200.000	-0.015	-0.074
-397.165	729.433	-0.158	0.421
-396.150	13.314	-0.144	0.112
-395.136	-96.533	0.194	-0.051
-394.121	344.376	-0.055	0.108
-393.106	-200.000	-0.019	-0.310
-392.092	204.989	0.084	0.130
-391.077	-123.654	0.405	0.064
-390.063	447.322	0.163	-0.358
-389.048	-200.000	0.023	0.110
-388.033	-73.024	0.186	0.068
-387.019	-19.727	0.348	0.215
-386.004	-9.305	-0.256	-0.171
-384.990	-183.163	-0.123	-0.002
-383.975	-37.413	0.050	-0.027
-382.960	-64.903	0.395	-0.159
-381.946	800.000	-0.116	-0.356
-380.931	800.000	0.031	0.126
-379.917	221.305	0.082	-0.132
-378.902	1.952	-0.202	-0.145
-377.888	-4.035	0.149	0.103
-376.873	152.126	0.071	-0.096
-375.858	83.936	-0.117	-0.127
-374.844	-15.291	-0.170	0.109
-373.829	-106.458	0.144	0.032
-372.815	-200.000	0.015	-0.073
-371.800	-134.823	0.277	-0.034
-370.785	70.388	0.283	-0.292
-369.771	-200.000	-0.020	0.111
-368.756	257.287	-0.009	-0.016
-367.742	800.000	0.050	-0.172
-366.727	-159.928	-0.180	0.010
-365.712	575.652	0.056	-0.137
-364.698	-200.000	-0.085	-0.400
-363.683	5.674	0.084	-0.062
-362.669	316.301	-0.162	-0.304
-361.654	206.342	0.130	0.202
-360.639	84.388	-0.148	0.162
-359.625	-2.172	-0.106	0.074
-358.610	146.619	-0.155	0.207
-357.596	177.351	0.047	0.068
-356.581	-105.098	0.141	-0.032
-355.566	-21.322	0.012	-0.007
-354.552	99.916	-0.029	-0.033
-353.537	-73.041	0.569	-0.208
-352.523	-200.000	0.018	-0.155
-351.508	486.815	0.043	0.098
-350.493	159.810	0.142	-0.197
-349.479	16.383	0.315	0.248
-348.464	-137.731	0.535	-0.060
-347.450	-187.545	-0.209	0.003
-346.435	-200.000	0.024	0.233
-345.420	-94.782	-0.204	0.055
-344.406	77.212	0.086	0.091
-343.391	444.117	-0.164	0.359
-342.377	-88.532	0.326	0.097
-341.362	615.211	0.054	0.134
-340.348	270.772	-0.180	0.316
-339.333	-200.000	-0.043	-0.284
-338.318	800.000	0.076	-0.332
-337.304	96.537	0.155	0.177
-336.289	607.352	-0.057	0.141
-335.275	-123.135	0.187	-0.030
-334.260	-200.000	0.000	-0.081
-333.245	176.806	-0.111	-0.161
-332.231	-176.972	0.323	-0.008
-331.216	-200.000	-0.005	-0.144
-330.202	595.146	0.056	-0.138
-329.187	800.000	-0.079	-0.284
-328.172	800.000	-0.021	0.074
-327.158	-17.576	-0.196	0.123
-326.143	166.454	-0.054	0.077
-325.129	525.412	-0.165	0.387
-324.114	-200.000	-0.002	-0.077
-323.099	135.716	0.236	0.306
-322.085	-71.320	0.317	0.118
-321.070	41.379	-0.046	0.041
-320.056	52.043	0.134	-0.128
-319.041	140.383	0.160	0.210
-318.026	-200.000	0.005	0.049
-317.012	631.245	-0.029	0.073
-315.997	355.066	0.076	-0.150
-314.983	-97.762	-0.265	-0.068
-313.968	196.631	0.199	-0.302
-312.953	-21.652	0.260	0.158
-311.939	-157.295	-0.466	0.028
-310.924	-45.450	-0.162	-0.080
-309.910	226.883	0.175	0.284
-308.895	-197.632	-0.298	-0.002
-307.880	3.220	0.138	-0.100
-306.866	-81.410	-0.143	-0.047
-305.851	-200.000	-0.017	0.140
-304.837	-80.906	0.387	0.128
-303.822	-31.536	0.264	-0.148
-302.807	-200.000	-0.024	0.174
-301.793	-146.398	-0.231	0.020
-300.778	432.895	-0.181	0.391
-299.764	-75.668	0.149	-0.053
-298.749	-28.112	-0.117	0.067
-297.735	-127.609	-0.262	0.038
-296.720	20.267	0.261	-0.210
-295.705	31.103	0.123	-0.105
-294.691	-46.825	-0.221	0.108
-293.676	-200.000	0.017	-0.083
-292.662	-3.122	0.387	0.269
-291.647	-43.324	-0.281	0.141
-290.632	-128.844	0.181	0.025
-289.618	-119.248	0.358	-0.062
-288.603	53.964	-0.221	0.211
-287.589	-200.000	0.014	0.132
-286.574	118.288	-0.078	-0.096
-285.559	-200.000	-0.025	-0.150
-284.545	447.781	0.076	0.167
-283.530	-200.000	-0.028	0.333
-282.516	-35.775	0.233	-0.125
-281.501	60.031	0.152	0.149
-280.486	-9.384	0.108	-0.072
-279.472	-200.000	-0.034	0.207
-278.457	100.656	-0.170	0.196
-277.443	448.850	0.101	0.222
-276.428	336.746	-0.218	0.421
-275.413	-133.333	0.143	-0.018
-274.399	629.337	-0.102	-0.255
-273.384	-6.109	0.069	0.047
-272.370	163.983	0.135	0.189
-271.355	-28.651	0.112	0.064
-270.340	800.000	-0.045	-0.146
-269.326	125.560	-0.088	0.110
-268.311	156.635	-0.104	-0.142
-267.297	800.000	-0.131	0.372
-266.282	65.622	0.141	0.142
-265.267	246.379	-0.062	0.104
-264.253	800.000	-0.077	0.259
-263.238	8.073	0.137	-0.102
-262.224	-200.000	0.003	-0.240
-261.209	223.916	-0.101	0.161
-260.195	59.396	-0.203	-0.199
-259.180	-149.056	-0.125	-0.010
-258.165	-87.230	-0.207	-0.062
-257.151	-200.000	-0.321	0.001
-256.136	800.000	0.006	0.025
-255.122	60.196	0.193	0.190
-254.107	201.990	0.300	0.460
-253.092	-96.534	0.078	-0.021
-252.078	170.713	-0.078	-0.111
-251.063	-106.088	0.135	0.030
-250.049	-200.000	0.002	0.030
-249.034	-94.831	0.168	0.045
-248.019	-155.568	-0.435	0.028
-247.005	-86.345	0.260	-0.080
-245.990	-170.030	0.110	-0.004
-244.976	260.550	0.175	0.301
-243.961	-85.934	0.074	-0.023
-242.946	183.958	0.113	-0.166
-241.932	-81.258	0.146	-0.048
-240.917	-200.000	-0.008	-0.274
-239.903	21.701	0.213	0.172
-238.888	-59.875	-0.048	-0.020
-237.873	-115.541	0.129	0.024
-236.859	-118.359	0.095	-0.017
-235.844	-136.343	-0.271	0.031
-234.830	5.905	-0.274	0.202
-233.815	-123.022	-0.411	-0.066
-232.800	210.150	0.081	0.126
-231.786	-7.209	-0.195	0.132
-230.771	26.543	0.267	0.222
-229.757	-200.000	0.025	-0.495
-228.742	16.664	-0.185	-0.145
-227.727	-23.659	0.453	0.269
-226.713	48.381	-0.099	0.092
-225.698	411.607	-0.048	-0.102
-224.684	-200.000	0.015	-0.076
-223.669	800.000	-0.083	-0.298
-222.655	-184.667	-0.301	0.005
-221.640	290.258	0.036	-0.064
-220.625	-28.980	0.169	-0.096
-219.611	6.364	-0.177	-0.130
-218.596	800.000	0.055	0.160
-217.582	221.915	-0.012	0.018
-216.567	-138.710	0.415	-0.045
-215.552	-87.154	-0.210	0.063
-214.538	228.920	0.050	0.080
-213.523	-44.646	0.317	-0.157
-212.509	-54.150	-0.125	-0.056
-211.494	-117.689	-0.180	-0.032
-210.479	-128.976	-0.407	0.057
-209.465	10.820	-0.118	-0.089
-208.450	22.227	0.186	0.151
-207.436	800.000	0.152	0.521
-206.421	3.958	0.061	-0.045
-205.406	67.659	-0.111	-0.112
-204.392	-64.045	0.277	0.112
-203.377	82.930	0.193	0.209
-202.363	-94.085	0.047	0.013
-201.348	-54.881	0.068	0.031
-200.333	-200.000	-0.027	-0.188
-199.319	14.357	0.333	-0.258
-198.304	383.661	-0.044	0.089
-197.290	128.877	0.146	0.185
-196.275	-200.000	0.048	0.270
-195.260	147.673	0.054	-0.073
-194.246	-121.701	0.194	0.032
-193.231	48.699	0.137	-0.127
-192.217	142.472	-0.051	-0.067
-191.202	800.000	-0.066	-0.183
-190.187	-124.908	0.199	-0.030
-189.173	23.742	-0.067	0.055
-188.158	-200.000	-0.056	0.260
-187.144	-115.419	-0.149	-0.028
-186.129	-115.778	-0.108	-0.020
-185.114	183.899	0.139	0.203
-184.100	800.000	0.071	-0.215
-183.085	228.233	0.042	-0.068
-182.071	-2.754	0.425	-0.295
-181.056	-110.828	-0.226	-0.046
-180.042	200.442	0.176	-0.268
-179.027	-98.213	0.292	-0.074
-178.012	800.000	-0.154	0.453
-176.998	-48.536	0.351	-0.168
-175.983	462.447	-0.048	0.106
-174.969	-200.000	0.014	0.160
-173.954	148.185	-0.204	0.273
-172.939	373.026	0.067	-0.135
-171.925	485.171	0.074	0.167
-170.910	800.000	0.010	0.042
-169.896	-24.750	0.292	-0.172
-168.881	-200.000	-0.008	0.207
-167.866	5.571	0.081	-0.059
-166.852	-51.707	-0.212	-0.098
-165.837	-90.378	-0.145	-0.042
-164.823	-121.603	0.211	0.035
-163.808	-200.000	-0.020	0.112
-162.793	800.000	0.024	0.072
-161.779	-92.024	-0.274	-0.077
-160.764	800.000	0.078	-0.222
-159.750	228.471	-0.141	-0.227
-158.735	800.000	-0.063	0.191
-157.720	261.815	-0.092	0.158
-156.706	-43.841	0.106	-0.053
-155.691	-85.732	0.107	0.033
-154.677	-76.331	0.084	0.029
-153.662	800.000	0.056	-0.186
-152.647	54.541	0.172	0.164
-151.633	-17.426	0.191	-0.119
-150.618	800.000	-0.087	0.265
-149.604	-79.974	0.246	-0.082
-148.589	-200.000	0.002	0.196
-147.574	800.000	-0.092	0.266
-146.560	-163.715	0.518	0.024
-145.545	746.372	-0.071	-0.189
-144.531	-31.549	-0.031	-0.017
-143.516	-73.625	0.102	0.037
-142.502	428.788	0.096	0.206
-141.487	138.395	0.153	0.199
-140.472	167.695	0.135	-0.189
-139.458	170.043	-0.119	0.168
-138.443	-2.147	0.297	-0.206
-137.429	-200.000	0.001	-0.269
-136.414	37.497	-0.125	0.110
-135.399	215.861	-0.106	-0.167
-134.385	36.382	-0.189	0.165
-133.370	319.479	0.087	-0.163
-132.356	-139.402	0.319	-0.034
-131.341	-200.000	-0.025	-0.298
-130.326	-165.477	0.133	0.006
-129.312	-55.999	0.056	0.025
-128.297	-22.251	0.376	-0.225
-127.283	-160.730	0.267	-0.014
-126.268	-51.985	-0.213	0.098
-125.253	-38.488	0.243	0.127
-124.239	-92.646	0.200	-0.055
-123.224	155.267	-0.108	0.147
-122.210	-200.000	0.032	0.186
-121.195	67.250	-0.188	0.190
