DTS Sentinel unit serial number:	SN413079Multiplexer serial number:	ORYXHardware model number:	OX4-SRSoftware version number:	ORYX F/W v4.00 Oryx Data Collector v3.7.2.0data status	okinstallation	princeton_trtdifferential loss correction	single-endedforward channel	channel 4reverse channel	N/Adate	2019/09/17time	10:53:35forward acquisition time	60.00reverse acquisition time	0.00gamma	496.2192k internal	0.2309k external	0.2309temperature offset calibration	0.9977default loss term (dB/km)	0.3790temperature slope calibration	1.0000multiplexer offset coefficient	1.0000multiplexer slope coefficient	1.0000fibre end	0.00T internal ref (°C)	30.25T ext. ref 1 (°C)	0.18T ext. ref 2 (°C)	25.82length (m)	temperature (°C)	Stokes	anti-Stokes-747.200	772.012	0.148	0.409
-746.185	728.378	-0.090	0.245
-745.171	-104.816	0.212	0.049
-744.156	-200.000	-0.046	0.300
-743.142	-200.000	0.016	0.071
-742.127	641.055	-0.111	0.287
-741.112	-200.000	-0.025	0.245
-740.098	800.000	-0.037	-0.130
-739.083	-200.000	-0.099	0.488
-738.069	455.173	-0.085	-0.191
-737.054	-200.000	0.035	-0.171
-736.039	-49.427	0.048	0.023
-735.025	67.686	0.046	0.048
-734.010	-31.692	0.175	-0.100
-732.996	49.326	-0.068	0.065
-731.981	800.000	-0.106	-0.303
-730.966	189.252	0.156	-0.238
-729.952	123.819	0.393	-0.501
-728.937	-95.102	-0.127	0.035
-727.923	-200.000	-0.049	-0.313
-726.908	-200.000	0.010	-0.261
-725.894	16.378	-0.203	-0.163
-724.879	-8.642	-0.176	-0.120
-723.864	-189.547	-0.124	-0.001
-722.850	-84.381	0.198	-0.064
-721.835	800.000	0.078	0.234
-720.821	-44.163	-0.163	0.083
-719.806	800.000	-0.039	-0.119
-718.791	-200.000	0.008	0.075
-717.777	56.990	-0.085	0.084
-716.762	-80.493	0.232	0.079
-715.748	-114.803	-0.329	0.064
-714.733	237.461	0.205	0.345
-713.718	188.062	-0.103	0.155
-712.704	318.296	-0.095	-0.182
-711.689	68.353	-0.069	-0.072
-710.675	800.000	0.108	0.335
-709.660	800.000	0.026	-0.077
-708.645	-90.277	0.300	-0.089
-707.631	-31.736	-0.112	0.064
-706.616	133.804	-0.089	0.117
-705.602	-89.994	-0.034	0.010
-704.587	93.893	-0.070	0.080
-703.572	689.752	-0.068	0.180
-702.558	-128.029	0.300	0.044
-701.543	-34.581	0.275	0.153
-700.529	244.990	0.125	-0.214
-699.514	334.943	0.101	0.199
-698.499	-111.944	0.057	0.012
-697.485	-200.000	0.049	-0.262
-696.470	-200.000	-0.005	-0.184
-695.456	-200.000	-0.030	-0.193
-694.441	-200.000	-0.006	0.269
-693.426	72.164	0.071	0.075
-692.412	-25.239	-0.244	-0.146
-691.397	-200.000	-0.044	-0.451
-690.383	-151.998	-0.255	0.019
-689.368	-95.889	0.257	-0.070
-688.354	-200.000	-0.032	-0.280
-687.339	70.229	-0.242	-0.253
-686.324	-200.000	0.007	-0.117
-685.310	90.748	-0.251	-0.285
-684.295	800.000	-0.022	-0.077
-683.281	800.000	0.054	-0.201
-682.266	-200.000	0.014	0.119
-681.251	-38.059	0.438	-0.236
-680.237	-95.754	0.365	-0.099
-679.222	61.619	-0.078	-0.078
-678.208	-148.746	-0.406	0.033
-677.193	314.131	0.080	0.152
-676.178	800.000	0.033	-0.113
-675.164	-26.299	-0.342	-0.203
-674.149	535.083	0.077	-0.186
-673.135	-200.000	-0.047	-0.514
-672.120	98.585	0.011	0.013
-671.105	-200.000	-0.022	-0.134
-670.091	319.284	-0.040	0.076
-669.076	-200.000	-0.005	-0.115
-668.062	46.822	-0.110	-0.104
-667.047	82.693	-0.125	0.138
-666.032	800.000	0.080	0.297
-665.018	-81.514	-0.209	-0.070
-664.003	-200.000	-0.001	0.157
-662.989	-45.811	-0.422	-0.211
-661.974	-200.000	-0.051	0.237
-660.959	-200.000	-0.042	-0.215
-659.945	-19.802	0.275	0.172
-658.930	349.959	-0.082	0.163
-657.916	-52.437	-0.144	0.068
-656.901	800.000	-0.035	-0.123
-655.886	94.413	-0.189	0.218
-654.872	-41.865	-0.262	-0.136
-653.857	-176.614	-0.172	0.004
-652.843	31.592	0.134	-0.116
-651.828	800.000	-0.110	0.345
-650.814	517.500	0.165	0.390
-649.799	800.000	0.032	-0.093
-648.784	-108.684	-0.386	-0.084
-647.770	-71.352	0.099	-0.037
-646.755	-63.053	-0.469	0.196
-645.741	102.581	0.134	-0.158
-644.726	30.166	0.191	0.165
-643.711	76.312	-0.189	-0.202
-642.697	-174.226	0.061	0.002
-641.682	-200.000	-0.019	-0.165
-640.668	-200.000	-0.011	-0.058
-639.653	-48.557	0.339	0.165
-638.638	24.668	-0.352	-0.295
-637.624	800.000	-0.081	0.292
-636.609	-85.999	0.604	0.189
-635.595	39.018	-0.013	-0.012
-634.580	-200.000	-0.037	0.345
-633.565	-200.000	0.023	-0.197
-632.551	-20.038	0.296	0.185
-631.536	-161.182	-0.053	-0.003
-630.522	800.000	0.121	0.429
-629.507	557.973	-0.110	-0.268
-628.492	34.139	-0.068	0.060
-627.478	49.768	-0.094	0.089
-626.463	-138.906	-0.165	0.018
-625.449	568.028	-0.083	0.204
-624.434	-200.000	0.011	0.288
-623.419	-98.072	-0.365	0.095
-622.405	800.000	-0.071	-0.208
-621.390	576.294	0.116	-0.286
-620.376	-181.490	0.134	-0.003
-619.361	-62.413	0.210	-0.088
-618.346	112.974	0.119	-0.146
-617.332	-69.657	0.100	-0.039
-616.317	20.335	-0.160	-0.130
-615.303	150.361	-0.092	0.127
-614.288	452.597	0.170	0.380
-613.273	-99.882	-0.134	0.034
-612.259	221.908	-0.015	-0.024
-611.244	-151.679	-0.179	-0.013
-610.230	20.828	-0.134	0.109
-609.215	47.195	-0.112	-0.105
-608.201	235.466	-0.051	-0.085
-607.186	30.630	-0.174	-0.150
-606.171	-200.000	-0.022	-0.103
-605.157	-93.399	-0.298	0.084
-604.142	-55.516	0.220	0.100
-603.128	-8.217	0.213	0.145
-602.113	-200.000	0.015	0.313
-601.098	-136.183	0.297	0.035
-600.084	-163.496	0.226	0.011
-599.069	304.863	0.119	0.223
-598.055	224.156	-0.045	0.073
-597.040	-59.817	0.411	-0.178
-596.025	-200.000	-0.013	0.160
-595.011	-200.000	0.014	0.084
-593.996	800.000	0.030	0.109
-592.982	-28.138	0.086	0.050
-591.967	218.941	-0.096	-0.155
-590.952	-139.582	-0.055	0.006
-589.938	584.685	-0.017	-0.043
-588.923	36.737	-0.265	-0.236
-587.909	133.089	-0.056	-0.073
-586.894	-112.537	-0.152	-0.031
-585.879	163.623	0.112	0.159
-584.865	-100.696	-0.065	-0.016
-583.850	-131.012	0.142	0.019
-582.836	-56.185	0.186	0.084
-581.821	5.751	-0.137	-0.102
-580.806	708.739	-0.033	0.089
-579.792	-122.676	-0.332	-0.054
-578.777	-124.862	0.101	-0.016
-577.763	800.000	-0.031	0.086
-576.748	29.324	0.049	-0.042
-575.733	-200.000	0.037	-0.288
-574.719	-142.489	0.221	-0.022
-573.704	800.000	0.051	-0.174
-572.690	698.920	-0.128	-0.339
-571.675	449.488	0.217	-0.482
-570.661	41.411	0.038	-0.035
-569.646	800.000	0.115	0.325
-568.631	-29.866	0.178	-0.103
-567.617	-81.110	-0.337	0.112
-566.602	255.270	0.131	-0.227
-565.588	-81.986	-0.243	0.080
-564.573	209.368	-0.099	-0.157
-563.558	-200.000	-0.018	-0.174
-562.544	-200.000	-0.297	-0.001
-561.529	198.428	-0.181	0.279
-560.515	-200.000	0.003	0.062
-559.500	347.872	0.060	0.119
-558.485	-200.000	-0.028	-0.252
-557.471	136.595	-0.064	-0.085
-556.456	130.266	-0.059	-0.076
-555.442	155.068	-0.179	-0.249
-554.427	16.423	0.096	0.077
-553.412	-200.000	-0.008	-0.048
-552.398	-99.265	-0.165	0.042
-551.383	-117.049	0.241	-0.044
-550.369	-53.629	-0.094	-0.043
-549.354	91.913	-0.108	0.122
-548.339	-5.265	0.118	0.081
-547.325	161.674	0.259	-0.366
-546.310	10.362	0.177	-0.136
-545.296	800.000	-0.040	-0.132
-544.281	108.560	0.025	0.030
-543.266	-166.030	0.141	-0.006
-542.252	-133.100	0.293	0.037
-541.237	222.915	-0.114	0.186
-540.223	-102.386	-0.306	-0.074
-539.208	183.019	0.123	-0.184
-538.193	156.720	-0.198	0.276
-537.179	625.947	-0.039	-0.100
-536.164	12.187	-0.165	0.128
-535.150	36.694	0.110	-0.098
-534.135	192.621	0.062	-0.094
-533.121	345.727	-0.104	-0.206
-532.106	496.165	0.079	0.182
-531.091	800.000	0.124	-0.371
-530.077	304.999	-0.169	-0.317
-529.062	-200.000	0.075	0.357
-528.048	125.392	-0.169	0.215
-527.033	166.091	0.150	-0.214
-526.018	81.520	0.151	0.164
-525.004	-200.000	-0.010	0.103
-523.989	-23.599	-0.158	0.096
-522.975	-144.390	0.176	0.016
-521.960	800.000	-0.045	-0.174
-520.945	-200.000	-0.028	-0.160
-519.931	63.915	-0.112	-0.114
-518.916	-109.160	-0.263	-0.056
-517.902	-200.000	-0.044	-0.284
-516.887	353.979	0.241	-0.481
-515.872	-93.772	0.078	0.022
-514.858	37.702	-0.310	-0.277
-513.843	38.858	-0.097	-0.087
-512.829	-55.059	-0.286	0.130
-511.814	-49.429	0.232	-0.111
-510.799	124.492	0.079	0.100
-509.785	19.829	0.112	0.090
-508.770	-200.000	0.002	0.197
-507.756	85.152	0.183	0.202
-506.741	-18.514	0.181	-0.114
-505.726	-96.440	0.330	-0.088
-504.712	-21.066	0.235	-0.145
-503.697	-125.236	-0.306	0.047
-502.683	243.782	0.040	-0.067
-501.668	-200.000	-0.019	-0.257
-500.653	-110.691	-0.269	0.056
-499.639	50.946	0.049	-0.047
-498.624	-200.000	0.013	-0.175
-497.610	185.352	0.049	-0.074
-496.595	36.357	0.266	-0.236
-495.581	8.415	0.105	-0.079
-494.566	800.000	0.060	0.257
-493.551	-200.000	-0.004	0.239
-492.537	-139.333	0.076	0.008
-491.522	239.488	0.119	-0.199
-490.508	781.462	-0.093	-0.255
-489.493	-70.423	-0.191	-0.073
-488.478	-25.501	0.101	-0.060
-487.464	3.978	-0.091	-0.067
-486.449	515.328	0.099	-0.233
-485.435	-93.653	0.116	0.032
-484.420	176.730	0.270	0.395
-483.405	-200.000	0.021	0.106
-482.391	-24.882	0.248	0.148
-481.376	-161.163	-0.232	0.012
-480.362	779.262	-0.201	0.551
-479.347	-154.327	-0.167	-0.011
-478.332	125.610	0.290	-0.369
-477.318	-28.637	-0.274	-0.159
-476.303	-46.666	-0.317	0.156
-475.289	90.153	0.134	0.150
-474.274	331.185	0.181	0.351
-473.259	-22.678	-0.230	0.139
-472.245	21.129	-0.103	-0.084
-471.230	210.737	-0.132	0.208
-470.216	-200.000	0.004	0.180
-469.201	372.100	-0.057	-0.116
-468.186	-32.881	0.089	0.050
-467.172	800.000	-0.100	-0.349
-466.157	800.000	-0.026	0.113
-465.143	-36.384	-0.155	0.084
-464.128	345.642	-0.062	0.122
-463.113	-163.166	-0.338	0.016
-462.099	587.012	-0.094	0.232
-461.084	512.168	0.163	0.381
-460.070	-200.000	-0.079	0.491
-459.055	800.000	0.077	-0.280
-458.040	-27.733	-0.265	-0.155
-457.026	-152.246	-0.386	0.028
-456.011	86.945	0.197	-0.218
-454.997	-93.625	-0.140	-0.039
-453.982	349.696	0.056	0.111
-452.968	-101.177	0.045	0.011
-451.953	-49.785	-0.159	0.076
-450.938	-6.267	0.323	-0.222
-449.924	26.058	0.204	0.171
-448.909	4.507	-0.316	-0.233
-447.895	-200.000	-0.074	-0.342
-446.880	-200.000	0.013	-0.210
-445.865	-34.273	0.206	0.113
-444.851	-162.058	-0.314	0.016
-443.836	-200.000	0.008	-0.043
-442.822	0.690	0.127	-0.091
-441.807	346.820	-0.080	-0.157
-440.792	-97.762	0.154	-0.040
-439.778	243.836	-0.179	-0.302
-438.763	-119.481	0.273	-0.047
-437.749	-64.386	0.181	0.074
-436.734	-126.661	0.110	0.016
-435.719	800.000	-0.072	-0.223
-434.705	110.891	0.104	0.125
-433.690	-150.453	0.160	0.012
-432.676	41.326	-0.200	0.182
-431.661	-107.140	-0.314	0.069
-430.646	-35.847	0.238	-0.129
-429.632	-200.000	-0.010	0.085
-428.617	-117.583	0.396	-0.072
-427.603	359.360	-0.190	-0.381
-426.588	179.458	-0.075	0.111
-425.573	84.305	0.190	-0.209
-424.559	57.658	-0.098	-0.096
-423.544	413.680	0.150	-0.320
-422.530	212.128	-0.018	0.029
-421.515	-200.000	0.010	-0.087
-420.500	-34.656	-0.253	-0.139
-419.486	-1.894	-0.112	-0.079
-418.471	91.302	-0.044	-0.049
-417.457	44.174	0.311	-0.286
-416.442	8.147	-0.271	-0.204
-415.428	483.610	-0.044	-0.100
-414.413	103.864	-0.165	0.194
-413.398	50.379	0.183	0.174
-412.384	-17.662	0.474	-0.299
-411.369	-160.210	0.344	-0.019
-410.355	-54.108	0.119	-0.054
-409.340	-123.945	0.273	0.043
-408.325	-41.162	-0.428	0.222
-407.311	-74.779	0.088	-0.032
-406.296	-129.867	-0.398	0.055
-405.282	-30.142	-0.302	-0.172
-404.267	-133.274	0.292	-0.037
-403.252	71.984	0.046	-0.048
-402.238	173.256	0.155	0.225
-401.223	263.812	-0.193	0.336
-400.209	-63.802	0.070	0.029
-399.194	-133.500	0.099	0.012
-398.179	-153.030	0.069	0.005
-397.165	244.759	-0.090	0.152
-396.150	258.874	0.161	0.278
-395.136	-200.000	0.033	0.362
-394.121	178.517	0.246	0.360
-393.106	-200.000	0.058	-0.268
-392.092	-200.000	0.021	-0.099
-391.077	-200.000	0.022	-0.248
-390.063	688.507	0.057	0.151
-389.048	-200.000	0.025	0.123
-388.033	-200.000	0.047	-0.254
-387.019	-168.237	-0.152	-0.006
-386.004	-53.526	0.150	0.069
-384.990	-200.000	-0.039	-0.194
-383.975	800.000	0.078	-0.307
-382.960	120.691	-0.134	0.167
-381.946	800.000	0.047	0.153
-380.931	33.797	-0.238	-0.208
-379.917	800.000	0.080	0.266
-378.902	-200.000	0.033	-0.168
-377.888	-70.868	-0.288	0.109
-376.873	56.130	0.287	-0.279
-375.858	-200.000	0.050	0.390
-374.844	-98.703	0.030	0.008
-373.829	-200.000	-0.029	-0.228
-372.815	-200.000	-0.025	0.244
-371.800	-200.000	0.058	-0.316
-370.785	-87.125	0.112	-0.034
-369.771	-200.000	0.015	-0.191
-368.756	800.000	-0.042	-0.142
-367.742	-200.000	-0.040	-0.297
-366.727	-200.000	0.003	0.147
-365.712	-109.254	-0.288	0.061
-364.698	103.408	-0.268	0.315
-363.683	309.474	-0.123	0.231
-362.669	289.062	0.104	-0.189
-361.654	14.399	-0.110	0.086
-360.639	222.529	-0.125	-0.201
-359.625	217.218	-0.192	-0.306
-358.610	17.777	-0.418	0.333
-357.596	-27.355	-0.201	-0.117
-356.581	-127.603	-0.235	-0.034
-355.566	-50.867	-0.039	0.018
-354.552	800.000	-0.070	0.205
-353.537	-84.157	-0.185	-0.059
-352.523	-110.304	-0.237	0.049
-351.508	24.951	0.190	0.158
-350.493	378.769	0.071	-0.145
-349.479	366.424	0.121	0.244
-348.464	62.438	0.063	0.063
-347.450	54.583	0.122	0.117
-346.435	-90.100	0.246	-0.072
-345.420	800.000	0.061	0.217
-344.406	-200.000	-0.006	0.055
-343.391	-21.877	-0.392	-0.239
-342.377	-149.092	-0.109	0.009
-341.362	800.000	0.027	0.091
-340.348	-61.604	-0.178	0.075
-339.333	63.828	0.111	-0.112
-338.318	-200.000	0.152	0.000
-337.304	-22.683	-0.123	0.075
-336.289	319.571	0.070	0.133
-335.275	276.191	-0.073	0.130
-334.260	-73.292	-0.134	-0.049
-333.245	-32.922	0.172	-0.095
-332.231	-156.944	-0.485	0.030
-331.216	-82.728	0.245	0.079
-330.202	317.931	-0.144	-0.272
-329.187	98.078	-0.101	-0.116
-328.172	-77.337	0.007	0.002
-327.158	800.000	-0.110	0.337
-326.143	-15.368	0.115	0.073
-325.129	675.224	0.085	0.220
-324.114	606.834	0.046	-0.115
-323.099	-73.475	0.070	0.026
-322.085	-124.426	0.150	-0.023
-321.070	-200.000	-0.029	0.350
-320.056	790.754	-0.134	-0.368
-319.041	-62.291	-0.084	-0.035
-318.026	-200.000	-0.015	-0.087
-317.012	800.000	-0.012	0.039
-315.997	-200.000	-0.031	-0.267
-314.983	36.849	0.163	-0.144
-313.968	241.267	-0.084	0.140
-312.953	98.160	-0.105	0.121
-311.939	42.101	-0.133	-0.121
-310.924	-200.000	-0.008	0.143
-309.910	60.402	0.270	-0.266
-308.895	-200.000	0.013	-0.090
-307.880	102.178	-0.109	0.128
-306.866	349.517	0.159	-0.313
-305.851	-41.564	-0.110	0.057
-304.837	18.735	0.211	0.168
-303.822	-5.072	-0.295	0.203
-302.807	-142.107	0.289	0.029
-301.793	-200.000	-0.027	0.466
-300.778	800.000	-0.031	-0.113
-299.764	-65.179	0.180	0.072
-298.749	-200.000	0.005	0.118
-297.735	-131.348	0.318	0.042
-296.720	-68.255	-0.071	0.027
-295.705	-181.034	-0.243	-0.005
-294.691	114.421	-0.076	-0.092
-293.676	-158.776	-0.210	-0.012
-292.662	300.483	-0.096	-0.176
-291.647	-107.759	0.065	-0.014
-290.632	94.554	-0.171	0.194
-289.618	800.000	-0.154	0.471
-288.603	-122.752	0.089	0.014
-287.589	-40.920	0.133	0.068
-286.574	-29.264	0.272	0.156
-285.559	-200.000	-0.009	-0.130
-284.545	-143.591	-0.047	-0.004
-283.530	189.102	-0.011	0.016
-282.516	800.000	0.027	0.102
-281.501	800.000	-0.021	0.081
-280.486	800.000	-0.068	-0.269
-279.472	426.404	0.050	-0.107
-278.457	-110.255	-0.201	0.042
-277.443	18.335	-0.161	0.128
-276.428	88.941	0.343	-0.381
-275.413	-60.069	-0.298	0.127
-274.399	131.412	0.139	0.179
-273.384	800.000	-0.030	0.082
-272.370	-98.974	-0.332	-0.084
-271.355	432.519	0.032	-0.070
-270.340	584.195	-0.102	-0.249
-269.326	800.000	-0.012	-0.050
-268.311	-16.899	-0.307	0.193
-267.297	235.554	-0.034	-0.057
-266.282	800.000	0.131	-0.388
-265.267	-45.027	0.175	-0.087
-264.253	-160.075	-0.041	-0.002
-263.238	288.729	0.090	-0.162
-262.224	-67.246	0.130	0.051
-261.209	123.367	-0.075	-0.094
-260.195	-119.644	-0.092	-0.016
-259.180	134.467	-0.069	-0.089
-258.165	288.801	0.103	0.186
-257.151	-129.700	-0.586	-0.081
-256.136	-41.103	0.333	-0.171
-255.122	248.091	0.114	-0.193
-254.107	-46.250	0.282	0.138
-253.092	100.167	0.027	0.031
-252.078	-4.328	0.368	-0.254
-251.063	446.321	-0.071	-0.155
-250.049	-20.936	0.153	-0.093
-249.034	-73.605	0.338	0.123
-248.019	-200.000	-0.010	-0.183
-247.005	-57.562	-0.095	-0.042
-245.990	-82.417	0.391	0.127
-244.976	-200.000	0.018	-0.092
-243.961	-178.150	-0.290	-0.007
-242.946	800.000	-0.105	-0.290
-241.932	800.000	-0.109	-0.334
-240.917	377.940	0.103	-0.211
-239.903	-90.364	-0.273	-0.079
-238.888	-131.294	0.421	-0.056
-237.873	800.000	0.053	0.167
-236.859	178.535	0.143	0.208
-235.844	245.988	0.086	0.145
-234.830	131.069	0.230	0.295
-233.815	-200.000	-0.022	-0.239
-232.800	47.183	0.102	0.095
-231.786	-131.937	0.226	0.029
-230.771	787.296	-0.048	0.130
-229.757	117.674	-0.078	-0.095
-228.742	290.118	-0.102	0.183
-227.727	800.000	-0.018	0.048
-226.713	-200.000	0.036	0.419
-225.698	563.779	-0.070	0.169
-224.684	-200.000	-0.006	0.177
-223.669	-18.077	-0.330	0.206
-222.655	-200.000	-0.016	0.138
-221.640	193.865	-0.177	-0.267
-220.625	118.212	0.193	-0.237
-219.611	-46.554	0.134	-0.065
-218.596	262.299	-0.114	-0.197
-217.582	-99.968	-0.065	-0.016
-216.567	53.373	0.252	0.241
-215.552	-65.239	-0.175	0.070
-214.538	800.000	-0.014	0.050
-213.523	-151.534	0.304	-0.022
-212.509	-175.014	-0.314	-0.009
-211.494	127.931	0.045	0.057
-210.479	413.575	-0.037	0.079
-209.465	122.849	-0.003	-0.003
-208.450	-60.947	-0.119	0.050
-207.436	71.697	0.157	0.162
-206.421	-120.271	-0.071	0.012
-205.406	-133.138	0.219	0.028
-204.392	-32.451	-0.143	0.079
-203.377	228.017	-0.123	0.199
-202.363	399.219	0.049	-0.102
-201.348	175.931	0.172	0.248
-200.333	-93.431	0.240	0.066
-199.319	-143.837	-0.080	-0.008
-198.304	181.669	0.265	0.387
-197.290	-200.000	0.003	-0.098
-196.275	33.363	0.261	0.225
-195.260	33.986	-0.199	0.172
-194.246	-173.899	-0.161	-0.005
-193.231	-132.952	-0.237	0.030
-192.217	800.000	0.147	0.418
-191.202	187.486	-0.147	-0.218
-190.187	-11.044	0.252	-0.165
-189.173	161.042	-0.021	-0.029
-188.158	-200.000	-0.003	0.227
-187.144	433.460	0.086	0.185
-186.129	-15.071	0.069	0.044
-185.114	-72.473	0.084	-0.031
-184.100	73.944	-0.225	-0.234
-183.085	-112.563	0.209	0.041
-182.071	22.621	-0.306	0.249
-181.056	-76.447	0.156	0.055
-180.042	-200.000	-0.005	-0.211
-179.027	-200.000	0.054	0.358
-178.012	-111.005	0.208	-0.042
-176.998	-200.000	-0.015	0.121
-175.983	171.279	-0.166	-0.237
-174.969	0.689	-0.186	-0.132
-173.954	-200.000	0.000	0.091
-172.939	-200.000	0.007	0.352
-171.925	-196.200	-0.340	-0.002
-170.910	800.000	-0.008	0.030
-169.896	-95.763	-0.215	-0.057
-168.881	138.316	0.170	0.222
-167.866	-70.260	0.499	0.188
-166.852	270.971	0.157	0.275
-165.837	24.119	0.191	0.157
-164.823	141.803	-0.159	0.209
-163.808	63.173	-0.318	-0.316
-162.793	-67.003	0.360	-0.141
-161.779	-71.201	-0.098	-0.036
-160.764	-36.899	-0.165	-0.088
-159.750	253.337	0.176	-0.298
-158.735	-43.845	0.069	0.034
-157.720	10.833	0.235	-0.178
-156.706	733.996	-0.078	0.206
-155.691	-18.415	0.139	0.086
-154.677	91.449	0.099	-0.110
-153.662	-200.000	-0.026	-0.282
-152.647	-200.000	0.012	0.282
-151.633	-93.864	0.172	0.047
-150.618	-158.088	0.199	0.012
-149.604	6.708	0.064	0.047
-148.589	-200.000	-0.004	-0.068
-147.574	-160.985	0.247	-0.013
-146.560	18.115	-0.355	0.281
-145.545	800.000	0.052	-0.189
-144.531	800.000	-0.051	0.151
-143.516	800.000	-0.003	0.009
-142.502	208.073	0.062	-0.096
-141.487	243.490	-0.095	0.158
-140.472	114.965	-0.074	-0.089
-139.458	39.755	0.237	-0.211
-138.443	-49.734	-0.044	-0.021
-137.429	86.683	-0.175	-0.191
-136.414	33.501	-0.050	-0.043
-135.399	-95.669	-0.100	0.026
-134.385	-162.226	-0.470	0.023
-133.370	290.914	0.099	0.178
-132.356	-200.000	-0.006	-0.106
-131.341	-73.036	0.056	0.020
-130.326	-48.566	-0.201	0.096
-129.312	-139.291	-0.108	-0.012
-128.297	-200.000	0.014	-0.417
-127.283	203.934	-0.115	0.176
-126.268	59.268	-0.055	-0.054
-125.253	194.628	-0.063	-0.094
-124.239	9.245	-0.231	0.173
-123.224	-11.498	-0.083	-0.054
-122.210	389.044	-0.057	-0.118
