DTS Sentinel unit serial number:	SN413079Multiplexer serial number:	ORYXHardware model number:	OX4-SRSoftware version number:	ORYX F/W v4.00 Oryx Data Collector v3.7.2.0data status	okinstallation	princeton_trtdifferential loss correction	single-endedforward channel	channel 4reverse channel	N/Adate	2019/09/17time	23:05:35forward acquisition time	60.00reverse acquisition time	0.00gamma	496.2192k internal	0.2331k external	0.2331temperature offset calibration	0.9996default loss term (dB/km)	0.3790temperature slope calibration	1.0000multiplexer offset coefficient	1.0000multiplexer slope coefficient	1.0000fibre end	0.00T internal ref (°C)	24.69T ext. ref 1 (°C)	0.19T ext. ref 2 (°C)	17.86length (m)	temperature (°C)	Stokes	anti-Stokes-747.200	800.000	0.054	0.162
-746.185	40.052	-0.189	-0.171
-745.171	800.000	0.030	-0.104
-744.156	116.562	0.105	-0.129
-743.142	-113.187	0.275	0.054
-742.127	280.635	-0.128	0.230
-741.112	-94.922	0.200	-0.055
-740.098	-119.423	-0.175	0.031
-739.083	-133.197	-0.214	0.027
-738.069	-200.000	0.055	0.250
-737.054	64.809	-0.144	0.146
-736.039	-158.139	-0.308	0.018
-735.025	-126.991	0.211	0.031
-734.010	-20.864	-0.131	0.081
-732.996	-106.200	0.251	-0.057
-731.981	150.794	-0.147	-0.201
-730.966	-102.427	0.351	-0.085
-729.952	800.000	0.013	-0.037
-728.937	-158.400	-0.382	0.022
-727.923	-29.647	0.329	-0.189
-726.908	86.783	0.156	-0.173
-725.894	-200.000	-0.031	-0.227
-724.879	-133.587	0.132	-0.017
-723.864	-200.000	-0.049	-0.437
-722.850	696.398	-0.090	-0.237
-721.835	465.340	0.078	-0.176
-720.821	143.067	0.036	0.049
-719.806	-75.931	0.358	-0.128
-718.791	-130.074	0.331	0.045
-717.777	-35.133	-0.083	-0.046
-716.762	-200.000	-0.068	-0.468
-715.748	-125.847	-0.126	-0.019
-714.733	-84.753	0.247	0.078
-713.718	-81.450	-0.225	0.074
-712.704	6.343	0.176	-0.131
-711.689	-200.000	-0.023	-0.242
-710.675	6.300	0.331	-0.247
-709.660	439.058	0.073	-0.161
-708.645	-99.671	-0.272	0.069
-707.631	-137.577	-0.228	-0.026
-706.616	147.607	-0.135	-0.183
-705.602	800.000	0.010	0.030
-704.587	-92.724	0.439	-0.124
-703.572	52.337	-0.039	0.037
-702.558	269.635	0.019	-0.034
-701.543	4.011	-0.325	-0.239
-700.529	189.804	-0.198	-0.298
-699.514	-142.374	-0.363	0.036
-698.499	-200.000	-0.037	0.278
-697.485	356.492	-0.090	-0.180
-696.470	-77.499	0.143	-0.050
-695.456	-151.872	-0.279	0.021
-694.441	800.000	-0.091	0.291
-693.426	5.605	-0.188	-0.139
-692.412	-154.538	-0.094	0.006
-691.397	-24.387	-0.350	0.210
-690.383	-119.455	0.333	0.058
-689.368	-180.041	-0.184	0.004
-688.354	-67.871	0.108	-0.042
-687.339	356.561	-0.005	0.009
-686.324	-200.000	0.032	0.266
-685.310	29.354	-0.221	-0.188
-684.295	-133.080	-0.196	-0.025
-683.281	-197.440	-0.224	0.001
-682.266	800.000	0.039	-0.111
-681.251	-200.000	-0.067	0.405
-680.237	-200.000	-0.021	0.212
-679.222	314.826	-0.149	0.282
-678.208	800.000	-0.036	-0.156
-677.193	-81.066	-0.291	-0.097
-676.178	800.000	-0.009	0.026
-675.164	-114.200	0.054	-0.010
-674.149	-5.184	-0.198	0.136
-673.135	445.684	-0.068	-0.150
-672.120	256.371	-0.119	-0.205
-671.105	-50.617	-0.319	0.151
-670.091	131.097	-0.043	-0.056
-669.076	-75.270	-0.172	-0.061
-668.062	175.918	-0.143	-0.209
-667.047	207.182	0.164	-0.257
-666.032	-200.000	-0.001	-0.164
-665.018	800.000	0.020	-0.066
-664.003	-200.000	0.006	0.197
-662.989	56.733	-0.158	0.155
-661.974	-200.000	-0.022	0.097
-660.959	800.000	-0.057	0.162
-659.945	336.407	0.107	0.208
-658.930	-7.045	0.151	-0.103
-657.916	800.000	0.057	0.215
-656.901	-200.000	0.002	-0.215
-655.886	-131.247	0.085	-0.011
-654.872	49.332	-0.219	0.207
-653.857	-140.773	0.141	-0.015
-652.843	203.896	-0.080	-0.125
-651.828	800.000	0.041	-0.151
-650.814	-113.390	-0.219	0.043
-649.799	-38.484	0.109	-0.058
-648.784	-172.561	-0.241	0.008
-647.770	-61.948	0.053	-0.022
-646.755	800.000	-0.042	0.165
-645.741	-23.183	-0.308	0.186
-644.726	800.000	0.082	-0.295
-643.711	142.602	0.028	0.037
-642.697	-95.121	0.065	-0.018
-641.682	-176.128	0.458	0.012
-640.668	428.535	-0.150	0.326
-639.653	-113.820	0.377	0.074
-638.638	-72.934	0.156	0.057
-637.624	-200.000	-0.009	-0.203
-636.609	132.299	0.056	-0.073
-635.595	-4.125	-0.083	-0.058
-634.580	-87.570	0.324	0.098
-633.565	-168.703	-0.185	0.007
-632.551	85.051	0.051	0.056
-631.536	800.000	-0.035	-0.124
-630.522	-200.000	0.001	-0.302
-629.507	-72.539	-0.192	0.071
-628.492	39.848	0.138	-0.124
-627.478	-63.731	0.127	0.052
-626.463	-200.000	-0.011	0.169
-625.449	-130.745	-0.311	-0.042
-624.434	220.556	-0.118	0.189
-623.419	-130.895	-0.259	-0.035
-622.405	-193.887	0.310	-0.003
-621.390	-51.197	-0.247	0.116
-620.376	11.731	0.150	0.115
-619.361	-200.000	-0.027	-0.222
-618.346	-200.000	0.018	-0.172
-617.332	-31.881	0.221	-0.124
-616.317	780.928	0.070	0.192
-615.303	439.152	-0.090	-0.196
-614.288	800.000	0.029	-0.122
-613.273	-200.000	-0.035	-0.316
-612.259	-112.430	-0.222	0.044
-611.244	31.906	-0.138	-0.119
-610.230	-200.000	-0.024	-0.176
-609.215	-71.869	-0.019	0.007
-608.201	143.852	0.128	-0.171
-607.186	779.607	-0.042	0.114
-606.171	526.595	0.076	0.179
-605.157	47.109	0.232	-0.216
-604.142	-200.000	0.013	0.245
-603.128	108.575	0.130	0.156
-602.113	57.411	0.048	-0.047
-601.098	137.221	0.147	-0.193
-600.084	-200.000	-0.041	-0.221
-599.069	-200.000	0.080	-0.442
-598.055	800.000	0.098	0.283
-597.040	-50.502	-0.036	-0.017
-596.025	116.703	-0.160	-0.196
-595.011	-18.904	0.215	-0.134
-593.996	-104.830	-0.486	-0.112
-592.982	169.331	0.096	-0.137
-591.967	195.022	-0.067	0.102
-590.952	-200.000	0.039	-0.304
-589.938	-55.086	0.234	-0.105
-588.923	-200.000	0.002	-0.077
-587.909	-200.000	-0.070	-0.315
-586.894	-59.847	0.327	0.140
-585.879	230.752	-0.058	-0.095
-584.865	60.436	0.184	0.182
-583.850	317.141	-0.098	-0.185
-582.836	-200.000	-0.047	-0.251
-581.821	800.000	0.071	0.219
-580.806	-200.000	-0.022	0.117
-579.792	122.384	-0.216	0.269
-578.777	173.949	-0.087	0.125
-577.763	531.412	0.028	-0.067
-576.748	-77.626	-0.347	0.120
-575.733	-32.798	0.116	0.064
-574.719	-200.000	0.043	0.241
-573.704	319.819	0.140	0.266
-572.690	-186.282	-0.138	0.002
-571.675	-200.000	0.024	-0.416
-570.661	800.000	-0.050	-0.167
-569.646	56.084	-0.119	-0.115
-568.631	-39.964	-0.208	0.109
-567.617	-200.000	-0.040	-0.386
-566.602	334.334	-0.076	0.147
-565.588	-200.000	-0.011	0.117
-564.573	-200.000	-0.011	0.053
-563.558	-200.000	-0.035	0.210
-562.544	132.576	0.191	0.247
-561.529	193.698	0.162	-0.244
-560.515	-200.000	-0.007	-0.238
-559.500	-200.000	-0.080	0.449
-558.485	106.098	-0.331	0.392
-557.471	-59.252	0.161	-0.069
-556.456	757.312	0.054	0.146
-555.442	219.864	0.033	0.053
-554.427	632.002	-0.135	0.341
-553.412	56.585	-0.210	0.204
-552.398	800.000	-0.034	0.105
-551.383	-27.371	-0.271	-0.157
-550.369	435.699	0.055	-0.119
-549.354	800.000	-0.085	0.296
-548.339	-97.507	-0.053	-0.014
-547.325	-200.000	-0.003	-0.026
-546.310	-14.363	-0.211	0.136
-545.296	-174.934	0.162	-0.005
-544.281	-200.000	-0.025	-0.217
-543.266	800.000	0.133	0.468
-542.252	-32.702	-0.121	0.067
-541.237	-43.265	-0.109	-0.055
-540.223	-23.937	0.095	0.057
-539.208	-117.754	0.123	-0.022
-538.193	-105.988	-0.274	-0.062
-537.179	-93.117	-0.355	-0.099
-536.164	-141.309	0.115	-0.012
-535.150	367.331	-0.169	-0.342
-534.135	144.003	-0.255	0.339
-533.121	6.604	0.103	0.076
-532.106	222.345	-0.028	0.044
-531.091	92.407	0.047	-0.053
-530.077	800.000	-0.048	0.161
-529.062	268.528	0.053	-0.093
-528.048	17.356	-0.244	-0.194
-527.033	-87.977	0.089	0.027
-526.018	-122.414	0.246	-0.040
-525.004	494.493	-0.065	-0.149
-523.989	-99.148	-0.354	0.089
-522.975	-85.839	-0.049	0.015
-521.960	-200.000	0.010	-0.300
-520.945	67.777	-0.039	-0.040
-519.931	258.198	0.173	-0.297
-518.916	-44.496	0.303	0.151
-517.902	-158.074	0.082	-0.005
-516.887	-200.000	0.061	0.371
-515.872	16.247	-0.102	0.080
-514.858	200.545	0.199	-0.306
-513.843	102.738	0.119	0.139
-512.829	800.000	0.088	0.267
-511.814	0.788	-0.188	-0.134
-510.799	94.657	0.095	0.108
-509.785	-63.077	-0.234	-0.096
-508.770	389.350	0.107	-0.222
-507.756	790.288	0.072	0.196
-506.741	13.339	-0.321	-0.248
-505.726	-200.000	-0.063	0.316
-504.712	-98.706	0.237	-0.060
-503.697	-64.499	0.241	-0.098
-502.683	-12.119	0.281	-0.184
-501.668	322.675	0.090	-0.170
-500.653	105.287	0.057	-0.068
-499.639	-39.998	-0.206	0.107
-498.624	498.443	-0.036	0.083
-497.610	107.033	-0.107	0.127
-496.595	72.311	0.283	0.294
-495.581	83.697	-0.194	0.211
-494.566	-140.175	-0.186	-0.019
-493.551	-200.000	0.026	-0.134
-492.537	800.000	0.047	0.137
-491.522	100.535	0.166	-0.192
-490.508	194.275	-0.172	-0.260
-489.493	-200.000	0.026	0.380
-488.478	-160.629	0.320	-0.017
-487.464	190.381	0.043	-0.064
-486.449	16.670	-0.090	0.071
-485.435	800.000	-0.034	-0.127
-484.420	432.391	0.145	0.313
-483.405	-200.000	0.055	-0.517
-482.391	-84.961	0.259	-0.081
-481.376	251.013	-0.125	0.211
-480.362	-58.907	-0.275	0.118
-479.347	-200.000	0.108	0.513
-478.332	-47.262	-0.267	0.129
-477.318	-14.199	0.297	0.191
-476.303	-200.000	-0.004	0.027
-475.289	-200.000	0.040	0.325
-474.274	-14.742	-0.086	0.055
-473.259	52.469	0.199	-0.189
-472.245	404.557	-0.068	0.143
-471.230	800.000	-0.049	-0.180
-470.216	800.000	-0.127	-0.416
-469.201	-16.669	0.223	-0.140
-468.186	-57.896	-0.090	-0.039
-467.172	-109.224	-0.247	-0.052
-466.157	-140.766	0.283	0.029
-465.143	181.066	-0.230	-0.336
-464.128	-178.354	0.118	0.003
-463.113	-200.000	0.067	-0.333
-462.099	84.291	0.218	0.237
-461.084	800.000	-0.063	0.182
-460.070	355.342	-0.067	-0.134
-459.055	42.829	0.158	0.143
-458.040	244.963	-0.039	-0.065
-457.026	-169.524	-0.194	0.007
-456.011	-52.160	0.250	0.115
-454.997	216.393	0.170	0.269
-453.982	-46.375	0.339	-0.166
-452.968	-136.308	0.086	0.010
-451.953	-93.462	-0.204	0.056
-450.938	-200.000	0.019	-0.131
-449.924	-200.000	0.002	0.120
-448.909	-200.000	-0.038	0.260
-447.895	-120.000	-0.487	-0.083
-446.880	-135.140	-0.282	-0.034
-445.865	-75.638	-0.244	0.086
-444.851	-157.426	0.385	-0.023
-443.836	-200.000	0.029	-0.171
-442.822	54.371	0.258	0.247
-441.807	-95.325	0.207	0.055
-440.792	-200.000	0.054	-0.312
-439.778	-49.009	-0.098	0.046
-438.763	-107.007	-0.058	-0.013
-437.749	-200.000	-0.019	-0.256
-436.734	800.000	0.080	-0.286
-435.719	-200.000	-0.037	0.283
-434.705	-143.266	-0.179	0.017
-433.690	-101.485	-0.182	0.044
-432.676	-22.176	-0.112	-0.067
-431.661	175.900	0.076	0.109
-430.646	25.054	-0.313	-0.258
-429.632	601.515	0.132	0.326
-428.617	78.155	-0.115	-0.122
-427.603	-115.009	0.288	0.054
-426.588	-62.456	-0.252	0.104
-425.573	434.483	0.141	0.305
-424.559	-143.430	-0.188	-0.018
-423.544	284.894	0.114	-0.203
-422.530	800.000	-0.056	0.186
-421.515	-78.202	-0.079	0.027
-420.500	250.662	-0.084	0.142
-419.486	-200.000	0.018	0.158
-418.471	329.630	0.077	0.147
-417.457	-200.000	-0.011	-0.095
-416.442	800.000	0.051	-0.157
-415.428	693.696	-0.056	0.145
-414.413	464.811	-0.025	-0.056
-413.398	-200.000	0.017	0.237
-412.384	36.169	-0.316	0.277
-411.369	-55.253	0.123	0.055
-410.355	-116.462	0.206	-0.038
-409.340	800.000	-0.092	-0.299
-408.325	184.405	0.140	0.206
-407.311	-133.532	0.213	-0.026
-406.296	45.644	0.184	-0.169
-405.282	185.432	-0.085	-0.125
-404.267	107.989	-0.029	0.034
-403.252	-26.315	0.154	-0.090
-402.238	800.000	-0.124	-0.406
-401.223	111.395	0.264	0.316
-400.209	226.569	0.120	0.193
-399.194	800.000	-0.110	-0.409
-398.179	212.813	-0.060	0.095
-397.165	7.276	-0.380	-0.282
-396.150	-39.103	0.021	0.011
-395.136	-200.000	0.012	0.124
-394.121	800.000	-0.072	0.198
-393.106	800.000	-0.110	-0.312
-392.092	-1.082	-0.065	-0.046
-391.077	-36.067	-0.026	-0.014
-390.063	89.950	0.313	-0.347
-389.048	-11.288	-0.223	0.146
-388.033	-200.000	-0.007	0.163
-387.019	-200.000	0.024	-0.104
-386.004	-84.323	-0.267	0.084
-384.990	-108.713	0.032	0.007
-383.975	409.616	-0.175	0.367
-382.960	-103.212	0.160	0.038
-381.946	-180.276	-0.182	0.004
-380.931	-19.024	-0.071	-0.044
-379.917	224.790	-0.031	-0.050
-378.902	-41.433	0.194	0.099
-377.888	385.569	-0.046	0.095
-376.873	155.867	0.156	-0.213
-375.858	-64.162	-0.088	-0.036
-374.844	-163.352	-0.283	-0.013
-373.829	-60.578	-0.220	0.093
-372.815	-64.368	0.419	-0.169
-371.800	321.359	-0.092	-0.173
-370.785	10.584	-0.069	-0.052
-369.771	-200.000	0.012	-0.180
-368.756	-200.000	-0.015	0.256
-367.742	-110.643	0.471	0.097
-366.727	-200.000	0.017	0.084
-365.712	190.701	-0.067	-0.100
-364.698	-85.499	0.077	0.024
-363.683	-185.567	0.163	-0.002
-362.669	-99.512	0.114	0.028
-361.654	-104.251	-0.145	0.033
-360.639	-200.000	-0.023	0.411
-359.625	198.443	-0.157	0.238
-358.610	137.710	0.123	0.159
-357.596	-200.000	-0.041	-0.241
-356.581	209.981	-0.150	0.234
-355.566	-200.000	0.041	-0.334
-354.552	-200.000	0.043	0.229
-353.537	-131.092	-0.418	-0.055
-352.523	370.961	-0.016	-0.032
-351.508	-28.474	0.028	0.016
-350.493	-200.000	0.086	0.388
-349.479	457.109	-0.124	-0.274
-348.464	-1.971	0.057	0.040
-347.450	101.674	-0.266	0.307
-346.435	-200.000	0.003	-0.094
-345.420	91.168	-0.054	-0.060
-344.406	-200.000	-0.033	0.249
-343.391	-200.000	-0.062	-0.302
-342.377	428.950	-0.099	-0.211
-341.362	-56.153	-0.161	-0.071
-340.348	16.613	0.231	-0.181
-339.333	-200.000	-0.005	-0.024
-338.318	129.882	0.181	-0.229
-337.304	800.000	-0.075	0.214
-336.289	-200.000	0.018	0.250
-335.275	-24.233	-0.100	0.059
-334.260	157.991	0.162	0.223
-333.245	-18.035	0.219	0.136
-332.231	-200.000	-0.012	-0.096
-331.216	-101.877	0.128	0.031
-330.202	800.000	-0.038	-0.122
-329.187	-200.000	-0.050	-0.390
-328.172	-200.000	-0.009	-0.259
-327.158	-200.000	0.030	-0.243
-326.143	-35.923	-0.022	0.012
-325.129	-200.000	0.136	0.000
-324.114	-112.495	0.284	0.056
-323.099	43.802	0.151	0.137
-322.085	-21.547	-0.391	-0.236
-321.070	-200.000	-0.048	-0.210
-320.056	-148.483	-0.235	-0.019
-319.041	-200.000	-0.019	0.089
-318.026	-124.703	-0.196	-0.030
-317.012	-200.000	-0.024	-0.141
-315.997	58.798	-0.145	0.141
-314.983	375.017	0.055	0.111
-313.968	800.000	0.100	-0.380
-312.953	295.884	0.129	0.234
-311.939	193.662	-0.025	0.037
-310.924	-36.596	0.180	-0.096
-309.910	-12.017	0.208	0.135
-308.895	800.000	-0.042	-0.138
-307.880	33.632	-0.044	-0.038
-306.866	343.706	-0.096	-0.187
-305.851	286.501	0.038	0.068
-304.837	800.000	0.092	0.288
-303.822	-200.000	-0.051	-0.272
-302.807	18.988	0.093	-0.074
-301.793	-200.000	0.036	0.176
-300.778	-200.000	0.009	-0.209
-299.764	-114.053	-0.210	-0.040
-298.749	2.096	-0.077	-0.055
-297.735	-62.695	0.349	-0.143
-296.720	-188.343	-0.077	0.001
-295.705	800.000	-0.136	-0.430
-294.691	-64.559	0.085	0.034
-293.676	175.122	-0.187	0.268
-292.662	366.935	0.060	-0.120
-291.647	-200.000	-0.005	-0.137
-290.632	-30.897	0.196	-0.110
-289.618	54.885	-0.205	0.195
-288.603	-200.000	0.023	-0.110
-287.589	76.912	-0.036	0.038
-286.574	218.325	-0.092	0.144
-285.559	219.781	-0.163	-0.258
-284.545	-27.246	-0.062	-0.036
-283.530	-200.000	0.065	0.467
-282.516	360.979	0.021	-0.041
-281.501	33.790	-0.157	-0.135
-280.486	-145.516	-0.161	-0.014
-279.472	52.542	-0.031	-0.029
-278.457	-71.095	0.234	0.087
-277.443	-67.462	-0.173	0.067
-276.428	527.961	0.094	0.220
-275.413	0.790	0.116	-0.082
-274.399	384.408	0.249	0.507
-273.384	-48.497	0.042	-0.020
-272.370	-154.630	-0.100	-0.007
-271.355	-41.171	-0.141	-0.072
-270.340	-200.000	0.011	0.121
-269.326	-200.000	-0.060	-0.313
-268.311	166.586	0.218	0.305
-267.297	800.000	0.026	-0.089
-266.282	-76.087	0.016	-0.005
-265.267	-65.246	-0.464	-0.185
-264.253	-138.856	0.213	-0.023
-263.238	-93.936	0.079	0.022
-262.224	149.817	0.106	0.142
-261.209	-167.273	0.035	-0.001
-260.195	-25.126	-0.249	0.146
-259.180	-87.534	-0.212	0.063
-258.165	375.037	-0.067	-0.136
-257.151	-3.691	-0.144	0.099
-256.136	31.931	0.321	-0.273
-255.122	-149.399	0.258	-0.020
-254.107	-141.695	0.292	-0.029
-253.092	-60.151	-0.331	-0.139
-252.078	-200.000	-0.039	0.214
-251.063	-200.000	-0.058	0.266
-250.049	317.567	-0.086	0.161
-249.034	800.000	-0.016	0.051
-248.019	-8.013	0.033	0.022
-247.005	38.161	-0.227	-0.199
-245.990	800.000	0.130	0.435
-244.976	373.156	0.040	0.081
-243.961	800.000	-0.064	-0.190
-242.946	-56.988	-0.373	-0.162
-241.932	800.000	0.098	-0.287
-240.917	-71.506	0.204	0.075
-239.903	1.735	0.083	-0.059
-238.888	-200.000	-0.049	0.433
-237.873	-91.581	-0.146	0.041
-236.859	-200.000	0.018	0.171
-235.844	154.806	0.070	0.095
-234.830	40.356	-0.206	-0.183
-233.815	800.000	0.137	-0.381
-232.800	-59.769	-0.237	-0.100
-231.786	800.000	-0.042	-0.116
-230.771	-67.439	0.099	-0.038
-229.757	207.115	-0.110	0.170
-228.742	800.000	0.080	0.257
-227.727	-69.628	-0.175	-0.066
-226.713	66.551	0.285	0.286
-225.698	400.122	0.027	0.055
-224.684	3.971	0.070	0.050
-223.669	-200.000	-0.041	-0.299
-222.655	493.838	-0.104	0.236
-221.640	118.362	-0.064	0.078
-220.625	387.307	-0.016	0.032
-219.611	100.845	0.088	-0.101
-218.596	-200.000	-0.019	0.129
-217.582	-96.506	-0.239	0.062
-216.567	-78.966	-0.235	-0.079
-215.552	-200.000	-0.014	-0.130
-214.538	-200.000	0.011	-0.143
-213.523	191.972	-0.164	0.244
-212.509	773.553	-0.073	-0.197
-211.494	-89.548	-0.065	0.019
-210.479	-107.899	0.141	-0.030
-209.465	-200.000	-0.047	0.249
-208.450	-200.000	-0.003	-0.071
-207.436	623.987	0.111	-0.275
-206.421	-200.000	0.011	-0.085
-205.406	-200.000	0.105	0.589
-204.392	-93.224	-0.200	-0.055
-203.377	67.004	0.219	-0.220
-202.363	125.615	0.068	0.085
-201.348	29.078	0.112	-0.094
-200.333	13.152	-0.207	-0.158
-199.319	-85.184	0.139	0.043
-198.304	-20.453	-0.166	-0.101
-197.290	-114.541	0.291	0.055
-196.275	-31.033	0.234	0.130
-195.260	79.308	0.127	0.134
-194.246	-200.000	-0.004	-0.129
-193.231	-200.000	0.013	0.132
-192.217	-167.803	-0.162	0.006
-191.202	19.770	0.060	0.048
-190.187	-155.833	-0.357	0.022
-189.173	143.109	0.062	0.081
-188.158	84.107	0.130	0.140
-187.144	-200.000	-0.016	-0.263
-186.129	182.806	0.326	-0.473
-185.114	-11.800	0.127	-0.082
-184.100	-76.738	-0.252	0.087
-183.085	52.051	0.300	-0.281
-182.071	619.895	0.131	-0.324
-181.056	-28.135	0.249	-0.141
-180.042	349.471	0.043	0.083
-179.027	415.372	-0.093	0.195
-178.012	-74.181	-0.052	0.019
-176.998	-200.000	0.018	0.277
-175.983	-79.398	0.069	0.023
-174.969	800.000	-0.021	-0.085
-173.954	131.652	-0.072	-0.091
-172.939	-43.064	-0.109	0.054
-171.925	-125.561	0.268	-0.040
-170.910	800.000	-0.074	0.273
-169.896	800.000	0.091	-0.387
-168.881	46.908	-0.301	0.275
-167.866	388.723	0.170	-0.347
-166.852	417.583	-0.045	0.094
-165.837	37.559	0.103	0.090
-164.823	-114.032	0.349	0.067
-163.808	-200.000	-0.028	0.153
-162.793	800.000	-0.055	0.180
-161.779	-32.269	-0.145	0.080
-160.764	2.512	0.291	-0.208
-159.750	468.682	0.144	0.317
-158.735	-7.375	0.228	-0.152
-157.720	134.090	-0.029	-0.037
-156.706	-200.000	-0.058	-0.373
-155.691	15.511	0.026	0.020
-154.677	-152.045	-0.152	0.011
-153.662	-135.235	0.136	-0.016
-152.647	-124.859	0.173	-0.026
-151.633	5.262	0.189	-0.137
-150.618	205.289	0.166	-0.253
-149.604	42.531	-0.098	-0.088
-148.589	742.034	0.137	0.363
-147.574	716.017	0.094	-0.245
-146.560	21.803	0.140	-0.112
-145.545	-116.828	0.368	-0.066
-144.531	111.219	0.157	-0.186
-143.516	-120.725	-0.319	-0.053
-142.502	-129.483	0.169	-0.023
-141.487	-200.000	-0.031	0.254
-140.472	-73.076	-0.262	-0.095
-139.458	-95.404	-0.315	0.083
-138.443	-173.281	0.339	0.010
-137.429	269.802	0.033	-0.056
-136.414	-41.449	0.182	-0.092
-135.399	-70.067	0.071	0.027
-134.385	-130.094	0.273	-0.037
-133.370	258.084	-0.166	-0.281
-132.356	-149.496	-0.136	0.011
-131.341	-35.909	0.174	-0.092
-130.326	800.000	0.004	-0.016
-129.312	-98.027	0.199	0.050
-128.297	235.959	-0.112	0.182
-127.283	-133.495	-0.097	-0.012
-126.268	13.297	-0.045	-0.034
-125.253	15.710	0.210	0.162
-124.239	-111.904	0.038	-0.007
-123.224	-156.748	0.304	0.018
