DTS Sentinel unit serial number:	SN413079Multiplexer serial number:	ORYXHardware model number:	OX4-SRSoftware version number:	ORYX F/W v4.00 Oryx Data Collector v3.7.2.0data status	okinstallation	princeton_trtdifferential loss correction	single-endedforward channel	channel 4reverse channel	N/Adate	2019/09/13time	22:25:35forward acquisition time	60.00reverse acquisition time	0.00gamma	496.2192k internal	0.2320k external	0.2320temperature offset calibration	1.0139default loss term (dB/km)	0.3790temperature slope calibration	1.0000multiplexer offset coefficient	1.0000multiplexer slope coefficient	1.0000fibre end	0.00T internal ref (°C)	27.80T ext. ref 1 (°C)	3.26T ext. ref 2 (°C)	22.41length (m)	temperature (°C)	Stokes	anti-Stokes-747.200	-67.444	-0.102	0.041
-746.185	253.108	-0.180	0.311
-745.171	-200.000	-0.003	0.111
-744.156	300.569	-0.138	0.258
-743.142	-133.940	0.097	-0.012
-742.127	-98.307	-0.433	0.112
-741.112	-200.000	0.008	-0.329
-740.098	800.000	0.153	-0.485
-739.083	-51.400	0.187	0.088
-738.069	-81.852	-0.263	0.087
-737.054	117.157	-0.214	0.266
-736.039	-200.000	-0.023	-0.131
-735.025	-166.443	0.478	-0.020
-734.010	800.000	-0.062	-0.200
-732.996	560.568	0.066	-0.162
-731.981	800.000	-0.061	0.185
-730.966	-200.000	-0.012	0.161
-729.952	-91.461	-0.179	-0.052
-728.937	109.718	-0.162	-0.197
-727.923	586.025	0.115	-0.285
-726.908	-87.664	-0.221	0.067
-725.894	800.000	-0.024	-0.102
-724.879	-200.000	-0.120	0.590
-723.864	-127.071	-0.224	0.033
-722.850	357.455	-0.036	0.072
-721.835	-32.679	-0.024	0.014
-720.821	800.000	0.090	0.259
-719.806	94.890	-0.043	-0.049
-718.791	-63.168	0.196	-0.082
-717.777	-125.850	-0.058	-0.009
-716.762	199.517	-0.115	0.179
-715.748	-200.000	0.019	0.118
-714.733	-69.468	0.207	-0.080
-713.718	800.000	0.057	0.179
-712.704	-64.399	-0.369	0.152
-711.689	96.021	0.370	-0.427
-710.675	-50.311	-0.252	-0.121
-709.660	389.752	0.082	0.172
-708.645	112.089	0.078	0.095
-707.631	197.344	0.121	-0.186
-706.616	-88.516	0.397	0.120
-705.602	126.148	-0.048	-0.061
-704.587	-34.955	-0.173	-0.095
-703.572	-87.194	0.125	0.038
-702.558	-33.978	-0.159	-0.088
-701.543	-145.611	0.362	0.033
-700.529	426.253	0.144	-0.312
-699.514	-200.000	-0.084	-0.418
-698.499	-200.000	-0.011	0.134
-697.485	-150.417	0.045	0.003
-696.470	344.602	0.044	-0.088
-695.456	-200.000	0.008	-0.213
-694.441	-200.000	-0.024	-0.196
-693.426	-163.050	-0.442	0.022
-692.412	180.102	0.060	-0.088
-691.397	62.672	-0.079	0.080
-690.383	166.690	0.135	0.194
-689.368	67.388	-0.119	-0.123
-688.354	-93.593	-0.391	-0.109
-687.339	-200.000	-0.047	0.238
-686.324	-76.202	0.079	-0.028
-685.310	-125.631	0.075	0.011
-684.295	-1.539	-0.138	0.098
-683.281	-200.000	-0.049	-0.286
-682.266	178.346	-0.269	-0.397
-681.251	46.359	-0.106	-0.099
-680.237	95.669	0.197	-0.226
-679.222	-115.835	0.346	0.065
-678.208	-200.000	0.012	-0.109
-677.193	98.557	-0.067	0.078
-676.178	430.571	0.068	0.147
-675.164	-13.111	-0.173	0.113
-674.149	137.258	0.153	0.202
-673.135	-127.535	0.054	0.008
-672.120	-1.110	0.091	-0.065
-671.105	15.352	0.160	-0.127
-670.091	367.224	-0.061	-0.123
-669.076	152.732	-0.182	-0.251
-668.062	436.270	-0.119	0.262
-667.047	800.000	-0.046	0.149
-666.032	-53.156	0.149	-0.069
-665.018	-85.585	0.211	-0.066
-664.003	-40.604	0.418	0.219
-662.989	12.108	-0.067	-0.052
-661.974	-116.895	-0.315	-0.058
-660.959	-7.306	-0.184	0.126
-659.945	13.923	-0.151	0.118
-658.930	436.688	-0.127	0.279
-657.916	115.613	0.086	0.106
-656.901	-61.473	-0.179	-0.076
-655.886	-80.716	-0.327	-0.110
-654.872	214.414	0.123	0.196
-653.857	160.736	-0.002	0.003
-652.843	77.254	0.331	0.354
-651.828	800.000	0.098	0.376
-650.814	298.418	-0.089	0.164
-649.799	-29.451	-0.298	-0.172
-648.784	170.249	0.108	-0.156
-647.770	1.633	-0.182	0.132
-646.755	282.398	0.070	0.127
-645.741	-85.072	0.123	0.039
-644.726	99.487	-0.208	-0.242
-643.711	800.000	-0.102	-0.367
-642.697	-23.916	-0.172	-0.104
-641.682	109.489	-0.160	0.193
-640.668	800.000	-0.045	-0.162
-639.653	-39.922	-0.292	0.154
-638.638	-78.028	0.095	0.033
-637.624	-105.645	0.221	0.051
-636.609	800.000	-0.041	-0.137
-635.595	5.169	0.112	-0.083
-634.580	-200.000	-0.005	0.088
-633.565	55.668	-0.172	-0.168
-632.551	-200.000	-0.002	-0.110
-631.536	-136.483	0.056	-0.007
-630.522	141.329	0.038	-0.050
-629.507	-95.525	-0.162	0.044
-628.492	-31.509	0.177	-0.100
-627.478	800.000	0.107	0.367
-626.463	-90.112	-0.170	0.050
-625.449	74.899	0.124	-0.132
-624.434	-200.000	0.014	0.271
-623.419	308.521	-0.043	-0.082
-622.405	28.106	0.253	-0.215
-621.390	416.517	0.039	-0.085
-620.376	174.707	-0.139	0.202
-619.361	800.000	-0.073	0.244
-618.346	-200.000	0.007	-0.066
-617.332	-110.446	-0.370	-0.077
-616.317	692.271	-0.041	0.109
-615.303	-200.000	0.022	0.201
-614.288	-0.078	0.162	0.116
-613.273	-67.042	0.240	-0.095
-612.259	-49.576	-0.285	0.137
-611.244	-200.000	-0.016	0.256
-610.230	-200.000	0.040	-0.280
-609.215	800.000	-0.082	0.242
-608.201	83.477	0.261	-0.286
-607.186	-5.354	0.210	-0.145
-606.171	10.528	-0.284	0.218
-605.157	15.506	0.311	-0.246
-604.142	155.616	-0.145	0.200
-603.128	-200.000	0.017	-0.139
-602.113	-29.186	-0.349	-0.201
-601.098	-92.023	-0.385	-0.110
-600.084	-122.578	0.217	-0.035
-599.069	-200.000	0.054	0.282
-598.055	-21.349	-0.264	-0.162
-597.040	229.911	0.264	0.433
-596.025	-27.050	0.328	0.192
-595.011	-200.000	0.002	-0.348
-593.996	-200.000	-0.027	0.270
-592.982	-150.285	-0.291	-0.023
-591.967	91.874	-0.028	-0.032
-590.952	163.310	0.065	-0.092
-589.938	-48.458	0.213	-0.103
-588.923	177.873	-0.091	-0.133
-587.909	280.252	-0.175	0.314
-586.894	128.220	-0.190	0.242
-585.879	-200.000	-0.008	-0.265
-584.865	191.912	0.201	-0.305
-583.850	-200.000	-0.025	0.187
-582.836	379.069	-0.087	0.179
-581.821	800.000	-0.047	0.148
-580.806	-106.561	0.194	0.044
-579.792	-200.000	0.055	-0.447
-578.777	-200.000	-0.005	-0.152
-577.763	33.957	-0.141	0.124
-576.748	-76.917	0.427	0.150
-575.733	-86.739	0.241	-0.074
-574.719	-200.000	-0.032	-0.188
-573.704	-163.493	-0.113	0.005
-572.690	-27.017	-0.381	0.224
-571.675	-110.153	0.035	-0.007
-570.661	-104.777	0.399	-0.092
-569.646	-160.038	-0.262	-0.014
-568.631	51.775	0.135	0.129
-567.617	-185.141	0.260	0.004
-566.602	-200.000	-0.019	-0.181
-565.588	-17.942	-0.199	-0.126
-564.573	-138.603	-0.324	-0.036
-563.558	134.881	-0.041	0.053
-562.544	-13.204	-0.212	0.138
-561.529	-59.715	-0.305	-0.131
-560.515	-3.492	-0.176	-0.123
-559.500	-4.705	0.157	-0.109
-558.485	-64.886	-0.123	0.050
-557.471	458.966	-0.055	-0.124
-556.456	30.137	-0.085	0.073
-555.442	230.922	-0.074	-0.122
-554.427	9.930	-0.240	-0.183
-553.412	96.295	-0.173	0.199
-552.398	10.109	0.240	0.183
-551.383	-194.264	0.265	-0.002
-550.369	-7.265	0.088	-0.060
-549.354	-1.690	-0.149	-0.106
-548.339	-97.646	0.358	0.093
-547.325	-190.125	0.259	0.003
-546.310	205.781	-0.030	0.047
-545.296	-200.000	0.010	-0.130
-544.281	-16.974	-0.261	0.165
-543.266	-36.097	-0.086	-0.046
-542.252	332.748	-0.006	-0.011
-541.237	152.244	0.086	0.117
-540.223	-62.994	0.213	0.088
-539.208	83.548	-0.238	-0.260
-538.193	761.254	0.018	-0.049
-537.179	-200.000	-0.056	-0.270
-536.164	224.661	0.073	-0.119
-535.150	-33.134	0.168	0.093
-534.135	-51.546	-0.336	-0.157
-533.121	-2.095	0.133	-0.094
-532.106	42.119	0.157	-0.143
-531.091	101.873	-0.222	0.260
-530.077	23.741	-0.284	0.235
-529.062	-99.253	-0.206	0.052
-528.048	-35.634	-0.487	0.265
-527.033	-118.000	0.282	-0.051
-526.018	-79.002	-0.314	0.107
-525.004	-200.000	-0.014	0.104
-523.989	-65.213	0.154	0.062
-522.975	-39.358	0.228	-0.120
-521.960	227.508	0.213	-0.347
-520.945	-109.745	-0.233	0.049
-519.931	300.646	0.132	0.244
-518.916	25.064	-0.178	-0.148
-517.902	-167.585	0.125	0.005
-516.887	-99.224	-0.116	0.029
-515.872	-118.509	0.389	-0.069
-514.858	-180.920	0.202	-0.004
-513.843	0.615	0.174	0.125
-512.829	417.304	0.089	-0.190
-511.814	800.000	0.084	-0.336
-510.799	-68.005	0.422	-0.165
-509.785	-135.111	-0.347	-0.042
-508.770	4.216	-0.072	-0.053
-507.756	-156.700	-0.147	-0.009
-506.741	-200.000	0.085	0.415
-505.726	86.376	0.176	-0.194
-504.712	122.244	-0.237	-0.296
-503.697	-200.000	-0.004	0.306
-502.683	381.362	-0.108	0.222
-501.668	-200.000	0.012	0.124
-500.653	-109.110	0.632	-0.135
-499.639	717.696	0.046	-0.123
-498.624	-10.279	0.094	-0.062
-497.610	-65.609	0.153	-0.062
-496.595	-111.678	-0.155	-0.031
-495.581	206.288	-0.059	0.091
-494.566	-108.528	0.144	-0.031
-493.551	-200.000	-0.034	-0.181
-492.537	-140.781	-0.353	-0.036
-491.522	-103.950	0.116	-0.027
-490.508	-9.299	-0.171	0.115
-489.493	800.000	0.098	-0.300
-488.478	10.443	-0.305	0.232
-487.464	-171.056	0.224	-0.008
-486.449	800.000	0.110	-0.448
-485.435	-87.180	-0.182	-0.055
-484.420	-200.000	0.019	-0.148
-483.405	390.836	0.146	-0.304
-482.391	-63.497	0.207	0.085
-481.376	246.306	-0.169	0.285
-480.362	128.173	-0.090	0.115
-479.347	9.702	-0.241	-0.183
-478.332	-200.000	-0.024	-0.243
-477.318	-71.363	-0.154	-0.058
-476.303	-121.972	0.397	-0.065
-475.289	-8.961	-0.118	-0.079
-474.274	240.772	-0.041	-0.068
-473.259	29.189	-0.168	0.142
-472.245	-71.379	0.416	0.156
-471.230	-126.709	-0.182	0.027
-470.216	-200.000	-0.002	0.285
-469.201	800.000	0.098	-0.313
-468.186	-88.539	0.305	-0.091
-467.172	-200.000	-0.008	0.149
-466.157	36.870	-0.078	-0.069
-465.143	54.358	0.152	-0.146
-464.128	-36.189	-0.287	0.155
-463.113	45.910	-0.259	0.239
-462.099	-94.454	-0.074	-0.020
-461.084	257.255	-0.062	0.107
-460.070	-86.826	-0.151	-0.046
-459.055	-112.581	-0.248	-0.049
-458.040	150.484	0.078	0.106
-457.026	-5.118	0.181	-0.125
-456.011	-17.333	-0.122	0.077
-454.997	-186.259	0.180	0.003
-453.982	800.000	0.102	-0.318
-452.968	552.021	0.026	0.063
-451.953	-200.000	-0.008	-0.073
-450.938	800.000	0.037	0.103
-449.924	-28.401	-0.124	-0.072
-448.909	-200.000	0.029	-0.526
-447.895	118.289	-0.072	0.089
-446.880	271.248	-0.043	0.075
-445.865	7.356	-0.315	-0.235
-444.851	-200.000	-0.068	-0.299
-443.836	-39.738	-0.182	-0.095
-442.822	-72.132	0.301	-0.112
-441.807	69.421	0.239	0.245
-440.792	800.000	0.038	-0.136
-439.778	77.896	-0.066	0.070
-438.763	-37.991	-0.239	0.127
-437.749	800.000	0.073	0.267
-436.734	800.000	-0.077	0.217
-435.719	343.833	0.119	-0.233
-434.705	-75.997	-0.159	-0.056
-433.690	-131.322	0.402	0.053
-432.676	800.000	0.074	-0.257
-431.661	44.952	0.166	-0.153
-430.646	-16.161	0.052	0.033
-429.632	-200.000	0.002	0.114
-428.617	-14.741	0.346	0.222
-427.603	-200.000	-0.033	0.148
-426.588	161.249	0.241	-0.337
-425.573	-200.000	-0.021	-0.146
-424.559	-119.935	0.293	0.050
-423.544	-81.453	0.191	-0.063
-422.530	197.625	0.091	-0.138
-421.515	-77.422	0.164	-0.057
-420.500	117.703	0.116	0.143
-419.486	314.614	0.157	0.295
-418.471	-102.195	0.140	-0.034
-417.457	800.000	-0.006	0.016
-416.442	63.393	-0.295	0.296
-415.428	12.654	-0.230	-0.177
-414.413	565.233	0.168	-0.406
-413.398	-30.875	0.099	0.056
-412.384	-173.507	0.288	-0.009
-411.369	372.054	0.010	0.020
-410.355	77.671	0.178	0.189
-409.340	359.195	0.070	0.139
-408.325	134.306	0.139	0.179
-407.311	-200.000	0.026	-0.164
-406.296	215.413	0.092	0.146
-405.282	238.888	-0.130	0.215
-404.267	397.065	-0.112	-0.234
-403.252	246.239	0.120	-0.202
-402.238	188.673	-0.133	0.198
-401.223	226.780	0.090	0.146
-400.209	22.732	0.124	0.101
-399.194	273.468	-0.095	-0.167
-398.179	800.000	0.076	-0.216
-397.165	-74.770	-0.083	-0.030
-396.150	-200.000	-0.033	0.207
-395.136	257.092	-0.174	-0.298
-394.121	119.574	0.089	0.110
-393.106	-117.465	-0.225	0.041
-392.092	-200.000	0.003	-0.207
-391.077	-200.000	0.045	0.490
-390.063	-74.811	0.194	-0.070
-389.048	102.722	0.021	0.025
-388.033	-67.023	-0.113	-0.044
-387.019	-1.626	0.229	-0.161
-386.004	-115.144	0.481	0.091
-384.990	800.000	0.067	0.191
-383.975	-200.000	0.007	0.047
-382.960	800.000	-0.106	0.315
-381.946	383.128	-0.066	0.136
-380.931	230.132	0.147	-0.240
-379.917	-200.000	-0.044	-0.449
-378.902	-73.511	-0.138	-0.050
-377.888	-16.317	0.410	-0.259
-376.873	34.926	0.138	-0.121
-375.858	38.341	-0.443	0.393
-374.844	-166.368	-0.381	-0.016
-373.829	-61.237	0.199	-0.083
-372.815	-18.129	0.052	0.033
-371.800	786.044	-0.109	0.298
-370.785	-77.326	0.302	0.104
-369.771	-129.217	0.272	0.038
-368.756	-200.000	0.018	-0.118
-367.742	-111.140	-0.517	0.106
-366.727	10.101	0.281	-0.213
-365.712	-35.431	0.163	0.088
-364.698	-50.766	-0.146	-0.069
-363.683	-109.032	-0.312	-0.066
-362.669	-165.139	-0.391	0.017
-361.654	757.301	-0.118	0.320
-360.639	348.561	0.043	0.085
-359.625	-121.574	-0.343	-0.057
-358.610	-198.698	0.094	-0.001
-357.596	175.407	-0.063	0.091
-356.581	-110.170	-0.095	-0.020
-355.566	42.267	-0.266	-0.241
-354.552	-47.203	-0.135	-0.065
-353.537	-19.390	-0.061	0.038
-352.523	-94.399	-0.228	0.062
-351.508	20.156	0.012	0.010
-350.493	-59.010	-0.194	-0.084
-349.479	85.661	-0.094	0.103
-348.464	-69.053	-0.262	0.101
-347.450	-60.468	0.188	-0.080
-346.435	-128.297	-0.197	-0.028
-345.420	26.143	0.202	0.168
-344.406	-114.690	-0.285	-0.054
-343.391	-72.255	-0.084	-0.031
-342.377	-78.209	-0.195	0.067
-341.362	651.638	-0.059	-0.151
-340.348	-138.972	0.398	-0.043
-339.333	-200.000	0.002	-0.116
-338.318	325.617	-0.051	0.097
-337.304	-94.949	-0.276	-0.074
-336.289	-26.087	-0.079	-0.046
-335.275	159.957	0.061	-0.085
-334.260	-200.000	0.001	-0.115
-333.245	-8.175	0.147	0.099
-332.231	33.362	0.335	0.290
-331.216	211.984	-0.040	0.063
-330.202	-174.137	-0.084	-0.002
-329.187	26.116	0.017	0.014
-328.172	600.164	0.144	-0.355
-327.158	157.517	-0.005	0.006
-326.143	190.627	-0.108	-0.162
-325.129	-30.886	0.381	0.214
-324.114	-31.226	-0.444	0.249
-323.099	800.000	-0.029	0.115
-322.085	248.810	-0.059	0.099
-321.070	-200.000	0.001	-0.068
-320.056	234.613	0.101	-0.165
-319.041	-89.362	-0.577	-0.169
-318.026	229.279	0.016	0.026
-317.012	16.788	-0.277	-0.218
-315.997	91.315	0.141	0.158
-314.983	53.656	-0.285	-0.272
-313.968	-69.579	0.376	-0.143
-312.953	800.000	-0.035	0.100
-311.939	236.575	0.069	-0.113
-310.924	-6.688	0.176	0.119
-309.910	60.783	-0.106	0.105
-308.895	-200.000	-0.036	0.208
-307.880	27.345	0.083	0.069
-306.866	-53.106	0.115	0.052
-305.851	90.778	0.151	-0.168
-304.837	-200.000	-0.018	-0.445
-303.822	66.220	0.034	0.034
-302.807	800.000	0.084	0.321
-301.793	-2.452	-0.294	0.205
-300.778	-200.000	-0.025	0.129
-299.764	-64.871	0.229	0.092
-298.749	148.839	0.099	0.133
-297.735	628.009	-0.208	0.522
-296.720	-43.413	-0.283	0.142
-295.705	93.635	-0.112	0.126
-294.691	-11.853	0.043	-0.028
-293.676	800.000	-0.086	-0.260
-292.662	-169.611	0.294	0.011
-291.647	-164.381	0.377	-0.017
-290.632	291.747	-0.112	0.202
-289.618	737.736	0.092	0.244
-288.603	-49.858	-0.167	0.079
-287.589	800.000	0.040	0.143
-286.574	290.880	0.074	0.133
-285.559	-44.957	-0.175	-0.086
-284.545	-40.273	0.058	0.030
-283.530	-69.734	-0.252	-0.095
-282.516	-200.000	0.029	0.134
-281.501	-12.559	0.045	-0.029
-280.486	-58.317	-0.112	-0.049
-279.472	-22.650	-0.246	-0.148
-278.457	-200.000	-0.030	0.386
-277.443	-67.823	0.318	-0.123
-276.428	43.654	-0.221	-0.201
-275.413	-200.000	-0.001	0.270
-274.399	735.590	-0.155	-0.413
-273.384	572.960	-0.089	-0.216
-272.370	85.491	0.037	-0.040
-271.355	39.567	0.159	0.141
-270.340	748.699	-0.096	-0.258
-269.326	327.494	-0.049	-0.093
-268.311	-71.355	0.101	0.037
-267.297	-20.067	0.237	0.145
-266.282	-5.811	0.355	-0.242
-265.267	91.610	0.150	0.168
-264.253	-82.524	-0.153	0.049
-263.238	800.000	0.053	0.206
-262.224	318.159	0.232	-0.436
-261.209	94.071	0.134	-0.150
-260.195	-7.709	-0.192	0.129
-259.180	-200.000	0.022	-0.136
-258.165	-195.825	0.179	0.001
-257.151	-86.376	-0.259	0.079
-256.136	-97.393	-0.312	0.080
-255.122	315.842	0.096	-0.180
-254.107	-200.000	0.016	0.096
-253.092	-200.000	-0.016	-0.119
-252.078	300.786	0.153	0.280
-251.063	-200.000	0.056	0.246
-250.049	284.072	-0.100	0.178
-249.034	-42.781	-0.290	-0.146
-248.019	27.885	0.094	0.079
-247.005	187.382	0.086	-0.128
-245.990	-200.000	0.004	0.149
-244.976	502.362	0.170	0.390
-243.961	-200.000	-0.008	0.049
-242.946	442.988	0.111	0.242
-241.932	191.823	-0.102	0.152
-240.917	-200.000	-0.021	-0.172
-239.903	-112.967	-0.214	-0.042
-238.888	105.485	0.101	-0.119
-237.873	-124.917	0.553	0.084
-236.859	-148.352	0.312	0.025
-235.844	163.652	0.188	-0.263
-234.830	5.142	0.129	-0.094
-233.815	-200.000	-0.004	-0.276
-232.800	628.237	-0.043	0.107
-231.786	-160.100	0.353	-0.019
-230.771	76.713	-0.241	0.254
-229.757	800.000	-0.128	0.402
-228.742	16.931	0.135	-0.106
-227.727	-31.122	0.082	-0.046
-226.713	-149.088	0.107	0.009
-225.698	-4.575	0.257	-0.176
-224.684	-101.935	-0.443	-0.106
-223.669	489.003	0.178	0.402
-222.655	-1.631	0.277	-0.193
-221.640	176.812	-0.202	0.291
-220.625	800.000	-0.043	0.133
-219.611	-127.099	0.017	-0.002
-218.596	-71.352	-0.178	0.066
-217.582	243.211	-0.198	-0.328
-216.567	29.076	0.230	-0.193
-215.552	306.709	0.024	-0.044
-214.538	138.153	-0.148	0.192
-213.523	-200.000	-0.008	0.223
-212.509	14.883	0.233	0.181
-211.494	292.874	-0.033	0.060
-210.479	168.869	0.047	-0.067
-209.465	-67.260	-0.221	-0.086
-208.450	-53.727	0.220	-0.100
-207.436	-200.000	-0.048	-0.316
-206.421	-86.850	0.119	-0.036
-205.406	-16.511	0.192	-0.120
-204.392	356.126	-0.052	0.102
-203.377	-79.684	-0.422	-0.141
-202.363	-79.082	-0.207	0.069
-201.348	89.279	0.228	-0.251
-200.333	167.843	0.151	-0.213
-199.319	-200.000	0.074	-0.379
-198.304	-200.000	-0.021	0.204
-197.290	57.981	-0.108	-0.105
-196.275	63.577	-0.142	0.142
-195.260	62.960	-0.248	0.246
-194.246	26.386	-0.184	0.152
-193.231	275.597	-0.133	0.234
-192.217	48.177	0.075	-0.070
-191.202	206.195	0.193	0.297
-190.187	166.357	0.064	-0.090
-189.173	63.953	-0.126	0.126
-188.158	-200.000	0.068	0.426
-187.144	277.348	0.181	0.319
-186.129	20.606	-0.056	-0.045
-185.114	800.000	0.063	-0.206
-184.100	-43.013	-0.098	-0.049
-183.085	-16.578	-0.282	0.177
-182.071	-49.339	-0.281	0.133
-181.056	800.000	-0.046	-0.197
-180.042	800.000	0.068	-0.264
-179.027	134.801	0.220	-0.283
-178.012	-200.000	-0.007	0.231
-176.998	-118.308	0.263	0.046
-175.983	-200.000	-0.018	-0.178
-174.969	160.336	0.122	0.168
-173.954	133.971	-0.166	0.212
-172.939	-99.139	0.263	-0.066
-171.925	-15.441	0.278	0.176
-170.910	356.201	0.067	-0.131
-169.896	-72.103	0.280	-0.103
-168.881	60.942	-0.159	0.156
-167.866	-200.000	0.059	0.342
-166.852	-13.214	-0.162	-0.104
-165.837	114.794	-0.198	-0.239
-164.823	81.045	-0.130	0.138
-163.808	-200.000	-0.048	-0.302
-162.793	-29.485	0.313	0.177
-161.779	579.495	-0.057	-0.138
-160.764	399.486	-0.076	-0.158
-159.750	-34.243	-0.260	-0.141
-158.735	489.909	-0.123	-0.278
-157.720	210.319	-0.164	0.254
-156.706	74.865	-0.112	-0.116
-155.691	124.017	0.111	0.137
-154.677	-35.065	0.221	0.119
-153.662	-91.965	0.071	0.020
-152.647	-53.972	0.172	0.077
-151.633	-200.000	0.007	0.235
-150.618	-170.032	0.112	0.004
-149.604	-62.019	-0.217	0.089
-148.589	800.000	0.063	0.190
-147.574	-200.000	0.003	-0.134
-146.560	800.000	-0.097	0.370
-145.545	-1.740	0.360	-0.250
-144.531	-200.000	-0.037	0.168
-143.516	-39.450	0.291	-0.151
-142.502	-21.404	0.163	-0.099
-141.487	-100.047	0.334	-0.082
-140.472	-100.190	-0.200	0.049
-139.458	-113.671	0.297	0.057
-138.443	286.288	-0.230	0.411
-137.429	141.412	0.163	0.213
-136.414	800.000	0.107	0.330
-135.399	523.260	-0.066	0.153
-134.385	71.750	0.132	0.136
-133.370	-148.917	0.275	-0.022
-132.356	-82.666	-0.075	-0.024
-131.341	522.312	0.066	0.152
-130.326	-153.266	-0.016	0.001
-129.312	-35.769	-0.246	-0.131
-128.297	-21.400	-0.094	0.057
-127.283	176.369	-0.110	-0.158
-126.268	362.187	0.067	-0.133
-125.253	-81.633	-0.319	0.103
-124.239	196.473	-0.031	0.046
-123.224	-200.000	0.057	0.249
-122.210	7.697	0.049	-0.036
-121.195	-200.000	-0.008	0.224
-120.180	-36.500	-0.072	0.038
