DTS Sentinel unit serial number:	SN413079Multiplexer serial number:	ORYXHardware model number:	OX4-SRSoftware version number:	ORYX F/W v4.00 Oryx Data Collector v3.7.2.0data status	okinstallation	princeton_trtdifferential loss correction	single-endedforward channel	channel 4reverse channel	N/Adate	2019/09/14time	14:53:35forward acquisition time	60.00reverse acquisition time	0.00gamma	496.2192k internal	0.2291k external	0.2291temperature offset calibration	1.0138default loss term (dB/km)	0.3790temperature slope calibration	1.0000multiplexer offset coefficient	1.0000multiplexer slope coefficient	1.0000fibre end	0.00T internal ref (°C)	39.12T ext. ref 1 (°C)	5.02T ext. ref 2 (°C)	33.94length (m)	temperature (°C)	Stokes	anti-Stokes-747.200	-95.397	-0.239	0.066
-746.185	201.036	0.092	0.144
-745.171	76.714	0.153	-0.167
-744.156	-63.074	0.156	0.066
-743.142	-17.236	0.183	-0.118
-742.127	-1.568	-0.324	0.234
-741.112	173.382	-0.100	-0.148
-740.098	-12.934	-0.277	0.185
-739.083	118.213	-0.235	0.297
-738.069	-200.000	-0.024	0.427
-737.054	-90.609	0.331	-0.098
-736.039	234.585	0.081	-0.137
-735.025	-108.138	0.339	-0.075
-734.010	-101.054	-0.506	-0.127
-732.996	-200.000	0.024	-0.112
-731.981	-4.648	-0.192	0.136
-730.966	125.596	0.067	-0.087
-729.952	-200.000	0.028	-0.136
-728.937	-128.520	-0.371	-0.054
-727.923	31.436	0.124	0.109
-726.908	75.120	-0.011	0.011
-725.894	-11.432	-0.232	0.156
-724.879	231.988	-0.051	0.086
-723.864	-200.000	-0.049	-0.222
-722.850	-200.000	-0.010	-0.168
-721.835	-64.491	-0.053	-0.022
-720.821	-165.544	-0.191	0.008
-719.806	-85.219	-0.129	0.041
-718.791	-200.000	0.068	-0.556
-717.777	-3.808	0.213	-0.151
-716.762	6.212	0.112	0.085
-715.748	223.863	0.034	0.055
-714.733	800.000	-0.061	-0.184
-713.718	188.121	0.114	-0.174
-712.704	445.792	0.151	-0.338
-711.689	-87.869	0.179	-0.055
-710.675	119.501	-0.117	-0.148
-709.660	22.081	-0.188	-0.157
-708.645	-134.257	0.300	0.038
-707.631	-91.070	-0.428	-0.126
-706.616	182.360	0.160	0.240
-705.602	-7.834	-0.208	-0.144
-704.587	246.261	-0.121	-0.208
-703.572	-200.000	-0.000	-0.101
-702.558	289.074	-0.130	-0.241
-701.543	-200.000	-0.058	-0.282
-700.529	-63.192	-0.371	-0.156
-699.514	-74.317	-0.140	-0.052
-698.499	529.580	0.070	0.170
-697.485	792.097	0.026	0.072
-696.470	800.000	-0.021	0.064
-695.456	-200.000	-0.000	-0.128
-694.441	-79.690	-0.108	0.037
-693.426	-81.804	0.281	-0.094
-692.412	-52.615	-0.204	-0.096
-691.397	-200.000	-0.009	-0.342
-690.383	11.155	0.181	0.141
-689.368	192.615	-0.212	-0.327
-688.354	-106.341	-0.085	-0.019
-687.339	-200.000	0.037	-0.404
-686.324	-92.792	-0.303	-0.087
-685.310	39.008	0.070	-0.064
-684.295	-93.554	-0.151	0.043
-683.281	1.733	0.197	-0.145
-682.266	261.268	0.155	0.275
-681.251	452.625	-0.100	-0.226
-680.237	82.117	-0.205	-0.226
-679.222	599.650	0.052	-0.131
-678.208	-38.968	0.097	0.052
-677.193	-170.609	-0.198	0.007
-676.178	-200.000	-0.016	-0.087
-675.164	-200.000	0.017	0.113
-674.149	153.350	0.177	-0.248
-673.135	138.591	-0.037	0.049
-672.120	140.805	0.200	0.270
-671.105	-58.360	0.286	0.127
-670.091	-200.000	-0.016	-0.117
-669.076	-200.000	-0.015	0.146
-668.062	-200.000	-0.068	0.466
-667.047	-96.403	0.068	0.018
-666.032	-19.448	-0.092	-0.058
-665.018	204.373	-0.090	0.142
-664.003	-62.252	0.165	-0.070
-662.989	184.471	0.075	-0.114
-661.974	-200.000	-0.079	-0.416
-660.959	10.914	0.269	-0.210
-659.945	-144.017	-0.340	-0.033
-658.930	-200.000	0.071	0.346
-657.916	800.000	-0.056	-0.176
-656.901	800.000	-0.042	-0.139
-655.886	-36.035	0.081	0.045
-654.872	242.227	-0.081	-0.138
-653.857	85.715	-0.168	-0.189
-652.843	106.922	-0.093	-0.112
-651.828	-140.822	0.114	-0.012
-650.814	-10.761	0.097	0.066
-649.799	62.588	0.086	-0.087
-648.784	39.524	0.155	0.141
-647.770	-58.726	0.083	-0.037
-646.755	364.525	-0.059	-0.121
-645.741	-18.769	-0.260	-0.165
-644.726	14.110	-0.360	-0.286
-643.711	-74.575	-0.248	-0.091
-642.697	-0.835	-0.078	0.056
-641.682	68.125	0.128	0.133
-640.668	800.000	0.125	0.387
-639.653	545.718	-0.046	-0.113
-638.638	-200.000	-0.005	-0.189
-637.624	-200.000	0.051	-0.292
-636.609	29.470	0.228	0.197
-635.595	-30.505	-0.267	-0.154
-634.580	-150.082	0.145	-0.012
-633.565	-92.274	-0.130	0.037
-632.551	-200.000	0.005	0.206
-631.536	-85.904	0.368	-0.116
-630.522	-70.187	0.113	-0.044
-629.507	-98.908	0.326	-0.084
-628.492	144.945	-0.105	0.144
-627.478	-62.393	0.294	0.125
-626.463	-36.209	0.335	0.184
-625.449	328.336	0.133	0.260
-624.434	302.388	-0.218	-0.411
-623.419	-200.000	-0.005	0.076
-622.405	-200.000	-0.412	-0.000
-621.390	-87.226	0.017	0.005
-620.376	38.926	0.073	0.067
-619.361	-8.219	0.240	-0.165
-618.346	-200.000	0.026	0.124
-617.332	-111.154	-0.252	-0.053
-616.317	800.000	-0.145	-0.532
-615.303	559.398	-0.059	-0.145
-614.288	-200.000	0.026	0.200
-613.273	-155.760	0.205	0.013
-612.259	800.000	0.032	-0.127
-611.244	258.903	-0.089	0.156
-610.230	-136.810	-0.302	-0.035
-609.215	-200.000	-0.004	0.040
-608.201	52.649	0.341	-0.332
-607.186	-15.898	-0.265	0.172
-606.171	-200.000	-0.031	-0.384
-605.157	-200.000	0.007	-0.041
-604.142	27.308	-0.174	0.149
-603.128	-127.674	0.126	-0.019
-602.113	246.249	-0.149	0.256
-601.098	290.343	-0.080	0.148
-600.084	39.877	-0.062	-0.056
-599.069	-132.260	-0.368	0.049
-598.055	524.513	0.222	-0.532
-597.040	133.114	0.216	0.284
-596.025	-200.000	0.007	-0.126
-595.011	-86.171	-0.384	-0.120
-593.996	-98.841	-0.111	-0.029
-592.982	-200.000	-0.051	-0.327
-591.967	467.725	-0.100	0.229
-590.952	91.460	0.202	-0.231
-589.938	24.960	0.158	-0.133
-588.923	-64.918	0.095	0.039
-587.909	-79.952	0.269	0.092
-586.894	12.881	-0.195	-0.154
-585.879	-200.000	-0.022	-0.151
-584.865	-135.700	0.315	0.038
-583.850	-113.610	-0.218	-0.043
-582.836	191.215	-0.067	-0.102
-581.821	-134.259	0.260	0.033
-580.806	-111.064	0.201	0.042
-579.792	-85.593	-0.181	-0.057
-578.777	-68.154	0.070	0.028
-577.763	-79.876	-0.043	0.015
-576.748	800.000	-0.028	0.118
-575.733	-19.209	-0.179	0.113
-574.719	213.847	-0.265	-0.426
-573.704	469.941	-0.129	-0.295
-572.690	-24.337	0.052	0.032
-571.675	-65.016	0.179	0.074
-570.661	35.287	-0.075	0.066
-569.646	-200.000	-0.062	0.476
-568.631	-164.652	-0.167	-0.008
-567.617	-26.898	-0.181	0.108
-566.602	369.219	0.048	0.098
-565.588	-200.000	0.005	-0.048
-564.573	699.227	-0.071	0.191
-563.558	-14.407	-0.207	-0.136
-562.544	109.767	0.216	-0.263
-561.529	170.803	0.044	-0.064
-560.515	-109.470	-0.382	0.082
-559.500	74.881	-0.211	-0.226
-558.485	178.212	0.197	-0.293
-557.471	-61.244	0.172	0.074
-556.456	-74.836	-0.170	-0.062
-555.442	-200.000	0.004	-0.068
-554.427	265.583	0.082	0.146
-553.412	-11.437	-0.242	0.162
-552.398	-64.762	0.124	-0.051
-551.383	0.361	0.146	-0.106
-550.369	-200.000	0.032	-0.281
-549.354	-112.044	0.140	-0.029
-548.339	800.000	0.057	-0.161
-547.325	-60.120	-0.228	0.099
-546.310	-91.812	0.047	-0.013
-545.296	85.336	-0.097	-0.108
-544.281	152.105	0.099	0.137
-543.266	159.885	-0.089	-0.126
-542.252	4.313	-0.297	0.221
-541.237	-121.239	0.212	-0.036
-540.223	64.805	0.159	0.163
-539.208	174.009	-0.078	-0.115
-538.193	-142.365	-0.538	0.054
-537.179	-200.000	0.020	0.350
-536.164	-76.595	0.215	0.077
-535.150	800.000	-0.054	0.183
-534.135	264.785	0.040	-0.070
-533.121	800.000	0.095	-0.299
-532.106	-200.000	-0.011	0.170
-531.091	27.833	0.114	0.098
-530.077	-9.746	-0.208	-0.141
-529.062	-200.000	0.005	0.179
-528.048	-63.283	-0.444	-0.186
-527.033	198.576	-0.197	-0.307
-526.018	-200.000	0.018	0.157
-525.004	169.375	0.055	-0.080
-523.989	-123.982	-0.096	0.015
-522.975	17.394	-0.220	-0.177
-521.960	265.680	0.110	0.194
-520.945	239.633	-0.064	0.108
-519.931	-200.000	0.008	0.135
-518.916	-83.359	-0.668	-0.218
-517.902	800.000	-0.041	-0.149
-516.887	185.036	-0.111	0.167
-515.872	-200.000	-0.010	-0.427
-514.858	-31.240	0.099	0.057
-513.843	-115.360	0.473	-0.091
-512.829	800.000	-0.044	0.134
-511.814	316.566	-0.046	0.089
-510.799	800.000	0.009	-0.037
-509.785	-104.964	0.132	0.031
-508.770	-200.000	-0.042	-0.361
-507.756	105.846	0.417	0.500
-506.741	2.290	-0.218	0.160
-505.726	-40.879	0.066	0.035
-504.712	84.711	0.076	-0.085
-503.697	55.217	-0.231	-0.227
-502.683	109.778	0.186	0.226
-501.668	-200.000	-0.018	-0.154
-500.653	-68.858	-0.492	0.193
-499.639	60.564	-0.244	0.246
-498.624	-12.539	0.258	0.171
-497.610	545.202	0.043	-0.104
-496.595	-94.079	0.202	0.056
-495.581	-99.096	-0.191	-0.049
-494.566	-98.025	-0.251	-0.066
-493.551	466.607	-0.008	-0.018
-492.537	800.000	-0.117	0.362
-491.522	789.448	0.115	0.320
-490.508	-116.337	0.416	0.078
-489.493	98.544	0.186	0.217
-488.478	-118.043	0.316	0.057
-487.464	800.000	0.066	0.188
-486.449	-11.902	-0.227	0.151
-485.435	594.653	-0.022	0.056
-484.420	-200.000	0.036	-0.175
-483.405	-137.857	0.198	0.022
-482.391	34.666	-0.189	-0.168
-481.376	286.380	-0.136	-0.249
-480.362	-122.137	0.017	-0.003
-479.347	487.528	0.114	0.263
-478.332	800.000	-0.068	-0.222
-477.318	-77.254	0.176	0.062
-476.303	137.421	0.135	-0.179
-475.289	4.963	0.198	0.148
-474.274	641.608	0.068	0.176
-473.259	-94.908	0.265	0.073
-472.245	-40.543	-0.176	0.092
-471.230	-200.000	0.066	0.444
-470.216	-10.609	-0.116	0.078
-469.201	128.403	0.086	0.111
-468.186	85.733	-0.173	0.193
-467.172	-81.835	0.225	-0.075
-466.157	147.085	-0.087	0.118
-465.143	-79.633	0.230	0.078
-464.128	10.181	0.048	-0.037
-463.113	-96.008	-0.175	-0.047
-462.099	-27.830	-0.219	0.129
-461.084	-11.254	-0.143	0.096
-460.070	242.189	0.230	0.390
-459.055	550.909	0.097	0.236
-458.040	4.370	-0.062	0.046
-457.026	-89.508	-0.229	0.068
-456.011	-200.000	0.009	0.136
-454.997	-4.357	0.206	0.144
-453.982	162.156	0.093	-0.132
-452.968	242.142	0.119	-0.201
-451.953	-200.000	0.038	-0.473
-450.938	-1.659	-0.317	0.226
-449.924	166.778	-0.061	0.087
-448.909	-200.000	-0.016	-0.387
-447.895	154.455	-0.222	-0.308
-446.880	-76.354	0.102	0.037
-445.865	-167.391	0.274	0.011
-444.851	122.901	-0.167	0.212
-443.836	203.266	-0.217	-0.340
-442.822	-50.784	-0.147	-0.070
-441.807	33.817	0.139	0.123
-440.792	13.862	-0.052	0.041
-439.778	168.703	0.222	0.321
-438.763	105.489	0.098	-0.117
-437.749	-200.000	-0.003	-0.031
-436.734	-44.954	0.082	0.042
-435.719	-156.895	-0.221	-0.014
-434.705	-60.010	0.239	-0.103
-433.690	106.638	0.132	0.158
-432.676	-98.181	-0.117	0.030
-431.661	109.938	0.173	0.210
-430.646	-63.841	-0.182	-0.075
-429.632	57.325	0.016	0.016
-428.617	-167.900	-0.141	-0.006
-427.603	0.470	0.025	-0.018
-426.588	26.607	-0.197	-0.167
-425.573	-12.058	-0.195	0.129
-424.559	-41.792	0.281	0.146
-423.544	800.000	-0.056	0.183
-422.530	688.279	0.048	-0.126
-421.515	800.000	-0.102	0.324
-420.500	-183.124	-0.326	0.006
-419.486	297.067	-0.091	-0.170
-418.471	17.546	0.019	0.015
-417.457	435.783	-0.096	-0.210
-416.442	54.144	-0.146	-0.142
-415.428	-7.997	0.199	0.136
-414.413	-14.062	-0.092	0.060
-413.398	776.933	-0.053	-0.146
-412.384	800.000	0.095	-0.352
-411.369	-50.377	-0.436	-0.208
-410.355	11.693	0.122	0.094
-409.340	800.000	-0.070	-0.221
-408.325	324.236	0.162	-0.313
-407.311	-200.000	-0.002	0.037
-406.296	-107.738	0.196	0.043
-405.282	642.460	-0.071	-0.182
-404.267	72.373	-0.150	0.158
-403.252	-185.261	-0.035	-0.001
-402.238	-110.897	0.142	-0.030
-401.223	117.315	0.102	-0.126
-400.209	-37.893	0.388	-0.208
-399.194	208.680	0.164	-0.260
-398.179	-200.000	0.011	0.072
-397.165	222.345	0.081	-0.132
-396.150	127.848	-0.052	0.067
-395.136	-11.669	0.111	-0.074
-394.121	437.500	0.094	0.207
-393.106	-161.088	0.467	0.025
-392.092	800.000	0.018	-0.057
-391.077	-180.441	0.012	-0.000
-390.063	-148.132	-0.203	0.017
-389.048	-181.834	-0.156	0.003
-388.033	720.308	-0.036	0.097
-387.019	237.434	-0.075	-0.126
-386.004	-91.047	-0.289	0.084
-384.990	-95.819	-0.439	0.118
-383.975	800.000	-0.071	-0.296
-382.960	-88.288	-0.316	-0.095
-381.946	102.792	-0.234	-0.277
-380.931	-127.757	0.246	-0.036
-379.917	550.003	-0.105	-0.254
-378.902	78.436	0.083	0.089
-377.888	54.215	0.138	-0.134
-376.873	105.088	0.081	-0.096
-375.858	-129.508	0.254	0.035
-374.844	-7.893	-0.295	-0.201
-373.829	-137.075	0.113	-0.013
-372.815	-34.414	0.235	0.130
-371.800	-65.208	0.252	-0.103
-370.785	-200.000	0.027	-0.270
-369.771	-17.228	0.214	0.136
-368.756	-119.458	-0.195	-0.034
-367.742	-98.495	0.039	-0.010
-366.727	152.041	-0.253	0.348
-365.712	93.764	0.032	0.037
-364.698	-17.076	0.359	-0.229
-363.683	-25.712	0.271	-0.161
-362.669	135.268	0.206	-0.270
-361.654	-36.768	-0.099	-0.054
-360.639	355.221	-0.148	0.296
-359.625	563.996	-0.060	0.146
-358.610	-200.000	0.046	0.239
-357.596	-200.000	0.004	0.079
-356.581	-200.000	0.055	0.243
-355.566	800.000	0.094	-0.363
-354.552	-200.000	-0.014	-0.107
-353.537	85.710	0.179	0.198
-352.523	62.105	0.146	0.147
-351.508	97.631	-0.140	0.162
-350.493	89.603	-0.060	0.068
-349.479	-200.000	0.006	0.304
-348.464	47.382	-0.171	-0.160
-347.450	-171.277	-0.629	-0.021
-346.435	-172.216	-0.077	-0.002
-345.420	793.767	0.097	-0.270
-344.406	129.397	0.091	0.117
-343.391	-85.639	0.384	0.120
-342.377	-16.547	0.318	-0.203
-341.362	36.365	-0.128	-0.114
-340.348	111.554	0.186	0.226
-339.333	-41.951	0.106	0.055
-338.318	-103.312	0.262	0.062
-337.304	8.269	-0.093	0.070
-336.289	-200.000	-0.031	0.325
-335.275	72.442	0.168	-0.177
-334.260	-65.834	0.106	-0.043
-333.245	-200.000	-0.004	-0.124
-332.231	-8.198	0.149	-0.101
-331.216	-200.000	0.024	0.261
-330.202	-38.650	0.301	0.160
-329.187	-27.343	0.221	-0.129
-328.172	169.296	0.008	-0.011
-327.158	86.757	0.122	-0.136
-326.143	-30.829	-0.147	0.084
-325.129	-57.869	0.062	0.027
-324.114	-66.501	-0.322	-0.129
-323.099	405.436	-0.223	-0.475
-322.085	359.346	0.121	-0.245
-321.070	-200.000	-0.040	-0.225
-320.056	100.850	-0.028	-0.033
-319.041	131.968	0.219	-0.284
-318.026	-74.055	-0.154	-0.056
-317.012	-15.289	0.067	-0.043
-315.997	502.069	-0.047	0.108
-314.983	-200.000	-0.003	0.083
-313.968	-133.928	0.107	0.013
-312.953	-149.196	0.213	-0.017
-311.939	78.242	-0.153	0.164
-310.924	-200.000	-0.018	-0.252
-309.910	-200.000	-0.021	-0.151
-308.895	393.235	-0.127	0.265
-307.880	-93.592	-0.131	0.037
-306.866	13.995	-0.269	0.210
-305.851	91.117	0.124	-0.140
-304.837	429.942	-0.034	0.074
-303.822	211.757	0.098	-0.155
-302.807	53.189	-0.405	0.390
-301.793	-200.000	-0.026	0.183
-300.778	800.000	0.040	0.169
-299.764	75.745	0.124	-0.132
-298.749	-200.000	0.030	0.234
-297.735	-91.033	-0.109	0.031
-296.720	-14.313	-0.057	0.037
-295.705	-200.000	0.027	-0.240
-294.691	-96.048	-0.049	-0.013
-293.676	34.824	0.153	-0.135
-292.662	800.000	0.062	-0.202
-291.647	154.279	-0.078	0.108
-290.632	517.832	0.045	0.106
-289.618	-200.000	0.004	-0.018
-288.603	-200.000	-0.024	0.256
-287.589	176.858	0.035	-0.052
-286.574	440.429	-0.068	-0.150
-285.559	-200.000	-0.235	0.001
-284.545	-200.000	0.014	0.080
-283.530	57.951	0.134	-0.132
-282.516	-114.919	-0.091	0.017
-281.501	4.807	0.138	-0.102
-280.486	-113.855	-0.141	-0.028
-279.472	22.133	-0.183	0.150
-278.457	139.639	0.169	-0.224
-277.443	588.828	-0.021	-0.052
-276.428	176.477	0.119	-0.174
-275.413	-140.240	0.271	0.029
-274.399	-12.683	0.264	0.173
-273.384	-200.000	-0.099	-0.485
-272.370	-70.428	-0.151	-0.057
-271.355	800.000	-0.057	-0.168
-270.340	-200.000	0.019	-0.312
-269.326	-200.000	-0.000	0.046
-268.311	-121.622	-0.241	0.040
-267.297	-200.000	-0.010	0.054
-266.282	567.025	0.123	0.299
-265.267	-54.009	0.365	0.167
-264.253	153.906	-0.103	-0.142
-263.238	-85.155	0.375	0.118
-262.224	275.582	0.144	0.257
-261.209	42.072	-0.124	-0.113
-260.195	-78.883	-0.090	0.031
-259.180	74.273	0.173	0.183
-258.165	178.763	0.153	0.224
-257.151	8.029	-0.110	0.083
-256.136	800.000	-0.042	0.161
-255.122	169.358	0.219	0.314
-254.107	298.213	-0.158	0.291
-253.092	310.369	0.040	-0.076
-252.078	-10.606	-0.368	-0.245
-251.063	-47.403	-0.246	-0.120
-250.049	-185.749	-0.263	-0.004
-249.034	-200.000	0.003	-0.108
-248.019	-130.051	0.076	0.010
-247.005	-28.490	0.130	0.075
-245.990	-60.079	-0.141	0.061
-244.976	-200.000	0.001	-0.125
-243.961	-200.000	0.034	-0.160
-242.946	165.597	0.096	-0.136
-241.932	31.304	0.309	0.266
-240.917	223.075	-0.128	0.207
-239.903	-116.205	-0.249	0.046
-238.888	800.000	-0.072	-0.230
-237.873	-8.939	-0.159	-0.107
-236.859	567.603	0.014	0.034
-235.844	-78.306	0.272	-0.094
-234.830	85.901	0.056	-0.061
-233.815	740.724	0.060	0.161
-232.800	-41.765	0.226	0.116
-231.786	-73.058	-0.372	-0.137
-230.771	196.315	-0.161	-0.247
-229.757	-142.693	-0.163	-0.016
-228.742	-4.904	0.242	0.167
-227.727	144.762	-0.115	0.154
-226.713	29.117	0.217	0.185
-225.698	-26.563	0.184	0.108
-224.684	-15.715	0.127	0.081
-223.669	-200.000	0.011	0.339
-222.655	-38.634	0.151	-0.080
-221.640	24.566	-0.195	0.162
-220.625	-200.000	0.040	-0.182
-219.611	-35.745	-0.127	-0.069
-218.596	-42.333	0.048	-0.024
-217.582	800.000	-0.037	0.121
-216.567	129.023	-0.114	0.146
-215.552	-200.000	-0.020	-0.266
-214.538	-144.569	0.165	0.015
-213.523	511.090	-0.072	0.169
-212.509	-100.698	0.287	-0.071
-211.494	-145.188	0.088	-0.008
-210.479	800.000	-0.069	0.277
-209.465	-56.100	0.154	0.069
-208.450	99.745	-0.221	0.256
-207.436	-13.750	0.117	0.076
-206.421	226.341	0.059	0.096
-205.406	13.484	0.227	-0.176
-204.392	170.594	-0.179	0.256
-203.377	-38.754	0.416	-0.220
-202.363	-200.000	-0.001	0.083
-201.348	-65.224	-0.200	0.081
-200.333	4.101	0.242	0.178
-199.319	10.983	-0.094	-0.072
-198.304	69.541	0.065	-0.067
-197.290	-94.945	-0.454	-0.123
-196.275	508.124	0.057	-0.133
-195.260	79.141	-0.033	0.036
-194.246	-80.025	0.037	0.012
-193.231	45.128	0.135	-0.125
-192.217	-147.011	-0.163	-0.014
-191.202	-140.745	-0.081	-0.008
-190.187	-200.000	-0.004	-0.092
-189.173	-36.396	-0.126	-0.068
-188.158	7.621	-0.039	-0.029
-187.144	27.960	-0.169	-0.143
-186.129	-118.105	0.410	0.073
-185.114	-200.000	0.035	0.284
-184.100	110.114	0.142	0.170
-183.085	76.932	0.329	-0.350
-182.071	-200.000	0.039	-0.301
-181.056	-178.830	-0.219	-0.005
-180.042	45.873	-0.089	0.082
-179.027	57.047	-0.135	0.132
-178.012	800.000	-0.054	0.169
-176.998	39.453	0.213	0.192
-175.983	800.000	0.077	0.251
-174.969	-115.098	0.192	-0.037
-173.954	24.659	-0.117	0.097
-172.939	800.000	0.090	0.363
-171.925	-120.636	0.079	0.013
-170.910	-27.638	-0.159	0.093
-169.896	800.000	-0.036	0.117
-168.881	340.214	-0.156	0.305
-167.866	106.670	-0.353	0.419
-166.852	-200.000	0.048	-0.367
-165.837	-200.000	0.013	-0.323
-164.823	800.000	0.045	-0.162
-163.808	-116.557	0.275	-0.051
-162.793	-200.000	-0.009	-0.083
-161.779	14.422	-0.190	0.149
-160.764	-18.905	0.331	-0.206
-159.750	-128.537	-0.152	0.022
-158.735	-129.625	0.070	-0.010
-157.720	-5.217	0.083	-0.057
-156.706	-200.000	0.008	-0.097
-155.691	311.612	-0.047	-0.088
-154.677	-89.418	-0.227	-0.067
-153.662	-200.000	0.020	-0.150
-152.647	-164.555	-0.262	0.012
-151.633	203.501	0.050	0.078
-150.618	-57.658	0.121	-0.053
-149.604	356.680	0.109	-0.217
-148.589	267.755	-0.100	-0.175
-147.574	377.486	-0.183	-0.375
-146.560	-125.703	-0.402	0.061
-145.545	-65.918	0.127	0.051
-144.531	800.000	-0.035	-0.100
-143.516	34.099	0.259	0.226
-142.502	-64.743	0.091	0.037
-141.487	-200.000	0.015	-0.157
-140.472	-65.298	0.080	0.032
-139.458	596.361	0.053	-0.131
-138.443	-82.436	0.031	0.010
-137.429	265.636	-0.048	0.084
-136.414	-200.000	0.002	0.095
-135.399	800.000	0.087	0.283
-134.385	-39.756	-0.087	-0.046
-133.370	-22.139	0.082	-0.050
-132.356	-116.532	-0.125	-0.023
-131.341	-57.181	-0.183	-0.081
-130.326	-200.000	0.043	0.204
-129.312	510.975	-0.074	0.172
-128.297	277.493	0.091	-0.162
-127.283	-7.009	0.137	0.093
-126.268	91.581	0.029	0.032
-125.253	-62.396	0.335	-0.139
-124.239	8.018	0.473	0.355
-123.224	86.613	0.162	-0.179
-122.210	388.247	0.050	-0.104
-121.195	-96.176	-0.228	0.061
-120.180	800.000	0.084	0.264
