DTS Sentinel unit serial number:	SN413079Multiplexer serial number:	ORYXHardware model number:	OX4-SRSoftware version number:	ORYX F/W v4.00 Oryx Data Collector v3.7.2.0data status	okinstallation	princeton_trtdifferential loss correction	single-endedforward channel	channel 4reverse channel	N/Adate	2019/09/12time	10:15:11forward acquisition time	60.00reverse acquisition time	0.00gamma	496.2192k internal	0.2295k external	0.2295temperature offset calibration	1.0070default loss term (dB/km)	0.3790temperature slope calibration	1.0000multiplexer offset coefficient	1.0000multiplexer slope coefficient	1.0000fibre end	0.00T internal ref (°C)	36.52T ext. ref 1 (°C)	1.85T ext. ref 2 (°C)	33.92length (m)	temperature (°C)	Stokes	anti-Stokes-747.200	-200.000	-0.053	-0.340
-746.185	-61.681	-0.263	-0.113
-745.171	-111.138	-0.176	-0.037
-744.156	178.087	0.105	0.156
-743.142	447.732	0.111	0.249
-742.127	800.000	0.086	0.350
-741.112	93.245	0.272	0.315
-740.098	-16.886	-0.217	0.140
-739.083	317.455	0.155	0.300
-738.069	-200.000	0.049	0.537
-737.054	-150.980	0.164	-0.013
-736.039	125.382	-0.282	0.363
-735.025	37.983	0.220	-0.200
-734.010	255.579	0.087	0.153
-732.996	-151.933	-0.219	-0.016
-731.981	85.814	0.195	-0.219
-730.966	-80.868	-0.264	-0.089
-729.952	183.807	0.105	0.158
-728.937	25.498	-0.012	0.010
-727.923	-102.340	0.148	-0.036
-726.908	-18.664	-0.195	-0.124
-725.894	-200.000	-0.007	-0.370
-724.879	5.722	-0.261	-0.197
-723.864	800.000	0.054	-0.199
-722.850	-116.278	-0.227	-0.043
-721.835	77.068	0.056	0.061
-720.821	-200.000	-0.023	-0.232
-719.806	-87.336	-0.198	0.061
-718.791	-149.454	0.219	0.018
-717.777	800.000	-0.089	-0.262
-716.762	198.389	0.080	0.125
-715.748	-32.819	-0.416	-0.236
-714.733	-200.000	0.022	-0.113
-713.718	800.000	0.107	-0.310
-712.704	-150.539	-0.234	0.018
-711.689	17.208	0.208	0.168
-710.675	199.147	0.191	-0.299
-709.660	-73.077	-0.233	-0.087
-708.645	-127.115	-0.169	-0.025
-707.631	-24.237	-0.182	0.111
-706.616	82.743	-0.099	0.109
-705.602	-200.000	0.060	-0.347
-704.587	21.178	-0.521	0.432
-703.572	-89.533	0.110	-0.033
-702.558	-195.427	0.203	-0.002
-701.543	-109.106	-0.239	0.052
-700.529	51.205	0.240	0.233
-699.514	-107.987	0.112	-0.025
-698.499	-10.341	0.088	0.060
-697.485	800.000	0.062	-0.185
-696.470	-24.260	0.444	0.270
-695.456	164.601	-0.108	0.155
-694.441	250.068	-0.139	0.240
-693.426	-200.000	0.007	0.113
-692.412	-66.136	-0.230	-0.093
-691.397	800.000	-0.051	0.209
-690.383	221.083	-0.127	-0.208
-689.368	340.185	0.217	-0.431
-688.354	-66.681	-0.269	-0.109
-687.339	26.950	0.138	-0.118
-686.324	-118.129	0.070	-0.013
-685.310	-42.279	0.167	-0.087
-684.295	359.352	-0.123	-0.251
-683.281	273.291	-0.139	-0.251
-682.266	-97.258	-0.202	-0.054
-681.251	347.681	0.190	-0.381
-680.237	108.160	-0.134	-0.163
-679.222	-200.000	0.032	0.185
-678.208	-200.000	-0.049	0.233
-677.193	117.994	0.131	-0.165
-676.178	600.870	0.112	0.283
-675.164	18.267	0.298	0.243
-674.149	-95.539	-0.290	-0.079
-673.135	-154.762	0.242	0.016
-672.120	359.165	-0.255	0.520
-671.105	-148.900	0.190	0.016
-670.091	-200.000	0.000	0.121
-669.076	800.000	0.017	0.071
-668.062	-126.326	-0.196	-0.030
-667.047	280.110	-0.075	-0.136
-666.032	-200.000	-0.030	0.189
-665.018	-150.154	-0.070	0.006
-664.003	327.362	0.064	-0.124
-662.989	-135.534	-0.256	0.031
-661.974	-200.000	-0.065	0.323
-660.959	-76.376	-0.331	-0.119
-659.945	-132.299	-0.066	-0.009
-658.930	236.710	0.156	-0.264
-657.916	37.319	0.281	-0.254
-656.901	-200.000	-0.067	-0.342
-655.886	668.802	-0.033	-0.086
-654.872	172.143	-0.164	-0.241
-653.857	-200.000	0.050	-0.301
-652.843	-142.768	0.249	0.025
-651.828	551.907	-0.098	-0.240
-650.814	-19.676	-0.025	-0.015
-649.799	-200.000	0.030	-0.306
-648.784	122.343	-0.194	-0.247
-647.770	-36.418	0.122	-0.067
-646.755	142.562	0.141	-0.191
-645.741	-83.711	0.190	0.062
-644.726	800.000	-0.099	0.285
-643.711	-200.000	0.004	0.111
-642.697	-200.000	-0.012	-0.152
-641.682	-138.234	0.213	-0.024
-640.668	782.947	-0.147	0.411
-639.653	-86.838	-0.426	-0.132
-638.638	365.899	0.072	0.149
-637.624	210.632	0.109	0.174
-636.609	-200.000	0.056	0.327
-635.595	800.000	-0.051	0.152
-634.580	408.587	-0.107	-0.230
-633.565	-88.472	0.120	-0.036
-632.551	29.644	-0.207	-0.180
-631.536	-200.000	-0.056	-0.452
-630.522	800.000	-0.041	0.168
-629.507	382.932	0.090	-0.188
-628.492	545.224	-0.095	-0.230
-627.478	-31.596	-0.202	0.116
-626.463	-200.000	-0.054	0.000
-625.449	127.494	0.136	-0.176
-624.434	-200.000	-0.027	-0.152
-623.419	-200.000	-0.028	-0.259
-622.405	-200.000	0.006	-0.517
-621.390	-200.000	0.028	0.219
-620.376	-15.608	-0.127	-0.082
-619.361	24.835	-0.182	0.153
-618.346	-0.381	-0.291	0.210
-617.332	45.483	-0.201	-0.188
-616.317	-120.121	0.468	-0.081
-615.303	-104.625	0.162	0.038
-614.288	-61.456	-0.054	0.023
-613.273	518.397	-0.130	0.309
-612.259	-200.000	0.007	0.174
-611.244	529.344	0.121	-0.290
-610.230	6.852	-0.287	0.217
-609.215	-60.383	0.233	-0.101
-608.201	-200.000	-0.015	0.143
-607.186	-200.000	0.000	-0.027
-606.171	40.244	0.162	-0.148
-605.157	87.940	0.125	-0.141
-604.142	-200.000	0.060	-0.280
-603.128	131.896	-0.079	-0.103
-602.113	56.016	0.148	0.146
-601.098	-121.660	0.072	0.012
-600.084	159.140	0.219	-0.310
-599.069	59.559	-0.293	-0.293
-598.055	-103.956	0.179	0.042
-597.040	-41.770	0.311	0.162
-596.025	144.494	-0.165	-0.225
-595.011	347.078	-0.104	-0.209
-593.996	281.659	-0.090	-0.164
-592.982	-200.000	-0.013	0.181
-591.967	497.108	0.079	0.184
-590.952	311.928	-0.047	-0.089
-589.938	-1.183	0.229	-0.165
-588.923	-38.933	-0.068	0.037
-587.909	-30.929	0.172	-0.099
-586.894	680.212	-0.107	-0.282
-585.879	631.838	0.112	0.289
-584.865	89.861	-0.038	0.043
-583.850	41.988	0.145	-0.133
-582.836	-99.359	0.490	0.125
-581.821	51.418	0.045	0.043
-580.806	-130.846	0.087	0.012
-579.792	800.000	0.066	0.240
-578.777	-67.527	0.270	0.108
-577.763	800.000	0.016	-0.058
-576.748	158.751	0.193	0.273
-575.733	91.078	-0.296	0.338
-574.719	-200.000	-0.047	0.278
-573.704	95.967	-0.169	-0.196
-572.690	-60.667	-0.081	-0.035
-571.675	146.677	0.026	-0.036
-570.661	-200.000	-0.008	-0.230
-569.646	800.000	-0.057	-0.192
-568.631	-77.807	-0.168	-0.059
-567.617	658.972	0.035	-0.091
-566.602	-35.031	0.184	-0.102
-565.588	-33.380	-0.204	-0.115
-564.573	618.130	0.079	0.202
-563.558	-2.875	0.277	-0.197
-562.544	-138.236	-0.114	0.013
-561.529	-200.000	-0.036	0.192
-560.515	-200.000	0.061	0.336
-559.500	108.412	0.037	0.045
-558.485	-60.236	-0.161	0.069
-557.471	84.634	0.031	0.035
-556.456	-93.590	-0.285	0.080
-555.442	-24.474	0.252	-0.152
-554.427	191.160	0.082	-0.125
-553.412	33.207	0.108	-0.095
-552.398	153.312	-0.165	0.229
-551.383	-57.850	0.149	0.066
-550.369	29.940	-0.104	-0.090
-549.354	-57.096	-0.289	0.129
-548.339	-200.000	0.031	-0.196
-547.325	-50.278	0.164	0.079
-546.310	550.215	-0.028	-0.067
-545.296	184.851	-0.265	-0.398
-544.281	67.640	-0.059	-0.061
-543.266	-103.049	0.174	0.042
-542.252	800.000	0.044	0.142
-541.237	-33.601	-0.047	0.026
-540.223	800.000	0.035	-0.126
-539.208	146.652	0.089	-0.121
-538.193	251.650	0.087	-0.151
-537.179	10.376	-0.063	-0.049
-536.164	-85.372	0.303	0.096
-535.150	57.870	0.276	0.273
-534.135	-33.181	-0.134	-0.075
-533.121	708.421	-0.039	-0.106
-532.106	-94.904	0.352	0.097
-531.091	147.452	0.122	-0.167
-530.077	-55.953	-0.266	0.120
-529.062	-116.997	0.282	0.052
-528.048	-200.000	0.012	-0.386
-527.033	-200.000	-0.009	0.080
-526.018	-200.000	-0.009	0.388
-525.004	-112.549	-0.343	0.069
-523.989	186.604	-0.065	-0.098
-522.975	-166.546	-0.282	0.012
-521.960	-200.000	0.008	-0.299
-520.945	403.761	0.137	0.293
-519.931	-43.485	-0.068	-0.035
-518.916	-200.000	0.008	0.192
-517.902	-62.242	-0.320	-0.135
-516.887	584.973	-0.121	-0.300
-515.872	-59.193	-0.171	0.075
-514.858	800.000	-0.030	0.129
-513.843	800.000	0.043	0.162
-512.829	-80.151	0.275	0.093
-511.814	-124.348	-0.090	0.014
-510.799	-90.706	0.222	0.065
-509.785	-200.000	0.061	-0.384
-508.770	357.843	-0.165	-0.333
-507.756	-200.000	0.005	-0.194
-506.741	21.435	0.216	0.178
-505.726	135.742	-0.063	0.083
-504.712	-56.845	0.188	-0.084
-503.697	-85.574	0.070	0.022
-502.683	10.629	-0.329	0.254
-501.668	236.784	-0.170	0.285
-500.653	44.837	0.145	0.135
-499.639	-200.000	-0.014	-0.162
-498.624	-18.445	-0.222	0.140
-497.610	-200.000	-0.006	0.145
-496.595	-78.025	0.072	-0.025
-495.581	-37.661	-0.256	-0.138
-494.566	-146.524	-0.273	-0.024
-493.551	566.911	0.091	0.223
-492.537	-21.821	0.188	0.116
-491.522	800.000	-0.080	-0.245
-490.508	-60.019	-0.244	-0.105
-489.493	-73.550	0.268	-0.099
-488.478	9.927	-0.039	-0.030
-487.464	-200.000	-0.001	-0.113
-486.449	-31.148	0.281	0.161
-485.435	-85.482	-0.117	0.037
-484.420	-157.276	0.386	-0.024
-483.405	120.439	-0.027	0.034
-482.391	418.114	0.231	0.500
-481.376	-126.520	-0.249	-0.037
-480.362	-155.158	0.295	-0.019
-479.347	-61.392	0.082	-0.035
-478.332	-45.676	-0.260	-0.130
-477.318	138.159	-0.085	0.112
-476.303	329.117	-0.190	-0.370
-475.289	0.351	0.146	0.105
-474.274	20.803	0.091	-0.075
-473.259	-97.076	0.301	0.080
-472.245	-200.000	-0.005	0.129
-471.230	105.389	0.063	-0.075
-470.216	-39.500	-0.442	-0.234
-469.201	-98.687	0.103	0.026
-468.186	495.089	-0.015	0.035
-467.172	-130.922	0.538	-0.073
-466.157	-40.233	-0.348	-0.183
-465.143	-15.113	-0.183	0.119
-464.128	-40.625	0.277	-0.145
-463.113	-185.856	-0.282	0.004
-462.099	-127.113	0.105	0.015
-461.084	128.495	-0.175	-0.225
-460.070	-200.000	0.018	0.110
-459.055	-200.000	-0.002	-0.182
-458.040	320.705	0.150	0.289
-457.026	-25.178	0.111	0.067
-456.011	-7.351	-0.243	0.166
-454.997	-200.000	-0.003	-0.028
-453.982	11.417	0.140	0.108
-452.968	11.365	0.283	-0.219
-451.953	-158.328	0.188	-0.011
-450.938	-74.251	-0.422	-0.154
-449.924	800.000	-0.200	0.620
-448.909	-130.728	0.062	0.008
-447.895	800.000	0.037	0.132
-446.880	180.510	0.158	0.235
-445.865	-80.450	0.113	-0.038
-444.851	433.572	-0.108	-0.238
-443.836	800.000	0.076	-0.328
-442.822	-200.000	0.007	-0.281
-441.807	800.000	-0.040	-0.133
-440.792	535.671	-0.118	0.282
-439.778	-110.246	-0.322	0.068
-438.763	-200.000	0.062	0.402
-437.749	-47.097	-0.398	0.196
-436.734	-39.587	-0.231	-0.122
-435.719	18.462	0.076	0.061
-434.705	-200.000	0.019	-0.255
-433.690	-200.000	-0.036	0.187
-432.676	-22.633	-0.096	-0.059
-431.661	-6.106	0.421	-0.290
-430.646	-24.855	0.112	-0.067
-429.632	122.678	-0.102	-0.129
-428.617	356.557	0.029	-0.058
-427.603	-100.289	-0.386	0.097
-426.588	800.000	-0.115	0.434
-425.573	-26.151	-0.194	-0.115
-424.559	-200.000	0.009	0.180
-423.544	209.691	0.078	-0.123
-422.530	-78.267	-0.090	-0.031
-421.515	-200.000	-0.034	0.352
-420.500	-56.613	0.189	0.084
-419.486	60.969	0.150	-0.150
-418.471	60.020	-0.032	-0.032
-417.457	225.658	0.147	-0.240
-416.442	-114.391	-0.229	-0.045
-415.428	-200.000	-0.034	0.260
-414.413	-200.000	0.010	0.356
-413.398	261.914	-0.029	0.051
-412.384	182.864	-0.154	0.230
-411.369	27.800	0.187	0.159
-410.355	471.602	-0.079	-0.180
-409.340	274.203	-0.116	-0.206
-408.325	-108.408	-0.526	0.114
-407.311	-163.346	-0.414	0.020
-406.296	-200.000	0.023	-0.130
-405.282	23.931	-0.147	-0.122
-404.267	800.000	0.021	-0.066
-403.252	800.000	-0.020	0.078
-402.238	145.144	0.322	0.434
-401.223	-61.774	0.094	0.040
-400.209	-53.784	-0.327	0.150
-399.194	-200.000	-0.023	0.199
-398.179	-25.348	-0.065	0.039
-397.165	340.880	-0.026	0.052
-396.150	-200.000	0.322	-0.000
-395.136	-101.633	0.134	-0.033
-394.121	712.426	0.052	-0.138
-393.106	-200.000	0.038	0.190
-392.092	-166.018	-0.122	-0.005
-391.077	-41.047	-0.192	0.100
-390.063	394.088	-0.035	0.074
-389.048	-197.011	0.262	-0.002
-388.033	-200.000	-0.060	-0.287
-387.019	61.938	-0.151	-0.152
-386.004	-197.947	0.181	-0.001
-384.990	-200.000	-0.001	0.219
-383.975	3.523	-0.234	-0.172
-382.960	335.767	-0.113	-0.220
-381.946	-144.632	-0.074	0.007
-380.931	800.000	0.123	-0.501
-379.917	27.773	0.094	0.079
-378.902	-162.477	0.316	0.016
-377.888	239.422	-0.186	-0.311
-376.873	15.131	-0.201	-0.159
-375.858	725.736	0.049	0.133
-374.844	-79.805	-0.124	0.042
-373.829	789.209	-0.113	0.314
-372.815	341.460	0.051	0.100
-371.800	161.285	-0.198	-0.279
-370.785	302.671	0.105	-0.195
-369.771	-200.000	0.045	0.207
-368.756	461.821	-0.124	0.279
-367.742	-127.225	0.168	-0.025
-366.727	496.990	0.148	0.343
-365.712	545.310	0.141	0.338
-364.698	94.750	-0.183	0.210
-363.683	300.785	0.054	-0.101
-362.669	800.000	-0.035	0.102
-361.654	-200.000	-0.063	0.338
-360.639	207.487	-0.060	0.095
-359.625	-33.641	-0.266	-0.148
-358.610	-26.449	0.306	-0.181
-357.596	414.094	-0.021	-0.045
-356.581	-13.126	-0.225	-0.147
-355.566	-12.841	-0.081	0.053
-354.552	-49.347	0.137	0.066
-353.537	-200.000	-0.059	-0.447
-352.523	-200.000	-0.002	-0.323
-351.508	-123.021	0.291	0.047
-350.493	-106.183	-0.156	-0.035
-349.479	25.641	-0.083	-0.069
-348.464	279.751	0.137	-0.247
-347.450	-200.000	-0.014	-0.242
-346.435	216.893	-0.034	-0.055
-345.420	800.000	-0.031	-0.134
-344.406	800.000	0.056	0.214
-343.391	800.000	0.018	-0.058
-342.377	54.113	0.053	-0.051
-341.362	-41.313	0.097	0.050
-340.348	-131.205	-0.240	-0.032
-339.333	84.363	0.307	0.338
-338.318	-70.827	0.224	0.085
-337.304	-130.980	0.039	-0.005
-336.289	27.581	-0.127	-0.107
-335.275	800.000	0.050	-0.206
-334.260	-75.432	-0.186	-0.066
-333.245	800.000	0.077	-0.285
-332.231	-200.000	-0.013	-0.161
-331.216	-89.312	-0.191	0.057
-330.202	-200.000	-0.064	-0.325
-329.187	-151.107	-0.297	0.022
-328.172	-138.978	0.282	-0.031
-327.158	-66.325	-0.233	0.093
-326.143	96.953	-0.084	0.097
-325.129	-47.873	0.179	0.087
-324.114	131.052	0.219	0.283
-323.099	-51.966	0.336	0.157
-322.085	156.589	-0.155	-0.215
-321.070	-31.874	0.036	-0.020
-320.056	800.000	-0.043	-0.168
-319.041	40.693	-0.167	-0.151
-318.026	-33.926	-0.044	0.025
-317.012	-70.404	-0.320	0.122
-315.997	-45.735	0.241	0.120
-314.983	193.757	-0.142	0.216
-313.968	-28.214	-0.159	-0.092
-312.953	-91.441	0.463	0.133
-311.939	45.702	0.126	-0.117
-310.924	50.575	-0.191	0.181
-309.910	-9.617	0.201	0.135
-308.895	94.766	0.050	-0.057
-307.880	-30.277	-0.200	0.114
-306.866	-96.608	0.240	-0.064
-305.851	-127.275	-0.127	-0.019
-304.837	-200.000	-0.024	-0.117
-303.822	-200.000	-0.055	0.249
-302.807	-121.877	-0.209	0.035
-301.793	276.701	0.112	-0.200
-300.778	-39.678	-0.191	-0.100
-299.764	800.000	-0.106	0.339
-298.749	-200.000	-0.038	0.390
-297.735	-190.524	-0.308	-0.003
-296.720	157.621	0.044	-0.061
-295.705	-52.124	-0.055	0.026
-294.691	537.898	-0.154	-0.367
-293.676	-20.807	-0.370	-0.228
-292.662	-123.727	0.307	0.049
-291.647	-129.990	0.567	0.078
-290.632	-114.633	0.095	0.018
-289.618	-65.382	-0.169	-0.068
-288.603	-36.553	0.361	-0.195
-287.589	613.818	0.091	0.228
-286.574	-124.705	0.194	-0.030
-285.559	504.061	0.081	-0.189
-284.545	-1.633	0.121	-0.086
-283.530	269.353	-0.092	-0.162
-282.516	228.560	0.054	0.088
-281.501	-154.659	0.228	-0.015
-280.486	102.779	0.073	0.086
-279.472	89.958	0.031	-0.035
-278.457	710.127	-0.092	0.246
-277.443	-17.860	-0.217	0.136
-276.428	-0.742	0.245	-0.175
-275.413	297.322	-0.155	-0.285
-274.399	170.960	-0.076	-0.110
-273.384	-48.611	0.228	0.110
-272.370	-200.000	-0.033	-0.246
-271.355	-200.000	0.000	0.232
-270.340	-127.933	-0.116	0.017
-269.326	-4.004	0.163	-0.113
-268.311	-137.142	-0.247	0.028
-267.297	800.000	-0.026	-0.113
-266.282	318.590	-0.152	0.289
-265.267	800.000	-0.052	0.184
-264.253	-56.131	-0.059	0.026
-263.238	-200.000	0.024	0.163
-262.224	24.795	0.104	0.086
-261.209	110.856	-0.138	-0.166
-260.195	-162.203	0.415	-0.021
-259.180	-54.770	-0.240	0.109
-258.165	22.772	-0.323	0.266
-257.151	72.531	-0.080	-0.083
-256.136	24.822	0.173	-0.144
-255.122	-128.125	0.134	0.019
-254.107	-168.966	0.163	-0.006
-253.092	-200.000	-0.119	0.000
-252.078	494.080	0.103	-0.236
-251.063	-105.150	-0.319	0.073
-250.049	115.059	0.154	-0.188
-249.034	-131.985	-0.336	0.044
-248.019	-200.000	-0.010	0.140
-247.005	800.000	0.119	0.434
-245.990	-129.795	0.239	-0.033
-244.976	137.377	0.084	-0.111
-243.961	-200.000	0.023	0.242
-242.946	492.056	0.069	0.159
-241.932	-153.542	0.211	0.015
-240.917	-200.000	0.011	0.080
-239.903	800.000	-0.106	-0.359
-238.888	800.000	0.037	-0.111
-237.873	800.000	-0.038	0.136
-236.859	-10.456	0.249	-0.166
-235.844	800.000	-0.058	-0.169
-234.830	-67.485	0.179	0.070
-233.815	-190.533	0.073	-0.001
-232.800	-200.000	-0.003	0.138
-231.786	109.181	-0.179	0.214
-230.771	800.000	-0.029	0.094
-229.757	44.178	-0.310	0.285
-228.742	-121.380	-0.146	-0.024
-227.727	-57.445	-0.097	0.043
-226.713	40.691	-0.054	-0.049
-225.698	-59.302	-0.105	0.045
-224.684	-127.536	0.392	-0.057
-223.669	270.759	0.090	-0.159
-222.655	-120.699	-0.240	0.041
-221.640	800.000	-0.008	-0.030
-220.625	-56.161	0.072	-0.032
-219.611	800.000	-0.030	0.086
-218.596	18.725	-0.091	0.073
-217.582	-200.000	0.021	0.210
-216.567	-200.000	0.003	-0.041
-215.552	-120.024	0.200	0.034
-214.538	-79.554	0.226	-0.076
-213.523	711.342	0.048	0.128
-212.509	-119.393	-0.124	0.022
-211.494	-126.639	0.176	-0.026
-210.479	-120.356	0.456	-0.078
-209.465	-179.749	-0.304	-0.007
-208.450	-87.027	0.329	-0.100
-207.436	-200.000	0.078	-0.396
-206.421	-132.899	0.272	-0.035
-205.406	59.807	0.305	-0.301
-204.392	800.000	0.086	-0.299
-203.377	-200.000	-0.006	0.311
-202.363	-200.000	0.004	-0.197
-201.348	-200.000	0.056	0.313
-200.333	33.691	-0.213	0.185
-199.319	800.000	0.081	0.243
-198.304	-118.851	0.155	0.027
-197.290	-93.379	-0.235	0.065
-196.275	-200.000	0.000	0.117
-195.260	-17.665	0.163	0.103
-194.246	17.780	-0.168	-0.133
-193.231	800.000	0.079	-0.246
-192.217	-137.415	0.176	0.020
-191.202	223.105	0.104	0.168
-190.187	-200.000	-0.041	0.318
-189.173	777.224	-0.099	0.271
-188.158	41.308	-0.170	-0.153
-187.144	-17.432	-0.077	0.048
-186.129	-200.000	0.033	0.195
-185.114	-50.155	-0.349	-0.165
-184.100	-63.552	0.347	-0.143
-183.085	-80.681	0.340	-0.113
-182.071	-200.000	0.023	-0.285
-181.056	-38.865	-0.247	-0.130
-180.042	-118.970	0.292	-0.051
-179.027	-113.960	0.137	0.027
-178.012	800.000	0.114	0.437
-176.998	19.291	-0.308	-0.247
-175.983	35.797	-0.103	0.091
-174.969	176.467	0.128	0.186
-173.954	-200.000	0.024	0.141
-172.939	-43.385	-0.160	0.081
-171.925	-48.610	-0.186	0.089
-170.910	68.656	0.056	0.057
-169.896	34.316	-0.207	0.180
-168.881	-38.996	0.195	-0.103
-167.866	-43.870	-0.316	-0.159
-166.852	484.614	0.064	0.147
-165.837	-90.031	-0.228	-0.066
-164.823	-55.982	0.280	-0.125
-163.808	-91.111	-0.126	-0.036
-162.793	-200.000	0.028	0.140
-161.779	-200.000	0.024	-0.284
-160.764	-40.866	-0.172	0.089
-159.750	800.000	0.092	-0.288
-158.735	787.901	0.076	0.207
-157.720	48.988	-0.054	0.050
-156.706	-200.000	-0.010	0.126
-155.691	-124.600	-0.326	0.050
-154.677	222.259	-0.120	-0.193
-153.662	-147.609	-0.077	0.006
-152.647	-143.779	-0.125	-0.012
-151.633	21.810	0.257	-0.209
-150.618	150.445	0.019	0.026
-149.604	62.385	0.291	-0.290
-148.589	440.940	0.175	-0.382
-147.574	220.745	-0.067	0.107
-146.560	202.959	0.140	0.216
-145.545	-90.822	0.278	-0.080
-144.531	-54.720	0.029	-0.013
-143.516	97.605	-0.116	0.133
-142.502	-200.000	-0.007	0.081
-141.487	-200.000	0.014	0.272
-140.472	-164.019	0.076	0.004
-139.458	123.390	-0.078	0.097
-138.443	800.000	0.022	-0.092
-137.429	-191.440	-0.183	0.002
-136.414	336.223	0.162	0.313
-135.399	-200.000	0.018	0.121
-134.385	-200.000	0.029	0.225
-133.370	-200.000	-0.023	0.393
-132.356	800.000	-0.035	-0.143
-131.341	127.679	0.277	-0.351
-130.326	82.900	0.066	0.071
-129.312	-31.343	0.226	0.127
-128.297	84.864	0.182	-0.199
-127.283	-190.269	-0.088	-0.001
-126.268	17.499	-0.214	0.170
-125.253	-140.602	-0.092	-0.010
-124.239	206.236	-0.093	-0.144
-123.224	154.715	0.095	-0.130
-122.210	-170.660	0.276	-0.010
