DTS Sentinel unit serial number:	SN413079Multiplexer serial number:	ORYXHardware model number:	OX4-SRSoftware version number:	ORYX F/W v4.00 Oryx Data Collector v3.7.2.0data status	okinstallation	princeton_trtdifferential loss correction	single-endedforward channel	channel 4reverse channel	N/Adate	2019/09/14time	06:57:35forward acquisition time	60.00reverse acquisition time	0.00gamma	496.2192k internal	0.2324k external	0.2324temperature offset calibration	1.0137default loss term (dB/km)	0.3790temperature slope calibration	1.0000multiplexer offset coefficient	1.0000multiplexer slope coefficient	1.0000fibre end	0.00T internal ref (°C)	26.22T ext. ref 1 (°C)	3.44T ext. ref 2 (°C)	21.00length (m)	temperature (°C)	Stokes	anti-Stokes-747.200	54.389	-0.048	0.046
-746.185	179.827	0.182	0.269
-745.171	-31.335	-0.421	0.239
-744.156	-18.650	0.260	0.164
-743.142	-200.000	0.031	0.252
-742.127	117.583	0.181	0.225
-741.112	102.828	0.062	0.073
-740.098	800.000	0.109	-0.373
-739.083	-62.741	0.067	0.028
-738.069	-126.879	0.247	-0.037
-737.054	-162.182	-0.146	0.007
-736.039	211.426	0.126	-0.200
-735.025	-200.000	0.191	0.000
-734.010	-162.979	-0.304	-0.015
-732.996	539.827	-0.126	-0.303
-731.981	-200.000	-0.035	0.221
-730.966	800.000	0.002	0.006
-729.952	-20.930	0.114	-0.071
-728.937	-58.935	-0.111	-0.048
-727.923	-1.519	0.230	-0.163
-726.908	108.585	-0.403	0.486
-725.894	-76.933	-0.310	-0.109
-724.879	380.387	0.112	0.232
-723.864	103.441	-0.140	0.166
-722.850	47.949	-0.239	0.225
-721.835	23.262	-0.180	0.150
-720.821	649.466	0.033	-0.084
-719.806	62.387	-0.236	0.238
-718.791	-200.000	-0.063	-0.311
-717.777	22.999	-0.181	0.150
-716.762	-78.114	-0.128	0.044
-715.748	-30.345	0.215	-0.123
-714.733	-200.000	-0.024	-0.106
-713.718	350.458	-0.227	-0.452
-712.704	-200.000	0.033	-0.287
-711.689	12.171	-0.172	-0.133
-710.675	-109.850	0.365	0.077
-709.660	-38.996	0.063	-0.033
-708.645	-29.749	0.252	-0.145
-707.631	-79.764	-0.160	0.054
-706.616	-14.946	-0.112	0.073
-705.602	-137.756	0.344	0.039
-704.587	-50.225	-0.268	-0.128
-703.572	-61.848	0.223	-0.094
-702.558	-200.000	0.018	0.290
-701.543	-69.338	-0.151	-0.059
-700.529	139.328	0.193	0.256
-699.514	-130.626	-0.203	-0.028
-698.499	-121.972	0.095	0.016
-697.485	-200.000	0.027	0.162
-696.470	59.772	0.184	0.183
-695.456	449.515	0.168	0.372
-694.441	800.000	0.065	0.211
-693.426	-106.169	0.227	-0.051
-692.412	502.622	-0.121	0.281
-691.397	-46.017	0.177	0.088
-690.383	470.972	-0.046	0.104
-689.368	383.990	0.048	-0.100
-688.354	-26.485	-0.281	0.166
-687.339	139.030	-0.017	-0.023
-686.324	-73.897	-0.063	0.023
-685.310	18.640	0.350	-0.282
-684.295	451.967	-0.047	0.104
-683.281	-200.000	0.020	0.174
-682.266	100.474	-0.138	-0.162
-681.251	26.947	0.234	0.198
-680.237	-48.117	-0.138	0.067
-679.222	-53.151	0.146	0.068
-678.208	653.982	-0.033	-0.085
-677.193	-47.855	-0.024	-0.012
-676.178	-200.000	-0.029	-0.155
-675.164	-200.000	-0.015	-0.101
-674.149	-200.000	-0.018	-0.084
-673.135	-200.000	-0.047	-0.446
-672.120	118.749	-0.057	0.071
-671.105	800.000	0.010	-0.030
-670.091	-77.131	-0.157	0.055
-669.076	800.000	0.042	0.120
-668.062	-93.027	-0.207	0.058
-667.047	-88.424	0.122	0.037
-666.032	-200.000	-0.064	-0.366
-665.018	-95.912	0.145	-0.039
-664.003	17.869	-0.220	-0.177
-662.989	-13.872	0.115	0.075
-661.974	164.904	-0.154	0.218
-660.959	124.008	0.108	0.136
-659.945	-104.062	-0.064	0.015
-658.930	-171.793	0.219	0.007
-657.916	-25.630	0.207	-0.123
-656.901	379.464	0.157	-0.323
-655.886	-138.682	-0.150	0.017
-654.872	800.000	0.057	0.182
-653.857	-200.000	0.031	0.291
-652.843	-27.488	0.120	0.070
-651.828	-153.109	0.450	-0.032
-650.814	-178.375	-0.264	0.006
-649.799	-200.000	0.028	0.235
-648.784	203.279	-0.102	0.159
-647.770	-149.099	0.308	0.025
-646.755	-69.617	0.265	-0.102
-645.741	125.260	0.240	-0.304
-644.726	800.000	-0.018	0.079
-643.711	25.192	-0.164	0.137
-642.697	54.863	0.082	-0.079
-641.682	800.000	0.037	0.147
-640.668	-200.000	0.064	0.319
-639.653	103.439	-0.191	-0.225
-638.638	-200.000	0.020	0.127
-637.624	175.943	0.172	0.251
-636.609	-154.767	-0.103	-0.007
-635.595	43.819	0.151	-0.139
-634.580	-36.166	0.205	0.111
-633.565	354.717	-0.196	0.393
-632.551	-26.639	-0.253	0.149
-631.536	-39.841	0.157	0.082
-630.522	-200.000	-0.029	0.141
-629.507	98.379	-0.178	-0.206
-628.492	-200.000	-0.164	-0.001
-627.478	20.945	-0.369	-0.301
-626.463	-77.148	-0.148	-0.052
-625.449	-200.000	-0.260	0.000
-624.434	-139.844	0.147	0.016
-623.419	160.909	0.164	0.231
-622.405	6.203	-0.262	0.195
-621.390	-200.000	0.025	-0.157
-620.376	-60.957	0.385	0.163
-619.361	-155.010	-0.340	-0.022
-618.346	-80.591	0.340	-0.114
-617.332	-143.817	-0.245	0.023
-616.317	-60.367	0.211	0.090
-615.303	239.923	0.321	0.537
-614.288	-101.269	-0.329	0.081
-613.273	549.258	0.055	0.132
-612.259	-150.338	-0.307	-0.024
-611.244	-102.099	-0.205	0.050
-610.230	80.742	-0.026	-0.029
-609.215	9.472	0.241	0.183
-608.201	-121.552	-0.104	-0.017
-607.186	-200.000	-0.012	-0.054
-606.171	-74.257	-0.016	0.006
-605.157	46.006	-0.223	-0.207
-604.142	648.130	0.053	0.136
-603.128	-200.000	0.013	0.072
-602.113	-110.822	0.255	0.053
-601.098	23.015	0.050	-0.042
-600.084	112.087	0.112	-0.136
-599.069	-109.851	-0.361	0.076
-598.055	12.237	0.119	-0.092
-597.040	-118.738	-0.149	0.026
-596.025	331.277	0.127	-0.246
-595.011	800.000	0.026	-0.082
-593.996	46.955	0.236	-0.220
-592.982	34.616	-0.032	0.028
-591.967	6.027	0.233	-0.173
-590.952	230.142	0.087	-0.142
-589.938	-75.751	-0.204	-0.073
-588.923	371.785	-0.195	0.398
-587.909	-73.358	-0.103	0.038
-586.894	7.080	0.267	0.199
-585.879	-200.000	0.001	-0.174
-584.865	63.657	-0.022	0.022
-583.850	-116.992	-0.146	0.027
-582.836	182.924	0.133	-0.197
-581.821	-7.003	0.263	0.179
-580.806	140.176	-0.078	0.103
-579.792	278.522	-0.027	-0.048
-578.777	-96.018	-0.202	-0.054
-577.763	423.967	-0.007	0.016
-576.748	-70.163	-0.317	-0.121
-575.733	52.763	0.207	0.198
-574.719	278.275	-0.091	0.162
-573.704	800.000	-0.125	-0.372
-572.690	-200.000	0.019	-0.093
-571.675	381.249	0.090	-0.185
-570.661	-200.000	-0.054	-0.236
-569.646	-83.989	-0.135	-0.043
-568.631	-16.145	-0.244	-0.156
-567.617	-41.797	-0.222	0.114
-566.602	-151.638	0.362	0.027
-565.588	-200.000	-0.096	0.534
-564.573	-119.356	0.297	0.052
-563.558	787.163	0.096	-0.264
-562.544	58.426	-0.233	-0.230
-561.529	471.766	-0.084	-0.190
-560.515	-200.000	-0.024	0.131
-559.500	285.189	0.099	-0.179
-558.485	24.991	0.256	-0.213
-557.471	-161.362	-0.127	-0.007
-556.456	396.348	-0.168	0.351
-555.442	-31.597	-0.195	-0.110
-554.427	276.614	-0.014	-0.025
-553.412	-136.126	0.140	-0.016
-552.398	-4.996	-0.138	-0.095
-551.383	-200.000	-0.031	-0.324
-550.369	54.053	-0.097	0.093
-549.354	800.000	0.107	0.388
-548.339	800.000	-0.047	0.146
-547.325	-67.781	0.114	-0.045
-546.310	-200.000	-0.006	0.137
-545.296	708.376	-0.085	-0.224
-544.281	171.309	0.078	0.112
-543.266	96.085	-0.187	-0.214
-542.252	267.731	0.124	-0.218
-541.237	-166.791	-0.186	0.008
-540.223	-200.000	0.037	-0.194
-539.208	-200.000	-0.023	-0.148
-538.193	-200.000	-0.013	-0.186
-537.179	800.000	-0.101	0.329
-536.164	412.656	0.070	-0.149
-535.150	-28.164	0.137	-0.079
-534.135	665.853	-0.037	0.095
-533.121	800.000	-0.074	-0.284
-532.106	-35.947	-0.185	0.100
-531.091	-120.709	0.292	-0.049
-530.077	242.302	-0.066	0.111
-529.062	124.034	0.112	-0.140
-528.048	-200.000	0.000	-0.054
-527.033	61.503	0.143	-0.142
-526.018	47.619	0.150	-0.140
-525.004	-172.109	0.068	0.002
-523.989	72.221	0.147	-0.153
-522.975	34.381	-0.357	0.312
-521.960	188.403	0.104	0.155
-520.945	-95.723	0.175	-0.047
-519.931	-45.829	0.232	0.115
-518.916	800.000	0.055	0.162
-517.902	185.278	-0.196	-0.291
-516.887	-113.874	0.124	-0.024
-515.872	-143.842	0.238	0.022
-514.858	-126.284	-0.022	0.003
-513.843	360.597	0.119	0.239
-512.829	-88.497	0.046	0.014
-511.814	-200.000	-0.034	-0.212
-510.799	137.547	-0.100	0.131
-509.785	493.240	0.040	-0.092
-508.770	-13.478	0.080	0.052
-507.756	218.682	-0.131	0.209
-506.741	-5.860	-0.300	-0.205
-505.726	-200.000	0.083	-0.393
-504.712	202.171	0.087	-0.134
-503.697	50.804	0.022	0.021
-502.683	-51.959	0.059	-0.027
-501.668	136.092	-0.148	-0.193
-500.653	-56.192	0.057	0.025
-499.639	277.645	0.073	-0.130
-498.624	332.369	-0.139	0.269
-497.610	32.476	-0.178	0.154
-496.595	-111.299	-0.278	0.057
-495.581	-200.000	0.018	0.391
-494.566	14.176	0.139	0.108
-493.551	661.298	0.097	0.251
-492.537	-28.078	0.139	-0.081
-491.522	-99.379	-0.324	-0.082
-490.508	24.611	0.267	-0.221
-489.493	197.479	-0.132	-0.202
-488.478	9.128	-0.435	-0.328
-487.464	-53.446	0.215	-0.098
-486.449	328.152	-0.159	0.304
-485.435	-200.000	0.043	0.308
-484.420	-142.709	-0.091	0.009
-483.405	-60.495	-0.090	0.038
-482.391	800.000	-0.121	-0.350
-481.376	-134.948	0.202	0.024
-480.362	-200.000	-0.034	-0.295
-479.347	35.476	-0.277	-0.243
-478.332	29.276	-0.088	-0.075
-477.318	800.000	-0.045	0.129
-476.303	-200.000	-0.001	0.248
-475.289	-200.000	0.036	-0.171
-474.274	645.188	-0.070	-0.179
-473.259	-70.070	0.124	-0.047
-472.245	-66.675	-0.289	-0.114
-471.230	-200.000	0.033	-0.151
-470.216	-106.037	0.167	0.038
-469.201	-67.432	-0.081	-0.032
-468.186	355.323	-0.081	0.161
-467.172	-25.743	0.085	0.050
-466.157	-93.270	0.157	-0.043
-465.143	-54.271	0.100	0.045
-464.128	5.950	0.280	0.207
-463.113	32.131	0.129	0.111
-462.099	-40.251	-0.330	0.171
-461.084	-72.134	-0.087	-0.032
-460.070	58.327	-0.160	0.157
-459.055	-135.800	-0.049	0.006
-458.040	29.277	0.193	-0.164
-457.026	-171.185	-0.085	-0.003
-456.011	-64.722	0.389	0.158
-454.997	640.130	0.142	0.362
-453.982	-32.028	0.386	-0.216
-452.968	-108.828	0.207	0.044
-451.953	305.145	-0.076	0.142
-450.938	39.753	-0.390	-0.349
-449.924	-200.000	-0.006	0.178
-448.909	-108.559	0.031	-0.007
-447.895	-200.000	0.006	0.252
-446.880	-11.580	-0.274	-0.180
-445.865	728.157	-0.126	-0.336
-444.851	51.367	0.316	-0.300
-443.836	685.333	-0.044	0.114
-442.822	443.379	-0.037	-0.082
-441.807	800.000	-0.010	0.029
-440.792	-200.000	0.004	-0.112
-439.778	-38.129	0.157	-0.083
-438.763	-200.000	0.039	0.170
-437.749	-200.000	-0.045	-0.207
-436.734	-57.507	0.452	-0.198
-435.719	53.318	0.009	0.009
-434.705	-114.751	-0.192	0.037
-433.690	-200.000	0.022	-0.183
-432.676	-85.539	-0.814	0.253
-431.661	-200.000	0.011	0.088
-430.646	-200.000	0.019	-0.435
-429.632	299.321	0.241	-0.442
-428.617	138.211	0.023	0.030
-427.603	-2.234	-0.177	0.124
-426.588	-200.000	0.035	-0.292
-425.573	192.130	0.080	0.121
-424.559	-200.000	0.000	0.371
-423.544	800.000	0.033	-0.095
-422.530	63.940	-0.140	0.140
-421.515	-101.987	0.312	0.075
-420.500	23.316	0.198	0.162
-419.486	80.859	0.203	-0.218
-418.471	-132.662	0.299	0.038
-417.457	-109.106	0.095	-0.020
-416.442	548.180	-0.081	0.193
-415.428	-107.683	-0.296	0.064
-414.413	219.377	0.020	-0.032
-413.398	800.000	-0.044	-0.122
-412.384	-200.000	0.032	0.149
-411.369	-200.000	0.018	0.226
-410.355	-77.308	-0.254	0.088
-409.340	800.000	-0.062	0.219
-408.325	-200.000	-0.067	0.312
-407.311	800.000	0.049	-0.157
-406.296	-70.505	0.212	0.080
-405.282	619.285	-0.023	0.058
-404.267	-2.785	-0.093	0.065
-403.252	800.000	0.063	-0.173
-402.238	87.271	-0.090	-0.099
-401.223	-33.591	0.088	0.048
-400.209	518.078	0.044	0.102
-399.194	86.718	-0.305	-0.335
-398.179	-165.959	0.194	0.008
-397.165	9.219	-0.170	-0.128
-396.150	536.571	0.120	0.284
-395.136	263.850	0.129	-0.224
-394.121	-188.979	0.152	-0.002
-393.106	-61.753	-0.151	0.063
-392.092	-156.187	-0.507	0.032
-391.077	-121.978	0.110	-0.018
-390.063	76.546	-0.120	0.127
-389.048	-200.000	0.012	0.120
-388.033	165.756	0.153	-0.216
-387.019	-66.246	0.161	-0.064
-386.004	-200.000	0.054	0.412
-384.990	-86.776	-0.131	-0.040
-383.975	-28.743	-0.430	0.246
-382.960	17.067	-0.205	-0.162
-381.946	452.880	0.059	0.131
-380.931	147.115	-0.098	0.131
-379.917	-200.000	0.016	-0.134
-378.902	46.984	0.089	0.082
-377.888	14.858	0.186	-0.145
-376.873	188.233	-0.053	0.078
-375.858	194.268	0.211	0.318
-374.844	-59.414	-0.146	-0.062
-373.829	0.699	0.063	-0.045
-372.815	800.000	-0.101	0.296
-371.800	-82.223	0.292	0.095
-370.785	-200.000	0.000	-0.073
-369.771	180.207	0.279	-0.407
-368.756	-120.433	0.221	-0.037
-367.742	-159.865	0.124	0.007
-366.727	526.941	-0.112	-0.262
-365.712	-72.553	-0.199	-0.073
-364.698	-31.798	0.379	-0.211
-363.683	-108.117	0.304	0.065
-362.669	-115.870	-0.183	0.034
-361.654	-34.202	0.241	-0.132
-360.639	84.418	0.029	0.032
-359.625	317.044	0.120	0.225
-358.610	-52.215	-0.257	-0.118
-357.596	-142.121	0.490	-0.048
-356.581	266.744	0.104	-0.181
-355.566	182.518	-0.083	-0.122
-354.552	-138.563	0.125	-0.014
-353.537	-75.024	-0.130	0.046
-352.523	-121.552	0.135	0.022
-351.508	203.757	0.185	0.285
-350.493	28.865	-0.096	-0.081
-349.479	233.735	-0.115	-0.189
-348.464	800.000	-0.184	-0.522
-347.450	225.770	-0.148	-0.239
-346.435	-13.135	0.156	0.101
-345.420	-200.000	-0.037	-0.351
-344.406	347.047	-0.108	-0.211
-343.391	-200.000	-0.011	0.273
-342.377	-52.343	0.073	-0.033
-341.362	800.000	-0.204	-0.577
-340.348	84.283	-0.189	0.206
-339.333	-61.871	0.061	0.025
-338.318	-200.000	-0.032	-0.244
-337.304	-108.958	0.121	0.026
-336.289	139.109	0.079	-0.104
-335.275	800.000	-0.044	-0.158
-334.260	-200.000	0.011	0.073
-333.245	800.000	0.025	0.091
-332.231	-151.214	-0.224	-0.017
-331.216	-200.000	0.021	0.142
-330.202	285.662	0.137	-0.245
-329.187	-15.321	0.098	-0.062
-328.172	499.980	0.070	-0.160
-327.158	-200.000	-0.001	0.174
-326.143	446.525	0.168	0.368
-325.129	65.316	-0.138	0.139
-324.114	68.544	-0.107	0.109
-323.099	-46.067	-0.099	0.048
-322.085	-94.034	0.155	0.042
-321.070	-194.243	-0.061	-0.000
-320.056	11.485	0.062	-0.047
-319.041	-73.239	0.456	0.166
-318.026	-51.163	0.290	0.135
-317.012	-200.000	-0.026	0.112
-315.997	-1.336	0.245	0.171
-314.983	-200.000	0.002	-0.132
-313.968	67.934	-0.080	0.081
-312.953	-200.000	0.013	-0.073
-311.939	-142.980	-0.157	0.015
-310.924	352.817	0.057	0.113
-309.910	-142.233	-0.176	0.017
-308.895	368.698	-0.067	-0.134
-307.880	-89.284	0.090	0.026
-306.866	36.784	0.215	-0.188
-305.851	-135.644	-0.183	0.022
-304.837	-9.923	-0.098	0.065
-303.822	-12.612	-0.382	0.247
-302.807	144.081	-0.147	0.195
-301.793	-67.843	-0.294	-0.114
-300.778	-200.000	0.004	0.498
-299.764	208.298	0.214	0.332
-298.749	-131.240	-0.120	-0.016
-297.735	-5.495	-0.229	0.156
-296.720	-74.238	0.073	-0.026
-295.705	-91.632	0.069	0.020
-294.691	425.419	-0.055	0.118
-293.676	800.000	0.100	0.406
-292.662	-109.895	-0.055	0.011
-291.647	-71.623	0.487	-0.180
-290.632	80.406	-0.107	-0.114
-289.618	-109.938	0.308	-0.064
-288.603	99.310	0.108	-0.124
-287.589	-96.053	0.285	0.075
-286.574	78.140	-0.293	-0.310
-285.559	-200.000	-0.029	-0.153
-284.545	800.000	0.057	-0.222
-283.530	-200.000	-0.052	0.370
-282.516	665.336	-0.029	0.074
-281.501	249.518	0.238	0.399
-280.486	-151.318	0.492	0.036
-279.472	800.000	0.054	0.186
-278.457	355.948	0.048	-0.095
-277.443	-48.368	0.146	-0.070
-276.428	427.539	-0.168	-0.358
-275.413	-145.597	0.172	0.015
-274.399	-200.000	-0.032	-0.185
-273.384	-36.967	0.244	0.130
-272.370	-43.602	-0.216	0.108
-271.355	-109.922	0.016	0.003
-270.340	138.357	-0.142	0.184
-269.326	-200.000	0.047	0.359
-268.311	201.206	-0.076	-0.117
-267.297	38.235	-0.229	-0.202
-266.282	-200.000	-0.003	0.353
-265.267	-179.463	-0.213	-0.005
-264.253	346.833	-0.055	-0.108
-263.238	-107.063	0.303	0.066
-262.224	59.335	0.029	0.029
-261.209	-200.000	0.026	-0.173
-260.195	-27.960	0.364	-0.209
-259.180	78.899	-0.188	0.199
-258.165	-200.000	0.012	0.115
-257.151	42.573	-0.078	0.070
-256.136	-124.748	-0.297	0.045
-255.122	-61.137	-0.194	-0.081
-254.107	369.307	0.084	-0.169
-253.092	800.000	0.094	-0.311
-252.078	-5.940	0.106	-0.072
-251.063	-118.681	-0.059	-0.010
-250.049	-40.389	0.420	0.216
-249.034	-88.269	-0.159	0.047
-248.019	505.991	0.063	-0.144
-247.005	800.000	0.112	0.331
-245.990	360.521	0.105	-0.209
-244.976	268.968	0.094	0.163
-243.961	-3.313	0.358	0.247
-242.946	134.000	-0.121	-0.155
-241.932	122.095	0.177	0.218
-240.917	-97.772	-0.417	-0.107
-239.903	-200.000	-0.008	0.331
-238.888	-84.428	0.254	-0.079
-237.873	-45.469	0.465	-0.228
-236.859	78.242	0.077	0.081
-235.844	800.000	0.082	-0.289
-234.830	108.766	-0.181	-0.214
-233.815	7.136	0.274	-0.202
-232.800	257.338	-0.042	0.072
-231.786	-200.000	0.107	-0.626
-230.771	55.575	0.159	0.152
-229.757	-200.000	-0.005	0.118
-228.742	-163.436	-0.143	-0.007
-227.727	161.971	-0.277	-0.384
-226.713	-80.903	-0.513	-0.168
-225.698	-105.949	0.137	-0.030
-224.684	-60.785	0.223	-0.093
-223.669	54.423	-0.151	-0.144
-222.655	171.710	0.301	0.428
-221.640	800.000	0.087	0.268
-220.625	-114.739	-0.348	-0.066
-219.611	-113.274	-0.316	-0.061
-218.596	-79.706	-0.146	0.049
-217.582	389.314	0.093	-0.190
-216.567	-155.751	0.042	0.003
-215.552	-4.454	0.336	0.229
-214.538	-59.930	0.311	0.131
-213.523	-200.000	0.013	0.063
-212.509	-33.029	-0.227	0.125
-211.494	-200.000	0.034	0.233
-210.479	180.321	-0.128	-0.186
-209.465	-168.430	0.189	-0.007
-208.450	-4.160	-0.207	0.142
-207.436	-149.612	-0.240	-0.019
-206.421	53.220	-0.235	-0.223
-205.406	-32.530	-0.206	0.113
-204.392	27.687	0.212	-0.177
-203.377	-70.562	-0.301	0.113
-202.363	-139.695	-0.393	0.041
-201.348	-186.910	0.072	0.001
-200.333	38.018	-0.261	-0.229
-199.319	-176.696	-0.127	0.003
-198.304	463.487	-0.102	-0.224
-197.290	480.345	-0.175	-0.392
-196.275	17.204	0.284	0.223
-195.260	48.868	0.014	-0.013
-194.246	-200.000	-0.022	0.193
-193.231	511.738	0.083	0.190
-192.217	-25.970	-0.387	-0.225
-191.202	-107.383	-0.376	0.082
-190.187	92.239	0.181	0.202
-189.173	-108.288	-0.121	0.026
-188.158	27.108	-0.045	-0.038
-187.144	-69.704	-0.112	0.042
-186.129	142.084	0.192	0.251
-185.114	529.484	-0.149	-0.347
-184.100	-200.000	-0.026	0.138
-183.085	-108.215	-0.224	0.048
-182.071	-122.703	0.018	0.003
-181.056	-200.000	0.018	0.194
-180.042	-50.211	-0.289	-0.135
-179.027	800.000	-0.077	-0.249
-178.012	-200.000	-0.005	-0.059
-176.998	89.834	-0.189	-0.208
-175.983	198.745	0.129	-0.195
-174.969	101.885	-0.156	-0.180
-173.954	-61.623	0.429	0.178
-172.939	-200.000	0.037	0.199
-171.925	31.735	-0.147	0.124
-170.910	159.249	-0.061	-0.084
-169.896	77.389	0.149	0.156
-168.881	-44.779	0.085	-0.042
-167.866	800.000	-0.035	0.102
-166.852	-167.065	-0.257	0.010
-165.837	-85.522	0.068	0.021
-164.823	244.602	-0.122	-0.203
-163.808	-118.613	-0.081	0.014
-162.793	-10.767	0.259	-0.169
-161.779	-60.227	-0.234	-0.098
-160.764	-81.190	0.090	-0.029
-159.750	-112.904	0.361	0.071
-158.735	203.143	-0.137	0.209
-157.720	800.000	0.078	-0.215
-156.706	132.034	-0.219	0.279
-155.691	7.007	0.095	0.070
-154.677	-70.916	0.247	0.092
-153.662	-26.235	-0.182	-0.106
-152.647	98.524	0.151	0.172
-151.633	-200.000	-0.060	0.334
-150.618	800.000	-0.045	0.141
-149.604	800.000	0.040	0.159
-148.589	-200.000	-0.036	-0.281
-147.574	17.808	0.461	-0.362
-146.560	471.144	-0.056	-0.124
-145.545	191.802	-0.118	-0.175
-144.531	-98.616	0.358	-0.090
-143.516	-57.597	0.420	-0.182
-142.502	125.324	-0.101	-0.125
-141.487	-200.000	0.003	0.199
-140.472	202.090	0.070	-0.106
-139.458	-191.264	0.555	0.006
-138.443	-39.062	0.103	0.053
-137.429	-200.000	0.001	0.090
-136.414	-70.840	0.191	0.071
-135.399	-95.070	0.369	0.098
-134.385	-200.000	0.034	0.162
-133.370	-200.000	0.029	0.271
-132.356	-200.000	0.005	0.224
-131.341	-200.000	0.042	0.365
-130.326	-200.000	-0.032	-0.279
-129.312	686.233	0.112	0.288
-128.297	-65.721	-0.056	0.022
-127.283	-165.891	-0.269	0.011
-126.268	-119.309	0.352	-0.060
-125.253	306.234	-0.022	-0.040
-124.239	518.790	-0.113	0.261
-123.224	-160.295	0.141	0.008
-122.210	800.000	0.059	0.168
-121.195	90.756	-0.079	0.087
-120.180	114.381	0.103	0.123
