DTS Sentinel unit serial number:	SN413079Multiplexer serial number:	ORYXHardware model number:	OX4-SRSoftware version number:	ORYX F/W v4.00 Oryx Data Collector v3.7.2.0data status	okinstallation	princeton_trtdifferential loss correction	single-endedforward channel	channel 4reverse channel	N/Adate	2019/09/16time	23:49:35forward acquisition time	60.00reverse acquisition time	0.00gamma	496.2192k internal	0.2314k external	0.2314temperature offset calibration	0.9977default loss term (dB/km)	0.3790temperature slope calibration	1.0000multiplexer offset coefficient	1.0000multiplexer slope coefficient	1.0000fibre end	0.00T internal ref (°C)	29.67T ext. ref 1 (°C)	0.09T ext. ref 2 (°C)	23.84length (m)	temperature (°C)	Stokes	anti-Stokes-747.200	85.549	-0.201	0.224
-746.185	-91.325	-0.431	0.125
-745.171	-200.000	0.001	0.183
-744.156	553.467	0.088	0.213
-743.142	-100.316	0.038	-0.010
-742.127	-104.703	0.104	-0.024
-741.112	143.892	0.103	0.139
-740.098	-12.847	-0.140	0.092
-739.083	51.319	0.074	0.072
-738.069	348.668	-0.181	0.361
-737.054	-66.245	0.124	0.050
-736.039	800.000	-0.034	-0.097
-735.025	-200.000	0.002	0.042
-734.010	24.256	-0.164	-0.137
-732.996	-58.996	-0.372	-0.163
-731.981	-200.000	0.067	-0.394
-730.966	46.530	-0.132	-0.124
-729.952	-129.320	0.177	0.025
-728.937	261.318	0.276	-0.484
-727.923	135.655	-0.029	-0.038
-726.908	-80.351	-0.378	-0.128
-725.894	323.531	0.011	0.021
-724.879	-4.587	0.149	0.104
-723.864	42.448	0.118	0.109
-722.850	-146.963	0.348	-0.030
-721.835	307.055	-0.164	0.309
-720.821	27.373	0.139	0.119
-719.806	337.989	-0.070	-0.137
-718.791	78.406	-0.047	-0.051
-717.777	800.000	-0.088	-0.296
-716.762	-152.171	0.079	0.006
-715.748	346.124	0.169	-0.337
-714.733	-200.000	0.010	-0.107
-713.718	-200.000	0.003	0.038
-712.704	620.924	-0.073	-0.187
-711.689	-200.000	-0.045	0.310
-710.675	-6.303	0.229	0.158
-709.660	44.446	-0.265	-0.246
-708.645	-61.286	-0.352	-0.150
-707.631	122.967	-0.139	0.176
-706.616	255.632	-0.100	-0.174
-705.602	-174.797	-0.024	0.001
-704.587	-200.000	-0.023	-0.321
-703.572	250.468	0.128	-0.220
-702.558	326.469	0.196	-0.381
-701.543	123.035	-0.115	0.146
-700.529	-75.225	-0.173	-0.062
-699.514	170.771	-0.089	-0.129
-698.499	407.993	0.048	-0.103
-697.485	144.268	0.160	0.216
-696.470	-137.612	-0.195	-0.022
-695.456	50.883	-0.061	0.059
-694.441	161.033	0.096	-0.136
-693.426	-200.000	-0.027	0.139
-692.412	-200.000	0.003	0.128
-691.397	800.000	0.121	-0.389
-690.383	-62.738	0.412	-0.173
-689.368	6.408	0.199	0.149
-688.354	-103.334	-0.132	-0.031
-687.339	-70.790	-0.186	0.071
-686.324	-165.880	-0.150	0.007
-685.310	-175.815	-0.402	-0.011
-684.295	-51.450	-0.277	0.131
-683.281	-83.251	-0.265	-0.086
-682.266	152.522	0.136	0.188
-681.251	783.936	-0.103	-0.285
-680.237	-200.000	-0.009	0.079
-679.222	181.470	0.054	-0.080
-678.208	6.003	-0.178	-0.134
-677.193	592.102	-0.059	-0.146
-676.178	249.482	-0.097	-0.166
-675.164	-169.289	0.336	-0.013
-674.149	-49.308	0.101	-0.049
-673.135	268.463	0.211	-0.375
-672.120	800.000	0.070	-0.282
-671.105	346.102	0.060	0.119
-670.091	95.971	-0.027	0.031
-669.076	-200.000	-0.002	-0.269
-668.062	800.000	-0.067	-0.275
-667.047	800.000	-0.029	0.108
-666.032	-68.070	0.225	0.089
-665.018	-9.564	-0.213	0.143
-664.003	90.342	0.149	-0.168
-662.989	-200.000	0.003	-0.073
-661.974	-48.209	-0.171	0.083
-660.959	73.594	-0.106	-0.112
-659.945	-200.000	0.032	0.281
-658.930	107.238	0.223	-0.268
-657.916	-200.000	0.006	-0.162
-656.901	-125.631	-0.358	0.055
-655.886	-155.169	0.267	0.018
-654.872	-114.462	-0.209	-0.041
-653.857	35.540	-0.369	0.327
-652.843	-127.535	0.273	0.040
-651.828	-3.647	0.294	-0.207
-650.814	800.000	0.026	-0.090
-649.799	-104.873	-0.290	-0.067
-648.784	106.659	0.064	-0.076
-647.770	800.000	-0.155	0.467
-646.755	13.646	0.106	0.083
-645.741	-12.003	0.209	0.138
-644.726	-61.964	-0.101	0.043
-643.711	170.844	-0.240	-0.347
-642.697	124.916	0.064	0.081
-641.682	12.653	0.180	0.140
-640.668	-9.155	0.095	-0.064
-639.653	-200.000	-0.030	-0.249
-638.638	-124.978	0.216	-0.034
-637.624	-19.622	0.254	0.158
-636.609	-135.761	-0.115	-0.014
-635.595	800.000	0.132	-0.567
-634.580	800.000	-0.073	-0.254
-633.565	-62.383	0.132	-0.055
-632.551	18.150	-0.123	0.099
-631.536	-100.403	-0.138	0.035
-630.522	11.445	0.099	-0.077
-629.507	236.869	0.076	-0.126
-628.492	-133.047	0.324	0.041
-627.478	346.038	0.044	0.087
-626.463	800.000	-0.118	0.408
-625.449	94.852	0.118	0.136
-624.434	-200.000	0.017	0.103
-623.419	-126.334	0.224	0.034
-622.405	800.000	-0.128	0.458
-621.390	-15.059	-0.166	-0.107
-620.376	-52.362	0.113	0.053
-619.361	558.042	0.098	0.238
-618.346	-186.352	0.016	0.000
-617.332	800.000	0.097	-0.337
-616.317	-115.432	-0.179	0.034
-615.303	142.461	0.062	0.083
-614.288	739.308	-0.009	0.024
-613.273	-180.399	-0.206	-0.004
-612.259	-117.196	0.308	-0.057
-611.244	-192.138	-0.232	-0.002
-610.230	800.000	0.060	0.228
-609.215	13.380	-0.243	-0.190
-608.201	-96.356	0.392	-0.105
-607.186	-200.000	-0.004	0.061
-606.171	-172.670	0.143	0.005
-605.157	-8.504	-0.116	0.079
-604.142	746.112	0.079	0.215
-603.128	800.000	-0.062	0.229
-602.113	-68.360	0.175	-0.068
-601.098	111.150	0.145	0.176
-600.084	2.944	0.034	-0.025
-599.069	-78.990	-0.068	-0.023
-598.055	-56.889	0.234	0.104
-597.040	-71.734	-0.509	0.191
-596.025	206.947	-0.068	0.107
-595.011	-200.000	0.018	0.314
-593.996	31.808	0.194	-0.168
-592.982	-49.631	-0.101	-0.049
-591.967	-47.340	-0.346	0.170
-590.952	800.000	0.093	-0.289
-589.938	283.310	-0.104	0.187
-588.923	400.423	0.131	-0.278
-587.909	707.709	0.076	-0.201
-586.894	-112.572	0.204	-0.041
-585.879	-80.016	-0.327	-0.111
-584.865	757.949	0.036	0.099
-583.850	168.118	-0.194	0.279
-582.836	-200.000	0.023	-0.203
-581.821	-139.651	-0.361	-0.039
-580.806	-200.000	0.017	0.141
-579.792	455.880	-0.092	0.207
-578.777	-119.604	-0.303	0.053
-577.763	800.000	-0.065	0.244
-576.748	-200.000	0.045	-0.237
-575.733	-28.418	-0.586	-0.341
-574.719	52.913	0.213	-0.205
-573.704	-114.594	0.162	0.031
-572.690	-53.559	0.097	-0.045
-571.675	55.419	-0.123	-0.120
-570.661	-112.019	-0.232	0.047
-569.646	-200.000	0.014	-0.197
-568.631	-170.811	-0.103	-0.004
-567.617	-39.596	-0.100	0.053
-566.602	440.816	0.072	-0.158
-565.588	69.448	-0.056	-0.058
-564.573	129.880	0.211	-0.272
-563.558	95.753	-0.081	0.094
-562.544	-146.758	0.257	0.022
-561.529	800.000	-0.077	-0.274
-560.515	-47.302	0.097	0.048
-559.500	-100.824	0.094	0.023
-558.485	60.280	0.267	0.265
-557.471	-94.177	-0.453	-0.125
-556.456	13.104	0.086	0.067
-555.442	122.740	-0.174	0.219
-554.427	-178.494	0.102	-0.002
-553.412	98.192	-0.213	-0.246
-552.398	-121.129	-0.227	0.038
-551.383	375.864	-0.048	-0.099
-550.369	-25.136	0.215	0.128
-549.354	-125.048	0.231	-0.036
-548.339	-75.730	-0.200	0.071
-547.325	-200.000	-0.064	0.319
-546.310	-38.610	0.152	-0.081
-545.296	66.856	-0.299	-0.306
-544.281	-61.792	0.367	-0.154
-543.266	800.000	0.039	0.149
-542.252	-19.648	0.113	-0.070
-541.237	-32.172	-0.090	0.051
-540.223	45.514	-0.221	0.205
-539.208	127.652	0.266	-0.340
-538.193	800.000	-0.029	0.116
-537.179	283.275	-0.276	-0.498
-536.164	39.997	0.325	0.294
-535.150	51.661	-0.048	0.046
-534.135	49.628	-0.062	-0.058
-533.121	359.337	-0.148	0.297
-532.106	-200.000	-0.070	0.331
-531.091	800.000	0.030	0.130
-530.077	405.927	0.131	-0.279
-529.062	-74.775	-0.157	0.057
-528.048	-51.531	0.114	0.053
-527.033	800.000	-0.065	-0.186
-526.018	-66.097	-0.070	0.028
-525.004	-86.800	0.298	0.091
-523.989	-200.000	-0.027	0.201
-522.975	315.214	-0.053	0.101
-521.960	-147.569	0.189	-0.016
-520.945	-14.084	-0.051	0.033
-519.931	-47.139	0.273	-0.134
-518.916	676.579	0.099	-0.258
-517.902	-103.912	-0.377	-0.089
-516.887	-76.629	0.266	-0.094
-515.872	-200.000	0.033	0.201
-514.858	58.187	-0.224	-0.220
-513.843	-39.866	-0.190	-0.099
-512.829	364.977	0.156	-0.315
-511.814	-181.246	-0.320	0.006
-510.799	-142.091	-0.223	-0.022
-509.785	-67.791	-0.271	-0.106
-508.770	142.286	0.063	0.084
-507.756	18.400	-0.185	-0.149
-506.741	-4.695	0.105	0.073
-505.726	512.858	-0.071	0.166
-504.712	-89.634	0.125	-0.037
-503.697	100.695	-0.051	-0.059
-502.683	170.327	0.228	-0.328
-501.668	-200.000	-0.073	0.325
-500.653	-200.000	-0.002	-0.151
-499.639	15.101	-0.120	-0.095
-498.624	-93.394	0.439	-0.122
-497.610	-200.000	-0.014	-0.099
-496.595	24.302	-0.125	-0.103
-495.581	-200.000	0.002	-0.225
-494.566	187.810	0.084	-0.126
-493.551	154.277	-0.173	-0.238
-492.537	-200.000	-0.028	0.154
-491.522	-96.899	0.149	-0.039
-490.508	70.718	-0.186	-0.193
-489.493	216.120	0.162	-0.258
-488.478	201.245	0.059	-0.091
-487.464	800.000	-0.043	0.163
-486.449	3.746	-0.241	0.176
-485.435	15.622	0.070	0.055
-484.420	196.337	-0.031	-0.047
-483.405	-200.000	0.000	-0.024
-482.391	-200.000	-0.002	-0.093
-481.376	257.603	0.028	-0.049
-480.362	15.524	-0.279	-0.220
-479.347	13.798	-0.216	-0.168
-478.332	800.000	0.010	-0.035
-477.318	-200.000	0.013	0.144
-476.303	-200.000	-0.042	-0.257
-475.289	-200.000	-0.076	-0.404
-474.274	-200.000	-0.017	0.417
-473.259	57.506	0.087	-0.085
-472.245	-80.576	0.191	-0.064
-471.230	3.678	-0.242	-0.177
-470.216	6.710	-0.366	-0.273
-469.201	-151.825	0.167	-0.012
-468.186	54.855	0.068	0.066
-467.172	330.953	0.149	0.288
-466.157	-200.000	0.004	-0.111
-465.143	92.431	-0.109	-0.123
-464.128	-4.244	-0.171	-0.119
-463.113	65.262	-0.072	0.073
-462.099	800.000	0.089	0.251
-461.084	65.696	0.097	-0.099
-460.070	800.000	0.069	-0.213
-459.055	167.924	0.166	0.237
-458.040	800.000	0.074	0.228
-457.026	-200.000	0.073	0.335
-456.011	-40.437	-0.165	-0.086
-454.997	431.044	0.053	-0.116
-453.982	-147.457	-0.107	-0.009
-452.968	-137.517	-0.407	0.046
-451.953	-102.190	-0.083	-0.020
-450.938	228.400	0.123	-0.201
-449.924	800.000	-0.080	-0.293
-448.909	33.810	0.191	0.166
-447.895	800.000	-0.078	-0.262
-446.880	-62.810	0.238	-0.099
-445.865	-200.000	0.027	-0.130
-444.851	-128.794	-0.402	0.057
-443.836	-92.439	0.333	-0.094
-442.822	278.662	-0.207	0.369
-441.807	-179.657	-0.085	-0.002
-440.792	-200.000	0.023	0.323
-439.778	-85.472	-0.106	0.033
-438.763	180.961	0.220	-0.324
-437.749	362.955	-0.041	0.082
-436.734	-181.317	0.397	0.008
-435.719	-8.019	0.198	-0.134
-434.705	-10.218	-0.254	0.169
-433.690	239.584	-0.226	0.377
-432.676	-122.539	0.090	0.015
-431.661	-59.854	0.177	-0.076
-430.646	-87.098	-0.102	-0.031
-429.632	-200.000	0.030	-0.137
-428.617	83.938	0.166	0.181
-427.603	-200.000	0.032	0.319
-426.588	202.177	0.165	-0.254
-425.573	666.782	0.073	-0.189
-424.559	-200.000	-0.032	0.198
-423.544	172.988	-0.146	0.211
-422.530	-26.177	0.070	-0.041
-421.515	498.929	-0.169	-0.389
-420.500	44.510	0.086	-0.079
-419.486	-200.000	-0.027	0.240
-418.471	427.803	0.205	-0.444
-417.457	110.950	-0.194	-0.233
-416.442	800.000	-0.046	-0.130
-415.428	89.066	0.057	0.064
-414.413	800.000	-0.046	0.144
-413.398	23.745	-0.027	0.022
-412.384	-200.000	0.008	-0.578
-411.369	82.096	0.203	-0.221
-410.355	-197.642	-0.220	-0.001
-409.340	128.946	-0.054	0.068
-408.325	-22.728	-0.218	0.132
-407.311	-200.000	0.039	0.390
-406.296	67.146	-0.117	0.120
-405.282	204.613	0.084	0.130
-404.267	-126.888	-0.330	0.049
-403.252	5.008	0.095	-0.070
-402.238	244.817	-0.056	0.094
-401.223	-200.000	-0.056	0.457
-400.209	-12.623	-0.183	0.119
-399.194	20.742	-0.157	-0.127
-398.179	242.934	0.052	-0.088
-397.165	425.814	0.035	0.076
-396.150	-100.848	0.095	0.023
-395.136	93.698	0.094	0.107
-394.121	647.974	-0.017	0.043
-393.106	118.544	-0.073	-0.090
-392.092	-160.750	-0.081	-0.004
-391.077	-83.984	0.162	0.052
-390.063	185.384	-0.054	-0.080
-389.048	220.303	-0.042	-0.067
-388.033	-152.951	0.336	-0.024
-387.019	-163.570	0.130	0.006
-386.004	-59.121	-0.069	-0.030
-384.990	-200.000	-0.010	0.054
-383.975	-121.786	0.209	0.035
-382.960	-39.200	0.118	0.062
-381.946	-99.747	-0.217	-0.054
-380.931	282.928	0.150	0.269
-379.917	517.339	-0.029	0.068
-378.902	172.617	0.172	-0.248
-377.888	248.673	0.110	-0.187
-376.873	-200.000	0.051	0.253
-375.858	132.194	-0.225	0.289
-374.844	800.000	0.033	-0.112
-373.829	403.785	-0.037	-0.078
-372.815	-200.000	0.021	-0.193
-371.800	112.331	0.123	-0.149
-370.785	-7.509	0.360	0.244
-369.771	558.932	-0.060	0.145
-368.756	14.745	-0.215	0.168
-367.742	800.000	-0.130	-0.382
-366.727	-200.000	-0.022	-0.375
-365.712	-200.000	-0.047	-0.211
-364.698	383.130	-0.101	0.207
-363.683	386.627	-0.082	-0.169
-362.669	283.138	0.148	0.265
-361.654	169.055	-0.164	-0.233
-360.639	95.315	-0.211	-0.240
-359.625	-124.900	0.114	0.017
-358.610	-134.006	0.381	0.047
-357.596	-200.000	-0.131	0.000
-356.581	599.024	0.052	0.129
-355.566	-200.000	-0.011	-0.252
-354.552	10.043	0.125	-0.095
-353.537	800.000	-0.080	0.247
-352.523	77.367	0.462	-0.491
-351.508	-76.347	-0.235	-0.083
-350.493	-200.000	0.019	0.328
-349.479	138.933	0.059	0.077
-348.464	-200.000	-0.030	-0.161
-347.450	440.421	-0.133	0.289
-346.435	-25.491	0.320	0.189
-345.420	800.000	0.107	0.338
-344.406	95.038	-0.055	0.063
-343.391	-108.695	-0.067	-0.014
-342.377	-58.043	-0.239	0.104
-341.362	52.075	-0.251	0.239
-340.348	800.000	0.067	-0.271
-339.333	-110.176	0.305	0.063
-338.318	207.337	-0.253	0.394
-337.304	-200.000	-0.012	0.137
-336.289	357.703	-0.045	0.089
-335.275	556.090	-0.024	0.059
-334.260	118.454	-0.125	-0.154
-333.245	112.741	0.239	-0.288
-332.231	-87.934	-0.278	0.083
-331.216	-200.000	0.038	-0.198
-330.202	-63.046	-0.282	0.116
-329.187	-20.474	-0.125	0.077
-328.172	35.452	0.124	-0.108
-327.158	-200.000	-0.040	-0.223
-326.143	4.744	0.184	0.135
-325.129	77.191	-0.005	-0.005
-324.114	-200.000	0.042	-0.258
-323.099	-109.875	-0.247	-0.052
-322.085	30.437	0.152	0.130
-321.070	277.305	0.156	0.277
-320.056	800.000	0.128	0.384
-319.041	-200.000	-0.081	-0.413
-318.026	-200.000	0.020	-0.130
-317.012	-53.459	0.121	0.055
-315.997	-40.616	-0.279	-0.144
-314.983	7.091	0.097	-0.072
-313.968	-86.534	0.664	-0.203
-312.953	66.481	-0.212	-0.215
-311.939	117.271	-0.036	0.044
-310.924	-87.847	-0.333	0.100
-309.910	355.954	-0.188	0.373
-308.895	289.571	0.067	0.121
-307.880	347.400	0.147	0.289
-306.866	-60.248	-0.305	0.129
-305.851	-200.000	0.027	-0.177
-304.837	-11.383	-0.113	0.074
-303.822	-68.477	-0.368	-0.142
-302.807	-22.851	-0.325	0.195
-301.793	-8.665	0.112	-0.075
-300.778	-6.057	0.447	0.304
-299.764	50.537	0.246	0.232
-298.749	-139.899	-0.201	0.021
-297.735	-49.561	-0.268	0.127
-296.720	-137.399	-0.132	-0.015
-295.705	312.136	0.241	0.450
-294.691	-190.662	0.166	0.002
-293.676	112.711	-0.091	-0.110
-292.662	-43.345	0.028	-0.014
-291.647	-86.223	-0.301	0.092
-290.632	295.048	0.076	0.139
-289.618	-44.929	-0.237	0.117
-288.603	-200.000	-0.003	-0.079
-287.589	-148.813	0.300	-0.024
-286.574	92.380	0.066	-0.074
-285.559	-200.000	-0.043	-0.294
-284.545	800.000	0.081	-0.231
-283.530	-128.357	-0.230	0.033
-282.516	-80.956	0.124	-0.041
-281.501	-97.621	0.336	-0.087
-280.486	105.590	0.328	0.386
-279.472	793.422	-0.065	-0.177
-278.457	800.000	0.030	-0.084
-277.443	229.144	-0.042	0.069
-276.428	43.929	-0.144	0.131
-275.413	137.375	0.057	-0.074
-274.399	418.399	-0.046	0.098
-273.384	800.000	0.160	-0.456
-272.370	23.378	0.063	0.051
-271.355	-57.863	-0.199	-0.087
-270.340	800.000	-0.060	-0.172
-269.326	344.756	0.039	-0.075
-268.311	401.054	0.105	-0.219
-267.297	-138.672	-0.044	-0.005
-266.282	-80.315	-0.055	-0.018
-265.267	-200.000	-0.004	0.087
-264.253	4.650	0.179	-0.131
-263.238	-5.631	-0.048	-0.033
-262.224	739.650	-0.064	-0.170
-261.209	19.739	0.126	0.101
-260.195	547.154	0.076	0.180
-259.180	648.807	-0.046	-0.116
-258.165	216.341	-0.191	-0.302
-257.151	-149.333	0.171	0.014
-256.136	241.301	-0.144	-0.239
-255.122	53.138	-0.113	-0.107
-254.107	360.420	0.112	0.224
-253.092	800.000	-0.012	0.038
-252.078	-33.347	0.074	-0.041
-251.063	-95.658	-0.167	0.045
-250.049	-200.000	-0.009	0.252
-249.034	319.737	-0.073	0.138
-248.019	-97.040	-0.257	-0.067
-247.005	-69.360	0.243	0.093
-245.990	39.658	0.205	0.183
-244.976	133.163	-0.111	0.143
-243.961	-200.000	-0.016	0.162
-242.946	-182.249	-0.300	0.006
-241.932	-54.147	0.102	0.046
-240.917	-97.225	-0.196	-0.051
-239.903	86.939	0.053	-0.059
-238.888	-75.257	-0.202	-0.072
-237.873	-106.042	0.205	-0.046
-236.859	-24.915	0.197	0.116
-235.844	-144.994	0.152	0.014
-234.830	57.824	-0.071	-0.069
-233.815	89.487	0.058	0.064
-232.800	-32.631	-0.262	-0.145
-231.786	-134.485	0.100	0.012
-230.771	64.374	-0.133	-0.133
-229.757	-72.620	0.099	0.036
-228.742	-30.759	0.202	0.113
-227.727	29.436	-0.290	0.245
-226.713	214.536	0.118	0.186
-225.698	-154.207	-0.371	-0.025
-224.684	-9.844	-0.103	0.068
-223.669	-71.389	0.328	0.122
-222.655	-33.556	0.248	0.136
-221.640	33.881	0.186	-0.161
-220.625	1.715	0.159	-0.114
-219.611	130.446	-0.117	-0.149
-218.596	-63.949	0.086	0.035
-217.582	-4.981	0.145	-0.099
-216.567	-200.000	-0.061	-0.319
-215.552	-155.861	0.228	-0.014
-214.538	25.938	0.152	0.126
-213.523	268.468	0.032	-0.056
-212.509	-75.077	-0.110	-0.039
-211.494	-14.984	-0.177	-0.112
-210.479	-200.000	0.008	0.045
-209.465	-49.140	0.140	-0.066
-208.450	800.000	0.015	-0.047
-207.436	383.396	0.147	0.300
-206.421	429.042	-0.037	-0.079
-205.406	175.945	-0.061	0.088
-204.392	800.000	0.083	0.333
-203.377	800.000	0.059	-0.196
-202.363	800.000	-0.050	-0.161
-201.348	-153.137	0.194	0.013
-200.333	64.671	0.210	0.210
-199.319	-27.488	-0.063	-0.036
-198.304	-17.348	0.051	-0.032
-197.290	95.841	-0.194	0.219
-196.275	47.888	0.040	0.037
-195.260	312.053	0.164	0.306
-194.246	-200.000	-0.037	0.475
-193.231	179.242	-0.153	0.221
-192.217	216.954	-0.108	-0.171
-191.202	-40.593	0.157	0.081
-190.187	-200.000	0.012	-0.380
-189.173	27.551	0.173	-0.144
-188.158	259.814	0.242	0.415
-187.144	104.310	0.240	0.280
-186.129	45.129	0.188	0.171
-185.114	-200.000	0.037	-0.204
-184.100	-73.411	0.122	0.044
-183.085	79.580	-0.251	-0.267
-182.071	-86.926	-0.094	-0.028
-181.056	5.860	0.105	0.077
-180.042	58.734	-0.168	-0.164
-179.027	-99.631	-0.218	0.054
-178.012	-71.097	0.207	-0.077
-176.998	410.813	-0.100	0.210
-175.983	-200.000	-0.034	0.177
-174.969	-126.573	-0.237	-0.035
-173.954	87.502	-0.146	-0.160
-172.939	-8.563	-0.177	-0.118
-171.925	-106.376	0.165	-0.037
-170.910	45.743	-0.101	0.093
-169.896	800.000	-0.058	-0.175
-168.881	348.394	-0.089	-0.174
-167.866	247.955	-0.015	-0.025
-166.852	-200.000	0.050	0.343
-165.837	-36.471	-0.175	0.094
-164.823	241.286	0.053	0.087
-163.808	246.610	0.118	0.197
-162.793	251.133	0.073	-0.123
-161.779	-200.000	-0.001	0.011
-160.764	800.000	-0.021	-0.075
-159.750	-200.000	-0.046	-0.277
-158.735	442.548	0.090	-0.196
-157.720	-200.000	-0.014	-0.160
-156.706	-41.966	0.268	0.136
-155.691	-200.000	-0.023	0.136
-154.677	-49.267	0.251	0.119
-153.662	207.079	-0.056	-0.087
-152.647	10.132	0.075	-0.056
-151.633	-12.630	0.285	0.184
-150.618	-84.252	-0.202	-0.063
-149.604	46.794	0.076	0.070
-148.589	98.939	0.227	0.260
-147.574	-200.000	0.011	0.086
-146.560	160.595	-0.174	0.241
-145.545	298.870	-0.088	0.161
-144.531	-134.194	0.394	-0.048
-143.516	30.743	-0.062	0.053
-142.502	451.687	-0.065	-0.141
-141.487	800.000	0.062	-0.231
-140.472	800.000	-0.079	-0.329
-139.458	124.204	-0.090	-0.112
-138.443	-200.000	0.018	0.106
-137.429	-200.000	0.038	0.201
-136.414	-110.199	0.290	0.060
-135.399	-120.740	0.289	0.048
-134.385	249.198	0.109	0.182
-133.370	-12.147	0.154	-0.100
-132.356	120.777	-0.107	0.132
-131.341	1.198	0.205	-0.146
-130.326	-36.926	0.482	-0.256
-129.312	10.375	0.344	0.259
-128.297	240.388	-0.101	0.166
-127.283	304.235	0.070	-0.128
-126.268	408.595	0.081	0.169
-125.253	236.397	-0.063	0.104
-124.239	28.528	0.101	-0.084
-123.224	-116.014	-0.179	0.033
-122.210	-103.891	0.142	-0.033
-121.195	800.000	-0.160	0.652
-120.180	-200.000	-0.025	0.216
