DTS Sentinel unit serial number:	SN413079Multiplexer serial number:	ORYXHardware model number:	OX4-SRSoftware version number:	ORYX F/W v4.00 Oryx Data Collector v3.7.2.0data status	okinstallation	princeton_trtdifferential loss correction	single-endedforward channel	channel 4reverse channel	N/Adate	2019/09/16time	09:29:35forward acquisition time	60.00reverse acquisition time	0.00gamma	496.2192k internal	0.2306k external	0.2306temperature offset calibration	0.9965default loss term (dB/km)	0.3790temperature slope calibration	1.0000multiplexer offset coefficient	1.0000multiplexer slope coefficient	1.0000fibre end	0.00T internal ref (°C)	31.81T ext. ref 1 (°C)	12.22T ext. ref 2 (°C)	29.50length (m)	temperature (°C)	Stokes	anti-Stokes-747.200	-200.000	-0.066	-0.295
-746.185	0.984	-0.092	0.067
-745.171	-71.794	0.251	0.095
-744.156	-150.372	-0.075	0.006
-743.142	577.438	0.153	0.382
-742.127	-194.800	-0.199	0.002
-741.112	635.708	0.032	0.084
-740.098	-70.383	-0.200	-0.077
-739.083	-50.926	-0.243	-0.116
-738.069	-160.198	-0.117	-0.006
-737.054	-48.386	-0.062	0.030
-736.039	800.000	0.055	0.234
-735.025	677.623	-0.124	0.328
-734.010	-143.380	-0.205	-0.020
-732.996	-68.697	0.107	-0.042
-731.981	-176.646	-0.332	-0.009
-730.966	164.357	-0.132	-0.189
-729.952	97.213	-0.246	-0.287
-728.937	72.110	-0.166	-0.176
-727.923	800.000	-0.115	-0.334
-726.908	-175.451	-0.346	-0.010
-725.894	-49.513	0.074	-0.036
-724.879	-200.000	0.026	-0.210
-723.864	81.997	-0.035	0.038
-722.850	-129.297	-0.208	0.029
-721.835	-31.649	-0.084	-0.048
-720.821	-195.933	0.034	-0.000
-719.806	575.364	-0.075	-0.186
-718.791	-21.572	-0.124	0.077
-717.777	241.690	0.127	0.216
-716.762	176.803	-0.101	-0.149
-715.748	249.102	-0.071	-0.123
-714.733	-90.950	-0.317	-0.093
-713.718	146.418	0.191	0.261
-712.704	101.479	-0.103	0.122
-711.689	-200.000	-0.031	0.251
-710.675	406.930	0.045	-0.097
-709.660	-200.000	0.029	0.203
-708.645	-115.593	-0.167	0.032
-707.631	-74.714	0.205	-0.075
-706.616	253.390	-0.041	0.070
-705.602	-94.196	0.039	-0.011
-704.587	7.605	0.190	0.144
-703.572	-127.988	0.423	-0.062
-702.558	-63.076	0.141	0.059
-701.543	-175.020	-0.097	0.003
-700.529	62.154	0.140	0.142
-699.514	-200.000	-0.012	0.321
-698.499	-118.928	-0.391	0.070
-697.485	-59.774	-0.097	-0.042
-696.470	-200.000	0.042	-0.193
-695.456	-11.559	-0.083	0.055
-694.441	290.160	-0.160	0.295
-693.426	91.675	-0.352	0.401
-692.412	138.989	-0.231	0.309
-691.397	800.000	0.082	0.333
-690.383	-162.753	-0.136	-0.007
-689.368	-148.012	-0.142	0.012
-688.354	-200.000	0.126	-0.001
-687.339	-89.167	0.206	0.062
-686.324	-110.433	-0.354	-0.075
-685.310	-124.505	0.207	0.033
-684.295	-62.163	-0.075	-0.032
-683.281	-53.218	-0.090	0.042
-682.266	-57.370	-0.211	0.094
-681.251	-15.406	0.097	-0.063
-680.237	800.000	-0.024	-0.092
-679.222	26.905	0.176	-0.150
-678.208	-1.501	-0.084	0.060
-677.193	-200.000	0.053	-0.437
-676.178	-200.000	0.003	0.149
-675.164	800.000	-0.123	0.381
-674.149	302.431	0.090	-0.168
-673.135	-79.651	-0.214	0.073
-672.120	110.800	-0.105	-0.128
-671.105	-29.883	0.146	0.084
-670.091	20.263	-0.037	-0.030
-669.076	-35.113	-0.070	0.038
-668.062	-200.000	-0.009	-0.084
-667.047	756.512	-0.030	0.082
-666.032	67.928	0.066	-0.069
-665.018	-128.654	-0.335	0.048
-664.003	-72.193	-0.075	0.028
-662.989	-64.872	-0.123	0.051
-661.974	173.207	-0.057	0.084
-660.959	47.597	0.052	-0.049
-659.945	800.000	0.051	-0.177
-658.930	-3.970	-0.094	0.066
-657.916	-94.932	0.206	0.056
-656.901	-31.853	-0.205	-0.117
-655.886	-63.781	0.253	-0.105
-654.872	348.447	0.059	-0.118
-653.857	617.685	-0.099	-0.252
-652.843	33.187	-0.183	-0.161
-651.828	331.455	-0.057	-0.112
-650.814	-200.000	0.002	0.279
-649.799	-76.162	-0.166	0.060
-648.784	-93.576	-0.340	0.095
-647.770	52.812	0.231	-0.224
-646.755	376.639	-0.109	-0.226
-645.741	-152.865	-0.259	0.019
-644.726	55.846	-0.216	-0.212
-643.711	-150.372	0.195	0.015
-642.697	-93.592	0.221	0.062
-641.682	-147.684	0.030	0.003
-640.668	-84.452	0.348	-0.111
-639.653	-125.391	-0.244	-0.038
-638.638	800.000	-0.037	-0.145
-637.624	88.292	0.039	-0.044
-636.609	0.007	-0.138	-0.100
-635.595	-200.000	-0.023	-0.198
-634.580	414.150	0.044	-0.096
-633.565	-67.418	0.329	-0.131
-632.551	287.290	-0.185	-0.339
-631.536	800.000	0.103	-0.379
-630.522	-200.000	0.024	0.271
-629.507	-79.402	0.153	-0.053
-628.492	-88.932	-0.315	-0.095
-627.478	781.178	-0.113	-0.314
-626.463	176.364	0.214	0.314
-625.449	-86.866	-0.199	-0.061
-624.434	-200.000	-0.024	-0.407
-623.419	141.041	-0.069	-0.092
-622.405	440.500	-0.038	-0.085
-621.390	226.640	0.090	0.148
-620.376	800.000	-0.118	0.356
-619.361	267.106	-0.101	0.179
-618.346	7.288	0.171	-0.129
-617.332	-21.753	0.053	0.033
-616.317	474.267	-0.082	-0.187
-615.303	42.061	-0.138	-0.127
-614.288	-57.298	-0.454	-0.202
-613.273	779.983	0.113	0.313
-612.259	-200.000	0.017	-0.118
-611.244	-9.483	0.206	0.139
-610.230	34.887	0.065	-0.057
-609.215	-200.000	-0.015	0.132
-608.201	800.000	0.092	-0.260
-607.186	1.528	-0.228	-0.166
-606.171	-200.000	0.036	-0.184
-605.157	-67.541	-0.182	0.072
-604.142	-50.499	0.315	0.150
-603.128	-168.829	-0.034	-0.001
-602.113	-66.511	0.117	-0.047
-601.098	-43.304	0.137	0.070
-600.084	221.146	0.065	0.106
-599.069	162.182	0.193	0.274
-598.055	25.987	0.145	0.122
-597.040	-200.000	-0.002	-0.072
-596.025	-200.000	0.029	-0.555
-595.011	-143.531	-0.301	-0.029
-593.996	-200.000	-0.015	0.105
-592.982	72.977	0.041	-0.043
-591.967	-193.976	0.293	0.002
-590.952	158.360	-0.232	0.326
-589.938	347.930	0.085	0.170
-588.923	-47.543	-0.214	0.105
-587.909	-200.000	-0.024	-0.124
-586.894	-72.994	-0.401	0.149
-585.879	171.145	-0.181	0.262
-584.865	-200.000	-0.023	-0.369
-583.850	41.673	-0.219	-0.201
-582.836	-28.229	0.277	-0.162
-581.821	-200.000	-0.001	-0.171
-580.806	-111.312	-0.350	0.072
-579.792	33.160	0.068	0.060
-578.777	226.914	0.093	0.153
-577.763	110.784	-0.209	0.254
-576.748	800.000	0.039	0.122
-575.733	87.018	-0.056	-0.062
-574.719	57.188	0.144	0.142
-573.704	144.316	0.054	-0.072
-572.690	-125.848	0.186	-0.028
-571.675	148.469	-0.145	-0.198
-570.661	-9.868	0.172	-0.116
-569.646	800.000	-0.037	0.108
-568.631	-78.773	-0.370	0.127
-567.617	26.637	-0.115	0.098
-566.602	-66.071	-0.370	0.149
-565.588	271.861	-0.043	0.076
-564.573	514.448	-0.051	0.120
-563.558	-200.000	-0.025	0.305
-562.544	-193.350	-0.246	-0.002
-561.529	-200.000	-0.033	-0.227
-560.515	72.757	0.346	-0.364
-559.500	200.840	0.129	-0.200
-558.485	-200.000	0.001	-0.079
-557.471	191.134	-0.165	0.251
-556.456	-200.000	0.002	-0.137
-555.442	-176.522	-0.265	0.007
-554.427	800.000	0.047	-0.181
-553.412	-110.966	0.148	0.031
-552.398	54.284	-0.105	0.102
-551.383	100.171	0.121	0.141
-550.369	22.737	0.209	-0.173
-549.354	-39.622	-0.150	0.079
-548.339	-200.000	-0.006	-0.312
-547.325	-163.687	0.220	0.010
-546.310	-200.000	-0.003	0.262
-545.296	-82.957	0.249	-0.081
-544.281	73.492	-0.129	-0.137
-543.266	623.432	-0.076	-0.194
-542.252	-156.521	0.083	0.005
-541.237	-123.283	-0.251	-0.041
-540.223	-43.119	0.099	-0.051
-539.208	283.931	-0.101	-0.183
-538.193	-75.728	-0.084	0.030
-537.179	800.000	0.046	-0.163
-536.164	-200.000	-0.090	-0.410
-535.150	-10.654	-0.259	0.173
-534.135	-200.000	-0.038	0.292
-533.121	-200.000	0.047	0.264
-532.106	43.640	0.086	0.079
-531.091	208.842	-0.091	0.144
-530.077	31.831	0.251	-0.218
-529.062	800.000	-0.063	0.211
-528.048	-44.050	0.235	-0.119
-527.033	640.713	0.158	-0.406
-526.018	-200.000	-0.026	-0.323
-525.004	168.394	0.304	-0.437
-523.989	74.543	0.163	-0.173
-522.975	-7.214	0.141	0.096
-521.960	800.000	-0.158	0.479
-520.945	-200.000	-0.031	-0.183
-519.931	-136.443	-0.157	0.018
-518.916	-99.359	0.107	-0.027
-517.902	170.860	-0.107	0.155
-516.887	-156.003	-0.117	0.008
-515.872	-200.000	-0.012	0.094
-514.858	485.442	-0.127	0.293
-513.843	-49.896	-0.250	0.120
-512.829	-82.846	-0.199	0.065
-511.814	-200.000	0.049	-0.297
-510.799	-200.000	-0.054	0.277
-509.785	-98.892	0.245	0.063
-508.770	-37.726	0.234	0.126
-507.756	-188.963	-0.532	-0.006
-506.741	674.288	-0.056	-0.146
-505.726	-200.000	-0.012	0.359
-504.712	-54.706	0.182	0.083
-503.697	248.216	-0.070	0.119
-502.683	-22.078	0.100	0.061
-501.668	204.343	0.094	0.147
-500.653	-76.802	0.131	0.046
-499.639	-73.181	0.185	-0.068
-498.624	-23.405	-0.252	-0.153
-497.610	232.959	-0.110	-0.182
-496.595	-177.535	-0.474	0.012
-495.581	145.643	-0.208	-0.281
-494.566	-132.481	-0.155	0.020
-493.551	-16.031	0.273	-0.175
-492.537	-151.897	-0.101	-0.007
-491.522	189.801	0.264	0.398
-490.508	33.900	-0.198	-0.174
-489.493	49.585	-0.244	0.231
-488.478	-200.000	0.004	0.246
-487.464	-200.000	-0.022	0.107
-486.449	-200.000	-0.072	0.417
-485.435	50.201	-0.202	-0.192
-484.420	-200.000	0.042	-0.289
-483.405	105.273	-0.028	0.034
-482.391	44.586	0.187	0.173
-481.376	15.406	-0.276	-0.218
-480.362	-4.078	-0.139	-0.097
-479.347	-191.248	0.067	-0.001
-478.332	-99.692	-0.390	-0.098
-477.318	101.897	0.161	0.190
-476.303	800.000	0.026	-0.094
-475.289	800.000	-0.013	0.037
-474.274	267.909	0.107	0.189
-473.259	-200.000	0.004	0.370
-472.245	71.325	0.180	-0.188
-471.230	-116.673	-0.382	-0.071
-470.216	192.379	0.105	-0.160
-469.201	800.000	-0.019	-0.079
-468.186	-129.245	-0.072	-0.010
-467.172	299.683	-0.240	0.445
-466.157	325.801	0.062	-0.120
-465.143	-101.425	0.211	0.052
-464.128	30.818	-0.315	-0.271
-463.113	42.097	-0.102	-0.093
-462.099	-200.000	0.007	0.233
-461.084	31.187	-0.236	-0.204
-460.070	-148.923	0.052	0.004
-459.055	-81.815	-0.105	0.035
-458.040	800.000	-0.085	-0.323
-457.026	-84.833	0.152	-0.048
-456.011	-200.000	0.077	0.630
-454.997	585.490	-0.107	-0.264
-453.982	101.343	0.059	0.069
-452.968	-120.355	0.448	-0.077
-451.953	-79.995	0.328	0.111
-450.938	-73.611	-0.116	-0.043
-449.924	800.000	-0.056	-0.161
-448.909	-142.033	-0.319	0.032
-447.895	81.958	-0.382	-0.417
-446.880	70.776	-0.082	-0.085
-445.865	800.000	-0.054	-0.160
-444.851	56.102	0.052	-0.050
-443.836	185.112	-0.095	-0.141
-442.822	104.185	-0.066	0.078
-441.807	-200.000	-0.037	0.335
-440.792	-153.655	0.034	-0.002
-439.778	-79.935	0.039	0.013
-438.763	-200.000	0.012	-0.364
-437.749	-200.000	0.066	-0.304
-436.734	-35.393	-0.146	-0.080
-435.719	-116.572	-0.199	0.037
-434.705	-200.000	0.003	-0.117
-433.690	-0.222	-0.133	0.095
-432.676	-3.646	-0.099	-0.069
-431.661	-66.320	-0.068	-0.027
-430.646	-11.307	0.338	-0.224
-429.632	-128.306	0.277	-0.040
-428.617	8.714	0.220	0.167
-427.603	-0.495	0.215	-0.154
-426.588	214.248	-0.065	0.104
-425.573	800.000	-0.067	0.245
-424.559	-179.398	-0.065	-0.001
-423.544	-175.571	0.194	0.005
-422.530	-200.000	0.054	-0.527
-421.515	-91.740	0.451	0.129
-420.500	-44.647	0.056	-0.028
-419.486	406.012	0.062	0.131
-418.471	-200.000	0.054	0.282
-417.457	513.839	0.152	-0.356
-416.442	800.000	0.042	-0.149
-415.428	-84.240	-0.221	-0.070
-414.413	465.134	0.117	0.262
-413.398	-200.000	-0.037	-0.212
-412.384	-200.000	-0.042	0.320
-411.369	-48.249	0.077	0.037
-410.355	-114.968	-0.441	-0.084
-409.340	-200.000	0.029	0.254
-408.325	200.844	0.182	0.281
-407.311	800.000	0.017	0.054
-406.296	-48.989	-0.219	-0.106
-405.282	24.026	0.319	-0.265
-404.267	-200.000	0.035	-0.402
-403.252	-157.152	0.295	-0.018
-402.238	-163.602	0.176	0.008
-401.223	800.000	0.004	0.013
-400.209	-83.614	0.142	-0.046
-399.194	-111.207	0.065	-0.013
-398.179	35.870	0.153	-0.135
-397.165	-140.956	0.330	0.034
-396.150	73.325	-0.149	0.156
-395.136	689.249	0.084	-0.220
-394.121	294.258	-0.164	-0.300
-393.106	-151.179	-0.072	0.005
-392.092	800.000	0.026	0.104
-391.077	87.756	0.255	-0.283
-390.063	800.000	-0.042	0.181
-389.048	212.485	0.186	0.295
-388.033	-49.739	-0.308	-0.147
-387.019	-87.672	-0.275	0.083
-386.004	-200.000	-0.012	0.159
-384.990	-124.102	0.461	-0.073
-383.975	800.000	-0.128	-0.365
-382.960	800.000	0.070	0.243
-381.946	89.617	0.236	0.264
-380.931	187.676	0.155	0.231
-379.917	564.526	0.086	0.210
-378.902	-0.085	0.060	-0.043
-377.888	-18.657	-0.240	-0.150
-376.873	-56.113	-0.150	-0.067
-375.858	3.092	0.126	0.092
-374.844	-28.907	-0.127	-0.073
-373.829	491.601	-0.074	-0.170
-372.815	800.000	-0.065	-0.223
-371.800	502.288	-0.111	-0.258
-370.785	112.788	-0.240	-0.291
-369.771	166.031	0.093	-0.132
-368.756	184.319	0.174	0.258
-367.742	-144.577	0.087	0.008
-366.727	800.000	0.072	-0.251
-365.712	-140.224	-0.414	-0.044
-364.698	45.527	0.123	0.114
-363.683	320.395	-0.144	-0.274
-362.669	252.019	-0.064	-0.110
-361.654	102.807	0.233	0.274
-360.639	689.485	-0.010	-0.027
-359.625	-39.866	-0.090	-0.047
-358.610	-98.659	0.195	-0.050
-357.596	800.000	0.077	0.225
-356.581	-24.384	0.448	0.268
-355.566	68.820	-0.044	-0.046
-354.552	110.059	-0.179	-0.215
-353.537	-200.000	0.004	0.094
-352.523	-18.932	0.414	-0.258
-351.508	800.000	-0.093	-0.294
-350.493	-58.092	0.080	0.035
-349.479	414.974	0.213	0.454
-348.464	-81.222	-0.165	-0.055
-347.450	89.414	-0.145	-0.162
-346.435	-64.111	0.147	-0.060
-345.420	800.000	-0.047	-0.202
-344.406	-200.000	0.014	0.108
-343.391	800.000	0.057	0.231
-342.377	-153.737	0.221	-0.015
-341.362	-15.428	-0.079	0.051
-340.348	-99.078	-0.058	0.015
-339.333	-94.776	0.091	0.025
-338.318	-0.865	0.171	0.121
-337.304	152.374	0.019	-0.026
-336.289	-164.964	-0.241	0.011
-335.275	-40.911	0.441	-0.228
-334.260	-142.026	-0.271	-0.027
-333.245	-200.000	0.002	0.278
-332.231	-80.388	0.250	-0.084
-331.216	24.172	0.263	-0.217
-330.202	24.439	-0.049	-0.041
-329.187	303.186	0.106	0.197
-328.172	-33.747	0.286	0.158
-327.158	800.000	0.065	-0.274
-326.143	-116.542	0.117	0.022
-325.129	-98.256	-0.217	-0.056
-324.114	102.521	0.103	0.121
-323.099	721.766	0.074	0.197
-322.085	564.106	-0.109	-0.264
-321.070	800.000	-0.044	-0.158
-320.056	85.282	-0.255	0.280
-319.041	-152.620	0.203	-0.014
-318.026	-112.099	0.087	0.018
-317.012	800.000	0.087	0.288
-315.997	-13.216	0.198	0.129
-314.983	174.572	0.149	0.215
-313.968	800.000	0.071	0.295
-312.953	-20.650	0.155	-0.095
-311.939	-133.677	0.273	-0.034
-310.924	356.815	-0.128	-0.256
-309.910	170.379	0.164	0.234
-308.895	32.160	0.087	-0.075
-307.880	-200.000	0.014	0.241
-306.866	-178.917	0.227	-0.005
-305.851	800.000	-0.034	0.095
-304.837	-103.962	0.239	0.056
-303.822	800.000	-0.037	0.132
-302.807	-3.414	-0.033	-0.023
-301.793	-20.480	-0.219	-0.135
-300.778	-27.592	0.232	-0.135
-299.764	-200.000	-0.034	0.285
-298.749	800.000	-0.063	0.215
-297.735	-200.000	0.014	-0.150
-296.720	-124.687	-0.264	0.041
-295.705	-58.229	-0.101	0.044
-294.691	-126.950	-0.271	-0.040
-293.676	-12.364	-0.080	0.052
-292.662	34.478	-0.147	0.128
-291.647	-200.000	-0.041	0.210
-290.632	-200.000	-0.042	0.188
-289.618	117.815	0.152	-0.187
-288.603	11.519	-0.307	0.236
-287.589	84.422	-0.087	0.096
-286.574	-200.000	-0.014	0.088
-285.559	-55.659	-0.175	0.078
-284.545	135.787	0.013	0.018
-283.530	85.570	-0.153	0.168
-282.516	800.000	-0.033	0.134
-281.501	-67.486	-0.343	0.135
-280.486	25.265	-0.231	-0.192
-279.472	-76.884	-0.221	-0.077
-278.457	65.935	0.177	-0.180
-277.443	-200.000	0.043	-0.200
-276.428	-125.670	0.269	0.041
-275.413	800.000	-0.082	0.225
-274.399	-141.862	-0.104	0.010
-273.384	42.483	0.191	-0.174
-272.370	272.437	0.116	-0.205
-271.355	767.333	-0.045	0.123
-270.340	-67.177	0.155	-0.061
-269.326	800.000	-0.026	-0.112
-268.311	-80.998	-0.172	0.057
-267.297	-148.174	-0.216	-0.018
-266.282	212.917	0.057	-0.090
-265.267	211.008	0.112	0.175
-264.253	-57.121	-0.439	0.193
-263.238	-200.000	-0.049	0.539
-262.224	190.322	-0.215	0.322
-261.209	171.809	-0.095	-0.136
-260.195	-200.000	-0.037	-0.293
-259.180	12.185	0.218	0.168
-258.165	-200.000	0.008	-0.136
-257.151	-129.023	0.084	0.012
-256.136	-165.587	0.197	-0.009
-255.122	382.164	0.090	-0.184
-254.107	800.000	-0.085	-0.276
-253.092	-129.290	0.474	0.066
-252.078	-32.734	0.325	-0.180
-251.063	-54.303	-0.338	-0.153
-250.049	-200.000	-0.012	-0.353
-249.034	800.000	0.055	0.190
-248.019	219.253	-0.155	-0.248
-247.005	14.217	-0.263	-0.204
-245.990	-121.579	-0.368	-0.061
-244.976	-95.279	-0.100	-0.027
-243.961	-35.244	0.222	0.121
-242.946	-200.000	-0.047	-0.328
-241.932	353.663	-0.051	0.101
-240.917	477.950	-0.177	-0.400
-239.903	800.000	0.082	0.271
-238.888	-44.416	-0.158	0.079
-237.873	61.023	0.113	0.111
-236.859	-38.970	0.196	-0.103
-235.844	-163.973	0.031	-0.001
-234.830	800.000	0.037	-0.127
-233.815	800.000	-0.171	-0.473
-232.800	-34.852	0.144	0.079
-231.786	-71.129	-0.313	0.117
-230.771	463.973	0.184	-0.410
-229.757	-138.552	0.198	0.022
-228.742	168.690	0.081	0.116
-227.727	-200.000	0.028	0.325
-226.713	152.696	-0.108	-0.148
-225.698	97.452	-0.160	-0.183
-224.684	-200.000	0.011	-0.087
-223.669	-200.000	0.020	0.120
-222.655	22.399	0.091	-0.074
-221.640	-37.728	0.235	-0.125
-220.625	372.061	-0.180	0.365
-219.611	-82.150	-0.125	-0.041
-218.596	-109.687	0.008	-0.002
-217.582	136.277	0.187	0.243
-216.567	-137.867	0.144	0.016
-215.552	-66.258	-0.157	0.062
-214.538	-37.883	-0.136	0.072
-213.523	-112.669	0.318	-0.063
-212.509	193.599	0.144	0.217
-211.494	151.187	0.139	0.188
-210.479	800.000	0.037	0.103
-209.465	164.112	0.109	-0.154
-208.450	-200.000	0.015	-0.205
-207.436	-102.781	-0.175	0.042
-206.421	-76.255	0.289	-0.101
-205.406	167.103	0.207	0.293
-204.392	-80.764	-0.143	0.047
-203.377	-132.962	0.132	0.017
-202.363	150.754	0.181	0.245
-201.348	-155.904	0.125	0.008
-200.333	347.815	-0.202	-0.397
-199.319	-111.688	0.215	0.043
-198.304	-64.173	-0.350	-0.142
-197.290	-106.258	-0.253	-0.056
-196.275	-200.000	-0.025	0.130
-195.260	188.948	0.317	0.472
-194.246	229.265	0.046	0.075
-193.231	323.394	-0.030	0.058
-192.217	-75.156	-0.242	0.086
-191.202	-85.843	0.040	-0.012
-190.187	24.840	-0.250	-0.206
-189.173	-69.489	0.252	0.096
-188.158	-200.000	0.005	-0.290
-187.144	-200.000	-0.001	0.016
-186.129	29.465	-0.318	0.269
-185.114	-165.206	0.393	-0.017
-184.100	774.038	0.165	0.449
-183.085	800.000	0.096	0.366
-182.071	-200.000	0.012	-0.112
-181.056	-113.083	0.184	0.036
-180.042	-126.495	-0.130	-0.019
-179.027	737.066	0.050	0.134
-178.012	-54.134	-0.188	0.085
-176.998	-125.773	0.387	0.058
-175.983	-143.844	-0.163	-0.015
-174.969	-200.000	-0.030	0.161
-173.954	-200.000	-0.028	0.200
-172.939	-200.000	-0.003	-0.174
-171.925	-200.000	-0.004	0.119
-170.910	-170.109	0.431	-0.015
-169.896	-200.000	0.030	0.175
-168.881	319.797	-0.164	0.310
-167.866	30.500	0.177	0.151
-166.852	-85.032	-0.078	-0.024
-165.837	38.168	-0.162	-0.143
-164.823	16.545	-0.315	-0.248
-163.808	-146.610	0.382	0.033
-162.793	-137.539	-0.219	-0.025
-161.779	44.096	-0.224	0.204
-160.764	-200.000	0.032	0.164
-159.750	-48.212	-0.363	0.174
-158.735	-75.867	0.296	0.104
-157.720	-200.000	-0.001	0.178
-156.706	255.768	-0.131	0.222
-155.691	-141.555	0.159	-0.016
-154.677	-200.000	-0.047	-0.323
-153.662	-10.938	-0.172	0.113
-152.647	21.251	0.145	0.117
-151.633	85.584	0.195	0.213
-150.618	-173.163	0.075	0.002
-149.604	189.713	-0.220	-0.328
-148.589	174.560	-0.248	-0.357
-147.574	57.125	-0.103	-0.100
-146.560	48.217	0.254	-0.236
-145.545	-158.124	-0.335	0.020
-144.531	250.334	0.128	-0.216
-143.516	-99.260	0.277	0.069
-142.502	216.824	0.074	0.116
-141.487	-57.344	0.180	-0.079
-140.472	43.021	-0.017	0.015
-139.458	74.551	-0.055	-0.058
-138.443	-92.112	0.305	-0.086
-137.429	17.729	0.086	-0.068
-136.414	12.347	-0.147	0.112
-135.399	661.948	0.073	-0.186
-134.385	-200.000	0.013	0.343
-133.370	233.485	0.084	0.137
-132.356	800.000	0.072	0.209
-131.341	44.998	-0.195	0.178
-130.326	56.116	-0.105	-0.102
-129.312	-121.272	0.112	0.019
-128.297	-200.000	-0.008	-0.088
-127.283	-200.000	-0.005	0.344
-126.268	352.894	0.120	0.236
-125.253	-117.938	0.113	0.020
-124.239	-165.205	0.050	-0.002
-123.224	60.399	0.230	0.226
-122.210	-200.000	0.030	-0.138
