DTS Sentinel unit serial number:	SN413079Multiplexer serial number:	ORYXHardware model number:	OX4-SRSoftware version number:	ORYX F/W v4.00 Oryx Data Collector v3.7.2.0data status	okinstallation	princeton_trtdifferential loss correction	single-endedforward channel	channel 4reverse channel	N/Adate	2019/09/12time	16:31:11forward acquisition time	60.00reverse acquisition time	0.00gamma	496.2192k internal	0.2303k external	0.2303temperature offset calibration	1.0113default loss term (dB/km)	0.3790temperature slope calibration	1.0000multiplexer offset coefficient	1.0000multiplexer slope coefficient	1.0000fibre end	0.00T internal ref (°C)	37.25T ext. ref 1 (°C)	2.54T ext. ref 2 (°C)	29.81length (m)	temperature (°C)	Stokes	anti-Stokes-747.200	-92.279	-0.133	-0.038
-746.185	-200.000	0.010	0.150
-745.171	-200.000	0.053	-0.324
-744.156	340.817	-0.082	0.164
-743.142	-159.932	0.488	-0.027
-742.127	-200.000	-0.037	0.245
-741.112	-113.764	0.428	-0.085
-740.098	-66.991	-0.308	-0.124
-739.083	-200.000	0.017	-0.105
-738.069	-43.512	-0.220	0.113
-737.054	99.089	0.091	-0.107
-736.039	-200.000	0.014	-0.210
-735.025	-191.898	-0.081	-0.001
-734.010	9.182	0.149	-0.115
-732.996	800.000	-0.076	0.228
-731.981	-200.000	-0.012	-0.200
-730.966	307.704	0.086	-0.163
-729.952	-4.437	-0.196	-0.138
-728.937	299.761	0.192	-0.361
-727.923	-16.879	0.388	0.250
-726.908	-22.999	-0.344	0.211
-725.894	-200.000	-0.013	0.204
-724.879	-160.286	-0.360	-0.020
-723.864	683.839	-0.056	-0.148
-722.850	65.870	-0.039	0.041
-721.835	162.562	-0.169	-0.242
-720.821	-147.829	0.173	-0.015
-719.806	-200.000	0.007	-0.228
-718.791	518.572	-0.094	0.224
-717.777	355.094	-0.086	-0.174
-716.762	148.967	0.059	0.081
-715.748	228.135	-0.239	-0.395
-714.733	-165.420	-0.375	0.017
-713.718	290.016	0.063	0.117
-712.704	-45.800	-0.552	0.277
-711.689	9.836	0.142	0.109
-710.675	129.194	-0.216	0.280
-709.660	749.222	-0.041	-0.114
-708.645	-86.577	-0.140	-0.044
-707.631	216.493	-0.100	0.163
-706.616	-73.240	-0.284	-0.106
-705.602	185.547	-0.081	0.122
-704.587	-139.180	0.328	0.036
-703.572	121.663	-0.226	-0.286
-702.558	58.544	-0.062	-0.061
-701.543	490.769	-0.169	-0.393
-700.529	48.661	-0.193	0.184
-699.514	-33.732	0.119	0.067
-698.499	198.321	-0.074	-0.116
-697.485	213.679	0.023	0.038
-696.470	2.083	-0.125	-0.092
-695.456	800.000	0.020	0.068
-694.441	-139.390	-0.376	-0.041
-693.426	800.000	-0.016	0.072
-692.412	800.000	-0.093	-0.307
-691.397	800.000	0.071	0.307
-690.383	23.774	0.092	0.077
-689.368	24.177	0.255	-0.214
-688.354	404.070	0.152	-0.326
-687.339	308.195	0.256	0.486
-686.324	23.698	-0.211	-0.176
-685.310	-200.000	0.003	0.074
-684.295	-73.216	-0.288	0.107
-683.281	800.000	-0.087	0.386
-682.266	-49.996	-0.419	-0.202
-681.251	323.548	0.068	-0.132
-680.237	-200.000	-0.015	-0.094
-679.222	-120.350	-0.065	-0.011
-678.208	800.000	-0.016	-0.061
-677.193	-129.778	0.252	0.035
-676.178	-61.355	-0.274	0.117
-675.164	177.489	-0.203	0.301
-674.149	-109.737	0.102	-0.022
-673.135	553.550	0.113	-0.276
-672.120	-94.019	-0.473	0.132
-671.105	-44.222	-0.275	-0.140
-670.091	145.039	0.099	0.135
-669.076	-58.468	0.280	0.124
-668.062	-133.988	-0.095	-0.012
-667.047	-157.785	-0.252	-0.015
-666.032	-1.379	0.386	-0.277
-665.018	477.558	0.143	-0.329
-664.003	1.855	0.309	-0.227
-662.989	46.305	0.204	0.192
-661.974	-113.906	-0.262	0.052
-660.959	33.638	-0.262	0.231
-659.945	288.758	-0.135	0.248
-658.930	307.044	-0.100	0.189
-657.916	39.643	-0.046	-0.042
-656.901	197.087	0.173	-0.269
-655.886	127.748	0.105	-0.135
-654.872	-150.807	-0.111	-0.009
-653.857	-34.341	-0.308	-0.172
-652.843	-171.655	-0.025	0.001
-651.828	-200.000	-0.419	0.001
-650.814	-132.842	0.146	-0.019
-649.799	86.590	-0.122	-0.136
-648.784	-200.000	0.052	0.330
-647.770	-78.285	0.151	-0.053
-646.755	563.905	-0.081	0.198
-645.741	560.145	0.139	-0.341
-644.726	144.473	0.104	-0.141
-643.711	-76.885	-0.225	0.080
-642.697	-63.789	-0.116	-0.048
-641.682	606.736	-0.149	0.377
-640.668	-115.860	0.276	0.052
-639.653	1.718	-0.349	-0.255
-638.638	555.540	0.037	-0.091
-637.624	-120.616	-0.303	0.052
-636.609	-200.000	-0.040	0.216
-635.595	-46.837	-0.199	-0.099
-634.580	409.723	-0.061	0.131
-633.565	-43.332	-0.200	0.102
-632.551	-9.706	-0.011	-0.007
-631.536	-53.972	0.111	0.051
-630.522	-200.000	0.049	-0.226
-629.507	8.269	-0.136	-0.104
-628.492	9.215	0.034	0.026
-627.478	95.305	-0.163	-0.188
-626.463	214.207	0.092	0.147
-625.449	142.471	-0.260	0.351
-624.434	780.386	-0.058	-0.161
-623.419	345.596	0.104	0.208
-622.405	-163.526	0.162	0.008
-621.390	-70.473	-0.267	-0.103
-620.376	-46.942	-0.122	0.061
-619.361	-42.342	-0.118	-0.061
-618.346	15.906	0.046	-0.037
-617.332	-174.021	0.083	0.002
-616.317	551.150	0.117	-0.284
-615.303	-98.808	0.379	-0.098
-614.288	-128.327	0.250	-0.036
-613.273	-15.141	0.208	0.135
-612.259	-51.783	0.077	0.037
-611.244	-57.634	0.216	-0.096
-610.230	-200.000	0.041	-0.326
-609.215	5.721	0.169	-0.127
-608.201	-25.692	0.305	-0.182
-607.186	204.364	0.131	-0.206
-606.171	-151.880	-0.137	-0.010
-605.157	-98.063	0.121	-0.032
-604.142	86.224	0.252	0.281
-603.128	-200.000	-0.030	-0.142
-602.113	-151.932	-0.039	-0.003
-601.098	-177.348	0.471	-0.012
-600.084	197.564	-0.186	-0.288
-599.069	-105.204	-0.194	-0.045
-598.055	23.450	-0.156	-0.130
-597.040	-53.055	-0.261	0.122
-596.025	-48.453	0.434	0.212
-595.011	-100.932	0.236	0.059
-593.996	-166.455	-0.085	-0.004
-592.982	-79.918	0.366	0.124
-591.967	-156.105	-0.064	0.004
-590.952	-8.668	0.466	0.317
-589.938	-200.000	0.013	0.420
-588.923	-91.327	-0.366	-0.106
-587.909	-154.073	-0.083	0.006
-586.894	-38.296	-0.130	-0.070
-585.879	-109.321	0.436	0.093
-584.865	-88.357	0.210	-0.064
-583.850	-112.671	-0.281	-0.057
-582.836	-24.540	-0.351	-0.212
-581.821	-84.196	0.294	0.095
-580.806	535.650	-0.022	-0.053
-579.792	-200.000	-0.065	-0.324
-578.777	-151.157	-0.223	-0.017
-577.763	-54.111	0.062	0.029
-576.748	74.698	-0.256	-0.273
-575.733	145.690	0.030	-0.041
-574.719	-135.770	0.216	-0.026
-573.704	-150.514	-0.118	0.009
-572.690	457.176	-0.104	0.235
-571.675	-200.000	0.013	-0.144
-570.661	-83.099	-0.077	-0.025
-569.646	670.694	0.072	0.189
-568.631	-38.032	0.225	-0.121
-567.617	293.386	0.117	-0.216
-566.602	-200.000	0.025	-0.366
-565.588	-200.000	-0.063	0.294
-564.573	-104.428	-0.323	-0.076
-563.558	-200.000	0.043	-0.197
-562.544	-200.000	0.030	0.431
-561.529	-118.668	0.400	-0.071
-560.515	145.536	-0.128	-0.174
-559.500	-126.143	0.103	0.016
-558.485	143.799	0.096	-0.129
-557.471	46.456	0.201	-0.189
-556.456	-13.573	-0.113	0.074
-555.442	-41.163	-0.140	0.073
-554.427	-200.000	0.004	0.170
-553.412	188.658	-0.142	0.215
-552.398	-200.000	0.001	-0.289
-551.383	79.709	-0.173	0.187
-550.369	-20.466	-0.077	0.048
-549.354	-200.000	-0.142	0.000
-548.339	800.000	0.064	-0.195
-547.325	192.690	-0.169	0.258
-546.310	-61.348	0.122	-0.052
-545.296	-99.497	-0.199	-0.051
-544.281	800.000	-0.032	-0.096
-543.266	-69.256	0.166	-0.064
-542.252	278.260	-0.084	-0.151
-541.237	-150.529	-0.144	-0.011
-540.223	-200.000	0.051	-0.237
-539.208	-131.444	-0.144	-0.019
-538.193	800.000	0.029	-0.103
-537.179	-87.731	-0.179	-0.054
-536.164	30.518	0.051	0.044
-535.150	35.708	0.188	0.167
-534.135	800.000	-0.078	0.259
-533.121	404.099	0.067	-0.143
-532.106	800.000	0.050	-0.147
-531.091	262.217	0.096	-0.168
-530.077	-57.130	-0.406	0.181
-529.062	-40.994	-0.318	-0.166
-528.048	-200.000	0.125	0.000
-527.033	800.000	-0.022	-0.061
-526.018	73.309	0.202	0.214
-525.004	-54.003	0.191	-0.088
-523.989	800.000	0.104	-0.317
-522.975	-104.415	0.384	0.090
-521.960	800.000	0.133	-0.380
-520.945	-95.123	-0.081	-0.022
-519.931	800.000	0.085	0.280
-518.916	188.872	0.158	-0.239
-517.902	204.668	-0.098	0.154
-516.887	-130.524	-0.311	-0.042
-515.872	141.663	0.023	0.031
-514.858	-109.978	0.127	-0.027
-513.843	538.729	-0.091	0.220
-512.829	-151.640	0.244	-0.018
-511.814	-97.080	-0.175	-0.046
-510.799	-157.832	0.249	0.015
-509.785	584.569	-0.136	0.338
-508.770	-200.000	-0.033	0.288
-507.756	741.067	0.102	0.278
-506.741	-200.000	0.058	0.367
-505.726	-200.000	0.041	0.232
-504.712	66.463	0.132	-0.136
-503.697	-200.000	0.018	-0.278
-502.683	551.686	-0.064	-0.155
-501.668	-200.000	0.000	-0.160
-500.653	114.794	0.239	0.294
-499.639	800.000	-0.097	0.273
-498.624	77.849	-0.100	-0.107
-497.610	-200.000	-0.021	-0.269
-496.595	-16.463	0.174	0.111
-495.581	211.263	-0.173	0.275
-494.566	318.562	-0.062	-0.118
-493.551	754.756	-0.133	0.364
-492.537	207.261	-0.122	0.192
-491.522	286.610	0.218	-0.397
-490.508	262.884	0.199	-0.348
-489.493	-200.000	0.014	-0.082
-488.478	192.249	0.290	0.442
-487.464	-49.543	-0.283	0.136
-486.449	-4.762	-0.175	-0.122
-485.435	132.264	0.112	-0.145
-484.420	-6.126	-0.086	-0.059
-483.405	456.234	-0.107	-0.240
-482.391	-200.000	-0.038	-0.175
-481.376	-93.734	-0.208	0.058
-480.362	-200.000	-0.011	-0.244
-479.347	-200.000	0.007	-0.186
-478.332	-200.000	0.069	-0.377
-477.318	61.874	0.285	0.286
-476.303	-200.000	-0.011	0.394
-475.289	143.833	-0.164	-0.221
-474.274	156.453	0.061	0.085
-473.259	14.942	0.102	-0.080
-472.245	800.000	-0.114	-0.394
-471.230	187.118	-0.187	0.281
-470.216	-200.000	-0.059	0.263
-469.201	54.673	-0.066	0.064
-468.186	14.955	-0.260	0.205
-467.172	-19.579	0.142	0.089
-466.157	58.503	0.105	0.104
-465.143	19.347	-0.130	-0.106
-464.128	-137.041	-0.316	-0.036
-463.113	65.166	-0.019	-0.019
-462.099	32.827	-0.290	0.253
-461.084	466.050	0.006	0.013
-460.070	38.481	0.109	-0.098
-459.055	530.765	0.047	0.111
-458.040	395.193	-0.129	-0.271
-457.026	208.606	0.061	-0.096
-456.011	800.000	0.097	0.302
-454.997	-200.000	0.035	0.191
-453.982	149.029	-0.103	0.140
-452.968	800.000	-0.035	-0.110
-451.953	11.840	0.127	0.098
-450.938	-200.000	0.041	0.267
-449.924	239.066	-0.102	0.171
-448.909	-200.000	-0.039	-0.211
-447.895	-200.000	-0.013	-0.266
-446.880	-123.345	0.185	-0.030
-445.865	-42.841	0.195	-0.100
-444.851	-200.000	-0.003	-0.290
-443.836	-96.738	-0.083	-0.022
-442.822	122.190	0.075	-0.094
-441.807	-22.493	0.148	-0.090
-440.792	-200.000	0.008	-0.099
-439.778	87.668	-0.201	-0.224
-438.763	800.000	0.071	0.281
-437.749	258.533	0.037	-0.064
-436.734	-126.438	0.240	0.036
-435.719	-117.662	-0.183	-0.033
-434.705	21.423	-0.160	-0.131
-433.690	-86.916	-0.168	0.052
-432.676	166.163	0.239	0.340
-431.661	-200.000	0.042	-0.295
-430.646	-81.171	0.104	-0.035
-429.632	415.864	-0.148	-0.318
-428.617	-200.000	-0.034	-0.196
-427.603	-113.058	-0.276	0.055
-426.588	88.093	-0.043	0.048
-425.573	289.874	0.143	0.262
-424.559	52.173	0.132	-0.127
-423.544	148.746	-0.190	0.258
-422.530	-132.945	0.208	0.027
-421.515	222.736	0.019	0.031
-420.500	-200.000	-0.017	-0.256
-419.486	-200.000	-0.029	0.402
-418.471	-5.117	0.168	-0.116
-417.457	48.720	0.143	-0.135
-416.442	-132.745	-0.115	-0.015
-415.428	-200.000	0.030	0.345
-414.413	-200.000	-0.002	0.105
-413.398	-80.451	-0.199	0.067
-412.384	314.849	0.096	0.183
-411.369	21.146	0.150	-0.122
-410.355	34.830	-0.075	-0.066
-409.340	-200.000	0.016	-0.136
-408.325	-200.000	-0.015	-0.271
-407.311	-66.382	0.145	-0.058
-406.296	-44.512	0.318	0.160
-405.282	30.786	-0.137	-0.118
-404.267	131.933	-0.079	-0.103
-403.252	-135.351	-0.091	0.011
-402.238	-200.000	0.038	0.307
-401.223	37.192	-0.153	0.136
-400.209	800.000	-0.022	0.061
-399.194	-200.000	-0.009	-0.292
-398.179	-80.108	0.080	0.027
-397.165	566.935	-0.052	0.127
-396.150	-81.208	0.023	-0.008
-395.136	-24.483	-0.291	0.174
-394.121	800.000	0.124	0.380
-393.106	-200.000	-0.005	-0.146
-392.092	800.000	-0.141	0.450
-391.077	-200.000	-0.007	0.138
-390.063	-200.000	0.021	-0.096
-389.048	258.445	-0.088	-0.153
-388.033	-200.000	0.005	0.046
-387.019	592.376	0.042	-0.105
-386.004	-70.355	-0.338	0.129
-384.990	-200.000	0.028	-0.221
-383.975	-200.000	-0.004	-0.178
-382.960	64.161	0.194	0.196
-381.946	459.626	0.104	0.233
-380.931	82.497	0.238	-0.259
-379.917	177.771	-0.083	0.122
-378.902	165.753	-0.143	-0.204
-377.888	-35.499	0.344	-0.188
-376.873	0.903	0.104	0.074
-375.858	212.026	0.081	-0.128
-374.844	22.734	-0.094	0.077
-373.829	317.487	-0.041	-0.077
-372.815	-48.555	0.102	-0.049
-371.800	-200.000	-0.013	-0.077
-370.785	425.153	-0.188	-0.407
-369.771	800.000	-0.096	0.276
-368.756	-50.727	0.211	0.100
-367.742	800.000	0.074	-0.313
-366.727	355.901	-0.103	-0.207
-365.712	-200.000	0.028	-0.196
-364.698	710.916	0.126	-0.334
-363.683	-113.249	-0.144	0.028
-362.669	-104.507	-0.349	-0.081
-361.654	618.514	0.029	-0.074
-360.639	-46.600	-0.174	-0.086
-359.625	-28.165	0.455	-0.264
-358.610	-42.839	-0.138	0.070
-357.596	789.022	-0.139	0.383
-356.581	266.643	0.001	0.001
-355.566	-31.668	0.152	-0.086
-354.552	800.000	0.063	0.233
-353.537	680.892	-0.177	-0.462
-352.523	800.000	0.053	0.147
-351.508	43.077	0.225	0.206
-350.493	-34.509	0.053	-0.029
-349.479	730.691	-0.083	-0.223
-348.464	191.202	-0.099	0.149
-347.450	-121.953	-0.116	-0.019
-346.435	417.254	-0.090	-0.192
-345.420	-159.781	-0.332	0.018
-344.406	259.579	0.171	-0.296
-343.391	-200.000	-0.049	-0.385
-342.377	800.000	-0.101	-0.300
-341.362	-108.334	0.085	0.018
-340.348	-28.601	0.222	-0.128
-339.333	-200.000	-0.017	-0.084
-338.318	236.859	0.098	0.163
-337.304	458.141	0.044	0.099
-336.289	-145.501	-0.328	0.030
-335.275	800.000	0.040	0.122
-334.260	-84.410	-0.063	0.020
-333.245	-200.000	-0.072	-0.337
-332.231	330.615	-0.172	0.332
-331.216	-150.796	0.229	0.017
-330.202	80.665	0.076	-0.082
-329.187	-64.885	0.116	-0.047
-328.172	-1.484	0.271	0.192
-327.158	355.036	-0.083	-0.166
-326.143	105.913	-0.385	-0.457
-325.129	98.426	0.204	0.236
-324.114	-112.546	0.370	0.074
-323.099	166.058	-0.121	0.171
-322.085	146.132	0.168	-0.226
-321.070	-76.714	0.385	0.135
-320.056	-111.139	-0.357	-0.073
-319.041	90.008	0.142	0.159
-318.026	-71.374	-0.268	0.101
-317.012	-200.000	0.062	-0.438
-315.997	-29.282	0.177	-0.102
-314.983	40.158	-0.091	-0.082
-313.968	800.000	-0.100	-0.303
-312.953	38.526	-0.112	0.100
-311.939	-24.063	-0.111	-0.066
-310.924	-200.000	0.055	0.251
-309.910	-8.123	-0.072	-0.049
-308.895	201.061	-0.088	0.135
-307.880	-35.039	0.175	0.096
-306.866	-50.449	-0.169	-0.080
-305.851	-129.105	-0.101	-0.014
-304.837	33.879	-0.168	0.147
-303.822	-113.538	-0.345	-0.068
-302.807	-157.718	0.054	0.003
-301.793	563.985	0.149	-0.361
-300.778	800.000	-0.047	0.172
-299.764	-140.321	0.246	0.026
-298.749	244.649	-0.088	0.148
-297.735	606.112	0.108	0.270
-296.720	-20.349	-0.060	0.037
-295.705	-200.000	0.004	-0.047
-294.691	-118.045	0.019	-0.003
-293.676	49.700	0.133	-0.125
-292.662	-200.000	0.022	-0.218
-291.647	-65.253	0.096	0.039
-290.632	-200.000	-0.033	-0.173
-289.618	198.040	-0.188	-0.288
-288.603	117.749	0.161	0.199
-287.589	187.759	0.116	-0.173
-286.574	-1.056	-0.524	0.371
-285.559	-200.000	-0.032	0.141
-284.545	5.747	-0.276	-0.204
-283.530	1.729	-0.097	-0.070
-282.516	-29.741	0.251	-0.143
-281.501	-68.842	0.084	-0.032
-280.486	-172.465	-0.283	0.009
-279.472	52.856	-0.391	0.374
-278.457	160.506	0.172	-0.240
-277.443	-90.896	0.089	-0.026
-276.428	66.387	-0.183	-0.186
-275.413	-91.918	-0.440	0.125
-274.399	-200.000	0.002	-0.053
-273.384	-126.335	0.145	0.022
-272.370	-200.000	-0.016	0.095
-271.355	-105.608	-0.261	-0.059
-270.340	2.536	-0.131	-0.095
-269.326	800.000	0.029	-0.123
-268.311	99.115	0.161	0.186
-267.297	-125.609	-0.130	-0.020
-266.282	27.898	0.121	0.102
-265.267	-148.327	0.235	0.019
-264.253	40.313	-0.063	-0.057
-263.238	-200.000	-0.012	-0.136
-262.224	800.000	0.105	0.290
-261.209	-121.873	0.220	-0.036
-260.195	18.828	-0.123	0.099
-259.180	-200.000	0.063	0.655
-258.165	-74.832	-0.161	0.058
-257.151	800.000	0.051	0.211
-256.136	-104.359	0.224	-0.052
-255.122	-28.821	0.452	0.259
-254.107	170.431	0.035	-0.050
-253.092	-117.586	0.060	0.011
-252.078	-200.000	-0.026	0.176
-251.063	747.232	0.188	0.505
-250.049	64.692	0.121	-0.122
-249.034	3.944	-0.366	-0.268
-248.019	-200.000	-0.001	0.076
-247.005	255.355	0.152	0.261
-245.990	87.933	-0.076	0.085
-244.976	61.671	0.183	0.182
-243.961	-101.179	0.385	-0.094
-242.946	-50.018	-0.403	0.191
-241.932	-33.473	-0.099	-0.055
-240.917	-91.906	0.032	0.009
-239.903	30.644	0.073	-0.062
-238.888	800.000	-0.142	0.558
-237.873	-70.316	0.188	0.071
-236.859	45.748	-0.406	-0.375
-235.844	-200.000	0.005	0.071
-234.830	800.000	-0.080	-0.280
-233.815	-103.027	-0.313	0.074
-232.800	-157.823	-0.104	0.006
-231.786	237.208	-0.124	0.206
-230.771	60.457	-0.068	-0.068
-229.757	763.557	0.144	-0.390
-228.742	8.522	0.231	-0.173
-227.727	-126.831	-0.168	0.025
-226.713	185.129	-0.096	0.142
-225.698	-54.509	-0.162	0.073
-224.684	-51.749	0.068	0.032
-223.669	171.681	0.193	0.276
-222.655	-21.894	0.204	0.124
-221.640	-116.389	0.122	-0.023
-220.625	-175.741	0.097	0.003
-219.611	-146.071	0.306	0.027
-218.596	346.037	-0.086	-0.169
-217.582	-193.377	0.129	0.001
-216.567	-140.500	0.462	0.048
-215.552	-200.000	0.006	0.180
-214.538	279.108	0.127	0.226
-213.523	81.412	-0.123	-0.133
-212.509	265.268	0.146	0.254
-211.494	800.000	0.106	0.344
-210.479	-6.115	-0.219	-0.149
-209.465	-83.023	-0.108	-0.035
-208.450	138.669	-0.148	0.193
-207.436	-61.220	-0.116	-0.049
-206.421	142.666	-0.323	0.427
-205.406	-200.000	0.016	0.178
-204.392	-83.609	0.252	-0.080
-203.377	315.209	0.127	-0.239
-202.363	-200.000	-0.009	0.389
-201.348	800.000	0.072	0.205
-200.333	-115.344	-0.105	-0.020
-199.319	37.498	0.191	-0.169
-198.304	-200.000	-0.039	-0.188
-197.290	5.448	-0.158	-0.116
-196.275	-59.086	0.080	-0.034
-195.260	370.747	0.113	-0.229
-194.246	800.000	-0.043	-0.134
-193.231	-24.499	0.138	-0.082
-192.217	75.410	0.197	0.207
-191.202	-200.000	-0.047	0.354
-190.187	800.000	0.061	-0.189
-189.173	-43.815	0.205	0.103
-188.158	-200.000	0.011	-0.231
-187.144	624.803	-0.087	0.218
-186.129	107.865	0.243	0.288
-185.114	66.893	-0.161	-0.164
-184.100	-173.712	0.072	-0.002
-183.085	-186.829	0.347	0.005
-182.071	-11.265	-0.211	-0.138
-181.056	800.000	-0.074	0.295
-180.042	-200.000	0.006	0.050
-179.027	-200.000	-0.009	0.176
-178.012	800.000	0.066	-0.262
-176.998	-22.267	-0.086	-0.052
-175.983	800.000	-0.111	-0.353
-174.969	144.065	0.177	-0.235
-173.954	184.261	-0.124	-0.183
-172.939	-103.562	0.062	0.014
-171.925	-200.000	-0.019	0.300
-170.910	22.820	-0.072	-0.059
-169.896	425.754	0.069	0.148
-168.881	-200.000	-0.012	-0.174
-167.866	-42.781	-0.189	-0.096
-166.852	140.694	-0.157	0.206
-165.837	-100.868	-0.357	-0.087
-164.823	-17.964	0.085	-0.053
-163.808	163.695	0.046	-0.064
-162.793	14.904	-0.142	-0.111
-161.779	-200.000	-0.016	0.129
-160.764	-128.929	-0.272	0.038
-159.750	95.119	0.080	-0.090
-158.735	800.000	0.058	0.177
-157.720	-155.843	0.183	0.012
-156.706	-70.914	-0.227	-0.085
-155.691	-200.000	0.052	0.351
-154.677	-75.794	0.137	-0.048
-153.662	-95.838	0.106	0.028
-152.647	-96.638	-0.281	0.074
-151.633	-200.000	-0.020	0.175
-150.618	4.770	-0.194	-0.142
-149.604	90.996	0.130	0.145
-148.589	-98.415	0.171	0.044
-147.574	-159.486	0.298	-0.017
-146.560	-6.293	0.116	-0.079
-145.545	388.285	0.042	-0.086
-144.531	-105.030	-0.259	-0.059
-143.516	-85.220	0.061	0.019
-142.502	241.332	-0.075	-0.125
-141.487	98.230	0.011	-0.013
-140.472	243.310	-0.141	-0.236
-139.458	151.690	-0.230	-0.312
-138.443	-37.515	-0.311	0.165
-137.429	115.770	-0.082	-0.100
-136.414	9.929	0.178	0.135
-135.399	-200.000	-0.010	-0.128
-134.385	329.267	-0.042	-0.080
-133.370	-6.177	0.173	-0.118
-132.356	53.378	-0.104	-0.099
-131.341	698.932	0.030	-0.079
-130.326	-200.000	-0.030	-0.165
-129.312	52.404	0.142	-0.135
-128.297	800.000	-0.135	-0.383
-127.283	161.234	0.123	-0.171
-126.268	-126.406	-0.329	-0.049
-125.253	-97.548	0.239	0.062
-124.239	-75.353	-0.148	0.053
-123.224	-117.350	-0.074	0.013
-122.210	-58.866	-0.204	0.088
