DTS Sentinel unit serial number:	SN413079Multiplexer serial number:	ORYXHardware model number:	OX4-SRSoftware version number:	ORYX F/W v4.00 Oryx Data Collector v3.7.2.0data status	okinstallation	princeton_trtdifferential loss correction	single-endedforward channel	channel 4reverse channel	N/Adate	2019/09/18time	12:37:35forward acquisition time	60.00reverse acquisition time	0.00gamma	496.2192k internal	0.2304k external	0.2304temperature offset calibration	0.9989default loss term (dB/km)	0.3790temperature slope calibration	1.0000multiplexer offset coefficient	1.0000multiplexer slope coefficient	1.0000fibre end	0.00T internal ref (°C)	32.53T ext. ref 1 (°C)	0.54T ext. ref 2 (°C)	30.72length (m)	temperature (°C)	Stokes	anti-Stokes-747.200	800.000	0.096	0.286
-746.185	71.866	-0.184	0.195
-745.171	-38.632	0.158	-0.085
-744.156	-62.876	0.143	-0.060
-743.142	-51.127	-0.392	-0.187
-742.127	-71.738	0.012	0.004
-741.112	-61.389	0.143	-0.061
-740.098	800.000	-0.056	-0.216
-739.083	419.737	-0.060	0.130
-738.069	-200.000	0.057	0.341
-737.054	297.874	0.140	-0.262
-736.039	-200.000	0.119	0.000
-735.025	-114.038	-0.135	0.027
-734.010	18.515	-0.147	-0.120
-732.996	-200.000	-0.009	0.213
-731.981	-200.000	0.022	0.118
-730.966	-27.190	-0.152	0.090
-729.952	455.165	-0.059	-0.133
-728.937	133.398	-0.069	0.091
-727.923	186.079	0.064	-0.096
-726.908	769.217	0.100	-0.277
-725.894	-149.517	0.166	0.013
-724.879	800.000	0.012	0.033
-723.864	-102.654	-0.273	0.066
-722.850	-12.689	-0.226	-0.150
-721.835	800.000	0.062	-0.176
-720.821	69.230	-0.300	0.314
-719.806	655.488	-0.041	0.107
-718.791	800.000	-0.027	0.119
-717.777	-114.196	-0.113	0.022
-716.762	-62.654	0.140	-0.059
-715.748	-95.799	-0.196	-0.053
-714.733	0.197	-0.338	-0.245
-713.718	800.000	-0.030	-0.113
-712.704	-136.437	-0.084	-0.010
-711.689	14.532	-0.186	0.148
-710.675	41.585	0.314	0.289
-709.660	800.000	-0.061	0.191
-708.645	63.140	0.108	-0.110
-707.631	140.172	0.119	0.159
-706.616	800.000	-0.052	0.229
-705.602	6.958	-0.341	0.258
-704.587	38.854	0.270	-0.245
-703.572	-53.529	-0.202	-0.094
-702.558	222.410	-0.297	-0.485
-701.543	-200.000	0.075	-0.342
-700.529	-49.514	-0.189	0.092
-699.514	-122.634	-0.150	0.025
-698.499	1.995	0.209	-0.153
-697.485	583.885	0.155	0.387
-696.470	-200.000	-0.005	-0.201
-695.456	-200.000	0.054	0.257
-694.441	39.958	0.144	0.131
-693.426	744.619	0.105	-0.287
-692.412	83.049	0.146	-0.161
-691.397	800.000	-0.026	0.109
-690.383	-124.777	-0.318	0.050
-689.368	-35.071	-0.258	-0.143
-688.354	290.361	-0.078	0.145
-687.339	60.068	0.033	0.033
-686.324	-64.744	-0.067	0.028
-685.310	-200.000	-0.091	-0.543
-684.295	-200.000	-0.042	-0.364
-683.281	-200.000	-0.046	-0.217
-682.266	-105.007	0.133	0.031
-681.251	11.609	-0.184	-0.143
-680.237	-138.634	-0.241	0.027
-679.222	-43.944	0.255	-0.130
-678.208	90.244	-0.043	0.049
-677.193	800.000	-0.058	0.186
-676.178	707.336	0.063	0.168
-675.164	-200.000	-0.042	-0.481
-674.149	712.664	-0.020	-0.054
-673.135	-144.185	0.344	0.033
-672.120	0.500	0.283	-0.205
-671.105	677.381	-0.106	-0.281
-670.091	800.000	-0.128	-0.374
-669.076	-116.363	0.332	-0.062
-668.062	-200.000	0.019	-0.311
-667.047	-52.084	0.057	0.027
-666.032	227.773	-0.059	0.098
-665.018	-33.374	-0.221	0.124
-664.003	-15.406	-0.057	0.037
-662.989	-128.213	0.267	0.039
-661.974	214.035	-0.128	-0.205
-660.959	91.474	-0.058	0.067
-659.945	-118.954	-0.145	0.026
-658.930	-104.553	-0.286	-0.067
-657.916	7.135	-0.162	0.122
-656.901	-157.245	-0.034	0.002
-655.886	57.735	0.223	0.221
-654.872	800.000	-0.064	-0.254
-653.857	-77.739	0.129	-0.045
-652.843	-127.796	0.094	-0.014
-651.828	-67.186	-0.381	0.152
-650.814	-84.178	0.125	-0.040
-649.799	-3.413	0.166	0.117
-648.784	-200.000	-0.032	0.159
-647.770	-66.009	0.160	-0.065
-646.755	-200.000	-0.018	0.092
-645.741	298.357	-0.126	0.235
-644.726	6.193	0.264	-0.199
-643.711	635.851	0.093	-0.240
-642.697	82.538	0.060	0.066
-641.682	223.375	0.168	0.275
-640.668	-200.000	-0.035	-0.165
-639.653	294.611	0.199	-0.368
-638.638	-18.905	0.150	0.095
-637.624	161.182	0.046	0.065
-636.609	-56.657	0.157	0.071
-635.595	42.453	-0.173	0.159
-634.580	-151.702	-0.233	0.017
-633.565	-100.993	0.214	0.053
-632.551	-200.000	-0.011	0.180
-631.536	202.873	-0.147	-0.230
-630.522	-35.213	-0.285	0.158
-629.507	95.495	-0.144	0.167
-628.492	554.735	0.110	-0.269
-627.478	46.466	0.331	-0.311
-626.463	-135.106	-0.144	0.018
-625.449	-200.000	0.066	-0.393
-624.434	800.000	0.076	-0.296
-623.419	800.000	-0.079	-0.334
-622.405	19.536	-0.127	-0.103
-621.390	-28.981	0.248	-0.144
-620.376	382.325	-0.217	-0.451
-619.361	-12.295	0.157	-0.104
-618.346	5.714	0.152	-0.114
-617.332	-200.000	-0.011	0.130
-616.317	483.763	-0.058	-0.134
-615.303	-78.873	0.207	0.071
-614.288	321.509	-0.068	-0.132
-613.273	-85.251	0.174	-0.055
-612.259	363.312	-0.057	0.115
-611.244	151.423	0.237	0.327
-610.230	124.375	0.171	0.218
-609.215	330.484	0.190	0.371
-608.201	-200.000	-0.018	0.115
-607.186	-200.000	-0.023	-0.115
-606.171	-200.000	0.001	-0.012
-605.157	48.763	-0.217	-0.207
-604.142	83.035	0.265	-0.292
-603.128	230.354	-0.058	-0.097
-602.113	-177.247	0.266	-0.007
-601.098	-140.875	0.119	-0.012
-600.084	-200.000	0.042	-0.250
-599.069	33.017	-0.108	-0.095
-598.055	-69.229	0.447	-0.174
-597.040	84.454	-0.191	0.212
-596.025	-200.000	-0.023	0.121
-595.011	-149.086	0.087	0.007
-593.996	33.548	-0.164	0.144
-592.982	-156.418	-0.121	0.008
-591.967	39.779	0.175	0.159
-590.952	24.863	-0.157	0.132
-589.938	30.905	-0.496	0.430
-588.923	-101.175	-0.518	-0.128
-587.909	-66.125	0.376	-0.152
-586.894	-3.284	0.199	-0.141
-585.879	151.573	0.207	-0.285
-584.865	-140.262	-0.364	-0.039
-583.850	116.801	0.243	-0.302
-582.836	140.709	0.090	-0.120
-581.821	800.000	0.117	0.335
-580.806	36.448	0.168	0.150
-579.792	-59.946	-0.134	-0.058
-578.777	-53.755	-0.178	-0.082
-577.763	-121.081	0.087	-0.015
-576.748	-200.000	0.030	-0.295
-575.733	-73.954	-0.196	0.072
-574.719	800.000	-0.099	-0.353
-573.704	-200.000	0.008	-0.126
-572.690	-120.422	0.273	0.047
-571.675	536.160	-0.080	0.191
-570.661	-200.000	-0.025	0.192
-569.646	62.240	-0.148	-0.150
-568.631	-67.619	0.233	0.092
-567.617	11.283	-0.215	0.167
-566.602	800.000	0.096	-0.310
-565.588	72.593	0.076	0.080
-564.573	-168.058	0.224	0.009
-563.558	-200.000	0.028	0.218
-562.544	409.328	-0.144	-0.308
-561.529	-179.021	-0.196	0.004
-560.515	80.482	-0.168	0.183
-559.500	99.430	0.195	-0.228
-558.485	-200.000	0.013	-0.063
-557.471	279.723	0.028	0.050
-556.456	-81.926	0.209	0.069
-555.442	-200.000	-0.036	-0.000
-554.427	196.599	-0.110	-0.169
-553.412	144.273	-0.102	0.138
-552.398	680.134	-0.114	0.300
-551.383	67.694	0.054	-0.055
-550.369	276.733	-0.181	-0.326
-549.354	-56.275	-0.380	-0.171
-548.339	-12.230	-0.230	-0.152
-547.325	249.139	-0.204	-0.349
-546.310	-61.120	0.090	0.038
-545.296	-200.000	-0.046	-0.218
-544.281	23.665	0.157	0.131
-543.266	-78.665	0.164	0.057
-542.252	-200.000	-0.041	0.222
-541.237	-200.000	-0.270	-0.001
-540.223	-68.751	-0.083	-0.032
-539.208	-200.000	-0.064	-0.393
-538.193	-200.000	0.022	-0.128
-537.179	96.639	0.119	0.138
-536.164	-200.000	0.016	0.228
-535.150	96.655	-0.166	-0.192
-534.135	716.593	-0.081	0.216
-533.121	-103.242	-0.197	-0.047
-532.106	800.000	0.015	-0.058
-531.091	265.740	-0.100	0.176
-530.077	15.318	-0.244	-0.194
-529.062	-156.924	0.199	0.012
-528.048	-24.763	-0.120	0.072
-527.033	-200.000	-0.024	-0.123
-526.018	-126.824	-0.216	-0.032
-525.004	-68.044	0.142	-0.056
-523.989	-161.722	-0.229	-0.012
-522.975	-91.200	0.168	0.049
-521.960	335.206	-0.097	-0.190
-520.945	-75.263	0.170	-0.061
-519.931	-200.000	0.084	0.526
-518.916	-86.783	0.144	-0.045
-517.902	44.539	-0.152	-0.141
-516.887	-200.000	-0.034	-0.245
-515.872	800.000	-0.064	-0.211
-514.858	-48.328	-0.069	0.034
-513.843	176.807	-0.126	0.186
-512.829	-82.505	-0.165	0.054
-511.814	268.587	0.086	-0.151
-510.799	51.778	0.230	0.221
-509.785	-5.428	0.113	0.078
-508.770	68.421	-0.132	0.136
-507.756	193.384	0.078	0.119
-506.741	-118.847	0.239	0.042
-505.726	800.000	0.038	-0.143
-504.712	-121.210	0.238	0.040
-503.697	800.000	-0.044	-0.161
-502.683	800.000	-0.027	-0.115
-501.668	-34.251	0.278	0.154
-500.653	-101.476	0.163	0.040
-499.639	-8.334	-0.060	0.041
-498.624	5.888	-0.249	0.186
-497.610	-127.245	-0.280	-0.041
-496.595	-200.000	0.002	0.499
-495.581	-200.000	0.035	0.219
-494.566	389.159	-0.034	0.072
-493.551	217.701	0.165	0.265
-492.537	-2.608	-0.263	-0.185
-491.522	175.599	-0.194	0.283
-490.508	6.706	0.162	-0.122
-489.493	-200.000	0.045	-0.208
-488.478	800.000	0.007	0.027
-487.464	-119.251	-0.166	0.029
-486.449	-29.864	0.278	-0.160
-485.435	-3.756	0.316	-0.221
-484.420	-191.927	-0.137	0.001
-483.405	2.871	0.179	0.131
-482.391	-200.000	0.032	-0.226
-481.376	114.253	-0.099	-0.121
-480.362	18.341	0.211	0.170
-479.347	341.044	0.165	-0.325
-478.332	-200.000	-0.058	-0.320
-477.318	-83.387	0.304	-0.098
-476.303	-31.730	0.190	0.107
-475.289	-200.000	-0.050	-0.231
-474.274	-163.579	-0.128	0.006
-473.259	139.440	-0.100	0.132
-472.245	-20.450	-0.214	-0.132
-471.230	139.352	0.161	0.213
-470.216	-143.981	-0.379	0.036
-469.201	494.993	-0.082	0.189
-468.186	800.000	-0.126	0.351
-467.172	305.589	0.109	-0.203
-466.157	-109.744	0.193	-0.041
-465.143	-200.000	0.019	0.112
-464.128	-48.018	0.188	0.091
-463.113	58.513	-0.301	0.297
-462.099	-51.081	0.324	0.153
-461.084	696.311	-0.094	0.249
-460.070	104.129	-0.198	-0.234
-459.055	225.327	0.029	0.047
-458.040	17.939	-0.144	-0.115
-457.026	63.790	-0.135	-0.136
-456.011	192.120	-0.176	0.268
-454.997	-64.706	0.152	-0.062
-453.982	620.856	-0.116	0.293
-452.968	57.609	-0.153	0.151
-451.953	-107.291	-0.183	-0.041
-450.938	367.343	-0.121	-0.246
-449.924	-140.606	-0.172	-0.018
-448.909	-200.000	0.030	0.296
-447.895	218.834	0.145	0.233
-446.880	-96.781	-0.142	0.038
-445.865	42.506	0.216	0.198
-444.851	239.677	-0.084	0.142
-443.836	-200.000	-0.506	-0.001
-442.822	-157.380	-0.180	0.011
-441.807	-33.102	0.384	0.215
-440.792	63.885	0.139	-0.141
-439.778	1.752	-0.115	-0.084
-438.763	-200.000	0.032	-0.159
-437.749	-200.000	-0.009	-0.206
-436.734	-62.569	0.193	-0.081
-435.719	-70.785	0.146	-0.056
-434.705	-31.189	0.316	-0.179
-433.690	-45.711	-0.250	-0.124
-432.676	-169.461	-0.119	-0.004
-431.661	800.000	0.012	0.042
-430.646	-200.000	0.110	-0.554
-429.632	-20.421	0.198	0.122
-428.617	84.500	-0.159	0.175
-427.603	473.557	0.022	-0.050
-426.588	776.837	0.096	0.265
-425.573	-64.164	-0.301	-0.123
-424.559	-32.646	0.208	0.116
-423.544	-200.000	0.035	-0.158
-422.530	800.000	-0.058	0.169
-421.515	55.153	0.185	-0.180
-420.500	-200.000	0.041	-0.228
-419.486	-132.408	0.089	-0.012
-418.471	77.243	-0.077	-0.082
-417.457	-82.539	-0.163	-0.053
-416.442	33.022	-0.060	-0.053
-415.428	152.507	0.020	-0.028
-414.413	-126.259	-0.126	-0.019
-413.398	-122.059	0.173	-0.028
-412.384	-200.000	-0.003	-0.034
-411.369	-200.000	0.045	0.286
-410.355	415.552	0.170	0.363
-409.340	555.922	0.056	0.137
-408.325	61.106	-0.172	0.171
-407.311	-63.574	0.149	0.062
-406.296	-91.535	-0.056	0.016
-405.282	-47.332	0.170	0.083
-404.267	240.012	0.053	0.088
-403.252	399.356	-0.078	0.165
-402.238	673.522	0.102	0.265
-401.223	246.344	-0.111	0.187
-400.209	517.271	-0.065	-0.153
-399.194	75.455	-0.249	-0.264
-398.179	800.000	0.053	-0.164
-397.165	454.545	-0.119	-0.264
-396.150	800.000	-0.066	-0.199
-395.136	169.410	0.068	0.098
-394.121	211.999	-0.070	-0.111
-393.106	-136.128	0.179	0.021
-392.092	-3.887	-0.070	-0.049
-391.077	-200.000	0.145	-0.639
-390.063	97.018	-0.179	0.206
-389.048	-185.562	0.156	0.002
-388.033	-120.875	-0.250	0.042
-387.019	-127.028	0.052	0.008
-386.004	3.045	-0.123	0.090
-384.990	26.322	0.047	-0.040
-383.975	-21.629	-0.122	0.075
-382.960	239.368	0.077	-0.129
-381.946	-169.451	0.014	0.001
-380.931	-183.068	-0.392	0.007
-379.917	-107.832	-0.247	0.054
-378.902	17.172	-0.204	0.162
-377.888	800.000	0.038	0.155
-376.873	133.614	-0.236	-0.306
-375.858	-72.636	0.210	-0.078
-374.844	-122.559	-0.284	0.046
-373.829	71.617	-0.141	-0.147
-372.815	59.081	0.097	-0.096
-371.800	-6.169	0.108	-0.074
-370.785	798.496	-0.066	0.182
-369.771	-143.428	-0.614	0.059
-368.756	-200.000	0.030	-0.166
-367.742	-200.000	-0.008	-0.073
-366.727	12.967	-0.344	0.267
-365.712	625.411	0.169	0.427
-364.698	-36.488	-0.143	-0.077
-363.683	-73.277	0.165	0.060
-362.669	6.023	-0.186	-0.138
-361.654	-200.000	0.056	0.325
-360.639	-200.000	-0.002	0.019
-359.625	-1.140	-0.139	-0.098
-358.610	-152.572	0.399	-0.029
-357.596	-28.088	-0.285	-0.166
-356.581	-99.512	-0.294	0.074
-355.566	-17.240	-0.257	0.162
-354.552	73.204	0.131	-0.137
-353.537	11.821	-0.215	-0.166
-352.523	251.369	-0.134	0.229
-351.508	70.623	0.317	-0.329
-350.493	-154.174	0.245	-0.017
-349.479	59.578	-0.126	0.125
-348.464	-159.941	-0.081	-0.004
-347.450	19.374	-0.160	0.129
-346.435	-200.000	-0.002	-0.037
-345.420	54.363	-0.097	0.093
-344.406	108.823	-0.146	0.174
-343.391	-200.000	-0.047	-0.398
-342.377	-89.307	-0.436	-0.129
-341.362	-200.000	0.089	0.407
-340.348	46.311	0.121	0.113
-339.333	-163.515	0.255	-0.012
-338.318	263.358	-0.088	0.152
-337.304	-41.899	-0.108	0.056
-336.289	427.418	-0.142	0.307
-335.275	410.765	0.126	-0.269
-334.260	-146.207	-0.179	-0.016
-333.245	172.130	0.141	0.203
-332.231	-200.000	-0.012	-0.127
-331.216	190.970	-0.082	0.124
-330.202	-65.004	0.335	-0.136
-329.187	178.539	-0.061	0.089
-328.172	2.487	0.210	-0.153
-327.158	800.000	0.097	-0.310
-326.143	-1.349	-0.314	0.222
-325.129	-74.331	0.220	0.080
-324.114	-5.384	-0.081	0.056
-323.099	771.077	0.020	0.054
-322.085	-200.000	-0.030	0.195
-321.070	254.887	-0.199	-0.341
-320.056	132.116	0.032	-0.041
-319.041	13.048	-0.094	-0.073
-318.026	800.000	-0.097	-0.311
-317.012	275.543	-0.037	-0.065
-315.997	255.434	-0.187	-0.321
-314.983	114.590	0.077	0.093
-313.968	88.876	0.126	0.141
-312.953	-200.000	0.027	0.128
-311.939	-11.117	-0.179	0.118
-310.924	306.396	0.045	-0.084
-309.910	-83.297	0.253	-0.081
-308.895	19.965	-0.015	-0.012
-307.880	106.167	-0.017	-0.020
-306.866	-30.113	-0.332	0.189
-305.851	-31.714	0.076	0.043
-304.837	-126.215	0.189	0.028
-303.822	163.234	0.254	-0.358
-302.807	125.941	-0.185	-0.234
-301.793	240.265	-0.003	0.006
-300.778	-186.467	-0.181	0.003
-299.764	800.000	-0.050	-0.164
-298.749	241.995	-0.101	-0.169
-297.735	396.772	-0.139	-0.290
-296.720	-40.712	-0.189	0.098
-295.705	800.000	0.014	0.045
-294.691	-59.133	0.324	-0.140
-293.676	6.037	-0.346	-0.257
-292.662	81.237	-0.124	-0.134
-291.647	-56.481	0.240	0.107
-290.632	100.097	0.062	-0.072
-289.618	-81.602	0.136	0.045
-288.603	-133.219	-0.306	0.039
-287.589	-125.643	0.313	0.048
-286.574	3.797	0.449	-0.328
-285.559	281.664	0.138	0.248
-284.545	48.609	0.209	0.196
-283.530	-200.000	0.010	-0.094
-282.516	-132.923	0.054	0.007
-281.501	800.000	0.086	0.303
-280.486	800.000	0.126	0.461
-279.472	-21.151	0.158	-0.097
-278.457	-48.571	0.282	0.136
-277.443	-61.862	-0.179	0.075
-276.428	-200.000	0.026	0.291
-275.413	-147.832	0.293	0.025
-274.399	800.000	-0.082	-0.325
-273.384	800.000	0.016	-0.060
-272.370	-23.824	0.153	0.092
-271.355	-71.452	-0.141	-0.053
-270.340	767.483	-0.129	0.351
-269.326	-109.976	0.206	0.043
-268.311	269.288	-0.122	-0.214
-267.297	800.000	0.051	0.144
-266.282	698.952	0.154	0.405
-265.267	-111.077	0.265	0.054
-264.253	123.877	0.206	-0.259
-263.238	-200.000	0.034	0.223
-262.224	102.354	-0.119	0.139
-261.209	103.351	0.198	0.232
-260.195	-86.585	0.118	-0.036
-259.180	-115.178	-0.376	-0.071
-258.165	-200.000	0.046	0.221
-257.151	800.000	0.042	0.120
-256.136	800.000	0.040	-0.127
-255.122	-91.627	-0.196	-0.056
-254.107	123.789	-0.098	-0.123
-253.092	52.346	-0.207	0.197
-252.078	-200.000	0.002	-0.268
-251.063	546.909	-0.152	0.364
-250.049	124.107	-0.174	0.218
-249.034	698.630	0.078	0.205
-248.019	-200.000	0.024	0.118
-247.005	-62.002	0.407	-0.170
-245.990	-50.573	0.256	-0.120
-244.976	800.000	-0.032	0.132
-243.961	-87.202	-0.369	-0.112
-242.946	-200.000	-0.000	0.020
-241.932	-11.388	-0.121	-0.080
-240.917	-15.915	-0.359	-0.228
-239.903	-8.866	0.286	-0.192
-238.888	-45.897	-0.494	0.243
-237.873	34.122	-0.132	0.115
-236.859	72.277	-0.030	-0.031
-235.844	800.000	0.156	-0.489
-234.830	-99.415	0.055	0.014
-233.815	-200.000	-0.043	0.218
-232.800	-116.210	0.258	0.048
-231.786	800.000	0.065	0.189
-230.771	-200.000	-0.105	0.000
-229.757	194.692	-0.143	0.217
-228.742	-39.018	-0.231	-0.121
-227.727	800.000	-0.017	0.065
-226.713	79.852	-0.266	-0.286
-225.698	-84.353	-0.191	-0.060
-224.684	-113.623	-0.059	-0.011
-223.669	100.114	-0.282	0.327
-222.655	166.699	0.011	-0.016
-221.640	458.516	0.051	-0.113
-220.625	74.460	-0.129	0.135
-219.611	314.282	0.090	-0.170
-218.596	-200.000	-0.004	-0.030
-217.582	-3.593	0.043	0.030
-216.567	245.172	-0.039	-0.065
-215.552	-200.000	-0.051	0.657
-214.538	-200.000	0.018	0.256
-213.523	800.000	0.091	0.262
-212.509	-24.352	-0.067	0.040
-211.494	-90.662	-0.233	-0.067
-210.479	-95.908	0.228	0.061
-209.465	-69.032	0.277	-0.106
-208.450	21.066	0.080	-0.065
-207.436	-131.946	0.179	0.023
-206.421	-51.037	-0.045	0.021
-205.406	-102.586	-0.046	-0.011
-204.392	128.516	0.132	-0.168
-203.377	800.000	0.112	-0.352
-202.363	-59.867	0.353	-0.151
-201.348	-108.402	-0.159	-0.034
-200.333	-200.000	0.004	0.080
-199.319	-185.163	0.263	-0.004
-198.304	800.000	-0.073	-0.303
-197.290	-200.000	-0.001	-0.030
-196.275	44.135	0.174	0.159
-195.260	-200.000	0.047	-0.241
-194.246	96.020	-0.049	-0.056
-193.231	-200.000	0.018	-0.276
-192.217	-161.346	-0.322	-0.017
-191.202	73.145	0.145	-0.151
-190.187	448.258	-0.099	0.217
-189.173	-128.808	0.355	-0.050
-188.158	-200.000	0.002	-0.095
-187.144	402.816	0.181	0.378
-186.129	800.000	-0.073	-0.209
-185.114	135.331	0.085	-0.110
-184.100	226.589	0.154	-0.250
-183.085	-200.000	-0.016	0.109
-182.071	-101.083	0.292	0.071
-181.056	800.000	0.070	-0.219
-180.042	126.407	-0.086	0.109
-179.027	4.322	0.225	0.165
-178.012	-200.000	0.030	0.133
-176.998	329.127	-0.159	0.304
-175.983	-186.132	0.133	0.002
-174.969	-83.084	0.094	-0.030
-173.954	140.497	0.105	-0.138
-172.939	-200.000	-0.006	-0.225
-171.925	-134.309	0.242	0.030
-170.910	-63.564	0.154	0.063
-169.896	-34.677	0.211	-0.115
-168.881	-81.039	-0.279	-0.092
-167.866	627.863	0.062	0.156
-166.852	258.918	-0.011	-0.019
-165.837	-200.000	0.005	0.438
-164.823	-200.000	-0.050	0.329
-163.808	-200.000	-0.002	0.242
-162.793	-65.432	-0.175	0.070
-161.779	51.905	-0.183	-0.174
-160.764	363.744	0.153	-0.306
-159.750	-12.964	0.155	0.101
-158.735	800.000	-0.023	0.069
-157.720	-118.140	0.340	0.060
-156.706	-49.728	0.184	-0.087
-155.691	729.528	0.026	-0.069
-154.677	-56.889	-0.263	0.115
-153.662	413.599	-0.086	0.182
-152.647	-91.334	0.231	-0.066
-151.633	25.382	0.185	0.153
-150.618	-200.000	-0.020	0.295
-149.604	-5.867	0.167	0.113
-148.589	-200.000	-0.049	0.268
-147.574	800.000	-0.052	0.170
-146.560	-200.000	-0.014	-0.149
-145.545	36.712	0.151	0.132
-144.531	20.990	0.059	-0.048
-143.516	-200.000	-0.026	0.143
-142.502	156.323	0.081	-0.111
-141.487	-200.000	-0.038	0.224
-140.472	202.561	0.148	-0.227
-139.458	402.966	0.032	-0.066
-138.443	-1.404	0.125	0.088
-137.429	338.295	0.161	0.311
-136.414	-120.938	0.237	-0.040
-135.399	98.762	0.304	0.349
-134.385	83.211	-0.150	0.163
-133.370	-57.471	0.195	0.085
-132.356	-140.248	0.125	0.013
-131.341	118.849	0.224	-0.275
-130.326	81.327	-0.003	-0.003
-129.312	1.842	0.068	-0.049
-128.297	-55.416	-0.158	0.070
-127.283	-119.499	-0.317	-0.055
-126.268	-106.020	0.049	0.011
-125.253	-60.992	0.135	-0.057
-124.239	-158.980	0.128	0.007
-123.224	-11.846	0.094	0.061
-122.210	54.675	-0.066	-0.063
-121.195	94.141	0.375	0.422
-120.180	-200.000	0.008	-0.105
