DTS Sentinel unit serial number:	SN413079Multiplexer serial number:	ORYXHardware model number:	OX4-SRSoftware version number:	ORYX F/W v4.00 Oryx Data Collector v3.7.2.0data status	okinstallation	princeton_trtdifferential loss correction	single-endedforward channel	channel 4reverse channel	N/Adate	2019/09/11time	19:43:11forward acquisition time	60.00reverse acquisition time	0.00gamma	496.2192k internal	0.2297k external	0.2297temperature offset calibration	1.0047default loss term (dB/km)	0.3790temperature slope calibration	1.0000multiplexer offset coefficient	1.0000multiplexer slope coefficient	1.0000fibre end	0.00T internal ref (°C)	39.67T ext. ref 1 (°C)	1.35T ext. ref 2 (°C)	32.49length (m)	temperature (°C)	Stokes	anti-Stokes-747.200	224.101	-0.254	0.419
-746.185	-24.916	-0.474	0.288
-745.171	-4.848	-0.241	-0.170
-744.156	-95.989	-0.261	0.071
-743.142	-67.871	0.042	-0.017
-742.127	-47.645	-0.152	-0.075
-741.112	42.780	0.346	-0.322
-740.098	-5.178	-0.080	0.056
-739.083	-7.841	-0.124	-0.086
-738.069	-70.474	0.187	-0.072
-737.054	5.830	0.096	-0.072
-736.039	57.437	-0.071	0.071
-735.025	510.210	-0.170	0.403
-734.010	-200.000	0.004	-0.092
-732.996	-141.569	0.194	0.020
-731.981	-97.718	-0.284	-0.075
-730.966	58.411	0.101	-0.101
-729.952	800.000	-0.157	-0.491
-728.937	-85.796	-0.300	-0.095
-727.923	-200.000	-0.055	-0.314
-726.908	-144.498	-0.088	-0.008
-725.894	321.618	-0.100	-0.194
-724.879	800.000	-0.021	-0.072
-723.864	-108.049	0.158	-0.035
-722.850	-90.454	-0.186	0.055
-721.835	263.833	0.071	0.126
-720.821	-200.000	-0.003	-0.080
-719.806	-60.593	0.231	-0.100
-718.791	68.310	0.105	-0.109
-717.777	-181.964	-0.256	-0.005
-716.762	-41.584	0.271	0.142
-715.748	104.154	-0.214	-0.257
-714.733	-74.284	0.264	-0.097
-713.718	-133.974	-0.147	-0.019
-712.704	-81.174	-0.198	0.067
-711.689	23.315	0.088	0.074
-710.675	-23.175	-0.206	0.126
-709.660	-200.000	-0.017	0.349
-708.645	-10.497	0.231	0.156
-707.631	508.680	-0.045	0.105
-706.616	-68.334	0.269	-0.106
-705.602	-159.801	0.107	0.006
-704.587	-200.000	0.000	0.144
-703.572	104.533	-0.077	0.092
-702.558	-174.714	0.119	-0.003
-701.543	18.225	0.112	-0.091
-700.529	800.000	-0.026	-0.074
-699.514	-200.000	-0.011	-0.179
-698.499	-38.386	-0.062	0.033
-697.485	-30.191	-0.147	-0.085
-696.470	82.702	0.170	-0.188
-695.456	-200.000	0.009	0.334
-694.441	432.224	0.119	-0.263
-693.426	294.338	-0.103	-0.192
-692.412	-108.828	0.260	0.057
-691.397	-101.808	0.347	-0.086
-690.383	43.619	-0.057	-0.054
-689.368	92.944	0.113	0.131
-688.354	-184.785	0.194	-0.003
-687.339	-138.034	0.343	-0.039
-686.324	43.820	-0.120	-0.112
-685.310	-79.590	0.331	-0.114
-684.295	387.226	0.205	0.432
-683.281	800.000	-0.104	-0.314
-682.266	-200.000	-0.048	-0.373
-681.251	-43.201	-0.320	0.165
-680.237	-4.852	-0.272	-0.191
-679.222	57.089	0.122	-0.121
-678.208	-200.000	0.010	0.272
-677.193	-200.000	-0.003	-0.241
-676.178	800.000	-0.051	-0.200
-675.164	-117.557	0.268	0.049
-674.149	368.262	0.025	0.051
-673.135	-65.110	0.187	0.077
-672.120	-64.507	0.203	-0.084
-671.105	-200.000	0.049	0.326
-670.091	-200.000	-0.047	-0.224
-669.076	-156.809	-0.124	-0.008
-668.062	1.631	-0.245	-0.179
-667.047	304.494	-0.088	-0.167
-666.032	-36.889	0.337	0.184
-665.018	-200.000	-0.004	0.144
-664.003	-38.882	-0.132	0.071
-662.989	-6.724	0.102	-0.070
-661.974	18.195	-0.269	-0.218
-660.959	498.818	0.110	0.258
-659.945	334.975	-0.052	-0.103
-658.930	-94.480	0.235	-0.065
-657.916	-109.275	-0.254	-0.055
-656.901	-110.362	-0.188	-0.040
-655.886	100.601	-0.252	0.298
-654.872	-200.000	-0.024	0.158
-653.857	-134.684	-0.070	-0.009
-652.843	54.311	-0.340	-0.333
-651.828	-4.456	-0.319	-0.224
-650.814	48.824	0.142	0.135
-649.799	-123.776	-0.226	0.036
-648.784	-114.324	0.289	-0.057
-647.770	-200.000	-0.029	-0.173
-646.755	-45.092	-0.134	-0.068
-645.741	-130.087	0.077	0.011
-644.726	103.186	-0.128	-0.153
-643.711	-200.000	0.038	-0.245
-642.697	-200.000	0.008	-0.359
-641.682	-200.000	-0.015	-0.103
-640.668	778.888	-0.060	-0.167
-639.653	-60.508	-0.112	-0.049
-638.638	66.477	-0.135	0.139
-637.624	-58.768	-0.222	-0.098
-636.609	-30.890	0.351	-0.202
-635.595	61.450	0.044	0.044
-634.580	-200.000	-0.055	0.303
-633.565	251.507	0.221	0.383
-632.551	-0.060	-0.268	0.194
-631.536	180.526	-0.227	0.338
-630.522	-149.320	-0.202	-0.016
-629.507	99.375	0.109	-0.128
-628.492	-29.438	-0.133	-0.077
-627.478	50.532	0.299	0.288
-626.463	-156.388	0.398	0.025
-625.449	-200.000	0.043	-0.263
-624.434	800.000	-0.019	-0.071
-623.419	174.397	0.116	-0.170
-622.405	-69.430	-0.128	0.050
-621.390	-84.624	-0.123	0.039
-620.376	36.249	0.066	0.059
-619.361	-22.483	0.271	-0.167
-618.346	567.960	0.160	0.395
-617.332	-58.622	-0.182	-0.080
-616.317	-99.519	-0.286	0.073
-615.303	122.093	-0.051	-0.064
-614.288	-169.667	-0.264	0.010
-613.273	-138.016	-0.095	-0.011
-612.259	-200.000	-0.008	0.139
-611.244	-135.939	-0.120	0.014
-610.230	123.212	-0.159	0.202
-609.215	646.730	0.106	-0.274
-608.201	800.000	0.093	-0.385
-607.186	-200.000	-0.000	0.059
-606.171	800.000	0.063	-0.193
-605.157	-100.941	-0.356	-0.089
-604.142	44.271	0.012	-0.011
-603.128	-200.000	0.023	0.178
-602.113	-149.428	0.163	0.013
-601.098	20.377	-0.177	0.145
-600.084	660.986	0.052	-0.136
-599.069	-67.315	0.216	0.086
-598.055	15.094	-0.214	0.170
-597.040	-200.000	-0.027	0.182
-596.025	-80.951	-0.138	0.047
-595.011	-125.551	0.302	0.047
-593.996	-170.795	-0.308	-0.011
-592.982	84.560	0.108	-0.120
-591.967	-158.645	0.200	0.012
-590.952	-76.379	-0.175	-0.062
-589.938	-145.864	0.169	0.015
-588.923	-76.578	0.186	-0.066
-587.909	779.443	-0.115	0.320
-586.894	144.791	-0.031	-0.042
-585.879	-71.565	0.066	-0.025
-584.865	-102.821	0.287	-0.069
-583.850	-200.000	0.029	-0.160
-582.836	237.358	0.252	-0.424
-581.821	137.271	0.056	0.074
-580.806	-64.245	-0.057	0.023
-579.792	-159.824	0.159	0.009
-578.777	-200.000	-0.006	-0.210
-577.763	501.190	-0.072	0.168
-576.748	-111.299	0.379	-0.079
-575.733	34.463	0.125	-0.111
-574.719	125.375	0.279	0.357
-573.704	292.182	0.051	-0.095
-572.690	394.323	-0.108	-0.227
-571.675	-89.266	-0.169	-0.050
-570.661	395.484	-0.045	-0.095
-569.646	47.021	0.124	0.117
-568.631	-57.944	-0.009	-0.004
-567.617	417.068	0.051	0.110
-566.602	-1.277	-0.125	0.089
-565.588	-42.812	0.396	-0.204
-564.573	-200.000	-0.012	0.075
-563.558	272.783	0.057	-0.102
-562.544	-200.000	0.039	-0.234
-561.529	-80.683	-0.142	-0.048
-560.515	-151.765	0.118	-0.009
-559.500	-57.176	0.162	0.072
-558.485	12.307	0.086	0.067
-557.471	-5.289	0.309	-0.215
-556.456	-10.902	0.257	-0.172
-555.442	62.889	0.396	-0.402
-554.427	249.623	-0.056	0.097
-553.412	-89.007	-0.446	0.134
-552.398	-112.684	-0.239	-0.048
-551.383	304.599	0.045	0.085
-550.369	-23.313	0.058	0.036
-549.354	-175.710	-0.281	0.008
-548.339	75.361	0.231	-0.247
-547.325	84.781	-0.233	-0.258
-546.310	127.598	0.030	-0.038
-545.296	367.733	0.103	-0.210
-544.281	-200.000	-0.001	-0.388
-543.266	504.378	0.068	0.159
-542.252	-200.000	-0.077	0.373
-541.237	78.837	-0.130	0.141
-540.223	380.696	0.134	-0.278
-539.208	264.847	0.289	0.510
-538.193	215.601	0.082	0.132
-537.179	127.400	-0.095	-0.122
-536.164	-200.000	-0.010	-0.159
-535.150	234.712	0.065	0.108
-534.135	-18.671	-0.214	0.135
-533.121	-200.000	0.003	-0.082
-532.106	30.200	0.198	0.171
-531.091	47.018	0.310	0.292
-530.077	-65.502	-0.229	0.093
-529.062	-119.482	-0.315	-0.055
-528.048	69.521	-0.331	0.345
-527.033	188.935	0.179	0.271
-526.018	-9.132	-0.103	0.070
-525.004	800.000	0.021	0.082
-523.989	2.810	0.234	-0.172
-522.975	137.257	0.095	0.126
-521.960	473.969	-0.068	0.156
-520.945	133.046	-0.264	-0.345
-519.931	19.746	-0.122	0.099
-518.916	236.588	0.053	-0.088
-517.902	-66.514	-0.297	0.119
-516.887	57.009	-0.118	-0.116
-515.872	-200.000	-0.012	-0.160
-514.858	-11.027	-0.090	-0.060
-513.843	112.556	0.199	0.244
-512.829	800.000	-0.050	-0.148
-511.814	-131.042	-0.340	0.046
-510.799	271.003	-0.133	0.237
-509.785	686.251	0.020	-0.054
-508.770	-92.625	0.193	0.055
-507.756	386.946	-0.132	0.276
-506.741	121.856	-0.017	-0.021
-505.726	523.123	-0.060	-0.142
-504.712	-66.270	0.288	-0.116
-503.697	-136.604	-0.682	-0.080
-502.683	800.000	0.106	-0.426
-501.668	151.096	-0.083	0.115
-500.653	228.477	0.066	-0.108
-499.639	-150.298	0.172	0.013
-498.624	-200.000	-0.011	-0.074
-497.610	15.053	0.203	0.161
-496.595	122.113	-0.088	0.112
-495.581	94.033	0.083	-0.095
-494.566	-200.000	-0.019	-0.309
-493.551	-200.000	0.006	-0.168
-492.537	-94.791	-0.378	-0.104
-491.522	-19.088	0.205	-0.129
-490.508	3.699	-0.134	0.099
-489.493	-200.000	-0.002	-0.139
-488.478	82.461	-0.127	0.140
-487.464	-200.000	-0.016	0.272
-486.449	-42.765	0.203	0.104
-485.435	31.974	-0.211	0.184
-484.420	-15.346	0.329	0.213
-483.405	542.564	0.057	-0.137
-482.391	-157.407	-0.230	-0.014
-481.376	-38.335	-0.223	0.120
-480.362	30.779	-0.069	-0.060
-479.347	-40.882	0.049	0.025
-478.332	31.821	0.042	0.036
-477.318	-125.626	0.140	-0.021
-476.303	-200.000	0.033	-0.202
-475.289	800.000	-0.046	-0.160
-474.274	-45.280	0.127	-0.064
-473.259	3.559	-0.390	-0.287
-472.245	148.908	-0.021	-0.029
-471.230	-59.405	0.545	0.237
-470.216	800.000	0.036	-0.103
-469.201	800.000	0.025	0.104
-468.186	-6.344	0.251	-0.173
-467.172	-159.364	0.293	0.017
-466.157	-4.772	0.030	-0.021
-465.143	-61.061	-0.148	-0.063
-464.128	800.000	0.083	-0.337
-463.113	130.231	-0.159	-0.205
-462.099	181.811	0.119	-0.176
-461.084	-200.000	0.037	0.171
-460.070	-188.355	-0.392	0.005
-459.055	57.018	0.116	-0.114
-458.040	-179.743	-0.547	-0.012
-457.026	-80.842	-0.155	0.052
-456.011	-8.531	0.157	0.106
-454.997	-62.668	0.393	-0.165
-453.982	-63.956	0.066	-0.027
-452.968	348.479	-0.181	-0.361
-451.953	288.777	-0.082	-0.150
-450.938	331.108	-0.147	-0.287
-449.924	-148.413	-0.112	0.009
-448.909	71.421	-0.092	-0.097
-447.895	-53.288	0.250	-0.116
-446.880	1.797	0.210	-0.153
-445.865	-80.050	0.163	-0.055
-444.851	-160.841	0.294	0.016
-443.836	800.000	-0.003	0.013
-442.822	-10.617	-0.182	-0.122
-441.807	-49.661	0.258	-0.124
-440.792	-200.000	0.012	-0.091
-439.778	-176.541	0.276	-0.007
-438.763	308.448	-0.147	0.277
-437.749	-4.731	-0.152	-0.106
-436.734	23.675	0.351	0.292
-435.719	-23.304	0.215	-0.130
-434.705	800.000	-0.030	0.113
-433.690	306.873	-0.099	-0.186
-432.676	110.549	0.149	0.180
-431.661	38.599	0.049	0.044
-430.646	-142.130	-0.422	0.042
-429.632	-117.995	0.447	-0.081
-428.617	800.000	-0.054	0.209
-427.603	-186.340	-0.208	-0.003
-426.588	-88.108	-0.004	0.001
-425.573	256.838	-0.227	-0.393
-424.559	-15.531	0.195	-0.126
-423.544	-125.907	-0.179	-0.027
-422.530	800.000	0.063	0.185
-421.515	-200.000	0.000	-0.266
-420.500	433.993	-0.126	-0.275
-419.486	800.000	-0.125	0.351
-418.471	-200.000	-0.001	0.163
-417.457	800.000	-0.044	-0.186
-416.442	474.656	-0.134	0.304
-415.428	-66.178	-0.208	-0.083
-414.413	179.501	0.088	-0.130
-413.398	549.972	0.049	-0.119
-412.384	-89.063	-0.128	-0.038
-411.369	93.871	-0.203	-0.232
-410.355	-8.144	0.166	0.113
-409.340	-111.931	0.334	0.068
-408.325	310.670	0.060	-0.114
-407.311	1.695	0.176	-0.128
-406.296	-180.646	0.160	-0.003
-405.282	-8.844	-0.122	0.083
-404.267	44.055	0.138	0.127
-403.252	52.006	-0.038	0.037
-402.238	371.702	-0.007	-0.014
-401.223	26.743	-0.223	-0.188
-400.209	45.717	-0.059	-0.055
-399.194	-115.869	0.096	-0.018
-398.179	-200.000	-0.039	-0.192
-397.165	8.984	0.322	0.245
-396.150	800.000	0.042	0.150
-395.136	66.801	-0.033	0.033
-394.121	440.037	-0.113	0.248
-393.106	-136.522	0.337	0.039
-392.092	123.045	-0.208	0.262
-391.077	72.924	-0.050	0.053
-390.063	-52.346	-0.212	-0.099
-389.048	800.000	-0.094	-0.265
-388.033	-107.936	-0.157	0.034
-387.019	234.822	-0.107	-0.178
-386.004	-200.000	0.058	0.303
-384.990	176.262	-0.103	-0.151
-383.975	800.000	0.018	0.062
-382.960	37.949	-0.453	-0.406
-381.946	266.011	0.185	0.326
-380.931	-92.694	0.571	0.161
-379.917	226.561	-0.096	-0.156
-378.902	-31.932	-0.181	-0.102
-377.888	-120.976	0.306	0.052
-376.873	82.974	0.214	0.234
-375.858	21.605	0.106	0.086
-374.844	800.000	-0.162	0.482
-373.829	-95.305	-0.484	0.131
-372.815	-63.843	0.424	-0.175
-371.800	800.000	0.083	0.232
-370.785	800.000	-0.074	0.211
-369.771	466.726	0.047	0.106
-368.756	-4.340	-0.102	0.071
-367.742	-108.943	-0.403	0.086
-366.727	-11.065	-0.125	0.083
-365.712	239.192	-0.243	0.407
-364.698	-174.543	0.364	0.010
-363.683	-121.381	-0.153	0.026
-362.669	-143.384	0.582	-0.056
-361.654	800.000	-0.013	-0.054
-360.639	-95.919	0.317	-0.085
-359.625	292.916	0.116	-0.213
-358.610	283.326	-0.218	-0.393
-357.596	-39.333	-0.344	-0.182
-356.581	638.901	0.078	-0.200
-355.566	291.954	-0.105	-0.193
-354.552	154.626	-0.244	0.338
-353.537	80.445	-0.105	-0.114
-352.523	501.899	-0.072	0.168
-351.508	-94.243	0.425	-0.117
-350.493	269.823	-0.030	0.052
-349.479	-75.159	0.263	-0.094
-348.464	-200.000	-0.002	0.422
-347.450	-174.027	-0.363	-0.011
-346.435	16.413	-0.063	0.050
-345.420	-200.000	0.044	0.440
-344.406	608.941	-0.023	0.059
-343.391	800.000	0.106	-0.346
-342.377	-49.255	-0.326	-0.156
-341.362	-81.344	0.132	0.044
-340.348	-200.000	-0.005	0.146
-339.333	9.844	0.119	-0.091
-338.318	-117.116	-0.151	-0.028
-337.304	-31.702	-0.256	0.144
-336.289	332.659	-0.090	-0.175
-335.275	-200.000	-0.053	0.238
-334.260	300.053	0.157	0.292
-333.245	-64.940	-0.104	0.042
-332.231	-200.000	0.004	-0.028
-331.216	-46.454	-0.066	-0.033
-330.202	31.740	-0.342	-0.295
-329.187	800.000	-0.021	-0.078
-328.172	-44.572	-0.232	-0.116
-327.158	800.000	0.091	-0.383
-326.143	-200.000	-0.012	0.113
-325.129	-54.778	0.202	-0.091
-324.114	800.000	0.098	0.301
-323.099	-22.289	0.262	-0.159
-322.085	60.734	-0.151	0.150
-321.070	64.260	0.183	-0.185
-320.056	-191.379	0.358	0.004
-319.041	-16.841	0.193	-0.123
-318.026	-153.459	-0.092	-0.006
-317.012	-180.462	-0.123	-0.003
-315.997	-35.247	0.562	0.307
-314.983	-116.579	-0.354	0.066
-313.968	-151.046	0.307	-0.023
-312.953	114.020	0.226	0.275
-311.939	64.125	0.256	0.258
-310.924	-118.661	-0.233	-0.041
-309.910	-19.804	-0.106	-0.066
-308.895	-65.670	0.096	0.039
-307.880	-200.000	0.062	0.400
-306.866	-86.239	-0.090	-0.028
-305.851	-200.000	0.025	-0.110
-304.837	-200.000	-0.074	-0.461
-303.822	-2.587	0.192	0.135
-302.807	149.963	0.115	0.156
-301.793	-77.348	-0.218	-0.076
-300.778	-156.781	0.269	-0.017
-299.764	-26.354	0.055	0.033
-298.749	-200.000	-0.073	-0.384
-297.735	-47.300	0.125	-0.061
-296.720	-132.113	-0.296	0.039
-295.705	8.277	0.354	-0.267
-294.691	596.472	-0.113	-0.280
-293.676	628.533	-0.082	0.207
-292.662	-47.633	-0.255	-0.124
-291.647	-102.011	-0.146	-0.035
-290.632	-200.000	0.001	-0.249
-289.618	98.671	-0.035	0.041
-288.603	235.439	0.080	0.132
-287.589	800.000	0.042	0.120
-286.574	-161.736	0.085	-0.004
-285.559	-200.000	-0.036	-0.364
-284.545	24.045	0.199	0.165
-283.530	-200.000	-0.006	0.268
-282.516	-45.300	0.202	0.100
-281.501	329.227	0.069	0.132
-280.486	-154.164	0.087	0.006
-279.472	1.164	-0.375	-0.270
-278.457	244.607	0.153	-0.258
-277.443	800.000	-0.058	0.225
-276.428	-124.738	0.555	0.086
-275.413	-200.000	-0.005	0.175
-274.399	18.017	0.134	0.107
-273.384	86.809	0.266	0.295
-272.370	800.000	-0.027	0.111
-271.355	-200.000	-0.043	-0.247
-270.340	-71.094	-0.167	0.063
-269.326	800.000	0.032	-0.104
-268.311	-200.000	0.015	-0.199
-267.297	44.239	-0.184	-0.169
-266.282	-130.974	-0.454	-0.061
-265.267	-20.698	0.175	-0.108
-264.253	-71.602	-0.297	0.111
-263.238	-44.271	0.186	-0.094
-262.224	-200.000	0.009	-0.040
-261.209	-77.793	-0.087	0.030
-260.195	-49.354	0.098	0.047
-259.180	55.994	0.220	0.214
-258.165	800.000	-0.063	0.175
-257.151	-134.833	-0.299	0.036
-256.136	-200.000	-0.013	0.135
-255.122	-200.000	0.002	-0.114
-254.107	255.883	0.233	-0.401
-253.092	-200.000	-0.008	0.060
-252.078	-200.000	-0.024	0.260
-251.063	-200.000	0.006	0.037
-250.049	326.036	0.016	0.031
-249.034	-22.235	-0.279	0.169
-248.019	668.703	0.040	0.104
-247.005	-88.747	0.331	0.098
-245.990	116.668	-0.019	-0.023
-244.976	158.354	-0.268	0.372
-243.961	-49.028	-0.122	-0.059
-242.946	704.669	-0.151	0.398
-241.932	-88.408	-0.193	-0.058
-240.917	-140.718	-0.064	-0.007
-239.903	-52.990	0.084	-0.039
-238.888	107.020	-0.243	-0.289
-237.873	72.678	-0.155	-0.162
-236.859	-200.000	0.013	0.211
-235.844	-38.300	0.275	0.146
-234.830	-159.852	-0.234	0.013
-233.815	-200.000	0.008	-0.396
-232.800	-24.872	-0.242	0.144
-231.786	800.000	-0.039	-0.124
-230.771	-200.000	-0.031	0.160
-229.757	190.458	0.271	-0.407
-228.742	-200.000	0.010	-0.087
-227.727	230.085	-0.105	0.171
-226.713	-162.795	-0.317	-0.015
-225.698	-77.044	0.303	0.106
-224.684	-102.527	-0.112	-0.027
-223.669	40.748	0.169	-0.152
-222.655	-112.199	0.172	0.035
-221.640	117.057	0.016	0.020
-220.625	13.875	0.112	-0.087
-219.611	800.000	0.086	0.360
-218.596	-84.673	0.217	0.068
-217.582	396.987	0.139	-0.290
-216.567	-40.381	-0.212	-0.110
-215.552	-200.000	0.050	0.383
-214.538	-126.561	-0.226	-0.034
-213.523	184.559	0.144	-0.213
-212.509	-200.000	-0.003	0.169
-211.494	698.707	-0.027	0.072
-210.479	529.055	-0.145	0.341
-209.465	-70.253	0.389	0.148
-208.450	36.108	-0.105	0.092
-207.436	-200.000	-0.003	-0.182
-206.421	341.855	0.123	0.241
-205.406	587.546	0.046	0.112
-204.392	-26.750	-0.181	0.106
-203.377	149.632	0.157	0.213
-202.363	1.718	-0.176	-0.127
-201.348	-200.000	-0.046	0.302
-200.333	90.390	-0.055	-0.062
-199.319	800.000	-0.035	0.151
-198.304	217.706	-0.213	0.340
-197.290	-32.849	0.070	0.039
-196.275	-8.226	0.216	-0.145
-195.260	-164.891	-0.261	0.012
-194.246	-7.116	0.103	0.070
-193.231	800.000	0.098	-0.326
-192.217	-200.000	0.018	0.113
-191.202	-76.948	-0.231	0.081
-190.187	-101.197	0.108	-0.026
-189.173	62.597	-0.093	0.093
-188.158	-200.000	-0.044	0.000
-187.144	-200.000	0.014	0.123
-186.129	-17.167	-0.125	-0.079
-185.114	-200.000	0.005	-0.080
-184.100	800.000	0.078	0.334
-183.085	10.564	-0.196	0.150
-182.071	-138.787	-0.088	-0.010
-181.056	-200.000	0.012	0.226
-180.042	82.158	0.090	-0.098
-179.027	-86.547	0.387	0.119
-178.012	84.991	0.240	-0.263
-176.998	103.624	0.086	0.101
-175.983	-129.668	0.128	0.018
-174.969	-157.132	-0.245	-0.015
-173.954	4.183	-0.235	0.172
-172.939	800.000	0.044	-0.167
-171.925	-48.244	-0.247	0.119
-170.910	-200.000	-0.003	-0.058
-169.896	-132.730	0.322	-0.041
-168.881	101.417	-0.223	0.259
-167.866	-75.758	0.237	0.084
-166.852	-142.962	-0.115	0.011
-165.837	276.728	-0.125	-0.222
-164.823	12.603	-0.068	0.052
-163.808	800.000	-0.054	0.187
-162.793	290.337	-0.104	0.189
-161.779	-200.000	0.045	-0.211
-160.764	143.700	-0.151	-0.201
-159.750	338.292	-0.092	-0.178
-158.735	103.368	-0.255	-0.299
-157.720	-110.226	0.093	-0.019
-156.706	-62.152	-0.127	0.053
-155.691	79.395	-0.064	-0.069
-154.677	-200.000	0.003	0.299
-153.662	721.727	0.011	-0.029
-152.647	-200.000	-0.043	-0.204
-151.633	13.004	-0.203	-0.156
-150.618	-118.498	0.235	-0.042
-149.604	-200.000	-0.015	-0.456
-148.589	-10.107	0.046	0.031
-147.574	485.100	0.083	0.188
-146.560	-200.000	-0.021	0.196
-145.545	33.325	-0.181	0.156
-144.531	-98.870	0.356	-0.090
-143.516	-200.000	-0.015	-0.248
-142.502	26.114	0.076	-0.064
-141.487	615.330	0.057	-0.144
-140.472	372.457	0.122	-0.246
-139.458	800.000	-0.108	-0.428
-138.443	5.335	-0.168	0.124
-137.429	-58.961	-0.030	0.013
-136.414	-5.506	0.191	-0.131
-135.399	307.320	-0.026	-0.048
-134.385	800.000	0.100	-0.337
-133.370	-36.653	-0.110	0.059
-132.356	-91.295	0.251	-0.072
-131.341	-200.000	-0.025	-0.256
-130.326	44.228	0.066	-0.061
-129.312	-158.252	-0.183	0.011
-128.297	-132.221	-0.173	-0.022
-127.283	-18.679	0.226	0.141
-126.268	-200.000	0.021	0.098
-125.253	-200.000	0.010	0.397
-124.239	66.546	-0.273	-0.277
-123.224	23.957	0.148	0.121
-122.210	-200.000	0.019	-0.301
