DTS Sentinel unit serial number:	SN413079Multiplexer serial number:	ORYXHardware model number:	OX4-SRSoftware version number:	ORYX F/W v4.00 Oryx Data Collector v3.7.2.0data status	okinstallation	princeton_trtdifferential loss correction	single-endedforward channel	channel 4reverse channel	N/Adate	2019/09/15time	15:33:35forward acquisition time	60.00reverse acquisition time	0.00gamma	496.2192k internal	0.2283k external	0.2283temperature offset calibration	0.9955default loss term (dB/km)	0.3790temperature slope calibration	1.0000multiplexer offset coefficient	1.0000multiplexer slope coefficient	1.0000fibre end	0.00T internal ref (°C)	41.33T ext. ref 1 (°C)	5.13T ext. ref 2 (°C)	38.79length (m)	temperature (°C)	Stokes	anti-Stokes-747.200	-119.210	-0.306	-0.055
-746.185	88.038	-0.339	0.387
-745.171	-125.983	0.030	-0.005
-744.156	800.000	-0.184	0.524
-743.142	-200.000	-0.028	0.165
-742.127	43.219	0.139	0.130
-741.112	79.159	-0.200	-0.220
-740.098	62.703	0.211	0.217
-739.083	-89.976	-0.234	-0.070
-738.069	486.030	-0.250	0.586
-737.054	-66.235	-0.178	-0.073
-736.039	-200.000	0.001	-0.036
-735.025	16.016	0.182	0.147
-734.010	800.000	0.063	0.230
-732.996	-170.716	0.049	-0.002
-731.981	-142.426	-0.167	-0.017
-730.966	-200.000	0.036	0.173
-729.952	-200.000	-0.033	0.172
-728.937	319.569	0.074	0.143
-727.923	149.305	-0.059	-0.082
-726.908	-200.000	-0.037	0.245
-725.894	-200.000	0.005	-0.160
-724.879	-100.279	-0.207	-0.053
-723.864	347.910	0.050	0.101
-722.850	-92.018	0.345	-0.100
-721.835	-200.000	0.020	-0.121
-720.821	119.182	0.081	-0.103
-719.806	50.268	-0.084	0.081
-718.791	413.037	-0.172	0.376
-717.777	91.515	-0.242	-0.279
-716.762	564.721	0.028	0.070
-715.748	-47.294	0.023	0.011
-714.733	-144.426	-0.283	-0.027
-713.718	-200.000	-0.019	0.175
-712.704	-87.956	0.111	-0.034
-711.689	18.378	-0.225	0.185
-710.675	-16.802	-0.030	-0.020
-709.660	228.843	0.127	-0.213
-708.645	181.814	-0.094	-0.142
-707.631	-144.135	-0.102	0.010
-706.616	800.000	-0.030	-0.102
-705.602	52.187	-0.054	0.053
-704.587	-96.395	-0.425	-0.115
-703.572	-3.300	0.082	0.059
-702.558	-184.551	0.253	0.004
-701.543	-200.000	-0.014	0.214
-700.529	386.738	-0.084	-0.179
-699.514	115.541	-0.153	0.192
-698.499	-35.984	-0.142	0.079
-697.485	560.365	-0.024	0.058
-696.470	-105.360	-0.051	0.012
-695.456	-200.000	-0.025	0.229
-694.441	-60.487	0.262	0.114
-693.426	87.362	0.029	0.032
-692.412	-99.892	0.213	0.055
-691.397	29.218	0.131	-0.114
-690.383	-115.576	0.339	0.065
-689.368	292.422	0.057	0.107
-688.354	162.022	-0.075	0.107
-687.339	713.505	-0.067	0.182
-686.324	-200.000	-0.009	0.066
-685.310	506.273	0.232	-0.551
-684.295	21.223	-0.261	-0.217
-683.281	96.815	-0.059	-0.070
-682.266	-1.318	0.320	-0.232
-681.251	92.657	-0.023	0.026
-680.237	84.185	-0.183	0.205
-679.222	-200.000	0.014	0.079
-678.208	-200.000	-0.130	0.001
-677.193	202.450	-0.128	-0.202
-676.178	-27.084	-0.134	-0.080
-675.164	800.000	0.039	-0.115
-674.149	-120.675	-0.042	-0.007
-673.135	-20.899	0.087	0.055
-672.120	800.000	0.074	0.281
-671.105	-87.207	-0.274	-0.085
-670.091	-200.000	0.064	-0.472
-669.076	-98.049	-0.272	-0.072
-668.062	800.000	-0.095	0.377
-667.047	-54.671	0.219	0.102
-666.032	251.406	0.080	0.139
-665.018	137.800	0.232	0.311
-664.003	92.036	0.136	-0.157
-662.989	-3.999	0.172	0.122
-661.974	-156.121	0.047	0.003
-660.959	-200.000	0.028	-0.129
-659.945	101.790	0.082	0.098
-658.930	500.840	0.098	0.231
-657.916	554.036	-0.057	-0.139
-656.901	668.559	0.040	0.106
-655.886	63.788	-0.071	-0.073
-654.872	-158.958	-0.061	-0.004
-653.857	-83.719	-0.219	0.072
-652.843	800.000	-0.053	-0.201
-651.828	-200.000	-0.004	0.306
-650.814	-200.000	0.036	-0.220
-649.799	-95.664	-0.133	-0.036
-648.784	-146.654	-0.235	-0.021
-647.770	16.959	-0.296	-0.240
-646.755	-21.801	0.121	-0.075
-645.741	149.766	-0.167	0.232
-644.726	-112.235	0.232	0.048
-643.711	-53.778	0.233	0.109
-642.697	800.000	-0.037	-0.128
-641.682	-26.189	-0.038	-0.023
-640.668	135.145	0.136	-0.180
-639.653	-200.000	-0.025	0.147
-638.638	352.652	0.138	-0.280
-637.624	-200.000	-0.537	0.002
-636.609	-131.541	0.354	0.048
-635.595	-111.777	-0.245	0.051
-634.580	37.324	-0.086	0.078
-633.565	479.060	-0.027	-0.062
-632.551	-42.246	-0.228	0.119
-631.536	800.000	-0.025	-0.082
-630.522	-37.395	0.250	-0.136
-629.507	-132.016	0.299	-0.040
-628.492	-64.142	0.184	0.077
-627.478	-150.069	0.035	-0.003
-626.463	25.075	0.277	-0.235
-625.449	582.965	0.088	-0.221
-624.434	38.103	-0.217	-0.198
-623.419	800.000	0.052	0.149
-622.405	-117.663	-0.297	-0.055
-621.390	800.000	0.021	0.088
-620.376	108.882	0.357	0.436
-619.361	-64.984	0.367	0.152
-618.346	450.625	0.140	-0.316
-617.332	239.852	-0.275	0.469
-616.317	111.258	0.237	0.292
-615.303	-12.869	0.270	0.180
-614.288	-200.000	0.008	-0.330
-613.273	350.491	-0.061	-0.123
-612.259	-163.230	-0.214	0.011
-611.244	262.362	0.087	0.155
-610.230	14.727	0.160	0.128
-609.215	50.141	-0.586	-0.566
-608.201	244.582	0.078	0.133
-607.186	-200.000	-0.049	-0.381
-606.171	188.961	-0.064	0.097
-605.157	-200.000	-0.090	-0.517
-604.142	800.000	-0.007	-0.021
-603.128	165.659	0.135	-0.195
-602.113	-76.059	0.294	-0.106
-601.098	14.602	-0.084	0.067
-600.084	29.049	0.243	-0.211
-599.069	-69.711	0.115	0.045
-598.055	-200.000	0.017	-0.216
-597.040	253.068	0.211	0.367
-596.025	-89.829	-0.162	0.048
-595.011	35.066	-0.061	-0.054
-593.996	164.059	0.114	0.164
-592.982	-200.000	-0.046	0.275
-591.967	29.698	0.154	-0.134
-590.952	-200.000	-0.081	0.373
-589.938	-0.342	0.214	-0.155
-588.923	110.908	0.106	0.130
-587.909	-100.828	-0.088	-0.022
-586.894	-101.228	-0.261	0.065
-585.879	326.527	0.122	0.238
-584.865	-147.626	-0.227	0.019
-583.850	-55.050	-0.072	-0.033
-582.836	-200.000	0.060	-0.446
-581.821	134.098	0.123	-0.162
-580.806	-200.000	-0.005	-0.298
-579.792	-67.044	0.098	-0.039
-578.777	-200.000	0.005	0.379
-577.763	-200.000	-0.010	-0.258
-576.748	-85.059	-0.138	-0.044
-575.733	140.523	-0.119	0.161
-574.719	-16.051	-0.064	-0.042
-573.704	220.523	0.158	-0.258
-572.690	800.000	0.104	0.312
-571.675	92.484	-0.213	0.245
-570.661	124.563	-0.093	-0.120
-569.646	-200.000	-0.027	-0.158
-568.631	-200.000	0.045	-0.294
-567.617	-200.000	0.042	-0.196
-566.602	-82.394	-0.266	0.088
-565.588	266.564	0.052	-0.092
-564.573	-127.314	0.227	0.034
-563.558	104.682	-0.171	-0.206
-562.544	61.333	0.281	-0.284
-561.529	148.469	0.043	0.059
-560.515	-200.000	0.035	-0.208
-559.500	-3.210	-0.244	0.174
-558.485	-190.705	0.440	0.005
-557.471	269.555	0.116	-0.209
-556.456	198.424	-0.160	-0.249
-555.442	800.000	0.030	-0.122
-554.427	800.000	0.146	-0.452
-553.412	-48.543	-0.047	-0.023
-552.398	-46.050	-0.267	-0.134
-551.383	219.004	-0.138	0.224
-550.369	-200.000	-0.013	-0.203
-549.354	248.336	-0.125	-0.215
-548.339	-200.000	-0.017	-0.196
-547.325	-51.861	-0.462	0.219
-546.310	-26.043	-0.160	-0.096
-545.296	308.281	0.119	0.227
-544.281	-129.008	0.079	0.011
-543.266	-109.778	-0.097	0.021
-542.252	23.246	-0.171	0.143
-541.237	800.000	0.082	0.251
-540.223	389.355	-0.026	-0.055
-539.208	727.255	0.182	-0.495
-538.193	-200.000	0.024	-0.144
-537.179	15.514	-0.125	-0.100
-536.164	69.838	-0.033	0.035
-535.150	-200.000	-0.018	0.132
-534.135	212.028	-0.096	-0.155
-533.121	-155.188	0.365	0.024
-532.106	800.000	-0.087	0.254
-531.091	-125.192	-0.475	-0.074
-530.077	105.907	-0.244	-0.294
-529.062	-200.000	-0.048	-0.228
-528.048	352.956	-0.048	-0.097
-527.033	556.099	0.092	0.226
-526.018	58.646	-0.103	0.103
-525.004	57.149	-0.048	0.047
-523.989	-46.281	0.414	-0.207
-522.975	-73.861	-0.249	-0.092
-521.960	-200.000	0.021	0.166
-520.945	-47.558	0.127	0.063
-519.931	-200.000	0.072	0.340
-518.916	695.826	0.051	-0.138
-517.902	-20.131	0.241	-0.151
-516.887	414.029	0.099	0.215
-515.872	86.053	0.219	-0.245
-514.858	-176.632	0.204	0.005
-513.843	304.314	0.189	0.357
-512.829	15.906	-0.218	0.175
-511.814	-87.412	0.340	0.105
-510.799	-125.491	-0.426	0.066
-509.785	358.995	-0.173	-0.352
-508.770	-200.000	0.005	-0.255
-507.756	-200.000	0.012	-0.110
-506.741	-118.703	0.412	-0.074
-505.726	-200.000	-0.020	-0.112
-504.712	-20.189	0.198	-0.124
-503.697	27.190	-0.196	0.168
-502.683	-11.974	0.097	0.064
-501.668	-156.464	-0.177	-0.011
-500.653	-167.772	0.276	0.011
-499.639	396.560	0.037	0.078
-498.624	236.668	-0.142	-0.238
-497.610	-81.441	0.143	-0.048
-496.595	194.732	-0.120	0.185
-495.581	73.642	-0.095	0.101
-494.566	56.559	-0.117	0.116
-493.551	338.344	0.109	-0.217
-492.537	326.101	0.054	0.105
-491.522	-15.293	0.156	0.101
-490.508	-21.745	0.150	-0.093
-489.493	800.000	0.102	-0.388
-488.478	21.513	0.205	-0.170
-487.464	133.730	-0.175	-0.231
-486.449	581.661	0.118	-0.295
-485.435	-46.026	0.080	0.040
-484.420	58.687	0.006	0.006
-483.405	-128.172	0.232	-0.034
-482.391	-83.395	0.035	0.011
-481.376	-200.000	0.001	0.165
-480.362	-200.000	0.007	0.176
-479.347	-120.417	-0.290	0.050
-478.332	-66.483	-0.087	-0.035
-477.318	-93.376	0.226	-0.064
-476.303	273.985	-0.049	-0.089
-475.289	107.412	0.160	0.194
-474.274	-41.517	-0.097	-0.051
-473.259	-157.138	-0.498	-0.031
-472.245	-79.929	0.114	-0.039
-471.230	-114.558	0.268	0.052
-470.216	32.394	0.261	0.229
-469.201	-183.706	-0.168	-0.003
-468.186	75.489	-0.081	-0.087
-467.172	-134.448	0.187	-0.023
-466.157	-148.403	0.123	0.010
-465.143	-200.000	0.021	-0.131
-464.128	171.073	-0.125	0.182
-463.113	800.000	0.073	-0.211
-462.099	-200.000	0.004	-0.149
-461.084	157.688	-0.055	0.078
-460.070	199.781	-0.126	0.197
-459.055	-114.359	0.255	0.050
-458.040	587.191	0.155	0.388
-457.026	800.000	0.116	0.418
-456.011	-131.629	-0.256	0.034
-454.997	-200.000	0.023	0.231
-453.982	-113.722	-0.138	0.027
-452.968	455.455	0.009	0.020
-451.953	800.000	0.050	-0.164
-450.938	-95.900	-0.261	0.071
-449.924	-76.114	-0.209	-0.075
-448.909	374.027	-0.041	-0.085
-447.895	-0.030	-0.177	0.128
-446.880	71.445	-0.081	-0.085
-445.865	-200.000	-0.037	0.363
-444.851	-0.886	-0.296	-0.213
-443.836	-53.346	0.122	-0.057
-442.822	320.073	0.062	-0.120
-441.807	-104.405	0.137	0.032
-440.792	109.166	0.201	0.244
-439.778	235.661	0.103	-0.172
-438.763	-8.007	0.060	-0.041
-437.749	222.796	-0.166	0.271
-436.734	-64.131	0.228	-0.095
-435.719	18.956	-0.239	0.194
-434.705	-107.116	0.271	-0.061
-433.690	-39.790	0.267	-0.142
-432.676	160.981	-0.105	-0.150
-431.661	-122.078	0.253	-0.042
-430.646	1.849	0.183	-0.134
-429.632	-12.218	0.300	-0.199
-428.617	-160.956	0.235	-0.013
-427.603	-16.858	-0.295	0.189
-426.588	-200.000	-0.027	0.122
-425.573	29.218	-0.077	-0.066
-424.559	-200.000	0.002	-0.015
-423.544	-200.000	-0.019	0.290
-422.530	-105.328	-0.290	0.067
-421.515	208.084	0.012	-0.019
-420.500	-19.503	-0.199	-0.125
-419.486	133.006	-0.089	-0.117
-418.471	-172.646	-0.031	-0.001
-417.457	-174.009	-0.055	-0.002
-416.442	800.000	-0.042	0.174
-415.428	391.676	-0.032	-0.067
-414.413	-26.122	0.006	-0.003
-413.398	168.839	-0.254	0.367
-412.384	-156.166	0.182	0.012
-411.369	53.911	-0.058	-0.057
-410.355	11.769	-0.037	0.028
-409.340	517.589	0.077	-0.182
-408.325	653.989	0.056	-0.146
-407.311	-200.000	-0.043	0.278
-406.296	140.590	0.126	-0.168
-405.282	-79.239	0.189	-0.065
-404.267	227.698	-0.002	-0.003
-403.252	80.511	0.048	0.053
-402.238	392.420	0.071	-0.149
-401.223	800.000	0.103	-0.377
-400.209	-39.617	-0.183	0.097
-399.194	-200.000	0.006	0.213
-398.179	-141.094	-0.348	0.036
-397.165	-12.877	0.156	-0.103
-396.150	-114.567	-0.071	-0.014
-395.136	-153.556	0.338	0.024
-394.121	-90.829	0.273	0.080
-393.106	-122.701	-0.238	-0.039
-392.092	-5.904	0.162	-0.112
-391.077	329.973	-0.119	-0.233
-390.063	-37.176	-0.254	-0.137
-389.048	-100.506	-0.430	-0.108
-388.033	-142.108	-0.270	-0.027
-387.019	-200.000	-0.048	0.357
-386.004	241.339	0.213	0.360
-384.990	-94.505	0.180	0.050
-383.975	-200.000	-0.036	0.294
-382.960	380.469	-0.143	-0.297
-381.946	-19.919	-0.288	0.180
-380.931	800.000	-0.031	0.136
-379.917	-200.000	0.022	-0.152
-378.902	124.120	-0.052	-0.066
-377.888	82.119	0.173	-0.190
-376.873	-70.508	-0.324	-0.124
-375.858	-200.000	0.003	-0.094
-374.844	-50.607	-0.137	-0.065
-373.829	-200.000	-0.051	0.451
-372.815	13.490	0.185	-0.146
-371.800	-77.887	0.110	0.038
-370.785	51.519	-0.146	0.140
-369.771	-107.359	-0.249	-0.055
-368.756	-192.510	-0.362	-0.003
-367.742	-38.097	0.404	-0.217
-366.727	-36.574	-0.085	0.046
-365.712	800.000	0.093	-0.268
-364.698	-136.212	0.377	-0.045
-363.683	-97.360	-0.268	-0.071
-362.669	-90.926	-0.282	-0.082
-361.654	-82.095	-0.100	0.033
-360.639	-78.425	-0.178	0.062
-359.625	800.000	-0.035	-0.100
-358.610	540.750	0.079	-0.190
-357.596	19.321	-0.275	0.224
-356.581	-13.601	-0.009	0.006
-355.566	379.614	0.062	-0.128
-354.552	34.948	0.158	0.140
-353.537	39.020	0.223	0.202
-352.523	183.099	-0.169	-0.253
-351.508	-97.761	-0.220	0.058
-350.493	800.000	-0.055	-0.183
-349.479	-75.938	0.237	0.085
-348.464	-200.000	-0.020	0.215
-347.450	148.289	-0.002	0.002
-346.435	182.038	0.159	-0.236
-345.420	-200.000	-0.043	0.237
-344.406	569.972	0.090	-0.222
-343.391	-61.648	0.351	-0.149
-342.377	58.119	0.231	0.229
-341.362	-13.582	-0.017	0.011
-340.348	-100.310	-0.462	0.116
-339.333	-154.311	-0.217	-0.015
-338.318	-200.000	0.010	0.172
-337.304	-22.207	0.153	0.094
-336.289	39.559	0.108	-0.098
-335.275	-84.648	-0.268	-0.085
-334.260	-200.000	-0.007	0.125
-333.245	194.221	-0.082	0.126
-332.231	93.327	0.100	-0.114
-331.216	-182.138	0.252	0.005
-330.202	-200.000	0.015	0.269
-329.187	32.053	-0.092	0.080
-328.172	3.898	0.195	-0.144
-327.158	800.000	-0.090	-0.328
-326.143	800.000	0.062	-0.176
-325.129	-15.118	-0.358	0.232
-324.114	19.303	-0.310	0.252
-323.099	247.063	0.115	-0.196
-322.085	-200.000	0.040	-0.336
-321.070	119.209	0.129	0.162
-320.056	148.938	-0.055	-0.075
-319.041	-49.578	0.144	-0.069
-318.026	-199.341	-0.279	-0.001
-317.012	-138.030	-0.073	-0.008
-315.997	-64.052	-0.341	0.141
-314.983	-110.303	-0.250	0.052
-313.968	-128.617	-0.283	0.040
-312.953	-200.000	0.023	-0.227
-311.939	123.710	0.263	-0.334
-310.924	61.115	-0.064	0.064
-309.910	233.294	-0.097	-0.162
-308.895	800.000	-0.065	-0.244
-307.880	800.000	-0.052	0.179
-306.866	-92.752	0.050	0.014
-305.851	330.819	0.052	-0.102
-304.837	-58.633	-0.059	-0.026
-303.822	-147.732	0.128	0.011
-302.807	800.000	0.053	-0.234
-301.793	-98.618	0.048	-0.012
-300.778	-196.965	-0.151	-0.001
-299.764	234.471	0.130	-0.216
-298.749	55.554	0.179	0.175
-297.735	532.221	-0.078	0.186
-296.720	78.171	0.134	0.145
-295.705	9.224	0.084	0.064
-294.691	324.464	-0.104	-0.200
-293.676	322.469	-0.112	0.215
-292.662	-126.230	-0.307	-0.046
-291.647	-200.000	0.008	-0.156
-290.632	-186.764	0.258	-0.004
-289.618	-133.638	-0.222	-0.028
-288.603	173.982	0.007	-0.010
-287.589	-200.000	-0.014	0.077
-286.574	138.103	0.104	-0.137
-285.559	-189.674	-0.089	0.001
-284.545	120.810	-0.129	-0.162
-283.530	-94.627	0.303	0.083
-282.516	-33.119	-0.187	-0.105
-281.501	115.412	-0.085	-0.104
-280.486	800.000	-0.107	0.384
-279.472	602.202	0.117	0.293
-278.457	-1.560	-0.215	0.153
-277.443	400.647	-0.101	0.215
-276.428	800.000	-0.015	-0.061
-275.413	-200.000	0.078	0.580
-274.399	-77.117	-0.065	0.023
-273.384	133.215	-0.174	-0.227
-272.370	-45.621	-0.235	-0.117
-271.355	1.235	0.094	-0.068
-270.340	-107.905	-0.450	0.099
-269.326	141.816	-0.060	-0.080
-268.311	-200.000	0.058	-0.320
-267.297	-200.000	-0.016	0.255
-266.282	391.380	0.109	0.228
-265.267	90.006	-0.179	-0.201
-264.253	-74.915	0.320	-0.116
-263.238	-41.549	0.164	0.085
-262.224	800.000	0.032	-0.122
-261.209	-200.000	0.026	0.227
-260.195	-60.701	-0.193	0.083
-259.180	-200.000	0.020	0.248
-258.165	-128.511	-0.179	-0.026
-257.151	34.236	-0.119	0.105
-256.136	800.000	0.062	0.247
-255.122	-102.398	-0.021	-0.005
-254.107	386.738	0.167	-0.347
-253.092	169.163	0.107	0.154
-252.078	113.718	0.073	0.090
-251.063	-30.087	-0.425	-0.244
-250.049	26.587	-0.213	-0.180
-249.034	-43.697	0.289	-0.147
-248.019	-27.452	-0.079	0.046
-247.005	-158.779	0.350	0.020
-245.990	183.072	0.257	0.383
-244.976	-78.985	-0.188	-0.064
-243.961	-200.000	0.024	0.319
-242.946	-200.000	-0.055	0.282
-241.932	23.352	0.194	-0.161
-240.917	308.957	0.071	0.133
-239.903	-161.315	-0.130	-0.007
-238.888	-3.038	0.156	0.109
-237.873	-200.000	-0.029	0.275
-236.859	800.000	0.012	0.037
-235.844	-168.525	0.257	-0.010
-234.830	43.685	0.161	-0.148
-233.815	194.869	-0.095	0.145
-232.800	101.212	0.039	-0.045
-231.786	-77.220	-0.306	-0.107
-230.771	-22.063	0.062	-0.038
-229.757	429.202	0.141	-0.307
-228.742	-200.000	0.087	0.399
-227.727	-200.000	0.005	0.293
-226.713	-179.675	-0.197	0.004
-225.698	-200.000	0.036	0.263
-224.684	-73.589	0.627	0.230
-223.669	14.218	-0.327	0.256
-222.655	210.699	-0.044	0.070
-221.640	258.938	0.030	0.051
-220.625	163.165	0.177	-0.250
-219.611	251.017	-0.032	0.055
-218.596	116.643	-0.076	0.094
-217.582	13.766	-0.250	0.196
-216.567	-179.527	-0.310	-0.007
-215.552	31.572	0.141	-0.122
-214.538	-200.000	0.041	-0.194
-213.523	564.110	0.119	0.290
-212.509	122.927	-0.094	0.119
-211.494	-200.000	-0.009	0.087
-210.479	239.713	-0.237	0.397
-209.465	-149.560	0.195	-0.016
-208.450	-104.310	-0.258	0.060
-207.436	-200.000	-0.013	-0.187
-206.421	-68.829	-0.120	0.047
-205.406	-51.298	0.146	0.069
-204.392	51.673	0.171	-0.164
-203.377	-22.007	-0.180	0.110
-202.363	-200.000	-0.080	-0.697
-201.348	-157.501	-0.259	-0.016
-200.333	16.888	0.126	-0.100
-199.319	800.000	-0.035	-0.101
-198.304	-61.596	0.281	-0.119
-197.290	72.214	0.060	0.063
-196.275	800.000	-0.092	0.263
-195.260	55.121	0.278	0.271
-194.246	-97.686	0.113	-0.029
-193.231	-200.000	-0.042	0.251
-192.217	325.004	-0.036	0.069
-191.202	800.000	0.070	-0.201
-190.187	7.797	-0.148	-0.111
-189.173	4.756	-0.385	-0.285
-188.158	-143.037	0.256	0.025
-187.144	35.795	0.236	0.209
-186.129	800.000	-0.086	0.322
-185.114	14.912	0.310	0.244
-184.100	68.595	-0.171	0.176
-183.085	191.233	0.105	0.159
-182.071	113.373	0.108	-0.132
-181.056	293.912	0.142	-0.261
-180.042	84.797	-0.336	-0.370
-179.027	80.451	0.119	0.129
-178.012	559.011	-0.015	0.036
-176.998	657.795	-0.080	-0.206
-175.983	800.000	-0.059	-0.216
-174.969	-122.201	0.134	-0.022
-173.954	336.333	-0.123	0.240
-172.939	-14.207	-0.220	-0.143
-171.925	82.926	-0.173	0.189
-170.910	-74.276	0.098	-0.036
-169.896	31.909	-0.084	0.072
-168.881	209.281	0.153	0.241
-167.866	-148.069	-0.201	0.017
-166.852	130.529	0.239	-0.308
-165.837	-200.000	-0.038	-0.231
-164.823	107.667	0.122	0.146
-163.808	-140.677	0.239	0.025
-162.793	-150.700	0.188	0.014
-161.779	374.543	0.042	0.086
-160.764	54.024	0.306	0.295
-159.750	800.000	-0.077	0.251
-158.735	-92.344	0.312	0.088
-157.720	-83.406	0.246	-0.079
-156.706	43.976	0.269	0.248
-155.691	-200.000	-0.000	0.015
-154.677	-75.380	0.056	0.020
-153.662	-200.000	0.047	-0.305
-152.647	-54.759	-0.429	0.195
-151.633	96.079	0.255	0.293
-150.618	14.398	-0.101	-0.079
-149.604	-17.156	-0.107	-0.068
-148.589	203.707	-0.107	0.166
-147.574	588.689	-0.075	0.184
-146.560	800.000	-0.052	-0.146
-145.545	-162.407	0.095	0.005
-144.531	-53.179	0.120	-0.056
-143.516	-200.000	0.000	-0.092
-142.502	-36.457	0.067	0.036
-141.487	-96.269	0.134	0.036
-140.472	115.273	0.142	-0.174
-139.458	218.845	0.063	-0.101
-138.443	-200.000	0.023	-0.477
-137.429	-69.889	-0.419	0.160
-136.414	-86.825	-0.118	0.036
-135.399	-200.000	-0.038	-0.182
-134.385	-129.483	-0.313	0.043
-133.370	209.650	0.116	-0.182
-132.356	141.504	-0.218	0.290
-131.341	-33.429	-0.089	-0.050
-130.326	-200.000	0.042	-0.185
-129.312	-200.000	-0.027	-0.163
-128.297	-200.000	-0.032	0.296
-127.283	-86.162	0.087	0.027
-126.268	140.737	0.140	0.186
-125.253	-42.076	0.073	-0.037
-124.239	-5.775	-0.227	-0.156
-123.224	-200.000	0.011	0.162
-122.210	113.900	-0.212	0.259
-121.195	-200.000	0.017	0.137
