DTS Sentinel unit serial number:	SN413079Multiplexer serial number:	ORYXHardware model number:	OX4-SRSoftware version number:	ORYX F/W v4.00 Oryx Data Collector v3.7.2.0data status	okinstallation	princeton_trtdifferential loss correction	single-endedforward channel	channel 4reverse channel	N/Adate	2019/09/18time	16:45:35forward acquisition time	60.00reverse acquisition time	0.00gamma	496.2192k internal	0.2288k external	0.2288temperature offset calibration	1.0011default loss term (dB/km)	0.3790temperature slope calibration	1.0000multiplexer offset coefficient	1.0000multiplexer slope coefficient	1.0000fibre end	0.00T internal ref (°C)	39.89T ext. ref 1 (°C)	0.87T ext. ref 2 (°C)	36.19length (m)	temperature (°C)	Stokes	anti-Stokes-747.200	-20.399	0.160	-0.101
-746.185	12.328	-0.147	0.116
-745.171	358.691	0.013	0.027
-744.156	425.099	-0.039	0.085
-743.142	800.000	0.128	-0.438
-742.127	-200.000	-0.005	-0.114
-741.112	800.000	-0.025	-0.080
-740.098	-17.222	-0.220	0.142
-739.083	800.000	0.037	-0.157
-738.069	15.986	-0.090	0.073
-737.054	-121.848	-0.214	-0.036
-736.039	800.000	-0.093	0.291
-735.025	180.415	0.183	0.276
-734.010	112.338	-0.122	-0.151
-732.996	29.738	-0.226	-0.197
-731.981	23.474	-0.198	-0.167
-730.966	-37.721	-0.134	-0.073
-729.952	-75.108	-0.136	-0.050
-728.937	-200.000	0.043	-0.289
-727.923	118.394	0.135	-0.171
-726.908	-85.858	-0.207	0.066
-725.894	696.715	0.038	-0.101
-724.879	-152.049	-0.352	-0.026
-723.864	100.157	-0.167	-0.199
-722.850	674.821	-0.176	0.469
-721.835	71.683	-0.186	0.198
-720.821	168.072	0.151	-0.220
-719.806	-22.615	-0.074	-0.046
-718.791	-19.424	-0.407	0.259
-717.777	-95.423	0.117	-0.032
-716.762	-43.518	0.027	-0.014
-715.748	-89.603	-0.254	-0.076
-714.733	366.819	-0.243	-0.503
-713.718	233.855	-0.157	-0.265
-712.704	-120.755	-0.264	-0.046
-711.689	-69.971	-0.211	-0.082
-710.675	-76.121	-0.112	-0.041
-709.660	-7.013	0.294	0.204
-708.645	-18.687	0.196	-0.125
-707.631	85.812	-0.094	-0.106
-706.616	-131.751	-0.282	0.038
-705.602	-200.000	0.023	-0.219
-704.587	-131.776	-0.098	-0.013
-703.572	800.000	0.091	0.307
-702.558	-97.813	0.243	-0.064
-701.543	-79.103	0.320	0.111
-700.529	311.182	0.114	-0.219
-699.514	-200.000	-0.001	-0.281
-698.499	-193.790	0.106	0.001
-697.485	296.216	-0.167	0.313
-696.470	251.832	0.171	0.297
-695.456	110.583	-0.199	0.245
-694.441	67.137	-0.173	-0.181
-693.426	800.000	-0.062	-0.252
-692.412	19.358	0.313	0.257
-691.397	-200.000	0.065	0.485
-690.383	281.878	-0.171	-0.314
-689.368	-200.000	0.026	-0.190
-688.354	800.000	-0.121	-0.399
-687.339	-5.064	-0.083	0.058
-686.324	-200.000	0.011	0.448
-685.310	33.081	0.219	0.195
-684.295	-56.241	-0.353	-0.161
-683.281	-158.346	-0.156	-0.009
-682.266	-129.832	0.192	0.027
-681.251	535.075	0.094	-0.228
-680.237	289.616	-0.057	0.106
-679.222	124.233	-0.150	-0.193
-678.208	-200.000	-0.063	-0.371
-677.193	-143.101	-0.124	-0.012
-676.178	-200.000	-0.026	-0.157
-675.164	-15.129	-0.258	-0.169
-674.149	-50.357	-0.117	-0.057
-673.135	150.594	-0.176	0.244
-672.120	-8.937	-0.118	0.081
-671.105	-110.217	-0.334	0.071
-670.091	-89.496	0.245	-0.074
-669.076	40.751	-0.137	0.126
-668.062	-200.000	-0.027	0.154
-667.047	-172.093	-0.304	-0.010
-666.032	-200.000	0.014	0.118
-665.018	530.722	-0.107	-0.259
-664.003	190.949	-0.131	0.201
-662.989	800.000	0.054	-0.167
-661.974	-200.000	0.005	-0.304
-660.959	-44.953	-0.108	0.055
-659.945	-109.732	-0.060	0.013
-658.930	-170.550	0.298	0.011
-657.916	-200.000	0.008	-0.084
-656.901	-112.556	-0.188	-0.038
-655.886	8.760	0.323	-0.248
-654.872	-10.816	-0.108	-0.073
-653.857	-200.000	-0.014	0.176
-652.843	-59.332	0.362	0.159
-651.828	177.004	-0.018	0.027
-650.814	-99.819	0.140	0.036
-649.799	-200.000	-0.011	0.114
-648.784	-56.248	0.092	-0.042
-647.770	-155.343	-0.351	0.023
-646.755	-200.000	-0.041	0.233
-645.741	671.082	-0.134	0.354
-644.726	-21.162	0.208	0.130
-643.711	-85.634	0.142	0.045
-642.697	-184.696	0.078	-0.001
-641.682	734.228	0.095	-0.260
-640.668	-200.000	-0.050	0.294
-639.653	194.288	-0.143	0.221
-638.638	50.478	-0.326	-0.315
-637.624	800.000	0.029	0.101
-636.609	398.076	0.113	-0.240
-635.595	-105.986	0.125	0.029
-634.580	-200.000	-0.042	0.446
-633.565	48.556	-0.214	-0.204
-632.551	-200.000	-0.079	-0.409
-631.536	800.000	-0.065	0.202
-630.522	-161.381	-0.272	-0.014
-629.507	-200.000	0.059	0.335
-628.492	152.115	-0.088	0.123
-627.478	-48.461	-0.364	-0.179
-626.463	148.545	0.089	0.122
-625.449	-200.000	0.008	-0.049
-624.434	-200.000	0.021	0.161
-623.419	-91.068	0.330	0.097
-622.405	-43.824	-0.129	-0.066
-621.390	-200.000	-0.003	-0.064
-620.376	-42.323	-0.462	0.241
-619.361	-200.000	0.005	-0.072
-618.346	161.507	-0.068	-0.097
-617.332	-69.960	0.170	-0.066
-616.317	518.981	0.029	0.070
-615.303	-200.000	0.017	0.186
-614.288	95.230	-0.270	0.314
-613.273	-200.000	-0.015	-0.145
-612.259	4.816	-0.223	0.167
-611.244	800.000	-0.015	-0.055
-610.230	-200.000	0.017	0.292
-609.215	-53.747	0.065	0.030
-608.201	202.596	0.050	-0.079
-607.186	-200.000	0.008	0.338
-606.171	-200.000	-0.008	-0.042
-605.157	-112.760	-0.168	0.034
-604.142	-200.000	-0.046	0.356
-603.128	-18.832	0.042	-0.027
-602.113	-0.794	-0.221	-0.159
-601.098	800.000	0.068	0.223
-600.084	800.000	-0.101	0.327
-599.069	-44.507	-0.179	0.091
-598.055	68.286	0.310	-0.324
-597.040	800.000	0.038	-0.115
-596.025	358.326	0.041	0.083
-595.011	-82.542	-0.163	0.054
-593.996	429.369	-0.143	0.316
-592.982	34.952	-0.280	-0.250
-591.967	-200.000	-0.034	-0.165
-590.952	7.017	-0.152	-0.116
-589.938	-40.147	0.022	-0.012
-588.923	8.653	-0.178	-0.136
-587.909	93.312	-0.194	0.223
-586.894	-107.156	-0.364	-0.082
-585.879	-100.316	-0.077	-0.020
-584.865	-15.246	-0.208	0.136
-583.850	-129.313	-0.342	0.049
-582.836	-76.719	-0.149	-0.053
-581.821	498.820	-0.066	0.154
-580.806	24.579	0.209	0.176
-579.792	-52.342	-0.195	-0.092
-578.777	648.097	-0.089	-0.233
-577.763	800.000	-0.113	0.389
-576.748	-119.014	0.125	-0.022
-575.733	-103.950	-0.132	-0.031
-574.719	-200.000	0.026	0.196
-573.704	-200.000	-0.055	-0.317
-572.690	-200.000	0.007	-0.076
-571.675	10.938	0.273	-0.213
-570.661	-200.000	0.003	0.108
-569.646	-200.000	0.049	0.235
-568.631	96.141	-0.172	0.201
-567.617	113.453	0.037	-0.045
-566.602	626.894	-0.087	0.224
-565.588	-134.190	0.057	0.007
-564.573	-120.912	-0.103	0.018
-563.558	-82.153	0.293	-0.097
-562.544	69.842	-0.135	-0.142
-561.529	528.918	-0.017	0.042
-560.515	-43.575	-0.274	-0.141
-559.500	-130.164	-0.139	-0.019
-558.485	112.244	-0.135	0.167
-557.471	800.000	-0.053	-0.173
-556.456	-70.070	0.083	-0.032
-555.442	-28.927	0.062	0.036
-554.427	800.000	-0.047	0.182
-553.412	-104.820	0.321	-0.075
-552.398	-139.530	0.407	-0.044
-551.383	-42.129	0.244	-0.127
-550.369	276.272	-0.098	-0.176
-549.354	170.012	0.012	-0.018
-548.339	-46.578	0.300	-0.150
-547.325	800.000	0.074	-0.286
-546.310	47.281	-0.167	0.158
-545.296	-121.894	-0.191	-0.032
-544.281	15.660	0.135	0.108
-543.266	-139.109	-0.184	-0.020
-542.252	-131.915	0.331	0.044
-541.237	-1.131	-0.228	0.164
-540.223	-46.799	-0.193	0.096
-539.208	487.762	-0.069	-0.161
-538.193	-38.683	-0.203	0.109
-537.179	245.461	0.190	0.326
-536.164	-127.325	-0.283	-0.042
-535.150	-129.876	0.204	0.029
-534.135	15.701	-0.053	-0.042
-533.121	-132.218	0.263	0.035
-532.106	800.000	-0.057	0.204
-531.091	-81.824	0.340	-0.113
-530.077	348.527	-0.079	-0.159
-529.062	-25.198	0.113	0.068
-528.048	225.220	0.098	0.162
-527.033	-68.365	-0.075	-0.030
-526.018	189.843	0.151	0.231
-525.004	324.849	0.067	-0.130
-523.989	-31.735	0.148	0.084
-522.975	501.178	0.119	0.279
-521.960	78.974	0.340	0.370
-520.945	227.899	0.127	-0.210
-519.931	-47.728	-0.186	0.092
-518.916	-128.459	0.213	-0.031
-517.902	-200.000	0.012	-0.125
-516.887	-34.466	-0.168	-0.093
-515.872	-145.317	-0.034	0.003
-514.858	-17.454	-0.283	0.181
-513.843	-23.384	-0.284	-0.173
-512.829	783.097	0.131	0.366
-511.814	29.549	0.115	0.099
-510.799	169.279	0.066	0.095
-509.785	52.910	-0.051	-0.049
-508.770	-3.866	-0.104	0.073
-507.756	-61.975	0.055	-0.023
-506.741	-200.000	-0.050	-0.382
-505.726	-200.000	0.029	-0.166
-504.712	-3.872	0.274	-0.193
-503.697	15.278	-0.104	0.083
-502.683	800.000	-0.099	-0.335
-501.668	512.060	-0.125	-0.296
-500.653	-48.151	0.146	-0.071
-499.639	63.508	-0.067	0.069
-498.624	-52.169	-0.254	-0.120
-497.610	164.865	0.272	-0.389
-496.595	161.576	-0.071	-0.101
-495.581	119.157	-0.017	-0.021
-494.566	406.751	-0.037	0.079
-493.551	800.000	-0.034	-0.130
-492.537	-200.000	0.014	-0.112
-491.522	-200.000	-0.027	0.174
-490.508	-200.000	-0.031	0.386
-489.493	-29.586	0.054	0.031
-488.478	38.424	-0.044	-0.039
-487.464	-200.000	0.054	0.442
-486.449	-49.563	0.164	-0.079
-485.435	-131.026	0.461	-0.062
-484.420	-200.000	0.003	-0.039
-483.405	-70.930	-0.142	-0.054
-482.391	471.571	-0.170	-0.387
-481.376	800.000	-0.046	0.140
-480.362	-13.509	-0.235	0.155
-479.347	162.043	0.225	-0.320
-478.332	-84.959	-0.268	0.085
-477.318	9.359	-0.076	-0.058
-476.303	-15.198	0.266	-0.173
-475.289	-131.535	0.430	0.058
-474.274	-26.232	0.095	-0.057
-473.259	168.379	0.213	0.307
-472.245	402.655	0.044	-0.093
-471.230	-42.572	-0.070	0.036
-470.216	-37.180	0.215	0.116
-469.201	512.134	0.156	0.369
-468.186	12.431	-0.105	-0.082
-467.172	-200.000	0.009	0.218
-466.157	-50.808	-0.289	0.138
-465.143	-82.067	0.192	-0.064
-464.128	-139.406	0.432	-0.047
-463.113	52.351	0.078	0.076
-462.099	-87.618	0.125	-0.038
-461.084	-178.682	-0.146	-0.003
-460.070	540.601	0.059	0.141
-459.055	-200.000	-0.041	0.302
-458.040	800.000	-0.006	0.018
-457.026	-200.000	-0.064	0.334
-456.011	24.249	0.194	-0.162
-454.997	-65.589	0.233	-0.095
-453.982	668.639	0.055	-0.144
-452.968	-114.543	-0.217	0.042
-451.953	-200.000	-0.019	0.246
-450.938	192.852	0.217	0.332
-449.924	800.000	0.040	-0.177
-448.909	517.449	-0.028	-0.065
-447.895	-27.360	-0.129	-0.076
-446.880	-48.146	0.154	0.075
-445.865	576.181	0.064	-0.158
-444.851	-170.422	-0.080	0.003
-443.836	534.951	0.038	0.091
-442.822	238.506	0.205	0.345
-441.807	-86.230	0.213	-0.067
-440.792	-200.000	-0.067	0.442
-439.778	-86.186	0.156	0.049
-438.763	458.036	0.074	-0.166
-437.749	-200.000	0.006	0.243
-436.734	800.000	-0.034	-0.142
-435.719	800.000	-0.030	-0.108
-434.705	-20.213	-0.045	0.028
-433.690	-26.408	0.074	0.044
-432.676	-200.000	0.054	0.325
-431.661	366.242	-0.174	-0.354
-430.646	-111.837	-0.542	0.111
-429.632	-18.044	0.285	-0.181
-428.617	-200.000	0.006	-0.229
-427.603	-122.481	-0.122	0.020
-426.588	-152.575	-0.314	0.023
-425.573	27.762	-0.173	-0.148
-424.559	-53.751	-0.072	-0.033
-423.544	142.017	-0.229	0.307
-422.530	-13.055	-0.192	-0.126
-421.515	-124.499	0.191	0.030
-420.500	217.461	0.154	0.248
-419.486	-200.000	-0.041	-0.316
-418.471	-126.995	0.118	0.018
-417.457	-200.000	-0.002	0.073
-416.442	10.966	0.197	-0.153
-415.428	382.721	0.009	-0.019
-414.413	-104.680	0.171	0.040
-413.398	-200.000	0.051	0.225
-412.384	364.069	0.140	0.286
-411.369	247.099	-0.010	0.017
-410.355	-200.000	0.067	0.362
-409.340	-45.256	0.151	-0.076
-408.325	-200.000	-0.032	-0.172
-407.311	185.446	-0.143	0.215
-406.296	-200.000	-0.043	0.205
-405.282	-181.811	-0.104	-0.002
-404.267	85.417	0.207	-0.229
-403.252	-50.948	0.265	-0.126
-402.238	21.481	0.134	0.110
-401.223	800.000	-0.046	0.136
-400.209	-120.358	-0.210	0.036
-399.194	-148.892	0.251	0.021
-398.179	-17.914	0.092	-0.058
-397.165	-200.000	0.013	0.067
-396.150	304.874	0.075	-0.142
-395.136	27.405	0.061	-0.052
-394.121	689.009	0.135	-0.358
-393.106	-200.000	-0.031	-0.138
-392.092	-94.524	0.148	0.041
-391.077	-3.894	0.032	0.022
-390.063	-200.000	0.003	0.078
-389.048	-54.994	0.195	-0.089
-388.033	-168.715	0.481	0.018
-387.019	-112.165	0.273	0.055
-386.004	-69.427	0.254	0.098
-384.990	-26.519	-0.168	-0.100
-383.975	-111.448	0.110	-0.023
-382.960	132.089	-0.174	0.227
-381.946	-3.283	0.180	-0.127
-380.931	400.652	-0.063	-0.134
-379.917	68.233	-0.201	0.208
-378.902	800.000	0.086	0.269
-377.888	-200.000	-0.043	0.297
-376.873	-200.000	-0.037	0.346
-375.858	17.106	-0.235	-0.189
-374.844	63.476	-0.061	0.061
-373.829	-142.808	0.312	0.031
-372.815	283.110	0.066	0.121
-371.800	-22.165	0.161	0.098
-370.785	-200.000	0.038	0.234
-369.771	266.681	0.171	-0.301
-368.756	73.400	0.054	0.058
-367.742	-1.594	-0.150	0.107
-366.727	-157.529	-0.229	-0.014
-365.712	-100.248	-0.070	-0.018
-364.698	-30.246	0.154	-0.088
-363.683	779.101	-0.055	-0.153
-362.669	-200.000	-0.011	-0.056
-361.654	-200.000	-0.034	0.206
-360.639	800.000	0.025	-0.086
-359.625	107.832	-0.100	-0.121
-358.610	800.000	-0.065	0.223
-357.596	800.000	-0.011	0.034
-356.581	623.617	0.013	-0.033
-355.566	242.261	-0.024	-0.040
-354.552	-200.000	-0.026	-0.203
-353.537	-200.000	0.054	-0.253
-352.523	-200.000	-0.040	-0.402
-351.508	360.936	-0.018	-0.036
-350.493	-46.913	0.145	-0.072
-349.479	-12.896	0.069	-0.046
-348.464	10.216	-0.122	0.094
-347.450	119.831	-0.094	0.118
-346.435	-142.809	0.074	0.007
-345.420	-200.000	0.077	0.349
-344.406	-200.000	0.029	-0.172
-343.391	378.828	0.187	-0.386
-342.377	31.470	-0.070	0.060
-341.362	-120.366	-0.276	-0.047
-340.348	-129.799	-0.089	0.012
-339.333	-200.000	0.017	0.258
-338.318	257.768	-0.163	-0.283
-337.304	143.496	-0.069	-0.092
-336.289	91.928	0.115	-0.131
-335.275	-66.355	0.181	-0.072
-334.260	-200.000	0.000	0.278
-333.245	249.131	0.143	-0.244
-332.231	800.000	-0.018	0.068
-331.216	384.178	0.149	-0.309
-330.202	-200.000	0.005	-0.032
-329.187	800.000	-0.021	0.085
-328.172	-98.132	-0.334	-0.087
-327.158	-28.236	0.168	-0.098
-326.143	73.815	-0.232	0.245
-325.129	251.095	0.127	-0.218
-324.114	-23.651	0.091	-0.055
-323.099	104.501	0.022	-0.027
-322.085	-200.000	0.063	0.283
-321.070	-27.806	-0.051	-0.030
-320.056	800.000	0.057	0.165
-319.041	-78.690	0.207	0.071
-318.026	-33.601	-0.056	0.031
-317.012	636.913	0.074	-0.189
-315.997	-200.000	0.011	-0.220
-314.983	-24.348	0.155	-0.093
-313.968	-200.000	0.074	-0.423
-312.953	-126.763	0.432	0.064
-311.939	138.290	0.259	0.342
-310.924	41.479	0.033	-0.030
-309.910	20.066	0.281	-0.229
-308.895	-166.369	0.360	-0.015
-307.880	82.795	0.103	0.112
-306.866	91.174	0.096	0.108
-305.851	-118.762	-0.158	-0.028
-304.837	9.223	-0.253	-0.193
-303.822	800.000	0.047	0.206
-302.807	-200.000	-0.047	0.286
-301.793	-200.000	-0.000	0.100
-300.778	-200.000	-0.007	-0.047
-299.764	-62.427	-0.195	-0.082
-298.749	-200.000	0.025	0.122
-297.735	-111.572	0.145	-0.030
-296.720	202.652	0.075	0.116
-295.705	-41.999	-0.328	0.169
-294.691	127.611	-0.137	0.175
-293.676	7.060	-0.086	-0.065
-292.662	-44.642	0.116	0.058
-291.647	3.930	-0.002	0.001
-290.632	6.083	0.180	0.134
-289.618	-18.793	0.248	0.155
-288.603	78.522	0.267	-0.288
-287.589	101.455	0.135	-0.158
-286.574	163.935	-0.223	-0.316
-285.559	-200.000	-0.025	-0.154
-284.545	-64.057	-0.166	-0.068
-283.530	11.982	0.318	0.246
-282.516	308.759	0.097	-0.182
-281.501	-11.617	-0.225	0.149
-280.486	164.149	-0.269	0.381
-279.472	15.460	0.112	0.089
-278.457	-90.300	-0.433	0.127
-277.443	472.305	0.046	-0.105
-276.428	-103.001	-0.264	-0.063
-275.413	133.784	-0.092	0.120
-274.399	545.339	0.050	-0.121
-273.384	-134.184	0.189	0.023
-272.370	110.061	-0.138	-0.166
-271.355	-7.284	-0.201	-0.137
-270.340	24.184	0.232	-0.193
-269.326	326.377	-0.069	-0.132
-268.311	-78.176	0.067	-0.023
-267.297	-200.000	0.014	0.206
-266.282	-65.781	-0.124	0.050
-265.267	-105.412	0.297	-0.068
-264.253	-200.000	0.016	-0.172
-263.238	800.000	0.020	-0.077
-262.224	-200.000	0.048	-0.272
-261.209	-5.145	0.280	0.194
-260.195	-153.135	0.429	0.030
-259.180	312.057	-0.041	-0.077
-258.165	-176.757	-0.248	-0.006
-257.151	-101.613	-0.155	-0.038
-256.136	-30.499	-0.440	0.251
-255.122	175.764	0.096	0.140
-254.107	193.052	-0.045	-0.068
-253.092	800.000	-0.138	-0.401
-252.078	26.028	0.328	-0.275
-251.063	-200.000	-0.044	-0.263
-250.049	263.130	-0.156	-0.272
-249.034	-200.000	0.041	-0.391
-248.019	148.660	0.060	-0.082
-247.005	-112.936	-0.132	-0.026
-245.990	65.176	-0.152	0.154
-244.976	276.700	0.106	0.189
-243.961	-200.000	0.011	0.119
-242.946	-56.984	-0.225	-0.100
-241.932	-144.863	0.110	0.010
-240.917	-11.458	-0.214	-0.142
-239.903	-93.198	-0.051	-0.014
-238.888	1.675	0.218	-0.158
-237.873	95.241	-0.205	-0.234
-236.859	-70.626	-0.361	-0.137
-235.844	-62.088	0.195	-0.082
-234.830	-200.000	-0.069	0.000
-233.815	-78.031	-0.162	0.056
-232.800	-83.204	-0.123	-0.040
-231.786	-96.311	-0.159	0.042
-230.771	14.250	0.130	-0.102
-229.757	-200.000	0.006	-0.117
-228.742	-140.853	-0.416	0.043
-227.727	73.062	0.269	0.282
-226.713	-61.824	-0.036	-0.015
-225.698	-74.565	-0.061	0.022
-224.684	-200.000	-0.021	-0.208
-223.669	800.000	0.062	-0.177
-222.655	-196.524	0.270	0.002
-221.640	250.161	0.056	0.095
-220.625	-200.000	-0.003	-0.182
-219.611	-169.587	0.163	0.006
-218.596	163.952	-0.184	-0.261
-217.582	-200.000	0.002	0.015
-216.567	-51.694	0.159	0.075
-215.552	26.467	-0.406	-0.341
-214.538	800.000	-0.016	-0.071
-213.523	98.456	-0.253	-0.292
-212.509	-134.863	0.135	0.016
-211.494	310.489	-0.057	0.107
-210.479	-47.607	-0.276	0.135
-209.465	-1.598	-0.337	0.238
-208.450	282.873	0.121	0.219
-207.436	-15.858	-0.278	0.177
-206.421	-161.282	0.365	0.019
-205.406	113.037	-0.143	0.174
-204.392	96.024	-0.153	0.176
-203.377	800.000	-0.104	-0.372
-202.363	162.057	0.058	-0.082
-201.348	71.981	0.145	-0.152
-200.333	-138.150	0.224	0.025
-199.319	-200.000	-0.022	0.174
-198.304	-123.981	-0.095	-0.015
-197.290	-200.000	-0.025	0.126
-196.275	-69.077	-0.205	0.079
-195.260	394.783	-0.105	-0.219
-194.246	155.800	-0.100	-0.138
-193.231	18.447	-0.139	-0.111
-192.217	-200.000	0.007	-0.129
-191.202	-200.000	0.029	-0.467
-190.187	742.970	0.048	-0.128
-189.173	-200.000	0.045	-0.257
-188.158	-200.000	0.013	0.149
-187.144	-98.915	0.070	-0.018
-186.129	800.000	0.019	0.072
-185.114	800.000	-0.060	-0.192
-184.100	359.991	0.022	-0.045
-183.085	358.347	0.104	-0.208
-182.071	-96.800	0.121	-0.032
-181.056	-200.000	0.002	0.077
-180.042	-26.340	0.090	0.053
-179.027	-188.351	-0.143	0.002
-178.012	-102.556	-0.233	0.056
-176.998	-200.000	0.021	-0.109
-175.983	-185.639	-0.114	-0.002
-174.969	30.557	-0.070	0.060
-173.954	-115.997	-0.131	-0.025
-172.939	-150.991	-0.188	-0.014
-171.925	800.000	0.098	0.361
-170.910	-115.716	0.289	-0.054
-169.896	-200.000	-0.007	-0.313
-168.881	-200.000	-0.093	0.468
-167.866	-96.776	-0.142	0.037
-166.852	456.023	-0.061	0.136
-165.837	-200.000	0.023	-0.166
-164.823	-11.716	0.140	-0.092
-163.808	32.118	0.395	0.341
-162.793	-5.945	-0.263	-0.180
-161.779	112.305	-0.142	0.172
-160.764	453.753	0.153	-0.340
-159.750	-34.443	0.109	0.060
-158.735	-200.000	0.038	-0.185
-157.720	-183.056	-0.111	0.002
-156.706	267.853	0.073	0.129
-155.691	10.500	0.127	0.097
-154.677	649.098	-0.102	-0.262
-153.662	245.844	-0.064	-0.108
-152.647	-200.000	0.066	-0.492
-151.633	80.978	0.125	-0.135
-150.618	193.187	0.085	-0.128
-149.604	-82.590	0.002	0.000
-148.589	800.000	-0.033	-0.105
-147.574	-75.871	-0.287	-0.102
-146.560	320.371	-0.097	0.184
-145.545	-200.000	-0.050	0.447
-144.531	28.703	0.138	-0.117
-143.516	35.786	-0.076	0.067
-142.502	-40.557	0.383	-0.199
-141.487	58.597	0.227	0.223
-140.472	-104.916	0.037	-0.008
-139.458	-103.563	-0.048	-0.011
-138.443	190.754	-0.115	-0.173
-137.429	215.821	-0.148	-0.236
-136.414	-133.604	0.247	-0.031
-135.399	-46.585	-0.269	-0.132
-134.385	-28.242	-0.092	-0.053
-133.370	92.970	0.094	0.106
-132.356	-200.000	0.004	-0.106
-131.341	-69.776	-0.014	0.006
-130.326	270.648	0.305	0.537
-129.312	-200.000	-0.000	-0.183
-128.297	57.436	0.148	-0.145
-127.283	-50.718	0.102	-0.048
-126.268	-72.889	0.156	0.057
-125.253	-112.618	0.395	0.079
-124.239	800.000	0.059	0.180
-123.224	-145.645	-0.296	-0.026
