DTS Sentinel unit serial number:	SN413079Multiplexer serial number:	ORYXHardware model number:	OX4-SRSoftware version number:	ORYX F/W v4.00 Oryx Data Collector v3.7.2.0data status	okinstallation	princeton_trtdifferential loss correction	single-endedforward channel	channel 4reverse channel	N/Adate	2019/09/17time	05:37:35forward acquisition time	60.00reverse acquisition time	0.00gamma	496.2192k internal	0.2313k external	0.2313temperature offset calibration	0.9981default loss term (dB/km)	0.3790temperature slope calibration	1.0000multiplexer offset coefficient	1.0000multiplexer slope coefficient	1.0000fibre end	0.00T internal ref (°C)	29.14T ext. ref 1 (°C)	0.14T ext. ref 2 (°C)	22.95length (m)	temperature (°C)	Stokes	anti-Stokes-747.200	753.177	0.123	0.336
-746.185	-164.012	-0.382	0.018
-745.171	-200.000	-0.054	-0.247
-744.156	-3.758	0.032	0.022
-743.142	-140.898	0.150	-0.016
-742.127	28.852	0.083	-0.071
-741.112	-6.949	-0.266	0.183
-740.098	-27.294	-0.267	-0.158
-739.083	-200.000	-0.264	0.001
-738.069	484.222	-0.233	0.539
-737.054	-132.422	0.519	-0.068
-736.039	-166.914	-0.358	-0.015
-735.025	122.999	0.237	0.301
-734.010	-135.213	0.169	0.021
-732.996	540.810	-0.112	-0.270
-731.981	-144.986	-0.411	0.038
-730.966	2.524	-0.267	-0.196
-729.952	-200.000	-0.013	-0.060
-728.937	-44.020	0.170	-0.087
-727.923	132.688	-0.237	-0.310
-726.908	-87.315	0.190	0.058
-725.894	-84.882	-0.185	0.059
-724.879	178.988	-0.238	0.353
-723.864	508.488	-0.101	0.238
-722.850	242.582	-0.193	-0.328
-721.835	384.180	0.133	-0.277
-720.821	-200.000	0.018	-0.174
-719.806	-67.097	-0.236	-0.094
-718.791	-120.860	0.171	-0.029
-717.777	-200.000	0.151	0.000
-716.762	-22.336	0.132	-0.081
-715.748	-67.188	-0.124	-0.050
-714.733	148.626	-0.074	-0.101
-713.718	461.397	0.084	-0.190
-712.704	-182.236	-0.146	0.003
-711.689	224.462	0.242	-0.396
-710.675	294.136	-0.038	0.071
-709.660	-10.659	0.229	0.154
-708.645	-163.300	0.149	0.007
-707.631	-84.307	-0.308	0.099
-706.616	-200.000	0.011	0.223
-705.602	161.322	-0.077	-0.109
-704.587	483.642	-0.147	0.340
-703.572	800.000	0.162	-0.527
-702.558	800.000	-0.064	0.191
-701.543	800.000	-0.100	0.302
-700.529	279.444	0.113	-0.205
-699.514	800.000	0.086	-0.251
-698.499	-146.108	-0.194	0.017
-697.485	88.313	-0.066	-0.074
-696.470	9.461	0.119	-0.091
-695.456	346.753	-0.130	-0.259
-694.441	-14.391	-0.163	0.106
-693.426	-200.000	-0.022	0.176
-692.412	115.347	-0.077	0.095
-691.397	712.555	0.167	-0.448
-690.383	350.954	0.220	-0.441
-689.368	-200.000	0.021	0.161
-688.354	7.350	-0.240	0.181
-687.339	-176.739	-0.135	-0.003
-686.324	-104.214	-0.248	0.058
-685.310	800.000	-0.025	-0.085
-684.295	800.000	-0.011	0.040
-683.281	-148.487	-0.257	-0.021
-682.266	117.854	-0.050	-0.062
-681.251	-112.090	-0.318	-0.065
-680.237	-154.265	0.234	0.016
-679.222	-107.437	-0.282	0.063
-678.208	136.189	0.087	-0.115
-677.193	-22.095	0.172	0.105
-676.178	112.556	-0.156	-0.191
-675.164	228.817	0.046	0.075
-674.149	-30.893	-0.062	0.035
-673.135	-93.655	0.051	-0.014
-672.120	-46.851	0.337	-0.167
-671.105	17.688	0.031	0.025
-670.091	-200.000	0.018	-0.288
-669.076	-87.157	0.081	-0.025
-668.062	170.228	0.145	0.210
-667.047	-30.879	0.043	0.025
-666.032	31.276	-0.217	-0.188
-665.018	-200.000	0.006	0.132
-664.003	-200.000	-0.009	0.127
-662.989	41.810	0.061	0.056
-661.974	62.716	0.148	-0.150
-660.959	-76.972	-0.171	-0.060
-659.945	800.000	-0.083	-0.347
-658.930	770.398	0.098	0.269
-657.916	-200.000	0.013	-0.062
-656.901	20.592	-0.271	0.221
-655.886	279.213	0.138	0.249
-654.872	66.501	0.155	-0.159
-653.857	321.428	-0.207	-0.398
-652.843	-200.000	-0.077	0.368
-651.828	-127.457	0.200	-0.029
-650.814	-8.445	0.079	0.054
-649.799	35.854	-0.205	0.182
-648.784	800.000	0.042	0.161
-647.770	-200.000	0.031	-0.235
-646.755	-113.366	0.153	-0.030
-645.741	155.497	0.268	-0.372
-644.726	-200.000	0.015	-0.245
-643.711	-76.186	-0.160	-0.057
-642.697	-166.344	0.281	-0.012
-641.682	-67.774	0.151	-0.060
-640.668	448.500	0.162	-0.360
-639.653	-112.550	0.259	-0.052
-638.638	800.000	-0.024	-0.106
-637.624	-90.002	0.106	-0.031
-636.609	-200.000	-0.002	0.143
-635.595	-16.775	0.163	0.104
-634.580	-26.539	-0.083	-0.049
-633.565	56.988	-0.237	-0.233
-632.551	34.424	-0.330	-0.291
-631.536	-60.770	0.047	0.020
-630.522	59.701	0.048	0.048
-629.507	54.706	-0.228	-0.222
-628.492	68.397	0.195	-0.202
-627.478	92.010	-0.163	0.185
-626.463	-107.167	-0.194	0.043
-625.449	104.996	-0.259	-0.309
-624.434	39.793	-0.270	0.245
-623.419	176.220	-0.132	0.193
-622.405	148.806	-0.137	-0.187
-621.390	-100.023	0.154	-0.039
-620.376	-8.404	-0.185	-0.125
-619.361	-6.643	-0.223	-0.153
-618.346	-163.623	-0.197	-0.009
-617.332	130.465	-0.140	-0.182
-616.317	93.588	0.052	-0.059
-615.303	-71.114	0.301	-0.114
-614.288	373.162	0.012	0.024
-613.273	-200.000	-0.011	0.119
-612.259	88.954	-0.142	-0.160
-611.244	115.617	-0.021	0.026
-610.230	-125.410	-0.324	-0.050
-609.215	-200.000	0.002	-0.019
-608.201	-77.164	-0.216	-0.076
-607.186	272.769	-0.170	0.303
-606.171	-200.000	0.003	0.042
-605.157	48.033	-0.169	-0.159
-604.142	-85.243	0.082	0.026
-603.128	292.469	0.039	-0.071
-602.113	-140.677	-0.238	-0.025
-601.098	76.389	0.264	-0.282
-600.084	-180.312	-0.138	0.003
-599.069	-200.000	0.025	-0.494
-598.055	12.680	0.210	-0.164
-597.040	800.000	0.123	0.381
-596.025	-115.470	0.184	-0.035
-595.011	800.000	-0.122	0.360
-593.996	-200.000	0.021	-0.212
-592.982	2.873	-0.315	-0.231
-591.967	-109.497	0.156	-0.033
-590.952	-30.537	-0.122	-0.070
-589.938	-34.198	-0.073	-0.040
-588.923	108.929	0.194	0.233
-587.909	68.596	0.065	0.067
-586.894	153.164	0.033	-0.045
-585.879	403.442	-0.072	-0.153
-584.865	102.016	0.203	0.239
-583.850	65.874	0.147	-0.150
-582.836	-67.146	0.253	0.100
-581.821	-200.000	-0.017	0.146
-580.806	198.548	0.211	0.326
-579.792	201.350	0.034	-0.052
-578.777	800.000	-0.125	0.429
-577.763	-189.831	0.344	0.004
-576.748	79.742	0.058	-0.062
-575.733	476.511	0.039	-0.089
-574.719	113.636	-0.131	0.160
-573.704	-163.752	0.064	-0.003
-572.690	-200.000	0.014	0.257
-571.675	-47.866	-0.209	-0.102
-570.661	480.080	-0.041	-0.093
-569.646	-88.333	-0.436	0.131
-568.631	248.004	0.095	-0.161
-567.617	-150.215	0.400	0.031
-566.602	90.034	0.102	0.115
-565.588	18.885	0.126	-0.102
-564.573	-110.456	-0.348	-0.073
-563.558	800.000	0.019	0.068
-562.544	175.499	0.158	-0.231
-561.529	-160.519	0.389	-0.021
-560.515	-134.157	0.128	0.016
-559.500	249.651	-0.089	0.151
-558.485	575.144	-0.139	-0.342
-557.471	-16.723	-0.313	0.199
-556.456	-34.760	-0.097	0.053
-555.442	395.028	0.181	0.380
-554.427	16.071	-0.291	-0.231
-553.412	31.471	0.267	-0.231
-552.398	-77.903	0.310	-0.108
-551.383	-200.000	0.074	-0.356
-550.369	-111.649	-0.516	-0.105
-549.354	42.503	0.209	0.192
-548.339	-18.948	0.063	-0.039
-547.325	-200.000	0.011	0.192
-546.310	-200.000	0.019	0.453
-545.296	-76.765	-0.158	-0.056
-544.281	-105.835	0.156	0.035
-543.266	157.172	0.056	0.077
-542.252	-200.000	0.011	-0.337
-541.237	6.798	-0.268	-0.201
-540.223	800.000	-0.034	-0.126
-539.208	-144.764	-0.103	-0.010
-538.193	-73.686	-0.140	0.051
-537.179	-24.387	-0.276	0.166
-536.164	-200.000	0.031	0.160
-535.150	-200.000	0.036	-0.172
-534.135	113.893	0.283	-0.346
-533.121	715.165	0.028	0.073
-532.106	76.881	0.118	0.127
-531.091	119.523	0.026	-0.032
-530.077	-45.263	-0.224	-0.112
-529.062	193.199	-0.037	-0.056
-528.048	369.877	0.107	-0.218
-527.033	-111.561	-0.061	-0.012
-526.018	-200.000	0.001	-0.145
-525.004	86.494	-0.208	-0.230
-523.989	-75.950	0.027	0.010
-522.975	-200.000	-0.018	-0.146
-521.960	304.394	0.031	0.058
-520.945	-200.000	-0.008	0.072
-519.931	108.697	0.122	0.147
-518.916	-83.522	-0.297	-0.096
-517.902	-152.522	-0.196	-0.014
-516.887	-200.000	0.011	-0.199
-515.872	-103.637	0.130	-0.031
-514.858	387.228	0.080	0.167
-513.843	-42.613	0.188	0.096
-512.829	-43.289	0.134	0.068
-511.814	419.051	-0.108	-0.232
-510.799	-200.000	-0.026	0.428
-509.785	-155.823	0.260	0.017
-508.770	83.284	-0.238	-0.260
-507.756	-200.000	-0.002	0.050
-506.741	70.341	0.068	-0.071
-505.726	800.000	0.094	0.309
-504.712	202.538	0.219	0.339
-503.697	103.232	-0.182	-0.214
-502.683	-116.087	0.122	0.023
-501.668	-200.000	0.042	-0.291
-500.653	208.384	-0.040	-0.063
-499.639	249.789	0.120	-0.204
-498.624	-53.091	-0.032	-0.015
-497.610	408.158	0.055	-0.118
-496.595	210.921	-0.106	-0.168
-495.581	62.506	-0.132	0.133
-494.566	17.269	0.347	-0.277
-493.551	-49.896	0.115	0.055
-492.537	-11.019	-0.267	-0.177
-491.522	-88.364	0.098	-0.030
-490.508	-53.319	-0.315	-0.145
-489.493	800.000	0.078	-0.262
-488.478	-19.347	0.216	0.134
-487.464	100.427	0.192	-0.224
-486.449	258.214	-0.079	-0.137
-485.435	199.901	0.201	0.309
-484.420	-200.000	-0.031	0.561
-483.405	1.432	0.192	0.139
-482.391	800.000	0.052	-0.175
-481.376	-200.000	0.030	-0.223
-480.362	162.382	-0.150	0.212
-479.347	155.016	-0.028	0.039
-478.332	290.222	0.065	0.119
-477.318	100.293	0.211	0.246
-476.303	-40.707	-0.346	-0.180
-475.289	-90.278	-0.431	0.126
-474.274	800.000	-0.067	0.219
-473.259	57.517	0.241	0.237
-472.245	217.797	-0.150	0.241
-471.230	673.826	-0.154	0.402
-470.216	-200.000	0.002	0.235
-469.201	-89.945	-0.194	0.057
-468.186	-82.088	-0.071	0.023
-467.172	800.000	-0.068	0.271
-466.157	-200.000	-0.027	0.337
-465.143	-88.946	-0.181	-0.054
-464.128	800.000	-0.025	0.103
-463.113	140.982	-0.049	-0.065
-462.099	-200.000	-0.081	0.365
-461.084	357.012	0.125	0.249
-460.070	-67.932	-0.222	-0.087
-459.055	-72.980	-0.156	-0.057
-458.040	118.450	-0.107	0.132
-457.026	-20.337	-0.257	0.159
-456.011	-53.438	0.196	-0.090
-454.997	-113.896	0.236	0.046
-453.982	-200.000	0.001	-0.152
-452.968	133.106	0.054	0.070
-451.953	111.122	0.272	0.329
-450.938	-57.670	0.245	0.108
-449.924	128.330	-0.120	-0.153
-448.909	-123.949	0.489	0.077
-447.895	-54.979	0.233	0.105
-446.880	-44.875	-0.062	0.031
-445.865	800.000	-0.045	-0.130
-444.851	81.224	-0.195	-0.211
-443.836	-200.000	-0.001	-0.074
-442.822	-134.579	-0.100	0.012
-441.807	-200.000	0.041	-0.335
-440.792	-200.000	0.008	-0.069
-439.778	-200.000	-0.019	0.148
-438.763	-74.598	-0.255	-0.092
-437.749	-100.844	0.425	-0.105
-436.734	800.000	-0.061	-0.230
-435.719	-86.262	0.080	0.025
-434.705	230.813	0.068	0.111
-433.690	418.682	-0.115	0.247
-432.676	-200.000	0.001	-0.092
-431.661	15.196	0.160	-0.125
-430.646	500.655	-0.053	0.121
-429.632	209.277	-0.113	0.177
-428.617	49.209	-0.072	-0.067
-427.603	-149.178	0.434	0.035
-426.588	-63.759	-0.132	0.054
-425.573	338.327	0.050	0.097
-424.559	-18.500	0.142	-0.089
-423.544	-200.000	-0.074	-0.427
-422.530	61.129	-0.086	-0.085
-421.515	39.087	-0.021	0.019
-420.500	173.559	-0.171	0.247
-419.486	66.069	0.052	-0.053
-418.471	328.504	0.059	-0.113
-417.457	5.598	-0.177	-0.131
-416.442	130.146	0.105	-0.135
-415.428	139.614	0.051	0.067
-414.413	800.000	0.096	0.266
-413.398	-75.657	-0.041	0.015
-412.384	-200.000	-0.010	-0.159
-411.369	97.434	-0.147	-0.169
-410.355	543.641	-0.146	0.349
-409.340	-200.000	-0.007	0.129
-408.325	82.958	-0.094	0.102
-407.311	-15.478	-0.247	-0.158
-406.296	28.220	0.200	0.169
-405.282	-200.000	0.009	0.115
-404.267	616.521	-0.142	-0.356
-403.252	7.862	-0.067	-0.051
-402.238	23.540	-0.198	0.163
-401.223	341.872	-0.062	-0.121
-400.209	793.741	-0.034	-0.093
-399.194	114.070	0.128	0.156
-398.179	-60.662	-0.273	-0.116
-397.165	-93.767	0.194	-0.054
-396.150	53.597	-0.252	0.242
-395.136	-136.802	0.352	0.041
-394.121	39.442	0.197	0.176
-393.106	-200.000	-0.012	0.231
-392.092	9.718	-0.034	-0.026
-391.077	480.745	0.108	0.245
-390.063	1.725	0.294	-0.212
-389.048	48.865	-0.231	-0.217
-388.033	-200.000	-0.081	0.532
-387.019	98.233	-0.127	0.147
-386.004	41.828	-0.048	-0.043
-384.990	377.178	0.117	0.239
-383.975	0.475	-0.140	-0.100
-382.960	-35.794	-0.243	-0.132
-381.946	800.000	-0.070	0.243
-380.931	60.370	-0.068	-0.067
-379.917	654.281	0.053	-0.135
-378.902	800.000	-0.074	0.253
-377.888	-181.697	-0.289	0.006
-376.873	21.203	-0.293	-0.238
-375.858	29.394	-0.114	0.097
-374.844	188.175	-0.083	-0.125
-373.829	395.226	-0.043	0.089
-372.815	16.056	0.100	-0.079
-371.800	-42.444	0.358	0.182
-370.785	-5.242	0.187	0.128
-369.771	800.000	0.088	-0.270
-368.756	-59.274	-0.214	0.092
-367.742	-27.341	0.365	-0.212
-366.727	20.814	-0.050	-0.041
-365.712	-200.000	0.005	0.120
-364.698	-98.144	-0.250	0.064
-363.683	800.000	-0.100	0.294
-362.669	159.459	-0.106	0.148
-361.654	174.041	-0.151	-0.219
-360.639	-110.583	0.367	-0.076
-359.625	-25.814	0.108	0.064
-358.610	-107.364	-0.116	-0.025
-357.596	-200.000	-0.007	-0.153
-356.581	351.809	-0.130	0.258
-355.566	20.354	-0.221	-0.179
-354.552	800.000	-0.074	-0.224
-353.537	-157.560	0.187	-0.011
-352.523	-77.924	0.225	0.077
-351.508	-91.042	0.215	-0.062
-350.493	158.340	0.056	-0.078
-349.479	-50.590	-0.151	-0.071
-348.464	800.000	0.144	0.510
-347.450	582.593	0.081	-0.198
-346.435	-148.536	0.190	0.016
-345.420	-97.940	0.384	-0.099
-344.406	-103.172	0.177	0.042
-343.391	-200.000	0.020	-0.134
-342.377	-81.552	-0.183	-0.060
-341.362	-200.000	0.035	0.167
-340.348	4.932	-0.058	0.042
-339.333	-169.333	0.131	-0.005
-338.318	800.000	-0.018	-0.070
-337.304	-103.775	0.172	0.040
-336.289	45.601	-0.224	-0.206
-335.275	273.614	0.125	0.220
-334.260	-167.392	-0.327	0.013
-333.245	-62.105	-0.452	0.188
-332.231	213.192	0.136	-0.215
-331.216	139.112	0.100	-0.131
-330.202	-194.299	0.432	0.003
-329.187	800.000	-0.088	0.332
-328.172	-200.000	0.087	0.542
-327.158	59.742	0.037	0.036
-326.143	-180.668	-0.091	0.002
-325.129	-140.970	-0.427	0.044
-324.114	202.182	0.294	0.453
-323.099	704.715	0.157	-0.413
-322.085	-88.519	-0.180	-0.054
-321.070	800.000	-0.043	0.158
-320.056	-200.000	-0.037	-0.214
-319.041	-108.510	0.143	-0.031
-318.026	800.000	-0.043	0.122
-317.012	-200.000	0.033	0.268
-315.997	-118.316	0.158	0.028
-314.983	48.814	0.249	-0.233
-313.968	183.412	0.116	0.171
-312.953	-51.242	-0.149	0.069
-311.939	327.767	0.026	0.049
-310.924	63.509	-0.261	0.261
-309.910	114.512	0.152	0.184
-308.895	-177.501	0.077	0.002
-307.880	20.786	-0.107	-0.086
-306.866	-33.223	-0.124	0.069
-305.851	-200.000	-0.000	0.175
-304.837	-89.622	-0.222	-0.065
-303.822	210.581	0.086	0.135
-302.807	-80.624	0.043	-0.014
-301.793	26.500	-0.075	0.062
-300.778	-90.738	-0.096	-0.027
-299.764	-33.210	0.202	-0.112
-298.749	800.000	0.065	-0.198
-297.735	124.702	0.177	-0.222
-296.720	45.333	0.035	-0.032
-295.705	-68.308	0.238	0.092
-294.691	75.138	0.145	0.152
-293.676	-200.000	0.025	0.132
-292.662	-10.492	0.211	0.139
-291.647	165.081	-0.102	0.144
-290.632	800.000	0.106	-0.320
-289.618	78.463	0.280	0.298
-288.603	524.452	-0.016	-0.038
-287.589	800.000	0.041	-0.126
-286.574	-83.845	0.342	-0.108
-285.559	181.450	0.197	0.288
-284.545	800.000	0.020	0.056
-283.530	560.745	-0.219	-0.527
-282.516	156.466	-0.055	0.076
-281.501	-200.000	0.036	-0.282
-280.486	-138.612	0.161	-0.018
-279.472	413.130	0.084	-0.179
-278.457	-106.508	-0.137	-0.030
-277.443	-23.749	-0.352	-0.210
-276.428	292.942	0.141	-0.255
-275.413	-200.000	-0.048	0.268
-274.399	800.000	0.051	0.151
-273.384	-68.345	-0.338	-0.131
-272.370	-64.472	0.072	0.029
-271.355	-200.000	-0.131	0.642
-270.340	15.742	0.301	-0.235
-269.326	-98.502	0.106	-0.027
-268.311	800.000	-0.048	0.160
-267.297	109.783	-0.072	0.086
-266.282	-11.226	0.221	0.145
-265.267	220.435	-0.086	0.137
-264.253	228.553	0.036	0.058
-263.238	536.190	0.136	0.321
-262.224	186.756	-0.048	0.072
-261.209	15.411	0.100	-0.078
-260.195	-183.670	0.467	0.008
-259.180	-22.059	0.135	0.082
-258.165	303.883	0.128	0.235
-257.151	-101.701	0.091	0.022
-256.136	-38.837	-0.240	-0.126
-255.122	-56.618	0.062	0.027
-254.107	-10.864	0.307	0.202
-253.092	-195.737	0.281	0.002
-252.078	800.000	-0.019	-0.062
-251.063	800.000	-0.034	0.101
-250.049	-185.929	0.255	-0.004
-249.034	-200.000	0.013	0.127
-248.019	6.198	0.150	-0.110
-247.005	78.875	-0.129	-0.138
-245.990	456.569	-0.196	-0.433
-244.976	-200.000	-0.033	0.374
-243.961	161.762	0.127	0.177
-242.946	800.000	0.078	-0.214
-241.932	-200.000	-0.010	-0.337
-240.917	-17.713	0.084	0.053
-239.903	-47.156	-0.175	-0.085
-238.888	-192.496	0.135	-0.001
-237.873	92.169	-0.300	0.336
-236.859	-21.195	-0.187	-0.113
-235.844	74.909	0.057	-0.059
-234.830	542.592	-0.062	0.147
-233.815	322.451	-0.177	0.336
-232.800	-200.000	0.027	0.267
-231.786	-162.847	-0.105	-0.005
-230.771	95.010	0.021	-0.024
-229.757	-200.000	0.014	-0.203
-228.742	348.502	-0.101	-0.198
-227.727	238.418	-0.112	-0.184
-226.713	304.311	-0.058	-0.107
-225.698	153.222	-0.189	0.257
-224.684	-22.049	-0.263	0.159
-223.669	-6.533	-0.018	0.012
-222.655	800.000	-0.036	0.123
-221.640	-200.000	-0.005	0.127
-220.625	-200.000	0.021	-0.352
-219.611	800.000	0.042	-0.169
-218.596	-200.000	-0.027	-0.209
-217.582	800.000	0.043	0.133
-216.567	-41.972	0.330	0.168
-215.552	-200.000	-0.040	-0.179
-214.538	236.074	-0.068	-0.111
-213.523	-60.491	0.385	-0.162
-212.509	-200.000	0.005	-0.307
-211.494	-27.084	0.133	0.077
-210.479	-85.893	-0.132	-0.041
-209.465	371.474	0.169	-0.340
-208.450	800.000	0.076	-0.274
-207.436	401.802	0.103	0.214
-206.421	-82.958	0.110	0.035
-205.406	-68.205	-0.046	0.018
-204.392	-127.150	-0.208	0.030
-203.377	782.826	0.030	-0.080
-202.363	-165.325	0.161	-0.007
-201.348	-12.063	0.091	0.059
-200.333	266.118	0.100	-0.173
-199.319	-189.644	-0.277	-0.003
-198.304	-200.000	0.002	-0.073
-197.290	88.892	-0.023	0.025
-196.275	-200.000	-0.015	-0.208
-195.260	-107.940	-0.257	0.055
-194.246	176.605	-0.216	0.312
-193.231	-200.000	-0.012	0.289
-192.217	145.921	-0.092	-0.122
-191.202	-91.788	-0.264	-0.074
-190.187	-161.202	-0.377	-0.019
-189.173	800.000	0.061	-0.172
-188.158	-200.000	0.025	-0.300
-187.144	335.810	-0.045	-0.086
-186.129	1.568	0.191	-0.136
-185.114	348.251	-0.070	0.136
-184.100	-11.157	-0.099	-0.065
-183.085	-68.526	-0.251	0.096
-182.071	564.434	0.037	-0.089
-181.056	604.952	-0.040	-0.099
-180.042	41.920	-0.191	-0.172
-179.027	4.652	0.106	0.077
-178.012	-200.000	0.024	-0.217
-176.998	96.775	0.123	0.140
-175.983	-200.000	0.011	0.146
-174.969	-94.759	-0.392	-0.106
-173.954	221.396	-0.114	-0.181
-172.939	-106.443	-0.104	-0.023
-171.925	-104.020	0.397	0.092
-170.910	-200.000	-0.056	0.371
-169.896	-200.000	-0.012	-0.139
-168.881	34.785	0.010	0.009
-167.866	302.072	0.082	-0.151
-166.852	-110.380	-0.080	-0.017
-165.837	288.381	0.126	-0.226
-164.823	33.537	-0.192	0.166
-163.808	29.903	0.027	0.023
-162.793	100.943	-0.078	0.089
-161.779	370.985	0.112	-0.225
-160.764	82.548	-0.238	-0.256
-159.750	800.000	-0.160	0.567
-158.735	-71.659	-0.242	-0.089
-157.720	-200.000	0.019	0.317
-156.706	194.347	0.074	-0.111
-155.691	800.000	0.109	-0.330
-154.677	94.115	-0.143	-0.160
-153.662	19.527	0.209	-0.167
-152.647	311.677	0.080	-0.149
-151.633	0.688	0.134	0.095
-150.618	-200.000	-0.050	0.227
-149.604	16.368	-0.144	-0.113
-148.589	-147.785	0.087	0.007
-147.574	800.000	-0.060	-0.173
-146.560	-166.745	-0.392	-0.016
-145.545	9.859	0.213	-0.160
-144.531	601.311	-0.162	-0.398
-143.516	-200.000	-0.010	-0.271
-142.502	-113.017	0.123	-0.024
-141.487	-98.073	-0.107	-0.027
-140.472	15.720	-0.146	0.114
-139.458	-132.952	0.203	0.026
-138.443	-29.431	-0.030	0.017
-137.429	-102.251	0.037	-0.009
-136.414	139.936	-0.080	0.105
-135.399	5.597	0.163	-0.119
-134.385	-98.938	-0.184	-0.046
-133.370	42.933	0.031	0.028
-132.356	-97.598	-0.102	-0.026
-131.341	-109.646	0.235	0.049
-130.326	363.573	-0.160	-0.318
-129.312	-154.695	-0.139	0.009
-128.297	0.394	0.164	0.116
-127.283	-126.398	-0.346	0.051
-126.268	30.803	0.052	-0.044
-125.253	109.576	-0.121	0.144
-124.239	5.565	-0.112	0.082
-123.224	800.000	0.096	-0.377
-122.210	77.406	-0.118	0.124
-121.195	-181.466	0.073	0.001
