DTS Sentinel unit serial number:	SN413079Multiplexer serial number:	ORYXHardware model number:	OX4-SRSoftware version number:	ORYX F/W v4.00 Oryx Data Collector v3.7.2.0data status	okinstallation	princeton_trtdifferential loss correction	single-endedforward channel	channel 4reverse channel	N/Adate	2019/09/14time	12:05:34forward acquisition time	60.00reverse acquisition time	0.00gamma	496.2192k internal	0.2292k external	0.2292temperature offset calibration	1.0155default loss term (dB/km)	0.3790temperature slope calibration	1.0000multiplexer offset coefficient	1.0000multiplexer slope coefficient	1.0000fibre end	0.00T internal ref (°C)	37.50T ext. ref 1 (°C)	4.68T ext. ref 2 (°C)	33.92length (m)	temperature (°C)	Stokes	anti-Stokes-747.200	-140.640	0.199	0.021
-746.185	131.267	0.185	0.243
-745.171	6.763	0.350	0.266
-744.156	-119.081	-0.372	0.067
-743.142	608.068	0.129	-0.331
-742.127	388.678	-0.058	0.123
-741.112	-200.000	0.041	0.373
-740.098	-139.677	-0.073	0.008
-739.083	327.260	0.082	0.161
-738.069	-47.771	0.363	0.180
-737.054	37.468	0.176	0.160
-736.039	-129.210	-0.237	-0.034
-735.025	123.737	0.188	0.241
-734.010	188.423	0.195	0.298
-732.996	800.000	-0.059	-0.215
-731.981	-200.000	0.078	-0.361
-730.966	-200.000	0.048	-0.306
-729.952	-81.654	-0.168	0.057
-728.937	800.000	-0.040	0.126
-727.923	-112.974	-0.384	0.078
-726.908	-29.965	-0.252	0.147
-725.894	-87.254	-0.070	-0.022
-724.879	-15.084	-0.045	0.029
-723.864	151.095	-0.237	-0.329
-722.850	-89.860	-0.305	-0.091
-721.835	629.917	0.123	0.318
-720.821	565.364	-0.079	-0.195
-719.806	800.000	0.151	-0.495
-718.791	800.000	0.046	0.153
-717.777	-70.318	-0.268	-0.104
-716.762	-66.768	-0.207	-0.084
-715.748	-82.099	-0.106	-0.035
-714.733	43.251	-0.385	-0.359
-713.718	-15.319	-0.194	0.127
-712.704	132.257	0.079	0.104
-711.689	-37.940	0.056	-0.030
-710.675	-200.000	-0.038	0.207
-709.660	-200.000	-0.017	-0.279
-708.645	1.413	-0.089	-0.065
-707.631	-155.586	-0.152	0.010
-706.616	281.157	-0.109	0.199
-705.602	575.907	-0.054	-0.136
-704.587	234.939	0.122	0.205
-703.572	-200.000	-0.001	0.138
-702.558	-200.000	0.008	0.068
-701.543	-67.219	-0.129	-0.052
-700.529	19.812	0.076	-0.062
-699.514	-200.000	-0.088	-0.457
-698.499	-200.000	0.001	0.051
-697.485	-111.070	-0.050	-0.011
-696.470	83.434	0.187	-0.208
-695.456	460.167	-0.188	0.427
-694.441	200.117	-0.064	0.101
-693.426	800.000	0.049	0.139
-692.412	24.233	-0.257	-0.217
-691.397	-73.869	-0.142	-0.053
-690.383	-54.391	-0.177	0.082
-689.368	-39.990	0.088	0.047
-688.354	28.442	0.180	-0.155
-687.339	-200.000	0.014	0.086
-686.324	25.947	0.178	-0.152
-685.310	-139.771	0.251	0.027
-684.295	241.402	0.062	0.106
-683.281	800.000	-0.147	-0.469
-682.266	800.000	0.105	-0.335
-681.251	-200.000	-0.001	-0.075
-680.237	20.696	0.225	-0.186
-679.222	322.253	0.080	-0.156
-678.208	800.000	0.050	-0.143
-677.193	-200.000	0.015	-0.257
-676.178	148.866	-0.106	0.146
-675.164	-103.347	0.127	-0.030
-674.149	800.000	-0.079	-0.318
-673.135	-200.000	-0.006	-0.147
-672.120	-152.760	-0.234	-0.017
-671.105	-21.967	-0.086	0.053
-670.091	44.472	0.154	0.144
-669.076	-42.680	0.108	0.056
-668.062	404.942	0.150	0.323
-667.047	62.216	-0.097	-0.099
-666.032	-156.439	0.262	-0.017
-665.018	-66.888	-0.145	-0.059
-664.003	-200.000	-0.034	-0.163
-662.989	785.871	-0.066	-0.185
-661.974	42.999	-0.139	0.129
-660.959	-34.705	-0.147	0.082
-659.945	-200.000	0.031	-0.330
-658.930	-68.773	-0.193	-0.076
-657.916	152.157	0.117	-0.163
-656.901	47.009	0.190	0.180
-655.886	32.284	-0.266	-0.234
-654.872	-200.000	-0.062	-0.280
-653.857	434.417	-0.114	0.252
-652.843	200.307	-0.090	-0.141
-651.828	60.736	0.061	-0.062
-650.814	221.825	-0.269	0.440
-649.799	800.000	-0.071	0.244
-648.784	758.167	-0.070	-0.194
-647.770	291.782	0.062	-0.114
-646.755	32.316	-0.408	-0.359
-645.741	-53.699	-0.214	-0.100
-644.726	-50.005	-0.183	0.089
-643.711	29.711	0.282	0.245
-642.697	-200.000	0.008	-0.076
-641.682	-3.280	-0.093	-0.066
-640.668	-93.071	0.064	0.018
-639.653	800.000	0.084	0.323
-638.638	-168.569	-0.456	-0.018
-637.624	-69.785	0.101	0.039
-636.609	35.819	0.084	-0.076
-635.595	119.938	-0.179	0.226
-634.580	169.713	-0.137	0.200
-633.565	-77.728	0.163	0.057
-632.551	22.126	-0.199	-0.166
-631.536	-53.914	-0.223	-0.103
-630.522	242.378	-0.173	-0.295
-629.507	145.562	0.211	-0.288
-628.492	-67.842	0.416	-0.166
-627.478	66.467	-0.113	-0.117
-626.463	84.468	-0.116	-0.130
-625.449	800.000	0.064	-0.185
-624.434	-21.384	-0.507	-0.315
-623.419	-18.446	-0.080	-0.051
-622.405	800.000	-0.058	0.258
-621.390	463.145	-0.103	-0.234
-620.376	57.411	-0.115	-0.114
-619.361	354.198	0.139	0.282
-618.346	99.495	-0.039	-0.046
-617.332	-171.810	-0.388	0.013
-616.317	-78.843	-0.355	-0.123
-615.303	-143.789	-0.243	-0.023
-614.288	800.000	0.120	-0.373
-613.273	245.461	-0.033	-0.057
-612.259	-180.695	0.211	0.004
-611.244	-63.566	0.094	-0.039
-610.230	172.515	0.208	0.304
-609.215	-200.000	0.049	0.226
-608.201	347.427	0.084	0.168
-607.186	-43.357	0.097	-0.050
-606.171	-36.854	-0.185	-0.101
-605.157	-61.271	-0.241	0.104
-604.142	-200.000	-0.000	0.306
-603.128	-70.443	0.274	-0.106
-602.113	439.535	0.135	-0.300
-601.098	-83.979	-0.111	0.036
-600.084	-45.934	-0.168	0.085
-599.069	-165.958	-0.321	0.014
-598.055	57.224	-0.066	-0.066
-597.040	-1.477	-0.170	-0.122
-596.025	20.044	-0.122	0.100
-595.011	5.281	0.128	0.096
-593.996	-200.000	-0.012	0.319
-592.982	451.557	0.089	-0.199
-591.967	-25.129	-0.579	-0.349
-590.952	800.000	0.011	-0.041
-589.938	-158.256	0.163	-0.010
-588.923	-35.975	0.299	-0.165
-587.909	51.472	0.318	-0.307
-586.894	-73.379	0.053	-0.020
-585.879	-200.000	-0.056	0.289
-584.865	175.489	-0.034	0.050
-583.850	-28.753	-0.039	-0.023
-582.836	166.711	-0.024	-0.035
-581.821	7.501	-0.302	0.230
-580.806	-200.000	0.035	-0.267
-579.792	12.740	-0.191	-0.150
-578.777	49.251	0.214	-0.204
-577.763	0.266	0.319	-0.232
-576.748	-112.718	-0.279	-0.056
-575.733	212.866	0.191	-0.306
-574.719	349.347	-0.086	-0.173
-573.704	-200.000	0.003	-0.286
-572.690	3.309	-0.236	-0.174
-571.675	-79.365	-0.131	-0.045
-570.661	-93.341	-0.053	0.015
-569.646	499.360	0.089	-0.208
-568.631	-102.300	0.242	-0.059
-567.617	-195.761	-0.175	0.001
-566.602	-200.000	-0.026	-0.197
-565.588	-68.554	0.207	-0.082
-564.573	-81.479	0.130	-0.043
-563.558	230.270	-0.155	0.257
-562.544	9.371	0.062	0.048
-561.529	6.058	-0.409	-0.308
-560.515	312.403	-0.049	-0.094
-559.500	223.528	-0.088	-0.144
-558.485	138.459	0.067	-0.089
-557.471	-24.627	-0.057	0.034
-556.456	-39.183	0.156	0.084
-555.442	-96.311	0.191	0.051
-554.427	-114.762	-0.145	0.028
-553.412	76.444	-0.039	0.042
-552.398	317.340	-0.084	-0.161
-551.383	-200.000	-0.047	-0.437
-550.369	-153.917	0.256	-0.018
-549.354	-200.000	0.013	0.086
-548.339	-135.013	0.194	0.024
-547.325	-52.666	0.262	-0.123
-546.310	-200.000	0.027	0.255
-545.296	-68.310	-0.207	-0.082
-544.281	-120.797	-0.022	0.004
-543.266	-120.109	-0.140	-0.024
-542.252	-32.655	-0.371	-0.209
-541.237	-134.642	-0.235	-0.029
-540.223	379.115	0.104	-0.216
-539.208	-14.041	-0.105	-0.069
-538.193	-200.000	-0.017	-0.289
-537.179	-200.000	0.013	-0.132
-536.164	383.798	0.086	-0.180
-535.150	-172.532	-0.132	0.004
-534.135	-200.000	-0.011	0.119
-533.121	89.091	-0.045	-0.051
-532.106	106.974	-0.055	0.067
-531.091	-32.827	0.029	-0.017
-530.077	-58.060	-0.190	0.084
-529.062	-74.606	-0.064	-0.023
-528.048	800.000	-0.062	-0.192
-527.033	162.642	0.170	-0.242
-526.018	24.053	0.187	0.156
-525.004	-138.690	0.196	0.022
-523.989	94.727	0.149	0.172
-522.975	800.000	-0.026	-0.099
-521.960	-57.996	-0.418	0.185
-520.945	374.456	-0.041	-0.085
-519.931	25.146	-0.293	0.247
-518.916	496.194	0.041	0.096
-517.902	800.000	-0.067	-0.216
-516.887	-200.000	-0.027	0.198
-515.872	202.411	0.113	-0.177
-514.858	-145.292	0.062	-0.006
-513.843	-43.913	-0.305	-0.156
-512.829	399.667	-0.105	-0.224
-511.814	800.000	-0.036	-0.121
-510.799	96.736	0.080	0.093
-509.785	-165.031	-0.040	0.002
-508.770	399.701	0.080	-0.170
-507.756	-200.000	-0.004	0.208
-506.741	170.398	-0.194	0.282
-505.726	253.493	-0.175	-0.303
-504.712	576.185	0.017	-0.043
-503.697	-116.473	-0.104	0.019
-502.683	143.958	-0.171	-0.231
-501.668	-88.178	-0.063	0.019
-500.653	-43.291	-0.125	0.064
-499.639	71.448	0.160	-0.168
-498.624	-26.974	-0.241	0.142
-497.610	-17.919	0.294	0.187
-496.595	-157.632	0.254	0.015
-495.581	52.476	-0.196	-0.190
-494.566	-150.012	0.044	0.004
-493.551	-200.000	-0.002	0.278
-492.537	-126.689	0.280	0.042
-491.522	157.503	-0.036	-0.050
-490.508	252.515	0.078	-0.135
-489.493	-200.000	0.018	0.177
-488.478	209.086	0.203	-0.323
-487.464	-200.000	0.026	0.176
-486.449	800.000	-0.036	0.113
-485.435	-56.046	-0.291	-0.131
-484.420	-57.096	-0.028	0.013
-483.405	8.058	-0.240	-0.182
-482.391	-47.422	-0.184	0.091
-481.376	503.712	-0.109	0.256
-480.362	-105.943	-0.187	-0.043
-479.347	-200.000	-0.005	0.200
-478.332	197.850	0.169	-0.262
-477.318	75.743	-0.038	-0.041
-476.303	-7.380	0.250	0.171
-475.289	45.702	-0.104	-0.097
-474.274	-112.852	0.223	0.045
-473.259	476.781	-0.076	-0.175
-472.245	-19.733	-0.271	0.170
-471.230	106.826	0.215	0.259
-470.216	206.962	-0.139	0.219
-469.201	111.671	-0.157	0.192
-468.186	89.783	-0.203	0.229
-467.172	-105.224	0.297	0.069
-466.157	-44.930	0.179	-0.090
-465.143	129.765	0.067	-0.087
-464.128	49.482	0.244	0.232
-463.113	-200.000	-0.016	-0.095
-462.099	-200.000	-0.041	-0.214
-461.084	95.073	-0.151	0.174
-460.070	55.191	0.199	-0.195
-459.055	-200.000	0.013	-0.058
-458.040	-0.161	0.093	-0.067
-457.026	366.796	-0.049	0.100
-456.011	645.226	-0.065	0.167
-454.997	107.489	0.084	0.101
-453.982	457.340	-0.119	0.267
-452.968	371.821	-0.042	-0.086
-451.953	116.083	0.306	-0.380
-450.938	480.019	0.107	0.246
-449.924	-98.641	-0.078	0.020
-448.909	12.033	0.292	0.227
-447.895	55.853	0.078	-0.077
-446.880	203.477	0.113	-0.176
-445.865	494.186	-0.141	0.328
-444.851	-14.762	-0.360	0.234
-443.836	238.934	0.139	-0.233
-442.822	4.849	-0.209	0.155
-441.807	-149.568	0.236	-0.019
-440.792	-54.680	-0.106	0.048
-439.778	-38.951	-0.203	-0.108
-438.763	131.580	0.121	0.157
-437.749	4.517	0.168	-0.125
-436.734	-27.748	0.365	0.214
-435.719	394.670	0.072	0.151
-434.705	-124.433	0.319	-0.050
-433.690	-200.000	0.044	0.295
-432.676	178.255	-0.151	0.222
-431.661	-63.388	-0.243	0.101
-430.646	800.000	-0.154	-0.483
-429.632	-85.121	0.272	-0.086
-428.617	401.039	-0.169	-0.357
-427.603	-159.233	-0.143	0.008
-426.588	-13.774	0.281	-0.184
-425.573	-120.189	0.022	0.004
-424.559	-49.736	-0.259	-0.124
-423.544	93.163	-0.317	-0.362
-422.530	109.425	0.281	0.340
-421.515	-51.630	-0.294	-0.139
-420.500	22.491	-0.096	-0.079
-419.486	-79.162	-0.156	0.053
-418.471	-200.000	-0.017	-0.115
-417.457	399.448	0.047	0.099
-416.442	-187.636	0.096	-0.001
-415.428	-161.944	-0.132	0.007
-414.413	-72.264	-0.050	-0.019
-413.398	215.171	-0.043	-0.069
-412.384	-22.360	0.334	-0.204
-411.369	-113.590	0.037	0.007
-410.355	668.274	-0.098	0.256
-409.340	96.209	-0.088	0.102
-408.325	72.501	-0.122	0.128
-407.311	39.246	0.163	0.147
-406.296	180.445	0.238	0.353
-405.282	800.000	0.111	0.326
-404.267	-57.150	0.206	0.092
-403.252	33.735	0.124	0.109
-402.238	-200.000	-0.050	-0.290
-401.223	-132.083	0.131	-0.017
-400.209	297.768	-0.086	0.160
-399.194	197.685	0.053	0.081
-398.179	-39.092	0.019	-0.010
-397.165	281.683	-0.183	-0.332
-396.150	189.472	-0.112	-0.170
-395.136	-37.074	-0.209	0.113
-394.121	99.861	0.072	0.084
-393.106	305.215	0.120	0.226
-392.092	87.655	-0.165	-0.184
-391.077	242.148	0.118	0.199
-390.063	800.000	-0.053	0.162
-389.048	800.000	-0.035	0.121
-388.033	800.000	0.052	0.160
-387.019	-91.435	-0.201	0.058
-386.004	-78.551	-0.088	-0.030
-384.990	-118.717	-0.144	0.026
-383.975	-1.514	0.142	-0.101
-382.960	-135.372	0.260	-0.031
-381.946	-84.188	-0.282	-0.090
-380.931	272.396	-0.072	0.128
-379.917	-186.935	-0.283	-0.004
-378.902	-7.663	0.259	0.177
-377.888	800.000	-0.052	0.174
-376.873	-200.000	-0.029	0.228
-375.858	58.927	-0.135	0.134
-374.844	-8.363	0.055	0.037
-373.829	-119.630	0.111	-0.019
-372.815	-59.081	-0.221	0.096
-371.800	-44.377	-0.288	-0.145
-370.785	-133.027	-0.423	0.054
-369.771	-200.000	-0.009	0.072
-368.756	800.000	-0.022	-0.072
-367.742	-125.952	0.268	0.041
-366.727	-98.664	0.249	-0.064
-365.712	-5.583	0.212	-0.146
-364.698	-119.726	0.231	-0.040
-363.683	-162.584	-0.350	0.017
-362.669	-200.000	0.036	0.293
-361.654	28.263	-0.234	0.199
-360.639	-200.000	-0.046	0.329
-359.625	-36.908	0.236	0.128
-358.610	-200.000	-0.015	0.328
-357.596	-200.000	-0.019	0.221
-356.581	678.045	-0.026	-0.067
-355.566	81.761	0.116	-0.127
-354.552	308.155	0.196	-0.368
-353.537	238.954	-0.066	0.111
-352.523	-8.313	0.048	0.032
-351.508	-6.744	0.247	0.169
-350.493	-68.581	-0.316	-0.124
-349.479	-128.880	0.182	-0.026
-348.464	-3.508	-0.157	-0.110
-347.450	800.000	0.075	0.291
-346.435	623.324	0.059	-0.151
-345.420	432.166	0.123	-0.269
-344.406	174.236	0.046	0.066
-343.391	-128.412	-0.255	-0.037
-342.377	190.540	-0.057	0.086
-341.362	332.213	0.078	0.152
-340.348	282.872	0.124	-0.224
-339.333	673.007	0.058	-0.152
-338.318	183.351	-0.051	-0.075
-337.304	-94.987	0.166	0.045
-336.289	613.453	0.052	0.131
-335.275	-200.000	0.014	-0.083
-334.260	-126.658	-0.370	0.055
-333.245	276.616	-0.087	0.155
-332.231	800.000	-0.056	0.238
-331.216	-49.998	-0.215	-0.103
-330.202	-61.252	0.102	0.043
-329.187	-108.080	0.039	-0.009
-328.172	33.634	0.204	-0.179
-327.158	-124.328	0.393	0.062
-326.143	257.368	0.143	0.247
-325.129	121.239	-0.085	-0.107
-324.114	-41.898	-0.428	-0.221
-323.099	126.448	0.037	0.047
-322.085	-104.143	0.321	-0.075
-321.070	-37.094	0.124	-0.067
-320.056	-46.478	-0.201	0.099
-319.041	207.035	0.127	-0.200
-318.026	-200.000	0.021	-0.110
-317.012	-109.376	0.291	-0.062
-315.997	-85.541	-0.036	0.011
-314.983	-200.000	0.019	-0.220
-313.968	800.000	-0.052	-0.170
-312.953	-102.341	0.232	0.056
-311.939	100.904	0.124	0.145
-310.924	362.156	-0.054	0.109
-309.910	4.062	0.172	-0.126
-308.895	751.871	0.018	-0.048
-307.880	524.583	-0.043	0.102
-306.866	-200.000	0.027	0.326
-305.851	601.969	0.064	0.159
-304.837	-68.614	0.230	0.090
-303.822	34.214	-0.079	-0.069
-302.807	409.267	-0.078	-0.166
-301.793	40.062	-0.177	0.160
-300.778	138.169	0.037	-0.049
-299.764	800.000	0.055	0.221
-298.749	4.469	-0.054	0.040
-297.735	98.517	-0.037	-0.043
-296.720	13.730	-0.112	0.088
-295.705	-114.267	0.370	-0.072
-294.691	-31.621	-0.122	-0.069
-293.676	-179.707	0.418	-0.009
-292.662	650.588	-0.093	0.240
-291.647	-131.874	-0.375	-0.049
-290.632	-200.000	-0.025	-0.179
-289.618	442.781	-0.052	-0.115
-288.603	-16.222	-0.269	-0.172
-287.589	180.504	-0.070	0.104
-286.574	17.303	0.217	-0.173
-285.559	800.000	0.062	-0.201
-284.545	-200.000	0.053	-0.403
-283.530	320.003	-0.191	-0.364
-282.516	800.000	0.087	-0.246
-281.501	-142.843	0.116	-0.011
-280.486	-123.242	-0.279	-0.045
-279.472	132.718	0.231	0.300
-278.457	800.000	0.067	-0.208
-277.443	64.195	0.182	-0.184
-276.428	-6.715	0.193	-0.132
-275.413	415.612	-0.122	-0.262
-274.399	800.000	-0.037	0.158
-273.384	-73.520	0.264	0.097
-272.370	-35.000	0.248	0.136
-271.355	800.000	0.032	0.097
-270.340	738.268	-0.109	-0.293
-269.326	567.573	-0.015	0.037
-268.311	183.517	-0.252	0.374
-267.297	70.102	0.182	0.188
-266.282	-101.754	0.058	-0.014
-265.267	-93.683	-0.138	0.038
-264.253	-11.032	0.184	0.122
-263.238	27.170	-0.111	0.093
-262.224	-69.218	0.186	-0.072
-261.209	116.537	-0.115	-0.142
-260.195	-200.000	0.044	0.203
-259.180	23.495	0.071	0.059
-258.165	1.871	0.186	-0.135
-257.151	-63.815	0.191	0.079
-256.136	51.873	-0.141	-0.135
-255.122	247.157	-0.039	-0.066
-254.107	42.006	0.263	-0.239
-253.092	-200.000	-0.015	0.323
-252.078	140.533	-0.170	0.225
-251.063	-118.337	-0.202	-0.036
-250.049	800.000	0.053	-0.155
-249.034	-160.143	0.183	-0.010
-248.019	-19.256	0.078	-0.049
-247.005	-200.000	-0.028	0.257
-245.990	172.447	-0.134	-0.193
-244.976	15.409	-0.089	0.070
-243.961	-200.000	-0.008	0.556
-242.946	38.853	0.140	-0.126
-241.932	-200.000	0.044	-0.277
-240.917	-200.000	-0.059	0.419
-239.903	-68.381	-0.481	0.187
-238.888	46.609	-0.062	0.058
-237.873	74.689	0.060	-0.063
-236.859	3.521	0.022	-0.016
-235.844	-87.554	0.010	0.003
-234.830	-33.777	-0.162	0.089
-233.815	-200.000	-0.012	-0.115
-232.800	-88.217	0.239	0.072
-231.786	-13.797	0.320	0.208
-230.771	648.111	0.072	0.186
-229.757	228.618	0.115	0.188
-228.742	-68.113	0.242	0.094
-227.727	-200.000	0.002	0.022
-226.713	-56.333	0.080	-0.036
-225.698	-77.502	-0.369	0.128
-224.684	20.646	0.152	0.124
-223.669	-142.862	0.333	-0.032
-222.655	-200.000	-0.023	-0.137
-221.640	118.214	0.065	0.081
-220.625	376.655	0.113	0.231
-219.611	-76.792	0.128	0.045
-218.596	80.735	-0.025	-0.027
-217.582	800.000	0.059	-0.214
-216.567	355.216	-0.145	-0.289
-215.552	49.250	0.154	0.145
-214.538	224.277	0.055	-0.089
-213.523	800.000	0.034	-0.101
-212.509	-11.030	0.148	-0.098
-211.494	-200.000	0.035	0.215
-210.479	-20.204	0.365	0.225
-209.465	-40.661	-0.234	-0.121
-208.450	215.681	-0.146	-0.233
-207.436	-200.000	-0.022	-0.113
-206.421	-151.340	0.235	-0.018
-205.406	21.047	0.107	-0.087
-204.392	334.402	-0.014	0.026
-203.377	-200.000	-0.069	0.355
-202.363	252.301	-0.078	0.133
-201.348	295.564	0.066	0.120
-200.333	-200.000	-0.001	-0.018
-199.319	674.033	0.046	0.121
-198.304	39.383	-0.024	0.022
-197.290	-118.701	0.359	0.063
-196.275	417.925	-0.018	-0.039
-195.260	491.810	0.200	-0.459
-194.246	-25.124	-0.135	0.080
-193.231	309.090	-0.123	-0.230
-192.217	-122.380	0.279	-0.046
-191.202	151.321	-0.119	-0.162
-190.187	-200.000	0.046	0.284
-189.173	260.947	-0.301	0.522
-188.158	800.000	0.058	0.162
-187.144	-200.000	-0.014	0.246
-186.129	-93.501	-0.168	-0.047
-185.114	-38.264	0.149	-0.079
-184.100	105.800	0.165	0.195
-183.085	-200.000	-0.033	-0.279
-182.071	135.391	0.212	-0.277
-181.056	59.791	0.149	0.148
-180.042	-118.293	-0.329	0.059
-179.027	-200.000	0.012	0.054
-178.012	-143.209	-0.136	0.013
-176.998	800.000	0.026	0.112
-175.983	-200.000	-0.044	0.284
-174.969	72.446	-0.166	0.173
-173.954	-200.000	0.012	-0.174
-172.939	-200.000	-0.057	-0.000
-171.925	-4.867	0.157	0.108
-170.910	233.886	-0.059	-0.098
-169.896	-114.739	0.065	0.012
-168.881	251.356	0.137	0.233
-167.866	90.250	0.190	0.212
-166.852	-68.532	0.119	0.046
-165.837	-90.130	0.211	-0.061
-164.823	451.016	0.035	0.076
-163.808	-134.353	0.530	0.065
-162.793	32.422	-0.228	-0.197
-161.779	619.887	-0.109	0.275
-160.764	-178.289	-0.112	-0.003
-159.750	-200.000	-0.054	-0.259
-158.735	212.332	-0.064	-0.100
-157.720	327.100	-0.026	-0.051
-156.706	-15.698	-0.253	0.162
-155.691	179.934	0.126	-0.185
-154.677	-200.000	-0.041	0.221
-153.662	-91.816	0.345	-0.098
-152.647	261.116	0.170	-0.294
-151.633	-200.000	0.008	0.145
-150.618	-135.326	-0.105	-0.013
-149.604	331.259	-0.174	-0.334
-148.589	0.536	-0.254	-0.181
-147.574	-200.000	-0.031	0.251
-146.560	-80.638	0.026	0.009
-145.545	221.038	0.066	0.107
-144.531	-69.578	-0.171	-0.066
-143.516	800.000	-0.028	0.117
-142.502	224.415	0.037	-0.060
-141.487	-48.216	-0.089	0.043
-140.472	229.238	-0.065	-0.105
-139.458	-200.000	-0.057	-0.300
-138.443	738.136	0.031	0.083
-137.429	-115.551	-0.232	-0.044
-136.414	-200.000	-0.028	0.279
-135.399	-200.000	-0.032	0.154
-134.385	-78.888	0.469	-0.160
-133.370	7.253	0.062	0.046
-132.356	800.000	0.098	-0.275
-131.341	-200.000	0.029	-0.140
-130.326	-61.750	0.148	0.062
-129.312	346.571	0.170	-0.334
-128.297	114.442	-0.124	0.151
-127.283	-155.484	-0.143	-0.009
-126.268	4.512	-0.290	0.212
-125.253	-200.000	0.012	-0.177
-124.239	-162.721	-0.138	-0.007
-123.224	-154.681	-0.240	0.016
-122.210	0.395	0.262	0.187
-121.195	29.666	0.068	-0.058
