DTS Sentinel unit serial number:	SN413079Multiplexer serial number:	ORYXHardware model number:	OX4-SRSoftware version number:	ORYX F/W v4.00 Oryx Data Collector v3.7.2.0data status	okinstallation	princeton_trtdifferential loss correction	single-endedforward channel	channel 4reverse channel	N/Adate	2019/09/15time	15:37:35forward acquisition time	60.00reverse acquisition time	0.00gamma	496.2192k internal	0.2283k external	0.2283temperature offset calibration	0.9954default loss term (dB/km)	0.3790temperature slope calibration	1.0000multiplexer offset coefficient	1.0000multiplexer slope coefficient	1.0000fibre end	0.00T internal ref (°C)	41.52T ext. ref 1 (°C)	5.15T ext. ref 2 (°C)	39.44length (m)	temperature (°C)	Stokes	anti-Stokes-747.200	11.679	-0.127	-0.100
-746.185	-200.000	0.024	0.144
-745.171	162.784	0.166	-0.239
-744.156	-200.000	-0.008	0.218
-743.142	-88.861	-0.401	0.122
-742.127	-200.000	0.086	0.413
-741.112	74.632	0.045	-0.049
-740.098	80.836	-0.242	0.269
-739.083	-200.000	-0.032	0.241
-738.069	-41.905	-0.095	0.050
-737.054	-64.235	0.089	0.037
-736.039	-200.000	0.002	0.465
-735.025	-200.000	-0.009	-0.139
-734.010	494.806	-0.196	-0.462
-732.996	800.000	0.063	-0.193
-731.981	-74.630	0.397	-0.147
-730.966	-200.000	-0.004	-0.025
-729.952	784.722	-0.081	0.229
-728.937	800.000	-0.160	0.456
-727.923	367.900	-0.052	-0.109
-726.908	193.254	0.289	-0.449
-725.894	213.827	-0.104	0.169
-724.879	703.026	0.026	-0.072
-723.864	63.111	-0.155	0.160
-722.850	-80.995	-0.276	-0.094
-721.835	-18.346	0.396	-0.254
-720.821	-141.480	-0.361	0.037
-719.806	-108.183	0.266	0.059
-718.791	-200.000	-0.020	-0.150
-717.777	-200.000	0.007	-0.056
-716.762	-81.691	-0.293	0.099
-715.748	-129.066	-0.135	0.019
-714.733	610.864	0.044	0.113
-713.718	-72.350	-0.309	0.117
-712.704	-42.199	0.049	0.025
-711.689	98.663	-0.187	0.221
-710.675	-123.607	-0.075	-0.012
-709.660	-71.438	-0.222	0.085
-708.645	122.199	-0.239	-0.307
-707.631	-200.000	-0.029	-0.446
-706.616	127.591	-0.060	-0.079
-705.602	-54.109	-0.155	0.072
-704.587	-51.569	0.215	-0.103
-703.572	-141.614	-0.165	0.017
-702.558	290.289	0.047	0.087
-701.543	-26.310	0.405	0.244
-700.529	-200.000	-0.018	-0.148
-699.514	4.824	0.123	0.093
-698.499	-200.000	0.029	-0.230
-697.485	-125.735	0.144	-0.022
-696.470	105.525	0.151	-0.183
-695.456	114.354	-0.079	-0.099
-694.441	231.205	-0.098	0.165
-693.426	-167.086	-0.199	0.008
-692.412	23.201	0.245	-0.206
-691.397	314.394	-0.072	-0.139
-690.383	-112.993	-0.143	-0.029
-689.368	192.735	-0.061	0.094
-688.354	458.243	-0.143	0.327
-687.339	620.645	-0.130	-0.335
-686.324	-83.917	0.029	0.009
-685.310	-55.075	-0.125	-0.058
-684.295	-6.606	-0.051	0.036
-683.281	-51.098	0.283	-0.136
-682.266	-200.000	0.019	-0.239
-681.251	-98.715	0.044	-0.012
-680.237	-103.193	0.086	-0.021
-679.222	499.500	-0.233	-0.550
-678.208	-132.048	0.104	-0.014
-677.193	-200.000	0.009	-0.204
-676.178	266.181	0.039	0.070
-675.164	776.622	-0.103	-0.288
-674.149	-200.000	0.003	-0.080
-673.135	563.194	0.184	-0.456
-672.120	-200.000	-0.040	0.263
-671.105	196.829	0.024	-0.037
-670.091	337.178	0.067	-0.133
-669.076	207.526	-0.185	0.295
-668.062	18.012	-0.169	0.138
-667.047	-147.048	-0.154	0.014
-666.032	800.000	0.066	-0.278
-665.018	-67.309	0.154	-0.062
-664.003	-200.000	0.003	-0.121
-662.989	16.194	-0.228	0.184
-661.974	258.535	-0.155	0.274
-660.959	-200.000	-0.042	0.215
-659.945	-200.000	0.006	0.092
-658.930	64.430	0.080	0.082
-657.916	-83.893	0.055	0.018
-656.901	800.000	-0.142	0.430
-655.886	-200.000	-0.057	0.258
-654.872	-200.000	-0.026	0.284
-653.857	478.943	0.172	0.399
-652.843	711.702	0.126	-0.341
-651.828	-200.000	-0.006	-0.135
-650.814	-136.184	-0.055	-0.007
-649.799	-173.910	0.398	-0.012
-648.784	243.856	-0.132	0.226
-647.770	-149.657	-0.222	0.018
-646.755	-100.242	0.340	-0.087
-645.741	170.837	-0.149	-0.219
-644.726	-113.230	-0.199	-0.040
-643.711	-116.180	0.115	0.022
-642.697	202.717	-0.232	-0.367
-641.682	8.245	-0.145	-0.111
-640.668	-200.000	-0.075	-0.388
-639.653	141.187	0.137	-0.186
-638.638	-200.000	0.007	0.259
-637.624	800.000	-0.090	0.381
-636.609	-185.885	-0.193	-0.003
-635.595	-45.748	0.015	0.007
-634.580	-12.825	-0.262	0.175
-633.565	-20.269	0.144	0.091
-632.551	-85.623	0.166	-0.053
-631.536	-130.531	-0.234	-0.032
-630.522	800.000	0.095	0.295
-629.507	36.137	0.190	0.171
-628.492	295.427	-0.089	-0.167
-627.478	119.555	-0.257	0.326
-626.463	-81.102	-0.211	0.071
-625.449	-25.019	-0.121	-0.073
-624.434	169.770	0.063	-0.091
-623.419	30.098	0.156	-0.136
-622.405	83.844	0.121	-0.135
-621.390	-168.371	0.403	0.016
-620.376	800.000	-0.072	0.292
-619.361	286.314	0.087	-0.161
-618.346	-200.000	0.027	0.282
-617.332	800.000	0.071	-0.232
-616.317	-119.252	0.109	0.019
-615.303	84.667	-0.184	0.206
-614.288	40.966	0.167	0.154
-613.273	310.726	0.022	-0.043
-612.259	-200.000	-0.062	-0.446
-611.244	-19.351	0.080	0.051
-610.230	259.556	0.040	-0.070
-609.215	-76.202	-0.105	0.038
-608.201	800.000	-0.048	-0.136
-607.186	160.846	-0.017	-0.024
-606.171	-43.137	0.024	-0.012
-605.157	187.982	0.266	-0.407
-604.142	-170.065	-0.436	-0.016
-603.128	-160.501	-0.296	-0.016
-602.113	-91.462	0.364	0.106
-601.098	-66.752	-0.051	-0.021
-600.084	207.645	-0.156	-0.249
-599.069	-144.466	-0.272	0.026
-598.055	-96.287	0.175	0.047
-597.040	84.596	0.117	-0.131
-596.025	397.825	-0.120	-0.256
-595.011	-200.000	0.058	-0.267
-593.996	601.408	0.070	-0.177
-592.982	-200.000	-0.010	-0.167
-591.967	-127.537	-0.302	-0.045
-590.952	-118.489	0.242	0.044
-589.938	94.267	0.023	-0.027
-588.923	-85.238	0.112	0.036
-587.909	-79.385	0.091	0.031
-586.894	-78.574	-0.071	-0.025
-585.879	69.269	0.067	-0.070
-584.865	-84.894	0.246	-0.079
-583.850	26.322	0.079	-0.067
-582.836	800.000	0.060	-0.257
-581.821	-200.000	-0.021	-0.189
-580.806	121.111	-0.241	-0.306
-579.792	-159.844	-0.241	0.014
-578.777	800.000	0.055	0.194
-577.763	212.023	-0.085	0.136
-576.748	-200.000	0.019	-0.159
-575.733	-45.429	-0.259	-0.131
-574.719	-76.003	-0.227	-0.082
-573.704	-200.000	0.066	-0.336
-572.690	300.630	0.129	-0.242
-571.675	-99.515	0.123	-0.032
-570.661	141.631	0.196	0.265
-569.646	-158.741	-0.175	-0.010
-568.631	86.078	-0.014	-0.016
-567.617	-52.893	0.124	-0.058
-566.602	-86.601	0.287	0.090
-565.588	800.000	-0.023	0.082
-564.573	800.000	0.079	-0.334
-563.558	-200.000	-0.003	0.385
-562.544	343.121	0.135	0.270
-561.529	11.076	0.097	0.076
-560.515	117.468	0.044	-0.055
-559.500	800.000	-0.069	-0.286
-558.485	180.026	-0.099	0.147
-557.471	-200.000	0.031	0.223
-556.456	-132.302	0.129	0.017
-555.442	28.594	-0.280	-0.242
-554.427	414.298	-0.061	0.133
-553.412	-103.091	0.038	-0.009
-552.398	29.734	-0.264	-0.229
-551.383	133.388	0.031	0.041
-550.369	-0.304	0.303	-0.220
-549.354	-96.788	-0.140	-0.037
-548.339	-50.918	0.075	-0.036
-547.325	-200.000	-0.028	-0.237
-546.310	90.743	-0.112	-0.128
-545.296	-39.501	-0.168	-0.090
-544.281	-200.000	0.044	-0.229
-543.266	155.433	0.086	-0.120
-542.252	-179.221	-0.080	-0.002
-541.237	-73.174	-0.277	-0.103
-540.223	-32.271	0.297	-0.169
-539.208	55.847	-0.038	0.037
-538.193	26.777	0.223	0.191
-537.179	49.044	-0.035	0.033
-536.164	-120.089	0.276	0.048
-535.150	214.982	0.156	-0.252
-534.135	15.362	-0.326	0.260
-533.121	-200.000	0.012	-0.321
-532.106	-135.492	0.062	0.008
-531.091	11.439	0.134	0.105
-530.077	206.536	0.104	0.165
-529.062	335.715	-0.053	-0.105
-528.048	-58.916	-0.168	0.074
-527.033	800.000	-0.032	0.129
-526.018	694.089	-0.036	-0.095
-525.004	-21.406	0.067	-0.041
-523.989	-200.000	0.024	-0.231
-522.975	91.920	0.082	0.094
-521.960	122.261	0.058	0.074
-520.945	-119.067	0.281	-0.050
-519.931	91.079	0.189	-0.216
-518.916	-94.879	-0.125	-0.034
-517.902	-200.000	-0.022	0.153
-516.887	-83.285	-0.162	-0.053
-515.872	-108.421	-0.171	0.038
-514.858	49.917	0.214	0.205
-513.843	94.619	-0.074	0.085
-512.829	-29.397	-0.093	0.054
-511.814	117.671	-0.040	0.050
-510.799	800.000	-0.039	-0.133
-509.785	800.000	-0.030	0.093
-508.770	-200.000	-0.046	0.214
-507.756	91.243	-0.022	-0.026
-506.741	-29.242	-0.113	-0.066
-505.726	-200.000	0.003	0.178
-504.712	-18.724	0.263	0.167
-503.697	-77.596	0.117	-0.041
-502.683	-200.000	-0.002	0.170
-501.668	-200.000	-0.013	0.413
-500.653	800.000	-0.020	0.065
-499.639	-177.515	-0.216	-0.005
-498.624	307.615	0.133	0.253
-497.610	115.927	0.166	-0.207
-496.595	-200.000	0.011	-0.214
-495.581	115.873	-0.162	-0.201
-494.566	13.167	0.107	0.084
-493.551	19.781	0.170	-0.139
-492.537	-142.161	-0.145	-0.015
-491.522	-119.427	-0.342	-0.061
-490.508	-60.528	-0.227	-0.098
-489.493	146.194	-0.216	-0.295
-488.478	-38.722	0.206	0.110
-487.464	-55.447	-0.181	0.083
-486.449	-200.000	-0.033	-0.294
-485.435	-38.526	-0.318	0.171
-484.420	800.000	0.058	0.202
-483.405	-200.000	-0.033	0.216
-482.391	-200.000	-0.017	-0.267
-481.376	-111.599	0.161	0.033
-480.362	-200.000	0.043	0.257
-479.347	-141.308	0.038	0.004
-478.332	-200.000	0.024	0.143
-477.318	620.521	-0.158	0.405
-476.303	14.079	0.120	0.095
-475.289	65.959	0.129	0.133
-474.274	-114.468	0.140	-0.027
-473.259	-146.482	-0.185	0.016
-472.245	-150.184	0.184	-0.015
-471.230	-49.654	0.115	-0.056
-470.216	142.081	-0.286	-0.386
-469.201	612.432	0.118	-0.300
-468.186	-11.855	-0.071	0.047
-467.172	19.735	-0.237	-0.194
-466.157	800.000	-0.016	0.059
-465.143	545.859	-0.112	-0.272
-464.128	-135.619	0.145	-0.017
-463.113	10.591	0.052	0.040
-462.099	800.000	0.041	-0.137
-461.084	685.331	-0.067	-0.178
-460.070	-80.229	0.230	0.078
-459.055	-19.299	-0.070	0.044
-458.040	-96.455	0.241	-0.065
-457.026	17.274	0.213	-0.172
-456.011	324.845	-0.098	-0.190
-454.997	800.000	0.095	-0.348
-453.982	20.256	0.308	0.253
-452.968	76.982	-0.051	0.055
-451.953	701.213	-0.090	-0.240
-450.938	-200.000	-0.002	0.276
-449.924	144.464	-0.051	-0.069
-448.909	66.048	-0.456	-0.470
-447.895	800.000	0.047	0.197
-446.880	161.171	-0.178	0.252
-445.865	-171.467	0.211	0.007
-444.851	2.993	0.336	0.248
-443.836	313.325	0.087	-0.166
-442.822	-129.876	0.069	-0.010
-441.807	-200.000	0.006	-0.128
-440.792	-106.684	-0.062	0.014
-439.778	-32.340	0.110	-0.062
-438.763	-130.844	0.341	-0.046
-437.749	800.000	-0.027	0.090
-436.734	38.176	-0.201	0.182
-435.719	-34.050	-0.311	0.174
-434.705	-85.185	-0.350	0.111
-433.690	57.846	0.359	0.356
-432.676	195.390	0.276	0.426
-431.661	-200.000	0.017	0.182
-430.646	-200.000	0.021	-0.097
-429.632	-74.520	0.053	-0.019
-428.617	146.006	0.125	-0.171
-427.603	800.000	-0.067	-0.242
-426.588	123.075	0.146	0.186
-425.573	-200.000	0.024	-0.157
-424.559	186.841	-0.239	0.362
-423.544	-88.003	0.081	-0.025
-422.530	-115.346	0.285	-0.055
-421.515	534.519	-0.026	0.062
-420.500	415.481	-0.037	0.080
-419.486	329.750	-0.060	-0.118
-418.471	-88.369	-0.220	-0.067
-417.457	-136.702	-0.116	-0.014
-416.442	-51.246	-0.340	-0.161
-415.428	465.151	-0.108	-0.245
-414.413	800.000	-0.087	-0.260
-413.398	-3.131	0.350	0.247
-412.384	-200.000	0.048	-0.276
-411.369	-102.780	-0.176	0.043
-410.355	-200.000	0.012	0.131
-409.340	302.377	0.153	0.288
-408.325	-107.494	0.150	-0.033
-407.311	-16.353	-0.145	-0.093
-406.296	-129.489	0.183	-0.026
-405.282	-37.123	-0.082	0.044
-404.267	-200.000	0.056	0.390
-403.252	800.000	0.110	-0.386
-402.238	179.305	0.110	0.163
-401.223	-200.000	0.021	0.113
-400.209	25.670	0.204	-0.172
-399.194	-35.148	-0.243	0.134
-398.179	-200.000	0.018	-0.263
-397.165	52.585	0.103	-0.100
-396.150	241.348	0.050	0.084
-395.136	-16.292	0.247	-0.159
-394.121	502.683	0.140	0.329
-393.106	371.824	-0.067	0.137
-392.092	383.879	0.073	0.152
-391.077	-200.000	0.024	-0.169
-390.063	329.829	-0.060	0.117
-389.048	-53.904	-0.225	-0.104
-388.033	24.972	-0.141	0.119
-387.019	-46.585	0.085	0.042
-386.004	-137.280	-0.289	-0.033
-384.990	-89.385	0.342	-0.102
-383.975	231.129	0.065	-0.108
-382.960	-126.873	-0.312	0.047
-381.946	79.022	0.076	0.082
-380.931	146.859	0.268	0.365
-379.917	188.808	-0.100	0.152
-378.902	-92.475	0.083	0.024
-377.888	-15.680	0.085	0.055
-376.873	203.556	-0.090	0.141
-375.858	-125.280	0.262	0.041
-374.844	28.805	-0.157	-0.135
-373.829	375.522	-0.154	0.318
-372.815	195.765	0.142	0.219
-371.800	-100.448	-0.100	-0.025
-370.785	-116.260	-0.061	0.011
-369.771	-117.474	0.169	-0.031
-368.756	-135.948	-0.092	0.011
-367.742	156.333	-0.148	-0.207
-366.727	-53.783	-0.302	-0.139
-365.712	800.000	0.095	-0.290
-364.698	-200.000	0.012	0.226
-363.683	737.802	0.089	0.242
-362.669	-45.507	0.126	-0.063
-361.654	20.684	-0.234	-0.192
-360.639	258.526	0.008	-0.013
-359.625	-186.781	0.242	-0.003
-358.610	457.594	-0.235	0.528
-357.596	-97.626	0.066	-0.017
-356.581	203.016	0.160	0.250
-355.566	-67.497	-0.094	0.037
-354.552	-90.310	-0.445	-0.131
-353.537	152.486	0.264	-0.366
-352.523	-117.279	0.215	-0.040
-351.508	-124.424	0.274	0.043
-350.493	800.000	-0.036	0.107
-349.479	-7.266	-0.204	0.140
-348.464	-162.967	0.359	-0.018
-347.450	39.601	-0.063	0.058
-346.435	-115.983	-0.230	0.043
-345.420	-97.453	-0.208	0.055
-344.406	-71.268	-0.189	0.072
-343.391	-26.651	-0.032	0.019
-342.377	-33.325	-0.198	0.111
-341.362	-76.969	-0.072	0.025
-340.348	-144.346	0.090	-0.008
-339.333	158.017	-0.181	0.254
-338.318	70.196	0.140	0.147
-337.304	-200.000	-0.029	0.210
-336.289	-121.434	-0.132	-0.022
-335.275	698.888	-0.054	-0.144
-334.260	-200.000	-0.036	0.200
-333.245	800.000	-0.114	-0.346
-332.231	35.173	0.188	-0.166
-331.216	183.149	-0.139	-0.208
-330.202	6.092	-0.264	-0.198
-329.187	290.420	-0.039	0.072
-328.172	800.000	-0.208	0.584
-327.158	106.141	-0.160	0.192
-326.143	-70.097	-0.236	-0.091
-325.129	-35.722	0.123	-0.068
-324.114	16.129	-0.185	-0.147
-323.099	-19.893	-0.117	-0.073
-322.085	-200.000	0.006	0.202
-321.070	0.367	-0.296	0.214
-320.056	-200.000	-0.014	-0.137
-319.041	-102.029	-0.238	0.058
-318.026	-92.980	-0.238	-0.067
-317.012	-136.435	0.251	0.029
-315.997	-200.000	0.046	0.219
-314.983	37.881	0.091	0.082
-313.968	7.400	0.211	-0.159
-312.953	-125.897	-0.436	0.066
-311.939	-35.433	-0.238	0.131
-310.924	38.534	-0.128	0.116
-309.910	800.000	0.050	0.158
-308.895	-200.000	-0.019	0.155
-307.880	-200.000	-0.012	-0.201
-306.866	156.849	-0.215	0.300
-305.851	-77.419	-0.075	0.026
-304.837	-200.000	0.033	0.224
-303.822	770.802	0.069	-0.189
-302.807	-87.950	-0.182	0.055
-301.793	-137.376	0.270	-0.031
-300.778	24.308	0.405	0.338
-299.764	200.329	-0.166	0.258
-298.749	-88.373	-0.205	-0.062
-297.735	800.000	-0.045	0.147
-296.720	42.148	-0.128	0.118
-295.705	140.387	0.208	0.277
-294.691	192.442	-0.110	-0.168
-293.676	800.000	-0.085	0.257
-292.662	-200.000	-0.018	-0.166
-291.647	363.288	-0.138	-0.279
-290.632	91.874	0.261	-0.297
-289.618	-138.260	-0.142	-0.016
-288.603	-200.000	0.006	0.057
-287.589	176.552	-0.052	0.076
-286.574	777.632	-0.022	0.060
-285.559	-169.158	-0.189	-0.007
-284.545	88.487	0.091	-0.102
-283.530	-84.537	0.221	0.070
-282.516	15.654	0.193	-0.153
-281.501	-200.000	0.052	0.302
-280.486	-122.248	0.052	-0.009
-279.472	-55.773	-0.032	-0.015
-278.457	800.000	-0.015	0.043
-277.443	-17.291	-0.408	-0.259
-276.428	9.365	0.099	0.075
-275.413	-42.143	0.091	-0.047
-274.399	39.572	-0.217	0.196
-273.384	-22.769	0.192	0.117
-272.370	-165.385	0.192	-0.008
-271.355	153.125	-0.174	-0.240
-270.340	44.641	-0.123	-0.114
-269.326	800.000	0.080	0.237
-268.311	181.060	-0.092	0.136
-267.297	800.000	0.097	0.346
-266.282	-14.312	0.160	-0.104
-265.267	264.859	-0.096	-0.169
-264.253	-199.773	-0.295	-0.002
-263.238	-88.416	0.570	0.172
-262.224	515.394	0.115	-0.270
-261.209	-73.967	-0.028	-0.010
-260.195	736.389	-0.124	0.334
-259.180	800.000	-0.006	0.023
-258.165	800.000	-0.048	-0.135
-257.151	-52.726	0.103	-0.048
-256.136	-178.759	0.115	0.003
-255.122	-200.000	0.001	-0.116
-254.107	-55.921	-0.342	-0.154
-253.092	800.000	0.052	0.177
-252.078	475.130	0.018	0.041
-251.063	-200.000	-0.012	0.162
-250.049	643.149	0.075	-0.193
-249.034	75.062	0.117	-0.124
-248.019	-120.988	0.225	0.038
-247.005	800.000	0.056	-0.216
-245.990	-171.506	-0.110	0.004
-244.976	2.845	0.152	0.111
-243.961	-65.376	0.390	0.158
-242.946	339.831	-0.073	0.143
-241.932	-200.000	0.002	0.053
-240.917	606.620	0.030	0.074
-239.903	58.431	-0.256	0.253
-238.888	110.238	-0.145	0.175
-237.873	420.899	-0.062	-0.135
-236.859	800.000	0.083	-0.263
-235.844	497.784	0.074	-0.171
-234.830	266.316	-0.073	-0.128
-233.815	-200.000	0.004	0.043
-232.800	800.000	0.107	-0.411
-231.786	-22.854	0.284	-0.172
-230.771	547.381	-0.154	-0.372
-229.757	-69.975	-0.300	0.115
-228.742	-146.590	-0.213	-0.019
-227.727	800.000	0.042	-0.135
-226.713	22.632	0.073	0.060
-225.698	-18.406	0.225	0.141
-224.684	-31.170	0.113	-0.064
-223.669	-200.000	-0.016	-0.115
-222.655	103.675	0.238	-0.282
-221.640	-73.199	0.139	-0.051
-220.625	-140.142	0.421	0.045
-219.611	-200.000	-0.016	-0.110
-218.596	166.702	0.282	-0.403
-217.582	800.000	0.112	0.333
-216.567	-200.000	-0.004	0.088
-215.552	-200.000	0.025	-0.288
-214.538	133.614	-0.062	0.081
-213.523	61.477	0.042	0.042
-212.509	-200.000	-0.001	-0.047
-211.494	170.882	0.062	-0.090
-210.479	21.211	-0.165	-0.135
-209.465	-200.000	-0.021	0.304
-208.450	35.346	-0.119	0.105
-207.436	323.775	-0.232	-0.446
-206.421	-26.192	0.336	-0.199
-205.406	-17.684	0.179	-0.113
-204.392	-51.844	0.214	0.100
-203.377	-35.530	0.181	-0.099
-202.363	98.687	0.178	-0.207
-201.348	-200.000	-0.005	-0.165
-200.333	129.018	-0.104	0.134
-199.319	-61.732	0.130	0.055
-198.304	-153.409	-0.233	-0.016
-197.290	-118.624	-0.185	-0.033
-196.275	800.000	0.042	0.163
-195.260	145.262	0.189	-0.254
-194.246	-127.809	0.273	-0.040
-193.231	-140.353	0.182	0.019
-192.217	23.830	-0.096	0.080
-191.202	-5.719	-0.241	0.166
-190.187	800.000	-0.084	-0.253
-189.173	-200.000	-0.054	-0.323
-188.158	18.022	-0.203	-0.162
-187.144	74.649	-0.117	-0.124
-186.129	5.862	-0.221	-0.164
-185.114	-43.805	0.212	-0.107
-184.100	248.055	0.059	0.100
-183.085	-7.903	0.149	0.101
-182.071	168.275	0.023	0.033
-181.056	-117.060	-0.375	-0.069
-180.042	99.333	-0.085	0.099
-179.027	-200.000	0.039	0.210
-178.012	625.784	-0.054	-0.137
-176.998	800.000	0.094	0.308
-175.983	392.592	-0.143	0.299
-174.969	20.296	-0.236	-0.191
-173.954	-71.548	0.299	0.112
-172.939	520.910	0.043	0.102
-171.925	332.543	0.123	-0.239
-170.910	800.000	0.103	0.327
-169.896	157.284	0.111	0.154
-168.881	202.004	0.051	0.079
-167.866	464.009	-0.045	0.102
-166.852	-200.000	-0.040	-0.233
-165.837	-97.139	0.188	0.049
-164.823	562.948	-0.076	0.184
-163.808	-200.000	0.038	-0.171
-162.793	378.284	0.051	0.104
-161.779	-200.000	0.005	0.079
-160.764	-47.663	0.089	-0.043
-159.750	34.474	-0.149	0.131
-158.735	800.000	-0.119	0.351
-157.720	-200.000	-0.004	0.123
-156.706	-127.326	-0.069	-0.010
-155.691	260.303	-0.066	0.114
-154.677	-53.396	0.273	-0.126
-153.662	-200.000	0.042	0.348
-152.647	-200.000	0.029	0.218
-151.633	-35.039	-0.109	-0.059
-150.618	63.335	-0.166	-0.167
-149.604	-101.352	-0.177	0.043
-148.589	204.345	0.154	-0.240
-147.574	225.511	0.064	-0.104
-146.560	268.842	0.131	0.231
-145.545	800.000	-0.094	0.357
-144.531	39.185	0.187	0.168
-143.516	107.937	-0.296	0.353
-142.502	-118.232	-0.091	0.016
-141.487	124.724	0.189	-0.239
-140.472	57.415	0.178	0.174
-139.458	-200.000	0.077	0.361
-138.443	391.445	-0.087	-0.180
-137.429	-100.756	0.191	0.047
-136.414	46.215	-0.153	-0.142
-135.399	-200.000	0.008	-0.157
-134.385	34.553	0.185	-0.163
-133.370	415.373	-0.195	-0.418
-132.356	-55.237	0.283	0.127
-131.341	-54.574	0.047	-0.021
-130.326	-200.000	0.005	-0.148
-129.312	110.368	0.291	-0.350
-128.297	-109.713	-0.156	-0.033
-127.283	-83.738	0.323	-0.103
-126.268	-161.951	0.296	-0.015
-125.253	-200.000	0.042	-0.328
-124.239	800.000	-0.079	-0.245
-123.224	634.501	-0.054	-0.138
-122.210	-23.864	0.387	0.232
