DTS Sentinel unit serial number:	SN413079Multiplexer serial number:	ORYXHardware model number:	OX4-SRSoftware version number:	ORYX F/W v4.00 Oryx Data Collector v3.7.2.0data status	okinstallation	princeton_trtdifferential loss correction	single-endedforward channel	channel 4reverse channel	N/Adate	2019/09/17time	20:49:35forward acquisition time	60.00reverse acquisition time	0.00gamma	496.2192k internal	0.2322k external	0.2322temperature offset calibration	0.9990default loss term (dB/km)	0.3790temperature slope calibration	1.0000multiplexer offset coefficient	1.0000multiplexer slope coefficient	1.0000fibre end	0.00T internal ref (°C)	29.30T ext. ref 1 (°C)	0.20T ext. ref 2 (°C)	20.63length (m)	temperature (°C)	Stokes	anti-Stokes-747.200	42.209	-0.215	-0.198
-746.185	-180.878	0.088	-0.002
-745.171	37.500	0.184	-0.165
-744.156	-200.000	0.074	0.410
-743.142	93.606	0.318	-0.364
-742.127	-12.562	0.146	0.097
-741.112	36.126	-0.238	-0.212
-740.098	-86.201	0.188	0.059
-739.083	-133.417	0.183	-0.023
-738.069	-200.000	0.001	0.231
-737.054	-141.396	-0.422	-0.043
-736.039	89.024	-0.358	-0.402
-735.025	-70.305	0.292	-0.112
-734.010	-39.877	-0.063	0.033
-732.996	162.318	-0.186	-0.263
-731.981	110.512	0.167	-0.203
-730.966	82.519	-0.099	0.109
-729.952	-40.529	0.293	0.154
-728.937	-87.096	-0.434	-0.133
-727.923	8.181	0.062	0.047
-726.908	-40.339	-0.187	-0.098
-725.894	-19.356	-0.402	-0.251
-724.879	7.498	0.158	0.120
-723.864	216.931	-0.228	-0.366
-722.850	227.620	0.153	-0.252
-721.835	-131.179	-0.174	0.023
-720.821	245.032	0.094	0.159
-719.806	-200.000	-0.063	-0.366
-718.791	-200.000	0.037	-0.281
-717.777	-115.723	0.097	0.018
-716.762	638.191	0.037	0.096
-715.748	800.000	0.108	-0.360
-714.733	-200.000	-0.046	-0.244
-713.718	800.000	0.031	-0.098
-712.704	-24.979	0.236	-0.141
-711.689	-47.136	-0.102	0.050
-710.675	-200.000	-0.036	0.342
-709.660	-102.193	-0.146	0.035
-708.645	-200.000	-0.004	0.055
-707.631	65.326	0.128	0.130
-706.616	800.000	-0.024	0.102
-705.602	368.283	0.065	0.133
-704.587	-78.706	-0.179	0.061
-703.572	-54.883	0.211	-0.096
-702.558	172.683	-0.354	0.514
-701.543	-81.911	0.149	-0.049
-700.529	196.611	-0.104	0.160
-699.514	-42.277	0.042	0.022
-698.499	-200.000	-0.008	-0.062
-697.485	800.000	0.046	-0.148
-696.470	259.094	0.038	0.066
-695.456	800.000	0.080	0.231
-694.441	-60.477	-0.203	-0.087
-693.426	144.555	-0.089	-0.119
-692.412	-200.000	0.018	0.265
-691.397	-59.654	0.195	0.084
-690.383	-78.844	-0.078	0.027
-689.368	-96.717	-0.296	0.078
-688.354	800.000	0.092	-0.275
-687.339	-200.000	0.017	-0.346
-686.324	-17.733	0.120	0.076
-685.310	-103.069	-0.127	-0.030
-684.295	-5.718	-0.113	-0.078
-683.281	-37.993	-0.122	-0.066
-682.266	107.788	0.035	-0.042
-681.251	-73.178	-0.278	-0.103
-680.237	-119.148	0.261	0.046
-679.222	-77.657	0.270	-0.094
-678.208	-62.885	-0.241	0.100
-677.193	-51.760	-0.140	-0.066
-676.178	6.560	-0.082	-0.062
-675.164	-77.878	0.184	-0.064
-674.149	171.734	0.247	-0.357
-673.135	93.981	-0.135	0.155
-672.120	-84.456	-0.275	-0.087
-671.105	-200.000	-0.030	0.172
-670.091	800.000	0.026	0.095
-669.076	-200.000	-0.036	0.174
-668.062	294.091	0.151	-0.277
-667.047	-36.810	0.227	-0.123
-666.032	-200.000	0.037	-0.222
-665.018	436.253	0.039	0.085
-664.003	-130.946	-0.079	0.011
-662.989	-42.989	-0.109	0.056
-661.974	800.000	0.113	0.344
-660.959	429.115	0.118	-0.256
-659.945	414.884	-0.081	-0.174
-658.930	154.294	0.200	-0.277
-657.916	227.872	0.055	0.091
-656.901	-200.000	0.009	-0.067
-655.886	-100.040	-0.160	-0.040
-654.872	73.975	0.250	-0.264
-653.857	385.032	0.036	0.075
-652.843	-200.000	0.036	-0.459
-651.828	-200.000	0.049	-0.265
-650.814	800.000	0.061	-0.203
-649.799	100.072	-0.177	0.207
-648.784	-200.000	-0.014	-0.129
-647.770	-200.000	-0.007	-0.096
-646.755	-200.000	0.032	0.257
-645.741	225.767	0.057	0.094
-644.726	379.037	0.140	0.289
-643.711	26.682	0.038	-0.032
-642.697	-130.631	0.332	-0.045
-641.682	-77.264	-0.259	0.091
-640.668	-138.279	0.182	0.020
-639.653	-200.000	-0.013	0.077
-638.638	-81.871	-0.355	-0.117
-637.624	-200.000	0.022	-0.170
-636.609	-149.395	0.152	-0.012
-635.595	-56.343	0.120	0.054
-634.580	-148.760	0.478	-0.039
-633.565	202.898	0.089	-0.138
-632.551	501.536	0.123	-0.285
-631.536	158.710	-0.128	-0.179
-630.522	-154.717	0.366	0.024
-629.507	36.906	0.222	0.198
-628.492	-17.112	-0.444	0.282
-627.478	-139.721	0.185	-0.020
-626.463	-37.120	-0.267	-0.144
-625.449	345.179	0.051	0.101
-624.434	-30.326	0.115	-0.066
-623.419	329.341	0.139	-0.269
-622.405	218.660	0.051	-0.082
-621.390	12.987	-0.155	0.121
-620.376	-200.000	-0.019	-0.193
-619.361	18.140	0.107	0.086
-618.346	681.072	-0.086	-0.224
-617.332	116.360	-0.131	-0.161
-616.317	-200.000	-0.045	-0.228
-615.303	2.686	-0.191	-0.140
-614.288	74.530	0.158	-0.167
-613.273	-141.634	0.382	0.039
-612.259	503.093	-0.082	0.190
-611.244	378.092	0.081	0.166
-610.230	-105.575	-0.311	0.071
-609.215	-12.446	0.164	0.108
-608.201	15.116	0.073	-0.057
-607.186	-168.726	0.157	-0.006
-606.171	1.159	0.165	-0.119
-605.157	-200.000	-0.066	-0.303
-604.142	484.933	-0.036	-0.082
-603.128	-130.934	-0.113	-0.015
-602.113	70.786	-0.016	0.016
-601.098	154.185	0.094	-0.129
-600.084	31.259	0.179	-0.154
-599.069	-200.000	-0.037	-0.264
-598.055	-140.530	-0.135	-0.014
-597.040	494.971	-0.129	-0.297
-596.025	800.000	0.107	0.355
-595.011	572.194	-0.106	0.260
-593.996	-37.015	-0.251	0.135
-592.982	206.251	0.110	-0.173
-591.967	28.453	-0.263	-0.223
-590.952	-99.176	0.229	0.058
-589.938	227.886	-0.135	0.220
-588.923	94.923	0.117	0.134
-587.909	-39.446	-0.428	-0.225
-586.894	-200.000	0.013	-0.231
-585.879	-18.560	0.169	-0.106
-584.865	-24.828	0.077	-0.046
-583.850	46.810	-0.081	0.076
-582.836	37.518	-0.183	-0.163
-581.821	-200.000	-0.018	-0.178
-580.806	-200.000	0.000	-0.182
-579.792	-200.000	-0.187	-0.000
-578.777	800.000	-0.059	0.174
-577.763	-200.000	-0.034	0.279
-576.748	-200.000	-0.058	-0.274
-575.733	-119.259	-0.375	-0.066
-574.719	346.555	-0.063	0.124
-573.704	127.786	0.155	0.198
-572.690	-200.000	-0.051	-0.306
-571.675	-200.000	-0.080	-0.385
-570.661	3.260	-0.136	-0.099
-569.646	106.631	0.131	0.155
-568.631	10.853	0.200	0.153
-567.617	18.160	-0.176	0.141
-566.602	800.000	0.066	-0.220
-565.588	-85.680	-0.212	-0.066
-564.573	-23.530	-0.109	-0.066
-563.558	-150.471	-0.073	0.006
-562.544	-64.903	0.197	0.080
-561.529	190.497	0.121	0.183
-560.515	-118.846	-0.502	0.088
-559.500	-42.332	0.417	-0.213
-558.485	-70.139	0.298	0.114
-557.471	37.655	-0.209	-0.186
-556.456	182.694	-0.093	-0.138
-555.442	62.188	0.191	-0.191
-554.427	-200.000	0.001	-0.144
-553.412	-155.977	0.121	-0.008
-552.398	-53.708	-0.332	0.152
-551.383	-145.059	-0.161	0.015
-550.369	800.000	-0.057	0.226
-549.354	-62.133	0.152	0.064
-548.339	358.361	0.109	-0.218
-547.325	459.311	0.172	0.384
-546.310	-200.000	-0.041	0.209
-545.296	800.000	0.104	0.298
-544.281	219.640	0.077	0.123
-543.266	5.797	-0.059	0.044
-542.252	200.538	-0.212	0.327
-541.237	-22.669	0.301	-0.182
-540.223	-200.000	0.023	-0.141
-539.208	105.702	0.111	-0.132
-538.193	-16.661	0.278	0.176
-537.179	-154.493	-0.263	0.018
-536.164	-200.000	0.052	-0.234
-535.150	-36.077	-0.054	0.029
-534.135	-146.719	0.166	0.014
-533.121	-200.000	-0.053	0.380
-532.106	99.159	-0.056	-0.065
-531.091	-51.857	-0.289	-0.135
-530.077	141.197	0.185	0.246
-529.062	-51.371	-0.440	0.206
-528.048	-158.653	0.061	0.004
-527.033	56.074	0.082	-0.079
-526.018	800.000	-0.087	-0.285
-525.004	56.870	-0.226	0.221
-523.989	199.551	0.079	0.121
-522.975	-109.521	0.255	-0.054
-521.960	-200.000	0.051	-0.270
-520.945	800.000	0.042	-0.129
-519.931	-119.179	0.194	-0.034
-518.916	96.172	-0.161	0.184
-517.902	-178.930	-0.145	-0.003
-516.887	103.542	0.190	0.223
-515.872	79.470	0.075	-0.080
-514.858	75.638	-0.155	0.164
-513.843	78.539	0.019	0.021
-512.829	-62.489	0.070	0.029
-511.814	0.168	-0.156	-0.111
-510.799	-26.301	-0.108	-0.063
-509.785	-200.000	-0.007	-0.267
-508.770	-56.757	-0.116	0.052
-507.756	-135.556	-0.269	0.032
-506.741	24.303	-0.228	0.189
-505.726	-92.544	-0.189	-0.053
-504.712	-24.002	-0.379	-0.227
-503.697	-200.000	0.039	-0.406
-502.683	290.935	-0.118	-0.214
-501.668	378.010	-0.160	0.327
-500.653	213.939	0.024	0.038
-499.639	133.109	0.125	0.161
-498.624	767.598	0.064	0.174
-497.610	158.852	0.067	0.092
-496.595	-10.725	-0.083	-0.055
-495.581	-38.836	-0.130	-0.069
-494.566	15.377	-0.097	-0.076
-493.551	-200.000	0.002	0.125
-492.537	-64.533	0.211	-0.086
-491.522	800.000	0.149	-0.551
-490.508	800.000	-0.044	0.189
-489.493	205.676	-0.100	0.155
-488.478	-12.166	-0.304	0.199
-487.464	-126.296	-0.219	0.033
-486.449	-200.000	0.045	0.224
-485.435	-68.885	-0.110	0.042
-484.420	-140.032	0.169	-0.018
-483.405	800.000	-0.059	-0.231
-482.391	-57.339	0.200	-0.088
-481.376	800.000	0.151	-0.421
-480.362	-144.669	0.151	-0.014
-479.347	-20.472	0.128	-0.078
-478.332	691.975	-0.096	0.253
-477.318	-200.000	0.043	0.279
-476.303	-200.000	0.006	-0.057
-475.289	388.102	0.027	0.055
-474.274	-38.774	0.159	0.084
-473.259	-61.108	0.283	0.119
-472.245	800.000	-0.063	0.215
-471.230	-151.369	0.171	0.013
-470.216	-89.651	-0.252	0.074
-469.201	-52.414	0.141	0.065
-468.186	15.869	-0.168	-0.132
-467.172	8.127	-0.053	0.039
-466.157	-104.369	-0.352	-0.081
-465.143	-181.842	-0.296	-0.006
-464.128	-90.434	-0.091	-0.026
-463.113	800.000	-0.074	-0.221
-462.099	129.774	0.105	-0.134
-461.084	-200.000	0.040	0.325
-460.070	-200.000	0.011	0.108
-459.055	38.171	0.231	-0.206
-458.040	-83.662	-0.197	-0.063
-457.026	-178.574	-0.115	0.003
-456.011	-65.802	0.225	-0.090
-454.997	-161.457	0.028	0.001
-453.982	25.962	-0.117	0.098
-452.968	66.218	0.136	0.138
-451.953	-10.281	0.110	0.073
-450.938	29.029	-0.142	0.120
-449.924	800.000	0.077	0.262
-448.909	-200.000	0.008	0.261
-447.895	115.026	0.245	0.299
-446.880	230.480	-0.030	0.049
-445.865	-108.993	-0.237	-0.051
-444.851	50.897	0.160	0.151
-443.836	703.805	-0.062	-0.164
-442.822	-69.671	0.277	0.106
-441.807	57.130	-0.090	0.087
-440.792	8.354	0.067	0.050
-439.778	220.853	-0.149	0.239
-438.763	-200.000	-0.036	-0.231
-437.749	800.000	-0.039	-0.108
-436.734	103.244	0.210	-0.246
-435.719	-95.315	-0.385	0.103
-434.705	-32.716	0.143	-0.079
-433.690	-200.000	-0.082	-0.394
-432.676	-11.558	-0.174	0.114
-431.661	25.624	-0.168	0.140
-430.646	-200.000	-0.026	0.139
-429.632	69.975	0.103	0.106
-428.617	-103.708	-0.293	0.069
-427.603	-105.134	0.250	-0.057
-426.588	-13.599	0.238	0.154
-425.573	112.075	0.122	0.147
-424.559	3.308	0.256	0.186
-423.544	-115.842	0.197	0.037
-422.530	800.000	0.045	0.142
-421.515	-96.808	0.140	-0.037
-420.500	-157.746	0.145	-0.009
-419.486	90.073	0.171	-0.191
-418.471	-23.705	-0.257	-0.153
-417.457	-200.000	0.009	-0.316
-416.442	-149.891	-0.203	0.016
-415.428	-56.205	0.388	-0.172
-414.413	528.263	0.026	0.062
-413.398	800.000	-0.061	0.234
-412.384	-56.654	0.183	-0.081
-411.369	-49.521	-0.273	-0.130
-410.355	281.777	-0.112	-0.201
-409.340	149.313	0.133	0.179
-408.325	49.213	-0.192	-0.180
-407.311	385.042	-0.076	0.156
-406.296	-200.000	0.047	0.224
-405.282	292.207	-0.033	-0.059
-404.267	800.000	0.065	0.194
-403.252	-200.000	0.021	-0.127
-402.238	-89.292	-0.016	0.005
-401.223	87.483	-0.127	-0.140
-400.209	-78.436	0.076	0.026
-399.194	800.000	-0.028	-0.116
-398.179	-10.802	0.208	-0.137
-397.165	22.111	-0.110	0.089
-396.150	-165.538	-0.037	0.002
-395.136	-83.067	0.040	-0.013
-394.121	800.000	0.024	-0.083
-393.106	22.803	-0.089	-0.072
-392.092	565.390	-0.025	-0.060
-391.077	-12.353	0.333	-0.217
-390.063	-200.000	0.045	0.294
-389.048	29.023	0.109	-0.092
-388.033	-89.152	0.097	0.028
-387.019	45.518	-0.194	0.179
-386.004	32.515	0.239	0.206
-384.990	-143.933	0.158	0.015
-383.975	-151.547	0.063	-0.005
-382.960	174.396	0.041	0.059
-381.946	-200.000	-0.011	-0.311
-380.931	-148.181	-0.176	0.015
-379.917	437.536	0.074	0.161
-378.902	-200.000	0.016	-0.159
-377.888	6.494	-0.129	0.095
-376.873	120.067	-0.294	-0.363
-375.858	147.734	0.159	-0.213
-374.844	399.927	0.045	-0.094
-373.829	-92.160	-0.287	-0.081
-372.815	-200.000	0.058	0.000
-371.800	452.654	0.077	-0.169
-370.785	-60.775	-0.098	-0.041
-369.771	276.926	-0.088	0.155
-368.756	-73.613	0.133	0.048
-367.742	-47.602	0.165	0.080
-366.727	800.000	-0.062	0.208
-365.712	-126.229	-0.177	0.026
-364.698	800.000	0.046	-0.144
-363.683	-8.485	-0.172	-0.115
-362.669	117.933	0.192	0.235
-361.654	-56.246	-0.182	0.080
-360.639	50.416	0.136	-0.128
-359.625	-21.411	-0.152	0.092
-358.610	-136.381	0.123	-0.014
-357.596	-41.663	0.119	0.061
-356.581	127.853	0.052	0.066
-355.566	-154.438	-0.107	-0.007
-354.552	167.594	0.045	0.064
-353.537	800.000	0.132	0.486
-352.523	671.325	0.088	0.226
-351.508	-200.000	0.000	-0.064
-350.493	-200.000	-0.021	0.384
-349.479	-62.112	-0.188	0.078
-348.464	-200.000	0.020	-0.099
-347.450	-200.000	0.028	0.274
-346.435	742.681	0.141	-0.378
-345.420	-138.501	-0.063	-0.007
-344.406	-50.546	-0.357	0.167
-343.391	-200.000	-0.081	0.435
-342.377	216.652	-0.088	-0.140
-341.362	631.426	-0.067	0.170
-340.348	42.009	0.227	0.205
-339.333	-99.311	-0.255	-0.064
-338.318	167.035	-0.165	-0.233
-337.304	800.000	0.018	-0.065
-336.289	-200.000	-0.002	0.138
-335.275	800.000	-0.050	0.184
-334.260	-200.000	-0.024	0.122
-333.245	800.000	-0.096	0.391
-332.231	-152.351	-0.323	0.023
-331.216	-185.485	0.262	0.004
-330.202	83.612	0.134	-0.145
-329.187	-12.080	-0.446	-0.290
-328.172	7.688	0.314	0.233
-327.158	681.536	-0.044	-0.113
-326.143	800.000	0.036	-0.100
-325.129	-107.538	-0.097	-0.021
-324.114	-200.000	0.024	-0.310
-323.099	23.035	0.195	0.159
-322.085	357.635	-0.038	-0.075
-321.070	-46.959	0.237	-0.115
-320.056	-200.000	0.024	0.480
-319.041	166.621	-0.067	-0.094
-318.026	25.308	0.126	-0.104
-317.012	-156.275	-0.241	-0.015
-315.997	48.962	0.120	0.112
-314.983	207.536	0.135	0.210
-313.968	16.064	-0.191	-0.149
-312.953	78.584	-0.109	0.116
-311.939	-143.279	0.496	0.047
-310.924	35.395	-0.261	0.228
-309.910	-168.705	-0.115	-0.004
-308.895	9.138	-0.220	0.165
-307.880	42.567	-0.091	0.082
-306.866	-31.445	-0.203	-0.113
-305.851	-42.979	-0.177	-0.089
-304.837	-53.836	-0.236	-0.107
-303.822	-5.561	-0.192	0.130
-302.807	-36.895	-0.155	-0.082
-301.793	50.376	0.148	-0.139
-300.778	-34.208	-0.198	0.108
-299.764	131.153	-0.064	0.081
-298.749	46.138	0.178	-0.164
-297.735	-27.202	-0.280	-0.162
-296.720	6.040	0.108	0.079
-295.705	14.933	-0.408	0.317
-294.691	231.963	-0.019	-0.031
-293.676	-31.504	0.183	-0.102
-292.662	70.654	0.121	0.124
-291.647	32.928	0.239	0.206
-290.632	800.000	0.049	0.181
-289.618	-144.437	0.180	-0.017
-288.603	253.610	0.095	-0.160
-287.589	54.148	0.109	0.105
-286.574	-200.000	-0.043	-0.386
-285.559	-85.326	-0.108	-0.033
-284.545	23.490	-0.073	0.060
-283.530	271.443	0.093	-0.163
-282.516	-200.000	-0.025	-0.282
-281.501	203.614	0.155	0.237
-280.486	-111.895	0.261	-0.052
-279.472	532.594	0.052	0.122
-278.457	-128.496	-0.250	-0.035
-277.443	800.000	0.029	0.096
-276.428	12.339	-0.149	-0.114
-275.413	76.248	-0.148	0.155
-274.399	-200.000	-0.002	0.045
-273.384	5.600	-0.079	0.058
-272.370	-95.223	0.352	0.094
-271.355	-200.000	-0.064	-0.359
-270.340	70.589	-0.123	0.126
-269.326	-200.000	-0.012	-0.266
-268.311	475.691	-0.030	0.068
-267.297	-200.000	0.030	-0.325
-266.282	800.000	0.066	0.215
-265.267	192.756	0.088	-0.132
-264.253	-81.863	-0.429	-0.139
-263.238	-200.000	-0.016	0.209
-262.224	-200.000	0.008	-0.261
-261.209	-200.000	0.014	-0.101
-260.195	705.957	0.015	0.040
-259.180	-104.947	0.238	0.054
-258.165	279.272	-0.091	-0.161
-257.151	-115.063	0.092	0.017
-256.136	138.223	0.113	-0.147
-255.122	-78.355	0.181	0.062
-254.107	-14.863	-0.232	-0.147
-253.092	-48.035	0.143	-0.068
-252.078	-83.929	0.292	-0.092
-251.063	-200.000	0.065	-0.400
-250.049	16.507	-0.063	-0.049
-249.034	-200.000	-0.028	-0.157
-248.019	800.000	-0.073	-0.222
-247.005	800.000	-0.042	-0.156
-245.990	-115.374	-0.208	-0.039
-244.976	-72.835	0.277	-0.101
-243.961	-28.702	0.251	-0.143
-242.946	-18.482	0.221	-0.137
-241.932	89.393	-0.135	-0.149
-240.917	734.416	0.083	0.220
-239.903	5.426	0.075	-0.055
-238.888	150.104	-0.146	-0.197
-237.873	-101.124	0.136	0.033
-236.859	149.280	0.151	0.203
-235.844	-4.186	0.108	-0.074
-234.830	-200.000	-0.106	0.648
-233.815	800.000	0.070	-0.218
-232.800	-146.486	0.299	0.026
-231.786	-1.781	-0.395	-0.275
-230.771	-91.400	0.168	-0.047
-229.757	-133.850	-0.174	0.021
-228.742	-200.000	-0.001	-0.009
-227.727	396.108	-0.113	0.235
-226.713	228.416	-0.255	0.412
-225.698	116.092	-0.030	0.036
-224.684	35.369	0.285	0.247
-223.669	-91.384	0.471	-0.133
-222.655	146.180	-0.061	0.081
-221.640	-94.925	-0.155	0.041
-220.625	-82.012	-0.214	0.069
-219.611	800.000	0.040	-0.110
-218.596	62.793	0.186	0.184
-217.582	-107.406	-0.182	-0.039
-216.567	89.889	0.181	-0.200
-215.552	126.901	0.324	0.406
-214.538	-138.530	0.142	-0.015
-213.523	222.444	0.211	0.337
-212.509	130.013	-0.110	-0.140
-211.494	-69.322	-0.103	0.039
-210.479	-200.000	-0.006	0.048
-209.465	-200.000	-0.001	-0.034
-208.450	244.312	0.191	-0.317
-207.436	-140.956	-0.338	0.034
-206.421	-200.000	0.023	-0.212
-205.406	-20.609	0.147	-0.089
-204.392	-200.000	-0.018	0.148
-203.377	-200.000	-0.001	-0.215
-202.363	-200.000	0.014	-0.111
-201.348	-50.331	-0.061	-0.029
-200.333	-85.086	0.297	-0.092
-199.319	3.239	0.163	-0.117
-198.304	180.477	-0.010	0.014
-197.290	-200.000	0.005	-0.071
-196.275	-61.792	-0.203	-0.084
-195.260	-200.000	0.099	0.446
-194.246	-144.161	-0.343	-0.032
-193.231	191.435	0.111	0.166
-192.217	408.710	-0.121	-0.253
-191.202	-200.000	-0.033	-0.254
-190.187	23.463	-0.162	-0.131
-189.173	800.000	0.101	-0.275
-188.158	-154.303	0.272	-0.018
-187.144	540.668	-0.075	-0.176
-186.129	32.292	-0.157	0.134
-185.114	-16.139	0.045	-0.028
-184.100	-130.576	0.098	0.013
-183.085	121.370	-0.171	-0.211
-182.071	-9.477	-0.154	-0.102
-181.056	-200.000	-0.024	0.112
-180.042	-200.000	-0.039	0.329
-179.027	100.424	0.168	-0.192
-178.012	132.725	-0.127	0.162
-176.998	175.160	-0.132	0.189
-175.983	39.276	-0.095	0.084
-174.969	-200.000	-0.098	0.433
-173.954	-200.000	-0.042	-0.211
-172.939	278.163	-0.086	0.152
-171.925	2.779	-0.119	0.085
-170.910	-78.526	0.163	-0.055
-169.896	50.409	0.250	-0.233
-168.881	620.755	0.149	0.371
-167.866	134.189	0.058	-0.074
-166.852	-58.259	0.099	0.042
-165.837	-200.000	-0.042	-0.272
-164.823	-103.344	-0.037	0.009
-163.808	127.608	-0.238	-0.298
-162.793	-200.000	-0.019	-0.154
-161.779	-38.296	0.172	0.090
-160.764	142.313	0.051	0.067
-159.750	-100.929	0.450	-0.109
-158.735	345.813	0.210	0.407
-157.720	87.201	-0.259	0.283
-156.706	-200.000	0.027	0.132
-155.691	-16.565	0.039	0.025
-154.677	344.668	0.112	-0.218
-153.662	-19.853	-0.236	-0.144
-152.647	229.348	0.170	0.274
-151.633	50.068	0.187	-0.175
-150.618	48.578	-0.184	-0.171
-149.604	216.439	0.175	0.275
-148.589	38.054	-0.065	0.057
-147.574	-200.000	-0.045	-0.386
-146.560	-18.591	0.373	0.230
-145.545	473.870	-0.029	0.064
-144.531	553.350	0.045	-0.106
-143.516	3.048	-0.129	-0.092
-142.502	800.000	0.066	0.253
-141.487	94.430	-0.221	-0.248
-140.472	-98.864	0.226	-0.057
-139.458	17.347	0.028	-0.022
-138.443	-46.711	-0.088	-0.042
-137.429	800.000	0.110	-0.443
-136.414	-123.349	-0.167	0.026
-135.399	-200.000	0.073	-0.540
-134.385	1.729	-0.077	0.055
-133.370	-89.181	-0.088	-0.026
-132.356	800.000	-0.070	-0.289
-131.341	-38.121	-0.108	0.057
-130.326	-155.969	0.100	-0.006
-129.312	-118.860	-0.062	0.011
-128.297	108.414	-0.178	0.209
-127.283	761.770	-0.081	-0.216
-126.268	-200.000	-0.003	-0.272
-125.253	120.814	-0.201	0.247
-124.239	-200.000	-0.005	0.315
-123.224	211.421	-0.191	0.297
-122.210	10.350	-0.187	-0.141
-121.195	341.014	0.139	-0.268
