DTS Sentinel unit serial number:	SN413079Multiplexer serial number:	ORYXHardware model number:	OX4-SRSoftware version number:	ORYX F/W v4.00 Oryx Data Collector v3.7.2.0data status	okinstallation	princeton_trtdifferential loss correction	single-endedforward channel	channel 4reverse channel	N/Adate	2019/09/11time	04:47:10forward acquisition time	60.00reverse acquisition time	0.00gamma	496.2192k internal	0.2316k external	0.2316temperature offset calibration	0.9944default loss term (dB/km)	0.3790temperature slope calibration	1.0000multiplexer offset coefficient	1.0000multiplexer slope coefficient	1.0000fibre end	0.00T internal ref (°C)	29.50T ext. ref 1 (°C)	-0.29T ext. ref 2 (°C)	23.38length (m)	temperature (°C)	Stokes	anti-Stokes-747.200	-8.762	0.225	0.153
-746.185	-136.243	0.151	-0.018
-745.171	800.000	0.122	-0.376
-744.156	-86.763	-0.232	-0.072
-743.142	-90.539	0.240	0.070
-742.127	-107.725	0.233	0.051
-741.112	-47.634	-0.080	-0.039
-740.098	55.897	-0.234	-0.230
-739.083	-141.211	-0.046	-0.005
-738.069	246.901	-0.051	0.088
-737.054	-175.299	0.151	-0.004
-736.039	-12.937	0.298	-0.196
-735.025	70.078	0.385	0.402
-734.010	-9.494	-0.231	0.156
-732.996	110.741	-0.111	-0.135
-731.981	-44.447	-0.156	0.079
-730.966	92.471	-0.083	0.094
-729.952	-200.000	-0.011	0.151
-728.937	4.001	-0.225	-0.167
-727.923	49.228	-0.003	-0.003
-726.908	-54.580	-0.101	0.046
-725.894	28.551	-0.414	-0.354
-724.879	800.000	0.083	-0.312
-723.864	474.499	-0.089	-0.203
-722.850	-37.180	-0.198	0.107
-721.835	-200.000	-0.079	-0.482
-720.821	-138.941	-0.252	0.028
-719.806	-137.800	-0.198	0.022
-718.791	-33.281	0.202	-0.113
-717.777	187.396	-0.181	-0.274
-716.762	-26.199	-0.340	-0.202
-715.748	-135.263	-0.059	0.007
-714.733	328.637	0.209	-0.407
-713.718	39.760	-0.042	-0.038
-712.704	-36.053	-0.338	-0.185
-711.689	144.641	-0.096	0.130
-710.675	-114.574	0.283	0.055
-709.660	-138.191	-0.166	0.019
-708.645	800.000	0.026	-0.089
-707.631	284.640	0.151	0.275
-706.616	-119.149	0.202	0.036
-705.602	-200.000	-0.022	-0.266
-704.587	-200.000	-0.066	-0.366
-703.572	-99.055	-0.154	-0.039
-702.558	74.476	-0.210	-0.224
-701.543	129.680	0.178	0.230
-700.529	-200.000	-0.005	0.044
-699.514	-200.000	0.003	-0.075
-698.499	278.371	0.033	-0.060
-697.485	-15.842	-0.254	0.163
-696.470	-58.556	-0.332	-0.145
-695.456	325.223	0.054	-0.104
-694.441	106.797	-0.232	-0.278
-693.426	43.816	0.127	-0.118
-692.412	94.717	-0.059	-0.068
-691.397	48.366	-0.340	-0.322
-690.383	-3.956	0.146	0.102
-689.368	800.000	-0.044	0.132
-688.354	432.919	0.058	0.128
-687.339	35.861	0.160	-0.142
-686.324	-86.366	-0.223	0.069
-685.310	124.024	-0.056	-0.071
-684.295	287.904	0.033	-0.061
-683.281	-96.596	0.273	0.073
-682.266	181.220	-0.064	0.095
-681.251	239.139	0.053	0.089
-680.237	800.000	-0.078	0.221
-679.222	95.768	0.123	0.141
-678.208	-200.000	-0.020	-0.468
-677.193	341.570	-0.109	-0.216
-676.178	800.000	-0.038	-0.156
-675.164	-22.456	0.417	0.255
-674.149	800.000	0.063	0.179
-673.135	-73.310	0.273	0.101
-672.120	-78.186	-0.114	-0.040
-671.105	91.950	-0.066	0.075
-670.091	4.839	-0.205	-0.152
-669.076	-68.063	-0.334	-0.132
-668.062	798.372	0.037	-0.103
-667.047	800.000	0.072	0.248
-666.032	438.975	-0.029	-0.064
-665.018	149.957	0.124	0.169
-664.003	800.000	-0.016	-0.069
-662.989	-200.000	-0.034	-0.162
-661.974	33.123	-0.194	0.170
-660.959	83.770	0.028	0.030
-659.945	41.474	-0.205	0.187
-658.930	-11.663	0.155	-0.103
-657.916	-61.685	0.089	0.038
-656.901	21.355	0.333	0.274
-655.886	241.848	0.031	-0.052
-654.872	800.000	0.072	-0.206
-653.857	-72.703	-0.236	-0.088
-652.843	-200.000	-0.012	-0.193
-651.828	-9.565	0.131	-0.088
-650.814	215.244	0.112	-0.180
-649.799	-200.000	0.025	-0.208
-648.784	95.904	0.155	-0.178
-647.770	434.408	-0.149	0.328
-646.755	-53.316	0.041	0.019
-645.741	-16.798	-0.027	-0.017
-644.726	-200.000	0.011	0.185
-643.711	190.803	-0.024	-0.037
-642.697	800.000	0.108	0.385
-641.682	26.548	0.141	-0.119
-640.668	46.161	0.051	-0.048
-639.653	133.255	-0.254	-0.331
-638.638	-22.760	0.127	0.077
-637.624	-30.957	0.236	-0.135
-636.609	232.458	0.073	0.120
-635.595	-28.530	0.264	0.154
-634.580	250.068	-0.098	-0.168
-633.565	-200.000	-0.005	-0.271
-632.551	-200.000	-0.102	-0.457
-631.536	461.880	-0.115	-0.258
-630.522	800.000	0.041	-0.126
-629.507	27.297	0.191	-0.162
-628.492	410.094	0.067	-0.143
-627.478	52.560	-0.230	-0.221
-626.463	-151.287	-0.318	0.024
-625.449	-200.000	0.005	-0.108
-624.434	32.383	0.067	-0.059
-623.419	-137.022	0.063	0.007
-622.405	188.276	0.210	-0.317
-621.390	102.705	0.148	-0.174
-620.376	16.892	-0.213	0.170
-619.361	109.289	-0.174	0.210
-618.346	-88.924	0.511	0.153
-617.332	-29.018	0.186	0.108
-616.317	-172.769	-0.290	-0.009
-615.303	-59.799	0.408	0.176
-614.288	19.618	-0.183	-0.148
-613.273	800.000	0.078	-0.255
-612.259	-18.406	-0.215	0.135
-611.244	115.139	0.086	-0.105
-610.230	-200.000	-0.051	0.293
-609.215	-147.631	0.132	-0.011
-608.201	-112.928	0.235	-0.047
-607.186	370.265	0.085	0.174
-606.171	-9.417	-0.322	0.217
-605.157	800.000	-0.031	-0.107
-604.142	-200.000	0.010	0.211
-603.128	153.032	0.045	0.062
-602.113	-79.967	0.146	0.049
-601.098	-56.600	-0.405	-0.181
-600.084	-117.013	0.308	-0.057
-599.069	145.156	0.082	0.110
-598.055	22.504	0.405	-0.333
-597.040	-200.000	-0.022	-0.272
-596.025	642.584	0.118	-0.303
-595.011	54.144	-0.166	0.161
-593.996	800.000	0.051	-0.151
-592.982	-39.120	-0.337	-0.178
-591.967	534.505	-0.080	0.191
-590.952	56.282	0.189	0.185
-589.938	28.258	-0.085	0.073
-588.923	-17.043	0.107	0.068
-587.909	252.498	0.088	-0.152
-586.894	-11.098	0.074	-0.049
-585.879	189.914	-0.129	-0.194
-584.865	800.000	0.075	-0.310
-583.850	11.948	-0.256	0.198
-582.836	800.000	0.067	-0.213
-581.821	-4.274	-0.247	0.172
-580.806	-46.737	-0.258	0.127
-579.792	-200.000	0.234	-0.001
-578.777	-151.920	0.304	0.022
-577.763	-158.274	-0.148	-0.009
-576.748	243.107	-0.270	0.456
-575.733	-29.407	0.147	-0.084
-574.719	-14.309	-0.175	0.114
-573.704	800.000	-0.041	0.166
-572.690	-67.123	-0.153	0.061
-571.675	-174.414	0.043	0.001
-570.661	800.000	-0.009	0.027
-569.646	-200.000	-0.019	-0.231
-568.631	-139.597	-0.364	0.039
-567.617	-24.094	0.147	0.088
-566.602	621.892	-0.101	-0.255
-565.588	800.000	0.068	-0.253
-564.573	-86.640	0.261	0.080
-563.558	66.326	-0.055	-0.056
-562.544	-49.404	0.142	-0.068
-561.529	124.649	0.076	-0.096
-560.515	-25.142	0.170	0.101
-559.500	21.037	-0.118	-0.096
-558.485	-14.132	0.121	-0.079
-557.471	800.000	-0.109	-0.310
-556.456	-103.529	-0.466	-0.110
-555.442	-69.321	-0.264	0.102
-554.427	-200.000	0.002	0.287
-553.412	-200.000	0.086	0.448
-552.398	-81.064	0.123	-0.041
-551.383	251.760	0.050	-0.086
-550.369	-200.000	-0.005	-0.310
-549.354	-83.092	-0.024	-0.008
-548.339	39.077	0.184	0.166
-547.325	145.403	-0.171	0.231
-546.310	-102.853	-0.255	0.061
-545.296	28.000	0.101	-0.086
-544.281	85.093	0.155	-0.171
-543.266	26.397	-0.137	0.115
-542.252	72.728	0.154	-0.162
-541.237	-149.581	-0.484	0.038
-540.223	-125.609	0.370	0.056
-539.208	-116.402	-0.055	-0.010
-538.193	476.789	0.127	-0.288
-537.179	224.292	-0.198	0.321
-536.164	36.538	-0.060	0.053
-535.150	-94.111	0.338	-0.093
-534.135	426.079	0.099	0.214
-533.121	800.000	-0.069	0.266
-532.106	-82.230	-0.136	-0.045
-531.091	192.901	-0.094	-0.142
-530.077	-200.000	-0.015	0.305
-529.062	321.295	-0.100	-0.191
-528.048	81.729	-0.151	0.165
-527.033	-6.593	-0.327	0.223
-526.018	96.144	0.191	0.219
-525.004	-86.368	0.315	0.097
-523.989	142.137	0.116	-0.155
-522.975	53.076	-0.100	-0.096
-521.960	-113.714	0.280	0.055
-520.945	800.000	-0.061	0.199
-519.931	102.458	0.071	-0.083
-518.916	275.728	-0.098	-0.175
-517.902	241.206	-0.060	0.100
-516.887	-0.145	-0.045	0.032
-515.872	-67.647	0.363	-0.143
-514.858	-200.000	-0.029	0.182
-513.843	-12.564	-0.289	-0.189
-512.829	-200.000	0.042	-0.483
-511.814	-53.610	0.288	0.132
-510.799	668.502	-0.054	0.141
-509.785	25.479	-0.297	-0.248
-508.770	-78.955	0.129	0.044
-507.756	-106.313	-0.103	0.023
-506.741	-131.818	0.233	-0.031
-505.726	-40.622	-0.408	0.213
-504.712	-18.323	0.214	0.134
-503.697	-92.988	0.340	0.095
-502.683	800.000	-0.105	-0.311
-501.668	-27.367	-0.157	-0.092
-500.653	-200.000	-0.043	0.200
-499.639	56.439	-0.133	0.129
-498.624	327.923	0.092	-0.177
-497.610	575.139	0.069	0.169
-496.595	132.357	0.084	0.109
-495.581	149.905	0.221	-0.301
-494.566	-124.940	-0.212	0.033
-493.551	-70.403	0.251	-0.096
-492.537	-145.008	0.142	-0.013
-491.522	-200.000	0.047	0.388
-490.508	574.797	0.034	-0.083
-489.493	-136.460	-0.149	-0.017
-488.478	201.654	-0.310	-0.479
-487.464	430.188	0.093	-0.201
-486.449	432.193	-0.030	0.065
-485.435	800.000	-0.042	-0.150
-484.420	800.000	0.042	0.174
-483.405	-31.991	0.145	-0.082
-482.391	-67.365	0.195	0.077
-481.376	123.632	-0.075	-0.094
-480.362	63.485	-0.076	-0.076
-479.347	315.260	-0.151	-0.286
-478.332	174.201	-0.073	-0.106
-477.318	296.409	-0.019	-0.035
-476.303	-129.195	0.281	-0.039
-475.289	12.425	-0.262	0.203
-474.274	387.342	0.125	0.258
-473.259	358.351	-0.090	-0.181
-472.245	65.386	-0.223	-0.226
-471.230	50.653	-0.194	-0.184
-470.216	-75.009	-0.384	-0.138
-469.201	417.452	0.096	-0.204
-468.186	-200.000	-0.026	-0.169
-467.172	275.717	-0.037	-0.065
-466.157	-59.513	0.236	-0.102
-465.143	-200.000	0.021	0.259
-464.128	-200.000	-0.067	-0.580
-463.113	-200.000	-0.036	0.240
-462.099	91.527	-0.098	-0.110
-461.084	37.284	-0.296	-0.263
-460.070	47.050	-0.227	0.212
-459.055	800.000	0.098	0.294
-458.040	-84.645	-0.041	0.013
-457.026	274.946	0.037	-0.065
-456.011	-171.556	-0.332	0.011
-454.997	-200.000	0.046	0.348
-453.982	-45.948	0.126	-0.063
-452.968	-200.000	0.104	-0.487
-451.953	-200.000	-0.006	-0.271
-450.938	-99.334	0.251	0.063
-449.924	800.000	0.117	0.336
-448.909	172.686	-0.169	-0.244
-447.895	-38.746	0.245	0.129
-446.880	-58.728	0.287	-0.124
-445.865	-101.721	0.314	-0.076
-444.851	-200.000	0.006	0.266
-443.836	-200.000	-0.020	0.272
-442.822	-130.130	-0.109	0.015
-441.807	150.889	-0.192	0.261
-440.792	-103.278	-0.053	-0.012
-439.778	-30.410	-0.366	0.208
-438.763	800.000	-0.076	0.240
-437.749	104.869	0.077	0.091
-436.734	-48.360	-0.135	0.065
-435.719	57.043	0.428	0.418
-434.705	-120.378	-0.266	0.045
-433.690	-158.611	0.168	0.010
-432.676	-36.047	-0.092	0.050
-431.661	-155.054	0.335	0.022
-430.646	59.849	0.119	0.118
-429.632	-61.824	0.142	-0.059
-428.617	-130.291	-0.064	-0.009
-427.603	-200.000	0.040	-0.304
-426.588	67.248	-0.190	0.194
-425.573	800.000	-0.083	-0.306
-424.559	-142.184	0.362	-0.036
-423.544	-83.035	0.167	0.054
-422.530	792.039	-0.136	-0.374
-421.515	-74.206	0.284	0.103
-420.500	800.000	-0.044	-0.177
-419.486	754.979	-0.115	-0.310
-418.471	499.427	-0.019	-0.044
-417.457	-162.834	0.063	-0.003
-416.442	-200.000	0.029	-0.185
-415.428	-69.837	0.161	-0.061
-414.413	-200.000	-0.029	-0.163
-413.398	8.749	-0.049	-0.037
-412.384	28.877	-0.097	0.082
-411.369	375.357	-0.102	-0.208
-410.355	-37.916	0.187	0.099
-409.340	-200.000	0.017	0.098
-408.325	2.187	-0.133	-0.096
-407.311	12.534	-0.291	0.224
-406.296	-52.290	0.342	0.158
-405.282	800.000	0.032	-0.108
-404.267	699.668	0.091	0.239
-403.252	48.448	0.197	-0.184
-402.238	-200.000	-0.038	0.192
-401.223	79.415	-0.333	0.357
-400.209	172.611	0.077	0.111
-399.194	82.223	-0.074	-0.081
-398.179	-29.807	0.344	-0.196
-397.165	-200.000	-0.015	0.173
-396.150	268.973	-0.079	-0.138
-395.136	437.892	0.127	0.277
-394.121	-28.926	0.347	0.199
-393.106	27.762	-0.080	-0.068
-392.092	143.694	0.063	-0.085
-391.077	-34.937	-0.328	0.179
-390.063	-200.000	0.029	0.320
-389.048	234.162	-0.146	-0.239
-388.033	94.686	-0.052	-0.059
-387.019	-149.908	-0.176	-0.014
-386.004	162.689	0.130	0.183
-384.990	137.642	0.082	-0.108
-383.975	-200.000	-0.016	0.194
-382.960	-200.000	-0.003	-0.301
-381.946	300.393	0.065	0.119
-380.931	204.794	-0.046	0.072
-379.917	-144.708	-0.200	0.018
-378.902	-173.113	0.279	-0.009
-377.888	-114.326	-0.338	0.065
-376.873	174.674	0.104	-0.151
-375.858	-85.839	-0.191	-0.059
-374.844	-200.000	-0.000	0.278
-373.829	-200.000	-0.024	0.216
-372.815	-10.011	0.211	0.140
-371.800	-22.900	-0.406	-0.244
-370.785	-70.520	-0.109	0.041
-369.771	-48.099	-0.000	-0.000
-368.756	-200.000	0.017	0.474
-367.742	800.000	0.047	0.146
-366.727	115.255	0.127	0.155
-365.712	-138.410	-0.136	-0.015
-364.698	96.681	-0.153	-0.175
-363.683	202.870	-0.151	0.233
-362.669	345.375	-0.073	-0.143
-361.654	-76.045	-0.190	0.067
-360.639	800.000	-0.103	-0.379
-359.625	-200.000	0.002	-0.473
-358.610	353.332	0.243	0.480
-357.596	-21.043	0.222	0.136
-356.581	-200.000	-0.019	0.129
-355.566	-170.408	-0.075	0.003
-354.552	104.648	0.152	-0.179
-353.537	140.401	0.166	-0.218
-352.523	752.557	-0.024	0.063
-351.508	183.050	0.210	0.309
-350.493	208.815	0.088	-0.137
-349.479	-50.446	-0.092	-0.043
-348.464	-200.000	0.043	0.213
-347.450	80.297	0.280	-0.301
-346.435	484.119	0.048	-0.108
-345.420	800.000	0.097	0.295
-344.406	659.541	-0.015	0.039
-343.391	30.527	0.234	-0.199
-342.377	133.896	0.109	-0.140
-341.362	-120.466	-0.114	0.019
-340.348	85.539	0.138	0.151
-339.333	13.960	-0.194	0.150
-338.318	-124.405	-0.175	-0.027
-337.304	-200.000	0.001	0.248
-336.289	-112.592	0.322	0.064
-335.275	-200.000	0.040	-0.211
-334.260	-87.588	-0.152	-0.046
-333.245	383.182	0.114	0.234
-332.231	800.000	0.021	0.090
-331.216	-190.882	-0.222	0.002
-330.202	-140.360	-0.251	0.026
-329.187	282.670	-0.103	0.184
-328.172	-27.276	-0.257	0.149
-327.158	6.782	-0.272	-0.202
-326.143	17.617	-0.249	-0.197
-325.129	191.395	0.230	0.345
-324.114	-93.386	-0.424	-0.117
-323.099	800.000	-0.025	0.071
-322.085	-42.603	-0.168	-0.085
-321.070	91.741	0.107	0.120
-320.056	121.407	0.078	-0.096
-319.041	3.165	-0.151	-0.110
-318.026	-164.891	-0.157	0.007
-317.012	800.000	0.060	-0.192
-315.997	13.203	-0.123	-0.095
-314.983	-200.000	-0.035	0.294
-313.968	-200.000	-0.065	-0.341
-312.953	201.929	-0.103	-0.158
-311.939	-113.639	0.363	0.071
-310.924	-77.569	0.070	0.024
-309.910	-44.118	0.150	-0.075
-308.895	800.000	-0.110	-0.336
-307.880	-200.000	0.013	0.267
-306.866	-38.082	-0.265	-0.140
-305.851	-96.700	0.230	0.060
-304.837	265.868	0.092	0.160
-303.822	-200.000	0.011	0.110
-302.807	25.054	-0.088	-0.073
-301.793	200.454	-0.049	0.075
-300.778	66.283	0.218	0.220
-299.764	-30.169	0.194	0.110
-298.749	179.355	0.151	-0.219
-297.735	-200.000	-0.076	-0.418
-296.720	30.111	0.166	-0.141
-295.705	107.506	0.083	0.098
-294.691	-21.206	0.180	0.110
-293.676	226.454	0.082	-0.132
-292.662	-23.518	-0.061	0.036
-291.647	54.718	0.147	-0.141
-290.632	79.435	0.222	-0.237
-289.618	-200.000	-0.027	-0.313
-288.603	97.410	-0.180	-0.206
-287.589	-113.842	0.442	0.086
-286.574	-62.530	-0.283	-0.117
-285.559	-28.948	-0.555	-0.317
-284.545	-200.000	0.072	-0.546
-283.530	-50.590	0.117	-0.055
-282.516	-8.848	-0.148	-0.099
-281.501	53.648	0.147	-0.140
-280.486	-72.368	0.040	-0.015
-279.472	-200.000	0.037	0.394
-278.457	800.000	0.054	-0.157
-277.443	-200.000	0.034	0.201
-276.428	-33.760	-0.084	-0.046
-275.413	-39.034	0.114	-0.060
-274.399	-200.000	-0.209	0.001
-273.384	113.324	-0.119	0.143
-272.370	800.000	0.041	-0.166
-271.355	800.000	0.014	-0.042
-270.340	113.374	-0.115	-0.139
-269.326	-9.904	0.218	0.144
-268.311	800.000	-0.028	-0.110
-267.297	67.041	0.116	-0.117
-266.282	-200.000	0.017	0.200
-265.267	-200.000	0.004	-0.087
-264.253	294.316	0.115	0.209
-263.238	-200.000	0.023	0.108
-262.224	444.695	0.032	-0.070
-261.209	-200.000	0.013	0.157
-260.195	16.381	-0.091	0.071
-259.180	2.808	-0.124	-0.089
-258.165	800.000	-0.053	0.176
-257.151	-76.970	-0.471	-0.164
-256.136	18.658	-0.147	-0.117
-255.122	-200.000	-0.067	-0.344
-254.107	-2.875	0.182	-0.127
-253.092	-91.557	0.234	0.066
-252.078	8.805	0.298	-0.224
-251.063	18.940	0.130	-0.104
-250.049	-82.005	0.122	-0.040
-249.034	800.000	-0.064	-0.178
-248.019	189.884	0.189	0.281
-247.005	-109.576	-0.114	-0.024
-245.990	768.078	-0.075	0.204
-244.976	-108.802	-0.350	0.074
-243.961	800.000	-0.067	0.202
-242.946	800.000	-0.105	0.355
-241.932	-200.000	0.075	0.329
-240.917	800.000	0.017	0.052
-239.903	800.000	0.030	0.107
-238.888	-200.000	-0.023	0.286
-237.873	-200.000	-0.005	0.135
-236.859	-200.000	0.062	-0.307
-235.844	37.452	0.108	-0.095
-234.830	129.232	0.187	0.237
-233.815	800.000	0.035	-0.127
-232.800	-200.000	0.005	-0.128
-231.786	517.713	0.030	0.070
-230.771	800.000	-0.044	0.151
-229.757	311.046	0.054	0.101
-228.742	20.386	-0.175	0.140
-227.727	800.000	0.124	0.382
-226.713	-36.804	0.197	0.105
-225.698	58.013	0.128	-0.124
-224.684	800.000	-0.077	0.307
-223.669	699.853	-0.104	-0.273
-222.655	238.840	0.145	0.239
-221.640	-178.349	-0.062	0.001
-220.625	-200.000	-0.040	-0.309
-219.611	-171.560	0.436	0.014
-218.596	46.375	0.098	0.091
-217.582	800.000	0.027	0.099
-216.567	-200.000	0.112	0.490
-215.552	7.642	0.091	0.068
-214.538	-200.000	-0.032	-0.276
-213.523	-200.000	0.053	0.432
-212.509	-200.000	-0.005	-0.172
-211.494	-88.603	-0.030	-0.009
-210.479	-55.126	-0.158	0.070
-209.465	800.000	0.070	0.240
-208.450	-128.181	-0.237	0.034
-207.436	-200.000	-0.021	0.226
-206.421	-38.515	0.155	-0.081
-205.406	135.721	-0.050	-0.065
-204.392	-151.521	-0.073	0.005
-203.377	95.978	0.305	-0.346
-202.363	-174.908	-0.087	0.002
-201.348	540.435	-0.020	-0.047
-200.333	236.400	0.123	-0.201
-199.319	800.000	0.106	-0.290
-198.304	265.116	0.050	-0.086
-197.290	66.268	0.104	-0.105
-196.275	800.000	0.041	0.146
-195.260	-141.132	-0.193	0.020
-194.246	800.000	0.072	-0.300
-193.231	7.489	0.305	-0.226
-192.217	281.877	0.073	0.130
-191.202	800.000	-0.062	0.231
-190.187	89.739	0.122	0.135
-189.173	-141.449	-0.071	0.007
-188.158	-66.517	-0.273	0.107
-187.144	157.882	-0.437	0.600
-186.129	800.000	0.108	-0.312
-185.114	-139.827	-0.220	0.023
-184.100	674.777	-0.063	0.162
-183.085	-85.017	-0.308	-0.096
-182.071	247.121	0.071	0.119
-181.056	800.000	-0.070	0.288
-180.042	393.919	0.167	0.345
-179.027	800.000	0.029	-0.106
-178.012	463.753	-0.060	0.132
-176.998	-30.623	-0.111	0.063
-175.983	-77.562	0.091	-0.031
-174.969	-56.948	-0.155	-0.068
-173.954	281.068	0.233	-0.414
-172.939	-105.767	-0.220	0.049
-171.925	-70.795	-0.259	0.097
-170.910	-200.000	-0.047	-0.263
-169.896	393.548	-0.080	0.164
-168.881	-120.407	0.312	0.053
-167.866	-115.277	-0.191	-0.036
-166.852	-200.000	-0.042	0.264
-165.837	613.809	-0.060	0.149
-164.823	237.799	-0.163	0.267
-163.808	602.320	0.069	-0.170
-162.793	0.330	-0.216	-0.152
-161.779	-200.000	0.006	-0.082
-160.764	-45.924	0.154	-0.075
-159.750	566.277	0.071	0.170
-158.735	-44.833	-0.212	0.105
-157.720	-200.000	0.032	-0.142
-156.706	16.428	-0.167	0.131
-155.691	615.015	0.111	-0.276
-154.677	39.129	-0.209	-0.185
-153.662	-149.849	-0.324	0.025
-152.647	217.875	0.023	-0.036
-151.633	158.365	0.244	0.335
-150.618	800.000	0.044	-0.126
-149.604	394.082	-0.110	-0.226
-148.589	-46.650	-0.192	-0.093
-147.574	297.565	0.147	0.267
-146.560	-35.130	0.105	-0.056
-145.545	-148.141	0.442	0.036
-144.531	-116.575	-0.114	-0.021
-143.516	17.660	-0.157	0.123
-142.502	297.061	0.082	-0.150
-141.487	149.722	0.193	0.259
-140.472	-69.809	0.291	0.110
-139.458	-65.233	-0.172	0.068
-138.443	-158.864	0.229	-0.013
-137.429	800.000	0.109	-0.381
-136.414	684.703	0.078	0.203
-135.399	104.220	0.129	0.151
-134.385	800.000	-0.020	-0.085
-133.370	-110.773	0.239	0.049
-132.356	-66.700	-0.242	0.095
-131.341	279.353	-0.104	-0.183
-130.326	488.749	0.087	0.196
-129.312	-53.226	-0.208	0.095
-128.297	135.116	-0.151	0.194
-127.283	259.201	-0.112	-0.191
-126.268	315.280	0.067	0.124
-125.253	-96.907	-0.137	0.036
-124.239	-200.000	-0.008	0.145
-123.224	93.705	-0.099	-0.111
-122.210	-200.000	-0.016	0.154
-121.195	-200.000	0.029	0.275
-120.180	-169.375	0.366	0.013
