DTS Sentinel unit serial number:	SN413079Multiplexer serial number:	ORYXHardware model number:	OX4-SRSoftware version number:	ORYX F/W v4.00 Oryx Data Collector v3.7.2.0data status	okinstallation	princeton_trtdifferential loss correction	single-endedforward channel	channel 4reverse channel	N/Adate	2019/09/12time	17:11:10forward acquisition time	60.00reverse acquisition time	0.00gamma	496.2192k internal	0.2307k external	0.2307temperature offset calibration	1.0126default loss term (dB/km)	0.3790temperature slope calibration	1.0000multiplexer offset coefficient	1.0000multiplexer slope coefficient	1.0000fibre end	0.00T internal ref (°C)	35.30T ext. ref 1 (°C)	2.78T ext. ref 2 (°C)	28.81length (m)	temperature (°C)	Stokes	anti-Stokes-747.200	235.784	0.145	-0.243
-746.185	-200.000	-0.019	0.129
-745.171	-156.799	-0.094	-0.006
-744.156	-200.000	-0.015	0.182
-743.142	238.311	0.028	0.047
-742.127	800.000	-0.070	0.275
-741.112	373.345	0.072	-0.148
-740.098	234.264	-0.090	0.151
-739.083	-81.999	0.363	0.121
-738.069	400.052	0.115	0.246
-737.054	-79.309	-0.192	-0.066
-736.039	-200.000	0.042	0.238
-735.025	-121.726	0.398	0.067
-734.010	-117.020	0.231	0.043
-732.996	116.631	-0.147	-0.183
-731.981	75.908	0.016	0.017
-730.966	800.000	0.081	0.234
-729.952	179.505	-0.028	-0.042
-728.937	-20.564	0.180	-0.113
-727.923	-64.673	-0.201	0.083
-726.908	-194.058	-0.343	0.003
-725.894	-116.967	0.167	0.031
-724.879	68.443	-0.352	-0.367
-723.864	-162.887	-0.060	-0.003
-722.850	800.000	-0.062	0.201
-721.835	-200.000	0.020	-0.132
-720.821	135.539	0.128	0.169
-719.806	-200.000	-0.036	0.380
-718.791	-28.481	-0.164	0.096
-717.777	525.112	0.096	-0.229
-716.762	-118.191	0.358	0.065
-715.748	96.578	0.087	0.102
-714.733	743.285	-0.054	-0.147
-713.718	67.987	0.137	0.142
-712.704	-200.000	-0.039	-0.220
-711.689	45.308	-0.029	-0.027
-710.675	-41.830	-0.093	0.049
-709.660	465.243	0.091	-0.206
-708.645	218.766	-0.086	0.140
-707.631	800.000	-0.033	-0.093
-706.616	253.958	-0.111	-0.193
-705.602	-2.748	-0.108	-0.077
-704.587	-132.498	-0.318	0.042
-703.572	-92.244	0.198	0.057
-702.558	151.139	0.244	0.338
-701.543	-200.000	-0.023	-0.255
-700.529	-200.000	0.011	-0.162
-699.514	-200.000	0.006	0.078
-698.499	314.050	0.083	-0.159
-697.485	-200.000	0.053	-0.258
-696.470	-200.000	0.006	0.236
-695.456	94.537	-0.163	-0.188
-694.441	91.401	-0.223	0.254
-693.426	-51.971	0.168	0.079
-692.412	-62.145	-0.212	-0.090
-691.397	-129.089	-0.400	0.057
-690.383	26.486	-0.139	-0.118
-689.368	-180.334	-0.400	-0.008
-688.354	39.690	-0.073	-0.066
-687.339	14.681	-0.531	0.421
-686.324	169.672	-0.071	0.103
-685.310	-115.448	-0.244	-0.047
-684.295	702.504	-0.129	0.346
-683.281	-28.065	-0.078	-0.046
-682.266	582.476	0.074	0.185
-681.251	-157.576	-0.132	0.008
-680.237	-9.095	0.200	-0.136
-679.222	335.450	-0.078	-0.153
-678.208	9.056	-0.177	0.135
-677.193	-51.347	0.209	0.099
-676.178	757.824	0.065	0.179
-675.164	-111.058	0.286	-0.059
-674.149	35.570	-0.209	-0.186
-673.135	-63.943	-0.244	-0.101
-672.120	-200.000	-0.021	0.171
-671.105	-49.844	-0.096	-0.046
-670.091	225.686	-0.035	0.058
-669.076	542.603	0.152	-0.367
-668.062	-53.631	0.037	-0.017
-667.047	-200.000	-0.048	0.394
-666.032	-37.215	0.267	0.145
-665.018	-57.511	0.233	0.103
-664.003	340.729	-0.142	-0.280
-662.989	-103.952	0.402	0.095
-661.974	206.775	0.094	-0.149
-660.959	49.106	-0.274	-0.261
-659.945	-83.757	0.045	0.014
-658.930	-200.000	0.019	0.320
-657.916	-200.000	-0.038	0.468
-656.901	-200.000	0.021	-0.131
-655.886	-138.041	0.035	0.004
-654.872	-40.910	-0.207	0.108
-653.857	64.491	0.043	-0.044
-652.843	72.872	-0.160	-0.169
-651.828	-84.716	-0.341	0.109
-650.814	800.000	0.068	-0.211
-649.799	52.026	0.204	-0.196
-648.784	141.865	-0.048	-0.064
-647.770	495.748	-0.055	-0.129
-646.755	-140.689	-0.133	-0.014
-645.741	0.895	0.228	-0.165
-644.726	262.680	0.106	-0.187
-643.711	-200.000	-0.012	0.112
-642.697	-200.000	0.051	0.480
-641.682	-200.000	-0.020	0.171
-640.668	425.494	-0.033	0.072
-639.653	-200.000	-0.018	-0.156
-638.638	65.747	-0.084	-0.086
-637.624	172.308	0.091	-0.132
-636.609	60.369	0.076	0.076
-635.595	-115.344	-0.319	-0.061
-634.580	-39.345	-0.270	-0.143
-633.565	-67.855	-0.263	-0.104
-632.551	-134.041	0.349	0.044
-631.536	-200.000	0.026	0.635
-630.522	-118.173	-0.204	0.037
-629.507	-33.614	0.149	0.083
-628.492	-13.281	-0.037	-0.024
-627.478	-200.000	0.011	0.173
-626.463	36.224	0.172	-0.154
-625.449	800.000	-0.039	-0.146
-624.434	-99.741	-0.136	0.034
-623.419	-200.000	-0.015	0.170
-622.405	442.395	-0.136	0.301
-621.390	-18.812	0.170	0.107
-620.376	-106.159	-0.303	-0.069
-619.361	-51.468	0.186	-0.088
-618.346	-156.651	0.243	0.015
-617.332	-171.416	-0.191	0.006
-616.317	299.396	0.034	0.064
-615.303	-7.411	0.195	-0.133
-614.288	-200.000	-0.010	0.237
-613.273	125.586	-0.141	-0.180
-612.259	-21.210	0.092	-0.057
-611.244	800.000	0.050	0.149
-610.230	-68.116	-0.235	-0.093
-609.215	-87.244	-0.182	0.056
-608.201	1.455	-0.383	-0.279
-607.186	113.832	0.327	0.403
-606.171	278.433	-0.067	0.120
-605.157	-5.732	0.076	0.053
-604.142	697.605	0.139	0.370
-603.128	-84.668	0.250	-0.080
-602.113	181.242	0.028	-0.041
-601.098	49.880	0.114	-0.109
-600.084	800.000	0.018	-0.079
-599.069	124.602	0.084	-0.107
-598.055	800.000	-0.084	-0.240
-597.040	-65.040	-0.274	0.112
-596.025	249.788	-0.195	0.334
-595.011	-200.000	0.027	0.132
-593.996	800.000	-0.035	-0.104
-592.982	-200.000	0.017	0.165
-591.967	-70.956	-0.030	-0.012
-590.952	133.657	-0.072	-0.094
-589.938	-188.786	-0.182	-0.002
-588.923	-72.779	0.223	-0.083
-587.909	-115.111	-0.340	0.065
-586.894	-114.495	-0.352	0.068
-585.879	-113.406	0.371	-0.074
-584.865	-14.459	-0.226	-0.147
-583.850	207.314	0.114	-0.179
-582.836	3.594	-0.192	0.141
-581.821	-200.000	-0.023	0.276
-580.806	274.546	0.132	-0.237
-579.792	800.000	0.037	0.154
-578.777	-140.867	-0.404	-0.042
-577.763	355.433	-0.047	0.095
-576.748	269.599	0.159	0.281
-575.733	775.570	-0.142	-0.391
-574.719	570.410	-0.096	0.236
-573.704	-61.459	-0.139	0.059
-572.690	34.088	-0.128	-0.112
-571.675	-123.531	-0.559	0.090
-570.661	345.762	-0.048	0.095
-569.646	-140.296	0.065	-0.007
-568.631	800.000	-0.085	-0.269
-567.617	-57.836	-0.315	-0.139
-566.602	69.629	0.143	0.149
-565.588	-107.176	-0.170	-0.038
-564.573	-200.000	0.025	0.186
-563.558	698.678	-0.046	0.123
-562.544	-92.807	-0.156	-0.044
-561.529	-200.000	0.009	-0.091
-560.515	-106.197	0.253	0.057
-559.500	-140.360	0.254	0.027
-558.485	61.980	-0.136	0.137
-557.471	129.228	-0.167	0.215
-556.456	7.243	-0.090	0.068
-555.442	800.000	0.011	-0.033
-554.427	-40.092	-0.484	0.255
-553.412	-198.712	-0.083	-0.000
-552.398	82.953	0.144	0.158
-551.383	542.271	0.200	0.480
-550.369	-149.753	-0.345	-0.027
-549.354	1.500	-0.143	0.104
-548.339	-173.021	0.178	0.006
-547.325	-120.210	-0.529	-0.091
-546.310	-90.179	0.435	0.128
-545.296	-134.694	-0.111	0.014
-544.281	-69.771	-0.167	0.064
-543.266	-176.067	0.372	0.010
-542.252	-107.655	0.110	0.024
-541.237	309.834	0.098	0.185
-540.223	-109.825	-0.197	0.042
-539.208	316.790	-0.144	-0.275
-538.193	61.580	-0.155	-0.156
-537.179	-200.000	-0.028	0.133
-536.164	-139.336	-0.196	-0.021
-535.150	800.000	0.024	-0.077
-534.135	78.975	0.203	-0.219
-533.121	-200.000	-0.015	-0.180
-532.106	525.625	-0.214	-0.507
-531.091	800.000	-0.063	0.222
-530.077	-101.234	-0.350	-0.086
-529.062	-37.880	0.074	0.040
-528.048	-184.602	-0.196	-0.003
-527.033	234.091	0.206	-0.342
-526.018	-143.609	0.143	0.014
-525.004	-119.401	0.026	-0.005
-523.989	-200.000	0.030	0.183
-522.975	-62.817	-0.148	-0.062
-521.960	-75.742	0.164	0.059
-520.945	-173.799	0.144	-0.004
-519.931	-139.011	0.382	-0.042
-518.916	50.377	0.110	0.104
-517.902	35.058	-0.185	0.163
-516.887	-34.780	-0.125	-0.069
-515.872	303.394	0.118	-0.220
-514.858	706.305	0.061	0.163
-513.843	72.116	-0.018	-0.019
-512.829	547.033	-0.085	-0.204
-511.814	-56.631	0.453	-0.202
-510.799	22.456	0.156	-0.129
-509.785	179.572	-0.151	-0.222
-508.770	39.894	-0.131	-0.118
-507.756	800.000	-0.040	-0.129
-506.741	-118.255	0.145	-0.026
-505.726	-4.799	-0.120	-0.084
-504.712	227.870	0.002	0.003
-503.697	303.323	-0.095	0.178
-502.683	800.000	-0.052	-0.155
-501.668	6.348	0.325	0.243
-500.653	-75.400	-0.028	0.010
-499.639	-82.811	0.222	0.072
-498.624	-114.474	-0.191	0.037
-497.610	192.831	-0.176	-0.269
-496.595	88.057	0.037	0.041
-495.581	-59.032	-0.089	-0.039
-494.566	800.000	0.019	0.053
-493.551	-81.525	-0.137	-0.045
-492.537	95.589	-0.279	-0.320
-491.522	800.000	-0.101	0.383
-490.508	-97.531	-0.148	0.039
-489.493	680.379	-0.039	-0.102
-488.478	-154.091	0.217	0.015
-487.464	15.958	-0.089	-0.071
-486.449	-200.000	0.007	0.099
-485.435	379.150	0.134	0.277
-484.420	174.851	-0.179	-0.261
-483.405	-200.000	-0.024	0.443
-482.391	-85.227	-0.129	-0.040
-481.376	210.731	-0.251	-0.397
-480.362	-200.000	0.034	-0.266
-479.347	-113.799	0.139	0.027
-478.332	-135.954	0.170	0.020
-477.318	-68.917	0.192	0.075
-476.303	-200.000	-0.080	-0.357
-475.289	-200.000	0.018	-0.098
-474.274	-131.378	0.219	0.029
-473.259	-200.000	0.041	0.293
-472.245	800.000	0.029	-0.093
-471.230	-96.301	0.141	-0.038
-470.216	80.301	-0.137	0.148
-469.201	20.648	0.255	0.208
-468.186	-76.059	0.164	-0.058
-467.172	163.014	0.206	0.292
-466.157	-155.914	-0.302	-0.019
-465.143	18.957	-0.288	-0.233
-464.128	-110.558	-0.151	-0.031
-463.113	-160.741	0.291	-0.015
-462.099	-86.313	0.117	-0.036
-461.084	-21.114	0.315	-0.194
-460.070	286.331	-0.241	0.438
-459.055	235.803	-0.071	-0.117
-458.040	2.259	0.098	0.071
-457.026	305.676	-0.223	0.416
-456.011	8.131	-0.323	-0.244
-454.997	-50.520	0.081	-0.039
-453.982	124.761	-0.033	0.041
-452.968	260.852	0.166	0.288
-451.953	-47.303	-0.301	0.147
-450.938	-144.808	0.139	0.013
-449.924	280.490	0.237	0.426
-448.909	29.470	-0.366	-0.313
-447.895	21.863	0.177	-0.145
-446.880	800.000	0.054	0.194
-445.865	-168.067	-0.215	0.008
-444.851	539.135	-0.056	0.133
-443.836	-200.000	0.013	-0.143
-442.822	529.609	0.100	-0.237
-441.807	800.000	0.060	0.212
-440.792	800.000	-0.074	-0.241
-439.778	180.032	-0.109	-0.161
-438.763	3.097	-0.220	-0.161
-437.749	-64.206	0.061	0.025
-436.734	-200.000	-0.061	-0.366
-435.719	-119.464	0.271	0.047
-434.705	31.577	0.059	0.051
-433.690	404.867	-0.090	-0.191
-432.676	86.657	0.207	-0.229
-431.661	-171.742	-0.090	-0.003
-430.646	800.000	0.075	0.233
-429.632	-200.000	0.007	-0.101
-428.617	800.000	0.080	-0.271
-427.603	-49.007	-0.113	-0.054
-426.588	-83.496	0.418	-0.134
-425.573	-200.000	0.029	-0.157
-424.559	-87.536	0.121	-0.037
-423.544	135.772	0.227	0.297
-422.530	223.079	-0.211	-0.342
-421.515	-7.728	0.293	-0.199
-420.500	151.940	-0.107	0.147
-419.486	67.836	0.119	-0.122
-418.471	-200.000	0.018	0.092
-417.457	242.398	-0.040	-0.067
-416.442	56.188	0.224	-0.219
-415.428	-1.907	0.138	0.098
-414.413	244.923	-0.120	-0.202
-413.398	136.599	0.117	0.153
-412.384	54.472	0.167	0.161
-411.369	69.125	-0.152	-0.157
-410.355	-10.699	0.404	-0.268
-409.340	-37.434	0.343	-0.184
-408.325	800.000	-0.079	-0.280
-407.311	-133.635	-0.150	-0.019
-406.296	-78.529	-0.254	-0.087
-405.282	-85.999	0.238	-0.074
-404.267	-200.000	-0.001	0.235
-403.252	-200.000	0.021	-0.242
-402.238	800.000	0.081	-0.246
-401.223	205.743	0.074	0.115
-400.209	-95.744	-0.190	0.051
-399.194	-10.604	-0.214	0.142
-398.179	-67.575	-0.129	0.051
-397.165	800.000	0.094	-0.305
-396.150	-200.000	0.040	-0.335
-395.136	236.785	0.125	0.208
-394.121	190.170	-0.124	-0.187
-393.106	-122.747	0.220	0.036
-392.092	-200.000	0.009	0.145
-391.077	-174.780	-0.388	-0.011
-390.063	-200.000	-0.010	-0.051
-389.048	22.251	-0.191	0.156
-388.033	-61.388	0.086	0.036
-387.019	-112.714	-0.183	0.036
-386.004	120.702	-0.130	0.162
-384.990	-200.000	0.008	-0.209
-383.975	-125.419	0.160	0.024
-382.960	26.809	0.093	0.078
-381.946	125.082	-0.163	-0.206
-380.931	115.032	-0.067	-0.082
-379.917	800.000	0.043	0.139
-378.902	43.590	0.237	-0.217
-377.888	-52.927	0.241	0.111
-376.873	609.607	-0.018	-0.045
-375.858	158.740	-0.135	-0.188
-374.844	800.000	-0.021	0.067
-373.829	81.387	0.100	-0.108
-372.815	33.281	-0.038	-0.033
-371.800	-95.860	-0.057	-0.015
-370.785	-8.897	0.334	-0.224
-369.771	304.539	-0.128	-0.238
-368.756	224.271	0.137	-0.221
-367.742	-200.000	0.070	0.411
-366.727	-200.000	0.007	-0.273
-365.712	268.687	-0.155	0.272
-364.698	-69.709	0.305	0.117
-363.683	-200.000	-0.049	-0.245
-362.669	-107.488	0.064	-0.014
-361.654	-200.000	-0.002	-0.037
-360.639	67.539	0.177	-0.181
-359.625	800.000	-0.075	-0.223
-358.610	800.000	0.047	-0.199
-357.596	33.652	-0.048	0.042
-356.581	-29.130	-0.085	0.049
-355.566	18.578	0.264	0.212
-354.552	800.000	-0.092	0.368
-353.537	-2.645	0.118	0.083
-352.523	-200.000	-0.029	-0.548
-351.508	310.510	-0.124	-0.233
-350.493	496.231	0.112	0.258
-349.479	204.344	0.195	-0.303
-348.464	116.144	-0.154	-0.189
-347.450	667.715	-0.159	-0.411
-346.435	83.347	0.057	0.063
-345.420	800.000	-0.058	-0.226
-344.406	-200.000	-0.006	0.173
-343.391	-200.000	0.045	-0.227
-342.377	164.867	0.206	-0.291
-341.362	-200.000	0.003	0.016
-340.348	-74.138	0.214	-0.077
-339.333	72.780	0.234	0.245
-338.318	-71.161	0.131	0.049
-337.304	800.000	0.088	-0.244
-336.289	-54.688	-0.203	-0.092
-335.275	-50.875	-0.064	-0.030
-334.260	157.817	-0.085	0.118
-333.245	15.067	-0.075	-0.059
-332.231	-169.254	0.277	-0.010
-331.216	40.353	0.183	0.165
-330.202	-100.348	-0.260	-0.065
-329.187	757.391	-0.069	-0.187
-328.172	800.000	0.051	-0.212
-327.158	273.703	-0.019	-0.034
-326.143	-200.000	0.009	0.160
-325.129	-122.709	0.223	0.036
-324.114	-99.410	0.071	-0.018
-323.099	26.952	0.277	0.232
-322.085	-118.009	0.391	-0.070
-321.070	-134.366	0.594	0.073
-320.056	98.638	0.155	-0.178
-319.041	241.744	0.279	-0.466
-318.026	-20.817	0.052	0.032
-317.012	-55.779	-0.108	-0.048
-315.997	145.111	-0.070	0.094
-314.983	-73.178	0.273	0.100
-313.968	-200.000	0.002	-0.036
-312.953	-77.082	-0.495	-0.172
-311.939	544.839	0.099	-0.236
-310.924	383.469	0.066	0.136
-309.910	800.000	0.020	-0.059
-308.895	-93.960	-0.409	-0.112
-307.880	28.194	-0.056	-0.047
-306.866	-200.000	-0.022	0.133
-305.851	-102.262	0.349	0.084
-304.837	-130.485	-0.407	-0.055
-303.822	800.000	0.037	-0.125
-302.807	732.462	-0.009	0.025
-301.793	-25.611	0.097	0.057
-300.778	-145.504	-0.291	0.026
-299.764	313.145	0.152	0.286
-298.749	-52.076	-0.150	0.070
-297.735	335.099	0.101	-0.196
-296.720	-194.889	0.279	-0.002
-295.705	-109.840	-0.179	0.038
-294.691	101.457	-0.057	0.066
-293.676	200.656	0.173	0.266
-292.662	-122.780	-0.030	-0.005
-291.647	-138.684	0.407	0.044
-290.632	-200.000	-0.035	0.216
-289.618	98.411	0.097	-0.112
-288.603	-41.719	-0.117	0.060
-287.589	800.000	0.118	0.376
-286.574	-47.589	0.269	0.131
-285.559	523.798	-0.049	0.114
-284.545	-82.661	-0.050	-0.016
-283.530	-86.328	-0.178	0.055
-282.516	-72.932	-0.402	0.148
-281.501	377.386	-0.096	0.195
-280.486	-41.629	-0.266	0.137
-279.472	16.886	-0.148	-0.117
-278.457	-187.390	-0.083	-0.001
-277.443	-200.000	0.023	0.100
-276.428	592.470	-0.083	-0.206
-275.413	478.672	-0.060	-0.136
-274.399	298.121	0.185	-0.339
-273.384	-99.112	0.077	0.020
-272.370	79.900	-0.108	0.115
-271.355	593.765	0.185	-0.457
-270.340	74.084	0.184	-0.192
-269.326	800.000	0.083	-0.231
-268.311	3.004	0.085	-0.062
-267.297	-112.558	-0.241	0.048
-266.282	104.480	0.045	-0.053
-265.267	-78.140	0.290	-0.100
-264.253	311.617	0.116	0.217
-263.238	-161.454	-0.427	-0.022
-262.224	-200.000	-0.050	0.412
-261.209	800.000	-0.045	0.148
-260.195	-55.698	-0.299	-0.133
-259.180	11.029	0.162	-0.123
-258.165	-169.729	0.286	-0.010
-257.151	-61.087	-0.359	-0.151
-256.136	-200.000	-0.005	0.104
-255.122	-200.000	0.056	0.325
-254.107	-181.417	0.353	-0.007
-253.092	-200.000	0.018	0.111
-252.078	-115.956	-0.069	0.013
-251.063	199.595	-0.130	0.200
-250.049	64.771	0.207	0.208
-249.034	49.625	0.254	0.239
-248.019	430.256	-0.074	-0.160
-247.005	800.000	-0.043	0.124
-245.990	-111.417	0.072	0.015
-244.976	65.659	-0.081	0.082
-243.961	-68.209	0.175	0.068
-242.946	234.938	-0.123	0.202
-241.932	800.000	0.065	-0.194
-240.917	-200.000	0.003	0.112
-239.903	-94.486	-0.258	-0.070
-238.888	-200.000	-0.053	-0.249
-237.873	133.612	-0.167	0.216
-236.859	66.654	-0.048	0.049
-235.844	-67.047	-0.216	0.085
-234.830	30.283	0.088	0.075
-233.815	-101.149	-0.291	-0.071
-232.800	-65.494	-0.338	-0.135
-231.786	58.837	-0.147	0.144
-230.771	70.439	0.259	0.267
-229.757	-200.000	0.014	0.197
-228.742	-200.000	-0.001	-0.043
-227.727	153.994	0.087	0.119
-226.713	-119.295	0.202	0.035
-225.698	81.301	0.099	-0.106
-224.684	-200.000	0.043	0.230
-223.669	-55.737	0.160	0.071
-222.655	193.446	0.152	-0.230
-221.640	-200.000	0.040	-0.358
-220.625	-200.000	-0.031	0.158
-219.611	58.478	0.132	0.129
-218.596	56.286	0.160	-0.155
-217.582	161.924	-0.136	-0.189
-216.567	800.000	0.096	0.295
-215.552	-119.183	0.090	0.016
-214.538	800.000	0.031	0.098
-213.523	-200.000	-0.008	0.084
-212.509	-133.933	0.102	0.013
-211.494	162.796	0.253	-0.354
-210.479	-83.478	0.138	-0.044
-209.465	4.938	-0.183	-0.134
-208.450	41.383	-0.211	-0.190
-207.436	-200.000	0.038	-0.191
-206.421	-130.446	-0.213	0.029
-205.406	21.331	-0.196	0.158
-204.392	-200.000	0.043	-0.240
-203.377	800.000	-0.024	0.101
-202.363	800.000	0.052	0.203
-201.348	-200.000	-0.017	0.098
-200.333	361.791	0.113	0.225
-199.319	800.000	0.102	0.380
-198.304	-164.132	0.439	-0.020
-197.290	-132.617	-0.233	-0.030
-196.275	-19.855	-0.349	0.214
-195.260	231.816	-0.081	0.132
-194.246	-200.000	0.070	0.310
-193.231	-200.000	0.052	0.232
-192.217	44.261	0.049	-0.045
-191.202	-54.235	0.431	0.195
-190.187	-63.822	-0.225	-0.092
-189.173	79.884	-0.199	0.212
-188.158	165.527	-0.025	-0.035
-187.144	168.949	-0.081	-0.115
-186.129	-68.318	0.080	0.031
-185.114	208.576	-0.100	0.156
-184.100	246.340	-0.089	-0.150
-183.085	800.000	-0.073	0.212
-182.071	-175.025	0.444	-0.012
-181.056	132.568	0.133	-0.171
-180.042	-200.000	0.042	0.254
-179.027	192.821	-0.113	0.170
-178.012	-101.641	0.178	-0.043
-176.998	-75.383	-0.240	0.085
-175.983	146.385	-0.031	-0.042
-174.969	70.249	0.152	0.156
-173.954	62.289	-0.149	0.148
-172.939	179.514	-0.131	0.191
-171.925	-94.787	-0.297	0.080
-170.910	59.621	0.038	0.037
-169.896	-98.631	0.137	0.035
-168.881	-125.381	0.260	-0.039
-167.866	-200.000	-0.004	-0.080
-166.852	13.393	-0.192	0.148
-165.837	-40.878	-0.299	-0.154
-164.823	800.000	0.139	-0.438
-163.808	-200.000	-0.016	0.127
-162.793	-136.863	-0.081	0.009
-161.779	-200.000	0.037	-0.290
-160.764	-200.000	0.048	-0.264
-159.750	17.833	0.143	0.114
-158.735	126.094	0.086	-0.108
-157.720	-200.000	0.039	0.366
-156.706	-176.344	0.072	-0.002
-155.691	563.979	-0.006	-0.014
-154.677	143.388	-0.244	0.323
-153.662	41.241	-0.186	0.167
-152.647	-200.000	-0.055	0.244
-151.633	-172.440	-0.264	-0.008
-150.618	147.448	0.029	0.039
-149.604	-200.000	0.008	0.242
-148.589	-98.830	0.158	0.040
-147.574	-200.000	-0.004	-0.153
-146.560	17.313	0.081	0.064
-145.545	800.000	0.030	0.088
-144.531	-74.782	0.083	-0.030
-143.516	-146.558	-0.380	-0.033
-142.502	800.000	0.039	-0.130
-141.487	-38.615	0.151	0.079
-140.472	-101.629	0.051	-0.012
-139.458	240.787	-0.128	0.212
-138.443	-200.000	-0.011	0.237
-137.429	-155.735	-0.266	0.017
-136.414	297.018	-0.139	-0.254
-135.399	-200.000	0.025	-0.309
-134.385	-130.956	-0.177	0.023
-133.370	800.000	-0.047	0.161
-132.356	-200.000	0.091	-0.403
-131.341	800.000	0.048	0.195
-130.326	-140.383	-0.214	0.022
-129.312	800.000	0.015	-0.048
-128.297	-200.000	0.026	0.343
-127.283	35.156	0.048	0.041
-126.268	-105.928	0.333	-0.074
-125.253	-200.000	0.015	0.134
-124.239	-130.833	-0.320	-0.043
-123.224	267.250	-0.281	0.488
-122.210	-129.330	0.216	-0.030
-121.195	497.183	0.024	0.055
