DTS Sentinel unit serial number:	SN413079Multiplexer serial number:	ORYXHardware model number:	OX4-SRSoftware version number:	ORYX F/W v4.00 Oryx Data Collector v3.7.2.0data status	okinstallation	princeton_trtdifferential loss correction	single-endedforward channel	channel 4reverse channel	N/Adate	2019/09/18time	20:01:35forward acquisition time	60.00reverse acquisition time	0.00gamma	496.2192k internal	0.2318k external	0.2318temperature offset calibration	1.0031default loss term (dB/km)	0.3790temperature slope calibration	1.0000multiplexer offset coefficient	1.0000multiplexer slope coefficient	1.0000fibre end	0.00T internal ref (°C)	30.27T ext. ref 1 (°C)	0.94T ext. ref 2 (°C)	20.83length (m)	temperature (°C)	Stokes	anti-Stokes-747.200	-23.622	-0.096	-0.058
-746.185	-132.397	-0.318	0.041
-745.171	-126.035	0.110	-0.017
-744.156	-200.000	-0.016	0.333
-743.142	-200.000	-0.004	0.048
-742.127	-100.923	0.390	-0.097
-741.112	-103.695	-0.209	0.050
-740.098	105.277	0.154	0.184
-739.083	2.930	0.272	0.200
-738.069	701.856	-0.127	0.337
-737.054	17.779	0.249	0.200
-736.039	94.042	-0.160	-0.183
-735.025	-63.267	0.191	-0.080
-734.010	46.716	-0.081	-0.076
-732.996	67.055	-0.092	-0.094
-731.981	-161.820	-0.196	0.010
-730.966	161.233	-0.085	-0.120
-729.952	105.357	0.106	-0.126
-728.937	168.605	0.163	-0.234
-727.923	-147.764	-0.149	0.013
-726.908	-75.163	-0.120	0.043
-725.894	-33.748	0.123	0.068
-724.879	-71.151	-0.312	0.119
-723.864	-200.000	0.005	0.074
-722.850	386.039	-0.107	-0.224
-721.835	-200.000	-0.065	0.399
-720.821	118.703	0.084	0.105
-719.806	140.708	-0.166	-0.222
-718.791	-70.708	0.222	0.085
-717.777	707.358	0.078	0.208
-716.762	-105.415	0.037	0.008
-715.748	45.149	-0.087	0.081
-714.733	87.710	0.134	-0.150
-713.718	-158.609	-0.380	-0.022
-712.704	-125.554	-0.249	0.038
-711.689	100.664	0.183	-0.215
-710.675	263.678	-0.038	-0.066
-709.660	800.000	0.116	-0.367
-708.645	-180.254	-0.308	0.007
-707.631	-136.553	0.072	0.008
-706.616	-19.878	0.152	-0.095
-705.602	263.636	-0.205	-0.360
-704.587	-122.648	0.424	-0.069
-703.572	-12.768	-0.151	0.099
-702.558	-39.205	-0.096	-0.051
-701.543	72.791	-0.127	-0.134
-700.529	800.000	0.111	-0.414
-699.514	-105.944	0.184	-0.042
-698.499	-92.456	-0.255	-0.072
-697.485	-200.000	-0.007	0.052
-696.470	53.519	0.180	-0.175
-695.456	33.793	-0.351	-0.309
-694.441	-112.937	-0.296	-0.059
-693.426	232.812	-0.107	0.178
-692.412	-91.124	-0.105	0.030
-691.397	433.419	0.028	0.061
-690.383	89.679	-0.202	-0.227
-689.368	278.420	-0.042	-0.075
-688.354	-130.282	0.311	-0.043
-687.339	106.180	0.244	-0.292
-686.324	-200.000	0.032	-0.163
-685.310	713.954	0.069	0.184
-684.295	95.557	-0.084	0.097
-683.281	-77.526	-0.106	0.037
-682.266	141.842	-0.054	0.072
-681.251	-75.580	0.257	0.092
-680.237	-43.436	-0.030	-0.015
-679.222	-200.000	0.036	-0.209
-678.208	253.960	0.052	0.089
-677.193	65.965	0.289	-0.296
-676.178	154.056	-0.134	-0.185
-675.164	-131.917	-0.607	-0.080
-674.149	-152.942	-0.301	-0.021
-673.135	464.172	0.198	-0.447
-672.120	-200.000	-0.036	0.345
-671.105	800.000	0.067	-0.284
-670.091	169.316	-0.157	-0.226
-669.076	-69.076	0.075	0.029
-668.062	800.000	-0.081	-0.300
-667.047	31.810	-0.082	-0.071
-666.032	313.270	-0.060	-0.114
-665.018	-118.371	0.324	-0.058
-664.003	-133.086	0.143	0.018
-662.989	40.822	-0.209	-0.191
-661.974	164.333	-0.167	-0.237
-660.959	-100.530	0.108	0.027
-659.945	683.229	0.056	0.148
-658.930	800.000	-0.079	-0.220
-657.916	800.000	-0.042	0.174
-656.901	-67.453	-0.108	-0.043
-655.886	25.790	-0.137	-0.115
-654.872	70.800	-0.034	0.035
-653.857	-200.000	0.029	0.273
-652.843	-141.371	-0.290	-0.030
-651.828	251.371	-0.118	0.203
-650.814	359.517	-0.134	-0.270
-649.799	-80.275	0.217	-0.073
-648.784	120.800	-0.040	-0.050
-647.770	-125.893	0.222	-0.034
-646.755	-68.369	0.410	-0.161
-645.741	67.850	-0.111	-0.114
-644.726	-112.662	0.069	0.014
-643.711	24.213	-0.162	0.135
-642.697	-132.001	0.170	0.022
-641.682	-112.725	-0.215	-0.043
-640.668	-200.000	-0.026	0.253
-639.653	-63.052	0.083	0.035
-638.638	-32.724	-0.099	-0.056
-637.624	-101.111	0.483	-0.119
-636.609	-111.191	-0.310	0.064
-635.595	208.570	0.072	-0.114
-634.580	-68.156	-0.358	0.140
-633.565	179.455	0.117	0.172
-632.551	444.950	0.042	-0.092
-631.536	171.264	0.048	-0.069
-630.522	-200.000	0.034	-0.148
-629.507	-92.452	-0.196	0.056
-628.492	-16.791	-0.085	0.054
-627.478	-42.694	-0.147	-0.075
-626.463	-94.061	0.148	0.041
-625.449	-86.123	0.335	0.104
-624.434	-186.105	0.401	0.006
-623.419	-31.189	-0.168	-0.096
-622.405	74.253	-0.207	-0.219
-621.390	165.709	-0.103	-0.147
-620.376	-200.000	-0.019	0.195
-619.361	-130.597	-0.282	-0.038
-618.346	-107.970	-0.108	-0.024
-617.332	162.566	-0.281	-0.397
-616.317	676.129	-0.127	0.332
-615.303	-11.674	-0.281	0.186
-614.288	-23.722	0.253	-0.153
-613.273	-119.091	-0.398	-0.070
-612.259	800.000	-0.016	-0.047
-611.244	33.117	0.145	0.127
-610.230	126.632	0.265	0.338
-609.215	-200.000	0.020	0.126
-608.201	180.978	-0.084	0.125
-607.186	-200.000	-0.011	-0.279
-606.171	-47.523	-0.109	0.053
-605.157	-74.730	-0.070	0.026
-604.142	-110.237	0.091	-0.019
-603.128	-70.640	0.070	0.027
-602.113	353.514	0.039	0.078
-601.098	-64.932	0.162	-0.066
-600.084	-169.344	-0.128	-0.005
-599.069	448.096	-0.020	-0.043
-598.055	-105.889	0.121	-0.027
-597.040	-152.787	0.094	0.007
-596.025	133.208	0.090	0.117
-595.011	351.760	0.169	-0.336
-593.996	-105.115	-0.234	0.054
-592.982	-7.871	-0.248	0.168
-591.967	-200.000	-0.026	-0.194
-590.952	-151.608	0.091	-0.007
-589.938	69.014	0.073	0.076
-588.923	-200.000	0.011	-0.170
-587.909	-127.250	0.270	0.040
-586.894	-9.702	0.201	0.135
-585.879	-83.122	0.489	-0.158
-584.865	-140.920	-0.500	0.052
-583.850	-115.181	0.135	-0.026
-582.836	-200.000	0.022	-0.122
-581.821	602.859	-0.063	-0.158
-580.806	-200.000	0.009	0.246
-579.792	-200.000	0.000	0.048
-578.777	69.878	0.106	-0.110
-577.763	591.208	0.086	-0.213
-576.748	-29.387	-0.118	-0.068
-575.733	248.062	-0.094	0.160
-574.719	-200.000	-0.061	-0.306
-573.704	-200.000	-0.007	-0.072
-572.690	-67.248	0.278	-0.110
-571.675	-26.575	-0.334	0.197
-570.661	-200.000	0.048	0.227
-569.646	349.710	-0.048	-0.095
-568.631	-49.755	0.089	-0.042
-567.617	-36.849	-0.368	0.199
-566.602	800.000	0.056	-0.163
-565.588	456.485	0.028	0.062
-564.573	-19.952	-0.102	0.063
-563.558	-200.000	-0.061	-0.365
-562.544	800.000	0.133	-0.408
-561.529	-104.082	0.137	0.032
-560.515	684.352	-0.037	0.098
-559.500	-200.000	-0.003	0.098
-558.485	-146.553	-0.060	0.005
-557.471	-198.863	-0.243	-0.001
-556.456	-200.000	0.015	0.119
-555.442	455.723	-0.007	-0.015
-554.427	203.164	0.071	0.111
-553.412	800.000	0.030	0.114
-552.398	-200.000	0.018	0.196
-551.383	-200.000	-0.010	0.197
-550.369	105.119	-0.240	0.284
-549.354	-134.496	0.101	-0.012
-548.339	-200.000	-0.034	-0.209
-547.325	-49.185	-0.171	0.082
-546.310	-62.745	0.296	0.123
-545.296	-200.000	-0.022	-0.338
-544.281	302.665	0.013	-0.025
-543.266	117.227	-0.113	0.139
-542.252	-120.959	-0.347	-0.059
-541.237	-159.337	-0.087	-0.005
-540.223	181.889	-0.032	-0.048
-539.208	50.997	-0.203	0.193
-538.193	-2.703	-0.123	-0.087
-537.179	173.351	0.105	-0.152
-536.164	177.022	-0.105	0.153
-535.150	-166.484	0.169	0.007
-534.135	-162.107	-0.441	-0.022
-533.121	-75.995	0.024	0.009
-532.106	-92.010	-0.344	0.098
-531.091	136.282	-0.092	-0.120
-530.077	127.021	0.180	-0.229
-529.062	96.920	0.178	-0.205
-528.048	-103.145	0.269	0.064
-527.033	-22.585	0.236	-0.143
-526.018	-34.207	-0.275	-0.152
-525.004	-111.645	0.147	-0.030
-523.989	-112.374	-0.213	0.043
-522.975	67.339	0.228	0.233
-521.960	82.400	0.159	-0.173
-520.945	51.393	0.143	-0.136
-519.931	95.167	-0.061	0.069
-518.916	-53.738	0.216	0.099
-517.902	-200.000	-0.004	0.049
-516.887	107.011	-0.034	-0.041
-515.872	800.000	0.042	0.116
-514.858	377.117	-0.166	0.340
-513.843	634.910	-0.079	0.200
-512.829	-12.929	0.182	0.119
-511.814	479.186	-0.165	0.375
-510.799	-131.858	0.285	0.037
-509.785	-55.085	-0.272	-0.123
-508.770	758.855	-0.034	0.092
-507.756	62.292	-0.057	0.057
-506.741	-200.000	0.021	-0.197
-505.726	49.213	0.045	0.042
-504.712	112.644	0.026	0.032
-503.697	-200.000	-0.053	-0.321
-502.683	11.874	-0.079	0.061
-501.668	172.235	-0.027	0.038
-500.653	-161.992	-0.240	0.012
-499.639	87.177	0.320	0.354
-498.624	-131.521	-0.255	-0.034
-497.610	42.434	-0.189	0.172
-496.595	152.112	-0.220	0.301
-495.581	-87.116	0.231	-0.071
-494.566	656.656	0.060	-0.154
-493.551	211.045	0.173	-0.273
-492.537	55.580	-0.176	-0.171
-491.522	402.447	-0.132	-0.279
-490.508	-68.994	-0.413	-0.159
-489.493	-43.448	-0.241	0.122
-488.478	82.734	-0.138	0.151
-487.464	-31.528	0.085	-0.048
-486.449	-74.104	0.310	-0.112
-485.435	-108.942	0.114	-0.024
-484.420	72.823	0.127	0.133
-483.405	-200.000	-0.040	0.294
-482.391	234.628	-0.045	0.074
-481.376	390.014	0.024	0.050
-480.362	-110.019	0.304	0.064
-479.347	-200.000	-0.004	0.167
-478.332	27.077	0.244	-0.205
-477.318	169.301	-0.050	-0.072
-476.303	-102.312	-0.365	-0.088
-475.289	116.819	0.120	0.147
-474.274	-200.000	-0.013	-0.125
-473.259	800.000	0.062	0.241
-472.245	-33.146	-0.371	0.206
-471.230	-96.739	0.227	-0.060
-470.216	-15.687	-0.166	-0.106
-469.201	800.000	-0.113	0.353
-468.186	39.462	0.145	0.130
-467.172	-200.000	-0.008	-0.338
-466.157	712.297	0.114	-0.303
-465.143	-200.000	-0.036	-0.351
-464.128	22.963	-0.112	-0.092
-463.113	800.000	0.037	0.142
-462.099	294.333	0.074	0.135
-461.084	163.363	-0.078	0.110
-460.070	158.610	0.055	0.076
-459.055	152.340	0.171	0.234
-458.040	800.000	0.023	-0.095
-457.026	800.000	0.093	-0.281
-456.011	219.722	0.136	-0.218
-454.997	769.037	0.059	0.161
-453.982	-118.094	0.091	0.016
-452.968	-200.000	0.010	-0.148
-451.953	77.021	0.044	0.047
-450.938	706.151	0.151	0.400
-449.924	-55.390	0.235	0.105
-448.909	-106.897	0.136	0.030
-447.895	-162.853	-0.374	-0.018
-446.880	354.627	0.074	0.146
-445.865	-60.861	0.327	-0.138
-444.851	-98.409	-0.125	-0.032
-443.836	-200.000	-0.026	-0.131
-442.822	289.924	-0.057	0.103
-441.807	-39.493	0.107	-0.056
-440.792	-200.000	-0.026	0.113
-439.778	-61.077	-0.107	-0.045
-438.763	120.834	0.145	0.181
-437.749	120.612	0.104	-0.129
-436.734	-116.917	-0.105	0.019
-435.719	-25.703	-0.359	-0.212
-434.705	-26.963	-0.115	-0.067
-433.690	784.491	0.043	0.119
-432.676	-12.848	-0.220	-0.143
-431.661	-105.020	-0.082	-0.019
-430.646	-200.000	0.035	0.187
-429.632	-79.007	-0.088	0.030
-428.617	-200.000	0.051	-0.288
-427.603	-64.204	0.296	0.121
-426.588	237.280	-0.035	-0.058
-425.573	-200.000	-0.002	0.010
-424.559	-10.029	0.224	-0.149
-423.544	-65.799	-0.202	-0.081
-422.530	-140.251	0.226	-0.024
-421.515	-125.025	-0.268	0.041
-420.500	-69.679	0.190	0.073
-419.486	800.000	-0.045	0.150
-418.471	-200.000	0.000	-0.128
-417.457	108.383	0.151	-0.181
-416.442	-196.027	-0.166	-0.001
-415.428	274.988	-0.207	-0.366
-414.413	653.661	-0.057	0.146
-413.398	-92.059	-0.162	-0.046
-412.384	51.053	0.416	0.394
-411.369	800.000	-0.049	-0.167
-410.355	723.530	-0.121	-0.321
-409.340	82.507	0.059	0.064
-408.325	345.462	-0.148	0.291
-407.311	293.373	-0.100	-0.183
-406.296	-8.066	0.094	0.063
-405.282	-200.000	-0.028	0.134
-404.267	496.659	-0.159	-0.366
-403.252	-163.094	-0.126	-0.006
-402.238	-147.518	0.174	-0.015
-401.223	47.753	-0.065	0.061
-400.209	800.000	0.198	-0.631
-399.194	-31.111	-0.168	-0.095
-398.179	165.519	0.203	0.287
-397.165	216.079	0.178	0.283
-396.150	-73.300	-0.091	0.033
-395.136	-42.546	0.244	0.124
-394.121	-200.000	0.031	-0.447
-393.106	-16.147	-0.344	0.218
-392.092	-171.825	0.240	-0.008
-391.077	533.212	-0.095	-0.226
-390.063	68.900	0.038	-0.039
-389.048	517.269	-0.107	0.250
-388.033	30.776	0.132	0.113
-387.019	69.505	-0.065	-0.067
-386.004	-25.067	0.103	-0.061
-384.990	134.077	0.041	-0.054
-383.975	-23.497	-0.062	-0.037
-382.960	147.516	0.217	-0.292
-381.946	-200.000	-0.060	-0.516
-380.931	-54.995	0.168	0.076
-379.917	-25.951	0.235	0.138
-378.902	-147.756	0.158	0.013
-377.888	155.495	-0.314	-0.431
-376.873	200.015	0.098	0.150
-375.858	-72.736	0.155	-0.057
-374.844	179.826	-0.090	-0.131
-373.829	-200.000	0.030	-0.159
-372.815	-95.627	-0.115	0.031
-371.800	-102.350	-0.204	0.049
-370.785	-67.217	-0.106	0.041
-369.771	-130.670	-0.206	-0.028
-368.756	146.239	-0.115	0.154
-367.742	-16.461	0.127	-0.080
-366.727	-65.223	-0.217	-0.087
-365.712	-200.000	0.012	0.284
-364.698	450.002	-0.054	-0.120
-363.683	-173.960	0.085	-0.003
-362.669	-137.562	-0.238	0.027
-361.654	-25.854	-0.105	0.062
-360.639	-121.481	-0.226	0.037
-359.625	374.834	-0.148	-0.301
-358.610	163.423	0.142	-0.199
-357.596	147.606	-0.230	0.309
-356.581	-142.374	-0.295	0.029
-355.566	-114.738	-0.088	0.017
-354.552	-63.118	0.198	0.082
-353.537	-53.460	0.212	-0.097
-352.523	254.262	-0.213	-0.363
-351.508	111.390	0.139	0.167
-350.493	546.684	0.085	0.204
-349.479	11.875	0.123	-0.094
-348.464	-155.577	0.284	0.018
-347.450	-142.275	-0.268	0.026
-346.435	800.000	0.110	0.365
-345.420	161.137	-0.161	0.225
-344.406	-110.034	-0.198	-0.041
-343.391	191.578	0.125	-0.188
-342.377	-193.814	-0.319	-0.003
-341.362	345.197	-0.070	-0.138
-340.348	632.121	-0.101	-0.255
-339.333	800.000	-0.062	-0.178
-338.318	5.223	0.365	-0.268
-337.304	224.445	-0.091	-0.147
-336.289	-200.000	0.004	-0.026
-335.275	75.199	-0.072	0.075
-334.260	5.115	0.094	-0.069
-333.245	-79.339	0.067	-0.023
-332.231	47.659	0.200	-0.186
-331.216	459.818	-0.124	0.274
-330.202	141.481	-0.221	0.291
-329.187	-40.459	0.184	0.095
-328.172	-200.000	0.049	0.246
-327.158	-113.067	0.112	0.022
-326.143	473.192	0.093	0.208
-325.129	800.000	0.067	-0.243
-324.114	-23.012	-0.178	-0.107
-323.099	-141.691	0.105	0.011
-322.085	800.000	0.048	-0.182
-321.070	683.915	-0.118	0.307
-320.056	-126.941	0.100	-0.015
-319.041	-115.837	0.220	-0.041
-318.026	-101.369	0.343	-0.083
-317.012	136.430	0.094	0.122
-315.997	800.000	0.051	0.220
-314.983	-43.267	-0.130	0.065
-313.968	58.967	-0.258	-0.253
-312.953	-200.000	0.035	-0.315
-311.939	447.757	0.050	-0.110
-310.924	-55.443	0.033	-0.015
-309.910	160.647	0.089	-0.123
-308.895	-125.044	0.185	-0.028
-307.880	-200.000	0.006	0.043
-306.866	-13.165	0.258	-0.167
-305.851	800.000	-0.061	-0.169
-304.837	160.711	-0.102	0.142
-303.822	800.000	0.072	0.283
-302.807	640.107	-0.064	0.163
-301.793	40.838	0.064	0.057
-300.778	800.000	-0.072	0.278
-299.764	-200.000	-0.014	-0.165
-298.749	-200.000	-0.020	0.178
-297.735	-200.000	-0.003	0.057
-296.720	-154.091	0.527	-0.036
-295.705	80.672	-0.029	-0.031
-294.691	-129.617	-0.348	-0.048
-293.676	-102.138	0.087	-0.021
-292.662	-56.481	0.134	0.059
-291.647	-200.000	-0.067	0.318
-290.632	16.606	-0.259	0.204
-289.618	702.490	0.096	-0.252
-288.603	634.636	-0.145	0.366
-287.589	452.227	-0.112	-0.247
-286.574	-162.963	0.258	-0.012
-285.559	-200.000	-0.025	0.156
-284.545	-200.000	-0.030	-0.295
-283.530	-26.780	0.212	0.123
-282.516	64.487	0.219	0.219
-281.501	322.071	0.046	0.087
-280.486	52.507	-0.048	0.046
-279.472	-161.547	-0.261	-0.013
-278.457	-29.349	-0.336	0.191
-277.443	166.316	-0.125	0.177
-276.428	800.000	-0.073	-0.260
-275.413	-35.844	-0.203	-0.109
-274.399	59.623	0.281	-0.276
-273.384	46.641	-0.174	0.161
-272.370	181.736	-0.138	-0.202
-271.355	800.000	-0.052	-0.217
-270.340	-170.594	0.284	0.010
-269.326	800.000	-0.063	-0.187
-268.311	231.863	0.183	-0.299
-267.297	73.709	-0.138	-0.143
-266.282	-130.099	-0.285	-0.039
-265.267	-168.445	0.257	0.010
-264.253	695.673	0.045	-0.116
-263.238	-200.000	-0.001	0.007
-262.224	-200.000	0.010	0.457
-261.209	-200.000	0.028	-0.132
-260.195	6.757	0.060	-0.044
-259.180	800.000	0.140	-0.434
-258.165	800.000	0.065	0.221
-257.151	800.000	-0.114	-0.440
-256.136	-200.000	-0.041	-0.277
-255.122	-200.000	0.011	-0.418
-254.107	4.658	0.140	0.102
-253.092	800.000	-0.033	-0.115
-252.078	-198.858	-0.165	0.001
-251.063	-147.491	-0.184	-0.015
-250.049	322.230	0.097	0.183
-249.034	-200.000	0.004	0.031
-248.019	105.871	0.330	-0.387
-247.005	-113.836	0.210	-0.041
-245.990	78.003	0.092	-0.098
-244.976	800.000	-0.041	0.148
-243.961	10.765	0.250	-0.189
-242.946	250.567	-0.085	0.144
-241.932	194.031	-0.212	0.318
-240.917	-86.651	0.193	0.059
-239.903	47.981	-0.410	-0.380
-238.888	114.763	-0.184	-0.223
-237.873	149.557	0.067	0.091
-236.859	33.563	0.208	0.179
-235.844	-96.244	0.068	0.018
-234.830	149.353	0.176	0.236
-233.815	-154.832	-0.104	-0.007
-232.800	60.537	-0.041	-0.040
-231.786	-94.251	-0.124	-0.034
-230.771	-200.000	-0.009	0.079
-229.757	-200.000	-0.077	0.395
-228.742	-4.019	0.194	-0.133
-227.727	-19.767	-0.436	-0.268
-226.713	112.062	-0.078	-0.093
-225.698	-200.000	0.013	0.600
-224.684	-81.623	-0.261	0.085
-223.669	238.971	-0.127	-0.209
-222.655	1.117	0.137	0.098
-221.640	-15.261	-0.140	0.089
-220.625	59.431	0.107	0.104
-219.611	98.158	0.207	-0.237
-218.596	-6.516	-0.112	-0.076
-217.582	80.186	0.279	-0.297
-216.567	800.000	-0.047	0.129
-215.552	-9.388	-0.227	0.150
-214.538	-30.670	0.222	-0.125
-213.523	800.000	0.082	-0.280
-212.509	467.498	-0.123	0.272
-211.494	-114.157	0.286	-0.055
-210.479	106.221	0.055	0.065
-209.465	233.736	0.097	-0.158
-208.450	-116.175	0.282	0.052
-207.436	32.355	-0.241	0.206
-206.421	526.060	-0.119	0.279
-205.406	800.000	-0.107	-0.327
-204.392	167.928	0.208	0.293
-203.377	-79.850	-0.132	-0.044
-202.363	530.947	-0.108	-0.254
-201.348	800.000	0.137	0.399
-200.333	6.565	0.152	0.112
-199.319	774.442	0.030	-0.080
-198.304	-200.000	-0.045	-0.226
-197.290	278.571	-0.024	0.043
-196.275	-112.190	-0.043	-0.009
-195.260	-160.669	0.396	-0.021
-194.246	-126.153	0.316	0.047
-193.231	800.000	0.018	0.078
-192.217	34.636	-0.064	0.055
-191.202	-200.000	-0.005	0.189
-190.187	-42.616	0.148	0.075
-189.173	800.000	0.078	0.285
-188.158	159.162	-0.141	-0.194
-187.144	-16.179	0.219	-0.138
-186.129	-200.000	-0.045	0.284
-185.114	-200.000	0.024	0.165
-184.100	-73.260	0.206	0.075
-183.085	117.194	0.107	0.130
-182.071	66.949	0.390	0.393
-181.056	531.863	-0.057	0.134
-180.042	73.461	-0.204	-0.211
-179.027	800.000	-0.003	-0.013
-178.012	-48.279	-0.092	0.044
-176.998	73.345	0.061	0.063
-175.983	-64.636	0.186	-0.075
-174.969	-109.685	0.251	0.052
-173.954	2.363	-0.029	0.021
-172.939	800.000	0.118	0.327
-171.925	411.424	-0.124	0.260
-170.910	-57.500	-0.039	0.017
-169.896	-142.440	0.072	-0.007
-168.881	3.567	0.151	0.109
-167.866	116.677	0.137	-0.166
-166.852	8.466	-0.193	-0.144
-165.837	63.174	-0.333	0.331
-164.823	800.000	0.072	-0.203
-163.808	-106.715	0.263	0.058
-162.793	-38.410	-0.233	-0.122
-161.779	-200.000	0.012	-0.212
-160.764	61.338	-0.204	-0.201
-159.750	113.136	-0.174	0.209
-158.735	-170.687	-0.564	0.019
-157.720	156.007	0.227	0.310
-156.706	-33.741	-0.245	0.134
-155.691	212.103	-0.153	0.238
-154.677	229.940	-0.258	0.417
-153.662	12.409	0.156	-0.119
-152.647	-54.880	0.247	0.110
-151.633	-32.300	-0.115	-0.064
-150.618	2.166	0.152	-0.109
-149.604	800.000	-0.087	0.310
-148.589	-81.219	0.307	0.100
-147.574	-75.233	0.120	-0.042
-146.560	-132.228	0.225	0.029
-145.545	-200.000	0.040	-0.291
-144.531	-200.000	0.091	0.500
-143.516	-130.317	0.297	0.040
-142.502	506.950	-0.115	-0.264
-141.487	-200.000	0.067	0.359
-140.472	29.100	0.277	-0.233
-139.458	82.349	0.087	0.094
-138.443	97.248	-0.104	0.118
-137.429	58.780	0.151	-0.147
-136.414	83.799	0.167	0.181
-135.399	800.000	-0.083	0.322
-134.385	-32.407	0.053	-0.029
-133.370	15.444	0.302	0.234
-132.356	-83.772	0.195	-0.061
-131.341	-117.999	-0.194	0.034
-130.326	151.159	-0.117	-0.158
-129.312	-16.167	-0.131	-0.082
-128.297	-50.141	-0.260	-0.122
-127.283	-60.141	-0.154	-0.065
-126.268	1.204	-0.058	-0.041
-125.253	99.505	0.235	0.268
-124.239	-30.567	0.079	0.044
-123.224	-165.119	-0.322	-0.014
-122.210	800.000	-0.087	-0.269
