DTS Sentinel unit serial number:	SN413079Multiplexer serial number:	ORYXHardware model number:	OX4-SRSoftware version number:	ORYX F/W v4.00 Oryx Data Collector v3.7.2.0data status	okinstallation	princeton_trtdifferential loss correction	single-endedforward channel	channel 4reverse channel	N/Adate	2019/09/18time	16:49:34forward acquisition time	60.00reverse acquisition time	0.00gamma	496.2192k internal	0.2289k external	0.2289temperature offset calibration	1.0011default loss term (dB/km)	0.3790temperature slope calibration	1.0000multiplexer offset coefficient	1.0000multiplexer slope coefficient	1.0000fibre end	0.00T internal ref (°C)	39.98T ext. ref 1 (°C)	0.84T ext. ref 2 (°C)	35.11length (m)	temperature (°C)	Stokes	anti-Stokes-747.200	99.512	0.259	0.307
-746.185	-0.674	0.147	0.107
-745.171	224.949	-0.083	-0.138
-744.156	283.965	-0.235	0.433
-743.142	49.233	-0.127	0.123
-742.127	117.190	0.190	0.239
-741.112	241.084	0.166	-0.284
-740.098	-10.153	0.138	0.094
-739.083	-200.000	-0.039	0.297
-738.069	800.000	-0.095	0.298
-737.054	-91.222	-0.317	-0.093
-736.039	252.772	-0.199	0.348
-735.025	-58.022	-0.201	0.090
-734.010	-51.117	-0.292	-0.140
-732.996	800.000	0.111	-0.346
-731.981	559.354	0.057	0.142
-730.966	-121.828	-0.238	0.040
-729.952	46.740	-0.205	0.195
-728.937	-200.000	0.003	-0.133
-727.923	-171.042	-0.306	0.011
-726.908	-24.650	-0.351	0.214
-725.894	81.969	-0.186	-0.206
-724.879	-200.000	-0.013	-0.092
-723.864	219.723	0.140	-0.230
-722.850	-200.000	-0.012	-0.313
-721.835	-166.165	-0.409	0.018
-720.821	-153.112	-0.194	-0.014
-719.806	800.000	0.039	-0.156
-718.791	-2.230	0.124	0.089
-717.777	800.000	0.061	-0.259
-716.762	-88.499	0.162	0.049
-715.748	800.000	0.079	0.225
-714.733	-92.657	0.125	-0.036
-713.718	746.246	-0.020	-0.054
-712.704	-119.678	0.054	0.010
-711.689	130.614	-0.241	0.317
-710.675	-200.000	-0.067	0.326
-709.660	-61.876	0.179	-0.076
-708.645	-30.998	-0.407	0.235
-707.631	295.159	-0.015	0.028
-706.616	-52.388	0.137	0.065
-705.602	180.745	-0.217	-0.326
-704.587	483.756	-0.185	-0.430
-703.572	-63.268	0.131	-0.055
-702.558	-119.349	0.299	-0.053
-701.543	800.000	0.038	0.135
-700.529	-200.000	0.002	-0.042
-699.514	-111.336	0.278	0.058
-698.499	-79.751	-0.174	-0.060
-697.485	-200.000	-0.024	0.176
-696.470	-35.538	-0.212	0.118
-695.456	42.650	0.078	-0.072
-694.441	-56.140	-0.338	0.154
-693.426	-15.219	-0.212	-0.139
-692.412	318.905	-0.050	0.097
-691.397	-67.502	0.187	0.075
-690.383	-33.257	0.040	0.022
-689.368	-199.050	-0.075	0.000
-688.354	800.000	-0.089	-0.261
-687.339	800.000	-0.042	0.179
-686.324	800.000	-0.047	-0.146
-685.310	-84.419	-0.142	-0.046
-684.295	-43.911	-0.101	-0.052
-683.281	414.834	0.147	-0.320
-682.266	30.606	-0.132	-0.115
-681.251	28.023	0.087	-0.075
-680.237	-200.000	-0.007	0.251
-679.222	49.127	-0.218	0.209
-678.208	270.518	-0.134	-0.241
-677.193	798.134	0.080	0.226
-676.178	154.088	0.176	-0.246
-675.164	428.293	0.070	-0.154
-674.149	-73.627	-0.197	-0.073
-673.135	662.115	-0.087	-0.229
-672.120	65.317	-0.165	-0.171
-671.105	-200.000	0.000	-0.104
-670.091	800.000	0.037	-0.157
-669.076	-142.238	0.351	0.036
-668.062	-25.610	-0.260	0.157
-667.047	305.179	-0.096	0.182
-666.032	-200.000	-0.018	0.160
-665.018	513.173	0.156	-0.372
-664.003	118.885	0.175	-0.221
-662.989	-121.878	-0.101	0.017
-661.974	-40.807	-0.104	-0.055
-660.959	288.079	-0.102	-0.189
-659.945	-6.315	0.073	0.051
-658.930	-142.992	0.138	-0.014
-657.916	18.676	0.130	-0.107
-656.901	133.038	0.173	-0.228
-655.886	800.000	0.007	-0.027
-654.872	800.000	-0.072	0.309
-653.857	241.094	0.100	0.171
-652.843	23.522	0.129	-0.108
-651.828	421.894	-0.051	-0.112
-650.814	198.263	-0.143	0.224
-649.799	-200.000	0.007	-0.044
-648.784	-200.000	0.034	0.300
-647.770	29.833	-0.115	0.100
-646.755	457.171	-0.103	0.234
-645.741	800.000	-0.042	-0.128
-644.726	36.502	-0.194	-0.175
-643.711	-138.660	-0.073	0.008
-642.697	-200.000	-0.003	-0.039
-641.682	-118.525	0.094	0.017
-640.668	541.084	0.048	0.118
-639.653	54.115	0.169	-0.166
-638.638	-200.000	-0.025	-0.160
-637.624	32.565	0.202	0.178
-636.609	-87.428	0.216	0.067
-635.595	115.905	0.202	0.252
-634.580	-19.720	0.151	-0.096
-633.565	-138.011	0.486	0.055
-632.551	64.394	-0.172	-0.177
-631.536	800.000	0.058	-0.223
-630.522	0.690	0.157	-0.115
-629.507	310.151	-0.052	0.099
-628.492	43.209	-0.088	-0.082
-627.478	7.351	0.303	-0.231
-626.463	14.163	-0.137	0.109
-625.449	70.215	-0.170	0.179
-624.434	-200.000	0.009	-0.088
-623.419	-34.254	-0.151	-0.085
-622.405	-200.000	0.019	0.097
-621.390	-96.277	0.187	0.051
-620.376	-150.229	-0.132	-0.010
-619.361	35.048	0.030	0.027
-618.346	514.690	-0.109	0.260
-617.332	291.531	-0.157	0.291
-616.317	-200.000	-0.027	0.163
-615.303	61.314	0.048	0.049
-614.288	-200.000	0.085	0.000
-613.273	338.020	0.094	0.187
-612.259	114.057	-0.034	-0.042
-611.244	271.727	-0.085	-0.152
-610.230	254.440	-0.181	-0.317
-609.215	242.528	-0.165	-0.281
-608.201	33.837	-0.535	-0.475
-607.186	278.299	-0.055	-0.101
-606.171	-200.000	-0.208	-0.001
-605.157	-129.788	-0.315	-0.044
-604.142	16.154	0.146	-0.118
-603.128	-200.000	-0.010	-0.352
-602.113	117.101	0.063	0.079
-601.098	-182.323	-0.290	0.005
-600.084	-200.000	0.050	-0.244
-599.069	200.692	-0.143	0.223
-598.055	428.700	0.078	-0.171
-597.040	-200.000	0.027	-0.131
-596.025	-47.342	-0.186	0.092
-595.011	-55.338	0.050	0.023
-593.996	-187.168	-0.204	-0.003
-592.982	12.997	-0.205	0.161
-591.967	-180.224	0.161	-0.003
-590.952	800.000	-0.106	-0.426
-589.938	531.489	-0.102	0.246
-588.923	-121.744	-0.367	0.062
-587.909	-32.227	0.149	0.085
-586.894	-66.224	0.134	0.054
-585.879	29.048	-0.114	0.099
-584.865	504.155	0.109	-0.256
-583.850	800.000	-0.069	0.308
-582.836	800.000	0.092	-0.305
-581.821	-200.000	0.005	-0.161
-580.806	494.236	-0.068	0.158
-579.792	-42.774	-0.195	-0.101
-578.777	180.436	0.076	0.114
-577.763	-11.180	-0.193	0.130
-576.748	-200.000	-0.058	0.302
-575.733	-200.000	-0.020	0.182
-574.719	47.703	-0.218	-0.207
-573.704	79.780	0.091	0.100
-572.690	-47.462	0.186	-0.092
-571.675	10.349	-0.209	-0.162
-570.661	-90.942	0.296	0.087
-569.646	-102.318	-0.317	-0.077
-568.631	44.339	-0.164	0.153
-567.617	-200.000	-0.004	-0.260
-566.602	-115.064	-0.327	-0.063
-565.588	-200.000	-0.033	-0.301
-564.573	-26.892	0.184	-0.110
-563.558	433.890	-0.059	0.131
-562.544	-200.000	0.046	0.261
-561.529	-70.449	0.261	-0.101
-560.515	800.000	-0.072	-0.309
-559.500	-43.823	-0.344	0.176
-558.485	-200.000	-0.008	0.394
-557.471	800.000	0.075	0.226
-556.456	-13.354	-0.195	-0.129
-555.442	10.178	-0.063	0.049
-554.427	148.285	0.054	0.074
-553.412	231.140	0.102	-0.170
-552.398	509.433	0.084	0.198
-551.383	211.343	-0.117	-0.187
-550.369	-55.336	-0.059	0.027
-549.354	-200.000	0.012	0.238
-548.339	335.152	-0.132	0.261
-547.325	-62.608	0.312	0.132
-546.310	75.376	-0.038	0.041
-545.296	-28.509	-0.039	-0.023
-544.281	-143.351	-0.646	-0.063
-543.266	21.464	0.109	0.090
-542.252	800.000	0.053	-0.173
-541.237	-56.035	0.147	0.067
-540.223	-136.468	0.422	0.050
-539.208	23.153	-0.114	-0.095
-538.193	423.834	-0.095	-0.208
-537.179	-162.758	0.282	0.014
-536.164	341.330	-0.041	-0.081
-535.150	28.926	0.169	-0.146
-534.135	-200.000	-0.007	0.058
-533.121	69.269	0.133	-0.139
-532.106	800.000	0.033	0.124
-531.091	-200.000	-0.058	-0.321
-530.077	321.263	-0.094	-0.182
-529.062	305.680	-0.137	-0.259
-528.048	-200.000	0.022	0.172
-527.033	-200.000	-0.028	0.246
-526.018	-45.307	-0.178	-0.090
-525.004	-17.637	0.271	0.173
-523.989	-200.000	-0.019	-0.155
-522.975	354.247	0.108	-0.218
-521.960	217.900	-0.114	0.184
-520.945	-123.687	-0.095	0.015
-519.931	-34.031	-0.211	-0.118
-518.916	109.019	0.268	0.325
-517.902	-99.060	-0.144	0.037
-516.887	-176.940	-0.057	0.001
-515.872	72.914	-0.084	-0.089
-514.858	55.276	0.046	0.045
-513.843	-167.168	0.205	-0.008
-512.829	-13.936	-0.236	0.155
-511.814	-45.386	-0.152	0.076
-510.799	800.000	0.069	-0.253
-509.785	52.074	0.117	0.114
-508.770	87.265	0.094	-0.105
-507.756	180.873	0.106	-0.159
-506.741	-200.000	-0.001	-0.227
-505.726	-139.573	-0.232	-0.025
-504.712	419.058	0.162	-0.352
-503.697	331.039	0.201	-0.393
-502.683	-39.519	0.089	0.047
-501.668	207.390	-0.175	0.278
-500.653	-41.467	-0.247	-0.129
-499.639	-40.287	-0.286	-0.151
-498.624	40.849	0.244	0.223
-497.610	-83.128	0.344	-0.112
-496.595	32.956	-0.019	-0.017
-495.581	-106.864	0.137	0.031
-494.566	-20.784	0.163	-0.102
-493.551	-143.876	0.303	0.029
-492.537	268.521	-0.136	0.242
-491.522	-66.273	0.178	0.072
-490.508	70.420	0.139	-0.146
-489.493	587.389	0.120	-0.299
-488.478	-47.529	-0.456	0.225
-487.464	24.743	-0.228	0.192
-486.449	-52.064	-0.381	0.180
-485.435	393.911	0.081	0.171
-484.420	-38.051	-0.028	-0.015
-483.405	-128.936	-0.266	-0.038
-482.391	50.084	0.047	0.045
-481.376	184.688	-0.138	0.208
-480.362	-200.000	-0.020	0.147
-479.347	637.731	-0.177	-0.457
-478.332	-200.000	-0.021	-0.119
-477.318	-18.948	-0.162	0.102
-476.303	-93.459	0.405	0.114
-475.289	112.824	-0.059	-0.072
-474.274	438.134	0.042	-0.094
-473.259	5.928	0.141	0.106
-472.245	-88.650	-0.074	0.022
-471.230	-200.000	-0.031	0.000
-470.216	755.821	0.055	-0.150
-469.201	-86.805	0.309	-0.096
-468.186	800.000	0.100	0.322
-467.172	647.329	0.138	-0.357
-466.157	148.237	-0.066	-0.090
-465.143	243.540	-0.015	0.026
-464.128	-200.000	-0.017	0.241
-463.113	291.916	0.176	0.325
-462.099	800.000	0.064	0.282
-461.084	-128.450	-0.184	-0.027
-460.070	19.609	-0.086	-0.070
-459.055	-200.000	-0.021	0.277
-458.040	-200.000	-0.023	-0.281
-457.026	-1.810	0.408	0.291
-456.011	-24.044	-0.341	-0.206
-454.997	800.000	0.040	-0.136
-453.982	-126.719	-0.180	-0.027
-452.968	358.918	0.069	-0.140
-451.953	-75.214	0.211	-0.076
-450.938	-170.599	-0.299	-0.011
-449.924	800.000	0.074	-0.213
-448.909	116.867	0.122	0.151
-447.895	-26.835	0.082	0.048
-446.880	800.000	-0.089	-0.311
-445.865	-200.000	-0.021	-0.213
-444.851	231.984	0.140	-0.233
-443.836	263.324	-0.098	-0.172
-442.822	-41.958	0.303	-0.157
-441.807	-31.927	-0.151	0.085
-440.792	483.637	0.049	0.113
-439.778	-140.293	0.253	-0.027
-438.763	-102.864	-0.226	-0.055
-437.749	-200.000	-0.005	0.236
-436.734	26.811	-0.276	-0.234
-435.719	-118.414	-0.115	0.021
-434.705	75.384	-0.097	0.103
-433.690	-200.000	0.170	-0.001
-432.676	-5.944	-0.167	-0.116
-431.661	-200.000	-0.033	0.189
-430.646	-104.075	-0.203	0.048
-429.632	658.762	-0.073	0.190
-428.617	-167.779	0.256	-0.010
-427.603	-59.806	-0.224	0.097
-426.588	6.389	-0.136	0.102
-425.573	46.475	-0.108	-0.102
-424.559	62.280	0.179	0.180
-423.544	218.211	-0.101	-0.164
-422.530	-39.403	-0.173	0.092
-421.515	341.362	0.162	-0.320
-420.500	800.000	-0.076	-0.236
-419.486	29.955	0.219	0.189
-418.471	-62.506	-0.164	0.069
-417.457	800.000	0.097	-0.323
-416.442	-182.033	0.318	-0.006
-415.428	-157.926	0.214	-0.013
-414.413	-200.000	-0.003	-0.199
-413.398	-64.749	-0.203	0.083
-412.384	301.418	-0.130	-0.243
-411.369	16.486	-0.140	-0.112
-410.355	-51.841	0.078	-0.037
-409.340	800.000	0.057	-0.204
-408.325	-200.000	0.020	0.128
-407.311	-17.398	0.231	0.147
-406.296	505.788	0.124	-0.290
-405.282	-200.000	0.001	0.172
-404.267	413.692	-0.023	-0.049
-403.252	-100.092	0.241	-0.061
-402.238	800.000	0.061	-0.188
-401.223	-200.000	-0.005	-0.092
-400.209	-200.000	-0.018	-0.278
-399.194	-50.139	-0.029	-0.014
-398.179	-125.382	0.098	0.015
-397.165	-200.000	0.055	-0.311
-396.150	-152.023	0.131	0.010
-395.136	184.946	-0.153	-0.230
-394.121	-137.374	0.163	0.019
-393.106	-170.922	-0.334	0.012
-392.092	98.709	0.185	0.215
-391.077	800.000	0.062	0.207
-390.063	-28.995	0.212	-0.123
-389.048	-139.345	0.214	0.023
-388.033	310.715	-0.099	-0.188
-387.019	205.460	-0.050	0.078
-386.004	241.234	-0.170	0.286
-384.990	14.406	-0.183	0.144
-383.975	149.728	-0.086	-0.118
-382.960	-113.975	0.375	-0.074
-381.946	-47.679	-0.321	-0.157
-380.931	800.000	0.010	0.033
-379.917	-200.000	0.001	-0.040
-378.902	58.524	-0.010	-0.010
-377.888	-200.000	-0.022	-0.424
-376.873	-200.000	-0.005	0.138
-375.858	162.261	0.110	0.156
-374.844	52.903	-0.187	-0.181
-373.829	800.000	-0.083	-0.291
-372.815	65.747	-0.101	0.103
-371.800	-176.026	-0.078	0.002
-370.785	-105.335	0.084	0.019
-369.771	164.034	0.154	0.219
-368.756	77.454	0.316	0.340
-367.742	-122.366	0.123	-0.020
-366.727	-88.120	-0.145	0.044
-365.712	800.000	0.033	0.091
-364.698	-108.944	-0.107	-0.023
-363.683	-133.087	0.126	0.016
-362.669	-52.707	-0.161	0.075
-361.654	400.465	0.108	0.228
-360.639	-18.465	-0.162	-0.102
-359.625	-138.130	0.447	0.050
-358.610	-101.163	0.068	-0.017
-357.596	189.250	-0.088	0.134
-356.581	-100.283	0.384	0.096
-355.566	800.000	-0.134	0.434
-354.552	381.842	0.055	0.114
-353.537	-37.988	0.259	0.139
-352.523	800.000	0.073	0.220
-351.508	-200.000	-0.048	-0.324
-350.493	-200.000	-0.061	0.324
-349.479	77.877	-0.146	-0.157
-348.464	719.547	0.055	-0.147
-347.450	27.465	0.127	-0.108
-346.435	800.000	0.073	0.314
-345.420	258.084	-0.183	0.318
-344.406	800.000	-0.085	-0.350
-343.391	25.953	0.155	0.130
-342.377	-170.058	0.263	0.009
-341.362	363.218	-0.194	0.393
-340.348	-148.353	-0.150	0.012
-339.333	47.938	-0.254	-0.239
-338.318	132.265	0.185	-0.240
-337.304	288.713	0.018	-0.033
-336.289	23.525	0.182	0.151
-335.275	340.086	-0.109	0.214
-334.260	463.348	0.103	-0.232
-333.245	123.223	0.077	-0.098
-332.231	70.321	0.055	0.057
-331.216	144.081	-0.181	0.243
-330.202	356.208	-0.127	0.254
-329.187	-52.287	0.148	0.069
-328.172	-107.214	-0.235	-0.052
-327.158	-143.079	-0.043	-0.004
-326.143	-10.637	-0.156	0.104
-325.129	308.548	-0.021	-0.040
-324.114	-121.006	0.147	-0.025
-323.099	4.153	0.292	0.216
-322.085	282.585	0.036	-0.065
-321.070	115.383	-0.066	-0.082
-320.056	194.406	0.162	0.247
-319.041	249.099	0.140	-0.239
-318.026	-200.000	0.021	-0.134
-317.012	236.788	0.099	0.165
-315.997	-200.000	-0.020	0.264
-314.983	-200.000	0.048	0.240
-313.968	-196.405	0.060	0.000
-312.953	-136.752	-0.218	0.025
-311.939	191.233	-0.279	-0.422
-310.924	-96.097	0.594	0.159
-309.910	800.000	0.065	0.242
-308.895	-82.457	0.264	-0.086
-307.880	434.458	-0.161	-0.352
-306.866	94.614	0.152	-0.174
-305.851	-27.607	-0.211	-0.124
-304.837	-71.832	-0.293	0.110
-303.822	195.299	0.058	0.089
-302.807	-41.346	0.029	0.015
-301.793	285.613	-0.102	-0.185
-300.778	136.022	0.237	0.311
-299.764	8.147	0.227	0.172
-298.749	-59.668	0.143	-0.062
-297.735	-89.708	0.293	-0.086
-296.720	61.274	0.064	-0.064
-295.705	240.236	0.034	-0.058
-294.691	-155.362	-0.170	0.011
-293.676	800.000	-0.016	0.058
-292.662	800.000	-0.032	-0.130
-291.647	68.675	0.058	-0.060
-290.632	208.940	-0.086	0.135
-289.618	-200.000	0.003	0.019
-288.603	-200.000	0.021	-0.321
-287.589	800.000	-0.046	-0.196
-286.574	57.281	0.167	-0.164
-285.559	2.400	-0.190	0.138
-284.545	96.424	-0.169	0.195
-283.530	-47.319	-0.204	-0.100
-282.516	27.149	0.118	0.100
-281.501	238.442	-0.119	-0.200
-280.486	-200.000	-0.001	0.266
-279.472	113.520	0.088	0.107
-278.457	84.667	0.201	0.222
-277.443	429.896	-0.068	-0.147
-276.428	800.000	-0.056	-0.167
-275.413	-100.267	0.312	-0.078
-274.399	-200.000	0.019	-0.218
-273.384	800.000	0.089	0.280
-272.370	-7.210	-0.045	0.031
-271.355	-78.419	0.293	-0.101
-270.340	-4.121	-0.127	-0.089
-269.326	66.314	-0.165	-0.169
-268.311	250.451	0.060	0.102
-267.297	196.749	0.135	0.208
-266.282	552.537	-0.067	0.163
-265.267	-71.847	0.019	0.007
-264.253	-194.227	0.326	0.003
-263.238	-200.000	-0.009	-0.304
-262.224	800.000	0.034	0.108
-261.209	373.230	0.221	0.451
-260.195	-129.180	-0.335	-0.047
-259.180	-49.800	-0.221	-0.106
-258.165	-59.039	-0.404	0.175
-257.151	-153.846	-0.391	0.027
-256.136	-200.000	-0.011	0.177
-255.122	-200.000	0.046	-0.254
-254.107	-200.000	0.075	0.508
-253.092	-85.273	0.133	0.042
-252.078	-200.000	-0.042	0.534
-251.063	800.000	0.076	0.221
-250.049	179.112	-0.206	-0.302
-249.034	144.097	-0.152	-0.204
-248.019	224.150	0.044	-0.072
-247.005	313.779	-0.093	0.177
-245.990	-67.480	-0.143	0.057
-244.976	-35.923	-0.228	-0.124
-243.961	-200.000	-0.019	-0.130
-242.946	-200.000	-0.005	0.043
-241.932	107.858	-0.132	-0.158
-240.917	-200.000	0.031	0.314
-239.903	271.424	0.129	-0.228
-238.888	391.170	-0.068	-0.142
-237.873	-200.000	-0.006	0.328
-236.859	-45.898	-0.152	-0.075
-235.844	1.366	0.128	0.092
-234.830	-124.236	-0.230	0.036
-233.815	63.313	0.229	-0.231
-232.800	513.215	-0.131	0.308
-231.786	-32.757	0.303	-0.170
-230.771	87.660	-0.321	0.357
-229.757	-41.090	0.009	-0.005
-228.742	-14.571	0.162	-0.104
-227.727	19.171	-0.224	-0.181
-226.713	-30.313	-0.217	-0.124
-225.698	-18.415	-0.174	0.109
-224.684	-200.000	0.024	0.456
-223.669	-31.071	0.296	-0.168
-222.655	-20.615	-0.221	0.136
-221.640	7.174	-0.240	-0.180
-220.625	-31.246	-0.068	0.038
-219.611	-29.336	0.153	0.088
-218.596	-200.000	0.007	0.283
-217.582	-99.308	-0.074	0.019
-216.567	117.292	-0.070	0.086
-215.552	695.937	-0.031	-0.081
-214.538	7.444	0.087	-0.065
-213.523	-200.000	0.033	0.216
-212.509	63.816	0.220	-0.222
-211.494	798.842	-0.050	-0.138
-210.479	800.000	-0.026	-0.094
-209.465	-117.931	-0.281	0.051
-208.450	-101.480	0.185	-0.045
-207.436	800.000	0.015	-0.064
-206.421	147.568	0.239	0.324
-205.406	155.309	-0.104	-0.144
-204.392	-200.000	0.007	0.158
-203.377	99.238	-0.204	0.236
-202.363	93.660	-0.118	-0.134
-201.348	134.709	0.121	-0.157
-200.333	115.087	-0.075	0.092
-199.319	-200.000	-0.073	0.383
-198.304	124.756	-0.262	-0.330
-197.290	-200.000	0.005	-0.058
-196.275	24.632	0.194	0.161
-195.260	-200.000	-0.005	-0.324
-194.246	-200.000	0.005	-0.034
-193.231	-74.992	-0.319	0.115
-192.217	620.704	0.056	0.143
-191.202	-135.770	0.375	0.044
-190.187	26.140	0.103	0.087
-189.173	-2.475	0.267	0.188
-188.158	39.284	0.151	-0.135
-187.144	738.967	-0.069	-0.185
-186.129	7.768	-0.132	0.099
-185.114	151.964	0.153	-0.209
-184.100	717.435	0.029	-0.077
-183.085	-20.499	0.042	-0.026
-182.071	319.325	0.068	-0.129
-181.056	-61.081	-0.265	0.112
-180.042	-95.949	0.491	0.131
-179.027	122.611	-0.023	0.029
-178.012	355.241	0.008	-0.017
-176.998	-60.727	-0.354	0.150
-175.983	-11.795	-0.072	-0.047
-174.969	1.075	0.169	-0.122
-173.954	1.994	0.304	0.220
-172.939	139.914	-0.110	0.145
-171.925	176.710	0.113	0.165
-170.910	-66.722	-0.222	0.088
-169.896	-200.000	-0.004	-0.267
-168.881	-135.508	-0.079	0.009
-167.866	65.624	-0.114	-0.116
-166.852	-42.971	0.308	-0.157
-165.837	-200.000	0.088	-0.516
-164.823	-200.000	-0.019	0.356
-163.808	-200.000	-0.014	0.183
-162.793	-200.000	-0.015	-0.158
-161.779	-200.000	0.011	0.074
-160.764	252.798	0.099	-0.170
-159.750	20.316	-0.080	-0.065
-158.735	800.000	-0.045	-0.149
-157.720	629.454	0.088	-0.223
-156.706	73.006	0.049	0.051
-155.691	357.483	0.132	0.264
-154.677	-55.306	0.206	0.093
-153.662	26.269	0.065	-0.055
-152.647	-124.569	0.184	-0.029
-151.633	-99.338	0.309	-0.078
-150.618	-79.219	0.113	0.038
-149.604	39.424	-0.053	-0.047
-148.589	49.895	0.148	-0.140
-147.574	-15.564	-0.057	0.037
-146.560	256.253	0.049	0.083
-145.545	-55.533	0.275	-0.123
-144.531	314.094	0.038	-0.071
-143.516	800.000	-0.032	-0.105
-142.502	161.333	0.286	0.400
-141.487	70.455	-0.189	-0.195
-140.472	-51.623	0.183	-0.085
-139.458	-72.446	0.118	0.044
-138.443	-200.000	-0.010	-0.152
-137.429	4.857	-0.093	-0.069
-136.414	-200.000	0.009	-0.057
-135.399	-200.000	0.031	0.230
-134.385	-200.000	0.033	-0.184
-133.370	-200.000	0.005	0.122
-132.356	322.667	0.058	-0.110
-131.341	-78.152	0.055	0.019
-130.326	-193.177	0.251	-0.002
-129.312	82.111	-0.105	0.114
-128.297	51.370	0.088	0.084
-127.283	-8.432	-0.415	0.279
-126.268	504.762	-0.095	-0.219
-125.253	147.466	-0.143	0.193
-124.239	180.883	-0.187	-0.275
-123.224	-97.506	0.062	-0.016
-122.210	-121.825	-0.100	-0.016
-121.195	322.118	-0.202	0.385
