DTS Sentinel unit serial number:	SN413079Multiplexer serial number:	ORYXHardware model number:	OX4-SRSoftware version number:	ORYX F/W v4.00 Oryx Data Collector v3.7.2.0data status	okinstallation	princeton_trtdifferential loss correction	single-endedforward channel	channel 4reverse channel	N/Adate	2019/09/16time	12:57:35forward acquisition time	60.00reverse acquisition time	0.00gamma	496.2192k internal	0.2291k external	0.2291temperature offset calibration	0.9943default loss term (dB/km)	0.3790temperature slope calibration	1.0000multiplexer offset coefficient	1.0000multiplexer slope coefficient	1.0000fibre end	0.00T internal ref (°C)	40.50T ext. ref 1 (°C)	13.56T ext. ref 2 (°C)	37.47length (m)	temperature (°C)	Stokes	anti-Stokes-747.200	150.792	0.084	0.117
-746.185	42.365	0.123	0.115
-745.171	-200.000	0.090	0.560
-744.156	227.915	-0.213	0.354
-743.142	364.003	-0.135	-0.279
-742.127	50.887	-0.142	0.138
-741.112	-195.254	-0.115	-0.001
-740.098	-133.751	0.219	-0.028
-739.083	-90.368	-0.193	0.057
-738.069	-200.000	-0.093	0.594
-737.054	180.739	-0.181	-0.272
-736.039	289.862	0.029	0.054
-735.025	-44.216	-0.288	0.148
-734.010	-2.599	-0.267	0.192
-732.996	632.481	-0.097	-0.253
-731.981	-200.000	-0.021	-0.152
-730.966	-200.000	-0.019	0.155
-729.952	-93.220	0.069	-0.020
-728.937	-1.957	-0.065	0.047
-727.923	2.339	0.046	0.034
-726.908	35.880	-0.139	0.125
-725.894	-76.292	-0.405	-0.146
-724.879	-200.000	0.049	-0.361
-723.864	36.227	-0.210	0.190
-722.850	-50.890	0.271	0.131
-721.835	602.556	-0.134	-0.342
-720.821	-54.529	0.085	-0.040
-719.806	800.000	-0.070	0.232
-718.791	800.000	-0.051	0.172
-717.777	800.000	0.038	0.130
-716.762	35.939	0.082	-0.074
-715.748	612.534	0.083	0.213
-714.733	-95.189	-0.205	0.056
-713.718	-170.573	-0.161	0.006
-712.704	48.550	0.161	-0.155
-711.689	-5.906	-0.089	-0.062
-710.675	800.000	-0.072	0.250
-709.660	800.000	0.069	0.235
-708.645	23.341	0.142	0.120
-707.631	277.937	0.224	-0.408
-706.616	167.055	0.199	0.289
-705.602	800.000	-0.074	-0.228
-704.587	332.842	-0.089	-0.177
-703.572	-2.955	0.051	-0.036
-702.558	-81.975	-0.352	0.118
-701.543	-200.000	0.048	0.264
-700.529	800.000	0.035	0.120
-699.514	493.876	-0.155	-0.363
-698.499	-200.000	0.006	0.089
-697.485	-18.986	0.164	0.105
-696.470	21.557	-0.188	0.156
-695.456	-59.411	0.214	0.094
-694.441	-164.190	0.034	-0.002
-693.426	-42.604	0.318	-0.166
-692.412	355.722	0.020	-0.040
-691.397	-200.000	-0.026	0.213
-690.383	-126.375	-0.314	-0.048
-689.368	56.159	0.260	-0.258
-688.354	-200.000	0.054	-0.252
-687.339	44.665	0.258	0.243
-686.324	800.000	0.102	0.316
-685.310	47.352	-0.177	0.169
-684.295	-200.000	-0.006	0.062
-683.281	-200.000	-0.011	0.144
-682.266	147.740	-0.069	0.095
-681.251	57.350	0.142	-0.141
-680.237	-194.022	-0.139	-0.001
-679.222	-37.713	-0.412	-0.224
-678.208	159.790	0.170	-0.242
-677.193	-66.035	0.048	0.020
-676.178	800.000	0.045	-0.167
-675.164	120.698	-0.376	-0.477
-674.149	-136.865	0.164	-0.019
-673.135	121.578	0.094	0.119
-672.120	137.380	0.205	0.273
-671.105	58.122	0.152	-0.152
-670.091	-38.968	-0.099	0.053
-669.076	-161.270	0.178	0.009
-668.062	-113.375	0.185	-0.037
-667.047	-53.006	-0.230	-0.108
-666.032	769.500	-0.061	0.171
-665.018	311.291	0.084	0.162
-664.003	800.000	0.141	-0.402
-662.989	5.149	-0.232	-0.174
-661.974	48.095	0.052	0.050
-660.959	267.215	0.093	0.167
-659.945	-200.000	-0.015	0.208
-658.930	137.332	-0.065	-0.086
-657.916	800.000	0.061	0.184
-656.901	-67.055	0.300	-0.121
-655.886	800.000	0.092	-0.284
-654.872	-104.605	0.207	0.049
-653.857	-200.000	0.038	0.288
-652.843	-39.492	-0.316	0.169
-651.828	-200.000	-0.007	-0.375
-650.814	-70.804	0.131	-0.051
-649.799	15.713	-0.152	0.122
-648.784	-115.024	-0.171	-0.033
-647.770	-1.062	-0.196	0.142
-646.755	113.395	-0.058	0.072
-645.741	174.958	0.043	0.064
-644.726	107.689	-0.089	0.109
-643.711	-200.000	0.028	0.220
-642.697	-93.070	0.263	0.075
-641.682	145.595	0.189	-0.258
-640.668	62.663	-0.108	0.110
-639.653	-200.000	-0.052	0.246
-638.638	436.007	-0.069	-0.153
-637.624	-90.367	0.189	-0.056
-636.609	800.000	0.021	0.078
-635.595	-92.470	-0.129	-0.037
-634.580	234.737	0.151	-0.254
-633.565	-200.000	-0.092	0.709
-632.551	67.164	-0.068	-0.071
-631.536	-62.309	0.171	0.073
-630.522	0.028	0.093	0.067
-629.507	-50.586	0.103	0.050
-628.492	-96.397	-0.063	-0.017
-627.478	-9.995	-0.272	-0.184
-626.463	800.000	-0.047	0.164
-625.449	-139.720	-0.630	0.068
-624.434	-96.718	0.146	0.039
-623.419	-37.024	0.231	-0.126
-622.405	623.909	0.110	-0.282
-621.390	146.196	0.116	-0.159
-620.376	-158.610	0.084	-0.005
-619.361	199.846	0.100	0.156
-618.346	-72.814	-0.266	-0.100
-617.332	-14.169	-0.223	0.146
-616.317	137.607	0.101	0.135
-615.303	-167.639	0.260	-0.011
-614.288	-78.129	0.061	-0.021
-613.273	800.000	0.036	-0.161
-612.259	67.366	-0.248	0.258
-611.244	-71.056	-0.093	-0.036
-610.230	-94.852	-0.235	-0.065
-609.215	-7.948	-0.068	-0.047
-608.201	800.000	-0.105	0.378
-607.186	-102.422	0.018	0.004
-606.171	231.026	0.127	0.212
-605.157	-156.585	-0.324	0.020
-604.142	-200.000	-0.015	-0.106
-603.128	-200.000	-0.010	-0.100
-602.113	207.034	-0.015	0.024
-601.098	482.750	0.058	0.135
-600.084	128.928	-0.162	0.210
-599.069	633.783	0.031	0.080
-598.055	-52.234	-0.324	0.153
-597.040	-42.831	-0.162	-0.084
-596.025	-131.759	0.235	0.031
-595.011	-200.000	-0.013	-0.094
-593.996	-200.000	0.016	-0.160
-592.982	-200.000	0.060	-0.302
-591.967	800.000	-0.060	0.177
-590.952	-120.307	0.303	-0.053
-589.938	329.897	0.105	0.205
-588.923	48.184	-0.232	0.221
-587.909	-200.000	-0.024	0.158
-586.894	566.991	-0.036	-0.089
-585.879	443.618	-0.071	0.159
-584.865	223.776	-0.110	0.181
-583.850	-140.942	0.136	0.014
-582.836	-52.384	-0.097	-0.046
-581.821	16.714	0.230	-0.185
-580.806	33.909	-0.073	-0.064
-579.792	-107.798	-0.170	0.038
-578.777	24.976	0.150	-0.127
-577.763	373.426	-0.087	-0.181
-576.748	101.642	-0.178	0.211
-575.733	-118.656	0.208	0.037
-574.719	-44.386	-0.165	-0.084
-573.704	188.815	-0.146	0.223
-572.690	-30.561	0.114	-0.066
-571.675	800.000	-0.013	0.057
-570.661	29.846	-0.216	0.187
-569.646	-106.520	0.256	0.058
-568.631	-102.987	-0.349	-0.084
-567.617	800.000	0.104	-0.308
-566.602	-10.188	-0.116	-0.079
-565.588	-56.727	-0.076	-0.034
-564.573	323.033	0.160	0.310
-563.558	800.000	-0.088	-0.351
-562.544	-200.000	0.015	0.098
-561.529	800.000	-0.098	-0.385
-560.515	-200.000	0.003	-0.172
-559.500	386.809	-0.169	0.354
-558.485	260.120	0.076	0.133
-557.471	26.874	-0.100	-0.085
-556.456	76.705	0.126	-0.136
-555.442	-200.000	-0.057	0.380
-554.427	-76.481	-0.241	-0.086
-553.412	-200.000	0.053	-0.267
-552.398	100.694	0.132	-0.156
-551.383	236.571	-0.019	0.032
-550.369	-200.000	-0.026	0.189
-549.354	-90.296	-0.228	-0.067
-548.339	-29.118	-0.308	-0.179
-547.325	-200.000	-0.022	0.137
-546.310	174.965	0.092	0.135
-545.296	-69.255	0.165	0.064
-544.281	-200.000	0.056	0.375
-543.266	292.990	0.063	0.116
-542.252	-58.987	-0.187	0.082
-541.237	190.498	0.113	0.173
-540.223	-6.847	-0.040	0.028
-539.208	99.659	-0.081	-0.095
-538.193	-32.698	-0.075	0.043
-537.179	27.938	-0.087	0.075
-536.164	-111.936	0.233	0.048
-535.150	-200.000	-0.063	0.375
-534.135	45.054	0.107	-0.100
-533.121	-90.840	-0.511	-0.150
-532.106	16.937	-0.179	0.144
-531.091	-86.860	-0.058	0.018
-530.077	-45.926	-0.152	0.076
-529.062	-200.000	0.049	-0.223
-528.048	87.129	-0.153	0.171
-527.033	219.525	0.121	-0.197
-526.018	-154.401	-0.248	-0.017
-525.004	-200.000	-0.002	0.012
-523.989	-91.357	0.107	0.031
-522.975	246.832	-0.082	-0.141
-521.960	20.698	-0.129	-0.106
-520.945	46.504	0.078	-0.073
-519.931	-200.000	0.069	-0.355
-518.916	-151.335	0.157	-0.012
-517.902	-200.000	0.021	-0.228
-516.887	86.415	0.129	0.145
-515.872	-31.593	-0.211	0.120
-514.858	-190.084	0.349	0.004
-513.843	401.880	0.088	-0.188
-512.829	-5.809	-0.221	0.153
-511.814	-200.000	-0.034	0.302
-510.799	-200.000	-0.064	-0.000
-509.785	106.801	0.140	-0.169
-508.770	-61.419	0.293	0.125
-507.756	66.303	0.197	-0.203
-506.741	94.011	-0.162	-0.187
-505.726	313.403	-0.126	0.241
-504.712	-146.044	-0.140	0.013
-503.697	-5.280	0.156	0.109
-502.683	800.000	0.049	-0.139
-501.668	-104.777	-0.249	-0.058
-500.653	800.000	0.101	0.300
-499.639	-62.053	-0.440	0.186
-498.624	-99.823	-0.306	-0.078
-497.610	-72.697	0.296	-0.111
-496.595	-117.260	-0.092	0.017
-495.581	-71.782	0.216	0.082
-494.566	-200.000	0.042	0.314
-493.551	-200.000	-0.076	-0.446
-492.537	-180.843	0.134	0.003
-491.522	-16.678	0.133	-0.085
-490.508	76.561	-0.180	-0.193
-489.493	185.544	0.065	-0.098
-488.478	800.000	-0.026	-0.079
-487.464	-200.000	-0.004	-0.220
-486.449	-200.000	0.031	-0.229
-485.435	-11.501	-0.105	-0.070
-484.420	800.000	-0.010	-0.038
-483.405	-156.235	0.188	-0.012
-482.391	-200.000	-0.009	-0.060
-481.376	97.756	0.098	-0.115
-480.362	-129.374	0.106	-0.015
-479.347	-200.000	-0.016	-0.071
-478.332	800.000	-0.056	-0.230
-477.318	-179.292	-0.205	0.005
-476.303	-51.894	-0.093	0.044
-475.289	258.492	0.019	0.034
-474.274	2.186	0.370	-0.271
-473.259	298.809	0.174	-0.324
-472.245	146.069	0.167	-0.227
-471.230	-96.131	-0.123	0.033
-470.216	99.773	0.158	-0.185
-469.201	166.080	0.135	0.194
-468.186	-168.135	0.476	-0.019
-467.172	800.000	-0.047	0.190
-466.157	210.299	0.107	0.170
-465.143	800.000	0.036	-0.124
-464.128	-31.498	0.159	0.091
-463.113	476.248	-0.235	0.538
-462.099	-22.934	0.125	0.076
-461.084	-56.610	0.265	-0.119
-460.070	800.000	0.059	-0.217
-459.055	-48.469	-0.285	-0.139
-458.040	281.634	0.057	-0.103
-457.026	-200.000	0.076	-0.390
-456.011	-148.968	0.531	-0.043
-454.997	-111.328	-0.362	-0.075
-453.982	75.434	-0.102	0.109
-452.968	-57.000	0.157	0.070
-451.953	343.387	0.067	-0.133
-450.938	272.872	0.128	0.229
-449.924	53.409	-0.129	0.125
-448.909	800.000	0.075	-0.224
-447.895	291.313	0.146	0.269
-446.880	391.064	0.051	-0.106
-445.865	-135.229	-0.069	-0.008
-444.851	16.699	0.150	-0.120
-443.836	-71.613	-0.153	0.058
-442.822	282.587	-0.240	0.435
-441.807	-200.000	-0.036	-0.286
-440.792	-32.637	-0.068	-0.038
-439.778	-133.581	-0.064	0.008
-438.763	-200.000	-0.017	0.142
-437.749	-176.197	0.259	-0.007
-436.734	-10.450	0.108	-0.072
-435.719	-30.126	-0.104	0.060
-434.705	-101.087	0.140	0.035
-433.690	306.238	0.155	0.293
-432.676	-15.560	0.138	0.089
-431.661	800.000	-0.089	-0.254
-430.646	255.191	0.145	-0.250
-429.632	360.551	0.182	-0.369
-428.617	38.097	-0.034	-0.031
-427.603	-3.453	-0.099	-0.070
-426.588	-200.000	0.030	0.311
-425.573	-200.000	-0.003	-0.236
-424.559	-200.000	-0.062	-0.315
-423.544	526.597	-0.071	-0.169
-422.530	397.074	-0.256	-0.542
-421.515	71.177	0.029	-0.030
-420.500	225.428	-0.098	-0.161
-419.486	-150.728	0.242	0.019
-418.471	375.457	0.129	0.266
-417.457	12.943	0.255	0.199
-416.442	-200.000	-0.025	0.629
-415.428	-200.000	0.034	0.252
-414.413	-120.682	0.144	0.025
-413.398	-45.093	0.207	-0.104
-412.384	-94.549	0.228	-0.063
-411.369	-103.266	-0.110	-0.026
-410.355	-200.000	-0.007	0.266
-409.340	68.100	0.105	-0.109
-408.325	683.644	-0.149	0.393
-407.311	280.064	-0.140	0.253
-406.296	20.043	-0.107	-0.087
-405.282	65.110	0.115	-0.118
-404.267	-86.635	0.153	-0.047
-403.252	-15.290	-0.227	-0.146
-402.238	4.944	0.129	-0.096
-401.223	-200.000	-0.012	0.056
-400.209	490.236	-0.035	0.081
-399.194	-200.000	0.044	0.240
-398.179	60.569	-0.222	0.222
-397.165	800.000	-0.088	-0.349
-396.150	-179.712	0.326	0.007
-395.136	126.553	0.138	-0.176
-394.121	300.615	0.151	-0.281
-393.106	768.898	-0.131	0.361
-392.092	-54.097	0.021	-0.009
-391.077	300.485	0.142	0.265
-390.063	529.634	0.114	-0.271
-389.048	-30.191	-0.168	-0.096
-388.033	-200.000	-0.010	0.060
-387.019	26.028	-0.057	-0.048
-386.004	96.505	-0.203	-0.234
-384.990	800.000	-0.044	0.136
-383.975	71.734	0.071	-0.075
-382.960	-90.479	0.143	0.042
-381.946	26.226	0.209	-0.176
-380.931	30.542	-0.184	0.159
-379.917	-200.000	-0.046	-0.368
-378.902	-54.497	-0.212	-0.097
-377.888	-195.988	-0.188	0.001
-376.873	668.432	0.052	-0.135
-375.858	366.045	0.108	0.221
-374.844	-42.315	0.175	0.090
-373.829	142.670	-0.093	-0.125
-372.815	36.811	-0.107	-0.095
-371.800	-69.382	0.233	-0.090
-370.785	-200.000	-0.016	0.088
-369.771	-33.471	-0.147	-0.082
-368.756	600.543	0.082	-0.206
-367.742	175.257	0.084	-0.122
-366.727	223.647	-0.041	-0.067
-365.712	-66.299	0.286	0.115
-364.698	-200.000	-0.009	0.142
-363.683	-135.523	-0.222	-0.027
-362.669	202.327	-0.175	-0.272
-361.654	-200.000	0.040	0.365
-360.639	-113.429	0.104	0.021
-359.625	103.090	0.187	-0.221
-358.610	-78.027	-0.218	0.076
-357.596	105.001	-0.243	-0.290
-356.581	-200.000	-0.036	0.226
-355.566	-36.225	-0.173	0.094
-354.552	800.000	-0.007	-0.026
-353.537	-200.000	-0.022	0.160
-352.523	111.159	-0.126	0.154
-351.508	135.991	0.206	0.271
-350.493	-11.575	0.112	-0.074
-349.479	-105.394	0.203	0.047
-348.464	-34.851	0.340	-0.187
-347.450	-200.000	-0.003	0.034
-346.435	-87.971	0.045	-0.014
-345.420	333.666	0.066	0.130
-344.406	-200.000	0.030	0.191
-343.391	138.535	-0.123	-0.163
-342.377	352.203	0.072	0.145
-341.362	417.082	-0.077	0.166
-340.348	57.223	-0.089	-0.087
-339.333	-117.587	-0.336	-0.061
-338.318	301.322	0.174	-0.324
-337.304	28.321	0.179	0.152
-336.289	-126.235	0.152	0.023
-335.275	220.705	0.086	-0.140
-334.260	-51.571	-0.325	0.153
-333.245	695.903	-0.077	-0.203
-332.231	-200.000	-0.031	-0.226
-331.216	800.000	0.055	-0.209
-330.202	197.265	-0.084	0.129
-329.187	10.475	-0.219	0.168
-328.172	347.350	0.088	-0.175
-327.158	590.824	0.100	-0.248
-326.143	-118.489	-0.217	0.039
-325.129	-61.529	-0.290	-0.123
-324.114	800.000	0.115	0.393
-323.099	800.000	0.049	-0.167
-322.085	-59.733	0.204	0.088
-321.070	125.289	0.076	-0.097
-320.056	800.000	0.142	0.597
-319.041	-86.962	0.212	-0.065
-318.026	-159.402	0.280	-0.016
-317.012	18.672	0.010	-0.008
-315.997	-11.769	0.069	0.045
-314.983	306.459	0.052	0.098
-313.968	800.000	0.047	0.163
-312.953	-28.092	0.170	-0.099
-311.939	228.091	0.111	-0.182
-310.924	42.554	0.167	0.153
-309.910	-82.850	0.274	0.089
-308.895	-200.000	0.020	-0.334
-307.880	-68.772	0.270	0.105
-306.866	142.973	0.280	0.375
-305.851	-181.382	-0.132	0.003
-304.837	-44.682	-0.113	-0.057
-303.822	-200.000	-0.012	0.238
-302.807	-200.000	-0.025	0.182
-301.793	33.543	-0.242	-0.212
-300.778	323.771	-0.192	-0.368
-299.764	-33.871	0.092	0.051
-298.749	232.511	-0.140	0.231
-297.735	10.472	-0.069	-0.053
-296.720	-101.893	0.314	-0.076
-295.705	-23.581	0.215	-0.130
-294.691	-200.000	0.031	0.242
-293.676	148.551	-0.060	-0.081
-292.662	-143.597	-0.142	-0.014
-291.647	-117.109	-0.265	-0.049
-290.632	-163.254	-0.271	0.013
-289.618	54.198	0.085	0.082
-288.603	-14.379	0.193	-0.125
-287.589	-60.755	-0.250	0.106
-286.574	-13.453	-0.177	-0.116
-285.559	-200.000	0.014	-0.241
-284.545	-162.316	0.210	-0.011
-283.530	-200.000	0.013	-0.298
-282.516	-200.000	-0.060	-0.349
-281.501	-23.000	-0.420	-0.255
-280.486	-119.821	0.310	-0.054
-279.472	-200.000	-0.012	0.113
-278.457	800.000	0.072	0.227
-277.443	6.246	-0.344	-0.257
-276.428	-26.042	0.086	-0.051
-275.413	-125.023	0.315	0.049
-274.399	9.327	0.163	-0.124
-273.384	-69.589	-0.217	-0.083
-272.370	105.323	0.020	-0.023
-271.355	8.492	0.223	-0.169
-270.340	-200.000	-0.044	-0.307
-269.326	-120.077	-0.338	-0.058
-268.311	-90.501	0.296	-0.086
-267.297	-110.670	-0.520	0.108
-266.282	206.748	-0.086	0.135
-265.267	106.441	0.088	0.105
-264.253	170.860	0.073	-0.105
-263.238	800.000	-0.030	-0.104
-262.224	-47.185	-0.093	0.046
-261.209	800.000	0.114	-0.373
-260.195	800.000	0.028	0.084
-259.180	183.944	-0.194	0.289
-258.165	403.256	-0.155	-0.327
-257.151	113.795	-0.088	-0.107
-256.136	-102.839	-0.054	-0.013
-255.122	261.837	0.036	0.062
-254.107	217.550	-0.164	0.263
-253.092	-53.803	0.231	-0.106
-252.078	-110.215	0.313	-0.066
-251.063	176.581	-0.111	-0.163
-250.049	229.040	0.128	0.210
-249.034	-16.480	0.277	0.176
-248.019	391.745	-0.084	-0.176
-247.005	100.870	-0.133	-0.155
-245.990	137.433	-0.092	-0.120
-244.976	-88.293	-0.291	-0.087
-243.961	132.602	0.123	0.159
-242.946	-200.000	-0.004	-0.129
-241.932	-181.277	-0.299	0.006
-240.917	14.794	-0.074	0.058
-239.903	-42.014	-0.243	0.125
-238.888	7.832	-0.093	0.070
-237.873	-196.228	0.233	-0.002
-236.859	35.921	0.127	0.112
-235.844	-97.757	0.268	0.070
-234.830	212.899	-0.244	0.386
-233.815	33.710	0.046	0.040
-232.800	261.397	0.104	0.180
-231.786	-80.306	-0.228	0.077
-230.771	740.658	0.149	-0.402
-229.757	-62.064	-0.231	0.097
-228.742	-108.100	-0.243	-0.053
-227.727	-56.681	0.144	0.064
-226.713	-200.000	0.007	-0.145
-225.698	-58.980	-0.441	0.191
-224.684	-200.000	0.044	0.226
-223.669	496.247	0.068	0.157
-222.655	109.216	0.095	0.114
-221.640	410.609	0.138	0.293
-220.625	-200.000	0.013	-0.064
-219.611	59.503	0.015	0.015
-218.596	800.000	-0.044	-0.132
-217.582	-200.000	-0.022	-0.116
-216.567	-27.413	0.102	-0.059
-215.552	-200.000	-0.023	0.226
-214.538	-200.000	-0.003	0.408
-213.523	104.916	0.155	-0.184
-212.509	-147.365	-0.182	-0.015
-211.494	-200.000	-0.033	-0.307
-210.479	-64.570	-0.294	0.120
-209.465	800.000	-0.123	-0.422
-208.450	-119.782	-0.306	-0.053
-207.436	-200.000	-0.008	0.079
-206.421	-72.601	-0.051	0.019
-205.406	434.486	-0.175	-0.381
-204.392	141.878	0.145	-0.192
-203.377	-200.000	0.093	0.437
-202.363	642.668	-0.131	0.336
-201.348	-98.579	0.182	-0.047
-200.333	-6.612	-0.187	0.127
-199.319	380.812	0.109	0.223
-198.304	-200.000	-0.065	-0.289
-197.290	101.465	-0.104	0.122
-196.275	578.107	0.113	0.276
-195.260	178.387	0.127	0.186
-194.246	800.000	-0.093	-0.327
-193.231	-200.000	-0.015	0.251
-192.217	38.798	0.270	0.241
-191.202	-59.241	-0.090	-0.039
-190.187	190.001	0.147	-0.222
-189.173	-55.015	0.431	0.194
-188.158	216.033	-0.135	0.215
-187.144	-200.000	-0.021	0.158
-186.129	-179.681	-0.066	0.001
-185.114	40.197	0.306	-0.276
-184.100	800.000	-0.079	-0.236
-183.085	27.108	0.152	0.128
-182.071	-17.855	0.089	-0.056
-181.056	-200.000	-0.006	0.241
-180.042	-63.547	0.201	-0.083
-179.027	-78.084	-0.395	-0.136
-178.012	-178.670	0.088	0.002
-176.998	109.606	0.190	-0.228
-175.983	800.000	-0.080	-0.308
-174.969	-155.437	0.551	0.036
-173.954	147.898	0.062	0.084
-172.939	117.187	-0.120	0.147
-171.925	-178.050	-0.216	0.005
-170.910	-85.354	-0.370	-0.116
-169.896	73.312	-0.179	0.187
-168.881	-62.435	-0.193	0.080
-167.866	-16.682	-0.207	-0.131
-166.852	169.620	0.189	-0.271
-165.837	-200.000	0.065	0.367
-164.823	-143.769	0.072	0.007
-163.808	-42.239	0.373	-0.191
-162.793	268.819	-0.038	-0.067
-161.779	-200.000	0.027	-0.136
-160.764	10.834	0.210	0.160
-159.750	76.687	0.170	0.180
-158.735	800.000	0.067	0.246
-157.720	149.973	-0.042	-0.057
-156.706	-50.133	-0.415	-0.196
-155.691	68.171	0.153	-0.157
-154.677	69.879	0.230	0.237
-153.662	-200.000	0.037	0.273
-152.647	26.912	-0.160	-0.134
-151.633	-135.183	0.061	0.007
-150.618	-11.653	-0.146	0.096
-149.604	7.881	-0.147	-0.110
-148.589	-200.000	-0.076	0.401
-147.574	485.743	-0.132	-0.301
-146.560	53.401	0.138	0.133
-145.545	67.578	0.319	0.326
-144.531	800.000	0.062	0.194
-143.516	-200.000	-0.019	-0.313
-142.502	-52.690	-0.183	0.084
-141.487	-153.948	0.420	-0.029
-140.472	800.000	0.048	-0.183
-139.458	2.088	0.087	0.063
-138.443	145.396	0.189	-0.253
-137.429	800.000	0.071	-0.226
-136.414	-200.000	0.027	-0.215
-135.399	-200.000	-0.035	-0.254
-134.385	-167.179	-0.318	0.013
-133.370	-29.290	-0.218	0.125
-132.356	-200.000	-0.034	0.246
-131.341	-135.151	-0.163	-0.020
-130.326	-200.000	0.019	0.233
-129.312	149.290	-0.230	0.311
-128.297	-173.856	0.070	-0.002
-127.283	-69.068	0.240	-0.092
-126.268	800.000	-0.182	0.529
-125.253	-200.000	0.024	0.267
-124.239	-68.618	-0.279	0.108
-123.224	77.477	-0.201	-0.213
-122.210	-157.699	0.169	-0.010
-121.195	54.007	0.111	0.106
