DTS Sentinel unit serial number:	SN413079Multiplexer serial number:	ORYXHardware model number:	OX4-SRSoftware version number:	ORYX F/W v4.00 Oryx Data Collector v3.7.2.0data status	okinstallation	princeton_trtdifferential loss correction	single-endedforward channel	channel 4reverse channel	N/Adate	2019/09/17time	17:13:35forward acquisition time	60.00reverse acquisition time	0.00gamma	496.2192k internal	0.2279k external	0.2279temperature offset calibration	0.9976default loss term (dB/km)	0.3790temperature slope calibration	1.0000multiplexer offset coefficient	1.0000multiplexer slope coefficient	1.0000fibre end	0.00T internal ref (°C)	42.87T ext. ref 1 (°C)	0.34T ext. ref 2 (°C)	38.85length (m)	temperature (°C)	Stokes	anti-Stokes-747.200	-27.369	0.080	-0.048
-746.185	800.000	0.118	0.438
-745.171	-200.000	-0.012	0.253
-744.156	800.000	-0.021	-0.081
-743.142	-200.000	-0.023	0.109
-742.127	19.525	-0.516	0.427
-741.112	-200.000	0.036	0.233
-740.098	-200.000	0.016	0.198
-739.083	-200.000	-0.078	0.372
-738.069	800.000	-0.056	0.218
-737.054	-45.578	-0.281	0.143
-736.039	-200.000	-0.021	-0.185
-735.025	800.000	0.074	0.280
-734.010	267.149	0.095	0.170
-732.996	-200.000	-0.017	-0.337
-731.981	-89.591	-0.233	0.070
-730.966	172.199	0.075	0.111
-729.952	134.761	0.077	-0.103
-728.937	-60.848	0.111	-0.048
-727.923	-65.813	-0.514	0.212
-726.908	29.498	0.006	0.005
-725.894	44.927	-0.112	-0.106
-724.879	-45.210	-0.066	-0.034
-723.864	-94.186	0.310	-0.087
-722.850	-67.213	-0.168	-0.068
-721.835	-200.000	0.027	-0.262
-720.821	-200.000	-0.018	-0.222
-719.806	800.000	-0.072	-0.215
-718.791	-16.871	-0.290	0.188
-717.777	800.000	0.091	0.314
-716.762	222.752	0.050	0.082
-715.748	11.986	0.074	-0.059
-714.733	-145.174	-0.402	-0.037
-713.718	70.277	-0.358	-0.380
-712.704	87.903	0.190	0.217
-711.689	213.564	-0.175	-0.284
-710.675	-200.000	0.023	-0.252
-709.660	266.780	0.080	-0.144
-708.645	315.762	-0.072	0.140
-707.631	2.246	0.165	-0.122
-706.616	-200.000	-0.023	-0.254
-705.602	62.123	-0.111	-0.114
-704.587	720.647	0.081	-0.221
-703.572	800.000	0.022	0.072
-702.558	-131.187	-0.097	0.013
-701.543	249.344	-0.101	0.176
-700.529	-200.000	0.020	-0.097
-699.514	-75.242	-0.279	0.102
-698.499	304.015	0.160	-0.305
-697.485	95.071	-0.099	0.116
-696.470	176.690	-0.153	0.229
-695.456	800.000	-0.052	0.163
-694.441	482.214	0.116	-0.270
-693.426	800.000	-0.066	-0.192
-692.412	46.536	-0.270	-0.257
-691.397	-126.287	-0.220	-0.034
-690.383	30.080	0.202	-0.177
-689.368	-1.336	0.150	0.109
-688.354	483.529	0.156	0.364
-687.339	21.185	-0.233	-0.194
-686.324	-131.027	0.331	0.045
-685.310	-39.993	-0.124	0.066
-684.295	175.518	-0.118	0.176
-683.281	-60.224	-0.272	-0.119
-682.266	-200.000	0.036	-0.176
-681.251	239.530	-0.091	-0.156
-680.237	-89.566	0.244	0.074
-679.222	95.398	-0.129	-0.150
-678.208	-22.201	0.105	-0.065
-677.193	-200.000	0.052	-0.467
-676.178	-91.166	-0.131	0.039
-675.164	-75.002	0.061	-0.022
-674.149	-148.489	0.372	-0.031
-673.135	-172.880	-0.109	-0.003
-672.120	65.944	0.077	0.080
-671.105	-78.316	0.273	0.096
-670.091	-200.000	0.052	0.268
-669.076	-64.519	-0.208	-0.087
-668.062	89.713	-0.132	-0.151
-667.047	561.847	-0.071	-0.176
-666.032	381.690	-0.092	0.193
-665.018	-41.203	0.313	0.166
-664.003	-27.989	-0.170	-0.101
-662.989	125.295	-0.239	0.310
-661.974	4.962	0.128	0.097
-660.959	140.073	0.286	0.387
-659.945	-121.549	-0.276	0.047
-658.930	800.000	-0.060	-0.188
-657.916	-98.523	0.350	0.092
-656.901	-79.091	-0.255	0.089
-655.886	-108.278	-0.051	0.011
-654.872	-115.882	0.119	-0.023
-653.857	-105.939	-0.302	-0.070
-652.843	800.000	-0.011	0.047
-651.828	-200.000	0.032	-0.201
-650.814	-200.000	-0.009	-0.257
-649.799	761.574	0.077	-0.215
-648.784	-200.000	-0.011	-0.082
-647.770	-44.523	0.107	-0.055
-646.755	182.669	-0.166	0.250
-645.741	-136.574	-0.158	0.019
-644.726	800.000	-0.057	-0.186
-643.711	-113.477	0.203	-0.041
-642.697	594.496	-0.043	0.110
-641.682	-59.840	0.225	-0.099
-640.668	-88.216	-0.105	0.032
-639.653	16.309	-0.097	-0.079
-638.638	-146.799	0.299	0.026
-637.624	220.286	0.077	-0.127
-636.609	-111.489	-0.377	0.079
-635.595	-200.000	-0.020	0.196
-634.580	161.173	0.014	0.020
-633.565	-10.070	-0.189	-0.128
-632.551	-118.304	-0.248	-0.045
-631.536	96.678	0.130	-0.153
-630.522	-200.000	0.010	-0.054
-629.507	-40.692	0.206	-0.110
-628.492	11.006	0.165	0.129
-627.478	332.586	-0.172	0.340
-626.463	800.000	-0.014	-0.039
-625.449	800.000	-0.077	-0.220
-624.434	6.965	-0.157	-0.120
-623.419	-178.455	0.349	0.008
-622.405	-3.762	0.162	-0.115
-621.390	-200.000	-0.004	-0.072
-620.376	-200.000	-0.002	0.090
-619.361	151.685	-0.265	0.369
-618.346	337.799	-0.052	0.104
-617.332	800.000	-0.124	-0.369
-616.317	-200.000	0.032	-0.160
-615.303	-154.332	0.277	0.019
-614.288	-200.000	0.001	0.089
-613.273	419.488	-0.135	0.295
-612.259	342.913	-0.096	0.192
-611.244	499.530	-0.135	0.318
-610.230	39.901	0.042	0.038
-609.215	-133.032	-0.123	-0.016
-608.201	75.998	0.238	0.258
-607.186	365.157	0.163	0.335
-606.171	-93.517	-0.288	-0.082
-605.157	82.704	-0.245	-0.273
-604.142	176.369	-0.087	-0.130
-603.128	-77.375	-0.338	0.120
-602.113	-25.478	-0.171	0.103
-601.098	196.732	-0.043	0.068
-600.084	-19.978	0.047	0.029
-599.069	-200.000	-0.007	0.089
-598.055	-79.958	-0.028	0.010
-597.040	-38.281	0.248	0.135
-596.025	753.669	-0.061	-0.169
-595.011	-58.598	0.084	-0.037
-593.996	523.077	-0.074	-0.179
-592.982	-200.000	-0.015	-0.264
-591.967	53.891	0.007	-0.007
-590.952	-85.683	0.144	-0.046
-589.938	27.840	0.178	-0.154
-588.923	800.000	0.044	0.162
-587.909	523.312	0.068	0.164
-586.894	210.336	-0.170	0.273
-585.879	-35.807	0.130	0.072
-584.865	-67.817	-0.165	0.066
-583.850	12.632	-0.068	0.053
-582.836	-42.489	0.036	-0.019
-581.821	-149.693	-0.227	-0.018
-580.806	-70.594	-0.170	0.066
-579.792	69.123	0.047	0.049
-578.777	-187.177	-0.245	-0.003
-577.763	-200.000	0.003	0.165
-576.748	-50.050	-0.112	0.054
-575.733	-70.039	0.094	0.037
-574.719	179.088	-0.206	0.308
-573.704	-159.547	0.301	-0.017
-572.690	-62.330	-0.080	0.034
-571.675	-25.189	0.250	-0.152
-570.661	-200.000	0.008	0.089
-569.646	90.824	-0.155	0.178
-568.631	48.687	-0.062	-0.059
-567.617	-39.109	0.071	0.038
-566.602	800.000	-0.117	-0.332
-565.588	219.359	-0.090	0.148
-564.573	-200.000	0.020	-0.230
-563.558	-83.081	0.227	0.075
-562.544	162.379	-0.218	0.312
-561.529	73.812	-0.184	-0.198
-560.515	-29.697	0.321	-0.187
-559.500	-114.558	-0.164	-0.032
-558.485	800.000	-0.042	0.149
-557.471	-27.152	0.191	-0.114
-556.456	-130.964	0.565	-0.077
-555.442	800.000	0.064	-0.240
-554.427	39.862	0.051	-0.047
-553.412	-66.048	0.197	0.080
-552.398	-200.000	0.002	0.123
-551.383	194.640	0.083	0.128
-550.369	-200.000	-0.051	-0.248
-549.354	-22.962	-0.140	0.086
-548.339	145.704	0.182	0.249
-547.325	392.950	-0.182	0.387
-546.310	-186.567	-0.296	0.004
-545.296	144.162	-0.179	0.244
-544.281	-60.559	-0.278	-0.120
-543.266	1.451	0.207	-0.152
-542.252	-116.263	0.085	0.016
-541.237	-44.918	-0.224	-0.114
-540.223	45.923	-0.097	-0.092
-539.208	800.000	-0.150	-0.580
-538.193	133.708	-0.118	-0.156
-537.179	271.926	0.085	0.152
-536.164	524.076	-0.069	0.166
-535.150	-200.000	0.050	0.313
-534.135	-11.910	-0.139	-0.093
-533.121	800.000	0.078	0.349
-532.106	122.596	-0.272	-0.347
-531.091	-164.959	-0.129	0.006
-530.077	28.556	-0.153	-0.132
-529.062	568.787	0.086	-0.213
-528.048	124.579	0.195	-0.250
-527.033	-74.611	0.062	0.023
-526.018	-85.695	0.146	0.046
-525.004	-0.713	0.194	-0.140
-523.989	48.480	-0.132	-0.126
-522.975	-26.870	-0.029	-0.017
-521.960	224.154	0.084	-0.138
-520.945	9.617	0.068	0.052
-519.931	-36.135	0.464	0.256
-518.916	800.000	0.014	-0.058
-517.902	-128.553	-0.146	0.021
-516.887	86.313	-0.137	-0.154
-515.872	800.000	-0.129	-0.379
-514.858	-77.759	-0.061	-0.021
-513.843	-52.479	-0.074	-0.035
-512.829	-87.523	0.081	-0.025
-511.814	395.259	-0.045	-0.095
-510.799	-111.663	-0.227	-0.047
-509.785	-62.016	0.204	0.087
-508.770	220.258	0.247	0.404
-507.756	-142.086	0.564	-0.057
-506.741	93.353	0.282	-0.325
-505.726	-135.168	0.311	-0.038
-504.712	324.137	-0.177	0.345
-503.697	209.817	-0.021	0.033
-502.683	-54.641	-0.209	0.096
-501.668	-183.245	0.141	-0.003
-500.653	-146.264	0.087	0.008
-499.639	5.289	0.205	-0.154
-498.624	-6.428	-0.227	-0.157
-497.610	400.146	-0.121	-0.259
-496.595	-200.000	-0.004	0.230
-495.581	161.027	0.162	-0.231
-494.566	7.905	-0.179	-0.136
-493.551	40.129	0.053	0.048
-492.537	184.608	0.072	0.109
-491.522	-117.034	-0.074	-0.014
-490.508	-135.789	-0.272	0.033
-489.493	44.082	0.090	0.084
-488.478	800.000	-0.062	0.181
-487.464	409.324	0.081	0.175
-486.449	-131.413	0.157	0.021
-485.435	-200.000	0.049	-0.296
-484.420	-51.947	0.060	-0.029
-483.405	-127.078	-0.286	0.043
-482.391	114.049	-0.040	-0.049
-481.376	800.000	-0.085	-0.368
-480.362	-70.065	-0.087	-0.034
-479.347	351.739	0.039	0.079
-478.332	-121.706	0.334	0.056
-477.318	-64.206	-0.229	0.095
-476.303	790.412	0.065	0.182
-475.289	800.000	-0.018	-0.054
-474.274	68.414	0.170	0.177
-473.259	-55.392	-0.256	0.117
-472.245	-136.553	0.485	-0.057
-471.230	-135.064	-0.037	0.005
-470.216	124.953	-0.080	-0.102
-469.201	399.405	-0.090	0.193
-468.186	-95.206	0.121	0.033
-467.172	-87.874	0.151	-0.046
-466.157	99.021	0.233	0.274
-465.143	-23.717	-0.115	-0.070
-464.128	-200.000	0.039	0.308
-463.113	90.857	-0.132	0.151
-462.099	-60.904	-0.225	0.097
-461.084	246.425	0.068	-0.116
-460.070	635.445	0.092	-0.238
-459.055	-57.245	0.139	0.062
-458.040	-109.617	0.024	-0.005
-457.026	-62.576	0.087	-0.037
-456.011	-18.518	0.096	0.061
-454.997	93.842	0.181	-0.209
-453.982	163.652	-0.044	-0.062
-452.968	191.192	0.083	-0.127
-451.953	-163.339	-0.069	0.003
-450.938	-200.000	-0.059	-0.340
-449.924	320.416	0.136	-0.263
-448.909	-200.000	-0.008	0.100
-447.895	-103.023	-0.179	0.043
-446.880	-78.513	0.757	-0.264
-445.865	727.315	-0.042	-0.115
-444.851	-69.098	-0.105	-0.041
-443.836	77.401	0.098	-0.106
-442.822	94.869	0.050	0.058
-441.807	-1.227	-0.210	-0.151
-440.792	32.036	0.082	-0.072
-439.778	800.000	0.100	0.321
-438.763	800.000	0.016	-0.058
-437.749	-200.000	-0.002	0.131
-436.734	54.354	0.327	0.320
-435.719	-178.900	-0.260	-0.006
-434.705	-161.865	0.333	0.017
-433.690	-200.000	0.011	-0.108
-432.676	347.333	-0.149	0.299
-431.661	-83.999	0.233	0.075
-430.646	95.694	-0.226	-0.263
-429.632	78.083	-0.196	-0.213
-428.617	23.841	-0.078	0.065
-427.603	5.779	-0.219	0.164
-426.588	16.766	-0.232	0.187
-425.573	-200.000	0.002	0.029
-424.559	-200.000	0.056	0.468
-423.544	-79.741	0.073	0.025
-422.530	-86.531	-0.280	-0.087
-421.515	-185.777	-0.297	-0.005
-420.500	25.068	0.182	-0.154
-419.486	86.889	0.159	-0.178
-418.471	-121.059	0.091	0.016
-417.457	-126.748	0.191	-0.029
-416.442	218.256	-0.134	0.218
-415.428	-55.863	-0.273	-0.124
-414.413	-180.247	-0.118	0.003
-413.398	94.297	0.281	-0.324
-412.384	-16.646	0.074	-0.048
-411.369	18.290	0.156	-0.126
-410.355	-79.419	-0.132	0.045
-409.340	25.022	0.256	0.216
-408.325	20.523	-0.250	0.206
-407.311	195.951	-0.167	-0.257
-406.296	-61.677	-0.197	-0.084
-405.282	240.303	-0.137	0.232
-404.267	-200.000	-0.010	0.182
-403.252	-37.733	-0.135	-0.073
-402.238	-163.040	0.121	0.006
-401.223	-200.000	0.020	0.117
-400.209	-53.707	0.028	0.013
-399.194	28.921	-0.078	-0.067
-398.179	395.328	-0.026	-0.054
-397.165	-189.727	0.377	0.004
-396.150	65.900	-0.099	-0.102
-395.136	-131.354	-0.285	0.038
-394.121	-200.000	0.053	0.319
-393.106	-200.000	0.028	-0.215
-392.092	146.394	-0.026	-0.036
-391.077	33.741	-0.074	0.065
-390.063	13.793	0.192	0.151
-389.048	-155.464	-0.220	-0.014
-388.033	-128.564	-0.142	-0.020
-387.019	-21.937	0.341	0.211
-386.004	-43.240	-0.138	0.071
-384.990	-128.471	0.248	-0.036
-383.975	63.990	0.024	-0.025
-382.960	91.072	-0.189	-0.215
-381.946	-117.351	0.038	-0.007
-380.931	-14.451	0.214	0.140
-379.917	68.385	0.284	-0.295
-378.902	-200.000	0.021	0.219
-377.888	-135.974	-0.293	-0.035
-376.873	525.208	-0.139	-0.331
-375.858	345.667	0.056	0.111
-374.844	435.874	0.132	-0.291
-373.829	449.337	0.045	0.100
-372.815	-200.000	-0.025	-0.160
-371.800	621.933	-0.044	-0.112
-370.785	-80.390	0.390	0.132
-369.771	-200.000	-0.019	0.193
-368.756	301.087	0.183	0.343
-367.742	103.148	0.135	-0.161
-366.727	-200.000	-0.030	-0.429
-365.712	-64.992	0.331	-0.136
-364.698	800.000	0.054	0.189
-363.683	91.168	0.196	0.223
-362.669	-200.000	0.000	0.265
-361.654	332.152	-0.064	-0.126
-360.639	15.119	0.178	0.141
-359.625	191.767	0.056	-0.086
-358.610	-46.665	0.321	-0.159
-357.596	218.705	-0.040	0.064
-356.581	-64.084	-0.141	0.058
-355.566	307.206	-0.121	-0.228
-354.552	-75.766	-0.228	-0.082
-353.537	-75.697	-0.189	0.068
-352.523	282.103	0.062	-0.112
-351.508	-200.000	-0.041	-0.301
-350.493	-79.341	-0.054	-0.018
-349.479	55.719	0.138	-0.135
-348.464	-13.053	-0.147	-0.097
-347.450	800.000	0.040	-0.134
-346.435	316.752	-0.118	0.225
-345.420	-200.000	-0.015	0.240
-344.406	86.908	0.163	-0.183
-343.391	231.647	0.194	0.323
-342.377	38.380	-0.213	0.193
-341.362	800.000	0.113	0.359
-340.348	-116.964	0.115	0.021
-339.333	-200.000	-0.008	0.299
-338.318	82.266	0.236	-0.259
-337.304	42.950	0.077	-0.071
-336.289	419.523	0.118	0.256
-335.275	-170.677	-0.330	-0.012
-334.260	-61.332	0.050	0.021
-333.245	-182.087	-0.046	0.001
-332.231	-100.435	-0.198	0.050
-331.216	-95.257	-0.262	0.071
-330.202	-110.562	0.175	0.037
-329.187	-54.353	0.144	0.066
-328.172	92.162	0.190	0.217
-327.158	-9.710	-0.147	-0.099
-326.143	-200.000	-0.024	0.149
-325.129	-83.198	-0.246	-0.080
-324.114	800.000	0.088	0.286
-323.099	240.265	0.127	0.214
-322.085	-107.871	-0.272	-0.060
-321.070	-200.000	-0.071	0.342
-320.056	258.013	-0.081	-0.140
-319.041	-200.000	-0.020	0.447
-318.026	21.358	0.099	0.082
-317.012	-200.000	0.022	-0.180
-315.997	147.709	-0.306	-0.417
-314.983	-142.872	-0.271	0.027
-313.968	28.994	-0.084	-0.072
-312.953	142.065	0.075	-0.101
-311.939	-200.000	0.030	-0.146
-310.924	-200.000	-0.018	-0.304
-309.910	-200.000	-0.057	-0.277
-308.895	-101.479	-0.263	0.065
-307.880	800.000	-0.028	-0.096
-306.866	-110.522	0.153	0.032
-305.851	-200.000	0.047	-0.279
-304.837	-22.930	-0.134	0.082
-303.822	-140.252	-0.124	0.013
-302.807	-121.522	-0.126	-0.021
-301.793	800.000	-0.048	0.183
-300.778	800.000	-0.042	-0.142
-299.764	4.412	-0.088	0.065
-298.749	800.000	-0.027	0.078
-297.735	157.689	-0.100	-0.140
-296.720	23.622	-0.300	-0.250
-295.705	239.709	-0.109	-0.183
-294.691	-200.000	0.062	-0.292
-293.676	10.598	0.061	0.047
-292.662	66.971	-0.176	0.181
-291.647	-10.326	-0.164	0.110
-290.632	-76.213	-0.133	0.047
-289.618	-200.000	0.020	-0.250
-288.603	57.732	0.035	-0.035
-287.589	51.209	-0.092	-0.088
-286.574	-98.039	0.414	-0.108
-285.559	213.801	-0.053	-0.085
-284.545	-200.000	0.011	0.055
-283.530	31.917	-0.118	-0.103
-282.516	-98.161	0.188	0.049
-281.501	26.965	0.058	0.049
-280.486	-200.000	-0.011	0.076
-279.472	-200.000	0.004	-0.171
-278.457	222.577	0.234	0.380
-277.443	248.980	0.079	0.135
-276.428	126.568	0.140	-0.179
-275.413	800.000	0.022	-0.064
-274.399	-200.000	-0.019	0.240
-273.384	800.000	-0.085	-0.282
-272.370	-160.698	0.227	-0.012
-271.355	200.568	0.036	0.057
-270.340	-146.834	-0.201	0.017
-269.326	-200.000	-0.019	-0.298
-268.311	-72.235	-0.059	-0.022
-267.297	-5.191	0.092	0.064
-266.282	800.000	-0.065	-0.233
-265.267	-29.449	-0.378	0.218
-264.253	70.746	0.033	0.035
-263.238	-45.336	-0.140	-0.070
-262.224	-200.000	0.044	-0.346
-261.209	392.431	0.178	-0.374
-260.195	13.773	0.321	-0.252
-259.180	-85.109	-0.169	0.054
-258.165	372.549	0.128	-0.262
-257.151	400.017	0.119	0.252
-256.136	-89.056	0.175	0.052
-255.122	406.248	0.127	0.272
-254.107	436.170	-0.127	-0.279
-253.092	44.522	0.178	-0.165
-252.078	-42.035	0.244	-0.126
-251.063	800.000	0.125	0.517
-250.049	10.917	0.139	-0.107
-249.034	533.485	-0.085	-0.202
-248.019	397.424	-0.065	0.137
-247.005	800.000	0.047	0.182
-245.990	200.094	0.094	-0.145
-244.976	800.000	-0.082	-0.275
-243.961	-98.233	-0.091	0.024
-242.946	68.447	0.159	-0.165
-241.932	-200.000	-0.009	0.182
-240.917	-73.007	0.142	-0.053
-239.903	142.367	-0.078	0.104
-238.888	-200.000	-0.030	-0.132
-237.873	-71.504	0.202	-0.076
-236.859	-150.976	0.077	-0.006
-235.844	-199.593	0.569	0.003
-234.830	800.000	-0.022	-0.083
-233.815	454.607	-0.098	-0.219
-232.800	-200.000	-0.009	0.369
-231.786	-61.045	0.233	0.099
-230.771	-131.470	-0.181	0.024
-229.757	-200.000	0.038	-0.187
-228.742	800.000	0.132	-0.371
-227.727	120.510	-0.294	0.368
-226.713	-64.726	-0.113	-0.046
-225.698	-200.000	0.026	0.340
-224.684	-139.465	0.233	0.025
-223.669	-200.000	0.010	-0.173
-222.655	51.342	0.275	-0.263
-221.640	-40.393	-0.187	0.098
-220.625	-31.868	0.159	-0.090
-219.611	-45.009	-0.186	-0.093
-218.596	-200.000	-0.015	0.296
-217.582	120.165	-0.127	-0.159
-216.567	311.082	0.019	0.036
-215.552	-12.263	-0.403	0.266
-214.538	123.921	0.276	0.349
-213.523	-175.943	0.287	0.008
-212.509	243.347	0.080	-0.136
-211.494	-0.079	0.413	0.297
-210.479	-200.000	-0.014	0.272
-209.465	306.417	0.205	0.384
-208.450	17.828	0.247	0.198
-207.436	-200.000	0.016	0.235
-206.421	-56.281	-0.300	0.134
-205.406	-54.769	0.067	-0.031
-204.392	248.865	-0.094	-0.160
-203.377	289.980	0.065	0.118
-202.363	-94.336	0.171	-0.047
-201.348	-27.056	0.177	-0.104
-200.333	37.609	0.145	-0.130
-199.319	3.451	-0.138	0.101
-198.304	-53.875	-0.070	-0.032
-197.290	82.794	-0.168	-0.184
-196.275	-47.239	-0.311	0.152
-195.260	85.706	-0.065	-0.071
-194.246	-200.000	-0.077	-0.412
-193.231	502.098	-0.071	-0.165
-192.217	-200.000	0.023	0.168
-191.202	-95.840	-0.201	0.054
-190.187	-200.000	0.037	0.302
-189.173	-6.353	-0.115	0.079
-188.158	-180.158	-0.282	-0.006
-187.144	-32.027	-0.330	-0.186
-186.129	-200.000	0.004	-0.172
-185.114	-10.193	-0.115	0.077
-184.100	-78.569	-0.270	-0.093
-183.085	27.349	-0.168	0.142
-182.071	-113.039	-0.294	0.058
-181.056	-30.786	-0.160	0.091
-180.042	-40.771	0.103	0.054
-179.027	-96.112	-0.029	-0.008
-178.012	0.287	0.213	-0.153
-176.998	-157.743	0.260	-0.016
-175.983	-163.095	-0.291	-0.014
-174.969	-174.631	0.161	-0.005
-173.954	-32.978	0.151	-0.084
-172.939	-119.614	0.043	0.008
-171.925	800.000	-0.095	-0.312
-170.910	9.811	0.143	-0.109
-169.896	119.294	0.058	0.072
-168.881	-49.209	0.227	-0.109
-167.866	-107.369	0.092	0.020
-166.852	57.852	-0.234	0.231
-165.837	-48.668	-0.199	0.096
-164.823	-200.000	-0.016	-0.232
-163.808	800.000	0.046	-0.188
-162.793	49.825	0.054	-0.051
-161.779	-200.000	-0.023	0.252
-160.764	-74.516	-0.172	0.062
-159.750	-108.141	-0.125	-0.027
-158.735	-29.265	-0.229	0.132
-157.720	601.799	-0.068	0.169
-156.706	-180.129	-0.189	-0.004
-155.691	-200.000	0.003	0.054
-154.677	184.889	0.052	-0.078
-153.662	800.000	0.019	0.071
-152.647	800.000	0.020	0.071
-151.633	103.302	-0.095	0.112
-150.618	327.631	0.022	-0.042
-149.604	238.684	0.135	0.226
-148.589	800.000	0.058	-0.217
-147.574	-35.054	0.277	0.152
-146.560	304.540	0.048	-0.090
-145.545	98.276	-0.119	-0.138
-144.531	-130.604	0.267	0.036
-143.516	-80.348	-0.096	0.032
-142.502	175.648	0.197	0.288
-141.487	60.925	0.042	0.042
-140.472	214.142	0.024	-0.038
-139.458	800.000	-0.016	-0.057
-138.443	-200.000	0.031	-0.198
-137.429	-200.000	0.024	-0.227
-136.414	165.379	0.030	-0.042
-135.399	89.167	0.088	0.099
-134.385	-51.663	0.044	0.021
-133.370	-200.000	0.005	-0.069
-132.356	-78.843	0.217	0.074
-131.341	-200.000	-0.060	0.376
-130.326	-200.000	-0.003	0.229
-129.312	5.477	0.175	-0.130
-128.297	131.797	0.088	-0.114
-127.283	-200.000	-0.021	-0.144
-126.268	11.180	-0.138	-0.106
-125.253	-103.392	-0.218	0.052
-124.239	-134.568	0.202	0.025
-123.224	83.619	-0.152	-0.166
-122.210	-33.461	0.254	-0.141
-121.195	650.043	0.094	-0.242
