DTS Sentinel unit serial number:	SN413079Multiplexer serial number:	ORYXHardware model number:	OX4-SRSoftware version number:	ORYX F/W v4.00 Oryx Data Collector v3.7.2.0data status	okinstallation	princeton_trtdifferential loss correction	single-endedforward channel	channel 4reverse channel	N/Adate	2019/09/17time	22:49:35forward acquisition time	60.00reverse acquisition time	0.00gamma	496.2192k internal	0.2330k external	0.2330temperature offset calibration	0.9996default loss term (dB/km)	0.3790temperature slope calibration	1.0000multiplexer offset coefficient	1.0000multiplexer slope coefficient	1.0000fibre end	0.00T internal ref (°C)	24.97T ext. ref 1 (°C)	0.19T ext. ref 2 (°C)	18.03length (m)	temperature (°C)	Stokes	anti-Stokes-747.200	174.895	0.058	-0.085
-746.185	800.000	-0.032	-0.132
-745.171	-13.258	0.220	-0.144
-744.156	711.392	-0.083	0.220
-743.142	-112.607	-0.275	-0.055
-742.127	163.185	0.153	0.217
-741.112	800.000	0.049	0.189
-740.098	-14.484	0.183	-0.118
-739.083	-139.593	0.346	0.037
-738.069	800.000	0.019	0.075
-737.054	146.544	-0.212	0.287
-736.039	29.662	-0.135	-0.115
-735.025	-69.726	0.383	0.147
-734.010	82.382	-0.040	0.044
-732.996	242.234	0.146	-0.247
-731.981	-165.235	-0.072	-0.003
-730.966	-200.000	-0.037	-0.375
-729.952	-170.037	-0.172	0.006
-728.937	-200.000	0.002	0.241
-727.923	-26.499	-0.350	-0.206
-726.908	167.462	-0.145	-0.207
-725.894	172.966	-0.045	0.066
-724.879	-119.239	-0.160	0.028
-723.864	-64.910	-0.316	-0.129
-722.850	800.000	-0.073	-0.215
-721.835	246.888	-0.199	-0.338
-720.821	133.469	-0.094	0.122
-719.806	-11.912	-0.040	0.026
-718.791	800.000	-0.051	-0.209
-717.777	-63.245	0.158	-0.065
-716.762	242.196	-0.075	0.127
-715.748	-200.000	0.005	0.266
-714.733	-200.000	0.058	-0.541
-713.718	-200.000	0.004	-0.215
-712.704	-172.571	-0.240	-0.008
-711.689	453.634	0.104	0.231
-710.675	133.603	0.146	0.190
-709.660	1.219	0.273	0.197
-708.645	800.000	-0.044	-0.126
-707.631	468.218	-0.104	-0.234
-706.616	-112.730	0.141	-0.028
-705.602	47.094	-0.287	0.268
-704.587	-200.000	-0.008	0.101
-703.572	-200.000	-0.031	-0.142
-702.558	1.537	-0.204	-0.148
-701.543	-117.550	-0.414	-0.075
-700.529	-40.340	-0.263	0.138
-699.514	-200.000	-0.195	0.001
-698.499	-92.353	0.202	0.057
-697.485	752.450	0.013	0.034
-696.470	123.146	-0.103	0.130
-695.456	-168.398	0.094	-0.004
-694.441	78.517	0.105	-0.113
-693.426	-200.000	0.023	-0.184
-692.412	170.472	0.027	-0.039
-691.397	-200.000	0.021	0.169
-690.383	-186.399	0.158	-0.002
-689.368	-128.016	-0.293	-0.042
-688.354	800.000	0.056	-0.230
-687.339	15.722	0.302	-0.238
-686.324	-79.189	0.232	-0.079
-685.310	35.007	-0.256	-0.225
-684.295	-66.247	-0.364	-0.146
-683.281	-112.995	-0.381	-0.076
-682.266	800.000	-0.059	0.191
-681.251	-200.000	0.052	-0.305
-680.237	-90.853	-0.118	-0.034
-679.222	2.417	-0.326	-0.237
-678.208	800.000	-0.024	-0.102
-677.193	800.000	-0.117	-0.465
-676.178	-200.000	-0.013	-0.291
-675.164	-37.069	-0.152	0.082
-674.149	66.769	-0.091	-0.093
-673.135	-36.688	0.075	0.040
-672.120	-58.810	-0.119	-0.052
-671.105	-55.885	-0.115	0.052
-670.091	-72.090	0.169	0.063
-669.076	-64.726	0.123	0.050
-668.062	-194.547	-0.160	0.001
-667.047	-20.792	-0.187	0.115
-666.032	-154.220	0.156	-0.011
-665.018	30.542	0.539	-0.463
-664.003	-200.000	0.031	-0.334
-662.989	134.177	-0.152	0.198
-661.974	-4.545	0.294	0.204
-660.959	-10.736	-0.384	0.255
-659.945	-73.907	0.099	-0.036
-658.930	-53.883	-0.187	0.086
-657.916	330.022	0.066	-0.127
-656.901	-200.000	-0.034	0.307
-655.886	-119.514	0.506	0.088
-654.872	800.000	-0.050	0.174
-653.857	96.101	0.143	0.164
-652.843	-130.835	0.233	-0.031
-651.828	-50.122	0.146	-0.069
-650.814	-97.357	-0.442	-0.115
-649.799	-88.482	0.074	0.022
-648.784	-21.228	-0.224	0.137
-647.770	-131.410	-0.276	0.037
-646.755	-200.000	0.047	-0.310
-645.741	-85.925	-0.194	0.060
-644.726	-125.621	0.282	-0.043
-643.711	-200.000	0.003	-0.126
-642.697	-200.000	0.345	0.002
-641.682	-157.988	-0.343	0.020
-640.668	800.000	-0.080	-0.338
-639.653	-68.309	-0.216	0.084
-638.638	800.000	0.097	0.274
-637.624	800.000	0.042	-0.155
-636.609	800.000	0.062	-0.195
-635.595	800.000	0.066	0.280
-634.580	149.027	-0.154	-0.209
-633.565	56.774	0.040	0.039
-632.551	-67.949	-0.366	-0.143
-631.536	-4.976	-0.039	0.027
-630.522	161.078	0.288	0.403
-629.507	-200.000	-0.013	0.104
-628.492	800.000	0.033	-0.105
-627.478	392.217	0.031	-0.065
-626.463	-200.000	-0.052	0.329
-625.449	250.675	-0.178	0.303
-624.434	-78.574	-0.288	0.099
-623.419	800.000	-0.060	-0.188
-622.405	-106.018	0.238	-0.054
-621.390	-86.785	0.153	-0.047
-620.376	-200.000	-0.044	-0.277
-619.361	410.928	-0.016	0.034
-618.346	800.000	-0.011	-0.042
-617.332	800.000	0.035	-0.130
-616.317	800.000	-0.010	0.042
-615.303	-113.048	-0.109	0.022
-614.288	416.464	0.011	0.023
-613.273	271.567	0.101	0.177
-612.259	500.289	-0.081	-0.187
-611.244	-41.279	-0.076	-0.039
-610.230	-124.424	0.182	0.028
-609.215	-41.582	0.094	-0.048
-608.201	-17.323	0.139	-0.088
-607.186	5.708	-0.224	-0.165
-606.171	800.000	0.026	-0.089
-605.157	-89.013	0.086	0.025
-604.142	-21.161	-0.068	-0.042
-603.128	231.794	-0.062	0.102
-602.113	-67.224	0.268	-0.106
-601.098	5.198	-0.156	0.115
-600.084	73.354	-0.034	0.035
-599.069	219.208	0.026	0.041
-598.055	800.000	-0.027	-0.106
-597.040	519.698	0.061	-0.142
-596.025	-125.678	-0.108	-0.016
-595.011	479.559	0.097	-0.221
-593.996	486.911	-0.065	-0.148
-592.982	-80.801	0.263	0.087
-591.967	-65.808	-0.072	0.029
-590.952	41.268	0.206	-0.187
-589.938	205.781	-0.190	-0.295
-588.923	-200.000	0.000	0.090
-587.909	-116.010	0.534	0.100
-586.894	-72.601	-0.167	-0.062
-585.879	-7.497	0.094	-0.064
-584.865	174.162	-0.208	-0.300
-583.850	-158.816	0.307	-0.018
-582.836	327.246	0.166	0.318
-581.821	93.297	0.134	-0.152
-580.806	-30.962	-0.344	-0.194
-579.792	-145.656	-0.385	-0.034
-578.777	139.979	-0.198	0.261
-577.763	-155.177	-0.230	-0.015
-576.748	283.226	0.050	-0.090
-575.733	679.013	0.018	-0.048
-574.719	35.992	-0.086	0.076
-573.704	800.000	0.103	0.379
-572.690	-58.471	-0.106	-0.046
-571.675	-164.589	-0.260	-0.012
-570.661	-0.334	0.152	0.108
-569.646	-160.612	-0.157	0.008
-568.631	800.000	-0.125	-0.439
-567.617	255.986	-0.132	-0.226
-566.602	106.184	-0.129	0.153
-565.588	-200.000	0.163	0.000
-564.573	800.000	0.091	-0.299
-563.558	-200.000	-0.015	-0.107
-562.544	800.000	0.017	0.057
-561.529	179.913	-0.167	0.244
-560.515	498.891	0.065	-0.150
-559.500	800.000	0.066	-0.231
-558.485	-200.000	-0.004	-0.046
-557.471	646.156	-0.029	0.074
-556.456	29.269	-0.142	0.121
-555.442	-41.382	-0.042	0.022
-554.427	800.000	-0.012	0.046
-553.412	-200.000	0.025	-0.216
-552.398	-75.833	-0.398	-0.141
-551.383	-82.846	0.181	0.058
-550.369	-57.384	0.126	0.055
-549.354	-86.960	0.294	0.090
-548.339	400.196	-0.055	-0.116
-547.325	-68.162	0.357	0.139
-546.310	-85.881	0.125	-0.039
-545.296	-60.532	-0.048	-0.020
-544.281	-46.364	-0.175	0.086
-543.266	800.000	-0.061	-0.237
-542.252	150.926	0.104	-0.141
-541.237	-200.000	-0.020	-0.388
-540.223	-12.621	0.079	0.051
-539.208	8.820	-0.282	-0.212
-538.193	-53.977	-0.226	0.103
-537.179	-200.000	0.026	0.287
-536.164	122.966	0.061	0.076
-535.150	-0.052	-0.243	-0.173
-534.135	-67.906	-0.197	0.077
-533.121	227.632	-0.144	-0.234
-532.106	-47.807	0.229	-0.111
-531.091	-200.000	-0.014	-0.236
-530.077	-200.000	-0.014	0.175
-529.062	-87.638	-0.154	0.046
-528.048	800.000	0.105	0.333
-527.033	800.000	0.066	0.285
-526.018	342.363	-0.150	-0.294
-525.004	800.000	0.070	-0.206
-523.989	-200.000	0.012	0.103
-522.975	-200.000	-0.025	0.205
-521.960	137.240	-0.053	0.069
-520.945	70.444	0.281	-0.290
-519.931	-200.000	0.025	-0.250
-518.916	-156.030	0.217	-0.014
-517.902	-200.000	0.005	0.149
-516.887	66.306	-0.348	-0.352
-515.872	800.000	0.059	-0.164
-514.858	-94.831	0.318	0.086
-513.843	-72.848	0.142	-0.052
-512.829	-134.636	0.251	-0.030
-511.814	42.226	-0.493	0.447
-510.799	239.287	-0.085	0.142
-509.785	-200.000	-0.008	0.471
-508.770	103.100	-0.109	-0.127
-507.756	5.169	0.048	-0.035
-506.741	563.502	0.053	0.128
-505.726	9.934	0.115	-0.087
-504.712	-41.831	0.211	0.108
-503.697	800.000	-0.044	-0.180
-502.683	200.571	-0.119	0.182
-501.668	-11.056	-0.171	0.112
-500.653	122.058	0.104	0.130
-499.639	345.097	0.083	0.162
-498.624	-200.000	0.029	0.303
-497.610	43.564	0.205	-0.187
-496.595	45.240	0.036	0.033
-495.581	-193.311	-0.176	-0.002
-494.566	-200.000	-0.020	-0.103
-493.551	11.129	-0.150	0.114
-492.537	318.114	0.201	0.379
-491.522	-189.358	-0.372	-0.004
-490.508	-13.951	-0.195	-0.126
-489.493	171.104	0.150	-0.215
-488.478	-62.874	-0.305	-0.126
-487.464	-107.217	0.252	-0.055
-486.449	-138.712	0.209	0.023
-485.435	1.594	-0.221	-0.159
-484.420	500.788	-0.111	-0.256
-483.405	800.000	0.178	0.578
-482.391	218.347	0.097	0.155
-481.376	350.697	-0.073	0.144
-480.362	-200.000	0.048	0.289
-479.347	-64.853	0.076	0.030
-478.332	-65.362	0.106	-0.042
-477.318	54.082	-0.194	-0.185
-476.303	19.631	-0.072	0.058
-475.289	-114.428	0.403	-0.077
-474.274	-114.070	-0.192	0.037
-473.259	208.095	0.126	-0.195
-472.245	-89.455	0.071	0.021
-471.230	-142.845	-0.065	0.006
-470.216	92.619	0.214	-0.241
-469.201	516.030	-0.029	-0.068
-468.186	406.746	0.132	-0.277
-467.172	31.915	0.017	-0.015
-466.157	737.358	0.040	-0.107
-465.143	309.002	-0.135	0.252
-464.128	800.000	0.060	-0.180
-463.113	-144.717	-0.393	0.036
-462.099	-169.687	-0.463	0.017
-461.084	800.000	0.089	-0.360
-460.070	88.646	0.034	-0.037
-459.055	141.693	-0.131	0.173
-458.040	-11.337	0.111	-0.073
-457.026	-132.711	-0.331	0.042
-456.011	-200.000	-0.038	0.257
-454.997	42.968	0.121	-0.110
-453.982	27.538	0.034	0.029
-452.968	383.501	-0.100	0.205
-451.953	-110.267	0.075	0.015
-450.938	-74.098	0.174	0.063
-449.924	383.187	0.087	-0.178
-448.909	-75.074	-0.074	0.026
-447.895	-73.866	0.165	-0.060
-446.880	-14.050	-0.088	0.056
-445.865	-8.382	-0.218	0.146
-444.851	222.623	0.142	-0.227
-443.836	-88.188	-0.060	0.018
-442.822	-147.079	0.053	-0.005
-441.807	-126.201	-0.280	0.042
-440.792	800.000	0.051	0.146
-439.778	800.000	0.039	0.137
-438.763	-74.140	0.237	0.085
-437.749	-25.436	0.263	0.154
-436.734	56.099	0.386	-0.373
-435.719	-83.491	-0.014	-0.005
-434.705	221.186	0.211	0.338
-433.690	-121.761	-0.368	0.061
-432.676	800.000	-0.122	-0.420
-431.661	171.069	-0.019	0.027
-430.646	69.864	-0.230	0.236
-429.632	-200.000	0.003	0.052
-428.617	-200.000	-0.035	-0.452
-427.603	800.000	0.072	-0.241
-426.588	-168.715	-0.124	-0.005
-425.573	-200.000	-0.016	0.135
-424.559	41.361	-0.195	0.175
-423.544	-121.776	0.197	-0.032
-422.530	-173.009	-0.330	-0.010
-421.515	55.782	0.109	0.105
-420.500	-39.763	-0.420	0.218
-419.486	14.133	0.032	-0.025
-418.471	800.000	0.111	0.319
-417.457	145.413	0.154	0.205
-416.442	76.220	-0.211	-0.222
-415.428	-7.538	-0.096	0.065
-414.413	224.614	-0.102	-0.165
-413.398	-35.011	0.285	-0.155
-412.384	800.000	-0.081	-0.253
-411.369	115.417	0.215	0.261
-410.355	621.685	0.075	-0.188
-409.340	-109.427	0.141	0.030
-408.325	96.362	-0.131	-0.148
-407.311	-200.000	0.015	-0.307
-406.296	-187.496	-0.295	-0.004
-405.282	800.000	-0.051	-0.161
-404.267	405.950	0.161	-0.337
-403.252	-102.573	0.267	0.063
-402.238	800.000	0.057	-0.164
-401.223	-92.724	0.210	0.058
-400.209	136.238	-0.185	-0.239
-399.194	388.339	-0.040	0.083
-398.179	78.070	0.201	0.213
-397.165	-113.443	-0.056	0.011
-396.150	-74.047	-0.219	-0.079
-395.136	800.000	-0.042	0.136
-394.121	62.819	0.032	0.032
-393.106	-200.000	0.037	-0.292
-392.092	89.925	-0.222	-0.246
-391.077	-15.740	0.245	0.155
-390.063	314.531	-0.150	-0.281
-389.048	101.242	0.092	0.106
-388.033	800.000	0.095	0.366
-387.019	-147.188	0.088	-0.007
-386.004	800.000	0.043	0.184
-384.990	75.409	0.091	-0.095
-383.975	67.014	0.305	-0.308
-382.960	-121.151	-0.044	-0.007
-381.946	25.712	-0.086	0.071
-380.931	108.209	-0.192	0.227
-379.917	-200.000	0.003	-0.280
-378.902	774.420	-0.042	0.113
-377.888	126.328	0.212	0.266
-376.873	-20.448	0.143	-0.087
-375.858	145.946	-0.077	0.103
-374.844	-4.230	-0.359	-0.246
-373.829	-200.000	0.002	-0.115
-372.815	-111.086	-0.279	-0.057
-371.800	-96.303	-0.143	-0.038
-370.785	99.193	-0.099	-0.113
-369.771	-149.356	-0.219	0.017
-368.756	-91.248	0.238	-0.068
-367.742	-23.932	0.202	-0.120
-366.727	-25.970	0.274	0.160
-365.712	-200.000	0.006	0.197
-364.698	-141.265	-0.394	-0.040
-363.683	74.265	-0.087	-0.090
-362.669	-49.797	0.094	-0.044
-361.654	-152.173	-0.401	0.029
-360.639	-94.623	0.120	-0.032
-359.625	-58.136	0.381	0.164
-358.610	-42.815	0.350	-0.176
-357.596	-29.295	0.252	-0.143
-356.581	-27.349	0.276	0.159
-355.566	-58.505	-0.109	-0.047
-354.552	-97.890	-0.394	-0.101
-353.537	106.932	0.261	0.308
-352.523	-181.916	-0.106	0.002
-351.508	406.119	-0.036	-0.075
-350.493	87.009	0.313	-0.343
-349.479	300.020	-0.209	0.382
-348.464	800.000	0.049	0.185
-347.450	-200.000	0.023	0.155
-346.435	-200.000	-0.047	0.390
-345.420	-118.191	0.251	-0.044
-344.406	-12.452	-0.140	0.091
-343.391	800.000	-0.017	-0.058
-342.377	-145.756	0.157	-0.014
-341.362	-200.000	-0.024	0.103
-340.348	770.921	-0.100	-0.271
-339.333	296.521	-0.080	-0.145
-338.318	-200.000	0.024	-0.173
-337.304	-200.000	0.006	-0.075
-336.289	-200.000	0.006	-0.306
-335.275	-5.337	0.085	-0.058
-334.260	105.015	0.115	-0.135
-333.245	-45.869	-0.603	0.295
-332.231	399.083	-0.141	0.292
-331.216	-5.490	-0.082	0.056
-330.202	-200.000	0.020	-0.191
-329.187	800.000	-0.040	0.128
-328.172	102.373	-0.169	-0.196
-327.158	40.125	0.139	-0.124
-326.143	-200.000	0.281	0.000
-325.129	-157.455	0.029	0.002
-324.114	454.256	-0.070	0.153
-323.099	-61.222	0.056	0.024
-322.085	119.557	0.093	0.114
-321.070	81.296	0.200	-0.214
-320.056	502.571	-0.079	-0.180
-319.041	-187.738	0.187	-0.002
-318.026	2.702	0.251	0.180
-317.012	-151.392	0.567	0.042
-315.997	-4.875	-0.177	0.121
-314.983	-114.524	0.538	0.102
-313.968	509.827	0.018	-0.042
-312.953	47.436	0.287	-0.264
-311.939	-129.124	-0.254	-0.035
-310.924	-35.201	0.200	-0.108
-309.910	-200.000	-0.382	0.000
-308.895	-200.000	0.061	0.333
-307.880	800.000	0.047	0.164
-306.866	730.581	-0.041	0.109
-305.851	-124.090	0.250	0.039
-304.837	-70.247	0.069	-0.026
-303.822	226.079	-0.151	0.242
-302.807	-200.000	0.044	0.348
-301.793	-95.122	-0.116	0.031
-300.778	-76.930	0.465	0.161
-299.764	-200.000	-0.018	0.197
-298.749	127.534	-0.182	-0.228
-297.735	-200.000	-0.027	0.212
-296.720	226.244	0.018	0.029
-295.705	-107.433	-0.233	0.051
-294.691	-9.852	0.126	0.083
-293.676	-44.708	-0.259	-0.128
-292.662	800.000	0.108	-0.397
-291.647	-158.764	-0.588	-0.033
-290.632	-200.000	0.052	0.284
-289.618	-200.000	0.029	-0.282
-288.603	658.711	-0.041	0.104
-287.589	-75.608	-0.141	-0.050
-286.574	-35.902	0.088	-0.047
-285.559	37.279	0.256	0.224
-284.545	-200.000	0.024	-0.110
-283.530	-47.508	-0.200	-0.096
-282.516	-115.688	0.379	0.070
-281.501	-191.766	0.114	-0.001
-280.486	-91.675	-0.174	-0.049
-279.472	75.675	-0.066	0.069
-278.457	-200.000	0.006	0.040
-277.443	-141.313	0.224	0.022
-276.428	53.821	-0.380	0.361
-275.413	274.593	-0.178	0.312
-274.399	168.877	-0.129	-0.182
-273.384	-200.000	0.002	-0.250
-272.370	271.325	-0.142	-0.246
-271.355	8.782	-0.075	-0.056
-270.340	800.000	0.070	-0.274
-269.326	-78.214	0.089	0.030
-268.311	-104.411	-0.173	0.040
-267.297	800.000	-0.080	-0.261
-266.282	-130.908	0.135	0.018
-265.267	-147.596	0.156	0.013
-264.253	-200.000	-0.015	-0.103
-263.238	-200.000	-0.052	0.245
-262.224	-104.937	0.376	-0.085
-261.209	215.027	-0.200	-0.313
-260.195	49.054	0.208	0.193
-259.180	-10.358	-0.071	0.047
-258.165	63.975	0.189	-0.188
-257.151	800.000	0.091	0.339
-256.136	536.844	-0.078	0.183
-255.122	-195.619	-0.155	0.001
-254.107	0.793	-0.228	-0.161
-253.092	77.616	0.130	-0.137
-252.078	-42.986	-0.158	0.079
-251.063	-200.000	0.003	-0.034
-250.049	-1.670	0.205	0.142
-249.034	-14.857	0.181	0.115
-248.019	-76.359	-0.142	0.049
-247.005	482.870	0.163	0.366
-245.990	192.143	0.122	0.181
-244.976	-6.593	0.147	0.099
-243.961	-102.315	-0.256	0.061
-242.946	-200.000	0.010	-0.227
-241.932	203.679	0.099	0.151
-240.917	800.000	-0.026	-0.072
-239.903	-200.000	0.050	-0.257
-238.888	-118.891	0.316	-0.055
-237.873	-55.042	0.097	-0.043
-236.859	-93.880	-0.116	0.032
-235.844	-200.000	-0.036	-0.223
-234.830	800.000	0.006	0.023
-233.815	-117.675	0.204	-0.036
-232.800	-70.006	0.236	-0.089
-231.786	-200.000	0.001	-0.102
-230.771	-23.898	-0.146	-0.086
-229.757	-91.661	-0.115	0.032
-228.742	-96.296	-0.229	-0.060
-227.727	219.562	-0.085	0.134
-226.713	-200.000	-0.003	-0.084
-225.698	-180.061	-0.174	0.004
-224.684	800.000	-0.025	-0.073
-223.669	-45.693	-0.096	0.047
-222.655	117.056	-0.319	0.387
-221.640	65.035	-0.098	0.098
-220.625	-21.844	0.213	0.128
-219.611	68.526	0.200	-0.202
-218.596	131.512	0.127	-0.161
-217.582	-129.894	0.060	-0.008
-216.567	63.194	-0.091	-0.090
-215.552	54.429	0.097	-0.092
-214.538	-20.584	0.143	0.086
-213.523	237.373	0.144	0.235
-212.509	-12.477	-0.199	0.128
-211.494	49.422	-0.179	0.166
-210.479	800.000	-0.085	0.260
-209.465	-33.466	0.232	-0.126
-208.450	-26.221	-0.328	0.190
-207.436	-127.416	-0.191	0.027
-206.421	-32.136	-0.096	0.053
-205.406	-200.000	0.013	-0.227
-204.392	117.909	-0.142	0.173
-203.377	80.091	-0.184	-0.195
-202.363	-179.891	-0.312	-0.007
-201.348	-70.806	-0.166	-0.062
-200.333	43.317	0.243	0.219
-199.319	442.705	0.074	-0.160
-198.304	179.944	-0.039	0.056
-197.290	39.322	0.074	0.065
-196.275	141.992	0.147	0.192
-195.260	-5.755	0.155	-0.105
-194.246	-105.092	-0.332	0.075
-193.231	48.963	-0.193	0.178
-192.217	-200.000	-0.044	-0.306
-191.202	143.688	-0.058	0.076
-190.187	800.000	-0.030	-0.096
-189.173	-108.595	0.215	-0.045
-188.158	-155.435	-0.148	0.009
-187.144	33.664	-0.065	-0.055
-186.129	110.656	0.165	-0.195
-185.114	18.955	0.361	0.285
-184.100	38.577	-0.249	0.219
-183.085	-138.112	-0.132	0.014
-182.071	-200.000	0.008	0.188
-181.056	800.000	-0.067	0.284
-180.042	71.021	0.196	-0.200
-179.027	-118.900	0.382	0.066
-178.012	160.746	0.166	0.228
-176.998	80.722	0.285	-0.303
-175.983	49.755	-0.169	-0.157
-174.969	68.135	0.067	0.068
-173.954	-169.450	0.315	-0.011
-172.939	48.359	-0.171	-0.158
-171.925	-113.119	0.019	0.004
-170.910	-200.000	0.014	-0.060
-169.896	98.834	-0.090	-0.102
-168.881	433.958	-0.136	-0.290
-167.866	-131.993	-0.487	0.062
-166.852	-6.913	0.318	0.213
-165.837	-58.240	0.198	-0.085
-164.823	-12.030	0.357	0.230
-163.808	194.444	-0.152	0.226
-162.793	-200.000	-0.041	0.246
-161.779	160.783	-0.290	0.399
-160.764	679.946	0.037	0.096
-159.750	13.642	0.066	0.050
-158.735	-200.000	0.057	-0.312
-157.720	-40.357	0.268	-0.137
-156.706	800.000	0.088	0.329
-155.691	-73.687	0.098	0.035
-154.677	-129.838	0.213	0.029
-153.662	557.663	-0.041	-0.098
-152.647	-85.354	-0.123	-0.038
-151.633	-200.000	0.033	0.244
-150.618	-17.604	-0.052	0.032
-149.604	305.518	-0.242	0.442
-148.589	26.055	0.003	0.002
-147.574	800.000	-0.111	0.421
-146.560	-200.000	-0.056	-0.315
-145.545	63.357	-0.023	0.023
-144.531	-200.000	-0.015	0.175
-143.516	11.482	-0.119	0.090
-142.502	128.812	-0.036	-0.046
-141.487	11.487	0.251	-0.189
-140.472	-200.000	-0.007	0.133
-139.458	-35.994	0.213	0.113
-138.443	-73.263	-0.393	0.141
-137.429	-140.628	-0.222	-0.023
-136.414	-122.208	0.485	-0.078
-135.399	800.000	-0.093	0.299
-134.385	12.027	-0.215	-0.162
-133.370	-145.508	0.031	-0.003
-132.356	72.014	0.088	0.090
-131.341	-164.978	0.367	0.016
-130.326	-98.156	0.183	0.046
-129.312	41.430	0.130	0.115
-128.297	117.739	0.178	0.216
-127.283	-200.000	0.016	0.106
-126.268	318.505	0.099	-0.184
-125.253	800.000	-0.225	0.713
-124.239	-200.000	0.013	0.206
-123.224	30.551	-0.051	-0.043
-122.210	250.661	0.108	-0.180
-121.195	800.000	0.152	0.412
