DTS Sentinel unit serial number:	SN413079Multiplexer serial number:	ORYXHardware model number:	OX4-SRSoftware version number:	ORYX F/W v4.00 Oryx Data Collector v3.7.2.0data status	okinstallation	princeton_trtdifferential loss correction	single-endedforward channel	channel 4reverse channel	N/Adate	2019/09/16time	23:33:34forward acquisition time	60.00reverse acquisition time	0.00gamma	496.2192k internal	0.2313k external	0.2313temperature offset calibration	0.9980default loss term (dB/km)	0.3790temperature slope calibration	1.0000multiplexer offset coefficient	1.0000multiplexer slope coefficient	1.0000fibre end	0.00T internal ref (°C)	29.81T ext. ref 1 (°C)	0.09T ext. ref 2 (°C)	23.57length (m)	temperature (°C)	Stokes	anti-Stokes-747.200	-200.000	-0.041	0.226
-746.185	63.218	-0.143	0.145
-745.171	375.529	0.100	-0.207
-744.156	71.803	0.077	-0.081
-743.142	-39.590	-0.205	0.109
-742.127	-142.796	-0.176	0.017
-741.112	-200.000	0.035	0.159
-740.098	800.000	-0.185	0.615
-739.083	-200.000	0.008	-0.069
-738.069	23.650	0.162	0.135
-737.054	487.027	0.065	-0.151
-736.039	800.000	0.093	0.327
-735.025	800.000	0.050	0.182
-734.010	26.374	-0.318	-0.269
-732.996	207.600	0.125	-0.197
-731.981	-94.715	-0.085	0.023
-730.966	-56.957	0.079	0.035
-729.952	0.120	-0.345	-0.249
-728.937	-89.366	-0.263	-0.079
-727.923	-21.639	-0.039	-0.024
-726.908	800.000	0.077	-0.243
-725.894	-153.272	0.248	0.018
-724.879	33.277	-0.177	0.156
-723.864	-61.908	-0.295	-0.125
-722.850	126.290	0.199	-0.255
-721.835	25.392	-0.110	-0.093
-720.821	-167.191	-0.252	0.010
-719.806	800.000	-0.038	0.117
-718.791	319.825	-0.292	-0.561
-717.777	-143.892	0.128	0.012
-716.762	190.194	-0.078	-0.119
-715.748	130.056	0.220	-0.285
-714.733	800.000	0.037	-0.140
-713.718	713.191	-0.094	0.253
-712.704	-200.000	0.006	0.063
-711.689	-79.796	-0.325	0.111
-710.675	-127.541	-0.077	0.011
-709.660	800.000	-0.040	-0.171
-708.645	134.342	-0.152	0.200
-707.631	-9.632	0.148	-0.100
-706.616	186.795	-0.160	-0.241
-705.602	419.130	0.124	-0.268
-704.587	118.363	-0.216	-0.270
-703.572	-8.322	0.138	0.094
-702.558	800.000	-0.057	0.202
-701.543	-200.000	0.008	0.044
-700.529	50.144	-0.125	-0.119
-699.514	465.969	0.072	0.163
-698.499	-200.000	0.028	-0.466
-697.485	-81.808	0.174	0.058
-696.470	485.221	-0.037	0.084
-695.456	-194.489	-0.285	-0.002
-694.441	-200.000	0.078	-0.398
-693.426	-47.319	-0.077	-0.038
-692.412	40.206	-0.055	0.050
-691.397	293.222	0.102	-0.189
-690.383	-200.000	-0.047	-0.223
-689.368	-1.265	0.088	-0.063
-688.354	4.330	0.212	-0.157
-687.339	404.176	-0.107	-0.227
-686.324	190.010	-0.085	-0.129
-685.310	335.436	0.067	0.131
-684.295	268.688	0.116	0.207
-683.281	55.259	-0.165	-0.161
-682.266	67.960	-0.168	0.174
-681.251	-200.000	0.039	-0.221
-680.237	375.806	0.029	0.060
-679.222	-0.825	0.064	-0.046
-678.208	-94.365	-0.329	-0.091
-677.193	800.000	0.065	-0.184
-676.178	-67.862	0.201	-0.079
-675.164	381.036	0.080	-0.166
-674.149	-1.755	-0.116	-0.083
-673.135	-52.985	-0.351	0.163
-672.120	-23.632	0.085	-0.052
-671.105	-48.932	0.150	-0.073
-670.091	-93.767	-0.183	-0.051
-669.076	59.849	0.164	-0.164
-668.062	-21.701	-0.183	-0.112
-667.047	293.765	0.066	-0.121
-666.032	127.363	0.166	0.213
-665.018	441.463	0.098	0.218
-664.003	349.117	-0.146	-0.292
-662.989	800.000	-0.024	-0.080
-661.974	-200.000	0.001	0.028
-660.959	-28.469	0.003	0.002
-659.945	-58.204	0.250	0.110
-658.930	15.599	-0.216	0.172
-657.916	-1.467	-0.164	-0.117
-656.901	-73.307	0.167	-0.062
-655.886	-118.164	-0.266	0.048
-654.872	146.263	0.064	0.087
-653.857	-200.000	0.034	0.167
-652.843	156.355	0.032	-0.044
-651.828	-10.079	0.234	0.157
-650.814	-98.971	0.249	-0.064
-649.799	-38.822	0.108	-0.058
-648.784	-59.641	0.222	0.096
-647.770	-200.000	-0.011	-0.224
-646.755	38.920	-0.107	-0.096
-645.741	-137.727	0.115	0.013
-644.726	-126.672	0.103	-0.015
-643.711	70.450	0.038	-0.040
-642.697	-143.249	0.155	0.015
-641.682	-200.000	0.005	-0.190
-640.668	75.975	-0.304	-0.324
-639.653	661.483	0.123	-0.320
-638.638	-7.988	-0.142	-0.097
-637.624	4.092	0.079	0.058
-636.609	258.565	-0.100	0.175
-635.595	-200.000	-0.053	-0.364
-634.580	-33.137	0.333	0.187
-633.565	-30.197	-0.128	0.073
-632.551	-200.000	0.028	-0.248
-631.536	233.396	0.183	-0.304
-630.522	433.586	0.110	-0.242
-629.507	800.000	-0.048	-0.182
-628.492	-200.000	0.002	-0.186
-627.478	-90.408	0.132	-0.039
-626.463	-41.544	-0.309	-0.160
-625.449	11.709	-0.137	-0.106
-624.434	-36.174	0.143	-0.078
-623.419	-57.334	-0.298	-0.132
-622.405	-41.706	-0.266	-0.138
-621.390	210.351	-0.142	-0.225
-620.376	-142.022	-0.324	-0.033
-619.361	-200.000	0.143	-0.714
-618.346	108.325	0.182	0.219
-617.332	-85.395	0.043	-0.014
-616.317	-200.000	0.013	-0.084
-615.303	-139.616	0.360	-0.039
-614.288	-34.280	0.175	-0.097
-613.273	2.567	0.122	-0.089
-612.259	209.374	-0.112	0.177
-611.244	114.653	-0.133	0.163
-610.230	364.839	0.052	0.105
-609.215	-200.000	-0.089	-0.507
-608.201	-86.150	0.180	-0.056
-607.186	-63.161	-0.078	-0.032
-606.171	-93.910	0.511	0.142
-605.157	414.077	0.115	0.246
-604.142	192.182	-0.133	-0.202
-603.128	-176.018	-0.117	-0.003
-602.113	327.785	-0.132	-0.255
-601.098	-128.214	0.170	-0.024
-600.084	-20.101	-0.233	0.145
-599.069	-39.840	0.193	-0.102
-598.055	800.000	-0.019	0.074
-597.040	11.269	0.132	-0.102
-596.025	-200.000	-0.048	0.251
-595.011	-24.929	-0.178	0.107
-593.996	167.448	-0.064	-0.092
-592.982	140.191	0.099	0.132
-591.967	-200.000	0.076	0.386
-590.952	-200.000	0.026	0.139
-589.938	694.531	0.121	0.321
-588.923	-200.000	-0.017	0.345
-587.909	-119.736	-0.179	-0.031
-586.894	800.000	-0.092	-0.260
-585.879	701.320	0.102	-0.270
-584.865	-93.439	0.156	-0.044
-583.850	157.647	-0.105	-0.146
-582.836	159.613	-0.147	0.207
-581.821	84.598	0.251	0.276
-580.806	100.690	0.158	0.185
-579.792	77.750	-0.183	0.197
-578.777	51.609	-0.216	0.207
-577.763	-200.000	0.000	0.057
-576.748	280.147	-0.282	0.508
-575.733	-200.000	0.037	0.233
-574.719	800.000	0.089	-0.319
-573.704	-11.758	0.202	-0.134
-572.690	-7.955	0.471	0.320
-571.675	-169.957	0.105	-0.004
-570.661	435.891	0.055	-0.120
-569.646	61.618	0.069	0.069
-568.631	-92.949	-0.227	-0.064
-567.617	531.209	-0.076	-0.180
-566.602	-200.000	0.039	-0.192
-565.588	380.694	-0.066	0.136
-564.573	800.000	0.064	0.204
-563.558	66.666	0.189	-0.194
-562.544	800.000	0.028	-0.111
-561.529	73.571	-0.231	-0.243
-560.515	-156.234	0.049	0.003
-559.500	-200.000	-0.016	0.364
-558.485	-48.548	-0.245	-0.119
-557.471	33.635	-0.146	0.128
-556.456	706.201	0.076	-0.202
-555.442	16.909	0.227	-0.181
-554.427	-160.486	-0.074	0.004
-553.412	-141.395	0.102	0.010
-552.398	-200.000	-0.001	0.234
-551.383	503.884	-0.064	0.148
-550.369	47.627	0.160	0.150
-549.354	800.000	-0.041	-0.174
-548.339	2.929	0.244	0.179
-547.325	-89.726	-0.089	0.026
-546.310	194.335	-0.105	0.159
-545.296	546.290	-0.229	0.551
-544.281	800.000	-0.148	-0.443
-543.266	187.483	0.114	-0.172
-542.252	-13.270	-0.166	-0.108
-541.237	196.864	0.201	0.309
-540.223	-55.578	-0.071	0.032
-539.208	-133.468	-0.195	-0.025
-538.193	144.111	0.204	-0.274
-537.179	-1.833	-0.239	-0.170
-536.164	-29.630	-0.331	-0.190
-535.150	23.717	0.088	-0.073
-534.135	76.607	-0.019	0.020
-533.121	-22.011	-0.129	-0.079
-532.106	34.865	-0.055	0.048
-531.091	-159.207	-0.179	0.010
-530.077	-60.326	0.239	0.102
-529.062	-200.000	0.013	-0.277
-528.048	3.362	-0.288	0.211
-527.033	8.776	-0.156	-0.118
-526.018	-77.771	0.142	-0.049
-525.004	-15.312	0.244	-0.157
-523.989	-200.000	0.015	0.154
-522.975	61.022	0.133	0.132
-521.960	-196.006	-0.206	0.001
-520.945	-200.000	0.004	0.117
-519.931	-131.857	0.214	0.028
-518.916	-35.265	0.263	0.144
-517.902	800.000	-0.067	-0.244
-516.887	-121.315	-0.339	0.057
-515.872	-28.781	-0.095	0.055
-514.858	168.808	-0.096	-0.137
-513.843	-19.860	0.190	0.118
-512.829	8.840	0.072	-0.054
-511.814	-89.874	-0.244	-0.072
-510.799	-6.937	-0.231	0.158
-509.785	-200.000	-0.006	0.109
-508.770	800.000	-0.073	-0.250
-507.756	-90.988	-0.294	0.085
-506.741	189.140	-0.090	0.136
-505.726	161.024	-0.197	-0.277
-504.712	-67.483	-0.446	0.176
-503.697	163.818	-0.140	0.198
-502.683	-66.189	-0.119	0.048
-501.668	-43.749	-0.294	-0.149
-500.653	-183.730	-0.411	0.007
-499.639	121.064	-0.062	-0.078
-498.624	-74.090	0.151	-0.055
-497.610	-53.480	0.331	0.152
-496.595	171.157	0.174	-0.251
-495.581	-100.861	0.310	0.076
-494.566	338.813	-0.143	-0.280
-493.551	290.285	0.307	0.559
-492.537	-200.000	0.009	-0.191
-491.522	460.567	0.121	0.271
-490.508	800.000	-0.055	-0.184
-489.493	-123.683	0.211	-0.034
-488.478	473.479	-0.138	-0.313
-487.464	800.000	0.057	-0.164
-486.449	-200.000	-0.025	-0.161
-485.435	-200.000	-0.056	0.305
-484.420	800.000	-0.039	-0.143
-483.405	800.000	0.030	0.126
-482.391	-21.774	-0.300	0.183
-481.376	656.583	0.080	-0.205
-480.362	113.221	0.119	0.144
-479.347	-33.656	0.189	0.104
-478.332	31.531	0.162	0.140
-477.318	539.817	-0.068	0.162
-476.303	-1.979	0.079	-0.056
-475.289	-118.373	-0.162	-0.029
-474.274	10.767	0.239	0.183
-473.259	-200.000	0.001	-0.027
-472.245	-200.000	-0.013	0.234
-471.230	94.380	0.250	0.285
-470.216	123.692	0.113	-0.142
-469.201	449.863	0.176	-0.389
-468.186	-40.698	0.032	0.017
-467.172	168.939	0.012	-0.016
-466.157	253.170	0.022	0.038
-465.143	-108.024	0.170	0.037
-464.128	-200.000	0.009	-0.108
-463.113	800.000	-0.047	0.206
-462.099	421.898	0.063	0.136
-461.084	-200.000	0.019	0.128
-460.070	-200.000	-0.034	-0.244
-459.055	-81.296	0.045	-0.015
-458.040	16.970	-0.081	0.064
-457.026	-74.774	-0.212	0.076
-456.011	-49.335	0.130	0.062
-454.997	128.428	-0.103	0.132
-453.982	-200.000	0.039	0.274
-452.968	-93.677	-0.077	0.021
-451.953	489.949	-0.073	0.167
-450.938	800.000	-0.031	-0.115
-449.924	-37.598	0.135	0.072
-448.909	-42.342	0.048	-0.025
-447.895	800.000	-0.048	-0.139
-446.880	800.000	0.035	0.108
-445.865	-113.676	-0.263	0.052
-444.851	655.455	-0.077	0.197
-443.836	-40.200	-0.104	-0.054
-442.822	-200.000	-0.015	-0.214
-441.807	-97.859	0.168	0.043
-440.792	63.897	-0.132	0.133
-439.778	28.105	0.116	0.098
-438.763	-45.695	-0.059	0.029
-437.749	-58.633	-0.121	0.052
-436.734	201.955	0.123	0.190
-435.719	-200.000	-0.051	-0.290
-434.705	56.667	-0.205	0.200
-433.690	-126.637	0.210	-0.031
-432.676	-8.135	-0.178	-0.120
-431.661	161.972	-0.035	0.049
-430.646	-139.105	0.356	-0.039
-429.632	667.046	-0.023	-0.060
-428.617	-136.684	-0.157	0.018
-427.603	-34.944	0.119	-0.065
-426.588	-200.000	-0.076	-0.350
-425.573	-116.560	0.294	-0.054
-424.559	1.019	-0.319	-0.229
-423.544	-200.000	-0.008	-0.130
-422.530	48.336	-0.126	-0.118
-421.515	133.616	0.073	0.095
-420.500	-200.000	-0.014	-0.204
-419.486	177.064	-0.165	0.240
-418.471	-200.000	-0.011	-0.300
-417.457	-200.000	-0.001	0.282
-416.442	3.727	-0.273	0.200
-415.428	-71.997	-0.340	0.127
-414.413	116.024	0.239	-0.293
-413.398	-200.000	-0.030	-0.236
-412.384	-161.238	-0.159	0.008
-411.369	67.883	0.208	-0.213
-410.355	470.970	-0.074	-0.167
-409.340	-200.000	-0.036	0.170
-408.325	13.854	0.146	-0.114
-407.311	10.943	0.215	0.165
-406.296	-71.955	0.196	-0.073
-405.282	-81.323	0.041	-0.013
-404.267	800.000	-0.100	0.343
-403.252	23.327	0.302	-0.248
-402.238	-125.482	0.107	0.016
-401.223	305.047	0.126	0.234
-400.209	-161.089	-0.176	-0.009
-399.194	800.000	-0.056	-0.210
-398.179	-200.000	-0.012	-0.123
-397.165	800.000	0.094	-0.331
-396.150	798.590	0.126	-0.347
-395.136	5.836	0.175	0.129
-394.121	40.026	0.165	-0.148
-393.106	-174.584	0.273	0.008
-392.092	-2.276	-0.188	0.132
-391.077	-200.000	0.014	-0.314
-390.063	-200.000	-0.048	-0.227
-389.048	152.924	0.192	-0.262
-388.033	456.204	-0.099	-0.220
-387.019	-67.611	0.188	0.074
-386.004	-167.067	-0.396	0.016
-384.990	-154.203	-0.253	-0.017
-383.975	-81.100	-0.146	0.048
-382.960	541.666	0.114	0.273
-381.946	-157.605	-0.129	-0.008
-380.931	58.222	0.198	-0.194
-379.917	154.531	-0.119	-0.163
-378.902	800.000	-0.051	-0.141
-377.888	-200.000	-0.042	-0.292
-376.873	-200.000	0.014	0.176
-375.858	114.909	0.146	0.178
-374.844	-121.397	0.081	0.014
-373.829	336.925	0.022	0.042
-372.815	262.434	0.121	-0.210
-371.800	128.204	0.032	-0.041
-370.785	109.968	0.226	-0.271
-369.771	-146.112	-0.268	-0.024
-368.756	-60.846	-0.143	-0.060
-367.742	-200.000	0.038	0.267
-366.727	103.671	-0.067	-0.078
-365.712	-102.503	0.142	-0.034
-364.698	-110.701	-0.395	-0.082
-363.683	302.989	-0.076	0.141
-362.669	-61.326	0.191	0.080
-361.654	108.996	-0.253	0.302
-360.639	-16.210	0.153	0.097
-359.625	581.443	-0.095	-0.233
-358.610	800.000	0.057	0.175
-357.596	800.000	-0.050	0.183
-356.581	28.566	0.224	0.189
-355.566	800.000	-0.092	0.312
-354.552	-74.039	-0.411	0.149
-353.537	160.223	0.037	0.052
-352.523	52.028	-0.217	0.206
-351.508	-28.744	0.188	0.108
-350.493	-200.000	-0.008	0.234
-349.479	156.826	0.226	0.312
-348.464	-147.107	0.270	-0.023
-347.450	-75.894	-0.264	0.094
-346.435	-200.000	-0.012	0.213
-345.420	6.012	0.083	-0.062
-344.406	-122.264	0.149	-0.024
-343.391	10.273	0.158	-0.120
-342.377	263.797	-0.172	-0.299
-341.362	-57.525	0.165	0.072
-340.348	-200.000	-0.010	-0.156
-339.333	-90.672	-0.068	-0.020
-338.318	41.914	0.291	0.264
-337.304	157.374	-0.053	-0.073
-336.289	-200.000	-0.012	0.228
-335.275	-13.699	-0.098	-0.063
-334.260	-200.000	-0.034	0.284
-333.245	82.324	-0.211	-0.229
-332.231	48.437	0.224	-0.209
-331.216	19.231	0.077	0.062
-330.202	-38.452	-0.196	-0.103
-329.187	-200.000	-0.060	0.288
-328.172	-152.682	-0.159	0.011
-327.158	-132.219	-0.176	0.023
-326.143	130.181	-0.024	0.031
-325.129	-200.000	-0.025	0.226
-324.114	137.776	-0.187	0.244
-323.099	250.027	0.152	-0.258
-322.085	-130.346	0.113	0.015
-321.070	-200.000	-0.006	-0.106
-320.056	106.818	-0.036	0.043
-319.041	-34.719	-0.138	0.075
-318.026	-117.817	-0.190	-0.034
-317.012	-144.374	0.547	-0.051
-315.997	-59.974	-0.229	0.098
-314.983	430.050	0.125	-0.270
-313.968	134.087	0.194	-0.251
-312.953	-15.243	0.217	0.138
-311.939	-109.345	-0.042	-0.009
-310.924	162.131	-0.145	-0.202
-309.910	-200.000	0.049	-0.341
-308.895	390.659	0.036	0.074
-307.880	130.525	0.139	0.177
-306.866	40.048	-0.353	0.317
-305.851	642.683	0.078	0.199
-304.837	-55.677	0.152	0.068
-303.822	174.830	-0.124	0.179
-302.807	-200.000	-0.007	0.117
-301.793	-0.144	0.089	-0.063
-300.778	-200.000	0.009	-0.229
-299.764	195.687	-0.156	-0.236
-298.749	106.840	-0.120	-0.142
-297.735	-15.423	0.271	-0.172
-296.720	-170.500	0.129	-0.004
-295.705	-200.000	0.146	-0.001
-294.691	164.081	-0.133	-0.186
-293.676	-15.496	-0.070	0.044
-292.662	1.008	0.075	0.053
-291.647	-92.466	0.289	0.081
-290.632	-34.095	0.063	-0.035
-289.618	-93.057	0.178	0.049
-288.603	-33.330	0.122	0.067
-287.589	621.238	-0.132	-0.330
-286.574	-119.360	-0.107	-0.019
-285.559	800.000	0.085	0.330
-284.545	215.826	0.037	-0.059
-283.530	2.025	-0.162	0.116
-282.516	-200.000	0.018	-0.137
-281.501	438.960	-0.097	-0.210
-280.486	380.019	0.088	0.180
-279.472	-200.000	0.030	0.227
-278.457	-200.000	0.020	-0.248
-277.443	192.058	0.085	0.128
-276.428	-145.596	-0.410	0.037
-275.413	183.381	0.078	0.115
-274.399	800.000	0.058	-0.173
-273.384	-200.000	0.047	-0.349
-272.370	800.000	-0.138	0.407
-271.355	77.892	-0.191	0.203
-270.340	0.155	0.249	0.177
-269.326	-122.955	-0.186	-0.030
-268.311	405.687	-0.134	0.281
-267.297	207.580	-0.130	0.202
-266.282	-76.084	-0.290	0.102
-265.267	800.000	0.063	0.236
-264.253	316.764	-0.169	-0.318
-263.238	232.065	-0.186	-0.303
-262.224	-200.000	-0.020	0.188
-261.209	800.000	0.051	-0.169
-260.195	208.236	0.090	-0.140
-259.180	-200.000	-0.035	-0.200
-258.165	800.000	-0.087	0.251
-257.151	800.000	-0.108	-0.462
-256.136	-200.000	0.027	0.123
-255.122	-45.292	-0.384	0.190
-254.107	800.000	0.126	0.416
-253.092	-103.228	-0.188	0.044
-252.078	-138.293	-0.300	0.033
-251.063	741.165	0.030	0.081
-250.049	51.209	0.149	-0.141
-249.034	-81.901	0.192	-0.063
-248.019	99.755	0.195	0.225
-247.005	800.000	0.052	0.186
-245.990	-23.086	0.238	0.143
-244.976	57.031	0.160	-0.155
-243.961	-97.380	-0.329	-0.085
-242.946	62.057	-0.143	0.142
-241.932	-200.000	-0.005	0.022
-240.917	-20.003	0.352	0.216
-239.903	-200.000	-0.007	0.406
-238.888	595.370	-0.122	0.300
-237.873	-113.654	0.072	0.014
-236.859	-200.000	0.010	-0.334
-235.844	-88.683	0.303	0.090
-234.830	-18.333	0.231	-0.144
-233.815	-110.663	0.119	-0.024
-232.800	-200.000	-0.037	-0.187
-231.786	-39.432	-0.230	0.120
-230.771	-57.744	0.241	-0.105
-229.757	-83.980	-0.191	0.060
-228.742	59.544	-0.097	-0.095
-227.727	-200.000	0.018	-0.078
-226.713	131.342	0.048	0.062
-225.698	-200.000	0.007	-0.081
-224.684	800.000	0.013	0.039
-223.669	-68.773	0.345	0.132
-222.655	21.386	-0.066	0.053
-221.640	-88.801	0.179	0.053
-220.625	-63.573	-0.188	0.077
-219.611	7.632	0.220	-0.164
-218.596	-19.521	0.186	0.115
-217.582	40.463	-0.159	-0.142
-216.567	64.947	-0.091	-0.092
-215.552	66.204	-0.062	0.062
-214.538	223.021	0.084	-0.135
-213.523	-124.190	-0.086	-0.013
-212.509	-200.000	0.008	0.167
-211.494	157.387	-0.142	-0.195
-210.479	-200.000	0.004	-0.100
-209.465	-200.000	-0.238	0.001
-208.450	-102.357	0.286	0.068
-207.436	-50.581	0.188	0.088
-206.421	-200.000	0.001	0.162
-205.406	-200.000	-0.032	0.392
-204.392	800.000	-0.059	-0.245
-203.377	-97.000	0.253	-0.066
-202.363	800.000	0.016	0.055
-201.348	-17.530	0.269	0.168
-200.333	356.889	0.227	0.449
-199.319	-84.481	-0.049	0.015
-198.304	-200.000	0.111	0.691
-197.290	116.123	0.256	0.311
-196.275	94.775	0.070	-0.079
-195.260	106.768	0.139	-0.164
-194.246	-38.285	-0.159	-0.084
-193.231	463.435	0.015	0.034
-192.217	577.599	0.095	0.231
-191.202	-78.089	0.321	-0.110
-190.187	351.915	0.062	0.122
-189.173	128.907	-0.295	0.373
-188.158	-29.964	-0.154	0.087
-187.144	59.084	0.141	-0.138
-186.129	569.175	0.114	-0.274
-185.114	800.000	-0.069	-0.217
-184.100	-26.880	-0.294	-0.170
-183.085	561.796	0.060	-0.143
-182.071	-200.000	-0.035	-0.225
-181.056	151.093	0.115	-0.155
-180.042	-5.824	-0.238	-0.162
-179.027	44.847	-0.210	0.192
-178.012	-154.036	-0.305	-0.021
-176.998	-193.238	0.252	0.002
-175.983	1.231	-0.192	-0.137
-174.969	335.743	-0.121	-0.233
-173.954	-115.713	0.214	0.040
-172.939	166.724	0.098	-0.138
-171.925	-146.208	-0.319	0.028
-170.910	-89.492	-0.278	0.081
-169.896	54.186	-0.175	-0.167
-168.881	-200.000	-0.011	-0.121
-167.866	1.238	0.246	0.175
-166.852	-200.000	0.020	-0.096
-165.837	800.000	-0.068	-0.187
-164.823	743.069	0.143	0.381
-163.808	800.000	0.040	0.172
-162.793	499.737	-0.062	-0.142
-161.779	-136.643	-0.164	0.019
-160.764	90.458	-0.081	-0.090
-159.750	336.629	-0.098	-0.188
-158.735	336.552	0.055	-0.107
-157.720	-71.037	-0.293	-0.109
-156.706	245.378	0.056	0.093
-155.691	-183.832	0.234	-0.004
-154.677	800.000	0.079	0.222
-153.662	-200.000	0.026	-0.217
-152.647	-200.000	0.009	-0.308
-151.633	702.052	0.139	0.362
-150.618	258.223	0.102	-0.174
-149.604	800.000	0.042	-0.118
-148.589	800.000	-0.110	-0.371
-147.574	800.000	0.079	0.271
-146.560	372.432	0.124	0.250
-145.545	-73.290	0.258	-0.094
-144.531	800.000	-0.040	-0.113
-143.516	-200.000	0.009	-0.091
-142.502	-180.100	0.206	-0.004
-141.487	-11.641	-0.275	-0.179
-140.472	800.000	0.021	0.087
-139.458	34.895	0.142	0.123
-138.443	-112.759	0.440	-0.087
-137.429	147.008	0.294	0.392
-136.414	645.231	0.092	0.232
-135.399	39.088	-0.121	0.107
-134.385	171.631	-0.135	-0.192
-133.370	32.905	0.116	-0.100
-132.356	-200.000	-0.017	0.094
-131.341	310.884	-0.143	-0.265
-130.326	-200.000	-0.018	-0.199
-129.312	17.176	-0.095	0.074
-128.297	-77.556	-0.232	-0.080
-127.283	258.532	0.026	-0.045
-126.268	-29.438	-0.280	-0.158
-125.253	-2.137	0.210	0.146
-124.239	-200.000	0.010	-0.277
-123.224	-39.188	0.334	0.174
-122.210	-2.808	0.126	-0.087
-121.195	82.134	0.108	-0.116
-120.180	234.140	-0.191	-0.312
