DTS Sentinel unit serial number:	SN413079Multiplexer serial number:	ORYXHardware model number:	OX4-SRSoftware version number:	ORYX F/W v4.00 Oryx Data Collector v3.7.2.0data status	okinstallation	princeton_trtdifferential loss correction	single-endedforward channel	channel 4reverse channel	N/Adate	2019/09/14time	17:41:35forward acquisition time	60.00reverse acquisition time	0.00gamma	496.2192k internal	0.2295k external	0.2295temperature offset calibration	1.0116default loss term (dB/km)	0.3790temperature slope calibration	1.0000multiplexer offset coefficient	1.0000multiplexer slope coefficient	1.0000fibre end	0.00T internal ref (°C)	37.52T ext. ref 1 (°C)	5.02T ext. ref 2 (°C)	32.82length (m)	temperature (°C)	Stokes	anti-Stokes-747.200	-130.978	-0.142	-0.019
-746.185	-200.000	0.028	-0.137
-745.171	258.224	0.121	-0.214
-744.156	800.000	0.125	0.398
-743.142	-200.000	0.020	0.327
-742.127	208.232	0.061	0.098
-741.112	-99.549	0.182	0.047
-740.098	-150.142	0.176	-0.014
-739.083	223.298	0.051	-0.085
-738.069	-94.889	0.175	-0.048
-737.054	-43.223	-0.107	0.055
-736.039	16.272	0.166	-0.134
-735.025	-131.191	0.232	-0.031
-734.010	-88.561	-0.223	-0.068
-732.996	362.866	-0.189	-0.387
-731.981	-3.229	0.043	0.031
-730.966	154.818	-0.174	-0.244
-729.952	346.603	-0.059	0.118
-728.937	-101.030	-0.251	-0.063
-727.923	7.304	-0.079	-0.061
-726.908	-200.000	0.045	0.238
-725.894	543.115	-0.060	0.146
-724.879	-96.538	-0.267	0.072
-723.864	102.303	-0.152	-0.182
-722.850	-16.481	-0.374	-0.242
-721.835	198.056	-0.018	-0.028
-720.821	-42.535	-0.235	-0.123
-719.806	36.025	-0.148	-0.133
-718.791	110.493	-0.218	-0.267
-717.777	56.837	-0.056	-0.056
-716.762	-200.000	0.031	-0.200
-715.748	-35.095	0.231	0.128
-714.733	-165.104	-0.241	0.011
-713.718	-200.000	0.019	0.224
-712.704	-40.493	0.290	0.153
-711.689	69.352	-0.009	0.009
-710.675	-200.000	0.028	-0.376
-709.660	-86.262	0.134	-0.042
-708.645	-41.495	-0.150	0.079
-707.631	-76.423	0.088	0.032
-706.616	51.949	-0.114	0.111
-705.602	-183.336	-0.174	-0.003
-704.587	43.551	0.173	0.161
-703.572	-137.926	0.209	-0.024
-702.558	-13.467	0.055	0.036
-701.543	-200.000	-0.017	-0.238
-700.529	607.675	-0.086	-0.218
-699.514	28.914	0.084	-0.072
-698.499	498.341	-0.060	-0.141
-697.485	800.000	-0.050	-0.146
-696.470	-93.391	-0.192	-0.054
-695.456	185.829	0.194	-0.294
-694.441	-200.000	0.063	-0.324
-693.426	800.000	0.064	-0.219
-692.412	-107.885	-0.220	-0.049
-691.397	52.577	-0.208	0.203
-690.383	-81.930	0.076	0.025
-689.368	-103.316	-0.147	-0.035
-688.354	-168.559	0.078	0.003
-687.339	-12.586	-0.235	-0.156
-686.324	-200.000	0.006	-0.156
-685.310	436.619	-0.054	0.119
-684.295	800.000	0.053	-0.199
-683.281	97.566	-0.109	-0.127
-682.266	800.000	0.035	-0.138
-681.251	-90.633	0.319	0.094
-680.237	-200.000	0.095	-0.429
-679.222	-100.763	0.422	-0.106
-678.208	-87.194	-0.319	0.099
-677.193	-70.233	-0.292	0.113
-676.178	194.335	0.185	-0.285
-675.164	155.079	-0.136	0.190
-674.149	-160.122	-0.427	-0.024
-673.135	-200.000	0.032	-0.225
-672.120	-29.442	-0.072	0.042
-671.105	-47.932	0.057	-0.028
-670.091	195.565	0.188	-0.291
-669.076	-200.000	-0.033	-0.240
-668.062	-108.641	0.206	0.045
-667.047	-22.692	0.373	0.230
-666.032	-8.461	-0.197	-0.135
-665.018	-128.257	-0.094	0.014
-664.003	-200.000	-0.028	-0.185
-662.989	745.978	-0.126	-0.345
-661.974	-38.490	0.097	0.052
-660.959	92.622	-0.357	-0.410
-659.945	800.000	0.062	0.267
-658.930	-158.171	0.241	0.014
-657.916	69.065	-0.127	-0.133
-656.901	800.000	-0.012	-0.035
-655.886	-200.000	-0.017	-0.196
-654.872	-146.290	0.347	0.031
-653.857	78.525	0.072	-0.079
-652.843	382.296	0.014	0.030
-651.828	-19.184	0.145	-0.092
-650.814	12.600	-0.152	-0.119
-649.799	178.412	-0.286	0.426
-648.784	-77.904	0.212	-0.075
-647.770	-94.467	-0.438	0.122
-646.755	-60.316	-0.142	0.061
-645.741	-182.386	0.083	0.002
-644.726	-46.921	0.065	0.032
-643.711	800.000	0.076	0.300
-642.697	-98.070	-0.142	-0.037
-641.682	5.430	-0.154	0.116
-640.668	198.005	-0.115	-0.178
-639.653	106.618	0.252	-0.304
-638.638	-200.000	0.008	0.045
-637.624	-120.191	-0.286	-0.050
-636.609	-200.000	-0.019	-0.119
-635.595	800.000	-0.012	-0.037
-634.580	-12.223	-0.361	0.241
-633.565	54.270	0.115	0.112
-632.551	47.833	0.189	-0.180
-631.536	-91.025	0.175	0.051
-630.522	101.062	0.153	0.181
-629.507	-83.328	-0.142	0.046
-628.492	-200.000	-0.005	-0.203
-627.478	-200.000	0.046	-0.315
-626.463	-135.665	-0.280	0.034
-625.449	258.032	0.137	-0.240
-624.434	-14.631	-0.132	0.087
-623.419	-200.000	-0.046	0.224
-622.405	-105.609	-0.193	0.044
-621.390	62.645	0.099	0.101
-620.376	125.909	-0.299	-0.385
-619.361	347.794	0.105	0.210
-618.346	-200.000	-0.036	0.216
-617.332	213.865	-0.164	-0.263
-616.317	43.793	0.193	-0.179
-615.303	-10.242	0.236	-0.159
-614.288	42.027	-0.206	-0.191
-613.273	182.057	-0.223	-0.334
-612.259	135.247	-0.084	0.111
-611.244	377.510	0.118	0.244
-610.230	105.151	-0.091	-0.109
-609.215	129.358	-0.052	0.067
-608.201	37.588	0.073	-0.066
-607.186	19.974	0.108	0.089
-606.171	152.615	-0.082	-0.113
-605.157	74.652	-0.118	-0.126
-604.142	800.000	-0.085	-0.348
-603.128	-200.000	-0.036	-0.254
-602.113	-200.000	-0.032	-0.170
-601.098	-158.869	0.160	0.009
-600.084	-200.000	0.019	-0.165
-599.069	-37.043	-0.180	0.098
-598.055	615.832	-0.023	0.059
-597.040	387.386	-0.122	0.257
-596.025	-177.786	-0.279	0.007
-595.011	-200.000	-0.009	-0.094
-593.996	-32.931	0.136	0.077
-592.982	-200.000	-0.009	0.101
-591.967	60.855	0.183	-0.185
-590.952	33.674	0.067	-0.059
-589.938	-93.996	-0.061	-0.017
-588.923	323.897	-0.077	-0.149
-587.909	-44.457	-0.253	-0.129
-586.894	-200.000	0.006	0.073
-585.879	800.000	-0.077	0.310
-584.865	194.432	-0.112	-0.172
-583.850	-78.645	-0.090	0.031
-582.836	-113.406	-0.190	-0.038
-581.821	-142.813	-0.375	0.037
-580.806	-200.000	-0.037	-0.179
-579.792	-83.459	-0.247	0.080
-578.777	-25.162	0.202	-0.122
-577.763	10.461	0.267	0.207
-576.748	407.503	0.092	-0.198
-575.733	-200.000	0.001	0.106
-574.719	269.133	-0.109	-0.195
-573.704	-56.848	0.265	0.119
-572.690	-60.955	0.519	0.223
-571.675	84.180	0.103	0.114
-570.661	-200.000	0.011	-0.314
-569.646	-39.194	-0.243	0.130
-568.631	-45.856	0.102	-0.051
-567.617	-200.000	0.023	-0.302
-566.602	136.274	0.163	-0.216
-565.588	199.316	0.231	-0.360
-564.573	-91.511	-0.155	-0.045
-563.558	132.802	-0.177	-0.232
-562.544	56.524	0.182	0.180
-561.529	-53.954	-0.284	-0.131
-560.515	363.219	-0.093	0.189
-559.500	416.529	0.108	-0.234
-558.485	71.352	-0.166	0.175
-557.471	800.000	0.035	0.120
-556.456	55.610	-0.152	0.149
-555.442	-91.520	-0.056	-0.016
-554.427	-200.000	0.050	-0.229
-553.412	-126.089	0.273	0.042
-552.398	800.000	0.065	-0.209
-551.383	-200.000	-0.061	0.309
-550.369	800.000	-0.164	0.518
-549.354	-200.000	0.009	0.238
-548.339	-200.000	0.011	0.051
-547.325	-130.484	-0.461	-0.063
-546.310	132.741	-0.141	0.184
-545.296	-105.096	0.122	-0.028
-544.281	374.758	-0.044	-0.090
-543.266	800.000	0.051	0.164
-542.252	-23.503	-0.333	0.203
-541.237	211.123	0.084	-0.134
-540.223	-111.545	0.678	0.140
-539.208	-17.260	0.431	-0.276
-538.193	120.017	0.319	0.402
-537.179	800.000	-0.055	-0.226
-536.164	-95.276	-0.109	-0.030
-535.150	800.000	-0.034	0.130
-534.135	-157.177	-0.367	0.023
-533.121	800.000	-0.077	-0.305
-532.106	123.229	-0.232	-0.294
-531.091	-200.000	0.014	0.136
-530.077	-34.673	0.273	0.151
-529.062	-65.735	-0.215	-0.087
-528.048	800.000	-0.074	0.292
-527.033	800.000	0.083	0.248
-526.018	-52.613	-0.507	0.237
-525.004	-117.137	0.177	-0.033
-523.989	-143.260	0.346	0.034
-522.975	800.000	0.093	-0.282
-521.960	139.884	-0.175	-0.234
-520.945	800.000	0.025	0.105
-519.931	75.173	-0.049	0.052
-518.916	-200.000	0.031	0.240
-517.902	-52.477	0.189	0.089
-516.887	-112.271	0.282	0.057
-515.872	-116.246	0.177	0.033
-514.858	800.000	0.032	0.099
-513.843	161.526	0.083	0.117
-512.829	83.675	0.141	-0.156
-511.814	800.000	0.012	-0.035
-510.799	-200.000	0.026	0.193
-509.785	35.806	-0.277	0.247
-508.770	454.580	-0.106	-0.238
-507.756	-90.344	0.190	0.056
-506.741	-118.929	-0.273	-0.049
-505.726	-2.701	-0.087	-0.061
-504.712	-21.013	0.202	0.125
-503.697	-42.006	0.235	0.122
-502.683	-125.462	-0.456	0.070
-501.668	761.404	0.076	0.208
-500.653	23.846	-0.047	0.039
-499.639	-45.859	-0.148	-0.074
-498.624	115.423	-0.089	0.111
-497.610	104.531	0.083	-0.100
-496.595	-102.641	-0.288	-0.070
-495.581	-200.000	-0.006	0.405
-494.566	-39.841	-0.170	0.090
-493.551	-39.229	-0.208	-0.110
-492.537	-141.710	-0.296	0.030
-491.522	-0.212	-0.193	0.139
-490.508	-69.208	-0.215	0.084
-489.493	304.424	0.208	0.391
-488.478	-94.044	-0.194	0.054
-487.464	-0.894	0.231	0.165
-486.449	-69.183	0.187	-0.073
-485.435	-200.000	0.006	-0.088
-484.420	-32.690	-0.086	0.048
-483.405	-97.477	0.150	-0.039
-482.391	-1.185	-0.273	0.195
-481.376	341.247	-0.022	0.043
-480.362	598.161	-0.036	-0.091
-479.347	-200.000	-0.029	0.160
-478.332	388.372	0.189	-0.396
-477.318	-137.248	0.225	-0.026
-476.303	-165.897	-0.417	-0.018
-475.289	800.000	0.046	0.162
-474.274	11.116	0.100	-0.077
-473.259	-93.461	0.427	-0.120
-472.245	37.765	0.120	0.108
-471.230	-21.102	0.214	-0.132
-470.216	-200.000	0.200	-0.001
-469.201	-63.084	0.045	0.019
-468.186	-200.000	0.049	0.260
-467.172	-149.486	-0.262	0.021
-466.157	-60.693	0.202	-0.087
-465.143	13.893	-0.147	-0.116
-464.128	-141.080	-0.092	0.009
-463.113	-118.401	0.304	-0.054
-462.099	107.071	-0.119	0.142
-461.084	-200.000	0.027	-0.246
-460.070	88.624	-0.118	-0.133
-459.055	-162.640	-0.127	0.006
-458.040	-72.305	-0.398	0.149
-457.026	800.000	0.047	-0.143
-456.011	-0.943	-0.057	0.041
-454.997	44.777	0.171	-0.159
-453.982	-5.015	-0.204	-0.142
-452.968	-200.000	-0.017	0.106
-451.953	-132.703	0.107	0.014
-450.938	318.468	0.062	-0.118
-449.924	-28.169	-0.222	-0.130
-448.909	-93.362	-0.388	-0.109
-447.895	-129.224	0.160	0.023
-446.880	-165.987	0.036	0.002
-445.865	-177.746	-0.407	-0.010
-444.851	-200.000	0.004	0.085
-443.836	-200.000	-0.000	-0.036
-442.822	-105.111	-0.267	0.062
-441.807	-185.478	-0.212	0.003
-440.792	56.841	-0.219	-0.216
-439.778	-149.050	0.332	-0.027
-438.763	76.254	0.124	-0.133
-437.749	-149.309	0.427	-0.034
-436.734	407.049	0.109	0.232
-435.719	415.093	-0.108	0.233
-434.705	-17.393	0.043	0.027
-433.690	-58.088	0.249	0.110
-432.676	-89.598	-0.245	0.073
-431.661	-55.688	-0.194	0.087
-430.646	-200.000	-0.003	0.168
-429.632	-46.275	-0.173	0.086
-428.617	-200.000	-0.011	0.148
-427.603	-137.521	0.191	-0.022
-426.588	-80.004	0.102	0.035
-425.573	71.629	0.184	0.193
-424.559	-166.828	0.458	0.019
-423.544	-200.000	-0.009	0.153
-422.530	800.000	-0.086	0.269
-421.515	800.000	0.049	-0.151
-420.500	741.600	-0.035	-0.096
-419.486	-61.878	0.310	-0.131
-418.471	275.925	0.038	0.068
-417.457	139.045	0.033	0.043
-416.442	-47.779	-0.218	0.107
-415.428	-146.723	0.389	0.034
-414.413	-7.090	0.487	0.334
-413.398	-200.000	0.018	0.201
-412.384	-84.727	-0.241	-0.076
-411.369	253.977	0.131	-0.226
-410.355	-200.000	-0.012	0.175
-409.340	-80.479	0.197	-0.066
-408.325	-39.661	0.249	0.132
-407.311	-57.152	0.244	0.109
-406.296	-88.209	0.220	0.066
-405.282	-138.230	0.069	-0.008
-404.267	-65.306	-0.163	-0.066
-403.252	65.988	0.267	0.273
-402.238	-200.000	0.030	-0.246
-401.223	-200.000	0.024	0.171
-400.209	800.000	-0.080	-0.346
-399.194	48.539	-0.154	-0.145
-398.179	-68.558	0.224	-0.087
-397.165	-35.169	0.266	0.146
-396.150	280.351	-0.060	0.109
-395.136	-200.000	-0.003	0.052
-394.121	22.267	0.102	-0.084
-393.106	-200.000	0.003	-0.168
-392.092	-160.973	0.105	-0.006
-391.077	800.000	-0.069	-0.238
-390.063	-46.523	-0.543	-0.269
-389.048	800.000	0.019	-0.079
-388.033	-197.465	-0.131	0.001
-387.019	257.966	0.026	0.046
-386.004	-200.000	-0.031	-0.314
-384.990	48.369	0.124	0.117
-383.975	334.473	-0.044	0.086
-382.960	799.945	0.103	-0.287
-381.946	200.281	-0.084	-0.130
-380.931	462.648	0.104	-0.234
-379.917	-200.000	0.011	-0.204
-378.902	252.899	0.084	0.145
-377.888	108.996	-0.083	0.101
-376.873	-176.126	0.346	-0.009
-375.858	-200.000	-0.003	0.042
-374.844	-55.690	-0.152	0.068
-373.829	65.276	0.105	-0.106
-372.815	-5.981	0.265	-0.183
-371.800	-71.356	0.088	0.033
-370.785	-49.763	0.127	-0.061
-369.771	-131.914	-0.225	0.030
-368.756	-31.073	-0.049	-0.028
-367.742	-200.000	0.044	-0.219
-366.727	170.237	-0.130	-0.188
-365.712	78.118	0.068	-0.073
-364.698	250.869	0.159	0.273
-363.683	-200.000	-0.101	-0.484
-362.669	-200.000	-0.006	0.043
-361.654	-200.000	0.023	0.294
-360.639	146.947	0.124	0.168
-359.625	-200.000	-0.003	-0.090
-358.610	-200.000	-0.025	0.317
-357.596	800.000	0.065	0.261
-356.581	-200.000	0.088	-0.443
-355.566	-117.587	-0.192	-0.035
-354.552	-84.453	-0.168	0.054
-353.537	-197.921	-0.087	0.001
-352.523	638.549	0.076	-0.195
-351.508	774.068	-0.128	-0.351
-350.493	308.079	0.064	-0.119
-349.479	-148.595	0.207	0.017
-348.464	-70.823	-0.164	0.062
-347.450	-200.000	-0.046	0.237
-346.435	-28.442	-0.152	0.088
-345.420	-97.922	0.360	0.093
-344.406	-39.954	0.106	0.056
-343.391	-35.502	-0.116	-0.064
-342.377	-128.596	-0.008	-0.001
-341.362	-47.479	-0.069	-0.034
-340.348	16.890	0.180	0.144
-339.333	-200.000	-0.019	-0.106
-338.318	-124.009	0.323	0.051
-337.304	149.294	0.050	-0.068
-336.289	45.286	-0.095	-0.088
-335.275	-168.873	0.088	-0.003
-334.260	-200.000	-0.044	0.466
-333.245	-200.000	0.041	0.427
-332.231	-165.940	0.224	0.010
-331.216	-57.579	-0.208	0.092
-330.202	170.036	-0.148	0.213
-329.187	439.041	0.024	-0.052
-328.172	-200.000	0.014	-0.342
-327.158	-191.177	0.322	-0.003
-326.143	276.838	0.040	0.071
-325.129	-200.000	-0.013	-0.131
-324.114	-144.895	0.040	0.004
-323.099	4.319	-0.439	0.323
-322.085	800.000	-0.028	0.120
-321.070	28.650	-0.191	0.162
-320.056	-71.551	-0.214	0.080
-319.041	-177.921	0.126	-0.003
-318.026	-200.000	0.011	0.103
-317.012	800.000	0.107	-0.316
-315.997	-29.160	-0.166	-0.096
-314.983	46.205	0.077	0.072
-313.968	33.512	0.054	-0.047
-312.953	5.464	-0.139	0.103
-311.939	327.033	0.045	0.086
-310.924	-200.000	-0.028	-0.253
-309.910	-170.585	0.225	-0.008
-308.895	-69.275	0.113	0.044
-307.880	723.082	-0.033	-0.088
-306.866	120.124	0.209	0.261
-305.851	530.383	-0.116	0.276
-304.837	-109.747	0.256	0.054
-303.822	-62.177	0.222	-0.093
-302.807	-44.876	-0.086	-0.043
-301.793	28.641	0.089	0.076
-300.778	-84.934	0.182	0.057
-299.764	-200.000	0.003	-0.191
-298.749	800.000	-0.184	0.513
-297.735	-200.000	-0.054	-0.328
-296.720	73.091	-0.132	-0.138
-295.705	-55.740	0.070	0.031
-294.691	501.686	0.055	0.127
-293.676	-87.593	-0.201	-0.061
-292.662	-200.000	0.072	0.334
-291.647	-140.490	-0.197	-0.021
-290.632	-102.256	-0.344	-0.083
-289.618	-22.281	-0.249	0.152
-288.603	187.512	0.172	0.257
-287.589	-200.000	0.007	0.098
-286.574	-46.925	-0.208	0.102
-285.559	239.416	0.039	-0.066
-284.545	68.303	0.172	-0.177
-283.530	-41.528	0.140	0.072
-282.516	-200.000	0.020	-0.360
-281.501	234.618	0.181	0.300
-280.486	781.627	-0.146	-0.402
-279.472	-140.643	-0.181	-0.019
-278.457	-21.960	0.148	0.090
-277.443	-200.000	0.037	0.319
-276.428	-151.796	0.053	0.004
-275.413	100.562	-0.141	-0.165
-274.399	-50.354	0.115	-0.055
-273.384	-2.865	0.079	-0.056
-272.370	800.000	0.028	-0.093
-271.355	-80.914	0.200	-0.066
-270.340	-200.000	-0.024	-0.215
-269.326	-200.000	0.007	-0.323
-268.311	-200.000	-0.029	0.420
-267.297	-134.291	-0.059	-0.007
-266.282	-109.454	0.147	-0.031
-265.267	-200.000	0.013	-0.276
-264.253	-1.248	0.226	0.160
-263.238	-78.721	0.279	-0.095
-262.224	507.350	0.206	0.480
-261.209	800.000	0.028	0.099
-260.195	163.318	-0.153	-0.215
-259.180	-148.906	-0.130	0.011
-258.165	600.465	0.154	-0.384
-257.151	800.000	0.019	-0.054
-256.136	-141.162	-0.198	-0.020
-255.122	-200.000	0.081	0.470
-254.107	-15.131	0.139	0.089
-253.092	-32.646	-0.139	-0.077
-252.078	-104.146	0.260	0.061
-251.063	118.332	0.196	-0.243
-250.049	33.523	-0.079	-0.069
-249.034	-97.161	0.059	0.015
-248.019	-140.946	0.073	-0.007
-247.005	184.539	0.142	-0.211
-245.990	24.992	-0.136	-0.113
-244.976	36.741	-0.066	0.059
-243.961	178.692	-0.101	-0.148
-242.946	-200.000	-0.009	0.104
-241.932	712.593	0.087	-0.230
-240.917	376.733	0.041	0.083
-239.903	-92.926	0.032	-0.009
-238.888	-125.288	-0.128	0.020
-237.873	16.566	0.268	-0.212
-236.859	492.481	0.030	0.070
-235.844	-123.155	-0.062	-0.010
-234.830	-145.615	-0.172	-0.015
-233.815	-200.000	-0.014	0.073
-232.800	-200.000	-0.009	-0.107
-231.786	-33.690	-0.187	0.103
-230.771	-200.000	0.020	-0.142
-229.757	-109.750	-0.116	0.024
-228.742	384.877	0.088	-0.182
-227.727	-200.000	0.018	-0.300
-226.713	798.383	0.030	-0.082
-225.698	331.805	0.015	-0.028
-224.684	66.065	0.143	0.145
-223.669	-173.737	-0.186	-0.006
-222.655	-26.450	0.175	0.103
-221.640	320.965	-0.119	-0.227
-220.625	189.944	0.158	-0.238
-219.611	168.177	0.084	-0.120
-218.596	-132.741	0.238	-0.031
-217.582	-146.537	0.111	0.010
-216.567	77.182	0.030	0.032
-215.552	257.332	-0.105	0.181
-214.538	-74.033	0.149	-0.054
-213.523	-200.000	-0.030	0.356
-212.509	800.000	0.034	0.124
-211.494	202.875	-0.191	-0.295
-210.479	-200.000	0.041	0.195
-209.465	-6.253	0.107	-0.073
-208.450	270.273	-0.055	-0.097
-207.436	204.156	-0.148	-0.230
-206.421	800.000	-0.059	-0.165
-205.406	72.939	0.063	0.066
-204.392	-10.976	-0.051	-0.033
-203.377	35.955	-0.136	0.120
-202.363	43.421	-0.115	-0.105
-201.348	-200.000	-0.062	0.000
-200.333	-121.317	0.407	0.068
-199.319	-52.875	-0.032	-0.015
-198.304	-78.428	-0.073	0.025
-197.290	800.000	-0.089	-0.326
-196.275	223.941	0.046	0.074
-195.260	64.365	0.195	-0.196
-194.246	-200.000	0.035	0.283
-193.231	-200.000	-0.007	0.291
-192.217	527.314	-0.161	0.380
-191.202	205.545	-0.110	-0.171
-190.187	162.815	0.064	0.090
-189.173	-200.000	0.055	-0.297
-188.158	-113.261	-0.218	0.043
-187.144	-200.000	0.052	-0.233
-186.129	-17.636	-0.267	0.168
-185.114	-62.722	-0.127	-0.053
-184.100	681.993	-0.162	-0.423
-183.085	-113.526	-0.265	0.052
-182.071	-68.820	-0.282	0.109
-181.056	495.440	0.076	-0.175
-180.042	146.689	-0.104	0.140
-179.027	-75.857	-0.127	0.045
-178.012	-52.851	-0.109	0.050
-176.998	-79.184	-0.219	-0.074
-175.983	-200.000	-0.031	0.160
-174.969	-200.000	0.019	-0.111
-173.954	179.372	0.079	-0.116
-172.939	-0.422	0.248	-0.176
-171.925	800.000	0.064	0.217
-170.910	800.000	0.061	0.235
-169.896	-60.406	0.147	0.063
-168.881	800.000	0.055	0.180
-167.866	-144.095	-0.442	0.041
-166.852	-91.597	-0.219	0.062
-165.837	29.433	0.082	0.070
-164.823	-200.000	0.030	-0.157
-163.808	3.431	0.151	0.110
-162.793	5.099	-0.236	-0.173
-161.779	16.176	0.107	-0.084
-160.764	-200.000	-0.012	0.160
-159.750	-99.900	0.373	0.093
-158.735	800.000	0.057	0.177
-157.720	-200.000	-0.002	-0.080
-156.706	-110.119	0.234	-0.049
-155.691	-200.000	-0.063	-0.300
-154.677	172.117	-0.106	-0.152
-153.662	-1.623	-0.113	-0.079
-152.647	46.255	-0.041	0.038
-151.633	290.292	-0.032	-0.058
-150.618	679.396	0.047	-0.123
-149.604	61.901	0.127	0.127
-148.589	-200.000	-0.004	-0.109
-147.574	8.422	0.421	-0.316
-146.560	800.000	-0.017	0.073
-145.545	-200.000	0.045	-0.393
-144.531	-200.000	-0.042	0.203
-143.516	-200.000	0.007	0.374
-142.502	66.029	0.231	0.234
-141.487	-38.044	0.346	-0.184
-140.472	-200.000	0.008	-0.133
-139.458	-15.006	-0.168	-0.108
-138.443	108.153	0.113	0.135
-137.429	61.410	-0.121	-0.120
-136.414	28.241	0.297	0.251
-135.399	800.000	0.068	0.192
-134.385	39.268	-0.140	0.125
-133.370	800.000	0.039	0.168
-132.356	46.017	-0.163	0.150
-131.341	745.077	-0.019	0.051
-130.326	-105.781	0.356	0.080
-129.312	800.000	-0.119	-0.330
-128.297	-56.897	0.322	-0.142
-127.283	248.469	-0.142	-0.240
-126.268	536.547	0.143	0.340
-125.253	3.794	-0.127	-0.093
-124.239	800.000	0.068	-0.266
-123.224	-101.261	-0.432	0.105
-122.210	-145.240	0.117	-0.011
