DTS Sentinel unit serial number:	SN413079Multiplexer serial number:	ORYXHardware model number:	OX4-SRSoftware version number:	ORYX F/W v4.00 Oryx Data Collector v3.7.2.0data status	okinstallation	princeton_trtdifferential loss correction	single-endedforward channel	channel 4reverse channel	N/Adate	2019/09/15time	22:09:35forward acquisition time	60.00reverse acquisition time	0.00gamma	496.2192k internal	0.2319k external	0.2319temperature offset calibration	0.9947default loss term (dB/km)	0.3790temperature slope calibration	1.0000multiplexer offset coefficient	1.0000multiplexer slope coefficient	1.0000fibre end	0.00T internal ref (°C)	29.62T ext. ref 1 (°C)	8.60T ext. ref 2 (°C)	22.93length (m)	temperature (°C)	Stokes	anti-Stokes-747.200	38.026	0.066	0.060
-746.185	348.822	-0.120	0.239
-745.171	31.602	0.253	0.220
-744.156	-200.000	0.011	0.627
-743.142	-111.511	-0.167	-0.034
-742.127	157.063	-0.046	0.065
-741.112	13.150	0.304	-0.238
-740.098	791.220	0.117	0.325
-739.083	800.000	-0.031	0.106
-738.069	-92.217	-0.177	-0.051
-737.054	-44.148	0.263	-0.134
-736.039	-93.161	0.133	-0.037
-735.025	800.000	0.049	0.200
-734.010	65.761	-0.219	-0.225
-732.996	-200.000	-0.034	0.274
-731.981	-200.000	0.001	0.353
-730.966	-32.975	0.263	0.148
-729.952	-200.000	0.027	0.141
-728.937	800.000	0.002	-0.006
-727.923	98.263	-0.141	-0.164
-726.908	-147.114	0.158	0.014
-725.894	709.798	0.037	-0.098
-724.879	710.033	0.064	-0.171
-723.864	-118.007	-0.114	-0.021
-722.850	-8.232	0.173	-0.118
-721.835	-95.529	0.275	-0.074
-720.821	-65.241	0.185	0.075
-719.806	206.513	-0.148	-0.233
-718.791	551.692	-0.067	0.162
-717.777	406.137	0.141	-0.302
-716.762	-30.663	0.236	0.135
-715.748	-83.215	0.161	-0.052
-714.733	125.624	0.147	0.188
-713.718	-140.515	0.328	-0.034
-712.704	593.586	-0.132	-0.329
-711.689	198.466	0.136	-0.210
-710.675	-200.000	-0.037	0.191
-709.660	20.929	-0.076	0.063
-708.645	302.016	-0.182	-0.340
-707.631	73.144	-0.226	-0.239
-706.616	-200.000	0.014	-0.201
-705.602	378.943	-0.264	-0.546
-704.587	318.071	-0.090	0.173
-703.572	-95.943	0.272	-0.073
-702.558	-200.000	-0.019	0.445
-701.543	-196.478	-0.180	-0.001
-700.529	65.118	0.314	0.321
-699.514	-35.942	0.213	-0.116
-698.499	-123.604	-0.200	0.032
-697.485	-95.359	0.297	0.081
-696.470	214.406	-0.094	0.150
-695.456	323.279	-0.122	-0.235
-694.441	124.516	-0.109	0.139
-693.426	295.193	-0.162	-0.299
-692.412	684.849	0.035	-0.091
-691.397	110.908	-0.043	0.052
-690.383	105.044	0.119	-0.141
-689.368	-200.000	-0.043	0.259
-688.354	65.319	0.124	-0.127
-687.339	-80.070	-0.222	-0.075
-686.324	149.215	-0.067	-0.092
-685.310	-200.000	-0.003	0.101
-684.295	50.307	-0.142	0.135
-683.281	19.391	-0.277	-0.225
-682.266	-25.185	-0.207	-0.123
-681.251	90.791	-0.402	0.455
-680.237	14.175	0.052	0.041
-679.222	-200.000	0.018	-0.228
-678.208	107.660	0.239	-0.287
-677.193	183.506	-0.383	-0.570
-676.178	-115.706	0.267	-0.050
-675.164	95.816	0.064	0.074
-674.149	-67.075	-0.136	0.054
-673.135	85.677	-0.116	-0.129
-672.120	622.685	-0.036	0.091
-671.105	800.000	0.087	-0.324
-670.091	598.693	-0.102	-0.256
-669.076	-103.693	-0.288	-0.068
-668.062	-200.000	0.012	0.215
-667.047	-85.354	-0.192	0.060
-666.032	163.765	-0.111	-0.157
-665.018	195.570	0.130	-0.200
-664.003	-200.000	0.028	0.272
-662.989	-200.000	-0.015	-0.344
-661.974	-108.852	-0.199	0.043
-660.959	-12.944	-0.299	0.196
-659.945	-14.687	-0.256	-0.166
-658.930	-200.000	0.026	-0.146
-657.916	800.000	0.071	-0.222
-656.901	-200.000	-0.016	-0.446
-655.886	50.420	0.144	-0.137
-654.872	32.535	-0.160	0.140
-653.857	-66.447	0.159	0.063
-652.843	-151.766	0.396	0.029
-651.828	77.322	0.054	0.058
-650.814	800.000	0.104	-0.302
-649.799	-104.954	-0.062	-0.014
-648.784	800.000	0.092	0.319
-647.770	158.587	0.091	-0.127
-646.755	113.310	-0.110	-0.134
-645.741	13.592	-0.212	0.166
-644.726	-82.792	-0.104	-0.034
-643.711	-200.000	-0.087	-0.399
-642.697	-200.000	0.035	-0.266
-641.682	-53.624	0.162	-0.075
-640.668	-24.658	-0.209	0.125
-639.653	-106.392	-0.457	0.103
-638.638	47.087	0.075	-0.070
-637.624	-86.912	0.109	-0.034
-636.609	72.363	-0.141	-0.148
-635.595	229.838	0.199	-0.327
-634.580	11.952	0.293	0.227
-633.565	-23.888	0.036	0.022
-632.551	800.000	-0.097	-0.389
-631.536	-14.900	-0.263	-0.170
-630.522	-87.456	-0.441	0.135
-629.507	800.000	0.033	0.134
-628.492	-11.040	-0.326	0.217
-627.478	506.784	0.109	0.255
-626.463	-37.123	-0.072	-0.039
-625.449	-10.850	-0.137	0.091
-624.434	88.849	-0.163	0.182
-623.419	166.353	-0.104	-0.149
-622.405	314.230	-0.084	-0.160
-621.390	-85.674	-0.196	-0.061
-620.376	-169.519	-0.092	0.003
-619.361	86.179	0.106	-0.117
-618.346	60.571	-0.182	-0.182
-617.332	74.731	0.066	-0.070
-616.317	-154.809	-0.050	-0.003
-615.303	116.736	-0.191	-0.235
-614.288	383.861	-0.151	-0.313
-613.273	510.090	0.129	-0.302
-612.259	-56.720	0.034	-0.015
-611.244	-6.365	0.128	-0.088
-610.230	90.459	-0.215	-0.243
-609.215	68.214	0.149	-0.153
-608.201	-130.851	-0.023	-0.003
-607.186	187.592	-0.041	0.062
-606.171	174.749	-0.101	-0.148
-605.157	-155.043	-0.090	0.006
-604.142	20.076	0.278	-0.226
-603.128	378.904	-0.051	-0.106
-602.113	-30.350	0.316	0.181
-601.098	800.000	0.056	0.236
-600.084	-20.745	-0.102	0.063
-599.069	800.000	-0.126	0.423
-598.055	207.929	0.087	0.137
-597.040	800.000	-0.049	-0.186
-596.025	-200.000	0.011	-0.395
-595.011	-47.733	0.202	0.099
-593.996	-100.615	-0.312	0.077
-592.982	366.527	0.088	-0.178
-591.967	83.513	0.116	-0.128
-590.952	81.763	0.158	0.172
-589.938	800.000	-0.031	0.129
-588.923	800.000	0.063	-0.253
-587.909	-64.668	0.204	0.083
-586.894	-65.766	-0.212	0.085
-585.879	-33.831	-0.341	0.189
-584.865	-28.428	0.140	0.081
-583.850	-79.437	0.172	-0.059
-582.836	-200.000	-0.004	0.086
-581.821	-48.367	0.129	-0.063
-580.806	100.644	0.160	-0.187
-579.792	334.752	-0.091	-0.177
-578.777	259.819	-0.140	0.243
-577.763	42.387	0.135	0.123
-576.748	-194.584	-0.058	-0.000
-575.733	-200.000	-0.023	-0.125
-574.719	-155.838	-0.044	-0.003
-573.704	800.000	0.095	-0.397
-572.690	3.674	0.098	-0.072
-571.675	-52.637	-0.416	0.193
-570.661	86.300	0.136	0.151
-569.646	-48.883	0.349	-0.168
-568.631	69.823	0.271	-0.281
-567.617	-114.357	0.268	0.052
-566.602	89.728	-0.146	0.164
-565.588	-127.606	0.343	0.050
-564.573	-200.000	0.015	0.124
-563.558	-175.798	0.109	0.003
-562.544	86.579	-0.103	0.114
-561.529	370.130	0.123	0.250
-560.515	-200.000	0.062	-0.337
-559.500	800.000	-0.038	0.151
-558.485	-88.338	0.249	0.075
-557.471	-163.495	-0.079	-0.004
-556.456	800.000	-0.090	0.252
-555.442	-161.263	-0.183	-0.010
-554.427	70.922	0.324	-0.337
-553.412	-53.555	-0.290	-0.133
-552.398	-195.765	-0.496	-0.004
-551.383	-75.078	0.226	-0.081
-550.369	16.683	0.098	0.078
-549.354	-200.000	0.038	-0.274
-548.339	103.241	-0.221	-0.260
-547.325	131.363	0.069	-0.089
-546.310	800.000	0.013	-0.040
-545.296	447.621	0.050	0.111
-544.281	-185.535	0.038	0.001
-543.266	800.000	-0.070	-0.226
-542.252	431.765	0.077	-0.167
-541.237	800.000	0.017	-0.068
-540.223	586.870	0.151	0.372
-539.208	-152.896	-0.461	0.033
-538.193	217.627	-0.120	0.192
-537.179	-200.000	0.049	0.220
-536.164	-37.024	-0.224	0.121
-535.150	800.000	0.115	0.429
-534.135	-62.664	-0.131	-0.054
-533.121	800.000	-0.022	0.066
-532.106	-55.147	0.148	0.067
-531.091	40.446	-0.099	0.089
-530.077	541.532	-0.140	0.334
-529.062	-200.000	-0.046	0.238
-528.048	767.264	0.093	-0.254
-527.033	-144.521	-0.160	-0.015
-526.018	126.259	0.126	-0.159
-525.004	-105.099	-0.168	-0.039
-523.989	161.207	0.060	-0.084
-522.975	-200.000	0.019	0.159
-521.960	800.000	-0.026	-0.091
-520.945	-18.341	0.203	-0.127
-519.931	-25.527	-0.223	-0.132
-518.916	-148.113	0.095	-0.008
-517.902	800.000	0.069	-0.272
-516.887	-101.426	0.393	0.096
-515.872	362.284	0.032	0.064
-514.858	-46.218	-0.234	-0.116
-513.843	-200.000	0.007	0.109
-512.829	-45.205	0.060	0.030
-511.814	-45.842	0.117	0.058
-510.799	115.622	0.067	0.082
-509.785	261.822	0.177	-0.307
-508.770	244.963	0.048	0.081
-507.756	800.000	-0.057	0.221
-506.741	800.000	-0.013	-0.036
-505.726	358.546	0.135	0.271
-504.712	-200.000	0.065	0.326
-503.697	89.953	-0.113	-0.126
-502.683	-200.000	0.042	0.540
-501.668	-21.827	0.092	0.056
-500.653	800.000	-0.062	0.261
-499.639	-200.000	-0.043	0.309
-498.624	177.552	-0.112	0.163
-497.610	-91.457	-0.390	0.112
-496.595	547.749	-0.037	-0.090
-495.581	-85.116	0.342	0.107
-494.566	20.295	-0.173	-0.140
-493.551	482.265	-0.043	-0.099
-492.537	-95.074	0.220	-0.059
-491.522	-69.318	0.203	0.078
-490.508	-80.290	-0.035	0.012
-489.493	-7.531	-0.123	0.083
-488.478	-143.637	-0.097	-0.009
-487.464	181.011	-0.025	-0.037
-486.449	-200.000	0.054	0.291
-485.435	-200.000	-0.463	0.002
-484.420	96.371	-0.075	-0.086
-483.405	103.159	-0.042	-0.049
-482.391	-200.000	-0.009	-0.285
-481.376	-200.000	0.020	-0.190
-480.362	13.294	-0.078	-0.060
-479.347	-31.293	0.414	-0.233
-478.332	28.711	-0.333	-0.282
-477.318	-200.000	-0.059	0.307
-476.303	800.000	0.067	0.205
-475.289	800.000	0.106	0.294
-474.274	24.909	-0.125	0.104
-473.259	513.143	-0.116	-0.271
-472.245	-89.090	-0.281	-0.083
-471.230	-47.674	0.238	-0.115
-470.216	800.000	0.091	-0.349
-469.201	-110.430	0.148	0.031
-468.186	800.000	0.064	-0.185
-467.172	-200.000	0.065	0.294
-466.157	82.011	-0.082	0.089
-465.143	-200.000	0.041	0.224
-464.128	-57.673	0.240	-0.105
-463.113	180.788	0.057	-0.084
-462.099	98.287	0.176	-0.202
-461.084	574.728	0.151	-0.368
-460.070	-170.094	-0.074	0.003
-459.055	-166.533	0.004	-0.000
-458.040	142.490	0.075	0.100
-457.026	0.784	-0.162	-0.116
-456.011	579.407	-0.122	-0.298
-454.997	-95.589	0.263	-0.070
-453.982	-99.817	0.647	-0.162
-452.968	315.386	0.175	0.329
-451.953	79.309	0.209	-0.224
-450.938	1.472	-0.341	0.245
-449.924	-40.628	0.258	0.134
-448.909	-26.491	-0.208	0.122
-447.895	800.000	0.107	-0.392
-446.880	-178.040	-0.032	-0.001
-445.865	-200.000	0.021	0.237
-444.851	800.000	-0.024	0.066
-443.836	-39.593	-0.186	-0.098
-442.822	87.101	0.111	-0.123
-441.807	169.915	0.169	-0.241
-440.792	52.158	-0.283	-0.270
-439.778	75.858	0.077	-0.081
-438.763	303.402	-0.044	0.081
-437.749	-157.487	0.283	-0.017
-436.734	800.000	-0.050	0.140
-435.719	474.750	-0.037	-0.083
-434.705	-200.000	0.031	0.182
-433.690	239.321	-0.133	0.222
-432.676	24.081	0.201	-0.166
-431.661	-96.792	-0.323	0.085
-430.646	527.123	0.068	-0.159
-429.632	-33.420	0.105	0.058
-428.617	396.914	-0.038	-0.080
-427.603	355.340	-0.075	0.149
-426.588	-200.000	0.000	0.060
-425.573	-200.000	-0.003	0.144
-424.559	-200.000	-0.007	0.210
-423.544	204.485	-0.235	0.365
-422.530	800.000	-0.144	0.406
-421.515	47.940	-0.066	-0.061
-420.500	-102.731	0.223	0.053
-419.486	-92.262	0.244	-0.069
-418.471	-51.848	-0.104	0.049
-417.457	206.628	-0.146	0.228
-416.442	72.032	-0.105	-0.109
-415.428	-13.390	0.268	0.174
-414.413	92.873	-0.144	0.162
-413.398	24.048	-0.187	0.154
-412.384	-42.272	0.220	-0.112
-411.369	170.457	-0.060	-0.086
-410.355	-130.943	0.256	-0.034
-409.340	30.294	0.047	0.040
-408.325	-126.638	-0.277	0.041
-407.311	-106.424	0.250	-0.056
-406.296	-200.000	0.044	0.284
-405.282	-200.000	0.005	0.259
-404.267	110.764	-0.093	0.111
-403.252	-181.032	0.247	-0.005
-402.238	-174.602	0.354	0.010
-401.223	64.282	0.040	-0.040
-400.209	-162.648	0.084	0.004
-399.194	-200.000	-0.088	-0.427
-398.179	-76.192	0.280	-0.099
-397.165	-116.341	-0.144	-0.027
-396.150	507.245	0.106	-0.245
-395.136	167.426	0.293	0.415
-394.121	-200.000	0.055	0.318
-393.106	-200.000	0.024	0.343
-392.092	-16.916	0.208	0.131
-391.077	-101.281	-0.353	-0.086
-390.063	117.018	0.153	0.187
-389.048	394.683	-0.113	-0.235
-388.033	499.793	-0.064	-0.146
-387.019	-200.000	-0.025	0.253
-386.004	108.647	-0.167	-0.198
-384.990	-102.087	0.395	-0.095
-383.975	48.636	-0.083	0.078
-382.960	281.569	0.212	-0.378
-381.946	98.432	-0.164	0.189
-380.931	81.189	-0.109	0.118
-379.917	200.562	-0.117	0.180
-378.902	-83.473	0.219	-0.070
-377.888	26.619	0.105	-0.087
-376.873	-200.000	0.016	0.099
-375.858	0.245	0.196	0.140
-374.844	-141.403	-0.323	-0.033
-373.829	205.778	-0.092	-0.143
-372.815	-21.408	-0.132	0.080
-371.800	85.202	-0.125	-0.137
-370.785	-200.000	0.087	0.492
-369.771	-82.410	-0.155	0.050
-368.756	163.324	0.039	0.054
-367.742	-200.000	0.036	0.167
-366.727	126.100	0.142	0.180
-365.712	-10.639	0.247	0.163
-364.698	-29.332	0.166	0.094
-363.683	83.074	-0.108	0.118
-362.669	149.033	-0.112	0.152
-361.654	478.184	0.114	-0.258
-360.639	32.489	-0.150	0.129
-359.625	49.508	-0.013	0.012
-358.610	-54.557	-0.272	-0.122
-357.596	-200.000	0.003	0.050
-356.581	197.041	0.270	-0.410
-355.566	-24.307	0.050	0.030
-354.552	-181.544	0.281	0.005
-353.537	329.979	0.110	0.211
-352.523	-75.752	-0.153	-0.054
-351.508	-200.000	-0.036	0.207
-350.493	-93.920	-0.318	-0.087
-349.479	-9.407	0.173	-0.115
-348.464	-200.000	0.009	-0.071
-347.450	-200.000	-0.011	-0.087
-346.435	-94.621	0.162	-0.044
-345.420	-129.637	-0.293	-0.040
-344.406	-200.000	0.022	-0.221
-343.391	-31.651	0.351	-0.196
-342.377	105.974	0.255	0.300
-341.362	-200.000	-0.036	0.394
-340.348	-200.000	-0.001	0.244
-339.333	199.664	-0.066	-0.101
-338.318	800.000	0.067	-0.283
-337.304	433.032	-0.156	-0.337
-336.289	26.476	-0.291	-0.243
-335.275	-71.391	0.224	-0.083
-334.260	-90.946	-0.110	-0.031
-333.245	-15.655	0.189	0.120
-332.231	-41.668	-0.155	0.079
-331.216	-26.965	-0.315	-0.183
-330.202	16.794	-0.283	0.223
-329.187	33.204	-0.089	0.077
-328.172	-200.000	-0.032	-0.331
-327.158	-103.862	-0.210	-0.049
-326.143	-200.000	0.025	0.153
-325.129	405.807	0.127	-0.266
-324.114	-88.305	0.323	0.096
-323.099	-195.967	-0.023	-0.000
-322.085	119.203	-0.182	-0.224
-321.070	382.781	0.099	0.202
-320.056	-141.354	0.120	0.012
-319.041	256.733	-0.087	-0.148
-318.026	-131.101	0.125	-0.017
-317.012	159.421	-0.168	0.233
-315.997	-78.682	0.148	0.050
-314.983	51.311	0.407	0.384
-313.968	-200.000	0.082	0.406
-312.953	-62.700	0.159	0.066
-311.939	-59.256	0.079	0.034
-310.924	31.319	-0.159	-0.135
-309.910	-91.656	0.188	-0.053
-308.895	-69.314	-0.126	-0.048
-307.880	380.807	-0.146	-0.297
-306.866	14.948	0.172	-0.134
-305.851	-128.692	-0.336	0.047
-304.837	-200.000	-0.009	-0.210
-303.822	20.391	0.203	0.163
-302.807	-0.410	0.045	0.032
-301.793	-46.111	0.155	0.076
-300.778	325.152	-0.071	-0.135
-299.764	800.000	-0.045	0.152
-298.749	551.334	-0.092	-0.221
-297.735	-35.997	-0.084	0.045
-296.720	-170.791	0.178	0.006
-295.705	800.000	0.056	0.163
-294.691	-200.000	0.221	-0.001
-293.676	-35.339	0.093	-0.050
-292.662	-26.190	-0.236	0.138
-291.647	-200.000	0.011	-0.284
-290.632	-12.339	0.182	-0.118
-289.618	800.000	-0.128	-0.462
-288.603	-138.779	0.047	-0.005
-287.589	-66.657	-0.224	-0.088
-286.574	800.000	-0.018	0.061
-285.559	800.000	0.032	-0.124
-284.545	429.559	0.081	0.173
-283.530	800.000	-0.053	0.184
-282.516	-200.000	-0.014	0.218
-281.501	-92.079	-0.096	-0.027
-280.486	800.000	-0.046	0.178
-279.472	-97.468	-0.321	-0.083
-278.457	-16.254	-0.276	-0.174
-277.443	749.963	-0.098	0.263
-276.428	-69.547	0.259	-0.099
-275.413	205.244	-0.082	-0.126
-274.399	66.979	-0.110	0.111
-273.384	553.230	-0.059	0.142
-272.370	-36.783	0.089	-0.047
-271.355	75.718	-0.357	-0.375
-270.340	682.929	-0.082	-0.213
-269.326	-200.000	-0.005	0.037
-268.311	-200.000	-0.071	-0.328
-267.297	-117.260	0.315	-0.057
-266.282	214.521	-0.096	-0.150
-265.267	800.000	0.068	0.192
-264.253	178.866	0.093	0.135
-263.238	-175.824	0.104	0.003
-262.224	800.000	-0.108	0.299
-261.209	369.573	-0.074	0.148
-260.195	-67.475	0.088	0.034
-259.180	-104.426	0.279	-0.064
-258.165	-200.000	0.027	0.341
-257.151	87.117	0.266	-0.291
-256.136	-200.000	-0.002	-0.156
-255.122	-31.447	-0.171	-0.095
-254.107	-7.976	-0.098	0.065
-253.092	258.550	0.145	-0.247
-252.078	-57.439	0.175	-0.076
-251.063	25.165	0.289	0.238
-250.049	-18.515	-0.198	0.123
-249.034	112.660	-0.141	0.170
-248.019	-3.849	-0.251	0.173
-247.005	-63.425	0.178	0.073
-245.990	385.477	-0.050	-0.102
-244.976	800.000	-0.062	-0.183
-243.961	288.813	0.137	0.247
-242.946	103.496	-0.196	-0.228
-241.932	616.255	0.161	-0.400
-240.917	147.081	-0.182	0.243
-239.903	-200.000	0.044	0.264
-238.888	78.974	0.067	0.071
-237.873	-200.000	-0.003	-0.120
-236.859	-78.525	0.107	0.036
-235.844	178.125	-0.063	0.091
-234.830	-92.786	0.141	0.039
-233.815	-200.000	-0.036	0.193
-232.800	-200.000	0.005	0.050
-231.786	188.439	0.199	-0.295
-230.771	-36.375	0.166	0.089
-229.757	419.821	-0.110	-0.233
-228.742	-32.615	-0.172	0.095
-227.727	-69.534	0.273	0.104
-226.713	-100.776	-0.152	0.037
-225.698	12.467	-0.124	0.095
-224.684	581.098	-0.171	-0.414
-223.669	-200.000	0.025	-0.347
-222.655	-200.000	0.011	0.124
-221.640	315.903	-0.116	-0.217
-220.625	342.863	0.115	0.223
-219.611	2.344	-0.143	-0.102
-218.596	800.000	0.039	-0.137
-217.582	-81.042	-0.360	-0.118
-216.567	-94.717	0.348	0.094
-215.552	53.078	0.209	-0.198
-214.538	-200.000	-0.011	-0.244
-213.523	88.917	0.122	0.134
-212.509	800.000	-0.073	0.313
-211.494	-200.000	0.025	-0.252
-210.479	742.680	-0.082	-0.219
-209.465	-6.486	-0.251	-0.170
-208.450	0.819	0.156	0.111
-207.436	-83.958	0.085	-0.027
-206.421	718.299	0.065	-0.171
-205.406	-200.000	-0.067	0.346
-204.392	-14.000	-0.076	0.049
-203.377	800.000	-0.051	-0.175
-202.363	661.130	0.139	0.354
-201.348	-125.607	-0.111	-0.017
-200.333	140.932	0.272	-0.355
-199.319	320.277	-0.239	0.448
-198.304	23.714	-0.323	0.263
-197.290	-200.000	0.010	-0.200
-196.275	226.502	0.063	0.101
-195.260	543.588	-0.108	-0.256
-194.246	-153.393	-0.182	-0.013
-193.231	99.656	-0.067	0.076
-192.217	16.863	-0.409	-0.321
-191.202	-56.110	0.318	-0.140
-190.187	7.570	0.078	0.058
-189.173	-200.000	0.028	-0.167
-188.158	-86.004	0.090	0.028
-187.144	-22.253	-0.314	0.188
-186.129	-109.792	-0.212	0.044
-185.114	-200.000	0.068	-0.339
-184.100	241.634	0.035	-0.057
-183.085	-26.665	-0.212	-0.123
-182.071	-101.321	-0.342	-0.083
-181.056	140.151	0.030	-0.040
-180.042	-52.890	0.131	-0.060
-179.027	-120.780	-0.248	0.041
-178.012	48.517	-0.182	-0.169
-176.998	-169.506	-0.144	-0.005
-175.983	128.322	0.179	-0.226
-174.969	-200.000	0.009	0.157
-173.954	-170.659	-0.348	-0.012
-172.939	123.593	0.088	0.109
-171.925	-200.000	0.008	0.138
-170.910	-77.515	0.118	0.040
-169.896	-92.813	-0.230	0.064
-168.881	541.840	-0.207	0.487
-167.866	800.000	0.087	0.252
-166.852	-65.278	-0.001	-0.000
-165.837	-200.000	0.017	-0.210
-164.823	-71.809	-0.306	0.113
-163.808	-132.488	0.393	0.050
-162.793	800.000	0.013	0.040
-161.779	189.365	0.204	-0.302
-160.764	-50.217	0.344	-0.161
-159.750	-9.961	0.320	0.211
-158.735	-17.666	-0.125	-0.078
-157.720	-141.220	0.101	0.010
-156.706	-200.000	0.038	-0.226
-155.691	-200.000	-0.055	0.254
-154.677	18.055	-0.227	0.179
-153.662	-131.717	0.109	-0.014
-152.647	-120.289	0.315	-0.053
-151.633	800.000	-0.053	0.217
-150.618	-190.653	0.083	0.001
-149.604	15.372	0.372	-0.288
-148.589	-54.103	-0.119	-0.053
-147.574	-174.486	-0.255	0.007
-146.560	-200.000	-0.052	0.351
-145.545	-132.807	-0.188	0.024
-144.531	-66.382	0.242	0.095
-143.516	-59.097	0.197	0.084
-142.502	21.505	0.158	0.127
-141.487	-48.770	0.211	0.100
-140.472	-133.028	0.144	-0.018
-139.458	-38.808	0.312	-0.163
-138.443	800.000	-0.062	0.176
-137.429	88.670	-0.040	0.044
-136.414	-15.003	-0.282	-0.178
-135.399	-200.000	-0.232	0.000
-134.385	-108.696	-0.268	0.057
-133.370	-15.678	-0.311	0.196
-132.356	-200.000	0.008	0.064
-131.341	-107.613	0.239	-0.052
-130.326	-119.230	0.201	-0.035
-129.312	-200.000	0.017	0.179
-128.297	-110.310	-0.355	-0.073
-127.283	-57.579	0.337	-0.146
-126.268	-82.508	-0.411	0.132
-125.253	-174.896	-0.132	0.004
-124.239	176.373	0.143	-0.206
-123.224	49.503	-0.175	0.162
-122.210	-29.021	-0.317	-0.180
-121.195	800.000	-0.032	-0.133
