DTS Sentinel unit serial number:	SN413079Multiplexer serial number:	ORYXHardware model number:	OX4-SRSoftware version number:	ORYX F/W v4.00 Oryx Data Collector v3.7.2.0data status	okinstallation	princeton_trtdifferential loss correction	single-endedforward channel	channel 4reverse channel	N/Adate	2019/09/18time	11:01:35forward acquisition time	60.00reverse acquisition time	0.00gamma	496.2192k internal	0.2313k external	0.2313temperature offset calibration	0.9986default loss term (dB/km)	0.3790temperature slope calibration	1.0000multiplexer offset coefficient	1.0000multiplexer slope coefficient	1.0000fibre end	0.00T internal ref (°C)	29.31T ext. ref 1 (°C)	0.39T ext. ref 2 (°C)	25.72length (m)	temperature (°C)	Stokes	anti-Stokes-747.200	-200.000	-0.003	0.154
-746.185	-149.108	-0.301	-0.024
-745.171	-28.290	0.280	0.164
-744.156	263.032	0.158	0.277
-743.142	650.203	-0.098	-0.254
-742.127	15.523	0.141	0.112
-741.112	267.279	0.029	0.051
-740.098	240.706	0.108	-0.183
-739.083	-64.252	-0.243	0.100
-738.069	-162.006	-0.392	0.020
-737.054	-38.400	0.028	0.015
-736.039	-7.009	-0.084	-0.058
-735.025	192.770	0.128	-0.196
-734.010	493.028	-0.081	-0.188
-732.996	6.695	-0.248	-0.187
-731.981	-200.000	0.007	-0.113
-730.966	-200.000	-0.120	0.604
-729.952	308.315	-0.055	0.104
-728.937	-200.000	0.024	0.116
-727.923	-0.080	-0.183	0.132
-726.908	29.523	-0.093	0.080
-725.894	800.000	0.078	-0.340
-724.879	-9.337	-0.157	-0.107
-723.864	800.000	-0.081	-0.230
-722.850	800.000	0.078	0.317
-721.835	-66.279	0.158	0.064
-720.821	44.735	-0.073	0.068
-719.806	800.000	-0.088	-0.261
-718.791	389.715	0.122	0.257
-717.777	631.381	-0.068	0.174
-716.762	-6.066	0.223	-0.155
-715.748	241.111	0.061	0.103
-714.733	176.762	0.128	0.189
-713.718	708.037	-0.085	0.228
-712.704	-121.830	0.080	0.013
-711.689	-200.000	-0.027	-0.205
-710.675	-46.357	0.136	0.067
-709.660	-77.745	-0.305	-0.107
-708.645	-162.213	-0.142	-0.007
-707.631	-79.129	-0.108	0.037
-706.616	72.676	0.184	0.195
-705.602	-100.501	-0.277	-0.069
-704.587	-167.117	-0.351	0.014
-703.572	-127.723	0.204	-0.030
-702.558	-51.657	-0.306	-0.145
-701.543	-200.000	-0.014	-0.177
-700.529	320.993	0.133	-0.255
-699.514	-28.759	-0.298	0.174
-698.499	134.208	-0.216	0.284
-697.485	106.858	-0.144	0.173
-696.470	-200.000	0.024	-0.114
-695.456	800.000	0.030	0.126
-694.441	800.000	-0.060	-0.195
-693.426	-31.081	-0.199	0.113
-692.412	41.268	-0.179	-0.164
-691.397	-159.228	-0.133	0.008
-690.383	-79.547	0.306	0.105
-689.368	17.121	0.093	-0.075
-688.354	-50.457	-0.286	0.137
-687.339	-200.000	0.011	-0.203
-686.324	-67.415	0.234	0.093
-685.310	3.438	-0.116	-0.085
-684.295	-10.705	0.163	-0.109
-683.281	2.515	-0.109	-0.080
-682.266	531.219	-0.107	-0.257
-681.251	252.749	0.106	-0.182
-680.237	-146.551	-0.343	0.030
-679.222	121.288	0.156	0.197
-678.208	-36.469	-0.233	-0.127
-677.193	800.000	-0.090	0.252
-676.178	-176.866	-0.322	-0.008
-675.164	-70.569	-0.080	0.031
-674.149	-157.118	0.127	-0.008
-673.135	-200.000	0.015	0.103
-672.120	-71.047	0.105	-0.040
-671.105	-113.676	0.257	0.051
-670.091	36.677	0.126	-0.112
-669.076	125.648	0.139	-0.178
-668.062	276.087	-0.161	-0.289
-667.047	-3.703	-0.174	-0.122
-666.032	800.000	0.157	-0.555
-665.018	800.000	0.072	0.216
-664.003	4.396	-0.121	-0.090
-662.989	-162.105	0.111	0.006
-661.974	97.664	-0.184	-0.214
-660.959	83.164	0.260	0.286
-659.945	-200.000	0.016	-0.187
-658.930	-64.471	0.384	0.158
-657.916	-79.569	-0.133	0.045
-656.901	-182.466	0.215	-0.004
-655.886	319.585	-0.130	-0.249
-654.872	702.838	0.073	-0.194
-653.857	162.650	0.068	-0.096
-652.843	11.309	-0.396	-0.307
-651.828	-6.606	-0.153	0.105
-650.814	-59.821	-0.196	-0.085
-649.799	-49.499	-0.181	0.087
-648.784	47.837	-0.113	0.107
-647.770	-14.572	-0.186	0.121
-646.755	800.000	0.053	-0.174
-645.741	568.188	0.091	-0.224
-644.726	-12.201	-0.317	0.209
-643.711	-11.198	-0.510	-0.339
-642.697	-160.922	-0.293	0.016
-641.682	112.091	-0.064	-0.078
-640.668	67.678	0.134	-0.138
-639.653	-90.718	-0.167	-0.049
-638.638	-200.000	-0.009	0.196
-637.624	86.746	-0.333	-0.371
-636.609	-200.000	-0.016	0.107
-635.595	492.996	0.089	0.205
-634.580	-159.683	-0.364	0.020
-633.565	374.757	0.066	-0.136
-632.551	-200.000	0.026	-0.245
-631.536	-26.086	0.172	-0.102
-630.522	-127.514	-0.205	0.030
-629.507	131.550	-0.057	-0.073
-628.492	-88.637	-0.277	-0.083
-627.478	800.000	0.061	-0.255
-626.463	-78.605	-0.109	0.038
-625.449	402.829	0.150	-0.319
-624.434	-135.439	-0.090	0.011
-623.419	23.184	-0.064	-0.053
-622.405	-200.000	-0.057	-0.297
-621.390	-102.135	-0.244	0.059
-620.376	-32.123	0.220	-0.124
-619.361	-11.065	-0.104	0.069
-618.346	361.459	0.171	-0.346
-617.332	-194.796	0.275	-0.002
-616.317	-23.336	0.217	0.132
-615.303	1.755	-0.289	0.210
-614.288	186.580	0.083	-0.125
-613.273	174.468	0.091	0.133
-612.259	-137.334	-0.258	0.030
-611.244	599.420	0.058	0.146
-610.230	800.000	0.096	-0.327
-609.215	-200.000	-0.021	-0.096
-608.201	-36.612	-0.217	0.118
-607.186	18.895	0.270	-0.218
-606.171	39.086	-0.170	0.153
-605.157	480.742	0.065	-0.148
-604.142	-58.545	0.168	0.074
-603.128	-46.102	0.280	-0.139
-602.113	137.533	-0.126	-0.167
-601.098	23.539	-0.257	-0.213
-600.084	264.707	-0.179	0.314
-599.069	-88.462	0.019	0.006
-598.055	56.458	0.092	-0.090
-597.040	800.000	-0.075	-0.321
-596.025	-200.000	0.015	0.126
-595.011	468.607	-0.059	0.133
-593.996	-19.804	0.365	-0.228
-592.982	50.312	-0.070	-0.067
-591.967	-132.215	-0.155	0.020
-590.952	444.263	0.185	-0.408
-589.938	-200.000	0.010	-0.174
-588.923	-105.866	0.088	0.020
-587.909	31.300	0.300	-0.260
-586.894	628.433	-0.131	-0.333
-585.879	800.000	0.091	-0.272
-584.865	-134.515	-0.313	-0.039
-583.850	-86.265	0.270	-0.084
-582.836	-23.367	0.187	0.113
-581.821	-73.373	0.323	0.119
-580.806	-139.087	-0.246	0.027
-579.792	112.160	-0.117	0.143
-578.777	-200.000	0.046	-0.350
-577.763	177.997	-0.061	0.090
-576.748	-140.771	-0.148	-0.015
-575.733	216.084	-0.177	-0.284
-574.719	34.683	-0.236	0.208
-573.704	-3.655	-0.418	-0.293
-572.690	-187.052	0.101	0.001
-571.675	377.057	0.115	0.237
-570.661	88.221	-0.149	0.166
-569.646	-200.000	0.086	-0.495
-568.631	281.180	0.063	-0.113
-567.617	-109.257	-0.126	-0.027
-566.602	-100.851	0.177	-0.044
-565.588	105.589	0.090	0.107
-564.573	284.371	0.068	0.124
-563.558	-200.000	-0.001	-0.140
-562.544	272.514	-0.017	-0.030
-561.529	-200.000	0.017	-0.126
-560.515	15.827	-0.066	-0.052
-559.500	-84.240	0.319	0.102
-558.485	157.153	0.061	-0.085
-557.471	356.863	-0.109	0.220
-556.456	800.000	-0.069	-0.257
-555.442	-200.000	0.006	0.162
-554.427	76.295	0.107	-0.114
-553.412	-91.015	-0.299	-0.086
-552.398	74.691	-0.147	-0.156
-551.383	230.509	0.143	-0.235
-550.369	-58.034	0.227	-0.100
-549.354	-197.143	0.023	-0.000
-548.339	800.000	0.069	0.221
-547.325	-41.440	-0.050	0.026
-546.310	-157.288	-0.170	-0.010
-545.296	33.720	-0.121	-0.106
-544.281	66.947	0.086	0.088
-543.266	-200.000	-0.002	0.094
-542.252	-55.034	-0.259	0.117
-541.237	-62.459	0.135	-0.056
-540.223	-200.000	-0.002	-0.067
-539.208	-31.729	-0.023	-0.013
-538.193	800.000	0.056	-0.201
-537.179	-200.000	-0.032	-0.144
-536.164	686.930	0.080	0.210
-535.150	800.000	-0.069	-0.222
-534.135	800.000	-0.029	0.096
-533.121	178.515	-0.103	0.151
-532.106	-63.909	0.110	0.045
-531.091	-200.000	0.033	-0.220
-530.077	-90.475	0.128	-0.037
-529.062	-46.455	0.095	-0.047
-528.048	141.297	-0.172	0.228
-527.033	-200.000	-0.003	-0.025
-526.018	7.821	-0.100	-0.075
-525.004	800.000	0.091	-0.269
-523.989	-62.319	0.111	0.047
-522.975	292.981	0.156	-0.287
-521.960	-200.000	-0.002	-0.064
-520.945	-200.000	-0.036	0.287
-519.931	112.990	-0.255	-0.311
-518.916	-98.298	0.155	-0.040
-517.902	-200.000	0.013	-0.196
-516.887	-132.227	-0.136	-0.018
-515.872	-200.000	-0.035	0.190
-514.858	-76.494	0.314	-0.111
-513.843	-50.275	-0.204	0.097
-512.829	-94.075	0.204	0.056
-511.814	-200.000	0.019	0.338
-510.799	-30.538	-0.123	0.070
-509.785	325.020	0.076	0.147
-508.770	527.593	0.046	0.108
-507.756	-178.421	0.123	0.003
-506.741	107.764	-0.177	0.211
-505.726	-13.227	0.099	-0.065
-504.712	-193.323	0.304	0.003
-503.697	-200.000	-0.055	0.393
-502.683	-200.000	-0.076	0.341
-501.668	157.045	0.101	-0.140
-500.653	-38.343	0.242	-0.129
-499.639	101.677	0.124	-0.145
-498.624	-74.022	0.341	-0.124
-497.610	-159.650	-0.162	-0.009
-496.595	53.498	0.256	0.247
-495.581	-143.260	-0.188	0.018
-494.566	298.447	-0.019	0.036
-493.551	68.866	0.068	0.070
-492.537	-97.851	-0.020	-0.005
-491.522	-109.617	0.399	-0.084
-490.508	463.290	-0.017	-0.039
-489.493	-159.690	0.130	0.007
-488.478	339.280	0.066	0.129
-487.464	335.510	0.091	-0.177
-486.449	-200.000	0.012	0.174
-485.435	56.866	-0.329	0.321
-484.420	-172.156	0.326	0.011
-483.405	-129.497	0.162	0.022
-482.391	-200.000	-0.051	-0.280
-481.376	-19.721	0.127	0.079
-480.362	-81.665	-0.296	0.098
-479.347	29.268	-0.090	-0.077
-478.332	314.893	0.136	-0.256
-477.318	27.749	-0.191	0.161
-476.303	112.596	-0.041	-0.050
-475.289	-200.000	-0.076	-0.439
-474.274	-60.570	0.319	0.136
-473.259	-179.848	-0.197	-0.004
-472.245	-79.424	0.015	0.005
-471.230	-200.000	0.028	0.298
-470.216	-8.071	-0.330	-0.223
-469.201	182.508	-0.196	-0.290
-468.186	-200.000	-0.008	0.042
-467.172	605.186	-0.061	0.152
-466.157	-37.739	-0.203	0.108
-465.143	800.000	-0.060	-0.176
-464.128	-64.523	0.099	-0.041
-463.113	-44.402	0.261	0.131
-462.099	800.000	-0.161	0.464
-461.084	-39.924	-0.154	0.081
-460.070	-112.867	0.202	0.040
-459.055	472.870	-0.030	0.068
-458.040	-200.000	-0.032	0.233
-457.026	-200.000	-0.014	0.130
-456.011	86.430	-0.113	0.125
-454.997	800.000	0.109	-0.344
-453.982	100.232	-0.098	0.114
-452.968	18.443	-0.070	-0.056
-451.953	-127.966	-0.289	0.042
-450.938	261.579	0.113	-0.196
-449.924	-69.872	-0.198	0.076
-448.909	-200.000	-0.001	-0.166
-447.895	-173.420	-0.117	0.004
-446.880	-200.000	0.051	-0.299
-445.865	-125.873	0.294	-0.044
-444.851	-37.712	-0.534	-0.285
-443.836	-200.000	0.015	-0.219
-442.822	-46.181	-0.046	0.023
-441.807	-200.000	-0.055	-0.292
-440.792	-200.000	-0.020	-0.168
-439.778	354.229	0.154	-0.306
-438.763	-129.724	0.238	-0.033
-437.749	175.761	-0.104	-0.151
-436.734	771.525	0.082	-0.225
-435.719	224.741	0.173	-0.280
-434.705	-100.972	-0.292	-0.072
-433.690	-83.109	0.073	-0.024
-432.676	0.535	-0.227	-0.163
-431.661	211.623	0.141	-0.222
-430.646	-133.932	0.358	-0.044
-429.632	-68.137	0.248	-0.097
-428.617	-125.734	-0.344	0.052
-427.603	778.010	0.105	0.289
-426.588	-66.969	0.191	0.076
-425.573	16.314	-0.117	-0.092
-424.559	800.000	-0.081	0.292
-423.544	533.729	0.077	-0.183
-422.530	68.403	-0.193	0.198
-421.515	-200.000	0.045	-0.324
-420.500	208.296	0.051	-0.080
-419.486	-173.355	0.176	0.005
-418.471	800.000	0.027	0.109
-417.457	152.720	0.128	0.175
-416.442	-200.000	-0.024	0.181
-415.428	-200.000	0.014	0.113
-414.413	-104.819	0.267	0.062
-413.398	55.313	0.179	-0.173
-412.384	80.701	0.184	0.199
-411.369	-96.061	0.273	-0.073
-410.355	91.625	0.010	0.011
-409.340	718.708	-0.072	-0.192
-408.325	-59.422	0.358	-0.154
-407.311	-6.985	0.161	-0.110
-406.296	-39.035	0.084	-0.044
-405.282	-76.930	0.078	0.027
-404.267	135.974	-0.183	0.238
-403.252	62.524	0.229	-0.229
-402.238	153.875	0.122	0.168
-401.223	212.213	-0.276	-0.436
-400.209	-200.000	-0.009	-0.130
-399.194	231.083	0.157	0.257
-398.179	-72.793	-0.142	0.052
-397.165	-149.868	-0.394	0.031
-396.150	-84.585	-0.074	0.023
-395.136	128.911	-0.182	0.232
-394.121	-78.491	-0.170	-0.058
-393.106	8.113	-0.285	-0.214
-392.092	315.595	0.027	-0.051
-391.077	800.000	0.052	-0.225
-390.063	26.153	-0.162	-0.135
-389.048	-143.931	0.386	0.036
-388.033	-200.000	-0.049	0.243
-387.019	22.413	0.147	-0.121
-386.004	37.024	-0.266	0.236
-384.990	112.064	-0.076	-0.091
-383.975	800.000	0.080	0.299
-382.960	-200.000	-0.054	-0.415
-381.946	800.000	0.045	-0.137
-380.931	208.487	0.163	0.254
-379.917	-75.593	0.265	0.094
-378.902	727.245	0.144	0.384
-377.888	464.507	-0.024	0.053
-376.873	116.632	0.261	0.320
-375.858	322.761	-0.186	-0.355
-374.844	-195.598	-0.163	0.001
-373.829	1.319	0.062	0.045
-372.815	-68.447	-0.313	-0.121
-371.800	-97.825	-0.269	0.069
-370.785	88.641	-0.271	0.301
-369.771	-200.000	0.001	0.241
-368.756	-125.448	-0.107	-0.016
-367.742	-200.000	-0.028	-0.200
-366.727	-93.697	-0.240	0.066
-365.712	-89.298	0.266	-0.078
-364.698	-79.887	0.189	0.063
-363.683	800.000	0.055	-0.185
-362.669	94.603	-0.112	-0.127
-361.654	38.474	0.211	-0.188
-360.639	-25.533	-0.252	0.149
-359.625	557.200	0.124	-0.298
-358.610	215.626	-0.216	-0.342
-357.596	-200.000	0.052	-0.243
-356.581	-93.337	-0.410	0.114
-355.566	117.509	0.217	0.267
-354.552	-51.132	-0.215	-0.101
-353.537	-11.461	-0.138	0.091
-352.523	141.289	-0.181	-0.240
-351.508	-164.750	-0.295	0.013
-350.493	-200.000	-0.030	0.440
-349.479	389.412	0.057	0.117
-348.464	-31.356	-0.252	-0.142
-347.450	267.221	-0.116	0.202
-346.435	-117.139	-0.233	-0.042
-345.420	177.095	0.174	0.252
-344.406	-107.703	0.086	-0.019
-343.391	151.442	0.240	0.326
-342.377	252.216	0.084	-0.143
-341.362	-129.568	-0.167	-0.023
-340.348	74.072	-0.149	-0.157
-339.333	-200.000	0.007	-0.141
-338.318	251.661	0.124	0.211
-337.304	-200.000	0.036	-0.242
-336.289	-200.000	0.025	-0.145
-335.275	-46.428	0.052	-0.025
-334.260	-163.375	-0.334	-0.016
-333.245	54.021	-0.127	0.122
-332.231	259.252	0.079	-0.135
-331.216	-132.651	0.251	0.032
-330.202	-101.289	-0.439	-0.107
-329.187	-77.575	0.340	-0.118
-328.172	-200.000	-0.032	-0.355
-327.158	-162.899	-0.108	0.005
-326.143	241.088	-0.085	0.141
-325.129	-200.000	-0.013	0.238
-324.114	-93.148	0.358	-0.099
-323.099	-34.910	0.175	0.095
-322.085	774.082	0.068	0.185
-321.070	-50.978	-0.251	0.118
-320.056	82.706	-0.144	-0.156
-319.041	-200.000	-0.042	0.190
-318.026	-77.373	-0.135	0.047
-317.012	-200.000	-0.039	0.181
-315.997	39.186	-0.094	0.084
-314.983	677.325	0.099	-0.257
-313.968	122.593	-0.215	0.268
-312.953	737.799	-0.039	0.106
-311.939	111.137	0.127	0.152
-310.924	210.487	-0.175	0.274
-309.910	164.188	0.057	0.080
-308.895	-150.872	-0.148	0.011
-307.880	128.698	0.345	-0.439
-306.866	800.000	-0.012	-0.042
-305.851	452.555	-0.128	0.283
-304.837	-200.000	0.005	0.063
-303.822	-200.000	0.002	-0.208
-302.807	-200.000	-0.020	0.140
-301.793	248.224	0.045	-0.075
-300.778	-68.290	-0.243	-0.094
-299.764	385.989	0.103	0.213
-298.749	-81.353	0.246	0.081
-297.735	722.248	0.027	-0.072
-296.720	71.192	0.143	0.148
-295.705	-91.296	-0.465	-0.133
-294.691	-66.950	-0.130	-0.051
-293.676	-73.067	0.409	0.149
-292.662	-3.265	0.222	0.154
-291.647	325.411	-0.152	0.291
-290.632	-148.658	0.193	0.016
-289.618	-200.000	0.024	0.200
-288.603	161.077	-0.244	-0.340
-287.589	800.000	-0.020	0.064
-286.574	8.796	-0.121	-0.091
-285.559	426.673	0.060	0.129
-284.545	535.953	0.178	-0.420
-283.530	243.353	-0.080	0.134
-282.516	134.225	0.240	-0.310
-281.501	-193.897	-0.250	-0.002
-280.486	-164.616	-0.209	0.009
-279.472	-98.119	-0.565	0.145
-278.457	69.897	0.270	0.277
-277.443	-45.627	-0.278	0.137
-276.428	166.652	-0.073	0.102
-275.413	800.000	0.091	0.373
-274.399	-10.140	0.448	-0.296
-273.384	-200.000	0.026	0.178
-272.370	85.203	0.109	-0.119
-271.355	-87.977	-0.103	-0.031
-270.340	373.296	0.141	-0.286
-269.326	-101.923	0.164	-0.039
-268.311	-115.217	0.170	-0.032
-267.297	207.137	0.122	-0.189
-266.282	343.461	-0.176	0.343
-265.267	-87.320	-0.175	0.053
-264.253	307.824	-0.086	0.160
-263.238	800.000	0.071	-0.225
-262.224	-85.619	0.421	-0.130
-261.209	-7.637	-0.170	-0.114
-260.195	-44.781	0.318	0.158
-259.180	-33.264	0.154	-0.085
-258.165	768.667	-0.054	-0.145
-257.151	436.875	0.175	0.380
-256.136	369.821	0.141	0.283
-255.122	-151.572	0.252	0.019
-254.107	-200.000	-0.042	0.214
-253.092	78.154	-0.234	0.248
-252.078	-91.401	-0.100	0.029
-251.063	-135.463	0.526	0.062
-250.049	118.415	0.132	-0.161
-249.034	300.449	-0.056	-0.102
-248.019	-200.000	-0.044	0.299
-247.005	-102.041	0.197	-0.047
-245.990	-10.708	-0.255	-0.168
-244.976	-26.575	0.206	0.120
-243.961	16.842	0.320	0.252
-242.946	-152.418	0.282	0.020
-241.932	-200.000	-0.011	0.161
-240.917	-139.716	-0.195	-0.021
-239.903	-155.733	0.291	-0.018
-238.888	-108.182	-0.190	-0.041
-237.873	65.461	0.150	0.151
-236.859	142.722	-0.210	0.278
-235.844	-200.000	0.010	0.100
-234.830	7.275	0.294	0.218
-233.815	800.000	-0.048	-0.142
-232.800	-25.914	0.301	-0.176
-231.786	93.663	0.004	0.005
-230.771	-154.438	0.261	-0.017
-229.757	-200.000	-0.006	0.112
-228.742	136.185	-0.195	-0.252
-227.727	-200.000	0.021	-0.374
-226.713	36.449	0.198	0.173
-225.698	25.407	-0.202	0.167
-224.684	-63.412	-0.011	0.004
-223.669	-184.212	-0.493	-0.008
-222.655	-200.000	0.030	0.216
-221.640	-124.432	0.064	-0.010
-220.625	800.000	-0.153	0.498
-219.611	-149.450	0.385	-0.030
-218.596	80.434	0.267	0.286
-217.582	-135.680	-0.151	-0.018
-216.567	65.091	-0.232	0.233
-215.552	75.133	0.385	0.403
-214.538	-82.560	0.204	-0.066
-213.523	-77.606	-0.052	0.018
-212.509	-88.916	-0.095	-0.028
-211.494	800.000	-0.087	-0.365
-210.479	164.411	0.201	-0.281
-209.465	-49.473	-0.157	0.074
-208.450	297.016	-0.068	0.123
-207.436	800.000	-0.067	-0.230
-206.421	173.023	0.187	-0.268
-205.406	173.039	-0.169	0.242
-204.392	-200.000	-0.063	-0.316
-203.377	-71.460	-0.325	-0.121
-202.363	-200.000	-0.004	-0.032
-201.348	-89.875	0.118	0.034
-200.333	327.425	-0.066	-0.126
-199.319	211.466	0.103	0.161
-198.304	-19.507	0.128	-0.079
-197.290	-42.045	-0.384	-0.195
-196.275	-200.000	-0.038	0.269
-195.260	-32.391	-0.082	-0.045
-194.246	213.510	-0.189	-0.296
-193.231	351.088	0.086	0.168
-192.217	800.000	-0.074	0.231
-191.202	800.000	-0.013	0.037
-190.187	162.246	0.087	0.121
-189.173	111.354	0.230	0.275
-188.158	25.014	0.203	0.167
-187.144	-164.987	0.149	0.007
-186.129	-47.183	-0.068	0.033
-185.114	800.000	-0.125	0.364
-184.100	-200.000	0.058	0.327
-183.085	181.239	-0.243	0.354
-182.071	800.000	-0.068	0.256
-181.056	-200.000	-0.166	-0.001
-180.042	-200.000	-0.043	0.283
-179.027	197.542	0.241	0.365
-178.012	629.957	0.061	0.153
-176.998	800.000	0.106	0.316
-175.983	-17.234	0.231	-0.144
-174.969	800.000	0.076	-0.316
-173.954	224.791	-0.032	-0.052
-172.939	318.242	-0.043	0.081
-171.925	-200.000	0.016	0.116
-170.910	649.969	0.119	0.302
-169.896	-61.595	-0.139	0.058
-168.881	208.971	-0.150	-0.233
-167.866	671.265	-0.109	-0.280
-166.852	800.000	-0.012	0.046
-165.837	35.529	0.195	0.170
-164.823	-78.195	0.229	-0.078
-163.808	50.174	0.084	0.079
-162.793	-200.000	0.009	-0.222
-161.779	-92.717	-0.055	0.015
-160.764	25.351	0.181	0.149
-159.750	394.932	-0.132	0.272
-158.735	800.000	0.061	0.200
-157.720	340.965	0.214	0.414
-156.706	-75.280	-0.431	-0.153
-155.691	262.624	0.063	-0.108
-154.677	-53.927	0.262	-0.118
-153.662	29.631	-0.145	-0.122
-152.647	-200.000	-0.003	0.209
-151.633	-49.386	0.082	0.039
-150.618	57.832	-0.056	-0.054
-149.604	800.000	-0.109	-0.333
-148.589	475.031	-0.074	-0.166
-147.574	229.726	-0.115	-0.187
-146.560	-90.037	0.140	0.040
-145.545	-92.513	0.372	0.103
-144.531	135.821	0.152	-0.196
-143.516	112.493	0.136	-0.163
-142.502	-21.068	-0.177	0.107
-141.487	221.511	-0.045	0.071
-140.472	139.099	-0.088	0.114
-139.458	186.605	-0.221	-0.326
-138.443	149.146	0.182	0.244
-137.429	-102.395	-0.146	-0.035
-136.414	-24.169	-0.190	0.112
-135.399	-26.086	0.461	-0.268
-134.385	-2.128	-0.331	0.230
-133.370	386.462	0.108	0.222
-132.356	-71.792	0.118	0.044
-131.341	438.768	-0.131	0.283
-130.326	-60.308	0.353	0.149
-129.312	-8.008	-0.415	0.277
-128.297	-134.634	-0.142	-0.017
-127.283	-200.000	-0.037	-0.245
-126.268	-137.092	0.119	-0.013
-125.253	797.985	-0.079	-0.217
-124.239	13.722	-0.063	-0.048
-123.224	-200.000	-0.009	-0.189
-122.210	182.561	-0.233	-0.340
-121.195	-123.733	0.220	0.034
