DTS Sentinel unit serial number:	SN413079Multiplexer serial number:	ORYXHardware model number:	OX4-SRSoftware version number:	ORYX F/W v4.00 Oryx Data Collector v3.7.2.0data status	okinstallation	princeton_trtdifferential loss correction	single-endedforward channel	channel 4reverse channel	N/Adate	2019/09/12time	21:25:35forward acquisition time	60.00reverse acquisition time	0.00gamma	496.2192k internal	0.2314k external	0.2314temperature offset calibration	1.0161default loss term (dB/km)	0.3790temperature slope calibration	1.0000multiplexer offset coefficient	1.0000multiplexer slope coefficient	1.0000fibre end	0.00T internal ref (°C)	30.50T ext. ref 1 (°C)	3.59T ext. ref 2 (°C)	25.18length (m)	temperature (°C)	Stokes	anti-Stokes-747.200	-28.584	0.068	0.040
-746.185	61.030	-0.161	0.162
-745.171	582.683	0.094	0.233
-744.156	209.040	0.080	0.127
-743.142	-2.465	0.086	-0.061
-742.127	-75.152	0.161	-0.058
-741.112	69.443	0.151	0.158
-740.098	800.000	0.014	0.061
-739.083	-200.000	0.043	-0.228
-738.069	194.774	0.155	0.239
-737.054	-46.596	-0.147	0.073
-736.039	16.030	-0.112	-0.089
-735.025	-200.000	0.001	0.040
-734.010	129.118	-0.216	-0.279
-732.996	-200.000	0.023	-0.153
-731.981	136.348	-0.095	-0.125
-730.966	-163.231	-0.082	-0.004
-729.952	-29.735	0.376	-0.217
-728.937	-25.873	-0.548	-0.327
-727.923	-13.781	-0.134	0.088
-726.908	-194.159	-0.288	0.002
-725.894	101.223	0.046	-0.054
-724.879	-200.000	-0.032	-0.152
-723.864	-200.000	0.007	-0.239
-722.850	243.271	-0.219	-0.372
-721.835	-4.444	-0.259	-0.181
-720.821	406.582	0.112	-0.239
-719.806	19.106	-0.186	-0.151
-718.791	-70.691	-0.403	-0.154
-717.777	131.520	-0.021	-0.027
-716.762	-174.695	-0.357	0.010
-715.748	58.966	-0.134	-0.133
-714.733	47.157	-0.029	0.027
-713.718	-121.078	-0.251	-0.043
-712.704	263.254	0.111	-0.196
-711.689	-75.126	-0.186	-0.067
-710.675	-200.000	-0.003	0.358
-709.660	-70.992	-0.072	-0.028
-708.645	-34.874	0.251	0.139
-707.631	113.797	0.076	0.094
-706.616	-200.000	-0.158	0.000
-705.602	800.000	-0.124	-0.466
-704.587	5.997	-0.097	0.073
-703.572	800.000	0.077	0.264
-702.558	344.764	0.073	-0.145
-701.543	23.575	0.141	-0.118
-700.529	-170.657	-0.323	0.011
-699.514	-25.476	0.070	0.042
-698.499	70.778	0.244	0.255
-697.485	120.149	0.178	-0.224
-696.470	-200.000	-0.032	-0.174
-695.456	-23.829	-0.078	-0.047
-694.441	105.930	-0.185	0.221
-693.426	-51.069	0.367	-0.174
-692.412	574.789	0.101	-0.249
-691.397	168.345	-0.021	0.030
-690.383	-129.390	0.147	-0.021
-689.368	-67.631	0.269	-0.107
-688.354	-41.924	-0.322	0.167
-687.339	-71.607	0.193	0.073
-686.324	-62.653	-0.221	0.093
-685.310	42.609	-0.168	-0.154
-684.295	223.560	-0.068	-0.112
-683.281	-14.471	0.052	0.034
-682.266	-8.529	0.036	-0.024
-681.251	-200.000	0.004	-0.035
-680.237	76.882	0.110	0.118
-679.222	284.842	-0.151	-0.275
-678.208	-114.196	-0.404	-0.079
-677.193	129.667	0.146	-0.188
-676.178	160.872	0.093	0.131
-675.164	-27.597	0.369	0.217
-674.149	-200.000	0.037	0.343
-673.135	800.000	-0.128	0.552
-672.120	620.454	0.084	0.213
-671.105	-113.625	0.282	-0.056
-670.091	-118.112	-0.232	0.042
-669.076	-86.009	0.215	-0.067
-668.062	-200.000	0.024	0.116
-667.047	-4.638	-0.115	-0.080
-666.032	-93.970	-0.234	-0.065
-665.018	268.000	0.142	0.251
-664.003	138.843	-0.189	-0.251
-662.989	-200.000	-0.005	0.225
-661.974	467.459	0.117	-0.266
-660.959	-10.384	0.052	0.035
-659.945	-200.000	0.017	-0.100
-658.930	591.963	-0.075	0.186
-657.916	800.000	0.072	-0.239
-656.901	-53.830	-0.187	-0.086
-655.886	177.164	0.273	-0.401
-654.872	55.484	-0.227	-0.222
-653.857	52.736	-0.196	-0.189
-652.843	-100.801	0.196	-0.049
-651.828	-200.000	-0.001	0.109
-650.814	328.946	0.103	-0.200
-649.799	52.118	-0.256	-0.247
-648.784	-94.913	-0.251	-0.069
-647.770	-200.000	-0.001	0.068
-646.755	158.510	-0.097	-0.136
-645.741	390.541	-0.021	-0.043
-644.726	-200.000	0.033	0.326
-643.711	-74.549	-0.098	0.035
-642.697	-200.000	0.033	-0.210
-641.682	800.000	0.085	0.259
-640.668	800.000	-0.175	-0.582
-639.653	39.421	-0.094	-0.085
-638.638	-58.345	-0.481	0.211
-637.624	-116.361	-0.377	0.070
-636.609	32.659	0.233	-0.203
-635.595	-65.415	0.143	-0.058
-634.580	-80.856	-0.260	-0.087
-633.565	-95.019	0.198	-0.054
-632.551	800.000	-0.041	-0.158
-631.536	234.703	-0.221	0.368
-630.522	248.103	0.139	-0.238
-629.507	-28.471	0.217	0.126
-628.492	-45.027	-0.067	-0.034
-627.478	-200.000	0.006	-0.313
-626.463	800.000	0.035	0.120
-625.449	747.442	-0.071	0.194
-624.434	-200.000	-0.011	0.093
-623.419	800.000	-0.138	-0.418
-622.405	-98.692	0.152	0.039
-621.390	-200.000	-0.048	0.308
-620.376	95.740	0.091	0.104
-619.361	-200.000	-0.009	-0.061
-618.346	-181.843	0.233	0.004
-617.332	-91.140	0.220	-0.064
-616.317	21.639	0.031	-0.025
-615.303	157.534	-0.230	-0.321
-614.288	-200.000	0.048	-0.238
-613.273	2.945	0.131	-0.096
-612.259	-104.963	-0.095	0.022
-611.244	200.615	-0.176	-0.273
-610.230	-96.011	-0.168	-0.045
-609.215	354.798	-0.153	-0.306
-608.201	-200.000	-0.010	-0.089
-607.186	-48.072	0.199	-0.097
-606.171	46.100	-0.113	-0.106
-605.157	150.777	0.079	0.108
-604.142	677.055	-0.029	0.076
-603.128	11.138	-0.219	0.169
-602.113	47.234	0.047	0.044
-601.098	-200.000	-0.019	0.274
-600.084	-200.000	-0.003	0.149
-599.069	255.163	-0.086	0.149
-598.055	-130.366	0.237	-0.032
-597.040	120.877	0.102	-0.128
-596.025	270.549	0.185	0.328
-595.011	-18.303	-0.183	0.116
-593.996	-183.354	-0.281	0.005
-592.982	237.862	0.020	-0.033
-591.967	507.239	0.122	0.286
-590.952	184.025	-0.071	-0.107
-589.938	31.514	0.251	-0.217
-588.923	800.000	0.091	-0.286
-587.909	-200.000	-0.030	0.391
-586.894	9.973	0.111	-0.085
-585.879	-37.942	-0.298	-0.159
-584.865	-200.000	-0.016	0.102
-583.850	-186.936	-0.390	-0.005
-582.836	800.000	-0.063	0.198
-581.821	-104.490	-0.059	0.014
-580.806	136.796	-0.060	-0.080
-579.792	-8.835	0.073	-0.049
-578.777	431.482	0.215	-0.469
-577.763	390.370	0.195	-0.407
-576.748	132.671	-0.176	-0.228
-575.733	-200.000	0.003	-0.182
-574.719	-123.420	0.129	0.021
-573.704	-82.652	-0.472	-0.154
-572.690	-110.702	0.021	0.004
-571.675	-108.282	0.380	0.083
-570.661	-23.852	0.232	-0.140
-569.646	800.000	-0.009	0.037
-568.631	85.751	0.003	-0.003
-567.617	-200.000	-0.009	0.121
-566.602	-200.000	-0.029	0.275
-565.588	800.000	0.078	0.256
-564.573	-176.113	-0.263	0.007
-563.558	26.529	0.205	-0.173
-562.544	32.425	-0.208	-0.180
-561.529	-152.075	-0.337	0.025
-560.515	-23.366	0.110	0.067
-559.500	51.444	0.073	0.069
-558.485	100.354	-0.140	-0.164
-557.471	800.000	0.047	0.132
-556.456	274.924	-0.116	-0.207
-555.442	275.407	-0.102	0.181
-554.427	12.751	0.037	0.029
-553.412	397.033	-0.154	-0.325
-552.398	-112.202	0.129	0.026
-551.383	-19.468	0.237	0.148
-550.369	-200.000	0.143	-0.724
-549.354	-35.962	0.082	0.045
-548.339	-37.566	0.108	-0.058
-547.325	-56.185	0.159	-0.071
-546.310	341.333	0.089	-0.175
-545.296	-83.637	-0.409	0.132
-544.281	-75.544	-0.193	-0.069
-543.266	-200.000	0.034	-0.218
-542.252	-138.786	0.126	-0.014
-541.237	-79.449	-0.145	-0.049
-540.223	-200.000	0.091	0.499
-539.208	-62.680	0.092	-0.039
-538.193	-200.000	-0.027	-0.296
-537.179	-72.806	0.153	0.057
-536.164	134.190	0.041	-0.054
-535.150	8.202	-0.484	-0.365
-534.135	-53.011	-0.094	-0.043
-533.121	184.039	0.091	0.136
-532.106	-21.727	0.067	-0.041
-531.091	74.851	0.303	0.321
-530.077	-200.000	-0.024	-0.198
-529.062	706.617	-0.056	-0.147
-528.048	800.000	0.014	-0.040
-527.033	141.901	0.059	0.078
-526.018	255.326	0.072	0.124
-525.004	717.476	0.134	0.358
-523.989	-200.000	-0.016	0.148
-522.975	800.000	-0.057	-0.236
-521.960	18.720	-0.189	0.152
-520.945	90.156	0.136	-0.152
-519.931	14.914	0.348	0.274
-518.916	105.995	-0.175	0.209
-517.902	475.201	0.136	0.309
-516.887	-35.403	0.157	0.086
-515.872	-22.305	-0.229	-0.139
-514.858	-4.031	0.158	0.110
-513.843	-200.000	0.012	-0.127
-512.829	-200.000	-0.041	-0.612
-511.814	-200.000	-0.022	0.414
-510.799	58.486	0.120	0.118
-509.785	-200.000	-0.016	0.088
-508.770	310.431	0.094	-0.177
-507.756	-64.403	-0.045	0.018
-506.741	374.523	0.183	-0.374
-505.726	800.000	0.088	-0.300
-504.712	800.000	-0.089	-0.321
-503.697	276.228	-0.092	0.164
-502.683	57.377	-0.154	0.151
-501.668	89.044	0.209	-0.233
-500.653	145.581	-0.251	-0.338
-499.639	-150.480	0.420	-0.032
-498.624	-139.550	0.410	0.044
-497.610	86.235	-0.243	0.269
-496.595	-180.772	0.401	0.008
-495.581	-200.000	0.001	0.075
-494.566	-118.546	0.161	0.029
-493.551	311.870	0.064	-0.121
-492.537	-169.963	-0.367	-0.013
-491.522	-200.000	0.006	-0.078
-490.508	-55.265	-0.344	-0.155
-489.493	115.236	-0.233	-0.286
-488.478	161.367	0.060	0.084
-487.464	-200.000	-0.027	-0.247
-486.449	28.019	0.058	0.049
-485.435	800.000	-0.024	0.076
-484.420	-67.010	0.143	0.057
-483.405	-200.000	0.007	-0.138
-482.391	24.518	-0.162	-0.135
-481.376	32.196	-0.081	0.070
-480.362	-200.000	-0.019	-0.112
-479.347	800.000	-0.143	0.420
-478.332	72.837	-0.096	0.101
-477.318	-81.190	-0.122	-0.040
-476.303	-18.883	-0.152	0.095
-475.289	-200.000	0.009	0.047
-474.274	800.000	-0.034	-0.140
-473.259	-58.288	0.197	-0.086
-472.245	301.505	0.091	0.169
-471.230	-200.000	-0.022	0.191
-470.216	-200.000	-0.014	-0.298
-469.201	234.236	-0.295	-0.488
-468.186	-91.719	-0.263	0.075
-467.172	-63.907	-0.198	0.081
-466.157	-200.000	0.043	0.294
-465.143	27.200	-0.270	-0.228
-464.128	800.000	-0.021	0.074
-463.113	-164.201	-0.314	-0.015
-462.099	-200.000	-0.002	-0.038
-461.084	-179.725	0.179	0.004
-460.070	168.524	0.164	-0.234
-459.055	800.000	0.053	-0.212
-458.040	-7.245	-0.143	-0.097
-457.026	-57.213	0.131	0.058
-456.011	-103.085	-0.387	0.092
-454.997	451.491	-0.119	0.264
-453.982	137.277	0.261	-0.342
-452.968	0.222	-0.234	-0.167
-451.953	-200.000	0.023	-0.106
-450.938	-34.007	-0.253	-0.140
-449.924	216.135	-0.088	0.140
-448.909	-109.044	0.252	0.054
-447.895	-5.629	0.161	0.111
-446.880	800.000	-0.096	0.308
-445.865	800.000	0.012	-0.047
-444.851	-124.134	0.258	0.041
-443.836	83.311	0.398	0.434
-442.822	-140.492	-0.087	-0.009
-441.807	-51.180	0.207	0.097
-440.792	-200.000	0.004	-0.076
-439.778	-200.000	0.039	-0.480
-438.763	-200.000	-0.009	-0.230
-437.749	-32.800	-0.110	0.061
-436.734	-149.956	0.342	0.027
-435.719	54.123	-0.145	-0.140
-434.705	243.998	0.030	0.050
-433.690	303.862	-0.210	-0.390
-432.676	-51.569	-0.177	-0.083
-431.661	800.000	0.031	0.111
-430.646	152.046	0.219	0.299
-429.632	-124.479	0.305	-0.048
-428.617	800.000	0.074	0.296
-427.603	284.616	0.052	0.094
-426.588	-25.960	0.379	-0.224
-425.573	-146.055	0.250	-0.022
-424.559	-176.062	0.085	0.002
-423.544	-2.138	-0.222	0.156
-422.530	-49.365	0.235	0.112
-421.515	-85.774	-0.349	-0.108
-420.500	19.241	-0.196	0.157
-419.486	114.928	-0.178	0.218
-418.471	-148.900	-0.261	-0.021
-417.457	102.413	0.116	-0.136
-416.442	-138.252	-0.439	0.049
-415.428	9.944	0.075	0.057
-414.413	800.000	-0.036	-0.158
-413.398	-67.381	-0.159	-0.063
-412.384	-33.334	0.024	0.013
-411.369	-200.000	-0.033	0.165
-410.355	-88.214	-0.091	0.027
-409.340	-11.365	-0.192	0.127
-408.325	-37.701	-0.170	-0.091
-407.311	7.593	-0.113	-0.085
-406.296	-200.000	0.008	0.315
-405.282	800.000	-0.028	0.081
-404.267	-200.000	0.008	-0.040
-403.252	-200.000	-0.052	0.254
-402.238	3.340	-0.052	-0.038
-401.223	-200.000	0.031	0.154
-400.209	-96.970	-0.296	0.078
-399.194	161.042	-0.050	0.069
-398.179	35.856	0.225	0.198
-397.165	-200.000	-0.027	-0.337
-396.150	146.389	0.207	-0.278
-395.136	-80.810	0.230	0.076
-394.121	-133.096	0.197	-0.025
-393.106	125.073	0.322	0.406
-392.092	800.000	0.056	0.200
-391.077	24.020	-0.076	0.063
-390.063	-10.663	-0.150	0.099
-389.048	-200.000	-0.034	0.199
-388.033	81.840	0.146	0.158
-387.019	383.192	0.139	-0.286
-386.004	800.000	0.085	-0.312
-384.990	57.984	0.206	0.202
-383.975	-171.103	0.171	0.006
-382.960	-46.062	0.263	-0.130
-381.946	439.978	0.045	0.098
-380.931	144.554	0.087	0.116
-379.917	8.608	0.047	0.035
-378.902	-200.000	0.073	-0.399
-377.888	375.128	0.095	0.194
-376.873	60.502	0.120	0.119
-375.858	119.307	-0.153	-0.189
-374.844	-43.586	-0.073	-0.037
-373.829	800.000	0.082	0.292
-372.815	319.915	0.216	0.411
-371.800	20.042	-0.123	-0.099
-370.785	131.588	0.159	-0.205
-369.771	151.620	-0.125	-0.170
-368.756	-62.866	-0.181	-0.075
-367.742	95.631	-0.226	0.257
-366.727	158.862	0.170	0.237
-365.712	-14.637	0.165	0.106
-364.698	-200.000	0.021	-0.143
-363.683	12.926	-0.087	0.067
-362.669	-200.000	-0.047	0.309
-361.654	31.433	-0.341	0.293
-360.639	209.355	-0.233	0.365
-359.625	-26.876	0.168	-0.098
-358.610	400.040	0.051	-0.107
-357.596	121.753	-0.115	-0.143
-356.581	95.203	-0.123	0.140
-355.566	47.819	0.191	-0.178
-354.552	-170.957	-0.202	0.007
-353.537	800.000	-0.156	-0.465
-352.523	33.716	-0.120	0.104
-351.508	-84.228	0.226	0.072
-350.493	25.096	0.119	0.099
-349.479	12.601	-0.048	0.037
-348.464	-63.224	-0.204	0.084
-347.450	-175.428	0.283	-0.008
-346.435	-123.335	0.200	0.032
-345.420	517.757	-0.106	-0.247
-344.406	-89.856	0.409	-0.119
-343.391	-200.000	-0.054	0.255
-342.377	-109.395	-0.309	0.065
-341.362	800.000	0.050	-0.175
-340.348	-109.942	-0.422	0.088
-339.333	571.342	0.037	0.090
-338.318	-19.167	-0.178	0.110
-337.304	800.000	-0.062	-0.187
-336.289	15.971	-0.298	-0.234
-335.275	-163.454	0.179	0.008
-334.260	31.466	-0.475	0.407
-333.245	-200.000	0.001	0.232
-332.231	-27.327	0.067	0.039
-331.216	-120.640	0.190	0.032
-330.202	-31.250	-0.072	0.041
-329.187	-101.157	0.090	0.022
-328.172	399.625	-0.071	-0.148
-327.158	389.689	0.017	0.035
-326.143	-27.947	-0.030	-0.017
-325.129	60.848	-0.318	0.315
-324.114	-69.068	-0.145	0.056
-323.099	207.122	0.052	-0.081
-322.085	222.645	-0.033	0.053
-321.070	186.453	0.180	0.267
-320.056	84.390	0.089	0.098
-319.041	-84.255	-0.280	-0.088
-318.026	473.679	0.204	-0.459
-317.012	-89.269	0.378	-0.111
-315.997	-28.894	0.315	0.180
-314.983	-159.063	-0.134	-0.008
-313.968	422.731	-0.045	-0.097
-312.953	125.845	0.134	0.168
-311.939	-200.000	0.002	-0.359
-310.924	32.095	-0.114	0.098
-309.910	113.797	0.118	0.143
-308.895	112.971	-0.120	0.145
-307.880	-200.000	0.014	0.154
-306.866	-84.362	-0.100	-0.032
-305.851	800.000	0.042	0.140
-304.837	-73.761	0.371	-0.135
-303.822	-61.047	-0.241	-0.101
-302.807	58.286	0.108	-0.106
-301.793	154.506	-0.133	-0.182
-300.778	-24.742	0.272	0.161
-299.764	800.000	-0.140	-0.412
-298.749	458.067	0.028	-0.062
-297.735	484.691	-0.092	-0.208
-296.720	293.088	0.244	-0.444
-295.705	350.243	-0.171	0.336
-294.691	800.000	-0.013	0.039
-293.676	-148.622	-0.193	-0.016
-292.662	800.000	0.057	-0.242
-291.647	261.529	0.078	-0.135
-290.632	-57.818	0.091	-0.040
-289.618	-162.239	0.147	0.007
-288.603	731.411	-0.042	0.112
-287.589	-85.329	0.280	0.087
-286.574	113.705	-0.044	-0.053
-285.559	-2.104	-0.057	-0.040
-284.545	-28.518	0.080	-0.046
-283.530	-97.720	-0.319	-0.082
-282.516	-200.000	0.032	-0.285
-281.501	-39.891	0.081	-0.042
-280.486	-200.000	-0.000	0.014
-279.472	-200.000	0.030	-0.156
-278.457	-56.447	-0.220	-0.097
-277.443	108.659	0.161	0.192
-276.428	-38.806	0.082	0.043
-275.413	-44.442	0.330	0.164
-274.399	800.000	0.145	0.436
-273.384	58.744	-0.323	0.316
-272.370	6.843	-0.204	0.151
-271.355	-146.067	0.199	-0.017
-270.340	336.707	-0.033	-0.063
-269.326	-133.538	-0.179	-0.022
-268.311	649.010	0.025	0.065
-267.297	22.670	-0.361	-0.294
-266.282	800.000	0.054	-0.221
-265.267	-200.000	0.031	-0.154
-264.253	-97.790	-0.289	-0.074
-263.238	-126.053	-0.099	-0.015
-262.224	-45.356	-0.187	0.092
-261.209	-136.071	-0.115	0.013
-260.195	181.610	-0.255	-0.374
-259.180	800.000	-0.072	0.278
-258.165	-104.594	0.250	-0.057
-257.151	18.053	0.176	-0.139
-256.136	-200.000	-0.009	0.066
-255.122	-200.000	-0.011	-0.097
-254.107	800.000	-0.065	-0.261
-253.092	-200.000	0.031	-0.135
-252.078	-2.320	0.188	-0.131
-251.063	-200.000	-0.015	0.360
-250.049	-38.752	-0.211	0.111
-249.034	90.576	-0.285	0.317
-248.019	348.664	0.094	0.184
-247.005	133.538	0.109	0.140
-245.990	-200.000	0.010	0.259
-244.976	-69.971	-0.215	-0.081
-243.961	-1.334	0.326	-0.229
-242.946	-23.005	0.212	0.127
-241.932	-81.337	0.142	-0.047
-240.917	-141.802	-0.049	-0.005
-239.903	-98.829	0.207	0.052
-238.888	800.000	0.037	-0.139
-237.873	-162.043	0.193	0.010
-236.859	-38.349	0.341	-0.180
-235.844	-38.604	-0.151	0.079
-234.830	-10.216	0.281	0.185
-233.815	497.613	0.131	0.300
-232.800	103.220	-0.153	-0.178
-231.786	800.000	-0.038	-0.119
-230.771	167.746	0.036	0.051
-229.757	-82.008	-0.108	0.035
-228.742	165.444	-0.101	0.142
-227.727	91.048	-0.055	0.062
-226.713	84.959	-0.098	0.107
-225.698	800.000	0.080	0.234
-224.684	-145.137	-0.169	-0.015
-223.669	147.953	-0.104	-0.140
-222.655	-200.000	0.021	0.326
-221.640	-200.000	-0.007	-0.114
-220.625	-10.559	0.213	0.140
-219.611	-76.209	0.174	0.061
-218.596	-200.000	-0.016	-0.152
-217.582	8.517	-0.195	0.146
-216.567	62.349	-0.106	0.105
-215.552	800.000	-0.036	0.110
-214.538	-17.563	-0.087	-0.054
-213.523	-156.724	-0.124	0.008
-212.509	-200.000	0.040	-0.186
-211.494	488.579	-0.112	0.254
-210.479	800.000	0.091	0.264
-209.465	800.000	0.041	-0.131
-208.450	-200.000	0.024	-0.130
-207.436	800.000	0.028	0.090
-206.421	-70.362	-0.132	-0.050
-205.406	80.811	-0.082	0.087
-204.392	565.622	0.042	0.102
-203.377	-200.000	0.001	-0.120
-202.363	-143.250	0.150	0.014
-201.348	0.343	-0.202	0.143
-200.333	440.218	0.039	0.086
-199.319	-38.151	0.391	-0.206
-198.304	743.733	0.102	-0.271
-197.290	248.295	0.241	0.404
-196.275	-96.148	0.095	0.025
-195.260	-95.183	-0.234	-0.062
-194.246	215.108	0.073	0.115
-193.231	-100.351	-0.197	-0.049
-192.217	58.470	0.129	-0.126
-191.202	19.587	-0.089	-0.071
-190.187	401.112	0.085	-0.177
-189.173	77.718	0.200	0.211
-188.158	589.289	-0.091	0.221
-187.144	489.132	0.197	0.447
-186.129	73.086	0.177	-0.184
-185.114	-15.876	0.071	0.045
-184.100	308.572	-0.063	0.116
-183.085	-65.686	-0.238	0.095
-182.071	223.370	0.190	-0.304
-181.056	-200.000	0.006	0.069
-180.042	178.253	-0.115	0.167
-179.027	172.188	-0.206	0.294
-178.012	13.854	0.063	-0.048
-176.998	707.734	-0.093	0.244
-175.983	-200.000	-0.050	-0.281
-174.969	55.050	-0.156	0.149
-173.954	-200.000	-0.026	-0.128
-172.939	-20.112	-0.109	0.067
-171.925	207.897	0.270	0.418
-170.910	-18.740	0.361	-0.223
-169.896	91.125	0.096	-0.107
-168.881	65.692	-0.160	-0.161
-167.866	-1.710	-0.202	0.141
-166.852	72.512	0.209	0.216
-165.837	-200.000	0.014	0.220
-164.823	-180.473	0.086	-0.002
-163.808	-200.000	0.034	0.200
-162.793	195.182	0.131	0.197
-161.779	50.666	0.165	-0.155
-160.764	670.988	-0.131	-0.335
-159.750	36.341	0.146	-0.127
-158.735	-44.819	0.391	-0.193
-157.720	111.273	0.125	0.149
-156.706	-49.031	-0.307	0.145
-155.691	-200.000	-0.010	0.206
-154.677	-200.000	0.016	-0.213
-153.662	1.633	0.288	-0.205
-152.647	-71.960	0.042	-0.016
-151.633	-89.768	0.147	-0.043
-150.618	143.334	-0.069	-0.091
-149.604	-78.579	0.120	0.041
-148.589	20.686	0.337	-0.270
-147.574	-200.000	-0.003	-0.357
-146.560	-61.083	-0.143	-0.060
-145.545	376.818	-0.097	0.196
-144.531	-62.940	0.197	-0.081
-143.516	-148.701	0.223	-0.018
-142.502	174.584	-0.129	0.185
-141.487	67.074	0.059	0.059
-140.472	-159.384	-0.022	0.001
-139.458	800.000	-0.050	-0.162
-138.443	101.601	0.216	0.249
-137.429	800.000	-0.081	0.238
-136.414	75.796	0.248	0.259
-135.399	-49.406	-0.239	0.113
-134.385	12.850	-0.183	-0.140
-133.370	-61.275	-0.238	-0.099
-132.356	-63.601	0.119	0.048
-131.341	-62.362	-0.241	-0.099
-130.326	153.065	0.243	0.328
-129.312	589.779	-0.128	0.312
-128.297	-200.000	0.069	-0.336
-127.283	53.104	-0.078	-0.074
-126.268	22.666	0.301	0.244
-125.253	-42.425	-0.127	-0.064
-124.239	86.730	-0.230	0.251
-123.224	76.314	-0.088	-0.092
-122.210	477.681	0.133	0.297
-121.195	151.951	0.088	-0.119
-120.180	-143.237	-0.234	0.022
