DTS Sentinel unit serial number:	SN413079Multiplexer serial number:	ORYXHardware model number:	OX4-SRSoftware version number:	ORYX F/W v4.00 Oryx Data Collector v3.7.2.0data status	okinstallation	princeton_trtdifferential loss correction	single-endedforward channel	channel 4reverse channel	N/Adate	2019/09/15time	19:53:35forward acquisition time	60.00reverse acquisition time	0.00gamma	496.2192k internal	0.2307k external	0.2307temperature offset calibration	0.9928default loss term (dB/km)	0.3790temperature slope calibration	1.0000multiplexer offset coefficient	1.0000multiplexer slope coefficient	1.0000fibre end	0.00T internal ref (°C)	36.31T ext. ref 1 (°C)	7.50T ext. ref 2 (°C)	26.91length (m)	temperature (°C)	Stokes	anti-Stokes-747.200	-145.226	0.242	-0.022
-746.185	-176.169	0.144	0.004
-745.171	-200.000	0.006	-0.657
-744.156	-99.941	-0.226	0.058
-743.142	-128.581	-0.120	-0.017
-742.127	47.707	-0.172	-0.164
-741.112	800.000	0.097	0.273
-740.098	-127.810	-0.132	-0.019
-739.083	411.006	0.039	0.085
-738.069	597.889	-0.056	-0.141
-737.054	-84.022	-0.198	-0.064
-736.039	-200.000	-0.026	0.505
-735.025	800.000	0.087	0.334
-734.010	-23.846	-0.213	-0.130
-732.996	-123.086	-0.505	0.082
-731.981	-114.591	-0.434	0.084
-730.966	36.186	0.134	-0.120
-729.952	798.155	-0.114	-0.320
-728.937	-15.981	0.141	-0.091
-727.923	800.000	0.085	-0.319
-726.908	-122.627	-0.215	-0.036
-725.894	71.305	-0.173	-0.183
-724.879	-86.594	0.128	-0.040
-723.864	-200.000	-0.010	-0.315
-722.850	-7.815	-0.212	-0.145
-721.835	190.547	0.197	0.301
-720.821	-29.881	0.163	-0.094
-719.806	-58.115	-0.193	0.086
-718.791	-200.000	-0.001	0.083
-717.777	-76.386	0.278	0.099
-716.762	94.306	-0.041	0.048
-715.748	72.601	0.200	-0.212
-714.733	-9.630	0.404	0.273
-713.718	119.775	-0.220	0.276
-712.704	309.328	0.106	-0.200
-711.689	-200.000	0.003	-0.221
-710.675	-100.568	0.525	0.132
-709.660	42.782	-0.112	0.104
-708.645	-13.675	0.146	0.096
-707.631	800.000	0.028	0.082
-706.616	7.687	0.193	0.147
-705.602	721.895	-0.115	0.310
-704.587	302.335	0.069	-0.129
-703.572	554.350	0.062	0.153
-702.558	-200.000	0.014	0.122
-701.543	-15.933	0.118	0.076
-700.529	238.426	-0.021	-0.036
-699.514	-200.000	0.059	-0.380
-698.499	107.071	0.214	-0.259
-697.485	-152.730	0.199	-0.014
-696.470	-200.000	0.001	-0.038
-695.456	800.000	-0.053	-0.233
-694.441	-200.000	0.033	-0.411
-693.426	-75.430	0.042	0.015
-692.412	273.615	0.121	-0.218
-691.397	-78.985	0.205	-0.071
-690.383	21.439	0.166	0.137
-689.368	-14.947	0.273	-0.178
-688.354	-200.000	0.004	0.183
-687.339	254.752	-0.031	0.054
-686.324	-200.000	0.013	-0.071
-685.310	-114.373	-0.238	0.047
-684.295	239.056	-0.256	-0.432
-683.281	352.866	0.142	-0.286
-682.266	315.047	0.157	-0.301
-681.251	322.829	-0.100	0.193
-680.237	136.857	-0.145	-0.192
-679.222	125.757	-0.041	-0.052
-678.208	537.280	-0.071	-0.172
-677.193	-157.865	-0.264	-0.016
-676.178	-28.899	-0.403	-0.235
-675.164	293.529	0.193	0.357
-674.149	303.484	0.102	-0.192
-673.135	-200.000	0.067	0.327
-672.120	-200.000	0.008	0.092
-671.105	-200.000	-0.035	0.184
-670.091	161.242	0.119	-0.169
-669.076	22.834	-0.142	0.118
-668.062	28.540	0.067	0.057
-667.047	-21.427	0.116	0.072
-666.032	-200.000	0.037	0.260
-665.018	-61.622	-0.098	-0.042
-664.003	17.631	0.125	-0.100
-662.989	158.212	0.098	-0.137
-661.974	477.843	-0.034	0.079
-660.959	2.853	-0.095	0.070
-659.945	-200.000	-0.016	-0.475
-658.930	800.000	-0.078	0.242
-657.916	-26.873	-0.132	0.078
-656.901	50.507	0.171	0.164
-655.886	-131.152	-0.152	0.021
-654.872	800.000	-0.035	-0.149
-653.857	522.334	0.092	0.220
-652.843	800.000	0.057	-0.234
-651.828	117.841	-0.151	-0.189
-650.814	-104.231	0.176	0.041
-649.799	129.988	0.023	0.030
-648.784	341.690	-0.121	-0.240
-647.770	-200.000	-0.033	-0.234
-646.755	-8.670	0.182	-0.124
-645.741	-200.000	0.003	-0.122
-644.726	-74.863	-0.181	0.066
-643.711	-101.373	-0.240	-0.059
-642.697	-9.932	-0.160	0.108
-641.682	-8.859	0.105	-0.071
-640.668	-200.000	0.005	0.057
-639.653	800.000	-0.063	0.238
-638.638	-97.027	-0.032	0.009
-637.624	136.351	0.139	-0.184
-636.609	800.000	0.014	0.051
-635.595	209.573	0.271	-0.431
-634.580	800.000	0.048	-0.198
-633.565	-92.215	0.095	0.027
-632.551	74.011	0.122	-0.130
-631.536	-124.857	0.066	0.010
-630.522	97.712	0.111	-0.129
-629.507	-200.000	-0.021	-0.168
-628.492	452.004	0.056	-0.125
-627.478	-86.614	-0.062	-0.019
-626.463	-79.482	0.088	-0.030
-625.449	28.997	-0.132	0.113
-624.434	49.131	-0.117	0.111
-623.419	-146.006	0.089	-0.008
-622.405	-193.878	-0.296	0.003
-621.390	0.298	-0.161	-0.116
-620.376	161.044	0.125	0.176
-619.361	-79.761	-0.262	0.089
-618.346	-200.000	-0.033	-0.202
-617.332	-101.835	-0.423	0.104
-616.317	300.386	0.052	0.096
-615.303	-124.351	-0.043	0.007
-614.288	800.000	0.034	-0.098
-613.273	-18.963	-0.212	-0.133
-612.259	46.778	-0.159	-0.149
-611.244	-45.529	0.249	-0.125
-610.230	46.288	0.087	-0.082
-609.215	14.836	-0.231	0.183
-608.201	104.655	-0.091	-0.108
-607.186	-200.000	0.011	-0.200
-606.171	-111.158	-0.324	0.067
-605.157	158.977	-0.086	0.121
-604.142	800.000	-0.087	-0.262
-603.128	30.850	0.090	-0.078
-602.113	-19.936	0.178	-0.111
-601.098	17.922	0.108	0.087
-600.084	-200.000	0.042	-0.325
-599.069	749.270	0.069	0.188
-598.055	20.729	-0.319	0.261
-597.040	800.000	0.063	-0.192
-596.025	87.009	-0.155	0.173
-595.011	660.591	-0.055	-0.143
-593.996	-178.930	0.181	0.004
-592.982	-200.000	0.036	0.336
-591.967	-104.931	0.175	-0.040
-590.952	-107.026	-0.215	0.048
-589.938	-163.170	-0.095	-0.005
-588.923	800.000	0.050	0.145
-587.909	193.897	-0.099	-0.152
-586.894	-29.973	-0.171	0.098
-585.879	-133.166	0.391	0.050
-584.865	800.000	-0.053	0.194
-583.850	-131.503	-0.321	0.043
-582.836	-149.068	-0.123	0.010
-581.821	-177.833	-0.257	-0.006
-580.806	1.159	0.061	-0.045
-579.792	137.831	0.214	-0.283
-578.777	-200.000	0.016	0.114
-577.763	-39.120	0.008	-0.004
-576.748	206.159	0.056	0.088
-575.733	42.091	-0.227	0.208
-574.719	800.000	0.039	-0.144
-573.704	35.388	-0.024	0.021
-572.690	31.556	0.294	0.256
-571.675	800.000	0.048	0.170
-570.661	-80.245	-0.598	-0.202
-569.646	-83.475	0.282	-0.091
-568.631	-200.000	0.024	-0.129
-567.617	-11.977	-0.362	-0.240
-566.602	-77.701	0.215	0.075
-565.588	-164.290	0.317	-0.015
-564.573	36.100	0.273	-0.243
-563.558	-24.096	0.083	-0.050
-562.544	-13.567	0.124	0.081
-561.529	800.000	0.056	-0.188
-560.515	-151.714	0.159	-0.012
-559.500	800.000	-0.042	0.124
-558.485	-117.500	0.354	0.065
-557.471	-20.467	0.338	0.210
-556.456	241.171	-0.043	-0.072
-555.442	-200.000	0.015	-0.377
-554.427	61.054	0.224	-0.225
-553.412	402.180	0.142	0.302
-552.398	10.880	0.175	0.135
-551.383	99.768	0.148	0.174
-550.369	220.266	0.118	-0.191
-549.354	-80.717	-0.530	-0.178
-548.339	160.558	-0.099	-0.139
-547.325	-89.032	0.337	0.101
-546.310	-200.000	-0.002	-0.087
-545.296	5.499	-0.056	0.042
-544.281	-200.000	0.025	0.235
-543.266	16.283	0.261	-0.208
-542.252	108.637	-0.163	-0.197
-541.237	-97.263	-0.307	0.081
-540.223	-200.000	0.007	-0.225
-539.208	800.000	0.064	-0.264
-538.193	-88.744	-0.342	0.103
-537.179	-200.000	0.050	-0.288
-536.164	-200.000	-0.008	-0.052
-535.150	-200.000	-0.065	-0.312
-534.135	81.954	-0.272	-0.297
-533.121	800.000	-0.034	0.119
-532.106	800.000	0.071	0.227
-531.091	-136.281	-0.366	0.043
-530.077	-200.000	0.026	0.225
-529.062	-200.000	0.007	-0.327
-528.048	-75.838	-0.037	-0.013
-527.033	-83.951	-0.288	-0.093
-526.018	800.000	-0.020	0.062
-525.004	-43.813	0.050	0.025
-523.989	-2.208	0.301	-0.213
-522.975	58.980	-0.236	-0.234
-521.960	-55.065	0.082	-0.037
-520.945	-165.912	0.161	0.007
-519.931	-200.000	-0.019	-0.353
-518.916	800.000	0.053	0.215
-517.902	580.603	-0.060	-0.147
-516.887	-1.052	0.215	0.153
-515.872	-200.000	-0.037	0.220
-514.858	-109.791	-0.277	-0.059
-513.843	-86.801	-0.198	0.061
-512.829	59.273	-0.149	0.147
-511.814	116.294	-0.149	0.184
-510.799	28.073	-0.231	-0.196
-509.785	-67.049	-0.029	-0.012
-508.770	-200.000	0.057	-0.301
-507.756	112.684	-0.263	-0.321
-506.741	-200.000	0.075	0.348
-505.726	72.473	-0.070	-0.074
-504.712	800.000	-0.117	-0.326
-503.697	81.101	0.108	-0.118
-502.683	-200.000	0.027	-0.131
-501.668	-143.473	-0.158	-0.015
-500.653	-62.460	0.204	-0.085
-499.639	-166.446	0.202	0.009
-498.624	-30.043	0.444	-0.254
-497.610	-83.172	-0.170	0.055
-496.595	163.138	-0.119	-0.168
-495.581	21.493	0.030	-0.025
-494.566	-200.000	0.008	-0.194
-493.551	136.094	0.202	-0.265
-492.537	800.000	0.065	0.243
-491.522	120.079	-0.095	-0.118
-490.508	29.662	-0.129	0.111
-489.493	-33.494	0.206	0.114
-488.478	34.803	-0.132	0.116
-487.464	278.939	-0.033	0.060
-486.449	-200.000	0.005	0.126
-485.435	491.348	-0.100	0.231
-484.420	-182.075	0.297	-0.006
-483.405	3.768	0.153	-0.113
-482.391	-142.384	-0.212	-0.021
-481.376	-28.819	-0.209	-0.121
-480.362	233.621	-0.124	0.206
-479.347	187.808	-0.054	-0.081
-478.332	124.087	0.127	-0.161
-477.318	-6.371	-0.214	0.147
-476.303	-200.000	0.047	-0.214
-475.289	-200.000	0.017	0.103
-474.274	83.425	0.073	-0.080
-473.259	-16.212	0.032	-0.021
-472.245	58.888	-0.156	-0.154
-471.230	-118.460	0.333	-0.059
-470.216	139.421	-0.028	-0.037
-469.201	122.795	0.241	-0.304
-468.186	-145.377	-0.093	-0.008
-467.172	-60.168	0.264	-0.113
-466.157	-106.086	0.374	0.084
-465.143	60.294	0.118	-0.118
-464.128	800.000	0.048	-0.174
-463.113	10.501	0.193	-0.148
-462.099	-25.249	0.429	-0.255
-461.084	316.752	0.113	-0.215
-460.070	-180.191	-0.260	-0.005
-459.055	-79.732	-0.060	0.020
-458.040	-151.592	0.167	0.012
-457.026	1.108	0.274	-0.198
-456.011	-54.132	0.040	0.018
-454.997	-44.688	-0.195	-0.098
-453.982	-55.282	-0.081	0.036
-452.968	-200.000	-0.021	0.173
-451.953	154.436	0.098	-0.136
-450.938	-200.000	-0.028	0.140
-449.924	-52.331	0.344	-0.160
-448.909	-200.000	-0.060	0.328
-447.895	-200.000	-0.036	-0.171
-446.880	224.747	-0.024	-0.038
-445.865	166.111	-0.154	0.219
-444.851	-115.736	-0.210	-0.040
-443.836	60.246	-0.063	0.062
-442.822	14.904	-0.349	-0.275
-441.807	800.000	0.019	0.073
-440.792	-35.749	0.204	0.111
-439.778	202.645	-0.112	0.174
-438.763	199.902	0.154	-0.237
-437.749	-150.026	-0.076	-0.006
-436.734	200.098	-0.116	-0.179
-435.719	-23.006	0.176	-0.107
-434.705	-200.000	-0.020	-0.120
-433.690	178.775	0.113	0.166
-432.676	-106.666	0.265	0.059
-431.661	305.352	0.084	0.157
-430.646	800.000	0.028	0.108
-429.632	-128.493	-0.544	-0.078
-428.617	800.000	0.051	0.169
-427.603	81.157	0.174	-0.189
-426.588	-132.467	-0.200	0.026
-425.573	315.942	0.060	0.114
-424.559	-66.636	-0.049	0.020
-423.544	267.405	0.020	-0.035
-422.530	56.273	-0.136	0.132
-421.515	-2.253	-0.196	-0.138
-420.500	-200.000	-0.004	0.128
-419.486	-35.304	0.054	-0.029
-418.471	-200.000	0.055	0.290
-417.457	-122.306	-0.191	-0.031
-416.442	-200.000	-0.016	0.166
-415.428	-121.920	0.076	-0.013
-414.413	-94.704	-0.140	0.038
-413.398	224.907	-0.116	0.188
-412.384	128.710	0.187	-0.240
-411.369	-200.000	0.011	-0.264
-410.355	-12.233	0.037	0.024
-409.340	110.220	0.177	-0.213
-408.325	-134.626	0.340	0.042
-407.311	-58.618	-0.208	0.090
-406.296	596.516	-0.093	-0.232
-405.282	-200.000	-0.011	0.395
-404.267	800.000	0.054	0.177
-403.252	87.553	0.229	0.254
-402.238	-59.214	-0.432	-0.187
-401.223	-142.142	-0.017	-0.002
-400.209	-108.058	0.377	-0.082
-399.194	61.321	0.029	-0.029
-398.179	-121.104	0.249	-0.042
-397.165	800.000	0.074	0.286
-396.150	279.449	-0.087	0.156
-395.136	-200.000	0.044	-0.286
-394.121	-200.000	-0.004	-0.163
-393.106	1.524	0.079	0.057
-392.092	-105.179	-0.112	-0.026
-391.077	-180.146	0.260	-0.005
-390.063	-141.738	0.239	-0.024
-389.048	-146.860	0.465	-0.040
-388.033	-84.934	0.259	-0.082
-387.019	-138.063	-0.259	-0.029
-386.004	-5.231	-0.130	0.090
-384.990	-68.131	-0.130	0.051
-383.975	214.506	-0.104	0.165
-382.960	-82.898	-0.249	0.080
-381.946	113.523	-0.071	0.087
-380.931	-200.000	0.037	0.360
-379.917	31.756	0.083	0.072
-378.902	436.021	0.187	0.408
-377.888	-200.000	0.010	0.193
-376.873	48.817	-0.223	-0.209
-375.858	-200.000	-0.078	0.385
-374.844	-11.172	0.076	-0.050
-373.829	-58.023	-0.253	-0.111
-372.815	380.861	0.047	-0.096
-371.800	467.346	0.101	-0.226
-370.785	294.767	0.197	0.362
-369.771	142.207	0.079	-0.105
-368.756	-200.000	0.012	-0.167
-367.742	153.249	-0.127	-0.175
-366.727	-200.000	0.010	0.085
-365.712	-111.272	-0.227	0.046
-364.698	-200.000	0.002	-0.147
-363.683	535.357	0.053	0.127
-362.669	314.694	0.164	0.309
-361.654	800.000	-0.041	0.180
-360.639	-113.879	0.292	-0.057
-359.625	287.899	-0.134	0.242
-358.610	-191.666	0.240	-0.002
-357.596	-33.225	-0.122	-0.068
-356.581	-14.591	-0.312	0.201
-355.566	-200.000	0.005	-0.133
-354.552	-161.822	0.093	-0.005
-353.537	-138.957	0.212	0.023
-352.523	79.367	-0.043	0.046
-351.508	77.653	-0.167	0.178
-350.493	-144.246	0.211	0.020
-349.479	-200.000	0.072	0.382
-348.464	-35.922	-0.231	0.125
-347.450	-101.773	0.167	0.040
-346.435	800.000	0.086	0.269
-345.420	-200.000	-0.045	-0.308
-344.406	-200.000	-0.018	0.283
-343.391	-139.909	0.299	-0.032
-342.377	191.395	0.251	-0.379
-341.362	6.638	0.100	-0.075
-340.348	70.761	0.018	-0.019
-339.333	42.568	0.048	-0.044
-338.318	-200.000	-0.002	-0.293
-337.304	-194.664	0.234	0.002
-336.289	-46.970	-0.195	-0.095
-335.275	125.913	0.063	0.079
-334.260	-92.479	-0.055	0.015
-333.245	-200.000	-0.029	-0.143
-332.231	-24.323	-0.130	-0.078
-331.216	-132.933	0.071	0.009
-330.202	-14.935	0.255	-0.164
-329.187	-136.160	-0.499	0.058
-328.172	38.855	0.034	0.031
-327.158	-200.000	0.027	0.180
-326.143	-143.790	0.125	0.012
-325.129	-200.000	0.011	0.203
-324.114	-103.158	-0.078	-0.018
-323.099	36.787	-0.200	-0.176
-322.085	800.000	-0.027	-0.112
-321.070	254.485	-0.181	0.310
-320.056	-200.000	-0.018	0.393
-319.041	-108.483	0.094	-0.020
-318.026	800.000	0.091	-0.282
-317.012	-36.211	0.055	0.030
-315.997	-133.924	-0.148	0.018
-314.983	-115.951	-0.405	-0.076
-313.968	-125.651	-0.379	0.058
-312.953	800.000	-0.112	-0.359
-311.939	-22.109	-0.269	-0.163
-310.924	-200.000	-0.061	-0.367
-309.910	9.145	-0.234	-0.177
-308.895	330.671	-0.100	0.193
-307.880	245.043	0.065	0.110
-306.866	392.617	0.172	0.358
-305.851	211.755	-0.025	0.039
-304.837	-15.671	-0.292	0.186
-303.822	-156.506	0.302	0.019
-302.807	-200.000	0.007	0.162
-301.793	-119.506	0.156	-0.027
-300.778	-72.656	-0.190	0.070
-299.764	-22.100	0.301	0.183
-298.749	-6.376	-0.115	0.078
-297.735	259.329	-0.073	-0.126
-296.720	-139.017	-0.328	-0.036
-295.705	151.877	0.040	-0.055
-294.691	-141.014	0.302	-0.031
-293.676	785.503	-0.102	0.278
-292.662	5.131	0.124	-0.091
-291.647	-200.000	-0.044	-0.236
-290.632	123.201	-0.122	-0.153
-289.618	-84.603	0.368	0.116
-288.603	-28.588	-0.132	-0.076
-287.589	410.169	0.054	0.114
-286.574	65.894	0.209	-0.212
-285.559	69.731	0.062	-0.064
-284.545	12.300	-0.321	0.247
-283.530	195.367	-0.118	-0.179
-282.516	83.897	-0.262	-0.286
-281.501	-200.000	0.013	0.195
-280.486	-80.252	0.059	0.020
-279.472	-154.772	0.103	-0.007
-278.457	-200.000	-0.008	0.236
-277.443	-200.000	-0.068	0.304
-276.428	-95.880	0.126	0.034
-275.413	-76.486	-0.236	-0.083
-274.399	-164.289	-0.234	0.011
-273.384	332.998	0.167	0.322
-272.370	-10.770	0.236	0.156
-271.355	-167.266	-0.150	0.006
-270.340	-93.840	0.274	0.075
-269.326	-88.976	-0.270	0.080
-268.311	185.680	0.248	0.368
-267.297	59.825	-0.127	0.126
-266.282	-200.000	0.000	-0.072
-265.267	210.085	0.155	0.243
-264.253	-200.000	-0.006	-0.101
-263.238	-200.000	-0.036	-0.184
-262.224	272.082	0.051	-0.089
-261.209	17.608	-0.188	0.150
-260.195	-116.840	-0.139	0.025
-259.180	109.028	-0.091	-0.109
-258.165	-200.000	-0.044	0.263
-257.151	590.281	-0.070	-0.171
-256.136	-185.581	-0.094	-0.001
-255.122	-64.306	0.220	0.090
-254.107	-200.000	0.034	-0.155
-253.092	29.957	-0.287	0.244
-252.078	240.394	0.212	0.353
-251.063	800.000	0.118	0.443
-250.049	189.778	0.025	0.037
-249.034	67.352	-0.023	-0.023
-248.019	6.314	0.253	0.188
-247.005	118.954	0.125	-0.154
-245.990	800.000	0.076	-0.248
-244.976	159.236	0.077	0.107
-243.961	800.000	-0.006	0.025
-242.946	-168.343	0.162	0.006
-241.932	281.549	-0.060	-0.107
-240.917	128.501	0.149	0.190
-239.903	-38.711	0.191	0.100
-238.888	-126.676	0.174	-0.026
-237.873	306.509	0.208	-0.386
-236.859	-115.629	0.213	-0.040
-235.844	60.351	-0.233	-0.230
-234.830	440.651	-0.109	-0.238
-233.815	-200.000	0.046	-0.226
-232.800	179.744	0.037	-0.054
-231.786	2.841	-0.032	-0.023
-230.771	-128.457	0.244	0.035
-229.757	-59.180	-0.167	0.072
-228.742	800.000	-0.087	-0.241
-227.727	480.130	0.169	0.381
-226.713	-35.507	-0.136	0.074
-225.698	-200.000	0.042	0.256
-224.684	-95.381	-0.339	0.091
-223.669	-36.399	-0.107	0.057
-222.655	202.980	0.150	0.231
-221.640	-200.000	-0.020	0.254
-220.625	-158.998	-0.359	0.020
-219.611	-182.907	-0.386	-0.007
-218.596	-143.058	-0.188	0.018
-217.582	-89.792	0.292	-0.085
-216.567	800.000	-0.018	0.061
-215.552	1.592	0.173	0.124
-214.538	800.000	-0.101	0.294
-213.523	-27.300	0.409	0.237
-212.509	-18.470	0.234	-0.146
-211.494	-200.000	0.053	-0.370
-210.479	258.667	-0.146	-0.250
-209.465	-96.759	-0.125	0.033
-208.450	800.000	-0.203	0.575
-207.436	-158.754	-0.108	0.006
-206.421	17.230	-0.138	-0.109
-205.406	-107.877	0.170	0.037
-204.392	19.177	0.330	-0.264
-203.377	-92.008	-0.262	-0.074
-202.363	-125.019	-0.129	-0.020
-201.348	164.907	0.075	0.106
-200.333	82.612	0.312	0.337
-199.319	635.135	-0.030	0.076
-198.304	-73.620	-0.319	-0.116
-197.290	-151.629	0.453	-0.033
-196.275	-28.706	0.163	-0.094
-195.260	-94.733	0.176	0.048
-194.246	-132.824	-0.403	0.051
-193.231	136.780	-0.083	-0.107
-192.217	119.677	-0.143	0.176
-191.202	-189.593	-0.225	0.003
-190.187	539.827	0.108	0.257
-189.173	-200.000	-0.002	0.036
-188.158	283.082	0.239	0.428
-187.144	-143.743	-0.226	-0.021
-186.129	781.034	-0.074	-0.201
-185.114	800.000	-0.042	-0.135
-184.100	-120.605	0.064	-0.011
-183.085	-147.202	-0.069	-0.006
-182.071	95.606	-0.148	0.168
-181.056	-200.000	0.035	-0.160
-180.042	800.000	0.068	0.284
-179.027	-69.589	0.401	0.153
-178.012	136.242	0.106	0.137
-176.998	-164.917	0.055	0.002
-175.983	-50.190	0.242	0.114
-174.969	-32.571	0.329	-0.182
-173.954	-102.863	-0.166	0.039
-172.939	96.072	-0.213	-0.242
-171.925	156.403	-0.221	-0.303
-170.910	-145.293	-0.204	-0.018
-169.896	800.000	0.091	0.279
-168.881	-93.060	0.146	0.040
-167.866	-200.000	-0.045	-0.204
-166.852	-200.000	-0.009	0.090
-165.837	-200.000	0.004	0.043
-164.823	800.000	-0.076	0.262
-163.808	-8.190	-0.096	-0.064
-162.793	-200.000	-0.006	0.226
-161.779	-200.000	0.012	0.082
-160.764	-200.000	-0.169	-0.000
-159.750	25.565	0.204	0.169
-158.735	-34.357	-0.161	0.088
-157.720	-200.000	-0.028	-0.143
-156.706	458.932	0.091	0.201
-155.691	72.255	-0.096	-0.099
-154.677	4.654	0.164	0.120
-153.662	-76.837	-0.215	0.075
-152.647	43.635	-0.191	-0.174
-151.633	800.000	0.146	-0.473
-150.618	703.677	0.160	-0.420
-149.604	-126.390	0.142	-0.021
-148.589	-200.000	0.041	-0.274
-147.574	236.780	-0.088	0.144
-146.560	-200.000	0.033	0.415
-145.545	441.167	-0.116	-0.252
-144.531	174.948	-0.095	-0.136
-143.516	-200.000	-0.049	-0.217
-142.502	43.476	0.156	0.142
-141.487	-32.144	0.276	0.153
-140.472	-57.870	0.242	0.105
-139.458	460.375	0.032	0.070
-138.443	-98.177	-0.222	-0.057
-137.429	-138.349	0.177	-0.019
-136.414	250.809	0.107	-0.180
-135.399	466.323	0.074	0.164
-134.385	-91.814	-0.210	0.059
-133.370	530.125	0.109	-0.256
-132.356	-200.000	-0.022	-0.137
-131.341	-19.972	0.299	0.183
-130.326	-113.472	0.384	0.075
-129.312	459.913	-0.015	-0.033
-128.297	-200.000	-0.025	0.460
-127.283	800.000	0.040	-0.120
-126.268	54.921	0.178	-0.170
-125.253	-114.905	0.234	-0.044
-124.239	112.515	-0.091	-0.109
-123.224	70.453	0.144	-0.148
-122.210	118.882	0.250	0.307
-121.195	91.136	0.121	0.135
