DTS Sentinel unit serial number:	SN413079Multiplexer serial number:	ORYXHardware model number:	OX4-SRSoftware version number:	ORYX F/W v4.00 Oryx Data Collector v3.7.2.0data status	okinstallation	princeton_trtdifferential loss correction	single-endedforward channel	channel 4reverse channel	N/Adate	2019/09/16time	15:17:35forward acquisition time	60.00reverse acquisition time	0.00gamma	496.2192k internal	0.2288k external	0.2288temperature offset calibration	0.9938default loss term (dB/km)	0.3790temperature slope calibration	1.0000multiplexer offset coefficient	1.0000multiplexer slope coefficient	1.0000fibre end	0.00T internal ref (°C)	41.05T ext. ref 1 (°C)	14.58T ext. ref 2 (°C)	36.70length (m)	temperature (°C)	Stokes	anti-Stokes-747.200	281.751	-0.105	-0.193
-746.185	-200.000	-0.016	0.338
-745.171	0.591	-0.137	-0.100
-744.156	-47.762	0.133	-0.066
-743.142	798.879	0.094	0.266
-742.127	354.516	-0.085	0.172
-741.112	-200.000	0.011	-0.327
-740.098	83.350	0.040	0.044
-739.083	-9.594	-0.216	-0.148
-738.069	-200.000	0.001	0.252
-737.054	-200.000	-0.028	0.394
-736.039	152.459	0.171	0.239
-735.025	-65.785	-0.130	-0.053
-734.010	-122.013	0.409	0.069
-732.996	484.637	0.025	0.059
-731.981	-200.000	0.019	0.281
-730.966	800.000	-0.012	0.045
-729.952	95.133	0.144	0.168
-728.937	17.425	0.077	-0.063
-727.923	3.780	0.267	-0.200
-726.908	-58.985	-0.211	-0.093
-725.894	-200.000	-0.020	-0.164
-724.879	100.891	0.223	-0.266
-723.864	-47.895	-0.266	-0.132
-722.850	-82.056	0.245	0.082
-721.835	-42.351	0.110	0.057
-720.821	-152.271	-0.160	-0.012
-719.806	350.853	0.128	-0.260
-718.791	-103.882	0.146	-0.035
-717.777	-24.735	-0.257	-0.156
-716.762	800.000	0.059	0.200
-715.748	257.144	0.061	-0.108
-714.733	-46.614	-0.212	-0.106
-713.718	-174.518	0.351	-0.010
-712.704	12.410	0.115	0.091
-711.689	-147.473	-0.150	-0.013
-710.675	-200.000	-0.010	0.185
-709.660	-148.519	0.403	-0.034
-708.645	99.844	0.230	-0.272
-707.631	-170.685	0.258	0.009
-706.616	-200.000	-0.004	-0.188
-705.602	-5.987	-0.191	-0.134
-704.587	-64.629	0.201	0.083
-703.572	-200.000	-0.003	0.401
-702.558	362.468	0.109	-0.225
-701.543	340.605	0.092	0.184
-700.529	290.535	0.075	0.140
-699.514	-23.362	-0.220	0.135
-698.499	-86.692	-0.147	-0.046
-697.485	-125.821	0.598	-0.092
-696.470	151.698	-0.067	0.093
-695.456	78.797	-0.200	-0.219
-694.441	-53.461	-0.199	0.093
-693.426	416.957	0.019	-0.042
-692.412	-131.347	0.280	0.038
-691.397	-70.692	-0.300	-0.116
-690.383	-77.731	-0.056	-0.020
-689.368	800.000	-0.031	-0.104
-688.354	-30.328	-0.250	-0.145
-687.339	-177.877	-0.099	-0.002
-686.324	-200.000	-0.024	-0.341
-685.310	687.971	0.067	0.180
-684.295	51.819	-0.234	0.228
-683.281	-168.548	-0.207	-0.008
-682.266	-36.415	0.125	-0.069
-681.251	800.000	0.028	-0.121
-680.237	-133.497	0.097	0.012
-679.222	36.544	0.270	0.244
-678.208	-84.732	-0.281	0.091
-677.193	49.037	-0.225	-0.216
-676.178	94.498	0.053	-0.062
-675.164	229.456	0.132	0.220
-674.149	-179.005	-0.271	0.006
-673.135	19.711	0.140	0.115
-672.120	800.000	-0.021	0.073
-671.105	-168.541	0.033	0.001
-670.091	-63.412	-0.316	-0.133
-669.076	-33.595	0.071	0.040
-668.062	-200.000	0.002	0.195
-667.047	353.728	-0.037	0.075
-666.032	-11.555	-0.398	-0.267
-665.018	-200.000	-0.007	0.140
-664.003	-94.263	-0.189	-0.053
-662.989	231.523	0.126	0.212
-661.974	-35.783	0.355	-0.197
-660.959	265.190	0.103	-0.184
-659.945	-117.502	0.065	-0.012
-658.930	147.011	0.107	0.148
-657.916	270.064	0.026	0.046
-656.901	-200.000	0.033	-0.293
-655.886	-48.964	0.116	0.057
-654.872	-193.662	-0.061	0.001
-653.857	800.000	-0.097	-0.282
-652.843	-154.925	-0.155	-0.010
-651.828	132.422	0.062	-0.081
-650.814	-185.845	0.142	0.002
-649.799	115.856	0.129	0.162
-648.784	178.298	0.216	-0.321
-647.770	162.898	-0.160	0.230
-646.755	-91.950	-0.240	0.070
-645.741	-48.122	-0.220	0.108
-644.726	-128.612	0.483	-0.070
-643.711	800.000	0.065	0.218
-642.697	-57.027	0.165	0.074
-641.682	-48.757	0.064	0.031
-640.668	90.581	-0.157	-0.179
-639.653	-200.000	-0.026	-0.144
-638.638	-118.351	0.223	-0.040
-637.624	48.735	-0.266	-0.255
-636.609	-200.000	0.003	0.192
-635.595	714.871	-0.130	0.351
-634.580	98.718	0.070	0.083
-633.565	-29.082	0.141	0.083
-632.551	-28.837	0.038	-0.022
-631.536	54.125	0.193	0.190
-630.522	299.195	-0.136	-0.256
-629.507	425.903	0.077	-0.169
-628.492	-75.685	-0.087	0.031
-627.478	-48.328	0.235	0.115
-626.463	137.816	-0.117	0.157
-625.449	-64.596	0.290	0.120
-624.434	-8.644	-0.274	0.188
-623.419	120.910	-0.046	0.058
-622.405	-200.000	-0.008	-0.245
-621.390	-200.000	0.029	-0.499
-620.376	-136.721	-0.266	-0.031
-619.361	800.000	0.021	0.072
-618.346	7.443	-0.202	0.154
-617.332	223.152	-0.021	0.035
-616.317	-133.552	0.179	0.023
-615.303	492.879	-0.145	0.339
-614.288	-123.060	0.070	0.011
-613.273	162.221	0.132	0.189
-612.259	160.198	-0.104	-0.147
-611.244	-130.768	-0.206	0.028
-610.230	800.000	-0.014	0.059
-609.215	199.599	-0.136	0.212
-608.201	-200.000	-0.003	-0.174
-607.186	136.402	-0.098	-0.131
-606.171	99.629	-0.143	0.169
-605.157	354.336	-0.073	0.147
-604.142	-200.000	-0.074	-0.364
-603.128	90.149	-0.132	-0.151
-602.113	-200.000	0.004	-0.105
-601.098	106.638	-0.055	0.067
-600.084	340.330	0.033	-0.065
-599.069	760.072	-0.077	0.213
-598.055	82.603	0.148	0.164
-597.040	81.293	-0.025	0.027
-596.025	-200.000	-0.022	-0.368
-595.011	-96.793	-0.378	-0.101
-593.996	-200.000	0.012	0.183
-592.982	-200.000	0.001	0.021
-591.967	800.000	-0.030	-0.101
-590.952	-154.932	-0.254	0.017
-589.938	-200.000	0.027	0.358
-588.923	800.000	0.036	0.105
-587.909	323.627	-0.102	0.199
-586.894	-67.061	-0.394	-0.159
-585.879	-75.989	0.231	0.083
-584.865	800.000	0.075	0.269
-583.850	29.952	0.060	-0.052
-582.836	12.962	-0.057	0.045
-581.821	24.201	0.073	0.061
-580.806	16.843	0.063	0.050
-579.792	182.515	-0.244	-0.366
-578.777	167.954	0.092	0.133
-577.763	83.590	0.138	-0.153
-576.748	710.696	-0.097	0.262
-575.733	27.016	-0.072	-0.062
-574.719	415.276	0.075	0.163
-573.704	-54.350	-0.188	-0.087
-572.690	525.613	0.058	0.138
-571.675	21.864	-0.161	-0.134
-570.661	800.000	-0.116	-0.501
-569.646	-111.324	0.135	-0.028
-568.631	263.095	-0.175	-0.310
-567.617	-200.000	0.027	-0.190
-566.602	101.231	0.197	0.234
-565.588	45.637	0.219	-0.206
-564.573	155.742	0.099	-0.138
-563.558	800.000	0.078	0.223
-562.544	42.120	0.226	0.209
-561.529	-14.133	0.298	-0.196
-560.515	-150.534	-0.152	0.012
-559.500	800.000	0.050	-0.184
-558.485	800.000	0.064	-0.221
-557.471	95.154	-0.165	0.191
-556.456	46.598	0.289	-0.273
-555.442	-200.000	0.007	-0.233
-554.427	-6.262	0.171	-0.119
-553.412	27.961	-0.152	-0.130
-552.398	-116.250	-0.325	0.061
-551.383	602.621	-0.060	0.151
-550.369	-171.629	-0.158	-0.005
-549.354	-112.438	-0.299	-0.061
-548.339	106.409	-0.100	-0.120
-547.325	800.000	-0.025	-0.106
-546.310	-200.000	-0.019	-0.237
-545.296	800.000	-0.032	-0.109
-544.281	-200.000	-0.093	-0.488
-543.266	-34.012	0.164	0.092
-542.252	385.849	-0.061	-0.127
-541.237	-68.699	-0.223	-0.088
-540.223	50.112	-0.239	-0.230
-539.208	-76.614	-0.074	0.026
-538.193	139.735	0.118	0.158
-537.179	393.045	0.082	-0.173
-536.164	-176.165	0.062	0.002
-535.150	-200.000	-0.014	-0.165
-534.135	353.961	0.093	-0.188
-533.121	-97.827	0.108	-0.028
-532.106	114.812	0.338	0.418
-531.091	800.000	0.092	0.319
-530.077	56.223	-0.296	0.293
-529.062	355.343	0.071	0.143
-528.048	121.911	-0.019	0.024
-527.033	361.759	-0.120	-0.244
-526.018	800.000	0.067	-0.260
-525.004	800.000	-0.083	-0.271
-523.989	-164.819	-0.315	0.014
-522.975	800.000	-0.017	-0.051
-521.960	661.185	0.095	-0.249
-520.945	800.000	-0.049	-0.197
-519.931	19.309	0.131	0.107
-518.916	-114.955	-0.302	0.058
-517.902	-101.282	-0.213	0.053
-516.887	-120.720	0.289	0.050
-515.872	369.405	0.030	0.062
-514.858	-40.350	0.159	-0.084
-513.843	-200.000	-0.173	0.001
-512.829	119.047	-0.022	-0.028
-511.814	72.540	-0.052	0.055
-510.799	-200.000	-0.024	-0.130
-509.785	-200.000	0.011	-0.213
-508.770	-200.000	0.023	0.297
-507.756	-142.482	-0.123	-0.012
-506.741	185.532	-0.181	-0.273
-505.726	94.888	0.297	0.344
-504.712	-47.340	-0.114	-0.056
-503.697	534.781	-0.027	-0.064
-502.683	800.000	-0.036	0.154
-501.668	-49.486	0.058	0.028
-500.653	-180.504	-0.096	0.002
-499.639	-10.047	0.060	-0.041
-498.624	191.725	-0.079	-0.121
-497.610	-4.266	0.168	-0.118
-496.595	191.555	0.057	-0.088
-495.581	-200.000	-0.047	0.217
-494.566	79.980	-0.101	0.110
-493.551	29.499	-0.229	-0.198
-492.537	295.577	-0.112	-0.208
-491.522	-27.065	0.271	0.160
-490.508	-100.728	-0.228	-0.057
-489.493	-74.587	-0.119	0.043
-488.478	800.000	0.014	-0.046
-487.464	312.002	0.103	0.197
-486.449	-121.785	-0.079	-0.013
-485.435	-200.000	0.010	0.105
-484.420	491.984	0.123	-0.287
-483.405	-200.000	-0.042	-0.326
-482.391	145.952	-0.119	0.162
-481.376	800.000	0.108	0.472
-480.362	126.477	0.026	0.034
-479.347	-200.000	0.011	-0.158
-478.332	114.937	-0.134	-0.166
-477.318	-162.331	0.209	0.011
-476.303	-65.696	-0.048	0.019
-475.289	-42.111	-0.256	-0.133
-474.274	-69.681	0.196	0.076
-473.259	-134.912	-0.187	0.023
-472.245	-117.735	-0.329	0.060
-471.230	-4.081	-0.093	0.065
-470.216	-25.803	0.198	-0.118
-469.201	-200.000	-0.025	-0.393
-468.186	-148.698	-0.123	0.010
-467.172	54.578	-0.095	-0.093
-466.157	800.000	0.089	-0.364
-465.143	255.715	0.079	0.138
-464.128	-200.000	-0.009	0.062
-463.113	680.437	-0.115	0.304
-462.099	173.548	0.198	0.289
-461.084	-0.525	0.148	0.106
-460.070	102.591	-0.357	0.423
-459.055	800.000	0.111	0.380
-458.040	-99.786	-0.488	-0.124
-457.026	-145.847	0.089	-0.008
-456.011	-160.219	-0.161	0.009
-454.997	154.130	-0.066	-0.091
-453.982	82.912	0.035	0.039
-452.968	-34.550	0.055	0.030
-451.953	-86.101	0.389	-0.122
-450.938	34.246	0.279	-0.247
-449.924	-79.765	0.158	0.054
-448.909	-22.831	-0.111	-0.068
-447.895	473.829	0.050	0.115
-446.880	224.013	0.204	-0.334
-445.865	-48.097	-0.154	-0.075
-444.851	-95.576	0.206	0.056
-443.836	-200.000	0.011	-0.300
-442.822	72.742	0.113	-0.120
-441.807	-184.438	0.068	0.001
-440.792	800.000	-0.013	0.043
-439.778	52.207	0.225	-0.218
-438.763	-200.000	0.085	0.391
-437.749	-126.422	0.275	0.041
-436.734	496.758	-0.080	-0.186
-435.719	380.706	0.087	-0.181
-434.705	-90.678	-0.248	-0.072
-433.690	-136.438	0.348	-0.041
-432.676	-101.495	-0.226	-0.056
-431.661	5.523	0.154	0.115
-430.646	-67.990	-0.230	-0.091
-429.632	9.608	0.351	-0.269
-428.617	800.000	0.096	0.380
-427.603	-68.728	-0.205	-0.080
-426.588	-33.822	-0.154	0.086
-425.573	295.715	-0.053	-0.098
-424.559	-92.462	-0.267	-0.076
-423.544	-67.158	-0.271	0.108
-422.530	-106.322	0.135	0.031
-421.515	59.918	-0.171	-0.171
-420.500	-68.943	-0.215	-0.084
-419.486	-200.000	-0.013	0.164
-418.471	-92.465	0.068	0.019
-417.457	-200.000	0.074	0.521
-416.442	-99.366	-0.383	-0.098
-415.428	33.392	-0.241	0.212
-414.413	-200.000	-0.020	-0.149
-413.398	-24.780	0.163	0.098
-412.384	800.000	-0.035	0.132
-411.369	-200.000	0.022	0.130
-410.355	-200.000	0.002	0.251
-409.340	-42.273	0.021	0.011
-408.325	150.749	-0.093	-0.128
-407.311	76.392	-0.202	0.216
-406.296	381.326	0.060	-0.125
-405.282	-200.000	0.069	0.361
-404.267	-11.991	-0.053	0.035
-403.252	205.069	-0.122	0.192
-402.238	-200.000	0.043	0.192
-401.223	121.028	-0.211	0.265
-400.209	292.536	0.044	-0.082
-399.194	-200.000	0.010	0.412
-398.179	800.000	-0.028	-0.080
-397.165	-8.917	0.339	0.229
-396.150	0.491	-0.203	0.146
-395.136	-200.000	-0.023	-0.119
-394.121	-52.947	-0.143	0.067
-393.106	101.819	0.095	-0.112
-392.092	382.552	-0.178	0.371
-391.077	68.058	-0.128	0.132
-390.063	-200.000	0.020	-0.161
-389.048	100.327	0.150	-0.176
-388.033	-200.000	0.024	-0.330
-387.019	-74.782	-0.323	-0.117
-386.004	538.093	0.042	0.100
-384.990	88.293	-0.048	0.054
-383.975	202.058	0.120	0.188
-382.960	47.859	0.238	-0.225
-381.946	-47.879	0.315	-0.154
-380.931	-94.604	-0.261	0.072
-379.917	-10.548	0.355	0.238
-378.902	379.710	0.102	0.211
-377.888	186.891	-0.066	-0.099
-376.873	513.316	-0.070	-0.164
-375.858	-23.470	0.201	0.122
-374.844	-117.718	0.239	0.043
-373.829	96.666	-0.186	-0.216
-372.815	-42.485	-0.204	0.105
-371.800	4.702	-0.294	-0.219
-370.785	-107.144	-0.163	0.036
-369.771	39.902	0.061	-0.055
-368.756	-99.370	-0.343	-0.087
-367.742	648.457	-0.048	0.124
-366.727	0.105	-0.160	0.116
-365.712	19.985	-0.308	0.251
-364.698	-105.783	-0.268	0.061
-363.683	-200.000	-0.008	-0.204
-362.669	9.190	0.212	0.162
-361.654	-3.493	0.132	-0.092
-360.639	122.282	-0.242	0.305
-359.625	-164.706	0.072	0.003
-358.610	73.882	-0.205	-0.218
-357.596	-48.738	0.186	-0.090
-356.581	73.352	0.105	-0.111
-355.566	713.869	0.047	-0.127
-354.552	47.777	-0.104	-0.098
-353.537	-78.649	0.113	0.039
-352.523	-200.000	0.058	-0.341
-351.508	-71.683	-0.120	0.045
-350.493	800.000	-0.064	0.196
-349.479	800.000	-0.111	-0.314
-348.464	38.160	0.251	0.225
-347.450	523.844	-0.168	0.398
-346.435	-182.387	0.130	-0.002
-345.420	37.044	-0.107	0.095
-344.406	-196.253	-0.094	-0.001
-343.391	-51.104	-0.257	0.122
-342.377	-105.250	-0.328	0.076
-341.362	198.525	0.103	-0.159
-340.348	-109.880	0.232	0.049
-339.333	460.917	0.067	0.151
-338.318	-77.469	0.177	0.062
-337.304	17.983	-0.257	-0.207
-336.289	101.543	-0.025	-0.030
-335.275	800.000	-0.084	-0.253
-334.260	-91.941	-0.097	-0.028
-333.245	-116.711	-0.325	-0.060
-332.231	278.785	0.137	-0.247
-331.216	-200.000	0.044	-0.294
-330.202	-200.000	-0.035	-0.196
-329.187	-11.545	0.369	0.245
-328.172	-196.598	0.294	-0.002
-327.158	-65.232	-0.201	-0.082
-326.143	468.040	0.113	-0.256
-325.129	324.440	0.112	-0.216
-324.114	-200.000	0.016	0.213
-323.099	-200.000	0.006	0.121
-322.085	-46.562	0.247	0.122
-321.070	-61.610	0.288	0.122
-320.056	562.851	-0.083	0.203
-319.041	-85.604	0.319	0.100
-318.026	9.549	-0.152	-0.116
-317.012	377.214	-0.157	-0.324
-315.997	-69.272	-0.024	-0.009
-314.983	-94.515	-0.148	0.041
-313.968	251.805	-0.058	-0.099
-312.953	-112.292	0.125	-0.025
-311.939	1.552	0.097	-0.070
-310.924	-52.531	-0.165	0.077
-309.910	-200.000	0.034	-0.157
-308.895	26.535	-0.239	0.202
-307.880	15.113	-0.141	-0.111
-306.866	-12.340	0.076	0.050
-305.851	-32.492	-0.101	0.057
-304.837	72.098	-0.166	0.174
-303.822	-200.000	-0.037	-0.167
-302.807	-50.461	0.250	0.119
-301.793	618.252	0.046	-0.117
-300.778	-151.728	-0.152	-0.011
-299.764	29.052	0.097	0.083
-298.749	-20.890	0.015	-0.009
-297.735	-53.078	0.167	0.077
-296.720	-31.484	0.160	0.091
-295.705	-176.080	0.181	0.005
-294.691	-83.211	0.243	-0.079
-293.676	15.450	0.386	0.305
-292.662	800.000	-0.091	-0.280
-291.647	207.917	0.045	-0.071
-290.632	-55.921	0.041	-0.019
-289.618	800.000	0.028	-0.093
-288.603	360.101	0.021	-0.043
-287.589	-158.185	0.220	0.013
-286.574	-58.549	0.175	-0.077
-285.559	-200.000	-0.098	-0.488
-284.545	-84.890	0.159	0.050
-283.530	-33.568	-0.165	0.092
-282.516	-35.475	0.148	-0.081
-281.501	-127.199	-0.239	-0.035
-280.486	-118.667	0.265	0.047
-279.472	-129.910	-0.227	-0.031
-278.457	490.741	-0.030	-0.068
-277.443	43.235	-0.174	-0.160
-276.428	-37.398	0.023	0.012
-275.413	212.554	-0.055	-0.087
-274.399	5.664	0.146	-0.109
-273.384	14.010	0.092	-0.072
-272.370	800.000	-0.084	-0.239
-271.355	-59.527	0.470	0.203
-270.340	800.000	0.023	-0.066
-269.326	759.055	-0.053	0.144
-268.311	-39.990	-0.180	-0.095
-267.297	-17.736	0.153	0.097
-266.282	-200.000	0.012	-0.118
-265.267	-17.927	0.100	-0.063
-264.253	180.696	0.113	-0.167
-263.238	-87.361	0.125	0.038
-262.224	-200.000	-0.068	-0.300
-261.209	-200.000	-0.052	0.524
-260.195	-82.374	-0.209	-0.068
-259.180	800.000	0.079	-0.295
-258.165	-35.144	-0.073	0.040
-257.151	800.000	-0.053	0.194
-256.136	-62.544	0.085	-0.035
-255.122	12.001	-0.105	0.081
-254.107	131.215	-0.075	-0.097
-253.092	183.987	0.097	-0.144
-252.078	800.000	-0.030	-0.116
-251.063	800.000	-0.099	0.284
-250.049	17.144	-0.097	-0.077
-249.034	695.867	-0.130	-0.343
-248.019	-143.141	-0.171	-0.017
-247.005	7.326	-0.124	0.093
-245.990	-60.985	0.162	-0.069
-244.976	-200.000	0.005	0.102
-243.961	-200.000	-0.034	-0.153
-242.946	-11.693	0.437	0.289
-241.932	13.492	-0.119	0.092
-240.917	317.936	0.215	-0.408
-239.903	249.194	0.034	-0.059
-238.888	-24.926	-0.197	-0.117
-237.873	-200.000	-0.002	0.092
-236.859	38.207	-0.215	0.193
-235.844	122.318	0.258	0.324
-234.830	800.000	0.039	0.149
-233.815	-23.809	0.262	0.158
-232.800	-92.129	0.204	0.058
-231.786	-30.807	0.184	0.105
-230.771	-200.000	-0.020	0.296
-229.757	313.438	-0.069	0.130
-228.742	-34.226	0.389	-0.215
-227.727	-200.000	0.027	-0.137
-226.713	800.000	0.051	0.201
-225.698	-150.357	0.376	0.029
-224.684	321.192	0.167	0.318
-223.669	-200.000	0.008	-0.222
-222.655	-200.000	0.003	0.157
-221.640	116.201	0.122	0.151
-220.625	800.000	0.069	0.253
-219.611	449.782	0.111	-0.246
-218.596	-99.629	-0.109	-0.027
-217.582	-200.000	0.020	-0.228
-216.567	-193.010	-0.090	-0.001
-215.552	514.123	0.026	-0.060
-214.538	111.955	-0.181	0.219
-213.523	122.260	0.294	0.369
-212.509	-200.000	-0.031	-0.222
-211.494	66.500	-0.048	-0.049
-210.479	-200.000	-0.048	-0.349
-209.465	-17.614	0.316	0.199
-208.450	47.157	-0.240	-0.224
-207.436	-131.039	-0.392	-0.052
-206.421	-200.000	0.009	0.047
-205.406	-130.741	-0.269	0.036
-204.392	-200.000	-0.013	0.170
-203.377	-200.000	0.050	0.282
-202.363	288.399	-0.217	0.395
-201.348	-200.000	0.036	-0.234
-200.333	-200.000	-0.007	-0.129
-199.319	-89.159	0.100	0.030
-198.304	-17.071	0.135	0.085
-197.290	-135.416	0.350	-0.042
-196.275	-200.000	-0.001	-0.021
-195.260	75.539	0.123	0.130
-194.246	24.154	0.263	0.218
-193.231	-15.443	0.227	-0.145
-192.217	-108.179	0.213	0.046
-191.202	-200.000	0.092	-0.501
-190.187	-120.773	0.364	-0.062
-189.173	125.415	0.072	0.091
-188.158	800.000	-0.100	0.329
-187.144	-200.000	-0.041	-0.289
-186.129	-200.000	0.034	0.175
-185.114	251.345	-0.203	0.347
-184.100	125.619	-0.150	-0.190
-183.085	638.070	0.017	0.043
-182.071	-200.000	-0.006	-0.056
-181.056	281.561	-0.088	0.158
-180.042	292.428	-0.133	-0.243
-179.027	102.699	-0.122	0.143
-178.012	-128.822	-0.330	0.047
-176.998	-32.410	0.131	-0.073
-175.983	-65.699	-0.228	0.092
-174.969	800.000	0.096	0.396
-173.954	229.902	0.065	-0.107
-172.939	-154.663	0.315	-0.021
-171.925	-175.134	-0.242	-0.007
-170.910	-200.000	-0.026	-0.170
-169.896	66.764	0.316	0.323
-168.881	53.532	-0.352	-0.339
-167.866	-71.538	0.122	-0.046
-166.852	-138.597	0.362	0.040
-165.837	80.068	0.221	-0.238
-164.823	-185.216	0.151	-0.002
-163.808	163.173	0.121	-0.170
-162.793	759.237	-0.030	-0.080
-161.779	-134.113	-0.092	0.011
-160.764	800.000	-0.045	0.157
-159.750	-200.000	-0.022	0.177
-158.735	12.766	-0.230	0.178
-157.720	-200.000	-0.046	0.314
-156.706	-118.105	-0.095	-0.017
-155.691	11.163	0.171	-0.131
-154.677	226.909	0.140	0.228
-153.662	-75.888	0.092	-0.033
-152.647	300.213	0.027	-0.050
-151.633	-58.269	0.170	0.074
-150.618	-35.254	0.439	0.239
-149.604	72.159	0.111	0.116
-148.589	22.261	-0.038	0.031
-147.574	603.927	-0.144	0.359
-146.560	349.264	-0.229	0.453
-145.545	-200.000	0.014	-0.170
-144.531	-200.000	0.064	-0.362
-143.516	4.185	-0.154	-0.113
-142.502	-200.000	0.025	0.356
-141.487	-171.760	0.169	-0.006
-140.472	-200.000	-0.036	-0.499
-139.458	207.831	-0.229	0.358
-138.443	-164.815	0.234	-0.011
-137.429	-112.268	-0.169	0.034
-136.414	790.079	-0.082	-0.225
-135.399	-103.203	0.225	0.053
-134.385	-139.372	-0.184	0.020
-133.370	-95.818	-0.119	-0.032
-132.356	-13.285	-0.070	-0.045
-131.341	289.598	-0.089	-0.162
-130.326	281.955	0.208	-0.374
-129.312	-200.000	-0.046	-0.292
-128.297	-200.000	0.028	0.360
-127.283	15.511	-0.152	-0.120
-126.268	590.680	-0.063	0.156
-125.253	142.739	0.071	-0.094
-124.239	800.000	-0.121	0.462
-123.224	-200.000	0.023	-0.210
-122.210	390.634	-0.062	0.129
-121.195	152.464	-0.093	0.128
