DTS Sentinel unit serial number:	SN413079Multiplexer serial number:	ORYXHardware model number:	OX4-SRSoftware version number:	ORYX F/W v4.00 Oryx Data Collector v3.7.2.0data status	okinstallation	princeton_trtdifferential loss correction	single-endedforward channel	channel 4reverse channel	N/Adate	2019/09/14time	17:29:34forward acquisition time	60.00reverse acquisition time	0.00gamma	496.2192k internal	0.2294k external	0.2294temperature offset calibration	1.0121default loss term (dB/km)	0.3790temperature slope calibration	1.0000multiplexer offset coefficient	1.0000multiplexer slope coefficient	1.0000fibre end	0.00T internal ref (°C)	37.70T ext. ref 1 (°C)	5.06T ext. ref 2 (°C)	32.13length (m)	temperature (°C)	Stokes	anti-Stokes-747.200	12.616	-0.251	-0.198
-746.185	800.000	-0.113	0.427
-745.171	-100.419	0.441	0.112
-744.156	-54.295	0.233	0.108
-743.142	-95.131	0.104	0.029
-742.127	800.000	0.120	0.446
-741.112	-200.000	-0.012	0.073
-740.098	17.007	0.125	0.102
-739.083	-200.000	-0.001	0.098
-738.069	-35.877	-0.133	-0.074
-737.054	-167.015	-0.151	0.006
-736.039	75.102	0.095	0.102
-735.025	-200.000	0.024	0.389
-734.010	35.106	-0.057	0.051
-732.996	45.361	-0.349	-0.329
-731.981	-31.022	0.161	-0.093
-730.966	800.000	0.086	-0.348
-729.952	39.045	-0.140	0.128
-728.937	175.574	-0.098	-0.145
-727.923	-80.283	-0.241	-0.082
-726.908	43.033	-0.258	-0.240
-725.894	-200.000	-0.031	0.365
-724.879	111.477	-0.116	0.143
-723.864	164.987	0.168	0.243
-722.850	77.679	0.071	-0.077
-721.835	588.682	0.018	-0.045
-720.821	-32.512	-0.358	-0.204
-719.806	48.056	0.028	0.027
-718.791	-200.000	0.020	-0.260
-717.777	581.905	0.135	-0.337
-716.762	-76.076	-0.220	0.080
-715.748	800.000	0.018	0.053
-714.733	800.000	0.086	-0.262
-713.718	78.302	-0.108	0.117
-712.704	-99.728	-0.053	-0.014
-711.689	-200.000	-0.007	-0.380
-710.675	-146.510	0.273	-0.024
-709.660	800.000	-0.059	-0.188
-708.645	43.091	-0.066	0.061
-707.631	173.947	0.060	-0.089
-706.616	-50.079	0.156	0.076
-705.602	282.842	-0.056	-0.103
-704.587	-62.908	-0.152	-0.064
-703.572	389.209	-0.088	-0.187
-702.558	-200.000	0.049	-0.228
-701.543	20.210	0.069	-0.057
-700.529	-117.626	-0.229	0.042
-699.514	-179.922	-0.149	0.003
-698.499	401.606	-0.119	-0.255
-697.485	-166.260	0.189	0.008
-696.470	-118.181	0.083	-0.015
-695.456	-23.076	0.237	0.146
-694.441	207.757	0.046	-0.074
-693.426	152.152	-0.224	-0.311
-692.412	-90.497	-0.219	-0.065
-691.397	523.361	-0.110	0.265
-690.383	800.000	0.170	0.514
-689.368	-200.000	-0.017	0.291
-688.354	-200.000	0.016	-0.277
-687.339	-200.000	-0.018	-0.489
-686.324	-200.000	0.001	-0.238
-685.310	-31.728	0.198	0.113
-684.295	800.000	-0.066	-0.288
-683.281	238.531	0.069	0.116
-682.266	-200.000	-0.031	-0.238
-681.251	226.616	0.122	-0.203
-680.237	-111.748	-0.202	0.042
-679.222	57.278	-0.139	-0.139
-678.208	-135.265	-0.108	0.013
-677.193	-151.572	-0.130	-0.010
-676.178	158.273	-0.266	0.376
-675.164	62.345	-0.145	-0.148
-674.149	-200.000	-0.010	-0.138
-673.135	221.756	-0.022	0.036
-672.120	-200.000	0.078	-0.466
-671.105	-154.875	0.218	0.015
-670.091	659.410	0.081	-0.213
-669.076	260.807	-0.076	0.135
-668.062	444.720	-0.021	0.046
-667.047	-200.000	0.036	-0.170
-666.032	-77.079	0.232	0.082
-665.018	465.720	0.065	0.147
-664.003	-84.461	-0.228	0.073
-662.989	-126.492	0.268	-0.041
-661.974	453.037	-0.054	0.122
-660.959	217.708	-0.207	-0.336
-659.945	-84.342	-0.191	-0.062
-658.930	-106.599	0.340	0.077
-657.916	800.000	-0.087	0.258
-656.901	-200.000	0.018	-0.258
-655.886	-32.984	-0.098	-0.055
-654.872	-200.000	-0.005	-0.551
-653.857	-115.973	0.211	-0.040
-652.843	447.172	-0.116	-0.260
-651.828	153.571	0.122	-0.171
-650.814	-26.972	-0.080	0.048
-649.799	165.682	-0.128	0.184
-648.784	-60.114	-0.134	-0.058
-647.770	-74.718	-0.077	-0.028
-646.755	-89.176	-0.162	0.049
-645.741	401.783	-0.078	-0.166
-644.726	800.000	0.024	-0.096
-643.711	132.974	-0.085	-0.111
-642.697	43.890	-0.043	0.040
-641.682	-120.263	0.029	0.005
-640.668	557.607	-0.081	0.200
-639.653	800.000	-0.081	-0.302
-638.638	-200.000	0.003	0.046
-637.624	-91.921	0.244	0.070
-636.609	309.840	-0.167	-0.319
-635.595	253.789	-0.263	0.458
-634.580	-119.901	-0.238	-0.042
-633.565	49.135	0.057	0.055
-632.551	655.197	0.121	0.317
-631.536	66.866	0.074	-0.077
-630.522	503.253	-0.099	0.233
-629.507	441.273	0.074	0.166
-628.492	-200.000	-0.016	0.174
-627.478	327.618	0.056	0.110
-626.463	50.034	-0.174	0.167
-625.449	145.271	0.081	0.110
-624.434	-109.208	0.318	0.069
-623.419	-42.851	-0.250	0.129
-622.405	18.607	0.182	0.148
-621.390	334.297	0.104	0.204
-620.376	-200.000	-0.050	-0.230
-619.361	-200.000	-0.010	0.073
-618.346	-107.785	-0.434	-0.096
-617.332	-80.180	-0.147	-0.050
-616.317	800.000	-0.025	-0.082
-615.303	-101.945	-0.099	-0.024
-614.288	-17.034	-0.304	-0.195
-613.273	-200.000	0.012	-0.105
-612.259	-48.938	-0.378	-0.184
-611.244	-37.422	-0.107	-0.058
-610.230	66.013	-0.128	0.133
-609.215	70.323	-0.078	0.082
-608.201	-162.217	0.527	0.027
-607.186	104.483	-0.128	-0.153
-606.171	34.789	0.085	0.076
-605.157	-200.000	0.319	-0.001
-604.142	-200.000	0.019	0.230
-603.128	-81.564	0.132	-0.044
-602.113	-19.021	-0.133	0.084
-601.098	-200.000	-0.043	-0.264
-600.084	-87.835	-0.206	0.063
-599.069	800.000	-0.018	-0.069
-598.055	-98.625	-0.045	0.012
-597.040	-76.888	0.200	-0.071
-596.025	-169.409	0.123	-0.005
-595.011	-120.706	-0.144	0.025
-593.996	-200.000	-0.054	-0.433
-592.982	96.821	-0.159	0.185
-591.967	-99.582	-0.200	-0.051
-590.952	21.110	0.238	0.196
-589.938	-200.000	0.032	-0.275
-588.923	-138.608	-0.183	-0.020
-587.909	-183.101	0.255	-0.005
-586.894	191.439	-0.110	-0.168
-585.879	20.794	-0.198	0.163
-584.865	83.345	-0.162	-0.179
-583.850	-77.883	0.426	-0.149
-582.836	800.000	-0.073	-0.209
-581.821	-45.873	-0.080	-0.040
-580.806	95.076	0.150	0.174
-579.792	590.549	-0.051	-0.128
-578.777	-200.000	-0.002	-0.035
-577.763	62.204	-0.248	-0.251
-576.748	-108.213	0.331	0.073
-575.733	-93.097	-0.250	0.071
-574.719	-200.000	0.044	0.260
-573.704	-200.000	0.016	0.245
-572.690	-200.000	-0.022	-0.251
-571.675	-200.000	-0.019	0.173
-570.661	800.000	-0.085	0.289
-569.646	118.585	-0.120	0.150
-568.631	-200.000	0.039	0.281
-567.617	-53.437	0.198	-0.092
-566.602	672.860	-0.039	-0.102
-565.588	-78.182	0.048	0.017
-564.573	67.879	-0.065	0.067
-563.558	358.070	-0.079	-0.160
-562.544	-17.185	-0.067	0.043
-561.529	-106.627	-0.127	0.029
-560.515	-120.168	-0.179	0.031
-559.500	-80.939	-0.369	0.124
-558.485	-31.259	-0.078	0.044
-557.471	-200.000	-0.008	-0.040
-556.456	-24.385	-0.035	0.021
-555.442	-43.398	0.168	0.086
-554.427	-128.277	-0.389	-0.056
-553.412	-200.000	0.008	0.158
-552.398	-200.000	0.031	-0.188
-551.383	50.744	-0.228	-0.220
-550.369	-28.045	0.357	0.210
-549.354	800.000	-0.085	-0.281
-548.339	146.838	0.160	-0.218
-547.325	193.900	0.147	-0.226
-546.310	120.481	-0.165	-0.208
-545.296	-200.000	-0.029	0.176
-544.281	39.410	0.209	-0.190
-543.266	-105.666	0.120	0.028
-542.252	24.383	-0.127	0.106
-541.237	238.282	-0.192	-0.323
-540.223	-35.713	-0.139	0.076
-539.208	24.157	-0.120	0.100
-538.193	-200.000	0.013	0.063
-537.179	138.579	0.098	0.130
-536.164	800.000	0.069	-0.203
-535.150	-5.825	-0.089	0.062
-534.135	568.996	0.005	0.013
-533.121	-174.910	-0.057	0.002
-532.106	157.694	0.060	-0.085
-531.091	-150.461	0.124	-0.010
-530.077	800.000	0.029	0.107
-529.062	116.965	0.136	-0.170
-528.048	-4.143	0.247	0.173
-527.033	51.501	0.209	-0.201
-526.018	186.675	0.251	0.379
-525.004	-132.121	0.105	-0.014
-523.989	261.673	-0.116	0.203
-522.975	57.897	0.104	-0.103
-521.960	-24.515	-0.300	-0.181
-520.945	-126.741	0.242	-0.036
-519.931	13.581	-0.087	0.069
-518.916	47.354	0.124	-0.117
-517.902	-112.039	-0.236	0.048
-516.887	111.866	0.061	-0.074
-515.872	-147.838	-0.260	-0.022
-514.858	217.267	0.195	-0.315
-513.843	50.022	0.195	-0.187
-512.829	-95.933	-0.189	-0.051
-511.814	800.000	-0.084	-0.303
-510.799	-200.000	-0.022	-0.111
-509.785	-200.000	0.022	-0.149
-508.770	800.000	-0.046	0.141
-507.756	-86.140	0.268	0.084
-506.741	-200.000	-0.008	0.403
-505.726	-39.047	-0.318	-0.170
-504.712	800.000	0.067	0.250
-503.697	-19.024	0.144	-0.091
-502.683	-200.000	0.032	-0.227
-501.668	-86.124	0.161	-0.050
-500.653	-188.517	-0.224	-0.003
-499.639	-43.647	0.236	-0.120
-498.624	-6.341	0.167	-0.115
-497.610	-200.000	-0.020	0.139
-496.595	-21.971	-0.317	-0.195
-495.581	-72.644	-0.177	0.066
-494.566	-2.169	0.118	0.084
-493.551	-200.000	-0.009	-0.375
-492.537	-200.000	-0.014	-0.089
-491.522	-117.251	0.162	0.030
-490.508	45.997	-0.231	0.217
-489.493	18.735	0.253	-0.205
-488.478	81.622	0.047	-0.052
-487.464	48.207	0.159	0.150
-486.449	-200.000	0.008	0.220
-485.435	-106.720	-0.114	0.026
-484.420	-53.112	-0.187	-0.087
-483.405	-133.489	-0.322	-0.041
-482.391	228.077	0.154	-0.253
-481.376	-200.000	0.032	-0.150
-480.362	-91.040	0.177	0.051
-479.347	3.876	0.250	-0.184
-478.332	-52.932	-0.278	0.130
-477.318	-86.003	0.240	0.075
-476.303	580.911	-0.110	0.272
-475.289	199.663	-0.183	0.284
-474.274	368.675	-0.181	0.370
-473.259	83.870	-0.159	-0.176
-472.245	100.367	-0.261	-0.307
-471.230	-75.330	0.109	-0.039
-470.216	-118.501	0.099	-0.018
-469.201	-48.309	0.134	0.066
-468.186	-77.833	-0.033	-0.012
-467.172	342.634	0.037	0.073
-466.157	-143.767	-0.448	0.043
-465.143	800.000	0.088	0.299
-464.128	168.083	0.170	-0.245
-463.113	25.487	0.155	-0.130
-462.099	-143.377	-0.156	0.015
-461.084	3.863	0.129	0.095
-460.070	541.008	0.138	-0.332
-459.055	-69.330	-0.142	0.055
-458.040	-50.214	-0.100	-0.048
-457.026	-86.109	-0.286	-0.089
-456.011	800.000	-0.072	0.303
-454.997	235.227	-0.181	0.303
-453.982	-113.144	0.286	0.057
-452.968	263.151	-0.180	0.316
-451.953	-85.378	-0.230	-0.072
-450.938	144.567	-0.086	0.116
-449.924	35.368	-0.036	-0.032
-448.909	-200.000	0.001	0.068
-447.895	-98.391	0.047	0.012
-446.880	31.479	0.240	-0.208
-445.865	-26.572	0.298	-0.176
-444.851	-200.000	0.005	-0.072
-443.836	-110.461	-0.385	0.081
-442.822	-115.060	0.058	0.011
-441.807	-200.000	0.002	-0.056
-440.792	-165.246	-0.351	-0.016
-439.778	-58.160	-0.036	-0.016
-438.763	-47.414	0.173	-0.085
-437.749	-71.818	0.141	0.053
-436.734	800.000	0.057	-0.176
-435.719	-34.592	-0.222	0.123
-434.705	176.063	0.128	0.188
-433.690	66.707	0.061	0.062
-432.676	199.631	-0.151	-0.234
-431.661	-200.000	-0.001	-0.146
-430.646	417.338	0.169	-0.365
-429.632	173.623	-0.143	0.209
-428.617	83.585	-0.129	-0.142
-427.603	188.067	0.093	0.140
-426.588	21.765	-0.367	-0.302
-425.573	-7.590	0.349	0.238
-424.559	-20.008	-0.288	0.179
-423.544	66.191	0.274	-0.281
-422.530	115.556	0.134	-0.166
-421.515	-102.831	0.198	-0.047
-420.500	96.714	-0.101	-0.117
-419.486	379.250	-0.053	0.110
-418.471	257.669	-0.086	0.149
-417.457	-147.052	-0.024	-0.002
-416.442	-200.000	-0.021	-0.256
-415.428	-1.408	-0.260	-0.185
-414.413	-170.275	0.453	-0.016
-413.398	-65.932	0.156	0.063
-412.384	-34.343	-0.075	-0.042
-411.369	-5.319	0.317	0.220
-410.355	103.677	0.164	-0.194
-409.340	241.330	0.131	0.221
-408.325	16.233	-0.158	0.126
-407.311	-76.312	-0.326	0.116
-406.296	51.433	0.132	0.126
-405.282	800.000	0.160	-0.528
-404.267	209.538	0.104	-0.165
-403.252	65.069	-0.096	0.098
-402.238	800.000	0.071	0.224
-401.223	-200.000	0.044	-0.364
-400.209	800.000	0.063	0.238
-399.194	-100.980	-0.254	0.063
-398.179	-116.536	-0.149	0.028
-397.165	74.934	0.253	0.269
-396.150	121.211	-0.142	0.179
-395.136	291.294	0.152	0.278
-394.121	-128.132	0.023	-0.003
-393.106	-66.113	0.326	-0.131
-392.092	-36.659	-0.374	0.203
-391.077	29.661	0.246	-0.211
-390.063	-145.685	-0.027	-0.002
-389.048	577.972	-0.112	0.277
-388.033	800.000	-0.092	-0.270
-387.019	800.000	-0.027	-0.079
-386.004	-200.000	0.010	0.131
-384.990	-159.157	-0.269	0.015
-383.975	800.000	0.133	0.384
-382.960	324.525	-0.043	-0.083
-381.946	800.000	-0.076	-0.228
-380.931	189.774	0.130	-0.197
-379.917	-124.518	-0.113	-0.018
-378.902	-9.339	0.117	0.079
-377.888	-120.858	-0.172	0.029
-376.873	-119.576	0.239	-0.042
-375.858	-200.000	0.028	-0.214
-374.844	800.000	0.069	-0.201
-373.829	800.000	-0.031	0.088
-372.815	-125.105	0.193	0.030
-371.800	-200.000	0.018	-0.118
-370.785	800.000	0.033	0.126
-369.771	-34.629	-0.182	-0.101
-368.756	-26.479	-0.145	0.086
-367.742	435.696	-0.045	0.098
-366.727	90.476	0.214	-0.241
-365.712	-116.731	-0.075	-0.014
-364.698	-34.338	-0.277	0.153
-363.683	-16.733	-0.261	-0.166
-362.669	-14.462	-0.075	0.048
-361.654	170.711	0.127	0.184
-360.639	-200.000	0.025	0.211
-359.625	-103.388	0.211	0.050
-358.610	48.884	-0.199	0.188
-357.596	760.010	-0.139	-0.380
-356.581	-82.240	-0.243	-0.080
-355.566	-200.000	-0.029	0.137
-354.552	-92.294	0.220	0.063
-353.537	187.516	-0.083	-0.125
-352.523	74.274	0.076	-0.080
-351.508	-200.000	-0.001	-0.097
-350.493	94.086	-0.208	-0.238
-349.479	51.495	0.132	-0.127
-348.464	343.908	-0.169	-0.333
-347.450	800.000	0.069	0.245
-346.435	32.306	0.294	0.255
-345.420	800.000	-0.105	-0.301
-344.406	-41.266	-0.057	-0.030
-343.391	800.000	0.102	0.333
-342.377	-124.451	0.139	0.022
-341.362	254.625	0.168	-0.290
-340.348	-200.000	0.099	0.545
-339.333	399.927	0.058	0.122
-338.318	149.208	-0.205	-0.279
-337.304	-114.640	0.495	-0.095
-336.289	-200.000	-0.006	-0.053
-335.275	-200.000	0.002	0.214
-334.260	800.000	-0.034	0.146
-333.245	-152.220	-0.233	0.017
-332.231	-51.335	0.067	-0.032
-331.216	800.000	-0.008	-0.022
-330.202	-63.317	-0.103	-0.043
-329.187	-200.000	0.015	0.086
-328.172	-25.931	0.167	-0.099
-327.158	-59.123	0.276	-0.120
-326.143	241.402	-0.113	0.190
-325.129	36.295	0.334	0.297
-324.114	-200.000	-0.003	0.067
-323.099	86.916	-0.286	-0.318
-322.085	-93.042	0.391	0.110
-321.070	-136.653	-0.346	0.040
-320.056	84.679	-0.059	0.066
-319.041	-200.000	0.013	-0.143
-318.026	-170.173	-0.183	0.007
-317.012	800.000	0.070	-0.293
-315.997	141.742	0.105	-0.141
-314.983	800.000	0.025	-0.083
-313.968	108.892	0.109	0.131
-312.953	800.000	0.025	0.100
-311.939	217.992	-0.176	0.283
-310.924	131.042	-0.114	0.147
-309.910	59.969	-0.094	0.094
-308.895	-77.493	-0.041	0.014
-307.880	-118.689	-0.069	-0.012
-306.866	153.085	-0.060	0.082
-305.851	-145.724	-0.238	-0.021
-304.837	-141.520	0.186	0.019
-303.822	79.111	0.173	-0.186
-302.807	421.308	0.089	0.191
-301.793	15.548	0.376	0.297
-300.778	387.050	-0.128	0.266
-299.764	-122.674	-0.055	0.009
-298.749	245.939	-0.100	0.170
-297.735	134.455	0.092	-0.120
-296.720	457.207	0.037	-0.081
-295.705	-96.886	0.239	0.063
-294.691	-200.000	-0.002	0.160
-293.676	-49.755	-0.156	0.075
-292.662	-47.628	0.055	-0.027
-291.647	570.633	-0.024	0.059
-290.632	800.000	-0.070	-0.217
-289.618	64.301	-0.176	0.178
-288.603	-200.000	-0.058	-0.275
-287.589	0.934	-0.128	0.092
-286.574	-200.000	0.003	0.183
-285.559	-200.000	-0.012	-0.343
-284.545	-200.000	-0.001	-0.283
-283.530	310.767	-0.052	0.098
-282.516	-92.736	0.258	-0.073
-281.501	-46.757	0.198	0.097
-280.486	-154.373	0.144	0.010
-279.472	-91.039	0.177	0.051
-278.457	-14.747	0.214	0.138
-277.443	332.560	0.081	0.157
-276.428	-200.000	-0.027	0.127
-275.413	154.989	-0.177	0.245
-274.399	136.891	0.143	0.188
-273.384	-28.968	-0.205	0.118
-272.370	-132.455	0.225	-0.029
-271.355	19.672	0.162	0.131
-270.340	-118.718	0.188	-0.033
-269.326	11.971	0.124	0.095
-268.311	9.526	-0.292	-0.222
-267.297	-124.641	-0.050	-0.008
-266.282	-200.000	-0.055	0.350
-265.267	-186.407	0.030	0.000
-264.253	-101.616	0.213	0.052
-263.238	287.510	-0.108	0.195
-262.224	108.178	-0.320	-0.383
-261.209	-17.867	-0.172	-0.108
-260.195	-29.316	-0.380	-0.218
-259.180	467.691	-0.143	0.321
-258.165	-91.222	0.308	-0.089
-257.151	-200.000	-0.013	0.114
-256.136	94.787	0.138	-0.158
-255.122	-126.684	0.310	0.046
-254.107	466.637	0.029	-0.065
-253.092	-47.022	0.076	-0.037
-252.078	800.000	0.055	0.221
-251.063	-200.000	-0.055	-0.387
-250.049	800.000	-0.023	0.092
-249.034	800.000	-0.047	0.157
-248.019	573.826	0.066	-0.161
-247.005	96.356	0.032	-0.036
-245.990	119.677	-0.134	0.166
-244.976	-9.477	0.239	0.160
-243.961	-53.962	-0.277	0.126
-242.946	-34.180	-0.054	-0.030
-241.932	-37.557	0.073	-0.039
-240.917	152.516	0.062	-0.084
-239.903	513.824	0.060	-0.139
-238.888	440.827	0.156	-0.341
-237.873	291.945	-0.126	0.231
-236.859	-114.924	-0.251	0.048
-235.844	-51.721	-0.355	-0.166
-234.830	380.902	-0.103	-0.212
-233.815	-1.886	-0.240	-0.169
-232.800	-56.825	0.170	-0.075
-231.786	800.000	0.052	0.221
-230.771	-82.674	-0.214	0.070
-229.757	-200.000	0.048	-0.290
-228.742	-200.000	-0.016	-0.108
-227.727	-86.897	0.201	0.061
-226.713	-133.912	0.188	-0.023
-225.698	80.254	0.192	-0.207
-224.684	52.080	-0.223	-0.213
-223.669	-76.296	-0.103	-0.036
-222.655	179.747	0.128	0.187
-221.640	279.070	0.173	0.309
-220.625	-55.153	-0.056	0.025
-219.611	582.381	-0.038	0.093
-218.596	-35.472	0.339	-0.184
-217.582	132.732	0.252	0.325
-216.567	97.664	-0.234	-0.269
-215.552	-67.085	0.269	0.106
-214.538	135.951	0.049	-0.064
-213.523	-200.000	0.001	-0.070
-212.509	-38.060	-0.194	0.103
-211.494	383.431	0.029	-0.061
-210.479	-152.925	0.235	0.017
-209.465	134.164	-0.119	0.155
-208.450	121.699	0.096	-0.120
-207.436	800.000	-0.066	-0.229
-206.421	-110.299	-0.243	0.051
-205.406	800.000	0.045	0.145
-204.392	143.046	-0.140	-0.187
-203.377	150.619	-0.023	0.031
-202.363	800.000	-0.098	0.315
-201.348	330.038	0.041	0.078
-200.333	-83.323	0.238	-0.076
-199.319	-200.000	-0.011	-0.182
-198.304	101.469	0.137	-0.160
-197.290	-89.617	0.291	0.085
-196.275	-114.904	0.482	0.092
-195.260	445.640	0.126	-0.277
-194.246	296.184	0.117	-0.215
-193.231	-54.989	-0.092	0.041
-192.217	-1.512	-0.060	-0.042
-191.202	138.830	0.170	-0.223
-190.187	-7.934	0.237	-0.160
-189.173	800.000	-0.044	0.156
-188.158	-86.424	0.392	-0.120
-187.144	-3.442	0.169	-0.117
-186.129	-200.000	0.037	0.480
-185.114	509.614	-0.121	0.282
-184.100	-28.357	-0.060	-0.035
-183.085	110.897	0.005	0.006
-182.071	-151.222	-0.232	-0.017
-181.056	-119.477	-0.140	0.024
-180.042	24.719	0.241	-0.200
-179.027	84.080	0.111	-0.121
-178.012	-106.587	-0.203	-0.045
-176.998	-65.131	0.229	0.093
-175.983	800.000	-0.035	0.126
-174.969	397.216	-0.056	-0.117
-173.954	-81.793	-0.081	-0.026
-172.939	38.985	0.195	0.174
-171.925	57.888	0.245	-0.240
-170.910	243.004	-0.065	-0.108
-169.896	54.565	-0.258	-0.249
-168.881	139.164	0.124	0.163
-167.866	-200.000	0.001	-0.093
-166.852	358.108	0.104	0.208
-165.837	-128.990	0.291	-0.041
-164.823	-16.896	-0.327	0.207
-163.808	484.217	0.073	0.167
-162.793	622.296	-0.094	-0.236
-161.779	-70.610	0.252	-0.095
-160.764	-117.107	-0.171	-0.031
-159.750	390.669	0.080	-0.166
-158.735	175.271	0.059	-0.086
-157.720	2.890	-0.034	0.024
-156.706	-4.142	0.078	-0.054
-155.691	-200.000	0.001	-0.011
-154.677	-200.000	-0.013	0.388
-153.662	-200.000	-0.064	0.366
-152.647	324.616	-0.070	0.133
-151.633	-57.274	-0.271	0.119
-150.618	-59.656	0.142	0.061
-149.604	104.959	0.106	0.125
-148.589	-200.000	-0.022	0.303
-147.574	-200.000	0.034	0.409
-146.560	-104.987	0.246	0.056
-145.545	101.875	-0.114	0.133
-144.531	-200.000	-0.009	0.357
-143.516	155.899	-0.221	0.304
-142.502	-98.130	0.167	-0.043
-141.487	800.000	-0.018	-0.062
-140.472	167.463	0.220	0.312
-139.458	247.461	0.027	0.045
-138.443	-200.000	0.015	0.290
-137.429	274.064	0.060	-0.106
-136.414	-200.000	-0.020	-0.289
-135.399	247.881	-0.031	-0.052
-134.385	-3.483	0.203	-0.141
-133.370	-97.525	-0.329	-0.085
-132.356	800.000	0.034	-0.140
-131.341	86.278	-0.111	-0.122
-130.326	-200.000	0.013	0.137
-129.312	-200.000	0.062	0.368
-128.297	229.080	0.144	0.234
-127.283	-197.412	0.238	-0.001
-126.268	211.219	-0.126	-0.198
-125.253	-43.915	0.246	-0.123
-124.239	553.647	-0.006	-0.015
-123.224	-98.164	-0.319	0.082
-122.210	-106.126	-0.101	0.023
