DTS Sentinel unit serial number:	SN413079Multiplexer serial number:	ORYXHardware model number:	OX4-SRSoftware version number:	ORYX F/W v4.00 Oryx Data Collector v3.7.2.0data status	okinstallation	princeton_trtdifferential loss correction	single-endedforward channel	channel 4reverse channel	N/Adate	2019/09/14time	08:17:35forward acquisition time	60.00reverse acquisition time	0.00gamma	496.2192k internal	0.2315k external	0.2315temperature offset calibration	1.0135default loss term (dB/km)	0.3790temperature slope calibration	1.0000multiplexer offset coefficient	1.0000multiplexer slope coefficient	1.0000fibre end	0.00T internal ref (°C)	27.77T ext. ref 1 (°C)	3.61T ext. ref 2 (°C)	26.16length (m)	temperature (°C)	Stokes	anti-Stokes-747.200	-153.419	-0.165	0.012
-746.185	598.462	0.135	0.339
-745.171	160.732	-0.222	-0.314
-744.156	-200.000	-0.025	0.255
-743.142	-70.685	0.145	-0.055
-742.127	60.575	-0.140	-0.141
-741.112	-170.556	0.238	-0.008
-740.098	-200.000	-0.035	0.332
-739.083	-161.450	0.152	-0.008
-738.069	-105.264	-0.302	0.070
-737.054	-40.246	0.114	0.060
-736.039	-87.660	-0.460	0.141
-735.025	-145.688	0.256	0.023
-734.010	7.519	-0.295	-0.223
-732.996	-147.932	-0.244	-0.021
-731.981	-117.296	-0.159	0.029
-730.966	-200.000	-0.041	0.000
-729.952	-24.684	-0.109	-0.066
-728.937	-99.937	0.184	-0.046
-727.923	-115.544	0.209	0.040
-726.908	-200.000	-0.043	-0.324
-725.894	-31.728	-0.178	-0.101
-724.879	54.351	-0.258	0.251
-723.864	1.666	-0.402	-0.293
-722.850	290.993	0.043	-0.080
-721.835	675.879	0.109	-0.287
-720.821	41.122	-0.126	-0.115
-719.806	99.345	-0.138	0.161
-718.791	230.134	0.141	0.233
-717.777	-101.295	-0.343	0.085
-716.762	-200.000	0.001	0.068
-715.748	37.603	-0.219	0.197
-714.733	-142.624	0.294	-0.029
-713.718	188.703	0.237	0.359
-712.704	353.998	-0.040	-0.081
-711.689	-200.000	0.004	-0.188
-710.675	-97.252	0.268	-0.071
-709.660	87.061	-0.270	-0.302
-708.645	39.938	-0.168	-0.152
-707.631	176.288	-0.080	-0.118
-706.616	-78.943	-0.386	0.133
-705.602	-78.701	-0.172	0.060
-704.587	800.000	-0.035	-0.124
-703.572	-94.933	-0.142	-0.039
-702.558	-62.308	-0.120	-0.051
-701.543	136.824	-0.096	0.126
-700.529	800.000	0.035	0.101
-699.514	624.238	0.086	0.218
-698.499	-65.050	0.332	0.135
-697.485	-143.534	-0.238	-0.023
-696.470	58.740	-0.309	-0.307
-695.456	-82.424	0.272	-0.089
-694.441	800.000	0.052	-0.191
-693.426	-128.863	-0.114	-0.016
-692.412	-20.294	-0.467	0.291
-691.397	-108.844	-0.246	-0.053
-690.383	-82.879	-0.113	0.037
-689.368	-200.000	-0.001	0.012
-688.354	-11.494	-0.117	-0.078
-687.339	-21.993	-0.107	-0.066
-686.324	59.155	-0.046	0.046
-685.310	-41.676	-0.094	-0.049
-684.295	-64.055	-0.184	-0.076
-683.281	-1.805	-0.219	-0.156
-682.266	800.000	0.051	-0.147
-681.251	58.378	0.144	-0.143
-680.237	800.000	-0.117	-0.405
-679.222	-109.310	-0.471	0.101
-678.208	-200.000	-0.016	-0.234
-677.193	61.491	0.046	0.047
-676.178	-200.000	0.006	-0.087
-675.164	-105.686	0.333	-0.076
-674.149	-47.837	-0.209	-0.102
-673.135	-43.589	0.157	-0.080
-672.120	-34.337	-0.052	0.029
-671.105	110.704	-0.214	0.260
-670.091	800.000	0.012	0.045
-669.076	-3.732	-0.219	-0.154
-668.062	61.694	-0.122	-0.122
-667.047	-26.169	-0.331	-0.197
-666.032	-106.224	-0.131	0.030
-665.018	185.821	-0.065	0.097
-664.003	-183.500	-0.166	-0.003
-662.989	-121.594	0.139	-0.023
-661.974	800.000	0.042	0.154
-660.959	-39.047	-0.105	0.056
-659.945	-103.157	-0.268	0.064
-658.930	264.097	0.166	0.291
-657.916	77.515	0.056	0.060
-656.901	-72.825	-0.245	-0.091
-655.886	173.219	-0.218	-0.318
-654.872	431.583	0.062	-0.135
-653.857	800.000	0.046	-0.151
-652.843	-200.000	-0.010	0.117
-651.828	-200.000	-0.015	0.218
-650.814	-81.315	-0.200	-0.067
-649.799	-131.105	0.149	0.020
-648.784	-123.161	-0.190	-0.031
-647.770	-91.231	-0.211	0.061
-646.755	-200.000	0.002	0.214
-645.741	24.341	-0.054	-0.045
-644.726	253.710	-0.237	0.409
-643.711	447.472	-0.166	-0.369
-642.697	-165.227	-0.309	0.014
-641.682	2.310	-0.092	0.068
-640.668	-90.289	0.166	-0.049
-639.653	800.000	0.029	0.113
-638.638	-150.140	0.184	-0.014
-637.624	301.174	0.093	-0.173
-636.609	111.565	-0.146	-0.177
-635.595	-46.642	0.236	-0.117
-634.580	-29.737	0.088	0.051
-633.565	172.525	0.122	0.177
-632.551	47.813	-0.109	-0.102
-631.536	-115.066	-0.189	-0.036
-630.522	-160.149	-0.200	0.011
-629.507	5.487	-0.219	-0.163
-628.492	-13.783	-0.436	-0.284
-627.478	-110.059	0.177	0.037
-626.463	-99.868	0.063	-0.016
-625.449	26.244	-0.171	0.144
-624.434	53.380	0.104	-0.101
-623.419	255.610	0.068	-0.118
-622.405	367.845	0.005	-0.010
-621.390	2.394	0.144	-0.105
-620.376	489.455	-0.018	-0.041
-619.361	-125.350	0.109	0.017
-618.346	-114.828	-0.099	-0.019
-617.332	-20.051	-0.131	-0.082
-616.317	800.000	0.058	-0.243
-615.303	305.825	0.113	0.212
-614.288	365.167	-0.053	-0.108
-613.273	28.966	0.036	-0.031
-612.259	497.039	-0.036	0.083
-611.244	274.446	-0.153	-0.273
-610.230	-82.392	-0.161	0.053
-609.215	-36.616	0.265	0.143
-608.201	-200.000	0.023	0.253
-607.186	-62.959	0.276	-0.115
-606.171	185.722	-0.112	-0.168
-605.157	-200.000	-0.030	-0.184
-604.142	-200.000	0.031	-0.340
-603.128	-115.211	-0.147	-0.028
-602.113	101.517	-0.104	-0.122
-601.098	593.709	-0.059	-0.148
-600.084	-200.000	0.018	0.190
-599.069	318.963	-0.123	-0.235
-598.055	-200.000	0.015	-0.103
-597.040	-200.000	0.036	-0.261
-596.025	26.395	0.228	-0.192
-595.011	800.000	-0.158	0.536
-593.996	-200.000	-0.004	-0.360
-592.982	35.545	-0.122	-0.108
-591.967	-200.000	0.002	-0.188
-590.952	180.748	0.142	0.210
-589.938	345.149	-0.155	-0.307
-588.923	153.429	-0.323	0.445
-587.909	408.186	0.122	0.260
-586.894	-69.423	0.080	-0.031
-585.879	668.453	0.042	0.111
-584.865	-107.312	-0.300	0.066
-583.850	-200.000	-0.008	0.263
-582.836	212.248	-0.177	-0.281
-581.821	-200.000	-0.004	0.156
-580.806	-83.502	-0.233	-0.075
-579.792	-0.807	-0.045	0.032
-578.777	-23.337	-0.190	-0.115
-577.763	-17.037	-0.119	-0.076
-576.748	-61.100	-0.056	0.024
-575.733	21.508	-0.153	-0.126
-574.719	-137.021	0.294	0.034
-573.704	-61.954	-0.445	0.187
-572.690	-15.063	-0.070	-0.045
-571.675	-31.863	0.030	-0.017
-570.661	97.331	0.233	0.269
-569.646	41.588	-0.198	0.181
-568.631	-200.000	0.222	0.001
-567.617	106.862	0.041	0.049
-566.602	-97.000	0.296	-0.078
-565.588	456.287	0.038	-0.084
-564.573	-87.061	-0.238	-0.073
-563.558	-56.975	-0.050	-0.022
-562.544	-200.000	-0.376	0.002
-561.529	77.375	-0.077	0.082
-560.515	-200.000	0.069	-0.450
-559.500	-200.000	0.012	-0.148
-558.485	-45.286	0.104	-0.052
-557.471	-200.000	-0.009	0.052
-556.456	559.279	-0.098	0.238
-555.442	-200.000	0.000	-0.086
-554.427	28.818	0.081	0.069
-553.412	-55.715	0.515	0.232
-552.398	71.337	-0.107	0.112
-551.383	410.759	0.029	0.062
-550.369	-68.291	0.265	-0.104
-549.354	-200.000	0.079	0.353
-548.339	800.000	-0.034	-0.145
-547.325	800.000	0.102	-0.420
-546.310	328.700	0.088	0.170
-545.296	-200.000	-0.003	-0.073
-544.281	-132.543	-0.409	-0.053
-543.266	280.735	0.196	0.353
-542.252	272.301	0.192	0.340
-541.237	133.444	0.127	-0.166
-540.223	-105.172	-0.164	-0.038
-539.208	-36.660	-0.165	-0.089
-538.193	-4.987	0.395	-0.273
-537.179	16.448	-0.139	-0.110
-536.164	257.512	0.092	0.158
-535.150	-85.396	0.218	-0.068
-534.135	-54.875	0.369	0.167
-533.121	58.116	0.109	0.107
-532.106	800.000	0.043	-0.169
-531.091	215.031	-0.035	0.056
-530.077	-200.000	0.033	-0.221
-529.062	775.190	0.069	-0.188
-528.048	-98.636	-0.151	0.039
-527.033	196.785	0.196	-0.300
-526.018	-90.354	-0.165	-0.048
-525.004	800.000	-0.039	0.150
-523.989	-116.140	-0.169	-0.032
-522.975	31.886	0.058	-0.050
-521.960	298.300	0.107	-0.198
-520.945	-200.000	0.044	0.310
-519.931	800.000	0.056	0.245
-518.916	-68.434	0.400	0.156
-517.902	-51.635	0.302	-0.142
-516.887	82.929	0.220	-0.240
-515.872	597.131	0.040	0.099
-514.858	-58.036	0.177	-0.077
-513.843	800.000	0.060	0.190
-512.829	-104.481	0.067	-0.016
-511.814	92.057	-0.119	0.134
-510.799	-81.996	0.230	0.075
-509.785	363.329	-0.099	0.199
-508.770	178.122	-0.232	-0.339
-507.756	800.000	-0.100	-0.301
-506.741	-32.485	-0.274	0.153
-505.726	-19.694	0.086	0.054
-504.712	-163.692	0.245	0.012
-503.697	-200.000	-0.071	-0.325
-502.683	63.691	0.141	-0.143
-501.668	-41.930	-0.277	-0.142
-500.653	-200.000	-0.016	-0.154
-499.639	800.000	0.110	0.341
-498.624	102.200	-0.096	-0.112
-497.610	800.000	-0.048	-0.134
-496.595	-65.136	-0.207	-0.084
-495.581	131.772	0.108	-0.139
-494.566	26.070	0.143	0.120
-493.551	-13.329	-0.045	-0.029
-492.537	-200.000	0.007	0.310
-491.522	-194.405	-0.084	-0.001
-490.508	454.258	-0.089	0.197
-489.493	-90.999	0.283	-0.081
-488.478	3.569	-0.122	-0.089
-487.464	-9.812	-0.265	-0.177
-486.449	-200.000	0.019	-0.134
-485.435	-18.214	0.148	0.093
-484.420	140.747	-0.051	0.068
-483.405	-54.113	-0.148	-0.068
-482.391	69.247	-0.269	0.278
-481.376	-25.312	-0.165	0.098
-480.362	-85.815	-0.120	-0.037
-479.347	-200.000	0.051	-0.321
-478.332	-200.000	-0.022	0.273
-477.318	-116.030	0.081	-0.015
-476.303	-109.797	-0.127	-0.027
-475.289	92.355	0.258	0.291
-474.274	-200.000	-0.010	-0.210
-473.259	-68.764	-0.138	0.053
-472.245	14.540	-0.085	-0.067
-471.230	149.739	0.152	0.207
-470.216	17.845	-0.091	0.072
-469.201	-16.915	0.279	-0.177
-468.186	10.130	0.096	-0.073
-467.172	-200.000	0.015	-0.272
-466.157	-40.492	0.529	0.275
-465.143	392.258	-0.170	0.354
-464.128	567.085	-0.043	-0.105
-463.113	-132.134	0.194	-0.025
-462.099	-200.000	-0.001	-0.080
-461.084	116.605	0.190	0.233
-460.070	517.901	-0.016	0.037
-459.055	800.000	-0.105	0.407
-458.040	-11.048	0.122	-0.080
-457.026	-47.312	0.171	0.084
-456.011	-200.000	0.036	0.340
-454.997	-85.559	-0.213	0.066
-453.982	28.884	-0.254	0.216
-452.968	-61.438	0.212	-0.089
-451.953	800.000	-0.079	0.227
-450.938	-36.019	0.030	0.016
-449.924	74.210	0.093	0.098
-448.909	-200.000	-0.033	-0.162
-447.895	-35.771	0.292	0.158
-446.880	-111.942	-0.246	0.050
-445.865	12.034	-0.301	0.232
-444.851	-68.792	-0.132	0.051
-443.836	618.830	-0.147	-0.370
-442.822	-200.000	-0.017	0.096
-441.807	217.077	-0.069	0.110
-440.792	-101.109	-0.204	0.050
-439.778	-33.340	0.255	-0.141
-438.763	800.000	-0.066	0.264
-437.749	-200.000	0.044	0.318
-436.734	600.328	-0.114	-0.284
-435.719	206.958	0.006	-0.009
-434.705	800.000	0.093	0.358
-433.690	113.592	0.194	0.235
-432.676	122.272	0.189	-0.237
-431.661	-200.000	-0.015	-0.142
-430.646	409.104	-0.080	0.170
-429.632	-157.950	0.178	-0.011
-428.617	800.000	-0.029	-0.121
-427.603	-76.697	-0.134	0.047
-426.588	118.283	-0.111	-0.137
-425.573	-200.000	-0.011	-0.120
-424.559	-34.382	-0.169	-0.093
-423.544	46.250	0.208	-0.193
-422.530	76.098	-0.102	0.108
-421.515	53.366	0.143	0.137
-420.500	37.483	0.191	-0.170
-419.486	-36.274	-0.263	0.142
-418.471	-9.733	-0.165	-0.110
-417.457	-104.646	-0.183	-0.042
-416.442	-82.300	0.024	0.008
-415.428	63.388	0.120	0.120
-414.413	156.072	-0.140	-0.193
-413.398	-16.617	0.160	-0.101
-412.384	-200.000	-0.006	0.308
-411.369	104.203	-0.243	-0.286
-410.355	-200.000	-0.027	0.294
-409.340	-163.008	0.113	-0.005
-408.325	368.136	0.150	0.302
-407.311	-123.741	-0.367	0.058
-406.296	-121.254	0.090	0.015
-405.282	249.549	-0.182	-0.308
-404.267	-40.530	0.294	-0.152
-403.252	800.000	-0.020	-0.079
-402.238	-200.000	-0.104	0.000
-401.223	-50.316	0.322	0.152
-400.209	115.658	0.273	-0.334
-399.194	800.000	-0.094	0.265
-398.179	-69.933	0.254	0.097
-397.165	800.000	-0.080	0.277
-396.150	79.408	0.279	-0.299
-395.136	-200.000	-0.018	-0.236
-394.121	-110.731	0.126	-0.026
-393.106	30.455	-0.113	0.097
-392.092	-116.384	-0.561	-0.104
-391.077	-75.622	0.124	0.044
-390.063	-200.000	-0.050	0.331
-389.048	800.000	-0.068	-0.286
-388.033	-88.303	0.154	0.046
-387.019	-18.305	0.217	0.136
-386.004	-200.000	-0.010	-0.070
-384.990	340.146	0.142	-0.277
-383.975	-200.000	0.011	0.226
-382.960	-200.000	0.051	-0.360
-381.946	21.689	-0.216	-0.176
-380.931	800.000	-0.095	0.384
-379.917	214.059	0.142	-0.224
-378.902	-200.000	0.018	0.113
-377.888	-60.169	0.180	-0.077
-376.873	-200.000	-0.048	-0.242
-375.858	-77.875	0.194	-0.067
-374.844	-158.190	-0.038	0.002
-373.829	-94.838	0.090	-0.024
-372.815	11.572	0.217	-0.166
-371.800	800.000	0.006	0.020
-370.785	705.309	0.104	-0.274
-369.771	-168.088	-0.238	0.009
-368.756	-200.000	0.004	-0.219
-367.742	-133.292	0.401	-0.050
-366.727	-92.467	0.306	0.086
-365.712	-105.142	0.269	0.061
-364.698	-158.530	-0.121	-0.007
-363.683	-40.733	-0.079	-0.041
-362.669	-113.210	-0.450	-0.088
-361.654	292.897	0.055	-0.100
-360.639	163.798	-0.060	-0.084
-359.625	201.571	0.080	0.123
-358.610	278.808	0.040	0.072
-357.596	-200.000	-0.028	0.403
-356.581	800.000	0.082	-0.246
-355.566	-68.935	0.389	0.150
-354.552	57.497	-0.086	-0.084
-353.537	-104.184	0.046	-0.011
-352.523	7.919	-0.173	0.129
-351.508	-103.879	0.199	-0.046
-350.493	-117.985	-0.142	0.025
-349.479	-152.721	0.256	-0.018
-348.464	0.874	-0.163	0.117
-347.450	-148.768	-0.041	0.003
-346.435	374.966	0.101	0.205
-345.420	115.908	0.024	0.029
-344.406	67.133	0.120	0.122
-343.391	104.334	-0.071	0.084
-342.377	-127.836	0.038	0.005
-341.362	-90.973	0.054	0.015
-340.348	38.872	0.074	0.066
-339.333	-200.000	-0.013	-0.185
-338.318	-75.741	-0.249	0.088
-337.304	59.298	0.120	-0.118
-336.289	59.032	0.073	-0.072
-335.275	800.000	0.064	-0.248
-334.260	-23.925	-0.112	0.067
-333.245	51.381	0.082	-0.078
-332.231	433.442	-0.125	0.271
-331.216	-139.639	0.083	-0.009
-330.202	-128.731	0.214	0.030
-329.187	199.569	0.118	-0.180
-328.172	324.982	0.087	0.166
-327.158	-200.000	0.007	-0.089
-326.143	369.269	-0.032	-0.065
-325.129	-186.302	0.138	0.002
-324.114	79.239	0.123	-0.131
-323.099	597.419	-0.121	-0.299
-322.085	427.959	-0.138	-0.296
-321.070	-200.000	-0.041	0.515
-320.056	169.447	-0.155	0.221
-319.041	-152.778	0.091	-0.006
-318.026	800.000	-0.113	-0.377
-317.012	-48.967	-0.134	0.064
-315.997	-200.000	0.006	0.176
-314.983	96.383	0.089	-0.101
-313.968	-200.000	-0.027	0.308
-312.953	800.000	0.037	0.116
-311.939	-110.325	-0.182	0.038
-310.924	50.706	0.225	-0.212
-309.910	144.656	-0.134	-0.178
-308.895	120.936	-0.251	0.312
-307.880	-156.610	-0.262	0.016
-306.866	-200.000	-0.051	-0.564
-305.851	-58.054	0.082	-0.036
-304.837	26.300	0.079	-0.066
-303.822	384.707	0.051	0.106
-302.807	-27.836	0.315	0.182
-301.793	652.856	-0.132	-0.337
-300.778	800.000	-0.071	-0.225
-299.764	186.955	-0.101	-0.149
-298.749	-13.540	-0.294	-0.190
-297.735	82.705	0.081	-0.087
-296.720	68.092	-0.050	0.051
-295.705	0.519	0.015	-0.010
-294.691	267.826	-0.137	-0.239
-293.676	-200.000	-0.037	-0.168
-292.662	-62.873	0.142	0.058
-291.647	312.753	-0.026	-0.050
-290.632	212.814	-0.009	-0.014
-289.618	-40.949	0.175	-0.090
-288.603	177.399	-0.164	0.237
-287.589	393.353	0.127	0.264
-286.574	85.849	-0.109	-0.119
-285.559	-126.118	0.085	-0.013
-284.545	-200.000	-0.012	-0.215
-283.530	800.000	0.021	-0.090
-282.516	273.698	0.229	0.402
-281.501	-75.008	-0.246	-0.088
-280.486	393.688	-0.163	0.337
-279.472	-200.000	0.013	-0.217
-278.457	-200.000	-0.007	0.304
-277.443	-69.951	-0.099	-0.037
-276.428	78.775	0.040	0.043
-275.413	681.921	-0.060	-0.156
-274.399	-63.026	-0.120	0.049
-273.384	-200.000	-0.074	-0.394
-272.370	104.196	-0.064	0.075
-271.355	111.993	0.159	0.191
-270.340	-200.000	-0.064	0.307
-269.326	-200.000	-0.062	0.465
-268.311	-200.000	-0.026	0.217
-267.297	428.449	0.127	0.273
-266.282	144.643	0.063	0.084
-265.267	54.816	0.163	-0.156
-264.253	319.677	0.108	0.204
-263.238	-54.596	0.052	0.024
-262.224	-157.663	-0.274	-0.016
-261.209	183.866	-0.152	-0.224
-260.195	-200.000	-0.039	-0.183
-259.180	-14.612	0.037	-0.024
-258.165	453.177	-0.050	-0.109
-257.151	-200.000	0.068	-0.325
-256.136	-101.911	-0.337	0.081
-255.122	-200.000	-0.031	0.159
-254.107	-31.834	-0.244	-0.136
-253.092	13.645	0.174	0.134
-252.078	93.263	0.198	-0.222
-251.063	-200.000	0.014	-0.131
-250.049	-1.871	0.373	-0.261
-249.034	-200.000	0.030	-0.166
-248.019	-200.000	-0.074	-0.396
-247.005	-44.321	0.396	-0.197
-245.990	-108.432	0.139	-0.030
-244.976	41.695	-0.224	0.202
-243.961	222.428	0.088	0.141
-242.946	-200.000	-0.003	-0.160
-241.932	156.804	-0.122	0.168
-240.917	219.416	-0.119	0.190
-239.903	800.000	-0.030	-0.084
-238.888	-43.888	0.126	0.063
-237.873	-143.195	0.087	0.008
-236.859	288.668	0.080	0.143
-235.844	150.668	-0.200	-0.270
-234.830	-104.966	0.263	0.060
-233.815	28.084	0.369	0.309
-232.800	-109.331	-0.126	-0.027
-231.786	800.000	0.095	0.270
-230.771	24.751	-0.204	0.168
-229.757	471.639	-0.159	0.355
-228.742	-39.937	0.177	0.092
-227.727	-200.000	0.013	0.220
-226.713	-200.000	-0.061	0.272
-225.698	-200.000	0.054	0.462
-224.684	-62.163	0.154	0.064
-223.669	708.894	-0.079	-0.209
-222.655	-189.012	0.298	0.004
-221.640	129.373	-0.180	-0.228
-220.625	-200.000	0.056	0.338
-219.611	-200.000	0.018	0.091
-218.596	51.695	-0.116	-0.109
-217.582	-113.085	0.080	0.016
-216.567	503.052	0.161	0.370
-215.552	-200.000	-0.064	0.455
-214.538	-66.959	0.014	0.005
-213.523	427.639	-0.022	-0.046
-212.509	800.000	-0.008	-0.033
-211.494	44.430	-0.258	-0.235
-210.479	-184.038	0.286	-0.005
-209.465	160.281	-0.232	-0.322
-208.450	627.413	0.078	0.196
-207.436	-200.000	0.024	-0.147
-206.421	526.097	-0.088	-0.207
-205.406	672.527	-0.137	0.352
-204.392	542.468	-0.007	-0.017
-203.377	800.000	0.052	-0.184
-202.363	800.000	0.064	0.266
-201.348	-133.918	-0.198	-0.024
-200.333	-11.793	-0.180	0.117
-199.319	-27.163	-0.157	-0.091
-198.304	-200.000	-0.005	-0.079
-197.290	800.000	0.098	-0.309
-196.275	-86.038	-0.515	-0.158
-195.260	-200.000	-0.058	0.280
-194.246	-117.708	0.208	-0.037
-193.231	-61.004	0.130	-0.054
-192.217	-134.465	0.099	0.012
-191.202	475.269	-0.128	-0.287
-190.187	-111.182	-0.194	0.039
-189.173	-42.178	-0.165	-0.084
-188.158	198.881	-0.191	-0.291
-187.144	-13.735	0.168	0.108
-186.129	-13.755	-0.166	-0.106
-185.114	-78.600	-0.055	0.019
-184.100	32.759	0.245	-0.210
-183.085	220.606	0.217	-0.345
-182.071	118.421	-0.048	-0.059
-181.056	-164.316	-0.110	-0.005
-180.042	275.808	-0.080	-0.141
-179.027	-200.000	-0.009	0.152
-178.012	8.932	0.132	-0.099
-176.998	-76.259	-0.178	0.062
-175.983	443.011	0.151	0.329
-174.969	-172.580	0.315	0.010
-173.954	522.119	0.146	0.339
-172.939	-200.000	-0.029	0.243
-171.925	-126.691	0.359	-0.053
-170.910	-36.826	-0.276	-0.147
-169.896	-42.822	0.425	-0.214
-168.881	-26.909	-0.177	0.102
-167.866	-200.000	0.015	-0.066
-166.852	800.000	0.022	-0.067
-165.837	95.649	-0.146	0.165
-164.823	303.821	-0.308	-0.565
-163.808	-176.549	0.163	-0.004
-162.793	-74.459	-0.044	0.016
-161.779	214.153	-0.123	0.193
-160.764	-29.393	0.189	0.107
-159.750	-175.763	-0.368	-0.010
-158.735	-12.276	-0.318	0.206
-157.720	53.836	-0.124	-0.118
-156.706	800.000	0.099	0.273
-155.691	-136.860	0.121	-0.014
-154.677	-189.233	-0.308	0.004
-153.662	176.028	0.147	0.211
-152.647	359.017	0.138	0.272
-151.633	-77.146	-0.163	0.056
-150.618	-59.883	0.322	0.136
-149.604	-150.772	-0.012	0.001
-148.589	-109.506	0.062	0.013
-147.574	104.732	0.177	0.206
-146.560	263.436	0.009	-0.015
-145.545	94.616	0.143	-0.161
-144.531	800.000	0.067	-0.277
-143.516	-107.181	0.080	0.017
-142.502	-200.000	-0.102	0.500
-141.487	56.806	-0.064	-0.062
-140.472	-14.632	-0.040	-0.026
-139.458	-44.172	-0.203	0.101
-138.443	800.000	0.040	0.148
-137.429	-200.000	-0.012	0.193
-136.414	52.097	0.079	0.075
-135.399	-153.663	-0.289	0.020
-134.385	-200.000	-0.039	0.173
-133.370	425.973	-0.104	0.223
-132.356	-137.520	-0.105	0.012
-131.341	-27.552	0.150	0.086
-130.326	10.789	-0.289	0.219
-129.312	483.099	0.127	0.284
-128.297	800.000	-0.090	-0.270
-127.283	800.000	-0.034	-0.105
-126.268	800.000	-0.098	0.316
-125.253	3.127	0.141	0.101
-124.239	-71.630	-0.144	-0.053
-123.224	84.719	-0.160	0.173
