DTS Sentinel unit serial number:	SN413079Multiplexer serial number:	ORYXHardware model number:	OX4-SRSoftware version number:	ORYX F/W v4.00 Oryx Data Collector v3.7.2.0data status	okinstallation	princeton_trtdifferential loss correction	single-endedforward channel	channel 4reverse channel	N/Adate	2019/09/12time	19:29:19forward acquisition time	15.00reverse acquisition time	0.00gamma	496.2192k internal	0.2309k external	0.2309temperature offset calibration	1.0148default loss term (dB/km)	0.3790temperature slope calibration	1.0000multiplexer offset coefficient	1.0000multiplexer slope coefficient	1.0000fibre end	0.00T internal ref (°C)	32.25T ext. ref 1 (°C)	3.23T ext. ref 2 (°C)	26.83length (m)	temperature (°C)	Stokes	anti-Stokes-747.200	-200.000	0.099	-0.451
-746.185	75.532	0.761	0.817
-745.171	333.077	0.380	0.746
-744.156	-164.245	-1.226	-0.057
-743.142	102.514	-0.509	0.604
-742.127	244.576	0.358	0.611
-741.112	-96.924	-0.953	-0.254
-740.098	-121.151	-0.596	0.101
-739.083	-200.000	0.169	1.285
-738.069	616.677	0.128	0.327
-737.054	157.461	-0.064	0.089
-736.039	-108.471	-0.751	0.164
-735.025	229.521	0.281	0.466
-734.010	293.168	-0.212	0.393
-732.996	-200.000	-0.062	-0.616
-731.981	624.366	-0.048	-0.123
-730.966	-178.806	0.616	-0.014
-729.952	-200.000	0.010	-0.231
-728.937	800.000	-0.201	-0.594
-727.923	86.964	-0.438	-0.491
-726.908	-38.211	-0.022	-0.012
-725.894	110.818	0.532	0.650
-724.879	213.996	0.366	-0.587
-723.864	-133.710	-0.815	0.103
-722.850	800.000	-0.373	-1.079
-721.835	769.982	-0.148	-0.410
-720.821	-53.446	-0.294	0.136
-719.806	203.077	-0.165	-0.258
-718.791	-10.859	0.489	-0.328
-717.777	-200.000	-0.052	0.754
-716.762	-34.860	-0.459	0.254
-715.748	-16.109	0.476	-0.307
-714.733	-85.918	0.672	-0.211
-713.718	-200.000	0.008	-0.404
-712.704	-62.781	0.145	0.061
-711.689	507.368	-0.090	-0.212
-710.675	-142.522	-0.688	0.069
-709.660	-114.833	-0.302	0.058
-708.645	277.287	0.363	0.656
-707.631	43.848	-0.538	-0.500
-706.616	9.314	0.357	0.274
-705.602	53.180	0.252	0.245
-704.587	-200.000	-0.034	-0.257
-703.572	223.920	0.037	0.060
-702.558	574.978	0.111	-0.274
-701.543	143.802	0.454	-0.613
-700.529	267.806	-0.246	-0.436
-699.514	674.454	0.312	-0.822
-698.499	-154.531	-0.738	-0.050
-697.485	169.944	-0.811	-1.175
-696.470	40.950	0.224	-0.205
-695.456	-19.599	-0.624	0.392
-694.441	32.548	0.542	0.475
-693.426	-60.716	-0.697	0.300
-692.412	-60.356	-0.406	-0.175
-691.397	246.161	-0.471	-0.805
-690.383	61.253	-0.256	0.257
-689.368	-174.884	-0.870	-0.025
-688.354	37.199	-0.539	-0.484
-687.339	374.290	-0.124	0.257
-686.324	-200.000	-0.021	0.285
-685.310	-200.000	-0.104	1.093
-684.295	173.287	0.303	0.443
-683.281	-88.810	0.759	-0.228
-682.266	-1.637	0.162	-0.116
-681.251	-44.740	-0.361	0.182
-680.237	-93.567	0.573	-0.161
-679.222	800.000	-0.166	-0.593
-678.208	-200.000	-0.024	-0.619
-677.193	324.390	-0.160	0.309
-676.178	800.000	-0.096	0.362
-675.164	-200.000	-0.014	-0.273
-674.149	-200.000	0.014	-0.452
-673.135	-107.559	-0.396	-0.088
-672.120	-23.878	-0.185	-0.112
-671.105	106.637	-0.343	-0.412
-670.091	-43.781	-0.186	-0.095
-669.076	-165.830	-0.250	0.011
-668.062	800.000	0.080	0.254
-667.047	800.000	-0.134	-0.407
-666.032	-200.000	0.038	0.414
-665.018	-136.250	0.116	0.014
-664.003	-41.398	-0.837	-0.437
-662.989	-115.097	-0.266	0.051
-661.974	8.305	0.649	0.494
-660.959	-71.119	-1.063	0.405
-659.945	-56.148	-0.238	-0.107
-658.930	-200.000	0.033	-0.159
-657.916	52.419	0.417	-0.403
-656.901	106.122	0.466	0.559
-655.886	332.340	-0.380	-0.743
-654.872	-48.367	-0.730	0.356
-653.857	281.669	-0.358	-0.650
-652.843	261.723	0.185	-0.325
-651.828	-200.000	0.013	-1.002
-650.814	800.000	0.148	-0.441
-649.799	-86.658	0.767	-0.238
-648.784	409.739	0.141	0.302
-647.770	414.460	-0.040	-0.087
-646.755	-41.940	-0.430	0.223
-645.741	-162.898	0.257	-0.013
-644.726	-0.228	0.441	0.318
-643.711	-200.000	-0.047	0.491
-642.697	313.308	0.344	0.655
-641.682	461.195	0.071	-0.160
-640.668	65.377	0.263	-0.270
-639.653	-80.330	0.644	0.218
-638.638	-77.873	0.325	0.114
-637.624	-120.765	-0.026	-0.004
-636.609	-40.937	0.871	-0.456
-635.595	240.351	-0.071	-0.120
-634.580	155.375	-0.469	0.653
-633.565	191.749	-0.402	0.612
-632.551	-10.704	0.327	0.218
-631.536	-23.853	-0.142	0.086
-630.522	179.424	-0.150	0.222
-629.507	800.000	0.104	0.333
-628.492	210.963	0.237	-0.377
-627.478	-85.659	-0.684	-0.215
-626.463	-153.045	1.302	-0.093
-625.449	-200.000	-0.123	-0.690
-624.434	-100.709	0.633	-0.158
-623.419	32.163	0.340	0.296
-622.405	-146.865	0.605	-0.053
-621.390	703.173	0.074	-0.197
-620.376	-30.493	-0.493	-0.283
-619.361	-200.000	0.132	-0.632
-618.346	800.000	0.205	0.646
-617.332	93.902	-0.545	0.625
-616.317	-59.087	0.301	-0.131
-615.303	-200.000	-0.027	0.256
-614.288	233.901	0.386	0.643
-613.273	-56.683	-0.054	-0.024
-612.259	151.920	0.116	0.160
-611.244	5.687	-0.626	-0.468
-610.230	-106.713	-0.640	0.144
-609.215	-128.203	-1.054	-0.152
-608.201	-200.000	-0.984	-0.004
-607.186	-9.745	-0.056	-0.037
-606.171	39.205	0.211	0.190
-605.157	43.370	-0.258	-0.238
-604.142	-200.000	0.064	-0.826
-603.128	100.772	0.318	-0.373
-602.113	-50.707	-0.807	-0.384
-601.098	-86.693	-0.588	0.182
-600.084	225.431	-0.414	0.678
-599.069	-59.579	-1.358	0.589
-598.055	-75.072	-0.379	0.137
-597.040	-13.692	0.678	-0.443
-596.025	-200.000	-0.046	-0.240
-595.011	-176.810	-0.245	-0.006
-593.996	571.691	-0.278	-0.685
-592.982	-99.467	0.761	0.193
-591.967	-200.000	-0.225	1.480
-590.952	-73.623	0.843	0.310
-589.938	-16.748	-0.481	-0.307
-588.923	58.150	-0.356	0.352
-587.909	47.499	-0.230	0.216
-586.894	-109.757	0.057	0.012
-585.879	-142.788	0.481	-0.047
-584.865	-200.000	-0.133	-1.463
-583.850	-88.979	-0.885	-0.265
-582.836	-136.816	0.538	0.063
-581.821	-107.010	-0.090	-0.020
-580.806	-178.043	0.641	-0.015
-579.792	-170.262	-0.597	0.021
-578.777	327.074	0.318	-0.615
-577.763	99.588	-0.292	0.341
-576.748	-64.892	-0.868	0.354
-575.733	30.177	0.114	-0.098
-574.719	-80.061	-0.416	-0.141
-573.704	61.735	-0.765	-0.768
-572.690	-148.854	-0.496	-0.041
-571.675	119.283	-0.568	-0.709
-570.661	-44.383	-0.660	0.334
-569.646	774.400	-0.077	0.213
-568.631	303.829	-0.660	1.236
-567.617	2.978	0.563	0.413
-566.602	249.812	-0.184	-0.315
-565.588	-78.775	-0.250	0.086
-564.573	-11.439	0.407	-0.270
-563.558	270.309	-0.111	0.196
-562.544	259.137	0.295	0.514
-561.529	166.554	-0.441	0.630
-560.515	297.249	-0.356	-0.659
-559.500	253.599	-0.340	-0.585
-558.485	800.000	0.158	0.685
-557.471	427.836	-0.117	0.255
-556.456	118.374	-0.318	-0.396
-555.442	-1.140	0.401	0.286
-554.427	-71.994	0.725	0.272
-553.412	-100.698	-0.644	-0.160
-552.398	-131.711	-0.874	-0.116
-551.383	-200.000	0.035	0.359
-550.369	254.205	-0.486	0.838
-549.354	131.612	-0.546	0.708
-548.339	2.399	0.137	0.100
-547.325	411.251	-0.307	0.657
-546.310	296.663	-0.074	-0.137
-545.296	800.000	-0.292	1.217
-544.281	-136.849	-0.515	-0.060
-543.266	-200.000	-0.120	0.669
-542.252	703.935	0.130	-0.345
-541.237	800.000	-0.166	-0.503
-540.223	-192.008	0.586	-0.006
-539.208	-200.000	0.053	0.359
-538.193	13.502	-0.312	0.244
-537.179	-200.000	-0.008	-0.695
-536.164	0.428	-0.314	-0.226
-535.150	800.000	0.328	1.107
-534.135	171.042	0.201	-0.291
-533.121	-133.965	1.025	-0.128
-532.106	91.234	-0.524	-0.593
-531.091	-124.570	1.338	-0.209
-530.077	-149.146	-0.641	-0.052
-529.062	503.250	0.342	-0.797
-528.048	230.344	-0.203	-0.334
-527.033	-93.526	-0.341	0.095
-526.018	-200.000	0.001	0.108
-525.004	585.998	-0.101	0.251
-523.989	-200.000	0.038	-0.617
-522.975	60.466	0.534	0.533
-521.960	-200.000	-0.108	-0.545
-520.945	800.000	-0.112	-0.440
-519.931	-44.296	0.473	-0.239
-518.916	626.044	-0.139	-0.353
-517.902	-63.015	-0.476	0.198
-516.887	-45.862	0.470	-0.234
-515.872	-115.271	0.954	-0.182
-514.858	-87.535	-0.520	0.158
-513.843	800.000	-0.231	-0.645
-512.829	49.164	0.366	-0.346
-511.814	62.621	-0.519	0.523
-510.799	492.894	-0.170	-0.391
-509.785	-112.291	-0.186	-0.038
-508.770	-104.142	0.164	0.039
-507.756	800.000	-0.219	0.653
-506.741	-47.875	0.497	-0.242
-505.726	246.071	0.252	-0.428
-504.712	-109.971	-0.400	0.084
-503.697	-52.983	0.919	-0.426
-502.683	530.212	0.253	0.602
-501.668	-29.428	-0.248	0.143
-500.653	-54.033	-0.138	-0.063
-499.639	-45.707	-0.899	-0.447
-498.624	100.554	-0.281	0.328
-497.610	-200.000	-0.071	0.593
-496.595	-30.837	-0.696	0.396
-495.581	85.772	0.073	-0.081
-494.566	112.256	-0.611	-0.743
-493.551	411.548	0.182	0.389
-492.537	-127.479	-0.639	0.093
-491.522	-161.985	0.663	0.034
-490.508	13.532	0.329	-0.257
-489.493	-122.397	0.363	0.059
-488.478	44.915	-0.498	0.461
-487.464	21.752	-0.834	0.683
-486.449	33.072	0.265	0.231
-485.435	-200.000	-0.054	0.315
-484.420	-55.553	0.752	-0.339
-483.405	-169.996	-0.438	-0.016
-482.391	19.936	0.235	-0.190
-481.376	-14.005	0.587	0.382
-480.362	800.000	0.319	-1.027
-479.347	-124.834	-0.253	-0.039
-478.332	-200.000	0.091	-0.430
-477.318	-60.267	-0.767	-0.329
-476.303	800.000	0.142	0.564
-475.289	311.954	-0.386	0.728
-474.274	73.846	0.433	0.457
-473.259	48.483	0.219	0.206
-472.245	-63.041	0.418	-0.173
-471.230	490.582	0.250	-0.575
-470.216	4.464	-0.472	0.348
-469.201	-200.000	-0.029	-0.231
-468.186	-83.594	0.504	-0.162
-467.172	-200.000	0.101	-0.947
-466.157	-21.083	-0.592	0.364
-465.143	469.462	0.239	0.539
-464.128	213.902	0.170	0.271
-463.113	318.220	-0.422	-0.804
-462.099	-200.000	-0.047	-0.215
-461.084	212.776	0.462	0.732
-460.070	-87.010	0.752	-0.230
-459.055	-47.063	-0.083	-0.041
-458.040	-76.631	-0.564	-0.199
-457.026	-200.000	0.012	0.069
-456.011	-198.784	-0.802	-0.004
-454.997	8.851	0.377	-0.286
-453.982	1.046	-0.697	-0.502
-452.968	26.873	-0.511	0.431
-451.953	-139.553	-0.478	-0.051
-450.938	-200.000	0.008	-0.346
-449.924	-154.102	-0.122	-0.008
-448.909	-200.000	-0.085	0.379
-447.895	12.033	0.085	-0.066
-446.880	800.000	0.260	0.844
-445.865	190.137	0.315	0.476
-444.851	139.540	0.552	0.730
-443.836	54.950	0.580	0.563
-442.822	-134.181	0.163	-0.020
-441.807	800.000	-0.060	-0.182
-440.792	-119.820	0.865	0.150
-439.778	205.106	0.025	-0.040
-438.763	-5.465	-0.445	-0.307
-437.749	-93.693	0.626	0.173
-436.734	-193.695	0.868	0.007
-435.719	133.921	0.236	-0.306
-434.705	-76.295	0.081	-0.029
-433.690	-200.000	0.049	1.149
-432.676	15.098	-0.456	-0.359
-431.661	-39.499	0.490	0.258
-430.646	800.000	0.217	0.865
-429.632	-111.487	-0.364	0.074
-428.617	69.991	0.531	0.550
-427.603	56.416	0.786	0.766
-426.588	63.049	0.431	-0.433
-425.573	-158.564	-0.480	-0.028
-424.559	-200.000	-0.016	0.666
-423.544	185.764	0.212	0.316
-422.530	144.207	0.139	-0.186
-421.515	85.144	0.427	-0.470
-420.500	-200.000	0.098	1.459
-419.486	233.306	-0.346	-0.572
-418.471	-141.868	0.654	-0.066
-417.457	22.976	-0.744	-0.612
-416.442	-200.000	-0.043	-0.604
-415.428	-200.000	-0.032	-0.429
-414.413	163.278	-0.308	-0.434
-413.398	-192.471	0.333	-0.003
-412.384	-121.741	0.475	-0.079
-411.369	273.419	0.321	0.569
-410.355	-200.000	0.026	0.192
-409.340	-96.070	-0.324	-0.086
-408.325	800.000	0.089	0.329
-407.311	-181.930	0.466	0.009
-406.296	-82.279	0.426	-0.139
-405.282	80.108	-0.439	-0.474
-404.267	-200.000	0.120	-1.206
-403.252	-152.230	-1.100	0.080
-402.238	-200.000	-0.125	-0.704
-401.223	-200.000	0.090	0.579
-400.209	-128.672	0.309	-0.044
-399.194	-7.618	-0.331	0.224
-398.179	473.413	0.211	0.476
-397.165	180.800	0.140	0.205
-396.150	292.038	0.265	0.484
-395.136	-1.793	-0.235	-0.166
-394.121	31.836	-0.535	0.462
-393.106	8.414	0.640	0.483
-392.092	108.720	0.199	-0.238
-391.077	-200.000	0.048	0.342
-390.063	-149.487	0.305	-0.024
-389.048	-119.256	-0.889	-0.155
-388.033	-159.364	0.705	-0.039
-387.019	-200.000	0.206	-1.174
-386.004	224.189	0.124	-0.201
-384.990	122.714	0.707	0.887
-383.975	-162.541	0.184	0.009
-382.960	414.701	-0.111	-0.238
-381.946	632.132	0.215	-0.547
-380.931	-176.233	0.816	-0.021
-379.917	-87.125	0.406	0.124
-378.902	32.095	-0.261	-0.226
-377.888	584.851	0.160	0.393
-376.873	-166.351	-0.599	-0.025
-375.858	800.000	-0.268	0.781
-374.844	137.749	0.209	0.274
-373.829	69.600	0.696	0.718
-372.815	-180.885	-0.622	0.013
-371.800	-149.531	0.626	-0.050
-370.785	314.424	0.028	-0.052
-369.771	-67.180	0.293	0.116
-368.756	176.922	-0.288	0.420
-367.742	-78.089	0.060	-0.021
-366.727	405.409	-0.137	-0.289
-365.712	-135.783	-0.322	0.038
-364.698	217.469	-0.214	0.342
-363.683	-66.137	-0.383	-0.153
-362.669	-20.777	0.815	-0.500
-361.654	-57.602	0.719	0.316
-360.639	-200.000	0.075	0.385
-359.625	-81.371	0.759	0.250
-358.610	465.073	-0.089	0.200
-357.596	-200.000	-0.016	-0.309
-356.581	735.633	-0.159	-0.425
-355.566	40.162	0.343	0.309
-354.552	-101.584	0.151	0.037
-353.537	-200.000	-0.084	-0.702
-352.523	-200.000	0.034	-0.203
-351.508	-200.000	0.019	0.343
-350.493	-200.000	0.155	-0.892
-349.479	40.875	0.206	-0.186
-348.464	-147.872	-0.328	-0.027
-347.450	-200.000	-0.038	0.623
-346.435	800.000	0.195	0.642
-345.420	15.651	0.415	-0.326
-344.406	494.025	0.051	0.118
-343.391	-96.507	0.098	-0.026
-342.377	-13.842	1.282	-0.829
-341.362	800.000	0.069	-0.268
-340.348	800.000	0.254	-0.760
-339.333	-194.305	-0.720	-0.006
-338.318	-117.741	0.790	0.142
-337.304	-52.828	0.515	-0.237
-336.289	-72.364	-0.252	-0.093
-335.275	-59.287	0.852	-0.367
-334.260	-200.000	-0.129	-0.601
-333.245	-200.000	0.043	0.288
-332.231	-98.072	-0.238	-0.061
-331.216	-200.000	-0.049	-0.600
-330.202	-139.540	0.906	0.097
-329.187	-154.735	-0.543	0.036
-328.172	-113.621	0.152	-0.030
-327.158	-200.000	-0.016	0.607
-326.143	16.345	0.225	-0.177
-325.129	-98.231	-0.728	-0.187
-324.114	-115.823	-0.540	-0.101
-323.099	165.999	-0.454	-0.642
-322.085	244.262	0.150	0.252
-321.070	9.779	-0.173	0.132
-320.056	-136.478	0.322	0.037
-319.041	-96.443	-0.435	-0.115
-318.026	464.545	0.112	0.250
-317.012	524.954	0.313	0.737
-315.997	29.888	0.548	-0.467
-314.983	-137.714	0.853	-0.096
-313.968	177.705	0.355	0.517
-312.953	23.452	0.374	0.307
-311.939	218.282	-0.279	0.444
-310.924	-117.735	-0.786	0.141
-309.910	800.000	0.152	0.479
-308.895	-200.000	-0.045	0.493
-307.880	721.603	0.196	0.522
-306.866	-200.000	0.080	-0.545
-305.851	561.258	0.136	-0.329
-304.837	-68.509	-0.494	0.191
-303.822	-97.267	-0.253	0.066
-302.807	123.143	-0.309	-0.387
-301.793	-122.231	-0.229	0.037
-300.778	276.617	-0.444	-0.787
-299.764	-28.817	0.572	0.328
-298.749	-102.769	0.768	-0.183
-297.735	93.321	-0.081	0.091
-296.720	583.090	-0.165	-0.403
-295.705	618.816	0.040	-0.101
-294.691	45.891	0.183	0.169
-293.676	-36.608	-0.819	0.439
-292.662	-125.124	0.347	0.053
-291.647	82.195	-0.177	0.192
-290.632	-91.164	-0.490	0.140
-289.618	-125.298	-0.674	0.103
-288.603	539.689	-0.170	0.403
-287.589	24.582	0.408	-0.337
-286.574	211.855	-0.353	0.556
-285.559	800.000	-0.214	-0.770
-284.545	-63.077	0.079	-0.033
-283.530	-93.995	0.398	-0.109
-282.516	228.620	0.326	0.530
-281.501	-14.755	-0.596	0.382
-280.486	-200.000	-0.149	0.845
-279.472	-85.001	-0.912	-0.285
-278.457	51.508	-0.286	-0.271
-277.443	331.944	-0.074	-0.142
-276.428	-4.424	-0.550	0.379
-275.413	-200.000	0.043	-0.317
-274.399	55.824	-0.366	0.354
-273.384	800.000	-0.016	0.058
-272.370	-133.694	-1.010	0.126
-271.355	155.303	0.276	-0.379
-270.340	-200.000	0.001	0.378
-269.326	163.516	0.242	-0.339
-268.311	-61.310	-0.753	0.316
-267.297	800.000	0.168	-0.539
-266.282	-125.917	0.631	-0.095
-265.267	3.821	0.675	0.492
-264.253	-200.000	-0.071	0.312
-263.238	81.297	-0.460	0.495
-262.224	-61.237	-1.039	-0.436
-261.209	2.183	-0.273	0.197
-260.195	-88.808	-0.273	0.081
-259.180	-10.487	-0.717	-0.474
-258.165	-40.417	0.406	0.210
-257.151	234.857	-0.453	-0.745
-256.136	228.476	-0.064	-0.104
-255.122	-123.585	0.812	-0.129
-254.107	-1.800	-0.234	-0.164
-253.092	127.539	-0.572	-0.724
-252.078	156.696	0.177	-0.244
-251.063	-18.062	0.541	0.338
-250.049	-50.898	0.440	-0.206
-249.034	-174.232	0.592	-0.017
-248.019	784.075	-0.199	-0.542
-247.005	-87.279	-0.854	-0.258
-245.990	-200.000	-0.119	-0.986
-244.976	34.925	-0.490	-0.427
-243.961	-94.073	-0.520	-0.142
-242.946	-84.701	-0.207	-0.065
-241.932	-57.090	0.669	0.294
-240.917	800.000	0.115	0.431
-239.903	86.603	-0.426	-0.469
-238.888	-93.788	0.519	-0.142
-237.873	169.739	-0.086	-0.122
-236.859	97.646	0.621	-0.711
-235.844	3.291	0.618	0.448
-234.830	-200.000	0.019	-0.124
-233.815	-76.330	-1.215	-0.426
-232.800	-200.000	-0.010	-0.337
-231.786	291.723	-0.219	0.397
-230.771	219.592	0.548	0.874
-229.757	16.945	0.230	0.181
-228.742	800.000	-0.302	1.094
-227.727	418.110	-0.287	-0.610
-226.713	-200.000	0.004	-0.222
-225.698	-200.000	0.026	-0.515
-224.684	-200.000	0.124	-0.616
-223.669	532.251	0.109	0.256
-222.655	-62.839	-0.425	0.175
-221.640	-155.068	0.516	-0.034
-220.625	-30.050	0.790	-0.447
-219.611	-32.442	0.361	0.200
-218.596	-200.000	0.016	-0.519
-217.582	28.866	-0.131	-0.111
-216.567	800.000	0.164	-0.621
-215.552	42.098	-0.647	-0.585
-214.538	316.993	-0.463	-0.871
-213.523	74.915	0.192	0.201
-212.509	-163.186	0.752	-0.036
-211.494	-200.000	-0.040	0.290
-210.479	202.538	-0.321	-0.494
-209.465	-78.702	0.211	0.072
-208.450	-100.014	0.165	-0.041
-207.436	38.585	0.109	-0.097
-206.421	800.000	0.228	-0.722
-205.406	800.000	0.216	-0.841
-204.392	-80.830	-0.480	-0.159
-203.377	731.992	0.284	0.755
-202.363	40.268	0.405	0.363
-201.348	-200.000	0.037	-1.255
-200.333	25.711	0.527	0.436
-199.319	-155.525	0.164	0.011
-198.304	-179.622	-0.458	0.010
-197.290	-107.774	0.229	-0.050
-196.275	16.173	0.165	-0.130
-195.260	-101.936	0.351	-0.084
-194.246	-126.079	-0.847	0.126
-193.231	-48.822	0.700	-0.334
-192.217	-94.496	-0.606	0.164
-191.202	-8.124	-0.331	0.222
-190.187	-200.000	0.013	-0.365
-189.173	164.398	0.193	-0.270
-188.158	143.061	0.388	-0.514
-187.144	-77.025	-0.208	-0.072
-186.129	318.334	-0.075	0.142
-185.114	79.019	0.369	-0.393
-184.100	-100.967	-0.254	0.062
-183.085	257.815	-0.405	0.693
-182.071	107.988	0.344	0.408
-181.056	-200.000	-0.052	0.471
-180.042	-90.010	0.592	0.172
-179.027	0.167	-0.238	0.169
-178.012	151.351	-0.461	-0.623
-176.998	-200.000	-0.025	-1.188
-175.983	165.975	0.273	-0.383
-174.969	-41.593	-0.296	-0.151
-173.954	21.145	-0.443	-0.357
-172.939	-15.524	0.522	0.331
-171.925	-135.654	0.256	-0.030
-170.910	464.824	-0.101	-0.224
-169.896	-14.986	-0.835	0.532
-168.881	800.000	-0.238	-0.982
-167.866	335.717	0.205	-0.396
-166.852	15.653	-0.357	0.279
-165.837	298.713	0.024	0.044
-164.823	367.934	0.148	-0.298
-163.808	372.503	0.417	-0.841
-162.793	-49.859	-0.444	-0.210
-161.779	43.632	0.148	0.135
-160.764	-36.467	0.409	0.219
-159.750	800.000	-0.127	0.440
-158.735	39.235	-0.295	0.263
-157.720	235.014	0.284	0.466
-156.706	-200.000	0.063	0.725
-155.691	-76.109	-0.226	-0.079
-154.677	30.014	0.835	0.707
-153.662	451.655	-0.403	0.884
-152.647	-200.000	-0.045	-0.336
-151.633	139.360	-0.463	0.604
-150.618	800.000	-0.138	-0.556
-149.604	364.293	-0.070	0.139
-148.589	293.271	0.189	-0.342
-147.574	-46.089	0.375	0.183
-146.560	38.185	-0.258	-0.228
-145.545	-65.509	-0.680	-0.271
-144.531	-47.144	-0.260	0.126
-143.516	-122.101	-1.248	0.203
-142.502	94.693	0.472	-0.533
-141.487	-79.973	0.534	-0.178
-140.472	189.738	0.352	-0.525
-139.458	-62.627	-0.136	0.056
-138.443	607.905	0.207	-0.512
-137.429	-179.848	-0.394	-0.008
-136.414	790.041	-0.210	0.571
-135.399	-200.000	-0.105	0.460
-134.385	780.219	0.440	1.195
-133.370	322.752	-0.072	0.137
-132.356	573.386	-0.465	1.124
-131.341	2.239	0.427	0.306
-130.326	-200.000	0.084	-0.773
-129.312	47.475	0.062	0.057
-128.297	-150.809	0.484	-0.036
-127.283	585.001	0.208	0.507
-126.268	-14.771	0.263	-0.167
-125.253	36.918	0.200	0.175
-124.239	-133.698	0.265	-0.033
-123.224	39.066	-0.435	0.386
-122.210	131.314	0.457	0.582
