DTS Sentinel unit serial number:	SN413079Multiplexer serial number:	ORYXHardware model number:	OX4-SRSoftware version number:	ORYX F/W v4.00 Oryx Data Collector v3.7.2.0data status	okinstallation	princeton_trtdifferential loss correction	single-endedforward channel	channel 4reverse channel	N/Adate	2019/09/14time	15:29:35forward acquisition time	60.00reverse acquisition time	0.00gamma	496.2192k internal	0.2291k external	0.2291temperature offset calibration	1.0144default loss term (dB/km)	0.3790temperature slope calibration	1.0000multiplexer offset coefficient	1.0000multiplexer slope coefficient	1.0000fibre end	0.00T internal ref (°C)	38.91T ext. ref 1 (°C)	5.15T ext. ref 2 (°C)	33.35length (m)	temperature (°C)	Stokes	anti-Stokes-747.200	-35.163	0.032	0.018
-746.185	-154.189	0.190	0.013
-745.171	-67.342	0.151	0.061
-744.156	-200.000	-0.012	-0.295
-743.142	-200.000	0.042	-0.323
-742.127	-7.922	-0.166	-0.114
-741.112	312.091	-0.069	-0.132
-740.098	86.065	-0.201	0.226
-739.083	449.308	-0.043	-0.097
-738.069	-200.000	0.036	0.257
-737.054	273.658	-0.090	-0.163
-736.039	310.355	0.071	0.135
-735.025	482.695	-0.084	0.195
-734.010	-60.485	-0.016	-0.007
-732.996	-2.257	-0.334	0.240
-731.981	-200.000	-0.038	0.234
-730.966	104.027	-0.057	-0.068
-729.952	20.835	0.226	-0.188
-728.937	800.000	0.052	-0.220
-727.923	459.573	-0.146	0.334
-726.908	239.331	-0.018	0.031
-725.894	-200.000	0.008	-0.202
-724.879	-125.592	0.183	0.028
-723.864	151.623	-0.111	-0.155
-722.850	-200.000	0.028	0.386
-721.835	-22.740	0.221	0.136
-720.821	705.367	0.034	-0.092
-719.806	800.000	-0.125	-0.420
-718.791	-86.393	0.150	-0.047
-717.777	-80.258	0.320	-0.109
-716.762	551.082	-0.056	-0.137
-715.748	-73.756	-0.137	0.051
-714.733	-100.192	-0.036	-0.009
-713.718	-19.860	-0.372	-0.235
-712.704	-100.794	0.100	-0.025
-711.689	5.252	-0.185	0.140
-710.675	50.157	0.140	-0.135
-709.660	40.288	-0.082	0.075
-708.645	-146.650	0.199	-0.018
-707.631	-184.517	0.506	0.008
-706.616	192.884	0.086	-0.134
-705.602	5.935	-0.278	0.211
-704.587	-18.308	0.188	0.120
-703.572	-112.961	-0.292	0.059
-702.558	-93.951	-0.121	0.034
-701.543	-93.673	0.369	-0.104
-700.529	-76.331	0.195	-0.070
-699.514	71.407	0.086	-0.091
-698.499	-55.298	0.033	0.015
-697.485	-159.859	-0.118	0.007
-696.470	-73.558	-0.144	0.054
-695.456	-46.173	0.265	0.133
-694.441	-155.169	-0.342	0.023
-693.426	-128.934	0.060	-0.009
-692.412	-82.216	0.041	-0.014
-691.397	162.532	0.042	0.060
-690.383	55.790	-0.080	-0.079
-689.368	-137.701	0.172	-0.020
-688.354	800.000	-0.036	0.117
-687.339	-87.384	0.427	0.132
-686.324	-35.944	-0.268	-0.148
-685.310	-60.580	-0.231	0.100
-684.295	-76.953	0.187	0.067
-683.281	40.579	-0.161	0.148
-682.266	-128.042	-0.070	0.010
-681.251	-45.705	-0.197	0.100
-680.237	66.481	0.067	0.069
-679.222	207.718	0.126	0.201
-678.208	-135.347	-0.210	-0.026
-677.193	-105.500	0.188	-0.044
-676.178	61.658	-0.033	0.033
-675.164	-111.390	0.201	0.042
-674.149	-84.875	0.263	-0.084
-673.135	800.000	0.113	0.400
-672.120	-26.042	0.165	0.099
-671.105	-26.345	0.117	-0.070
-670.091	800.000	-0.078	-0.313
-669.076	50.992	-0.218	-0.211
-668.062	23.374	0.243	-0.204
-667.047	-200.000	-0.024	-0.275
-666.032	-200.000	0.020	-0.274
-665.018	-85.815	-0.103	-0.033
-664.003	66.222	0.143	0.149
-662.989	-108.887	0.049	0.011
-661.974	-94.716	0.113	-0.031
-660.959	-143.991	-0.330	-0.032
-659.945	-45.539	0.445	-0.225
-658.930	291.053	0.143	-0.265
-657.916	432.358	-0.109	-0.241
-656.901	-60.276	-0.095	0.041
-655.886	-24.062	0.184	0.112
-654.872	-117.037	0.173	0.032
-653.857	-200.000	0.036	0.205
-652.843	695.166	0.054	-0.145
-651.828	-43.153	0.368	-0.190
-650.814	-51.342	-0.241	-0.115
-649.799	85.890	-0.082	-0.092
-648.784	531.386	0.048	0.116
-647.770	800.000	0.024	-0.105
-646.755	-59.182	-0.368	-0.162
-645.741	119.979	0.346	0.438
-644.726	-60.682	-0.477	0.206
-643.711	168.701	-0.087	0.126
-642.697	-74.729	-0.115	0.042
-641.682	35.145	-0.137	-0.122
-640.668	-200.000	-0.008	-0.109
-639.653	800.000	-0.013	0.039
-638.638	262.272	0.165	0.292
-637.624	-200.000	0.008	0.122
-636.609	-57.104	-0.193	0.087
-635.595	153.996	0.100	-0.139
-634.580	800.000	-0.084	0.256
-633.565	-33.609	0.135	-0.076
-632.551	552.474	-0.072	0.177
-631.536	-104.645	-0.385	0.090
-630.522	-56.387	-0.217	0.098
-629.507	-200.000	0.013	-0.093
-628.492	54.397	-0.181	-0.178
-627.478	-124.879	0.246	-0.039
-626.463	-50.293	-0.321	0.155
-625.449	177.621	-0.154	-0.228
-624.434	161.481	-0.159	-0.227
-623.419	47.586	-0.195	-0.185
-622.405	-200.000	-0.011	0.194
-621.390	1.476	-0.136	0.100
-620.376	215.402	-0.103	0.167
-619.361	-109.883	0.210	-0.045
-618.346	-130.863	-0.180	-0.025
-617.332	157.345	-0.023	-0.033
-616.317	-200.000	0.020	-0.199
-615.303	800.000	-0.099	-0.406
-614.288	-200.000	-0.051	-0.306
-613.273	-167.693	-0.198	0.008
-612.259	12.659	-0.104	-0.082
-611.244	-37.614	0.232	0.126
-610.230	73.780	-0.052	-0.055
-609.215	39.954	0.299	0.274
-608.201	439.781	-0.055	-0.122
-607.186	493.404	-0.090	-0.209
-606.171	800.000	-0.136	-0.420
-605.157	-10.406	0.031	0.021
-604.142	55.085	-0.094	0.092
-603.128	-32.497	-0.198	-0.112
-602.113	-73.712	-0.337	0.125
-601.098	-25.156	-0.137	-0.082
-600.084	-31.443	-0.017	-0.010
-599.069	-78.873	-0.150	-0.052
-598.055	-130.071	-0.306	0.043
-597.040	-200.000	0.003	-0.105
-596.025	800.000	0.097	0.371
-595.011	251.517	0.026	0.046
-593.996	51.081	0.260	-0.251
-592.982	311.157	0.047	-0.090
-591.967	134.399	-0.185	0.244
-590.952	-46.697	-0.049	-0.025
-589.938	800.000	0.097	-0.286
-588.923	-78.161	0.201	-0.070
-587.909	353.785	-0.157	-0.318
-586.894	-200.000	-0.033	-0.347
-585.879	800.000	-0.171	-0.529
-584.865	70.875	-0.093	0.098
-583.850	-46.633	0.333	0.166
-582.836	800.000	0.061	-0.184
-581.821	-44.622	0.309	-0.157
-580.806	-15.797	-0.172	-0.112
-579.792	-150.769	-0.266	-0.021
-578.777	67.027	0.075	-0.077
-577.763	12.025	0.176	0.138
-576.748	-200.000	0.007	0.176
-575.733	80.918	-0.041	-0.045
-574.719	217.556	-0.214	-0.348
-573.704	-112.757	-0.079	-0.016
-572.690	-200.000	-0.008	0.094
-571.675	622.603	0.109	-0.280
-570.661	181.490	0.064	0.096
-569.646	153.259	-0.058	0.081
-568.631	-200.000	0.014	0.334
-567.617	59.947	-0.123	-0.123
-566.602	55.462	-0.086	-0.084
-565.588	-137.962	0.195	-0.022
-564.573	-200.000	0.016	-0.086
-563.558	30.235	-0.154	0.134
-562.544	-81.534	0.607	0.203
-561.529	427.060	-0.059	-0.130
-560.515	800.000	-0.074	0.261
-559.500	1.581	0.165	0.121
-558.485	-142.944	0.188	-0.019
-557.471	305.839	0.153	-0.289
-556.456	-200.000	0.005	0.033
-555.442	-200.000	0.024	-0.397
-554.427	-192.568	-0.333	-0.003
-553.412	63.869	0.120	0.123
-552.398	-25.837	-0.130	0.078
-551.383	468.767	-0.088	-0.201
-550.369	800.000	0.009	-0.030
-549.354	683.686	-0.041	0.109
-548.339	705.053	0.100	-0.268
-547.325	-59.816	-0.264	-0.115
-546.310	800.000	0.128	-0.378
-545.296	-113.538	-0.261	0.052
-544.281	-13.667	0.230	-0.152
-543.266	-200.000	-0.016	0.122
-542.252	-134.753	0.078	0.010
-541.237	44.798	-0.419	-0.391
-540.223	125.116	-0.148	-0.190
-539.208	-40.437	0.286	-0.151
-538.193	-200.000	0.006	-0.062
-537.179	770.211	-0.117	0.324
-536.164	216.956	-0.024	-0.038
-535.150	-117.774	0.091	0.017
-534.135	-200.000	0.008	0.072
-533.121	127.111	-0.135	0.174
-532.106	-200.000	0.012	0.162
-531.091	47.073	-0.127	-0.120
-530.077	-134.692	-0.232	0.029
-529.062	-161.846	0.385	0.020
-528.048	-200.000	-0.005	-0.179
-527.033	214.488	0.109	-0.175
-526.018	258.127	0.126	-0.220
-525.004	-117.626	0.380	0.070
-523.989	-200.000	-0.018	0.125
-522.975	800.000	-0.013	-0.039
-521.960	112.121	0.146	-0.179
-520.945	65.154	-0.078	-0.080
-519.931	43.416	-0.293	-0.272
-518.916	800.000	-0.054	-0.191
-517.902	-164.804	0.183	-0.008
-516.887	-8.685	0.140	-0.096
-515.872	800.000	0.020	-0.063
-514.858	-157.020	0.162	0.010
-513.843	-46.226	-0.148	0.074
-512.829	-126.305	-0.180	-0.027
-511.814	-11.788	0.117	0.078
-510.799	-200.000	0.014	-0.135
-509.785	-200.000	-0.122	0.000
-508.770	24.212	0.083	0.070
-507.756	-175.638	-0.152	-0.004
-506.741	-200.000	0.065	0.364
-505.726	74.079	-0.118	0.126
-504.712	106.383	0.189	-0.227
-503.697	-144.396	0.184	0.017
-502.683	192.549	0.148	-0.226
-501.668	523.589	-0.101	0.242
-500.653	-152.502	0.299	0.022
-499.639	800.000	-0.091	0.388
-498.624	150.103	0.132	0.182
-497.610	292.809	-0.033	-0.061
-496.595	237.381	-0.112	-0.189
-495.581	733.664	0.085	0.231
-494.566	227.039	0.086	0.142
-493.551	-9.104	0.094	0.063
-492.537	-68.647	0.235	0.092
-491.522	175.267	0.099	0.146
-490.508	27.240	0.233	0.199
-489.493	-82.910	-0.214	0.070
-488.478	-117.050	0.187	-0.035
-487.464	-47.101	-0.163	-0.080
-486.449	-62.057	-0.081	-0.034
-485.435	-200.000	-0.021	-0.193
-484.420	41.373	-0.045	0.041
-483.405	-200.000	-0.012	0.085
-482.391	234.708	-0.108	-0.180
-481.376	537.477	-0.201	-0.483
-480.362	-32.918	-0.226	-0.127
-479.347	-200.000	0.027	-0.544
-478.332	411.608	0.178	0.382
-477.318	127.004	-0.092	0.118
-476.303	800.000	-0.040	-0.145
-475.289	-167.665	0.088	0.004
-474.274	146.450	0.181	0.247
-473.259	62.693	-0.132	0.134
-472.245	-200.000	-0.001	0.219
-471.230	-129.938	-0.112	-0.016
-470.216	-200.000	-0.022	0.229
-469.201	-44.125	-0.127	0.065
-468.186	-6.925	0.195	-0.134
-467.172	202.367	-0.125	0.195
-466.157	-200.000	-0.009	0.042
-465.143	786.862	-0.051	0.142
-464.128	-17.376	0.397	0.253
-463.113	-195.855	0.305	0.002
-462.099	-109.410	-0.113	0.024
-461.084	756.833	0.018	0.049
-460.070	-134.426	-0.470	0.058
-459.055	130.398	-0.045	-0.058
-458.040	-63.991	-0.133	0.055
-457.026	-59.374	-0.247	-0.108
-456.011	-2.622	-0.274	0.194
-454.997	-200.000	-0.007	-0.087
-453.982	800.000	-0.089	0.329
-452.968	317.073	0.133	0.255
-451.953	-21.270	0.068	0.042
-450.938	190.662	-0.105	-0.160
-449.924	119.477	0.168	-0.210
-448.909	220.015	-0.055	-0.089
-447.895	-200.000	-0.308	0.000
-446.880	-149.587	0.154	0.012
-445.865	256.953	0.101	-0.176
-444.851	44.069	-0.073	0.067
-443.836	148.869	-0.143	0.196
-442.822	58.224	-0.166	-0.165
-441.807	33.447	0.162	0.143
-440.792	399.043	-0.021	-0.044
-439.778	213.756	0.182	-0.291
-438.763	-12.666	-0.237	-0.157
-437.749	-200.000	-0.016	0.150
-436.734	-181.789	0.131	-0.003
-435.719	354.350	0.057	-0.116
-434.705	278.158	0.108	-0.195
-433.690	800.000	0.104	0.302
-432.676	-121.442	-0.196	0.033
-431.661	196.920	0.204	-0.315
-430.646	-183.067	0.323	-0.006
-429.632	46.186	-0.102	-0.095
-428.617	210.592	0.062	0.098
-427.603	-1.252	0.203	0.145
-426.588	49.111	-0.235	-0.224
-425.573	270.737	-0.170	-0.303
-424.559	162.309	-0.122	-0.173
-423.544	-9.674	0.175	0.118
-422.530	-85.292	-0.176	-0.056
-421.515	-40.645	0.198	-0.104
-420.500	387.159	0.167	-0.349
-419.486	162.164	-0.024	-0.035
-418.471	239.261	-0.154	0.259
-417.457	162.629	-0.043	0.061
-416.442	379.473	-0.024	0.049
-415.428	276.172	-0.191	0.342
-414.413	255.968	0.205	-0.356
-413.398	214.749	-0.055	-0.088
-412.384	-200.000	-0.001	-0.025
-411.369	-200.000	0.008	-0.367
-410.355	470.460	0.109	0.248
-409.340	-147.150	0.133	0.012
-408.325	11.324	-0.219	-0.170
-407.311	-121.221	-0.074	-0.013
-406.296	-2.673	-0.201	-0.142
-405.282	22.853	-0.105	0.087
-404.267	-154.047	0.458	0.031
-403.252	19.775	0.278	-0.226
-402.238	-55.740	-0.227	-0.103
-401.223	87.285	-0.109	0.121
-400.209	-115.379	-0.015	0.003
-399.194	93.272	0.176	0.201
-398.179	-7.588	0.109	0.074
-397.165	165.964	-0.110	0.157
-396.150	-33.254	0.194	0.108
-395.136	-200.000	0.004	-0.348
-394.121	92.669	-0.101	-0.115
-393.106	498.532	-0.039	0.090
-392.092	800.000	0.050	0.202
-391.077	-200.000	-0.004	-0.074
-390.063	-152.918	-0.081	-0.006
-389.048	-200.000	-0.012	0.076
-388.033	331.588	0.033	0.064
-387.019	-127.656	0.188	0.028
-386.004	145.121	0.047	-0.063
-384.990	38.221	0.259	0.233
-383.975	-167.774	0.306	-0.012
-382.960	-82.847	0.249	0.081
-381.946	-200.000	0.011	0.357
-380.931	23.629	-0.076	0.063
-379.917	-4.243	-0.128	0.090
-378.902	800.000	-0.027	0.095
-377.888	-200.000	-0.002	0.062
-376.873	5.139	-0.037	-0.028
-375.858	-200.000	0.052	0.255
-374.844	-200.000	0.035	-0.207
-373.829	320.238	-0.065	0.124
-372.815	-181.106	0.152	0.003
-371.800	-4.435	0.136	0.095
-370.785	800.000	0.008	-0.029
-369.771	298.985	0.151	0.281
-368.756	-93.817	0.147	-0.041
-367.742	-46.944	0.194	-0.096
-366.727	800.000	-0.036	-0.111
-365.712	55.477	-0.052	-0.050
-364.698	-200.000	0.026	-0.190
-363.683	164.894	-0.200	0.284
-362.669	800.000	0.088	-0.262
-361.654	-112.730	-0.089	-0.018
-360.639	-200.000	-0.022	-0.202
-359.625	200.990	-0.146	0.226
-358.610	19.898	-0.095	0.077
-357.596	245.303	0.044	-0.074
-356.581	124.177	-0.157	-0.199
-355.566	176.868	-0.148	0.218
-354.552	172.508	-0.161	0.234
-353.537	42.344	0.359	0.329
-352.523	-200.000	0.017	0.132
-351.508	36.698	-0.253	-0.225
-350.493	-101.693	0.486	0.119
-349.479	800.000	-0.062	0.204
-348.464	-84.492	0.122	-0.039
-347.450	3.012	0.095	-0.069
-346.435	43.566	-0.175	0.162
-345.420	-90.267	-0.045	-0.013
-344.406	-200.000	0.014	0.209
-343.391	330.773	-0.053	0.103
-342.377	-200.000	-0.003	0.234
-341.362	800.000	0.080	0.313
-340.348	303.319	-0.112	-0.209
-339.333	800.000	0.017	0.060
-338.318	-48.888	-0.266	0.129
-337.304	-46.239	-0.061	0.030
-336.289	-14.496	0.250	0.162
-335.275	-6.421	-0.104	-0.071
-334.260	240.714	0.076	-0.128
-333.245	-115.258	-0.137	-0.026
-332.231	-78.302	-0.069	-0.024
-331.216	800.000	0.037	-0.107
-330.202	800.000	0.036	0.110
-329.187	-57.856	0.197	0.087
-328.172	-200.000	0.000	-0.051
-327.158	128.832	-0.022	0.028
-326.143	177.784	0.138	0.203
-325.129	55.834	-0.110	0.108
-324.114	-200.000	0.020	-0.090
-323.099	10.946	0.289	-0.222
-322.085	-61.569	0.310	0.131
-321.070	383.451	0.106	-0.219
-320.056	-200.000	0.023	-0.124
-319.041	-75.120	0.310	0.112
-318.026	-191.013	-0.376	0.004
-317.012	682.159	0.090	-0.236
-315.997	-200.000	-0.073	0.367
-314.983	-18.049	0.083	-0.052
-313.968	3.901	-0.075	0.055
-312.953	157.562	-0.046	0.064
-311.939	242.510	0.119	0.201
-310.924	-61.844	0.260	-0.110
-309.910	103.426	-0.102	0.121
-308.895	98.621	0.132	-0.153
-307.880	-42.325	-0.318	0.163
-306.866	-68.917	-0.236	0.092
-305.851	261.632	0.189	-0.329
-304.837	142.122	-0.134	0.180
-303.822	538.826	-0.062	-0.148
-302.807	727.390	-0.122	-0.328
-301.793	53.199	-0.108	0.104
-300.778	-200.000	-0.003	0.098
-299.764	800.000	0.068	0.200
-298.749	237.166	0.124	-0.206
-297.735	395.371	-0.131	-0.274
-296.720	81.936	-0.181	0.197
-295.705	14.240	0.088	-0.069
-294.691	-60.031	-0.063	-0.027
-293.676	-200.000	-0.046	0.404
-292.662	0.663	0.176	-0.127
-291.647	14.351	0.135	0.106
-290.632	561.018	-0.011	0.028
-289.618	-189.372	0.146	0.002
-288.603	369.280	-0.080	0.164
-287.589	-151.120	-0.306	0.023
-286.574	103.367	0.305	0.360
-285.559	-103.855	-0.201	-0.047
-284.545	95.740	-0.113	-0.130
-283.530	-119.483	-0.216	-0.038
-282.516	-132.451	-0.285	-0.037
-281.501	-135.431	-0.134	0.016
-280.486	-81.737	0.197	-0.065
-279.472	68.967	0.041	-0.043
-278.457	85.127	-0.163	-0.180
-277.443	-200.000	-0.035	0.265
-276.428	-200.000	-0.092	0.424
-275.413	-16.667	0.137	-0.087
-274.399	-81.000	-0.082	0.027
-273.384	268.571	-0.079	0.139
-272.370	-200.000	-0.018	0.103
-271.355	-200.000	0.002	0.015
-270.340	62.563	-0.331	-0.333
-269.326	-31.573	0.075	0.042
-268.311	446.028	0.073	-0.161
-267.297	-50.314	-0.120	0.057
-266.282	-177.661	-0.244	-0.006
-265.267	464.164	0.097	-0.218
-264.253	-200.000	0.023	0.294
-263.238	-178.984	-0.154	0.003
-262.224	153.808	-0.178	-0.245
-261.209	-100.156	0.257	0.064
-260.195	-128.144	0.153	-0.022
-259.180	-139.880	0.389	0.041
-258.165	12.327	0.211	0.163
-257.151	-159.764	-0.339	-0.019
-256.136	-200.000	-0.025	-0.272
-255.122	-200.000	0.063	0.301
-254.107	227.291	-0.127	0.207
-253.092	-200.000	0.000	-0.425
-252.078	39.858	-0.093	0.084
-251.063	-2.586	0.175	-0.123
-250.049	-200.000	-0.003	0.154
-249.034	362.141	-0.178	-0.359
-248.019	197.430	0.172	-0.263
-247.005	-200.000	0.016	-0.274
-245.990	-200.000	0.024	-0.170
-244.976	-53.178	0.154	0.071
-243.961	2.879	-0.262	0.191
-242.946	374.482	-0.033	0.068
-241.932	-26.470	-0.140	0.083
-240.917	444.009	-0.120	0.264
-239.903	-121.105	0.141	-0.024
-238.888	-200.000	-0.013	0.480
-237.873	-110.172	0.255	-0.053
-236.859	-118.913	0.325	-0.057
-235.844	67.938	0.101	0.104
-234.830	293.733	0.160	0.292
-233.815	-200.000	-0.023	-0.252
-232.800	50.581	-0.092	0.087
-231.786	176.600	0.117	-0.171
-230.771	120.772	-0.086	0.108
-229.757	-146.945	-0.160	0.014
-228.742	800.000	0.057	-0.218
-227.727	127.067	0.138	0.176
-226.713	73.629	-0.176	-0.185
-225.698	15.448	-0.173	0.136
-224.684	239.185	0.208	0.347
-223.669	-33.723	-0.113	0.063
-222.655	-93.227	0.295	0.082
-221.640	800.000	-0.058	0.208
-220.625	-96.505	-0.438	0.116
-219.611	55.405	0.176	0.171
-218.596	-120.789	-0.170	-0.029
-217.582	-120.325	-0.017	0.003
-216.567	-63.432	-0.168	0.069
-215.552	127.027	-0.072	-0.092
-214.538	-200.000	0.017	0.278
-213.523	800.000	0.078	0.252
-212.509	71.575	-0.077	-0.080
-211.494	36.728	0.233	0.206
-210.479	40.292	0.086	0.078
-209.465	447.881	-0.065	-0.143
-208.450	-200.000	0.043	0.211
-207.436	45.667	-0.184	-0.170
-206.421	17.787	-0.333	-0.266
-205.406	293.105	-0.142	-0.261
-204.392	-200.000	-0.018	0.128
-203.377	-133.353	0.322	0.041
-202.363	-130.023	0.210	-0.029
-201.348	-200.000	-0.014	0.136
-200.333	552.103	-0.157	-0.377
-199.319	611.941	0.123	-0.309
-198.304	175.490	0.047	-0.069
-197.290	-200.000	0.158	0.000
-196.275	-51.170	0.189	-0.089
-195.260	-200.000	0.027	0.321
-194.246	-200.000	0.154	0.000
-193.231	267.544	0.133	-0.234
-192.217	-9.063	0.290	0.195
-191.202	115.203	0.094	0.115
-190.187	-108.456	-0.185	-0.040
-189.173	-102.792	0.055	-0.013
-188.158	1.231	0.129	0.093
-187.144	-200.000	-0.023	0.467
-186.129	27.061	0.045	-0.038
-185.114	-82.483	0.274	0.089
-184.100	51.463	0.122	0.116
-183.085	-172.415	-0.248	-0.008
-182.071	-88.541	0.257	-0.077
-181.056	40.588	-0.131	-0.118
-180.042	-120.322	0.106	-0.018
-179.027	800.000	-0.083	0.265
-178.012	800.000	0.056	-0.208
-176.998	-151.101	-0.223	-0.017
-175.983	-200.000	0.091	-0.408
-174.969	47.056	0.101	-0.094
-173.954	12.801	0.208	0.161
-172.939	68.739	0.129	0.133
-171.925	-74.743	-0.143	-0.052
-170.910	9.573	-0.157	-0.119
-169.896	800.000	-0.093	0.311
-168.881	-137.092	0.436	-0.050
-167.866	800.000	-0.099	-0.388
-166.852	27.590	0.264	0.223
-165.837	-200.000	-0.043	-0.365
-164.823	463.030	0.048	-0.107
-163.808	-48.105	0.181	0.087
-162.793	65.633	-0.039	0.040
-161.779	-2.403	0.309	-0.217
-160.764	-6.812	-0.243	0.165
-159.750	-32.146	-0.250	-0.140
-158.735	800.000	0.041	-0.148
-157.720	800.000	-0.049	0.196
-156.706	-97.901	0.257	-0.066
-155.691	73.257	-0.336	-0.352
-154.677	32.713	0.094	-0.082
-153.662	-72.820	0.108	-0.040
-152.647	359.428	0.099	0.198
-151.633	-144.364	0.162	0.015
-150.618	800.000	0.071	-0.217
-149.604	800.000	-0.035	-0.118
-148.589	148.202	-0.099	-0.134
-147.574	794.603	-0.040	0.111
-146.560	-200.000	-0.034	0.156
-145.545	18.290	-0.234	-0.187
-144.531	800.000	0.087	-0.329
-143.516	-200.000	0.045	0.269
-142.502	97.349	-0.028	0.032
-141.487	35.000	-0.074	0.065
-140.472	-148.398	-0.154	-0.013
-139.458	-200.000	0.005	-0.044
-138.443	-145.429	0.155	-0.014
-137.429	-200.000	-0.003	0.168
-136.414	393.553	-0.187	-0.390
-135.399	-46.631	0.232	-0.114
-134.385	-76.540	0.144	0.051
-133.370	351.673	-0.014	0.028
-132.356	166.320	-0.162	0.230
-131.341	-85.752	-0.154	-0.048
-130.326	17.734	0.235	-0.187
-129.312	800.000	-0.050	-0.195
-128.297	-71.591	0.243	0.091
-127.283	60.736	0.061	-0.061
-126.268	-102.784	-0.042	0.010
-125.253	-61.589	-0.045	-0.019
-124.239	64.543	-0.118	-0.119
-123.224	-132.902	0.351	-0.045
-122.210	-200.000	-0.022	-0.302
-121.195	86.542	-0.049	0.054
