DTS Sentinel unit serial number:	SN413079Multiplexer serial number:	ORYXHardware model number:	OX4-SRSoftware version number:	ORYX F/W v4.00 Oryx Data Collector v3.7.2.0data status	okinstallation	princeton_trtdifferential loss correction	single-endedforward channel	channel 4reverse channel	N/Adate	2019/09/18time	05:17:35forward acquisition time	60.00reverse acquisition time	0.00gamma	496.2192k internal	0.2332k external	0.2332temperature offset calibration	0.9995default loss term (dB/km)	0.3790temperature slope calibration	1.0000multiplexer offset coefficient	1.0000multiplexer slope coefficient	1.0000fibre end	0.00T internal ref (°C)	23.50T ext. ref 1 (°C)	0.19T ext. ref 2 (°C)	17.33length (m)	temperature (°C)	Stokes	anti-Stokes-747.200	536.437	0.041	0.099
-746.185	-150.677	0.138	-0.011
-745.171	488.860	0.038	0.088
-744.156	56.345	-0.209	0.204
-743.142	594.828	-0.045	-0.112
-742.127	312.426	0.233	0.440
-741.112	-35.457	0.137	0.075
-740.098	-63.325	0.340	0.141
-739.083	-2.568	-0.078	-0.055
-738.069	79.790	-0.169	0.183
-737.054	800.000	-0.082	0.280
-736.039	36.823	-0.381	-0.339
-735.025	-200.000	-0.021	0.336
-734.010	84.977	-0.270	-0.298
-732.996	663.497	-0.069	-0.178
-731.981	-200.000	-0.003	0.162
-730.966	524.498	-0.015	-0.036
-729.952	-200.000	0.028	-0.479
-728.937	-0.121	0.187	-0.134
-727.923	-38.139	-0.401	0.214
-726.908	331.308	-0.101	0.195
-725.894	-200.000	0.058	-0.261
-724.879	184.469	-0.154	0.230
-723.864	-200.000	-0.005	-0.251
-722.850	-14.165	0.297	0.193
-721.835	322.652	-0.070	0.135
-720.821	172.086	-0.124	-0.179
-719.806	-200.000	0.041	-0.289
-718.791	12.344	0.166	0.128
-717.777	-200.000	0.049	-0.221
-716.762	800.000	0.090	0.348
-715.748	254.673	-0.052	-0.089
-714.733	-37.110	-0.123	-0.066
-713.718	-62.319	0.196	-0.082
-712.704	42.343	0.193	-0.176
-711.689	686.908	0.072	-0.188
-710.675	208.073	0.042	0.066
-709.660	800.000	-0.168	0.480
-708.645	-21.319	0.344	-0.211
-707.631	-151.978	-0.252	-0.018
-706.616	-64.449	0.071	0.029
-705.602	110.457	0.132	0.159
-704.587	252.881	0.113	0.193
-703.572	-65.694	0.305	0.123
-702.558	800.000	0.028	-0.094
-701.543	778.480	-0.072	0.199
-700.529	-89.952	-0.567	-0.166
-699.514	-110.952	0.165	0.034
-698.499	167.330	-0.112	0.160
-697.485	46.388	-0.130	0.121
-696.470	31.329	-0.243	-0.210
-695.456	21.184	0.158	0.128
-694.441	122.769	0.050	-0.063
-693.426	800.000	0.088	-0.298
-692.412	28.652	0.074	-0.063
-691.397	-177.197	0.038	-0.001
-690.383	122.581	0.236	0.296
-689.368	-151.958	0.127	0.009
-688.354	8.000	-0.139	0.105
-687.339	-115.224	-0.163	-0.031
-686.324	2.926	-0.136	-0.099
-685.310	283.625	0.102	0.185
-684.295	-67.142	0.277	-0.110
-683.281	-54.673	0.087	-0.039
-682.266	401.047	-0.124	-0.260
-681.251	800.000	-0.023	-0.097
-680.237	-200.000	0.001	-0.091
-679.222	-200.000	-0.005	-0.028
-678.208	69.442	0.392	-0.405
-677.193	-200.000	0.006	0.144
-676.178	-191.797	0.168	0.002
-675.164	-40.511	-0.100	0.052
-674.149	-79.100	0.252	0.086
-673.135	-44.854	0.394	-0.197
-672.120	32.934	-0.134	-0.117
-671.105	83.100	0.371	-0.405
-670.091	-58.115	-0.241	0.106
-669.076	-31.286	-0.148	0.083
-668.062	800.000	-0.120	0.370
-667.047	-116.732	-0.131	0.024
-666.032	800.000	-0.110	-0.396
-665.018	225.248	-0.317	-0.515
-664.003	226.376	-0.119	0.194
-662.989	191.176	-0.147	0.223
-661.974	-200.000	0.079	0.386
-660.959	-162.219	-0.539	-0.027
-659.945	-200.000	0.001	0.152
-658.930	-200.000	0.006	-0.088
-657.916	-90.313	-0.235	0.069
-656.901	108.071	-0.124	-0.148
-655.886	116.107	0.108	-0.132
-654.872	-70.640	-0.305	0.116
-653.857	800.000	0.026	-0.106
-652.843	49.546	-0.049	-0.046
-651.828	800.000	-0.063	0.269
-650.814	-186.046	0.187	0.003
-649.799	130.001	-0.312	-0.400
-648.784	-25.461	-0.379	-0.225
-647.770	199.805	0.150	0.230
-646.755	35.007	0.113	-0.100
-645.741	-200.000	-0.001	-0.215
-644.726	800.000	0.012	-0.039
-643.711	410.576	0.050	0.106
-642.697	-72.953	-0.138	-0.051
-641.682	-200.000	0.070	-0.317
-640.668	-130.112	0.336	-0.046
-639.653	800.000	-0.038	-0.118
-638.638	-67.205	0.119	0.047
-637.624	293.490	-0.163	-0.298
-636.609	-6.592	0.111	-0.076
-635.595	153.093	-0.219	-0.301
-634.580	-140.453	0.113	-0.012
-633.565	426.761	0.081	0.174
-632.551	80.275	0.216	0.233
-631.536	-200.000	0.002	0.055
-630.522	-145.142	-0.131	-0.012
-629.507	289.642	-0.196	0.356
-628.492	-117.082	-0.279	0.051
-627.478	-126.334	-0.448	-0.067
-626.463	800.000	0.111	-0.322
-625.449	761.658	0.110	-0.298
-624.434	20.906	0.099	0.080
-623.419	-160.755	0.080	-0.004
-622.405	117.106	-0.120	-0.148
-621.390	64.477	0.153	-0.154
-620.376	-90.287	-0.450	-0.131
-619.361	-101.528	0.081	-0.020
-618.346	-39.071	-0.033	-0.017
-617.332	-29.368	-0.120	-0.069
-616.317	-200.000	0.027	-0.316
-615.303	800.000	-0.034	0.107
-614.288	78.238	-0.077	-0.082
-613.273	800.000	-0.090	-0.363
-612.259	116.213	-0.123	-0.151
-611.244	-200.000	-0.059	-0.393
-610.230	278.213	0.084	0.150
-609.215	-200.000	-0.035	-0.347
-608.201	162.143	0.043	-0.060
-607.186	119.324	-0.100	-0.123
-606.171	-200.000	0.017	-0.130
-605.157	-200.000	-0.019	-0.276
-604.142	-70.967	0.192	0.072
-603.128	-200.000	0.017	-0.165
-602.113	800.000	-0.096	0.287
-601.098	-49.821	0.039	-0.018
-600.084	-22.046	-0.283	0.172
-599.069	-200.000	0.011	0.059
-598.055	-121.453	0.159	-0.026
-597.040	-200.000	0.019	0.113
-596.025	-55.689	-0.153	-0.068
-595.011	-150.935	0.320	0.024
-593.996	-40.481	-0.143	0.074
-592.982	-200.000	0.038	0.260
-591.967	94.915	0.250	0.284
-590.952	558.027	-0.069	0.167
-589.938	-94.160	0.304	-0.083
-588.923	-200.000	-0.000	-0.210
-587.909	-118.443	-0.197	-0.035
-586.894	-117.680	0.373	-0.067
-585.879	-44.882	-0.093	-0.046
-584.865	146.002	-0.177	-0.238
-583.850	-200.000	-0.012	0.109
-582.836	-88.919	0.123	0.036
-581.821	-200.000	0.011	-0.154
-580.806	-189.832	0.245	-0.003
-579.792	87.653	-0.257	0.285
-578.777	798.100	0.076	0.208
-577.763	4.239	0.144	-0.105
-576.748	19.760	0.136	-0.109
-575.733	800.000	0.058	-0.205
-574.719	-33.672	0.434	0.239
-573.704	-200.000	0.011	0.171
-572.690	464.073	0.104	0.233
-571.675	-106.570	-0.403	0.090
-570.661	664.250	-0.082	0.211
-569.646	53.755	0.115	0.111
-568.631	-76.146	0.281	-0.099
-567.617	-200.000	0.051	-0.322
-566.602	463.733	-0.120	0.268
-565.588	-50.580	0.186	0.088
-564.573	800.000	0.201	-0.571
-563.558	-122.892	-0.187	-0.030
-562.544	-44.335	0.156	0.078
-561.529	57.565	0.085	-0.083
-560.515	-9.252	-0.490	-0.327
-559.500	-157.536	0.145	0.009
-558.485	382.850	0.008	-0.016
-557.471	-127.041	0.264	-0.039
-556.456	-200.000	0.003	0.052
-555.442	-40.188	-0.420	0.218
-554.427	-200.000	-0.028	0.208
-553.412	800.000	0.053	0.177
-552.398	-178.433	-0.216	-0.005
-551.383	52.137	0.302	0.287
-550.369	-200.000	-0.024	-0.234
-549.354	255.709	0.114	-0.194
-548.339	135.298	-0.130	0.168
-547.325	113.924	-0.033	0.040
-546.310	-150.019	0.197	0.015
-545.296	178.928	0.039	-0.057
-544.281	800.000	-0.075	-0.207
-543.266	250.501	0.037	-0.063
-542.252	175.434	-0.017	0.024
-541.237	800.000	-0.076	0.236
-540.223	-141.722	-0.274	0.027
-539.208	-200.000	0.035	-0.259
-538.193	25.672	0.076	0.063
-537.179	-200.000	-0.024	-0.163
-536.164	-8.538	0.218	-0.146
-535.150	-133.150	-0.127	0.016
-534.135	-200.000	-0.061	0.303
-533.121	-200.000	0.013	-0.255
-532.106	150.792	0.312	0.424
-531.091	-200.000	-0.051	-0.259
-530.077	-110.891	0.191	-0.039
-529.062	-200.000	-0.018	-0.422
-528.048	-73.256	-0.179	0.065
-527.033	-109.677	-0.192	0.040
-526.018	800.000	0.073	0.261
-525.004	-200.000	-0.017	0.128
-523.989	-36.176	-0.318	-0.171
-522.975	800.000	-0.041	-0.119
-521.960	20.732	-0.047	-0.038
-520.945	48.315	0.175	-0.164
-519.931	47.759	-0.183	0.170
-518.916	3.464	-0.042	0.030
-517.902	173.148	-0.096	0.138
-516.887	48.812	0.153	-0.143
-515.872	-54.490	0.235	0.106
-514.858	-13.734	-0.240	-0.155
-513.843	-36.938	-0.199	0.106
-512.829	-200.000	0.008	-0.166
-511.814	-139.475	-0.136	-0.014
-510.799	-175.690	0.201	-0.005
-509.785	-74.401	0.149	-0.054
-508.770	-177.053	0.205	0.005
-507.756	436.415	-0.065	0.142
-506.741	800.000	0.096	-0.307
-505.726	-14.398	-0.088	-0.057
-504.712	-149.624	0.112	0.009
-503.697	-200.000	0.004	-0.087
-502.683	83.957	0.007	-0.008
-501.668	262.237	0.040	-0.069
-500.653	-31.182	-0.217	-0.122
-499.639	-200.000	-0.009	-0.201
-498.624	-2.245	0.262	0.183
-497.610	-35.408	0.221	0.120
-496.595	592.610	0.062	-0.153
-495.581	-122.457	-0.478	0.078
-494.566	-16.353	-0.073	0.046
-493.551	-154.667	0.287	0.019
-492.537	116.398	0.098	0.119
-491.522	-22.005	0.214	-0.130
-490.508	-59.280	-0.108	0.046
-489.493	800.000	0.049	0.201
-488.478	-81.082	-0.222	0.073
-487.464	174.311	-0.107	0.154
-486.449	200.878	-0.153	-0.234
-485.435	-107.706	0.106	0.023
-484.420	-12.187	-0.149	0.097
-483.405	-17.526	-0.226	-0.142
-482.391	-102.877	0.065	-0.015
-481.376	42.882	0.174	-0.158
-480.362	126.579	0.292	-0.368
-479.347	-153.388	-0.422	0.029
-478.332	-65.651	0.112	0.045
-477.318	800.000	0.025	0.101
-476.303	539.587	0.066	0.156
-475.289	-158.945	-0.102	-0.006
-474.274	-126.810	0.137	0.020
-473.259	-200.000	0.007	0.219
-472.245	-200.000	0.004	0.112
-471.230	-200.000	-0.018	-0.136
-470.216	14.555	0.189	0.147
-469.201	489.058	-0.116	0.264
-468.186	175.339	-0.122	0.175
-467.172	-32.997	-0.411	0.227
-466.157	409.809	0.104	0.220
-465.143	-35.762	-0.229	-0.124
-464.128	98.298	0.151	-0.173
-463.113	207.467	0.046	-0.072
-462.099	-200.000	-0.027	0.173
-461.084	800.000	-0.009	0.026
-460.070	-200.000	-0.003	-0.205
-459.055	267.456	-0.011	0.019
-458.040	-185.823	-0.264	-0.004
-457.026	-112.763	-0.311	0.061
-456.011	800.000	-0.067	0.273
-454.997	186.980	0.076	-0.113
-453.982	285.801	-0.064	0.115
-452.968	-24.309	-0.348	-0.206
-451.953	-19.023	0.096	-0.059
-450.938	-186.205	0.238	0.003
-449.924	-96.673	0.251	0.066
-448.909	-81.297	-0.196	0.064
-447.895	0.657	0.050	-0.035
-446.880	290.150	0.096	-0.174
-445.865	14.131	0.280	0.217
-444.851	-102.871	0.200	0.047
-443.836	142.466	0.111	0.146
-442.822	-111.337	0.309	-0.063
-441.807	-158.186	-0.276	-0.016
-440.792	-89.798	-0.141	0.041
-439.778	-200.000	0.008	0.073
-438.763	-200.000	-0.020	-0.101
-437.749	-200.000	0.062	0.287
-436.734	-59.150	0.052	0.022
-435.719	800.000	0.034	-0.135
-434.705	-157.703	-0.185	-0.011
-433.690	-105.886	-0.217	-0.049
-432.676	165.358	0.254	0.357
-431.661	158.894	-0.060	-0.082
-430.646	-200.000	0.019	-0.309
-429.632	-65.519	-0.207	0.083
-428.617	-152.075	0.157	-0.011
-427.603	230.884	0.139	-0.226
-426.588	433.223	0.061	-0.132
-425.573	75.109	-0.262	-0.274
-424.559	12.007	0.298	-0.228
-423.544	-72.760	-0.387	-0.142
-422.530	800.000	0.046	0.190
-421.515	800.000	0.085	0.321
-420.500	-200.000	0.028	0.410
-419.486	249.456	-0.184	0.310
-418.471	481.011	0.282	0.635
-417.457	-27.482	0.272	0.157
-416.442	-14.451	-0.142	-0.091
-415.428	78.547	0.088	0.093
-414.413	800.000	0.099	-0.325
-413.398	-18.714	0.081	0.050
-412.384	-63.332	0.077	-0.032
-411.369	-63.547	0.243	0.099
-410.355	-66.789	-0.183	0.072
-409.340	-200.000	-0.002	-0.051
-408.325	-43.626	0.186	0.093
-407.311	800.000	0.111	-0.401
-406.296	800.000	0.102	0.376
-405.282	110.113	0.150	0.179
-404.267	-200.000	-0.048	0.320
-403.252	472.674	0.033	0.074
-402.238	586.653	-0.101	-0.248
-401.223	-200.000	0.297	-0.001
-400.209	800.000	0.099	0.296
-399.194	789.681	-0.085	-0.233
-398.179	-200.000	0.015	-0.353
-397.165	-35.372	-0.253	0.137
-396.150	47.427	0.063	-0.058
-395.136	800.000	-0.016	-0.045
-394.121	-85.242	0.213	-0.066
-393.106	-23.362	-0.139	-0.083
-392.092	-66.205	0.214	-0.085
-391.077	-112.361	-0.103	0.021
-390.063	179.887	0.105	-0.152
-389.048	579.094	0.020	0.048
-388.033	6.043	0.066	0.049
-387.019	-58.674	0.305	-0.131
-386.004	322.557	-0.102	-0.194
-384.990	-200.000	0.011	-0.138
-383.975	96.441	0.144	0.164
-382.960	-149.079	-0.068	-0.005
-381.946	-68.050	-0.250	-0.097
-380.931	-200.000	-0.036	-0.246
-379.917	-121.044	-0.025	0.004
-378.902	800.000	-0.037	-0.156
-377.888	-200.000	0.001	0.115
-376.873	287.717	0.128	0.230
-375.858	229.656	-0.209	-0.338
-374.844	-200.000	0.018	0.317
-373.829	800.000	-0.018	-0.073
-372.815	-100.801	0.141	-0.034
-371.800	-46.667	-0.150	-0.073
-370.785	106.749	0.106	-0.125
-369.771	46.142	-0.432	0.397
-368.756	210.285	-0.114	-0.178
-367.742	679.725	0.031	-0.081
-366.727	167.859	0.121	-0.171
-365.712	69.103	-0.107	0.109
-364.698	-200.000	0.064	0.301
-363.683	-55.809	0.174	-0.077
-362.669	488.574	-0.104	-0.236
-361.654	101.753	0.036	-0.042
-360.639	-16.080	0.045	0.028
-359.625	-157.124	0.254	0.015
-358.610	-200.000	-0.058	0.422
-357.596	-200.000	0.043	0.207
-356.581	-79.885	-0.027	0.009
-355.566	-200.000	-0.016	0.085
-354.552	28.129	0.202	-0.169
-353.537	65.235	0.144	0.144
-352.523	-30.557	0.263	-0.148
-351.508	-86.319	0.229	-0.070
-350.493	43.116	0.164	0.149
-349.479	622.683	0.067	-0.168
-348.464	26.091	0.333	-0.276
-347.450	294.888	-0.064	0.115
-346.435	52.591	0.227	0.214
-345.420	19.276	-0.082	-0.065
-344.406	-200.000	0.031	0.189
-343.391	45.760	0.252	0.230
-342.377	6.484	-0.278	0.204
-341.362	-104.968	-0.299	0.068
-340.348	4.524	0.243	-0.177
-339.333	206.784	0.016	-0.024
-338.318	800.000	-0.089	-0.372
-337.304	12.002	-0.086	0.065
-336.289	-200.000	-0.057	0.266
-335.275	800.000	-0.092	-0.282
-334.260	-112.927	-0.370	0.073
-333.245	800.000	0.071	0.220
-332.231	-117.510	-0.275	-0.049
-331.216	-153.856	-0.190	-0.013
-330.202	247.539	0.050	-0.084
-329.187	36.591	-0.053	-0.046
-328.172	-124.776	-0.120	-0.018
-327.158	-57.670	-0.080	0.035
-326.143	-136.007	-0.398	-0.046
-325.129	-102.694	-0.315	-0.074
-324.114	228.971	0.259	0.418
-323.099	800.000	0.085	0.362
-322.085	26.833	-0.166	-0.138
-321.070	483.565	0.091	0.205
-320.056	-51.144	-0.358	0.166
-319.041	-120.510	-0.130	0.022
-318.026	-4.207	0.193	0.132
-317.012	-23.309	-0.084	-0.050
-315.997	-40.344	0.356	0.183
-314.983	-200.000	0.002	0.026
-313.968	754.965	-0.020	0.053
-312.953	800.000	-0.023	0.064
-311.939	-200.000	0.035	0.195
-310.924	-66.031	-0.144	-0.057
-309.910	-118.398	0.217	0.038
-308.895	-45.311	-0.048	-0.024
-307.880	-183.757	-0.278	0.005
-306.866	69.982	0.201	0.205
-305.851	-74.642	0.108	-0.038
-304.837	295.784	0.100	-0.181
-303.822	-0.980	0.274	-0.192
-302.807	247.310	0.028	-0.047
-301.793	132.925	-0.166	-0.212
-300.778	391.938	0.144	-0.295
-299.764	-200.000	0.239	0.000
-298.749	-159.453	-0.218	0.012
-297.735	-200.000	-0.054	-0.290
-296.720	800.000	-0.028	-0.090
-295.705	-200.000	-0.037	0.250
-294.691	-200.000	0.025	0.337
-293.676	-55.109	-0.142	0.063
-292.662	-101.100	-0.290	0.070
-291.647	-200.000	0.029	0.135
-290.632	-200.000	-0.001	0.268
-289.618	800.000	0.026	0.075
-288.603	17.380	0.156	-0.123
-287.589	660.423	0.006	0.016
-286.574	37.568	0.052	0.046
-285.559	-12.662	-0.062	0.040
-284.545	-98.185	0.106	0.027
-283.530	-176.447	-0.206	0.005
-282.516	97.421	0.260	-0.295
-281.501	122.791	0.202	0.250
-280.486	800.000	0.030	0.112
-279.472	-200.000	0.044	0.292
-278.457	-200.000	0.004	0.018
-277.443	800.000	0.043	0.167
-276.428	-50.040	0.110	0.051
-275.413	345.859	-0.219	-0.426
-274.399	-50.957	-0.166	0.077
-273.384	90.162	0.124	-0.137
-272.370	26.339	-0.225	0.186
-271.355	95.727	-0.231	-0.261
-270.340	84.810	0.085	0.091
-269.326	1.037	0.121	0.085
-268.311	-25.218	0.122	-0.071
-267.297	75.595	0.158	0.164
-266.282	-39.276	0.045	-0.023
-265.267	800.000	0.103	-0.305
-264.253	0.525	-0.102	0.072
-263.238	-200.000	0.034	0.250
-262.224	211.970	-0.094	-0.146
-261.209	800.000	0.068	0.195
-260.195	800.000	-0.027	0.079
-259.180	-5.359	-0.416	0.282
-258.165	-70.647	0.224	-0.083
-257.151	60.253	0.079	-0.078
-256.136	800.000	0.030	-0.098
-255.122	59.533	0.169	-0.165
-254.107	-200.000	-0.003	-0.179
-253.092	-62.713	-0.157	-0.064
-252.078	-200.000	0.036	0.283
-251.063	800.000	-0.029	0.084
-250.049	504.959	0.054	-0.124
-249.034	239.635	0.015	-0.024
-248.019	67.462	-0.117	0.118
-247.005	-18.068	-0.065	-0.040
-245.990	304.655	0.054	-0.099
-244.976	-98.678	-0.161	-0.040
-243.961	587.955	0.076	-0.183
-242.946	152.641	-0.120	0.162
-241.932	108.165	-0.070	0.083
-240.917	14.719	-0.179	-0.138
-239.903	613.545	-0.096	0.236
-238.888	-149.157	0.575	0.045
-237.873	87.602	0.176	0.193
-236.859	-136.547	-0.147	0.017
-235.844	-200.000	-0.006	-0.054
-234.830	251.474	0.041	0.068
-233.815	-91.513	-0.055	0.015
-232.800	-200.000	0.006	0.141
-231.786	-200.000	0.058	-0.452
-230.771	79.283	-0.259	-0.274
-229.757	-122.972	-0.174	0.028
-228.742	303.480	0.024	0.045
-227.727	-114.133	-0.100	-0.019
-226.713	-61.328	-0.109	0.045
-225.698	143.506	-0.189	0.249
-224.684	121.756	-0.107	0.132
-223.669	542.112	0.008	-0.020
-222.655	325.256	0.079	-0.150
-221.640	355.049	0.164	0.321
-220.625	-200.000	0.005	0.045
-219.611	296.705	0.103	-0.186
-218.596	-41.723	-0.135	-0.068
-217.582	-200.000	-0.023	-0.179
-216.567	203.225	0.056	0.086
-215.552	-53.743	-0.061	0.027
-214.538	247.509	0.030	-0.051
-213.523	410.476	0.059	-0.124
-212.509	486.873	0.043	-0.097
-211.494	287.621	0.082	-0.146
-210.479	800.000	0.022	-0.096
-209.465	13.661	0.328	-0.251
-208.450	343.727	0.036	0.069
-207.436	-200.000	-0.015	-0.070
-206.421	70.196	-0.081	-0.082
-205.406	244.987	0.010	-0.017
-204.392	800.000	-0.029	-0.096
-203.377	31.365	-0.328	-0.277
-202.363	108.520	-0.066	0.078
-201.348	163.792	-0.020	0.028
-200.333	98.224	-0.236	0.267
-199.319	800.000	0.017	0.069
-198.304	-73.984	0.021	-0.007
-197.290	-105.668	0.131	0.029
-196.275	800.000	-0.027	0.098
-195.260	-15.805	0.205	0.129
-194.246	34.912	-0.188	0.162
-193.231	-57.668	-0.085	-0.037
-192.217	84.226	0.213	-0.229
-191.202	-200.000	-0.067	-0.355
-190.187	-200.000	0.006	0.111
-189.173	-46.206	-0.042	-0.021
-188.158	251.909	0.086	-0.143
-187.144	55.542	0.211	-0.201
-186.129	109.268	0.207	0.243
-185.114	-51.844	0.128	0.058
-184.100	-104.334	-0.111	-0.025
-183.085	-200.000	0.007	0.126
-182.071	-141.285	0.147	0.015
-181.056	353.088	-0.040	0.078
-180.042	-46.376	-0.211	-0.102
-179.027	-21.845	0.383	0.229
-178.012	800.000	-0.077	0.293
-176.998	186.959	-0.165	0.243
-175.983	800.000	-0.073	-0.266
-174.969	124.585	0.188	-0.233
-173.954	-200.000	0.003	-0.265
-172.939	313.425	-0.186	0.343
-171.925	-90.951	-0.159	0.045
-170.910	271.268	0.084	0.146
-169.896	-80.983	-0.173	0.056
-168.881	-138.370	0.093	0.010
-167.866	353.496	-0.048	-0.094
-166.852	-200.000	-0.006	0.032
-165.837	-200.000	-0.033	0.166
-164.823	-181.967	-0.268	-0.005
-163.808	149.253	0.077	0.102
-162.793	-200.000	-0.037	0.183
-161.779	800.000	0.052	0.157
-160.764	113.301	0.039	-0.047
-159.750	170.947	-0.111	-0.156
-158.735	145.716	-0.043	-0.057
-157.720	-142.892	0.471	-0.045
-156.706	800.000	-0.109	-0.440
-155.691	218.033	-0.094	-0.147
-154.677	-163.610	0.138	0.006
-153.662	800.000	-0.084	0.248
-152.647	-15.517	-0.355	0.223
-151.633	-123.566	-0.285	-0.045
-150.618	800.000	0.011	-0.043
-149.604	-46.239	-0.082	-0.039
-148.589	239.871	-0.082	0.134
-147.574	-62.614	-0.264	-0.108
-146.560	-85.657	-0.108	-0.033
-145.545	26.692	0.266	-0.219
-144.531	-200.000	0.018	0.090
-143.516	-8.164	0.241	0.160
-142.502	110.332	0.236	-0.278
-141.487	144.061	-0.054	0.071
-140.472	59.552	0.206	0.200
-139.458	-66.814	0.120	0.047
-138.443	135.105	0.149	0.190
-137.429	798.824	-0.082	-0.223
-136.414	-200.000	0.029	0.242
-135.399	-96.264	-0.241	0.063
-134.385	-40.264	0.287	-0.147
-133.370	29.115	-0.223	-0.186
-132.356	-116.175	0.055	0.010
-131.341	128.035	0.098	-0.123
-130.326	58.534	-0.034	0.033
-129.312	70.708	0.068	0.069
-128.297	-69.028	0.209	0.079
-127.283	-200.000	-0.221	0.000
-126.268	-64.230	-0.168	-0.067
-125.253	-74.875	-0.230	0.081
-124.239	800.000	-0.121	0.336
-123.224	800.000	-0.122	0.416
-122.210	-89.042	0.254	-0.074
-121.195	-200.000	-0.031	0.157
