DTS Sentinel unit serial number:	SN413079Multiplexer serial number:	ORYXHardware model number:	OX4-SRSoftware version number:	ORYX F/W v4.00 Oryx Data Collector v3.7.2.0data status	okinstallation	princeton_trtdifferential loss correction	single-endedforward channel	channel 4reverse channel	N/Adate	2019/09/13time	18:29:34forward acquisition time	60.00reverse acquisition time	0.00gamma	496.2192k internal	0.2305k external	0.2305temperature offset calibration	1.0189default loss term (dB/km)	0.3790temperature slope calibration	1.0000multiplexer offset coefficient	1.0000multiplexer slope coefficient	1.0000fibre end	0.00T internal ref (°C)	33.42T ext. ref 1 (°C)	4.25T ext. ref 2 (°C)	26.44length (m)	temperature (°C)	Stokes	anti-Stokes-747.200	4.991	0.269	-0.201
-746.185	34.659	-0.305	0.271
-745.171	265.801	-0.101	0.179
-744.156	73.859	-0.036	-0.038
-743.142	-200.000	-0.010	0.258
-742.127	800.000	-0.018	0.066
-741.112	-49.797	0.069	0.034
-740.098	17.923	0.116	0.094
-739.083	-30.630	0.247	0.142
-738.069	-200.000	0.002	0.045
-737.054	-128.278	-0.240	0.035
-736.039	-27.921	0.067	0.039
-735.025	-118.488	0.163	-0.029
-734.010	164.399	-0.027	0.039
-732.996	67.821	0.080	0.083
-731.981	-41.253	0.213	-0.112
-730.966	-146.699	-0.259	0.023
-729.952	-200.000	-0.045	-0.240
-728.937	427.181	-0.091	-0.200
-727.923	365.159	-0.271	-0.555
-726.908	800.000	0.032	-0.120
-725.894	800.000	-0.008	0.033
-724.879	267.206	-0.079	-0.141
-723.864	-200.000	0.020	0.302
-722.850	-58.958	-0.591	-0.260
-721.835	207.259	-0.072	-0.115
-720.821	39.418	-0.166	-0.151
-719.806	292.978	-0.063	0.117
-718.791	-130.020	-0.061	-0.008
-717.777	-189.213	-0.263	-0.003
-716.762	-200.000	-0.022	0.189
-715.748	519.639	0.103	-0.246
-714.733	-99.044	0.195	-0.050
-713.718	105.813	-0.212	-0.255
-712.704	-49.763	0.160	0.078
-711.689	-149.886	-0.510	0.041
-710.675	567.191	-0.177	-0.437
-709.660	-200.000	0.040	-0.556
-708.645	351.519	0.095	-0.191
-707.631	-98.448	-0.092	0.024
-706.616	800.000	0.090	-0.268
-705.602	800.000	-0.030	-0.115
-704.587	800.000	0.057	-0.182
-703.572	393.288	0.043	-0.092
-702.558	-200.000	-0.022	0.136
-701.543	222.663	-0.104	-0.170
-700.529	22.981	-0.163	0.135
-699.514	800.000	0.086	0.262
-698.499	40.502	0.216	0.197
-697.485	167.002	0.150	0.217
-696.470	202.586	-0.119	0.186
-695.456	36.431	0.154	-0.138
-694.441	267.903	-0.058	-0.103
-693.426	-200.000	-0.007	0.069
-692.412	-200.000	0.008	-0.242
-691.397	-125.968	0.312	0.048
-690.383	-136.549	0.199	0.023
-689.368	-58.584	0.161	0.071
-688.354	-4.532	-0.048	-0.033
-687.339	-105.176	-0.159	-0.037
-686.324	12.251	-0.277	0.216
-685.310	-119.940	0.254	0.044
-684.295	133.582	0.159	-0.208
-683.281	-52.413	-0.304	-0.143
-682.266	-85.864	-0.180	0.057
-681.251	54.459	0.338	0.330
-680.237	220.600	-0.186	-0.303
-679.222	223.747	0.179	-0.293
-678.208	393.070	0.037	-0.078
-677.193	800.000	-0.016	-0.067
-676.178	63.941	0.062	0.063
-675.164	-112.395	-0.095	0.019
-674.149	-50.454	0.087	0.042
-673.135	-94.017	-0.158	-0.044
-672.120	-102.627	-0.273	-0.066
-671.105	-200.000	-0.019	0.088
-670.091	800.000	-0.061	-0.234
-669.076	-200.000	0.020	-0.278
-668.062	-95.509	0.151	-0.041
-667.047	1.732	-0.347	0.254
-666.032	-21.445	-0.184	0.114
-665.018	-200.000	0.014	-0.295
-664.003	-200.000	0.013	0.372
-662.989	84.333	-0.150	-0.167
-661.974	-87.646	0.357	-0.109
-660.959	188.623	0.060	0.091
-659.945	60.316	-0.090	-0.090
-658.930	-82.786	0.464	0.152
-657.916	39.091	-0.094	0.085
-656.901	-21.253	0.153	0.095
-655.886	-19.530	0.256	-0.161
-654.872	248.586	-0.105	0.180
-653.857	708.610	-0.038	-0.101
-652.843	-200.000	0.022	0.107
-651.828	159.869	0.091	-0.129
-650.814	-165.141	0.074	-0.003
-649.799	178.851	0.188	-0.279
-648.784	92.602	0.143	-0.164
-647.770	-76.116	0.073	-0.026
-646.755	376.824	0.175	0.363
-645.741	-200.000	-0.010	0.258
-644.726	587.432	0.100	0.249
-643.711	-181.451	-0.112	-0.002
-642.697	800.000	0.122	0.378
-641.682	83.997	0.135	0.149
-640.668	-80.156	0.192	-0.065
-639.653	-47.092	0.214	-0.106
-638.638	232.636	-0.058	-0.096
-637.624	26.828	-0.118	0.100
-636.609	-10.747	0.217	0.145
-635.595	55.647	-0.236	-0.231
-634.580	-200.000	-0.003	0.046
-633.565	51.771	0.239	0.230
-632.551	-16.140	-0.193	-0.124
-631.536	-42.853	-0.152	0.078
-630.522	-200.000	-0.003	0.088
-629.507	800.000	-0.103	0.364
-628.492	-177.927	0.541	-0.013
-627.478	386.656	-0.055	-0.116
-626.463	-200.000	-0.020	0.153
-625.449	240.340	-0.186	-0.314
-624.434	-200.000	-0.000	0.069
-623.419	-21.596	-0.143	0.088
-622.405	64.827	-0.272	0.278
-621.390	-82.987	0.363	0.118
-620.376	191.568	0.118	-0.180
-619.361	-200.000	0.025	0.206
-618.346	-21.117	-0.449	-0.278
-617.332	140.711	-0.017	0.023
-616.317	-40.082	-0.172	-0.091
-615.303	800.000	-0.041	0.166
-614.288	-24.473	-0.172	0.104
-613.273	31.843	-0.128	0.112
-612.259	-18.048	0.264	-0.168
-611.244	684.116	0.163	0.432
-610.230	350.381	0.188	-0.377
-609.215	-200.000	-0.041	0.201
-608.201	-22.303	-0.183	-0.112
-607.186	-135.222	0.067	-0.008
-606.171	-200.000	0.054	0.363
-605.157	-200.000	-0.042	0.209
-604.142	-142.838	-0.147	0.014
-603.128	-200.000	-0.052	0.237
-602.113	698.029	0.068	-0.182
-601.098	1.074	-0.243	0.176
-600.084	-106.119	0.205	-0.047
-599.069	-54.874	0.180	-0.082
-598.055	800.000	-0.074	-0.206
-597.040	9.131	-0.332	-0.254
-596.025	268.792	0.091	-0.162
-595.011	-39.942	0.015	0.008
-593.996	25.670	-0.248	-0.209
-592.982	-200.000	0.003	0.099
-591.967	-200.000	-0.016	-0.113
-590.952	-200.000	-0.032	-0.662
-589.938	-93.593	0.225	-0.063
-588.923	167.181	0.172	0.247
-587.909	-83.446	0.417	-0.135
-586.894	-200.000	0.016	-0.077
-585.879	-200.000	-0.060	-0.275
-584.865	77.779	-0.119	-0.128
-583.850	-200.000	0.034	0.380
-582.836	-200.000	-0.015	-0.260
-581.821	800.000	-0.040	0.131
-580.806	-163.119	0.380	0.019
-579.792	-118.174	-0.310	-0.056
-578.777	-200.000	0.024	-0.195
-577.763	425.764	-0.107	-0.233
-576.748	28.763	0.230	-0.197
-575.733	800.000	-0.063	-0.206
-574.719	-32.570	-0.094	0.053
-573.704	-98.603	-0.125	-0.032
-572.690	-161.437	0.216	-0.011
-571.675	-118.980	-0.215	0.038
-570.661	123.121	-0.170	-0.216
-569.646	360.972	0.092	0.186
-568.631	-200.000	0.023	0.214
-567.617	554.777	-0.034	0.082
-566.602	139.348	0.200	0.267
-565.588	-4.395	0.088	-0.061
-564.573	101.586	0.065	0.076
-563.558	-116.677	-0.272	-0.050
-562.544	-127.261	0.381	-0.056
-561.529	664.961	-0.091	-0.237
-560.515	-23.512	-0.335	-0.203
-559.500	-149.312	-0.200	0.016
-558.485	156.026	0.062	0.086
-557.471	-200.000	0.004	0.095
-556.456	-200.000	-0.048	-0.239
-555.442	-77.214	0.101	0.036
-554.427	-200.000	-0.019	0.185
-553.412	244.416	0.209	0.354
-552.398	-200.000	0.006	-0.290
-551.383	182.475	-0.157	-0.234
-550.369	-166.620	-0.529	-0.022
-549.354	-97.482	-0.318	0.084
-548.339	800.000	-0.035	-0.100
-547.325	27.597	-0.014	0.012
-546.310	-61.090	-0.293	0.125
-545.296	800.000	0.037	-0.135
-544.281	25.451	0.170	-0.143
-543.266	-104.110	0.043	-0.010
-542.252	-200.000	-0.061	-0.313
-541.237	-23.586	-0.254	-0.154
-540.223	225.981	-0.215	-0.352
-539.208	42.724	-0.333	0.307
-538.193	-200.000	0.030	-0.179
-537.179	800.000	0.032	-0.135
-536.164	-110.039	-0.109	-0.023
-535.150	-200.000	0.076	0.490
-534.135	649.602	0.087	0.224
-533.121	-19.713	0.124	-0.078
-532.106	800.000	-0.019	-0.070
-531.091	-108.593	-0.121	-0.026
-530.077	113.937	-0.138	-0.170
-529.062	-26.370	0.268	-0.159
-528.048	65.857	-0.187	-0.191
-527.033	-200.000	0.046	-0.216
-526.018	623.953	0.060	0.151
-525.004	-104.749	-0.148	0.034
-523.989	709.506	-0.137	0.367
-522.975	-200.000	-0.004	0.198
-521.960	800.000	-0.053	-0.166
-520.945	-7.255	0.116	0.080
-519.931	-90.847	-0.106	0.031
-518.916	-200.000	0.064	0.383
-517.902	800.000	-0.044	0.188
-516.887	800.000	0.074	-0.325
-515.872	-200.000	0.027	-0.276
-514.858	-200.000	-0.021	-0.410
-513.843	-7.214	0.168	-0.115
-512.829	-200.000	0.042	-0.235
-511.814	-63.136	0.242	-0.101
-510.799	11.447	-0.100	0.077
-509.785	137.152	-0.174	0.230
-508.770	-78.378	-0.185	-0.064
-507.756	71.141	-0.086	0.090
-506.741	22.063	0.113	0.093
-505.726	230.800	-0.087	0.144
-504.712	-200.000	0.023	-0.201
-503.697	16.807	0.170	-0.136
-502.683	-200.000	0.001	-0.063
-501.668	-126.492	0.375	0.056
-500.653	-200.000	-0.087	0.396
-499.639	-200.000	0.012	0.317
-498.624	65.424	0.121	-0.124
-497.610	95.007	0.029	-0.033
-496.595	-119.447	0.099	-0.017
-495.581	-82.317	0.290	0.095
-494.566	14.297	0.272	-0.214
-493.551	-46.081	-0.258	-0.128
-492.537	-200.000	-0.033	0.231
-491.522	-139.813	0.154	-0.016
-490.508	-200.000	0.046	-0.469
-489.493	800.000	-0.136	0.390
-488.478	42.719	-0.281	-0.258
-487.464	-83.237	-0.123	-0.040
-486.449	-86.080	0.272	0.085
-485.435	-200.000	0.034	-0.190
-484.420	183.652	-0.136	0.203
-483.405	800.000	-0.078	0.256
-482.391	-82.323	0.291	-0.096
-481.376	-187.556	-0.188	0.003
-480.362	-52.618	-0.210	-0.098
-479.347	-55.047	0.111	0.050
-478.332	-173.709	0.299	0.009
-477.318	15.754	0.208	-0.165
-476.303	207.938	0.144	-0.227
-475.289	349.450	-0.044	0.087
-474.274	450.885	-0.199	-0.441
-473.259	21.826	-0.049	-0.040
-472.245	260.604	-0.129	-0.225
-471.230	-120.421	-0.105	0.018
-470.216	-80.995	-0.310	0.103
-469.201	-163.822	-0.305	0.014
-468.186	-89.343	0.099	-0.029
-467.172	-121.414	-0.089	0.015
-466.157	-45.076	-0.216	-0.108
-465.143	184.501	0.231	0.345
-464.128	-144.747	-0.103	-0.010
-463.113	20.770	-0.193	0.158
-462.099	77.811	-0.143	-0.153
-461.084	143.170	0.076	0.102
-460.070	157.834	0.225	0.314
-459.055	-200.000	-0.000	-0.174
-458.040	-126.267	-0.366	0.055
-457.026	-200.000	-0.053	0.340
-456.011	-200.000	-0.021	-0.123
-454.997	-200.000	0.074	-0.451
-453.982	-99.101	-0.101	0.026
-452.968	190.807	0.154	0.234
-451.953	171.435	-0.069	-0.099
-450.938	-21.460	0.131	0.080
-449.924	800.000	0.071	0.213
-448.909	30.389	-0.077	0.066
-447.895	242.277	0.084	-0.142
-446.880	-135.060	0.125	0.015
-445.865	-48.255	0.233	-0.113
-444.851	-26.484	-0.069	-0.041
-443.836	72.354	0.134	0.140
-442.822	134.515	-0.307	-0.400
-441.807	-200.000	0.029	-0.191
-440.792	-77.730	0.128	0.044
-439.778	349.517	0.057	0.113
-438.763	-124.709	-0.063	-0.010
-437.749	383.940	0.098	0.202
-436.734	800.000	-0.058	-0.184
-435.719	44.934	-0.222	0.205
-434.705	-160.822	-0.351	-0.019
-433.690	-72.040	0.127	0.048
-432.676	110.777	-0.173	-0.210
-431.661	128.815	0.243	0.312
-430.646	-179.501	-0.202	0.004
-429.632	-70.921	-0.094	0.036
-428.617	68.383	0.232	0.239
-427.603	156.645	-0.144	0.200
-426.588	800.000	-0.027	0.107
-425.573	-84.127	0.191	0.061
-424.559	56.990	0.239	-0.234
-423.544	78.627	0.104	-0.112
-422.530	-152.979	-0.276	-0.020
-421.515	-200.000	-0.018	0.210
-420.500	-163.027	-0.174	0.008
-419.486	-58.751	-0.324	0.141
-418.471	-107.797	-0.091	-0.020
-417.457	-2.917	0.089	-0.062
-416.442	-144.760	0.347	-0.032
-415.428	-169.062	-0.252	0.009
-414.413	133.511	0.229	-0.297
-413.398	-62.948	-0.193	-0.080
-412.384	800.000	-0.036	-0.103
-411.369	-16.365	0.181	0.116
-410.355	11.996	0.056	0.043
-409.340	-117.702	-0.462	-0.084
-408.325	239.961	0.055	-0.093
-407.311	36.842	-0.168	0.149
-406.296	183.303	0.156	0.232
-405.282	-200.000	-0.007	-0.119
-404.267	-43.786	0.350	0.177
-403.252	374.294	0.127	0.261
-402.238	-51.946	0.215	-0.100
-401.223	-200.000	-0.026	0.348
-400.209	-165.662	-0.136	-0.006
-399.194	426.118	0.039	-0.085
-398.179	-31.874	-0.224	-0.126
-397.165	47.653	0.107	-0.100
-396.150	-117.268	0.164	-0.030
-395.136	800.000	-0.143	0.437
-394.121	36.549	-0.188	0.167
-393.106	-126.718	-0.082	0.012
-392.092	-36.676	0.334	0.180
-391.077	-10.890	-0.159	-0.105
-390.063	-200.000	0.019	0.101
-389.048	1.120	-0.166	0.119
-388.033	167.059	-0.252	0.360
-387.019	-78.364	0.429	-0.148
-386.004	-89.242	-0.188	-0.056
-384.990	-200.000	0.007	-0.082
-383.975	-45.215	0.239	0.119
-382.960	333.418	0.041	-0.079
-381.946	785.685	0.043	0.117
-380.931	-200.000	-0.010	-0.204
-379.917	47.725	0.148	-0.139
-378.902	800.000	0.040	0.161
-377.888	-148.312	0.248	0.020
-376.873	-32.462	0.181	0.101
-375.858	800.000	-0.028	0.093
-374.844	116.720	-0.076	0.093
-373.829	-5.347	0.138	-0.095
-372.815	303.629	-0.066	-0.124
-371.800	-49.585	0.114	0.054
-370.785	-200.000	0.026	-0.337
-369.771	222.922	0.096	-0.155
-368.756	1.621	0.243	-0.176
-367.742	114.334	-0.204	0.249
-366.727	376.502	0.040	-0.081
-365.712	800.000	-0.045	0.186
-364.698	-200.000	0.018	-0.279
-363.683	530.196	0.193	-0.456
-362.669	12.599	0.213	-0.165
-361.654	800.000	0.031	0.115
-360.639	-106.640	0.045	0.010
-359.625	-11.228	-0.077	0.051
-358.610	-172.420	-0.161	0.005
-357.596	-55.149	-0.096	0.043
-356.581	-195.671	0.155	0.001
-355.566	10.205	0.192	-0.146
-354.552	-200.000	0.025	-0.429
-353.537	800.000	0.004	0.017
-352.523	-66.847	-0.183	-0.072
-351.508	155.060	-0.208	0.287
-350.493	800.000	-0.031	-0.126
-349.479	800.000	-0.081	-0.315
-348.464	-0.524	0.110	-0.078
-347.450	32.652	-0.181	0.157
-346.435	-104.715	-0.149	-0.034
-345.420	-200.000	0.060	0.481
-344.406	-200.000	-0.012	-0.103
-343.391	-26.329	0.035	0.021
-342.377	-129.442	0.164	-0.023
-341.362	-178.111	0.169	-0.004
-340.348	433.574	-0.164	-0.356
-339.333	258.264	-0.044	0.077
-338.318	348.817	0.130	0.256
-337.304	323.539	-0.052	-0.100
-336.289	-130.702	-0.176	0.024
-335.275	7.866	-0.057	0.043
-334.260	99.055	0.059	-0.068
-333.245	800.000	0.157	0.438
-332.231	-20.160	0.033	0.020
-331.216	82.261	0.140	-0.152
-330.202	59.376	0.195	0.193
-329.187	-99.044	-0.148	-0.037
-328.172	229.308	-0.025	0.040
-327.158	152.098	0.211	-0.288
-326.143	-82.871	0.122	-0.039
-325.129	-76.022	0.193	0.068
-324.114	-200.000	0.004	0.264
-323.099	66.543	0.185	0.188
-322.085	-94.592	-0.149	0.041
-321.070	182.223	0.073	0.108
-320.056	-200.000	-0.024	-0.294
-319.041	579.241	-0.086	0.211
-318.026	-200.000	-0.052	0.232
-317.012	92.792	0.192	0.217
-315.997	131.967	0.074	0.095
-314.983	800.000	0.096	-0.311
-313.968	-51.627	-0.361	-0.169
-312.953	-200.000	0.017	-0.240
-311.939	-73.555	-0.124	0.045
-310.924	131.424	-0.187	-0.240
-309.910	-200.000	0.010	0.106
-308.895	446.648	-0.054	0.118
-307.880	-24.635	-0.157	-0.093
-306.866	-38.572	0.339	-0.179
-305.851	-107.795	0.157	0.034
-304.837	-17.895	-0.133	0.083
-303.822	201.421	0.214	-0.330
-302.807	108.605	-0.110	0.131
-301.793	409.857	-0.111	0.236
-300.778	-200.000	0.056	0.307
-299.764	800.000	-0.017	0.061
-298.749	-85.910	-0.281	0.087
-297.735	-200.000	-0.041	-0.273
-296.720	41.481	-0.170	0.154
-295.705	800.000	0.085	0.334
-294.691	287.136	-0.046	0.082
-293.676	113.668	-0.181	0.220
-292.662	-200.000	-0.018	0.218
-291.647	176.344	-0.093	0.136
-290.632	-120.566	0.066	0.011
-289.618	-166.334	0.075	-0.003
-288.603	125.046	0.032	-0.041
-287.589	16.426	-0.259	0.204
-286.574	-34.242	0.184	-0.101
-285.559	302.000	-0.135	-0.250
-284.545	159.210	0.096	-0.133
-283.530	-132.768	0.271	-0.035
-282.516	-87.344	0.152	-0.046
-281.501	-200.000	0.002	-0.061
-280.486	800.000	-0.076	0.222
-279.472	-155.458	0.107	0.007
-278.457	71.677	0.140	0.146
-277.443	-52.445	0.232	0.107
-276.428	300.241	-0.116	0.213
-275.413	635.023	-0.151	-0.383
-274.399	300.552	-0.068	-0.125
-273.384	490.779	-0.088	0.201
-272.370	-125.182	-0.163	0.025
-271.355	345.823	0.022	-0.043
-270.340	36.248	-0.105	0.093
-269.326	7.023	0.257	-0.191
-268.311	-82.618	-0.436	0.141
-267.297	800.000	0.042	-0.143
-266.282	80.574	0.055	-0.060
-265.267	33.656	0.202	-0.176
-264.253	-1.726	-0.322	-0.226
-263.238	-104.912	0.687	-0.157
-262.224	-200.000	0.020	-0.197
-261.209	-15.098	0.033	0.021
-260.195	800.000	-0.029	-0.124
-259.180	5.724	0.166	0.122
-258.165	-132.512	-0.249	0.032
-257.151	204.917	-0.093	-0.143
-256.136	800.000	-0.183	-0.511
-255.122	-84.586	-0.240	0.076
-254.107	202.435	0.132	0.204
-253.092	2.085	-0.357	0.257
-252.078	-200.000	0.014	-0.234
-251.063	11.107	0.280	0.214
-250.049	-139.795	-0.160	0.017
-249.034	177.076	0.216	0.314
-248.019	282.130	0.085	-0.153
-247.005	96.083	-0.286	-0.327
-245.990	180.115	-0.084	-0.122
-244.976	152.997	-0.140	0.191
-243.961	94.278	-0.274	-0.310
-242.946	444.030	0.093	-0.203
-241.932	478.772	0.108	-0.244
-240.917	202.148	-0.100	-0.154
-239.903	727.978	0.162	-0.431
-238.888	782.484	-0.031	-0.084
-237.873	464.438	0.097	0.217
-236.859	-200.000	-0.017	-0.105
-235.844	83.072	-0.154	0.168
-234.830	794.416	-0.141	0.388
-233.815	-8.157	-0.448	-0.301
-232.800	203.152	0.079	-0.122
-231.786	-110.094	0.234	0.049
-230.771	46.868	0.252	0.233
-229.757	-200.000	0.012	0.212
-228.742	-107.701	0.095	0.021
-227.727	-169.421	0.117	-0.004
-226.713	258.649	-0.170	0.292
-225.698	23.428	0.283	-0.232
-224.684	-13.621	-0.416	0.269
-223.669	800.000	-0.044	-0.181
-222.655	-14.097	0.189	0.121
-221.640	-200.000	0.004	0.160
-220.625	-46.913	-0.130	0.063
-219.611	-200.000	0.325	-0.001
-218.596	227.384	-0.081	-0.132
-217.582	-44.032	0.112	-0.056
-216.567	-147.346	-0.076	-0.006
-215.552	205.853	0.086	-0.133
-214.538	-123.536	-0.316	0.050
-213.523	-97.640	0.115	-0.030
-212.509	-96.775	-0.350	-0.092
-211.494	381.321	0.083	-0.170
-210.479	-200.000	0.019	0.454
-209.465	-119.641	-0.211	0.036
-208.450	-68.257	-0.485	0.188
-207.436	-57.816	0.362	-0.158
-206.421	379.843	0.217	-0.444
-205.406	8.037	-0.167	0.125
-204.392	-200.000	0.009	-0.063
-203.377	-80.047	0.279	0.093
-202.363	146.861	0.190	0.254
-201.348	303.874	-0.092	-0.170
-200.333	-31.819	0.269	0.151
-199.319	-194.840	0.268	-0.002
-198.304	800.000	0.106	0.324
-197.290	-195.830	0.228	-0.002
-196.275	800.000	-0.023	-0.092
-195.260	650.119	-0.075	0.191
-194.246	-85.146	0.247	0.077
-193.231	-99.331	-0.122	-0.031
-192.217	-184.991	-0.204	0.003
-191.202	-36.328	-0.365	0.196
-190.187	78.025	0.132	-0.140
-189.173	800.000	0.118	-0.335
-188.158	-200.000	0.008	0.041
-187.144	-54.975	0.143	0.064
-186.129	115.101	0.137	0.167
-185.114	-126.602	-0.139	0.020
-184.100	-200.000	0.032	0.182
-183.085	800.000	0.044	0.147
-182.071	-40.645	0.403	-0.208
-181.056	-114.813	-0.328	-0.062
-180.042	188.937	-0.070	-0.104
-179.027	428.514	0.138	0.296
-178.012	26.228	-0.119	-0.099
-176.998	800.000	0.069	0.216
-175.983	259.259	-0.272	0.467
-174.969	800.000	-0.022	0.079
-173.954	80.263	0.137	0.146
-172.939	-200.000	-0.035	0.176
-171.925	800.000	-0.104	0.305
-170.910	204.446	0.084	-0.129
-169.896	9.194	-0.020	-0.015
-168.881	-143.907	0.187	0.017
-167.866	-147.234	0.326	0.028
-166.852	-200.000	0.013	-0.157
-165.837	-4.629	0.189	0.130
-164.823	6.975	-0.227	-0.168
-163.808	459.128	0.130	0.288
-162.793	524.976	0.158	-0.370
-161.779	-200.000	-0.002	-0.419
-160.764	-84.076	0.386	0.122
-159.750	-200.000	0.009	0.200
-158.735	-135.998	-0.222	-0.026
-157.720	341.847	0.155	-0.302
-156.706	-86.560	-0.491	-0.150
-155.691	169.252	-0.253	-0.360
-154.677	78.614	0.235	-0.250
-153.662	-19.761	0.313	0.193
-152.647	-112.591	-0.371	0.074
-151.633	-34.186	-0.099	-0.054
-150.618	104.035	0.077	0.090
-149.604	323.288	-0.011	-0.021
-148.589	-47.781	-0.142	0.068
-147.574	-104.291	0.267	-0.062
-146.560	-200.000	-0.064	-0.397
-145.545	93.229	0.269	-0.303
-144.531	-54.317	-0.180	-0.081
-143.516	-200.000	-0.021	-0.140
-142.502	708.544	0.077	0.202
-141.487	190.709	-0.120	-0.180
-140.472	130.960	-0.047	-0.060
-139.458	600.391	0.101	0.249
-138.443	-32.739	-0.077	-0.043
-137.429	-89.977	0.357	-0.104
-136.414	373.754	0.119	-0.240
-135.399	303.446	-0.065	0.120
-134.385	38.949	0.234	-0.208
-133.370	78.020	0.295	-0.313
-132.356	-124.949	-0.353	-0.054
-131.341	-200.000	-0.019	-0.270
-130.326	100.286	0.144	-0.166
-129.312	203.060	0.157	-0.241
-128.297	211.000	0.065	-0.102
-127.283	119.653	0.086	0.106
-126.268	487.906	-0.189	0.428
-125.253	156.930	-0.158	0.217
-124.239	-179.131	0.087	0.002
-123.224	-16.113	-0.226	0.143
-122.210	-200.000	0.022	0.160
-121.195	800.000	-0.057	-0.201
