DTS Sentinel unit serial number:	SN413079Multiplexer serial number:	ORYXHardware model number:	OX4-SRSoftware version number:	ORYX F/W v4.00 Oryx Data Collector v3.7.2.0data status	okinstallation	princeton_trtdifferential loss correction	single-endedforward channel	channel 4reverse channel	N/Adate	2019/09/16time	01:13:35forward acquisition time	60.00reverse acquisition time	0.00gamma	496.2192k internal	0.2323k external	0.2323temperature offset calibration	0.9971default loss term (dB/km)	0.3790temperature slope calibration	1.0000multiplexer offset coefficient	1.0000multiplexer slope coefficient	1.0000fibre end	0.00T internal ref (°C)	27.27T ext. ref 1 (°C)	9.83T ext. ref 2 (°C)	21.73length (m)	temperature (°C)	Stokes	anti-Stokes-747.200	201.364	0.033	0.051
-746.185	-59.222	0.168	0.073
-745.171	523.958	0.092	0.218
-744.156	143.715	-0.212	0.285
-743.142	430.206	0.190	0.415
-742.127	800.000	-0.063	0.222
-741.112	-200.000	-0.022	-0.198
-740.098	-97.996	0.022	-0.006
-739.083	-168.346	-0.121	-0.005
-738.069	-131.017	-0.803	0.108
-737.054	427.323	-0.031	-0.067
-736.039	508.632	0.073	-0.170
-735.025	-73.803	0.230	0.084
-734.010	-21.255	0.043	0.027
-732.996	479.103	-0.124	0.283
-731.981	189.537	0.077	0.116
-730.966	372.202	-0.059	0.121
-729.952	-200.000	-0.013	0.131
-728.937	-200.000	-0.020	0.120
-727.923	-200.000	-0.045	-0.237
-726.908	255.822	0.212	0.367
-725.894	-23.217	0.150	-0.091
-724.879	26.777	0.141	-0.119
-723.864	-200.000	-0.044	0.486
-722.850	800.000	-0.036	-0.103
-721.835	22.830	-0.023	-0.019
-720.821	687.269	-0.068	-0.180
-719.806	-145.322	-0.094	0.009
-718.791	-111.831	0.161	-0.033
-717.777	-200.000	0.009	-0.282
-716.762	32.293	-0.506	-0.441
-715.748	96.358	-0.210	-0.243
-714.733	672.968	0.080	0.210
-713.718	-200.000	-0.035	-0.195
-712.704	-38.565	0.295	0.157
-711.689	-157.509	-0.162	0.010
-710.675	-114.124	0.053	0.010
-709.660	800.000	-0.009	-0.031
-708.645	-132.700	0.319	0.041
-707.631	495.096	-0.067	0.155
-706.616	606.711	0.086	-0.215
-705.602	-140.940	-0.332	-0.034
-704.587	-79.790	0.190	-0.065
-703.572	98.023	-0.220	-0.256
-702.558	-21.666	0.291	-0.179
-701.543	-51.830	-0.159	0.075
-700.529	321.095	-0.154	-0.295
-699.514	122.841	0.143	0.180
-698.499	353.108	-0.096	0.192
-697.485	-135.212	-0.186	-0.023
-696.470	-39.116	-0.078	0.041
-695.456	-200.000	-0.066	-0.400
-694.441	134.808	-0.179	0.234
-693.426	-57.892	0.423	-0.186
-692.412	58.471	0.018	0.018
-691.397	-45.196	-0.209	0.105
-690.383	-103.553	0.104	0.025
-689.368	-75.217	-0.254	-0.091
-688.354	-195.948	-0.194	0.001
-687.339	23.705	-0.466	-0.387
-686.324	181.610	-0.129	-0.192
-685.310	-163.498	-0.102	0.005
-684.295	77.047	0.084	-0.090
-683.281	180.976	-0.032	-0.047
-682.266	227.138	0.108	-0.176
-681.251	800.000	-0.117	-0.369
-680.237	226.215	-0.107	0.176
-679.222	161.256	-0.132	0.185
-678.208	-63.145	0.263	0.109
-677.193	112.073	0.037	0.045
-676.178	-112.616	-0.440	0.088
-675.164	241.823	0.174	0.294
-674.149	-43.509	-0.242	0.123
-673.135	-200.000	0.003	0.330
-672.120	15.673	0.134	0.106
-671.105	-149.035	-0.207	0.017
-670.091	85.980	0.016	0.018
-669.076	-111.163	0.247	-0.051
-668.062	-182.964	-0.217	0.004
-667.047	35.097	-0.046	-0.041
-666.032	-115.238	0.221	0.042
-665.018	-200.000	0.038	0.286
-664.003	-82.814	0.134	-0.044
-662.989	-128.064	-0.557	0.080
-661.974	-132.135	0.275	-0.036
-660.959	354.315	0.215	0.430
-659.945	-200.000	-0.015	0.278
-658.930	51.351	-0.083	0.080
-657.916	-200.000	-0.021	-0.497
-656.901	-200.000	0.007	-0.110
-655.886	14.050	0.189	-0.148
-654.872	-200.000	-0.034	0.266
-653.857	-14.188	-0.113	-0.073
-652.843	284.015	-0.071	-0.128
-651.828	60.948	0.094	-0.094
-650.814	197.368	-0.137	-0.210
-649.799	32.152	0.209	-0.181
-648.784	-200.000	0.045	-0.322
-647.770	100.641	0.172	-0.201
-646.755	800.000	0.040	-0.127
-645.741	419.300	0.019	-0.040
-644.726	-79.803	-0.070	-0.024
-643.711	96.683	-0.175	-0.202
-642.697	-23.358	-0.184	0.112
-641.682	-200.000	0.040	0.275
-640.668	331.693	-0.145	-0.282
-639.653	-200.000	0.032	-0.149
-638.638	-18.865	-0.280	-0.175
-637.624	-92.620	-0.018	0.005
-636.609	800.000	0.095	-0.326
-635.595	-66.380	0.183	0.073
-634.580	289.741	-0.155	-0.283
-633.565	-8.117	0.122	0.083
-632.551	553.472	-0.059	0.144
-631.536	-95.474	-0.463	-0.125
-630.522	800.000	-0.057	-0.220
-629.507	-111.759	-0.294	-0.060
-628.492	-10.967	-0.016	0.011
-627.478	-200.000	-0.015	0.081
-626.463	-16.970	-0.172	0.109
-625.449	-132.699	-0.586	-0.075
-624.434	-200.000	0.202	-0.001
-623.419	-200.000	0.002	-0.270
-622.405	-3.609	0.191	0.133
-621.390	66.127	-0.075	0.076
-620.376	-110.768	-0.084	0.017
-619.361	40.686	-0.073	-0.067
-618.346	800.000	-0.046	-0.162
-617.332	-160.293	-0.294	-0.016
-616.317	-169.056	0.103	-0.004
-615.303	800.000	0.046	0.201
-614.288	164.347	0.139	0.197
-613.273	208.251	-0.154	0.242
-612.259	91.531	0.205	-0.231
-611.244	274.430	0.127	-0.226
-610.230	97.904	-0.022	-0.026
-609.215	-18.506	-0.286	-0.179
-608.201	-191.138	0.113	0.001
-607.186	-42.585	0.094	-0.048
-606.171	91.587	-0.025	0.029
-605.157	-200.000	0.014	-0.208
-604.142	-200.000	0.050	0.367
-603.128	73.390	0.139	0.146
-602.113	63.438	0.118	0.119
-601.098	-95.783	-0.103	-0.028
-600.084	-135.851	-0.322	-0.038
-599.069	24.990	0.288	-0.240
-598.055	-114.760	0.160	0.031
-597.040	139.867	0.095	0.126
-596.025	26.454	0.060	0.051
-595.011	-120.207	0.241	-0.041
-593.996	73.934	-0.230	-0.242
-592.982	800.000	-0.045	0.180
-591.967	78.938	0.089	0.096
-590.952	800.000	0.091	0.306
-589.938	-200.000	0.046	-0.274
-588.923	800.000	0.024	0.104
-587.909	385.447	-0.172	0.355
-586.894	624.535	0.086	-0.217
-585.879	68.013	0.077	0.079
-584.865	372.701	-0.154	0.314
-583.850	-24.496	0.113	-0.068
-582.836	-45.678	-0.199	-0.099
-581.821	-99.399	0.161	-0.041
-580.806	800.000	-0.042	0.152
-579.792	800.000	0.014	-0.053
-578.777	800.000	-0.097	0.336
-577.763	-92.603	-0.086	0.024
-576.748	-135.089	0.154	0.019
-575.733	-200.000	-0.008	0.039
-574.719	-27.139	-0.245	0.143
-573.704	-200.000	0.005	0.091
-572.690	288.873	0.130	0.237
-571.675	-70.120	-0.414	0.158
-570.661	82.401	-0.093	-0.101
-569.646	800.000	-0.124	-0.376
-568.631	5.230	0.218	0.161
-567.617	338.088	-0.115	0.224
-566.602	387.677	0.107	0.221
-565.588	-200.000	-0.027	0.191
-564.573	-200.000	0.018	-0.223
-563.558	68.930	-0.125	-0.128
-562.544	190.556	-0.083	-0.125
-561.529	-200.000	0.025	0.188
-560.515	-200.000	-0.017	0.093
-559.500	-162.176	-0.207	0.010
-558.485	-97.232	-0.346	-0.090
-557.471	556.403	0.075	0.180
-556.456	-65.257	-0.214	-0.086
-555.442	-11.958	-0.075	-0.049
-554.427	229.139	0.148	-0.241
-553.412	151.305	-0.135	-0.185
-552.398	-22.726	-0.220	0.133
-551.383	-200.000	0.013	0.134
-550.369	-98.895	0.208	0.053
-549.354	61.319	0.074	-0.074
-548.339	161.272	0.143	-0.200
-547.325	-98.932	-0.390	-0.099
-546.310	-43.263	-0.078	0.040
-545.296	117.402	0.243	0.300
-544.281	-101.796	0.190	-0.046
-543.266	59.730	-0.117	0.116
-542.252	-200.000	-0.000	-0.283
-541.237	138.366	-0.113	-0.149
-540.223	4.544	0.156	-0.114
-539.208	-162.753	-0.139	-0.007
-538.193	277.420	-0.091	0.162
-537.179	147.973	-0.098	-0.132
-536.164	-184.037	0.171	0.003
-535.150	36.453	0.106	-0.093
-534.135	-163.053	-0.200	0.010
-533.121	-168.440	-0.344	0.013
-532.106	38.826	-0.060	-0.053
-531.091	-14.330	0.121	-0.078
-530.077	800.000	0.029	0.101
-529.062	-86.772	-0.116	-0.035
-528.048	38.025	-0.098	-0.088
-527.033	800.000	-0.080	0.248
-526.018	51.293	0.174	-0.165
-525.004	-200.000	-0.062	-0.408
-523.989	-160.125	-0.264	-0.014
-522.975	228.096	-0.124	-0.202
-521.960	800.000	-0.075	0.220
-520.945	501.549	0.086	0.198
-519.931	-91.589	0.265	0.076
-518.916	159.374	-0.144	0.201
-517.902	-183.688	0.168	0.003
-516.887	344.822	-0.087	0.172
-515.872	662.471	-0.035	0.092
-514.858	49.906	-0.192	-0.181
-513.843	-107.903	0.256	-0.056
-512.829	201.085	0.111	0.170
-511.814	215.521	-0.081	0.129
-510.799	-200.000	0.005	-0.089
-509.785	-4.641	-0.211	-0.146
-508.770	768.971	0.117	-0.318
-507.756	-140.156	-0.142	0.015
-506.741	54.447	0.172	-0.166
-505.726	-126.366	0.134	-0.020
-504.712	512.483	-0.102	0.238
-503.697	33.190	0.227	0.197
-502.683	-0.746	0.123	0.087
-501.668	-95.115	0.146	0.040
-500.653	7.889	-0.198	-0.148
-499.639	-66.726	0.109	0.043
-498.624	-200.000	-0.042	0.303
-497.610	564.169	-0.130	-0.314
-496.595	285.600	0.060	0.109
-495.581	-7.432	-0.275	0.186
-494.566	-200.000	-0.074	-0.368
-493.551	-17.653	0.070	0.044
-492.537	-200.000	-0.018	-0.322
-491.522	333.968	0.072	-0.140
-490.508	278.482	-0.084	0.150
-489.493	-200.000	0.008	0.314
-488.478	-75.234	-0.090	0.032
-487.464	174.949	0.122	-0.177
-486.449	546.562	-0.081	-0.193
-485.435	175.026	0.051	-0.073
-484.420	-200.000	0.011	0.265
-483.405	-23.578	-0.154	-0.092
-482.391	800.000	0.036	-0.118
-481.376	84.303	-0.172	-0.188
-480.362	238.912	0.148	-0.246
-479.347	-200.000	0.041	-0.193
-478.332	800.000	0.044	-0.166
-477.318	64.244	-0.201	0.202
-476.303	-54.981	0.208	0.094
-475.289	23.718	0.249	-0.205
-474.274	-75.130	-0.058	0.021
-473.259	800.000	-0.018	-0.048
-472.245	-39.087	-0.158	-0.083
-471.230	-42.739	-0.271	0.138
-470.216	-77.734	0.268	0.093
-469.201	77.168	-0.216	0.230
-468.186	-142.939	-0.317	-0.031
-467.172	268.728	0.122	-0.214
-466.157	359.554	-0.111	-0.221
-465.143	56.686	0.203	-0.197
-464.128	-200.000	0.006	-0.201
-463.113	-200.000	-0.026	-0.310
-462.099	4.530	0.233	-0.170
-461.084	101.921	0.175	0.203
-460.070	-9.120	0.341	0.228
-459.055	-121.217	-0.137	-0.023
-458.040	-123.028	0.051	-0.008
-457.026	7.081	0.122	-0.091
-456.011	724.805	0.050	0.134
-454.997	84.766	0.084	-0.092
-453.982	-142.695	0.164	0.016
-452.968	549.811	0.078	0.187
-451.953	-137.253	0.070	0.008
-450.938	-50.507	0.085	-0.040
-449.924	9.855	-0.075	0.056
-448.909	-11.594	-0.096	-0.063
-447.895	-200.000	0.017	0.301
-446.880	-170.373	0.247	0.009
-445.865	-52.004	0.268	-0.124
-444.851	56.087	0.105	-0.102
-443.836	-200.000	-0.091	0.594
-442.822	800.000	-0.077	0.225
-441.807	-106.689	0.121	-0.027
-440.792	11.069	0.070	-0.053
-439.778	-178.353	-0.070	-0.002
-438.763	-45.424	0.285	-0.141
-437.749	31.545	-0.175	0.150
-436.734	420.912	0.127	0.272
-435.719	55.467	-0.069	0.067
-434.705	254.083	-0.132	0.225
-433.690	-123.943	-0.182	0.029
-432.676	-50.906	-0.207	0.097
-431.661	83.321	-0.036	-0.039
-430.646	-35.882	0.228	-0.123
-429.632	258.508	0.160	-0.275
-428.617	800.000	0.049	-0.196
-427.603	52.307	-0.298	-0.283
-426.588	173.376	0.106	-0.152
-425.573	787.111	0.114	-0.313
-424.559	127.124	-0.300	0.380
-423.544	-129.725	-0.298	0.041
-422.530	-81.742	-0.212	-0.069
-421.515	88.370	-0.206	0.228
-420.500	-95.667	0.046	0.012
-419.486	800.000	0.114	-0.475
-418.471	205.279	0.114	-0.176
-417.457	61.568	-0.162	-0.160
-416.442	6.025	0.073	0.054
-415.428	-200.000	0.104	0.582
-414.413	-94.565	-0.028	0.008
-413.398	-200.000	-0.008	-0.302
-412.384	-62.537	-0.035	-0.015
-411.369	-200.000	-0.001	0.094
-410.355	-48.298	0.150	-0.072
-409.340	-84.542	-0.211	-0.066
-408.325	-127.702	0.318	-0.046
-407.311	27.612	-0.116	0.097
-406.296	5.870	-0.285	-0.210
-405.282	-93.715	-0.262	-0.072
-404.267	19.451	-0.208	-0.166
-403.252	-74.560	0.310	-0.111
-402.238	775.906	-0.103	0.281
-401.223	800.000	0.071	-0.203
-400.209	364.370	0.142	-0.286
-399.194	-132.912	-0.196	0.025
-398.179	-116.039	-0.370	-0.069
-397.165	-200.000	-0.045	0.200
-396.150	-51.258	-0.075	-0.035
-395.136	-200.000	-0.008	0.297
-394.121	-94.514	-0.251	-0.068
-393.106	405.926	-0.054	-0.114
-392.092	66.679	0.167	-0.169
-391.077	-200.000	0.057	0.435
-390.063	-159.043	0.214	0.012
-389.048	-182.201	0.176	-0.003
-388.033	32.768	0.061	-0.053
-387.019	45.975	0.236	0.218
-386.004	-200.000	-0.020	0.281
-384.990	35.784	0.209	-0.183
-383.975	-108.324	-0.121	-0.026
-382.960	168.888	0.054	-0.076
-381.946	-200.000	0.021	0.138
-380.931	-15.246	0.356	0.227
-379.917	115.121	-0.103	-0.125
-378.902	-200.000	-0.001	-0.487
-377.888	445.577	-0.084	-0.184
-376.873	404.664	0.038	0.079
-375.858	373.795	0.123	0.248
-374.844	-75.264	0.446	0.158
-373.829	642.723	0.074	-0.188
-372.815	371.529	-0.100	-0.203
-371.800	-67.752	0.044	0.017
-370.785	139.759	0.291	0.381
-369.771	439.320	-0.074	-0.161
-368.756	-200.000	-0.037	0.272
-367.742	-112.870	-0.079	0.016
-366.727	132.468	0.167	0.214
-365.712	-30.342	-0.126	-0.071
-364.698	-200.000	-0.000	-0.086
-363.683	105.905	0.028	-0.032
-362.669	-82.312	-0.082	0.027
-361.654	-69.744	-0.102	0.039
-360.639	-200.000	-0.021	-0.123
-359.625	-8.380	0.228	-0.152
-358.610	-133.907	-0.115	0.014
-357.596	279.452	0.034	-0.061
-356.581	-123.709	-0.466	-0.073
-355.566	-200.000	-0.060	-0.331
-354.552	132.432	0.025	-0.032
-353.537	-3.205	0.107	-0.074
-352.523	-200.000	0.024	-0.188
-351.508	86.164	-0.144	0.157
-350.493	153.450	0.099	0.135
-349.479	-81.155	0.092	-0.030
-348.464	56.912	0.062	0.061
-347.450	187.904	0.049	-0.072
-346.435	-144.817	0.483	0.044
-345.420	198.276	0.104	0.158
-344.406	80.846	-0.179	-0.192
-343.391	75.269	-0.069	-0.072
-342.377	-112.637	-0.271	0.054
-341.362	15.515	-0.315	-0.246
-340.348	800.000	0.095	0.297
-339.333	361.420	0.138	0.275
-338.318	133.233	-0.025	-0.032
-337.304	15.809	-0.304	-0.238
-336.289	-200.000	-0.017	0.093
-335.275	86.396	-0.033	-0.036
-334.260	800.000	-0.062	-0.172
-333.245	79.178	0.327	0.348
-332.231	469.899	-0.058	-0.128
-331.216	-9.471	-0.129	0.085
-330.202	-57.945	-0.354	-0.154
-329.187	68.979	0.162	0.165
-328.172	274.424	0.126	0.222
-327.158	-6.462	-0.398	-0.269
-326.143	118.975	-0.230	-0.283
-325.129	-200.000	-0.004	0.023
-324.114	-200.000	0.002	-0.052
-323.099	-200.000	-0.033	0.215
-322.085	325.632	-0.169	0.321
-321.070	-200.000	0.049	0.271
-320.056	48.285	-0.120	0.111
-319.041	-200.000	-0.017	0.081
-318.026	-200.000	0.002	0.280
-317.012	800.000	0.099	0.299
-315.997	-133.782	0.218	0.027
-314.983	-1.986	0.033	0.023
-313.968	-23.889	0.160	-0.095
-312.953	800.000	0.038	0.151
-311.939	241.759	-0.168	-0.279
-310.924	100.044	0.121	0.139
-309.910	318.046	-0.086	-0.161
-308.895	-60.157	0.087	-0.037
-307.880	-141.858	0.060	0.006
-306.866	5.108	0.215	0.157
-305.851	60.291	0.074	-0.073
-304.837	-200.000	0.045	0.219
-303.822	-155.563	-0.183	-0.012
-302.807	-22.255	0.137	-0.082
-301.793	-73.179	0.174	0.063
-300.778	-200.000	0.012	-0.344
-299.764	180.370	-0.115	-0.168
-298.749	800.000	0.063	0.211
-297.735	-91.928	-0.111	-0.031
-296.720	107.615	-0.136	0.161
-295.705	-200.000	0.021	-0.133
-294.691	-52.178	0.212	0.098
-293.676	678.147	-0.027	0.070
-292.662	800.000	-0.060	0.172
-291.647	776.547	0.160	-0.434
-290.632	-182.445	-0.206	0.004
-289.618	-200.000	0.005	-0.272
-288.603	-119.857	0.112	0.019
-287.589	92.031	0.127	-0.142
-286.574	135.836	-0.064	0.083
-285.559	472.703	-0.042	-0.094
-284.545	-15.112	0.333	-0.212
-283.530	101.896	-0.188	0.217
-282.516	31.996	0.075	-0.064
-281.501	-200.000	-0.006	0.171
-280.486	-62.756	-0.229	-0.094
-279.472	800.000	0.071	0.220
-278.457	-72.596	0.125	-0.046
-277.443	317.897	-0.042	-0.078
-276.428	1.329	0.281	0.200
-275.413	413.462	-0.108	-0.228
-274.399	93.540	-0.206	-0.232
-273.384	-77.031	-0.201	-0.070
-272.370	2.313	0.180	0.129
-271.355	-103.720	0.346	-0.080
-270.340	126.818	-0.240	0.302
-269.326	185.909	0.202	0.298
-268.311	-83.905	-0.050	0.016
-267.297	56.975	0.136	0.131
-266.282	-200.000	-0.006	0.236
-265.267	-11.905	0.223	-0.145
-264.253	-168.024	-0.010	-0.000
-263.238	-46.252	0.125	0.061
-262.224	424.339	0.053	-0.113
-261.209	143.877	0.236	-0.312
-260.195	151.935	0.258	0.348
-259.180	-200.000	-0.006	0.090
-258.165	-200.000	0.034	0.203
-257.151	-200.000	-0.030	-0.205
-256.136	97.731	-0.144	0.164
-255.122	800.000	-0.115	0.330
-254.107	-90.795	0.323	-0.092
-253.092	34.755	-0.134	-0.116
-252.078	-200.000	0.025	-0.248
-251.063	-114.900	0.206	-0.039
-250.049	-200.000	-0.010	0.225
-249.034	-53.408	-0.057	-0.026
-248.019	72.871	-0.195	0.202
-247.005	-64.117	-0.342	0.138
-245.990	55.477	0.276	-0.264
-244.976	144.750	0.036	-0.047
-243.961	550.813	0.071	0.169
-242.946	-86.793	0.137	-0.041
-241.932	-200.000	-0.057	-0.287
-240.917	34.204	-0.049	-0.042
-239.903	-167.575	0.104	-0.004
-238.888	319.296	-0.075	0.140
-237.873	-200.000	0.071	-0.343
-236.859	28.665	0.168	0.140
-235.844	49.495	0.305	0.284
-234.830	800.000	-0.108	0.354
-233.815	-21.253	-0.451	0.273
-232.800	800.000	0.026	-0.112
-231.786	46.842	0.274	-0.252
-230.771	-112.190	-0.246	-0.049
-229.757	19.593	-0.017	0.014
-228.742	-11.087	0.295	-0.193
-227.727	237.986	0.095	0.155
-226.713	-61.811	-0.107	0.044
-225.698	-155.469	-0.039	-0.002
-224.684	563.335	0.131	-0.313
-223.669	-73.326	-0.136	-0.049
-222.655	-200.000	0.012	0.076
-221.640	41.575	0.193	0.173
-220.625	139.311	0.141	0.184
-219.611	29.819	0.009	-0.007
-218.596	201.762	-0.082	0.125
-217.582	670.785	0.054	0.138
-216.567	-142.023	0.322	0.032
-215.552	109.101	-0.196	-0.232
-214.538	-13.881	0.215	0.137
-213.523	-138.663	-0.308	-0.033
-212.509	-159.494	0.326	0.018
-211.494	-200.000	-0.055	-0.356
-210.479	-130.855	0.136	0.018
-209.465	59.301	0.183	-0.178
-208.450	-13.954	0.349	-0.223
-207.436	18.007	0.121	-0.095
-206.421	-95.466	-0.105	-0.028
-205.406	-107.345	-0.355	0.077
-204.392	-85.855	0.295	-0.090
-203.377	-69.774	-0.100	0.038
-202.363	125.144	0.114	0.142
-201.348	-200.000	0.006	0.095
-200.333	-189.083	0.389	-0.005
-199.319	204.578	-0.168	-0.258
-198.304	49.637	-0.208	0.194
-197.290	-36.415	-0.136	0.072
-196.275	734.467	-0.083	-0.221
-195.260	-75.352	-0.228	-0.080
-194.246	154.010	-0.028	0.037
-193.231	-90.669	-0.238	0.068
-192.217	-200.000	-0.028	0.216
-191.202	-165.097	0.231	0.010
-190.187	-94.630	0.305	0.082
-189.173	-200.000	0.049	-0.218
-188.158	-120.031	0.291	0.049
-187.144	-200.000	0.047	0.216
-186.129	-59.369	-0.088	0.037
-185.114	800.000	-0.056	0.174
-184.100	-200.000	-0.044	0.225
-183.085	351.037	0.049	0.096
-182.071	-48.405	-0.100	-0.048
-181.056	800.000	0.051	-0.203
-180.042	656.342	0.153	0.388
-179.027	-200.000	0.045	-0.237
-178.012	800.000	0.102	0.305
-176.998	800.000	-0.043	-0.117
-175.983	598.794	-0.049	0.121
-174.969	34.139	0.207	0.178
-173.954	-90.640	-0.020	-0.006
-172.939	-198.488	0.254	-0.001
-171.925	405.837	-0.102	-0.213
-170.910	-200.000	0.018	0.114
-169.896	40.267	0.097	-0.086
-168.881	103.754	0.230	0.267
-167.866	10.168	-0.124	0.093
-166.852	-61.496	-0.444	-0.184
-165.837	-200.000	0.029	0.307
-164.823	800.000	-0.050	0.192
-163.808	-7.376	-0.273	-0.182
-162.793	800.000	-0.105	-0.381
-161.779	279.580	0.146	0.256
-160.764	43.891	-0.058	-0.053
-159.750	87.668	-0.074	-0.080
-158.735	231.872	-0.067	0.109
-157.720	104.370	-0.265	0.308
-156.706	-144.771	0.031	-0.003
-155.691	89.354	-0.122	0.134
-154.677	-92.598	0.225	0.062
-153.662	-153.813	-0.213	0.014
-152.647	-25.749	-0.110	-0.064
-151.633	800.000	0.145	-0.537
-150.618	-141.742	0.344	-0.034
-149.604	-70.121	0.178	-0.067
-148.589	-200.000	-0.058	-0.256
-147.574	-131.809	0.245	0.032
-146.560	187.205	-0.131	-0.193
-145.545	773.180	0.116	-0.313
-144.531	-23.995	0.159	0.093
-143.516	-46.405	-0.066	-0.032
-142.502	70.717	0.533	0.544
-141.487	-20.309	-0.058	0.035
-140.472	-101.266	0.346	-0.083
-139.458	39.919	-0.325	0.288
-138.443	-139.935	-0.170	-0.018
-137.429	12.394	0.124	0.094
-136.414	800.000	-0.004	-0.017
-135.399	800.000	-0.109	-0.351
-134.385	-70.062	-0.136	0.051
-133.370	54.064	0.189	-0.179
-132.356	81.043	-0.275	0.293
-131.341	-58.648	0.151	-0.065
-130.326	800.000	0.056	-0.175
-129.312	112.082	0.143	-0.170
-128.297	99.632	-0.019	-0.022
-127.283	-34.602	-0.119	-0.064
-126.268	19.327	0.098	-0.078
-125.253	-42.044	-0.070	-0.035
-124.239	-153.113	-0.119	-0.008
-123.224	130.273	-0.143	-0.180
-122.210	-58.379	-0.180	0.077
-121.195	713.950	0.063	-0.164
