DTS Sentinel unit serial number:	SN413079Multiplexer serial number:	ORYXHardware model number:	OX4-SRSoftware version number:	ORYX F/W v4.00 Oryx Data Collector v3.7.2.0data status	okinstallation	princeton_trtdifferential loss correction	single-endedforward channel	channel 4reverse channel	N/Adate	2019/09/14time	17:45:35forward acquisition time	60.00reverse acquisition time	0.00gamma	496.2192k internal	0.2295k external	0.2295temperature offset calibration	1.0114default loss term (dB/km)	0.3790temperature slope calibration	1.0000multiplexer offset coefficient	1.0000multiplexer slope coefficient	1.0000fibre end	0.00T internal ref (°C)	37.50T ext. ref 1 (°C)	5.03T ext. ref 2 (°C)	32.71length (m)	temperature (°C)	Stokes	anti-Stokes-747.200	800.000	0.060	-0.262
-746.185	-65.739	-0.295	-0.121
-745.171	66.110	0.166	-0.172
-744.156	-136.575	-0.377	-0.045
-743.142	-158.236	0.280	0.017
-742.127	5.177	-0.430	0.324
-741.112	374.558	-0.163	0.340
-740.098	162.141	-0.281	0.403
-739.083	60.961	0.209	-0.212
-738.069	-106.312	0.056	0.013
-737.054	119.125	-0.038	0.048
-736.039	-92.346	-0.176	0.051
-735.025	-57.016	-0.163	0.073
-734.010	800.000	-0.087	0.292
-732.996	143.760	0.131	-0.178
-731.981	149.532	0.120	-0.166
-730.966	25.114	0.212	0.180
-729.952	800.000	-0.064	0.181
-728.937	-7.634	-0.183	0.126
-727.923	-90.952	0.221	-0.065
-726.908	-200.000	0.055	-0.255
-725.894	272.293	0.094	0.170
-724.879	77.721	-0.059	0.064
-723.864	-66.777	-0.120	-0.048
-722.850	114.994	-0.124	0.155
-721.835	-65.017	-0.175	0.072
-720.821	-62.742	-0.196	-0.083
-719.806	-200.000	0.022	0.108
-718.791	-200.000	0.015	-0.114
-717.777	800.000	-0.078	-0.281
-716.762	-40.850	0.259	0.137
-715.748	357.240	-0.033	0.068
-714.733	-200.000	0.046	-0.406
-713.718	744.419	-0.191	-0.525
-712.704	411.148	-0.037	0.081
-711.689	-34.280	0.259	0.145
-710.675	-65.050	-0.190	-0.078
-709.660	575.466	0.085	0.212
-708.645	1.564	0.510	0.374
-707.631	800.000	0.027	0.080
-706.616	130.715	-0.241	0.315
-705.602	-54.045	-0.140	0.065
-704.587	-120.616	-0.511	0.088
-703.572	-81.564	0.294	0.099
-702.558	241.589	-0.179	-0.305
-701.543	800.000	0.043	0.153
-700.529	-200.000	0.020	-0.226
-699.514	-50.629	-0.175	0.084
-698.499	6.312	0.195	0.148
-697.485	-200.000	0.046	-0.304
-696.470	-64.916	-0.215	-0.089
-695.456	-119.409	-0.353	-0.063
-694.441	-12.523	0.199	-0.132
-693.426	170.703	-0.098	0.144
-692.412	546.438	0.177	-0.433
-691.397	-174.705	-0.210	0.006
-690.383	-200.000	-0.031	0.313
-689.368	-21.989	-0.322	-0.200
-688.354	-91.609	0.377	-0.110
-687.339	-82.363	0.300	0.099
-686.324	-69.149	0.074	-0.029
-685.310	59.103	-0.103	-0.104
-684.295	-62.507	-0.150	0.064
-683.281	71.143	-0.208	0.220
-682.266	76.788	0.209	-0.226
-681.251	-200.000	0.029	-0.255
-680.237	-117.178	-0.335	0.062
-679.222	21.548	0.114	-0.095
-678.208	39.195	0.139	-0.127
-677.193	-200.000	0.014	-0.100
-676.178	-134.958	-0.108	-0.013
-675.164	-200.000	0.003	-0.175
-674.149	174.877	0.042	-0.062
-673.135	-200.000	0.014	-0.189
-672.120	148.350	0.194	-0.267
-671.105	-89.721	-0.488	0.146
-670.091	497.369	0.086	-0.202
-669.076	-200.000	-0.009	0.067
-668.062	-200.000	0.008	-0.431
-667.047	153.291	0.207	0.288
-666.032	-75.520	0.149	0.054
-665.018	118.485	-0.048	0.060
-664.003	-14.358	0.066	-0.043
-662.989	55.465	0.059	0.058
-661.974	91.519	0.209	-0.240
-660.959	-12.303	0.091	0.061
-659.945	-182.204	0.191	0.004
-658.930	251.782	0.080	0.139
-657.916	-15.625	-0.151	0.098
-656.901	217.516	-0.109	-0.178
-655.886	42.470	-0.058	-0.054
-654.872	-11.420	-0.476	-0.319
-653.857	-200.000	0.038	-0.191
-652.843	25.922	-0.215	-0.182
-651.828	-19.120	0.237	-0.150
-650.814	61.446	-0.215	-0.218
-649.799	465.970	-0.092	-0.211
-648.784	-67.593	-0.236	0.094
-647.770	280.204	0.063	-0.115
-646.755	-84.785	-0.206	-0.066
-645.741	-200.000	0.026	-0.279
-644.726	-200.000	-0.036	0.247
-643.711	-200.000	0.004	-0.031
-642.697	47.121	0.123	-0.117
-641.682	58.605	0.060	-0.060
-640.668	800.000	-0.024	0.089
-639.653	-47.817	0.203	-0.100
-638.638	230.228	0.077	0.129
-637.624	-200.000	-0.097	-0.451
-636.609	-2.897	-0.158	0.113
-635.595	-117.326	-0.251	-0.046
-634.580	696.446	0.036	0.097
-633.565	222.708	-0.097	-0.159
-632.551	329.587	0.116	-0.227
-631.536	-4.980	0.133	0.093
-630.522	-12.643	-0.169	-0.112
-629.507	241.590	-0.073	0.124
-628.492	314.893	0.063	-0.121
-627.478	-200.000	-0.011	0.256
-626.463	164.839	0.075	0.107
-625.449	94.758	-0.054	-0.062
-624.434	21.703	0.278	0.230
-623.419	800.000	-0.056	0.244
-622.405	359.204	-0.237	-0.482
-621.390	-200.000	0.002	-0.190
-620.376	-110.133	-0.281	-0.060
-619.361	-27.686	0.277	0.163
-618.346	-124.260	-0.129	-0.021
-617.332	-86.773	-0.239	-0.074
-616.317	-53.272	-0.070	-0.033
-615.303	-26.291	0.490	0.293
-614.288	99.960	0.086	0.101
-613.273	102.100	-0.168	-0.200
-612.259	-112.308	0.375	-0.076
-611.244	-71.880	0.123	-0.047
-610.230	249.320	-0.227	-0.392
-609.215	-18.463	-0.469	-0.298
-608.201	-200.000	-0.075	0.444
-607.186	-36.823	-0.175	-0.095
-606.171	800.000	0.053	-0.199
-605.157	-200.000	0.031	-0.184
-604.142	-200.000	0.016	-0.087
-603.128	-46.092	0.323	0.162
-602.113	-200.000	0.015	0.296
-601.098	-172.045	-0.299	-0.010
-600.084	-93.473	0.051	-0.014
-599.069	-200.000	0.001	0.380
-598.055	-200.000	0.046	-0.206
-597.040	-130.960	-0.217	0.029
-596.025	248.772	-0.175	-0.301
-595.011	-200.000	-0.037	0.259
-593.996	263.361	-0.171	0.303
-592.982	-53.678	0.322	0.149
-591.967	800.000	-0.079	0.308
-590.952	-56.358	0.199	0.090
-589.938	30.662	-0.243	0.212
-588.923	-56.125	0.273	0.124
-587.909	237.694	-0.208	0.350
-586.894	21.942	-0.118	-0.098
-585.879	800.000	-0.035	0.104
-584.865	-41.668	-0.128	0.067
-583.850	-140.211	0.251	0.027
-582.836	107.461	-0.124	-0.150
-581.821	287.548	0.124	0.229
-580.806	-118.419	-0.144	0.026
-579.792	66.569	0.111	0.114
-578.777	-1.817	-0.259	0.185
-577.763	-61.699	0.286	-0.122
-576.748	124.408	-0.178	0.227
-575.733	1.872	0.096	-0.070
-574.719	-35.121	-0.065	0.036
-573.704	-200.000	0.037	-0.198
-572.690	6.427	-0.108	0.082
-571.675	-34.608	0.119	0.066
-570.661	88.874	0.222	0.250
-569.646	48.410	0.242	-0.230
-568.631	440.509	-0.110	0.244
-567.617	104.131	-0.252	-0.301
-566.602	41.207	0.139	0.127
-565.588	-200.000	-0.031	0.164
-564.573	13.170	0.123	-0.097
-563.558	-5.291	-0.117	0.082
-562.544	-75.776	-0.272	0.098
-561.529	800.000	0.089	-0.256
-560.515	183.944	-0.257	-0.387
-559.500	800.000	0.019	0.054
-558.485	58.283	0.267	-0.266
-557.471	-99.835	-0.267	0.068
-556.456	-15.078	0.284	0.184
-555.442	-80.776	0.110	-0.037
-554.427	1.514	0.250	0.182
-553.412	62.663	0.087	-0.088
-552.398	-135.928	0.195	-0.023
-551.383	-50.590	-0.250	-0.119
-550.369	28.109	-0.093	0.079
-549.354	-66.819	-0.345	0.139
-548.339	-143.333	-0.193	0.019
-547.325	-200.000	0.000	-0.058
-546.310	126.180	-0.033	0.042
-545.296	-200.000	-0.030	0.235
-544.281	-20.448	0.202	-0.126
-543.266	800.000	-0.039	-0.128
-542.252	-88.757	0.117	0.035
-541.237	135.293	0.271	-0.358
-540.223	-6.666	0.185	-0.128
-539.208	-200.000	-0.008	-0.072
-538.193	59.912	0.190	-0.191
-537.179	-84.080	0.055	-0.018
-536.164	69.792	-0.151	-0.158
-535.150	310.487	-0.073	0.138
-534.135	800.000	-0.048	0.194
-533.121	296.581	-0.128	0.239
-532.106	800.000	0.133	0.412
-531.091	-16.940	0.178	0.114
-530.077	-62.462	0.172	-0.073
-529.062	-61.755	-0.233	-0.099
-528.048	88.752	0.162	0.182
-527.033	800.000	0.064	-0.256
-526.018	11.357	-0.297	0.230
-525.004	-7.862	-0.207	-0.142
-523.989	-200.000	0.013	-0.126
-522.975	-200.000	0.015	-0.104
-521.960	-200.000	0.010	-0.051
-520.945	32.220	-0.068	-0.059
-519.931	-200.000	0.059	0.424
-518.916	-42.046	-0.081	-0.042
-517.902	-130.676	0.357	-0.049
-516.887	-33.799	-0.316	0.176
-515.872	21.455	0.231	0.191
-514.858	45.270	0.249	-0.233
-513.843	800.000	-0.042	-0.136
-512.829	800.000	-0.102	-0.405
-511.814	437.496	-0.039	-0.086
-510.799	130.610	0.168	0.218
-509.785	-48.459	0.249	-0.121
-508.770	-200.000	0.022	-0.141
-507.756	36.764	0.336	0.301
-506.741	-73.648	-0.127	-0.047
-505.726	-19.654	0.171	-0.107
-504.712	-150.396	-0.072	0.006
-503.697	-200.000	0.290	0.001
-502.683	-180.953	-0.356	0.007
-501.668	-31.242	0.143	0.081
-500.653	-130.804	-0.136	0.019
-499.639	-77.961	-0.170	-0.059
-498.624	-155.456	0.104	0.007
-497.610	7.819	-0.286	-0.217
-496.595	-87.368	0.166	-0.051
-495.581	44.061	0.190	-0.176
-494.566	-69.193	-0.286	-0.111
-493.551	63.217	-0.176	-0.178
-492.537	73.923	-0.090	-0.096
-491.522	800.000	-0.117	0.353
-490.508	800.000	0.076	0.320
-489.493	-102.391	-0.102	-0.025
-488.478	-126.915	0.215	-0.032
-487.464	396.147	0.125	-0.265
-486.449	-200.000	-0.005	-0.236
-485.435	129.284	-0.161	-0.209
-484.420	-149.682	0.078	-0.006
-483.405	-25.971	-0.122	0.072
-482.391	-177.510	0.036	-0.001
-481.376	205.654	0.088	0.138
-480.362	-37.434	0.069	-0.037
-479.347	679.929	0.017	0.045
-478.332	-200.000	-0.010	-0.230
-477.318	484.212	-0.080	-0.185
-476.303	-99.574	0.442	-0.112
-475.289	-67.859	-0.213	-0.084
-474.274	174.088	0.139	0.203
-473.259	-45.587	-0.186	0.093
-472.245	-200.000	-0.093	-0.509
-471.230	-194.716	0.439	-0.003
-470.216	-200.000	-0.057	0.307
-469.201	800.000	-0.112	-0.458
-468.186	-132.685	0.272	-0.035
-467.172	-37.759	0.224	-0.120
-466.157	332.941	0.170	-0.333
-465.143	-108.150	-0.399	-0.087
-464.128	-200.000	-0.064	0.390
-463.113	-200.000	0.053	0.334
-462.099	-200.000	0.021	0.099
-461.084	-56.421	-0.141	-0.063
-460.070	-200.000	-0.010	-0.091
-459.055	-34.412	0.170	0.094
-458.040	528.564	-0.029	-0.070
-457.026	-11.247	-0.289	0.192
-456.011	2.684	0.188	0.138
-454.997	-14.534	-0.230	0.149
-453.982	327.426	0.070	-0.135
-452.968	79.848	-0.241	0.261
-451.953	-14.536	-0.204	-0.133
-450.938	-28.410	-0.224	-0.131
-449.924	-147.160	-0.187	-0.016
-448.909	222.205	-0.142	-0.231
-447.895	-200.000	-0.044	0.344
-446.880	800.000	-0.017	0.065
-445.865	-200.000	0.035	0.176
-444.851	16.229	-0.111	0.088
-443.836	27.264	-0.062	-0.053
-442.822	-6.285	0.107	0.074
-441.807	800.000	-0.065	0.208
-440.792	-148.558	-0.182	-0.015
-439.778	-38.124	-0.210	-0.112
-438.763	-71.218	0.279	-0.106
-437.749	-1.705	0.303	-0.216
-436.734	-20.125	0.096	-0.060
-435.719	747.298	0.045	-0.122
-434.705	-41.266	-0.250	-0.130
-433.690	-200.000	-0.002	0.145
-432.676	59.673	-0.312	-0.310
-431.661	37.987	-0.095	-0.085
-430.646	-200.000	0.056	0.335
-429.632	-85.031	0.211	0.067
-428.617	-62.915	0.144	-0.060
-427.603	54.597	-0.092	-0.089
-426.588	-200.000	0.029	-0.198
-425.573	86.769	-0.072	0.080
-424.559	-103.290	0.239	-0.057
-423.544	60.266	0.261	-0.261
-422.530	53.296	0.087	0.084
-421.515	-33.765	0.052	-0.029
-420.500	-200.000	-0.011	-0.108
-419.486	-200.000	-0.016	-0.167
-418.471	318.561	-0.187	-0.357
-417.457	31.956	0.180	-0.157
-416.442	237.552	0.119	0.200
-415.428	-200.000	0.008	0.090
-414.413	153.502	0.062	-0.086
-413.398	-24.929	0.156	-0.094
-412.384	-42.231	-0.093	-0.048
-411.369	113.894	-0.181	0.222
-410.355	-200.000	0.046	-0.243
-409.340	-84.366	-0.415	-0.133
-408.325	-30.141	-0.219	-0.126
-407.311	800.000	0.019	-0.077
-406.296	-200.000	0.007	-0.075
-405.282	-166.609	-0.195	0.008
-404.267	-200.000	-0.033	-0.152
-403.252	277.256	-0.204	0.365
-402.238	169.456	0.105	0.152
-401.223	-200.000	-0.048	0.260
-400.209	-93.343	-0.381	0.107
-399.194	-64.288	-0.187	0.077
-398.179	-51.143	0.216	-0.102
-397.165	-200.000	-0.045	-0.292
-396.150	56.040	0.098	0.096
-395.136	800.000	0.017	0.052
-394.121	-200.000	0.101	-0.465
-393.106	445.091	-0.181	-0.401
-392.092	209.427	-0.079	-0.124
-391.077	-71.713	-0.054	-0.020
-390.063	800.000	0.024	-0.068
-389.048	-52.438	-0.243	0.113
-388.033	800.000	-0.086	-0.277
-387.019	-165.026	0.225	0.010
-386.004	-45.117	-0.165	0.082
-384.990	190.636	0.097	0.146
-383.975	-73.788	0.298	0.109
-382.960	136.263	0.152	0.200
-381.946	357.786	-0.209	-0.420
-380.931	454.374	0.074	-0.165
-379.917	164.895	0.109	-0.155
-378.902	-94.116	-0.113	0.031
-377.888	-152.129	0.566	-0.041
-376.873	-170.503	-0.148	-0.005
-375.858	-24.669	0.371	0.223
-374.844	-132.496	-0.204	0.026
-373.829	-125.060	-0.219	-0.034
-372.815	800.000	0.113	-0.461
-371.800	114.941	-0.216	0.266
-370.785	-87.246	0.220	0.067
-369.771	624.178	-0.055	-0.141
-368.756	-79.884	0.090	0.030
-367.742	-30.776	-0.167	0.095
-366.727	-200.000	-0.006	0.179
-365.712	-200.000	-0.063	0.390
-364.698	19.688	0.166	0.134
-363.683	-200.000	0.013	-0.192
-362.669	53.759	0.236	0.229
-361.654	-55.557	-0.104	-0.047
-360.639	-48.384	-0.370	0.180
-359.625	-21.881	-0.093	0.057
-358.610	-8.429	-0.048	-0.032
-357.596	705.511	0.059	-0.158
-356.581	-67.242	0.157	0.062
-355.566	325.821	-0.130	-0.250
-354.552	3.383	-0.115	0.084
-353.537	50.810	0.042	0.040
-352.523	-100.951	-0.140	-0.035
-351.508	-36.000	0.341	-0.186
-350.493	-33.587	-0.233	0.130
-349.479	124.267	0.261	0.331
-348.464	596.849	-0.120	0.298
-347.450	0.362	0.183	0.131
-346.435	154.444	0.165	-0.228
-345.420	-125.283	0.385	0.059
-344.406	-200.000	-0.063	0.285
-343.391	-200.000	0.026	0.200
-342.377	-200.000	-0.056	0.302
-341.362	-109.601	0.142	0.030
-340.348	-90.743	0.090	-0.026
-339.333	71.566	-0.195	-0.203
-338.318	-141.478	-0.261	0.027
-337.304	115.414	0.157	0.193
-336.289	13.953	-0.147	0.115
-335.275	-129.385	0.096	-0.013
-334.260	-44.094	0.224	-0.113
-333.245	-95.034	0.281	0.076
-332.231	-200.000	-0.025	0.358
-331.216	-24.760	-0.410	-0.245
-330.202	30.020	0.367	0.315
-329.187	800.000	-0.105	0.411
-328.172	439.676	-0.066	-0.144
-327.158	-142.550	0.256	-0.025
-326.143	11.905	-0.190	-0.146
-325.129	-200.000	-0.014	-0.145
-324.114	14.956	-0.098	0.077
-323.099	-96.826	0.137	-0.036
-322.085	33.955	0.095	0.083
-321.070	-89.369	-0.082	0.024
-320.056	117.003	0.039	-0.048
-319.041	-200.000	-0.025	0.280
-318.026	-200.000	-0.036	0.328
-317.012	13.959	-0.040	-0.031
-315.997	-176.545	0.344	0.009
-314.983	-200.000	0.040	0.332
-313.968	9.545	0.410	0.312
-312.953	-85.983	0.344	-0.107
-311.939	-3.584	-0.085	0.059
-310.924	7.558	0.151	0.114
-309.910	-49.140	0.277	-0.133
-308.895	468.242	-0.067	-0.152
-307.880	800.000	0.056	0.218
-306.866	-58.240	-0.122	0.054
-305.851	-108.218	-0.183	0.040
-304.837	128.627	0.198	-0.253
-303.822	73.817	0.101	-0.107
-302.807	800.000	-0.084	0.315
-301.793	-176.114	-0.168	-0.004
-300.778	-200.000	0.005	-0.175
-299.764	76.639	-0.110	-0.117
-298.749	-47.733	0.181	0.088
-297.735	44.078	0.200	-0.184
-296.720	-92.912	-0.069	0.019
-295.705	125.627	0.029	-0.037
-294.691	800.000	-0.037	0.149
-293.676	-186.259	-0.173	0.003
-292.662	176.680	-0.118	-0.172
-291.647	-4.085	0.069	0.048
-290.632	9.503	-0.182	0.139
-289.618	-80.942	-0.459	-0.153
-288.603	74.965	0.149	-0.157
-287.589	598.065	0.113	0.281
-286.574	37.953	-0.120	-0.107
-285.559	-200.000	-0.092	0.550
-284.545	-200.000	0.010	-0.173
-283.530	45.441	-0.061	0.057
-282.516	-62.834	0.269	0.112
-281.501	-200.000	0.003	0.200
-280.486	42.553	-0.094	0.086
-279.472	11.770	0.092	-0.071
-278.457	800.000	-0.013	-0.048
-277.443	-31.922	0.074	-0.042
-276.428	-71.903	0.099	0.037
-275.413	-200.000	-0.053	0.236
-274.399	-73.914	-0.296	-0.108
-273.384	-200.000	-0.088	-0.432
-272.370	-157.353	-0.261	0.016
-271.355	-200.000	0.020	-0.090
-270.340	-200.000	-0.037	0.456
-269.326	92.230	0.176	-0.200
-268.311	-155.348	0.088	0.006
-267.297	25.003	0.415	-0.345
-266.282	-141.545	-0.195	0.020
-265.267	-88.080	-0.164	-0.050
-264.253	67.813	0.034	0.035
-263.238	800.000	-0.101	0.318
-262.224	-97.230	0.093	0.024
-261.209	-63.786	0.171	0.070
-260.195	77.009	0.149	-0.159
-259.180	10.487	-0.179	0.137
-258.165	-172.834	-0.368	-0.011
-257.151	-51.083	-0.151	0.071
-256.136	-200.000	-0.058	0.420
-255.122	-200.000	-0.019	-0.196
-254.107	-90.322	-0.131	-0.038
-253.092	282.063	0.108	-0.195
-252.078	800.000	-0.097	0.338
-251.063	165.076	0.100	0.142
-250.049	-111.025	-0.240	0.049
-249.034	-34.706	0.270	0.148
-248.019	223.756	-0.229	0.370
-247.005	-97.533	0.335	0.087
-245.990	-200.000	-0.030	0.157
-244.976	41.370	0.144	0.130
-243.961	617.576	0.133	0.336
-242.946	4.141	-0.363	-0.266
-241.932	-143.135	0.182	0.018
-240.917	-69.417	0.204	0.078
-239.903	397.882	0.136	-0.285
-238.888	135.964	0.297	-0.387
-237.873	-107.003	0.222	-0.049
-236.859	-78.833	-0.248	-0.085
-235.844	84.258	-0.135	-0.148
-234.830	800.000	-0.091	0.346
-233.815	780.755	0.124	-0.340
-232.800	-95.699	-0.261	-0.070
-231.786	-81.678	-0.250	-0.082
-230.771	145.828	0.061	0.082
-229.757	800.000	0.085	-0.327
-228.742	-57.952	-0.105	-0.046
-227.727	399.806	0.067	-0.141
-226.713	156.930	-0.147	0.204
-225.698	24.076	-0.285	0.236
-224.684	297.605	0.188	-0.346
-223.669	482.615	-0.054	-0.122
-222.655	-182.528	0.363	0.007
-221.640	530.975	-0.113	0.267
-220.625	800.000	0.021	0.060
-219.611	53.730	-0.084	-0.081
-218.596	-83.107	0.066	-0.021
-217.582	13.355	0.269	-0.209
-216.567	-135.262	-0.253	-0.030
-215.552	-176.689	0.304	-0.008
-214.538	-79.978	-0.129	-0.043
-213.523	576.132	0.052	0.127
-212.509	-99.167	0.227	0.058
-211.494	179.270	0.179	0.262
-210.479	-23.461	0.205	-0.123
-209.465	-200.000	0.010	0.095
-208.450	168.781	-0.065	-0.093
-207.436	593.709	0.135	0.335
-206.421	-3.284	-0.212	-0.148
-205.406	-200.000	-0.006	-0.489
-204.392	-42.769	0.299	0.152
-203.377	-39.235	0.218	-0.115
-202.363	120.900	0.090	-0.112
-201.348	-138.481	-0.090	0.010
-200.333	460.465	0.048	-0.108
-199.319	-96.426	-0.224	0.059
-198.304	-108.439	-0.139	0.030
-197.290	-200.000	-0.001	0.124
-196.275	41.197	-0.231	0.209
-195.260	-163.173	-0.137	0.007
-194.246	79.798	0.174	0.187
-193.231	206.922	-0.061	0.096
-192.217	32.064	0.365	-0.315
-191.202	-75.589	-0.313	-0.111
-190.187	800.000	-0.119	-0.355
-189.173	-26.176	0.261	-0.154
-188.158	-45.702	-0.237	0.117
-187.144	-200.000	-0.008	0.112
-186.129	91.067	0.118	-0.133
-185.114	-175.986	-0.120	0.003
-184.100	580.092	0.064	-0.157
-183.085	420.774	-0.157	-0.337
-182.071	-127.151	0.112	0.016
-181.056	800.000	0.009	0.033
-180.042	-119.204	-0.167	0.029
-179.027	-183.754	0.239	-0.004
-178.012	-97.139	-0.225	0.059
-176.998	-65.251	-0.177	0.071
-175.983	333.457	0.071	0.137
-174.969	526.681	0.036	-0.085
-173.954	82.614	-0.239	-0.260
-172.939	45.266	0.095	-0.088
-171.925	214.942	0.120	-0.191
-170.910	-114.462	-0.088	0.017
-169.896	800.000	0.086	0.329
-168.881	-44.268	-0.125	0.063
-167.866	532.821	0.107	-0.252
-166.852	-52.638	-0.147	-0.068
-165.837	-38.019	0.144	-0.076
-164.823	-122.243	-0.276	-0.045
-163.808	-200.000	-0.004	-0.208
-162.793	-102.722	0.270	-0.064
-161.779	-126.709	0.176	-0.026
-160.764	-23.572	-0.155	-0.093
-159.750	278.368	0.119	-0.212
-158.735	557.408	-0.203	0.489
-157.720	99.665	0.135	0.156
-156.706	-76.112	0.251	-0.089
-155.691	-101.202	0.118	0.029
-154.677	209.236	-0.094	0.147
-153.662	-200.000	-0.055	0.264
-152.647	213.342	-0.175	-0.277
-151.633	218.940	-0.070	0.113
-150.618	-51.821	-0.220	0.103
-149.604	-83.745	-0.247	-0.079
-148.589	-59.690	0.277	0.118
-147.574	189.417	-0.056	-0.083
-146.560	-85.239	0.179	-0.056
-145.545	-2.403	0.165	-0.115
-144.531	-84.548	0.098	-0.031
-143.516	468.389	0.038	0.084
-142.502	39.226	-0.178	0.159
-141.487	138.217	0.239	-0.313
-140.472	356.043	0.157	-0.311
-139.458	-200.000	0.017	0.181
-138.443	158.297	-0.115	-0.160
-137.429	-109.131	-0.313	0.066
-136.414	44.759	-0.112	0.103
-135.399	55.829	-0.190	0.184
-134.385	30.661	0.233	-0.199
-133.370	146.356	-0.190	0.255
-132.356	33.993	0.066	-0.057
-131.341	-63.529	0.134	-0.055
-130.326	50.825	0.412	-0.389
-129.312	800.000	-0.027	0.092
-128.297	-72.146	0.268	-0.099
-127.283	-200.000	-0.021	0.143
-126.268	-159.748	0.176	-0.010
-125.253	-200.000	-0.010	0.173
-124.239	799.392	-0.077	-0.212
-123.224	72.011	0.177	0.184
-122.210	86.670	-0.268	-0.295
-121.195	342.912	0.131	-0.255
-120.180	26.761	0.109	0.091
