DTS Sentinel unit serial number:	SN413079Multiplexer serial number:	ORYXHardware model number:	OX4-SRSoftware version number:	ORYX F/W v4.00 Oryx Data Collector v3.7.2.0data status	okinstallation	princeton_trtdifferential loss correction	single-endedforward channel	channel 4reverse channel	N/Adate	2019/09/12time	18:04:19forward acquisition time	15.00reverse acquisition time	0.00gamma	496.2192k internal	0.2307k external	0.2307temperature offset calibration	1.0144default loss term (dB/km)	0.3790temperature slope calibration	1.0000multiplexer offset coefficient	1.0000multiplexer slope coefficient	1.0000fibre end	0.00T internal ref (°C)	33.75T ext. ref 1 (°C)	3.03T ext. ref 2 (°C)	28.22length (m)	temperature (°C)	Stokes	anti-Stokes-747.200	-80.471	0.520	-0.177
-746.185	-200.000	-0.074	0.642
-745.171	306.132	-0.255	-0.483
-744.156	-108.915	-0.666	-0.145
-743.142	800.000	0.187	0.653
-742.127	19.937	-0.258	0.212
-741.112	43.608	0.664	0.618
-740.098	-117.802	-0.937	-0.171
-739.083	800.000	0.072	0.230
-738.069	-60.623	-0.494	0.213
-737.054	-76.581	0.580	0.207
-736.039	-56.889	-0.423	-0.190
-735.025	122.261	-0.673	-0.855
-734.010	-200.000	0.027	0.202
-732.996	800.000	-0.049	-0.189
-731.981	-11.855	0.336	0.224
-730.966	-57.681	-0.426	0.190
-729.952	172.648	0.714	-1.044
-728.937	-70.416	0.308	0.119
-727.923	-56.390	0.335	-0.151
-726.908	-200.000	-0.056	-0.326
-725.894	148.294	-0.105	-0.144
-724.879	-200.000	-0.083	0.534
-723.864	-11.939	-0.739	-0.492
-722.850	800.000	0.088	-0.358
-721.835	3.070	-0.191	-0.141
-720.821	387.987	0.339	0.713
-719.806	372.337	0.220	-0.454
-718.791	33.254	0.331	0.292
-717.777	-200.000	0.045	0.388
-716.762	239.845	-0.158	0.267
-715.748	800.000	0.034	0.142
-714.733	-200.000	-1.032	0.001
-713.718	-42.989	-0.360	0.185
-712.704	-40.944	0.234	-0.123
-711.689	-129.019	-0.206	-0.029
-710.675	800.000	0.330	0.976
-709.660	-76.007	0.326	0.117
-708.645	800.000	0.105	0.452
-707.631	16.560	-0.491	0.394
-706.616	41.903	-0.577	-0.531
-705.602	-155.477	0.467	-0.031
-704.587	8.448	0.599	-0.458
-703.572	30.399	0.372	0.322
-702.558	98.670	0.378	-0.443
-701.543	158.118	-0.161	0.227
-700.529	292.110	-0.533	0.986
-699.514	34.037	-0.384	0.339
-698.499	-124.705	-0.174	-0.027
-697.485	-6.764	-0.101	0.070
-696.470	-113.673	0.629	-0.125
-695.456	0.705	-0.507	-0.368
-694.441	-66.195	-0.460	-0.186
-693.426	127.602	-0.415	-0.535
-692.412	135.566	0.205	-0.271
-691.397	-200.000	0.020	-0.614
-690.383	98.108	0.236	-0.275
-689.368	102.035	0.242	0.287
-688.354	-137.324	0.706	-0.081
-687.339	-200.000	0.041	-0.884
-686.324	27.350	-0.121	0.103
-685.310	-11.500	-0.811	0.541
-684.295	-168.466	-0.503	-0.020
-683.281	-117.102	-0.256	-0.047
-682.266	-117.061	-0.503	0.093
-681.251	347.502	0.098	0.195
-680.237	-75.103	0.076	-0.028
-679.222	435.642	-0.282	-0.622
-678.208	-152.448	0.316	-0.023
-677.193	234.014	-0.265	-0.443
-676.178	422.365	-0.033	0.072
-675.164	800.000	-0.053	0.163
-674.149	800.000	0.007	-0.019
-673.135	-114.930	-0.246	-0.048
-672.120	-124.416	0.132	0.021
-671.105	-186.763	-0.276	-0.004
-670.091	-66.847	-0.134	-0.054
-669.076	-116.676	-0.190	-0.035
-668.062	-64.045	-0.428	0.177
-667.047	13.709	0.407	-0.321
-666.032	-63.137	-0.385	0.161
-665.018	-150.451	0.355	0.028
-664.003	-200.000	0.073	-0.326
-662.989	104.317	-0.491	0.585
-661.974	280.200	-0.226	-0.410
-660.959	-135.903	0.575	0.069
-659.945	-102.980	0.723	0.174
-658.930	800.000	0.158	-0.610
-657.916	27.458	0.325	-0.277
-656.901	-176.501	-0.725	-0.019
-655.886	48.244	0.452	-0.428
-654.872	-78.151	-0.560	-0.195
-653.857	-24.565	1.044	0.630
-652.843	800.000	0.162	-0.489
-651.828	-33.190	0.535	-0.301
-650.814	133.501	-0.485	0.636
-649.799	800.000	-0.093	0.317
-648.784	-17.345	-0.310	-0.198
-647.770	246.166	0.165	-0.282
-646.755	-99.494	0.285	0.073
-645.741	-123.664	-0.316	0.051
-644.726	127.143	-0.564	-0.725
-643.711	800.000	0.148	-0.566
-642.697	-28.303	0.503	-0.294
-641.682	-200.000	-0.067	0.417
-640.668	471.439	0.100	-0.228
-639.653	238.429	-0.563	0.947
-638.638	135.228	0.481	-0.634
-637.624	-177.623	-0.392	-0.010
-636.609	800.000	-0.137	-0.574
-635.595	-200.000	-0.019	-0.229
-634.580	-200.000	-0.003	-0.751
-633.565	-200.000	-1.149	-0.004
-632.551	426.014	-0.206	0.449
-631.536	800.000	0.008	-0.027
-630.522	-200.000	0.031	0.302
-629.507	97.229	-0.497	-0.577
-628.492	-34.243	-0.408	-0.227
-627.478	-107.476	-0.260	-0.058
-626.463	178.843	0.196	-0.290
-625.449	261.319	0.443	-0.777
-624.434	-78.937	0.455	-0.157
-623.419	-200.000	0.028	0.692
-622.405	-200.000	-0.071	0.329
-621.390	-3.747	0.803	0.565
-620.376	478.903	-0.306	0.702
-619.361	668.504	-0.152	-0.398
-618.346	-200.000	0.056	-0.663
-617.332	-107.558	-0.484	-0.107
-616.317	16.604	0.378	-0.303
-615.303	12.657	0.377	-0.295
-614.288	800.000	0.215	-0.872
-613.273	-31.887	-0.841	0.477
-612.259	152.422	0.590	0.815
-611.244	-200.000	-0.031	-0.345
-610.230	448.880	0.270	-0.602
-609.215	800.000	-0.150	-0.437
-608.201	-157.468	-0.364	0.022
-607.186	87.931	-0.534	0.599
-606.171	-198.860	0.482	-0.003
-605.157	-168.326	0.969	0.038
-604.142	67.220	-0.223	0.231
-603.128	-200.000	-0.039	-0.386
-602.113	533.832	0.120	0.287
-601.098	-15.991	0.593	0.381
-600.084	-57.446	-0.505	0.224
-599.069	800.000	0.121	-0.377
-598.055	263.549	-0.459	0.806
-597.040	0.755	-0.727	0.527
-596.025	-163.024	-0.498	0.024
-595.011	11.798	0.243	-0.189
-593.996	90.033	0.439	0.496
-592.982	-17.287	0.605	0.385
-591.967	-74.175	0.893	0.327
-590.952	18.287	-0.624	0.504
-589.938	9.588	-0.494	0.379
-588.923	138.370	0.350	-0.464
-587.909	-200.000	-0.112	0.505
-586.894	-129.100	0.653	0.092
-585.879	-78.022	0.386	0.134
-584.865	228.864	-0.247	-0.407
-583.850	128.335	-0.224	0.288
-582.836	-5.429	0.061	0.043
-581.821	-200.000	0.046	-0.344
-580.806	-40.564	-0.506	0.265
-579.792	163.683	-0.344	0.489
-578.777	800.000	0.235	1.003
-577.763	78.404	-0.666	0.719
-576.748	61.028	0.167	-0.167
-575.733	-117.240	0.925	0.170
-574.719	-135.770	0.874	-0.104
-573.704	383.579	-0.273	-0.568
-572.690	1.272	-0.262	0.190
-571.675	476.688	-0.463	1.058
-570.661	-200.000	0.210	-1.095
-569.646	373.907	0.494	-1.015
-568.631	168.038	0.315	-0.453
-567.617	-48.037	-0.771	-0.377
-566.602	28.254	-0.562	0.480
-565.588	302.190	-0.461	0.862
-564.573	397.272	0.375	-0.792
-563.558	-91.086	0.268	-0.078
-562.544	271.054	-0.195	-0.347
-561.529	-170.571	0.375	0.013
-560.515	-191.055	-0.719	0.008
-559.500	317.066	0.513	-0.978
-558.485	-152.075	0.651	-0.048
-557.471	-33.268	-0.219	-0.123
-556.456	-49.697	0.770	-0.370
-555.442	-19.056	-1.007	-0.632
-554.427	104.879	0.216	0.257
-553.412	411.286	0.012	0.025
-552.398	194.255	0.531	-0.812
-551.383	46.270	0.296	0.276
-550.369	-200.000	-0.079	1.006
-549.354	-200.000	0.168	-0.927
-548.339	22.306	-0.480	-0.396
-547.325	-200.000	0.063	-0.524
-546.310	800.000	-0.197	0.552
-545.296	87.117	0.413	-0.460
-544.281	-200.000	0.063	0.304
-543.266	-66.388	-0.115	-0.046
-542.252	316.212	-0.647	-1.233
-541.237	36.324	0.451	0.402
-540.223	-200.000	0.090	0.402
-539.208	113.909	0.334	-0.410
-538.193	107.046	-0.071	-0.086
-537.179	-8.110	-0.261	0.177
-536.164	102.038	-0.348	0.410
-535.150	-200.000	0.001	-1.052
-534.135	27.459	0.206	-0.175
-533.121	-127.768	0.312	-0.045
-532.106	-179.587	-0.597	-0.013
-531.091	-77.297	0.608	0.213
-530.077	-200.000	-0.133	0.771
-529.062	515.772	0.351	0.828
-528.048	-200.000	-0.066	-0.302
-527.033	-10.846	-0.351	0.234
-526.018	-83.903	-0.731	-0.235
-525.004	51.021	-0.223	0.213
-523.989	-200.000	-0.102	0.515
-522.975	-63.564	0.755	0.313
-521.960	-89.822	0.430	-0.127
-520.945	-68.970	-0.684	0.266
-519.931	-73.189	-0.836	-0.309
-518.916	-10.576	0.589	0.393
-517.902	-112.986	0.186	-0.037
-516.887	94.894	0.648	-0.743
-515.872	90.699	-0.344	-0.389
-514.858	20.071	-0.503	0.409
-513.843	67.978	0.675	0.696
-512.829	800.000	0.021	-0.067
-511.814	279.913	0.257	-0.463
-510.799	188.244	0.398	0.600
-509.785	13.114	-0.202	-0.158
-508.770	-178.964	-1.018	0.023
-507.756	38.711	0.361	-0.325
-506.741	-64.037	0.355	0.146
-505.726	-156.385	-0.715	-0.045
-504.712	-57.822	-0.860	0.379
-503.697	-78.463	-0.675	0.233
-502.683	-200.000	0.055	-0.458
-501.668	9.687	-0.218	-0.166
-500.653	223.297	0.405	0.657
-499.639	455.677	-0.289	-0.645
-498.624	256.762	0.444	0.769
-497.610	-97.549	-0.796	-0.208
-496.595	800.000	0.182	-0.519
-495.581	-122.707	-0.831	-0.135
-494.566	20.709	0.135	-0.110
-493.551	456.028	-0.051	-0.114
-492.537	296.123	0.630	1.163
-491.522	-47.728	-0.473	0.231
-490.508	-103.873	0.132	-0.031
-489.493	800.000	-0.199	0.680
-488.478	-39.518	0.599	0.316
-487.464	-200.000	-0.094	-0.533
-486.449	203.265	-0.222	-0.345
-485.435	-57.107	0.260	-0.115
-484.420	115.155	-0.196	0.241
-483.405	-131.125	-0.871	-0.117
-482.391	-142.142	-0.609	-0.061
-481.376	-106.974	-0.571	-0.127
-480.362	129.895	-0.285	0.367
-479.347	-32.440	-0.878	0.493
-478.332	800.000	-0.152	0.509
-477.318	4.088	-0.123	0.090
-476.303	-200.000	0.533	0.001
-475.289	-200.000	0.107	-0.641
-474.274	-200.000	-0.002	-0.176
-473.259	167.466	0.259	-0.370
-472.245	535.551	0.114	0.273
-471.230	32.247	-0.610	0.530
-470.216	329.936	0.211	-0.409
-469.201	25.178	0.093	0.078
-468.186	214.158	0.360	-0.573
-467.172	83.065	-0.177	0.194
-466.157	100.729	-0.253	-0.296
-465.143	11.332	0.438	0.337
-464.128	294.454	-0.665	-1.223
-463.113	-200.000	-0.147	0.664
-462.099	800.000	-0.119	-0.448
-461.084	187.380	-0.396	-0.595
-460.070	-200.000	-0.169	0.861
-459.055	511.964	-0.300	-0.703
-458.040	-35.177	-0.440	0.241
-457.026	10.053	-0.194	-0.148
-456.011	-13.201	0.365	-0.238
-454.997	84.143	-0.319	0.350
-453.982	8.748	0.252	-0.191
-452.968	723.171	0.343	0.919
-451.953	-200.000	0.127	0.658
-450.938	-182.490	0.238	0.004
-449.924	-169.684	-0.438	-0.016
-448.909	81.003	0.359	-0.390
-447.895	114.004	0.750	-0.917
-446.880	-150.392	0.201	0.016
-445.865	688.411	0.190	0.499
-444.851	405.998	0.091	0.193
-443.836	89.454	0.337	0.377
-442.822	-145.983	-0.661	0.059
-441.807	103.050	-0.458	-0.539
-440.792	-135.965	0.477	-0.056
-439.778	9.733	0.120	-0.091
-438.763	-50.902	-0.702	-0.332
-437.749	800.000	-0.218	-0.841
-436.734	-188.906	0.330	-0.004
-435.719	-90.255	-0.996	0.291
-434.705	-200.000	0.105	0.799
-433.690	364.758	-0.225	-0.455
-432.676	-200.000	-0.017	-0.662
-431.661	-200.000	-0.277	-1.438
-430.646	182.705	-0.430	0.637
-429.632	-200.000	0.101	0.517
-428.617	800.000	0.097	-0.329
-427.603	-200.000	0.078	0.433
-426.588	-126.880	0.700	-0.104
-425.573	122.161	0.311	0.390
-424.559	-76.507	0.748	0.264
-423.544	-98.783	0.103	0.026
-422.530	-95.726	0.342	-0.092
-421.515	-77.428	-0.839	-0.293
-420.500	-1.740	0.439	0.310
-419.486	-111.872	0.622	-0.126
-418.471	52.795	-0.542	-0.521
-417.457	-8.254	0.621	0.420
-416.442	255.390	-0.160	0.276
-415.428	-119.983	-0.300	0.052
-414.413	-48.800	-0.548	-0.264
-413.398	138.647	-0.267	0.352
-412.384	800.000	0.249	0.894
-411.369	-20.321	0.897	-0.555
-410.355	-135.786	0.094	0.011
-409.340	800.000	-0.260	1.135
-408.325	-96.665	-0.805	-0.213
-407.311	318.572	-0.366	-0.695
-406.296	82.748	0.206	0.225
-405.282	800.000	0.255	0.976
-404.267	657.222	-0.289	0.746
-403.252	349.113	-0.235	0.465
-402.238	47.499	0.161	0.151
-401.223	800.000	0.109	0.367
-400.209	-112.330	-0.523	-0.105
-399.194	224.632	0.065	0.105
-398.179	462.254	0.092	-0.206
-397.165	31.132	-0.261	0.224
-396.150	28.412	0.513	-0.435
-395.136	550.888	0.174	-0.419
-394.121	171.660	-0.391	-0.564
-393.106	800.000	-0.235	-0.792
-392.092	-200.000	0.045	0.962
-391.077	-200.000	0.023	0.626
-390.063	250.368	0.406	-0.691
-389.048	-130.588	0.366	-0.050
-388.033	-102.937	1.008	0.240
-387.019	-200.000	0.165	0.875
-386.004	196.384	-0.377	0.575
-384.990	-138.956	0.331	0.036
-383.975	-200.000	0.047	-0.688
-382.960	404.267	0.074	-0.156
-381.946	268.869	-0.318	0.559
-380.931	16.298	-0.335	-0.265
-379.917	-138.531	0.582	-0.064
-378.902	-86.752	-0.503	-0.154
-377.888	183.349	0.087	-0.129
-376.873	588.617	0.136	-0.335
-375.858	503.372	-0.055	-0.127
-374.844	459.699	0.069	-0.153
-373.829	116.345	-0.455	0.559
-372.815	-200.000	0.044	-0.686
-371.800	8.217	-0.101	-0.076
-370.785	79.264	0.265	0.285
-369.771	334.206	-0.242	0.469
-368.756	-200.000	-0.129	-0.590
-367.742	-143.354	0.314	0.030
-366.727	-6.316	0.769	0.526
-365.712	111.164	0.259	-0.313
-364.698	-49.547	-0.505	0.241
-363.683	-148.912	0.800	0.065
-362.669	461.595	-0.134	0.299
-361.654	800.000	-0.170	0.567
-360.639	-200.000	0.017	0.205
-359.625	-129.661	-1.761	0.243
-358.610	-25.570	0.893	-0.528
-357.596	800.000	0.174	-0.700
-356.581	800.000	0.110	-0.368
-355.566	-25.696	-0.627	-0.370
-354.552	449.893	-0.309	0.682
-353.537	-162.837	0.403	0.020
-352.523	-57.051	-0.253	-0.112
-351.508	-3.774	-0.686	0.477
-350.493	-147.075	0.250	0.021
-349.479	-28.476	-0.135	0.078
-348.464	-57.351	-0.415	-0.183
-347.450	-200.000	0.061	-0.438
-346.435	-33.920	0.765	-0.422
-345.420	-111.282	-0.659	-0.135
-344.406	-200.000	-0.019	-0.625
-343.391	-59.283	-0.293	0.126
-342.377	105.097	-0.242	-0.286
-341.362	-200.000	-0.020	-0.426
-340.348	-200.000	-0.003	-0.359
-339.333	800.000	-0.152	-0.456
-338.318	-129.392	-0.441	-0.061
-337.304	254.203	0.383	-0.656
-336.289	-200.000	-0.036	-0.611
-335.275	800.000	-0.203	-0.597
-334.260	50.769	-0.384	-0.364
-333.245	-200.000	-0.016	-0.545
-332.231	428.276	0.513	1.109
-331.216	-200.000	-0.102	0.922
-330.202	-125.042	-0.527	0.081
-329.187	-73.054	0.069	0.025
-328.172	-104.190	0.143	-0.033
-327.158	34.520	0.660	0.577
-326.143	-132.822	0.302	0.039
-325.129	351.701	0.278	0.550
-324.114	292.285	-0.406	-0.741
-323.099	800.000	-0.184	0.762
-322.085	-18.304	-0.620	0.388
-321.070	-66.457	1.141	0.453
-320.056	4.722	-0.540	0.397
-319.041	202.176	0.387	-0.598
-318.026	31.317	-0.121	0.104
-317.012	90.327	0.360	-0.403
-315.997	84.510	-0.358	0.392
-314.983	-149.752	0.467	-0.037
-313.968	32.405	0.182	-0.157
-312.953	106.426	-0.126	0.149
-311.939	213.548	0.309	0.488
-310.924	-9.716	-0.279	-0.186
-309.910	-7.505	-0.840	0.569
-308.895	-142.507	1.189	-0.117
-307.880	78.801	0.516	-0.552
-306.866	-72.673	0.442	0.163
-305.851	-59.687	-0.377	-0.162
-304.837	800.000	-0.194	0.788
-303.822	-88.899	0.351	0.104
-302.807	-200.000	0.127	-0.955
-301.793	-200.000	-0.057	-0.325
-300.778	-8.864	0.189	0.127
-299.764	-65.334	0.569	0.229
-298.749	109.121	-0.204	-0.244
-297.735	59.275	-0.462	-0.455
-296.720	800.000	-0.063	0.238
-295.705	800.000	-0.219	-0.609
-294.691	800.000	-0.041	0.123
-293.676	6.123	0.861	0.638
-292.662	-53.273	0.584	-0.268
-291.647	40.888	-0.237	0.214
-290.632	270.268	0.233	0.410
-289.618	-200.000	0.075	-0.493
-288.603	35.177	0.440	-0.385
-287.589	-200.000	0.038	-0.194
-286.574	778.962	0.073	0.199
-285.559	71.795	-0.668	0.694
-284.545	-79.183	0.200	0.068
-283.530	800.000	0.168	-0.535
-282.516	-116.402	0.164	-0.030
-281.501	202.275	0.287	0.442
-280.486	-30.665	0.327	-0.185
-279.472	-77.212	-0.196	-0.068
-278.457	253.527	0.069	0.118
-277.443	-124.777	0.453	-0.070
-276.428	12.343	-0.392	0.301
-275.413	-200.000	-0.010	-0.227
-274.399	42.511	0.242	0.220
-273.384	800.000	-0.288	0.796
-272.370	-200.000	-0.019	-0.738
-271.355	511.160	-0.330	-0.767
-270.340	298.232	-0.181	0.333
-269.326	-59.516	0.267	0.114
-268.311	-200.000	-0.063	-0.296
-267.297	-30.686	0.293	-0.165
-266.282	51.315	-0.471	-0.446
-265.267	-114.002	0.587	-0.114
-264.253	-200.000	-0.048	0.661
-263.238	76.005	-0.594	0.628
-262.224	-106.523	0.550	0.122
-261.209	730.727	-0.150	-0.401
-260.195	-22.797	0.555	0.334
-259.180	800.000	-0.155	0.478
-258.165	54.302	-0.148	-0.142
-257.151	-127.390	-0.714	0.104
-256.136	156.639	-0.744	1.025
-255.122	44.905	-0.667	-0.613
-254.107	-46.411	-0.340	0.166
-253.092	800.000	-0.262	0.912
-252.078	-108.262	-0.896	-0.193
-251.063	-102.276	-0.116	0.028
-250.049	67.311	-0.416	0.423
-249.034	-200.000	0.120	0.628
-248.019	-200.000	-0.167	1.156
-247.005	1.628	0.090	-0.064
-245.990	-104.600	0.369	-0.085
-244.976	-92.525	-0.391	0.110
-243.961	-55.703	-0.234	0.104
-242.946	-132.288	0.347	-0.045
-241.932	-2.519	0.343	-0.240
-240.917	771.454	-0.317	-0.862
-239.903	-35.199	0.618	0.336
-238.888	532.582	-0.188	0.443
-237.873	-94.362	-0.511	-0.139
-236.859	259.744	-0.229	0.395
-235.844	-100.584	0.421	0.104
-234.830	-27.960	-0.506	0.292
-233.815	258.200	0.163	0.281
-232.800	-12.575	-0.761	0.495
-231.786	-53.662	0.638	-0.291
-230.771	53.483	0.424	-0.406
-229.757	-200.000	0.004	-0.101
-228.742	800.000	0.115	0.318
-227.727	-131.630	0.441	0.058
-226.713	-200.000	-0.025	-0.379
-225.698	99.490	0.383	-0.442
-224.684	461.124	-0.252	0.560
-223.669	212.763	-0.240	0.377
-222.655	-200.000	0.026	0.465
-221.640	800.000	-0.136	0.535
-220.625	403.494	0.133	0.278
-219.611	-13.177	1.023	-0.662
-218.596	5.041	-0.763	0.560
-217.582	-200.000	0.081	0.619
-216.567	800.000	0.027	0.085
-215.552	138.923	0.069	0.090
-214.538	800.000	-0.151	-0.430
-213.523	-54.527	0.175	0.079
-212.509	-50.070	-0.357	0.169
-211.494	800.000	0.215	-0.675
-210.479	-81.175	1.212	-0.399
-209.465	-200.000	0.083	0.499
-208.450	31.638	-0.482	0.413
-207.436	49.329	-0.277	-0.259
-206.421	-69.637	0.599	0.228
-205.406	-89.755	0.692	0.202
-204.392	-200.000	-0.007	-0.611
-203.377	243.733	-0.221	0.369
-202.363	386.519	0.232	-0.477
-201.348	-43.842	-0.678	-0.340
-200.333	-57.706	0.647	0.282
-199.319	71.711	0.490	0.507
-198.304	-188.054	0.396	0.005
-197.290	800.000	-0.289	1.231
-196.275	800.000	0.168	0.540
-195.260	-61.738	0.970	-0.405
-194.246	-200.000	-0.085	0.385
-193.231	-57.315	0.615	-0.269
-192.217	513.058	0.270	-0.627
-191.202	-20.663	0.601	-0.367
-190.187	-121.696	-0.807	0.133
-189.173	-12.532	0.764	-0.497
-188.158	800.000	0.185	-0.567
-187.144	-109.910	0.986	-0.206
-186.129	-200.000	-0.057	-0.394
-185.114	646.184	-0.274	-0.697
-184.100	-90.844	-0.415	-0.119
-183.085	-186.298	-0.719	0.010
-182.071	-64.207	0.243	0.099
-181.056	81.635	-0.499	0.537
-180.042	139.212	0.418	-0.547
-179.027	-22.313	0.514	-0.310
-178.012	326.648	-0.375	0.716
-176.998	462.162	-0.302	-0.670
-175.983	-200.000	0.038	0.701
-174.969	-47.029	-1.405	-0.682
-173.954	130.433	-0.163	-0.207
-172.939	-106.100	0.879	-0.196
-171.925	-123.466	0.171	-0.027
-170.910	77.387	0.243	-0.257
-169.896	-16.647	-0.749	0.471
-168.881	406.674	-0.177	-0.372
-167.866	-132.139	1.074	-0.139
-166.852	-3.685	0.280	-0.194
-165.837	137.262	-0.949	-1.234
-164.823	-200.000	0.013	-0.125
-163.808	24.501	-0.820	-0.675
-162.793	52.317	0.303	0.288
-161.779	-46.313	0.577	-0.282
-160.764	-122.819	-0.139	-0.022
-159.750	117.283	-0.450	-0.550
-158.735	-200.000	0.046	-0.595
-157.720	-29.921	0.334	0.189
-156.706	132.340	0.592	0.758
-155.691	-94.575	1.028	-0.278
-154.677	-10.407	-0.487	-0.321
-153.662	-42.587	1.100	0.557
-152.647	-69.260	0.744	-0.284
-151.633	-66.321	-0.199	-0.079
-150.618	-75.433	0.973	-0.344
-149.604	-200.000	-0.053	-0.420
-148.589	202.234	-0.168	-0.258
-147.574	800.000	-0.238	0.750
-146.560	-200.000	0.009	-1.089
-145.545	5.933	0.680	-0.500
-144.531	-109.370	0.277	-0.058
-143.516	452.135	0.217	-0.476
-142.502	-0.659	0.558	-0.393
-141.487	-43.858	0.325	0.162
-140.472	-39.909	-0.441	0.229
-139.458	-123.792	-0.257	0.040
-138.443	-200.000	-0.126	1.163
-137.429	141.622	0.226	-0.297
-136.414	800.000	0.037	0.118
-135.399	-38.047	0.287	0.152
-134.385	-200.000	-0.059	0.448
-133.370	-117.133	-0.455	0.082
-132.356	78.778	0.506	0.538
-131.341	131.156	0.112	-0.143
-130.326	-6.681	-0.312	0.211
-129.312	-68.379	-0.545	0.210
-128.297	-36.415	-0.795	-0.425
-127.283	6.548	-0.414	-0.305
-126.268	-148.167	0.578	0.047
-125.253	659.124	-0.127	0.324
-124.239	399.554	-0.307	-0.640
-123.224	12.930	-0.339	-0.260
-122.210	-125.998	-0.981	-0.146
-121.195	-200.000	0.077	-0.706
