DTS Sentinel unit serial number:	SN413079Multiplexer serial number:	ORYXHardware model number:	OX4-SRSoftware version number:	ORYX F/W v4.00 Oryx Data Collector v3.7.2.0data status	okinstallation	princeton_trtdifferential loss correction	single-endedforward channel	channel 4reverse channel	N/Adate	2019/09/17time	15:57:35forward acquisition time	60.00reverse acquisition time	0.00gamma	496.2192k internal	0.2288k external	0.2288temperature offset calibration	0.9983default loss term (dB/km)	0.3790temperature slope calibration	1.0000multiplexer offset coefficient	1.0000multiplexer slope coefficient	1.0000fibre end	0.00T internal ref (°C)	39.70T ext. ref 1 (°C)	0.38T ext. ref 2 (°C)	38.74length (m)	temperature (°C)	Stokes	anti-Stokes-747.200	-200.000	0.007	0.108
-746.185	-34.137	0.615	0.347
-745.171	150.437	-0.123	-0.171
-744.156	679.934	-0.128	0.340
-743.142	553.519	-0.084	0.206
-742.127	-200.000	-0.066	0.444
-741.112	-94.722	-0.330	-0.092
-740.098	122.776	-0.168	0.215
-739.083	169.495	-0.048	0.070
-738.069	115.640	0.431	0.540
-737.054	-14.456	-0.133	0.088
-736.039	-95.223	0.037	-0.010
-735.025	35.335	0.171	0.154
-734.010	-63.294	0.073	-0.031
-732.996	-69.697	0.012	-0.005
-731.981	229.415	0.195	0.326
-730.966	-33.788	-0.348	-0.197
-729.952	2.313	0.205	0.152
-728.937	-200.000	-0.011	-0.272
-727.923	117.615	0.231	0.291
-726.908	46.125	-0.191	-0.181
-725.894	344.307	-0.017	0.034
-724.879	193.150	0.118	-0.183
-723.864	-117.126	-0.306	-0.057
-722.850	800.000	0.054	-0.198
-721.835	-164.641	-0.189	0.009
-720.821	252.481	-0.099	0.173
-719.806	98.006	0.204	0.241
-718.791	-200.000	0.034	-0.375
-717.777	-200.000	0.001	-0.105
-716.762	-200.000	-0.013	-0.062
-715.748	172.678	-0.180	-0.265
-714.733	800.000	-0.134	-0.461
-713.718	52.558	-0.111	0.108
-712.704	-115.859	-0.064	0.012
-711.689	20.685	0.076	0.063
-710.675	-200.000	-0.083	-0.405
-709.660	262.599	0.055	-0.097
-708.645	-5.135	0.173	0.122
-707.631	7.618	-0.367	-0.282
-706.616	-200.000	0.047	-0.340
-705.602	-115.486	-0.283	0.055
-704.587	-33.869	-0.200	0.113
-703.572	-200.000	-0.013	0.064
-702.558	-170.816	-0.301	-0.011
-701.543	153.371	-0.128	0.179
-700.529	-105.350	-0.208	0.049
-699.514	195.034	-0.074	-0.116
-698.499	0.236	-0.192	-0.140
-697.485	800.000	0.121	-0.381
-696.470	229.046	-0.070	-0.117
-695.456	265.545	0.077	0.137
-694.441	-200.000	0.016	-0.474
-693.426	-62.754	-0.140	-0.059
-692.412	428.764	0.061	-0.134
-691.397	-59.106	-0.033	0.015
-690.383	-78.496	-0.236	-0.083
-689.368	-173.885	-0.377	-0.011
-688.354	70.471	-0.308	-0.326
-687.339	547.455	-0.057	0.139
-686.324	10.306	0.166	0.129
-685.310	310.046	0.239	0.457
-684.295	-115.871	-0.035	0.007
-683.281	361.312	-0.065	-0.132
-682.266	-110.365	0.339	0.072
-681.251	-150.383	0.199	-0.016
-680.237	-75.426	-0.190	0.069
-679.222	-115.488	0.095	-0.018
-678.208	-65.472	0.336	0.138
-677.193	141.466	0.124	0.168
-676.178	92.796	-0.117	0.135
-675.164	-149.718	-0.275	0.022
-674.149	800.000	0.091	0.282
-673.135	800.000	-0.128	0.408
-672.120	80.321	0.223	0.246
-671.105	800.000	-0.085	-0.252
-670.091	-76.567	-0.063	-0.022
-669.076	-63.124	-0.063	-0.027
-668.062	76.358	-0.142	-0.153
-667.047	-132.544	-0.194	-0.025
-666.032	-19.837	0.235	-0.148
-665.018	-64.955	-0.236	0.097
-664.003	362.550	-0.038	-0.078
-662.989	-162.146	0.182	-0.009
-661.974	-200.000	-0.001	-0.313
-660.959	-200.000	-0.085	0.517
-659.945	340.553	0.072	-0.144
-658.930	230.016	0.149	-0.249
-657.916	153.274	-0.152	0.213
-656.901	355.777	-0.060	-0.123
-655.886	-102.669	0.095	0.023
-654.872	-200.000	0.033	0.239
-653.857	201.652	-0.027	-0.042
-652.843	800.000	0.083	0.267
-651.828	-78.725	-0.356	0.124
-650.814	800.000	0.051	-0.211
-649.799	-58.184	0.252	0.112
-648.784	-200.000	0.006	0.165
-647.770	-115.305	-0.228	0.044
-646.755	-100.805	-0.174	0.044
-645.741	-200.000	0.036	-0.224
-644.726	283.090	-0.040	0.074
-643.711	-200.000	-0.009	0.361
-642.697	-34.159	0.094	0.053
-641.682	138.451	-0.142	0.190
-640.668	217.858	-0.107	0.175
-639.653	-131.921	-0.223	0.030
-638.638	221.532	0.036	-0.060
-637.624	-32.187	0.262	-0.150
-636.609	53.199	-0.105	-0.103
-635.595	74.384	0.370	0.397
-634.580	-200.000	0.046	0.250
-633.565	-170.132	-0.129	0.005
-632.551	800.000	-0.152	0.518
-631.536	483.506	-0.043	0.099
-630.522	-105.515	-0.040	-0.009
-629.507	-136.044	-0.200	-0.024
-628.492	-157.289	-0.221	0.014
-627.478	161.079	-0.104	-0.148
-626.463	-43.777	0.302	-0.155
-625.449	-200.000	-0.404	-0.001
-624.434	800.000	0.093	-0.377
-623.419	-182.531	-0.241	-0.005
-622.405	-13.577	0.232	-0.154
-621.390	-175.850	0.313	0.009
-620.376	-200.000	-0.009	0.142
-619.361	2.994	0.115	0.085
-618.346	-200.000	0.012	0.102
-617.332	21.313	-0.296	0.245
-616.317	-17.559	-0.351	0.225
-615.303	208.487	-0.040	-0.064
-614.288	139.424	0.035	-0.047
-613.273	-200.000	0.019	-0.269
-612.259	117.667	-0.065	0.081
-611.244	52.954	0.274	0.268
-610.230	-15.146	-0.325	-0.212
-609.215	293.068	0.106	0.197
-608.201	161.937	-0.225	0.321
-607.186	-13.742	-0.252	0.166
-606.171	-200.000	0.007	-0.095
-605.157	-129.075	-0.202	0.029
-604.142	800.000	-0.077	0.229
-603.128	103.717	-0.011	-0.013
-602.113	639.436	-0.028	-0.072
-601.098	-75.767	-0.217	-0.078
-600.084	610.409	-0.094	0.239
-599.069	369.671	-0.189	0.390
-598.055	800.000	-0.114	0.365
-597.040	-103.997	0.057	-0.014
-596.025	127.119	-0.216	0.279
-595.011	116.013	0.033	-0.041
-593.996	-47.026	0.108	0.054
-592.982	-200.000	0.017	0.076
-591.967	-105.715	0.181	-0.042
-590.952	168.439	0.098	-0.143
-589.938	-33.389	-0.164	-0.093
-588.923	-15.614	0.140	-0.091
-587.909	-15.206	-0.194	0.127
-586.894	114.584	-0.120	-0.149
-585.879	-82.659	-0.309	-0.102
-584.865	217.248	0.219	-0.355
-583.850	60.231	-0.237	0.239
-582.836	128.903	-0.234	0.304
-581.821	-119.213	-0.428	-0.076
-580.806	800.000	0.096	-0.379
-579.792	-23.926	-0.262	0.160
-578.777	455.660	-0.166	-0.376
-577.763	628.216	-0.030	-0.078
-576.748	91.002	0.095	0.109
-575.733	-81.417	-0.267	0.090
-574.719	-21.544	-0.210	-0.130
-573.704	-200.000	0.008	-0.126
-572.690	-137.902	-0.245	-0.028
-571.675	-96.780	-0.209	-0.056
-570.661	36.559	-0.130	-0.117
-569.646	800.000	0.031	-0.116
-568.631	-200.000	-0.018	-0.161
-567.617	83.108	0.147	0.163
-566.602	800.000	-0.076	0.224
-565.588	476.276	0.142	0.327
-564.573	-96.565	-0.129	0.035
-563.558	585.596	-0.141	-0.354
-562.544	-39.314	0.196	0.105
-561.529	259.489	0.120	0.210
-560.515	-106.478	-0.403	0.092
-559.500	-158.962	0.174	-0.010
-558.485	-83.204	0.117	0.038
-557.471	129.289	0.085	0.111
-556.456	-111.165	0.150	0.031
-555.442	-48.512	-0.060	0.029
-554.427	-123.137	-0.229	0.037
-553.412	5.334	-0.175	-0.131
-552.398	-140.228	0.361	0.038
-551.383	-129.331	-0.284	0.040
-550.369	-200.000	-0.078	0.395
-549.354	-82.282	0.459	0.152
-548.339	-10.103	-0.139	-0.094
-547.325	-147.689	0.449	-0.038
-546.310	-200.000	0.019	0.395
-545.296	-38.165	-0.117	-0.063
-544.281	4.552	0.098	-0.073
-543.266	-200.000	0.044	-0.410
-542.252	162.824	-0.225	-0.322
-541.237	-171.764	0.208	-0.007
-540.223	197.619	-0.099	-0.154
-539.208	800.000	0.165	-0.505
-538.193	19.256	0.053	-0.043
-537.179	335.876	0.122	0.240
-536.164	-200.000	0.024	-0.245
-535.150	111.067	-0.324	-0.397
-534.135	271.507	-0.230	-0.413
-533.121	-8.994	0.090	0.062
-532.106	4.607	-0.164	0.122
-531.091	800.000	0.038	0.142
-530.077	328.588	0.052	0.102
-529.062	360.720	0.190	0.387
-528.048	63.311	0.134	0.136
-527.033	81.658	0.070	0.077
-526.018	-65.286	0.069	0.028
-525.004	-200.000	-0.014	0.120
-523.989	90.866	-0.201	0.229
-522.975	315.875	0.073	-0.140
-521.960	186.730	0.200	0.303
-520.945	-30.754	-0.085	-0.049
-519.931	-200.000	0.041	-0.242
-518.916	800.000	0.062	-0.192
-517.902	64.710	-0.090	-0.093
-516.887	27.456	0.278	-0.238
-515.872	226.167	0.166	0.273
-514.858	-119.305	-0.058	-0.010
-513.843	800.000	0.053	0.165
-512.829	172.662	0.025	0.036
-511.814	25.722	0.075	0.063
-510.799	-168.258	0.061	0.002
-509.785	-200.000	-0.011	0.292
-508.770	-200.000	-0.043	-0.465
-507.756	210.651	0.047	0.075
-506.741	37.943	0.220	-0.199
-505.726	800.000	0.090	-0.345
-504.712	-9.056	0.265	0.180
-503.697	92.702	-0.090	0.104
-502.683	-45.152	0.229	-0.116
-501.668	-111.124	0.282	-0.059
-500.653	-36.975	-0.051	0.028
-499.639	-132.694	-0.158	-0.021
-498.624	-21.606	0.243	-0.150
-497.610	79.037	-0.074	-0.080
-496.595	-130.335	0.202	0.028
-495.581	-120.241	0.295	0.051
-494.566	550.111	-0.097	-0.235
-493.551	352.315	-0.087	0.176
-492.537	650.473	0.098	0.254
-491.522	-1.958	0.150	-0.107
-490.508	-101.935	0.193	-0.047
-489.493	39.201	0.251	-0.228
-488.478	-200.000	-0.055	0.303
-487.464	-94.206	0.023	0.006
-486.449	19.767	-0.329	0.269
-485.435	310.231	-0.087	0.165
-484.420	99.334	0.055	0.065
-483.405	-188.762	0.328	0.004
-482.391	-200.000	0.002	-0.307
-481.376	222.590	0.066	-0.108
-480.362	-200.000	0.012	-0.112
-479.347	69.492	0.322	0.336
-478.332	-0.653	0.414	0.298
-477.318	-51.526	0.266	-0.126
-476.303	41.934	-0.102	-0.094
-475.289	28.637	0.050	0.043
-474.274	119.283	0.257	-0.322
-473.259	167.777	-0.110	0.159
-472.245	-141.918	0.118	-0.012
-471.230	-105.531	0.052	-0.012
-470.216	-70.139	-0.151	-0.058
-469.201	-40.929	0.409	0.215
-468.186	800.000	-0.054	0.200
-467.172	800.000	-0.052	0.184
-466.157	63.889	-0.035	0.036
-465.143	464.642	0.049	-0.112
-464.128	-16.803	0.243	-0.156
-463.113	-124.026	-0.322	-0.051
-462.099	-14.214	0.049	0.032
-461.084	4.358	0.237	-0.176
-460.070	-28.139	-0.023	-0.014
-459.055	178.653	-0.157	-0.233
-458.040	4.891	0.204	0.152
-457.026	37.192	0.091	0.081
-456.011	-37.918	0.439	-0.236
-454.997	15.956	0.116	0.092
-453.982	800.000	0.143	0.594
-452.968	-103.245	-0.376	0.090
-451.953	72.578	0.192	-0.203
-450.938	-200.000	-0.000	0.151
-449.924	-200.000	0.003	0.304
-448.909	-168.222	0.213	0.008
-447.895	-200.000	-0.009	-0.231
-446.880	-124.659	0.083	-0.013
-445.865	-97.482	0.209	0.055
-444.851	47.038	0.074	-0.069
-443.836	-200.000	-0.079	-0.574
-442.822	16.054	0.064	-0.051
-441.807	6.299	-0.254	0.191
-440.792	231.410	-0.130	-0.216
-439.778	-200.000	0.019	-0.383
-438.763	27.211	-0.108	-0.092
-437.749	88.633	-0.126	-0.142
-436.734	-0.324	0.061	0.044
-435.719	33.730	0.188	-0.166
-434.705	-34.043	0.260	0.145
-433.690	-14.950	0.114	-0.074
-432.676	-200.000	-0.001	0.068
-431.661	-122.604	0.308	0.051
-430.646	-172.891	0.290	-0.009
-429.632	-200.000	-0.022	-0.332
-428.617	-200.000	-0.012	-0.122
-427.603	340.970	-0.190	-0.376
-426.588	70.169	0.251	0.263
-425.573	-117.467	0.256	0.047
-424.559	-200.000	-0.005	-0.135
-423.544	610.854	0.074	-0.188
-422.530	-106.710	-0.153	0.034
-421.515	25.392	0.204	0.171
-420.500	-200.000	-0.002	-0.200
-419.486	-74.275	-0.210	0.077
-418.471	800.000	-0.018	-0.056
-417.457	-23.822	-0.091	-0.055
-416.442	-162.814	-0.289	0.014
-415.428	1.295	-0.345	0.251
-414.413	-36.794	0.372	0.202
-413.398	800.000	0.025	0.074
-412.384	466.001	0.084	-0.191
-411.369	119.225	0.103	-0.129
-410.355	-200.000	0.245	0.000
-409.340	-29.949	-0.036	-0.021
-408.325	-139.004	0.041	0.005
-407.311	386.576	-0.130	-0.271
-406.296	-134.785	0.375	-0.046
-405.282	800.000	-0.084	-0.264
-404.267	-200.000	-0.003	0.075
-403.252	240.593	0.031	-0.052
-402.238	-79.307	0.249	-0.085
-401.223	-44.360	-0.235	-0.119
-400.209	-200.000	0.003	0.112
-399.194	-52.420	0.136	-0.064
-398.179	-44.800	-0.258	-0.130
-397.165	-66.057	-0.471	0.190
-396.150	165.035	0.073	0.105
-395.136	-200.000	0.046	0.286
-394.121	-13.117	0.045	0.029
-393.106	-200.000	0.002	0.104
-392.092	-45.221	-0.120	-0.060
-391.077	-141.087	-0.152	0.016
-390.063	61.584	-0.222	0.224
-389.048	-118.475	-0.156	-0.028
-388.033	74.413	0.155	-0.164
-387.019	-25.151	-0.267	0.160
-386.004	79.255	0.135	0.147
-384.990	-6.533	0.149	0.103
-383.975	800.000	0.076	-0.243
-382.960	800.000	-0.161	0.453
-381.946	58.489	-0.275	0.273
-380.931	377.895	-0.058	0.119
-379.917	-180.201	0.380	-0.008
-378.902	-23.004	-0.293	0.179
-377.888	-82.000	0.138	-0.045
-376.873	800.000	0.030	-0.105
-375.858	-200.000	0.063	0.347
-374.844	216.297	-0.068	0.109
-373.829	-56.908	-0.133	0.059
-372.815	-200.000	0.009	-0.042
-371.800	800.000	-0.078	-0.306
-370.785	-74.186	0.279	0.102
-369.771	800.000	0.024	-0.086
-368.756	48.961	-0.163	-0.155
-367.742	50.488	0.112	0.107
-366.727	-200.000	-0.014	-0.097
-365.712	290.316	-0.075	0.138
-364.698	-8.229	-0.332	-0.226
-363.683	-182.370	-0.210	0.004
-362.669	-64.296	-0.257	0.106
-361.654	-48.371	0.324	0.158
-360.639	-200.000	-0.066	0.333
-359.625	164.681	-0.059	-0.085
-358.610	-130.237	-0.155	0.021
-357.596	404.252	-0.100	0.214
-356.581	344.593	0.141	-0.280
-355.566	-103.847	0.175	0.041
-354.552	-200.000	0.017	-0.153
-353.537	401.606	0.123	0.261
-352.523	-200.000	0.029	0.208
-351.508	-100.753	0.090	-0.022
-350.493	-34.820	-0.130	-0.072
-349.479	332.269	0.171	-0.333
-348.464	-40.125	0.325	-0.171
-347.450	-51.606	-0.264	0.124
-346.435	800.000	-0.053	0.214
-345.420	-92.454	0.189	0.054
-344.406	-200.000	-0.007	0.400
-343.391	16.598	0.148	0.118
-342.377	-46.622	-0.023	-0.011
-341.362	9.376	-0.037	0.029
-340.348	116.078	0.104	0.128
-339.333	-112.709	-0.109	0.022
-338.318	-137.770	0.255	0.029
-337.304	47.234	0.357	-0.336
-336.289	-17.223	-0.283	0.180
-335.275	-162.507	-0.061	-0.003
-334.260	190.775	0.033	0.049
-333.245	-48.942	-0.350	-0.169
-332.231	-104.488	0.347	-0.081
-331.216	23.049	0.247	0.205
-330.202	-200.000	0.069	-0.408
-329.187	-101.894	0.319	-0.078
-328.172	-86.300	-0.164	-0.051
-327.158	499.004	-0.097	-0.225
-326.143	800.000	0.048	-0.175
-325.129	33.204	-0.130	-0.114
-324.114	671.971	-0.095	-0.248
-323.099	549.877	-0.081	0.196
-322.085	328.757	0.070	-0.135
-321.070	595.743	-0.114	-0.283
-320.056	292.477	-0.081	0.149
-319.041	33.507	-0.271	0.237
-318.026	19.091	0.311	0.252
-317.012	-42.459	-0.230	0.118
-315.997	20.739	-0.028	0.023
-314.983	-131.285	0.147	-0.020
-313.968	115.462	-0.129	-0.158
-312.953	9.677	-0.171	-0.130
-311.939	-200.000	0.012	-0.241
-310.924	-200.000	0.006	0.055
-309.910	250.721	0.150	-0.257
-308.895	-91.143	0.375	-0.108
-307.880	-144.207	0.268	0.025
-306.866	1.719	0.199	0.145
-305.851	-60.413	-0.335	-0.144
-304.837	-20.620	0.151	0.093
-303.822	-200.000	0.000	0.134
-302.807	121.743	0.087	-0.109
-301.793	-90.418	-0.077	0.023
-300.778	-104.309	-0.161	0.038
-299.764	3.302	0.238	0.174
-298.749	-50.394	-0.132	0.063
-297.735	800.000	-0.076	0.292
-296.720	636.724	-0.211	-0.541
-295.705	758.755	0.067	-0.183
-294.691	-200.000	0.029	-0.160
-293.676	41.898	-0.118	0.107
-292.662	-200.000	0.054	-0.344
-291.647	-168.485	0.427	0.016
-290.632	320.056	0.033	-0.063
-289.618	219.193	0.145	0.234
-288.603	48.994	0.390	-0.369
-287.589	-111.018	0.186	0.039
-286.574	370.255	-0.085	-0.173
-285.559	800.000	0.078	-0.263
-284.545	40.632	0.038	0.034
-283.530	-125.231	-0.273	0.042
-282.516	425.520	0.062	-0.134
-281.501	-3.054	0.318	0.223
-280.486	32.825	0.153	0.133
-279.472	56.093	0.162	-0.158
-278.457	-81.375	0.079	0.026
-277.443	-118.787	0.035	-0.006
-276.428	428.137	-0.138	0.300
-275.413	37.864	0.072	0.065
-274.399	146.185	0.173	-0.234
-273.384	-117.980	-0.221	-0.040
-272.370	40.514	-0.080	-0.073
-271.355	-67.088	-0.320	-0.127
-270.340	-77.533	-0.547	-0.191
-269.326	800.000	-0.053	0.151
-268.311	59.462	0.382	0.379
-267.297	79.839	-0.090	-0.097
-266.282	44.552	0.125	0.116
-265.267	-128.552	0.082	-0.012
-264.253	-200.000	0.031	0.212
-263.238	68.872	-0.082	0.085
-262.224	-51.652	0.217	-0.102
-261.209	101.606	0.140	0.164
-260.195	742.351	-0.059	0.158
-259.180	131.854	0.393	0.509
-258.165	-200.000	-0.020	0.112
-257.151	89.871	-0.273	-0.306
-256.136	-49.862	-0.246	0.117
-255.122	100.055	-0.169	-0.197
-254.107	-77.082	0.256	-0.090
-253.092	-127.446	0.186	0.027
-252.078	380.060	0.095	-0.196
-251.063	-86.270	0.077	-0.024
-250.049	-98.864	-0.131	0.033
-249.034	-200.000	-0.006	0.289
-248.019	-104.586	-0.246	0.057
-247.005	166.097	0.067	0.095
-245.990	-200.000	-0.024	-0.158
-244.976	104.544	0.058	0.069
-243.961	443.441	0.126	-0.277
-242.946	-167.422	-0.114	-0.005
-241.932	22.543	-0.100	0.082
-240.917	60.308	-0.266	0.265
-239.903	-150.264	-0.325	0.025
-238.888	800.000	-0.056	-0.204
-237.873	-126.811	0.179	0.027
-236.859	2.590	0.150	0.109
-235.844	-43.230	-0.150	0.076
-234.830	-117.648	0.239	-0.043
-233.815	-34.511	-0.184	-0.102
-232.800	-200.000	0.014	-0.065
-231.786	-123.990	-0.197	-0.031
-230.771	-200.000	0.010	-0.139
-229.757	-43.833	-0.315	-0.159
-228.742	351.081	0.289	-0.575
-227.727	638.488	-0.051	-0.130
-226.713	440.072	0.060	0.131
-225.698	800.000	0.026	-0.107
-224.684	120.275	0.054	-0.067
-223.669	11.516	-0.266	0.205
-222.655	-160.569	0.039	0.002
-221.640	800.000	0.057	-0.211
-220.625	234.259	-0.158	-0.261
-219.611	800.000	0.092	-0.263
-218.596	-200.000	-0.057	-0.292
-217.582	122.778	-0.154	-0.194
-216.567	-6.844	-0.121	-0.083
-215.552	-123.095	-0.231	0.037
-214.538	-200.000	-0.016	-0.112
-213.523	283.597	-0.163	-0.294
-212.509	-200.000	-0.005	-0.135
-211.494	-200.000	-0.032	-0.176
-210.479	-138.315	-0.136	-0.015
-209.465	-48.729	0.457	-0.220
-208.450	664.445	-0.194	0.502
-207.436	146.469	-0.193	-0.260
-206.421	-61.361	-0.130	-0.055
-205.406	-49.297	-0.148	0.071
-204.392	-200.000	-0.005	-0.209
-203.377	-200.000	-0.005	-0.026
-202.363	53.367	0.155	0.149
-201.348	-66.246	-0.171	-0.069
-200.333	327.800	-0.074	0.143
-199.319	279.827	-0.063	-0.114
-198.304	55.986	-0.208	-0.202
-197.290	800.000	0.068	-0.294
-196.275	70.185	0.132	0.137
-195.260	105.435	0.015	0.018
-194.246	178.720	0.055	-0.080
-193.231	167.565	-0.102	-0.145
-192.217	319.050	0.027	-0.052
-191.202	62.203	0.189	0.189
-190.187	380.989	0.105	0.217
-189.173	-36.403	-0.066	-0.035
-188.158	226.855	0.121	-0.198
-187.144	738.964	-0.075	0.201
-186.129	-80.028	-0.071	0.024
-185.114	47.512	0.166	0.155
-184.100	323.084	-0.084	0.161
-183.085	-14.185	-0.336	0.218
-182.071	800.000	-0.043	0.141
-181.056	-200.000	-0.036	0.474
-180.042	-86.540	-0.248	-0.076
-179.027	800.000	-0.053	0.209
-178.012	-88.996	0.276	0.082
-176.998	77.364	0.174	0.186
-175.983	-87.070	0.049	-0.015
-174.969	-66.447	-0.249	0.099
-173.954	-162.782	-0.118	0.006
-172.939	-170.127	0.140	-0.005
-171.925	-104.832	0.051	-0.012
-170.910	-200.000	-0.128	0.001
-169.896	800.000	-0.035	0.109
-168.881	-90.029	-0.094	-0.027
-167.866	-64.371	0.039	0.016
-166.852	-200.000	0.027	0.224
-165.837	-28.739	0.236	-0.136
-164.823	-3.984	-0.190	0.132
-163.808	-125.098	-0.081	-0.012
-162.793	-83.286	-0.153	-0.049
-161.779	-124.763	-0.345	-0.053
-160.764	800.000	-0.135	-0.380
-159.750	-35.664	-0.140	-0.076
-158.735	-22.303	0.170	-0.104
-157.720	56.814	0.140	-0.136
-156.706	768.997	0.103	0.281
-155.691	-35.945	-0.331	0.179
-154.677	-186.216	-0.249	0.004
-153.662	225.034	-0.085	-0.138
-152.647	-200.000	-0.011	-0.178
-151.633	-119.685	0.162	0.028
-150.618	-200.000	-0.003	0.325
-149.604	360.320	0.102	-0.204
-148.589	-200.000	-0.002	0.494
-147.574	-94.291	0.170	0.047
-146.560	-3.920	0.122	0.085
-145.545	-2.534	-0.157	-0.110
-144.531	372.786	-0.271	0.551
-143.516	-200.000	0.004	0.070
-142.502	306.078	0.043	0.079
-141.487	16.381	0.030	-0.024
-140.472	-200.000	-0.008	0.043
-139.458	-57.302	-0.240	-0.105
-138.443	95.071	0.130	-0.148
-137.429	-154.389	-0.082	0.005
-136.414	-105.364	-0.260	0.059
-135.399	-120.102	0.259	0.044
-134.385	-11.816	0.338	0.222
-133.370	548.018	0.179	0.428
-132.356	-200.000	-0.035	0.195
-131.341	214.329	-0.106	-0.168
-130.326	-105.127	-0.175	0.040
-129.312	800.000	0.067	-0.220
-128.297	-122.737	0.328	0.053
-127.283	-86.987	0.208	-0.063
-126.268	800.000	0.045	0.128
-125.253	-178.780	0.416	0.009
-124.239	-61.237	0.066	-0.028
-123.224	-93.858	-0.252	-0.069
-122.210	-27.245	0.164	0.095
-121.195	-137.096	0.082	-0.009
