DTS Sentinel unit serial number:	SN413079Multiplexer serial number:	ORYXHardware model number:	OX4-SRSoftware version number:	ORYX F/W v4.00 Oryx Data Collector v3.7.2.0data status	okinstallation	princeton_trtdifferential loss correction	single-endedforward channel	channel 4reverse channel	N/Adate	2019/09/11time	04:59:11forward acquisition time	60.00reverse acquisition time	0.00gamma	496.2192k internal	0.2316k external	0.2316temperature offset calibration	0.9943default loss term (dB/km)	0.3790temperature slope calibration	1.0000multiplexer offset coefficient	1.0000multiplexer slope coefficient	1.0000fibre end	0.00T internal ref (°C)	29.50T ext. ref 1 (°C)	-0.26T ext. ref 2 (°C)	23.32length (m)	temperature (°C)	Stokes	anti-Stokes-747.200	295.060	-0.111	0.206
-746.185	319.995	-0.096	0.185
-745.171	135.447	-0.082	-0.108
-744.156	800.000	-0.125	0.412
-743.142	702.232	0.090	-0.240
-742.127	800.000	-0.111	0.336
-741.112	800.000	-0.049	0.159
-740.098	-79.679	0.099	-0.034
-739.083	4.027	-0.188	0.140
-738.069	66.523	0.031	-0.031
-737.054	800.000	0.130	-0.376
-736.039	80.745	0.160	-0.175
-735.025	487.883	-0.106	-0.245
-734.010	-200.000	-0.005	0.121
-732.996	-84.004	0.108	0.035
-731.981	-200.000	0.078	0.413
-730.966	381.769	-0.065	0.136
-729.952	478.302	0.098	-0.224
-728.937	771.181	0.031	-0.086
-727.923	188.822	-0.087	-0.132
-726.908	-37.661	-0.121	0.065
-725.894	-200.000	-0.020	0.152
-724.879	-200.000	0.014	0.207
-723.864	-200.000	-0.007	0.275
-722.850	800.000	0.041	-0.145
-721.835	800.000	-0.055	-0.195
-720.821	97.852	-0.176	0.205
-719.806	-72.099	0.167	0.063
-718.791	19.464	-0.309	0.252
-717.777	-187.609	-0.332	-0.004
-716.762	-88.752	-0.361	-0.109
-715.748	-44.025	0.107	-0.055
-714.733	-60.649	-0.048	-0.020
-713.718	-200.000	-0.030	0.133
-712.704	72.242	0.274	0.289
-711.689	117.364	0.113	-0.140
-710.675	52.884	0.085	-0.082
-709.660	-109.791	0.342	0.073
-708.645	-105.076	-0.286	-0.066
-707.631	-99.099	-0.116	0.030
-706.616	394.341	0.092	-0.193
-705.602	213.185	-0.164	0.263
-704.587	-200.000	-0.024	0.140
-703.572	31.955	-0.127	0.111
-702.558	-27.737	0.139	0.082
-701.543	474.947	0.129	-0.295
-700.529	9.434	-0.078	-0.060
-699.514	-200.000	-0.008	-0.372
-698.499	35.220	0.103	-0.091
-697.485	-123.394	-0.164	-0.026
-696.470	-113.928	0.154	0.030
-695.456	-50.233	0.303	-0.145
-694.441	-25.292	0.195	-0.117
-693.426	-200.000	-0.011	0.113
-692.412	-177.260	-0.282	-0.007
-691.397	800.000	0.056	-0.230
-690.383	-155.650	-0.067	0.004
-689.368	307.706	0.101	0.191
-688.354	268.104	-0.010	0.017
-687.339	277.287	-0.109	0.195
-686.324	-132.399	0.311	-0.041
-685.310	-90.865	-0.483	0.141
-684.295	-87.381	-0.349	-0.107
-683.281	-2.563	-0.271	0.192
-682.266	-65.862	-0.220	0.089
-681.251	-61.079	0.438	-0.187
-680.237	70.205	0.113	0.118
-679.222	14.567	0.289	0.228
-678.208	-93.683	0.132	-0.037
-677.193	30.178	-0.158	-0.136
-676.178	8.239	-0.169	0.128
-675.164	205.892	0.040	-0.063
-674.149	161.353	-0.054	-0.077
-673.135	-200.000	-0.412	-0.000
-672.120	-27.094	-0.289	-0.170
-671.105	-137.657	0.316	-0.036
-670.091	-156.834	0.293	-0.018
-669.076	-200.000	-0.072	-0.362
-668.062	-135.286	-0.377	0.046
-667.047	758.359	0.110	0.301
-666.032	800.000	0.072	-0.301
-665.018	241.700	0.051	0.086
-664.003	-65.780	-0.182	-0.073
-662.989	-187.282	0.087	0.001
-661.974	696.177	-0.102	0.271
-660.959	-200.000	-0.003	-0.052
-659.945	84.390	-0.141	0.155
-658.930	205.189	0.300	-0.471
-657.916	-48.810	-0.252	-0.122
-656.901	69.514	0.079	-0.082
-655.886	-65.693	0.064	-0.026
-654.872	-78.478	-0.328	-0.114
-653.857	-65.698	0.165	-0.067
-652.843	-200.000	-0.007	0.080
-651.828	20.754	-0.196	0.160
-650.814	-13.237	-0.271	-0.178
-649.799	89.724	0.142	0.160
-648.784	-200.000	-0.018	0.120
-647.770	-200.000	-0.009	0.053
-646.755	-69.243	-0.313	-0.121
-645.741	-1.775	0.197	-0.140
-644.726	147.010	-0.167	0.226
-643.711	800.000	0.037	-0.149
-642.697	322.627	-0.154	-0.297
-641.682	-200.000	-0.004	-0.017
-640.668	475.872	-0.085	-0.194
-639.653	310.131	0.108	-0.204
-638.638	17.784	-0.376	-0.302
-637.624	177.353	-0.167	-0.245
-636.609	-17.757	-0.424	-0.269
-635.595	483.491	-0.050	-0.115
-634.580	800.000	-0.027	0.116
-633.565	-163.590	-0.154	0.007
-632.551	-117.838	-0.284	0.051
-631.536	-200.000	0.015	-0.220
-630.522	-29.873	-0.150	0.086
-629.507	5.212	-0.256	-0.190
-628.492	-131.290	-0.291	0.039
-627.478	116.895	-0.340	0.421
-626.463	-200.000	-0.002	0.188
-625.449	-100.809	-0.165	-0.041
-624.434	-102.027	0.198	0.048
-623.419	-113.450	-0.071	0.014
-622.405	-200.000	0.061	0.269
-621.390	77.435	0.277	0.297
-620.376	-200.000	0.058	0.486
-619.361	518.266	0.035	0.083
-618.346	-200.000	-0.021	0.219
-617.332	-200.000	-0.042	0.237
-616.317	-108.748	-0.232	-0.050
-615.303	-200.000	-0.022	-0.312
-614.288	-153.293	-0.110	0.008
-613.273	508.872	-0.013	0.030
-612.259	370.106	-0.193	-0.394
-611.244	-19.991	0.240	0.149
-610.230	-200.000	-0.008	0.113
-609.215	7.766	0.230	0.174
-608.201	800.000	0.049	-0.170
-607.186	66.607	0.091	0.093
-606.171	-10.986	-0.067	-0.045
-605.157	-200.000	0.002	-0.171
-604.142	549.210	0.045	0.109
-603.128	-200.000	0.042	0.227
-602.113	-55.945	-0.107	0.048
-601.098	-5.509	0.194	0.134
-600.084	445.017	0.126	-0.278
-599.069	-200.000	-0.024	-0.290
-598.055	-76.476	-0.206	0.073
-597.040	-167.079	-0.302	-0.012
-596.025	-200.000	-0.032	-0.244
-595.011	-200.000	-0.011	-0.067
-593.996	119.562	0.118	-0.148
-592.982	800.000	-0.024	0.088
-591.967	-200.000	0.030	-0.227
-590.952	12.441	-0.289	-0.224
-589.938	-41.670	-0.295	0.153
-588.923	-200.000	0.019	-0.155
-587.909	390.264	-0.126	-0.264
-586.894	79.038	0.335	0.361
-585.879	50.323	-0.073	0.070
-584.865	-200.000	0.059	0.271
-583.850	-200.000	0.050	-0.261
-582.836	-79.904	-0.175	0.059
-581.821	-200.000	-0.080	0.435
-580.806	-169.191	-0.301	-0.011
-579.792	-200.000	0.023	-0.139
-578.777	5.988	0.144	-0.108
-577.763	-69.394	-0.319	-0.123
-576.748	-51.502	-0.020	0.009
-575.733	-84.484	0.367	0.117
-574.719	58.287	0.117	-0.115
-573.704	143.564	-0.276	-0.369
-572.690	-69.331	0.324	-0.125
-571.675	1.051	-0.242	0.175
-570.661	197.387	0.291	0.447
-569.646	-59.146	0.219	-0.095
-568.631	-200.000	0.007	-0.251
-567.617	-129.708	-0.124	0.017
-566.602	10.331	-0.130	0.099
-565.588	-24.991	0.191	0.114
-564.573	28.590	0.252	-0.214
-563.558	-57.605	-0.274	-0.121
-562.544	-196.394	-0.203	0.001
-561.529	800.000	-0.087	0.279
-560.515	-66.404	-0.205	-0.082
-559.500	77.281	-0.143	-0.153
-558.485	193.422	0.122	-0.185
-557.471	800.000	0.115	0.364
-556.456	212.197	-0.091	-0.144
-555.442	116.280	-0.089	-0.110
-554.427	158.316	-0.123	-0.172
-553.412	-200.000	-0.020	-0.352
-552.398	-97.499	0.067	-0.017
-551.383	53.131	0.106	0.102
-550.369	21.840	0.280	0.229
-549.354	800.000	0.025	-0.098
-548.339	-96.678	-0.321	-0.085
-547.325	-198.156	-0.278	0.002
-546.310	-87.976	0.181	-0.055
-545.296	-72.674	0.193	0.072
-544.281	-3.127	-0.152	0.107
-543.266	-91.810	-0.079	-0.022
-542.252	300.542	0.167	-0.309
-541.237	-170.587	0.285	0.010
-540.223	-127.782	-0.060	0.009
-539.208	-65.267	0.131	0.053
-538.193	-182.129	-0.453	-0.009
-537.179	-51.930	0.081	-0.038
-536.164	-200.000	-0.046	0.331
-535.150	-200.000	0.015	0.171
-534.135	-4.766	0.101	-0.070
-533.121	254.234	0.094	0.162
-532.106	115.373	0.092	0.113
-531.091	-111.162	-0.246	0.051
-530.077	31.870	0.253	-0.219
-529.062	-87.683	0.085	0.026
-528.048	-129.044	0.150	-0.021
-527.033	-158.456	-0.240	-0.014
-526.018	141.902	-0.135	0.179
-525.004	158.408	0.136	0.190
-523.989	-49.149	-0.426	0.204
-522.975	800.000	-0.030	0.104
-521.960	395.169	0.023	0.049
-520.945	64.047	-0.059	0.060
-519.931	211.789	-0.075	0.119
-518.916	-200.000	0.029	0.239
-517.902	-20.188	0.085	0.052
-516.887	12.287	0.107	-0.083
-515.872	139.640	-0.231	-0.306
-514.858	157.250	-0.105	0.146
-513.843	-45.156	-0.345	0.172
-512.829	-150.080	-0.194	-0.015
-511.814	429.976	-0.157	0.340
-510.799	-67.390	-0.267	0.105
-509.785	-200.000	0.050	0.281
-508.770	-101.875	-0.070	0.017
-507.756	-76.946	-0.159	0.056
-506.741	-106.180	0.053	0.012
-505.726	-153.650	-0.162	-0.011
-504.712	-49.177	0.171	-0.082
-503.697	-57.642	0.191	-0.084
-502.683	800.000	-0.072	-0.261
-501.668	-165.388	0.173	0.008
-500.653	800.000	-0.080	-0.242
-499.639	-54.723	-0.246	0.112
-498.624	-199.612	0.634	0.003
-497.610	-7.107	-0.044	-0.030
-496.595	104.422	0.148	0.174
-495.581	-200.000	0.010	0.168
-494.566	108.192	0.098	-0.118
-493.551	-200.000	0.006	0.237
-492.537	-200.000	-0.076	0.342
-491.522	-137.354	0.203	-0.023
-490.508	-200.000	-0.042	-0.413
-489.493	-72.160	-0.255	0.095
-488.478	-149.955	0.152	-0.012
-487.464	193.257	0.018	0.028
-486.449	-46.018	-0.210	-0.104
-485.435	259.946	0.171	-0.296
-484.420	152.633	-0.085	-0.116
-483.405	-200.000	0.014	-0.094
-482.391	373.655	0.203	0.415
-481.376	151.274	-0.070	0.096
-480.362	115.996	0.161	0.198
-479.347	633.941	0.057	-0.145
-478.332	-132.614	0.351	-0.045
-477.318	20.085	0.308	0.249
-476.303	-139.148	-0.108	0.012
-475.289	249.894	-0.091	0.155
-474.274	800.000	-0.078	0.262
-473.259	800.000	-0.095	0.391
-472.245	-76.001	-0.381	-0.135
-471.230	800.000	0.032	-0.099
-470.216	-200.000	-0.008	-0.089
-469.201	497.690	0.007	-0.017
-468.186	800.000	0.095	-0.371
-467.172	800.000	0.143	-0.503
-466.157	-33.886	-0.297	0.164
-465.143	61.437	0.073	0.073
-464.128	-200.000	-0.024	0.113
-463.113	-138.461	-0.060	-0.007
-462.099	-200.000	0.033	0.252
-461.084	-16.005	0.083	0.053
-460.070	59.852	0.241	-0.239
-459.055	-55.802	-0.347	-0.155
-458.040	30.512	-0.111	0.095
-457.026	-13.389	0.101	-0.065
-456.011	-200.000	0.023	0.124
-454.997	56.389	-0.218	-0.213
-453.982	249.192	-0.136	-0.231
-452.968	-200.000	-0.001	-0.221
-451.953	528.770	-0.031	0.072
-450.938	-15.623	0.172	-0.110
-449.924	-63.659	-0.150	-0.061
-448.909	-200.000	0.035	-0.160
-447.895	-53.932	0.084	0.038
-446.880	100.719	0.204	0.238
-445.865	-118.451	0.278	0.049
-444.851	17.374	0.355	0.282
-443.836	-200.000	-0.035	-0.203
-442.822	800.000	0.026	-0.075
-441.807	800.000	-0.082	-0.310
-440.792	10.942	-0.112	0.086
-439.778	147.003	-0.119	0.160
-438.763	-41.337	-0.323	0.167
-437.749	-200.000	-0.003	-0.162
-436.734	-200.000	0.001	-0.392
-435.719	-200.000	-0.004	-0.225
-434.705	440.100	0.055	-0.120
-433.690	36.046	-0.265	-0.234
-432.676	219.341	-0.100	-0.159
-431.661	226.278	0.039	-0.064
-430.646	-78.301	-0.404	0.139
-429.632	-139.999	-0.160	-0.017
-428.617	525.980	0.082	0.193
-427.603	-163.850	-0.158	-0.007
-426.588	-140.975	-0.065	-0.007
-425.573	145.569	0.296	0.397
-424.559	-200.000	-0.030	0.178
-423.544	-87.259	0.319	-0.097
-422.530	-200.000	0.000	0.256
-421.515	-91.327	-0.252	0.072
-420.500	-69.108	-0.283	0.109
-419.486	-170.838	-0.138	-0.005
-418.471	-68.392	0.275	0.107
-417.457	-0.835	0.042	-0.030
-416.442	-158.179	-0.303	-0.018
-415.428	-43.409	0.085	-0.043
-414.413	-0.180	-0.073	0.052
-413.398	-200.000	-0.028	-0.281
-412.384	-90.942	-0.294	0.084
-411.369	108.252	0.105	0.125
-410.355	25.878	0.253	0.211
-409.340	800.000	0.056	-0.239
-408.325	464.268	0.177	-0.396
-407.311	-163.656	0.208	-0.010
-406.296	-39.909	0.138	0.072
-405.282	-58.728	0.222	-0.096
-404.267	-200.000	-0.036	-0.205
-403.252	-136.703	0.054	-0.006
-402.238	-86.828	-0.125	0.038
-401.223	116.542	-0.147	-0.180
-400.209	91.619	0.119	0.134
-399.194	-106.289	0.192	-0.043
-398.179	96.186	0.074	-0.085
-397.165	800.000	-0.054	-0.217
-396.150	-153.131	-0.043	0.003
-395.136	800.000	-0.077	0.219
-394.121	-35.808	-0.225	-0.122
-393.106	100.621	0.020	0.024
-392.092	55.070	0.213	0.205
-391.077	-200.000	-0.002	-0.032
-390.063	125.904	-0.161	0.203
-389.048	-109.359	-0.108	0.023
-388.033	-18.202	0.080	0.050
-387.019	31.728	0.066	-0.057
-386.004	-126.858	-0.256	-0.038
-384.990	158.874	-0.158	0.220
-383.975	-166.670	0.152	0.006
-382.960	23.870	0.116	-0.095
-381.946	-144.495	0.057	-0.005
-380.931	-106.339	0.258	0.058
-379.917	-141.888	-0.121	-0.012
-378.902	-200.000	-0.037	-0.448
-377.888	-200.000	-0.021	0.282
-376.873	-140.557	0.123	0.013
-375.858	-112.796	-0.202	-0.040
-374.844	-41.330	0.042	-0.021
-373.829	-91.755	-0.364	0.103
-372.815	-23.266	-0.209	0.126
-371.800	669.795	0.073	-0.189
-370.785	167.587	0.191	0.271
-369.771	-200.000	-0.004	-0.110
-368.756	-67.771	0.311	0.121
-367.742	83.889	0.161	0.176
-366.727	89.269	0.082	-0.091
-365.712	687.625	-0.102	0.267
-364.698	443.021	-0.055	-0.119
-363.683	-200.000	-0.008	-0.412
-362.669	-200.000	0.031	0.283
-361.654	-131.231	0.049	-0.006
-360.639	629.229	-0.054	0.137
-359.625	53.283	-0.122	-0.116
-358.610	122.206	0.172	0.214
-357.596	800.000	0.079	-0.310
-356.581	-76.570	-0.331	0.116
-355.566	-28.784	-0.335	0.192
-354.552	195.182	-0.048	0.073
-353.537	598.855	-0.065	0.162
-352.523	800.000	0.013	0.052
-351.508	-30.439	0.161	0.091
-350.493	645.259	0.106	0.270
-349.479	409.804	0.186	0.393
-348.464	-7.325	-0.142	0.096
-347.450	800.000	0.043	0.184
-346.435	-16.752	0.291	-0.184
-345.420	-16.620	-0.200	-0.126
-344.406	-182.329	0.304	-0.006
-343.391	24.613	-0.251	0.207
-342.377	-200.000	0.024	-0.176
-341.362	30.880	0.173	0.148
-340.348	-86.637	0.264	-0.081
-339.333	-200.000	-0.010	-0.281
-338.318	800.000	-0.033	-0.132
-337.304	75.220	-0.167	0.176
-336.289	800.000	-0.017	-0.063
-335.275	588.942	-0.098	0.240
-334.260	-200.000	-0.292	-0.000
-333.245	-29.508	-0.343	0.195
-332.231	87.484	0.360	0.397
-331.216	-187.998	-0.443	0.006
-330.202	-90.827	-0.261	0.075
-329.187	-21.065	0.376	0.230
-328.172	81.658	-0.260	-0.280
-327.158	-40.236	0.309	0.160
-326.143	-200.000	-0.046	-0.305
-325.129	-200.000	0.017	0.081
-324.114	701.150	0.029	0.075
-323.099	489.294	0.007	-0.016
-322.085	152.606	0.105	0.143
-321.070	-136.269	0.207	-0.024
-320.056	36.382	0.430	0.377
-319.041	193.070	0.317	0.478
-318.026	800.000	-0.008	0.025
-317.012	-137.872	-0.167	-0.019
-315.997	-70.636	0.251	-0.095
-314.983	-200.000	0.028	0.363
-313.968	800.000	0.165	0.564
-312.953	-44.201	0.081	0.040
-311.939	87.666	0.113	0.124
-310.924	-118.899	-0.172	-0.030
-309.910	-178.723	-0.137	0.003
-308.895	4.299	0.466	-0.340
-307.880	-163.794	0.378	-0.018
-306.866	-41.972	0.190	0.097
-305.851	156.271	0.187	0.257
-304.837	-200.000	0.085	-0.418
-303.822	-137.717	0.269	0.030
-302.807	-140.149	0.140	-0.015
-301.793	82.191	0.124	0.133
-300.778	-70.136	-0.093	-0.035
-299.764	-67.189	-0.286	0.112
-298.749	-156.764	-0.235	0.014
-297.735	-101.188	0.213	0.052
-296.720	800.000	0.043	-0.134
-295.705	-133.905	0.112	0.014
-294.691	-35.929	0.213	-0.114
-293.676	282.201	-0.120	0.215
-292.662	-200.000	0.010	0.227
-291.647	800.000	-0.055	0.151
-290.632	-72.227	-0.498	-0.184
-289.618	-200.000	0.017	-0.104
-288.603	-200.000	-0.012	-0.391
-287.589	-66.975	0.218	-0.086
-286.574	172.561	-0.211	0.301
-285.559	169.116	-0.162	-0.230
-284.545	800.000	0.058	0.216
-283.530	226.417	0.171	0.276
-282.516	144.116	-0.039	-0.052
-281.501	-56.103	0.084	0.037
-280.486	-92.075	0.339	0.095
-279.472	54.544	-0.047	-0.045
-278.457	437.995	0.154	-0.334
-277.443	115.513	0.293	-0.357
-276.428	3.082	0.311	-0.225
-275.413	30.868	0.102	-0.087
-274.399	531.390	-0.062	-0.146
-273.384	-111.241	-0.429	-0.087
-272.370	-200.000	0.016	0.177
-271.355	-190.401	0.164	-0.002
-270.340	290.151	0.070	0.127
-269.326	295.318	0.067	-0.123
-268.311	-200.000	0.067	-0.352
-267.297	-137.784	-0.230	-0.026
-266.282	-63.598	0.165	0.067
-265.267	32.165	0.142	0.122
-264.253	-200.000	-0.011	0.082
-263.238	2.039	0.047	-0.034
-262.224	408.008	0.045	-0.095
-261.209	-153.010	-0.125	0.009
-260.195	-200.000	-0.038	-0.171
-259.180	800.000	-0.093	0.294
-258.165	-106.694	0.294	0.065
-257.151	-106.721	0.292	-0.065
-256.136	251.965	0.153	-0.259
-255.122	-144.811	-0.134	0.012
-254.107	-200.000	-0.019	0.371
-253.092	-16.964	0.131	0.082
-252.078	188.876	-0.133	-0.198
-251.063	92.198	-0.117	-0.131
-250.049	-150.577	0.040	0.003
-249.034	61.422	-0.038	-0.037
-248.019	-28.038	-0.179	0.103
-247.005	-86.662	-0.392	-0.119
-245.990	-169.001	0.289	0.011
-244.976	-200.000	-0.036	-0.163
-243.961	-200.000	-0.027	-0.189
-242.946	800.000	0.085	0.348
-241.932	800.000	0.023	-0.084
-240.917	767.383	0.049	0.132
-239.903	253.587	-0.129	-0.219
-238.888	-144.375	0.156	-0.014
-237.873	187.420	-0.119	-0.177
-236.859	59.753	-0.186	-0.182
-235.844	0.095	0.170	-0.121
-234.830	228.115	-0.031	0.050
-233.815	190.837	0.048	-0.071
-232.800	7.300	-0.291	-0.216
-231.786	-67.523	0.127	-0.050
-230.771	-200.000	0.010	-0.059
-229.757	-35.739	-0.086	0.046
-228.742	-200.000	0.026	0.145
-227.727	26.191	-0.145	0.120
-226.713	800.000	0.069	0.201
-225.698	-117.845	0.083	-0.015
-224.684	-200.000	0.084	-0.434
-223.669	-200.000	0.000	-0.042
-222.655	-200.000	-0.006	0.035
-221.640	-200.000	0.007	-0.151
-220.625	-149.931	-0.109	-0.008
-219.611	-134.783	0.493	0.059
-218.596	-89.887	0.261	-0.076
-217.582	-132.912	-0.462	-0.058
-216.567	-167.789	-0.133	-0.005
-215.552	313.543	-0.026	-0.049
-214.538	800.000	0.086	0.320
-213.523	-108.771	-0.142	-0.030
-212.509	-141.681	0.131	-0.013
-211.494	-200.000	-0.069	0.326
-210.479	-3.628	-0.297	0.205
-209.465	800.000	-0.069	0.256
-208.450	121.017	0.073	0.090
-207.436	31.484	0.319	0.272
-206.421	-200.000	0.018	-0.122
-205.406	-172.906	-0.339	0.010
-204.392	-200.000	-0.032	0.183
-203.377	-68.044	0.209	-0.081
-202.363	800.000	0.045	-0.124
-201.348	-200.000	-0.059	-0.314
-200.333	765.903	0.033	-0.089
-199.319	249.475	0.057	-0.096
-198.304	-200.000	0.037	0.175
-197.290	-41.511	0.134	-0.068
-196.275	-169.460	-0.548	-0.020
-195.260	216.225	0.121	-0.191
-194.246	-200.000	0.042	0.197
-193.231	-54.100	-0.072	-0.032
-192.217	2.494	-0.164	0.117
-191.202	-200.000	-0.001	0.075
-190.187	131.333	-0.264	-0.336
-189.173	416.152	-0.050	-0.105
-188.158	732.721	0.157	-0.415
-187.144	800.000	0.038	-0.162
-186.129	444.260	-0.108	0.235
-185.114	-200.000	-0.033	0.157
-184.100	41.774	0.191	0.171
-183.085	-113.389	0.140	0.027
-182.071	-113.188	0.189	0.037
-181.056	136.200	0.171	-0.221
-180.042	437.235	0.079	-0.170
-179.027	-47.108	-0.199	0.096
-178.012	412.746	0.175	-0.368
-176.998	800.000	-0.116	-0.335
-175.983	64.904	0.159	-0.159
-174.969	115.326	0.067	-0.082
-173.954	-37.628	0.318	0.168
-172.939	94.109	0.215	-0.242
-171.925	104.290	-0.077	-0.090
-170.910	-21.593	0.290	0.175
-169.896	800.000	0.077	0.244
-168.881	800.000	0.063	0.225
-167.866	800.000	0.090	-0.346
-166.852	800.000	-0.026	0.087
-165.837	-200.000	0.013	-0.376
-164.823	242.435	0.204	-0.338
-163.808	-90.045	0.311	-0.090
-162.793	248.231	0.150	-0.251
-161.779	-133.145	-0.243	0.030
-160.764	-48.194	0.152	0.073
-159.750	-37.729	0.256	0.135
-158.735	-46.691	-0.086	-0.041
-157.720	-200.000	0.008	-0.071
-156.706	26.321	-0.183	-0.151
-155.691	198.508	0.120	0.181
-154.677	800.000	0.072	-0.270
-153.662	-58.336	-0.134	0.058
-152.647	-136.613	-0.218	0.025
-151.633	-200.000	-0.028	-0.207
-150.618	266.425	-0.167	0.289
-149.604	-200.000	-0.043	0.552
-148.589	-159.095	-0.373	-0.021
-147.574	59.788	-0.478	0.466
-146.560	-200.000	0.014	0.145
-145.545	800.000	-0.067	0.214
-144.531	-188.279	-0.265	0.003
-143.516	-199.334	-0.198	-0.001
-142.502	616.550	0.095	0.235
-141.487	470.184	-0.067	-0.149
-140.472	19.690	-0.240	0.191
-139.458	-183.821	0.035	-0.001
-138.443	-200.000	0.025	-0.420
-137.429	137.291	0.246	-0.318
-136.414	-124.895	0.283	0.043
-135.399	576.404	-0.088	-0.213
-134.385	0.410	-0.140	-0.099
-133.370	179.888	0.039	-0.057
-132.356	-106.826	-0.211	0.046
-131.341	-28.135	-0.189	0.108
-130.326	77.912	0.091	0.096
-129.312	-24.126	0.154	0.091
-128.297	800.000	-0.151	-0.447
-127.283	-110.679	0.317	-0.065
-126.268	22.762	-0.058	-0.047
-125.253	-48.399	-0.225	-0.107
-124.239	-77.768	-0.310	0.106
-123.224	-151.896	-0.135	-0.010
-122.210	-100.926	0.138	-0.034
