DTS Sentinel unit serial number:	SN413079Multiplexer serial number:	ORYXHardware model number:	OX4-SRSoftware version number:	ORYX F/W v4.00 Oryx Data Collector v3.7.2.0data status	okinstallation	princeton_trtdifferential loss correction	single-endedforward channel	channel 4reverse channel	N/Adate	2019/09/15time	03:41:35forward acquisition time	60.00reverse acquisition time	0.00gamma	496.2192k internal	0.2310k external	0.2310temperature offset calibration	1.0032default loss term (dB/km)	0.3790temperature slope calibration	1.0000multiplexer offset coefficient	1.0000multiplexer slope coefficient	1.0000fibre end	0.00T internal ref (°C)	31.00T ext. ref 1 (°C)	4.60T ext. ref 2 (°C)	25.89length (m)	temperature (°C)	Stokes	anti-Stokes-747.200	-200.000	-0.022	-0.172
-746.185	342.643	-0.034	0.068
-745.171	-124.233	0.160	-0.025
-744.156	-200.000	-0.020	0.291
-743.142	-200.000	-0.026	0.260
-742.127	800.000	0.052	0.210
-741.112	68.419	-0.074	0.078
-740.098	-162.336	0.146	-0.007
-739.083	214.784	0.025	-0.040
-738.069	-83.256	0.215	-0.070
-737.054	-184.778	-0.276	-0.004
-736.039	-4.248	-0.267	-0.188
-735.025	128.584	-0.128	0.165
-734.010	5.346	0.144	0.108
-732.996	645.065	-0.077	-0.199
-731.981	11.822	0.143	-0.111
-730.966	-107.235	-0.173	0.039
-729.952	-28.379	-0.224	0.131
-728.937	-166.325	-0.284	0.012
-727.923	-10.991	0.113	-0.076
-726.908	58.965	0.135	0.135
-725.894	-148.653	-0.076	0.006
-724.879	68.928	-0.286	-0.298
-723.864	-107.292	-0.136	-0.030
-722.850	-200.000	0.007	0.042
-721.835	800.000	0.082	0.301
-720.821	-200.000	-0.037	0.347
-719.806	-109.225	0.024	0.005
-718.791	-87.271	-0.150	-0.046
-717.777	429.947	-0.130	0.284
-716.762	-87.679	-0.269	0.082
-715.748	21.589	0.322	0.266
-714.733	800.000	0.098	-0.318
-713.718	-200.000	-0.001	-0.307
-712.704	-182.206	0.062	0.001
-711.689	-200.000	0.014	-0.435
-710.675	48.337	0.236	-0.224
-709.660	170.819	-0.103	-0.150
-708.645	777.598	-0.065	-0.181
-707.631	-174.568	-0.339	0.010
-706.616	-200.000	0.002	-0.025
-705.602	174.235	-0.279	0.409
-704.587	800.000	-0.147	0.484
-703.572	800.000	0.092	0.321
-702.558	67.762	0.168	0.175
-701.543	51.392	0.300	0.289
-700.529	102.767	0.119	0.141
-699.514	800.000	0.022	-0.065
-698.499	-3.133	0.123	0.087
-697.485	800.000	0.026	-0.089
-696.470	443.268	0.022	0.050
-695.456	150.703	0.100	-0.138
-694.441	-75.506	-0.235	-0.085
-693.426	265.414	0.075	0.132
-692.412	-77.350	-0.090	0.032
-691.397	17.136	-0.462	0.371
-690.383	-60.387	-0.141	-0.061
-689.368	24.095	-0.057	0.048
-688.354	530.916	-0.176	-0.421
-687.339	800.000	0.023	0.086
-686.324	118.681	0.151	0.189
-685.310	-76.711	-0.195	-0.069
-684.295	-96.833	0.147	0.039
-683.281	252.110	-0.005	0.008
-682.266	-200.000	-0.056	0.307
-681.251	-200.000	-0.016	0.194
-680.237	-200.000	0.028	0.204
-679.222	-158.352	-0.133	-0.008
-678.208	-90.184	0.131	-0.039
-677.193	257.550	-0.185	0.322
-676.178	248.301	0.136	0.234
-675.164	-46.793	-0.415	0.206
-674.149	539.216	-0.137	0.331
-673.135	-140.526	-0.258	0.027
-672.120	2.181	-0.250	0.183
-671.105	-84.290	-0.223	-0.072
-670.091	-47.856	0.080	-0.039
-669.076	-200.000	-0.046	-0.274
-668.062	800.000	0.040	-0.149
-667.047	-6.319	-0.040	-0.028
-666.032	-1.246	-0.334	-0.239
-665.018	-200.000	0.030	-0.243
-664.003	-51.416	0.322	-0.153
-662.989	-200.000	0.019	-0.093
-661.974	-148.755	-0.072	-0.006
-660.959	800.000	-0.033	-0.102
-659.945	-92.521	0.124	0.035
-658.930	-200.000	-0.025	-0.241
-657.916	-10.535	0.164	-0.110
-656.901	181.827	-0.210	-0.312
-655.886	-200.000	0.045	-0.277
-654.872	-200.000	0.020	-0.297
-653.857	-86.831	-0.375	0.116
-652.843	800.000	-0.053	0.159
-651.828	-70.825	-0.066	-0.025
-650.814	-125.211	0.176	-0.027
-649.799	-4.054	-0.140	0.098
-648.784	-66.283	0.116	0.047
-647.770	-200.000	-0.048	0.366
-646.755	800.000	0.046	-0.132
-645.741	-94.730	-0.322	0.088
-644.726	622.670	0.019	0.048
-643.711	800.000	0.073	0.220
-642.697	175.179	0.054	-0.080
-641.682	-200.000	0.004	-0.061
-640.668	116.251	0.017	-0.021
-639.653	-200.000	-0.007	0.101
-638.638	800.000	0.072	-0.303
-637.624	-200.000	0.001	0.151
-636.609	324.818	0.048	0.093
-635.595	151.402	0.061	0.085
-634.580	222.057	0.057	0.092
-633.565	-180.884	-0.276	-0.006
-632.551	-52.308	0.174	-0.082
-631.536	-63.342	0.248	-0.103
-630.522	45.881	0.327	0.306
-629.507	-82.222	-0.196	0.064
-628.492	-200.000	0.005	-0.145
-627.478	53.339	-0.270	0.261
-626.463	-29.967	0.228	0.132
-625.449	90.620	-0.425	-0.481
-624.434	321.200	-0.113	0.218
-623.419	405.535	-0.114	-0.243
-622.405	-166.586	-0.123	-0.005
-621.390	24.944	0.288	0.242
-620.376	641.037	-0.097	-0.250
-619.361	-200.000	0.039	0.201
-618.346	-23.078	-0.192	0.117
-617.332	125.094	-0.056	-0.071
-616.317	140.526	0.230	0.307
-615.303	347.213	0.045	-0.089
-614.288	623.149	-0.026	-0.067
-613.273	1.583	0.170	-0.124
-612.259	-154.637	-0.291	-0.020
-611.244	-200.000	-0.045	-0.280
-610.230	-23.675	-0.182	0.110
-609.215	800.000	-0.083	0.236
-608.201	-200.000	-0.024	0.306
-607.186	-200.000	0.024	-0.234
-606.171	143.861	0.060	0.081
-605.157	-10.856	0.029	0.020
-604.142	-133.129	-0.237	0.030
-603.128	-200.000	0.005	-0.084
-602.113	-87.537	0.033	0.010
-601.098	-51.745	0.109	-0.051
-600.084	105.670	-0.170	-0.203
-599.069	-200.000	0.015	-0.223
-598.055	-200.000	0.003	0.188
-597.040	658.683	0.020	0.053
-596.025	357.373	-0.120	0.241
-595.011	800.000	-0.087	0.283
-593.996	-23.169	-0.201	-0.122
-592.982	107.121	-0.164	-0.197
-591.967	122.011	0.173	-0.218
-590.952	-99.758	0.220	0.056
-589.938	-48.298	-0.286	-0.139
-588.923	337.721	0.146	0.286
-587.909	-123.301	-0.166	0.027
-586.894	46.583	0.048	-0.045
-585.879	-17.225	0.071	-0.045
-584.865	-111.342	0.363	-0.075
-583.850	-5.906	0.055	-0.038
-582.836	114.665	0.085	-0.104
-581.821	800.000	-0.024	0.078
-580.806	35.503	0.114	0.101
-579.792	800.000	-0.107	0.368
-578.777	-121.906	0.287	0.048
-577.763	229.458	0.137	0.226
-576.748	206.027	-0.044	0.070
-575.733	326.480	-0.232	0.448
-574.719	325.076	0.058	-0.113
-573.704	336.881	0.133	-0.261
-572.690	-145.633	-0.074	0.007
-571.675	-139.855	0.392	0.042
-570.661	761.800	0.055	0.151
-569.646	-148.572	0.141	0.012
-568.631	312.084	0.133	-0.252
-567.617	727.096	-0.094	-0.253
-566.602	182.280	-0.054	-0.081
-565.588	-89.590	0.129	0.038
-564.573	-126.926	0.090	0.013
-563.558	1.127	-0.181	-0.131
-562.544	169.915	-0.053	-0.077
-561.529	-200.000	0.023	-0.138
-560.515	-28.405	-0.220	0.128
-559.500	-200.000	-0.031	-0.145
-558.485	-200.000	-0.027	-0.286
-557.471	255.791	-0.163	-0.282
-556.456	334.111	-0.072	0.141
-555.442	-32.663	-0.290	-0.163
-554.427	40.002	0.178	-0.161
-553.412	-200.000	0.014	-0.144
-552.398	-15.615	0.243	-0.156
-551.383	4.645	0.273	-0.202
-550.369	375.171	-0.077	0.158
-549.354	-94.365	-0.270	0.074
-548.339	800.000	0.107	-0.334
-547.325	-95.080	0.193	-0.053
-546.310	75.852	-0.219	0.233
-545.296	-200.000	-0.034	-0.223
-544.281	300.690	0.143	0.266
-543.266	-200.000	-0.031	-0.232
-542.252	-93.271	-0.215	-0.060
-541.237	-21.259	0.122	0.075
-540.223	-200.000	0.053	0.272
-539.208	277.178	-0.140	-0.251
-538.193	-59.744	0.200	-0.086
-537.179	-135.275	0.022	-0.003
-536.164	-60.106	0.213	0.092
-535.150	-188.552	0.392	0.005
-534.135	800.000	-0.098	-0.321
-533.121	434.701	0.109	-0.240
-532.106	-105.366	-0.209	0.048
-531.091	38.638	0.171	-0.154
-530.077	-7.592	0.179	-0.122
-529.062	22.846	-0.247	0.204
-528.048	672.865	0.027	-0.071
-527.033	102.105	0.082	-0.097
-526.018	-31.429	-0.248	0.141
-525.004	23.439	0.065	-0.054
-523.989	-105.835	-0.186	0.042
-522.975	184.974	0.033	0.049
-521.960	203.735	0.107	-0.167
-520.945	-108.894	-0.267	-0.057
-519.931	94.321	-0.184	0.210
-518.916	-200.000	0.024	-0.349
-517.902	-141.174	0.134	-0.014
-516.887	-105.904	0.181	0.041
-515.872	-200.000	0.064	-0.462
-514.858	-114.650	-0.305	-0.059
-513.843	-200.000	0.007	0.117
-512.829	76.235	0.154	0.164
-511.814	-87.649	-0.220	-0.067
-510.799	57.722	-0.319	-0.314
-509.785	-141.053	0.280	0.029
-508.770	176.331	-0.097	-0.142
-507.756	188.681	0.138	-0.208
-506.741	-200.000	-0.061	0.398
-505.726	138.541	0.185	0.244
-504.712	-125.876	-0.487	-0.074
-503.697	-112.155	-0.262	0.053
-502.683	-37.739	0.411	0.220
-501.668	-3.730	-0.178	-0.124
-500.653	-200.000	0.008	0.046
-499.639	-85.363	-0.273	-0.086
-498.624	-62.259	0.242	0.101
-497.610	-106.546	-0.302	-0.068
-496.595	-200.000	0.006	0.089
-495.581	-9.716	-0.326	0.218
-494.566	279.127	0.104	0.186
-493.551	-200.000	0.016	-0.112
-492.537	-55.247	-0.219	0.099
-491.522	-113.879	0.254	0.050
-490.508	-147.306	-0.524	0.045
-489.493	-200.000	0.070	0.430
-488.478	-44.045	-0.325	0.164
-487.464	59.446	-0.086	-0.085
-486.449	800.000	-0.098	0.328
-485.435	-90.610	0.279	0.081
-484.420	17.384	-0.308	-0.246
-483.405	-126.828	0.256	0.038
-482.391	-182.654	0.131	0.002
-481.376	-77.092	-0.155	-0.054
-480.362	-200.000	-0.019	-0.091
-479.347	-10.726	0.193	0.128
-478.332	-32.707	-0.233	-0.130
-477.318	-200.000	-0.070	-0.316
-476.303	-56.543	-0.111	0.050
-475.289	0.216	0.088	-0.063
-474.274	55.362	-0.122	0.118
-473.259	-57.383	-0.150	-0.066
-472.245	-21.510	0.267	-0.163
-471.230	136.098	0.128	0.168
-470.216	-104.287	-0.292	0.068
-469.201	0.434	-0.370	0.265
-468.186	-200.000	-0.009	-0.060
-467.172	144.031	-0.157	-0.210
-466.157	-43.333	-0.109	-0.055
-465.143	-70.088	0.156	-0.060
-464.128	-74.477	-0.154	-0.056
-463.113	-43.167	0.436	-0.222
-462.099	-123.958	-0.320	0.051
-461.084	105.351	0.078	0.093
-460.070	-133.719	-0.261	0.033
-459.055	-200.000	0.012	0.072
-458.040	242.934	0.105	-0.177
-457.026	800.000	-0.093	-0.261
-456.011	-74.270	0.197	0.072
-454.997	192.121	0.110	-0.166
-453.982	800.000	-0.069	-0.225
-452.968	-111.465	-0.235	0.048
-451.953	-70.690	0.142	0.054
-450.938	-126.633	0.094	-0.014
-449.924	69.275	0.113	0.117
-448.909	49.265	-0.202	-0.190
-447.895	-24.305	-0.211	-0.127
-446.880	-200.000	0.044	-0.239
-445.865	-92.475	0.215	-0.061
-444.851	151.750	0.089	0.121
-443.836	-200.000	0.012	-0.060
-442.822	378.085	0.098	-0.202
-441.807	60.039	0.220	-0.218
-440.792	784.080	-0.063	-0.173
-439.778	-200.000	0.007	0.053
-438.763	-168.716	0.235	-0.009
-437.749	220.446	0.120	0.193
-436.734	58.840	0.105	0.104
-435.719	-101.648	0.318	-0.077
-434.705	289.501	-0.133	0.243
-433.690	251.947	-0.145	-0.247
-432.676	-200.000	-0.022	-0.109
-431.661	800.000	-0.059	-0.192
-430.646	12.923	-0.237	0.184
-429.632	11.984	0.234	-0.181
-428.617	800.000	0.115	0.404
-427.603	-38.574	-0.221	0.117
-426.588	-143.180	0.171	-0.016
-425.573	-62.581	0.341	0.142
-424.559	298.292	-0.072	-0.133
-423.544	58.127	0.246	0.242
-422.530	-128.758	-0.232	0.033
-421.515	-67.529	0.123	0.048
-420.500	146.558	0.122	-0.164
-419.486	-136.164	0.078	-0.009
-418.471	235.930	0.068	0.113
-417.457	278.379	-0.055	0.099
-416.442	4.116	0.254	-0.186
-415.428	-54.924	0.081	-0.037
-414.413	55.430	0.128	0.124
-413.398	174.292	0.107	-0.155
-412.384	-137.003	0.285	0.033
-411.369	139.450	0.081	0.107
-410.355	63.069	-0.140	-0.141
-409.340	-19.506	0.409	-0.254
-408.325	39.850	-0.100	0.090
-407.311	800.000	0.087	-0.356
-406.296	-99.592	-0.196	-0.049
-405.282	446.795	0.089	-0.196
-404.267	7.213	-0.049	0.036
-403.252	172.464	-0.171	0.246
-402.238	-98.960	0.128	-0.032
-401.223	190.783	0.157	0.237
-400.209	-110.431	-0.270	0.056
-399.194	244.435	-0.122	0.205
-398.179	-200.000	0.032	0.174
-397.165	-200.000	-0.000	0.143
-396.150	-4.319	0.100	0.069
-395.136	-53.511	0.140	0.064
-394.121	-200.000	0.040	-0.180
-393.106	85.619	0.207	-0.228
-392.092	-159.860	0.037	0.002
-391.077	73.245	0.100	0.105
-390.063	34.125	-0.186	0.162
-389.048	-71.337	0.285	-0.107
-388.033	800.000	-0.061	-0.242
-387.019	19.711	-0.268	-0.216
-386.004	-187.920	-0.238	0.003
-384.990	-21.556	0.507	0.309
-383.975	800.000	-0.094	-0.311
-382.960	-200.000	-0.001	0.198
-381.946	-83.924	-0.140	0.045
-380.931	12.046	-0.226	-0.174
-379.917	100.985	0.220	0.256
-378.902	-2.351	0.140	0.098
-377.888	85.052	-0.118	-0.129
-376.873	-12.953	0.262	0.171
-375.858	-200.000	-0.003	0.291
-374.844	800.000	-0.025	0.087
-373.829	42.752	-0.239	0.218
-372.815	120.141	-0.074	-0.092
-371.800	44.695	0.143	0.132
-370.785	800.000	0.073	0.217
-369.771	-123.051	-0.210	0.034
-368.756	281.609	0.166	0.297
-367.742	143.970	0.141	0.188
-366.727	273.403	-0.171	0.302
-365.712	58.553	0.146	-0.144
-364.698	-85.087	0.167	-0.052
-363.683	800.000	-0.020	0.055
-362.669	-157.244	0.030	0.002
-361.654	-110.266	0.074	0.015
-360.639	-200.000	0.005	0.025
-359.625	800.000	0.072	-0.206
-358.610	-90.348	-0.258	-0.075
-357.596	329.915	-0.029	0.057
-356.581	-106.303	0.218	-0.049
-355.566	-200.000	0.063	0.354
-354.552	10.852	-0.086	0.066
-353.537	55.198	-0.267	0.258
-352.523	-52.851	0.357	-0.165
-351.508	800.000	0.059	-0.216
-350.493	-99.094	-0.167	0.042
-349.479	374.800	0.022	0.046
-348.464	-50.584	0.174	-0.082
-347.450	-200.000	-0.038	-0.220
-346.435	-200.000	-0.034	-0.286
-345.420	-4.920	-0.153	-0.105
-344.406	-68.096	-0.098	-0.038
-343.391	-150.783	-0.205	-0.016
-342.377	800.000	0.039	0.136
-341.362	0.825	0.088	0.063
-340.348	5.295	-0.222	-0.164
-339.333	-157.317	-0.159	0.010
-338.318	-200.000	0.010	0.097
-337.304	10.285	0.122	0.093
-336.289	-23.267	-0.396	-0.238
-335.275	-29.857	0.248	-0.141
-334.260	-71.929	-0.088	0.033
-333.245	109.455	-0.199	0.238
-332.231	-77.455	-0.276	0.096
-331.216	-200.000	0.036	0.278
-330.202	67.872	0.225	0.230
-329.187	30.065	0.275	0.234
-328.172	90.065	-0.048	-0.054
-327.158	-4.684	-0.199	0.137
-326.143	-184.168	0.428	-0.007
-325.129	-182.748	0.353	-0.006
-324.114	49.643	-0.278	0.262
-323.099	-19.073	-0.103	0.064
-322.085	-98.252	-0.262	-0.067
-321.070	-74.783	0.417	0.149
-320.056	-33.998	0.020	-0.011
-319.041	338.047	0.116	0.225
-318.026	-107.087	0.218	0.048
-317.012	800.000	-0.075	0.231
-315.997	-200.000	0.089	0.394
-314.983	-200.000	0.012	-0.081
-313.968	800.000	-0.055	0.171
-312.953	104.284	-0.210	-0.247
-311.939	-68.521	-0.130	-0.050
-310.924	46.522	0.374	-0.347
-309.910	-28.925	0.349	-0.200
-308.895	-11.257	-0.256	0.169
-307.880	148.641	-0.167	-0.225
-306.866	543.851	0.088	0.209
-305.851	583.480	-0.036	-0.089
-304.837	-122.795	-0.168	-0.027
-303.822	105.691	-0.061	-0.072
-302.807	72.672	-0.070	0.072
-301.793	-200.000	-0.005	0.077
-300.778	589.016	-0.097	-0.238
-299.764	800.000	-0.102	0.343
-298.749	-200.000	0.000	-0.330
-297.735	-131.590	-0.173	-0.023
-296.720	-112.800	0.198	-0.039
-295.705	-200.000	-0.006	0.115
-294.691	81.568	0.167	0.180
-293.676	-66.089	0.293	0.117
-292.662	800.000	0.039	0.169
-291.647	-200.000	0.010	0.090
-290.632	332.889	-0.110	-0.212
-289.618	185.118	-0.074	0.109
-288.603	-64.746	-0.221	-0.089
-287.589	-105.973	0.134	-0.030
-286.574	49.764	-0.172	-0.161
-285.559	-55.264	-0.228	-0.102
-284.545	-200.000	-0.009	-0.208
-283.530	-147.392	0.121	-0.010
-282.516	35.963	-0.176	0.155
-281.501	-200.000	0.016	0.104
-280.486	13.780	0.331	-0.256
-279.472	288.090	0.047	-0.084
-278.457	-200.000	-0.034	-0.309
-277.443	-117.307	0.231	0.042
-276.428	-56.734	0.159	0.070
-275.413	434.569	-0.118	-0.256
-274.399	158.139	-0.210	-0.290
-273.384	-137.353	0.101	0.011
-272.370	13.241	-0.189	-0.146
-271.355	135.830	0.058	0.075
-270.340	350.023	0.076	0.150
-269.326	-58.956	0.050	-0.021
-268.311	-200.000	0.065	-0.394
-267.297	-200.000	0.056	-0.285
-266.282	-200.000	-0.086	-0.376
-265.267	286.206	0.025	-0.045
-264.253	96.639	0.114	-0.130
-263.238	-146.226	-0.154	-0.013
-262.224	-200.000	-0.002	-0.109
-261.209	-0.590	0.119	0.084
-260.195	-178.137	-0.409	0.010
-259.180	-200.000	-0.065	-0.441
-258.165	111.365	0.184	0.222
-257.151	-51.673	-0.045	0.021
-256.136	-34.761	-0.076	-0.042
-255.122	453.062	-0.095	-0.209
-254.107	-200.000	-0.011	0.155
-253.092	-146.414	-0.257	-0.022
-252.078	-13.523	-0.307	0.198
-251.063	-43.022	0.257	0.130
-250.049	-57.659	0.128	0.056
-249.034	463.402	-0.052	-0.116
-248.019	-200.000	-0.019	-0.156
-247.005	12.527	-0.173	-0.133
-245.990	-200.000	0.004	0.134
-244.976	800.000	-0.009	0.031
-243.961	-114.223	0.089	0.017
-242.946	-200.000	-0.026	-0.126
-241.932	800.000	-0.061	-0.185
-240.917	-190.817	-0.086	0.001
-239.903	155.954	0.116	0.159
-238.888	-102.251	0.026	-0.006
-237.873	22.795	-0.098	0.080
-236.859	275.251	-0.074	0.130
-235.844	-167.903	-0.295	0.012
-234.830	-47.006	-0.078	0.038
-233.815	146.227	0.016	-0.022
-232.800	48.278	-0.297	-0.277
-231.786	614.539	0.185	0.461
-230.771	80.015	0.197	0.211
-229.757	169.942	-0.113	-0.160
-228.742	-40.762	0.085	-0.044
-227.727	89.928	0.021	-0.023
-226.713	-68.658	0.236	0.091
-225.698	347.170	0.063	0.124
-224.684	-47.701	0.328	0.158
-223.669	-74.005	-0.084	-0.030
-222.655	-109.219	-0.090	-0.019
-221.640	-200.000	-0.033	0.174
-220.625	36.571	0.188	-0.165
-219.611	-81.350	0.461	0.151
-218.596	316.097	-0.112	-0.210
-217.582	113.976	-0.040	-0.049
-216.567	294.810	-0.123	-0.224
-215.552	-143.422	-0.256	0.024
-214.538	-50.916	0.081	0.038
-213.523	800.000	-0.035	-0.123
-212.509	-200.000	-0.009	-0.158
-211.494	-200.000	-0.047	0.276
-210.479	-92.698	0.159	-0.044
-209.465	71.340	0.201	-0.208
-208.450	-200.000	-0.034	0.224
-207.436	19.470	-0.096	-0.076
-206.421	800.000	0.027	0.100
-205.406	-200.000	-0.015	-0.132
-204.392	-27.640	0.282	-0.163
-203.377	800.000	-0.080	-0.223
-202.363	-17.671	-0.269	-0.168
-201.348	-200.000	-0.022	0.318
-200.333	-44.979	0.369	0.183
-199.319	156.542	0.148	-0.203
-198.304	800.000	0.064	0.269
-197.290	-87.736	-0.136	0.041
-196.275	-200.000	0.004	-0.163
-195.260	-86.648	-0.063	-0.019
-194.246	800.000	-0.054	0.228
-193.231	-145.353	-0.127	0.011
-192.217	-23.167	-0.178	-0.106
-191.202	419.083	-0.105	0.222
-190.187	-14.642	-0.181	-0.115
-189.173	-200.000	-0.046	0.333
-188.158	743.221	-0.070	0.188
-187.144	-200.000	0.021	-0.170
-186.129	-200.000	-0.060	-0.307
-185.114	108.503	0.348	-0.413
-184.100	-53.102	-0.534	-0.244
-183.085	-178.709	-0.281	-0.006
-182.071	27.645	0.075	-0.063
-181.056	-81.031	0.211	0.069
-180.042	800.000	-0.103	0.413
-179.027	5.254	-0.307	0.224
-178.012	-111.146	-0.391	0.080
-176.998	-44.655	0.254	-0.126
-175.983	800.000	0.057	0.203
-174.969	12.553	0.156	-0.120
-173.954	-200.000	-0.005	-0.218
-172.939	69.765	0.070	0.072
-171.925	-88.286	0.259	0.077
-170.910	-155.736	0.329	0.021
-169.896	-200.000	0.020	0.329
-168.881	-79.995	-0.151	-0.050
-167.866	436.007	0.190	0.410
-166.852	70.119	-0.104	0.106
-165.837	-200.000	-0.039	0.193
-164.823	-45.119	0.057	0.028
-163.808	800.000	0.033	0.113
-162.793	-94.730	0.370	-0.100
-161.779	-200.000	-0.005	0.101
-160.764	-54.606	0.052	-0.023
-159.750	-104.739	-0.365	-0.083
-158.735	-180.558	-0.182	-0.004
-157.720	-119.344	0.278	0.048
-156.706	-28.304	0.186	-0.107
-155.691	800.000	0.031	-0.133
-154.677	-72.139	0.113	0.042
-153.662	-99.003	0.165	-0.042
-152.647	800.000	-0.065	0.232
-151.633	-187.849	-0.182	-0.002
-150.618	313.344	-0.110	-0.205
-149.604	800.000	-0.011	-0.043
-148.589	-128.320	0.248	-0.035
-147.574	-146.452	-0.079	0.007
-146.560	-103.075	0.285	-0.067
-145.545	-11.092	-0.147	0.096
-144.531	-112.327	-0.175	-0.035
-143.516	-200.000	-0.005	-0.082
-142.502	-200.000	0.000	0.027
-141.487	-200.000	0.045	-0.277
-140.472	403.576	-0.046	-0.097
-139.458	-200.000	-0.006	0.285
-138.443	629.076	0.022	-0.055
-137.429	800.000	0.053	0.216
-136.414	-95.524	0.225	-0.060
-135.399	-165.983	-0.343	-0.015
-134.385	167.102	0.067	0.094
-133.370	210.670	0.183	0.285
-132.356	348.068	0.102	0.200
-131.341	608.669	-0.022	0.054
-130.326	5.144	-0.158	-0.115
-129.312	159.182	0.054	0.074
-128.297	-79.740	0.146	-0.049
-127.283	-127.357	-0.239	0.035
-126.268	-125.184	0.050	-0.008
-125.253	-54.925	0.310	0.139
-124.239	144.564	0.185	0.245
-123.224	-200.000	-0.055	-0.256
-122.210	-90.290	-0.020	-0.006
-121.195	22.933	-0.280	-0.228
