DTS Sentinel unit serial number:	SN413079Multiplexer serial number:	ORYXHardware model number:	OX4-SRSoftware version number:	ORYX F/W v4.00 Oryx Data Collector v3.7.2.0data status	okinstallation	princeton_trtdifferential loss correction	single-endedforward channel	channel 4reverse channel	N/Adate	2019/09/15time	01:37:35forward acquisition time	60.00reverse acquisition time	0.00gamma	496.2192k internal	0.2308k external	0.2308temperature offset calibration	1.0036default loss term (dB/km)	0.3790temperature slope calibration	1.0000multiplexer offset coefficient	1.0000multiplexer slope coefficient	1.0000fibre end	0.00T internal ref (°C)	31.83T ext. ref 1 (°C)	4.53T ext. ref 2 (°C)	26.75length (m)	temperature (°C)	Stokes	anti-Stokes-747.200	28.982	-0.183	0.158
-746.185	48.736	-0.232	0.221
-745.171	86.762	0.193	-0.217
-744.156	800.000	0.114	0.477
-743.142	800.000	0.091	0.312
-742.127	-131.587	0.075	0.010
-741.112	800.000	-0.055	-0.183
-740.098	13.378	-0.231	-0.182
-739.083	-200.000	-0.022	-0.200
-738.069	-132.355	0.130	0.017
-737.054	135.114	-0.202	0.267
-736.039	-200.000	0.004	0.287
-735.025	19.783	0.127	-0.104
-734.010	800.000	-0.012	-0.036
-732.996	67.308	-0.207	-0.214
-731.981	-24.261	0.104	-0.063
-730.966	71.739	-0.045	-0.048
-729.952	68.861	-0.124	0.129
-728.937	62.577	-0.227	0.230
-727.923	278.254	0.039	0.070
-726.908	-107.207	-0.369	-0.083
-725.894	-56.530	-0.148	-0.067
-724.879	-65.971	0.158	0.064
-723.864	196.661	0.052	-0.080
-722.850	-64.965	0.235	0.096
-721.835	-112.457	-0.357	-0.072
-720.821	-200.000	0.012	-0.443
-719.806	-200.000	-0.037	-0.435
-718.791	-186.884	-0.139	-0.002
-717.777	77.730	0.242	-0.262
-716.762	-200.000	-0.000	-0.247
-715.748	-130.696	0.086	0.012
-714.733	800.000	-0.011	0.039
-713.718	428.410	-0.084	-0.184
-712.704	-200.000	-0.260	0.000
-711.689	204.931	-0.178	-0.280
-710.675	-127.096	-0.025	0.004
-709.660	210.860	-0.087	0.139
-708.645	-91.077	-0.352	-0.103
-707.631	73.278	0.129	-0.137
-706.616	29.674	0.046	0.040
-705.602	440.496	0.059	0.130
-704.587	54.879	0.085	-0.084
-703.572	-200.000	-0.313	-0.001
-702.558	23.795	-0.258	-0.216
-701.543	-10.511	-0.118	0.079
-700.529	41.964	0.126	0.116
-699.514	-71.265	-0.070	0.027
-698.499	-33.598	-0.100	-0.056
-697.485	-6.479	0.084	0.058
-696.470	13.104	-0.193	-0.151
-695.456	-60.964	-0.180	-0.077
-694.441	-36.027	0.224	-0.123
-693.426	-189.383	-0.162	0.002
-692.412	401.688	-0.057	0.122
-691.397	134.780	-0.189	-0.249
-690.383	800.000	0.048	0.167
-689.368	-200.000	0.293	0.001
-688.354	72.687	-0.132	-0.140
-687.339	-86.104	-0.075	0.024
-686.324	-200.000	-0.042	0.371
-685.310	103.033	-0.154	0.184
-684.295	106.641	-0.150	-0.181
-683.281	-139.607	0.507	0.055
-682.266	800.000	-0.034	-0.132
-681.251	800.000	-0.065	-0.258
-680.237	-200.000	-0.040	-0.211
-679.222	-74.903	-0.240	0.087
-678.208	34.690	0.095	0.085
-677.193	-200.000	-0.002	0.208
-676.178	116.212	-0.088	-0.109
-675.164	566.218	-0.131	0.322
-674.149	23.076	-0.116	0.096
-673.135	78.050	-0.179	-0.193
-672.120	397.512	-0.190	0.403
-671.105	-200.000	-0.017	0.306
-670.091	-0.284	0.101	-0.073
-669.076	758.175	0.133	-0.365
-668.062	-200.000	-0.024	0.140
-667.047	-43.034	0.031	0.016
-666.032	486.647	-0.079	-0.182
-665.018	-116.916	-0.138	-0.025
-664.003	-10.715	-0.203	0.136
-662.989	21.953	-0.279	-0.230
-661.974	-200.000	-0.026	-0.184
-660.959	-98.789	0.328	-0.085
-659.945	-54.316	0.237	-0.109
-658.930	-19.726	0.104	0.065
-657.916	-93.873	0.128	-0.036
-656.901	-52.607	0.241	0.113
-655.886	141.839	-0.164	-0.220
-654.872	-98.556	-0.152	0.039
-653.857	373.457	0.139	0.287
-652.843	291.405	0.050	-0.093
-651.828	-114.842	0.098	-0.019
-650.814	229.935	-0.069	0.114
-649.799	125.766	-0.074	-0.094
-648.784	-85.347	-0.347	-0.110
-647.770	1.045	0.066	0.048
-646.755	-6.599	0.218	0.150
-645.741	157.639	-0.118	0.166
-644.726	-109.553	-0.193	0.041
-643.711	171.428	0.164	-0.238
-642.697	27.651	-0.402	-0.342
-641.682	-200.000	0.014	-0.149
-640.668	314.729	0.020	0.038
-639.653	-47.613	-0.137	0.067
-638.638	96.768	0.123	0.143
-637.624	-127.928	-0.288	-0.042
-636.609	63.126	-0.169	0.172
-635.595	-137.242	-0.233	-0.027
-634.580	5.979	0.193	-0.144
-633.565	-173.759	-0.186	0.006
-632.551	-135.935	-0.252	-0.030
-631.536	-60.279	-0.297	0.128
-630.522	211.259	0.241	-0.385
-629.507	-24.959	-0.224	0.134
-628.492	800.000	0.055	-0.172
-627.478	-200.000	-0.046	-0.427
-626.463	-54.280	0.134	-0.061
-625.449	-15.725	0.268	-0.173
-624.434	-2.410	-0.251	-0.178
-623.419	-80.904	0.429	0.144
-622.405	-115.688	-0.132	-0.025
-621.390	-42.808	-0.148	0.076
-620.376	17.799	0.177	0.142
-619.361	454.448	0.157	0.352
-618.346	280.115	0.190	0.344
-617.332	-62.163	0.047	-0.020
-616.317	106.205	-0.031	0.037
-615.303	743.660	-0.041	-0.111
-614.288	150.729	-0.197	0.271
-613.273	32.162	0.023	0.020
-612.259	-200.000	0.011	-0.237
-611.244	-200.000	-0.045	0.331
-610.230	495.790	-0.019	0.045
-609.215	188.228	-0.052	-0.079
-608.201	233.348	0.094	0.156
-607.186	404.786	-0.180	-0.383
-606.171	293.917	0.053	-0.097
-605.157	148.863	-0.130	0.178
-604.142	-200.000	-0.016	-0.113
-603.128	-53.156	0.346	0.160
-602.113	-67.799	-0.187	0.074
-601.098	247.846	0.134	-0.228
-600.084	14.816	0.171	-0.135
-599.069	-200.000	0.016	0.091
-598.055	-200.000	-0.007	0.224
-597.040	96.013	-0.093	-0.107
-596.025	-6.070	-0.144	-0.099
-595.011	-200.000	0.003	0.215
-593.996	-200.000	-0.003	0.074
-592.982	-59.906	0.025	-0.011
-591.967	167.889	0.131	0.188
-590.952	318.135	0.080	0.153
-589.938	-200.000	-0.036	-0.226
-588.923	-14.308	0.024	0.016
-587.909	39.487	-0.153	0.139
-586.894	800.000	0.074	0.228
-585.879	42.233	-0.317	-0.291
-584.865	80.879	0.097	0.106
-583.850	-151.285	-0.232	0.017
-582.836	663.424	-0.024	0.063
-581.821	-166.189	0.177	-0.008
-580.806	-72.815	-0.262	-0.097
-579.792	33.645	-0.067	0.059
-578.777	-109.492	0.105	-0.022
-577.763	24.771	0.250	-0.209
-576.748	-98.570	0.239	-0.062
-575.733	371.714	-0.066	0.136
-574.719	-200.000	-0.011	-0.336
-573.704	577.812	-0.017	0.042
-572.690	800.000	0.047	-0.149
-571.675	-108.424	-0.073	-0.016
-570.661	-200.000	0.013	-0.409
-569.646	178.190	0.094	-0.139
-568.631	352.235	-0.074	0.148
-567.617	-119.296	-0.114	-0.020
-566.602	-200.000	-0.021	-0.288
-565.588	53.448	0.103	-0.100
-564.573	-83.194	0.129	-0.042
-563.558	-119.405	0.161	0.028
-562.544	800.000	0.016	0.054
-561.529	-200.000	0.035	-0.229
-560.515	606.869	0.036	0.092
-559.500	-77.084	0.304	0.107
-558.485	-98.441	-0.106	0.027
-557.471	101.922	0.159	-0.187
-556.456	-89.655	0.179	0.053
-555.442	16.749	-0.151	-0.121
-554.427	-130.897	-0.358	-0.048
-553.412	88.154	-0.148	0.165
-552.398	-129.606	0.250	-0.035
-551.383	-200.000	-0.077	-0.348
-550.369	-32.756	0.268	0.150
-549.354	2.129	-0.253	0.184
-548.339	-200.000	-0.042	0.272
-547.325	-155.454	-0.123	0.008
-546.310	-200.000	-0.086	0.000
-545.296	-30.629	0.210	-0.120
-544.281	-61.249	-0.158	-0.067
-543.266	-200.000	0.015	0.090
-542.252	512.385	0.053	-0.125
-541.237	-8.768	0.099	-0.067
-540.223	746.549	0.122	-0.331
-539.208	226.654	-0.182	0.298
-538.193	-87.281	-0.207	-0.063
-537.179	-62.019	-0.193	-0.081
-536.164	237.249	-0.216	-0.362
-535.150	-200.000	0.006	0.099
-534.135	-45.674	0.315	0.157
-533.121	-198.839	-0.213	0.001
-532.106	-200.000	0.006	-0.286
-531.091	-200.000	-0.015	0.091
-530.077	-29.882	0.210	-0.120
-529.062	95.582	0.116	0.134
-528.048	9.773	-0.152	-0.116
-527.033	-200.000	0.026	0.197
-526.018	128.696	-0.154	0.198
-525.004	-107.210	0.278	0.062
-523.989	-124.162	-0.127	0.020
-522.975	-164.703	-0.026	0.001
-521.960	14.440	0.219	0.172
-520.945	267.124	0.085	0.149
-519.931	-44.069	-0.211	-0.107
-518.916	3.103	0.240	0.176
-517.902	67.849	0.168	-0.173
-516.887	-77.835	0.131	-0.046
-515.872	41.498	0.143	-0.130
-514.858	-92.572	-0.347	0.098
-513.843	232.151	0.139	0.231
-512.829	800.000	-0.076	0.259
-511.814	-77.900	-0.258	-0.090
-510.799	248.063	-0.055	0.093
-509.785	-94.775	-0.265	-0.073
-508.770	-76.986	0.037	-0.013
-507.756	-136.038	-0.369	-0.044
-506.741	-133.696	0.225	-0.028
-505.726	-188.192	-0.170	0.002
-504.712	-200.000	0.025	0.247
-503.697	236.824	0.037	0.063
-502.683	242.458	-0.230	-0.388
-501.668	-160.146	-0.039	-0.002
-500.653	-7.822	-0.169	0.115
-499.639	-200.000	-0.002	-0.278
-498.624	6.250	-0.276	-0.206
-497.610	-108.564	0.026	-0.006
-496.595	800.000	0.063	0.178
-495.581	-108.460	-0.372	0.081
-494.566	-97.808	-0.292	-0.076
-493.551	265.085	-0.139	0.244
-492.537	-200.000	0.005	-0.233
-491.522	-49.742	-0.230	-0.110
-490.508	26.849	0.082	-0.069
-489.493	-129.854	0.187	-0.026
-488.478	-27.979	0.212	0.124
-487.464	345.017	0.146	-0.288
-486.449	-200.000	-0.023	-0.134
-485.435	-200.000	0.001	-0.244
-484.420	244.464	0.051	0.087
-483.405	800.000	0.017	-0.047
-482.391	106.031	-0.132	-0.157
-481.376	221.447	-0.120	0.194
-480.362	179.106	0.174	0.257
-479.347	-82.547	-0.098	0.032
-478.332	-24.208	0.395	0.237
-477.318	-65.906	-0.060	0.024
-476.303	9.781	-0.260	0.198
-475.289	800.000	0.032	0.129
-474.274	-200.000	-0.006	-0.372
-473.259	-200.000	-0.018	-0.146
-472.245	-138.885	0.177	-0.019
-471.230	408.426	-0.046	0.097
-470.216	778.891	0.061	0.167
-469.201	800.000	-0.034	0.104
-468.186	394.033	-0.121	0.254
-467.172	125.191	0.028	-0.036
-466.157	-62.842	-0.245	-0.102
-465.143	-61.396	-0.222	0.094
-464.128	800.000	-0.040	-0.137
-463.113	-87.313	-0.139	-0.042
-462.099	-101.877	0.017	-0.004
-461.084	-67.596	-0.199	0.078
-460.070	133.570	0.177	0.231
-459.055	-10.913	-0.231	-0.153
-458.040	208.794	0.211	-0.332
-457.026	-200.000	0.012	0.197
-456.011	19.383	0.024	-0.019
-454.997	-200.000	0.035	0.335
-453.982	416.244	-0.047	-0.100
-452.968	101.063	0.131	-0.153
-451.953	800.000	-0.041	0.119
-450.938	-90.933	0.314	-0.091
-449.924	-117.815	-0.331	0.060
-448.909	-200.000	-0.013	-0.250
-447.895	135.435	0.054	0.071
-446.880	-90.477	-0.251	0.073
-445.865	-14.942	0.036	0.023
-444.851	98.461	0.172	0.199
-443.836	559.600	-0.005	0.012
-442.822	87.578	0.148	-0.165
-441.807	139.482	-0.133	0.176
-440.792	-200.000	-0.039	0.221
-439.778	-200.000	0.028	-0.147
-438.763	800.000	0.047	0.188
-437.749	256.310	-0.087	0.150
-436.734	60.165	0.187	-0.186
-435.719	-89.496	0.048	-0.014
-434.705	800.000	-0.128	-0.430
-433.690	27.281	-0.330	-0.278
-432.676	-5.470	-0.141	-0.097
-431.661	-7.982	0.017	0.011
-430.646	233.655	0.121	-0.199
-429.632	-200.000	0.000	-0.177
-428.617	32.540	-0.156	-0.135
-427.603	-200.000	-0.010	-0.328
-426.588	-200.000	-0.022	0.198
-425.573	-5.743	0.104	-0.072
-424.559	34.850	0.289	0.254
-423.544	0.472	0.150	0.107
-422.530	73.520	-0.083	0.087
-421.515	-200.000	-0.000	-0.066
-420.500	800.000	-0.065	-0.184
-419.486	74.979	-0.127	-0.134
-418.471	43.263	0.180	0.165
-417.457	800.000	0.098	0.345
-416.442	53.465	0.092	0.088
-415.428	603.523	-0.119	0.297
-414.413	164.455	0.139	-0.197
-413.398	-83.652	-0.127	0.041
-412.384	-200.000	0.018	-0.207
-411.369	28.424	-0.203	-0.172
-410.355	-35.105	-0.314	-0.172
-409.340	-49.624	0.274	-0.131
-408.325	-9.877	0.176	0.118
-407.311	800.000	0.038	-0.151
-406.296	4.329	0.155	0.114
-405.282	-52.839	0.273	0.126
-404.267	-15.466	0.198	0.127
-403.252	9.116	0.026	-0.020
-402.238	617.102	-0.150	-0.377
-401.223	-59.139	0.292	-0.126
-400.209	-1.442	0.253	0.179
-399.194	-200.000	0.019	-0.173
-398.179	71.935	-0.148	-0.154
-397.165	26.412	0.157	0.132
-396.150	172.431	0.105	0.152
-395.136	800.000	0.088	-0.360
-394.121	-200.000	-0.003	-0.116
-393.106	-28.101	0.395	0.229
-392.092	50.542	0.091	-0.086
-391.077	-96.731	0.174	-0.046
-390.063	141.265	0.106	0.141
-389.048	387.477	-0.029	0.061
-388.033	493.526	0.119	0.273
-387.019	-40.913	0.059	-0.031
-386.004	800.000	-0.022	-0.086
-384.990	-67.675	0.204	-0.080
-383.975	-58.122	0.230	-0.100
-382.960	-48.706	-0.322	0.155
-381.946	782.782	-0.011	-0.029
-380.931	-32.517	0.105	-0.059
-379.917	-200.000	0.013	-0.236
-378.902	800.000	0.041	-0.156
-377.888	-200.000	-0.101	0.000
-376.873	-164.896	-0.132	-0.006
-375.858	70.445	-0.256	-0.265
-374.844	51.407	-0.070	0.067
-373.829	52.360	-0.084	-0.080
-372.815	179.756	0.135	-0.198
-371.800	284.903	-0.038	0.068
-370.785	485.440	-0.098	0.225
-369.771	-190.513	0.352	0.004
-368.756	-92.882	0.150	-0.042
-367.742	315.037	-0.097	0.184
-366.727	-124.464	-0.262	-0.041
-365.712	-70.044	-0.529	0.202
-364.698	800.000	0.050	0.161
-363.683	66.300	-0.061	-0.062
-362.669	-200.000	0.064	-0.306
-361.654	800.000	0.032	0.101
-360.639	-151.334	0.143	-0.011
-359.625	137.318	-0.113	0.148
-358.610	87.429	-0.188	0.208
-357.596	-77.263	0.236	-0.082
-356.581	-84.946	0.050	0.016
-355.566	692.677	-0.055	0.145
-354.552	633.211	0.059	-0.150
-353.537	25.999	0.122	0.101
-352.523	-40.089	0.306	0.159
-351.508	-10.264	0.137	0.091
-350.493	-141.077	0.207	-0.021
-349.479	-110.369	-0.096	-0.020
-348.464	-25.765	-0.202	-0.119
-347.450	4.329	0.127	0.093
-346.435	56.677	-0.183	0.178
-345.420	-140.319	-0.111	-0.012
-344.406	-127.484	-0.176	0.026
-343.391	361.953	0.069	-0.139
-342.377	-95.811	0.248	-0.066
-341.362	-111.095	-0.184	-0.038
-340.348	225.537	0.046	0.074
-339.333	180.003	0.107	-0.157
-338.318	-46.151	-0.200	-0.098
-337.304	505.568	-0.084	0.195
-336.289	11.787	-0.177	-0.136
-335.275	-35.340	0.186	-0.101
-334.260	4.637	0.201	0.148
-333.245	48.453	-0.153	-0.143
-332.231	-184.866	0.345	0.005
-331.216	208.797	-0.235	0.367
-330.202	-18.136	0.173	-0.108
-329.187	800.000	0.078	0.280
-328.172	-200.000	0.017	-0.184
-327.158	-43.419	0.311	-0.157
-326.143	-21.451	-0.291	0.178
-325.129	53.101	-0.263	0.252
-324.114	103.809	-0.271	-0.318
-323.099	-79.572	-0.105	0.036
-322.085	-41.863	0.098	-0.050
-321.070	298.509	-0.184	0.338
-320.056	770.588	0.065	0.176
-319.041	-99.913	-0.194	-0.048
-318.026	-200.000	-0.006	-0.282
-317.012	-10.099	0.111	0.074
-315.997	-139.983	-0.284	0.030
-314.983	234.834	0.086	-0.142
-313.968	-200.000	0.004	-0.053
-312.953	16.689	0.176	0.139
-311.939	-102.003	0.340	0.082
-310.924	101.282	0.074	-0.086
-309.910	800.000	0.051	0.169
-308.895	641.679	0.023	0.058
-307.880	90.837	-0.099	0.111
-306.866	-158.049	-0.100	0.006
-305.851	-73.957	0.158	-0.057
-304.837	25.033	0.199	0.165
-303.822	422.832	0.168	-0.360
-302.807	173.681	-0.088	-0.127
-301.793	548.344	0.036	-0.086
-300.778	32.791	0.335	-0.290
-299.764	-200.000	-0.029	-0.248
-298.749	-200.000	-0.049	-0.342
-297.735	118.741	-0.171	-0.211
-296.720	800.000	-0.085	0.256
-295.705	56.312	0.021	-0.021
-294.691	-33.825	0.157	0.086
-293.676	-24.112	-0.297	-0.177
-292.662	175.596	-0.148	-0.214
-291.647	-200.000	0.003	0.150
-290.632	326.665	-0.112	0.215
-289.618	-157.385	0.453	-0.027
-288.603	800.000	0.058	-0.184
-287.589	-53.844	0.095	0.043
-286.574	153.080	0.041	-0.057
-285.559	-200.000	0.014	-0.283
-284.545	92.843	-0.084	-0.094
-283.530	-150.147	0.174	-0.013
-282.516	-150.312	0.206	-0.016
-281.501	-62.295	-0.200	-0.083
-280.486	135.497	-0.157	-0.204
-279.472	518.829	0.107	-0.250
-278.457	33.470	0.215	0.187
-277.443	800.000	0.079	0.306
-276.428	349.392	-0.018	0.036
-275.413	-86.912	-0.187	-0.057
-274.399	504.072	-0.066	0.153
-273.384	-82.001	-0.403	0.131
-272.370	-200.000	0.022	-0.115
-271.355	21.975	0.218	0.178
-270.340	113.777	0.168	0.203
-269.326	-25.077	-0.301	0.178
-268.311	-13.731	0.315	-0.203
-267.297	-200.000	-0.031	0.251
-266.282	26.434	-0.191	0.159
-265.267	-191.876	-0.228	0.002
-264.253	228.882	0.163	0.266
-263.238	63.580	-0.020	0.020
-262.224	-124.357	0.042	0.006
-261.209	-200.000	0.008	0.218
-260.195	195.632	-0.157	0.237
-259.180	-200.000	-0.010	0.284
-258.165	800.000	0.073	-0.215
-257.151	-110.539	0.195	-0.040
-256.136	-72.270	-0.040	0.015
-255.122	20.940	0.375	0.303
-254.107	-70.102	0.274	-0.104
-253.092	140.621	-0.110	0.145
-252.078	528.537	0.146	0.343
-251.063	83.685	-0.156	0.170
-250.049	800.000	-0.093	0.384
-249.034	20.007	0.089	0.072
-248.019	149.212	0.119	0.161
-247.005	-157.658	-0.346	0.021
-245.990	-195.025	-0.287	0.002
-244.976	-90.663	-0.189	-0.055
-243.961	-5.018	-0.304	-0.209
-242.946	277.419	-0.154	-0.274
-241.932	800.000	0.088	0.270
-240.917	-200.000	-0.037	0.392
-239.903	-21.653	-0.226	-0.137
-238.888	87.177	0.116	-0.128
-237.873	187.602	-0.047	-0.070
-236.859	99.094	0.077	0.089
-235.844	714.704	-0.110	0.291
-234.830	318.185	-0.027	-0.051
-233.815	-53.662	-0.006	0.003
-232.800	-200.000	0.014	0.077
-231.786	359.058	-0.071	-0.142
-230.771	-109.574	-0.073	-0.015
-229.757	-200.000	0.005	0.071
-228.742	-200.000	0.064	0.315
-227.727	367.746	0.070	0.141
-226.713	200.898	-0.090	0.138
-225.698	-13.166	0.080	0.052
-224.684	-200.000	-0.035	0.195
-223.669	20.270	-0.139	-0.112
-222.655	-14.221	0.166	-0.107
-221.640	-78.236	-0.466	-0.160
-220.625	532.498	0.077	0.182
-219.611	207.291	0.148	-0.230
-218.596	163.500	0.070	0.098
-217.582	800.000	0.004	-0.018
-216.567	166.198	0.259	-0.366
-215.552	138.458	0.306	0.399
-214.538	-200.000	0.016	-0.188
-213.523	156.019	0.202	0.277
-212.509	-181.253	-0.323	-0.006
-211.494	25.545	0.054	-0.045
-210.479	-140.960	0.274	0.028
-209.465	21.944	0.224	-0.182
-208.450	-124.449	0.158	0.024
-207.436	-154.713	-0.208	0.014
-206.421	-165.130	0.309	0.014
-205.406	-73.357	0.073	-0.026
-204.392	17.753	-0.107	0.085
-203.377	33.124	-0.122	0.105
-202.363	680.991	-0.046	0.118
-201.348	17.275	0.058	0.046
-200.333	89.657	-0.136	-0.151
-199.319	-35.966	0.205	0.110
-198.304	800.000	0.038	-0.118
-197.290	-157.793	0.277	-0.016
-196.275	518.723	0.183	0.426
-195.260	89.664	0.276	-0.306
-194.246	59.174	-0.323	-0.316
-193.231	-76.781	0.309	-0.108
-192.217	-27.654	-0.144	0.083
-191.202	800.000	0.077	0.276
-190.187	-99.476	-0.133	-0.033
-189.173	644.342	-0.119	-0.301
-188.158	800.000	0.052	-0.168
-187.144	-18.032	0.327	-0.204
-186.129	126.299	0.229	0.289
-185.114	411.287	0.142	0.299
-184.100	-25.540	-0.138	-0.081
-183.085	800.000	-0.040	-0.119
-182.071	161.674	0.050	0.069
-181.056	418.437	-0.106	0.226
-180.042	-200.000	-0.020	-0.342
-179.027	16.593	0.269	-0.212
-178.012	-94.668	0.155	0.042
-176.998	-123.780	-0.507	-0.080
-175.983	29.163	-0.243	0.205
-174.969	-200.000	0.007	-0.242
-173.954	110.738	-0.260	-0.310
-172.939	-45.616	0.254	0.125
-171.925	238.979	0.054	0.090
-170.910	-200.000	0.006	-0.106
-169.896	443.479	-0.071	-0.156
-168.881	-9.242	0.078	0.052
-167.866	-8.461	0.230	0.153
-166.852	-171.390	-0.284	0.009
-165.837	-65.098	-0.158	0.063
-164.823	-72.421	-0.026	-0.009
-163.808	-59.832	0.236	-0.101
-162.793	-51.615	-0.181	0.084
-161.779	-200.000	0.054	-0.334
-160.764	-200.000	-0.032	0.235
-159.750	800.000	0.059	0.256
-158.735	19.953	-0.245	-0.196
-157.720	155.820	-0.085	-0.117
-156.706	386.398	0.049	0.100
-155.691	163.182	0.274	0.383
-154.677	0.502	0.419	0.297
-153.662	-112.236	-0.332	-0.066
-152.647	-57.852	-0.283	-0.123
-151.633	134.428	0.162	-0.209
-150.618	214.332	0.091	-0.143
-149.604	800.000	0.073	0.278
-148.589	-144.183	-0.266	0.025
-147.574	-45.909	0.084	-0.041
-146.560	347.102	-0.126	-0.246
-145.545	240.971	-0.119	-0.197
-144.531	-7.627	-0.062	0.041
-143.516	-116.046	-0.262	0.048
-142.502	-158.271	0.190	-0.011
-141.487	-86.245	-0.347	0.106
-140.472	18.435	0.103	-0.082
-139.458	800.000	-0.085	-0.269
-138.443	-57.948	0.115	0.050
-137.429	800.000	-0.053	0.227
-136.414	69.534	-0.074	-0.075
-135.399	524.460	0.049	-0.115
-134.385	-200.000	0.004	-0.137
-133.370	-115.049	0.140	0.026
-132.356	75.431	0.032	-0.034
-131.341	109.412	-0.154	-0.183
-130.326	83.515	-0.179	0.193
-129.312	800.000	0.006	-0.021
-128.297	-200.000	0.038	-0.394
-127.283	-200.000	-0.018	0.120
-126.268	-25.736	-0.212	-0.124
-125.253	800.000	0.001	-0.004
-124.239	266.561	0.150	-0.260
-123.224	-200.000	-0.031	-0.226
-122.210	-200.000	-0.003	-0.250
-121.195	-200.000	-0.033	0.260
-120.180	-190.060	-0.251	0.003
