DTS Sentinel unit serial number:	SN413079Multiplexer serial number:	ORYXHardware model number:	OX4-SRSoftware version number:	ORYX F/W v4.00 Oryx Data Collector v3.7.2.0data status	okinstallation	princeton_trtdifferential loss correction	single-endedforward channel	channel 4reverse channel	N/Adate	2019/09/17time	17:45:35forward acquisition time	60.00reverse acquisition time	0.00gamma	496.2192k internal	0.2278k external	0.2278temperature offset calibration	0.9977default loss term (dB/km)	0.3790temperature slope calibration	1.0000multiplexer offset coefficient	1.0000multiplexer slope coefficient	1.0000fibre end	0.00T internal ref (°C)	43.44T ext. ref 1 (°C)	0.33T ext. ref 2 (°C)	38.74length (m)	temperature (°C)	Stokes	anti-Stokes-747.200	596.841	0.147	0.374
-746.185	800.000	0.178	0.567
-745.171	306.081	0.154	-0.296
-744.156	591.084	-0.129	0.328
-743.142	118.843	-0.139	-0.177
-742.127	-74.669	-0.154	0.057
-741.112	505.588	0.005	-0.011
-740.098	800.000	-0.155	0.485
-739.083	-106.267	0.231	0.053
-738.069	266.943	-0.081	0.145
-737.054	84.373	0.082	-0.092
-736.039	-90.914	-0.236	-0.070
-735.025	313.110	0.264	0.511
-734.010	-133.822	0.201	-0.026
-732.996	73.778	-0.249	0.269
-731.981	-46.574	-0.098	0.050
-730.966	-200.000	-0.003	0.107
-729.952	779.587	-0.176	-0.495
-728.937	290.250	0.069	-0.129
-727.923	800.000	0.024	-0.078
-726.908	-82.852	-0.206	0.069
-725.894	800.000	-0.118	-0.383
-724.879	-200.000	-0.009	0.229
-723.864	-102.459	-0.066	0.016
-722.850	243.663	-0.191	0.329
-721.835	-200.000	0.041	-0.337
-720.821	-52.598	-0.146	-0.069
-719.806	-76.192	-0.071	0.026
-718.791	-20.432	0.144	0.091
-717.777	41.941	0.260	-0.242
-716.762	56.466	-0.208	-0.208
-715.748	130.697	0.162	-0.214
-714.733	138.546	-0.094	-0.127
-713.718	42.968	-0.186	0.174
-712.704	-200.000	-0.002	0.229
-711.689	-42.689	0.118	-0.062
-710.675	51.680	-0.086	-0.084
-709.660	-86.863	0.340	-0.107
-708.645	-72.095	0.151	-0.058
-707.631	554.733	-0.126	-0.312
-706.616	-98.965	-0.201	0.052
-705.602	-68.676	-0.049	0.020
-704.587	-200.000	0.055	-0.358
-703.572	-57.252	0.085	0.039
-702.558	-133.209	-0.144	-0.019
-701.543	-200.000	-0.044	-0.199
-700.529	-200.000	-0.026	0.334
-699.514	-200.000	0.004	0.192
-698.499	-48.976	0.228	-0.112
-697.485	800.000	-0.063	0.231
-696.470	-69.494	-0.224	0.088
-695.456	-200.000	0.025	0.315
-694.441	185.396	0.344	0.526
-693.426	-95.776	-0.417	0.114
-692.412	-15.133	0.115	0.076
-691.397	-65.121	-0.046	-0.019
-690.383	23.313	-0.234	0.197
-689.368	10.241	-0.218	0.170
-688.354	423.789	0.159	0.352
-687.339	398.295	-0.152	0.328
-686.324	-100.919	-0.304	-0.077
-685.310	91.229	0.153	0.176
-684.295	178.320	-0.105	0.158
-683.281	-15.836	0.021	-0.014
-682.266	-48.580	0.256	0.127
-681.251	163.759	-0.198	0.287
-680.237	135.220	0.136	0.181
-679.222	-108.329	0.207	-0.046
-678.208	91.982	-0.123	-0.142
-677.193	-49.928	0.193	-0.094
-676.178	467.940	-0.056	0.129
-675.164	-120.914	0.268	0.046
-674.149	-74.617	0.093	-0.034
-673.135	800.000	-0.062	-0.208
-672.120	-71.008	0.201	-0.078
-671.105	-200.000	0.012	0.104
-670.091	800.000	-0.022	0.090
-669.076	229.098	0.237	0.397
-668.062	-108.504	-0.119	-0.026
-667.047	85.327	-0.113	-0.128
-666.032	417.515	0.020	-0.044
-665.018	800.000	-0.046	0.208
-664.003	-200.000	-0.021	0.342
-662.989	-5.481	0.148	-0.104
-661.974	-200.000	0.059	-0.278
-660.959	15.321	-0.008	0.007
-659.945	129.990	-0.224	0.294
-658.930	63.405	0.131	-0.135
-657.916	-18.792	-0.122	0.078
-656.901	53.906	-0.042	0.041
-655.886	21.344	0.060	0.050
-654.872	200.506	0.111	-0.176
-653.857	-200.000	0.010	0.091
-652.843	-54.006	0.063	-0.030
-651.828	-200.000	0.057	-0.354
-650.814	-65.246	-0.234	-0.097
-649.799	-200.000	0.024	-0.217
-648.784	-1.840	0.152	0.110
-647.770	-3.898	-0.185	-0.131
-646.755	-115.362	-0.201	0.039
-645.741	800.000	0.068	-0.217
-644.726	364.935	-0.061	-0.127
-643.711	-114.316	0.419	0.083
-642.697	-190.946	0.220	-0.002
-641.682	235.075	-0.121	0.204
-640.668	288.752	-0.038	0.070
-639.653	-5.058	0.210	0.148
-638.638	214.811	0.093	0.150
-637.624	252.066	-0.078	-0.136
-636.609	-200.000	0.011	-0.151
-635.595	-71.373	-0.158	0.061
-634.580	-144.101	0.139	-0.013
-633.565	-29.693	-0.228	0.133
-632.551	-127.963	-0.078	-0.012
-631.536	599.447	0.039	-0.099
-630.522	31.149	-0.124	0.109
-629.507	800.000	0.011	-0.038
-628.492	790.361	-0.065	-0.182
-627.478	-130.233	-0.173	-0.024
-626.463	187.973	0.036	0.056
-625.449	106.484	0.095	-0.116
-624.434	17.045	0.186	-0.151
-623.419	166.161	0.106	0.154
-622.405	297.300	-0.137	0.259
-621.390	-200.000	0.007	-0.040
-620.376	-152.962	-0.088	0.006
-619.361	205.949	0.163	-0.260
-618.346	-139.054	0.310	0.034
-617.332	97.160	0.141	0.166
-616.317	-134.702	-0.279	-0.035
-615.303	292.258	0.166	0.310
-614.288	517.786	-0.015	-0.037
-613.273	294.081	0.058	-0.108
-612.259	58.111	-0.297	0.298
-611.244	74.043	0.142	0.153
-610.230	171.222	-0.090	-0.132
-609.215	800.000	0.107	0.446
-608.201	-200.000	-0.026	0.152
-607.186	90.839	-0.296	-0.339
-606.171	-200.000	0.030	0.207
-605.157	-38.305	0.186	-0.101
-604.142	164.012	0.306	-0.441
-603.128	735.020	-0.134	0.366
-602.113	-186.877	0.176	-0.003
-601.098	-87.352	-0.130	0.040
-600.084	21.521	-0.075	-0.063
-599.069	-58.116	0.301	0.134
-598.055	282.198	-0.246	0.452
-597.040	-37.312	-0.087	-0.047
-596.025	-54.752	-0.184	-0.085
-595.011	-200.000	0.060	-0.282
-593.996	252.486	-0.218	-0.381
-592.982	113.221	-0.146	-0.181
-591.967	-47.927	-0.204	0.101
-590.952	-23.967	-0.154	-0.094
-589.938	94.933	0.186	0.217
-588.923	-200.000	0.006	-0.183
-587.909	-172.301	-0.114	0.004
-586.894	219.572	-0.233	0.382
-585.879	-200.000	0.017	-0.166
-584.865	54.450	-0.144	-0.142
-583.850	800.000	0.024	0.099
-582.836	-200.000	0.021	-0.108
-581.821	252.459	0.179	0.312
-580.806	155.311	-0.141	-0.199
-579.792	305.745	-0.143	-0.272
-578.777	-200.000	-0.027	-0.240
-577.763	42.988	-0.214	0.200
-576.748	-200.000	-0.004	0.044
-575.733	-120.654	-0.110	0.019
-574.719	100.305	0.068	-0.080
-573.704	-200.000	0.027	-0.198
-572.690	800.000	0.084	-0.346
-571.675	800.000	0.038	-0.167
-570.661	78.250	-0.078	-0.085
-569.646	-166.036	-0.211	-0.009
-568.631	-63.569	0.218	0.092
-567.617	-200.000	-0.005	0.076
-566.602	-200.000	-0.001	0.110
-565.588	22.390	-0.273	-0.228
-564.573	9.249	0.062	0.048
-563.558	-134.170	0.253	0.032
-562.544	144.559	0.100	-0.136
-561.529	-200.000	0.029	-0.270
-560.515	498.842	-0.144	-0.339
-559.500	-133.764	0.341	0.043
-558.485	-108.578	0.319	0.070
-557.471	106.770	-0.138	-0.168
-556.456	398.458	-0.169	-0.361
-555.442	-3.813	-0.142	-0.101
-554.427	-94.213	-0.122	-0.034
-553.412	270.130	-0.189	-0.340
-552.398	-200.000	-0.021	-0.093
-551.383	-104.618	-0.167	0.039
-550.369	421.876	-0.047	-0.104
-549.354	-46.458	-0.037	-0.019
-548.339	800.000	-0.026	0.110
-547.325	-26.513	0.104	0.062
-546.310	-158.455	0.178	-0.011
-545.296	0.636	0.196	-0.143
-544.281	-200.000	0.042	-0.237
-543.266	724.686	0.054	0.148
-542.252	286.262	-0.072	-0.134
-541.237	-200.000	0.025	-0.130
-540.223	800.000	-0.084	-0.327
-539.208	16.977	0.150	-0.121
-538.193	88.162	-0.130	-0.148
-537.179	800.000	0.054	-0.162
-536.164	-33.851	-0.050	-0.028
-535.150	126.878	-0.111	-0.143
-534.135	72.198	0.212	0.225
-533.121	359.361	0.081	-0.166
-532.106	129.375	-0.051	0.066
-531.091	-200.000	0.076	-0.503
-530.077	-200.000	-0.007	0.142
-529.062	-150.726	-0.122	0.010
-528.048	-10.270	-0.290	-0.196
-527.033	269.750	0.065	-0.117
-526.018	-148.908	-0.105	0.009
-525.004	800.000	-0.087	-0.254
-523.989	204.493	0.045	0.071
-522.975	-53.929	-0.397	0.184
-521.960	74.725	-0.152	-0.164
-520.945	-200.000	0.061	-0.569
-519.931	-18.910	0.300	0.191
-518.916	144.444	-0.322	0.439
-517.902	-3.405	0.056	-0.040
-516.887	-80.564	0.184	-0.062
-515.872	-63.753	0.310	0.129
-514.858	10.306	-0.149	0.115
-513.843	22.808	0.117	0.098
-512.829	-200.000	0.062	0.295
-511.814	327.194	-0.127	-0.248
-510.799	-61.363	-0.144	-0.062
-509.785	-200.000	-0.037	0.307
-508.770	-200.000	-0.023	-0.265
-507.756	500.515	-0.095	-0.222
-506.741	-42.620	0.127	0.066
-505.726	-59.136	-0.252	0.111
-504.712	-14.921	-0.146	0.095
-503.697	-40.121	0.163	-0.087
-502.683	70.410	0.082	-0.086
-501.668	-200.000	0.007	-0.164
-500.653	-148.850	-0.386	-0.032
-499.639	74.953	0.137	-0.147
-498.624	-97.205	0.109	-0.029
-497.610	86.125	0.052	0.058
-496.595	800.000	0.039	0.166
-495.581	-96.374	0.364	0.098
-494.566	427.001	-0.075	0.165
-493.551	-32.759	-0.059	0.034
-492.537	-200.000	0.017	-0.105
-491.522	800.000	0.013	-0.041
-490.508	19.897	0.129	0.106
-489.493	-90.107	-0.143	-0.042
-488.478	-175.488	0.245	-0.007
-487.464	61.119	-0.104	0.105
-486.449	117.341	0.082	0.103
-485.435	-200.000	0.006	-0.137
-484.420	-93.003	0.080	-0.023
-483.405	1.132	0.200	-0.146
-482.391	-31.171	-0.202	-0.116
-481.376	50.687	0.144	0.139
-480.362	-200.000	-0.038	-0.188
-479.347	-105.549	-0.237	0.055
-478.332	-66.036	0.350	0.142
-477.318	-103.463	0.180	0.043
-476.303	6.732	-0.096	0.073
-475.289	-200.000	-0.003	-0.078
-474.274	-178.468	-0.269	-0.006
-473.259	126.922	-0.057	-0.073
-472.245	-190.237	0.302	-0.003
-471.230	800.000	-0.026	-0.102
-470.216	443.219	-0.087	-0.195
-469.201	-127.046	0.110	-0.016
-468.186	92.305	-0.035	0.040
-467.172	109.269	-0.225	0.274
-466.157	-158.371	-0.376	0.022
-465.143	-23.745	-0.251	0.153
-464.128	800.000	-0.079	0.316
-463.113	-155.148	0.096	0.006
-462.099	130.154	-0.079	-0.103
-461.084	-130.201	0.218	0.030
-460.070	288.242	-0.069	-0.128
-459.055	208.479	-0.105	0.168
-458.040	-185.086	-0.157	-0.003
-457.026	-200.000	-0.024	-0.199
-456.011	-121.693	0.128	-0.022
-454.997	75.662	-0.085	-0.091
-453.982	-200.000	-0.059	0.314
-452.968	-39.161	0.171	0.092
-451.953	313.224	-0.041	-0.079
-450.938	-200.000	-0.001	-0.172
-449.924	-107.725	0.196	0.044
-448.909	316.437	0.110	-0.212
-447.895	-112.764	0.326	0.066
-446.880	-45.341	-0.129	0.065
-445.865	-123.773	0.345	-0.056
-444.851	-30.465	0.122	0.070
-443.836	800.000	-0.027	-0.083
-442.822	-86.021	0.414	0.130
-441.807	-200.000	0.007	-0.142
-440.792	-92.613	-0.081	0.023
-439.778	231.677	0.084	-0.139
-438.763	-22.005	-0.227	-0.140
-437.749	-21.522	0.304	0.189
-436.734	800.000	0.034	-0.111
-435.719	99.732	-0.138	0.163
-434.705	-87.289	-0.073	0.022
-433.690	-33.195	-0.314	0.177
-432.676	260.892	-0.145	-0.255
-431.661	-29.377	-0.019	0.011
-430.646	-16.940	-0.120	-0.077
-429.632	339.086	-0.192	0.380
-428.617	563.056	-0.242	-0.595
-427.603	-200.000	-0.017	-0.180
-426.588	125.970	0.252	-0.324
-425.573	-200.000	-0.016	0.124
-424.559	-200.000	0.093	0.441
-423.544	-25.863	0.420	0.251
-422.530	-152.205	-0.338	-0.025
-421.515	110.452	-0.252	-0.308
-420.500	475.363	0.116	-0.266
-419.486	-163.602	-0.219	-0.011
-418.471	769.310	0.052	0.145
-417.457	126.297	0.149	0.192
-416.442	-130.485	-0.285	0.039
-415.428	-21.168	0.042	-0.026
-414.413	32.858	-0.223	-0.197
-413.398	800.000	0.042	0.123
-412.384	800.000	-0.102	0.296
-411.369	800.000	0.125	-0.391
-410.355	160.751	-0.054	-0.077
-409.340	-200.000	-0.032	-0.412
-408.325	59.247	-0.047	-0.047
-407.311	-200.000	0.013	0.222
-406.296	242.888	0.016	0.028
-405.282	25.297	0.141	-0.119
-404.267	-119.670	0.124	-0.022
-403.252	488.590	0.024	-0.057
-402.238	-64.589	-0.086	0.035
-401.223	134.063	-0.230	-0.303
-400.209	507.573	0.053	0.125
-399.194	-72.814	-0.282	-0.106
-398.179	119.140	-0.294	-0.369
-397.165	800.000	0.072	-0.214
-396.150	-158.805	0.241	0.014
-395.136	-200.000	-0.041	0.219
-394.121	-169.053	0.228	0.009
-393.106	800.000	0.047	-0.167
-392.092	800.000	0.057	0.191
-391.077	-200.000	0.056	-0.251
-390.063	800.000	-0.087	-0.309
-389.048	320.934	-0.008	0.016
-388.033	800.000	0.064	-0.223
-387.019	-145.665	0.085	-0.008
-386.004	-56.618	-0.158	-0.071
-384.990	285.046	0.175	0.320
-383.975	-200.000	-0.012	0.098
-382.960	547.895	0.066	-0.161
-381.946	79.231	0.193	-0.210
-380.931	-142.024	-0.207	-0.021
-379.917	-69.465	0.106	0.041
-378.902	800.000	0.054	0.161
-377.888	-49.822	-0.304	0.146
-376.873	750.926	0.081	-0.223
-375.858	-200.000	0.024	0.175
-374.844	-0.012	-0.236	0.170
-373.829	81.365	-0.139	0.152
-372.815	132.256	0.194	-0.253
-371.800	-200.000	0.096	-0.475
-370.785	-46.851	0.161	-0.080
-369.771	77.322	-0.156	-0.168
-368.756	-43.399	-0.273	0.140
-367.742	-45.220	0.171	-0.086
-366.727	-200.000	-0.015	0.112
-365.712	-37.095	0.102	-0.055
-364.698	58.083	-0.097	-0.096
-363.683	223.341	-0.056	-0.092
-362.669	445.520	-0.158	-0.353
-361.654	-36.370	0.288	-0.158
-360.639	-200.000	0.041	0.236
-359.625	-11.010	0.068	-0.045
-358.610	-200.000	0.006	0.079
-357.596	-200.000	-0.269	0.001
-356.581	-93.027	0.212	0.060
-355.566	-58.862	-0.079	0.035
-354.552	-184.141	0.087	-0.001
-353.537	472.030	-0.053	0.121
-352.523	-10.426	-0.186	0.125
-351.508	-200.000	0.070	0.313
-350.493	-29.034	0.179	0.104
-349.479	800.000	0.047	0.190
-348.464	366.538	0.073	0.149
-347.450	-200.000	0.020	0.164
-346.435	-31.637	0.129	-0.074
-345.420	-151.241	-0.174	-0.013
-344.406	800.000	0.070	-0.209
-343.391	-104.823	-0.168	-0.039
-342.377	-169.808	-0.374	0.014
-341.362	409.043	0.069	0.147
-340.348	564.084	-0.042	-0.102
-339.333	57.585	0.160	0.158
-338.318	-107.580	-0.279	0.062
-337.304	63.768	0.135	-0.137
-336.289	33.835	0.302	0.267
-335.275	57.185	-0.239	0.236
-334.260	73.717	0.309	-0.328
-333.245	800.000	0.055	-0.173
-332.231	310.710	-0.125	0.236
-331.216	94.071	-0.192	0.221
-330.202	341.451	0.132	0.262
-329.187	316.507	-0.172	-0.329
-328.172	384.111	-0.053	0.111
-327.158	-200.000	-0.021	0.255
-326.143	636.760	-0.092	0.236
-325.129	-200.000	-0.047	0.336
-324.114	-161.707	0.043	0.002
-323.099	-95.836	-0.241	0.065
-322.085	108.786	-0.170	0.206
-321.070	-95.732	0.280	0.076
-320.056	-174.136	0.210	-0.006
-319.041	118.876	0.182	0.228
-318.026	-41.011	-0.289	-0.151
-317.012	-116.675	0.356	0.066
-315.997	-29.224	-0.192	0.112
-314.983	-57.249	-0.305	-0.136
-313.968	-57.821	-0.172	0.076
-312.953	-9.040	-0.064	-0.043
-311.939	79.274	0.108	-0.117
-310.924	91.839	0.280	0.319
-309.910	-200.000	0.010	0.096
-308.895	-112.608	0.267	-0.054
-307.880	425.296	0.137	-0.299
-306.866	-109.008	0.376	-0.081
-305.851	146.641	0.281	0.382
-304.837	13.640	0.396	0.311
-303.822	440.580	0.013	-0.029
-302.807	773.098	-0.107	0.294
-301.793	-200.000	0.018	0.130
-300.778	-99.713	0.182	-0.046
-299.764	-74.636	0.154	-0.056
-298.749	-200.000	-0.007	-0.305
-297.735	-61.406	-0.194	0.083
-296.720	-68.277	-0.231	0.091
-295.705	-200.000	0.005	-0.325
-294.691	-3.492	0.167	0.117
-293.676	183.865	0.263	0.394
-292.662	620.150	0.057	0.145
-291.647	-108.534	-0.238	-0.052
-290.632	800.000	0.061	0.195
-289.618	137.125	0.068	-0.091
-288.603	-200.000	0.013	0.215
-287.589	72.300	0.055	0.058
-286.574	682.508	-0.029	0.076
-285.559	-200.000	0.042	0.223
-284.545	40.582	0.118	-0.107
-283.530	-200.000	0.076	-0.378
-282.516	22.963	0.128	0.106
-281.501	-200.000	0.003	-0.244
-280.486	210.182	-0.044	0.070
-279.472	-200.000	0.012	-0.168
-278.457	-200.000	0.039	-0.283
-277.443	-200.000	0.001	0.180
-276.428	330.661	0.191	0.372
-275.413	-200.000	0.010	0.353
-274.399	-175.091	-0.252	-0.007
-273.384	60.317	0.084	0.084
-272.370	-73.677	-0.148	-0.054
-271.355	800.000	-0.109	0.370
-270.340	360.884	0.080	0.162
-269.326	16.384	0.078	0.062
-268.311	-99.492	-0.137	-0.035
-267.297	23.358	-0.318	0.264
-266.282	23.794	0.217	0.181
-265.267	16.103	-0.104	-0.083
-264.253	7.437	-0.082	0.062
-263.238	182.229	-0.090	-0.134
-262.224	-200.000	-0.033	-0.204
-261.209	-26.115	0.263	-0.156
-260.195	800.000	-0.056	-0.179
-259.180	98.918	-0.091	-0.106
-258.165	-110.049	-0.225	0.047
-257.151	-152.836	-0.174	-0.012
-256.136	-200.000	0.002	0.049
-255.122	-81.604	-0.091	0.030
-254.107	134.206	0.037	-0.048
-253.092	88.898	-0.113	0.126
-252.078	800.000	-0.143	0.453
-251.063	-48.472	0.065	-0.032
-250.049	94.496	0.160	0.183
-249.034	-200.000	0.011	0.288
-248.019	76.763	-0.065	0.070
-247.005	14.215	0.344	0.271
-245.990	-200.000	-0.017	0.147
-244.976	800.000	-0.057	0.208
-243.961	60.136	0.101	0.101
-242.946	95.037	-0.248	0.285
-241.932	-200.000	0.004	0.093
-240.917	800.000	0.014	-0.044
-239.903	-200.000	-0.011	0.076
-238.888	-85.806	0.367	0.115
-237.873	473.886	-0.112	-0.255
-236.859	800.000	-0.060	-0.265
-235.844	-75.740	0.383	0.137
-234.830	800.000	-0.036	-0.153
-233.815	-23.973	-0.259	0.156
-232.800	800.000	-0.034	0.113
-231.786	-200.000	0.050	0.233
-230.771	-200.000	0.004	0.065
-229.757	-37.383	-0.262	0.141
-228.742	-200.000	0.002	0.107
-227.727	-200.000	-0.071	0.333
-226.713	-7.567	0.130	-0.089
-225.698	-63.310	-0.400	0.166
-224.684	-97.571	-0.177	-0.046
-223.669	451.140	0.069	0.154
-222.655	800.000	-0.084	0.266
-221.640	-175.189	-0.228	-0.006
-220.625	3.182	0.193	0.142
-219.611	580.438	-0.050	-0.125
-218.596	160.719	0.041	-0.058
-217.582	9.980	0.116	-0.089
-216.567	-32.259	0.041	-0.023
-215.552	182.152	0.110	0.164
-214.538	-73.600	0.221	0.081
-213.523	800.000	0.071	-0.233
-212.509	259.969	0.202	-0.353
-211.494	800.000	-0.066	-0.273
-210.479	-78.062	-0.195	-0.068
-209.465	-200.000	0.022	-0.196
-208.450	672.760	-0.029	0.076
-207.436	-82.972	0.312	-0.101
-206.421	107.747	-0.159	0.191
-205.406	800.000	0.055	0.157
-204.392	800.000	0.032	0.123
-203.377	-200.000	-0.050	0.250
-202.363	-36.318	-0.361	-0.196
-201.348	-46.700	0.200	0.099
-200.333	-200.000	-0.017	-0.146
-199.319	800.000	-0.047	-0.161
-198.304	213.418	0.096	0.153
-197.290	518.647	0.078	-0.185
-196.275	-126.187	-0.226	0.034
-195.260	-132.905	0.149	0.019
-194.246	-63.910	-0.194	-0.080
-193.231	-188.687	0.177	-0.002
-192.217	-200.000	0.044	-0.273
-191.202	428.494	0.082	0.178
-190.187	-82.530	0.292	-0.096
-189.173	180.972	-0.077	0.114
-188.158	-15.507	-0.147	-0.094
-187.144	61.217	-0.039	-0.039
-186.129	800.000	-0.042	-0.148
-185.114	-34.103	-0.171	0.094
-184.100	52.395	0.241	0.231
-183.085	254.151	-0.226	-0.389
-182.071	-114.470	0.339	-0.066
-181.056	207.473	-0.088	0.139
-180.042	88.927	0.180	0.202
-179.027	78.915	-0.238	-0.257
-178.012	81.715	0.146	-0.160
-176.998	-200.000	-0.018	-0.450
-175.983	-85.550	0.257	-0.080
-174.969	800.000	-0.031	-0.133
-173.954	119.365	0.194	0.242
-172.939	19.980	0.094	0.076
-171.925	111.295	-0.076	-0.092
-170.910	-92.694	0.081	-0.023
-169.896	-200.000	0.006	-0.115
-168.881	43.148	-0.111	-0.102
-167.866	-52.434	0.242	0.113
-166.852	-170.460	0.064	0.002
-165.837	-5.741	0.310	-0.213
-164.823	800.000	-0.057	0.166
-163.808	549.564	0.006	-0.015
-162.793	219.407	-0.094	0.151
-161.779	-23.134	-0.433	-0.262
-160.764	-128.060	-0.187	-0.027
-159.750	-7.216	0.215	0.146
-158.735	-37.966	0.163	0.087
-157.720	800.000	-0.066	0.239
-156.706	795.391	-0.065	-0.181
-155.691	39.274	-0.067	0.060
-154.677	779.596	-0.122	0.336
-153.662	31.680	0.157	0.136
-152.647	-200.000	-0.005	0.234
-151.633	84.711	0.063	-0.069
-150.618	258.909	-0.154	-0.268
-149.604	59.704	0.380	0.377
-148.589	440.825	0.112	-0.247
-147.574	-25.551	0.385	-0.229
-146.560	-26.567	0.312	0.184
-145.545	522.016	0.179	0.424
-144.531	800.000	0.075	0.329
-143.516	-200.000	-0.020	-0.175
-142.502	-5.582	0.109	-0.075
-141.487	800.000	-0.063	0.193
-140.472	572.067	-0.063	-0.153
-139.458	-59.140	0.375	0.162
-138.443	-46.209	0.143	0.071
-137.429	21.302	-0.061	0.050
-136.414	800.000	0.060	0.175
-135.399	800.000	-0.019	-0.080
-134.385	-168.821	-0.125	-0.005
-133.370	-104.155	-0.268	-0.063
-132.356	-144.314	-0.192	0.018
-131.341	96.483	0.129	0.149
-130.326	75.936	0.199	0.212
-129.312	-55.045	-0.168	-0.076
-128.297	-35.361	-0.157	0.086
-127.283	-200.000	0.030	0.532
-126.268	185.247	0.239	-0.356
-125.253	-33.167	-0.116	0.065
-124.239	800.000	0.058	-0.215
-123.224	-200.000	-0.001	-0.183
-122.210	800.000	0.034	-0.116
-121.195	55.531	0.021	0.021
