DTS Sentinel unit serial number:	SN413079Multiplexer serial number:	ORYXHardware model number:	OX4-SRSoftware version number:	ORYX F/W v4.00 Oryx Data Collector v3.7.2.0data status	okinstallation	princeton_trtdifferential loss correction	single-endedforward channel	channel 4reverse channel	N/Adate	2019/09/16time	08:09:35forward acquisition time	60.00reverse acquisition time	0.00gamma	496.2192k internal	0.2314k external	0.2314temperature offset calibration	0.9982default loss term (dB/km)	0.3790temperature slope calibration	1.0000multiplexer offset coefficient	1.0000multiplexer slope coefficient	1.0000fibre end	0.00T internal ref (°C)	28.69T ext. ref 1 (°C)	11.81T ext. ref 2 (°C)	24.90length (m)	temperature (°C)	Stokes	anti-Stokes-747.200	-21.430	-0.111	0.069
-746.185	-36.455	-0.270	0.148
-745.171	-120.200	0.113	-0.020
-744.156	-200.000	0.011	0.341
-743.142	-71.354	-0.179	0.068
-742.127	60.488	0.174	-0.175
-741.112	28.922	0.131	0.113
-740.098	-179.316	-0.033	-0.001
-739.083	-6.136	0.336	0.233
-738.069	-200.000	0.011	0.137
-737.054	800.000	0.028	-0.104
-736.039	-11.175	-0.105	0.070
-735.025	132.905	0.176	-0.231
-734.010	410.325	0.036	-0.077
-732.996	573.014	-0.187	-0.462
-731.981	114.141	0.088	0.108
-730.966	800.000	0.026	-0.108
-729.952	54.027	-0.060	0.059
-728.937	800.000	-0.030	0.090
-727.923	-6.041	-0.152	0.105
-726.908	181.571	0.279	-0.416
-725.894	800.000	-0.092	-0.276
-724.879	-200.000	0.019	-0.265
-723.864	-200.000	0.037	-0.260
-722.850	-63.739	0.160	-0.067
-721.835	-114.754	-0.261	0.051
-720.821	-144.356	-0.156	0.015
-719.806	-144.624	-0.289	-0.027
-718.791	96.918	-0.189	-0.219
-717.777	-105.368	0.273	0.063
-716.762	175.881	-0.232	0.341
-715.748	518.167	0.157	-0.373
-714.733	-33.577	-0.227	-0.127
-713.718	-104.470	-0.275	-0.064
-712.704	677.775	-0.106	0.278
-711.689	-200.000	-0.023	0.193
-710.675	-59.522	-0.283	0.123
-709.660	-82.854	0.299	0.098
-708.645	172.790	-0.160	-0.233
-707.631	170.877	-0.131	-0.190
-706.616	127.217	0.048	0.062
-705.602	36.651	0.157	-0.141
-704.587	800.000	-0.030	-0.096
-703.572	-200.000	-0.061	-0.363
-702.558	7.014	-0.071	0.054
-701.543	-200.000	0.054	-0.277
-700.529	-61.342	0.169	0.072
-699.514	-121.784	-0.091	0.015
-698.499	24.245	-0.078	-0.065
-697.485	56.390	0.168	-0.166
-696.470	-86.334	-0.244	-0.076
-695.456	126.715	-0.107	0.137
-694.441	54.882	0.239	0.233
-693.426	-7.232	0.069	-0.047
-692.412	-200.000	-0.060	0.288
-691.397	-200.000	0.024	-0.211
-690.383	-31.068	0.225	-0.128
-689.368	-200.000	-0.029	0.153
-688.354	-25.862	0.161	-0.096
-687.339	125.169	-0.100	-0.127
-686.324	-16.945	-0.229	0.146
-685.310	40.646	0.243	-0.221
-684.295	75.996	-0.110	0.118
-683.281	351.161	-0.089	0.178
-682.266	-102.763	0.325	0.078
-681.251	0.853	0.050	-0.036
-680.237	410.489	-0.048	-0.104
-679.222	-178.345	0.157	0.004
-678.208	-200.000	0.016	0.252
-677.193	-200.000	-0.054	-0.299
-676.178	-25.624	-0.422	-0.252
-675.164	-200.000	-0.060	0.343
-674.149	541.211	-0.145	-0.350
-673.135	-161.883	-0.249	0.013
-672.120	-106.153	-0.321	-0.073
-671.105	51.153	0.107	-0.103
-670.091	-120.312	0.210	-0.036
-669.076	-200.000	0.008	0.370
-668.062	118.921	0.116	-0.145
-667.047	-127.652	-0.049	0.007
-666.032	-78.335	-0.120	-0.041
-665.018	800.000	-0.075	-0.239
-664.003	-200.000	-0.049	-0.363
-662.989	478.044	0.148	-0.339
-661.974	49.223	-0.210	0.200
-660.959	-9.020	0.186	0.126
-659.945	110.728	0.193	-0.235
-658.930	-200.000	-0.000	-0.013
-657.916	-200.000	0.028	-0.307
-656.901	107.331	-0.148	-0.178
-655.886	800.000	-0.087	-0.270
-654.872	12.148	0.273	0.212
-653.857	-52.482	0.248	0.116
-652.843	-91.754	-0.205	0.059
-651.828	166.850	-0.216	-0.310
-650.814	-6.192	-0.145	0.100
-649.799	-200.000	-0.028	-0.377
-648.784	-70.135	-0.160	0.062
-647.770	207.890	-0.079	0.125
-646.755	-67.969	-0.431	-0.170
-645.741	-108.291	-0.387	-0.084
-644.726	381.744	-0.076	-0.157
-643.711	-117.861	0.156	0.028
-642.697	-66.546	-0.159	-0.064
-641.682	379.372	-0.013	-0.027
-640.668	-112.566	0.234	-0.047
-639.653	214.108	-0.159	0.254
-638.638	89.415	-0.199	0.224
-637.624	-200.000	0.031	0.182
-636.609	166.956	0.136	0.194
-635.595	-16.163	-0.138	0.089
-634.580	-175.576	-0.103	-0.003
-633.565	-111.740	-0.119	-0.024
-632.551	190.450	-0.144	-0.219
-631.536	-200.000	0.448	0.000
-630.522	800.000	-0.074	0.217
-629.507	-167.100	-0.089	-0.004
-628.492	800.000	-0.086	-0.294
-627.478	-80.375	-0.091	0.031
-626.463	452.340	0.013	-0.029
-625.449	137.258	0.068	0.090
-624.434	-20.351	0.204	-0.126
-623.419	0.244	-0.041	-0.030
-622.405	-52.795	0.299	-0.139
-621.390	800.000	-0.123	0.372
-620.376	366.381	-0.085	0.173
-619.361	-65.708	0.229	-0.092
-618.346	-33.801	0.182	-0.101
-617.332	-151.102	0.212	0.016
-616.317	-125.506	-0.095	-0.015
-615.303	-11.306	0.241	0.160
-614.288	-3.704	-0.088	-0.062
-613.273	800.000	0.047	0.150
-612.259	234.018	-0.254	0.422
-611.244	800.000	0.023	-0.066
-610.230	-166.714	-0.217	0.009
-609.215	-195.861	-0.177	-0.001
-608.201	-200.000	-0.013	-0.124
-607.186	52.009	-0.191	0.184
-606.171	800.000	0.033	0.139
-605.157	-200.000	-0.013	-0.139
-604.142	-77.749	-0.180	0.063
-603.128	118.434	0.122	-0.152
-602.113	-127.581	-0.160	0.023
-601.098	597.769	0.030	-0.074
-600.084	-40.295	0.536	-0.281
-599.069	-42.442	0.197	-0.101
-598.055	-200.000	0.023	-0.139
-597.040	-23.001	-0.126	0.076
-596.025	0.646	0.191	-0.137
-595.011	53.537	-0.017	0.017
-593.996	746.880	0.043	-0.117
-592.982	43.328	-0.268	-0.247
-591.967	637.245	0.131	0.335
-590.952	-187.473	-0.158	0.002
-589.938	264.829	-0.161	-0.283
-588.923	-95.625	-0.255	0.069
-587.909	227.776	0.198	-0.325
-586.894	-200.000	0.027	-0.221
-585.879	123.398	-0.071	-0.089
-584.865	-128.000	0.471	0.068
-583.850	-200.000	0.061	0.363
-582.836	436.148	0.111	-0.243
-581.821	365.780	0.064	0.130
-580.806	211.811	0.108	-0.171
-579.792	-69.552	-0.118	0.046
-578.777	-38.681	0.087	0.046
-577.763	-200.000	0.151	0.001
-576.748	13.142	-0.226	0.176
-575.733	271.580	-0.226	-0.402
-574.719	-200.000	-0.002	-0.280
-573.704	293.361	-0.136	-0.251
-572.690	-16.054	0.332	0.213
-571.675	-65.328	0.072	-0.029
-570.661	134.076	0.126	-0.164
-569.646	-116.554	0.139	-0.026
-568.631	-200.000	-0.055	-0.429
-567.617	800.000	0.027	-0.082
-566.602	-11.631	-0.160	-0.106
-565.588	-128.856	0.115	-0.016
-564.573	50.522	-0.368	-0.351
-563.558	-98.311	-0.270	0.070
-562.544	800.000	-0.017	-0.072
-561.529	800.000	-0.072	0.264
-560.515	41.034	-0.063	0.058
-559.500	454.202	-0.066	-0.148
-558.485	-200.000	0.015	-0.496
-557.471	-200.000	-0.042	-0.200
-556.456	-33.086	0.179	-0.100
-555.442	69.830	-0.210	0.218
-554.427	-48.788	0.169	0.082
-553.412	-184.989	-0.450	0.007
-552.398	-200.000	0.009	-0.196
-551.383	-74.905	0.378	-0.137
-550.369	-96.084	0.208	-0.056
-549.354	236.503	-0.092	-0.153
-548.339	-127.061	0.096	-0.014
-547.325	23.751	-0.097	-0.080
-546.310	-118.863	-0.152	-0.027
-545.296	73.384	0.027	0.028
-544.281	-89.057	-0.205	-0.061
-543.266	56.773	0.148	0.145
-542.252	800.000	0.104	0.410
-541.237	-10.583	0.133	-0.089
-540.223	670.033	-0.054	0.142
-539.208	800.000	-0.091	-0.310
-538.193	483.987	-0.128	0.292
-537.179	267.582	0.211	0.372
-536.164	-200.000	0.035	0.282
-535.150	272.287	-0.144	-0.255
-534.135	94.138	-0.155	0.176
-533.121	-200.000	0.054	0.332
-532.106	-200.000	-0.061	0.336
-531.091	-125.807	-0.127	0.019
-530.077	168.278	0.139	-0.200
-529.062	68.574	0.117	0.121
-528.048	-18.703	-0.033	0.020
-527.033	-169.210	0.399	0.015
-526.018	118.568	0.091	-0.113
-525.004	-64.746	-0.091	0.037
-523.989	309.568	-0.198	0.373
-522.975	-71.135	0.247	-0.093
-521.960	438.774	-0.086	0.188
-520.945	-112.741	-0.264	-0.053
-519.931	-29.642	-0.295	0.169
-518.916	-41.162	-0.205	-0.106
-517.902	-71.424	0.522	0.196
-516.887	-73.679	-0.157	0.058
-515.872	-127.144	0.133	0.020
-514.858	-91.039	0.172	-0.050
-513.843	-79.496	-0.324	-0.110
-512.829	-200.000	-0.002	0.157
-511.814	-200.000	0.059	-0.535
-510.799	48.362	-0.056	-0.053
-509.785	-42.499	-0.207	0.106
-508.770	52.657	0.123	0.118
-507.756	-99.947	0.353	0.089
-506.741	-93.454	0.313	0.087
-505.726	118.394	-0.203	0.251
-504.712	-200.000	0.049	-0.230
-503.697	800.000	-0.028	-0.109
-502.683	199.108	-0.074	0.113
-501.668	507.730	-0.159	-0.370
-500.653	-200.000	-0.050	-0.281
-499.639	-157.956	0.242	-0.014
-498.624	-95.153	0.170	0.046
-497.610	-200.000	-0.020	0.233
-496.595	-153.707	0.470	0.032
-495.581	86.123	-0.141	0.156
-494.566	-200.000	0.047	-0.340
-493.551	-123.716	0.425	-0.068
-492.537	-115.073	0.563	0.107
-491.522	-81.096	-0.210	-0.070
-490.508	-200.000	0.006	-0.246
-489.493	21.479	-0.093	0.076
-488.478	-119.068	0.132	0.023
-487.464	-77.441	0.339	0.118
-486.449	373.033	-0.070	0.142
-485.435	-200.000	-0.015	-0.304
-484.420	-69.019	-0.058	0.022
-483.405	-128.913	-0.289	-0.041
-482.391	-5.468	0.346	-0.238
-481.376	243.335	0.048	-0.081
-480.362	222.366	0.031	-0.050
-479.347	-35.652	-0.229	0.125
-478.332	-200.000	-0.011	-0.156
-477.318	-92.657	-0.146	0.041
-476.303	9.114	-0.124	-0.094
-475.289	504.959	0.054	0.125
-474.274	-16.158	0.162	0.103
-473.259	25.769	-0.139	-0.116
-472.245	766.140	-0.145	-0.394
-471.230	315.000	0.169	0.320
-470.216	-1.200	0.265	0.188
-469.201	-200.000	0.049	0.236
-468.186	-53.766	0.289	-0.132
-467.172	-200.000	-0.122	-0.615
-466.157	638.035	-0.138	0.352
-465.143	-40.801	-0.044	0.023
-464.128	-39.370	-0.357	0.188
-463.113	27.834	-0.160	-0.135
-462.099	-90.160	0.356	-0.104
-461.084	-113.479	0.163	0.032
-460.070	149.476	-0.280	0.380
-459.055	800.000	-0.091	0.262
-458.040	800.000	-0.092	-0.282
-457.026	351.935	-0.041	-0.082
-456.011	-186.456	-0.166	0.002
-454.997	189.763	-0.049	-0.074
-453.982	69.454	0.351	0.362
-452.968	54.648	0.135	0.130
-451.953	204.023	0.123	0.190
-450.938	20.514	-0.306	-0.248
-449.924	8.353	-0.285	0.215
-448.909	-200.000	-0.011	0.133
-447.895	-177.642	0.225	-0.005
-446.880	800.000	-0.120	-0.374
-445.865	-200.000	0.001	-0.167
-444.851	265.663	0.167	0.292
-443.836	-20.758	-0.157	0.096
-442.822	-40.623	-0.221	0.115
-441.807	-70.166	0.164	0.062
-440.792	-200.000	0.007	-0.128
-439.778	-200.000	0.044	-0.200
-438.763	-99.955	-0.443	0.111
-437.749	72.930	0.085	-0.088
-436.734	-200.000	0.015	0.120
-435.719	-165.902	-0.155	-0.007
-434.705	66.927	-0.187	-0.190
-433.690	-159.773	0.212	-0.012
-432.676	-200.000	-0.003	0.123
-431.661	-200.000	-0.003	0.034
-430.646	-200.000	-0.007	-0.163
-429.632	-200.000	0.027	-0.404
-428.617	-200.000	0.021	-0.140
-427.603	337.564	0.028	-0.054
-426.588	29.110	0.212	-0.180
-425.573	-200.000	0.023	-0.313
-424.559	482.440	0.081	-0.185
-423.544	114.210	0.047	0.058
-422.530	-26.304	0.041	0.024
-421.515	134.514	0.216	0.281
-420.500	-74.836	-0.259	0.093
-419.486	-145.958	-0.127	-0.011
-418.471	398.662	-0.034	-0.072
-417.457	88.517	-0.224	0.249
-416.442	-31.512	0.163	0.092
-415.428	36.006	-0.242	0.213
-414.413	8.974	-0.109	-0.082
-413.398	549.079	-0.169	0.406
-412.384	229.660	0.103	-0.168
-411.369	12.001	0.137	0.105
-410.355	-68.326	0.033	-0.013
-409.340	-149.490	-0.120	-0.009
-408.325	-200.000	-0.025	0.308
-407.311	13.949	0.073	0.056
-406.296	-72.630	-0.172	-0.064
-405.282	800.000	-0.028	-0.113
-404.267	-95.080	0.309	0.083
-403.252	-101.827	-0.156	0.038
-402.238	-59.029	0.091	-0.039
-401.223	800.000	0.054	-0.195
-400.209	109.248	0.169	-0.202
-399.194	-200.000	-0.018	0.226
-398.179	-200.000	0.023	0.267
-397.165	450.935	0.060	0.132
-396.150	-112.879	0.305	-0.060
-395.136	764.594	0.035	-0.094
-394.121	88.492	-0.271	-0.301
-393.106	44.274	-0.179	0.165
-392.092	-69.824	-0.111	-0.042
-391.077	220.001	-0.131	0.209
-390.063	80.445	-0.126	0.135
-389.048	-200.000	-0.042	-0.273
-388.033	603.960	-0.038	-0.094
-387.019	-200.000	0.029	0.135
-386.004	-200.000	-0.038	0.234
-384.990	-146.722	-0.189	0.016
-383.975	-200.000	-0.055	0.277
-382.960	-24.849	0.374	-0.222
-381.946	95.025	0.128	-0.145
-380.931	205.618	0.178	-0.276
-379.917	800.000	-0.073	-0.297
-378.902	-143.027	0.084	-0.008
-377.888	-50.911	0.290	0.136
-376.873	-200.000	0.001	0.032
-375.858	-200.000	0.011	0.315
-374.844	573.818	-0.046	-0.111
-373.829	-200.000	-0.008	-0.256
-372.815	306.159	-0.118	-0.219
-371.800	-122.477	-0.544	-0.088
-370.785	233.385	0.199	-0.327
-369.771	-86.114	0.263	-0.081
-368.756	37.512	0.186	-0.165
-367.742	-78.318	0.277	0.095
-366.727	1.009	0.196	-0.140
-365.712	-200.000	-0.008	-0.605
-364.698	800.000	-0.023	-0.089
-363.683	-21.884	0.184	-0.112
-362.669	253.485	0.053	0.090
-361.654	-130.356	-0.372	0.050
-360.639	147.051	-0.111	-0.149
-359.625	387.106	0.119	-0.245
-358.610	48.364	-0.108	0.101
-357.596	-0.383	0.076	0.054
-356.581	155.344	-0.061	-0.084
-355.566	277.967	-0.055	0.098
-354.552	171.973	-0.129	0.186
-353.537	11.480	0.161	0.123
-352.523	-200.000	0.007	0.052
-351.508	800.000	-0.071	-0.227
-350.493	277.638	0.054	-0.097
-349.479	800.000	0.054	0.168
-348.464	-107.803	0.213	0.046
-347.450	-200.000	-0.055	0.288
-346.435	395.554	0.088	0.184
-345.420	-71.507	0.178	0.067
-344.406	-30.129	-0.115	0.065
-343.391	728.873	-0.031	0.083
-342.377	90.366	-0.030	0.033
-341.362	250.644	-0.021	-0.036
-340.348	-67.464	0.123	-0.048
-339.333	63.531	0.065	0.065
-338.318	97.348	0.187	0.214
-337.304	-98.800	0.265	0.067
-336.289	15.871	0.077	-0.060
-335.275	-64.874	-0.112	-0.045
-334.260	117.226	0.102	0.125
-333.245	207.023	0.133	0.207
-332.231	-75.028	-0.459	0.164
-331.216	36.097	0.057	-0.050
-330.202	-62.858	-0.252	0.104
-329.187	-28.174	0.118	0.068
-328.172	-4.348	-0.208	0.144
-327.158	800.000	-0.045	-0.137
-326.143	159.058	0.039	0.055
-325.129	800.000	-0.078	-0.224
-324.114	-36.982	0.162	-0.087
-323.099	-44.765	0.046	-0.023
-322.085	216.799	0.092	-0.145
-321.070	-200.000	0.027	0.117
-320.056	7.936	-0.325	0.243
-319.041	-120.637	-0.225	-0.038
-318.026	-200.000	0.011	0.249
-317.012	-169.527	0.344	0.013
-315.997	170.630	-0.176	0.252
-314.983	-200.000	0.020	0.167
-313.968	163.382	0.277	0.388
-312.953	-200.000	0.012	-0.264
-311.939	-9.352	-0.274	0.183
-310.924	-35.591	-0.082	-0.044
-309.910	-200.000	0.007	0.075
-308.895	175.343	-0.222	-0.321
-307.880	-34.068	0.160	-0.087
-306.866	135.614	-0.108	-0.140
-305.851	-95.570	-0.157	-0.042
-304.837	449.396	0.079	0.173
-303.822	-46.642	-0.257	0.125
-302.807	-87.736	0.090	-0.027
-301.793	800.000	0.036	-0.110
-300.778	-200.000	0.015	0.254
-299.764	-118.952	-0.091	0.016
-298.749	264.132	0.155	0.268
-297.735	-58.343	-0.144	-0.062
-296.720	17.312	-0.226	0.179
-295.705	418.848	0.036	-0.077
-294.691	439.908	-0.049	-0.106
-293.676	648.431	0.101	-0.257
-292.662	738.735	-0.138	0.369
-291.647	474.035	0.042	0.095
-290.632	800.000	0.020	0.069
-289.618	800.000	0.029	0.109
-288.603	-200.000	-0.007	0.112
-287.589	-164.721	0.287	0.013
-286.574	63.011	0.018	0.018
-285.559	-105.256	0.174	0.039
-284.545	-78.489	0.100	0.034
-283.530	335.569	-0.125	-0.241
-282.516	-148.662	-0.230	-0.019
-281.501	-200.000	0.016	-0.087
-280.486	241.000	0.250	0.415
-279.472	-121.487	-0.277	0.046
-278.457	16.894	0.109	-0.086
-277.443	-200.000	0.010	-0.083
-276.428	-144.577	0.273	-0.025
-275.413	243.900	-0.135	0.226
-274.399	561.681	-0.100	0.241
-273.384	800.000	-0.080	0.227
-272.370	-81.952	-0.370	0.120
-271.355	800.000	0.030	0.115
-270.340	-86.074	0.154	-0.047
-269.326	800.000	-0.074	-0.247
-268.311	32.627	0.328	-0.283
-267.297	-93.190	0.215	0.059
-266.282	-200.000	-0.030	-0.422
-265.267	355.552	0.060	-0.118
-264.253	-107.102	0.206	0.045
-263.238	-57.892	0.177	0.077
-262.224	-9.620	0.267	-0.177
-261.209	431.369	0.034	0.074
-260.195	50.448	0.168	-0.158
-259.180	-200.000	0.074	0.397
-258.165	19.006	-0.165	0.132
-257.151	-200.000	-0.007	0.264
-256.136	53.568	0.180	0.172
-255.122	10.354	0.378	-0.286
-254.107	-9.348	0.236	0.157
-253.092	-200.000	-0.083	-0.378
-252.078	71.391	-0.268	0.276
-251.063	175.290	-0.203	0.292
-250.049	800.000	0.114	-0.449
-249.034	46.579	-0.163	-0.150
-248.019	-34.328	-0.134	0.073
-247.005	-153.210	-0.251	-0.017
-245.990	-62.605	-0.329	-0.136
-244.976	-143.920	0.334	-0.031
-243.961	423.768	-0.113	0.242
-242.946	-194.113	0.164	0.001
-241.932	-200.000	0.015	-0.216
-240.917	-146.186	-0.042	0.004
-239.903	-200.000	0.019	-0.289
-238.888	800.000	0.007	0.019
-237.873	-23.306	-0.400	-0.239
-236.859	-200.000	0.009	0.199
-235.844	-70.255	0.274	-0.103
-234.830	-19.311	-0.161	0.099
-233.815	12.751	-0.321	0.246
-232.800	-112.611	-0.184	-0.036
-231.786	-127.414	-0.146	-0.021
-230.771	-56.643	0.148	-0.065
-229.757	-13.201	-0.295	-0.190
-228.742	-200.000	-0.022	-0.184
-227.727	205.459	0.171	0.263
-226.713	119.790	-0.209	0.258
-225.698	716.171	0.042	-0.111
-224.684	-27.969	-0.183	-0.105
-223.669	-45.787	0.226	0.111
-222.655	800.000	-0.088	-0.364
-221.640	-200.000	0.062	0.283
-220.625	122.070	0.170	-0.210
-219.611	-200.000	-0.002	-0.128
-218.596	-200.000	-0.015	-0.075
-217.582	-25.851	-0.067	-0.039
-216.567	148.434	-0.184	0.247
-215.552	192.983	-0.101	0.152
-214.538	-71.690	-0.307	-0.114
-213.523	43.230	-0.230	-0.208
-212.509	-200.000	-0.016	0.307
-211.494	118.983	-0.180	0.221
-210.479	-148.695	-0.072	-0.006
-209.465	-66.917	0.239	0.094
-208.450	-71.456	0.193	-0.072
-207.436	171.114	-0.161	-0.229
-206.421	-6.376	0.124	0.084
-205.406	-200.000	-0.023	-0.200
-204.392	65.009	0.201	0.201
-203.377	-77.011	-0.201	-0.070
-202.363	428.733	-0.089	-0.191
-201.348	-194.589	-0.219	-0.002
-200.333	251.760	0.224	-0.379
-199.319	233.574	0.061	0.100
-198.304	346.945	-0.102	-0.200
-197.290	-105.061	0.327	0.074
-196.275	-42.497	-0.225	0.114
-195.260	-138.410	0.530	-0.058
-194.246	800.000	-0.057	0.162
-193.231	-105.751	-0.212	-0.048
-192.217	82.865	-0.225	0.243
-191.202	-107.355	0.070	0.015
-190.187	-15.866	-0.201	0.127
-189.173	-167.658	0.100	-0.004
-188.158	398.682	-0.224	-0.465
-187.144	-158.130	0.300	-0.017
-186.129	213.968	-0.269	0.422
-185.114	-110.415	0.377	0.078
-184.100	800.000	0.063	-0.201
-183.085	380.988	0.054	0.110
-182.071	76.312	0.307	0.323
-181.056	-135.666	-0.094	-0.011
-180.042	51.158	0.167	-0.157
-179.027	27.338	-0.062	0.052
-178.012	-200.000	-0.018	-0.199
-176.998	72.908	-0.142	0.147
-175.983	-86.516	0.368	-0.112
-174.969	-9.364	0.190	0.126
-173.954	300.059	-0.221	0.405
-172.939	97.588	-0.225	0.256
-171.925	144.590	-0.187	0.247
-170.910	366.051	0.090	-0.180
-169.896	-73.415	0.177	-0.064
-168.881	-70.507	0.174	-0.065
-167.866	-87.444	0.375	-0.113
-166.852	-7.126	-0.189	-0.127
-165.837	800.000	-0.063	-0.208
-164.823	800.000	0.034	-0.105
-163.808	116.324	-0.102	0.124
-162.793	246.723	-0.085	0.141
-161.779	-44.479	-0.183	0.091
-160.764	476.046	0.165	0.369
-159.750	-200.000	-0.009	-0.073
-158.735	13.956	-0.333	0.257
-157.720	-24.509	-0.212	-0.125
-156.706	-103.029	-0.159	0.037
-155.691	26.102	0.053	-0.044
-154.677	-74.065	0.400	-0.144
-153.662	210.006	-0.118	-0.183
-152.647	800.000	0.041	-0.177
-151.633	-38.133	0.290	0.152
-150.618	-200.000	0.033	-0.165
-149.604	-200.000	-0.069	0.320
-148.589	-80.747	0.078	0.026
-147.574	87.366	-0.129	0.142
-146.560	194.588	-0.206	0.309
-145.545	-10.502	0.069	0.045
-144.531	-7.876	0.211	-0.141
-143.516	-61.283	0.212	0.089
-142.502	-114.895	-0.142	0.027
-141.487	258.261	-0.105	0.179
-140.472	-200.000	0.048	0.280
-139.458	800.000	-0.026	-0.092
-138.443	800.000	-0.087	0.330
-137.429	-149.074	-0.093	0.007
-136.414	-200.000	0.000	-0.113
-135.399	-200.000	0.040	0.370
-134.385	-200.000	-0.006	-0.128
-133.370	121.112	-0.169	-0.208
-132.356	354.268	-0.103	0.202
-131.341	146.379	-0.105	-0.139
-130.326	-92.526	0.360	0.100
-129.312	-78.697	-0.258	-0.087
-128.297	-150.366	0.250	-0.019
-127.283	259.702	-0.269	-0.459
-126.268	-179.824	0.137	-0.003
-125.253	5.690	0.079	0.058
-124.239	13.650	0.333	0.256
-123.224	52.993	0.224	0.212
-122.210	-152.360	-0.257	0.018
