DTS Sentinel unit serial number:	SN413079Multiplexer serial number:	ORYXHardware model number:	OX4-SRSoftware version number:	ORYX F/W v4.00 Oryx Data Collector v3.7.2.0data status	okinstallation	princeton_trtdifferential loss correction	single-endedforward channel	channel 4reverse channel	N/Adate	2019/09/18time	12:29:34forward acquisition time	60.00reverse acquisition time	0.00gamma	496.2192k internal	0.2305k external	0.2305temperature offset calibration	0.9988default loss term (dB/km)	0.3790temperature slope calibration	1.0000multiplexer offset coefficient	1.0000multiplexer slope coefficient	1.0000fibre end	0.00T internal ref (°C)	32.17T ext. ref 1 (°C)	0.52T ext. ref 2 (°C)	29.51length (m)	temperature (°C)	Stokes	anti-Stokes-747.200	-65.239	-0.093	-0.038
-746.185	-200.000	0.034	0.505
-745.171	-93.199	0.135	0.038
-744.156	84.826	0.245	0.273
-743.142	-141.767	0.490	-0.050
-742.127	349.822	-0.206	0.415
-741.112	510.692	-0.124	0.293
-740.098	800.000	0.063	0.227
-739.083	-21.924	0.095	-0.059
-738.069	800.000	0.078	0.301
-737.054	94.438	0.101	0.117
-736.039	145.975	-0.075	-0.103
-735.025	800.000	0.015	0.056
-734.010	-133.809	-0.124	-0.016
-732.996	5.080	0.051	0.038
-731.981	88.662	-0.114	-0.129
-730.966	-23.481	-0.073	0.044
-729.952	35.345	-0.156	0.139
-728.937	-200.000	0.003	-0.148
-727.923	23.156	0.115	-0.096
-726.908	-128.747	-0.327	-0.047
-725.894	31.048	-0.086	-0.075
-724.879	193.268	-0.059	-0.091
-723.864	-6.419	-0.135	-0.094
-722.850	6.020	0.186	-0.140
-721.835	208.110	0.206	0.327
-720.821	-35.552	-0.144	0.079
-719.806	800.000	0.011	0.048
-718.791	800.000	0.056	0.218
-717.777	57.924	-0.141	0.140
-716.762	769.204	0.090	0.249
-715.748	800.000	-0.071	0.244
-714.733	206.118	-0.085	-0.135
-713.718	-121.942	-0.350	-0.059
-712.704	-144.736	0.101	0.009
-711.689	-200.000	0.009	0.091
-710.675	-200.000	0.006	-0.050
-709.660	230.787	0.202	0.335
-708.645	128.586	-0.112	-0.145
-707.631	594.523	-0.131	-0.328
-706.616	17.251	-0.356	0.287
-705.602	-55.250	-0.230	-0.105
-704.587	-113.032	-0.249	-0.050
-703.572	-30.495	0.111	0.064
-702.558	-200.000	-0.008	-0.173
-701.543	-145.130	-0.178	-0.016
-700.529	32.916	-0.242	-0.213
-699.514	-3.532	0.171	-0.121
-698.499	-200.000	0.006	-0.141
-697.485	-103.020	0.126	-0.030
-696.470	110.277	0.086	-0.105
-695.456	-79.609	-0.141	0.048
-694.441	-200.000	-0.039	0.220
-693.426	-52.021	-0.093	-0.044
-692.412	-51.307	-0.364	0.173
-691.397	-84.510	0.065	0.021
-690.383	-200.000	-0.006	-0.340
-689.368	800.000	-0.060	-0.170
-688.354	82.604	0.249	0.275
-687.339	69.919	-0.320	0.335
-686.324	-200.000	0.010	-0.210
-685.310	-68.591	-0.217	0.085
-684.295	-37.399	0.213	0.115
-683.281	-76.848	0.216	-0.077
-682.266	21.516	0.201	0.166
-681.251	-200.000	0.039	0.373
-680.237	-200.000	-0.074	0.339
-679.222	40.862	0.251	-0.230
-678.208	-135.191	-0.077	0.009
-677.193	319.025	0.036	-0.070
-676.178	86.747	0.104	0.116
-675.164	-88.469	0.045	-0.014
-674.149	-172.285	0.073	0.002
-673.135	524.450	-0.093	0.222
-672.120	800.000	0.091	-0.264
-671.105	102.621	-0.210	-0.249
-670.091	-67.762	-0.231	-0.092
-669.076	771.187	-0.040	-0.111
-668.062	-200.000	0.021	0.513
-667.047	-141.639	-0.247	0.025
-666.032	-200.000	0.009	-0.189
-665.018	-50.161	-0.310	0.149
-664.003	123.108	0.127	0.161
-662.989	213.942	0.068	-0.109
-661.974	800.000	0.040	0.138
-660.959	-92.397	-0.073	-0.021
-659.945	214.097	0.145	0.233
-658.930	-200.000	-0.006	-0.180
-657.916	203.883	-0.109	-0.172
-656.901	-62.095	-0.331	-0.140
-655.886	-178.900	0.316	0.007
-654.872	176.476	-0.077	0.113
-653.857	-99.365	-0.259	0.066
-652.843	-53.637	-0.079	-0.037
-651.828	55.001	0.058	0.057
-650.814	83.637	-0.198	0.219
-649.799	129.802	-0.279	-0.362
-648.784	-200.000	-0.009	-0.217
-647.770	161.388	-0.066	0.094
-646.755	-78.404	0.182	0.063
-645.741	-41.722	-0.253	0.132
-644.726	-25.809	-0.361	-0.216
-643.711	94.900	-0.158	-0.182
-642.697	135.769	-0.156	0.207
-641.682	26.738	0.293	0.249
-640.668	-96.512	0.125	0.034
-639.653	120.997	0.250	-0.315
-638.638	428.162	-0.052	0.113
-637.624	800.000	0.074	-0.290
-636.609	-75.857	0.328	-0.118
-635.595	315.224	-0.201	-0.383
-634.580	4.110	0.211	0.156
-633.565	-200.000	-0.052	-0.256
-632.551	56.335	-0.203	-0.200
-631.536	197.216	0.042	0.065
-630.522	-25.105	-0.161	-0.097
-629.507	-200.000	0.058	0.279
-628.492	-169.316	-0.091	-0.003
-627.478	-122.718	-0.168	-0.028
-626.463	-200.000	0.052	-0.267
-625.449	-200.000	-0.016	-0.225
-624.434	253.450	0.152	0.263
-623.419	66.131	-0.237	0.244
-622.405	800.000	0.016	0.067
-621.390	800.000	0.041	0.168
-620.376	-58.491	-0.253	-0.111
-619.361	68.655	-0.204	0.212
-618.346	154.327	0.264	-0.367
-617.332	-155.548	-0.166	-0.011
-616.317	156.762	-0.128	-0.179
-615.303	-200.000	-0.002	0.129
-614.288	-200.000	-0.042	-0.338
-613.273	86.622	-0.298	0.333
-612.259	-150.988	-0.167	-0.013
-611.244	-93.387	-0.295	-0.083
-610.230	800.000	0.041	0.132
-609.215	2.196	-0.359	-0.263
-608.201	-47.934	0.165	-0.081
-607.186	12.265	-0.202	-0.157
-606.171	57.502	-0.035	0.034
-605.157	800.000	-0.045	-0.173
-604.142	52.309	0.202	0.195
-603.128	16.753	-0.325	-0.260
-602.113	-200.000	-0.012	-0.239
-601.098	548.784	0.048	-0.116
-600.084	-72.358	-0.129	0.048
-599.069	-159.857	0.201	-0.011
-598.055	-200.000	-0.067	0.570
-597.040	430.101	-0.258	-0.564
-596.025	-200.000	0.000	0.003
-595.011	-200.000	0.016	0.096
-593.996	6.798	-0.016	0.012
-592.982	-200.000	-0.021	0.226
-591.967	-107.039	0.126	-0.028
-590.952	187.142	0.089	0.134
-589.938	-100.749	-0.249	0.062
-588.923	139.970	-0.237	0.317
-587.909	142.089	0.219	0.294
-586.894	200.368	0.085	0.132
-585.879	203.395	-0.089	0.139
-584.865	97.687	0.045	0.052
-583.850	114.962	-0.058	0.072
-582.836	-97.879	0.140	-0.037
-581.821	-61.454	-0.083	-0.035
-580.806	-132.109	0.246	-0.032
-579.792	200.386	-0.076	-0.119
-578.777	800.000	0.043	-0.175
-577.763	508.063	-0.141	-0.331
-576.748	-154.070	0.058	0.004
-575.733	117.138	0.181	0.225
-574.719	222.774	-0.163	-0.265
-573.704	384.246	0.087	-0.181
-572.690	-127.511	-0.361	-0.053
-571.675	-97.716	0.240	-0.063
-570.661	800.000	-0.091	0.307
-569.646	-90.939	-0.464	-0.135
-568.631	-162.153	0.257	0.013
-567.617	78.469	-0.025	0.027
-566.602	574.641	-0.144	0.355
-565.588	-13.773	-0.145	-0.095
-564.573	-200.000	0.002	-0.048
-563.558	531.564	0.077	0.183
-562.544	800.000	0.048	-0.182
-561.529	800.000	0.151	-0.455
-560.515	-139.553	0.163	0.018
-559.500	-200.000	-0.037	-0.364
-558.485	243.727	-0.115	-0.195
-557.471	184.548	-0.043	-0.064
-556.456	-106.200	-0.110	0.025
-555.442	4.922	0.081	0.060
-554.427	586.319	0.052	-0.130
-553.412	33.021	-0.321	-0.281
-552.398	547.482	0.069	0.166
-551.383	-18.779	0.103	0.065
-550.369	651.347	0.036	-0.093
-549.354	-131.472	-0.075	-0.010
-548.339	-200.000	0.017	-0.103
-547.325	-62.121	0.265	0.112
-546.310	225.986	-0.177	-0.290
-545.296	-200.000	-0.001	0.188
-544.281	11.009	0.204	0.158
-543.266	-25.021	0.225	-0.135
-542.252	583.721	0.063	-0.157
-541.237	82.922	0.031	-0.034
-540.223	39.719	-0.033	0.030
-539.208	-134.991	0.129	-0.016
-538.193	71.371	0.301	0.316
-537.179	-24.539	-0.184	0.111
-536.164	-63.056	0.149	-0.062
-535.150	-200.000	-0.052	0.290
-534.135	-69.159	0.213	-0.083
-533.121	-200.000	-0.018	-0.146
-532.106	247.095	0.148	-0.252
-531.091	-11.522	-0.066	0.044
-530.077	-200.000	0.025	-0.366
-529.062	-133.729	-0.206	0.026
-528.048	13.118	0.149	0.117
-527.033	4.255	-0.331	-0.245
-526.018	-54.754	-0.262	-0.119
-525.004	86.308	0.250	-0.278
-523.989	-200.000	-0.010	0.100
-522.975	397.482	-0.022	-0.047
-521.960	-63.545	-0.096	0.040
-520.945	800.000	0.114	0.335
-519.931	-52.272	0.258	0.121
-518.916	42.531	0.212	-0.195
-517.902	15.426	-0.271	-0.215
-516.887	5.371	-0.108	-0.080
-515.872	800.000	-0.092	-0.259
-514.858	-104.859	-0.058	-0.013
-513.843	-60.996	0.142	-0.061
-512.829	406.848	-0.023	-0.049
-511.814	507.342	0.074	0.174
-510.799	208.346	-0.103	-0.162
-509.785	371.597	0.019	0.039
-508.770	-200.000	-0.051	-0.406
-507.756	-200.000	0.011	0.078
-506.741	-200.000	0.039	-0.195
-505.726	-55.443	-0.035	-0.016
-504.712	-129.572	0.388	-0.054
-503.697	800.000	-0.040	-0.136
-502.683	800.000	0.026	0.095
-501.668	-200.000	-0.030	-0.227
-500.653	750.307	0.041	0.110
-499.639	520.772	0.048	0.114
-498.624	-118.697	0.131	0.023
-497.610	-114.457	0.307	0.059
-496.595	-104.954	0.021	0.005
-495.581	-82.354	0.179	0.059
-494.566	-200.000	0.022	0.231
-493.551	-116.265	-0.046	0.009
-492.537	-200.000	0.015	-0.507
-491.522	-200.000	0.022	-0.148
-490.508	100.727	-0.152	-0.178
-489.493	77.499	-0.142	-0.152
-488.478	-18.731	-0.179	-0.112
-487.464	-55.689	-0.187	0.084
-486.449	-80.920	0.158	0.053
-485.435	145.436	-0.095	-0.128
-484.420	-200.000	0.027	-0.420
-483.405	800.000	0.115	-0.360
-482.391	-200.000	-0.024	-0.171
-481.376	-98.446	-0.427	0.110
-480.362	-90.187	0.406	-0.119
-479.347	800.000	0.070	-0.208
-478.332	-145.716	-0.374	-0.034
-477.318	-132.736	0.174	-0.022
-476.303	-99.967	0.227	0.057
-475.289	800.000	0.062	-0.186
-474.274	495.261	-0.079	-0.182
-473.259	160.435	-0.069	-0.096
-472.245	-62.923	-0.197	0.082
-471.230	-200.000	-0.001	-0.166
-470.216	100.689	-0.043	0.050
-469.201	800.000	-0.074	0.310
-468.186	5.951	0.197	0.147
-467.172	148.817	-0.244	0.333
-466.157	800.000	-0.060	0.172
-465.143	-200.000	-0.007	-0.118
-464.128	4.196	0.104	-0.077
-463.113	326.828	0.137	-0.265
-462.099	-200.000	0.050	0.229
-461.084	-167.453	0.070	0.003
-460.070	167.278	0.165	0.236
-459.055	52.140	0.047	-0.045
-458.040	-26.854	0.315	0.185
-457.026	155.244	0.163	0.225
-456.011	176.916	-0.109	0.160
-454.997	-200.000	-0.005	0.162
-453.982	133.752	-0.178	0.232
-452.968	96.762	0.185	0.214
-451.953	-200.000	-0.008	0.097
-450.938	419.862	0.059	0.126
-449.924	-10.683	-0.136	0.091
-448.909	-47.475	0.154	-0.075
-447.895	15.396	-0.103	0.081
-446.880	96.405	0.330	0.380
-445.865	-120.662	0.348	-0.059
-444.851	170.607	-0.134	0.193
-443.836	416.966	0.042	0.090
-442.822	153.671	-0.021	-0.029
-441.807	-45.622	-0.046	0.023
-440.792	-8.897	-0.104	-0.070
-439.778	800.000	0.056	0.193
-438.763	-35.431	-0.123	-0.067
-437.749	602.723	0.035	0.089
-436.734	-85.612	0.477	-0.149
-435.719	395.816	0.182	0.382
-434.705	60.223	0.369	-0.367
-433.690	-106.475	0.106	-0.024
-432.676	-7.462	-0.182	-0.124
-431.661	320.438	-0.034	-0.065
-430.646	163.232	0.186	-0.263
-429.632	209.263	-0.086	-0.135
-428.617	357.320	-0.092	-0.184
-427.603	-90.650	-0.118	-0.034
-426.588	2.301	0.031	0.023
-425.573	-18.462	-0.336	0.211
-424.559	25.738	0.384	0.321
-423.544	-70.271	-0.192	-0.073
-422.530	222.004	-0.108	-0.175
-421.515	800.000	-0.024	-0.076
-420.500	800.000	-0.059	-0.193
-419.486	-200.000	-0.065	0.324
-418.471	-70.121	-0.176	0.067
-417.457	-51.357	-0.327	0.154
-416.442	10.750	0.212	-0.163
-415.428	-93.806	-0.282	-0.078
-414.413	800.000	-0.139	-0.398
-413.398	-17.139	0.129	0.082
-412.384	-68.416	0.282	0.110
-411.369	116.831	0.128	0.158
-410.355	800.000	0.073	-0.299
-409.340	-95.478	0.194	0.052
-408.325	-200.000	-0.042	0.234
-407.311	484.949	-0.173	0.395
-406.296	-48.398	-0.187	-0.090
-405.282	174.056	0.141	0.204
-404.267	-200.000	-0.020	0.124
-403.252	-200.000	0.036	0.176
-402.238	107.269	0.109	-0.130
-401.223	-200.000	-0.005	-0.183
-400.209	60.961	0.165	0.165
-399.194	-200.000	-0.019	0.459
-398.179	182.491	-0.317	0.470
-397.165	-109.083	-0.186	0.040
-396.150	154.546	-0.228	0.315
-395.136	137.072	-0.137	0.180
-394.121	-93.914	-0.187	-0.052
-393.106	241.854	0.040	-0.067
-392.092	132.367	0.021	-0.027
-391.077	89.309	0.124	-0.139
-390.063	-158.353	0.226	0.013
-389.048	84.958	0.081	-0.089
-388.033	-71.353	-0.318	-0.120
-387.019	94.446	-0.246	0.281
-386.004	676.996	0.045	-0.118
-384.990	19.611	-0.219	-0.176
-383.975	34.392	0.156	-0.137
-382.960	-0.884	0.110	-0.078
-381.946	780.592	-0.072	-0.197
-380.931	-200.000	0.006	-0.072
-379.917	-25.762	-0.313	-0.185
-378.902	-153.408	-0.243	0.017
-377.888	-200.000	0.015	0.122
-376.873	195.197	0.141	-0.215
-375.858	518.697	0.229	0.538
-374.844	584.791	0.067	0.166
-373.829	267.216	0.064	0.112
-372.815	-130.777	0.251	0.034
-371.800	-137.105	-0.202	-0.023
-370.785	-133.090	-0.092	0.012
-369.771	-159.051	-0.126	-0.007
-368.756	-44.233	-0.176	-0.089
-367.742	363.441	0.067	0.136
-366.727	21.518	-0.218	-0.178
-365.712	11.272	0.260	0.200
-364.698	-196.369	-0.104	-0.001
-363.683	0.372	0.253	0.181
-362.669	-146.464	-0.182	0.016
-361.654	800.000	-0.125	0.399
-360.639	-77.687	0.413	0.143
-359.625	-72.968	0.568	0.209
-358.610	313.914	0.141	-0.265
-357.596	-153.506	-0.376	0.026
-356.581	24.988	-0.277	-0.230
-355.566	174.862	-0.065	-0.094
-354.552	65.909	0.169	-0.171
-353.537	-200.000	0.041	-0.370
-352.523	7.005	0.102	0.076
-351.508	-172.681	0.114	-0.004
-350.493	-79.996	0.295	0.099
-349.479	-38.262	-0.290	-0.154
-348.464	800.000	0.026	0.096
-347.450	800.000	0.075	0.274
-346.435	-134.868	0.288	-0.035
-345.420	164.036	-0.172	-0.242
-344.406	-37.685	0.118	-0.063
-343.391	57.300	0.101	0.099
-342.377	-200.000	-0.006	-0.084
-341.362	800.000	-0.095	0.372
-340.348	200.225	-0.108	-0.166
-339.333	-9.802	-0.256	-0.171
-338.318	-112.148	0.380	0.076
-337.304	800.000	0.077	-0.252
-336.289	-79.058	0.330	-0.112
-335.275	-86.999	-0.116	-0.035
-334.260	-200.000	-0.012	-0.175
-333.245	-16.157	-0.427	-0.272
-332.231	-103.022	0.155	0.037
-331.216	800.000	-0.062	0.261
-330.202	84.639	0.147	-0.162
-329.187	791.242	-0.099	-0.272
-328.172	756.292	-0.019	0.051
-327.158	-200.000	0.016	-0.350
-326.143	28.758	0.240	-0.204
-325.129	175.834	-0.139	-0.202
-324.114	29.826	-0.145	-0.124
-323.099	800.000	-0.068	-0.189
-322.085	-134.423	-0.245	-0.030
-321.070	-191.366	0.101	0.001
-320.056	-63.302	-0.254	-0.105
-319.041	121.698	-0.147	0.183
-318.026	255.921	0.135	0.231
-317.012	215.910	0.109	0.173
-315.997	589.660	-0.110	0.271
-314.983	-131.558	0.440	-0.058
-313.968	195.469	-0.051	-0.078
-312.953	159.068	-0.168	0.233
-311.939	363.962	-0.101	-0.203
-310.924	-200.000	0.007	0.105
-309.910	-22.940	0.232	-0.140
-308.895	341.455	-0.127	0.248
-307.880	-79.701	0.133	0.045
-306.866	-89.523	0.244	0.072
-305.851	-156.736	0.289	0.018
-304.837	23.439	0.095	0.078
-303.822	69.166	-0.109	-0.112
-302.807	-114.500	0.185	-0.035
-301.793	800.000	-0.003	-0.009
-300.778	-54.367	0.298	0.135
-299.764	-137.064	0.156	0.018
-298.749	-200.000	-0.018	-0.449
-297.735	-83.531	-0.109	0.035
-296.720	800.000	-0.025	-0.082
-295.705	211.102	0.202	-0.318
-294.691	-182.397	0.192	0.004
-293.676	-200.000	0.047	0.310
-292.662	-43.267	-0.249	-0.126
-291.647	800.000	-0.059	0.200
-290.632	-200.000	0.031	0.509
-289.618	-42.981	-0.321	0.163
-288.603	38.008	0.221	0.196
-287.589	-200.000	0.003	0.058
-286.574	-200.000	0.019	0.117
-285.559	517.250	0.031	-0.073
-284.545	78.355	0.228	0.244
-283.530	-28.324	0.058	0.033
-282.516	129.731	0.050	0.064
-281.501	800.000	-0.098	0.339
-280.486	800.000	-0.052	-0.183
-279.472	800.000	0.028	-0.097
-278.457	35.525	-0.202	0.177
-277.443	187.506	0.036	0.054
-276.428	800.000	0.047	0.160
-275.413	358.910	0.108	0.215
-274.399	-94.707	0.361	-0.098
-273.384	79.490	0.302	-0.324
-272.370	140.199	0.233	-0.307
-271.355	315.333	0.065	0.123
-270.340	-200.000	0.024	0.233
-269.326	187.815	0.138	0.205
-268.311	-155.314	-0.340	0.022
-267.297	391.342	-0.093	-0.192
-266.282	-200.000	0.002	0.178
-265.267	-51.462	-0.143	0.067
-264.253	3.672	0.335	0.244
-263.238	41.347	0.080	-0.073
-262.224	-30.583	0.339	0.192
-261.209	800.000	-0.028	0.106
-260.195	-73.791	-0.212	0.077
-259.180	119.760	0.148	-0.183
-258.165	-200.000	0.088	-0.451
-257.151	40.764	-0.323	0.291
-256.136	226.629	-0.111	0.180
-255.122	-200.000	-0.000	-0.379
-254.107	-33.658	-0.187	-0.103
-253.092	800.000	-0.055	0.164
-252.078	-172.334	-0.052	-0.002
-251.063	800.000	-0.082	-0.229
-250.049	-80.032	0.165	-0.055
-249.034	-25.084	-0.201	-0.119
-248.019	126.478	0.172	-0.217
-247.005	87.695	0.107	0.118
-245.990	-87.851	-0.251	-0.075
-244.976	19.441	0.139	0.111
-243.961	32.145	0.197	0.170
-242.946	86.231	0.015	0.016
-241.932	301.714	0.040	-0.074
-240.917	192.765	-0.096	-0.145
-239.903	123.032	0.094	0.118
-238.888	69.273	-0.333	0.342
-237.873	284.069	0.096	0.172
-236.859	57.373	0.058	0.056
-235.844	-62.768	-0.222	0.092
-234.830	-132.429	-0.599	0.077
-233.815	-131.186	-0.142	0.019
-232.800	19.823	-0.143	-0.115
-231.786	97.929	-0.124	0.143
-230.771	-200.000	0.002	0.277
-229.757	-200.000	-0.034	0.336
-228.742	-36.862	0.140	-0.075
-227.727	11.821	-0.040	-0.031
-226.713	-106.389	-0.093	0.021
-225.698	-200.000	-0.022	-0.100
-224.684	800.000	0.130	-0.406
-223.669	588.059	-0.112	-0.276
-222.655	-200.000	0.000	-0.124
-221.640	51.645	-0.158	0.150
-220.625	-110.338	0.261	0.054
-219.611	65.165	0.209	0.211
-218.596	245.987	0.036	0.060
-217.582	-200.000	-0.004	0.154
-216.567	-40.935	0.220	0.113
-215.552	77.736	-0.225	0.239
-214.538	-39.117	-0.361	0.189
-213.523	800.000	-0.116	0.329
-212.509	418.801	0.057	0.122
-211.494	74.044	0.171	-0.179
-210.479	-124.260	-0.192	-0.030
-209.465	800.000	0.007	0.021
-208.450	50.095	0.154	-0.145
-207.436	194.060	-0.120	0.182
-206.421	-83.421	-0.538	0.172
-205.406	194.001	-0.064	-0.097
-204.392	208.982	-0.100	0.156
-203.377	85.407	-0.221	0.241
-202.363	93.153	-0.094	-0.106
-201.348	-137.808	-0.382	-0.043
-200.333	800.000	0.046	-0.153
-199.319	-59.466	-0.350	0.150
-198.304	567.164	0.065	-0.157
-197.290	202.433	0.093	-0.143
-196.275	241.827	0.057	0.095
-195.260	800.000	-0.030	0.114
-194.246	-153.714	-0.450	-0.031
-193.231	499.864	-0.076	0.175
-192.217	-63.518	0.368	0.151
-191.202	49.383	0.275	0.258
-190.187	538.835	0.083	-0.197
-189.173	-200.000	0.080	-0.380
-188.158	-58.025	-0.168	-0.073
-187.144	-52.891	0.294	0.135
-186.129	-87.756	0.268	0.080
-185.114	51.652	0.256	-0.243
-184.100	-33.560	-0.138	0.076
-183.085	-31.059	-0.308	0.173
-182.071	-183.794	0.244	-0.004
-181.056	90.222	0.040	0.045
-180.042	-35.418	0.359	-0.194
-179.027	-31.435	-0.134	0.075
-178.012	661.318	0.028	0.071
-176.998	121.110	0.247	0.306
-175.983	-9.763	-0.233	-0.155
-174.969	-84.855	0.094	0.029
-173.954	800.000	0.041	0.143
-172.939	632.568	0.019	-0.047
-171.925	-101.770	0.052	0.012
-170.910	-115.876	0.136	-0.025
-169.896	69.905	-0.266	0.273
-168.881	-109.657	0.416	-0.087
-167.866	-46.743	-0.237	-0.115
-166.852	197.445	0.174	-0.264
-165.837	-28.137	0.321	0.185
-164.823	90.887	-0.168	0.188
-163.808	-182.150	-0.136	0.003
-162.793	207.969	0.271	-0.421
-161.779	800.000	-0.101	-0.342
-160.764	11.130	0.115	-0.087
-159.750	-48.739	0.297	0.142
-158.735	-200.000	0.015	-0.156
-157.720	-200.000	0.009	0.130
-156.706	-44.261	-0.278	0.138
-155.691	-24.643	-0.098	0.058
-154.677	800.000	-0.034	0.143
-153.662	-160.269	-0.119	0.006
-152.647	199.202	-0.084	-0.128
-151.633	190.054	0.184	0.275
-150.618	210.633	0.155	-0.243
-149.604	146.948	-0.045	0.060
-148.589	-57.976	-0.139	0.060
-147.574	189.044	-0.171	-0.255
-146.560	8.140	0.127	0.095
-145.545	416.142	-0.148	-0.314
-144.531	-200.000	0.014	0.163
-143.516	-200.000	-0.024	0.231
-142.502	-137.148	0.394	-0.045
-141.487	-200.000	0.056	-0.273
-140.472	110.884	0.196	0.234
-139.458	-72.642	0.100	0.037
-138.443	-200.000	0.034	-0.218
-137.429	17.989	0.369	0.292
-136.414	90.650	0.147	0.163
-135.399	110.370	0.062	0.074
-134.385	-73.412	-0.232	0.084
-133.370	32.772	-0.259	0.223
-132.356	169.656	0.088	-0.126
-131.341	-30.200	-0.126	0.071
-130.326	-50.641	0.147	0.069
-129.312	-36.020	0.196	0.105
-128.297	-3.988	-0.307	-0.212
-127.283	-72.043	-0.243	-0.090
-126.268	631.973	-0.061	-0.154
-125.253	800.000	-0.031	-0.087
-124.239	-200.000	-0.016	0.206
-123.224	238.712	0.158	0.260
-122.210	-105.591	0.094	-0.021
-121.195	739.050	0.138	-0.369
-120.180	-200.000	-0.019	-0.216
