DTS Sentinel unit serial number:	SN413079Multiplexer serial number:	ORYXHardware model number:	OX4-SRSoftware version number:	ORYX F/W v4.00 Oryx Data Collector v3.7.2.0data status	okinstallation	princeton_trtdifferential loss correction	single-endedforward channel	channel 4reverse channel	N/Adate	2019/09/17time	06:33:35forward acquisition time	60.00reverse acquisition time	0.00gamma	496.2192k internal	0.2317k external	0.2317temperature offset calibration	0.9988default loss term (dB/km)	0.3790temperature slope calibration	1.0000multiplexer offset coefficient	1.0000multiplexer slope coefficient	1.0000fibre end	0.00T internal ref (°C)	28.08T ext. ref 1 (°C)	0.12T ext. ref 2 (°C)	21.41length (m)	temperature (°C)	Stokes	anti-Stokes-747.200	299.965	0.093	0.173
-746.185	-200.000	-0.003	0.114
-745.171	-54.336	0.399	-0.183
-744.156	-122.847	0.338	-0.055
-743.142	-104.745	-0.160	-0.037
-742.127	-185.285	-0.358	0.006
-741.112	99.335	0.038	-0.044
-740.098	62.619	0.268	0.271
-739.083	-58.745	0.223	-0.098
-738.069	-200.000	-0.009	-0.231
-737.054	-18.790	-0.069	-0.044
-736.039	-131.870	0.088	0.012
-735.025	218.181	-0.015	-0.024
-734.010	-97.801	0.090	-0.024
-732.996	-113.584	-0.162	0.032
-731.981	124.482	0.051	0.065
-730.966	170.029	-0.127	0.184
-729.952	-11.880	-0.221	0.146
-728.937	116.901	-0.300	-0.373
-727.923	-200.000	0.003	-0.092
-726.908	12.391	-0.399	-0.311
-725.894	-185.304	0.264	0.004
-724.879	129.717	0.101	-0.131
-723.864	70.679	-0.153	0.160
-722.850	-179.267	0.110	-0.002
-721.835	-200.000	-0.045	-0.204
-720.821	207.126	0.032	-0.050
-719.806	-68.592	-0.104	-0.041
-718.791	232.017	0.079	0.130
-717.777	800.000	0.029	0.114
-716.762	126.325	-0.039	-0.050
-715.748	175.019	0.307	-0.450
-714.733	-200.000	0.022	0.196
-713.718	800.000	0.040	0.164
-712.704	-75.605	0.103	0.037
-711.689	-32.834	-0.257	0.145
-710.675	409.613	0.143	0.305
-709.660	800.000	-0.046	-0.163
-708.645	-200.000	0.000	0.005
-707.631	-7.816	-0.030	-0.020
-706.616	-200.000	-0.059	-0.361
-705.602	-200.000	-0.011	-0.317
-704.587	-73.018	0.388	-0.144
-703.572	275.984	0.027	0.049
-702.558	-175.170	-0.060	0.002
-701.543	-200.000	-0.006	-0.186
-700.529	-62.073	-0.126	0.053
-699.514	-32.688	0.094	-0.053
-698.499	-18.482	-0.066	-0.042
-697.485	-30.004	-0.108	-0.062
-696.470	57.836	-0.042	0.042
-695.456	4.414	-0.257	0.191
-694.441	356.178	0.112	0.225
-693.426	800.000	-0.046	0.135
-692.412	556.271	0.117	-0.286
-691.397	149.965	-0.173	-0.237
-690.383	360.167	-0.133	-0.268
-689.368	-48.409	-0.149	0.072
-688.354	27.798	0.155	0.132
-687.339	412.719	-0.126	-0.271
-686.324	3.776	0.263	0.194
-685.310	-20.281	-0.239	-0.149
-684.295	-200.000	0.057	-0.376
-683.281	-39.366	-0.308	0.163
-682.266	-149.897	-0.280	0.022
-681.251	-139.981	0.183	-0.019
-680.237	-29.127	-0.411	-0.238
-679.222	800.000	-0.079	0.250
-678.208	-15.898	-0.156	-0.100
-677.193	224.689	-0.193	-0.315
-676.178	800.000	-0.062	-0.231
-675.164	-200.000	-0.049	0.323
-674.149	-161.562	-0.096	-0.005
-673.135	-200.000	-0.021	-0.096
-672.120	152.253	-0.244	0.336
-671.105	-145.994	-0.204	0.018
-670.091	52.959	0.246	-0.238
-669.076	361.150	-0.102	0.207
-668.062	110.244	-0.059	0.072
-667.047	-200.000	-0.002	-0.061
-666.032	547.561	-0.074	-0.179
-665.018	-40.377	-0.304	-0.160
-664.003	799.086	0.028	0.079
-662.989	102.765	-0.133	0.157
-661.974	-200.000	-0.038	-0.192
-660.959	-200.000	-0.040	-0.183
-659.945	-200.000	0.025	-0.306
-658.930	-71.943	0.268	-0.101
-657.916	30.198	-0.126	0.109
-656.901	800.000	0.093	-0.323
-655.886	800.000	-0.084	-0.307
-654.872	-200.000	-0.057	0.329
-653.857	182.890	-0.100	0.149
-652.843	-55.836	-0.142	0.064
-651.828	25.838	-0.046	-0.039
-650.814	-2.495	0.093	-0.065
-649.799	539.719	0.060	0.144
-648.784	-80.064	0.109	0.037
-647.770	-62.509	-0.199	-0.083
-646.755	84.015	0.068	0.075
-645.741	377.643	0.159	-0.327
-644.726	-92.286	-0.158	0.045
-643.711	290.372	-0.100	0.183
-642.697	19.405	0.105	-0.085
-641.682	167.668	-0.137	0.196
-640.668	-99.065	0.345	0.088
-639.653	-90.013	-0.086	-0.025
-638.638	-200.000	0.022	-0.153
-637.624	-44.736	0.049	0.025
-636.609	-9.583	0.173	0.116
-635.595	153.883	-0.070	-0.097
-634.580	79.967	0.082	0.089
-633.565	-101.217	-0.234	-0.058
-632.551	-36.916	-0.117	0.063
-631.536	-73.832	0.011	0.004
-630.522	-16.167	-0.223	0.143
-629.507	-82.703	0.066	0.022
-628.492	-200.000	-0.007	-0.101
-627.478	-200.000	-0.012	-0.343
-626.463	73.046	-0.253	-0.267
-625.449	112.157	-0.317	-0.386
-624.434	-144.650	-0.173	-0.016
-623.419	428.615	-0.096	-0.209
-622.405	-40.248	-0.085	-0.045
-621.390	-101.077	0.174	-0.043
-620.376	137.100	-0.111	0.146
-619.361	-200.000	0.051	0.485
-618.346	-141.491	-0.184	0.019
-617.332	-200.000	-0.037	0.179
-616.317	800.000	0.091	-0.289
-615.303	-200.000	-0.018	-0.246
-614.288	464.947	0.089	-0.201
-613.273	800.000	0.093	-0.339
-612.259	-79.159	0.321	-0.110
-611.244	800.000	-0.089	0.320
-610.230	-200.000	0.004	0.186
-609.215	-94.715	-0.244	0.067
-608.201	146.411	0.260	-0.351
-607.186	521.635	-0.118	0.279
-606.171	800.000	-0.058	-0.237
-605.157	49.359	-0.135	0.128
-604.142	-200.000	-0.020	-0.194
-603.128	-75.294	-0.180	0.065
-602.113	-200.000	-0.029	-0.149
-601.098	628.116	0.073	0.187
-600.084	-81.667	-0.082	-0.027
-599.069	-146.711	0.189	0.016
-598.055	-200.000	0.005	-0.282
-597.040	0.528	0.140	0.101
-596.025	-200.000	0.017	-0.079
-595.011	-200.000	0.057	-0.372
-593.996	-25.328	-0.115	0.068
-592.982	-200.000	0.024	0.308
-591.967	66.290	-0.045	-0.046
-590.952	7.300	0.057	-0.043
-589.938	16.914	-0.088	0.070
-588.923	-200.000	-0.025	0.267
-587.909	-122.665	-0.082	-0.013
-586.894	-121.805	-0.121	0.020
-585.879	78.435	-0.271	-0.291
-584.865	800.000	-0.136	-0.431
-583.850	-70.672	0.226	-0.086
-582.836	800.000	0.074	-0.309
-581.821	-15.840	0.145	-0.093
-580.806	195.680	0.058	-0.088
-579.792	199.456	-0.159	0.245
-578.777	89.505	0.179	-0.201
-577.763	46.691	0.254	-0.238
-576.748	154.609	0.069	0.095
-575.733	-47.587	-0.108	-0.053
-574.719	24.158	-0.149	-0.124
-573.704	-124.626	-0.090	-0.014
-572.690	1.149	0.307	-0.221
-571.675	-200.000	-0.040	-0.237
-570.661	-54.299	0.168	0.077
-569.646	800.000	0.067	0.259
-568.631	-182.433	0.229	-0.004
-567.617	-14.010	-0.138	0.089
-566.602	65.556	-0.234	-0.238
-565.588	223.545	-0.043	-0.070
-564.573	-67.141	-0.263	-0.104
-563.558	-105.873	0.264	0.060
-562.544	-200.000	0.018	0.137
-561.529	271.063	-0.059	0.105
-560.515	2.790	-0.294	-0.214
-559.500	800.000	-0.152	0.500
-558.485	-200.000	-0.029	0.226
-557.471	-90.356	0.181	-0.053
-556.456	800.000	-0.036	0.120
-555.442	428.215	0.058	0.126
-554.427	800.000	-0.063	0.235
-553.412	-150.041	-0.389	-0.030
-552.398	-76.425	-0.176	-0.062
-551.383	-107.328	0.419	0.092
-550.369	-200.000	0.063	-0.692
-549.354	-109.955	-0.225	0.047
-548.339	21.607	-0.362	-0.296
-547.325	57.700	0.207	0.204
-546.310	-119.885	-0.025	0.004
-545.296	138.151	0.020	0.027
-544.281	128.162	-0.060	0.077
-543.266	800.000	0.051	0.172
-542.252	214.257	-0.259	-0.412
-541.237	246.379	0.105	-0.177
-540.223	203.737	0.225	-0.350
-539.208	-200.000	0.015	-0.256
-538.193	-117.115	0.129	-0.024
-537.179	-200.000	0.076	0.382
-536.164	-169.496	-0.140	-0.005
-535.150	-200.000	-0.033	-0.232
-534.135	32.357	0.332	-0.288
-533.121	800.000	-0.034	-0.122
-532.106	-16.814	-0.164	-0.104
-531.091	-98.149	0.220	0.057
-530.077	278.176	-0.094	0.169
-529.062	-73.177	0.156	-0.058
-528.048	-25.214	-0.309	0.184
-527.033	-200.000	-0.010	0.058
-526.018	-113.776	0.367	0.072
-525.004	66.856	-0.211	0.216
-523.989	-200.000	0.059	0.369
-522.975	158.463	-0.073	-0.101
-521.960	47.679	-0.249	-0.233
-520.945	-168.150	0.250	0.010
-519.931	-33.169	0.058	-0.032
-518.916	-135.270	0.037	0.004
-517.902	249.649	-0.092	0.156
-516.887	-32.614	0.239	0.133
-515.872	-100.164	0.136	0.034
-514.858	77.277	0.220	0.235
-513.843	278.716	0.106	0.189
-512.829	100.100	-0.117	-0.136
-511.814	-26.873	-0.147	-0.086
-510.799	15.993	-0.230	-0.182
-509.785	-200.000	-0.009	-0.220
-508.770	-197.911	0.401	-0.002
-507.756	-200.000	-0.028	0.212
-506.741	800.000	-0.036	0.108
-505.726	-95.236	0.170	0.046
-504.712	-46.807	-0.223	-0.109
-503.697	-52.357	0.337	0.156
-502.683	693.017	-0.112	0.294
-501.668	-38.279	0.342	0.181
-500.653	-199.451	0.135	0.001
-499.639	137.115	-0.039	-0.051
-498.624	-32.746	0.113	0.063
-497.610	-94.667	-0.503	-0.137
-496.595	-17.135	0.204	0.129
-495.581	-113.984	-0.096	0.019
-494.566	800.000	-0.045	0.136
-493.551	345.370	-0.201	0.396
-492.537	-1.258	-0.177	-0.126
-491.522	-200.000	-0.044	0.267
-490.508	-94.180	0.322	0.088
-489.493	-200.000	-0.028	0.144
-488.478	-200.000	0.014	-0.308
-487.464	800.000	-0.087	0.247
-486.449	520.462	-0.071	0.166
-485.435	-133.189	0.132	-0.017
-484.420	-200.000	0.015	0.084
-483.405	-0.816	-0.056	-0.040
-482.391	800.000	-0.034	0.135
-481.376	800.000	0.064	-0.231
-480.362	117.895	-0.072	-0.089
-479.347	26.292	-0.279	-0.234
-478.332	68.996	-0.356	-0.367
-477.318	-200.000	0.036	0.208
-476.303	90.720	-0.020	-0.023
-475.289	-46.445	0.380	0.187
-474.274	-200.000	0.040	0.202
-473.259	-46.999	0.274	-0.134
-472.245	125.557	0.160	0.202
-471.230	-200.000	0.034	-0.161
-470.216	-120.101	0.097	-0.017
-469.201	49.562	0.337	-0.318
-468.186	219.891	0.060	0.096
-467.172	-200.000	-0.028	-0.222
-466.157	800.000	-0.060	0.205
-465.143	-200.000	0.003	-0.084
-464.128	369.568	0.070	0.141
-463.113	33.908	0.245	-0.213
-462.099	12.280	-0.121	-0.094
-461.084	-2.405	-0.079	0.055
-460.070	41.465	-0.044	0.040
-459.055	-200.000	0.001	-0.037
-458.040	28.433	0.118	0.100
-457.026	-97.681	0.402	0.104
-456.011	23.489	0.391	-0.322
-454.997	29.351	-0.085	0.073
-453.982	16.181	-0.360	-0.284
-452.968	622.654	-0.058	-0.146
-451.953	199.509	0.081	0.124
-450.938	800.000	0.045	0.154
-449.924	-139.120	-0.187	-0.020
-448.909	-54.423	0.053	-0.024
-447.895	-58.260	0.061	-0.027
-446.880	221.086	0.012	-0.019
-445.865	515.120	0.023	-0.054
-444.851	-156.190	-0.281	0.018
-443.836	-64.817	0.293	-0.118
-442.822	-200.000	-0.031	0.314
-441.807	379.031	-0.097	0.199
-440.792	-200.000	0.028	0.242
-439.778	-176.002	0.342	-0.009
-438.763	111.025	0.094	0.113
-437.749	-200.000	0.006	0.061
-436.734	1.088	-0.298	0.214
-435.719	-113.086	-0.267	-0.053
-434.705	290.260	0.074	0.134
-433.690	772.656	-0.115	0.315
-432.676	136.190	0.147	-0.192
-431.661	800.000	-0.102	0.378
-430.646	192.452	-0.040	0.061
-429.632	-148.497	-0.183	-0.015
-428.617	196.048	-0.110	0.167
-427.603	75.282	0.082	0.087
-426.588	-200.000	0.084	0.423
-425.573	-117.867	0.173	0.031
-424.559	54.103	-0.154	-0.148
-423.544	-11.455	-0.357	0.235
-422.530	113.182	0.241	-0.292
-421.515	-70.754	0.315	0.119
-420.500	-14.265	-0.298	0.192
-419.486	693.890	-0.041	-0.108
-418.471	156.099	-0.198	0.273
-417.457	157.729	-0.018	-0.025
-416.442	-200.000	0.012	0.109
-415.428	-157.020	-0.069	-0.004
-414.413	76.696	-0.242	-0.257
-413.398	-67.579	0.213	0.083
-412.384	140.321	0.181	-0.239
-411.369	-1.025	-0.187	-0.132
-410.355	-200.000	-0.087	0.438
-409.340	-175.813	-0.140	-0.004
-408.325	-67.299	-0.373	-0.147
-407.311	-200.000	0.038	-0.290
-406.296	85.869	0.060	-0.066
-405.282	162.351	-0.058	-0.082
-404.267	110.781	0.129	0.155
-403.252	-36.851	0.235	-0.126
-402.238	61.297	-0.125	0.125
-401.223	209.140	-0.109	-0.171
-400.209	-200.000	0.006	-0.330
-399.194	-34.407	-0.255	0.140
-398.179	-200.000	0.006	-0.214
-397.165	-177.348	0.164	-0.004
-396.150	177.393	0.101	0.147
-395.136	800.000	-0.083	-0.284
-394.121	-50.175	0.059	0.028
-393.106	-9.350	-0.309	-0.206
-392.092	100.215	-0.314	-0.364
-391.077	19.799	0.057	0.045
-390.063	33.829	0.243	-0.211
-389.048	118.769	0.223	-0.275
-388.033	800.000	0.024	0.075
-387.019	-39.347	0.293	-0.153
-386.004	-66.220	-0.266	0.106
-384.990	-200.000	0.022	0.134
-383.975	-109.596	0.246	-0.052
-382.960	22.524	0.194	-0.158
-381.946	-19.309	0.063	-0.039
-380.931	-62.035	-0.272	0.113
-379.917	-50.325	-0.325	-0.153
-378.902	-127.332	-0.424	0.062
-377.888	-200.000	0.051	-0.531
-376.873	315.961	-0.040	-0.076
-375.858	800.000	-0.007	0.023
-374.844	-173.452	-0.183	-0.006
-373.829	50.645	-0.119	-0.113
-372.815	486.949	-0.094	-0.213
-371.800	-52.007	-0.104	0.048
-370.785	-200.000	0.073	-0.372
-369.771	93.048	-0.124	0.140
-368.756	-142.964	0.474	0.046
-367.742	-23.148	0.212	-0.127
-366.727	242.300	-0.168	-0.281
-365.712	-23.932	-0.129	-0.077
-364.698	-82.307	0.243	0.079
-363.683	220.728	0.136	-0.218
-362.669	-200.000	-0.008	-0.070
-361.654	-200.000	0.019	-0.315
-360.639	-200.000	-0.016	-0.082
-359.625	-43.473	-0.365	0.184
-358.610	181.045	0.122	0.178
-357.596	52.862	0.144	0.138
-356.581	-158.794	-0.246	0.014
-355.566	-22.190	0.257	0.155
-354.552	-141.222	-0.468	0.048
-353.537	41.516	0.179	-0.162
-352.523	800.000	-0.084	0.342
-351.508	49.429	-0.034	0.032
-350.493	-200.000	-0.060	0.331
-349.479	-64.140	0.267	-0.108
-348.464	-34.108	-0.216	-0.119
-347.450	96.774	-0.148	0.169
-346.435	232.713	0.255	0.417
-345.420	-132.229	-0.272	-0.035
-344.406	-6.555	0.187	0.127
-343.391	-200.000	-0.005	0.043
-342.377	542.399	-0.129	-0.306
-341.362	800.000	0.058	-0.211
-340.348	416.551	0.127	-0.270
-339.333	72.617	0.344	0.358
-338.318	39.459	-0.199	-0.178
-337.304	-19.712	-0.236	-0.145
-336.289	-17.114	-0.180	0.113
-335.275	97.574	0.056	0.064
-334.260	-105.631	-0.166	-0.037
-333.245	-116.228	0.187	0.035
-332.231	-35.452	0.133	-0.072
-331.216	26.611	0.168	-0.140
-330.202	-92.127	-0.254	0.071
-329.187	-200.000	-0.007	0.297
-328.172	-51.480	-0.286	0.133
-327.158	485.154	0.034	0.077
-326.143	-200.000	0.003	-0.443
-325.129	-200.000	0.006	0.327
-324.114	800.000	0.044	0.159
-323.099	577.586	0.107	0.261
-322.085	77.894	0.097	0.103
-321.070	481.344	-0.067	0.152
-320.056	-200.000	-0.014	-0.141
-319.041	6.288	-0.187	0.138
-318.026	-200.000	-0.059	0.284
-317.012	-200.000	0.006	0.165
-315.997	800.000	-0.020	0.059
-314.983	159.949	0.037	0.051
-313.968	752.399	0.030	0.081
-312.953	-84.209	-0.293	0.093
-311.939	632.331	-0.177	0.446
-310.924	104.217	0.175	0.205
-309.910	529.354	0.024	0.056
-308.895	191.465	-0.179	0.269
-307.880	88.375	-0.164	0.181
-306.866	753.613	0.079	-0.211
-305.851	51.951	-0.096	0.091
-304.837	-100.139	-0.117	0.029
-303.822	800.000	0.090	0.291
-302.807	800.000	-0.034	0.100
-301.793	296.476	-0.134	0.244
-300.778	-48.749	-0.079	0.038
-299.764	39.560	0.137	-0.122
-298.749	-76.885	0.271	-0.094
-297.735	800.000	-0.042	-0.169
-296.720	-83.863	-0.106	-0.034
-295.705	42.351	0.230	-0.208
-294.691	-57.144	-0.138	0.060
-293.676	144.648	0.097	0.129
-292.662	-200.000	-0.015	-0.265
-291.647	132.310	0.319	0.409
-290.632	27.467	0.199	0.166
-289.618	-148.519	0.241	-0.020
-288.603	-200.000	0.349	-0.001
-287.589	-75.676	-0.205	-0.073
-286.574	546.127	-0.033	0.078
-285.559	280.605	0.167	-0.297
-284.545	27.214	-0.256	0.214
-283.530	-99.120	-0.187	-0.047
-282.516	291.566	-0.035	0.063
-281.501	187.557	0.159	0.235
-280.486	-1.401	-0.127	0.089
-279.472	271.094	-0.320	-0.560
-278.457	-200.000	0.003	-0.051
-277.443	239.569	-0.057	-0.095
-276.428	-200.000	-0.006	-0.331
-275.413	-131.670	0.062	0.008
-274.399	110.427	0.183	-0.219
-273.384	-200.000	0.011	-0.204
-272.370	-200.000	0.028	0.351
-271.355	-88.129	0.101	0.030
-270.340	-84.179	-0.176	0.055
-269.326	-17.721	-0.200	0.125
-268.311	147.102	0.180	0.241
-267.297	-200.000	0.013	0.110
-266.282	-171.004	-0.380	-0.013
-265.267	580.772	-0.141	0.343
-264.253	-131.740	-0.228	0.030
-263.238	-200.000	-0.027	0.276
-262.224	171.752	0.063	0.090
-261.209	-47.220	-0.084	-0.041
-260.195	180.657	-0.060	0.088
-259.180	-82.634	-0.262	0.084
-258.165	-65.709	0.313	0.125
-257.151	-130.524	0.134	-0.018
-256.136	170.419	0.181	-0.257
-255.122	-125.118	-0.214	-0.033
-254.107	-200.000	-0.001	-0.361
-253.092	118.201	0.258	0.316
-252.078	-121.662	0.342	0.056
-251.063	-149.143	-0.373	-0.030
-250.049	95.685	0.229	0.260
-249.034	705.673	-0.082	0.216
-248.019	-73.919	0.404	-0.146
-247.005	-200.000	-0.115	-0.506
-245.990	-1.561	-0.252	-0.176
-244.976	-200.000	-0.030	-0.167
-243.961	-69.132	-0.310	0.119
-242.946	350.610	0.178	0.349
-241.932	233.934	-0.049	0.080
-240.917	-200.000	0.023	-0.213
-239.903	222.153	0.271	-0.433
-238.888	-56.199	0.145	-0.064
-237.873	-200.000	0.029	-0.169
-236.859	34.840	0.103	-0.089
-235.844	1.269	-0.174	0.124
-234.830	-104.290	0.147	0.034
-233.815	4.138	-0.154	-0.112
-232.800	-39.798	0.128	0.067
-231.786	800.000	0.112	-0.413
-230.771	-95.212	-0.464	0.124
-229.757	-142.244	0.222	-0.022
-228.742	213.843	-0.166	-0.260
-227.727	-36.491	0.116	0.062
-226.713	136.704	-0.218	0.282
-225.698	624.465	0.009	0.023
-224.684	35.983	0.253	0.221
-223.669	418.308	0.083	-0.177
-222.655	171.189	0.213	-0.303
-221.640	631.719	-0.096	-0.241
-220.625	-148.579	-0.255	-0.021
-219.611	-110.676	0.204	-0.042
-218.596	476.883	-0.062	0.138
-217.582	-200.000	-0.013	-0.224
-216.567	-200.000	0.025	-0.131
-215.552	305.260	-0.017	0.031
-214.538	-95.852	0.132	0.035
-213.523	736.698	0.040	0.107
-212.509	-31.452	-0.346	-0.193
-211.494	578.223	0.092	-0.222
-210.479	-33.629	0.210	-0.115
-209.465	37.085	0.164	0.144
-208.450	-121.703	0.159	-0.026
-207.436	-200.000	0.052	0.258
-206.421	454.508	0.055	-0.122
-205.406	800.000	-0.073	0.270
-204.392	800.000	-0.034	0.128
-203.377	-175.299	0.110	0.003
-202.363	-200.000	0.003	0.013
-201.348	-137.821	0.125	0.014
-200.333	6.037	0.159	-0.116
-199.319	47.950	0.050	-0.046
-198.304	-11.917	-0.101	0.066
-197.290	-200.000	-0.020	0.445
-196.275	-84.974	-0.018	0.006
-195.260	-133.188	0.378	0.047
-194.246	-78.664	0.251	-0.085
-193.231	-18.079	-0.284	0.176
-192.217	144.722	-0.088	0.117
-191.202	118.216	0.133	-0.162
-190.187	304.865	-0.070	0.130
-189.173	259.048	-0.018	-0.032
-188.158	411.476	-0.107	-0.225
-187.144	-200.000	0.025	-0.137
-186.129	-127.561	-0.058	-0.008
-185.114	254.862	-0.052	-0.089
-184.100	-84.797	0.155	-0.048
-183.085	-142.277	-0.321	0.031
-182.071	-8.758	0.208	-0.138
-181.056	-159.987	-0.280	0.015
-180.042	-140.700	0.351	-0.036
-179.027	800.000	-0.088	0.335
-178.012	2.677	0.171	0.123
-176.998	-97.282	0.110	-0.028
-175.983	-28.861	-0.335	0.191
-174.969	-1.897	0.091	0.064
-173.954	585.796	0.099	0.242
-172.939	-2.944	0.226	0.156
-171.925	53.841	0.113	-0.107
-170.910	-133.683	0.056	0.007
-169.896	84.852	0.132	0.143
-168.881	-195.362	-0.147	0.001
-167.866	-200.000	0.325	-0.001
-166.852	-32.807	0.074	-0.041
-165.837	-17.659	-0.062	-0.039
-164.823	-139.004	-0.307	0.033
-163.808	62.976	-0.188	0.187
-162.793	542.946	-0.053	0.125
-161.779	-100.586	0.352	-0.086
-160.764	800.000	-0.064	0.245
-159.750	-103.581	0.278	0.065
-158.735	-200.000	0.071	-0.317
-157.720	-200.000	-0.019	0.183
-156.706	800.000	0.042	0.170
-155.691	800.000	-0.132	-0.459
-154.677	461.231	0.141	-0.311
-153.662	-97.321	-0.358	-0.092
-152.647	-106.508	0.370	0.082
-151.633	800.000	0.051	-0.141
-150.618	424.049	-0.054	-0.116
-149.604	272.306	-0.223	0.390
-148.589	-200.000	0.019	0.334
-147.574	-12.600	0.073	0.047
-146.560	-44.908	-0.215	-0.106
-145.545	208.650	-0.183	-0.282
-144.531	680.500	-0.040	0.102
-143.516	760.514	-0.047	-0.126
-142.502	678.674	0.091	0.235
-141.487	249.356	-0.027	-0.045
-140.472	800.000	-0.064	0.188
-139.458	-23.481	0.258	-0.153
-138.443	561.695	0.024	-0.057
-137.429	-127.467	0.151	0.022
-136.414	800.000	0.124	0.386
-135.399	-200.000	0.007	0.298
-134.385	800.000	0.024	-0.074
-133.370	86.515	-0.111	0.121
-132.356	47.046	0.168	0.154
-131.341	-200.000	0.019	0.608
-130.326	-125.952	-0.181	-0.027
-129.312	115.270	0.197	-0.238
-128.297	-171.109	-0.311	0.010
-127.283	-35.764	-0.258	-0.138
-126.268	-36.279	0.155	-0.083
-125.253	-78.750	-0.130	-0.044
-124.239	-49.692	0.274	-0.129
-123.224	800.000	-0.045	0.140
-122.210	2.551	-0.364	0.260
-121.195	-109.207	-0.275	0.058
