DTS Sentinel unit serial number:	SN413079Multiplexer serial number:	ORYXHardware model number:	OX4-SRSoftware version number:	ORYX F/W v4.00 Oryx Data Collector v3.7.2.0data status	okinstallation	princeton_trtdifferential loss correction	single-endedforward channel	channel 4reverse channel	N/Adate	2019/09/16time	18:49:34forward acquisition time	60.00reverse acquisition time	0.00gamma	496.2192k internal	0.2303k external	0.2303temperature offset calibration	0.9964default loss term (dB/km)	0.3790temperature slope calibration	1.0000multiplexer offset coefficient	1.0000multiplexer slope coefficient	1.0000fibre end	0.00T internal ref (°C)	35.97T ext. ref 1 (°C)	0.08T ext. ref 2 (°C)	29.31length (m)	temperature (°C)	Stokes	anti-Stokes-747.200	-183.337	-0.243	0.004
-746.185	-162.327	0.214	-0.011
-745.171	360.851	0.156	0.318
-744.156	165.256	-0.129	0.185
-743.142	272.930	0.151	0.272
-742.127	564.479	-0.090	0.221
-741.112	-104.981	-0.237	-0.055
-740.098	186.131	0.126	0.191
-739.083	156.169	0.160	0.225
-738.069	800.000	0.168	0.506
-737.054	257.575	-0.217	-0.380
-736.039	290.141	-0.208	-0.385
-735.025	75.387	0.210	0.226
-734.010	87.037	0.155	0.174
-732.996	-200.000	0.002	0.110
-731.981	-23.457	-0.177	0.108
-730.966	-79.853	-0.231	0.079
-729.952	14.613	-0.136	-0.108
-728.937	3.039	-0.294	0.218
-727.923	5.254	-0.105	-0.079
-726.908	-200.000	0.059	-0.405
-725.894	-200.000	0.038	-0.500
-724.879	27.732	0.128	0.110
-723.864	-125.756	0.277	-0.043
-722.850	-74.671	-0.279	-0.102
-721.835	320.091	-0.077	0.148
-720.821	74.916	-0.145	0.155
-719.806	-113.569	-0.359	-0.071
-718.791	-90.287	-0.052	-0.015
-717.777	2.199	-0.151	0.111
-716.762	50.460	-0.024	-0.023
-715.748	-31.913	-0.113	0.065
-714.733	-53.408	0.065	0.030
-713.718	441.876	-0.094	0.209
-712.704	-104.851	-0.099	0.023
-711.689	-200.000	0.049	-0.257
-710.675	-135.256	-0.182	-0.022
-709.660	-99.200	-0.157	0.040
-708.645	-35.685	0.211	0.116
-707.631	-176.687	0.066	0.002
-706.616	327.188	-0.140	-0.272
-705.602	-8.367	0.094	-0.065
-704.587	800.000	-0.033	0.115
-703.572	-148.527	0.196	0.016
-702.558	73.375	0.146	0.156
-701.543	422.279	0.015	-0.033
-700.529	-200.000	0.006	0.052
-699.514	-200.000	0.003	0.199
-698.499	57.427	0.058	0.057
-697.485	128.942	-0.089	0.115
-696.470	-134.392	-0.259	-0.032
-695.456	-136.807	0.215	-0.025
-694.441	44.649	0.072	-0.068
-693.426	135.813	0.097	-0.128
-692.412	-56.439	-0.135	0.061
-691.397	133.232	-0.116	-0.153
-690.383	800.000	0.049	-0.158
-689.368	-200.000	-0.018	0.145
-688.354	-46.095	0.352	-0.176
-687.339	-57.417	0.086	0.038
-686.324	30.524	-0.136	0.118
-685.310	-29.018	-0.180	-0.105
-684.295	92.464	-0.178	-0.204
-683.281	-152.803	0.188	0.014
-682.266	7.898	-0.083	-0.064
-681.251	-158.547	0.289	-0.017
-680.237	-23.550	-0.169	0.103
-679.222	800.000	-0.099	0.434
-678.208	55.766	-0.193	0.190
-677.193	-82.892	-0.123	-0.040
-676.178	-28.907	-0.204	-0.119
-675.164	800.000	0.074	0.230
-674.149	373.519	-0.042	-0.086
-673.135	7.679	-0.194	-0.147
-672.120	377.235	-0.146	0.303
-671.105	-200.000	0.003	-0.263
-670.091	75.819	-0.298	-0.320
-669.076	283.304	0.144	0.263
-668.062	421.693	0.039	0.084
-667.047	375.351	0.059	0.121
-666.032	88.503	0.082	0.093
-665.018	-149.356	0.465	-0.038
-664.003	-200.000	0.021	0.164
-662.989	-105.723	0.060	0.014
-661.974	-16.590	-0.102	0.066
-660.959	85.663	0.200	-0.223
-659.945	474.057	0.069	-0.158
-658.930	-153.352	-0.282	0.020
-657.916	-48.144	0.035	0.017
-656.901	-121.346	-0.266	-0.045
-655.886	434.186	0.059	0.130
-654.872	800.000	0.077	-0.324
-653.857	-16.215	-0.389	-0.251
-652.843	170.308	-0.105	-0.153
-651.828	-200.000	-0.024	-0.184
-650.814	-200.000	0.018	0.086
-649.799	-47.790	0.095	0.047
-648.784	-200.000	0.023	0.291
-647.770	768.154	0.077	0.213
-646.755	13.654	-0.080	-0.063
-645.741	-28.698	-0.053	0.031
-644.726	-200.000	0.002	-0.084
-643.711	-37.160	0.214	-0.116
-642.697	-65.194	0.026	-0.011
-641.682	399.853	0.118	-0.250
-640.668	-136.618	-0.269	0.032
-639.653	40.278	0.211	0.193
-638.638	-4.915	0.049	0.034
-637.624	529.007	-0.059	-0.142
-636.609	-39.014	-0.295	-0.157
-635.595	71.877	-0.268	-0.282
-634.580	587.219	-0.078	0.194
-633.565	202.410	0.215	-0.337
-632.551	-196.201	0.197	-0.001
-631.536	800.000	0.130	-0.384
-630.522	-108.099	-0.262	0.058
-629.507	-127.802	0.075	0.011
-628.492	252.719	-0.065	0.113
-627.478	608.899	-0.169	0.428
-626.463	-39.868	0.269	0.143
-625.449	800.000	-0.114	0.335
-624.434	125.899	-0.188	-0.241
-623.419	97.299	-0.196	-0.228
-622.405	-99.384	-0.164	0.042
-621.390	-85.241	0.283	-0.090
-620.376	207.558	-0.182	-0.288
-619.361	-95.957	0.325	0.088
-618.346	800.000	0.052	0.172
-617.332	800.000	0.027	-0.099
-616.317	69.793	-0.105	-0.110
-615.303	328.021	-0.128	-0.248
-614.288	-32.564	0.494	-0.279
-613.273	800.000	-0.099	0.354
-612.259	-200.000	-0.035	0.202
-611.244	128.693	-0.099	-0.127
-610.230	-159.014	0.146	0.008
-609.215	571.658	0.088	0.218
-608.201	-158.457	0.067	0.004
-607.186	161.945	-0.125	-0.177
-606.171	-44.434	-0.443	0.225
-605.157	-200.000	-0.048	0.236
-604.142	-36.810	0.113	0.062
-603.128	-53.972	0.321	0.148
-602.113	-153.440	0.494	-0.035
-601.098	598.193	-0.058	0.146
-600.084	-105.910	0.149	-0.034
-599.069	-42.923	0.049	0.025
-598.055	-155.038	-0.122	0.008
-597.040	-134.380	-0.353	0.044
-596.025	458.087	-0.088	0.198
-595.011	-94.315	-0.105	0.029
-593.996	44.830	0.219	0.204
-592.982	-96.329	0.297	-0.080
-591.967	34.268	-0.270	-0.239
-590.952	491.814	-0.045	-0.104
-589.938	-200.000	-0.004	-0.339
-588.923	-9.546	-0.247	-0.166
-587.909	144.254	0.143	0.194
-586.894	136.374	-0.270	0.357
-585.879	800.000	-0.044	0.163
-584.865	345.547	0.113	0.224
-583.850	68.449	-0.080	0.083
-582.836	800.000	0.077	0.258
-581.821	22.810	0.471	-0.390
-580.806	38.510	0.100	0.090
-579.792	26.445	0.318	0.269
-578.777	-200.000	0.024	0.287
-577.763	-65.719	-0.142	-0.058
-576.748	651.091	-0.135	0.349
-575.733	-103.682	0.194	-0.046
-574.719	-200.000	0.019	-0.309
-573.704	70.462	0.164	-0.172
-572.690	22.920	-0.287	-0.238
-571.675	-5.892	0.050	-0.035
-570.661	-107.095	0.175	0.039
-569.646	-23.289	-0.133	-0.081
-568.631	-14.616	-0.180	0.117
-567.617	21.027	0.413	-0.339
-566.602	2.972	-0.140	-0.103
-565.588	-200.000	0.002	-0.073
-564.573	800.000	0.046	-0.148
-563.558	169.593	-0.276	-0.398
-562.544	-50.605	-0.054	0.026
-561.529	-200.000	-0.006	0.217
-560.515	64.384	-0.167	0.170
-559.500	68.893	-0.261	-0.271
-558.485	800.000	-0.041	-0.117
-557.471	-123.979	-0.178	-0.028
-556.456	-200.000	0.015	0.282
-555.442	642.234	0.109	0.281
-554.427	286.928	-0.078	-0.142
-553.412	7.222	0.072	-0.054
-552.398	-109.366	0.098	-0.021
-551.383	133.503	-0.184	-0.240
-550.369	-73.057	-0.101	-0.037
-549.354	-28.779	0.263	-0.153
-548.339	-200.000	0.012	0.067
-547.325	-200.000	-0.017	0.134
-546.310	-74.564	0.106	-0.039
-545.296	-131.437	0.052	0.007
-544.281	40.618	0.113	-0.103
-543.266	-111.234	0.117	-0.024
-542.252	34.300	0.186	-0.164
-541.237	192.734	-0.112	-0.170
-540.223	75.343	0.138	0.147
-539.208	800.000	-0.087	-0.293
-538.193	106.275	-0.143	-0.171
-537.179	-27.379	-0.187	0.110
-536.164	58.267	0.242	0.240
-535.150	-200.000	-0.265	-0.001
-534.135	26.129	0.256	0.216
-533.121	-134.313	0.149	0.018
-532.106	2.033	0.230	-0.168
-531.091	135.718	-0.078	0.102
-530.077	-72.551	0.097	0.036
-529.062	84.290	-0.144	-0.159
-528.048	800.000	-0.062	0.172
-527.033	-200.000	0.040	0.299
-526.018	120.942	-0.090	-0.113
-525.004	368.214	-0.063	-0.128
-523.989	-200.000	0.028	-0.212
-522.975	289.044	0.011	-0.020
-521.960	27.011	-0.207	0.176
-520.945	110.809	0.073	0.088
-519.931	-200.000	-0.011	-0.108
-518.916	-200.000	0.015	-0.133
-517.902	-133.453	0.197	0.025
-516.887	-20.602	0.248	-0.154
-515.872	251.104	-0.104	-0.179
-514.858	800.000	0.053	-0.207
-513.843	1.944	-0.107	-0.078
-512.829	21.403	0.152	0.124
-511.814	-200.000	-0.047	0.447
-510.799	35.179	-0.286	0.253
-509.785	75.271	-0.028	0.029
-508.770	-200.000	0.056	0.293
-507.756	295.743	0.058	0.108
-506.741	-200.000	-0.072	0.581
-505.726	102.029	-0.163	-0.192
-504.712	372.053	-0.172	0.352
-503.697	-63.414	0.273	0.113
-502.683	-144.617	0.182	-0.017
-501.668	6.083	0.251	-0.187
-500.653	356.947	-0.018	-0.036
-499.639	349.154	-0.087	0.174
-498.624	-119.353	-0.049	-0.009
-497.610	27.017	0.191	0.162
-496.595	576.052	0.019	0.046
-495.581	-26.684	0.036	0.022
-494.566	456.827	-0.114	0.256
-493.551	110.499	-0.161	-0.195
-492.537	-52.259	0.275	0.129
-491.522	-139.362	-0.192	-0.021
-490.508	48.406	0.125	-0.118
-489.493	53.045	-0.200	0.193
-488.478	134.476	-0.143	-0.188
-487.464	-200.000	-0.063	-0.428
-486.449	27.717	0.147	0.125
-485.435	-200.000	0.092	0.413
-484.420	-99.719	-0.112	0.028
-483.405	-54.895	0.111	-0.051
-482.391	-55.636	0.144	-0.065
-481.376	189.781	0.099	-0.149
-480.362	-57.210	-0.116	0.052
-479.347	-71.521	0.194	0.073
-478.332	276.073	0.153	0.274
-477.318	265.997	-0.074	0.130
-476.303	-169.410	0.086	-0.003
-475.289	463.865	-0.140	-0.316
-474.274	-200.000	0.022	-0.313
-473.259	-91.181	-0.313	0.090
-472.245	68.941	-0.037	-0.039
-471.230	800.000	0.067	0.270
-470.216	166.078	0.037	-0.053
-469.201	-19.054	0.206	0.129
-468.186	44.522	0.006	-0.006
-467.172	-140.725	0.181	0.019
-466.157	-75.029	-0.176	0.064
-465.143	800.000	0.013	-0.039
-464.128	-39.663	-0.266	-0.140
-463.113	-162.156	0.094	0.005
-462.099	18.450	-0.186	-0.149
-461.084	-149.984	0.138	0.011
-460.070	53.778	0.326	0.315
-459.055	-200.000	0.005	0.348
-458.040	35.628	0.055	0.049
-457.026	-71.510	0.163	-0.061
-456.011	67.565	-0.129	-0.133
-454.997	-200.000	-0.014	-0.310
-453.982	341.810	-0.051	-0.100
-452.968	-69.262	-0.093	-0.036
-451.953	-7.874	0.291	0.198
-450.938	-200.000	0.021	-0.300
-449.924	-141.489	0.182	0.018
-448.909	52.356	-0.234	-0.224
-447.895	-147.196	-0.227	-0.019
-446.880	-31.260	-0.269	0.152
-445.865	213.230	-0.088	-0.140
-444.851	-56.701	0.117	-0.052
-443.836	-193.670	-0.179	-0.002
-442.822	47.435	-0.077	0.072
-441.807	-200.000	0.011	-0.382
-440.792	-200.000	0.041	0.215
-439.778	719.323	-0.086	0.230
-438.763	-75.234	-0.363	0.130
-437.749	23.141	-0.166	-0.137
-436.734	-200.000	-0.011	-0.230
-435.719	1.561	0.190	-0.137
-434.705	800.000	0.017	0.070
-433.690	-88.451	-0.330	0.099
-432.676	800.000	-0.027	0.088
-431.661	603.634	-0.051	-0.129
-430.646	-200.000	0.016	-0.246
-429.632	38.221	-0.071	0.063
-428.617	-200.000	0.041	-0.228
-427.603	-108.044	-0.199	-0.043
-426.588	-133.027	-0.151	-0.019
-425.573	323.481	0.217	0.416
-424.559	-124.546	-0.095	-0.015
-423.544	800.000	0.081	0.272
-422.530	317.206	-0.027	0.052
-421.515	764.531	-0.101	-0.276
-420.500	-46.499	-0.106	-0.052
-419.486	126.545	-0.080	-0.101
-418.471	-94.953	0.214	0.058
-417.457	197.888	0.116	0.178
-416.442	-108.394	-0.402	0.087
-415.428	-70.918	-0.164	-0.062
-414.413	-200.000	-0.055	-0.361
-413.398	-47.666	0.104	0.051
-412.384	256.968	-0.076	-0.132
-411.369	138.706	-0.155	-0.205
-410.355	-200.000	0.021	0.158
-409.340	800.000	0.102	0.352
-408.325	58.653	-0.219	0.216
-407.311	800.000	0.029	-0.110
-406.296	-31.849	-0.048	-0.027
-405.282	-200.000	0.036	0.165
-404.267	-22.805	-0.266	-0.161
-403.252	-115.583	-0.104	0.020
-402.238	-200.000	-0.010	-0.252
-401.223	-5.693	0.371	-0.255
-400.209	-45.469	0.135	0.067
-399.194	-115.935	0.450	0.084
-398.179	219.984	-0.070	-0.113
-397.165	-200.000	0.008	-0.212
-396.150	-116.227	-0.171	-0.032
-395.136	-38.206	-0.213	0.114
-394.121	32.533	-0.069	0.060
-393.106	106.030	-0.154	0.183
-392.092	213.241	0.066	0.105
-391.077	-200.000	0.015	-0.316
-390.063	800.000	0.072	0.271
-389.048	153.911	-0.157	0.217
-388.033	-125.951	-0.042	0.006
-387.019	-200.000	0.057	0.306
-386.004	-46.246	-0.221	0.109
-384.990	800.000	-0.050	-0.215
-383.975	265.157	-0.073	-0.127
-382.960	-86.590	0.042	-0.013
-381.946	431.972	-0.090	-0.197
-380.931	378.716	0.172	0.353
-379.917	206.776	-0.082	-0.129
-378.902	-200.000	-0.034	0.153
-377.888	177.801	-0.052	-0.077
-376.873	-38.754	0.240	0.127
-375.858	-68.446	0.213	-0.083
-374.844	800.000	0.015	-0.043
-373.829	-10.575	0.247	0.164
-372.815	81.111	-0.168	0.182
-371.800	460.538	-0.070	0.156
-370.785	800.000	-0.054	-0.178
-369.771	124.495	-0.240	0.304
-368.756	218.402	-0.141	-0.226
-367.742	-151.351	0.172	-0.013
-366.727	-200.000	0.019	0.164
-365.712	800.000	-0.034	-0.107
-364.698	-57.187	0.081	-0.036
-363.683	-79.144	-0.333	0.113
-362.669	-200.000	0.039	0.217
-361.654	197.233	0.049	0.076
-360.639	-120.982	0.173	0.029
-359.625	58.541	0.251	0.247
-358.610	455.047	-0.021	-0.048
-357.596	660.795	-0.114	-0.295
-356.581	165.442	0.017	-0.024
-355.566	181.722	0.216	-0.319
-354.552	-15.457	0.215	0.138
-353.537	-50.165	-0.142	-0.067
-352.523	166.838	0.161	0.230
-351.508	800.000	0.120	0.357
-350.493	363.688	0.059	-0.118
-349.479	207.102	-0.129	-0.201
-348.464	58.055	0.176	-0.173
-347.450	273.083	0.051	-0.091
-346.435	-78.407	-0.454	-0.156
-345.420	57.689	0.150	0.147
-344.406	-158.744	-0.046	0.003
-343.391	-137.112	-0.276	-0.032
-342.377	245.198	0.235	-0.396
-341.362	800.000	0.125	0.433
-340.348	-106.525	-0.161	0.036
-339.333	-89.666	-0.457	0.134
-338.318	-200.000	0.072	0.395
-337.304	-200.000	0.019	0.132
-336.289	-170.984	-0.353	-0.012
-335.275	-113.095	0.206	-0.041
-334.260	-200.000	-0.013	-0.405
-333.245	-200.000	0.033	-0.502
-332.231	-135.558	0.196	0.023
-331.216	800.000	0.092	-0.328
-330.202	517.896	0.028	-0.066
-329.187	-112.672	0.201	0.040
-328.172	-75.478	-0.267	0.095
-327.158	-138.852	-0.172	-0.019
-326.143	-87.108	-0.345	0.105
-325.129	800.000	0.047	0.159
-324.114	403.315	0.045	0.095
-323.099	270.032	-0.093	-0.163
-322.085	157.620	0.070	0.097
-321.070	-200.000	-0.001	-0.111
-320.056	42.589	-0.166	-0.152
-319.041	107.086	0.149	0.177
-318.026	800.000	0.021	0.074
-317.012	-99.594	-0.466	-0.117
-315.997	-156.304	0.246	-0.015
-314.983	18.772	0.084	0.067
-313.968	333.072	0.027	-0.052
-312.953	291.590	-0.159	-0.290
-311.939	-137.188	0.242	-0.028
-310.924	-80.840	-0.174	-0.058
-309.910	-119.910	0.305	0.052
-308.895	-200.000	-0.009	-0.248
-307.880	800.000	-0.121	0.431
-306.866	25.608	-0.048	0.040
-305.851	800.000	-0.088	0.301
-304.837	-13.233	-0.167	0.109
-303.822	164.986	-0.078	-0.111
-302.807	-66.000	-0.082	-0.033
-301.793	-58.398	0.358	-0.156
-300.778	7.033	-0.107	-0.080
-299.764	260.539	0.052	-0.090
-298.749	479.347	0.072	0.162
-297.735	-200.000	-0.008	0.054
-296.720	-92.655	0.240	-0.067
-295.705	-167.868	-0.111	-0.004
-294.691	184.950	0.070	-0.104
-293.676	-7.499	0.278	0.188
-292.662	800.000	-0.071	0.198
-291.647	468.484	-0.081	0.183
-290.632	-164.606	0.147	0.007
-289.618	135.310	0.111	-0.145
-288.603	-197.401	-0.329	-0.002
-287.589	-45.331	0.150	0.074
-286.574	-44.770	0.054	0.027
-285.559	-139.883	-0.258	-0.027
-284.545	800.000	-0.091	-0.374
-283.530	22.296	-0.114	0.093
-282.516	-157.787	-0.312	-0.019
-281.501	-103.835	0.101	0.024
-280.486	-13.805	0.360	-0.233
-279.472	-200.000	0.000	-0.025
-278.457	71.484	0.229	0.238
-277.443	-166.105	-0.190	-0.008
-276.428	97.655	-0.169	0.194
-275.413	-167.469	-0.368	-0.015
-274.399	-200.000	0.014	-0.107
-273.384	-141.461	-0.139	0.014
-272.370	-118.559	0.255	0.045
-271.355	-161.845	0.153	-0.008
-270.340	-200.000	0.010	0.204
-269.326	-0.681	-0.192	0.136
-268.311	16.280	-0.050	-0.039
-267.297	-170.973	0.338	0.012
-266.282	-56.437	-0.197	0.087
-265.267	-200.000	0.016	-0.116
-264.253	-175.691	0.352	-0.009
-263.238	-200.000	0.017	-0.076
-262.224	-10.311	0.258	0.171
-261.209	-7.791	-0.054	0.036
-260.195	235.050	0.060	0.099
-259.180	-200.000	-0.060	-0.338
-258.165	5.517	0.287	-0.212
-257.151	36.858	0.293	-0.258
-256.136	-200.000	0.003	-0.108
-255.122	308.021	-0.205	0.383
-254.107	238.989	-0.046	-0.077
-253.092	800.000	0.095	0.358
-252.078	-23.735	-0.129	0.077
-251.063	294.413	-0.022	-0.040
-250.049	292.814	0.160	-0.292
-249.034	109.920	0.133	-0.159
-248.019	-200.000	0.053	-0.282
-247.005	144.255	-0.161	0.215
-245.990	668.204	-0.113	0.291
-244.976	322.065	-0.046	-0.088
-243.961	-68.828	0.032	-0.012
-242.946	800.000	-0.158	0.460
-241.932	500.444	0.086	-0.199
-240.917	23.749	-0.323	-0.265
-239.903	-200.000	-0.014	0.432
-238.888	304.009	0.039	0.073
-237.873	531.548	0.047	-0.111
-236.859	12.810	-0.177	-0.137
-235.844	-99.853	-0.179	-0.045
-234.830	-200.000	-0.046	0.208
-233.815	-66.408	0.149	-0.059
-232.800	311.316	0.135	0.253
-231.786	-102.050	-0.121	0.029
-230.771	800.000	-0.098	-0.278
-229.757	165.734	-0.233	-0.329
-228.742	-11.222	0.166	-0.109
-227.727	-23.063	-0.164	0.099
-226.713	800.000	0.005	0.019
-225.698	9.942	-0.121	-0.091
-224.684	-48.857	0.162	-0.077
-223.669	66.741	0.210	-0.213
-222.655	800.000	-0.038	0.130
-221.640	-11.869	-0.263	0.172
-220.625	-115.828	-0.030	-0.006
-219.611	-11.824	0.296	-0.194
-218.596	-147.176	-0.038	0.003
-217.582	800.000	-0.121	-0.425
-216.567	654.426	0.132	-0.338
-215.552	-79.991	0.109	0.036
-214.538	-181.282	-0.108	-0.002
-213.523	-19.966	-0.489	0.301
-212.509	3.937	-0.336	-0.245
-211.494	-154.135	-0.145	-0.010
-210.479	-32.265	-0.184	0.103
-209.465	19.550	0.085	-0.068
-208.450	569.486	0.116	-0.280
-207.436	800.000	-0.033	-0.098
-206.421	-6.109	-0.201	-0.137
-205.406	-111.645	-0.196	0.040
-204.392	-200.000	-0.016	-0.092
-203.377	392.748	0.141	0.293
-202.363	-151.284	0.218	0.016
-201.348	-2.698	-0.221	0.154
-200.333	-200.000	0.014	0.204
-199.319	-200.000	0.068	0.426
-198.304	-200.000	0.059	-0.293
-197.290	36.777	-0.066	-0.058
-196.275	-101.633	-0.263	0.064
-195.260	139.333	0.248	0.325
-194.246	449.394	-0.082	0.181
-193.231	-99.485	0.169	0.042
-192.217	-200.000	-0.026	0.492
-191.202	-200.000	0.037	-0.199
-190.187	795.287	-0.096	-0.263
-189.173	-200.000	-0.016	-0.170
-188.158	-150.737	0.111	0.008
-187.144	-123.484	0.191	-0.030
-186.129	-200.000	-0.097	-0.437
-185.114	448.447	-0.188	0.414
-184.100	-200.000	-0.010	-0.203
-183.085	214.772	0.153	0.241
-182.071	-147.462	0.217	-0.018
-181.056	800.000	-0.087	0.323
-180.042	-200.000	-0.001	0.028
-179.027	7.728	0.048	0.036
-178.012	48.225	-0.092	-0.086
-176.998	800.000	0.009	0.033
-175.983	450.850	-0.085	0.186
-174.969	-200.000	0.057	-0.288
-173.954	22.084	0.168	0.137
-172.939	-85.744	0.202	0.062
-171.925	387.880	0.102	-0.211
-170.910	221.994	0.092	-0.147
-169.896	74.098	-0.124	-0.130
-168.881	161.022	0.219	0.304
-167.866	65.766	0.177	-0.179
-166.852	-28.513	0.147	0.084
-165.837	102.460	0.269	0.313
-164.823	-1.410	0.394	-0.277
-163.808	-200.000	0.013	-0.277
-162.793	469.363	0.212	-0.474
-161.779	87.082	0.223	-0.246
-160.764	-87.239	0.174	-0.053
-159.750	800.000	-0.070	-0.306
-158.735	-106.548	0.219	-0.049
-157.720	-200.000	0.003	-0.100
-156.706	-90.825	0.067	-0.019
-155.691	-200.000	0.014	0.074
-154.677	-59.227	0.019	0.008
-153.662	-200.000	-0.024	0.320
-152.647	800.000	-0.003	-0.012
-151.633	800.000	0.018	-0.062
-150.618	9.200	0.179	0.134
-149.604	-200.000	0.005	0.206
-148.589	158.555	0.040	-0.056
-147.574	-64.099	0.119	0.048
-146.560	97.134	-0.139	-0.159
-145.545	-61.632	-0.110	-0.046
-144.531	-177.942	0.461	-0.011
-143.516	170.421	-0.106	0.150
-142.502	-200.000	-0.086	0.477
-141.487	-61.666	0.370	0.154
-140.472	180.522	0.092	-0.134
-139.458	-25.927	0.095	0.056
-138.443	367.212	0.063	0.126
-137.429	220.623	-0.282	-0.450
-136.414	-187.910	0.182	-0.002
-135.399	199.617	0.152	-0.232
-134.385	-118.507	0.199	-0.035
-133.370	-200.000	0.001	-0.172
-132.356	50.408	-0.104	-0.098
-131.341	-52.278	0.136	0.063
-130.326	523.269	-0.076	-0.177
-129.312	-82.011	0.131	0.042
-128.297	197.818	0.142	-0.215
-127.283	-166.354	0.431	0.018
-126.268	541.146	-0.180	0.427
-125.253	800.000	0.049	0.204
-124.239	777.636	0.126	0.343
-123.224	-79.424	-0.181	-0.061
-122.210	-101.427	-0.054	-0.013
-121.195	769.652	0.054	-0.146
