DTS Sentinel unit serial number:	SN413079Multiplexer serial number:	ORYXHardware model number:	OX4-SRSoftware version number:	ORYX F/W v4.00 Oryx Data Collector v3.7.2.0data status	okinstallation	princeton_trtdifferential loss correction	single-endedforward channel	channel 4reverse channel	N/Adate	2019/09/13time	19:37:34forward acquisition time	60.00reverse acquisition time	0.00gamma	496.2192k internal	0.2315k external	0.2315temperature offset calibration	1.0135default loss term (dB/km)	0.3790temperature slope calibration	1.0000multiplexer offset coefficient	1.0000multiplexer slope coefficient	1.0000fibre end	0.00T internal ref (°C)	30.48T ext. ref 1 (°C)	3.23T ext. ref 2 (°C)	24.41length (m)	temperature (°C)	Stokes	anti-Stokes-747.200	580.302	0.073	0.180
-746.185	703.119	0.080	0.213
-745.171	-123.628	0.325	-0.052
-744.156	-167.507	0.044	-0.002
-743.142	179.094	-0.153	0.227
-742.127	-136.487	-0.346	0.041
-741.112	659.054	0.058	0.152
-740.098	16.998	-0.223	0.179
-739.083	-119.484	-0.299	-0.053
-738.069	-101.686	-0.066	-0.016
-737.054	-29.235	-0.115	0.067
-736.039	-51.152	-0.097	-0.046
-735.025	-2.096	-0.100	-0.071
-734.010	0.010	0.153	0.111
-732.996	-135.156	-0.203	0.025
-731.981	-76.690	0.209	-0.074
-730.966	152.061	0.098	0.136
-729.952	161.994	0.109	-0.155
-728.937	-200.000	-0.003	0.168
-727.923	327.780	-0.126	-0.244
-726.908	-153.545	-0.264	-0.019
-725.894	-127.882	-0.455	-0.066
-724.879	-127.642	-0.257	-0.038
-723.864	-200.000	0.002	0.217
-722.850	-200.000	0.018	0.269
-721.835	-126.610	-0.201	0.030
-720.821	57.382	0.223	0.221
-719.806	537.443	0.067	-0.162
-718.791	-43.570	-0.232	0.118
-717.777	800.000	-0.086	0.247
-716.762	-4.264	0.223	-0.156
-715.748	-2.347	-0.094	-0.067
-714.733	733.126	0.042	0.115
-713.718	25.387	-0.271	0.228
-712.704	-128.708	-0.274	-0.039
-711.689	800.000	-0.104	-0.304
-710.675	-200.000	-0.001	-0.151
-709.660	351.070	-0.214	0.428
-708.645	144.068	0.135	0.182
-707.631	-96.998	0.403	-0.107
-706.616	50.937	-0.211	0.202
-705.602	532.918	0.125	-0.299
-704.587	-137.911	-0.151	-0.017
-703.572	-200.000	-0.029	0.227
-702.558	-106.058	0.192	-0.044
-701.543	-130.087	-0.238	-0.033
-700.529	-200.000	-0.003	0.077
-699.514	-200.000	-0.007	0.081
-698.499	-56.874	-0.081	0.036
-697.485	800.000	0.098	-0.375
-696.470	546.535	-0.075	-0.181
-695.456	76.961	-0.220	-0.236
-694.441	356.095	-0.126	-0.254
-693.426	36.448	0.192	-0.171
-692.412	10.914	0.192	-0.149
-691.397	77.404	0.204	-0.220
-690.383	-14.174	-0.235	-0.153
-689.368	-200.000	-0.039	0.257
-688.354	194.139	-0.082	-0.125
-687.339	-133.367	-0.071	0.009
-686.324	82.593	0.167	-0.183
-685.310	-200.000	-0.045	-0.300
-684.295	405.636	0.089	0.189
-683.281	300.417	0.264	-0.493
-682.266	-200.000	-0.024	0.238
-681.251	800.000	-0.066	-0.197
-680.237	-200.000	0.031	0.180
-679.222	-69.698	0.133	0.051
-678.208	-48.016	0.227	-0.111
-677.193	-1.184	0.166	-0.119
-676.178	0.752	0.121	0.088
-675.164	-158.862	0.275	0.016
-674.149	-30.457	-0.321	0.184
-673.135	-88.265	0.310	0.094
-672.120	70.380	-0.072	-0.075
-671.105	265.858	-0.061	-0.107
-670.091	-169.692	0.159	0.006
-669.076	-48.898	-0.153	0.074
-668.062	18.772	0.178	0.144
-667.047	-102.590	-0.259	0.062
-666.032	-200.000	-0.038	0.348
-665.018	-200.000	-0.001	-0.042
-664.003	134.687	0.192	-0.252
-662.989	-200.000	0.025	-0.140
-661.974	555.684	-0.130	0.316
-660.959	-48.408	0.372	0.181
-659.945	-170.049	0.284	-0.010
-658.930	-127.313	-0.390	-0.057
-657.916	196.834	-0.200	0.309
-656.901	-21.401	0.139	-0.085
-655.886	4.514	-0.126	0.093
-654.872	-200.000	-0.003	0.048
-653.857	-98.583	0.209	-0.054
-652.843	152.101	0.241	-0.332
-651.828	-107.676	-0.204	0.045
-650.814	-34.424	0.129	0.071
-649.799	127.809	0.131	-0.168
-648.784	-197.057	0.436	-0.003
-647.770	800.000	0.070	0.230
-646.755	-200.000	0.009	-0.051
-645.741	164.400	-0.102	0.145
-644.726	250.090	-0.099	-0.169
-643.711	240.573	0.129	-0.217
-642.697	800.000	-0.111	-0.321
-641.682	121.098	0.032	0.040
-640.668	800.000	0.032	0.124
-639.653	636.570	0.124	0.318
-638.638	-200.000	0.027	-0.190
-637.624	800.000	0.085	0.243
-636.609	729.589	-0.075	0.202
-635.595	301.566	-0.102	0.189
-634.580	-161.966	0.472	-0.024
-633.565	621.995	0.190	0.482
-632.551	-104.735	0.213	-0.049
-631.536	575.703	-0.126	-0.310
-630.522	800.000	-0.053	-0.225
-629.507	800.000	0.097	-0.379
-628.492	252.871	0.140	-0.240
-627.478	-118.162	-0.383	0.069
-626.463	-118.796	0.308	-0.055
-625.449	69.705	-0.084	-0.087
-624.434	331.447	-0.071	-0.138
-623.419	-84.812	-0.160	-0.051
-622.405	-200.000	-0.160	-0.000
-621.390	800.000	0.094	0.275
-620.376	40.382	0.328	-0.298
-619.361	61.508	0.234	0.235
-618.346	27.360	-0.103	0.088
-617.332	-131.913	-0.247	0.032
-616.317	439.794	-0.041	0.089
-615.303	589.750	-0.079	0.197
-614.288	8.721	-0.088	-0.067
-613.273	771.808	0.049	0.134
-612.259	-145.040	-0.389	0.036
-611.244	39.502	0.295	0.266
-610.230	305.427	0.064	-0.119
-609.215	800.000	-0.054	0.159
-608.201	-103.125	0.036	-0.009
-607.186	330.121	-0.052	0.101
-606.171	-200.000	-0.001	-0.108
-605.157	-129.894	-0.286	-0.040
-604.142	79.539	0.225	0.243
-603.128	746.732	-0.034	-0.091
-602.113	-56.120	0.134	0.060
-601.098	800.000	-0.047	-0.163
-600.084	800.000	0.069	-0.293
-599.069	-114.725	0.064	-0.012
-598.055	-6.734	0.210	-0.144
-597.040	155.369	0.170	-0.235
-596.025	5.607	-0.210	0.156
-595.011	284.924	-0.172	-0.311
-593.996	-159.678	0.128	-0.007
-592.982	-14.295	0.209	0.135
-591.967	-200.000	0.033	-0.197
-590.952	161.716	0.136	0.192
-589.938	141.670	0.143	-0.191
-588.923	-142.508	0.073	-0.007
-587.909	800.000	-0.055	-0.185
-586.894	-47.498	0.221	-0.108
-585.879	793.190	0.145	0.402
-584.865	441.174	0.136	-0.300
-583.850	800.000	0.029	0.107
-582.836	-72.283	0.108	0.040
-581.821	-61.288	-0.092	0.039
-580.806	-127.554	-0.132	-0.019
-579.792	-37.643	0.155	0.083
-578.777	-84.647	-0.151	0.048
-577.763	800.000	-0.040	-0.153
-576.748	248.490	0.123	0.209
-575.733	-101.815	-0.172	-0.042
-574.719	-75.820	-0.308	0.110
-573.704	-68.738	0.060	-0.023
-572.690	-200.000	-0.015	0.194
-571.675	583.885	-0.110	-0.271
-570.661	133.280	-0.222	0.289
-569.646	224.787	-0.071	-0.116
-568.631	8.274	-0.151	-0.114
-567.617	671.116	0.014	-0.035
-566.602	800.000	0.048	-0.209
-565.588	-6.183	-0.365	-0.251
-564.573	-78.658	-0.136	0.047
-563.558	242.751	0.162	-0.274
-562.544	-96.285	0.135	-0.036
-561.529	161.354	0.127	-0.178
-560.515	-195.989	0.207	-0.001
-559.500	-154.738	0.427	-0.028
-558.485	800.000	0.069	-0.301
-557.471	-112.247	-0.338	0.068
-556.456	435.126	0.087	0.191
-555.442	264.866	-0.142	0.249
-554.427	-13.373	-0.440	-0.287
-553.412	-13.528	-0.343	-0.224
-552.398	800.000	-0.044	-0.146
-551.383	-57.833	0.157	-0.069
-550.369	-21.964	-0.032	0.019
-549.354	-200.000	0.014	0.113
-548.339	-107.440	-0.179	-0.039
-547.325	436.225	0.119	0.260
-546.310	610.201	-0.001	-0.001
-545.296	-40.411	-0.188	-0.098
-544.281	-91.654	0.292	0.084
-543.266	-1.989	0.209	0.148
-542.252	79.856	0.040	0.043
-541.237	-66.792	0.114	-0.045
-540.223	800.000	0.044	-0.190
-539.208	730.638	-0.051	0.137
-538.193	-54.553	0.210	0.095
-537.179	-200.000	-0.010	-0.126
-536.164	199.773	-0.030	-0.047
-535.150	-200.000	0.020	-0.182
-534.135	19.857	-0.164	-0.133
-533.121	334.850	-0.165	-0.322
-532.106	800.000	0.064	0.250
-531.091	-23.640	0.070	0.042
-530.077	-200.000	-0.002	-0.139
-529.062	615.502	0.052	0.130
-528.048	75.834	0.123	-0.130
-527.033	23.357	0.021	0.017
-526.018	-41.164	0.142	-0.074
-525.004	-20.571	-0.074	-0.046
-523.989	-132.405	0.406	-0.053
-522.975	-19.405	-0.297	0.185
-521.960	-128.397	0.130	-0.019
-520.945	-127.240	-0.129	0.019
-519.931	144.172	0.135	0.180
-518.916	379.923	-0.087	0.179
-517.902	37.610	-0.174	0.155
-516.887	98.202	-0.207	0.239
-515.872	-22.885	-0.268	-0.162
-514.858	-20.402	-0.165	0.102
-513.843	-186.562	0.175	-0.003
-512.829	-5.340	-0.254	-0.175
-511.814	-13.415	-0.183	-0.119
-510.799	-22.952	0.381	-0.231
-509.785	47.782	0.287	-0.269
-508.770	236.401	-0.061	0.102
-507.756	-200.000	0.046	-0.394
-506.741	-103.182	-0.369	-0.087
-505.726	16.780	-0.223	-0.177
-504.712	-29.978	0.180	0.103
-503.697	263.770	-0.196	0.342
-502.683	-35.876	-0.098	0.053
-501.668	-200.000	-0.030	0.396
-500.653	800.000	-0.021	0.068
-499.639	-200.000	0.005	0.132
-498.624	-55.107	-0.210	-0.095
-497.610	-200.000	0.025	-0.129
-496.595	-11.542	0.143	-0.094
-495.581	-144.352	0.200	0.019
-494.566	109.927	-0.102	-0.123
-493.551	-121.004	0.145	-0.024
-492.537	264.458	-0.027	0.048
-491.522	-30.221	0.065	0.037
-490.508	-61.076	0.281	0.119
-489.493	399.256	-0.115	-0.242
-488.478	-141.961	0.139	-0.014
-487.464	62.725	0.114	-0.115
-486.449	233.944	0.044	-0.073
-485.435	62.112	0.173	-0.174
-484.420	-36.856	-0.183	0.099
-483.405	-127.037	-0.294	-0.043
-482.391	41.681	0.207	-0.188
-481.376	251.504	-0.038	0.065
-480.362	800.000	-0.053	0.206
-479.347	-200.000	-0.024	0.320
-478.332	270.275	0.157	-0.277
-477.318	800.000	0.012	0.040
-476.303	-84.495	-0.477	-0.151
-475.289	-124.850	-0.172	-0.027
-474.274	278.159	-0.279	0.498
-473.259	-200.000	0.016	0.084
-472.245	-200.000	0.063	0.000
-471.230	613.023	0.028	-0.071
-470.216	-200.000	0.065	0.348
-469.201	-87.014	-0.124	0.038
-468.186	285.909	0.138	-0.250
-467.172	-200.000	-0.041	-0.283
-466.157	-200.000	-0.023	0.225
-465.143	329.579	-0.099	0.190
-464.128	79.498	-0.129	0.139
-463.113	-190.103	0.317	-0.004
-462.099	147.237	0.082	-0.110
-461.084	800.000	-0.046	-0.163
-460.070	-154.199	0.326	0.022
-459.055	538.993	-0.041	-0.097
-458.040	-145.105	0.368	-0.034
-457.026	42.652	0.183	0.167
-456.011	38.360	-0.070	0.062
-454.997	-200.000	-0.009	0.285
-453.982	19.632	0.115	0.092
-452.968	-65.118	0.113	0.046
-451.953	-104.627	0.205	0.047
-450.938	61.414	0.159	0.158
-449.924	800.000	-0.040	-0.140
-448.909	20.766	-0.173	-0.141
-447.895	-191.772	-0.137	-0.001
-446.880	-100.937	-0.288	0.071
-445.865	-200.000	-0.029	-0.196
-444.851	-200.000	0.015	-0.211
-443.836	-200.000	0.012	-0.253
-442.822	1.322	-0.193	0.139
-441.807	-13.886	-0.076	0.049
-440.792	228.957	0.073	0.120
-439.778	-200.000	-0.034	-0.319
-438.763	231.963	0.237	-0.389
-437.749	52.372	-0.090	-0.086
-436.734	689.477	-0.107	0.281
-435.719	-200.000	0.004	-0.261
-434.705	800.000	-0.068	-0.263
-433.690	24.160	0.273	-0.226
-432.676	-65.302	-0.329	-0.133
-431.661	-12.247	-0.198	0.130
-430.646	800.000	0.051	-0.148
-429.632	-200.000	-0.017	0.094
-428.617	-162.933	0.402	-0.020
-427.603	-175.696	-0.296	0.008
-426.588	156.464	0.086	0.118
-425.573	-134.668	-0.281	-0.034
-424.559	-172.771	-0.366	0.011
-423.544	-69.391	-0.270	0.104
-422.530	13.020	0.128	-0.099
-421.515	6.846	-0.236	0.176
-420.500	-200.000	0.081	-0.375
-419.486	-78.569	0.216	0.074
-418.471	45.046	-0.162	-0.149
-417.457	-154.059	0.270	0.018
-416.442	731.329	-0.065	-0.175
-415.428	-120.552	0.200	-0.034
-414.413	38.825	-0.237	-0.212
-413.398	291.843	-0.160	-0.292
-412.384	-137.315	-0.368	-0.042
-411.369	225.798	0.150	-0.242
-410.355	-93.124	-0.131	0.036
-409.340	366.240	0.111	0.224
-408.325	800.000	-0.113	0.452
-407.311	114.256	-0.079	0.096
-406.296	-200.000	0.042	-0.233
-405.282	-14.101	-0.071	0.046
-404.267	-77.845	-0.361	-0.125
-403.252	-7.584	0.093	-0.063
-402.238	187.875	0.099	0.148
-401.223	-200.000	0.002	-0.119
-400.209	-141.012	0.070	0.007
-399.194	800.000	-0.072	0.250
-398.179	-36.207	0.313	0.169
-397.165	660.757	0.039	-0.101
-396.150	-200.000	-0.002	-0.012
-395.136	-106.101	-0.145	-0.033
-394.121	-104.101	0.408	-0.095
-393.106	13.422	-0.169	0.131
-392.092	-200.000	0.005	-0.062
-391.077	94.697	0.032	-0.036
-390.063	22.338	-0.238	0.194
-389.048	54.572	0.165	0.159
-388.033	-77.713	-0.067	0.023
-387.019	-167.330	-0.100	-0.004
-386.004	-15.486	-0.408	0.260
-384.990	-95.899	-0.239	-0.064
-383.975	-114.305	0.191	-0.037
-382.960	-71.250	-0.097	0.036
-381.946	102.158	0.246	-0.287
-380.931	239.263	0.095	0.157
-379.917	239.735	0.158	-0.262
-378.902	-24.656	0.312	-0.185
-377.888	226.980	0.104	0.169
-376.873	-2.823	-0.174	-0.122
-375.858	641.470	0.139	0.353
-374.844	732.324	0.090	0.241
-373.829	138.052	0.216	-0.283
-372.815	800.000	-0.054	0.206
-371.800	185.874	0.074	-0.110
-370.785	6.419	-0.256	-0.190
-369.771	-27.664	0.194	0.113
-368.756	51.672	0.044	0.041
-367.742	48.532	0.191	0.179
-366.727	771.698	-0.125	-0.339
-365.712	-200.000	0.000	-0.050
-364.698	-98.040	0.092	0.024
-363.683	249.013	-0.129	0.217
-362.669	-18.949	0.078	0.048
-361.654	-158.459	0.208	0.012
-360.639	433.878	0.117	0.253
-359.625	66.404	-0.214	0.217
-358.610	106.885	-0.012	0.015
-357.596	127.208	0.067	0.084
-356.581	90.490	0.070	-0.078
-355.566	-200.000	0.005	0.029
-354.552	-200.000	0.040	0.376
-353.537	-123.778	-0.145	-0.023
-352.523	458.482	0.170	0.376
-351.508	-200.000	0.034	-0.199
-350.493	-19.579	0.365	0.226
-349.479	555.934	0.053	0.128
-348.464	3.212	-0.240	0.174
-347.450	-46.892	0.281	-0.137
-346.435	489.418	-0.126	-0.288
-345.420	90.531	0.149	0.167
-344.406	-142.143	0.016	0.002
-343.391	-162.542	0.280	0.014
-342.377	71.376	-0.185	-0.191
-341.362	-152.015	-0.202	-0.015
-340.348	-200.000	-0.019	0.257
-339.333	-200.000	0.008	-0.087
-338.318	-117.395	0.334	-0.060
-337.304	-44.652	0.103	-0.051
-336.289	-200.000	0.007	0.393
-335.275	105.566	-0.318	-0.375
-334.260	56.782	0.131	-0.127
-333.245	175.472	-0.098	0.142
-332.231	-200.000	0.029	-0.251
-331.216	-96.583	-0.178	0.047
-330.202	91.340	0.106	0.118
-329.187	-166.001	0.034	-0.001
-328.172	231.229	-0.051	0.084
-327.158	-103.173	0.179	0.042
-326.143	-50.350	-0.212	-0.100
-325.129	1.826	0.333	0.239
-324.114	730.098	-0.054	-0.143
-323.099	-18.160	-0.260	0.162
-322.085	99.292	-0.085	0.098
-321.070	-200.000	-0.067	0.369
-320.056	-200.000	0.024	0.157
-319.041	-0.940	-0.124	0.087
-318.026	-78.883	0.135	-0.046
-317.012	75.669	-0.133	-0.140
-315.997	155.821	0.196	0.269
-314.983	-200.000	-0.019	-0.186
-313.968	137.385	0.179	0.234
-312.953	-103.415	0.229	-0.054
-311.939	594.564	0.079	-0.195
-310.924	-48.348	0.200	-0.096
-309.910	800.000	0.070	-0.276
-308.895	-76.062	0.090	0.032
-307.880	574.126	0.104	-0.253
-306.866	800.000	0.044	0.144
-305.851	-34.956	0.100	-0.054
-304.837	-148.186	-0.021	-0.002
-303.822	-49.116	-0.378	0.180
-302.807	-144.139	-0.202	-0.019
-301.793	-151.748	0.190	0.014
-300.778	-73.297	-0.225	-0.082
-299.764	-13.793	-0.342	0.220
-298.749	-13.825	-0.384	-0.247
-297.735	-77.479	-0.107	0.037
-296.720	378.156	-0.106	0.216
-295.705	20.283	-0.070	-0.056
-294.691	91.481	0.272	0.304
-293.676	-200.000	-0.001	-0.056
-292.662	-146.946	0.236	0.020
-291.647	105.112	-0.209	0.246
-290.632	-157.376	-0.380	-0.023
-289.618	154.453	0.097	0.133
-288.603	-200.000	0.032	0.141
-287.589	-127.855	-0.075	-0.011
-286.574	-200.000	0.002	0.058
-285.559	-90.078	-0.224	-0.065
-284.545	-200.000	-0.021	-0.202
-283.530	-94.197	0.358	0.098
-282.516	-9.800	-0.218	-0.145
-281.501	-200.000	-0.066	0.329
-280.486	-25.578	-0.235	-0.138
-279.472	-141.049	0.141	0.014
-278.457	-200.000	0.023	-0.252
-277.443	-34.070	0.246	0.134
-276.428	200.660	-0.094	0.144
-275.413	485.756	0.064	0.144
-274.399	-200.000	0.026	0.146
-273.384	90.921	-0.190	0.212
-272.370	-152.673	-0.098	-0.007
-271.355	-178.427	0.102	0.002
-270.340	-148.533	0.319	0.026
-269.326	31.897	0.107	0.092
-268.311	436.710	0.145	0.314
-267.297	-156.602	-0.296	-0.018
-266.282	570.773	-0.114	0.276
-265.267	-86.464	-0.139	-0.043
-264.253	-137.377	0.057	0.006
-263.238	-105.720	0.111	0.025
-262.224	-152.833	0.309	-0.022
-261.209	300.136	0.164	-0.300
-260.195	-4.758	-0.325	-0.223
-259.180	-72.879	-0.266	-0.097
-258.165	-96.815	0.215	0.056
-257.151	-31.837	-0.113	0.063
-256.136	18.250	-0.152	0.120
-255.122	-200.000	0.016	0.305
-254.107	-78.328	-0.199	-0.068
-253.092	166.988	0.139	0.196
-252.078	800.000	-0.085	0.261
-251.063	-200.000	0.007	0.045
-250.049	-130.964	-0.309	-0.041
-249.034	-57.643	-0.078	0.034
-248.019	5.069	0.227	0.166
-247.005	-200.000	0.041	0.228
-245.990	-134.203	0.334	-0.041
-244.976	-155.176	0.281	-0.018
-243.961	506.222	-0.089	0.206
-242.946	136.968	-0.121	-0.157
-241.932	579.866	0.091	0.222
-240.917	422.760	0.134	0.285
-239.903	-200.000	-0.028	0.421
-238.888	-200.000	-0.057	0.293
-237.873	45.543	-0.087	-0.080
-236.859	62.037	-0.248	-0.245
-235.844	366.285	0.009	0.018
-234.830	-67.154	-0.131	0.051
-233.815	31.315	-0.322	0.274
-232.800	-26.987	-0.066	0.039
-231.786	-136.796	-0.105	-0.012
-230.771	-34.209	-0.252	0.138
-229.757	51.204	-0.241	-0.227
-228.742	-136.303	0.225	-0.026
-227.727	-200.000	0.011	-0.057
-226.713	-173.596	0.079	0.002
-225.698	378.726	0.093	0.189
-224.684	16.994	-0.081	-0.063
-223.669	-47.545	0.136	-0.066
-222.655	679.692	0.055	0.141
-221.640	-200.000	-0.063	-0.421
-220.625	-145.766	0.319	-0.028
-219.611	465.014	-0.041	-0.091
-218.596	-44.381	0.277	0.138
-217.582	37.891	0.080	-0.071
-216.567	-25.847	-0.051	-0.030
-215.552	800.000	0.108	-0.386
-214.538	426.434	-0.081	-0.174
-213.523	-167.820	0.269	-0.011
-212.509	47.500	-0.111	-0.103
-211.494	-12.091	-0.218	-0.142
-210.479	149.477	-0.156	-0.210
-209.465	135.299	0.210	-0.271
-208.450	-200.000	-0.048	-0.208
-207.436	132.712	0.047	0.060
-206.421	800.000	0.006	-0.019
-205.406	117.493	-0.235	-0.287
-204.392	9.416	-0.175	0.131
-203.377	-3.104	0.235	-0.163
-202.363	-200.000	0.001	0.009
-201.348	-106.213	-0.235	-0.052
-200.333	-111.305	0.088	0.018
-199.319	127.969	-0.189	-0.238
-198.304	31.098	0.076	0.065
-197.290	-87.712	0.490	-0.147
-196.275	-91.312	-0.261	0.074
-195.260	249.605	0.164	-0.277
-194.246	-51.412	-0.478	-0.222
-193.231	-27.886	0.227	-0.130
-192.217	161.829	-0.198	-0.275
-191.202	101.030	-0.113	-0.131
-190.187	47.760	-0.281	-0.260
-189.173	800.000	0.153	-0.451
-188.158	43.900	0.164	0.149
-187.144	52.869	0.070	0.066
-186.129	-82.916	0.214	0.068
-185.114	408.237	0.070	-0.147
-184.100	105.767	-0.115	-0.135
-183.085	110.426	-0.191	0.228
-182.071	-200.000	0.013	0.281
-181.056	-125.848	-0.354	-0.053
-180.042	153.315	-0.128	-0.174
-179.027	496.679	0.044	-0.099
-178.012	-93.388	0.313	0.086
-176.998	-200.000	0.011	0.268
-175.983	800.000	0.061	-0.239
-174.969	554.899	0.060	0.143
-173.954	800.000	0.069	-0.243
-172.939	800.000	-0.084	0.243
-171.925	-73.703	0.343	-0.124
-170.910	-14.460	0.039	-0.025
-169.896	-42.008	0.219	-0.111
-168.881	-35.035	-0.159	-0.086
-167.866	649.402	0.045	0.113
-166.852	670.487	0.090	0.232
-165.837	703.261	0.096	0.251
-164.823	-73.431	-0.163	-0.059
-163.808	-200.000	-0.012	0.072
-162.793	-200.000	0.378	0.000
-161.779	-70.483	-0.301	0.113
-160.764	800.000	-0.117	0.447
-159.750	46.502	0.123	-0.113
-158.735	-200.000	-0.173	0.000
-157.720	781.893	-0.045	0.122
-156.706	16.161	0.157	0.123
-155.691	-81.245	0.139	0.045
-154.677	-176.279	-0.211	-0.005
-153.662	631.217	-0.070	-0.177
-152.647	800.000	-0.071	-0.208
-151.633	479.211	-0.155	0.348
-150.618	800.000	0.082	-0.243
-149.604	-159.075	-0.329	-0.018
-148.589	-116.861	0.250	-0.045
-147.574	-132.536	-0.345	0.044
-146.560	165.548	0.095	-0.133
-145.545	-85.301	0.252	-0.078
-144.531	403.322	-0.065	0.135
-143.516	-200.000	0.017	-0.126
-142.502	800.000	-0.052	-0.187
-141.487	-200.000	0.006	-0.085
-140.472	19.133	-0.223	-0.177
-139.458	51.338	-0.192	-0.180
-138.443	-16.754	0.192	-0.120
-137.429	314.718	0.118	0.221
-136.414	-200.000	-0.039	0.251
-135.399	-200.000	0.025	-0.383
-134.385	762.988	0.052	0.140
-133.370	-5.939	-0.218	-0.148
-132.356	-200.000	0.016	-0.176
-131.341	-78.690	0.369	-0.125
-130.326	-27.473	-0.151	-0.087
-129.312	24.344	-0.101	-0.082
-128.297	519.132	-0.123	-0.284
-127.283	-200.000	0.014	0.202
-126.268	88.288	0.128	-0.140
-125.253	-161.960	-0.436	0.022
-124.239	-97.357	0.069	-0.018
-123.224	574.412	0.152	-0.366
-122.210	800.000	-0.026	0.096
