DTS Sentinel unit serial number:	SN413079Multiplexer serial number:	ORYXHardware model number:	OX4-SRSoftware version number:	ORYX F/W v4.00 Oryx Data Collector v3.7.2.0data status	okinstallation	princeton_trtdifferential loss correction	single-endedforward channel	channel 4reverse channel	N/Adate	2019/09/18time	15:13:35forward acquisition time	60.00reverse acquisition time	0.00gamma	496.2192k internal	0.2297k external	0.2297temperature offset calibration	1.0005default loss term (dB/km)	0.3790temperature slope calibration	1.0000multiplexer offset coefficient	1.0000multiplexer slope coefficient	1.0000fibre end	0.00T internal ref (°C)	35.52T ext. ref 1 (°C)	0.75T ext. ref 2 (°C)	32.84length (m)	temperature (°C)	Stokes	anti-Stokes-747.200	-99.650	-0.230	-0.059
-746.185	-4.136	0.199	0.141
-745.171	-67.010	-0.255	-0.103
-744.156	-200.000	0.015	0.275
-743.142	145.469	-0.066	-0.090
-742.127	217.740	-0.187	0.305
-741.112	-38.064	0.272	0.147
-740.098	61.385	-0.283	0.287
-739.083	-84.470	0.141	0.045
-738.069	-150.268	-0.170	-0.013
-737.054	80.086	-0.168	-0.185
-736.039	550.614	0.111	-0.273
-735.025	-200.000	-0.011	0.284
-734.010	26.626	0.121	-0.103
-732.996	-18.398	0.374	0.238
-731.981	-200.000	0.066	-0.322
-730.966	22.644	0.111	-0.093
-729.952	84.996	0.134	0.150
-728.937	-81.371	-0.122	0.041
-727.923	-17.528	-0.114	0.073
-726.908	503.809	0.118	-0.278
-725.894	400.627	0.056	-0.120
-724.879	158.407	0.163	-0.231
-723.864	511.220	0.057	-0.135
-722.850	-106.943	0.183	-0.041
-721.835	745.841	-0.077	-0.211
-720.821	-38.275	-0.350	0.189
-719.806	-170.102	0.191	0.007
-718.791	300.321	-0.139	-0.261
-717.777	58.522	-0.066	-0.066
-716.762	583.506	-0.062	-0.156
-715.748	282.750	-0.153	-0.281
-714.733	166.520	-0.036	0.052
-713.718	-131.276	0.194	0.026
-712.704	448.287	-0.142	-0.318
-711.689	15.467	0.092	0.074
-710.675	-200.000	-0.045	0.252
-709.660	4.330	0.070	0.052
-708.645	-125.989	0.386	0.059
-707.631	195.613	0.195	0.302
-706.616	800.000	-0.058	-0.200
-705.602	-87.145	-0.041	0.013
-704.587	-200.000	-0.049	0.261
-703.572	632.436	-0.107	-0.277
-702.558	-126.804	-0.422	0.063
-701.543	535.160	-0.016	-0.038
-700.529	59.311	-0.184	-0.184
-699.514	-200.000	-0.010	0.118
-698.499	-139.327	-0.244	0.027
-697.485	-200.000	-0.011	-0.084
-696.470	751.433	-0.093	0.255
-695.456	574.108	0.040	0.100
-694.441	-200.000	0.005	-0.166
-693.426	404.443	-0.048	0.103
-692.412	152.676	0.151	-0.210
-691.397	645.142	-0.055	0.144
-690.383	730.285	-0.079	-0.215
-689.368	130.589	0.180	0.236
-688.354	-2.711	-0.225	-0.160
-687.339	-200.000	-0.010	-0.162
-686.324	-200.000	-0.009	-0.051
-685.310	800.000	-0.059	0.185
-684.295	800.000	-0.100	0.298
-683.281	-129.103	-0.140	-0.020
-682.266	157.759	0.318	-0.449
-681.251	800.000	0.071	-0.316
-680.237	800.000	-0.091	0.368
-679.222	-200.000	0.000	-0.106
-678.208	-200.000	0.067	-0.312
-677.193	-149.956	-0.184	0.015
-676.178	-38.412	-0.233	0.126
-675.164	-200.000	0.131	0.701
-674.149	-180.019	-0.254	0.005
-673.135	800.000	0.034	-0.098
-672.120	-150.904	0.217	-0.017
-671.105	-138.456	-0.223	-0.025
-670.091	-100.501	-0.125	0.031
-669.076	-143.890	0.376	-0.036
-668.062	138.687	-0.111	-0.148
-667.047	267.369	-0.183	-0.326
-666.032	149.013	0.109	0.151
-665.018	68.800	0.268	0.280
-664.003	-102.972	0.081	-0.020
-662.989	800.000	-0.079	0.270
-661.974	-81.562	-0.078	-0.026
-660.959	37.876	0.090	-0.081
-659.945	-200.000	0.091	0.413
-658.930	-90.508	0.217	-0.064
-657.916	-74.371	-0.197	-0.073
-656.901	800.000	0.070	0.216
-655.886	-200.000	-0.018	-0.086
-654.872	-63.756	0.149	-0.062
-653.857	-200.000	-0.032	0.232
-652.843	-161.281	0.184	0.010
-651.828	-45.284	0.288	0.145
-650.814	-66.356	-0.238	0.096
-649.799	800.000	-0.013	-0.039
-648.784	-61.661	0.251	-0.107
-647.770	-152.060	-0.062	-0.005
-646.755	800.000	0.073	-0.253
-645.741	-64.891	-0.186	0.077
-644.726	-21.986	0.336	0.208
-643.711	512.406	0.038	-0.089
-642.697	-99.783	0.096	0.025
-641.682	180.735	-0.106	0.159
-640.668	-50.201	0.376	0.181
-639.653	94.349	0.121	0.140
-638.638	-200.000	0.054	0.341
-637.624	-20.115	-0.097	-0.061
-636.609	-5.758	0.104	-0.073
-635.595	136.003	0.073	0.097
-634.580	-200.000	0.071	-0.435
-633.565	-98.856	-0.109	-0.028
-632.551	48.747	0.145	0.139
-631.536	105.515	-0.055	-0.066
-630.522	-200.000	0.010	-0.298
-629.507	50.075	0.114	0.109
-628.492	800.000	0.099	0.361
-627.478	168.179	-0.090	-0.131
-626.463	-51.783	-0.095	-0.045
-625.449	259.341	0.124	0.218
-624.434	-7.636	0.285	-0.196
-623.419	-22.162	0.157	-0.097
-622.405	-40.507	-0.121	0.064
-621.390	800.000	0.075	0.255
-620.376	-200.000	0.282	0.001
-619.361	-156.462	-0.316	-0.020
-618.346	-10.693	0.112	0.075
-617.332	-2.477	0.196	0.139
-616.317	-68.158	-0.383	-0.151
-615.303	466.400	0.046	0.104
-614.288	-31.481	-0.326	-0.186
-613.273	-127.169	-0.231	0.034
-612.259	-69.541	-0.067	-0.026
-611.244	185.610	0.182	-0.275
-610.230	-124.375	0.113	-0.018
-609.215	-200.000	0.021	-0.156
-608.201	-57.278	-0.107	-0.048
-607.186	800.000	0.092	0.275
-606.171	-108.553	-0.206	-0.045
-605.157	-80.698	0.130	-0.044
-604.142	-193.841	0.375	0.003
-603.128	1.663	-0.195	-0.143
-602.113	42.748	0.088	-0.082
-601.098	-200.000	0.006	-0.054
-600.084	-200.000	0.036	0.164
-599.069	-200.000	-0.023	0.205
-598.055	96.385	0.030	-0.034
-597.040	167.656	0.053	-0.077
-596.025	242.053	-0.093	-0.158
-595.011	-127.316	-0.169	0.025
-593.996	-126.560	-0.352	0.053
-592.982	490.296	0.106	0.246
-591.967	109.184	-0.066	-0.080
-590.952	-78.399	0.245	-0.085
-589.938	787.257	0.122	-0.340
-588.923	800.000	-0.017	-0.059
-587.909	-200.000	-0.100	-0.460
-586.894	-118.986	0.078	0.014
-585.879	-140.298	-0.059	-0.006
-584.865	92.612	0.088	-0.100
-583.850	-71.659	-0.318	-0.120
-582.836	205.722	-0.260	-0.410
-581.821	280.852	-0.044	0.079
-580.806	-20.719	0.309	0.192
-579.792	241.353	0.056	-0.095
-578.777	-200.000	0.065	0.293
-577.763	-114.149	0.133	0.026
-576.748	800.000	-0.027	0.096
-575.733	800.000	0.032	-0.100
-574.719	3.536	-0.376	-0.278
-573.704	-74.233	-0.023	0.009
-572.690	-200.000	0.090	-0.449
-571.675	-74.998	0.238	-0.087
-570.661	397.367	0.118	0.250
-569.646	800.000	0.082	0.241
-568.631	8.211	0.242	0.184
-567.617	5.442	0.125	0.093
-566.602	-28.337	-0.081	-0.047
-565.588	86.824	0.157	-0.176
-564.573	-52.365	-0.107	-0.050
-563.558	-200.000	0.056	0.337
-562.544	-200.000	0.043	-0.251
-561.529	-200.000	-0.088	-0.426
-560.515	-154.138	0.078	-0.005
-559.500	325.895	-0.209	-0.406
-558.485	-45.360	-0.051	-0.026
-557.471	-200.000	0.002	-0.035
-556.456	-146.041	0.129	-0.012
-555.442	165.185	-0.078	0.111
-554.427	-85.125	-0.395	0.125
-553.412	253.428	-0.089	0.154
-552.398	10.744	-0.277	-0.214
-551.383	80.789	-0.089	-0.097
-550.369	-89.164	0.039	0.012
-549.354	17.510	-0.283	0.228
-548.339	-165.316	0.170	0.008
-547.325	-115.036	0.088	0.017
-546.310	-88.065	-0.166	-0.050
-545.296	800.000	0.044	0.175
-544.281	-75.049	-0.171	0.062
-543.266	238.051	0.068	-0.115
-542.252	229.056	0.219	-0.362
-541.237	-65.856	0.240	-0.097
-540.223	800.000	-0.042	-0.157
-539.208	-112.766	-0.565	-0.114
-538.193	76.292	0.065	0.070
-537.179	55.377	0.197	0.193
-536.164	800.000	0.100	-0.436
-535.150	16.441	0.036	-0.029
-534.135	-45.371	-0.155	-0.078
-533.121	13.747	0.198	0.156
-532.106	800.000	0.066	0.263
-531.091	-200.000	-0.007	0.090
-530.077	354.063	0.176	-0.355
-529.062	-200.000	-0.009	-0.195
-528.048	11.164	0.107	0.083
-527.033	-131.897	-0.250	0.033
-526.018	-125.654	0.265	0.041
-525.004	-193.386	-0.245	0.002
-523.989	789.618	0.095	-0.265
-522.975	-125.901	-0.195	-0.030
-521.960	-122.664	-0.180	-0.030
-520.945	109.345	0.021	-0.026
-519.931	112.508	0.059	0.072
-518.916	675.018	0.108	0.283
-517.902	-105.280	-0.259	0.060
-516.887	231.733	-0.022	-0.037
-515.872	76.133	-0.065	0.070
-514.858	9.013	-0.110	0.084
-513.843	-200.000	-0.004	0.233
-512.829	-45.494	0.309	-0.155
-511.814	-35.422	-0.214	-0.118
-510.799	167.875	-0.106	-0.152
-509.785	172.225	-0.130	-0.189
-508.770	-116.813	-0.241	0.045
-507.756	72.229	0.251	0.264
-506.741	114.833	-0.155	-0.191
-505.726	41.014	-0.228	-0.208
-504.712	-99.271	-0.300	-0.077
-503.697	-170.476	0.320	0.011
-502.683	342.470	-0.118	0.233
-501.668	-200.000	0.000	-0.130
-500.653	-37.711	0.174	-0.094
-499.639	480.034	-0.065	0.149
-498.624	800.000	0.024	-0.087
-497.610	-94.618	0.294	0.081
-496.595	142.787	0.121	0.163
-495.581	-8.855	-0.076	-0.051
-494.566	-29.778	-0.137	-0.079
-493.551	76.631	0.112	0.121
-492.537	303.650	-0.076	-0.142
-491.522	2.768	0.136	-0.100
-490.508	40.779	0.129	-0.118
-489.493	-145.217	-0.449	0.041
-488.478	-200.000	-0.005	-0.104
-487.464	800.000	0.051	-0.177
-486.449	-164.351	0.399	0.018
-485.435	-97.010	0.159	0.042
-484.420	800.000	-0.081	-0.248
-483.405	800.000	0.084	0.243
-482.391	-117.277	-0.378	-0.069
-481.376	594.932	-0.119	-0.297
-480.362	-55.882	-0.143	0.064
-479.347	-163.932	-0.321	0.015
-478.332	51.799	0.146	-0.140
-477.318	-200.000	-0.011	-0.183
-476.303	-14.283	0.126	0.082
-475.289	408.905	0.103	0.221
-474.274	800.000	-0.048	0.201
-473.259	-200.000	0.044	-0.250
-472.245	-149.870	0.115	-0.009
-471.230	-130.096	0.484	0.067
-470.216	101.303	0.095	0.112
-469.201	-26.960	-0.425	0.250
-468.186	-52.439	-0.279	0.130
-467.172	146.878	-0.073	0.100
-466.157	-36.684	0.131	-0.071
-465.143	800.000	0.035	0.122
-464.128	800.000	0.020	0.070
-463.113	235.177	0.077	-0.128
-462.099	-90.256	-0.158	-0.046
-461.084	114.044	-0.089	0.109
-460.070	195.992	-0.100	0.154
-459.055	800.000	-0.074	-0.311
-458.040	602.024	0.064	-0.160
-457.026	8.387	-0.139	0.106
-456.011	9.225	0.182	0.139
-454.997	328.454	0.103	0.200
-453.982	-66.034	-0.222	-0.090
-452.968	-200.000	0.017	-0.156
-451.953	-96.607	0.174	-0.046
-450.938	800.000	-0.022	-0.061
-449.924	257.102	0.004	0.006
-448.909	-200.000	0.021	-0.272
-447.895	-42.463	0.232	-0.119
-446.880	-43.663	0.184	0.093
-445.865	526.190	-0.046	0.108
-444.851	186.235	0.128	0.193
-443.836	-51.419	-0.289	-0.136
-442.822	37.246	-0.253	0.226
-441.807	-200.000	-0.029	0.213
-440.792	800.000	-0.078	0.270
-439.778	730.454	-0.165	-0.445
-438.763	-95.536	0.106	-0.029
-437.749	14.748	-0.265	0.209
-436.734	-15.681	0.234	0.151
-435.719	-84.804	0.146	-0.046
-434.705	-200.000	0.017	-0.340
-433.690	-12.600	0.075	-0.049
-432.676	312.658	-0.035	0.066
-431.661	-200.000	0.003	-0.016
-430.646	563.824	-0.023	-0.055
-429.632	-18.957	0.225	0.141
-428.617	-200.000	0.023	-0.347
-427.603	-59.985	0.087	0.037
-426.588	-200.000	-0.034	-0.335
-425.573	-13.685	-0.076	-0.050
-424.559	-157.901	0.406	0.024
-423.544	-29.744	-0.221	-0.127
-422.530	-38.932	0.169	-0.090
-421.515	147.518	0.115	-0.157
-420.500	800.000	-0.126	-0.355
-419.486	17.702	-0.383	0.308
-418.471	-200.000	-0.003	-0.137
-417.457	180.949	0.091	0.135
-416.442	133.286	0.292	0.381
-415.428	-200.000	-0.021	-0.233
-414.413	-6.400	-0.011	0.007
-413.398	0.764	0.159	-0.115
-412.384	-75.192	-0.244	0.088
-411.369	800.000	0.080	0.264
-410.355	-0.352	-0.280	-0.201
-409.340	-60.429	0.137	0.059
-408.325	143.629	0.059	-0.079
-407.311	-200.000	0.000	-0.301
-406.296	-37.851	-0.176	0.094
-405.282	-86.639	0.123	0.038
-404.267	-1.492	0.090	0.064
-403.252	114.140	-0.157	0.192
-402.238	478.368	0.100	0.227
-401.223	-200.000	-0.211	0.001
-400.209	-24.813	-0.099	-0.059
-399.194	18.507	-0.185	0.149
-398.179	800.000	-0.097	-0.385
-397.165	-142.841	-0.272	-0.027
-396.150	49.998	0.087	0.083
-395.136	-39.911	-0.195	-0.103
-394.121	-104.781	0.135	0.031
-393.106	0.554	0.103	0.074
-392.092	23.805	-0.114	0.095
-391.077	258.960	0.136	0.235
-390.063	-29.023	0.044	-0.026
-389.048	-40.467	-0.075	0.039
-388.033	-25.413	0.232	0.138
-387.019	-71.619	0.220	-0.083
-386.004	800.000	-0.092	0.272
-384.990	-200.000	0.017	-0.129
-383.975	-135.583	0.100	-0.012
-382.960	416.183	-0.129	0.278
-381.946	-69.479	0.107	0.041
-380.931	-163.241	0.419	0.020
-379.917	141.775	0.039	0.052
-378.902	-117.942	-0.116	-0.021
-377.888	184.562	0.140	-0.208
-376.873	164.919	-0.030	-0.042
-375.858	109.411	0.170	0.205
-374.844	20.939	0.316	-0.258
-373.829	-43.783	0.140	0.071
-372.815	-91.090	0.073	-0.021
-371.800	116.420	-0.026	-0.032
-370.785	-122.605	-0.251	0.041
-369.771	-146.026	0.189	0.017
-368.756	-25.087	0.216	0.129
-367.742	-27.516	0.466	0.273
-366.727	56.396	-0.090	0.088
-365.712	-200.000	-0.027	-0.155
-364.698	-200.000	-0.036	-0.252
-363.683	-200.000	-0.032	0.151
-362.669	-200.000	0.011	0.301
-361.654	285.025	-0.168	0.305
-360.639	101.014	0.148	-0.173
-359.625	-200.000	-0.008	-0.111
-358.610	-143.915	0.217	0.021
-357.596	513.608	0.059	-0.139
-356.581	-200.000	0.001	0.097
-355.566	183.404	0.159	0.236
-354.552	480.311	-0.054	0.124
-353.537	-132.072	-0.092	-0.012
-352.523	212.837	-0.093	-0.147
-351.508	41.944	-0.284	-0.259
-350.493	-84.448	0.049	0.016
-349.479	245.018	0.098	0.167
-348.464	130.306	0.069	0.089
-347.450	-129.359	-0.374	-0.052
-346.435	-65.403	-0.659	0.266
-345.420	-53.045	-0.365	-0.169
-344.406	19.508	-0.131	-0.106
-343.391	-200.000	-0.010	-0.172
-342.377	-82.922	0.142	-0.046
-341.362	-40.415	-0.279	-0.146
-340.348	-39.427	-0.220	0.116
-339.333	-0.202	-0.187	-0.134
-338.318	-12.280	0.157	-0.103
-337.304	5.034	-0.077	0.057
-336.289	800.000	-0.056	0.174
-335.275	542.878	0.191	-0.458
-334.260	800.000	0.039	0.126
-333.245	73.635	-0.141	0.149
-332.231	94.718	0.069	-0.079
-331.216	53.282	-0.186	0.179
-330.202	800.000	-0.059	-0.213
-329.187	800.000	-0.038	-0.141
-328.172	67.797	-0.146	-0.150
-327.158	-105.718	0.222	-0.051
-326.143	-200.000	-0.004	-0.043
-325.129	120.710	0.116	-0.144
-324.114	430.877	-0.105	-0.228
-323.099	182.224	-0.164	-0.242
-322.085	-79.146	-0.263	0.090
-321.070	-15.993	-0.167	0.107
-320.056	-86.412	0.076	-0.023
-319.041	118.156	-0.297	0.368
-318.026	-90.677	-0.178	-0.052
-317.012	-200.000	-0.007	0.153
-315.997	-78.406	0.232	-0.080
-314.983	43.243	-0.180	-0.165
-313.968	-89.486	0.367	0.108
-312.953	-34.111	0.159	0.088
-311.939	212.238	-0.190	0.300
-310.924	45.048	0.137	-0.126
-309.910	-8.510	0.126	-0.085
-308.895	800.000	0.065	-0.192
-307.880	-170.675	0.212	0.007
-306.866	-102.641	0.158	-0.038
-305.851	-86.693	-0.253	-0.078
-304.837	-34.514	-0.091	-0.050
-303.822	-71.233	0.203	-0.077
-302.807	223.280	-0.251	0.406
-301.793	-41.287	0.145	-0.075
-300.778	-18.180	0.181	-0.114
-299.764	48.113	-0.099	0.093
-298.749	590.201	0.085	-0.211
-297.735	256.548	-0.129	-0.222
-296.720	-200.000	-0.028	0.161
-295.705	193.664	0.214	0.325
-294.691	800.000	0.068	0.246
-293.676	536.598	-0.120	0.286
-292.662	244.682	-0.173	0.291
-291.647	-154.843	0.037	-0.002
-290.632	281.279	0.067	-0.121
-289.618	88.018	-0.046	0.051
-288.603	-99.626	-0.163	-0.041
-287.589	-200.000	0.013	-0.088
-286.574	30.345	-0.214	-0.184
-285.559	-200.000	-0.030	0.281
-284.545	-69.208	-0.040	0.015
-283.530	176.128	-0.164	0.238
-282.516	144.818	0.202	0.271
-281.501	-132.477	0.201	0.026
-280.486	88.126	-0.124	0.138
-279.472	-95.389	-0.226	-0.061
-278.457	179.731	0.149	-0.219
-277.443	800.000	0.049	0.198
-276.428	66.226	0.171	0.175
-275.413	-26.874	-0.227	0.133
-274.399	62.569	0.225	0.226
-273.384	-52.923	-0.195	-0.090
-272.370	158.139	-0.096	-0.134
-271.355	-92.134	-0.120	0.034
-270.340	460.928	-0.094	0.210
-269.326	-95.671	0.199	-0.053
-268.311	-154.478	0.228	-0.015
-267.297	-200.000	-0.001	0.036
-266.282	-99.264	0.043	-0.011
-265.267	-89.696	-0.104	0.030
-264.253	80.146	-0.173	-0.187
-263.238	613.138	0.058	0.145
-262.224	-200.000	0.004	0.027
-261.209	54.587	0.316	0.306
-260.195	800.000	-0.062	-0.172
-259.180	56.244	0.147	0.143
-258.165	-68.631	0.292	0.113
-257.151	64.517	0.035	-0.036
-256.136	-64.391	-0.284	0.116
-255.122	800.000	-0.007	0.029
-254.107	-200.000	-0.014	0.245
-253.092	-134.048	0.302	0.037
-252.078	-174.406	-0.190	-0.005
-251.063	99.898	-0.023	-0.026
-250.049	-82.551	-0.082	-0.027
-249.034	87.463	-0.203	-0.225
-248.019	800.000	0.056	0.178
-247.005	-157.289	-0.248	-0.015
-245.990	243.430	-0.079	0.133
-244.976	36.883	-0.134	0.118
-243.961	-17.578	-0.207	0.130
-242.946	-200.000	0.053	0.277
-241.932	624.073	-0.090	-0.228
-240.917	44.320	-0.201	-0.184
-239.903	351.563	-0.209	-0.414
-238.888	-200.000	-0.001	-0.183
-237.873	-8.593	0.114	0.076
-236.859	607.475	-0.033	0.082
-235.844	-93.117	0.108	0.030
-234.830	-47.364	0.197	-0.096
-233.815	-93.953	0.073	-0.020
-232.800	-86.838	0.463	0.142
-231.786	-29.526	0.094	0.054
-230.771	-36.484	-0.327	-0.176
-229.757	-31.573	0.288	0.162
-228.742	120.192	0.012	-0.015
-227.727	800.000	0.046	0.198
-226.713	208.585	0.008	0.012
-225.698	233.874	0.020	0.033
-224.684	0.100	0.149	-0.106
-223.669	118.186	0.218	-0.269
-222.655	46.396	-0.258	-0.239
-221.640	-200.000	-0.019	0.121
-220.625	-37.567	-0.189	-0.101
-219.611	-200.000	0.015	0.276
-218.596	-31.749	0.128	-0.072
-217.582	-47.001	-0.140	0.068
-216.567	296.063	0.062	0.113
-215.552	-200.000	0.032	-0.171
-214.538	-200.000	-0.125	0.556
-213.523	-6.796	-0.287	0.195
-212.509	262.654	0.129	0.224
-211.494	-107.656	-0.081	-0.018
-210.479	12.682	0.328	0.253
-209.465	120.041	-0.092	0.114
-208.450	-128.614	0.049	0.007
-207.436	-200.000	-0.002	-0.103
-206.421	154.332	-0.165	0.226
-205.406	-65.184	0.206	0.083
-204.392	62.099	0.182	0.181
-203.377	-34.277	0.356	0.195
-202.363	798.404	-0.043	-0.118
-201.348	129.901	0.087	0.111
-200.333	77.621	0.190	-0.202
-199.319	-13.684	-0.139	0.090
-198.304	800.000	-0.095	-0.349
-197.290	-55.476	-0.207	0.093
-196.275	-158.698	0.262	-0.015
-195.260	-45.982	0.076	-0.038
-194.246	-24.506	0.192	-0.114
-193.231	622.749	0.010	0.026
-192.217	280.609	0.077	0.138
-191.202	-200.000	-0.086	0.414
-190.187	248.978	0.150	0.255
-189.173	-200.000	-0.049	-0.226
-188.158	-200.000	-0.007	0.034
-187.144	77.058	0.151	-0.161
-186.129	438.022	-0.120	-0.261
-185.114	197.582	-0.126	-0.192
-184.100	703.493	-0.010	0.026
-183.085	-200.000	-0.049	-0.304
-182.071	383.549	0.123	0.252
-181.056	72.547	-0.051	0.053
-180.042	800.000	0.092	-0.320
-179.027	800.000	0.008	0.028
-178.012	568.627	-0.067	0.162
-176.998	-200.000	0.006	0.109
-175.983	40.016	0.220	0.198
-174.969	-200.000	-0.037	-0.206
-173.954	29.301	-0.139	0.118
-172.939	363.514	0.055	-0.111
-171.925	-111.943	-0.241	0.049
-170.910	224.847	0.066	0.107
-169.896	322.924	0.157	-0.299
-168.881	-80.740	0.065	0.022
-167.866	800.000	0.003	0.010
-166.852	-200.000	0.002	-0.116
-165.837	480.485	0.083	0.188
-164.823	309.334	0.099	0.184
-163.808	-19.512	-0.236	-0.146
-162.793	103.031	-0.167	-0.196
-161.779	2.811	0.131	-0.095
-160.764	-102.312	0.205	0.049
-159.750	-45.258	-0.221	-0.109
-158.735	-132.092	0.198	0.026
-157.720	-27.545	-0.091	0.053
-156.706	-19.279	0.111	-0.069
-155.691	-200.000	0.043	-0.290
-154.677	-31.940	-0.269	0.150
-153.662	25.053	-0.019	0.016
-152.647	-91.418	-0.212	-0.060
-151.633	-200.000	0.014	0.079
-150.618	-145.310	0.112	0.010
-149.604	55.526	-0.189	0.182
-148.589	-46.605	-0.101	-0.050
-147.574	488.478	0.095	-0.216
-146.560	612.649	0.039	-0.097
-145.545	282.309	-0.121	0.216
-144.531	800.000	-0.054	-0.187
-143.516	-70.456	-0.297	0.112
-142.502	-200.000	0.059	0.442
-141.487	-200.000	-0.063	0.427
-140.472	-150.175	0.355	-0.027
-139.458	-200.000	0.028	0.226
-138.443	800.000	0.101	-0.325
-137.429	-5.522	-0.106	-0.072
-136.414	-135.385	0.310	-0.037
-135.399	-90.342	-0.212	0.061
-134.385	-144.051	-0.160	-0.015
-133.370	-59.275	-0.134	-0.058
-132.356	-61.764	-0.056	0.024
-131.341	-200.000	-0.048	0.276
-130.326	626.642	0.015	0.037
-129.312	69.114	-0.147	-0.150
-128.297	800.000	0.119	0.456
-127.283	-200.000	0.029	-0.254
-126.268	374.220	-0.179	-0.363
-125.253	2.689	0.322	-0.233
-124.239	-62.533	0.418	-0.173
-123.224	83.656	0.045	-0.049
-122.210	174.346	-0.192	0.276
-121.195	-58.015	-0.240	0.104
-120.180	-200.000	-0.018	-0.118
