DTS Sentinel unit serial number:	SN413079Multiplexer serial number:	ORYXHardware model number:	OX4-SRSoftware version number:	ORYX F/W v4.00 Oryx Data Collector v3.7.2.0data status	okinstallation	princeton_trtdifferential loss correction	single-endedforward channel	channel 4reverse channel	N/Adate	2019/09/11time	23:07:11forward acquisition time	60.00reverse acquisition time	0.00gamma	496.2192k internal	0.2308k external	0.2308temperature offset calibration	1.0080default loss term (dB/km)	0.3790temperature slope calibration	1.0000multiplexer offset coefficient	1.0000multiplexer slope coefficient	1.0000fibre end	0.00T internal ref (°C)	34.55T ext. ref 1 (°C)	1.86T ext. ref 2 (°C)	29.19length (m)	temperature (°C)	Stokes	anti-Stokes-747.200	-200.000	0.038	0.284
-746.185	43.100	0.108	0.100
-745.171	-200.000	-0.020	-0.230
-744.156	-200.000	0.002	-0.009
-743.142	-107.890	-0.355	0.078
-742.127	-147.026	0.286	-0.025
-741.112	-198.060	0.209	0.001
-740.098	-23.263	0.144	0.088
-739.083	282.120	-0.073	-0.133
-738.069	-81.013	0.130	-0.044
-737.054	-133.454	0.248	-0.032
-736.039	470.761	0.131	0.300
-735.025	307.388	0.106	-0.202
-734.010	83.739	-0.284	-0.315
-732.996	-200.000	0.010	0.044
-731.981	-200.000	0.025	0.122
-730.966	84.851	0.046	0.051
-729.952	-0.866	-0.322	-0.232
-728.937	-67.966	-0.328	-0.130
-727.923	-172.176	-0.044	-0.001
-726.908	209.062	0.227	-0.360
-725.894	82.714	0.223	-0.246
-724.879	-200.000	-0.046	0.286
-723.864	-200.000	0.003	0.252
-722.850	6.357	0.143	-0.108
-721.835	-200.000	0.052	-0.282
-720.821	-17.148	-0.312	0.200
-719.806	-118.745	-0.062	0.011
-718.791	800.000	0.084	0.271
-717.777	-134.654	0.482	0.060
-716.762	800.000	-0.053	-0.153
-715.748	-200.000	0.026	0.324
-714.733	66.947	-0.322	-0.333
-713.718	41.754	-0.227	-0.209
-712.704	-138.841	-0.171	-0.019
-711.689	391.153	-0.162	0.341
-710.675	84.910	0.178	0.198
-709.660	800.000	0.066	-0.202
-708.645	160.840	-0.103	-0.147
-707.631	157.054	-0.177	-0.249
-706.616	-200.000	0.036	0.188
-705.602	-81.960	0.151	-0.050
-704.587	369.690	0.070	-0.143
-703.572	712.547	0.054	-0.146
-702.558	632.511	0.067	0.173
-701.543	533.297	-0.135	0.324
-700.529	-9.814	0.326	-0.220
-699.514	-121.321	-0.109	0.018
-698.499	9.976	0.074	0.057
-697.485	-200.000	0.005	-0.133
-696.470	123.319	-0.094	-0.120
-695.456	-100.213	-0.201	0.051
-694.441	-139.455	-0.376	-0.041
-693.426	-95.731	0.295	0.080
-692.412	-200.000	-0.026	-0.328
-691.397	239.048	0.082	0.138
-690.383	-200.000	-0.088	0.395
-689.368	-59.371	0.117	0.051
-688.354	11.037	0.055	0.043
-687.339	311.561	-0.096	-0.183
-686.324	-200.000	-0.027	-0.253
-685.310	-51.586	-0.268	-0.127
-684.295	-23.625	0.206	-0.125
-683.281	-90.729	0.206	0.060
-682.266	736.799	0.066	-0.180
-681.251	67.998	0.065	0.067
-680.237	-2.104	-0.050	0.036
-679.222	39.106	0.376	0.341
-678.208	-200.000	-0.026	-0.143
-677.193	172.632	-0.014	0.021
-676.178	152.086	0.210	0.290
-675.164	-159.089	-0.159	0.009
-674.149	95.636	-0.150	-0.173
-673.135	-100.697	-0.129	-0.032
-672.120	-126.305	-0.161	0.024
-671.105	-3.520	0.095	0.067
-670.091	-200.000	-0.021	-0.446
-669.076	392.803	0.177	-0.374
-668.062	553.549	-0.076	0.186
-667.047	800.000	0.064	-0.276
-666.032	-40.435	-0.127	0.067
-665.018	800.000	0.078	0.229
-664.003	272.047	0.121	0.217
-662.989	-200.000	-0.040	0.236
-661.974	265.246	-0.216	-0.382
-660.959	390.069	-0.042	-0.088
-659.945	800.000	0.038	-0.166
-658.930	-31.198	0.474	-0.270
-657.916	-14.305	-0.186	-0.121
-656.901	-64.654	-0.315	-0.129
-655.886	87.621	-0.165	-0.185
-654.872	-70.420	-0.217	0.083
-653.857	-150.385	-0.136	0.011
-652.843	-200.000	0.003	0.273
-651.828	-200.000	-0.040	0.307
-650.814	-54.647	-0.232	0.106
-649.799	70.295	0.087	-0.091
-648.784	-62.199	0.212	0.090
-647.770	37.338	-0.232	-0.208
-646.755	-19.549	0.308	-0.193
-645.741	-66.905	-0.176	-0.070
-644.726	-58.741	0.418	-0.183
-643.711	800.000	0.113	-0.476
-642.697	-200.000	-0.002	-0.276
-641.682	-200.000	-0.026	-0.191
-640.668	-200.000	-0.048	0.353
-639.653	-25.126	0.185	0.111
-638.638	-185.920	0.096	-0.001
-637.624	-127.948	-0.402	-0.058
-636.609	-135.757	-0.075	0.009
-635.595	-91.147	-0.222	-0.064
-634.580	-99.944	0.124	-0.031
-633.565	86.957	-0.243	-0.272
-632.551	100.152	0.151	0.177
-631.536	118.746	-0.031	-0.039
-630.522	800.000	-0.066	0.222
-629.507	55.199	0.129	0.126
-628.492	-200.000	-0.003	0.129
-627.478	7.224	0.248	-0.187
-626.463	800.000	0.042	0.128
-625.449	23.706	-0.154	-0.128
-624.434	-94.370	-0.164	0.045
-623.419	-19.330	-0.143	0.090
-622.405	-200.000	0.030	-0.182
-621.390	-200.000	0.050	-0.266
-620.376	800.000	-0.045	-0.195
-619.361	-200.000	-0.019	-0.123
-618.346	-37.896	-0.135	-0.072
-617.332	-92.386	-0.112	-0.032
-616.317	-97.670	-0.128	-0.034
-615.303	-109.485	-0.261	0.056
-614.288	-65.782	-0.209	0.085
-613.273	88.910	-0.216	0.244
-612.259	-200.000	0.012	0.087
-611.244	296.176	-0.132	0.245
-610.230	21.485	-0.242	-0.199
-609.215	206.043	-0.043	0.067
-608.201	-53.393	-0.124	-0.058
-607.186	345.171	-0.182	0.361
-606.171	314.735	-0.072	-0.138
-605.157	-200.000	-0.022	0.104
-604.142	-151.083	0.216	-0.016
-603.128	26.396	-0.237	-0.200
-602.113	-200.000	-0.038	-0.327
-601.098	-54.967	0.228	-0.104
-600.084	100.603	0.075	-0.088
-599.069	-187.236	-0.091	0.001
-598.055	255.828	-0.207	-0.358
-597.040	744.506	-0.083	-0.226
-596.025	-200.000	-0.054	-0.239
-595.011	-34.439	-0.245	-0.135
-593.996	123.038	-0.100	-0.126
-592.982	-170.391	0.165	0.006
-591.967	-58.460	-0.193	0.084
-590.952	147.702	0.042	0.057
-589.938	-200.000	-0.025	0.183
-588.923	-25.874	-0.139	-0.083
-587.909	-15.931	0.161	0.104
-586.894	-25.754	-0.342	0.204
-585.879	800.000	0.153	0.444
-584.865	427.912	-0.062	0.135
-583.850	171.126	-0.080	0.117
-582.836	800.000	0.040	0.153
-581.821	-128.256	0.194	-0.028
-580.806	-50.190	0.267	-0.127
-579.792	-86.520	-0.229	0.071
-578.777	6.971	0.017	-0.013
-577.763	11.838	0.262	0.203
-576.748	24.959	-0.282	-0.236
-575.733	-200.000	-0.033	-0.267
-574.719	42.685	-0.254	0.234
-573.704	-74.846	0.197	-0.071
-572.690	800.000	0.130	0.475
-571.675	-0.333	0.167	-0.120
-570.661	60.534	-0.201	0.201
-569.646	-117.594	0.150	-0.027
-568.631	-148.841	0.292	0.024
-567.617	-94.600	-0.325	-0.089
-566.602	-20.899	-0.341	0.211
-565.588	-65.066	-0.141	0.057
-564.573	-200.000	0.039	-0.328
-563.558	322.905	0.064	-0.123
-562.544	-85.829	0.285	-0.089
-561.529	-97.095	0.250	-0.066
-560.515	-200.000	0.006	-0.093
-559.500	-135.248	0.321	-0.039
-558.485	-85.766	0.168	0.052
-557.471	481.473	-0.091	-0.209
-556.456	-122.177	-0.206	0.034
-555.442	301.400	0.121	-0.226
-554.427	-49.964	-0.016	-0.008
-553.412	-97.273	-0.322	-0.085
-552.398	-200.000	0.023	-0.127
-551.383	116.259	0.118	0.146
-550.369	99.473	0.156	0.183
-549.354	52.914	-0.128	-0.124
-548.339	-144.401	0.248	0.023
-547.325	-156.189	0.156	-0.010
-546.310	-200.000	-0.028	0.252
-545.296	236.674	-0.060	-0.100
-544.281	21.877	-0.330	0.272
-543.266	-200.000	0.019	-0.134
-542.252	-69.098	0.351	0.136
-541.237	-200.000	0.032	-0.185
-540.223	-69.749	-0.099	0.038
-539.208	122.753	0.101	-0.128
-538.193	-24.395	-0.054	-0.032
-537.179	286.048	0.097	-0.176
-536.164	-37.802	0.362	-0.194
-535.150	142.735	0.112	0.150
-534.135	3.119	0.098	-0.072
-533.121	-45.210	0.148	0.074
-532.106	-200.000	-0.012	-0.071
-531.091	89.266	0.123	0.139
-530.077	-16.230	0.056	-0.036
-529.062	43.780	0.255	0.235
-528.048	-103.817	0.107	-0.025
-527.033	345.734	-0.119	-0.235
-526.018	-138.510	-0.175	0.019
-525.004	-23.819	-0.102	0.062
-523.989	-171.455	0.064	0.002
-522.975	-112.411	-0.171	-0.035
-521.960	67.332	-0.190	-0.196
-520.945	-66.295	-0.279	0.112
-519.931	692.904	-0.130	-0.344
-518.916	-41.566	0.139	0.072
-517.902	-45.650	-0.166	-0.083
-516.887	100.917	-0.152	0.179
-515.872	152.293	0.223	0.307
-514.858	212.617	0.184	0.292
-513.843	459.725	-0.063	-0.142
-512.829	-26.127	-0.126	-0.075
-511.814	-200.000	0.008	-0.476
-510.799	45.890	0.176	-0.164
-509.785	-140.782	0.296	0.031
-508.770	800.000	0.021	0.064
-507.756	-149.719	0.170	-0.013
-506.741	-144.354	0.412	-0.039
-505.726	8.843	-0.160	-0.121
-504.712	728.434	0.041	-0.111
-503.697	25.181	-0.108	-0.090
-502.683	-200.000	0.020	-0.172
-501.668	-85.647	0.332	0.104
-500.653	74.981	0.103	-0.109
-499.639	-3.480	-0.116	-0.081
-498.624	-176.650	0.249	0.006
-497.610	800.000	0.058	0.162
-496.595	-200.000	-0.009	0.235
-495.581	144.838	-0.085	-0.114
-494.566	170.945	-0.011	0.017
-493.551	-60.279	0.018	0.008
-492.537	111.110	0.254	-0.308
-491.522	800.000	0.037	-0.162
-490.508	84.738	-0.084	0.093
-489.493	-17.657	0.127	0.080
-488.478	800.000	0.062	-0.231
-487.464	-143.413	-0.123	0.012
-486.449	744.917	-0.069	0.187
-485.435	43.554	-0.119	-0.110
-484.420	119.339	-0.189	-0.236
-483.405	28.495	-0.263	-0.224
-482.391	-53.366	-0.184	-0.085
-481.376	-43.142	0.297	-0.151
-480.362	-58.600	-0.298	0.130
-479.347	-84.062	0.448	0.143
-478.332	231.910	0.247	0.407
-477.318	72.331	-0.095	-0.100
-476.303	613.505	0.146	-0.368
-475.289	-200.000	0.049	-0.224
-474.274	-191.402	0.106	0.001
-473.259	800.000	-0.024	0.101
-472.245	-63.471	-0.258	0.107
-471.230	800.000	-0.073	-0.276
-470.216	218.640	-0.277	-0.445
-469.201	446.334	0.137	-0.302
-468.186	74.212	-0.375	0.396
-467.172	-165.652	0.182	0.008
-466.157	587.220	0.190	-0.470
-465.143	-77.939	0.243	0.084
-464.128	-71.230	-0.103	0.039
-463.113	93.343	-0.204	-0.232
-462.099	205.652	-0.075	0.117
-461.084	-200.000	-0.028	-0.424
-460.070	-200.000	-0.033	-0.185
-459.055	129.479	-0.179	-0.230
-458.040	-200.000	-0.007	-0.196
-457.026	-49.260	0.333	0.160
-456.011	368.328	0.035	0.071
-454.997	-73.085	-0.256	0.094
-453.982	259.635	-0.341	-0.591
-452.968	79.551	0.080	0.086
-451.953	-42.442	0.159	0.081
-450.938	-56.008	0.133	-0.060
-449.924	800.000	-0.030	0.116
-448.909	180.593	0.085	-0.126
-447.895	313.276	-0.170	0.320
-446.880	-116.945	-0.121	0.022
-445.865	-49.261	-0.179	-0.086
-444.851	-154.208	-0.233	-0.016
-443.836	-137.678	0.188	-0.021
-442.822	-43.370	0.273	-0.138
-441.807	10.902	-0.060	0.046
-440.792	-200.000	-0.001	0.264
-439.778	97.057	0.142	0.164
-438.763	-200.000	0.043	0.215
-437.749	-84.415	-0.403	0.128
-436.734	635.856	0.108	-0.274
-435.719	550.623	-0.020	-0.049
-434.705	8.870	0.318	-0.241
-433.690	800.000	-0.037	-0.141
-432.676	-93.029	0.369	0.103
-431.661	-56.275	-0.024	0.011
-430.646	192.303	-0.169	0.256
-429.632	125.834	-0.029	-0.037
-428.617	-61.664	-0.220	-0.093
-427.603	-124.952	0.087	0.013
-426.588	800.000	0.020	-0.075
-425.573	179.422	0.075	0.111
-424.559	35.322	-0.415	0.365
-423.544	545.434	0.076	-0.181
-422.530	47.575	-0.196	0.183
-421.515	-9.643	-0.034	0.022
-420.500	-200.000	-0.010	-0.152
-419.486	800.000	-0.067	0.205
-418.471	6.449	0.251	-0.187
-417.457	244.545	-0.293	0.494
-416.442	-200.000	-0.014	0.151
-415.428	800.000	-0.061	-0.210
-414.413	-137.443	-0.023	0.003
-413.398	800.000	-0.051	-0.187
-412.384	-90.082	0.164	-0.048
-411.369	122.681	0.117	0.147
-410.355	-103.552	0.195	-0.046
-409.340	-200.000	0.086	0.380
-408.325	775.175	-0.010	0.029
-407.311	66.404	-0.139	0.142
-406.296	-200.000	0.021	-0.270
-405.282	124.714	0.057	0.072
-404.267	-100.525	0.334	0.083
-403.252	800.000	0.103	-0.374
-402.238	-77.845	-0.126	-0.044
-401.223	-157.905	-0.372	-0.022
-400.209	304.505	0.085	-0.158
-399.194	-140.192	-0.252	-0.027
-398.179	-59.790	0.087	0.037
-397.165	117.309	0.148	0.182
-396.150	-43.482	0.262	0.133
-395.136	-3.927	0.165	0.114
-394.121	-200.000	0.005	0.338
-393.106	-164.436	0.176	0.008
-392.092	-200.000	-0.043	0.259
-391.077	-144.881	-0.241	-0.022
-390.063	12.207	-0.251	-0.194
-389.048	65.489	0.141	-0.143
-388.033	378.877	0.031	-0.064
-387.019	-36.387	-0.314	0.170
-386.004	-66.278	0.164	-0.065
-384.990	147.270	0.225	0.303
-383.975	-121.391	-0.156	-0.026
-382.960	-49.380	0.106	0.051
-381.946	107.618	-0.108	-0.129
-380.931	800.000	-0.082	-0.288
-379.917	-72.309	-0.040	0.015
-378.902	-200.000	0.007	0.114
-377.888	286.011	0.099	0.179
-376.873	800.000	0.077	0.233
-375.858	800.000	-0.077	-0.327
-374.844	-200.000	-0.012	0.058
-373.829	-183.693	-0.230	-0.004
-372.815	32.098	0.067	-0.058
-371.800	-19.061	-0.194	0.121
-370.785	800.000	0.031	-0.128
-369.771	266.159	0.172	-0.301
-368.756	199.967	0.095	0.145
-367.742	48.243	0.073	0.068
-366.727	800.000	-0.050	-0.204
-365.712	306.238	0.085	0.159
-364.698	393.020	-0.263	-0.547
-363.683	-22.847	0.173	0.104
-362.669	-165.182	-0.111	0.005
-361.654	549.056	-0.031	0.075
-360.639	-86.124	-0.248	0.077
-359.625	-92.300	0.474	0.134
-358.610	174.797	0.108	0.156
-357.596	-200.000	-0.043	0.267
-356.581	800.000	-0.039	0.127
-355.566	-200.000	0.013	-0.070
-354.552	89.899	0.116	0.130
-353.537	-131.861	0.057	-0.008
-352.523	192.288	-0.132	0.199
-351.508	140.204	0.217	0.287
-350.493	253.918	0.108	0.186
-349.479	62.781	-0.104	0.104
-348.464	108.358	0.110	0.131
-347.450	85.890	-0.070	0.077
-346.435	-200.000	0.026	0.195
-345.420	493.818	-0.078	0.180
-344.406	255.571	0.101	-0.173
-343.391	47.430	0.107	-0.100
-342.377	-110.897	-0.194	-0.040
-341.362	-18.409	-0.318	0.199
-340.348	-200.000	0.005	0.110
-339.333	-19.125	-0.251	0.156
-338.318	217.297	0.096	-0.154
-337.304	369.741	0.050	0.102
-336.289	159.374	0.245	0.341
-335.275	4.360	-0.201	0.147
-334.260	81.272	0.082	0.088
-333.245	120.800	-0.085	0.105
-332.231	-68.434	0.033	-0.013
-331.216	800.000	-0.047	-0.130
-330.202	-91.565	0.110	-0.031
-329.187	32.416	-0.020	0.017
-328.172	-54.606	0.227	0.103
-327.158	-43.941	0.230	-0.116
-326.143	171.057	-0.188	0.269
-325.129	-200.000	-0.020	-0.203
-324.114	800.000	-0.100	-0.350
-323.099	-26.724	-0.157	-0.092
-322.085	-200.000	0.010	0.211
-321.070	-40.567	0.418	0.217
-320.056	48.090	0.191	-0.179
-319.041	-91.842	0.303	0.086
-318.026	-4.487	0.099	-0.069
-317.012	-45.325	-0.523	0.259
-315.997	-200.000	-0.034	-0.164
-314.983	-200.000	-0.005	-0.046
-313.968	146.716	-0.167	0.225
-312.953	-118.192	-0.330	-0.059
-311.939	-49.239	-0.111	-0.053
-310.924	200.271	-0.212	-0.325
-309.910	800.000	-0.100	-0.333
-308.895	-101.052	-0.139	0.034
-307.880	349.026	0.043	-0.084
-306.866	-66.574	0.263	0.104
-305.851	12.116	-0.100	0.077
-304.837	-200.000	0.041	-0.459
-303.822	-97.058	-0.210	-0.055
-302.807	800.000	-0.058	0.188
-301.793	-113.848	-0.190	0.037
-300.778	121.304	0.075	0.093
-299.764	140.384	-0.171	0.225
-298.749	90.549	-0.080	0.089
-297.735	-200.000	0.015	0.145
-296.720	-150.846	0.415	0.031
-295.705	278.919	0.124	-0.221
-294.691	-200.000	-0.035	-0.345
-293.676	800.000	0.064	0.228
-292.662	38.781	0.202	-0.180
-291.647	35.724	0.098	0.086
-290.632	-58.521	-0.152	-0.066
-289.618	-90.497	-0.172	-0.050
-288.603	399.560	-0.147	0.307
-287.589	-200.000	0.023	-0.110
-286.574	-21.638	0.186	-0.113
-285.559	-200.000	-0.048	0.343
-284.545	191.055	0.183	0.274
-283.530	-73.344	-0.114	-0.042
-282.516	-82.743	-0.096	0.031
-281.501	-157.667	0.155	0.009
-280.486	642.884	0.146	0.371
-279.472	-26.256	0.099	0.058
-278.457	185.369	-0.078	0.115
-277.443	-200.000	0.023	-0.127
-276.428	-14.714	0.270	-0.173
-275.413	-46.375	-0.180	0.088
-274.399	-60.148	-0.119	0.051
-273.384	-91.376	-0.223	0.064
-272.370	800.000	-0.061	0.230
-271.355	-156.547	0.491	0.030
-270.340	-138.590	0.140	0.015
-269.326	32.308	-0.222	0.191
-268.311	-38.033	-0.363	-0.192
-267.297	-124.212	-0.020	0.003
-266.282	71.947	-0.184	-0.191
-265.267	800.000	0.048	0.153
-264.253	-200.000	0.012	0.311
-263.238	-200.000	0.017	-0.153
-262.224	72.775	-0.165	-0.172
-261.209	-200.000	0.005	0.029
-260.195	-200.000	-0.004	0.258
-259.180	248.852	0.203	-0.343
-258.165	-200.000	0.016	-0.317
-257.151	54.604	0.183	0.176
-256.136	-100.301	0.235	0.058
-255.122	-200.000	0.013	-0.106
-254.107	-200.000	0.023	-0.136
-253.092	494.057	-0.071	0.163
-252.078	208.694	0.125	-0.195
-251.063	27.246	-0.249	-0.208
-250.049	-65.484	0.132	-0.053
-249.034	-12.015	0.176	0.115
-248.019	-146.072	-0.197	-0.017
-247.005	34.692	0.156	-0.136
-245.990	-200.000	-0.053	0.327
-244.976	18.572	-0.366	0.292
-243.961	100.730	0.076	0.088
-242.946	-200.000	0.022	-0.180
-241.932	-200.000	-0.022	-0.193
-240.917	261.417	0.141	0.243
-239.903	-80.704	0.144	-0.048
-238.888	60.108	-0.078	0.077
-237.873	220.374	-0.119	0.191
-236.859	-74.019	-0.158	-0.057
-235.844	-94.829	-0.238	0.064
-234.830	-44.806	-0.160	-0.079
-233.815	-200.000	0.002	0.022
-232.800	-66.987	-0.062	0.024
-231.786	-123.843	-0.218	0.034
-230.771	800.000	-0.107	0.304
-229.757	48.139	-0.219	-0.204
-228.742	-200.000	0.056	0.275
-227.727	800.000	0.047	0.163
-226.713	198.764	-0.036	-0.055
-225.698	-200.000	0.021	-0.234
-224.684	763.650	-0.069	-0.187
-223.669	-200.000	-0.034	-0.493
-222.655	-148.661	0.152	-0.012
-221.640	71.832	0.092	0.096
-220.625	8.681	0.068	-0.051
-219.611	668.327	-0.105	0.272
-218.596	103.040	-0.131	-0.152
-217.582	-71.307	0.303	0.113
-216.567	-68.318	0.078	0.030
-215.552	445.378	0.056	-0.123
-214.538	71.320	-0.318	-0.328
-213.523	-200.000	0.017	0.113
-212.509	-22.593	-0.315	0.190
-211.494	-161.346	-0.059	0.003
-210.479	-28.653	0.250	-0.143
-209.465	244.107	0.018	0.030
-208.450	395.291	-0.097	-0.201
-207.436	-20.941	0.152	-0.093
-206.421	512.485	-0.113	0.261
-205.406	-67.343	-0.437	0.171
-204.392	800.000	0.052	0.158
-203.377	240.482	-0.011	-0.018
-202.363	190.259	0.174	0.260
-201.348	-79.126	0.058	-0.020
-200.333	-11.392	0.082	-0.054
-199.319	-72.423	0.052	-0.019
-198.304	-82.804	-0.090	0.029
-197.290	800.000	0.066	0.235
-196.275	-47.166	0.106	0.051
-195.260	91.987	0.261	-0.293
-194.246	72.650	0.101	-0.105
-193.231	-130.091	0.330	-0.045
-192.217	132.195	0.087	-0.111
-191.202	61.723	-0.172	0.170
-190.187	-111.208	-0.107	-0.022
-189.173	184.314	0.182	0.268
-188.158	-170.806	0.472	-0.016
-187.144	-200.000	0.003	0.341
-186.129	226.446	-0.099	0.160
-185.114	-200.000	0.040	0.397
-184.100	-163.867	0.330	0.015
-183.085	80.037	0.387	0.414
-182.071	-94.155	0.191	0.052
-181.056	-143.562	-0.056	-0.005
-180.042	-98.523	0.127	0.032
-179.027	200.872	-0.082	-0.125
-178.012	78.131	0.084	0.089
-176.998	42.305	0.261	0.236
-175.983	-200.000	-0.018	-0.084
-174.969	62.633	0.042	-0.042
-173.954	-91.843	0.309	-0.087
-172.939	-110.822	-0.338	-0.069
-171.925	103.718	0.277	0.324
-170.910	-3.184	-0.042	-0.029
-169.896	-200.000	-0.010	-0.502
-168.881	725.600	0.110	-0.291
-167.866	-124.250	-0.370	0.057
-166.852	-200.000	-0.026	0.168
-165.837	454.183	-0.036	0.080
-164.823	47.343	-0.108	-0.100
-163.808	800.000	-0.035	-0.144
-162.793	-70.089	0.288	-0.109
-161.779	-157.097	-0.487	-0.029
-160.764	-83.136	-0.180	-0.058
-159.750	-15.238	0.242	-0.154
-158.735	-200.000	-0.001	0.127
-157.720	55.909	-0.154	0.148
-156.706	255.892	-0.111	0.189
-155.691	-47.261	-0.058	0.028
-154.677	-60.245	-0.211	-0.089
-153.662	275.735	0.182	-0.320
-152.647	117.804	0.168	0.205
-151.633	389.699	-0.130	0.267
-150.618	8.512	-0.079	-0.059
-149.604	-75.020	0.280	0.100
-148.589	117.214	-0.058	0.071
-147.574	800.000	0.021	-0.070
-146.560	-179.438	0.193	0.004
-145.545	-200.000	-0.003	-0.281
-144.531	36.469	0.135	0.118
-143.516	559.498	0.112	-0.270
-142.502	-62.022	-0.165	0.068
-141.487	-84.671	-0.297	-0.093
-140.472	192.578	-0.182	0.272
-139.458	79.153	0.076	0.080
-138.443	800.000	0.054	-0.152
-137.429	575.853	0.077	-0.187
-136.414	185.617	0.166	-0.244
-135.399	-48.757	0.184	0.087
-134.385	-24.522	0.063	-0.037
-133.370	-68.482	0.260	-0.100
-132.356	-200.000	-0.012	0.110
-131.341	-173.886	-0.168	0.005
-130.326	-20.739	0.159	0.097
-129.312	-200.000	0.094	-0.481
-128.297	-200.000	0.015	-0.096
-127.283	-200.000	0.007	0.200
-126.268	-23.260	-0.127	0.076
-125.253	-117.619	-0.300	-0.054
-124.239	43.183	0.097	-0.088
-123.224	50.533	0.074	0.069
-122.210	-29.279	0.307	-0.174
-121.195	-2.680	-0.235	0.163
