DTS Sentinel unit serial number:	SN413079Multiplexer serial number:	ORYXHardware model number:	OX4-SRSoftware version number:	ORYX F/W v4.00 Oryx Data Collector v3.7.2.0data status	okinstallation	princeton_trtdifferential loss correction	single-endedforward channel	channel 4reverse channel	N/Adate	2019/09/12time	23:05:35forward acquisition time	60.00reverse acquisition time	0.00gamma	496.2192k internal	0.2316k external	0.2316temperature offset calibration	1.0177default loss term (dB/km)	0.3790temperature slope calibration	1.0000multiplexer offset coefficient	1.0000multiplexer slope coefficient	1.0000fibre end	0.00T internal ref (°C)	29.25T ext. ref 1 (°C)	3.74T ext. ref 2 (°C)	23.86length (m)	temperature (°C)	Stokes	anti-Stokes-747.200	-200.000	-0.048	-0.249
-746.185	-3.596	0.349	0.246
-745.171	217.193	0.109	0.177
-744.156	-137.595	-0.380	0.043
-743.142	800.000	0.045	0.180
-742.127	-84.850	-0.151	0.048
-741.112	-49.887	0.418	0.201
-740.098	99.471	-0.246	0.289
-739.083	-102.927	0.184	0.044
-738.069	79.217	-0.152	0.165
-737.054	-116.381	-0.138	-0.026
-736.039	-76.899	-0.486	0.172
-735.025	-40.619	0.263	-0.138
-734.010	705.126	-0.050	-0.133
-732.996	-13.404	-0.141	0.092
-731.981	-200.000	0.020	0.364
-730.966	-200.000	-0.005	-0.123
-729.952	-56.382	-0.390	-0.175
-728.937	76.051	-0.198	0.212
-727.923	45.343	0.280	0.261
-726.908	-200.000	0.003	-0.335
-725.894	-53.763	-0.206	0.095
-724.879	-67.439	-0.217	-0.086
-723.864	580.911	-0.067	0.167
-722.850	-200.000	-0.001	-0.066
-721.835	-131.553	0.274	0.037
-720.821	-200.000	-0.024	-0.117
-719.806	191.213	-0.181	-0.276
-718.791	-31.399	-0.045	0.026
-717.777	228.968	-0.113	0.187
-716.762	-200.000	-0.060	-0.365
-715.748	571.748	0.059	-0.146
-714.733	-200.000	-0.007	-0.176
-713.718	-32.683	0.118	0.066
-712.704	22.769	0.034	0.028
-711.689	156.474	-0.127	-0.177
-710.675	-120.101	0.224	0.039
-709.660	-153.597	0.150	-0.010
-708.645	-47.455	0.108	-0.053
-707.631	129.437	0.101	-0.131
-706.616	-44.805	-0.215	0.108
-705.602	-83.219	-0.193	-0.063
-704.587	800.000	-0.046	-0.176
-703.572	-63.954	0.168	-0.069
-702.558	-151.862	0.369	0.027
-701.543	-28.978	0.201	-0.117
-700.529	-1.865	-0.176	-0.125
-699.514	57.631	0.130	-0.129
-698.499	411.686	-0.084	0.181
-697.485	-190.667	0.325	-0.004
-696.470	-200.000	0.071	-0.344
-695.456	44.150	-0.195	-0.181
-694.441	-57.482	-0.359	-0.159
-693.426	-116.279	0.043	-0.008
-692.412	-200.000	0.030	0.275
-691.397	136.455	-0.106	0.140
-690.383	-14.273	-0.225	0.147
-689.368	800.000	0.028	-0.078
-688.354	15.896	-0.155	0.123
-687.339	-200.000	-0.060	0.307
-686.324	12.099	0.399	0.310
-685.310	115.396	0.245	-0.302
-684.295	-200.000	0.014	0.160
-683.281	-55.078	-0.128	-0.058
-682.266	-200.000	-0.088	-0.000
-681.251	-200.000	0.030	0.166
-680.237	-9.460	0.329	0.222
-679.222	2.677	-0.124	-0.090
-678.208	-14.933	-0.323	0.209
-677.193	800.000	-0.058	0.203
-676.178	-23.064	0.309	0.188
-675.164	-200.000	-0.015	0.201
-674.149	31.565	0.108	0.094
-673.135	99.198	-0.182	-0.213
-672.120	306.678	-0.229	0.430
-671.105	27.805	0.172	-0.147
-670.091	-157.300	-0.258	0.016
-669.076	10.302	0.205	-0.157
-668.062	-170.235	-0.395	-0.014
-667.047	45.543	0.069	-0.064
-666.032	-112.117	0.161	-0.033
-665.018	-17.669	0.318	-0.202
-664.003	558.519	-0.024	-0.057
-662.989	7.242	-0.115	-0.087
-661.974	-43.860	-0.420	0.213
-660.959	627.356	-0.025	0.063
-659.945	-75.004	0.301	0.109
-658.930	-69.836	-0.021	-0.008
-657.916	-130.847	0.306	-0.041
-656.901	72.021	-0.122	-0.128
-655.886	235.965	-0.056	0.094
-654.872	-200.000	-0.037	-0.197
-653.857	-115.745	-0.497	-0.094
-652.843	-67.064	0.097	-0.039
-651.828	231.898	-0.096	-0.158
-650.814	364.661	0.089	0.181
-649.799	-163.001	-0.441	0.022
-648.784	3.216	-0.099	-0.073
-647.770	103.471	0.038	0.044
-646.755	411.918	0.055	-0.118
-645.741	-137.004	-0.075	0.009
-644.726	-41.408	0.173	-0.090
-643.711	-136.956	-0.120	0.014
-642.697	65.064	-0.208	0.212
-641.682	-200.000	0.016	-0.258
-640.668	-200.000	-0.025	-0.560
-639.653	163.346	-0.102	-0.145
-638.638	800.000	0.004	0.012
-637.624	85.458	0.101	0.112
-636.609	87.754	0.100	0.112
-635.595	314.123	0.103	0.195
-634.580	-184.730	-0.159	0.003
-633.565	-200.000	-0.008	-0.111
-632.551	-141.636	-0.585	0.059
-631.536	-45.814	0.215	0.107
-630.522	-200.000	0.049	-0.369
-629.507	-200.000	-0.000	-0.028
-628.492	-63.435	0.139	-0.058
-627.478	-93.881	-0.071	0.020
-626.463	85.780	-0.108	-0.120
-625.449	-64.255	-0.260	0.107
-624.434	-37.526	0.078	0.042
-623.419	520.978	-0.106	0.251
-622.405	87.649	0.104	-0.116
-621.390	-79.871	0.096	-0.032
-620.376	37.859	-0.120	0.107
-619.361	-65.086	0.219	-0.089
-618.346	-107.496	0.178	0.039
-617.332	-21.166	-0.093	-0.057
-616.317	-193.856	0.076	0.001
-615.303	-200.000	0.018	-0.259
-614.288	-200.000	0.023	0.194
-613.273	64.817	0.109	0.110
-612.259	800.000	0.066	-0.226
-611.244	-200.000	-0.009	-0.141
-610.230	-9.647	-0.085	-0.057
-609.215	-131.143	0.250	0.034
-608.201	800.000	0.043	-0.128
-607.186	-77.063	0.144	-0.051
-606.171	-124.704	-0.063	-0.010
-605.157	800.000	0.004	0.013
-604.142	-200.000	0.022	-0.364
-603.128	86.379	-0.120	-0.134
-602.113	9.681	-0.215	-0.164
-601.098	-200.000	0.067	-0.654
-600.084	497.762	-0.050	-0.116
-599.069	268.018	0.045	0.079
-598.055	-149.034	0.179	-0.014
-597.040	-38.704	-0.449	0.239
-596.025	800.000	0.070	0.285
-595.011	359.865	0.118	0.238
-593.996	-200.000	-0.000	0.105
-592.982	-140.352	-0.046	-0.005
-591.967	364.334	0.016	0.033
-590.952	800.000	0.010	-0.041
-589.938	-200.000	-0.002	-0.172
-588.923	-95.329	0.117	-0.032
-587.909	-200.000	0.007	0.139
-586.894	154.377	-0.123	0.170
-585.879	-200.000	0.002	0.262
-584.865	-57.975	-0.172	0.076
-583.850	-82.166	-0.311	-0.102
-582.836	82.541	-0.122	-0.133
-581.821	-17.146	0.118	-0.075
-580.806	-55.509	0.156	-0.070
-579.792	-83.303	-0.233	-0.075
-578.777	-200.000	-0.023	-0.229
-577.763	-64.522	0.125	-0.051
-576.748	-113.699	-0.391	-0.077
-575.733	748.270	-0.091	-0.248
-574.719	65.331	0.077	-0.078
-573.704	-200.000	0.011	0.301
-572.690	-200.000	0.039	0.286
-571.675	-72.052	-0.189	0.071
-570.661	-200.000	0.010	-0.136
-569.646	800.000	-0.046	-0.191
-568.631	33.232	-0.060	0.052
-567.617	171.332	0.113	-0.163
-566.602	800.000	0.042	-0.123
-565.588	800.000	-0.030	-0.106
-564.573	82.283	0.048	-0.052
-563.558	447.470	-0.097	-0.214
-562.544	800.000	0.093	0.264
-561.529	199.407	0.110	-0.169
-560.515	321.550	-0.100	0.192
-559.500	-110.165	-0.319	0.067
-558.485	27.357	-0.245	-0.207
-557.471	6.884	-0.128	0.096
-556.456	-129.144	0.033	-0.005
-555.442	131.091	0.272	-0.352
-554.427	-30.350	-0.291	-0.166
-553.412	208.462	-0.194	-0.304
-552.398	297.256	-0.052	0.095
-551.383	-200.000	0.007	0.081
-550.369	677.472	0.063	-0.165
-549.354	-91.990	0.060	-0.017
-548.339	-200.000	-0.045	0.265
-547.325	111.593	-0.098	0.119
-546.310	97.629	0.081	-0.093
-545.296	16.542	-0.241	-0.191
-544.281	-64.747	-0.245	0.100
-543.266	-59.915	0.247	-0.106
-542.252	-145.004	0.295	0.027
-541.237	86.545	0.045	-0.050
-540.223	76.324	-0.207	0.220
-539.208	23.125	0.300	-0.248
-538.193	285.523	0.093	-0.169
-537.179	341.382	-0.231	-0.454
-536.164	234.656	-0.191	-0.316
-535.150	72.714	0.305	-0.320
-534.135	-200.000	0.002	0.089
-533.121	800.000	0.090	0.270
-532.106	536.315	-0.052	-0.124
-531.091	-156.825	-0.289	0.018
-530.077	800.000	-0.044	-0.126
-529.062	-171.257	0.063	0.002
-528.048	207.536	-0.028	0.043
-527.033	106.466	0.100	0.119
-526.018	-77.765	0.296	0.103
-525.004	332.359	0.125	0.242
-523.989	800.000	0.050	0.165
-522.975	115.321	0.066	0.081
-521.960	-123.305	0.142	0.023
-520.945	-200.000	0.015	0.387
-519.931	-60.554	-0.228	0.097
-518.916	-200.000	0.059	0.443
-517.902	184.474	0.234	-0.348
-516.887	-113.898	0.144	0.028
-515.872	412.151	-0.079	0.168
-514.858	264.212	0.171	-0.299
-513.843	-157.634	0.179	0.011
-512.829	70.115	-0.192	0.199
-511.814	800.000	-0.038	0.162
-510.799	267.475	0.006	0.011
-509.785	124.907	-0.239	-0.303
-508.770	-135.390	0.570	0.068
-507.756	113.985	-0.135	0.165
-506.741	136.387	0.162	0.212
-505.726	-200.000	0.000	0.187
-504.712	-200.000	0.026	0.536
-503.697	0.139	-0.217	-0.155
-502.683	225.619	0.057	-0.092
-501.668	-64.119	0.144	0.059
-500.653	-5.426	-0.059	0.041
-499.639	-68.706	0.133	-0.051
-498.624	-27.047	-0.094	-0.055
-497.610	-2.664	-0.060	0.042
-496.595	159.943	-0.286	-0.400
-495.581	245.518	-0.162	-0.274
-494.566	-37.811	0.283	-0.151
-493.551	-40.856	0.030	0.015
-492.537	36.686	0.192	0.170
-491.522	89.254	-0.116	0.129
-490.508	-41.973	-0.121	0.062
-489.493	-200.000	0.002	0.486
-488.478	-136.781	-0.111	-0.013
-487.464	-39.747	-0.209	-0.110
-486.449	106.176	-0.097	0.115
-485.435	-14.176	0.245	0.158
-484.420	-200.000	-0.013	-0.100
-483.405	120.971	0.183	-0.228
-482.391	-151.196	-0.275	0.021
-481.376	800.000	0.013	0.054
-480.362	165.058	-0.080	-0.114
-479.347	166.774	0.198	0.282
-478.332	35.826	-0.309	0.273
-477.318	53.945	0.044	-0.042
-476.303	23.582	-0.066	-0.054
-475.289	450.184	0.104	-0.230
-474.274	800.000	0.068	0.232
-473.259	-126.233	0.275	0.041
-472.245	-135.310	-0.206	0.025
-471.230	-174.446	0.109	0.003
-470.216	6.565	0.123	-0.092
-469.201	-3.228	-0.140	-0.098
-468.186	-200.000	-0.013	-0.176
-467.172	482.827	0.128	-0.291
-466.157	444.575	0.072	-0.158
-465.143	19.756	-0.078	-0.063
-464.128	-200.000	0.012	-0.158
-463.113	-200.000	-0.034	0.243
-462.099	94.200	-0.130	-0.148
-461.084	-17.504	0.085	-0.054
-460.070	318.521	0.035	-0.066
-459.055	-200.000	-0.029	-0.193
-458.040	355.624	0.136	-0.271
-457.026	174.006	-0.046	0.066
-456.011	24.779	-0.086	0.072
-454.997	-159.255	0.235	0.013
-453.982	417.773	0.028	0.061
-452.968	-200.000	0.024	-0.378
-451.953	2.594	0.158	-0.115
-450.938	302.155	0.051	0.095
-449.924	-200.000	-0.026	0.134
-448.909	-63.535	0.105	-0.043
-447.895	-176.661	0.409	-0.010
-446.880	-200.000	0.006	-0.100
-445.865	37.894	-0.150	-0.134
-444.851	192.858	0.070	-0.106
-443.836	-200.000	0.029	-0.167
-442.822	43.504	0.273	-0.250
-441.807	20.936	-0.122	-0.099
-440.792	569.420	0.135	0.328
-439.778	-65.264	0.126	0.051
-438.763	-200.000	0.034	0.290
-437.749	-74.660	0.615	0.221
-436.734	-39.224	-0.379	-0.199
-435.719	18.828	0.064	-0.051
-434.705	281.455	-0.046	-0.083
-433.690	-63.948	-0.223	0.091
-432.676	-11.395	-0.174	0.115
-431.661	205.918	0.148	0.231
-430.646	-75.326	0.128	0.046
-429.632	47.262	0.249	0.232
-428.617	202.100	0.080	-0.124
-427.603	56.779	-0.069	0.067
-426.588	231.821	-0.066	0.108
-425.573	-180.568	0.214	-0.004
-424.559	415.577	-0.059	0.125
-423.544	-86.907	-0.242	-0.074
-422.530	-102.801	0.287	-0.068
-421.515	-69.200	-0.220	0.085
-420.500	-23.779	-0.048	0.029
-419.486	-77.517	0.133	-0.046
-418.471	-155.649	0.215	0.014
-417.457	-66.856	0.192	0.076
-416.442	-200.000	-0.027	0.335
-415.428	30.081	0.160	0.136
-414.413	218.402	0.119	0.190
-413.398	-200.000	-0.073	-0.471
-412.384	0.245	-0.071	-0.050
-411.369	-132.831	0.140	-0.018
-410.355	-200.000	-0.009	0.125
-409.340	800.000	-0.082	0.307
-408.325	33.583	-0.182	0.159
-407.311	142.498	-0.280	0.371
-406.296	-119.066	-0.208	0.036
-405.282	465.785	-0.164	-0.367
-404.267	26.767	0.188	0.158
-403.252	-6.705	-0.203	0.138
-402.238	-200.000	-0.065	-0.455
-401.223	-99.583	0.204	-0.051
-400.209	578.478	-0.064	-0.157
-399.194	52.149	0.083	0.079
-398.179	-108.391	-0.535	0.115
-397.165	27.507	-0.068	-0.057
-396.150	-105.287	-0.046	0.011
-395.136	-33.564	0.332	0.183
-394.121	58.933	0.361	0.355
-393.106	-4.405	0.198	0.136
-392.092	-112.909	0.082	0.016
-391.077	800.000	0.045	0.192
-390.063	351.579	0.064	-0.127
-389.048	-113.118	-0.120	-0.024
-388.033	-200.000	-0.044	0.338
-387.019	2.189	-0.234	0.169
-386.004	-94.298	-0.142	-0.039
-384.990	800.000	0.052	-0.169
-383.975	-17.298	0.193	0.121
-382.960	-200.000	-0.015	0.299
-381.946	-11.956	0.193	0.126
-380.931	388.374	0.057	0.119
-379.917	-200.000	0.022	-0.169
-378.902	-46.406	0.252	-0.124
-377.888	28.180	0.145	-0.123
-376.873	171.999	-0.124	0.177
-375.858	-25.835	-0.478	0.281
-374.844	36.059	0.243	-0.214
-373.829	-165.092	-0.131	0.006
-372.815	-9.237	0.105	-0.070
-371.800	281.011	-0.129	-0.230
-370.785	-200.000	0.003	0.175
-369.771	528.655	0.125	-0.294
-368.756	-78.905	0.406	-0.138
-367.742	-76.024	0.040	-0.014
-366.727	-53.090	-0.165	0.075
-365.712	-93.406	-0.137	-0.038
-364.698	-73.675	0.015	0.006
-363.683	-41.325	0.292	-0.150
-362.669	-101.367	-0.216	-0.052
-361.654	119.450	0.134	0.166
-360.639	-145.027	-0.394	0.036
-359.625	-200.000	0.006	-0.089
-358.610	98.064	-0.192	0.220
-357.596	-121.268	-0.228	-0.038
-356.581	800.000	0.070	0.297
-355.566	-50.953	-0.122	-0.057
-354.552	5.961	0.032	-0.024
-353.537	800.000	-0.072	0.223
-352.523	-200.000	0.084	0.387
-351.508	-29.567	-0.207	0.118
-350.493	-200.000	-0.051	0.261
-349.479	800.000	0.103	-0.314
-348.464	689.768	-0.069	-0.179
-347.450	800.000	0.102	0.327
-346.435	-160.598	-0.132	0.007
-345.420	-181.134	-0.046	0.001
-344.406	67.384	-0.138	-0.140
-343.391	70.062	0.114	0.118
-342.377	55.262	-0.108	0.104
-341.362	-39.959	-0.052	-0.027
-340.348	-89.829	0.334	-0.097
-339.333	67.392	0.106	0.108
-338.318	-200.000	0.039	0.234
-337.304	91.594	-0.343	-0.384
-336.289	18.592	-0.047	0.037
-335.275	56.099	0.246	0.238
-334.260	85.568	-0.219	-0.240
-333.245	-200.000	-0.043	0.322
-332.231	-30.198	-0.158	0.089
-331.216	800.000	0.018	-0.052
-330.202	-200.000	-0.023	-0.191
-329.187	-65.446	-0.312	-0.125
-328.172	-200.000	-0.013	0.107
-327.158	63.083	0.064	-0.064
-326.143	199.618	0.039	-0.060
-325.129	215.976	-0.161	0.255
-324.114	-88.672	-0.163	-0.048
-323.099	313.988	-0.077	0.144
-322.085	-161.699	-0.110	-0.006
-321.070	800.000	-0.078	-0.295
-320.056	110.512	-0.217	-0.259
-319.041	-53.676	-0.062	-0.028
-318.026	-200.000	-0.015	-0.107
-317.012	-200.000	-0.019	-0.269
-315.997	-125.404	0.125	0.019
-314.983	-85.675	-0.142	0.044
-313.968	-40.477	0.374	0.193
-312.953	-24.074	-0.115	0.068
-311.939	-200.000	-0.011	0.162
-310.924	4.402	0.192	-0.140
-309.910	85.175	0.205	0.224
-308.895	43.177	-0.055	-0.050
-307.880	800.000	0.087	-0.242
-306.866	118.964	0.218	0.269
-305.851	-89.088	-0.455	0.134
-304.837	-70.970	-0.171	-0.064
-303.822	80.493	-0.086	0.093
-302.807	800.000	0.087	0.284
-301.793	-34.069	0.397	0.218
-300.778	-168.439	-0.180	0.007
-299.764	-200.000	0.000	0.222
-298.749	17.812	-0.318	-0.252
-297.735	-159.063	0.370	0.021
-296.720	-119.863	-0.030	0.005
-295.705	109.406	0.135	-0.161
-294.691	66.507	0.144	0.146
-293.676	800.000	0.077	0.288
-292.662	-17.310	-0.172	-0.108
-291.647	-92.239	-0.180	0.051
-290.632	5.479	-0.132	-0.097
-289.618	244.185	-0.103	0.173
-288.603	33.475	-0.269	-0.232
-287.589	115.711	0.035	0.043
-286.574	800.000	0.077	-0.306
-285.559	-55.063	0.189	-0.085
-284.545	-116.843	0.367	-0.067
-283.530	-112.616	-0.144	-0.028
-282.516	39.866	0.199	0.178
-281.501	-103.121	-0.328	-0.077
-280.486	164.165	-0.129	0.181
-279.472	-200.000	0.039	-0.201
-278.457	-74.373	0.127	0.045
-277.443	800.000	-0.031	-0.120
-276.428	-52.786	-0.132	0.061
-275.413	-72.449	-0.145	0.053
-274.399	-106.429	0.142	-0.031
-273.384	619.003	-0.146	-0.365
-272.370	98.717	-0.297	-0.340
-271.355	-55.148	-0.130	-0.058
-270.340	-110.994	-0.236	-0.048
-269.326	-200.000	-0.012	-0.111
-268.311	83.697	-0.073	0.080
-267.297	-33.073	0.190	0.105
-266.282	-22.107	0.333	-0.201
-265.267	-1.314	-0.179	-0.125
-264.253	-200.000	-0.052	0.253
-263.238	800.000	0.044	0.157
-262.224	771.375	0.074	-0.200
-261.209	-200.000	-0.024	-0.112
-260.195	148.821	0.115	-0.154
-259.180	-200.000	-0.018	-0.270
-258.165	15.698	-0.122	-0.095
-257.151	-200.000	-0.175	-0.001
-256.136	640.477	-0.022	-0.056
-255.122	485.872	0.108	-0.245
-254.107	-24.019	-0.257	-0.153
-253.092	323.606	0.069	0.130
-252.078	-86.145	0.231	-0.071
-251.063	800.000	0.021	0.062
-250.049	-19.558	0.222	0.137
-249.034	207.688	-0.098	-0.152
-248.019	-106.920	0.063	-0.014
-247.005	-200.000	-0.026	0.140
-245.990	-59.212	-0.076	0.033
-244.976	315.247	-0.127	0.239
-243.961	-190.316	-0.134	-0.001
-242.946	800.000	-0.037	-0.150
-241.932	643.784	-0.018	-0.045
-240.917	-58.313	-0.234	-0.101
-239.903	-200.000	0.028	0.153
-238.888	-122.789	0.071	0.011
-237.873	-200.000	-0.008	-0.273
-236.859	-58.688	0.190	-0.082
-235.844	-20.920	-0.154	0.094
-234.830	-13.868	0.196	0.126
-233.815	-43.486	0.210	-0.105
-232.800	-132.570	0.280	0.036
-231.786	-200.000	0.038	0.285
-230.771	11.957	0.180	0.138
-229.757	-27.496	0.055	0.031
-228.742	-87.314	-0.136	-0.041
-227.727	482.132	0.156	-0.351
-226.713	-69.863	-0.097	-0.037
-225.698	522.169	-0.054	-0.126
-224.684	-25.723	0.090	0.053
-223.669	-200.000	0.004	0.046
-222.655	-146.990	0.159	0.014
-221.640	101.852	0.200	0.231
-220.625	215.788	0.151	0.237
-219.611	457.453	0.140	-0.308
-218.596	-69.642	0.268	-0.102
-217.582	-183.280	-0.135	-0.002
-216.567	388.514	0.196	-0.403
-215.552	-17.238	-0.142	-0.089
-214.538	-87.981	0.165	0.049
-213.523	-200.000	0.003	-0.096
-212.509	79.167	0.110	0.117
-211.494	-47.484	-0.034	0.016
-210.479	-66.081	-0.169	-0.067
-209.465	115.920	-0.064	0.078
-208.450	-116.979	0.084	0.015
-207.436	-200.000	0.021	0.379
-206.421	-135.612	0.018	0.002
-205.406	-200.000	-0.015	0.424
-204.392	707.146	-0.140	-0.366
-203.377	-158.555	0.093	-0.005
-202.363	800.000	-0.020	-0.083
-201.348	72.017	0.207	0.213
-200.333	-74.439	-0.221	-0.079
-199.319	-117.990	0.068	-0.012
-198.304	304.343	-0.042	-0.078
-197.290	18.781	-0.226	0.179
-196.275	-200.000	-0.048	-0.237
-195.260	-200.000	0.002	-0.026
-194.246	-200.000	-0.022	-0.400
-193.231	9.234	0.142	0.106
-192.217	800.000	0.025	0.108
-191.202	-33.319	-0.210	-0.115
-190.187	-200.000	-0.089	-0.398
-189.173	411.244	0.040	0.084
-188.158	-153.206	-0.230	-0.016
-187.144	12.316	0.283	-0.216
-186.129	12.882	0.149	0.115
-185.114	800.000	-0.069	0.201
-184.100	335.850	-0.138	0.265
-183.085	800.000	0.044	-0.142
-182.071	-73.334	-0.451	-0.163
-181.056	-200.000	0.014	-0.182
-180.042	86.547	-0.189	0.207
-179.027	-135.048	0.327	-0.039
-178.012	-82.714	0.259	0.083
-176.998	-46.557	0.147	-0.071
-175.983	-70.348	0.153	0.057
-174.969	-25.079	0.189	0.111
-173.954	-5.562	0.322	0.219
-172.939	22.051	-0.110	0.089
-171.925	-39.458	-0.288	0.149
-170.910	-111.596	0.118	-0.024
-169.896	275.201	0.052	0.091
-168.881	-200.000	-0.004	0.213
-167.866	702.598	-0.075	0.197
-166.852	-23.665	-0.033	-0.019
-165.837	136.722	0.166	0.215
-164.823	800.000	0.119	-0.395
-163.808	-200.000	0.038	0.254
-162.793	105.860	0.225	0.264
-161.779	-200.000	0.050	0.304
-160.764	213.138	0.080	0.125
-159.750	348.644	-0.023	0.044
-158.735	-70.795	0.164	-0.061
-157.720	140.307	-0.154	-0.201
-156.706	-52.207	0.142	0.065
-155.691	-2.891	-0.289	0.200
-154.677	-156.860	-0.258	-0.016
-153.662	-200.000	0.015	-0.177
-152.647	443.585	0.101	0.219
-151.633	800.000	-0.075	0.291
-150.618	-200.000	0.008	-0.139
-149.604	388.986	-0.105	-0.216
-148.589	800.000	-0.082	0.295
-147.574	266.787	0.080	0.139
-146.560	-200.000	-0.041	0.460
-145.545	335.674	0.116	0.222
-144.531	-158.742	-0.036	-0.002
-143.516	800.000	-0.030	-0.097
-142.502	-118.145	-0.291	0.051
-141.487	-200.000	0.013	0.404
-140.472	-127.190	-0.385	0.056
-139.458	-147.670	0.342	-0.028
-138.443	800.000	0.052	0.206
-137.429	722.695	-0.106	-0.278
-136.414	800.000	-0.140	-0.586
-135.399	172.417	0.236	0.336
-134.385	250.946	-0.022	0.037
-133.370	272.942	-0.140	0.245
-132.356	800.000	-0.083	0.296
-131.341	254.207	-0.056	0.095
-130.326	-94.679	-0.363	-0.098
-129.312	-200.000	0.025	-0.189
-128.297	-57.636	-0.178	-0.077
-127.283	-87.877	0.193	-0.058
-126.268	-94.920	-0.349	-0.093
-125.253	645.903	0.005	-0.012
-124.239	294.352	-0.085	-0.153
-123.224	206.532	0.149	0.229
-122.210	800.000	0.094	0.370
-121.195	-96.826	0.122	-0.032
