DTS Sentinel unit serial number:	SN413079Multiplexer serial number:	ORYXHardware model number:	OX4-SRSoftware version number:	ORYX F/W v4.00 Oryx Data Collector v3.7.2.0data status	okinstallation	princeton_trtdifferential loss correction	single-endedforward channel	channel 4reverse channel	N/Adate	2019/09/12time	14:51:11forward acquisition time	60.00reverse acquisition time	0.00gamma	496.2192k internal	0.2289k external	0.2289temperature offset calibration	1.0088default loss term (dB/km)	0.3790temperature slope calibration	1.0000multiplexer offset coefficient	1.0000multiplexer slope coefficient	1.0000fibre end	0.00T internal ref (°C)	40.25T ext. ref 1 (°C)	2.30T ext. ref 2 (°C)	37.10length (m)	temperature (°C)	Stokes	anti-Stokes-747.200	442.223	0.074	0.166
-746.185	-94.904	0.146	-0.041
-745.171	63.141	0.181	0.186
-744.156	-85.015	-0.288	0.093
-743.142	-150.065	-0.167	-0.013
-742.127	-37.773	-0.243	-0.133
-741.112	-7.521	-0.206	0.143
-740.098	132.255	-0.268	0.353
-739.083	265.165	0.209	-0.372
-738.069	9.921	0.142	0.111
-737.054	-200.000	-0.015	-0.095
-736.039	-123.277	-0.282	0.046
-735.025	-58.787	0.272	-0.121
-734.010	37.485	-0.163	-0.148
-732.996	63.924	0.156	-0.161
-731.981	59.485	0.014	-0.014
-730.966	-200.000	-0.062	-0.339
-729.952	-100.397	-0.132	-0.033
-728.937	-200.000	-0.025	-0.118
-727.923	18.173	-0.115	-0.094
-726.908	41.357	0.039	0.036
-725.894	800.000	-0.080	0.276
-724.879	-25.106	-0.212	-0.128
-723.864	800.000	-0.087	-0.256
-722.850	119.356	-0.131	0.166
-721.835	-43.067	0.107	0.055
-720.821	-108.370	0.344	0.076
-719.806	28.488	0.128	-0.111
-718.791	-144.625	-0.037	-0.004
-717.777	-105.199	-0.246	-0.058
-716.762	87.763	-0.112	-0.127
-715.748	-78.442	0.011	0.004
-714.733	-14.290	-0.174	-0.115
-713.718	-191.354	-0.149	-0.002
-712.704	800.000	0.073	0.307
-711.689	51.097	-0.040	-0.039
-710.675	800.000	-0.063	-0.259
-709.660	800.000	-0.010	-0.043
-708.645	-34.991	-0.149	-0.083
-707.631	6.193	0.324	-0.246
-706.616	-149.361	-0.067	-0.005
-705.602	-122.240	-0.292	0.049
-704.587	-151.382	-0.461	-0.035
-703.572	2.602	-0.198	-0.147
-702.558	674.493	-0.085	-0.226
-701.543	-26.827	-0.122	0.073
-700.529	340.338	0.055	-0.110
-699.514	123.343	-0.151	-0.193
-698.499	800.000	-0.032	-0.094
-697.485	-200.000	-0.038	0.178
-696.470	199.000	-0.074	-0.116
-695.456	-200.000	0.006	0.057
-694.441	143.928	0.119	0.163
-693.426	-124.167	-0.198	0.032
-692.412	-46.872	-0.425	0.212
-691.397	-18.191	-0.133	-0.085
-690.383	-25.514	0.330	0.199
-689.368	-125.279	-0.077	-0.012
-688.354	-85.999	0.295	0.093
-687.339	800.000	0.026	-0.092
-686.324	10.529	0.207	-0.161
-685.310	-10.045	-0.370	0.252
-684.295	-200.000	-0.014	-0.258
-683.281	347.884	-0.190	-0.382
-682.266	186.592	-0.112	0.170
-681.251	-196.209	-0.073	-0.001
-680.237	-116.886	0.380	0.071
-679.222	42.627	-0.081	0.075
-678.208	-28.807	0.156	-0.091
-677.193	-40.623	0.351	-0.186
-676.178	102.800	-0.141	0.169
-675.164	-107.155	0.071	0.016
-674.149	800.000	0.081	-0.278
-673.135	242.731	0.132	0.225
-672.120	-30.027	0.381	0.222
-671.105	-200.000	0.022	-0.132
-670.091	241.045	-0.106	-0.181
-669.076	-106.986	0.496	-0.112
-668.062	-153.677	0.426	0.030
-667.047	-200.000	0.054	0.251
-666.032	113.140	-0.022	-0.027
-665.018	-133.924	0.362	0.046
-664.003	274.697	-0.088	0.158
-662.989	276.454	0.052	0.094
-661.974	47.613	-0.236	0.225
-660.959	-53.859	0.314	0.146
-659.945	18.063	0.105	-0.086
-658.930	-154.056	-0.029	-0.002
-657.916	602.701	-0.054	-0.138
-656.901	-200.000	0.013	-0.200
-655.886	-100.759	-0.117	-0.029
-654.872	-71.244	-0.243	0.093
-653.857	245.542	0.106	-0.182
-652.843	508.296	-0.092	0.218
-651.828	800.000	-0.097	0.314
-650.814	-128.304	0.290	0.042
-649.799	136.340	-0.331	0.440
-648.784	119.539	0.292	0.369
-647.770	24.261	-0.074	-0.063
-646.755	95.271	-0.209	0.243
-645.741	145.572	-0.282	0.385
-644.726	-1.849	-0.057	-0.041
-643.711	44.768	-0.260	0.245
-642.697	-42.855	0.162	-0.084
-641.682	270.058	0.225	-0.404
-640.668	-53.785	-0.297	0.138
-639.653	58.895	-0.080	0.080
-638.638	-200.000	0.003	0.121
-637.624	-200.000	0.047	-0.329
-636.609	-200.000	-0.003	-0.298
-635.595	800.000	-0.040	-0.169
-634.580	-29.228	0.228	-0.133
-633.565	106.775	-0.054	-0.065
-632.551	-11.365	-0.146	-0.098
-631.536	130.135	0.157	0.205
-630.522	-200.000	-0.009	0.059
-629.507	49.464	0.151	-0.145
-628.492	-200.000	-0.018	-0.090
-627.478	15.142	0.116	0.092
-626.463	-200.000	0.005	0.095
-625.449	-109.310	0.136	-0.029
-624.434	301.475	-0.154	-0.291
-623.419	-85.651	-0.143	0.045
-622.405	-63.871	0.250	0.104
-621.390	-79.108	-0.213	0.074
-620.376	-194.274	0.403	-0.003
-619.361	-9.805	-0.141	0.096
-618.346	265.720	-0.083	0.148
-617.332	31.293	0.060	-0.053
-616.317	-127.746	-0.152	0.022
-615.303	166.990	-0.176	-0.255
-614.288	-51.026	-0.087	0.042
-613.273	266.944	0.136	0.242
-612.259	493.534	0.052	-0.122
-611.244	16.682	-0.122	0.098
-610.230	-200.000	0.012	0.189
-609.215	-134.247	-0.290	0.036
-608.201	800.000	0.033	0.117
-607.186	162.186	0.077	-0.110
-606.171	800.000	0.076	0.260
-605.157	-79.677	-0.228	-0.078
-604.142	-200.000	0.028	0.351
-603.128	-136.551	0.274	0.032
-602.113	-140.441	-0.175	0.019
-601.098	-27.246	-0.315	-0.187
-600.084	277.654	-0.081	-0.146
-599.069	800.000	-0.074	0.279
-598.055	-105.439	-0.073	0.017
-597.040	-153.178	0.147	-0.010
-596.025	15.858	0.070	0.056
-595.011	152.825	0.128	0.178
-593.996	-0.151	0.196	-0.142
-592.982	741.649	0.055	0.151
-591.967	-200.000	0.014	-0.310
-590.952	-144.518	0.333	-0.031
-589.938	44.411	-0.202	-0.189
-588.923	560.702	0.102	-0.251
-587.909	-73.436	0.128	-0.048
-586.894	47.184	0.212	0.201
-585.879	800.000	0.067	0.250
-584.865	-200.000	0.007	-0.051
-583.850	218.346	-0.128	0.209
-582.836	-29.504	-0.355	0.207
-581.821	-69.703	-0.169	-0.066
-580.806	-200.000	-0.009	-0.092
-579.792	427.041	0.047	-0.103
-578.777	91.751	0.161	-0.184
-577.763	284.732	-0.246	0.451
-576.748	-98.781	0.481	0.125
-575.733	-98.618	0.073	-0.019
-574.719	20.858	-0.293	-0.242
-573.704	800.000	-0.059	-0.244
-572.690	-200.000	0.028	-0.197
-571.675	800.000	0.092	0.273
-570.661	800.000	0.045	0.130
-569.646	68.766	0.069	-0.072
-568.631	-116.295	0.288	-0.054
-567.617	10.995	0.095	0.074
-566.602	800.000	-0.111	0.380
-565.588	-18.402	-0.283	0.180
-564.573	-121.264	-0.501	-0.085
-563.558	106.327	0.112	-0.135
-562.544	-200.000	0.020	-0.177
-561.529	-200.000	-0.017	-0.354
-560.515	254.255	-0.074	-0.129
-559.500	-49.724	0.066	-0.032
-558.485	90.313	-0.208	-0.236
-557.471	-80.913	-0.187	-0.063
-556.456	231.756	-0.226	-0.378
-555.442	513.596	0.124	-0.295
-554.427	-80.739	0.292	-0.099
-553.412	-200.000	-0.012	-0.087
-552.398	-200.000	0.004	-0.066
-551.383	-67.957	-0.031	0.012
-550.369	800.000	-0.116	0.480
-549.354	-2.496	0.223	-0.159
-548.339	-200.000	-0.017	0.105
-547.325	57.721	0.347	0.345
-546.310	-0.198	0.208	-0.150
-545.296	792.855	0.098	-0.274
-544.281	-91.528	0.312	0.090
-543.266	27.951	-0.303	0.260
-542.252	-69.117	-0.171	0.067
-541.237	-200.000	-0.069	-0.381
-540.223	-68.592	-0.241	-0.095
-539.208	-137.812	-0.240	0.027
-538.193	-38.225	-0.247	0.133
-537.179	-200.000	0.004	0.174
-536.164	301.274	-0.094	0.176
-535.150	672.250	0.102	0.270
-534.135	-9.313	-0.051	-0.035
-533.121	800.000	0.079	-0.253
-532.106	-79.846	-0.514	0.176
-531.091	30.348	0.085	0.074
-530.077	725.737	-0.133	-0.360
-529.062	-113.152	0.191	-0.038
-528.048	-200.000	0.025	0.321
-527.033	121.849	0.095	0.121
-526.018	-168.778	-0.399	0.015
-525.004	-126.269	-0.135	0.021
-523.989	198.688	0.002	0.003
-522.975	-140.361	0.030	-0.003
-521.960	30.151	0.237	-0.205
-520.945	3.294	0.282	0.209
-519.931	-200.000	-0.016	0.325
-518.916	-200.000	0.026	0.148
-517.902	126.631	0.218	0.281
-516.887	114.509	-0.073	0.090
-515.872	7.630	-0.412	0.313
-514.858	1.737	0.105	0.077
-513.843	167.615	-0.134	-0.194
-512.829	698.281	0.110	-0.293
-511.814	114.281	-0.191	-0.236
-510.799	162.602	-0.100	0.142
-509.785	-28.318	0.085	-0.050
-508.770	-200.000	-0.065	-0.440
-507.756	-200.000	-0.003	-0.201
-506.741	-200.000	-0.001	-0.096
-505.726	-106.182	-0.231	0.053
-504.712	97.618	0.043	0.050
-503.697	413.695	0.025	-0.053
-502.683	119.639	0.110	-0.138
-501.668	-73.034	-0.166	0.062
-500.653	496.318	-0.139	0.323
-499.639	-200.000	-0.022	-0.170
-498.624	-33.209	0.179	-0.101
-497.610	-200.000	0.030	-0.337
-496.595	-39.903	-0.233	-0.123
-495.581	274.587	-0.034	-0.060
-494.566	51.007	0.203	0.195
-493.551	-67.769	0.392	-0.156
-492.537	800.000	-0.045	-0.160
-491.522	-168.366	0.132	-0.005
-490.508	-27.428	-0.107	-0.063
-489.493	-116.555	-0.439	0.082
-488.478	-114.118	-0.181	-0.035
-487.464	800.000	-0.159	-0.450
-486.449	119.079	0.111	-0.139
-485.435	605.164	0.069	-0.175
-484.420	-167.661	-0.212	0.009
-483.405	-200.000	-0.043	0.397
-482.391	-136.312	0.299	0.035
-481.376	-200.000	0.045	-0.212
-480.362	157.930	-0.128	0.180
-479.347	105.673	-0.080	0.096
-478.332	-200.000	0.030	-0.270
-477.318	41.353	-0.105	-0.096
-476.303	-57.004	-0.430	-0.192
-475.289	800.000	-0.170	-0.534
-474.274	-74.724	0.307	0.112
-473.259	-42.331	-0.156	0.081
-472.245	-114.166	0.153	0.030
-471.230	84.148	-0.124	-0.138
-470.216	305.228	0.159	0.299
-469.201	39.901	-0.141	0.128
-468.186	-3.656	-0.245	0.173
-467.172	576.768	0.031	-0.076
-466.157	800.000	-0.076	-0.276
-465.143	587.622	-0.131	-0.328
-464.128	-45.533	0.091	0.046
-463.113	-71.699	0.318	0.120
-462.099	800.000	-0.057	-0.208
-461.084	-42.893	-0.126	0.065
-460.070	44.359	-0.104	0.097
-459.055	-200.000	0.018	-0.155
-458.040	800.000	-0.031	0.117
-457.026	286.606	0.111	0.202
-456.011	-119.032	0.178	-0.031
-454.997	17.704	0.104	0.084
-453.982	36.779	-0.436	0.390
-452.968	92.655	-0.199	0.228
-451.953	-90.083	-0.080	0.024
-450.938	-200.000	0.025	-0.116
-449.924	-98.273	-0.196	0.051
-448.909	438.510	-0.068	-0.150
-447.895	41.790	0.136	0.125
-446.880	-200.000	-0.015	0.207
-445.865	55.278	0.095	-0.093
-444.851	265.714	-0.080	-0.142
-443.836	300.897	0.173	0.324
-442.822	800.000	-0.075	-0.221
-441.807	271.364	0.183	-0.327
-440.792	0.339	-0.106	0.077
-439.778	81.357	-0.248	-0.272
-438.763	-189.043	0.209	0.003
-437.749	800.000	0.038	-0.143
-436.734	10.317	-0.113	0.087
-435.719	800.000	-0.053	0.208
-434.705	301.872	0.035	-0.066
-433.690	154.227	-0.117	-0.163
-432.676	-20.888	-0.362	0.225
-431.661	-84.257	0.308	0.099
-430.646	-18.273	-0.113	-0.072
-429.632	251.487	0.019	-0.033
-428.617	-85.164	0.189	-0.060
-427.603	-153.714	-0.210	-0.015
-426.588	-200.000	-0.004	0.269
-425.573	-79.348	-0.266	0.091
-424.559	-158.356	-0.242	-0.014
-423.544	-168.247	-0.381	-0.015
-422.530	-82.195	-0.068	-0.022
-421.515	-200.000	-0.005	0.097
-420.500	-89.190	0.133	-0.040
-419.486	800.000	0.017	-0.057
-418.471	-86.982	-0.246	-0.076
-417.457	63.557	0.095	-0.097
-416.442	-6.921	-0.069	-0.047
-415.428	219.346	0.194	0.313
-414.413	-48.403	-0.057	-0.028
-413.398	-62.179	-0.206	-0.087
-412.384	800.000	-0.022	-0.077
-411.369	568.136	0.066	-0.161
-410.355	364.517	-0.217	0.441
-409.340	470.993	-0.054	-0.124
-408.325	-200.000	-0.033	-0.236
-407.311	-77.579	-0.342	-0.120
-406.296	138.444	0.206	-0.273
-405.282	800.000	0.070	0.225
-404.267	73.408	0.238	0.252
-403.252	-141.642	0.120	0.012
-402.238	-102.673	0.072	-0.017
-401.223	-25.352	-0.117	-0.070
-400.209	140.136	0.095	-0.126
-399.194	-107.754	0.208	-0.046
-398.179	-144.447	-0.279	0.026
-397.165	13.788	0.470	0.369
-396.150	251.454	0.158	-0.272
-395.136	-84.635	0.154	-0.049
-394.121	-112.232	0.289	0.059
-393.106	274.301	-0.119	0.213
-392.092	63.353	0.050	0.051
-391.077	85.593	-0.089	0.099
-390.063	303.232	-0.034	0.064
-389.048	-134.362	0.180	-0.022
-388.033	-67.927	0.181	0.071
-387.019	-200.000	0.066	0.333
-386.004	-120.700	0.484	-0.083
-384.990	-87.125	0.164	0.050
-383.975	-79.445	0.172	-0.059
-382.960	290.907	-0.204	-0.374
-381.946	-154.815	0.122	0.008
-380.931	-139.833	0.228	-0.024
-379.917	84.364	-0.135	-0.149
-378.902	-200.000	0.046	-0.558
-377.888	-33.289	-0.257	-0.144
-376.873	800.000	0.041	0.140
-375.858	-145.454	0.112	-0.010
-374.844	286.602	0.009	0.016
-373.829	-48.452	0.077	0.037
-372.815	-80.843	0.076	-0.026
-371.800	421.197	-0.134	0.290
-370.785	-200.000	0.049	-0.358
-369.771	-200.000	-0.028	-0.146
-368.756	-200.000	-0.007	-0.106
-367.742	800.000	0.120	0.366
-366.727	-67.077	-0.148	0.059
-365.712	800.000	0.139	-0.442
-364.698	-129.283	-0.090	0.013
-363.683	-115.297	-0.274	-0.052
-362.669	-200.000	0.016	0.147
-361.654	176.386	0.030	0.044
-360.639	800.000	0.018	0.071
-359.625	-200.000	0.036	-0.169
-358.610	-9.243	-0.134	0.091
-357.596	800.000	-0.096	0.271
-356.581	-54.308	-0.237	-0.109
-355.566	40.814	0.114	-0.104
-354.552	-90.304	0.141	-0.041
-353.537	55.634	0.117	-0.115
-352.523	800.000	-0.042	-0.156
-351.508	320.683	-0.057	0.108
-350.493	-200.000	-0.173	0.001
-349.479	34.527	-0.299	0.263
-348.464	258.725	-0.105	0.182
-347.450	35.210	-0.089	0.078
-346.435	-55.348	0.080	-0.036
-345.420	-200.000	-0.007	-0.087
-344.406	745.010	0.062	0.168
-343.391	16.556	0.191	-0.153
-342.377	215.265	-0.035	-0.057
-341.362	-53.306	0.159	0.073
-340.348	-199.064	-0.231	0.001
-339.333	-101.415	0.499	-0.123
-338.318	-73.094	-0.296	0.109
-337.304	-11.563	-0.177	-0.117
-336.289	800.000	-0.020	0.082
-335.275	-104.782	0.119	-0.028
-334.260	489.119	0.049	0.113
-333.245	79.947	0.156	-0.169
-332.231	463.303	-0.041	0.092
-331.216	354.775	-0.035	-0.069
-330.202	76.144	-0.141	-0.151
-329.187	214.828	-0.102	0.164
-328.172	195.008	0.144	0.220
-327.158	45.917	0.134	-0.125
-326.143	800.000	0.024	-0.084
-325.129	419.885	0.136	-0.294
-324.114	-77.923	0.288	0.100
-323.099	-97.929	0.263	-0.068
-322.085	86.010	-0.155	0.172
-321.070	800.000	-0.065	-0.242
-320.056	0.947	0.356	0.257
-319.041	504.571	-0.026	0.061
-318.026	306.374	0.109	0.205
-317.012	-155.506	-0.157	-0.010
-315.997	54.343	-0.329	0.319
-314.983	139.081	0.052	-0.069
-313.968	-59.774	0.056	-0.024
-312.953	50.642	-0.109	0.104
-311.939	79.977	-0.175	-0.190
-310.924	-63.377	0.202	-0.084
-309.910	800.000	-0.053	-0.173
-308.895	123.233	-0.204	0.258
-307.880	-103.368	-0.101	-0.024
-306.866	-143.035	0.096	0.009
-305.851	-200.000	0.010	0.133
-304.837	247.295	0.125	-0.212
-303.822	-94.357	-0.281	0.077
-302.807	315.718	0.168	-0.320
-301.793	717.882	-0.107	-0.287
-300.778	61.476	-0.137	-0.137
-299.764	-200.000	-0.022	-0.210
-298.749	42.518	0.112	0.103
-297.735	-62.298	-0.073	-0.031
-296.720	-200.000	-0.021	0.346
-295.705	-108.997	0.065	0.014
-294.691	800.000	-0.071	0.219
-293.676	-200.000	-0.018	0.378
-292.662	161.292	-0.167	-0.236
-291.647	-200.000	0.027	0.216
-290.632	16.443	0.323	0.257
-289.618	460.342	0.104	-0.232
-288.603	-80.359	-0.323	-0.108
-287.589	-63.351	0.206	-0.085
-286.574	729.101	0.041	0.109
-285.559	69.217	-0.098	0.101
-284.545	-119.400	-0.194	0.034
-283.530	117.412	0.118	-0.146
-282.516	800.000	0.088	0.267
-281.501	699.278	0.086	-0.228
-280.486	-42.172	0.337	0.173
-279.472	-45.738	0.073	0.036
-278.457	-164.658	-0.146	-0.007
-277.443	-130.265	0.283	-0.039
-276.428	-44.732	0.269	0.135
-275.413	199.156	0.091	-0.140
-274.399	131.911	-0.173	0.224
-273.384	-70.397	0.120	0.046
-272.370	-14.688	-0.093	0.060
-271.355	167.737	0.032	-0.045
-270.340	-5.189	0.245	0.169
-269.326	800.000	0.060	0.249
-268.311	-70.249	-0.190	-0.073
-267.297	35.585	0.330	-0.292
-266.282	800.000	-0.087	0.371
-265.267	-200.000	0.031	-0.180
-264.253	-30.712	0.213	-0.121
-263.238	12.956	-0.059	0.046
-262.224	-22.366	-0.010	-0.006
-261.209	-13.684	-0.147	0.096
-260.195	-200.000	0.064	-0.295
-259.180	258.772	0.082	-0.142
-258.165	-66.189	-0.259	0.104
-257.151	-73.867	-0.051	0.019
-256.136	683.122	0.168	-0.442
-255.122	-200.000	-0.011	-0.135
-254.107	-200.000	-0.007	0.187
-253.092	75.841	0.130	-0.138
-252.078	-144.703	-0.083	-0.008
-251.063	800.000	0.139	-0.391
-250.049	796.416	0.122	0.337
-249.034	-138.144	-0.215	-0.024
-248.019	800.000	-0.128	0.360
-247.005	-37.141	-0.226	0.122
-245.990	-154.733	0.158	0.011
-244.976	800.000	0.065	-0.288
-243.961	-52.359	0.418	0.195
-242.946	521.417	0.027	0.064
-241.932	-200.000	0.016	0.153
-240.917	-200.000	0.028	-0.176
-239.903	457.040	-0.018	-0.040
-238.888	-75.827	0.296	0.105
-237.873	-11.170	-0.037	0.024
-236.859	-200.000	-0.028	0.454
-235.844	-3.784	0.036	-0.025
-234.830	197.145	0.033	-0.050
-233.815	-125.751	0.105	0.016
-232.800	-137.091	-0.210	-0.024
-231.786	-119.681	-0.057	0.010
-230.771	800.000	-0.080	-0.235
-229.757	55.644	-0.074	-0.072
-228.742	-10.817	0.161	0.107
-227.727	108.626	0.080	-0.096
-226.713	-60.558	-0.429	0.183
-225.698	-141.317	-0.177	0.018
-224.684	-200.000	0.006	0.053
-223.669	334.470	-0.151	-0.293
-222.655	-123.801	0.057	-0.009
-221.640	672.623	0.028	0.072
-220.625	31.467	0.182	-0.157
-219.611	800.000	0.061	0.203
-218.596	505.756	0.079	0.184
-217.582	268.499	-0.137	-0.242
-216.567	8.736	0.065	0.049
-215.552	-200.000	0.005	0.199
-214.538	-200.000	0.009	0.070
-213.523	79.080	0.266	0.286
-212.509	63.791	-0.073	0.074
-211.494	31.255	0.052	0.045
-210.479	518.412	0.076	0.179
-209.465	189.024	0.163	-0.244
-208.450	800.000	-0.033	0.092
-207.436	9.830	0.629	0.479
-206.421	-200.000	0.018	0.249
-205.406	-113.228	0.032	0.006
-204.392	138.619	0.095	0.125
-203.377	-200.000	-0.053	0.285
-202.363	-200.000	-0.070	0.390
-201.348	-36.957	-0.295	-0.159
-200.333	530.695	-0.051	0.121
-199.319	-200.000	0.038	0.224
-198.304	-6.234	-0.231	0.158
-197.290	800.000	0.032	-0.132
-196.275	-8.419	0.157	-0.106
-195.260	93.933	0.273	-0.310
-194.246	-153.134	-0.290	-0.020
-193.231	-141.173	0.190	-0.019
-192.217	-200.000	-0.013	-0.183
-191.202	-200.000	0.001	-0.232
-190.187	-75.240	-0.214	-0.077
-189.173	106.805	-0.050	0.059
-188.158	353.092	-0.113	-0.225
-187.144	-102.235	0.294	0.071
-186.129	223.195	0.097	0.157
-185.114	-200.000	-0.063	-0.462
-184.100	-150.812	-0.406	0.031
-183.085	14.830	0.074	0.058
-182.071	-200.000	-0.005	0.211
-181.056	-200.000	-0.006	0.039
-180.042	47.281	0.103	0.096
-179.027	-105.248	0.101	-0.023
-178.012	800.000	-0.055	-0.236
-176.998	-31.923	0.280	-0.157
-175.983	-66.623	0.532	-0.211
-174.969	-200.000	-0.001	0.229
-173.954	-99.375	0.192	-0.048
-172.939	537.526	-0.036	0.087
-171.925	418.187	0.069	0.148
-170.910	55.264	-0.227	-0.220
-169.896	-200.000	-0.024	-0.136
-168.881	-117.036	0.417	-0.076
-167.866	800.000	-0.027	-0.109
-166.852	-200.000	0.037	0.000
-165.837	-200.000	-0.097	-0.427
-164.823	23.363	-0.173	0.142
-163.808	-132.621	-0.274	-0.035
-162.793	100.229	-0.087	0.101
-161.779	-200.000	0.072	-0.475
-160.764	-34.145	0.078	0.043
-159.750	167.246	0.277	-0.394
-158.735	603.910	0.139	0.345
-157.720	-90.336	0.197	0.057
-156.706	-200.000	0.048	-0.302
-155.691	-59.393	-0.055	-0.024
-154.677	-82.367	-0.120	-0.039
-153.662	-18.739	-0.185	0.116
-152.647	180.876	0.194	0.285
-151.633	-200.000	-0.007	-0.095
-150.618	123.043	0.072	-0.090
-149.604	-200.000	-0.028	0.257
-148.589	-41.351	0.024	-0.012
-147.574	651.018	-0.087	-0.223
-146.560	256.200	0.137	-0.235
-145.545	174.529	-0.163	-0.236
-144.531	43.567	0.124	-0.114
-143.516	-200.000	0.017	0.146
-142.502	-127.234	0.182	-0.027
-141.487	-92.538	-0.174	0.049
-140.472	-200.000	-0.003	0.070
-139.458	10.921	0.188	-0.144
-138.443	-200.000	-0.067	0.380
-137.429	222.489	0.029	0.046
-136.414	-129.551	0.328	-0.045
-135.399	3.348	-0.376	0.274
-134.385	-44.684	-0.301	-0.150
-133.370	42.674	0.330	-0.300
-132.356	33.853	0.158	-0.138
-131.341	118.325	0.074	0.091
-130.326	5.281	0.158	0.117
-129.312	31.178	0.217	0.186
-128.297	4.976	0.205	0.151
-127.283	-54.852	-0.194	-0.088
-126.268	-101.129	0.144	0.035
-125.253	-8.687	0.201	0.135
-124.239	-200.000	-0.090	-0.442
-123.224	-200.000	-0.056	-0.265
-122.210	-119.427	0.209	0.036
-121.195	48.447	-0.091	-0.085
