DTS Sentinel unit serial number:	SN413079Multiplexer serial number:	ORYXHardware model number:	OX4-SRSoftware version number:	ORYX F/W v4.00 Oryx Data Collector v3.7.2.0data status	okinstallation	princeton_trtdifferential loss correction	single-endedforward channel	channel 4reverse channel	N/Adate	2019/09/15time	12:41:35forward acquisition time	60.00reverse acquisition time	0.00gamma	496.2192k internal	0.2293k external	0.2293temperature offset calibration	1.0012default loss term (dB/km)	0.3790temperature slope calibration	1.0000multiplexer offset coefficient	1.0000multiplexer slope coefficient	1.0000fibre end	0.00T internal ref (°C)	35.62T ext. ref 1 (°C)	5.05T ext. ref 2 (°C)	33.51length (m)	temperature (°C)	Stokes	anti-Stokes-747.200	800.000	0.049	-0.171
-746.185	-200.000	0.013	0.217
-745.171	79.180	0.067	-0.073
-744.156	584.886	-0.058	-0.145
-743.142	-107.786	0.274	-0.061
-742.127	385.533	-0.252	0.532
-741.112	-53.364	-0.183	-0.086
-740.098	462.489	-0.073	-0.166
-739.083	800.000	0.066	-0.207
-738.069	-200.000	0.088	0.511
-737.054	-172.060	0.217	0.007
-736.039	795.760	0.031	0.086
-735.025	-43.196	0.205	0.106
-734.010	80.058	-0.083	-0.091
-732.996	-66.747	-0.216	-0.087
-731.981	-72.036	-0.447	-0.170
-730.966	267.398	-0.153	0.273
-729.952	800.000	0.122	-0.448
-728.937	800.000	0.022	0.095
-727.923	-169.595	-0.462	-0.017
-726.908	5.338	-0.246	-0.185
-725.894	-38.862	-0.195	-0.105
-724.879	-39.631	0.090	0.048
-723.864	800.000	-0.061	-0.223
-722.850	465.621	-0.130	-0.297
-721.835	1.051	0.203	-0.149
-720.821	-200.000	-0.004	-0.269
-719.806	-183.390	0.160	0.003
-718.791	800.000	-0.057	0.208
-717.777	-119.727	0.315	0.056
-716.762	249.331	-0.075	0.130
-715.748	-200.000	-0.005	-0.046
-714.733	317.584	0.039	-0.075
-713.718	186.172	0.100	0.152
-712.704	-98.494	0.272	-0.071
-711.689	800.000	0.058	0.186
-710.675	-23.537	-0.353	0.217
-709.660	-200.000	-0.024	0.109
-708.645	9.492	0.118	0.092
-707.631	98.096	0.126	0.149
-706.616	800.000	-0.110	-0.397
-705.602	-178.634	0.264	-0.006
-704.587	-92.561	-0.206	-0.059
-703.572	800.000	0.060	0.258
-702.558	301.697	0.059	0.112
-701.543	-59.590	0.315	-0.138
-700.529	800.000	0.057	0.184
-699.514	-72.564	-0.051	-0.019
-698.499	-15.151	0.279	-0.182
-697.485	-200.000	-0.001	-0.255
-696.470	-0.003	-0.102	-0.074
-695.456	-45.963	0.069	0.035
-694.441	-81.894	0.074	0.025
-693.426	783.926	0.023	-0.064
-692.412	-200.000	0.002	-0.252
-691.397	37.261	-0.162	-0.147
-690.383	-79.163	0.081	-0.028
-689.368	-52.783	-0.181	0.085
-688.354	74.023	-0.194	-0.208
-687.339	-67.449	-0.142	0.057
-686.324	109.376	-0.126	-0.154
-685.310	-200.000	-0.002	0.088
-684.295	37.592	0.214	0.194
-683.281	800.000	0.059	0.245
-682.266	-120.296	-0.278	-0.048
-681.251	-99.020	0.097	0.025
-680.237	195.646	-0.048	0.075
-679.222	171.239	-0.235	0.344
-678.208	-83.319	0.228	0.075
-677.193	800.000	0.030	-0.126
-676.178	86.044	-0.097	-0.109
-675.164	-200.000	0.018	-0.244
-674.149	-1.583	0.085	0.061
-673.135	800.000	0.080	-0.235
-672.120	9.153	0.114	0.088
-671.105	-177.681	0.322	-0.008
-670.091	-200.000	-0.009	-0.252
-669.076	-200.000	-0.066	-0.375
-668.062	-200.000	-0.020	-0.269
-667.047	184.666	-0.167	0.252
-666.032	800.000	0.040	-0.115
-665.018	-35.670	0.306	0.169
-664.003	77.759	0.255	0.277
-662.989	61.109	0.078	-0.079
-661.974	800.000	0.083	-0.237
-660.959	26.844	0.129	0.111
-659.945	26.516	-0.250	-0.213
-658.930	25.385	-0.203	-0.172
-657.916	148.521	-0.092	0.127
-656.901	-200.000	-0.045	-0.366
-655.886	-16.205	0.229	-0.148
-654.872	37.798	-0.270	-0.245
-653.857	-200.000	-0.009	-0.205
-652.843	202.847	0.133	-0.210
-651.828	-48.569	0.224	0.110
-650.814	95.505	-0.156	0.181
-649.799	-65.310	-0.065	-0.027
-648.784	-200.000	-0.033	-0.167
-647.770	71.924	0.065	0.069
-646.755	-36.511	0.139	-0.076
-645.741	133.431	0.157	-0.207
-644.726	635.936	-0.108	0.279
-643.711	421.426	0.011	0.023
-642.697	-200.000	0.003	-0.236
-641.682	53.617	-0.105	0.103
-640.668	351.043	0.082	0.166
-639.653	73.932	0.070	0.075
-638.638	800.000	0.023	0.097
-637.624	-98.752	-0.487	0.126
-636.609	-200.000	-0.024	0.159
-635.595	4.582	0.141	-0.105
-634.580	-129.937	-0.367	-0.051
-633.565	234.270	0.284	0.477
-632.551	-200.000	-0.020	0.123
-631.536	536.494	0.101	-0.245
-630.522	-117.131	-0.318	0.059
-629.507	-98.611	-0.205	-0.053
-628.492	-200.000	0.022	-0.106
-627.478	610.641	-0.087	0.222
-626.463	-142.830	-0.187	-0.019
-625.449	-200.000	-0.004	-0.115
-624.434	41.352	0.118	0.109
-623.419	-89.221	0.064	0.019
-622.405	60.350	-0.260	-0.262
-621.390	-135.301	0.082	0.010
-620.376	-200.000	-0.024	0.241
-619.361	139.772	-0.122	0.163
-618.346	78.415	-0.081	-0.088
-617.332	-79.596	0.133	-0.046
-616.317	138.178	-0.019	0.026
-615.303	194.803	-0.211	-0.326
-614.288	57.409	-0.045	0.045
-613.273	-56.850	0.082	0.037
-612.259	72.795	0.171	0.181
-611.244	143.860	-0.183	-0.248
-610.230	-165.449	-0.402	-0.018
-609.215	800.000	-0.070	0.250
-608.201	-88.294	0.479	-0.146
-607.186	328.720	-0.038	0.075
-606.171	717.472	0.051	-0.139
-605.157	-79.103	0.138	-0.048
-604.142	394.765	0.123	-0.261
-603.128	-79.143	-0.161	-0.056
-602.113	-136.106	-0.529	0.063
-601.098	9.055	-0.116	-0.089
-600.084	-200.000	-0.005	0.296
-599.069	-112.695	-0.288	-0.058
-598.055	393.616	-0.055	-0.116
-597.040	186.061	-0.204	0.309
-596.025	800.000	-0.097	-0.313
-595.011	18.845	-0.064	-0.052
-593.996	335.036	0.172	-0.339
-592.982	78.356	-0.104	-0.113
-591.967	-200.000	0.003	-0.142
-590.952	800.000	-0.085	0.271
-589.938	800.000	-0.084	-0.348
-588.923	103.334	0.116	0.139
-587.909	-68.646	0.186	-0.073
-586.894	41.860	-0.028	0.026
-585.879	143.969	0.048	-0.065
-584.865	800.000	0.066	0.224
-583.850	-31.139	-0.077	-0.044
-582.836	17.109	-0.071	-0.057
-581.821	42.765	0.084	0.078
-580.806	-198.120	0.163	-0.001
-579.792	-97.917	-0.274	-0.072
-578.777	800.000	0.037	-0.146
-577.763	18.658	-0.059	-0.048
-576.748	92.458	-0.170	-0.195
-575.733	10.069	-0.122	-0.094
-574.719	645.419	-0.052	0.135
-573.704	-119.088	-0.207	-0.037
-572.690	-94.805	0.211	-0.058
-571.675	-143.484	0.155	0.015
-570.661	341.994	0.079	-0.157
-569.646	54.579	-0.112	-0.110
-568.631	25.213	0.496	0.419
-567.617	-200.000	0.041	-0.194
-566.602	694.267	0.070	0.187
-565.588	96.341	0.055	-0.064
-564.573	-200.000	-0.066	0.296
-563.558	-93.777	-0.429	-0.120
-562.544	559.363	-0.049	-0.119
-561.529	1.991	-0.305	0.223
-560.515	102.406	-0.026	0.030
-559.500	95.724	0.099	0.115
-558.485	23.960	-0.174	0.146
-557.471	-200.000	-0.023	0.182
-556.456	377.052	-0.124	0.256
-555.442	-2.262	0.182	-0.130
-554.427	300.697	-0.084	-0.158
-553.412	-65.235	0.287	-0.117
-552.398	-141.662	0.139	-0.014
-551.383	800.000	0.068	-0.265
-550.369	-90.637	0.188	0.055
-549.354	167.409	-0.074	0.107
-548.339	-136.805	0.280	-0.033
-547.325	-200.000	0.016	0.081
-546.310	-200.000	-0.028	0.347
-545.296	190.684	0.061	-0.092
-544.281	-79.711	0.324	-0.111
-543.266	-133.374	-0.434	0.056
-542.252	-193.708	-0.180	0.002
-541.237	-96.168	-0.028	-0.008
-540.223	800.000	-0.038	-0.124
-539.208	682.263	-0.121	0.320
-538.193	347.434	-0.095	-0.191
-537.179	-22.814	-0.204	-0.125
-536.164	-99.957	-0.024	-0.006
-535.150	166.042	0.084	0.121
-534.135	800.000	-0.029	-0.104
-533.121	800.000	-0.087	-0.323
-532.106	-101.252	0.087	-0.022
-531.091	-200.000	0.018	0.163
-530.077	-36.869	0.212	-0.115
-529.062	44.596	0.189	0.176
-528.048	594.285	-0.096	0.242
-527.033	-112.468	-0.359	0.073
-526.018	-173.610	0.232	-0.007
-525.004	-45.784	0.028	-0.014
-523.989	612.498	-0.137	-0.348
-522.975	-109.024	0.308	0.067
-521.960	443.081	-0.086	0.191
-520.945	-15.736	0.139	0.090
-519.931	-117.758	0.191	-0.035
-518.916	-200.000	0.022	0.136
-517.902	106.130	-0.108	0.130
-516.887	-200.000	-0.022	0.154
-515.872	-200.000	-0.023	-0.191
-514.858	-200.000	0.038	0.233
-513.843	142.958	-0.041	0.055
-512.829	-200.000	-0.013	0.145
-511.814	197.075	0.172	-0.265
-510.799	800.000	-0.117	0.361
-509.785	521.560	0.175	-0.416
-508.770	-92.518	0.461	0.131
-507.756	800.000	-0.062	-0.208
-506.741	673.254	-0.019	0.050
-505.726	-105.586	-0.129	0.030
-504.712	800.000	0.040	-0.141
-503.697	800.000	-0.098	-0.288
-502.683	-200.000	0.016	0.173
-501.668	-96.211	-0.157	-0.042
-500.653	65.729	0.240	-0.247
-499.639	78.383	0.188	-0.203
-498.624	256.331	-0.033	-0.057
-497.610	13.053	-0.117	0.091
-496.595	300.212	0.073	-0.136
-495.581	-2.932	-0.159	0.113
-494.566	63.339	-0.131	0.133
-493.551	-13.435	-0.084	-0.055
-492.537	344.157	0.050	-0.099
-491.522	-200.000	-0.052	0.329
-490.508	-200.000	-0.027	0.140
-489.493	-200.000	-0.016	0.234
-488.478	800.000	-0.096	0.410
-487.464	-165.717	-0.266	-0.012
-486.449	-139.863	0.040	-0.004
-485.435	-64.470	0.145	0.060
-484.420	-71.279	-0.094	0.036
-483.405	-8.860	0.301	-0.205
-482.391	286.859	0.166	0.304
-481.376	678.226	0.030	-0.079
-480.362	-118.555	-0.300	-0.054
-479.347	94.222	0.097	-0.111
-478.332	207.066	0.104	0.164
-477.318	253.951	0.125	0.216
-476.303	85.278	0.095	0.105
-475.289	159.308	-0.048	-0.068
-474.274	-77.401	-0.265	-0.093
-473.259	800.000	0.035	0.143
-472.245	-45.370	-0.313	0.157
-471.230	6.178	0.181	0.136
-470.216	188.758	-0.105	0.160
-469.201	800.000	0.070	-0.209
-468.186	-93.058	-0.248	-0.070
-467.172	67.099	0.100	0.103
-466.157	-200.000	0.030	0.154
-465.143	266.974	0.192	0.340
-464.128	703.760	-0.115	0.308
-463.113	-115.678	-0.143	-0.027
-462.099	-16.852	0.136	-0.087
-461.084	275.242	-0.161	0.289
-460.070	800.000	-0.054	0.202
-459.055	143.159	-0.163	-0.219
-458.040	-138.328	0.057	0.006
-457.026	374.671	-0.105	0.217
-456.011	-37.576	0.155	0.084
-454.997	81.560	-0.027	0.030
-453.982	-58.597	-0.064	0.028
-452.968	73.311	0.077	-0.082
-451.953	-100.316	0.311	-0.078
-450.938	-200.000	0.034	0.544
-449.924	800.000	-0.073	-0.243
-448.909	142.509	0.053	-0.071
-447.895	-200.000	0.021	-0.099
-446.880	-19.494	0.107	-0.067
-445.865	-52.855	-0.121	-0.056
-444.851	-48.721	0.227	-0.110
-443.836	165.218	-0.273	0.390
-442.822	-200.000	0.022	-0.103
-441.807	482.248	0.074	0.171
-440.792	-120.407	-0.223	-0.038
-439.778	-200.000	0.065	0.294
-438.763	9.982	-0.276	-0.212
-437.749	754.095	-0.053	-0.145
-436.734	326.117	-0.128	0.247
-435.719	-46.534	-0.174	0.086
-434.705	-94.536	-0.451	0.124
-433.690	-200.000	0.043	-0.234
-432.676	-41.693	-0.066	0.034
-431.661	-162.777	0.514	0.025
-430.646	-173.196	0.132	-0.004
-429.632	248.330	-0.208	-0.356
-428.617	-44.991	0.020	0.010
-427.603	3.419	0.100	-0.074
-426.588	-20.188	-0.104	-0.065
-425.573	-200.000	0.007	0.083
-424.559	-163.810	0.349	0.017
-423.544	800.000	-0.107	-0.300
-422.530	183.852	-0.086	-0.128
-421.515	-34.375	-0.518	-0.287
-420.500	17.723	0.031	0.025
-419.486	-93.069	0.213	-0.060
-418.471	-144.809	-0.076	0.007
-417.457	-200.000	-0.016	-0.295
-416.442	64.806	0.300	-0.306
-415.428	88.924	0.101	-0.114
-414.413	-132.108	-0.188	-0.025
-413.398	304.011	0.106	0.199
-412.384	42.841	-0.113	-0.104
-411.369	-43.472	-0.179	0.091
-410.355	-200.000	0.018	0.174
-409.340	-140.163	-0.240	0.025
-408.325	-84.472	0.508	-0.162
-407.311	336.149	-0.053	-0.103
-406.296	-134.223	-0.041	0.005
-405.282	-35.661	-0.225	0.123
-404.267	21.320	0.126	-0.103
-403.252	800.000	0.098	-0.293
-402.238	-112.796	-0.310	0.062
-401.223	183.650	-0.175	-0.261
-400.209	717.313	-0.063	-0.170
-399.194	387.899	0.036	0.075
-398.179	-159.231	0.184	-0.010
-397.165	290.952	0.044	0.081
-396.150	-71.996	-0.214	0.080
-395.136	94.863	-0.076	-0.087
-394.121	-200.000	-0.009	0.132
-393.106	-95.721	-0.215	0.058
-392.092	-104.119	0.118	0.028
-391.077	-82.932	0.095	-0.031
-390.063	163.848	-0.174	-0.247
-389.048	-13.941	-0.275	-0.179
-388.033	220.647	0.144	0.233
-387.019	-20.885	0.297	-0.184
-386.004	-51.074	-0.287	0.136
-384.990	-25.079	-0.281	-0.168
-383.975	-131.401	0.202	0.027
-382.960	-133.036	0.338	0.043
-381.946	-134.615	0.385	-0.047
-380.931	365.962	-0.052	-0.105
-379.917	-200.000	0.065	0.321
-378.902	278.106	-0.032	-0.057
-377.888	0.504	0.120	0.087
-376.873	66.646	-0.152	-0.156
-375.858	-0.202	0.122	-0.088
-374.844	-119.577	-0.092	-0.016
-373.829	382.784	0.007	0.014
-372.815	800.000	-0.083	0.252
-371.800	-200.000	-0.030	-0.171
-370.785	-159.231	-0.430	0.024
-369.771	-200.000	-0.052	0.266
-368.756	186.410	0.135	0.202
-367.742	-200.000	0.008	0.143
-366.727	-106.507	0.075	0.017
-365.712	-200.000	0.044	0.263
-364.698	21.325	0.161	0.132
-363.683	-200.000	-0.011	-0.413
-362.669	345.623	0.080	-0.159
-361.654	-200.000	-0.005	-0.074
-360.639	20.580	0.204	-0.166
-359.625	-12.437	0.231	-0.152
-358.610	800.000	-0.021	-0.068
-357.596	800.000	0.045	-0.158
-356.581	-124.485	-0.170	-0.027
-355.566	-110.465	0.113	-0.024
-354.552	-48.712	-0.160	0.077
-353.537	-200.000	-0.006	-0.314
-352.523	-96.314	-0.274	-0.073
-351.508	-200.000	-0.015	0.313
-350.493	695.914	0.041	0.108
-349.479	-52.632	0.179	-0.083
-348.464	67.141	-0.108	-0.111
-347.450	59.864	0.046	0.045
-346.435	-43.629	0.297	0.151
-345.420	-40.381	-0.247	0.130
-344.406	173.212	-0.206	0.299
-343.391	-200.000	0.009	0.333
-342.377	240.301	-0.028	-0.048
-341.362	800.000	0.100	-0.301
-340.348	378.633	0.103	-0.213
-339.333	-37.530	0.319	-0.171
-338.318	-200.000	-0.023	0.156
-337.304	800.000	0.127	-0.460
-336.289	246.071	-0.159	-0.269
-335.275	-200.000	-0.003	0.065
-334.260	-54.298	-0.234	0.107
-333.245	-200.000	0.066	0.000
-332.231	800.000	0.035	-0.114
-331.216	197.248	0.130	0.200
-330.202	800.000	-0.018	-0.054
-329.187	522.354	-0.076	-0.181
-328.172	100.534	0.172	-0.202
-327.158	-200.000	0.004	-0.083
-326.143	260.111	-0.067	-0.117
-325.129	800.000	-0.013	0.056
-324.114	174.738	0.204	0.298
-323.099	-149.734	0.042	-0.003
-322.085	67.969	-0.395	0.407
-321.070	-200.000	-0.009	-0.074
-320.056	-138.822	-0.430	-0.047
-319.041	116.296	-0.096	0.118
-318.026	35.195	0.108	0.095
-317.012	-58.506	-0.367	0.160
-315.997	-125.728	0.169	0.026
-314.983	262.118	-0.040	-0.070
-313.968	-200.000	0.011	-0.252
-312.953	6.738	0.179	-0.134
-311.939	800.000	0.103	0.292
-310.924	-200.000	0.052	-0.360
-309.910	481.994	-0.059	-0.135
-308.895	166.398	-0.179	-0.255
-307.880	123.058	-0.147	-0.185
-306.866	-164.784	0.090	-0.004
-305.851	800.000	0.033	-0.133
-304.837	-58.063	0.116	0.051
-303.822	-32.933	-0.124	0.069
-302.807	-104.539	-0.039	-0.009
-301.793	278.763	-0.102	0.182
-300.778	46.531	0.168	0.157
-299.764	-200.000	0.015	0.072
-298.749	-73.412	0.082	0.030
-297.735	12.086	0.176	-0.136
-296.720	-12.085	0.142	-0.093
-295.705	-200.000	0.016	0.141
-294.691	-28.772	-0.213	0.123
-293.676	-91.303	0.175	-0.050
-292.662	707.855	-0.054	-0.144
-291.647	467.299	-0.077	-0.173
-290.632	800.000	0.067	0.189
-289.618	-200.000	0.003	-0.090
-288.603	574.362	0.102	-0.250
-287.589	800.000	0.088	-0.305
-286.574	800.000	0.031	-0.132
-285.559	-200.000	0.026	0.193
-284.545	333.850	-0.089	-0.174
-283.530	-47.172	0.410	-0.201
-282.516	-200.000	0.040	-0.183
-281.501	312.838	0.075	0.142
-280.486	202.884	0.046	0.072
-279.472	-174.054	0.087	0.003
-278.457	37.184	0.242	0.215
-277.443	-43.276	0.215	-0.110
-276.428	-55.835	-0.145	0.065
-275.413	-36.614	0.340	0.184
-274.399	89.878	0.127	-0.142
-273.384	153.866	-0.077	-0.106
-272.370	-200.000	-0.034	0.197
-271.355	98.189	0.190	-0.220
-270.340	-121.796	0.052	-0.009
-269.326	16.585	-0.199	0.158
-268.311	-35.209	-0.283	0.155
-267.297	-200.000	0.042	0.270
-266.282	23.923	0.189	-0.157
-265.267	-200.000	-0.043	0.192
-264.253	800.000	0.102	-0.373
-263.238	-49.613	0.207	0.099
-262.224	-17.789	-0.062	0.039
-261.209	-64.393	0.344	-0.140
-260.195	-4.378	-0.157	0.109
-259.180	147.095	0.242	0.327
-258.165	800.000	0.059	0.165
-257.151	-179.658	-0.196	-0.004
-256.136	-155.912	-0.159	0.010
-255.122	800.000	0.104	-0.291
-254.107	-200.000	-0.011	-0.170
-253.092	-200.000	-0.046	0.218
-252.078	-20.361	-0.336	-0.208
-251.063	-132.372	0.476	-0.062
-250.049	-176.604	0.250	0.006
-249.034	-35.076	0.108	0.059
-248.019	-4.943	0.301	0.208
-247.005	14.436	0.324	-0.254
-245.990	475.770	-0.059	0.134
-244.976	183.614	-0.212	-0.315
-243.961	775.159	0.167	-0.458
-242.946	-64.998	0.227	-0.092
-241.932	203.289	-0.075	0.116
-240.917	-120.538	-0.164	0.028
-239.903	35.446	-0.116	-0.102
-238.888	208.905	0.312	0.490
-237.873	236.987	-0.065	-0.107
-236.859	9.079	0.190	-0.144
-235.844	800.000	0.063	0.178
-234.830	-111.012	0.415	-0.085
-233.815	800.000	-0.136	0.488
-232.800	-200.000	-0.049	0.325
-231.786	800.000	0.045	0.149
-230.771	-200.000	-0.019	0.155
-229.757	-73.553	-0.134	-0.049
-228.742	-137.474	0.367	0.042
-227.727	-108.328	-0.226	0.049
-226.713	-134.884	0.201	0.024
-225.698	800.000	-0.038	0.114
-224.684	572.479	0.118	-0.289
-223.669	-156.013	0.206	0.013
-222.655	-39.917	0.040	0.021
-221.640	-162.471	0.294	0.015
-220.625	43.002	-0.250	-0.228
-219.611	-49.890	-0.420	-0.200
-218.596	-141.451	-0.165	-0.017
-217.582	-24.855	0.152	0.090
-216.567	41.220	-0.278	-0.252
-215.552	221.506	0.210	-0.339
-214.538	-188.113	0.263	-0.003
-213.523	-162.922	-0.120	0.006
-212.509	-200.000	0.046	0.241
-211.494	-100.119	-0.299	-0.075
-210.479	233.047	0.178	-0.293
-209.465	-1.290	-0.170	0.120
-208.450	-136.427	-0.201	-0.023
-207.436	-200.000	0.029	-0.202
-206.421	637.898	-0.029	0.075
-205.406	63.335	0.234	0.235
-204.392	-200.000	0.014	0.182
-203.377	25.715	-0.101	-0.084
-202.363	233.704	0.156	0.257
-201.348	60.602	-0.050	0.050
-200.333	122.414	0.057	0.071
-199.319	223.012	-0.186	0.301
-198.304	-92.315	0.201	-0.057
-197.290	251.705	-0.103	0.176
-196.275	-51.732	0.213	0.099
-195.260	-36.365	0.324	0.175
-194.246	231.582	0.165	-0.271
-193.231	-200.000	0.002	0.360
-192.217	-104.031	0.216	-0.050
-191.202	247.590	-0.103	-0.174
-190.187	148.194	0.100	-0.134
-189.173	-171.185	-0.270	-0.009
-188.158	-124.026	-0.130	-0.020
-187.144	-24.209	0.141	0.084
-186.129	144.951	0.079	0.106
-185.114	341.618	0.057	-0.111
-184.100	-48.057	0.278	0.135
-183.085	-74.726	0.242	0.087
-182.071	800.000	-0.014	-0.040
-181.056	-152.078	-0.292	-0.021
-180.042	25.123	-0.097	0.081
-179.027	-200.000	0.016	0.568
-178.012	-172.460	0.095	0.003
-176.998	-200.000	-0.005	0.032
-175.983	199.985	0.070	0.108
-174.969	-100.313	-0.096	0.024
-173.954	149.458	-0.132	0.179
-172.939	800.000	0.067	-0.275
-171.925	236.934	0.149	-0.246
-170.910	556.382	-0.152	-0.365
-169.896	181.740	0.154	-0.227
-168.881	-200.000	-0.018	-0.351
-167.866	-172.587	-0.380	-0.012
-166.852	-129.931	-0.037	-0.005
-165.837	84.046	-0.174	-0.190
-164.823	800.000	-0.119	-0.342
-163.808	184.532	-0.157	0.233
-162.793	-118.970	-0.596	0.105
-161.779	800.000	0.044	-0.148
-160.764	-163.804	-0.109	0.005
-159.750	110.274	-0.116	0.139
-158.735	-80.705	-0.105	0.035
-157.720	228.594	0.090	0.147
-156.706	-13.096	0.380	-0.247
-155.691	45.122	0.218	-0.201
-154.677	117.010	-0.074	-0.091
-153.662	-63.937	-0.219	0.090
-152.647	-200.000	0.021	0.325
-151.633	-200.000	-0.031	0.230
-150.618	-107.985	0.244	0.053
-149.604	-38.597	-0.199	0.105
-148.589	633.661	-0.050	0.126
-147.574	-174.174	-0.233	-0.007
-146.560	-165.128	-0.142	0.006
-145.545	121.814	-0.025	-0.031
-144.531	174.813	-0.234	0.338
-143.516	-76.523	-0.303	0.106
-142.502	281.519	-0.089	0.160
-141.487	-200.000	0.053	-0.364
-140.472	81.566	0.259	-0.280
-139.458	24.544	-0.210	-0.174
-138.443	-92.683	0.321	-0.090
-137.429	-200.000	0.040	0.272
-136.414	18.309	-0.189	0.151
-135.399	-61.934	0.053	-0.022
-134.385	800.000	-0.078	-0.228
-133.370	-32.910	-0.165	-0.092
-132.356	86.402	-0.389	0.428
-131.341	-129.327	-0.169	0.023
-130.326	-148.040	-0.192	-0.016
-129.312	-138.600	-0.351	0.038
-128.297	-113.513	-0.254	-0.050
-127.283	-200.000	0.001	-0.107
-126.268	-72.205	0.095	0.035
-125.253	-200.000	-0.014	0.195
-124.239	9.764	-0.199	-0.151
-123.224	800.000	0.110	-0.319
-122.210	183.960	0.118	0.174
-121.195	160.000	-0.312	0.435
