DTS Sentinel unit serial number:	SN413079Multiplexer serial number:	ORYXHardware model number:	OX4-SRSoftware version number:	ORYX F/W v4.00 Oryx Data Collector v3.7.2.0data status	okinstallation	princeton_trtdifferential loss correction	single-endedforward channel	channel 4reverse channel	N/Adate	2019/09/19time	01:57:34forward acquisition time	60.00reverse acquisition time	0.00gamma	496.2192k internal	0.2339k external	0.2339temperature offset calibration	1.0026default loss term (dB/km)	0.3790temperature slope calibration	1.0000multiplexer offset coefficient	1.0000multiplexer slope coefficient	1.0000fibre end	0.00T internal ref (°C)	21.30T ext. ref 1 (°C)	0.69T ext. ref 2 (°C)	14.90length (m)	temperature (°C)	Stokes	anti-Stokes-747.200	348.209	-0.060	0.118
-746.185	-4.711	0.051	0.035
-745.171	124.069	0.184	-0.232
-744.156	295.839	-0.089	-0.163
-743.142	-200.000	0.008	0.139
-742.127	47.520	-0.296	0.277
-741.112	-200.000	0.002	0.167
-740.098	-86.391	-0.175	-0.054
-739.083	-6.684	-0.159	0.109
-738.069	-72.117	0.296	0.110
-737.054	0.858	-0.077	-0.055
-736.039	-126.737	-0.213	0.032
-735.025	-14.519	0.227	0.146
-734.010	-200.000	0.055	-0.400
-732.996	206.899	-0.190	-0.297
-731.981	41.010	-0.191	-0.173
-730.966	-200.000	-0.010	0.111
-729.952	-13.906	-0.317	-0.205
-728.937	800.000	0.010	0.039
-727.923	800.000	0.095	-0.345
-726.908	13.683	-0.181	-0.141
-725.894	800.000	0.045	-0.151
-724.879	5.264	-0.253	0.187
-723.864	-148.385	-0.123	0.010
-722.850	20.632	-0.187	0.152
-721.835	209.034	-0.170	-0.267
-720.821	29.645	0.153	-0.131
-719.806	-200.000	0.004	0.052
-718.791	-200.000	0.003	-0.078
-717.777	-200.000	0.011	-0.098
-716.762	192.064	-0.141	0.214
-715.748	158.177	-0.092	-0.127
-714.733	-125.661	-0.250	-0.038
-713.718	561.619	-0.128	-0.310
-712.704	-200.000	-0.033	0.188
-711.689	-83.121	-0.066	-0.021
-710.675	800.000	0.035	-0.134
-709.660	-151.525	-0.259	-0.019
-708.645	-200.000	0.024	-0.334
-707.631	-69.285	-0.351	-0.135
-706.616	87.660	0.130	-0.144
-705.602	-52.574	-0.210	0.097
-704.587	305.651	0.158	0.295
-703.572	37.576	0.130	-0.115
-702.558	-200.000	0.059	0.269
-701.543	552.739	0.078	0.187
-700.529	797.478	0.119	0.329
-699.514	464.585	-0.020	0.044
-698.499	-66.268	-0.263	0.105
-697.485	-154.736	0.064	-0.004
-696.470	-1.789	0.385	0.271
-695.456	274.624	-0.049	0.086
-694.441	-82.825	-0.080	-0.026
-693.426	-42.581	-0.339	-0.173
-692.412	-63.242	0.121	-0.050
-691.397	162.105	0.109	-0.154
-690.383	-200.000	-0.016	-0.264
-689.368	-88.452	0.234	0.070
-688.354	-200.000	-0.045	-0.242
-687.339	-200.000	0.026	-0.129
-686.324	78.649	-0.071	-0.076
-685.310	-12.360	-0.147	0.096
-684.295	127.429	-0.024	0.030
-683.281	-200.000	-0.057	-0.278
-682.266	46.697	0.082	-0.076
-681.251	120.430	-0.014	-0.018
-680.237	-200.000	-0.024	-0.274
-679.222	-48.184	-0.128	-0.062
-678.208	95.648	0.106	-0.121
-677.193	727.194	0.045	0.119
-676.178	409.238	-0.128	-0.272
-675.164	800.000	-0.029	-0.103
-674.149	154.771	0.146	-0.200
-673.135	-53.624	-0.162	0.074
-672.120	-200.000	-0.076	-0.379
-671.105	-117.971	-0.153	0.027
-670.091	-121.649	0.184	-0.031
-669.076	314.947	0.061	-0.115
-668.062	800.000	0.062	-0.173
-667.047	576.926	0.101	0.248
-666.032	800.000	-0.030	0.103
-665.018	-90.336	-0.082	0.024
-664.003	-139.366	-0.241	-0.026
-662.989	39.687	-0.204	-0.183
-661.974	-200.000	0.010	-0.049
-660.959	-87.145	0.054	-0.016
-659.945	-6.349	0.154	-0.105
-658.930	60.938	-0.162	0.160
-657.916	-200.000	-0.039	0.392
-656.901	49.039	0.055	0.051
-655.886	-200.000	0.006	-0.189
-654.872	-7.961	0.095	-0.064
-653.857	-166.434	-0.237	0.010
-652.843	13.941	0.183	-0.142
-651.828	-178.496	-0.340	-0.008
-650.814	-28.556	0.205	-0.118
-649.799	-38.870	0.051	0.027
-648.784	-158.196	0.236	-0.014
-647.770	120.233	-0.114	0.141
-646.755	-111.329	0.156	-0.032
-645.741	104.257	-0.278	0.327
-644.726	-39.820	0.237	-0.124
-643.711	-200.000	0.042	-0.201
-642.697	-28.220	0.176	-0.102
-641.682	-4.372	-0.139	0.096
-640.668	-85.281	-0.218	-0.068
-639.653	683.437	-0.065	-0.170
-638.638	-4.166	-0.198	0.137
-637.624	-122.545	-0.112	0.018
-636.609	105.867	0.114	-0.134
-635.595	1.889	-0.077	0.056
-634.580	-117.967	0.242	-0.043
-633.565	-200.000	-0.037	-0.224
-632.551	26.631	0.167	0.139
-631.536	-200.000	0.021	0.103
-630.522	-185.708	0.041	0.001
-629.507	64.633	0.103	-0.103
-628.492	-174.779	0.241	-0.007
-627.478	-99.984	-0.163	0.041
-626.463	-43.021	-0.106	0.054
-625.449	-110.635	0.198	0.041
-624.434	47.055	-0.318	-0.295
-623.419	-42.779	-0.077	-0.039
-622.405	-52.528	0.140	-0.064
-621.390	622.632	0.085	-0.214
-620.376	800.000	-0.077	-0.230
-619.361	-200.000	-0.015	-0.121
-618.346	162.485	-0.110	0.155
-617.332	-90.461	0.386	-0.111
-616.317	-103.078	-0.127	0.030
-615.303	-200.000	0.018	0.091
-614.288	-59.528	0.126	0.054
-613.273	520.848	-0.035	-0.082
-612.259	225.401	0.058	-0.094
-611.244	-200.000	-0.018	0.527
-610.230	-164.644	0.076	0.003
-609.215	65.704	-0.176	-0.178
-608.201	54.250	0.122	-0.117
-607.186	-145.469	-0.167	-0.015
-606.171	252.362	0.082	0.139
-605.157	531.893	0.080	0.190
-604.142	-15.922	-0.432	-0.274
-603.128	281.550	-0.147	-0.263
-602.113	-99.522	-0.451	-0.113
-601.098	-142.592	-0.181	-0.018
-600.084	-132.665	-0.496	0.063
-599.069	-104.213	0.264	0.061
-598.055	369.668	0.058	-0.118
-597.040	-200.000	-0.042	0.236
-596.025	800.000	0.034	0.113
-595.011	-57.758	0.428	-0.187
-593.996	-200.000	-0.002	0.056
-592.982	0.787	-0.196	0.140
-591.967	-200.000	0.006	-0.344
-590.952	-98.819	0.178	0.045
-589.938	4.572	-0.123	0.090
-588.923	-13.866	-0.189	-0.122
-587.909	-39.179	0.075	-0.039
-586.894	-87.077	0.308	0.094
-585.879	-200.000	-0.006	0.151
-584.865	149.644	0.144	-0.195
-583.850	25.615	-0.279	0.232
-582.836	53.793	0.192	0.184
-581.821	-15.388	-0.244	0.155
-580.806	-75.243	0.158	-0.056
-579.792	207.531	-0.092	-0.142
-578.777	714.979	0.053	-0.140
-577.763	87.181	-0.098	0.108
-576.748	800.000	0.071	-0.221
-575.733	-137.351	0.425	0.048
-574.719	-200.000	0.050	0.266
-573.704	303.750	-0.040	0.074
-572.690	49.788	0.081	0.076
-571.675	-42.298	0.095	-0.048
-570.661	8.187	0.237	0.178
-569.646	71.631	0.171	-0.177
-568.631	106.193	0.031	-0.037
-567.617	800.000	0.105	-0.362
-566.602	-11.632	-0.241	0.158
-565.588	23.257	-0.006	0.005
-564.573	168.664	0.177	-0.251
-563.558	800.000	0.094	-0.292
-562.544	-200.000	0.015	-0.234
-561.529	302.051	0.099	-0.183
-560.515	237.289	-0.144	0.237
-559.500	-200.000	0.009	0.160
-558.485	-111.721	-0.175	-0.035
-557.471	-68.947	0.135	-0.052
-556.456	71.277	0.174	0.180
-555.442	24.612	-0.384	-0.317
-554.427	-61.036	-0.379	-0.159
-553.412	-92.319	0.364	-0.102
-552.398	-200.000	-0.048	0.413
-551.383	234.423	-0.049	0.081
-550.369	284.144	0.073	-0.131
-549.354	78.813	0.170	0.181
-548.339	107.026	-0.197	-0.232
-547.325	-200.000	-0.047	0.281
-546.310	-76.299	-0.290	-0.102
-545.296	330.713	0.063	-0.122
-544.281	-172.343	-0.205	0.007
-543.266	-91.642	0.336	0.095
-542.252	8.710	-0.105	-0.079
-541.237	73.656	-0.167	-0.174
-540.223	-137.008	-0.271	-0.031
-539.208	71.081	-0.361	0.372
-538.193	-200.000	0.004	-0.281
-537.179	-200.000	0.012	0.072
-536.164	21.532	-0.139	-0.112
-535.150	800.000	-0.007	0.029
-534.135	800.000	0.037	-0.142
-533.121	-200.000	0.010	0.063
-532.106	83.427	-0.162	-0.176
-531.091	-200.000	0.014	0.230
-530.077	56.429	-0.146	0.141
-529.062	-49.256	0.287	-0.136
-528.048	-8.881	0.198	0.132
-527.033	723.523	-0.037	0.098
-526.018	800.000	0.031	0.100
-525.004	771.462	0.095	-0.258
-523.989	289.071	-0.135	-0.243
-522.975	-24.414	0.181	-0.107
-521.960	690.102	0.125	-0.326
-520.945	85.473	-0.284	0.310
-519.931	-115.175	-0.145	0.027
-518.916	-127.272	-0.287	0.042
-517.902	-99.729	-0.483	-0.120
-516.887	129.395	-0.202	0.256
-515.872	-119.895	-0.199	-0.034
-514.858	149.737	0.282	-0.380
-513.843	-32.520	-0.099	-0.055
-512.829	-11.559	-0.082	0.053
-511.814	232.147	-0.045	0.074
-510.799	19.403	-0.333	0.266
-509.785	-174.194	-0.006	-0.000
-508.770	-23.741	-0.247	-0.147
-507.756	-61.709	-0.159	-0.066
-506.741	3.934	-0.222	-0.161
-505.726	-116.362	-0.256	-0.047
-504.712	-200.000	-0.047	-0.239
-503.697	337.675	-0.218	0.420
-502.683	-89.124	-0.396	-0.116
-501.668	88.609	0.284	0.313
-500.653	45.332	0.111	0.102
-499.639	-130.422	-0.110	0.015
-498.624	-51.274	0.244	0.113
-497.610	241.640	0.185	-0.306
-496.595	-160.696	-0.279	0.015
-495.581	-200.000	-0.053	0.261
-494.566	800.000	0.067	0.187
-493.551	67.203	0.230	0.233
-492.537	800.000	-0.054	-0.184
-491.522	492.235	0.119	-0.270
-490.508	-31.923	0.196	0.109
-489.493	800.000	-0.098	-0.287
-488.478	-137.665	-0.120	0.013
-487.464	-132.259	-0.363	0.047
-486.449	123.973	-0.127	0.158
-485.435	-131.306	-0.080	-0.011
-484.420	-137.372	0.187	-0.021
-483.405	61.343	-0.215	-0.212
-482.391	-168.343	0.435	0.017
-481.376	157.035	-0.172	-0.236
-480.362	800.000	-0.091	-0.346
-479.347	127.230	0.113	0.143
-478.332	-71.662	-0.097	0.036
-477.318	101.828	-0.233	0.269
-476.303	-120.215	-0.083	0.014
-475.289	800.000	0.038	0.106
-474.274	-200.000	-0.011	-0.176
-473.259	-147.684	0.335	-0.028
-472.245	-200.000	0.004	-0.175
-471.230	800.000	-0.072	0.276
-470.216	76.600	-0.065	0.069
-469.201	800.000	0.094	0.320
-468.186	10.682	0.259	0.196
-467.172	-116.869	-0.162	0.029
-466.157	5.752	-0.086	0.063
-465.143	73.734	-0.313	-0.326
-464.128	74.354	0.271	-0.283
-463.113	-200.000	0.014	-0.288
-462.099	-118.266	-0.546	0.096
-461.084	197.447	0.100	-0.152
-460.070	-51.491	-0.069	0.032
-459.055	-144.561	-0.272	-0.025
-458.040	-102.246	-0.481	-0.115
-457.026	-200.000	0.008	-0.048
-456.011	300.629	-0.062	0.114
-454.997	-90.143	-0.131	0.038
-453.982	-171.798	-0.238	0.008
-452.968	-200.000	-0.069	-0.430
-451.953	-48.296	0.314	-0.150
-450.938	141.235	-0.074	-0.098
-449.924	-125.064	0.375	-0.057
-448.909	36.590	-0.196	-0.172
-447.895	228.254	0.100	-0.162
-446.880	-114.783	0.259	-0.049
-445.865	-51.524	0.189	-0.088
-444.851	-200.000	-0.024	-0.320
-443.836	-66.717	0.287	-0.113
-442.822	-200.000	-0.034	-0.427
-441.807	265.079	0.070	-0.122
-440.792	-97.952	0.474	0.121
-439.778	-17.279	0.214	0.133
-438.763	-36.899	0.208	0.111
-437.749	-200.000	-0.007	0.122
-436.734	-18.450	-0.055	-0.034
-435.719	-157.833	-0.224	-0.013
-434.705	64.993	-0.142	-0.142
-433.690	-120.439	0.044	0.007
-432.676	76.172	-0.275	0.289
-431.661	-151.433	0.045	0.003
-430.646	-125.264	-0.136	-0.021
-429.632	-200.000	-0.002	-0.349
-428.617	60.870	-0.216	0.212
-427.603	-43.082	0.271	0.136
-426.588	800.000	-0.083	-0.236
-425.573	32.118	-0.244	0.208
-424.559	800.000	0.027	0.091
-423.544	-132.214	0.230	-0.029
-422.530	286.883	0.050	-0.089
-421.515	-150.737	-0.301	0.023
-420.500	9.412	-0.164	0.123
-419.486	461.178	-0.116	0.257
-418.471	-200.000	-0.042	0.201
-417.457	-6.494	0.241	-0.162
-416.442	-131.278	-0.125	0.016
-415.428	-175.984	0.108	0.003
-414.413	12.449	0.224	-0.171
-413.398	-93.681	-0.295	0.081
-412.384	440.691	0.222	-0.481
-411.369	12.203	0.390	0.297
-410.355	800.000	0.113	-0.350
-409.340	223.271	0.048	-0.076
-408.325	-200.000	0.023	-0.270
-407.311	-200.000	-0.006	-0.056
-406.296	364.126	-0.157	0.312
-405.282	800.000	0.081	0.251
-404.267	-200.000	0.022	0.193
-403.252	330.851	0.126	-0.241
-402.238	27.109	0.278	-0.231
-401.223	99.777	-0.187	-0.214
-400.209	542.469	-0.156	-0.367
-399.194	-200.000	-0.042	-0.211
-398.179	-173.054	0.252	0.008
-397.165	-200.000	-0.050	-0.311
-396.150	-103.859	-0.053	-0.012
-395.136	-200.000	0.037	0.318
-394.121	25.823	0.131	0.108
-393.106	-200.000	0.059	-0.368
-392.092	-100.736	-0.036	-0.009
-391.077	32.532	-0.319	0.272
-390.063	-112.543	-0.119	0.024
-389.048	690.149	-0.090	0.233
-388.033	87.773	-0.019	-0.021
-387.019	-7.297	0.357	0.239
-386.004	-200.000	-0.005	0.092
-384.990	281.449	0.117	-0.207
-383.975	-37.153	0.160	-0.085
-382.960	-3.877	0.163	0.112
-381.946	14.461	-0.021	0.016
-380.931	-148.649	0.499	0.040
-379.917	30.422	-0.154	0.130
-378.902	-27.373	-0.320	0.184
-377.888	800.000	0.019	0.066
-376.873	10.061	-0.306	0.230
-375.858	-75.399	-0.303	-0.107
-374.844	-4.473	-0.132	0.090
-373.829	-190.787	-0.352	0.004
-372.815	318.682	-0.167	0.312
-371.800	-88.144	0.232	0.069
-370.785	800.000	-0.094	-0.345
-369.771	-19.388	-0.325	-0.199
-368.756	-79.494	0.158	-0.053
-367.742	359.774	0.050	-0.099
-366.727	151.848	0.115	-0.155
-365.712	-200.000	0.019	0.332
-364.698	189.158	-0.015	-0.023
-363.683	42.706	0.101	-0.091
-362.669	316.696	-0.037	0.069
-361.654	214.014	0.113	-0.176
-360.639	345.342	-0.111	-0.216
-359.625	-111.685	-0.314	0.063
-358.610	-143.135	-0.294	-0.028
-357.596	-200.000	0.018	0.095
-356.581	362.195	0.027	0.053
-355.566	800.000	-0.061	-0.255
-354.552	294.167	0.048	0.087
-353.537	123.770	-0.107	0.132
-352.523	234.725	-0.129	0.210
-351.508	-76.780	0.188	0.065
-350.493	-200.000	0.031	-0.227
-349.479	-200.000	-0.060	0.364
-348.464	-145.614	0.567	-0.050
-347.450	256.265	0.141	0.238
-346.435	-39.589	-0.191	-0.099
-345.420	-81.681	0.480	0.156
-344.406	800.000	0.064	0.249
-343.391	800.000	0.053	-0.167
-342.377	166.107	0.199	-0.279
-341.362	-200.000	-0.008	-0.093
-340.348	180.120	0.195	0.282
-339.333	44.939	0.342	-0.311
-338.318	16.978	0.061	0.048
-337.304	15.048	0.258	-0.200
-336.289	-200.000	-0.046	0.465
-335.275	456.174	0.058	0.126
-334.260	-75.938	0.202	-0.070
-333.245	800.000	-0.120	0.422
-332.231	-200.000	0.019	-0.215
-331.216	-66.179	0.324	-0.127
-330.202	-24.545	-0.038	0.022
-329.187	-200.000	-0.050	-0.227
-328.172	-118.954	-0.189	-0.033
-327.158	-200.000	0.023	0.280
-326.143	-200.000	-0.025	0.208
-325.129	-200.000	-0.064	-0.319
-324.114	469.270	0.125	-0.277
-323.099	800.000	-0.033	0.133
-322.085	36.499	-0.397	-0.346
-321.070	123.684	-0.081	-0.101
-320.056	142.966	0.109	0.143
-319.041	331.581	-0.109	-0.207
-318.026	-56.369	0.237	0.104
-317.012	-152.570	0.412	0.029
-315.997	-200.000	0.011	-0.094
-314.983	-200.000	-0.040	0.204
-313.968	222.283	-0.108	0.171
-312.953	-32.228	0.022	0.012
-311.939	-200.000	0.007	-0.156
-310.924	311.680	-0.059	-0.109
-309.910	146.840	-0.198	0.262
-308.895	22.962	-0.103	0.083
-307.880	41.638	-0.225	-0.201
-306.866	-1.369	-0.297	-0.207
-305.851	398.033	-0.130	0.268
-304.837	-109.669	0.310	-0.064
-303.822	36.614	-0.192	-0.167
-302.807	-121.485	0.120	-0.020
-301.793	-145.532	-0.124	0.011
-300.778	800.000	0.090	0.368
-299.764	186.303	-0.180	0.264
-298.749	-200.000	0.065	0.379
-297.735	222.485	-0.131	0.208
-296.720	-5.531	0.141	0.095
-295.705	800.000	-0.051	0.147
-294.691	-192.406	-0.226	-0.002
-293.676	8.955	0.185	0.138
-292.662	-75.777	0.031	0.011
-291.647	-74.508	-0.103	0.036
-290.632	-49.873	0.062	-0.029
-289.618	164.891	0.106	0.148
-288.603	593.772	0.137	0.333
-287.589	-88.987	-0.282	0.082
-286.574	23.538	-0.286	-0.232
-285.559	76.757	0.235	0.245
-284.545	118.472	-0.051	-0.062
-283.530	220.619	-0.246	0.389
-282.516	55.476	0.195	0.186
-281.501	51.423	-0.136	0.127
-280.486	-84.669	-0.386	0.120
-279.472	493.168	0.107	-0.241
-278.457	-123.601	-0.124	0.019
-277.443	77.611	-0.263	0.276
-276.428	-20.665	0.094	-0.057
-275.413	214.872	-0.112	0.174
-274.399	-100.762	0.238	-0.058
-273.384	123.325	0.286	0.353
-272.370	57.502	-0.251	0.241
-271.355	-68.949	-0.229	0.087
-270.340	56.036	0.188	0.179
-269.326	-6.014	-0.340	-0.229
-268.311	-6.260	-0.129	0.087
-267.297	113.471	-0.148	-0.177
-266.282	-151.735	0.464	0.034
-265.267	-72.782	-0.124	0.045
-264.253	34.097	-0.077	-0.066
-263.238	175.131	-0.113	0.161
-262.224	97.797	0.165	0.187
-261.209	-200.000	0.002	0.204
-260.195	439.953	-0.075	-0.162
-259.180	-160.579	-0.288	0.015
-258.165	505.619	-0.092	-0.210
-257.151	690.601	-0.013	-0.033
-256.136	-98.445	0.440	0.111
-255.122	483.582	0.068	-0.151
-254.107	144.665	-0.226	0.296
-253.092	-75.581	0.240	0.084
-252.078	-124.325	0.123	-0.019
-251.063	-200.000	-0.014	0.240
-250.049	-147.286	0.220	-0.018
-249.034	-131.176	-0.237	0.031
-248.019	-106.884	0.351	0.076
-247.005	800.000	0.054	0.178
-245.990	800.000	-0.033	-0.130
-244.976	50.922	0.152	-0.142
-243.961	2.229	0.236	-0.168
-242.946	278.965	-0.005	0.009
-241.932	-200.000	0.006	-0.056
-240.917	800.000	0.068	0.229
-239.903	800.000	0.060	0.213
-238.888	-200.000	0.000	-0.404
-237.873	-34.312	0.167	-0.090
-236.859	-47.756	0.137	0.065
-235.844	800.000	-0.130	-0.414
-234.830	800.000	0.045	0.123
-233.815	174.094	0.335	-0.476
-232.800	28.017	-0.073	0.060
-231.786	-3.748	-0.070	0.048
-230.771	77.614	-0.127	0.133
-229.757	-200.000	0.025	-0.265
-228.742	101.954	0.267	-0.307
-227.727	-200.000	0.025	0.109
-226.713	601.442	0.021	-0.052
-225.698	56.920	0.480	0.459
-224.684	-133.466	0.134	-0.017
-223.669	-200.000	0.522	0.001
-222.655	-89.931	-0.269	0.077
-221.640	111.218	-0.093	0.110
-220.625	-146.326	0.191	0.016
-219.611	800.000	0.044	0.185
-218.596	-16.461	-0.250	-0.156
-217.582	182.772	0.016	0.023
-216.567	800.000	-0.031	-0.114
-215.552	125.756	0.129	0.160
-214.538	-3.141	0.331	0.227
-213.523	-200.000	-0.020	0.159
-212.509	-200.000	-0.033	0.199
-211.494	-184.533	-0.371	0.006
-210.479	-61.059	0.422	0.175
-209.465	-200.000	0.008	-0.173
-208.450	-124.095	0.260	-0.040
-207.436	711.117	-0.084	0.219
-206.421	-9.108	0.324	-0.213
-205.406	-37.165	-0.179	0.094
-204.392	-200.000	0.028	-0.282
-203.377	-43.581	0.250	0.124
-202.363	800.000	-0.100	0.429
-201.348	53.469	-0.217	0.204
-200.333	-17.096	-0.107	0.066
-199.319	-103.999	-0.089	-0.020
-198.304	-200.000	-0.014	-0.063
-197.290	-82.487	0.207	0.066
-196.275	800.000	0.042	0.154
-195.260	-158.514	-0.039	0.002
-194.246	-200.000	-0.021	-0.126
-193.231	-172.170	0.098	0.003
-192.217	-120.938	0.193	-0.032
-191.202	-55.520	0.291	0.128
-190.187	-74.902	0.292	0.103
-189.173	-61.527	0.279	0.115
-188.158	486.491	0.121	0.271
-187.144	-104.225	-0.164	-0.037
-186.129	160.632	-0.021	-0.029
-185.114	-118.887	0.266	0.046
-184.100	-40.269	-0.159	-0.081
-183.085	-99.662	0.238	-0.059
-182.071	375.069	0.047	0.094
-181.056	-200.000	-0.001	-0.226
-180.042	-200.000	0.055	-0.295
-179.027	800.000	-0.039	0.157
-178.012	-7.008	0.293	-0.195
-176.998	354.495	0.061	0.120
-175.983	192.916	0.140	-0.208
-174.969	-94.187	-0.134	0.036
-173.954	800.000	-0.096	-0.286
-172.939	-86.081	0.242	0.073
-171.925	170.389	-0.080	0.112
-170.910	254.735	0.061	0.102
-169.896	-78.507	0.273	-0.092
-168.881	185.852	-0.180	0.263
-167.866	22.413	0.184	-0.148
-166.852	628.069	-0.081	-0.202
-165.837	-200.000	0.032	-0.334
-164.823	-84.996	-0.154	-0.047
-163.808	199.920	0.217	-0.326
-162.793	10.209	-0.197	-0.147
-161.779	157.878	-0.243	-0.330
-160.764	-36.822	-0.377	-0.198
-159.750	1.982	0.084	-0.059
-158.735	800.000	-0.137	0.428
-157.720	800.000	0.015	0.051
-156.706	124.553	-0.145	0.178
-155.691	-110.552	-0.299	-0.061
-154.677	800.000	-0.045	-0.137
-153.662	-200.000	0.031	0.193
-152.647	152.123	0.185	0.247
-151.633	666.181	-0.060	-0.151
-150.618	95.430	-0.027	0.030
-149.604	-200.000	0.034	-0.261
-148.589	800.000	0.133	0.394
-147.574	800.000	-0.034	-0.095
-146.560	325.295	-0.061	-0.114
-145.545	23.833	0.173	-0.140
-144.531	-200.000	0.029	-0.142
-143.516	178.641	-0.211	0.302
-142.502	37.366	0.329	-0.285
-141.487	187.496	0.061	0.089
-140.472	-200.000	0.058	-0.255
-139.458	800.000	-0.033	-0.139
-138.443	79.574	-0.034	-0.035
-137.429	-94.872	-0.158	0.042
-136.414	-82.987	0.148	0.047
-135.399	344.459	-0.110	0.211
-134.385	220.711	-0.096	-0.151
-133.370	-101.931	-0.288	-0.068
-132.356	-137.501	0.271	-0.030
-131.341	12.802	-0.210	-0.159
-130.326	787.426	0.071	0.191
-129.312	-200.000	-0.042	0.263
-128.297	-96.824	-0.197	-0.051
-127.283	-200.000	0.014	0.073
-126.268	-49.437	-0.209	0.097
-125.253	-44.974	0.079	0.038
-124.239	-200.000	-0.030	0.276
-123.224	-128.002	-0.153	0.022
-122.210	714.520	0.076	0.198
-121.195	-122.017	0.129	-0.021
