DTS Sentinel unit serial number:	SN413079Multiplexer serial number:	ORYXHardware model number:	OX4-SRSoftware version number:	ORYX F/W v4.00 Oryx Data Collector v3.7.2.0data status	okinstallation	princeton_trtdifferential loss correction	single-endedforward channel	channel 4reverse channel	N/Adate	2019/09/14time	12:13:35forward acquisition time	60.00reverse acquisition time	0.00gamma	496.2192k internal	0.2293k external	0.2293temperature offset calibration	1.0154default loss term (dB/km)	0.3790temperature slope calibration	1.0000multiplexer offset coefficient	1.0000multiplexer slope coefficient	1.0000fibre end	0.00T internal ref (°C)	37.61T ext. ref 1 (°C)	4.72T ext. ref 2 (°C)	33.55length (m)	temperature (°C)	Stokes	anti-Stokes-747.200	48.176	0.116	-0.111
-746.185	467.504	0.152	0.348
-745.171	-200.000	-0.014	0.181
-744.156	-18.285	0.259	-0.166
-743.142	211.616	-0.084	-0.135
-742.127	394.223	0.182	0.389
-741.112	-28.051	-0.084	-0.050
-740.098	-156.646	0.224	0.014
-739.083	158.950	-0.131	-0.186
-738.069	-46.262	0.328	0.165
-737.054	800.000	-0.040	0.124
-736.039	-155.499	-0.193	-0.013
-735.025	-4.244	0.208	0.147
-734.010	453.146	-0.043	-0.096
-732.996	-145.050	0.223	-0.021
-731.981	199.827	0.089	0.139
-730.966	800.000	-0.052	-0.163
-729.952	800.000	0.059	-0.215
-728.937	40.669	-0.084	0.078
-727.923	-35.739	-0.410	0.227
-726.908	-187.670	0.053	-0.001
-725.894	96.180	0.142	-0.166
-724.879	68.939	-0.132	0.138
-723.864	151.323	-0.207	-0.288
-722.850	604.567	-0.022	0.055
-721.835	583.131	0.047	-0.117
-720.821	-2.605	0.307	0.220
-719.806	-72.947	-0.071	0.027
-718.791	-135.699	-0.164	-0.020
-717.777	-200.000	0.008	-0.240
-716.762	-119.728	-0.298	-0.053
-715.748	800.000	0.063	-0.258
-714.733	179.656	-0.208	-0.311
-713.718	5.871	-0.098	0.074
-712.704	-89.086	-0.173	0.052
-711.689	141.840	0.127	-0.173
-710.675	-120.264	-0.075	-0.013
-709.660	800.000	-0.046	-0.177
-708.645	123.545	0.009	0.012
-707.631	-145.443	-0.258	0.024
-706.616	-155.616	-0.094	-0.006
-705.602	281.253	-0.024	0.044
-704.587	-187.885	-0.225	0.003
-703.572	4.288	-0.077	0.058
-702.558	800.000	-0.113	0.329
-701.543	10.596	-0.127	-0.099
-700.529	372.984	0.133	0.276
-699.514	-148.119	-0.426	0.036
-698.499	672.932	0.113	-0.298
-697.485	163.764	0.050	-0.072
-696.470	-200.000	-0.033	-0.408
-695.456	421.137	0.159	0.348
-694.441	-200.000	-0.054	-0.253
-693.426	-100.093	0.222	-0.056
-692.412	727.109	0.030	-0.081
-691.397	800.000	0.032	-0.107
-690.383	3.694	-0.255	-0.190
-689.368	-200.000	-0.008	0.129
-688.354	17.167	-0.305	0.247
-687.339	-200.000	0.018	0.162
-686.324	800.000	0.052	0.225
-685.310	72.068	-0.141	-0.150
-684.295	-114.586	0.213	0.042
-683.281	-200.000	0.041	0.000
-682.266	243.426	0.064	0.109
-681.251	-119.689	-0.357	-0.063
-680.237	-57.100	-0.297	0.134
-679.222	-68.106	-0.305	0.121
-678.208	-200.000	-0.061	0.294
-677.193	-200.000	0.029	0.288
-676.178	-129.495	-0.222	-0.031
-675.164	152.542	0.082	-0.114
-674.149	-200.000	-0.002	0.015
-673.135	85.541	0.138	-0.155
-672.120	-136.947	-0.183	0.021
-671.105	-54.884	-0.184	0.085
-670.091	166.830	-0.124	-0.179
-669.076	800.000	-0.083	-0.294
-668.062	52.283	-0.272	-0.265
-667.047	-146.078	0.310	-0.028
-666.032	-200.000	0.004	-0.469
-665.018	301.641	0.135	0.254
-664.003	72.183	0.191	0.202
-662.989	187.444	0.018	-0.028
-661.974	-200.000	-0.017	0.084
-660.959	-37.563	0.039	-0.021
-659.945	-200.000	0.021	-0.102
-658.930	800.000	0.028	0.099
-657.916	800.000	-0.055	-0.158
-656.901	65.052	0.309	-0.319
-655.886	109.405	-0.061	0.074
-654.872	-59.478	-0.325	-0.142
-653.857	-200.000	0.029	-0.171
-652.843	317.526	-0.111	0.213
-651.828	-126.702	0.219	-0.033
-650.814	158.504	0.118	-0.167
-649.799	723.716	-0.069	-0.187
-648.784	-83.177	0.231	-0.076
-647.770	8.903	0.069	-0.053
-646.755	-180.659	-0.156	0.003
-645.741	27.997	0.276	-0.237
-644.726	140.710	0.088	-0.118
-643.711	449.451	0.191	-0.429
-642.697	244.975	0.270	-0.463
-641.682	195.588	-0.052	-0.081
-640.668	-72.253	-0.191	0.072
-639.653	562.074	0.086	-0.213
-638.638	319.788	-0.063	0.123
-637.624	197.086	0.198	0.308
-636.609	165.049	-0.125	-0.181
-635.595	-30.225	0.072	-0.041
-634.580	80.961	0.224	-0.246
-633.565	-8.243	-0.420	0.288
-632.551	138.991	0.172	0.230
-631.536	236.012	0.081	-0.136
-630.522	-127.904	-0.351	-0.051
-629.507	-41.263	-0.253	0.133
-628.492	-132.728	-0.080	0.010
-627.478	176.686	0.214	-0.317
-626.463	332.790	0.121	0.239
-625.449	-134.540	-0.339	-0.042
-624.434	308.909	0.130	-0.247
-623.419	-200.000	0.030	0.326
-622.405	151.814	-0.130	-0.180
-621.390	622.817	-0.114	-0.291
-620.376	-101.790	0.319	-0.079
-619.361	37.401	0.107	-0.097
-618.346	-105.350	-0.207	-0.048
-617.332	161.855	0.045	0.063
-616.317	198.157	0.283	-0.440
-615.303	148.899	-0.070	-0.096
-614.288	203.709	0.136	-0.214
-613.273	48.493	0.193	-0.184
-612.259	800.000	0.092	-0.405
-611.244	66.949	-0.114	-0.118
-610.230	332.962	-0.086	-0.169
-609.215	364.812	0.114	0.234
-608.201	-34.612	0.192	-0.107
-607.186	298.494	0.039	0.073
-606.171	-200.000	0.004	-0.164
-605.157	800.000	-0.015	-0.061
-604.142	66.970	-0.151	0.157
-603.128	-23.790	0.471	0.287
-602.113	-200.000	-0.039	-0.220
-601.098	-45.665	-0.040	0.020
-600.084	121.853	0.164	0.209
-599.069	-200.000	-0.004	-0.154
-598.055	4.491	-0.136	-0.102
-597.040	-37.946	-0.227	-0.123
-596.025	-173.348	-0.076	0.002
-595.011	340.302	-0.093	-0.184
-593.996	553.514	0.085	0.207
-592.982	239.000	0.112	0.190
-591.967	-10.591	0.181	0.122
-590.952	-57.293	-0.481	0.215
-589.938	-129.876	-0.278	-0.039
-588.923	358.067	-0.073	0.149
-587.909	458.920	0.031	0.069
-586.894	-195.195	0.139	0.001
-585.879	-200.000	0.024	0.174
-584.865	-112.134	0.241	-0.049
-583.850	41.655	0.119	0.110
-582.836	-8.752	0.141	-0.096
-581.821	-26.922	0.383	0.227
-580.806	60.785	-0.141	0.142
-579.792	236.356	-0.106	-0.178
-578.777	13.489	0.051	-0.040
-577.763	186.748	0.016	0.024
-576.748	-200.000	0.004	-0.100
-575.733	197.682	0.058	-0.091
-574.719	-37.728	-0.121	-0.065
-573.704	88.659	-0.266	-0.301
-572.690	-43.860	-0.252	0.129
-571.675	-78.146	-0.218	-0.076
-570.661	52.750	-0.082	-0.079
-569.646	380.964	0.100	-0.209
-568.631	800.000	-0.069	-0.289
-567.617	34.558	0.163	0.144
-566.602	-54.559	-0.065	0.030
-565.588	-52.993	0.255	-0.119
-564.573	-4.906	-0.199	0.139
-563.558	-91.888	0.131	-0.038
-562.544	-87.797	0.445	-0.136
-561.529	-200.000	0.043	0.274
-560.515	-80.548	0.126	-0.043
-559.500	800.000	-0.090	-0.334
-558.485	677.074	-0.042	0.111
-557.471	244.493	0.035	-0.059
-556.456	-39.491	-0.173	-0.092
-555.442	800.000	-0.009	-0.039
-554.427	-137.166	0.351	-0.041
-553.412	-4.807	0.018	0.013
-552.398	-124.011	-0.115	0.018
-551.383	-150.602	0.254	-0.020
-550.369	800.000	-0.092	-0.322
-549.354	-42.394	-0.175	-0.090
-548.339	-23.781	0.282	0.172
-547.325	-118.557	0.046	-0.008
-546.310	-19.762	0.181	0.114
-545.296	-200.000	-0.002	-0.085
-544.281	-7.665	-0.165	0.114
-543.266	800.000	0.058	0.202
-542.252	-73.912	0.326	-0.120
-541.237	396.968	-0.193	0.409
-540.223	-200.000	0.023	-0.187
-539.208	304.360	-0.093	0.176
-538.193	51.079	-0.120	0.116
-537.179	186.226	-0.217	0.328
-536.164	103.109	-0.132	-0.157
-535.150	44.901	-0.128	0.119
-534.135	348.383	0.152	-0.304
-533.121	86.344	-0.146	-0.163
-532.106	135.836	-0.070	0.093
-531.091	-164.240	-0.153	-0.007
-530.077	-28.229	0.234	0.137
-529.062	-90.934	-0.330	-0.096
-528.048	-38.234	0.217	-0.117
-527.033	-61.438	-0.371	-0.158
-526.018	-90.648	0.112	-0.033
-525.004	23.490	-0.264	-0.220
-523.989	-75.972	0.132	0.047
-522.975	28.112	0.095	-0.081
-521.960	-65.219	-0.140	-0.057
-520.945	64.820	0.036	-0.037
-519.931	-169.117	-0.449	0.017
-518.916	98.900	0.038	-0.044
-517.902	800.000	0.004	0.017
-516.887	666.390	-0.028	-0.074
-515.872	-200.000	0.053	0.245
-514.858	-113.899	0.019	-0.004
-513.843	-59.432	-0.286	-0.125
-512.829	2.190	0.083	-0.061
-511.814	-200.000	-0.025	0.156
-510.799	31.668	-0.193	0.169
-509.785	-146.218	-0.293	-0.026
-508.770	678.799	-0.028	-0.073
-507.756	-94.868	-0.136	0.037
-506.741	157.750	-0.176	-0.247
-505.726	-67.331	-0.125	-0.050
-504.712	-96.160	-0.341	-0.092
-503.697	185.906	0.028	-0.043
-502.683	800.000	-0.034	0.100
-501.668	-200.000	-0.010	0.187
-500.653	-71.295	-0.220	-0.083
-499.639	229.523	-0.158	0.261
-498.624	-157.826	-0.126	0.008
-497.610	-138.956	0.226	-0.025
-496.595	228.718	0.210	-0.346
-495.581	-200.000	0.004	-0.148
-494.566	342.545	0.126	-0.249
-493.551	800.000	0.075	0.218
-492.537	-200.000	0.023	0.262
-491.522	-200.000	-0.010	-0.235
-490.508	659.307	0.157	0.409
-489.493	-115.501	-0.179	-0.034
-488.478	92.322	0.106	-0.122
-487.464	800.000	0.061	0.238
-486.449	149.585	-0.111	-0.153
-485.435	-200.000	0.040	0.223
-484.420	800.000	0.099	0.367
-483.405	-156.043	0.125	0.008
-482.391	800.000	-0.093	0.317
-481.376	472.781	0.113	0.258
-480.362	800.000	0.086	-0.311
-479.347	-147.596	-0.520	-0.044
-478.332	800.000	0.031	-0.131
-477.318	46.010	0.213	-0.200
-476.303	-81.524	-0.066	-0.022
-475.289	65.064	0.103	0.105
-474.274	-71.986	-0.042	0.016
-473.259	-123.850	-0.156	0.025
-472.245	-151.649	-0.121	-0.009
-471.230	665.765	-0.032	-0.084
-470.216	-10.659	-0.190	-0.127
-469.201	-46.442	0.115	-0.057
-468.186	-200.000	0.010	-0.058
-467.172	-41.410	-0.379	0.197
-466.157	54.990	-0.084	0.082
-465.143	-20.527	-0.089	-0.056
-464.128	189.177	-0.120	0.182
-463.113	367.710	-0.168	0.343
-462.099	472.138	0.060	0.138
-461.084	18.617	0.116	0.094
-460.070	-96.764	0.146	0.039
-459.055	140.214	0.111	-0.149
-458.040	-200.000	-0.008	0.068
-457.026	89.882	-0.171	-0.194
-456.011	-200.000	-0.015	-0.150
-454.997	-7.823	-0.103	-0.071
-453.982	-21.768	-0.089	-0.055
-452.968	-64.547	-0.088	-0.036
-451.953	-50.749	0.051	0.024
-450.938	-5.777	0.113	0.079
-449.924	-200.000	0.010	0.345
-448.909	32.135	0.160	0.140
-447.895	-200.000	0.014	0.138
-446.880	-146.101	0.113	-0.010
-445.865	-33.359	0.021	0.012
-444.851	47.290	0.051	0.048
-443.836	45.643	-0.288	-0.269
-442.822	109.161	-0.042	-0.051
-441.807	-74.745	0.370	0.135
-440.792	-200.000	-0.070	-0.336
-439.778	585.114	-0.144	-0.357
-438.763	-135.752	0.148	-0.018
-437.749	-200.000	-0.010	-0.203
-436.734	-104.568	0.099	0.023
-435.719	-200.000	0.050	0.231
-434.705	-15.225	0.356	0.230
-433.690	-36.248	0.203	-0.111
-432.676	-50.161	0.412	0.197
-431.661	-31.671	0.147	0.083
-430.646	82.267	0.233	-0.256
-429.632	293.507	-0.164	0.302
-428.617	124.525	0.204	0.260
-427.603	220.611	0.125	0.202
-426.588	130.286	-0.021	0.028
-425.573	-76.733	-0.182	0.064
-424.559	166.447	-0.131	-0.187
-423.544	-155.859	0.136	0.009
-422.530	800.000	-0.031	0.120
-421.515	-50.318	0.173	0.082
-420.500	342.414	0.125	0.247
-419.486	-32.604	0.082	0.046
-418.471	-200.000	-0.006	0.108
-417.457	-111.818	-0.254	-0.052
-416.442	-153.850	0.160	-0.011
-415.428	-148.660	-0.094	0.008
-414.413	-77.439	-0.286	0.100
-413.398	800.000	-0.013	-0.048
-412.384	-67.947	0.346	-0.136
-411.369	-110.080	-0.242	0.051
-410.355	46.845	-0.315	-0.296
-409.340	-125.979	0.214	0.032
-408.325	-40.852	-0.279	-0.146
-407.311	-200.000	-0.017	-0.168
-406.296	211.880	-0.136	0.217
-405.282	495.723	0.218	0.506
-404.267	65.562	0.399	0.408
-403.252	139.132	0.055	0.072
-402.238	309.123	-0.155	0.293
-401.223	800.000	-0.055	-0.172
-400.209	103.209	0.216	0.255
-399.194	-114.601	0.066	0.013
-398.179	-89.009	-0.083	-0.025
-397.165	-97.979	0.372	-0.097
-396.150	-200.000	0.006	0.030
-395.136	717.523	-0.136	0.365
-394.121	-146.976	-0.357	-0.031
-393.106	800.000	0.031	-0.089
-392.092	205.213	0.084	0.132
-391.077	114.611	0.237	0.291
-390.063	4.500	0.208	-0.154
-389.048	135.213	0.164	0.216
-388.033	446.951	-0.085	-0.190
-387.019	-8.457	-0.154	-0.104
-386.004	800.000	0.037	-0.119
-384.990	-128.400	-0.360	-0.052
-383.975	458.124	0.114	-0.256
-382.960	9.619	-0.153	-0.117
-381.946	185.448	0.095	0.143
-380.931	-200.000	-0.017	-0.101
-379.917	343.060	-0.031	0.060
-378.902	46.986	-0.363	0.340
-377.888	-139.157	-0.226	-0.025
-376.873	90.110	0.225	0.254
-375.858	121.084	0.323	0.405
-374.844	57.981	-0.113	-0.111
-373.829	638.487	-0.049	-0.126
-372.815	503.416	0.165	0.384
-371.800	800.000	0.098	0.292
-370.785	81.655	0.252	0.275
-369.771	800.000	-0.054	0.237
-368.756	23.775	-0.344	-0.286
-367.742	800.000	0.099	0.293
-366.727	364.165	-0.014	-0.029
-365.712	373.567	0.098	0.201
-364.698	-82.106	0.184	0.061
-363.683	800.000	0.006	0.023
-362.669	115.622	-0.268	-0.330
-361.654	800.000	0.061	-0.172
-360.639	173.643	0.080	0.116
-359.625	-200.000	0.004	-0.072
-358.610	800.000	-0.051	0.191
-357.596	-107.040	-0.286	0.064
-356.581	93.735	-0.181	0.207
-355.566	-200.000	-0.018	-0.299
-354.552	-200.000	0.029	-0.223
-353.537	10.410	0.057	0.044
-352.523	26.678	0.171	0.144
-351.508	-93.213	0.042	0.012
-350.493	-154.611	-0.135	0.009
-349.479	327.194	-0.141	0.272
-348.464	47.059	-0.160	-0.150
-347.450	-107.055	-0.232	-0.052
-346.435	4.583	0.159	-0.117
-345.420	-107.090	-0.131	-0.029
-344.406	41.369	-0.303	-0.276
-343.391	2.753	-0.376	0.275
-342.377	-37.098	0.190	-0.103
-341.362	-200.000	0.003	-0.437
-340.348	-200.000	-0.007	-0.059
-339.333	298.121	-0.071	0.131
-338.318	800.000	-0.075	-0.244
-337.304	-144.916	-0.190	-0.017
-336.289	542.366	0.096	-0.230
-335.275	800.000	-0.078	-0.290
-334.260	800.000	-0.061	0.252
-333.245	31.373	0.289	0.250
-332.231	359.754	-0.060	-0.121
-331.216	-200.000	-0.014	0.181
-330.202	-200.000	0.027	0.303
-329.187	-100.149	-0.155	0.039
-328.172	-99.128	0.250	-0.064
-327.158	65.890	0.222	0.227
-326.143	187.177	0.204	0.306
-325.129	-200.000	0.027	-0.217
-324.114	-200.000	0.029	0.222
-323.099	3.944	-0.226	-0.167
-322.085	-78.429	0.131	0.045
-321.070	112.514	0.143	0.174
-320.056	800.000	0.041	-0.134
-319.041	-96.202	0.154	0.041
-318.026	-155.223	0.280	0.018
-317.012	-47.607	-0.071	-0.035
-315.997	-165.880	-0.282	-0.012
-314.983	800.000	-0.064	-0.222
-313.968	27.427	-0.164	0.139
-312.953	800.000	0.070	0.235
-311.939	21.819	0.095	-0.078
-310.924	79.686	0.203	-0.219
-309.910	37.548	-0.056	-0.050
-308.895	18.069	-0.022	-0.018
-307.880	-99.740	-0.185	0.047
-306.866	800.000	-0.172	-0.521
-305.851	76.934	0.220	-0.235
-304.837	48.685	0.253	-0.239
-303.822	-128.576	0.303	-0.043
-302.807	800.000	-0.114	-0.367
-301.793	164.068	-0.151	0.213
-300.778	-200.000	0.029	0.203
-299.764	-200.000	0.030	-0.391
-298.749	-49.886	0.150	0.071
-297.735	101.571	-0.203	-0.238
-296.720	25.962	0.132	0.111
-295.705	263.081	0.072	-0.126
-294.691	48.341	-0.205	0.193
-293.676	-102.794	-0.157	-0.038
-292.662	-96.561	0.214	0.057
-291.647	-200.000	0.040	0.201
-290.632	-170.709	0.204	-0.007
-289.618	17.578	0.173	0.138
-288.603	-68.642	-0.164	0.064
-287.589	-200.000	-0.024	-0.218
-286.574	137.851	0.117	0.155
-285.559	-200.000	0.083	-0.389
-284.545	-200.000	0.017	0.202
-283.530	113.497	0.222	0.271
-282.516	-18.149	0.211	0.133
-281.501	-132.676	-0.280	-0.036
-280.486	387.326	0.101	-0.209
-279.472	-52.840	-0.065	-0.030
-278.457	-133.196	-0.100	-0.013
-277.443	350.654	0.019	0.037
-276.428	800.000	0.014	-0.042
-275.413	-185.838	0.654	-0.010
-274.399	-73.082	0.138	0.051
-273.384	-200.000	0.026	-0.308
-272.370	94.268	-0.216	-0.246
-271.355	-47.188	-0.276	0.135
-270.340	52.410	-0.059	0.056
-269.326	800.000	-0.050	-0.145
-268.311	388.889	-0.072	-0.149
-267.297	-56.644	-0.172	-0.077
-266.282	689.980	0.144	0.377
-265.267	-141.813	0.261	-0.026
-264.253	655.468	-0.062	-0.160
-263.238	-100.194	-0.344	0.086
-262.224	166.467	-0.044	-0.062
-261.209	-58.049	-0.127	0.055
-260.195	212.528	0.149	-0.235
-259.180	-200.000	0.004	0.038
-258.165	555.792	-0.145	-0.350
-257.151	800.000	0.027	0.110
-256.136	800.000	-0.022	-0.085
-255.122	-80.566	0.546	0.182
-254.107	-161.440	-0.392	-0.020
-253.092	-200.000	0.004	0.107
-252.078	800.000	0.095	-0.264
-251.063	59.732	-0.073	0.073
-250.049	800.000	0.045	-0.165
-249.034	-173.663	-0.074	0.002
-248.019	-200.000	0.028	0.181
-247.005	-83.426	-0.136	-0.044
-245.990	-38.509	-0.268	-0.142
-244.976	-156.035	0.212	0.013
-243.961	-42.393	-0.161	0.082
-242.946	-24.089	0.240	0.144
-241.932	-179.535	0.100	-0.002
-240.917	-122.645	0.145	-0.024
-239.903	-200.000	-0.005	-0.062
-238.888	171.575	0.165	0.237
-237.873	67.127	-0.094	-0.096
-236.859	-200.000	0.072	-0.348
-235.844	-175.786	-0.073	0.002
-234.830	-200.000	-0.089	0.473
-233.815	-110.661	-0.046	0.010
-232.800	46.283	-0.192	-0.179
-231.786	-175.431	0.266	0.007
-230.771	4.683	0.168	0.124
-229.757	-136.812	-0.372	-0.043
-228.742	-199.426	0.252	0.001
-227.727	-126.288	-0.248	0.037
-226.713	146.671	-0.186	-0.251
-225.698	-138.779	-0.118	-0.013
-224.684	-135.069	0.281	0.034
-223.669	118.151	0.049	-0.060
-222.655	-149.571	-0.468	-0.037
-221.640	-183.637	0.286	0.005
-220.625	433.214	-0.073	0.159
-219.611	-96.471	-0.213	0.056
-218.596	-17.449	-0.142	0.090
-217.582	800.000	-0.014	-0.055
-216.567	-31.282	0.246	-0.139
-215.552	14.718	-0.060	0.047
-214.538	66.961	0.227	-0.232
-213.523	-19.942	-0.148	-0.092
-212.509	-4.894	-0.249	0.172
-211.494	56.955	0.293	-0.287
-210.479	35.718	-0.181	0.159
-209.465	-200.000	0.065	0.383
-208.450	450.267	0.037	0.081
-207.436	-15.172	0.110	-0.070
-206.421	249.790	-0.053	0.090
-205.406	-200.000	0.049	-0.440
-204.392	-200.000	-0.010	0.106
-203.377	-200.000	-0.008	-0.111
-202.363	-200.000	0.003	0.029
-201.348	-200.000	0.021	-0.165
-200.333	-46.634	-0.039	0.019
-199.319	-34.509	0.343	0.188
-198.304	-55.943	-0.317	0.142
-197.290	-200.000	-0.023	-0.143
-196.275	-117.185	0.309	-0.056
-195.260	-78.086	-0.195	-0.067
-194.246	800.000	0.027	0.119
-193.231	-57.159	0.178	-0.079
-192.217	338.126	0.142	0.277
-191.202	63.430	-0.360	0.361
-190.187	-67.953	-0.131	0.051
-189.173	800.000	0.044	0.163
-188.158	5.973	0.327	0.242
-187.144	92.629	-0.088	0.099
-186.129	248.510	0.131	-0.221
-185.114	-26.359	0.065	0.038
-184.100	-35.693	-0.016	-0.009
-183.085	25.619	0.204	0.170
-182.071	-200.000	-0.014	0.070
-181.056	-99.251	0.132	-0.033
-180.042	-126.245	-0.209	0.031
-179.027	119.291	0.068	-0.084
-178.012	287.702	-0.071	0.129
-176.998	326.615	-0.166	0.318
-175.983	800.000	0.025	0.088
-174.969	31.010	0.146	0.125
-173.954	539.712	0.134	0.318
-172.939	91.609	0.104	0.117
-171.925	-85.458	0.283	-0.088
-170.910	152.898	-0.177	0.242
-169.896	142.939	-0.145	-0.193
-168.881	16.207	-0.079	0.062
-167.866	38.851	-0.255	-0.228
-166.852	-96.108	-0.048	-0.013
-165.837	-200.000	-0.071	-0.408
-164.823	-200.000	0.050	-0.409
-163.808	85.515	-0.155	0.170
-162.793	405.847	0.048	0.101
-161.779	352.643	0.092	0.183
-160.764	-200.000	0.020	-0.153
-159.750	17.181	-0.061	0.049
-158.735	800.000	0.099	0.311
-157.720	4.098	-0.110	0.080
-156.706	149.618	-0.053	0.072
-155.691	-200.000	0.002	-0.094
-154.677	56.279	-0.263	-0.255
-153.662	-200.000	0.024	-0.143
-152.647	800.000	-0.017	-0.067
-151.633	21.669	0.072	0.059
-150.618	800.000	0.081	-0.332
-149.604	800.000	-0.073	0.207
-148.589	-200.000	-0.122	0.603
-147.574	-92.999	-0.472	0.132
-146.560	800.000	0.099	-0.388
-145.545	-23.669	-0.289	-0.173
-144.531	-200.000	0.003	0.263
-143.516	-15.854	0.023	0.014
-142.502	-32.943	-0.127	0.070
-141.487	113.425	-0.184	0.223
-140.472	-56.351	0.239	-0.106
-139.458	310.688	0.163	-0.305
-138.443	-37.183	-0.131	-0.070
-137.429	322.121	0.096	-0.183
-136.414	-148.771	-0.428	0.035
-135.399	-47.275	0.105	-0.051
-134.385	43.425	-0.277	0.253
-133.370	22.869	-0.331	0.271
-132.356	303.832	-0.050	0.093
-131.341	142.735	-0.079	-0.104
-130.326	800.000	-0.051	-0.143
-129.312	28.877	0.170	0.144
-128.297	-200.000	0.031	0.150
-127.283	284.201	-0.050	-0.091
-126.268	800.000	0.124	-0.480
-125.253	-104.284	-0.255	0.059
-124.239	63.259	0.128	0.128
-123.224	800.000	-0.048	0.145
-122.210	-44.797	-0.235	0.117
-121.195	15.576	0.339	-0.266
