DTS Sentinel unit serial number:	SN413079Multiplexer serial number:	ORYXHardware model number:	OX4-SRSoftware version number:	ORYX F/W v4.00 Oryx Data Collector v3.7.2.0data status	okinstallation	princeton_trtdifferential loss correction	single-endedforward channel	channel 4reverse channel	N/Adate	2019/09/16time	04:17:35forward acquisition time	60.00reverse acquisition time	0.00gamma	496.2192k internal	0.2321k external	0.2321temperature offset calibration	0.9977default loss term (dB/km)	0.3790temperature slope calibration	1.0000multiplexer offset coefficient	1.0000multiplexer slope coefficient	1.0000fibre end	0.00T internal ref (°C)	27.36T ext. ref 1 (°C)	10.79T ext. ref 2 (°C)	21.40length (m)	temperature (°C)	Stokes	anti-Stokes-747.200	-124.050	-0.274	-0.043
-746.185	-90.327	-0.114	0.033
-745.171	-32.514	0.170	0.096
-744.156	276.822	0.193	0.347
-743.142	160.965	-0.030	0.042
-742.127	-200.000	-0.047	0.206
-741.112	264.854	-0.064	0.112
-740.098	-71.148	-0.087	0.033
-739.083	30.989	-0.242	-0.210
-738.069	-200.000	-0.030	0.149
-737.054	130.111	-0.144	-0.186
-736.039	-200.000	-0.001	-0.195
-735.025	-44.204	-0.094	0.048
-734.010	-16.435	-0.323	-0.207
-732.996	-99.900	-0.274	0.069
-731.981	28.580	0.094	-0.080
-730.966	-98.188	0.211	-0.055
-729.952	-200.000	0.030	0.151
-728.937	800.000	-0.053	-0.230
-727.923	-52.155	-0.141	0.066
-726.908	164.901	-0.163	0.232
-725.894	-33.556	-0.270	-0.151
-724.879	9.129	0.048	-0.037
-723.864	376.683	0.057	-0.118
-722.850	-168.780	-0.090	-0.003
-721.835	-168.453	-0.257	0.010
-720.821	-200.000	-0.035	-0.342
-719.806	65.214	-0.035	-0.036
-718.791	1.639	-0.259	-0.188
-717.777	315.464	-0.023	-0.044
-716.762	30.354	0.164	0.142
-715.748	800.000	-0.088	-0.265
-714.733	9.303	-0.273	0.208
-713.718	-200.000	0.029	-0.300
-712.704	-133.205	-0.174	0.022
-711.689	-155.102	0.153	0.010
-710.675	-10.133	-0.242	0.162
-709.660	167.932	-0.139	-0.199
-708.645	28.315	0.056	0.047
-707.631	-11.779	0.091	0.060
-706.616	43.082	-0.065	-0.060
-705.602	-18.009	0.220	0.139
-704.587	440.578	0.051	0.112
-703.572	800.000	0.103	-0.300
-702.558	800.000	-0.050	-0.176
-701.543	51.355	-0.177	-0.170
-700.529	328.575	-0.072	0.140
-699.514	250.619	-0.108	-0.185
-698.499	240.633	0.032	-0.054
-697.485	-66.627	-0.166	-0.066
-696.470	86.286	-0.139	-0.154
-695.456	800.000	0.041	0.142
-694.441	-162.855	-0.072	0.004
-693.426	60.295	0.152	-0.152
-692.412	-72.043	0.258	0.097
-691.397	17.397	-0.104	-0.084
-690.383	-126.711	0.447	0.067
-689.368	-200.000	0.112	-0.555
-688.354	-97.119	0.162	-0.043
-687.339	800.000	-0.032	0.110
-686.324	800.000	0.078	-0.318
-685.310	800.000	0.025	-0.076
-684.295	150.624	0.131	-0.180
-683.281	2.675	-0.166	-0.122
-682.266	-117.375	-0.070	0.013
-681.251	11.165	0.268	0.207
-680.237	-78.856	0.103	0.035
-679.222	-200.000	0.056	-0.269
-678.208	102.675	0.182	-0.214
-677.193	48.941	0.044	-0.042
-676.178	-46.831	-0.133	0.065
-675.164	72.290	-0.097	-0.102
-674.149	-200.000	0.024	-0.268
-673.135	-200.000	0.024	-0.163
-672.120	-200.000	-0.046	0.403
-671.105	799.689	0.072	-0.199
-670.091	-120.380	-0.217	0.037
-669.076	-155.045	0.195	0.013
-668.062	175.939	0.118	-0.173
-667.047	-200.000	-0.017	0.077
-666.032	-140.478	-0.211	-0.022
-665.018	-161.918	0.079	0.004
-664.003	-51.338	0.278	-0.131
-662.989	53.911	0.154	0.149
-661.974	-143.480	0.415	-0.040
-660.959	315.119	0.119	-0.226
-659.945	36.836	-0.125	0.111
-658.930	33.963	0.185	-0.162
-657.916	-76.182	0.090	0.032
-656.901	-128.380	0.126	0.018
-655.886	77.963	-0.109	-0.117
-654.872	-46.385	-0.229	-0.113
-653.857	-151.027	-0.372	-0.028
-652.843	-82.421	0.119	0.039
-651.828	-200.000	-0.042	-0.238
-650.814	800.000	-0.015	-0.057
-649.799	-134.204	-0.365	-0.045
-648.784	67.155	-0.028	-0.028
-647.770	-61.041	0.244	-0.104
-646.755	-1.516	0.156	-0.111
-645.741	124.236	-0.110	0.139
-644.726	-200.000	0.045	-0.253
-643.711	42.098	-0.218	0.199
-642.697	-76.539	-0.254	-0.090
-641.682	-83.575	-0.185	0.059
-640.668	800.000	-0.060	-0.220
-639.653	-104.944	-0.224	0.052
-638.638	11.756	0.194	0.150
-637.624	-2.834	-0.190	-0.134
-636.609	-71.762	0.310	0.116
-635.595	-132.109	0.456	-0.060
-634.580	358.893	-0.066	-0.132
-633.565	-73.500	-0.243	-0.089
-632.551	440.516	-0.091	-0.201
-631.536	-200.000	0.007	0.161
-630.522	800.000	0.118	0.413
-629.507	-200.000	0.003	0.182
-628.492	7.706	0.140	-0.106
-627.478	-23.339	-0.229	-0.138
-626.463	800.000	-0.057	0.172
-625.449	-200.000	0.041	0.263
-624.434	441.767	0.084	-0.186
-623.419	9.670	0.243	-0.185
-622.405	138.940	0.137	-0.181
-621.390	-200.000	-0.011	-0.115
-620.376	-142.372	0.031	-0.003
-619.361	-87.925	-0.157	-0.048
-618.346	79.980	0.106	-0.114
-617.332	346.866	-0.181	0.359
-616.317	-11.554	-0.105	0.069
-615.303	427.650	-0.104	-0.227
-614.288	459.024	-0.034	0.076
-613.273	800.000	0.019	0.062
-612.259	74.539	-0.119	0.126
-611.244	607.880	0.038	-0.095
-610.230	-27.903	-0.097	-0.056
-609.215	-6.424	-0.175	-0.120
-608.201	-90.439	0.073	0.021
-607.186	-120.198	0.211	0.036
-606.171	800.000	0.045	0.177
-605.157	115.812	-0.140	-0.172
-604.142	430.801	-0.080	-0.174
-603.128	49.131	-0.129	0.122
-602.113	703.090	0.192	0.508
-601.098	-13.392	-0.078	-0.051
-600.084	550.390	-0.096	-0.232
-599.069	-147.809	0.133	-0.011
-598.055	-28.857	0.156	0.090
-597.040	72.568	0.028	-0.030
-596.025	-109.044	-0.147	-0.031
-595.011	119.331	0.311	-0.386
-593.996	31.696	-0.056	-0.048
-592.982	592.649	0.125	0.311
-591.967	-46.716	-0.562	0.277
-590.952	-100.814	-0.011	0.003
-589.938	-200.000	-0.002	0.331
-588.923	-86.166	-0.222	0.069
-587.909	-200.000	0.022	-0.222
-586.894	448.957	-0.162	-0.359
-585.879	516.586	-0.216	0.508
-584.865	-200.000	-0.056	-0.401
-583.850	-75.471	0.339	0.121
-582.836	-69.555	0.386	0.148
-581.821	-29.568	0.304	0.175
-580.806	-136.530	0.062	0.007
-579.792	330.109	-0.062	-0.120
-578.777	253.769	-0.024	0.040
-577.763	-200.000	-0.041	-0.231
-576.748	-200.000	0.064	-0.530
-575.733	-200.000	-0.030	0.180
-574.719	126.356	0.059	-0.075
-573.704	800.000	0.084	0.360
-572.690	3.914	-0.105	-0.077
-571.675	269.364	0.011	-0.019
-570.661	45.051	-0.042	0.039
-569.646	204.799	0.143	0.223
-568.631	69.913	0.114	-0.118
-567.617	-105.125	-0.112	-0.026
-566.602	-200.000	-0.014	-0.169
-565.588	4.207	0.357	-0.263
-564.573	-148.764	-0.395	0.032
-563.558	-200.000	0.021	-0.104
-562.544	-200.000	0.004	-0.185
-561.529	-91.226	0.163	0.047
-560.515	-51.595	-0.179	-0.084
-559.500	-111.623	0.061	-0.012
-558.485	800.000	0.069	-0.272
-557.471	-125.065	0.304	-0.047
-556.456	322.734	-0.126	-0.240
-555.442	201.449	-0.163	0.251
-554.427	-200.000	-0.011	0.212
-553.412	-3.914	-0.261	-0.182
-552.398	300.026	-0.015	-0.027
-551.383	376.494	0.118	-0.241
-550.369	86.488	-0.164	-0.181
-549.354	88.161	-0.264	0.293
-548.339	800.000	-0.136	-0.448
-547.325	-200.000	0.001	0.024
-546.310	124.413	-0.218	-0.275
-545.296	6.028	0.234	-0.174
-544.281	343.686	0.086	-0.168
-543.266	-24.346	-0.123	-0.074
-542.252	-7.626	0.247	-0.168
-541.237	-142.180	-0.191	-0.019
-540.223	432.119	0.031	-0.067
-539.208	92.578	-0.181	-0.204
-538.193	-120.329	-0.155	-0.027
-537.179	-156.450	-0.230	-0.014
-536.164	19.987	0.142	0.115
-535.150	-49.034	-0.158	0.076
-534.135	-200.000	-0.032	0.389
-533.121	137.552	-0.055	0.072
-532.106	-200.000	-0.007	-0.359
-531.091	37.725	-0.116	-0.103
-530.077	-200.000	-0.052	0.000
-529.062	-104.805	0.156	-0.036
-528.048	-48.255	0.236	-0.114
-527.033	5.755	0.227	-0.169
-526.018	-72.326	-0.077	-0.028
-525.004	10.804	0.288	-0.220
-523.989	-200.000	0.015	-0.136
-522.975	-200.000	-0.005	0.346
-521.960	-57.025	-0.091	0.040
-520.945	13.326	0.243	-0.189
-519.931	-200.000	0.069	0.315
-518.916	-25.302	-0.181	0.107
-517.902	-200.000	-0.003	0.273
-516.887	-158.277	0.231	-0.013
-515.872	-200.000	-0.061	-0.273
-514.858	272.691	0.056	-0.099
-513.843	-13.959	0.096	-0.062
-512.829	-1.759	-0.094	-0.066
-511.814	237.596	-0.075	0.125
-510.799	-148.869	0.031	-0.003
-509.785	800.000	-0.049	-0.171
-508.770	-145.679	-0.467	0.042
-507.756	-153.973	-0.159	-0.011
-506.741	-7.500	0.219	-0.149
-505.726	-131.593	-0.062	-0.008
-504.712	-61.972	0.079	0.033
-503.697	-32.271	0.361	-0.202
-502.683	-87.802	0.107	0.032
-501.668	-73.262	-0.107	-0.039
-500.653	535.792	-0.034	-0.081
-499.639	47.077	0.185	-0.173
-498.624	-51.189	0.075	-0.035
-497.610	-200.000	-0.034	-0.173
-496.595	-111.714	-0.174	-0.035
-495.581	96.167	-0.250	0.287
-494.566	698.383	0.105	-0.275
-493.551	-163.716	0.147	0.007
-492.537	-17.536	0.218	0.137
-491.522	198.806	-0.109	0.167
-490.508	335.249	0.069	0.133
-489.493	-161.467	-0.160	0.008
-488.478	-25.115	-0.241	0.143
-487.464	22.153	-0.252	0.206
-486.449	-200.000	0.012	0.142
-485.435	398.389	-0.151	0.317
-484.420	27.749	0.197	0.166
-483.405	35.896	0.278	0.245
-482.391	675.425	0.042	0.108
-481.376	-113.320	-0.248	-0.049
-480.362	-200.000	0.022	0.371
-479.347	-200.000	0.002	0.103
-478.332	-200.000	-0.003	0.103
-477.318	90.180	-0.100	0.112
-476.303	800.000	0.017	-0.055
-475.289	-66.819	-0.262	0.104
-474.274	642.998	-0.042	-0.107
-473.259	-23.585	-0.042	0.025
-472.245	374.856	0.162	0.331
-471.230	131.272	0.124	0.160
-470.216	-36.801	-0.163	0.088
-469.201	-44.560	-0.204	0.102
-468.186	301.701	0.179	0.331
-467.172	347.973	-0.082	0.161
-466.157	-155.130	0.154	0.010
-465.143	800.000	0.039	0.168
-464.128	-200.000	0.009	-0.206
-463.113	-200.000	0.004	-0.044
-462.099	4.794	-0.163	-0.120
-461.084	-118.751	-0.295	-0.052
-460.070	-18.819	-0.186	-0.116
-459.055	139.205	-0.167	-0.220
-458.040	229.992	0.064	-0.105
-457.026	-104.068	0.127	-0.030
-456.011	42.043	0.088	-0.080
-454.997	800.000	-0.021	0.061
-453.982	800.000	-0.098	0.333
-452.968	-200.000	0.016	-0.240
-451.953	-126.088	-0.271	0.041
-450.938	-200.000	0.026	0.213
-449.924	-200.000	0.014	0.097
-448.909	54.323	0.328	0.316
-447.895	-132.640	-0.411	-0.053
-446.880	-200.000	-0.023	-0.412
-445.865	51.648	-0.020	0.019
-444.851	41.857	0.085	0.077
-443.836	-98.053	-0.190	0.049
-442.822	-119.220	0.056	-0.010
-441.807	-200.000	-0.033	0.212
-440.792	293.558	-0.003	0.005
-439.778	800.000	0.123	-0.391
-438.763	114.367	0.157	-0.190
-437.749	418.286	0.160	-0.342
-436.734	-55.043	-0.080	-0.036
-435.719	38.004	0.241	0.214
-434.705	800.000	0.034	0.137
-433.690	93.986	-0.049	0.056
-432.676	264.341	-0.154	-0.267
-431.661	-42.861	-0.246	-0.125
-430.646	-8.293	-0.318	0.213
-429.632	-200.000	-0.005	-0.123
-428.617	-83.622	0.247	-0.079
-427.603	-80.406	0.213	-0.071
-426.588	-200.000	0.014	-0.238
-425.573	-40.846	-0.210	0.109
-424.559	-200.000	0.235	0.000
-423.544	91.221	-0.204	-0.229
-422.530	-135.066	0.232	-0.028
-421.515	-64.424	-0.167	-0.068
-420.500	-200.000	0.009	0.100
-419.486	113.905	0.168	-0.204
-418.471	243.439	0.077	0.128
-417.457	54.456	-0.108	-0.104
-416.442	-200.000	-0.025	-0.127
-415.428	45.977	-0.217	-0.200
-414.413	8.095	-0.070	-0.052
-413.398	-27.790	-0.213	-0.123
-412.384	-150.179	-0.085	-0.007
-411.369	-200.000	-0.050	-0.415
-410.355	146.704	0.184	0.247
-409.340	-145.812	0.212	-0.019
-408.325	127.065	-0.229	-0.290
-407.311	-161.124	0.213	-0.011
-406.296	-64.438	-0.108	0.044
-405.282	179.294	0.130	0.189
-404.267	81.725	0.293	-0.316
-403.252	-2.368	0.247	-0.173
-402.238	800.000	-0.020	-0.061
-401.223	216.794	0.198	0.315
-400.209	-200.000	-0.042	-0.225
-399.194	67.901	-0.186	-0.190
-398.179	-193.733	0.249	-0.002
-397.165	212.936	-0.268	-0.422
-396.150	800.000	0.018	-0.050
-395.136	-106.289	-0.132	-0.029
-394.121	-200.000	-0.007	0.096
-393.106	-80.383	0.152	-0.051
-392.092	143.305	0.127	0.168
-391.077	-190.427	0.067	-0.001
-390.063	68.620	-0.047	-0.048
-389.048	-5.760	0.113	-0.077
-388.033	-200.000	-0.007	-0.060
-387.019	26.713	-0.412	-0.344
-386.004	-167.583	-0.053	-0.002
-384.990	114.277	-0.103	-0.125
-383.975	18.680	-0.530	0.423
-382.960	800.000	0.072	0.244
-381.946	-200.000	0.024	0.261
-380.931	-57.266	0.148	0.065
-379.917	-57.385	-0.045	-0.020
-378.902	-200.000	0.043	-0.253
-377.888	-200.000	-0.008	0.116
-376.873	521.791	-0.171	-0.400
-375.858	-2.770	-0.133	-0.093
-374.844	197.824	-0.226	0.344
-373.829	130.760	-0.054	0.069
-372.815	27.898	0.189	-0.158
-371.800	-5.511	-0.075	0.051
-370.785	181.256	-0.029	0.042
-369.771	-153.395	0.039	-0.003
-368.756	5.726	-0.419	0.309
-367.742	-32.034	0.122	0.068
-366.727	95.126	-0.128	-0.145
-365.712	502.664	0.054	0.125
-364.698	145.785	-0.180	0.240
-363.683	-130.297	0.339	0.046
-362.669	-60.148	0.165	-0.070
-361.654	-145.128	-0.336	0.030
-360.639	-34.873	-0.233	0.127
-359.625	452.346	-0.132	0.291
-358.610	675.360	0.076	0.198
-357.596	412.798	0.046	0.097
-356.581	34.377	-0.108	0.094
-355.566	-27.206	0.058	-0.034
-354.552	-200.000	-0.017	-0.116
-353.537	10.048	0.161	0.122
-352.523	-156.004	0.183	-0.012
-351.508	356.304	-0.095	0.189
-350.493	-30.680	0.028	-0.016
-349.479	-122.677	-0.196	0.032
-348.464	-38.767	0.366	0.192
-347.450	328.956	0.060	0.114
-346.435	-0.094	0.142	0.101
-345.420	-52.722	-0.333	0.153
-344.406	-52.648	-0.020	-0.009
-343.391	178.969	0.104	-0.152
-342.377	284.371	0.063	0.113
-341.362	-200.000	0.001	-0.384
-340.348	3.108	-0.241	-0.174
-339.333	11.254	0.368	-0.280
-338.318	-102.278	0.096	0.023
-337.304	-35.153	-0.236	-0.128
-336.289	316.783	-0.049	0.092
-335.275	49.962	0.057	-0.054
-334.260	302.965	-0.224	-0.412
-333.245	-25.450	0.130	0.076
-332.231	674.091	-0.042	-0.109
-331.216	800.000	-0.044	0.130
-330.202	-200.000	0.008	0.059
-329.187	41.398	0.099	-0.089
-328.172	-62.961	0.130	-0.053
-327.158	34.528	-0.093	0.080
-326.143	-178.141	-0.025	-0.001
-325.129	156.865	0.123	-0.169
-324.114	-20.436	-0.296	-0.181
-323.099	-4.033	-0.126	0.087
-322.085	325.049	0.055	0.105
-321.070	31.149	-0.155	0.132
-320.056	257.011	0.095	0.162
-319.041	-200.000	-0.061	0.283
-318.026	-127.850	0.300	-0.043
-317.012	70.846	-0.313	0.322
-315.997	448.039	0.101	0.222
-314.983	38.993	-0.023	0.020
-313.968	-8.990	0.054	-0.036
-312.953	45.883	0.105	0.097
-311.939	-200.000	-0.036	-0.305
-310.924	-12.432	0.432	-0.280
-309.910	341.655	0.044	0.085
-308.895	25.146	-0.061	-0.050
-307.880	281.361	-0.030	-0.054
-306.866	800.000	-0.070	0.278
-305.851	-62.653	0.221	0.091
-304.837	-148.623	0.148	0.012
-303.822	-3.247	0.349	-0.242
-302.807	201.917	-0.076	-0.117
-301.793	115.960	-0.155	0.189
-300.778	-187.083	0.432	0.006
-299.764	366.085	-0.121	0.242
-298.749	-4.008	0.237	-0.164
-297.735	800.000	-0.095	0.327
-296.720	800.000	0.125	0.483
-295.705	93.217	-0.134	-0.150
-294.691	-200.000	-0.003	-0.189
-293.676	-56.052	0.358	0.159
-292.662	-119.152	0.074	-0.013
-291.647	107.586	-0.191	-0.226
-290.632	-200.000	-0.012	-0.097
-289.618	266.494	-0.066	0.115
-288.603	-200.000	-0.024	-0.166
-287.589	-14.282	-0.301	0.192
-286.574	33.261	0.037	-0.032
-285.559	-95.303	-0.103	-0.028
-284.545	478.802	-0.039	0.087
-283.530	160.897	0.103	0.143
-282.516	-178.109	0.481	-0.011
-281.501	800.000	0.122	0.356
-280.486	-200.000	-0.063	0.434
-279.472	685.481	0.045	0.118
-278.457	155.175	0.123	-0.168
-277.443	-200.000	-0.033	-0.325
-276.428	-112.560	-0.124	-0.024
-275.413	207.597	-0.218	-0.337
-274.399	-200.000	-0.011	0.052
-273.384	-19.870	0.168	0.103
-272.370	-160.332	-0.263	0.014
-271.355	-200.000	-0.003	-0.172
-270.340	-200.000	0.020	0.102
-269.326	800.000	-0.023	-0.082
-268.311	19.159	0.195	-0.155
-267.297	-78.823	-0.352	-0.119
-266.282	-102.501	-0.215	0.051
-265.267	113.301	0.183	0.221
-264.253	800.000	-0.103	0.368
-263.238	55.949	-0.090	0.086
-262.224	-185.790	0.212	-0.003
-261.209	-100.254	-0.188	-0.046
-260.195	129.468	-0.057	0.072
-259.180	-200.000	-0.027	0.364
-258.165	800.000	-0.129	-0.410
-257.151	-19.696	0.227	-0.139
-256.136	800.000	-0.099	0.275
-255.122	1.041	-0.284	0.202
-254.107	101.092	-0.046	0.053
-253.092	-58.140	0.097	-0.042
-252.078	230.872	0.024	-0.039
-251.063	800.000	0.077	0.305
-250.049	-57.005	0.360	0.158
-249.034	-188.901	0.359	0.004
-248.019	36.476	0.272	-0.238
-247.005	297.186	-0.044	-0.079
-245.990	-111.117	0.293	-0.059
-244.976	800.000	0.041	0.177
-243.961	300.663	0.090	-0.165
-242.946	34.592	-0.351	0.304
-241.932	-150.456	0.275	-0.021
-240.917	39.785	0.194	-0.173
-239.903	-200.000	-0.013	0.331
-238.888	-22.897	0.152	-0.091
-237.873	723.269	0.126	-0.333
-236.859	74.235	-0.190	-0.197
-235.844	246.000	0.044	0.073
-234.830	786.849	0.011	-0.030
-233.815	51.909	0.097	0.092
-232.800	-11.874	-0.112	-0.073
-231.786	800.000	0.088	-0.311
-230.771	-200.000	0.177	-0.000
-229.757	-159.116	-0.264	0.015
-228.742	-78.127	-0.267	0.091
-227.727	-200.000	-0.004	0.134
-226.713	-85.659	-0.290	0.089
-225.698	-16.705	0.258	-0.162
-224.684	-72.041	-0.349	-0.128
-223.669	400.108	0.089	0.184
-222.655	702.680	0.140	0.366
-221.640	-65.308	0.125	-0.050
-220.625	800.000	-0.029	-0.104
-219.611	79.846	-0.019	-0.020
-218.596	-80.232	0.340	0.113
-217.582	-39.754	-0.036	-0.018
-216.567	547.123	-0.061	-0.144
-215.552	-200.000	-0.009	-0.208
-214.538	-38.490	-0.138	-0.072
-213.523	-200.000	-0.027	0.233
-212.509	-48.959	0.063	0.030
-211.494	-13.581	0.486	0.312
-210.479	-54.519	-0.432	-0.194
-209.465	-200.000	0.002	0.097
-208.450	706.674	0.101	0.265
-207.436	-28.118	-0.269	0.154
-206.421	8.613	0.277	0.207
-205.406	-200.000	-0.041	-0.271
-204.392	-35.320	0.055	0.029
-203.377	-43.273	0.143	-0.072
-202.363	65.280	-0.021	0.021
-201.348	421.737	-0.133	0.281
-200.333	-137.482	-0.122	-0.014
-199.319	800.000	0.073	0.207
-198.304	-90.768	0.209	-0.060
-197.290	-59.295	0.394	-0.168
-196.275	-56.511	0.397	-0.174
-195.260	491.516	-0.178	0.404
-194.246	-200.000	0.006	-0.092
-193.231	-200.000	0.036	0.221
-192.217	725.338	0.106	-0.280
-191.202	-200.000	-0.004	-0.230
-190.187	330.451	-0.106	-0.202
-189.173	-200.000	-0.009	-0.082
-188.158	-74.086	0.194	0.070
-187.144	-49.155	0.149	0.070
-186.129	238.477	-0.077	-0.126
-185.114	190.610	0.083	0.124
-184.100	800.000	0.108	0.302
-183.085	-200.000	-0.029	-0.144
-182.071	142.686	-0.254	-0.333
-181.056	-106.159	-0.057	-0.013
-180.042	72.957	-0.091	0.094
-179.027	-41.926	-0.029	0.015
-178.012	-200.000	-0.213	0.001
-176.998	-104.496	0.292	0.067
-175.983	-174.895	0.288	-0.008
-174.969	-200.000	0.051	-0.316
-173.954	16.589	0.121	0.095
-172.939	562.260	-0.070	0.167
-171.925	-86.530	0.304	-0.092
-170.910	-114.052	-0.273	-0.052
-169.896	-74.134	-0.189	-0.068
-168.881	-113.053	0.270	0.053
-167.866	-68.239	-0.151	0.058
-166.852	800.000	0.039	0.166
-165.837	179.126	-0.135	0.195
-164.823	76.173	-0.085	-0.089
-163.808	-200.000	0.028	0.188
-162.793	291.835	-0.132	-0.237
-161.779	107.261	-0.115	0.135
-160.764	-200.000	-0.025	0.289
-159.750	-200.000	-0.023	0.106
-158.735	-129.073	-0.468	-0.065
-157.720	-72.124	0.284	-0.104
-156.706	-60.871	0.152	0.064
-155.691	197.007	0.163	-0.246
-154.677	85.198	0.150	0.163
-153.662	-32.631	0.175	-0.096
-152.647	-88.387	-0.311	-0.092
-151.633	94.242	0.163	-0.182
-150.618	433.922	0.035	0.074
-149.604	682.169	-0.095	0.243
-148.589	-95.008	0.076	-0.020
-147.574	-200.000	0.020	-0.294
-146.560	106.847	-0.244	-0.286
-145.545	-200.000	0.083	-0.392
-144.531	800.000	0.106	-0.369
-143.516	25.415	0.233	-0.191
-142.502	16.884	0.102	0.080
-141.487	28.182	-0.194	0.162
-140.472	161.246	-0.140	0.193
-139.458	236.102	0.160	0.261
-138.443	-200.000	-0.058	0.328
-137.429	172.777	0.188	0.268
-136.414	-200.000	0.008	-0.054
-135.399	-17.032	-0.133	0.083
-134.385	-116.246	-0.112	0.020
-133.370	755.344	-0.028	0.075
-132.356	-149.161	-0.050	0.004
-131.341	-200.000	0.000	-0.128
-130.326	-200.000	0.021	0.261
-129.312	175.317	0.140	0.201
-128.297	-132.235	-0.151	-0.019
-127.283	129.363	0.156	0.196
-126.268	655.902	-0.127	-0.323
-125.253	-53.631	-0.109	-0.049
-124.239	62.970	-0.170	0.168
-123.224	418.354	-0.181	-0.381
-122.210	83.845	0.031	0.033
