DTS Sentinel unit serial number:	SN413079Multiplexer serial number:	ORYXHardware model number:	OX4-SRSoftware version number:	ORYX F/W v4.00 Oryx Data Collector v3.7.2.0data status	okinstallation	princeton_trtdifferential loss correction	single-endedforward channel	channel 4reverse channel	N/Adate	2019/09/12time	22:53:35forward acquisition time	60.00reverse acquisition time	0.00gamma	496.2192k internal	0.2316k external	0.2316temperature offset calibration	1.0175default loss term (dB/km)	0.3790temperature slope calibration	1.0000multiplexer offset coefficient	1.0000multiplexer slope coefficient	1.0000fibre end	0.00T internal ref (°C)	29.41T ext. ref 1 (°C)	3.73T ext. ref 2 (°C)	23.95length (m)	temperature (°C)	Stokes	anti-Stokes-747.200	238.471	0.168	0.283
-746.185	-1.090	0.071	0.051
-745.171	-52.033	0.074	0.035
-744.156	-117.922	-0.283	0.051
-743.142	-200.000	0.010	-0.080
-742.127	116.619	0.060	0.074
-741.112	-200.000	-0.024	0.507
-740.098	23.455	0.231	0.193
-739.083	104.627	0.223	-0.266
-738.069	-18.206	-0.109	0.069
-737.054	-191.077	0.256	0.003
-736.039	-160.496	0.101	-0.005
-735.025	25.683	0.077	0.065
-734.010	-86.507	-0.163	-0.051
-732.996	232.727	-0.152	-0.253
-731.981	80.550	0.154	-0.168
-730.966	-19.805	-0.125	-0.078
-729.952	462.699	0.117	-0.265
-728.937	-55.869	0.120	0.054
-727.923	-200.000	0.005	0.254
-726.908	261.961	-0.257	-0.450
-725.894	5.766	0.130	0.097
-724.879	-63.998	0.122	-0.050
-723.864	-166.302	-0.323	0.014
-722.850	-119.946	-0.095	0.016
-721.835	-200.000	-0.012	-0.311
-720.821	42.043	0.222	-0.204
-719.806	-200.000	-0.025	-0.158
-718.791	800.000	-0.041	-0.137
-717.777	-200.000	0.004	-0.195
-716.762	-200.000	-0.009	-0.163
-715.748	138.919	-0.050	-0.066
-714.733	-125.306	0.346	-0.053
-713.718	179.004	-0.126	0.187
-712.704	148.302	-0.195	-0.266
-711.689	-200.000	-0.015	-0.110
-710.675	-200.000	0.015	-0.142
-709.660	292.889	0.047	-0.087
-708.645	-41.031	-0.123	-0.064
-707.631	68.794	0.229	-0.237
-706.616	700.676	0.071	-0.188
-705.602	-200.000	-0.004	-0.368
-704.587	-85.920	0.096	0.030
-703.572	-36.403	-0.305	0.166
-702.558	186.988	-0.083	-0.125
-701.543	-200.000	0.005	-0.053
-700.529	-29.500	0.313	-0.181
-699.514	728.524	-0.119	-0.322
-698.499	-44.766	0.147	-0.074
-697.485	91.705	-0.207	0.236
-696.470	110.986	-0.188	-0.229
-695.456	-105.015	-0.476	-0.110
-694.441	800.000	-0.054	0.192
-693.426	461.153	0.160	-0.362
-692.412	-104.866	0.285	0.066
-691.397	-126.281	-0.343	0.052
-690.383	-7.307	0.081	-0.055
-689.368	-80.310	0.143	-0.048
-688.354	-50.622	0.356	-0.170
-687.339	411.602	-0.055	-0.118
-686.324	654.620	-0.119	0.309
-685.310	-85.416	-0.080	-0.025
-684.295	-89.143	0.114	0.034
-683.281	-200.000	0.027	-0.243
-682.266	296.365	-0.144	0.267
-681.251	-200.000	0.005	-0.252
-680.237	-200.000	0.231	-0.001
-679.222	205.060	-0.060	-0.095
-678.208	-200.000	0.017	-0.315
-677.193	108.176	-0.115	0.138
-676.178	-41.178	-0.277	-0.144
-675.164	-23.175	0.348	-0.212
-674.149	-200.000	-0.034	-0.284
-673.135	390.731	0.108	0.225
-672.120	-200.000	-0.007	-0.439
-671.105	-200.000	0.033	0.251
-670.091	-200.000	-0.024	-0.242
-669.076	800.000	0.069	-0.276
-668.062	-146.040	-0.287	-0.026
-667.047	-200.000	-0.010	-0.161
-666.032	-63.404	-0.216	0.090
-665.018	800.000	-0.086	0.304
-664.003	-111.821	0.222	-0.045
-662.989	233.684	0.047	-0.078
-661.974	349.887	0.014	0.027
-660.959	-22.774	0.223	-0.136
-659.945	141.760	0.092	-0.123
-658.930	-109.381	-0.169	-0.036
-657.916	-55.529	0.183	0.083
-656.901	-116.668	0.154	-0.029
-655.886	-33.858	-0.190	0.106
-654.872	634.972	0.114	-0.291
-653.857	-45.896	0.168	-0.084
-652.843	-88.322	-0.044	0.013
-651.828	9.599	0.119	0.091
-650.814	-200.000	0.001	-0.039
-649.799	-200.000	-0.004	-0.157
-648.784	788.213	0.153	0.424
-647.770	-66.035	0.071	-0.029
-646.755	-66.574	-0.159	0.063
-645.741	800.000	0.098	0.288
-644.726	-100.420	-0.361	0.090
-643.711	-59.050	0.238	-0.104
-642.697	455.792	-0.078	0.175
-641.682	-41.300	-0.121	-0.063
-640.668	800.000	-0.122	-0.383
-639.653	-103.907	-0.058	-0.014
-638.638	-78.459	0.123	0.043
-637.624	377.508	0.069	0.141
-636.609	-134.189	-0.297	-0.037
-635.595	-11.774	-0.107	0.071
-634.580	-200.000	-0.038	0.180
-633.565	800.000	0.021	-0.069
-632.551	-23.915	-0.328	-0.198
-631.536	-131.773	0.260	-0.034
-630.522	800.000	-0.013	-0.046
-629.507	110.316	-0.288	-0.349
-628.492	545.427	0.111	-0.266
-627.478	-74.443	-0.199	-0.072
-626.463	-139.389	0.353	-0.038
-625.449	-43.551	0.121	0.062
-624.434	-200.000	-0.017	-0.431
-623.419	-200.000	0.006	-0.031
-622.405	-200.000	0.007	0.067
-621.390	33.620	0.132	-0.115
-620.376	57.969	-0.289	-0.285
-619.361	44.772	-0.196	0.182
-618.346	28.940	-0.330	0.282
-617.332	75.213	-0.132	0.140
-616.317	-63.315	-0.040	-0.016
-615.303	-91.382	-0.233	0.067
-614.288	-186.147	-0.070	-0.001
-613.273	118.041	0.109	0.135
-612.259	655.405	0.030	-0.078
-611.244	542.866	-0.097	0.233
-610.230	-22.153	0.065	0.040
-609.215	20.310	-0.207	-0.169
-608.201	-92.105	-0.241	-0.069
-607.186	462.347	0.202	-0.454
-606.171	134.273	0.153	-0.200
-605.157	-200.000	-0.010	-0.100
-604.142	167.918	0.176	-0.252
-603.128	56.800	0.052	0.051
-602.113	-71.512	0.209	-0.079
-601.098	131.405	0.127	-0.164
-600.084	502.248	-0.086	0.201
-599.069	-173.040	-0.182	0.006
-598.055	120.016	0.232	0.290
-597.040	-143.093	0.237	0.023
-596.025	467.529	-0.093	-0.209
-595.011	-130.670	0.465	-0.063
-593.996	-15.881	0.408	0.262
-592.982	-43.199	-0.128	0.065
-591.967	-113.354	0.459	0.091
-590.952	800.000	-0.039	0.112
-589.938	-19.407	-0.239	0.149
-588.923	143.433	0.097	0.130
-587.909	-130.625	0.287	0.039
-586.894	800.000	-0.061	-0.254
-585.879	5.399	0.215	0.160
-584.865	235.588	-0.078	0.130
-583.850	-153.204	-0.040	0.003
-582.836	-124.585	-0.184	0.029
-581.821	-118.425	-0.046	0.008
-580.806	-93.932	0.177	0.049
-579.792	100.551	-0.109	0.127
-578.777	-93.918	-0.411	-0.114
-577.763	-200.000	-0.007	-0.329
-576.748	-158.709	-0.337	0.019
-575.733	-200.000	0.029	-0.167
-574.719	-38.050	0.108	-0.058
-573.704	4.824	0.119	-0.088
-572.690	-200.000	0.000	0.271
-571.675	-56.925	0.104	0.046
-570.661	-37.736	0.231	-0.124
-569.646	34.767	0.139	-0.122
-568.631	545.879	0.155	-0.372
-567.617	82.297	-0.106	-0.116
-566.602	-151.468	0.317	-0.024
-565.588	62.856	-0.036	-0.036
-564.573	800.000	-0.063	0.239
-563.558	-200.000	-0.030	0.197
-562.544	-56.085	0.105	0.047
-561.529	-50.566	0.054	-0.025
-560.515	-200.000	0.006	0.163
-559.500	800.000	0.075	0.267
-558.485	-102.716	0.098	-0.024
-557.471	37.075	-0.157	-0.140
-556.456	344.970	0.083	0.164
-555.442	-33.257	-0.194	0.108
-554.427	-122.139	0.456	-0.075
-553.412	188.118	-0.116	-0.174
-552.398	216.603	-0.064	-0.103
-551.383	199.385	0.034	-0.052
-550.369	-170.240	-0.072	0.003
-549.354	-44.767	-0.074	-0.037
-548.339	-8.390	-0.303	-0.205
-547.325	800.000	0.096	-0.339
-546.310	409.578	-0.137	-0.292
-545.296	107.895	-0.133	0.160
-544.281	-50.196	0.135	0.064
-543.266	-39.284	-0.227	-0.120
-542.252	-30.109	-0.236	0.135
-541.237	403.508	-0.011	0.023
-540.223	-146.133	-0.322	0.028
-539.208	-97.893	-0.131	-0.034
-538.193	-13.981	-0.167	-0.108
-537.179	-87.708	-0.102	-0.031
-536.164	444.758	0.136	-0.299
-535.150	67.421	-0.143	-0.147
-534.135	800.000	-0.049	-0.178
-533.121	-55.286	0.362	-0.163
-532.106	800.000	-0.181	0.583
-531.091	208.102	-0.053	-0.083
-530.077	-71.400	-0.361	0.136
-529.062	-45.472	-0.049	-0.024
-528.048	18.949	-0.021	-0.017
-527.033	243.867	0.101	-0.171
-526.018	639.523	0.095	-0.243
-525.004	-186.099	-0.111	0.002
-523.989	345.471	-0.128	0.252
-522.975	-200.000	-0.061	-0.346
-521.960	87.792	0.217	-0.241
-520.945	-86.357	0.197	-0.061
-519.931	37.518	0.115	0.102
-518.916	-68.995	-0.256	0.099
-517.902	119.753	0.022	0.027
-516.887	800.000	-0.047	0.136
-515.872	-200.000	0.064	0.337
-514.858	142.210	-0.059	-0.078
-513.843	53.313	-0.388	-0.374
-512.829	408.133	0.227	-0.482
-511.814	-200.000	0.013	-0.440
-510.799	-72.992	-0.084	0.031
-509.785	420.575	-0.162	-0.348
-508.770	-7.370	-0.249	0.169
-507.756	173.566	-0.272	0.394
-506.741	2.652	-0.159	-0.115
-505.726	-161.769	-0.095	-0.005
-504.712	-184.856	0.316	-0.005
-503.697	800.000	-0.076	0.235
-502.683	87.500	-0.164	0.182
-501.668	-177.519	-0.200	0.005
-500.653	-60.823	-0.329	-0.140
-499.639	143.834	0.051	0.068
-498.624	-10.183	0.129	-0.086
-497.610	-147.664	-0.217	0.018
-496.595	-95.466	0.223	-0.060
-495.581	-41.293	0.280	0.145
-494.566	590.134	0.116	0.288
-493.551	61.829	-0.062	-0.061
-492.537	-132.471	0.249	0.032
-491.522	21.423	-0.161	-0.131
-490.508	-200.000	0.053	0.240
-489.493	66.880	0.086	0.088
-488.478	-200.000	-0.014	-0.119
-487.464	105.280	-0.161	-0.190
-486.449	-200.000	-0.009	0.102
-485.435	-61.548	-0.252	0.106
-484.420	23.193	-0.396	-0.326
-483.405	52.463	0.090	-0.086
-482.391	-2.963	0.227	0.159
-481.376	-57.806	-0.204	-0.090
-480.362	-200.000	-0.009	-0.139
-479.347	-39.482	-0.180	-0.094
-478.332	47.221	0.144	-0.134
-477.318	154.196	-0.133	-0.182
-476.303	15.986	0.273	-0.216
-475.289	-25.227	0.069	-0.041
-474.274	-19.769	0.188	-0.117
-473.259	-124.150	-0.345	-0.054
-472.245	80.752	-0.235	0.254
-471.230	362.189	-0.064	0.129
-470.216	-48.345	0.160	-0.077
-469.201	55.293	-0.223	-0.216
-468.186	-120.504	-0.429	0.073
-467.172	6.654	0.221	-0.164
-466.157	-200.000	-0.173	0.000
-465.143	800.000	-0.044	0.145
-464.128	61.908	0.154	-0.154
-463.113	-40.046	-0.088	-0.046
-462.099	-84.733	-0.050	0.016
-461.084	19.476	0.419	0.338
-460.070	121.302	0.108	0.135
-459.055	125.329	0.260	0.328
-458.040	-200.000	0.000	-0.085
-457.026	-161.541	0.081	0.004
-456.011	450.629	0.206	-0.456
-454.997	-200.000	0.013	-0.132
-453.982	160.509	-0.166	-0.232
-452.968	135.799	0.177	-0.231
-451.953	-200.000	0.017	0.305
-450.938	800.000	0.035	-0.133
-449.924	471.425	0.096	0.217
-448.909	-36.371	0.297	-0.161
-447.895	-36.918	0.229	-0.123
-446.880	-139.614	-0.126	-0.013
-445.865	-27.905	-0.287	-0.166
-444.851	367.272	0.106	-0.214
-443.836	-12.768	0.152	0.099
-442.822	462.187	0.017	0.039
-441.807	800.000	-0.035	-0.152
-440.792	-200.000	-0.016	-0.094
-439.778	-43.979	0.269	0.135
-438.763	161.546	0.119	0.167
-437.749	-102.290	0.170	0.041
-436.734	-39.524	-0.397	0.208
-435.719	26.716	-0.018	0.015
-434.705	-127.309	-0.019	-0.003
-433.690	426.512	-0.054	-0.116
-432.676	223.024	0.092	0.149
-431.661	-78.881	-0.097	0.033
-430.646	406.726	-0.111	-0.234
-429.632	-200.000	0.022	0.202
-428.617	800.000	-0.086	0.344
-427.603	108.218	0.226	0.270
-426.588	138.082	0.209	0.274
-425.573	-10.644	-0.049	0.032
-424.559	-11.909	0.167	0.110
-423.544	-39.228	-0.060	0.032
-422.530	-4.735	-0.024	-0.016
-421.515	-200.000	-0.007	-0.086
-420.500	800.000	-0.021	0.069
-419.486	-200.000	0.009	-0.120
-418.471	544.426	-0.117	0.280
-417.457	-50.463	0.322	-0.152
-416.442	-25.104	0.098	-0.058
-415.428	-31.809	-0.247	-0.139
-414.413	177.963	0.262	-0.382
-413.398	800.000	0.020	0.076
-412.384	14.681	-0.343	0.268
-411.369	800.000	0.103	0.375
-410.355	-141.011	-0.120	0.012
-409.340	-86.201	-0.046	-0.014
-408.325	-28.150	-0.162	-0.094
-407.311	800.000	0.031	0.110
-406.296	718.022	-0.031	0.082
-405.282	-137.015	0.244	0.028
-404.267	-200.000	0.024	-0.185
-403.252	800.000	-0.065	0.264
-402.238	25.405	0.351	0.292
-401.223	-106.583	0.318	0.071
-400.209	358.855	-0.132	-0.264
-399.194	800.000	0.051	-0.170
-398.179	-44.259	-0.112	-0.056
-397.165	196.076	-0.092	-0.140
-396.150	599.865	0.049	-0.123
-395.136	41.551	-0.186	0.168
-394.121	-200.000	-0.075	-0.343
-393.106	800.000	0.060	-0.248
-392.092	425.479	0.181	0.390
-391.077	-163.112	-0.059	0.003
-390.063	-1.299	0.311	-0.219
-389.048	-51.168	-0.208	0.097
-388.033	-124.634	-0.114	-0.018
-387.019	800.000	-0.067	0.212
-386.004	-200.000	0.043	-0.195
-384.990	-200.000	-0.008	-0.273
-383.975	-200.000	-0.051	0.225
-382.960	-142.620	-0.249	-0.024
-381.946	-86.858	0.084	-0.026
-380.931	-155.042	-0.061	-0.004
-379.917	-38.723	0.302	-0.159
-378.902	36.185	0.028	-0.025
-377.888	-101.993	-0.121	0.029
-376.873	800.000	0.086	-0.246
-375.858	800.000	-0.055	0.172
-374.844	-200.000	-0.030	-0.214
-373.829	12.795	0.208	0.160
-372.815	87.426	0.023	0.026
-371.800	-119.372	-0.039	-0.007
-370.785	-200.000	-0.009	0.064
-369.771	205.476	-0.230	-0.356
-368.756	-200.000	-0.001	0.138
-367.742	800.000	-0.066	0.221
-366.727	-125.197	0.133	0.020
-365.712	-106.411	-0.225	0.050
-364.698	-128.254	-0.258	-0.037
-363.683	-82.640	-0.101	-0.033
-362.669	-74.070	-0.153	0.055
-361.654	105.526	-0.072	-0.084
-360.639	-71.414	0.145	0.054
-359.625	-127.324	0.162	-0.024
-358.610	-200.000	0.001	-0.138
-357.596	-200.000	0.022	-0.327
-356.581	-147.568	-0.086	-0.007
-355.566	-164.330	0.389	0.018
-354.552	87.043	0.155	-0.171
-353.537	-200.000	0.012	0.074
-352.523	-200.000	-0.022	0.131
-351.508	237.116	0.077	0.127
-350.493	-141.874	-0.055	0.005
-349.479	-150.129	0.343	-0.027
-348.464	64.844	-0.123	-0.124
-347.450	-200.000	0.016	0.121
-346.435	800.000	0.061	-0.231
-345.420	140.794	-0.017	-0.022
-344.406	-200.000	-0.043	0.275
-343.391	397.581	-0.114	0.239
-342.377	-122.910	-0.108	0.017
-341.362	-37.272	0.219	0.117
-340.348	-95.571	0.169	-0.045
-339.333	218.611	0.149	0.237
-338.318	-106.769	0.203	-0.045
-337.304	443.319	-0.091	-0.200
-336.289	-162.947	-0.052	-0.003
-335.275	-46.869	0.295	-0.144
-334.260	743.008	0.064	-0.171
-333.245	164.495	0.162	0.227
-332.231	800.000	-0.037	-0.151
-331.216	800.000	-0.071	0.272
-330.202	800.000	-0.033	-0.097
-329.187	18.615	-0.174	-0.139
-328.172	-20.628	-0.194	-0.119
-327.158	-43.398	0.079	-0.040
-326.143	-149.206	-0.169	-0.013
-325.129	-160.030	0.317	0.017
-324.114	32.351	0.097	-0.084
-323.099	-117.386	-0.135	0.024
-322.085	167.303	-0.123	0.174
-321.070	60.691	-0.134	-0.132
-320.056	-2.861	-0.101	0.070
-319.041	4.262	-0.337	0.246
-318.026	56.521	-0.192	0.186
-317.012	-200.000	-0.017	-0.168
-315.997	425.845	0.147	0.315
-314.983	70.911	0.150	-0.154
-313.968	-84.652	0.250	-0.078
-312.953	18.914	0.136	-0.109
-311.939	-200.000	-0.386	-0.001
-310.924	-72.327	0.218	0.081
-309.910	15.988	0.035	0.027
-308.895	-131.782	-0.231	-0.030
-307.880	800.000	0.083	0.326
-306.866	224.120	0.265	0.426
-305.851	-94.456	-0.106	0.029
-304.837	-94.896	-0.342	-0.092
-303.822	229.170	-0.101	0.163
-302.807	-38.241	-0.185	0.098
-301.793	9.039	0.138	0.104
-300.778	-200.000	-0.025	0.193
-299.764	9.393	-0.110	-0.083
-298.749	800.000	-0.047	-0.150
-297.735	-200.000	0.074	0.361
-296.720	58.600	-0.242	0.237
-295.705	95.714	-0.150	0.170
-294.691	800.000	0.112	-0.349
-293.676	-65.766	0.444	-0.177
-292.662	114.211	0.193	0.233
-291.647	-200.000	0.030	-0.159
-290.632	-68.801	-0.032	0.012
-289.618	-188.689	0.133	-0.002
-288.603	38.910	-0.147	-0.131
-287.589	-200.000	0.102	0.489
-286.574	-70.230	0.067	0.025
-285.559	21.619	0.007	-0.005
-284.545	-170.570	0.145	-0.005
-283.530	360.835	-0.058	-0.116
-282.516	-17.787	0.221	0.138
-281.501	-200.000	-0.017	-0.125
-280.486	37.714	-0.057	0.051
-279.472	528.504	-0.190	0.445
-278.457	-200.000	0.030	-0.161
-277.443	-173.636	-0.150	0.004
-276.428	-200.000	-0.017	-0.099
-275.413	365.567	-0.124	-0.248
-274.399	76.757	-0.069	-0.073
-273.384	13.192	0.195	0.150
-272.370	-79.970	-0.183	0.061
-271.355	-108.981	0.103	-0.022
-270.340	520.359	-0.099	0.230
-269.326	479.546	-0.017	-0.037
-268.311	3.938	0.051	0.037
-267.297	-12.985	-0.109	-0.071
-266.282	-131.413	0.359	0.047
-265.267	648.060	-0.091	0.230
-264.253	111.141	0.208	0.249
-263.238	-30.120	0.031	-0.017
-262.224	-200.000	0.230	0.001
-261.209	-200.000	0.002	-0.217
-260.195	-34.958	0.074	0.040
-259.180	-200.000	0.011	0.124
-258.165	-14.756	0.190	0.121
-257.151	58.314	0.091	0.088
-256.136	800.000	-0.090	-0.273
-255.122	-135.870	-0.207	-0.024
-254.107	-168.607	0.392	-0.015
-253.092	-65.156	0.220	0.088
-252.078	-142.795	-0.423	-0.041
-251.063	125.615	0.107	-0.134
-250.049	135.006	-0.294	0.380
-249.034	-105.657	-0.295	0.066
-248.019	-53.803	-0.047	-0.021
-247.005	-114.045	-0.540	-0.104
-245.990	-64.776	0.048	-0.019
-244.976	-12.482	0.018	-0.011
-243.961	-200.000	0.025	-0.204
-242.946	63.468	-0.061	-0.061
-241.932	25.373	-0.191	0.157
-240.917	800.000	-0.094	0.346
-239.903	15.730	-0.121	0.094
-238.888	7.372	-0.211	-0.156
-237.873	67.904	-0.151	0.153
-236.859	362.899	0.061	-0.121
-235.844	-200.000	-0.014	-0.154
-234.830	6.760	-0.099	-0.073
-233.815	-140.170	-0.264	-0.028
-232.800	121.928	0.172	0.213
-231.786	-200.000	-0.008	0.293
-230.771	365.660	-0.078	0.157
-229.757	54.047	0.209	-0.200
-228.742	-157.335	0.376	0.023
-227.727	19.796	-0.124	0.099
-226.713	-121.938	-0.250	0.041
-225.698	93.890	-0.165	-0.186
-224.684	161.937	-0.208	0.289
-223.669	449.654	0.108	0.236
-222.655	130.242	0.136	0.173
-221.640	-59.932	-0.160	-0.068
-220.625	146.827	0.333	0.445
-219.611	800.000	0.048	0.178
-218.596	543.735	-0.073	-0.174
-217.582	232.990	0.091	-0.149
-216.567	-113.921	0.040	-0.008
-215.552	-49.437	-0.296	-0.140
-214.538	18.057	-0.126	0.100
-213.523	800.000	-0.121	0.368
-212.509	-159.792	-0.149	0.008
-211.494	381.530	-0.143	0.291
-210.479	-62.642	0.072	0.030
-209.465	-17.133	-0.128	0.080
-208.450	221.341	0.105	-0.167
-207.436	-47.630	0.245	0.118
-206.421	-107.404	0.295	-0.064
-205.406	-88.773	-0.099	-0.029
-204.392	-40.150	-0.141	-0.073
-203.377	-79.156	-0.242	0.082
-202.363	303.729	0.044	0.081
-201.348	198.331	0.147	-0.223
-200.333	-131.051	-0.361	-0.048
-199.319	55.488	-0.218	0.210
-198.304	800.000	0.143	-0.424
-197.290	-12.729	0.281	-0.182
-196.275	-200.000	-0.005	0.091
-195.260	114.220	0.187	0.225
-194.246	-73.682	0.199	-0.072
-193.231	127.529	0.125	-0.158
-192.217	141.560	-0.160	-0.211
-191.202	-56.388	0.056	-0.025
-190.187	109.369	-0.222	-0.263
-189.173	-200.000	-0.028	-0.172
-188.158	-81.466	0.268	0.087
-187.144	198.585	0.076	-0.116
-186.129	-55.104	0.230	0.103
-185.114	-200.000	-0.069	-0.453
-184.100	144.496	0.153	0.202
-183.085	-63.500	-0.206	-0.084
-182.071	-46.115	0.202	0.099
-181.056	-131.508	0.173	-0.023
-180.042	-31.418	-0.215	-0.120
-179.027	-200.000	0.002	0.059
-178.012	800.000	0.089	0.360
-176.998	-200.000	0.051	0.223
-175.983	-200.000	-0.058	-0.546
-174.969	-10.256	0.161	0.106
-173.954	430.912	0.102	-0.218
-172.939	43.229	-0.120	-0.108
-171.925	7.081	0.145	-0.107
-170.910	-124.989	0.396	-0.060
-169.896	45.517	-0.283	0.259
-168.881	131.031	-0.153	-0.195
-167.866	800.000	0.092	-0.345
-166.852	-200.000	0.008	-0.101
-165.837	-195.329	0.160	-0.001
-164.823	-15.068	0.455	0.289
-163.808	-200.000	0.030	-0.180
-162.793	-156.696	-0.067	-0.004
-161.779	24.647	0.369	0.302
-160.764	800.000	-0.018	0.070
-159.750	-200.000	0.019	0.168
-158.735	-200.000	0.011	-0.332
-157.720	40.884	0.215	0.192
-156.706	-113.273	0.220	-0.043
-155.691	-94.652	-0.117	-0.032
-154.677	-35.244	0.272	-0.146
-153.662	423.965	-0.231	0.492
-152.647	-200.000	-0.024	-0.147
-151.633	635.755	0.199	0.499
-150.618	-200.000	-0.028	0.256
-149.604	-200.000	0.022	-0.099
-148.589	-29.975	-0.104	0.059
-147.574	-75.748	-0.274	-0.096
-146.560	475.461	0.081	0.181
-145.545	-24.547	0.344	-0.202
-144.531	-16.332	0.197	0.123
-143.516	-44.794	-0.200	-0.099
-142.502	222.525	-0.129	0.205
-141.487	800.000	0.024	0.074
-140.472	-131.714	-0.273	-0.035
-139.458	-36.477	-0.183	-0.098
-138.443	-3.705	0.168	-0.115
-137.429	-200.000	0.077	-0.405
-136.414	78.657	-0.175	0.185
-135.399	-42.222	0.384	-0.194
-134.385	64.992	0.135	-0.135
-133.370	-200.000	0.003	0.204
-132.356	-122.954	0.258	-0.041
-131.341	-143.688	0.419	-0.039
-130.326	800.000	-0.043	-0.181
-129.312	-65.660	0.083	0.033
-128.297	81.972	0.115	0.123
-127.283	187.004	0.034	-0.050
-126.268	49.892	-0.247	-0.230
-125.253	97.685	0.189	-0.215
-124.239	800.000	-0.078	0.234
-123.224	62.245	-0.215	-0.212
-122.210	391.693	-0.134	-0.275
