DTS Sentinel unit serial number:	SN413079Multiplexer serial number:	ORYXHardware model number:	OX4-SRSoftware version number:	ORYX F/W v4.00 Oryx Data Collector v3.7.2.0data status	okinstallation	princeton_trtdifferential loss correction	single-endedforward channel	channel 4reverse channel	N/Adate	2019/09/14time	05:17:34forward acquisition time	60.00reverse acquisition time	0.00gamma	496.2192k internal	0.2320k external	0.2320temperature offset calibration	1.0137default loss term (dB/km)	0.3790temperature slope calibration	1.0000multiplexer offset coefficient	1.0000multiplexer slope coefficient	1.0000fibre end	0.00T internal ref (°C)	26.91T ext. ref 1 (°C)	3.40T ext. ref 2 (°C)	21.97length (m)	temperature (°C)	Stokes	anti-Stokes-747.200	-40.847	-0.164	0.086
-746.185	-28.483	0.022	0.013
-745.171	-128.522	0.088	0.013
-744.156	-54.245	-0.217	0.099
-743.142	-200.000	-0.049	0.330
-742.127	193.716	-0.176	0.269
-741.112	266.579	0.063	-0.111
-740.098	800.000	0.019	0.068
-739.083	-3.725	0.123	0.087
-738.069	-200.000	-0.011	0.410
-737.054	-95.250	0.188	-0.051
-736.039	20.272	-0.317	0.259
-735.025	-200.000	-0.055	0.298
-734.010	81.494	-0.199	-0.217
-732.996	599.278	0.009	0.023
-731.981	78.312	0.120	-0.130
-730.966	100.791	-0.163	-0.191
-729.952	-122.244	0.065	-0.011
-728.937	-200.000	0.014	0.216
-727.923	334.122	-0.095	-0.185
-726.908	-108.851	-0.074	-0.016
-725.894	596.052	-0.099	0.247
-724.879	-8.684	-0.048	-0.032
-723.864	490.772	-0.007	0.016
-722.850	589.637	0.029	-0.073
-721.835	-166.079	0.207	0.009
-720.821	-200.000	-0.012	0.488
-719.806	-163.194	-0.660	-0.032
-718.791	-0.460	-0.203	-0.145
-717.777	94.228	-0.063	-0.072
-716.762	-66.432	-0.204	0.082
-715.748	-43.048	-0.114	0.059
-714.733	-52.001	-0.037	0.017
-713.718	-96.558	0.313	0.083
-712.704	224.476	-0.217	0.355
-711.689	109.555	0.138	-0.167
-710.675	444.004	-0.039	-0.086
-709.660	-108.186	-0.150	0.033
-708.645	134.581	0.085	-0.111
-707.631	379.320	-0.128	0.264
-706.616	800.000	0.050	-0.201
-705.602	-137.052	0.148	0.017
-704.587	-134.985	-0.272	0.033
-703.572	-4.596	-0.293	0.204
-702.558	800.000	0.042	0.166
-701.543	18.104	0.226	-0.182
-700.529	800.000	0.094	-0.269
-699.514	-85.208	0.158	0.050
-698.499	-167.550	-0.128	0.005
-697.485	552.130	-0.168	-0.406
-696.470	45.362	0.181	0.168
-695.456	241.152	-0.124	-0.210
-694.441	800.000	0.037	0.108
-693.426	80.511	0.181	-0.196
-692.412	-10.388	0.125	0.084
-691.397	76.135	-0.102	-0.109
-690.383	131.147	0.139	-0.180
-689.368	-120.725	-0.130	-0.022
-688.354	62.010	-0.172	-0.173
-687.339	-64.150	-0.298	-0.123
-686.324	-60.686	0.256	-0.110
-685.310	-70.201	-0.421	0.162
-684.295	-200.000	0.032	0.180
-683.281	-125.673	-0.264	-0.040
-682.266	-76.678	-0.086	0.030
-681.251	-200.000	-0.053	0.245
-680.237	-166.879	0.087	-0.004
-679.222	495.787	0.161	-0.374
-678.208	5.809	0.173	-0.129
-677.193	-35.483	-0.470	-0.257
-676.178	-200.000	0.005	0.279
-675.164	-26.157	0.112	0.066
-674.149	-43.475	-0.144	-0.074
-673.135	-77.659	0.067	-0.023
-672.120	800.000	-0.073	-0.281
-671.105	26.125	-0.125	0.105
-670.091	311.462	0.012	-0.022
-669.076	-103.325	-0.180	0.043
-668.062	-96.632	-0.180	0.048
-667.047	-39.442	0.190	0.100
-666.032	-40.007	0.181	0.095
-665.018	-5.357	0.190	-0.132
-664.003	-200.000	-0.027	-0.309
-662.989	-103.692	0.582	0.138
-661.974	-0.526	-0.262	0.187
-660.959	281.758	-0.020	-0.036
-659.945	-200.000	-0.022	0.117
-658.930	62.955	-0.115	-0.116
-657.916	37.080	-0.196	-0.175
-656.901	-87.677	0.203	-0.062
-655.886	-200.000	0.002	0.136
-654.872	-94.573	-0.282	0.077
-653.857	20.059	-0.166	-0.135
-652.843	327.865	0.122	-0.236
-651.828	-37.907	-0.198	-0.106
-650.814	8.754	-0.237	-0.180
-649.799	-200.000	0.052	-0.277
-648.784	-50.743	0.171	-0.081
-647.770	-103.869	0.102	-0.024
-646.755	164.674	0.083	-0.118
-645.741	550.814	-0.063	0.152
-644.726	-200.000	0.004	0.102
-643.711	-66.211	-0.077	0.031
-642.697	800.000	0.118	-0.384
-641.682	-46.182	-0.265	0.131
-640.668	83.327	0.237	0.260
-639.653	-77.259	-0.273	0.096
-638.638	285.107	0.111	0.202
-637.624	-200.000	-0.088	-0.706
-636.609	-102.370	0.115	-0.028
-635.595	-39.292	0.161	-0.085
-634.580	31.245	0.045	-0.039
-633.565	-200.000	0.007	-0.170
-632.551	131.558	-0.293	-0.379
-631.536	-200.000	-0.014	-0.288
-630.522	582.570	0.125	-0.308
-629.507	59.538	-0.104	-0.103
-628.492	-48.349	0.045	0.022
-627.478	-200.000	-0.049	0.279
-626.463	378.924	-0.173	-0.357
-625.449	-200.000	-0.062	-0.472
-624.434	481.708	-0.050	-0.115
-623.419	420.155	-0.160	0.346
-622.405	800.000	-0.020	-0.079
-621.390	800.000	0.024	-0.079
-620.376	-51.011	-0.142	0.067
-619.361	-132.267	-0.047	-0.006
-618.346	322.051	-0.160	-0.306
-617.332	-93.195	-0.244	-0.068
-616.317	117.128	-0.170	0.210
-615.303	800.000	0.009	0.031
-614.288	-76.756	-0.397	0.140
-613.273	-10.072	-0.133	0.089
-612.259	-200.000	0.007	-0.375
-611.244	-200.000	0.026	-0.140
-610.230	-126.916	-0.223	-0.033
-609.215	-200.000	-0.029	0.264
-608.201	772.587	0.056	0.152
-607.186	369.280	-0.047	-0.096
-606.171	75.946	0.208	-0.221
-605.157	31.282	0.106	-0.092
-604.142	3.793	-0.046	0.034
-603.128	-15.657	-0.096	-0.062
-602.113	292.808	-0.095	-0.175
-601.098	4.962	0.230	0.170
-600.084	275.653	-0.043	0.076
-599.069	-55.760	0.139	-0.062
-598.055	-200.000	0.040	-0.245
-597.040	293.360	-0.039	-0.072
-596.025	-49.086	0.327	-0.157
-595.011	-116.572	-0.417	0.077
-593.996	413.526	0.164	0.351
-592.982	-32.887	-0.078	-0.043
-591.967	-157.363	-0.364	-0.022
-590.952	472.251	-0.099	0.224
-589.938	-143.743	-0.109	0.010
-588.923	14.643	0.030	-0.024
-587.909	-200.000	-0.034	-0.199
-586.894	-101.059	0.173	-0.043
-585.879	41.242	0.055	-0.050
-584.865	514.474	-0.236	-0.554
-583.850	20.132	0.216	0.175
-582.836	-40.599	0.203	-0.106
-581.821	113.035	-0.051	0.062
-580.806	-86.032	-0.200	-0.062
-579.792	84.367	0.132	0.145
-578.777	-53.446	0.086	0.039
-577.763	-189.794	0.168	0.002
-576.748	558.665	-0.056	-0.135
-575.733	143.159	0.276	-0.369
-574.719	-120.098	0.233	0.040
-573.704	-6.694	0.074	-0.051
-572.690	800.000	-0.080	0.240
-571.675	-184.643	0.128	0.002
-570.661	54.855	-0.161	-0.156
-569.646	800.000	0.119	0.357
-568.631	-54.515	0.188	-0.086
-567.617	-108.123	0.225	-0.049
-566.602	9.153	0.273	0.207
-565.588	-95.858	-0.215	0.058
-564.573	-175.716	0.146	0.004
-563.558	-200.000	-0.002	0.322
-562.544	49.527	0.046	-0.044
-561.529	216.635	0.173	-0.276
-560.515	800.000	0.040	-0.112
-559.500	-121.340	-0.423	0.071
-558.485	12.153	-0.095	-0.073
-557.471	3.528	-0.209	0.153
-556.456	706.428	-0.043	0.115
-555.442	342.452	-0.080	-0.157
-554.427	-113.261	0.164	0.032
-553.412	190.600	-0.206	0.310
-552.398	-42.280	-0.154	-0.079
-551.383	-200.000	-0.007	0.301
-550.369	-11.971	-0.144	-0.095
-549.354	-200.000	0.035	0.168
-548.339	230.202	0.115	-0.188
-547.325	80.041	0.171	0.185
-546.310	726.777	0.085	0.227
-545.296	-200.000	0.014	0.135
-544.281	135.974	-0.080	-0.104
-543.266	227.240	-0.103	0.168
-542.252	120.401	-0.143	0.178
-541.237	-200.000	0.028	-0.363
-540.223	-200.000	0.003	-0.168
-539.208	5.624	-0.284	-0.211
-538.193	-200.000	0.021	-0.150
-537.179	-200.000	-0.050	0.365
-536.164	158.918	0.217	0.302
-535.150	26.761	0.361	-0.303
-534.135	-75.021	0.118	0.042
-533.121	-128.227	-0.110	0.016
-532.106	-114.432	-0.192	-0.037
-531.091	213.559	-0.181	0.286
-530.077	-13.182	-0.062	0.040
-529.062	5.861	0.153	0.113
-528.048	620.087	0.030	-0.075
-527.033	-200.000	-0.009	0.316
-526.018	-44.141	0.204	0.103
-525.004	-94.554	-0.291	-0.079
-523.989	-9.788	0.124	-0.083
-522.975	-200.000	0.044	-0.250
-521.960	800.000	-0.054	-0.204
-520.945	161.419	-0.097	0.136
-519.931	78.426	-0.134	-0.143
-518.916	800.000	-0.043	0.123
-517.902	-105.876	0.171	-0.039
-516.887	-98.359	-0.123	0.032
-515.872	-140.751	-0.178	-0.018
-514.858	-172.574	-0.291	0.009
-513.843	-200.000	0.012	0.218
-512.829	-200.000	-0.013	-0.141
-511.814	392.915	-0.040	0.083
-510.799	800.000	0.064	-0.241
-509.785	599.118	0.132	-0.329
-508.770	-200.000	0.014	-0.068
-507.756	81.855	-0.037	0.040
-506.741	261.920	0.141	-0.244
-505.726	-80.760	-0.269	-0.089
-504.712	-200.000	-0.047	-0.255
-503.697	428.740	-0.035	0.075
-502.683	34.041	0.165	-0.144
-501.668	272.210	-0.138	-0.243
-500.653	-55.336	0.200	0.090
-499.639	-200.000	-0.039	-0.178
-498.624	706.412	-0.117	0.310
-497.610	397.247	0.069	0.145
-496.595	668.128	0.095	0.246
-495.581	-24.669	0.089	0.053
-494.566	134.621	-0.008	-0.010
-493.551	-110.597	-0.085	0.018
-492.537	-132.583	0.176	0.023
-491.522	48.097	0.044	-0.042
-490.508	-90.119	-0.271	-0.079
-489.493	-78.120	0.086	0.030
-488.478	800.000	-0.042	0.123
-487.464	-106.026	0.029	-0.006
-486.449	-200.000	-0.046	-0.288
-485.435	-119.209	-0.061	-0.011
-484.420	106.382	0.142	-0.169
-483.405	605.954	0.108	-0.270
-482.391	87.230	0.220	-0.243
-481.376	-67.434	0.107	-0.042
-480.362	126.795	-0.129	0.164
-479.347	-200.000	0.011	-0.310
-478.332	534.821	-0.062	0.146
-477.318	-77.965	-0.184	-0.063
-476.303	800.000	-0.039	0.143
-475.289	-162.344	0.314	-0.016
-474.274	-8.821	-0.058	-0.039
-473.259	80.368	0.397	-0.428
-472.245	51.587	0.094	-0.089
-471.230	94.757	0.082	-0.093
-470.216	-23.335	0.152	0.091
-469.201	-121.497	0.141	-0.023
-468.186	-154.056	-0.194	0.013
-467.172	89.383	0.084	-0.093
-466.157	153.434	0.138	0.190
-465.143	-150.887	-0.187	-0.014
-464.128	134.667	-0.166	0.216
-463.113	-200.000	-0.029	0.163
-462.099	113.273	-0.171	0.207
-461.084	-135.211	0.109	0.013
-460.070	385.696	-0.110	-0.226
-459.055	-200.000	-0.009	-0.113
-458.040	800.000	-0.057	0.181
-457.026	800.000	0.113	0.409
-456.011	-200.000	-0.039	0.197
-454.997	-148.239	0.319	-0.026
-453.982	328.125	0.130	0.249
-452.968	115.234	-0.322	0.393
-451.953	108.189	0.094	0.112
-450.938	-200.000	-0.003	-0.193
-449.924	55.102	0.191	-0.184
-448.909	7.913	0.174	0.130
-447.895	31.099	-0.140	0.120
-446.880	-87.938	0.117	-0.035
-445.865	-56.336	-0.167	0.074
-444.851	181.780	-0.155	0.229
-443.836	51.579	-0.347	0.330
-442.822	-200.000	0.025	0.135
-441.807	-200.000	0.033	0.221
-440.792	-98.565	-0.112	-0.029
-439.778	77.499	-0.186	0.198
-438.763	-200.000	0.156	0.000
-437.749	-45.783	-0.284	0.140
-436.734	72.119	-0.100	0.104
-435.719	30.247	-0.236	-0.201
-434.705	134.915	-0.026	-0.034
-433.690	800.000	0.057	0.208
-432.676	58.429	-0.068	-0.067
-431.661	-111.516	-0.150	-0.030
-430.646	800.000	0.002	-0.009
-429.632	800.000	-0.028	-0.103
-428.617	77.001	-0.211	-0.224
-427.603	-6.896	0.046	0.031
-426.588	559.734	-0.031	-0.075
-425.573	97.633	-0.143	-0.165
-424.559	-200.000	-0.020	-0.371
-423.544	187.088	0.219	-0.326
-422.530	90.966	-0.063	0.071
-421.515	-97.745	-0.307	-0.079
-420.500	90.335	-0.328	0.366
-419.486	-35.045	-0.075	0.041
-418.471	17.047	-0.076	-0.060
-417.457	-97.168	0.140	0.037
-416.442	-110.307	0.195	0.040
-415.428	-40.524	0.074	-0.038
-414.413	-200.000	0.030	0.211
-413.398	-132.951	-0.255	-0.032
-412.384	-200.000	-0.043	0.259
-411.369	14.666	0.217	0.169
-410.355	-200.000	0.012	-0.091
-409.340	136.376	0.003	0.003
-408.325	55.834	0.132	0.128
-407.311	104.812	-0.187	-0.220
-406.296	-200.000	0.013	0.103
-405.282	-30.188	-0.224	0.127
-404.267	3.676	0.252	0.184
-403.252	-50.007	-0.097	0.046
-402.238	-200.000	-0.044	0.389
-401.223	12.051	-0.212	-0.163
-400.209	-79.324	-0.156	0.053
-399.194	-200.000	-0.001	-0.007
-398.179	-62.365	-0.325	0.135
-397.165	-103.428	0.266	-0.063
-396.150	92.475	0.129	0.146
-395.136	40.187	-0.144	0.129
-394.121	70.829	-0.049	-0.050
-393.106	110.270	0.139	0.167
-392.092	-13.397	-0.113	-0.073
-391.077	114.923	0.318	0.387
-390.063	-200.000	-0.010	-0.187
-389.048	50.636	-0.253	-0.239
-388.033	66.868	0.272	0.276
-387.019	95.246	0.136	0.155
-386.004	-35.879	-0.225	-0.121
-384.990	401.711	0.194	-0.406
-383.975	500.755	-0.120	-0.276
-382.960	-36.881	0.232	-0.124
-381.946	41.534	0.207	0.187
-380.931	-200.000	0.040	0.204
-379.917	-67.024	0.338	0.133
-378.902	-28.204	-0.170	0.098
-377.888	190.866	-0.104	0.156
-376.873	3.450	0.061	0.044
-375.858	44.575	0.221	-0.203
-374.844	-200.000	-0.051	-0.252
-373.829	-70.268	-0.164	-0.062
-372.815	-106.177	-0.142	-0.032
-371.800	-95.570	0.295	-0.079
-370.785	-9.305	0.106	0.071
-369.771	10.658	0.079	0.060
-368.756	-200.000	-0.009	-0.097
-367.742	-117.007	-0.093	-0.017
-366.727	-140.313	0.151	-0.016
-365.712	-200.000	0.010	-0.085
-364.698	142.779	0.242	-0.320
-363.683	55.653	0.250	0.241
-362.669	-99.738	-0.216	0.054
-361.654	-93.786	0.112	-0.031
-360.639	-18.609	0.248	-0.154
-359.625	800.000	0.056	0.181
-358.610	-20.643	0.535	0.327
-357.596	570.751	0.157	0.381
-356.581	112.433	-0.131	0.158
-355.566	-86.193	-0.337	0.104
-354.552	-131.690	-0.018	0.002
-353.537	-200.000	0.005	-0.057
-352.523	800.000	0.062	0.211
-351.508	-182.248	-0.146	-0.003
-350.493	-138.244	-0.356	-0.039
-349.479	800.000	-0.013	-0.044
-348.464	-200.000	0.005	0.229
-347.450	-85.883	0.108	0.033
-346.435	-108.140	-0.056	0.012
-345.420	-132.913	-0.087	-0.011
-344.406	-183.533	-0.121	0.002
-343.391	-108.230	-0.234	-0.050
-342.377	55.496	0.105	-0.102
-341.362	-61.080	0.477	-0.200
-340.348	214.444	-0.188	0.296
-339.333	72.710	0.196	0.203
-338.318	-200.000	0.012	0.206
-337.304	39.045	0.139	-0.123
-336.289	-37.289	-0.406	0.216
-335.275	5.363	0.495	-0.363
-334.260	756.355	0.141	-0.379
-333.245	37.298	-0.163	-0.144
-332.231	-3.223	0.371	-0.258
-331.216	-200.000	0.050	-0.301
-330.202	-31.459	-0.254	-0.142
-329.187	-151.434	-0.229	-0.017
-328.172	-200.000	0.085	-0.391
-327.158	291.522	-0.138	-0.250
-326.143	-176.352	0.178	-0.005
-325.129	-112.740	0.135	-0.027
-324.114	-22.600	0.226	0.136
-323.099	-47.755	-0.163	0.079
-322.085	-17.851	-0.173	-0.108
-321.070	-200.000	0.013	0.207
-320.056	-53.858	0.100	-0.045
-319.041	425.055	0.181	0.387
-318.026	-108.807	-0.055	0.012
-317.012	-200.000	0.019	0.229
-315.997	77.592	-0.068	0.072
-314.983	-37.230	-0.123	0.065
-313.968	-200.000	0.009	0.087
-312.953	-21.613	-0.089	0.054
-311.939	19.320	0.054	0.043
-310.924	237.435	0.082	0.135
-309.910	126.071	0.100	0.126
-308.895	-200.000	0.010	0.118
-307.880	-200.000	-0.013	0.234
-306.866	338.721	-0.142	0.274
-305.851	-200.000	-0.012	0.118
-304.837	-21.627	-0.269	-0.163
-303.822	-133.620	0.043	-0.005
-302.807	-122.144	-0.297	0.048
-301.793	665.286	-0.013	-0.033
-300.778	-43.653	-0.147	-0.074
-299.764	-200.000	-0.032	-0.206
-298.749	-200.000	0.021	0.250
-297.735	800.000	0.069	-0.228
-296.720	-68.467	0.174	-0.067
-295.705	-97.715	-0.127	-0.033
-294.691	-200.000	-0.027	0.303
-293.676	-200.000	0.001	0.277
-292.662	-25.151	-0.131	0.077
-291.647	-50.660	0.370	0.173
-290.632	258.487	-0.199	0.341
-289.618	10.186	-0.171	-0.129
-288.603	22.981	0.144	0.117
-287.589	57.749	-0.131	-0.127
-286.574	279.202	0.062	-0.109
-285.559	160.800	-0.021	0.029
-284.545	751.926	0.137	-0.369
-283.530	800.000	-0.045	-0.180
-282.516	-200.000	-0.022	-0.217
-281.501	9.004	-0.048	0.036
-280.486	-6.624	0.214	0.145
-279.472	-200.000	0.014	0.108
-278.457	-78.543	-0.172	0.058
-277.443	-31.258	0.200	0.112
-276.428	353.186	0.179	0.353
-275.413	-200.000	-0.048	0.368
-274.399	763.781	0.011	-0.029
-273.384	300.331	0.187	-0.343
-272.370	-29.887	-0.128	-0.072
-271.355	25.380	0.064	-0.053
-270.340	800.000	-0.093	0.274
-269.326	-200.000	-0.012	0.322
-268.311	-144.587	0.153	-0.014
-267.297	83.672	0.072	-0.078
-266.282	32.619	-0.026	-0.023
-265.267	-48.851	0.234	0.111
-264.253	-109.750	-0.037	0.008
-263.238	4.932	0.165	0.120
-262.224	-109.595	-0.113	-0.024
-261.209	620.481	-0.056	-0.139
-260.195	347.039	-0.058	0.114
-259.180	-200.000	-0.025	0.275
-258.165	800.000	0.101	-0.355
-257.151	321.809	0.131	-0.247
-256.136	68.487	0.200	0.204
-255.122	-74.443	-0.095	-0.034
-254.107	-39.798	-0.209	0.108
-253.092	-141.256	0.317	0.032
-252.078	800.000	0.086	-0.354
-251.063	226.410	0.204	0.328
-250.049	414.951	-0.103	0.218
-249.034	73.186	-0.195	0.202
-248.019	15.073	0.134	0.104
-247.005	-129.751	-0.125	0.017
-245.990	-200.000	0.242	-0.001
-244.976	-133.881	0.361	0.044
-243.961	28.002	-0.193	-0.161
-242.946	51.176	0.102	0.096
-241.932	-145.609	-0.405	0.036
-240.917	144.757	-0.153	-0.202
-239.903	-200.000	0.022	0.114
-238.888	-130.315	0.197	-0.027
-237.873	-106.496	0.144	0.032
-236.859	21.208	-0.204	-0.164
-235.844	800.000	-0.048	-0.199
-234.830	800.000	0.116	0.321
-233.815	-200.000	0.054	0.416
-232.800	-200.000	0.018	-0.088
-231.786	732.379	-0.040	0.105
-230.771	94.764	0.178	-0.201
-229.757	30.831	-0.189	0.160
-228.742	-35.722	0.098	-0.053
-227.727	-98.671	-0.109	-0.027
-226.713	426.539	0.024	0.052
-225.698	289.847	-0.076	-0.136
-224.684	-143.363	0.262	-0.025
-223.669	-61.590	0.388	-0.161
-222.655	-145.734	0.282	0.025
-221.640	287.427	0.092	0.164
-220.625	-200.000	-0.005	0.068
-219.611	10.891	0.439	-0.332
-218.596	800.000	-0.051	-0.146
-217.582	-23.459	-0.174	-0.103
-216.567	242.619	-0.088	0.146
-215.552	32.119	0.188	-0.161
-214.538	-69.949	-0.243	-0.092
-213.523	-54.762	0.361	0.161
-212.509	-200.000	0.006	-0.155
-211.494	-159.014	-0.067	-0.004
-210.479	-14.262	0.217	-0.138
-209.465	7.187	-0.247	-0.183
-208.450	-39.284	-0.119	-0.062
-207.436	311.329	-0.137	-0.254
-206.421	-71.827	-0.128	-0.047
-205.406	-200.000	-0.028	-0.124
-204.392	47.420	-0.234	-0.216
-203.377	-17.762	-0.210	0.131
-202.363	95.969	0.084	0.095
-201.348	36.783	-0.109	-0.096
-200.333	281.670	-0.126	0.224
-199.319	-92.802	0.310	-0.086
-198.304	-19.070	0.230	0.142
-197.290	800.000	0.009	0.036
-196.275	-200.000	0.033	0.317
-195.260	287.314	0.057	0.102
-194.246	106.183	-0.101	0.119
-193.231	-123.389	-0.197	0.031
-192.217	-200.000	0.015	-0.239
-191.202	59.015	-0.062	-0.061
-190.187	800.000	0.031	0.130
-189.173	-98.863	-0.414	-0.104
-188.158	-132.997	0.074	0.009
-187.144	-167.065	0.197	0.008
-186.129	144.757	-0.189	-0.251
-185.114	93.602	-0.012	-0.014
-184.100	800.000	0.017	-0.067
-183.085	800.000	0.036	-0.102
-182.071	40.561	0.041	0.036
-181.056	-200.000	-0.004	-0.105
-180.042	-71.654	-0.159	-0.059
-179.027	647.405	-0.042	-0.107
-178.012	-20.595	-0.236	-0.143
-176.998	-20.723	-0.194	-0.118
-175.983	161.587	0.253	-0.350
-174.969	343.385	0.009	-0.017
-173.954	155.336	-0.092	0.125
-172.939	-102.155	-0.322	0.077
-171.925	-83.673	-0.132	-0.042
-170.910	-200.000	-0.004	0.298
-169.896	12.388	-0.122	-0.093
-168.881	-200.000	0.055	0.375
-167.866	105.776	-0.256	-0.300
-166.852	800.000	0.071	0.197
-165.837	237.330	-0.125	0.205
-164.823	189.909	0.103	0.152
-163.808	-75.170	0.144	-0.051
-162.793	286.901	-0.086	0.154
-161.779	-200.000	-0.029	-0.210
-160.764	313.681	-0.168	-0.313
-159.750	278.856	0.032	0.056
-158.735	160.215	0.307	-0.423
-157.720	39.915	0.122	-0.109
-156.706	58.325	0.330	0.320
-155.691	-47.180	0.246	-0.119
-154.677	178.468	0.050	0.072
-153.662	-117.513	0.112	0.020
-152.647	44.588	-0.093	0.085
-151.633	-200.000	-0.046	-0.402
-150.618	-15.987	0.148	0.093
-149.604	-103.525	0.258	-0.060
-148.589	-52.895	0.129	-0.059
-147.574	59.334	-0.183	-0.178
-146.560	307.251	-0.057	-0.104
-145.545	54.063	0.186	0.177
-144.531	-115.761	-0.298	0.055
-143.516	-200.000	-0.012	0.251
-142.502	-93.226	-0.097	0.027
-141.487	-28.829	-0.367	-0.209
-140.472	94.137	-0.115	-0.129
-139.458	558.082	0.139	-0.331
-138.443	-137.061	-0.384	0.043
-137.429	158.995	0.053	-0.072
-136.414	-42.083	-0.209	0.105
-135.399	142.947	-0.076	-0.099
-134.385	-200.000	-0.022	-0.106
-133.370	-51.385	-0.248	0.114
-132.356	-200.000	0.000	-0.268
-131.341	800.000	-0.062	-0.195
-130.326	252.687	-0.098	0.164
-129.312	52.068	0.259	-0.244
-128.297	-200.000	0.030	-0.300
-127.283	-191.415	-0.090	-0.001
-126.268	31.104	0.087	0.073
-125.253	-74.004	-0.090	-0.032
-124.239	800.000	-0.091	0.261
-123.224	95.153	0.053	-0.059
-122.210	800.000	0.078	0.264
-121.195	732.089	0.031	-0.081
