DTS Sentinel unit serial number:	SN413079Multiplexer serial number:	ORYXHardware model number:	OX4-SRSoftware version number:	ORYX F/W v4.00 Oryx Data Collector v3.7.2.0data status	okinstallation	princeton_trtdifferential loss correction	single-endedforward channel	channel 4reverse channel	N/Adate	2019/09/15time	17:01:34forward acquisition time	60.00reverse acquisition time	0.00gamma	496.2192k internal	0.2275k external	0.2275temperature offset calibration	0.9931default loss term (dB/km)	0.3790temperature slope calibration	1.0000multiplexer offset coefficient	1.0000multiplexer slope coefficient	1.0000fibre end	0.00T internal ref (°C)	44.50T ext. ref 1 (°C)	5.86T ext. ref 2 (°C)	40.79length (m)	temperature (°C)	Stokes	anti-Stokes-747.200	131.930	0.146	0.194
-746.185	-12.831	-0.130	0.087
-745.171	-99.729	-0.269	-0.070
-744.156	-200.000	0.091	0.550
-743.142	51.423	0.269	0.263
-742.127	247.542	0.070	-0.121
-741.112	-68.442	-0.224	-0.090
-740.098	44.831	-0.248	0.235
-739.083	410.697	0.015	0.033
-738.069	203.283	-0.120	0.192
-737.054	-21.517	0.122	-0.076
-736.039	-200.000	-0.069	-0.000
-735.025	-31.963	-0.197	0.114
-734.010	126.226	-0.204	-0.266
-732.996	195.818	-0.241	-0.378
-731.981	53.319	-0.280	-0.277
-730.966	101.545	0.122	0.147
-729.952	-131.969	-0.553	0.074
-728.937	131.822	0.053	0.070
-727.923	177.360	-0.062	0.092
-726.908	3.840	0.248	0.187
-725.894	-135.658	0.311	0.038
-724.879	-200.000	0.038	-0.176
-723.864	-64.319	-0.132	-0.055
-722.850	-200.000	-0.040	0.345
-721.835	-200.000	-0.005	0.189
-720.821	17.283	-0.376	-0.308
-719.806	170.256	-0.058	-0.086
-718.791	746.883	0.048	0.133
-717.777	128.103	-0.148	-0.194
-716.762	392.832	-0.080	0.171
-715.748	-117.538	0.174	-0.032
-714.733	-25.256	-0.341	0.208
-713.718	160.206	0.255	-0.366
-712.704	800.000	-0.129	-0.408
-711.689	-31.523	0.207	-0.120
-710.675	-134.317	0.075	-0.009
-709.660	288.709	0.061	0.113
-708.645	226.833	-0.113	0.189
-707.631	-16.551	-0.297	-0.194
-706.616	-151.473	-0.190	-0.014
-705.602	-131.998	0.306	0.041
-704.587	-175.799	0.321	-0.009
-703.572	35.292	0.157	-0.142
-702.558	-36.130	-0.390	-0.217
-701.543	6.990	0.125	-0.096
-700.529	-55.192	0.159	-0.074
-699.514	167.695	0.120	-0.175
-698.499	78.409	0.096	0.106
-697.485	800.000	-0.052	-0.222
-696.470	6.037	-0.019	0.015
-695.456	-200.000	0.010	0.183
-694.441	800.000	0.105	-0.310
-693.426	52.041	-0.228	-0.224
-692.412	11.039	-0.419	-0.330
-691.397	21.524	0.129	0.108
-690.383	-23.767	-0.059	0.036
-689.368	-73.836	-0.168	0.063
-688.354	113.945	0.203	-0.254
-687.339	220.889	0.039	0.065
-686.324	800.000	0.040	-0.123
-685.310	-200.000	-0.040	0.275
-684.295	-49.530	-0.316	-0.155
-683.281	-48.214	-0.432	0.214
-682.266	-76.238	-0.179	0.065
-681.251	-32.492	-0.209	-0.120
-680.237	-200.000	-0.019	0.290
-679.222	174.730	-0.177	-0.264
-678.208	-167.636	0.221	-0.009
-677.193	163.207	0.018	-0.026
-676.178	-67.373	0.178	0.072
-675.164	800.000	0.074	-0.228
-674.149	90.195	-0.128	-0.147
-673.135	-19.319	-0.217	-0.138
-672.120	406.137	0.168	-0.365
-671.105	419.645	-0.070	-0.154
-670.091	800.000	-0.063	0.252
-669.076	-62.296	-0.085	0.036
-668.062	91.922	0.029	0.033
-667.047	-200.000	-0.006	-0.037
-666.032	94.273	0.141	0.164
-665.018	-6.330	0.173	0.122
-664.003	72.105	-0.107	-0.114
-662.989	-113.611	-0.040	0.008
-661.974	-115.666	0.405	-0.078
-660.959	153.412	-0.145	0.204
-659.945	-200.000	-0.004	-0.042
-658.930	-58.948	-0.229	-0.102
-657.916	404.288	-0.053	0.114
-656.901	17.542	0.158	0.129
-655.886	-86.424	-0.210	0.066
-654.872	-97.026	0.186	-0.050
-653.857	-122.306	0.120	0.020
-652.843	74.533	-0.138	-0.149
-651.828	174.106	0.097	0.143
-650.814	75.454	0.074	-0.080
-649.799	162.663	0.195	0.280
-648.784	-154.403	0.234	0.016
-647.770	89.223	0.179	-0.205
-646.755	-110.744	-0.136	0.029
-645.741	136.077	0.105	0.140
-644.726	-12.681	0.339	0.227
-643.711	41.267	0.097	-0.090
-642.697	-200.000	0.026	0.387
-641.682	118.611	0.054	-0.069
-640.668	-74.183	-0.205	0.076
-639.653	40.291	-0.065	-0.060
-638.638	-200.000	-0.045	-0.000
-637.624	-32.464	-0.183	0.105
-636.609	-99.126	-0.415	-0.108
-635.595	-200.000	-0.008	0.422
-634.580	57.957	0.070	0.070
-633.565	489.328	0.099	-0.232
-632.551	-92.968	-0.324	-0.093
-631.536	-97.497	-0.210	-0.056
-630.522	-200.000	0.034	-0.427
-629.507	-200.000	-0.007	-0.101
-628.492	16.929	-0.140	-0.114
-627.478	-149.552	-0.400	-0.032
-626.463	-41.512	-0.042	0.022
-625.449	-113.833	-0.334	-0.067
-624.434	130.492	-0.138	-0.182
-623.419	800.000	0.054	0.200
-622.405	800.000	-0.018	0.063
-621.390	63.412	-0.312	-0.321
-620.376	49.661	-0.077	-0.074
-619.361	352.300	0.091	-0.185
-618.346	247.643	0.074	-0.128
-617.332	-118.459	0.263	-0.048
-616.317	19.508	-0.182	-0.150
-615.303	92.148	0.194	-0.224
-614.288	-0.167	-0.147	-0.107
-613.273	-75.234	-0.105	-0.039
-612.259	62.991	-0.064	-0.066
-611.244	-110.494	0.176	0.037
-610.230	800.000	-0.059	-0.174
-609.215	-79.092	0.176	-0.061
-608.201	74.415	-0.105	0.113
-607.186	-27.663	0.136	-0.081
-606.171	800.000	0.098	-0.367
-605.157	-74.434	0.176	0.065
-604.142	-200.000	-0.010	-0.322
-603.128	-23.410	-0.127	0.078
-602.113	26.351	-0.215	-0.184
-601.098	490.479	0.077	-0.180
-600.084	-69.896	0.267	0.104
-599.069	-6.221	0.080	-0.056
-598.055	800.000	-0.058	0.180
-597.040	-125.156	-0.242	0.038
-596.025	34.628	-0.068	0.061
-595.011	-131.710	-0.099	0.013
-593.996	800.000	-0.100	0.447
-592.982	-200.000	0.014	-0.111
-591.967	609.903	-0.052	0.133
-590.952	103.708	0.162	-0.196
-589.938	-200.000	0.022	0.183
-588.923	129.526	-0.101	0.133
-587.909	-200.000	-0.015	-0.148
-586.894	-200.000	-0.019	0.094
-585.879	-4.236	-0.231	-0.164
-584.865	160.923	-0.142	0.203
-583.850	-47.561	0.119	-0.059
-582.836	-38.481	-0.100	-0.054
-581.821	12.785	0.090	0.071
-580.806	197.792	0.109	0.170
-579.792	800.000	-0.111	-0.469
-578.777	-118.712	0.322	0.058
-577.763	92.347	0.055	-0.064
-576.748	84.642	-0.218	-0.244
-575.733	62.960	-0.176	0.180
-574.719	-77.502	-0.584	-0.207
-573.704	743.319	0.106	-0.292
-572.690	572.089	0.120	-0.300
-571.675	-108.207	0.430	0.095
-570.661	-72.722	-0.083	-0.031
-569.646	-200.000	-0.049	-0.413
-568.631	-200.000	-0.009	-0.084
-567.617	-126.722	-0.117	-0.018
-566.602	-98.412	-0.156	0.041
-565.588	-130.004	0.230	0.032
-564.573	310.285	0.158	0.303
-563.558	-53.426	0.330	-0.155
-562.544	-200.000	0.040	-0.266
-561.529	-16.368	0.364	-0.237
-560.515	317.145	0.112	0.217
-559.500	14.182	-0.100	-0.080
-558.485	-129.862	0.053	-0.007
-557.471	-98.924	0.201	-0.052
-556.456	51.028	0.049	-0.048
-555.442	800.000	0.025	-0.072
-554.427	-137.302	-0.354	-0.041
-553.412	-21.902	-0.134	0.084
-552.398	-84.876	0.215	0.069
-551.383	39.658	0.084	0.077
-550.369	284.629	0.125	-0.230
-549.354	-173.208	-0.146	0.005
-548.339	-55.203	0.095	0.044
-547.325	247.736	0.045	0.078
-546.310	-200.000	0.057	-0.337
-545.296	26.665	-0.105	-0.090
-544.281	225.782	-0.150	-0.249
-543.266	-88.367	-0.130	-0.040
-542.252	-200.000	0.002	-0.200
-541.237	-145.021	-0.108	0.010
-540.223	51.364	-0.065	-0.063
-539.208	20.884	-0.311	0.258
-538.193	301.495	0.061	0.114
-537.179	286.591	-0.110	-0.203
-536.164	-109.368	-0.131	0.028
-535.150	66.906	-0.149	-0.155
-534.135	-200.000	-0.005	0.460
-533.121	-135.504	-0.300	0.037
-532.106	-23.460	0.287	-0.176
-531.091	-23.473	-0.242	-0.149
-530.077	-74.830	-0.165	-0.060
-529.062	119.853	0.116	-0.147
-528.048	-52.278	0.080	0.038
-527.033	273.648	-0.124	0.225
-526.018	-117.959	0.281	0.051
-525.004	373.484	-0.135	0.282
-523.989	17.079	-0.252	0.204
-522.975	64.762	-0.133	0.137
-521.960	18.035	0.176	-0.143
-520.945	202.325	-0.076	-0.121
-519.931	-27.898	-0.372	0.221
-518.916	-200.000	0.015	-0.160
-517.902	60.480	-0.068	-0.069
-516.887	-146.432	-0.148	-0.013
-515.872	-29.730	0.016	0.009
-514.858	-37.314	0.478	-0.261
-513.843	-200.000	0.019	0.128
-512.829	-200.000	-0.014	0.165
-511.814	113.861	-0.269	0.334
-510.799	341.857	0.063	0.126
-509.785	-160.453	-0.314	0.017
-508.770	-69.648	0.296	0.116
-507.756	409.697	-0.039	0.085
-506.741	358.883	0.093	0.191
-505.726	800.000	-0.064	0.286
-504.712	595.056	-0.126	-0.320
-503.697	-38.101	0.081	0.044
-502.683	1.307	-0.112	-0.082
-501.668	-170.938	0.195	-0.007
-500.653	800.000	0.044	0.145
-499.639	721.658	-0.019	-0.052
-498.624	-200.000	-0.056	0.436
-497.610	390.037	-0.030	-0.064
-496.595	-106.250	-0.101	0.023
-495.581	-127.908	0.145	0.021
-494.566	-200.000	-0.043	-0.199
-493.551	-11.087	-0.100	0.067
-492.537	95.479	-0.220	0.256
-491.522	-91.379	0.359	-0.105
-490.508	-75.041	0.248	0.091
-489.493	-17.836	-0.083	-0.053
-488.478	98.626	0.095	0.112
-487.464	558.316	0.055	0.135
-486.449	-178.754	-0.161	-0.004
-485.435	2.479	0.126	-0.093
-484.420	145.519	-0.118	-0.161
-483.405	144.433	0.138	0.188
-482.391	-109.938	0.453	0.097
-481.376	70.465	-0.217	0.229
-480.362	112.464	-0.243	-0.300
-479.347	-200.000	0.030	-0.327
-478.332	-120.230	-0.110	0.019
-477.318	-124.380	0.018	-0.003
-476.303	450.856	-0.043	0.097
-475.289	-109.901	-0.300	-0.064
-474.274	64.944	-0.165	-0.170
-473.259	-134.323	0.283	0.035
-472.245	-66.984	-0.103	0.041
-471.230	-170.142	0.206	0.007
-470.216	742.583	0.046	-0.127
-469.201	-23.822	-0.187	-0.114
-468.186	-200.000	0.022	-0.212
-467.172	-66.105	-0.228	0.093
-466.157	-74.077	-0.307	-0.114
-465.143	-176.478	0.153	0.004
-464.128	-200.000	-0.022	-0.148
-463.113	-122.069	-0.435	0.073
-462.099	-200.000	-0.009	-0.081
-461.084	-200.000	0.005	0.155
-460.070	-36.278	0.085	0.047
-459.055	-47.763	0.336	0.166
-458.040	-115.433	-0.257	0.049
-457.026	800.000	-0.079	-0.290
-456.011	4.400	0.358	-0.268
-454.997	800.000	0.118	0.381
-453.982	73.377	0.110	0.117
-452.968	113.651	0.211	-0.261
-451.953	-200.000	0.049	0.333
-450.938	-200.000	-0.041	0.268
-449.924	-200.000	-0.008	0.086
-448.909	800.000	-0.073	-0.232
-447.895	-200.000	-0.002	-0.046
-446.880	-11.115	0.175	-0.118
-445.865	-152.583	0.142	0.010
-444.851	800.000	-0.089	-0.354
-443.836	-93.200	0.083	0.024
-442.822	-1.215	0.247	0.178
-441.807	257.225	0.235	0.412
-440.792	-111.172	0.211	0.044
-439.778	-200.000	0.016	0.260
-438.763	-200.000	-0.018	-0.081
-437.749	-95.961	-0.352	-0.095
-436.734	-163.886	0.323	-0.015
-435.719	-149.395	0.399	0.032
-434.705	-99.503	0.090	0.023
-433.690	-112.672	0.161	0.033
-432.676	-39.926	-0.106	-0.056
-431.661	110.695	0.206	0.253
-430.646	738.217	-0.033	-0.090
-429.632	-123.916	0.188	0.030
-428.617	766.813	-0.096	-0.265
-427.603	-108.446	0.114	0.025
-426.588	61.109	0.141	0.142
-425.573	800.000	-0.033	0.138
-424.559	314.089	-0.042	0.080
-423.544	34.721	0.236	-0.210
-422.530	477.771	-0.175	-0.402
-421.515	-200.000	0.353	-0.001
-420.500	-200.000	0.005	0.062
-419.486	212.966	0.101	-0.162
-418.471	-70.619	-0.176	-0.068
-417.457	-200.000	-0.020	-0.267
-416.442	16.443	-0.174	-0.140
-415.428	-200.000	0.058	0.268
-414.413	-118.103	-0.351	0.064
-413.398	-200.000	0.067	-0.318
-412.384	-200.000	0.049	0.253
-411.369	337.227	0.060	0.119
-410.355	-200.000	0.001	-0.222
-409.340	-132.831	0.152	-0.020
-408.325	-136.365	0.071	-0.008
-407.311	800.000	0.038	-0.136
-406.296	-14.490	-0.186	-0.122
-405.282	3.238	-0.303	0.224
-404.267	16.569	-0.388	0.312
-403.252	-69.075	-0.231	0.091
-402.238	-78.082	-0.176	-0.062
-401.223	800.000	0.019	-0.082
-400.209	-97.374	0.204	0.054
-399.194	209.344	-0.087	0.138
-398.179	800.000	-0.057	0.242
-397.165	-200.000	-0.024	-0.126
-396.150	-200.000	0.027	-0.161
-395.136	800.000	0.119	-0.414
-394.121	-13.814	-0.138	-0.091
-393.106	419.309	0.120	-0.261
-392.092	17.446	0.190	0.154
-391.077	-112.201	-0.198	-0.040
-390.063	-200.000	-0.022	-0.129
-389.048	-200.000	0.027	0.233
-388.033	-55.335	-0.544	0.248
-387.019	755.902	-0.056	0.154
-386.004	-87.934	0.152	-0.047
-384.990	-200.000	0.231	-0.000
-383.975	-63.986	0.422	0.175
-382.960	-119.808	-0.318	-0.056
-381.946	-82.526	0.252	0.083
-380.931	188.056	-0.188	0.286
-379.917	-122.592	0.196	-0.032
-378.902	-69.998	-0.162	-0.063
-377.888	-200.000	-0.009	0.115
-376.873	-12.967	-0.087	-0.058
-375.858	53.773	0.096	0.093
-374.844	-200.000	0.012	-0.158
-373.829	292.710	-0.151	0.280
-372.815	-200.000	-0.008	-0.161
-371.800	-200.000	0.037	-0.447
-370.785	-175.107	0.122	-0.003
-369.771	103.365	-0.134	0.160
-368.756	203.687	0.167	0.263
-367.742	-48.730	-0.346	0.169
-366.727	-80.748	0.206	0.070
-365.712	88.165	0.152	0.171
-364.698	-200.000	0.064	0.342
-363.683	-200.000	0.004	-0.230
-362.669	122.908	-0.183	-0.232
-361.654	449.752	-0.191	-0.427
-360.639	-200.000	-0.018	-0.436
-359.625	-115.335	0.393	0.075
-358.610	-183.359	-0.224	0.004
-357.596	-98.632	0.285	0.074
-356.581	344.357	-0.086	0.172
-355.566	163.547	-0.150	-0.215
-354.552	800.000	-0.038	0.162
-353.537	-54.964	-0.322	0.147
-352.523	-21.585	-0.312	0.193
-351.508	220.346	-0.060	0.098
-350.493	163.503	0.246	0.351
-349.479	-200.000	0.013	0.125
-348.464	-16.952	0.248	0.159
-347.450	180.302	0.015	-0.022
-346.435	-200.000	0.025	-0.171
-345.420	-148.941	0.427	-0.035
-344.406	462.699	0.153	0.346
-343.391	-200.000	0.008	-0.299
-342.377	107.702	0.095	-0.115
-341.362	-98.191	-0.258	0.067
-340.348	800.000	0.089	0.381
-339.333	-200.000	0.037	0.500
-338.318	-63.760	-0.031	0.013
-337.304	-100.251	-0.140	-0.035
-336.289	-191.282	-0.175	-0.002
-335.275	101.211	0.078	-0.092
-334.260	-60.765	-0.259	-0.111
-333.245	-200.000	0.010	0.178
-332.231	14.311	-0.156	0.123
-331.216	800.000	-0.050	-0.144
-330.202	-135.716	-0.087	0.010
-329.187	-200.000	0.002	-0.054
-328.172	216.931	-0.128	0.206
-327.158	-200.000	-0.022	0.113
-326.143	164.395	0.115	0.164
-325.129	149.327	-0.085	0.116
-324.114	591.078	-0.089	0.222
-323.099	-138.623	-0.144	0.016
-322.085	119.515	0.117	0.147
-321.070	-200.000	-0.022	0.168
-320.056	231.074	0.038	0.063
-319.041	-200.000	0.003	0.045
-318.026	800.000	0.151	0.457
-317.012	-62.993	-0.272	0.114
-315.997	-195.002	-0.205	0.002
-314.983	75.275	0.174	-0.186
-313.968	447.984	0.017	0.038
-312.953	127.289	-0.092	-0.118
-311.939	204.250	0.208	-0.327
-310.924	-200.000	0.006	0.342
-309.910	-25.436	0.351	-0.210
-308.895	-114.298	0.131	-0.026
-307.880	800.000	0.030	0.130
-306.866	170.133	-0.130	0.188
-305.851	-75.307	-0.408	-0.147
-304.837	-200.000	-0.098	0.468
-303.822	-151.654	0.130	0.010
-302.807	215.015	0.189	-0.304
-301.793	-16.859	-0.047	0.030
-300.778	261.646	-0.058	-0.102
-299.764	-7.693	0.120	-0.082
-298.749	490.873	-0.082	0.191
-297.735	-122.150	0.373	0.062
-296.720	37.962	0.130	-0.117
-295.705	6.453	0.159	-0.120
-294.691	95.360	0.073	-0.084
-293.676	384.758	0.074	0.155
-292.662	-152.080	0.222	0.016
-291.647	-175.122	0.175	-0.005
-290.632	-200.000	0.002	-0.110
-289.618	-200.000	-0.049	-0.303
-288.603	-200.000	0.032	0.384
-287.589	-157.078	0.211	0.013
-286.574	800.000	0.129	0.369
-285.559	-67.230	0.411	0.164
-284.545	163.425	0.194	0.277
-283.530	-11.350	0.300	-0.200
-282.516	-16.632	0.177	-0.114
-281.501	305.600	-0.145	0.274
-280.486	-30.406	0.195	0.112
-279.472	-117.224	0.148	0.027
-278.457	-200.000	-0.023	-0.202
-277.443	-5.935	-0.317	-0.219
-276.428	491.802	0.050	-0.116
-275.413	-200.000	-0.015	-0.155
-274.399	58.514	0.419	0.417
-273.384	-87.666	-0.307	-0.094
-272.370	20.784	0.134	0.110
-271.355	-111.949	0.088	0.018
-270.340	-113.212	-0.250	-0.050
-269.326	-124.788	0.238	-0.037
-268.311	-98.618	-0.266	0.069
-267.297	-18.705	0.427	-0.270
-266.282	-200.000	-0.025	-0.261
-265.267	-86.073	-0.129	0.040
-264.253	800.000	0.054	-0.226
-263.238	-200.000	0.006	-0.037
-262.224	-124.441	-0.235	0.037
-261.209	-127.543	-0.190	-0.028
-260.195	111.806	-0.097	-0.118
-259.180	-146.306	0.252	0.022
-258.165	-200.000	0.018	0.283
-257.151	-55.737	0.136	-0.062
-256.136	800.000	-0.115	-0.336
-255.122	-126.513	-0.320	0.048
-254.107	-127.690	0.183	-0.027
-253.092	-45.695	-0.419	-0.210
-252.078	105.045	-0.136	-0.162
-251.063	-196.216	0.175	-0.001
-250.049	-102.527	0.214	-0.052
-249.034	-200.000	0.038	0.204
-248.019	214.141	0.138	0.221
-247.005	-91.917	0.078	0.022
-245.990	25.309	0.197	-0.166
-244.976	-99.533	0.218	-0.055
-243.961	-36.522	-0.219	-0.119
-242.946	20.355	-0.241	0.197
-241.932	63.014	-0.371	0.376
-240.917	584.557	-0.117	0.291
-239.903	-200.000	-0.047	-0.212
-238.888	-13.561	-0.140	-0.092
-237.873	-200.000	0.127	-0.594
-236.859	278.395	-0.097	0.174
-235.844	50.282	0.078	-0.075
-234.830	-97.540	0.121	0.032
-233.815	-106.083	0.131	0.030
-232.800	-96.285	0.185	-0.050
-231.786	-162.798	0.358	0.018
-230.771	55.521	0.131	-0.128
-229.757	-172.607	-0.172	-0.005
-228.742	465.401	0.160	-0.362
-227.727	-44.226	-0.191	-0.097
-226.713	800.000	-0.057	0.197
-225.698	-200.000	0.033	0.262
-224.684	-130.833	-0.249	-0.034
-223.669	-80.474	0.094	-0.032
-222.655	-200.000	0.035	-0.259
-221.640	9.805	0.172	0.132
-220.625	-73.708	-0.164	-0.060
-219.611	-200.000	-0.006	-0.302
-218.596	111.575	-0.029	0.035
-217.582	-125.969	0.273	0.042
-216.567	24.035	-0.297	-0.248
-215.552	38.061	-0.246	-0.221
-214.538	800.000	0.112	0.347
-213.523	-200.000	-0.010	0.122
-212.509	-62.103	0.349	-0.147
-211.494	22.116	0.051	-0.042
-210.479	43.047	-0.155	-0.142
-209.465	-5.983	0.352	0.243
-208.450	-200.000	0.053	-0.361
-207.436	8.593	-0.074	-0.056
-206.421	-112.675	-0.305	-0.061
-205.406	6.220	-0.136	0.102
-204.392	-200.000	0.005	0.440
-203.377	41.558	0.272	-0.248
-202.363	-200.000	-0.001	0.378
-201.348	5.386	-0.115	0.086
-200.333	-87.174	0.155	0.048
-199.319	800.000	-0.113	-0.413
-198.304	800.000	-0.014	-0.047
-197.290	-82.808	0.104	-0.034
-196.275	-59.140	-0.369	0.161
-195.260	-142.812	-0.320	0.031
-194.246	-200.000	0.006	0.036
-193.231	36.186	0.144	-0.128
-192.217	-16.905	0.163	-0.104
-191.202	800.000	-0.076	0.216
-190.187	-200.000	-0.015	0.177
-189.173	-114.997	-0.107	0.020
-188.158	-51.603	0.141	-0.066
-187.144	-85.251	0.117	0.037
-186.129	800.000	-0.084	0.299
-185.114	-74.762	-0.196	0.071
-184.100	-82.651	0.324	-0.106
-183.085	-129.911	-0.049	-0.007
-182.071	-51.003	-0.237	0.112
-181.056	667.777	-0.063	0.164
-180.042	11.915	-0.090	0.070
-179.027	-91.319	0.403	-0.116
-178.012	8.103	0.246	-0.186
-176.998	800.000	-0.072	-0.221
-175.983	-157.994	0.240	-0.014
-174.969	-66.473	-0.167	-0.067
-173.954	-77.175	-0.219	-0.077
-172.939	336.484	0.129	0.253
-171.925	21.474	0.322	-0.264
-170.910	223.487	-0.185	0.300
-169.896	800.000	-0.022	0.084
-168.881	40.589	0.094	0.086
-167.866	800.000	-0.114	-0.443
-166.852	93.434	0.117	-0.133
-165.837	460.288	-0.053	0.119
-164.823	6.210	-0.370	0.277
-163.808	211.960	-0.086	0.137
-162.793	-200.000	-0.042	-0.234
-161.779	-157.839	-0.358	-0.021
-160.764	162.941	0.200	-0.283
-159.750	43.662	0.205	0.189
-158.735	-175.521	0.017	0.000
-157.720	-200.000	-0.053	0.384
-156.706	210.323	-0.176	0.278
-155.691	219.172	-0.040	-0.064
-154.677	-200.000	-0.028	-0.186
-153.662	-148.627	-0.123	-0.010
-152.647	800.000	0.021	-0.067
-151.633	-200.000	-0.004	-0.078
-150.618	800.000	-0.062	0.258
-149.604	145.571	0.079	0.107
-148.589	8.747	0.067	-0.051
-147.574	-176.976	0.370	-0.009
-146.560	23.864	0.261	-0.216
-145.545	88.607	-0.157	-0.176
-144.531	48.378	0.249	-0.234
-143.516	293.415	-0.055	0.102
-142.502	723.291	0.061	0.163
-141.487	800.000	-0.063	0.226
-140.472	-70.809	-0.085	0.032
-139.458	800.000	0.019	0.065
-138.443	800.000	0.015	-0.066
-137.429	800.000	0.111	0.320
-136.414	-200.000	-0.009	-0.258
-135.399	800.000	-0.106	-0.360
-134.385	-83.380	0.122	-0.040
-133.370	366.813	0.128	0.260
-132.356	-130.123	0.006	0.001
-131.341	46.125	0.122	0.113
-130.326	-127.403	0.090	0.013
-129.312	-200.000	-0.030	0.237
-128.297	278.942	-0.095	0.171
-127.283	-200.000	-0.031	0.137
-126.268	-124.969	0.182	0.028
-125.253	800.000	0.008	0.028
-124.239	-143.875	-0.335	-0.032
-123.224	82.635	0.073	-0.080
-122.210	-200.000	0.026	0.259
