DTS Sentinel unit serial number:	SN413079Multiplexer serial number:	ORYXHardware model number:	OX4-SRSoftware version number:	ORYX F/W v4.00 Oryx Data Collector v3.7.2.0data status	okinstallation	princeton_trtdifferential loss correction	single-endedforward channel	channel 4reverse channel	N/Adate	2019/09/15time	03:53:34forward acquisition time	60.00reverse acquisition time	0.00gamma	496.2192k internal	0.2309k external	0.2309temperature offset calibration	1.0029default loss term (dB/km)	0.3790temperature slope calibration	1.0000multiplexer offset coefficient	1.0000multiplexer slope coefficient	1.0000fibre end	0.00T internal ref (°C)	30.94T ext. ref 1 (°C)	4.60T ext. ref 2 (°C)	25.93length (m)	temperature (°C)	Stokes	anti-Stokes-747.200	800.000	0.034	0.125
-746.185	800.000	0.023	0.088
-745.171	-115.597	0.275	0.052
-744.156	445.845	0.112	0.251
-743.142	-200.000	-0.002	0.312
-742.127	28.887	-0.294	0.253
-741.112	57.154	0.191	-0.189
-740.098	800.000	0.044	0.175
-739.083	-20.018	0.138	0.087
-738.069	138.053	0.084	0.112
-737.054	156.503	-0.082	-0.116
-736.039	175.181	-0.093	-0.137
-735.025	567.029	0.071	0.175
-734.010	-38.603	-0.090	-0.048
-732.996	759.997	0.134	-0.370
-731.981	287.614	0.149	-0.274
-730.966	-200.000	0.008	-0.194
-729.952	187.272	-0.256	-0.387
-728.937	225.593	0.123	0.202
-727.923	-52.388	-0.197	0.092
-726.908	212.031	-0.162	-0.258
-725.894	43.585	-0.301	-0.279
-724.879	81.214	-0.162	-0.178
-723.864	-200.000	0.050	-0.411
-722.850	191.655	0.220	-0.336
-721.835	-170.760	-0.193	0.007
-720.821	-200.000	-0.055	0.279
-719.806	229.305	-0.084	0.139
-718.791	-77.474	-0.072	-0.025
-717.777	800.000	-0.033	0.124
-716.762	-105.288	0.106	-0.024
-715.748	-200.000	0.051	0.370
-714.733	-34.811	0.149	-0.082
-713.718	20.800	0.175	0.144
-712.704	9.556	-0.160	0.123
-711.689	-45.566	-0.329	-0.165
-710.675	800.000	0.090	-0.277
-709.660	-62.955	-0.112	-0.047
-708.645	-125.639	0.245	-0.038
-707.631	436.857	-0.111	-0.245
-706.616	278.401	0.128	0.232
-705.602	-91.102	-0.143	-0.042
-704.587	446.393	-0.091	0.204
-703.572	-65.430	-0.142	0.058
-702.558	800.000	-0.038	0.151
-701.543	-200.000	-0.014	-0.219
-700.529	33.871	0.059	-0.052
-699.514	800.000	-0.009	-0.031
-698.499	-94.925	-0.214	-0.059
-697.485	-27.263	-0.090	-0.053
-696.470	30.066	0.186	-0.161
-695.456	212.241	-0.157	0.250
-694.441	498.114	0.084	0.197
-693.426	50.680	0.186	-0.179
-692.412	800.000	-0.060	-0.236
-691.397	16.527	-0.078	-0.063
-690.383	-124.155	0.455	0.072
-689.368	-49.125	-0.237	-0.115
-688.354	-12.004	-0.236	-0.157
-687.339	-23.076	-0.133	-0.081
-686.324	-200.000	-0.049	0.245
-685.310	-131.168	-0.343	0.046
-684.295	-38.306	-0.178	-0.096
-683.281	800.000	0.074	0.213
-682.266	672.368	-0.131	0.343
-681.251	93.877	-0.163	-0.187
-680.237	800.000	0.135	0.419
-679.222	-200.000	0.019	0.134
-678.208	800.000	0.054	0.199
-677.193	523.081	0.056	-0.133
-676.178	800.000	-0.104	-0.382
-675.164	-200.000	0.029	-0.199
-674.149	18.289	-0.111	0.090
-673.135	160.197	0.121	-0.170
-672.120	539.389	0.063	-0.151
-671.105	-121.186	-0.590	0.100
-670.091	-107.196	0.144	-0.032
-669.076	-80.192	-0.050	-0.017
-668.062	5.121	-0.213	0.159
-667.047	800.000	-0.074	-0.231
-666.032	105.926	0.241	-0.288
-665.018	66.837	0.198	-0.204
-664.003	-172.153	0.095	-0.003
-662.989	-96.930	-0.168	-0.045
-661.974	-122.011	-0.200	-0.033
-660.959	723.329	-0.106	0.287
-659.945	-115.524	-0.092	0.018
-658.930	86.624	0.202	-0.226
-657.916	390.423	0.066	0.139
-656.901	-200.000	0.027	0.260
-655.886	-28.771	0.172	-0.100
-654.872	-30.202	-0.093	0.053
-653.857	-95.530	-0.166	-0.045
-652.843	-60.503	-0.100	0.043
-651.828	78.944	-0.209	0.227
-650.814	-97.390	-0.308	0.081
-649.799	-172.884	-0.343	-0.011
-648.784	-179.603	0.104	0.002
-647.770	31.642	-0.369	-0.321
-646.755	-31.335	0.142	-0.081
-645.741	-74.166	-0.329	-0.121
-644.726	624.511	0.102	0.259
-643.711	199.171	-0.041	-0.064
-642.697	-200.000	0.037	-0.266
-641.682	-21.922	0.305	-0.188
-640.668	43.284	0.060	-0.055
-639.653	80.736	0.132	-0.145
-638.638	-200.000	-0.031	-0.161
-637.624	273.431	-0.056	-0.101
-636.609	-93.737	0.434	-0.121
-635.595	-46.135	-0.254	-0.126
-634.580	2.594	0.096	-0.071
-633.565	-200.000	-0.006	-0.144
-632.551	-57.206	0.209	-0.093
-631.536	-171.733	0.450	-0.015
-630.522	-172.259	0.130	0.004
-629.507	102.768	0.062	0.073
-628.492	-3.893	-0.071	-0.050
-627.478	140.897	-0.160	0.214
-626.463	222.982	-0.129	0.210
-625.449	28.854	-0.242	-0.207
-624.434	-200.000	-0.007	-0.042
-623.419	800.000	-0.054	0.216
-622.405	-34.384	-0.338	-0.188
-621.390	-25.099	-0.203	-0.122
-620.376	124.243	-0.083	-0.105
-619.361	-149.825	0.193	0.015
-618.346	-200.000	0.008	-0.337
-617.332	-81.542	-0.540	0.179
-616.317	37.793	0.079	-0.071
-615.303	-7.715	-0.228	0.156
-614.288	-196.259	-0.243	0.002
-613.273	-166.599	0.388	0.016
-612.259	680.653	0.030	0.080
-611.244	-200.000	0.007	-0.187
-610.230	191.376	-0.075	-0.114
-609.215	-26.079	0.189	-0.112
-608.201	577.797	0.129	0.318
-607.186	149.522	-0.117	-0.161
-606.171	21.159	0.315	-0.259
-605.157	-200.000	0.076	-0.548
-604.142	-96.388	-0.217	0.058
-603.128	-79.911	-0.314	0.107
-602.113	113.895	-0.065	0.080
-601.098	-200.000	0.024	0.130
-600.084	-89.478	0.142	-0.042
-599.069	38.376	-0.161	-0.145
-598.055	56.870	-0.233	-0.229
-597.040	-200.000	0.001	-0.231
-596.025	75.081	-0.068	0.073
-595.011	15.477	0.079	-0.063
-593.996	-78.472	-0.228	-0.079
-592.982	-98.514	-0.110	-0.028
-591.967	658.868	0.060	-0.155
-590.952	-200.000	-0.004	0.031
-589.938	-32.158	0.048	-0.027
-588.923	121.843	-0.105	-0.133
-587.909	-32.116	0.170	-0.096
-586.894	73.418	0.134	-0.141
-585.879	376.764	0.041	0.085
-584.865	-125.989	-0.311	-0.047
-583.850	-134.394	0.009	0.001
-582.836	311.281	-0.115	0.217
-581.821	-41.236	-0.174	0.090
-580.806	-38.951	-0.468	0.249
-579.792	-134.286	-0.315	-0.039
-578.777	-9.916	-0.410	-0.275
-577.763	-200.000	-0.002	0.187
-576.748	-69.554	0.239	0.092
-575.733	28.558	0.143	0.122
-574.719	-165.546	-0.290	-0.013
-573.704	48.931	0.129	0.122
-572.690	20.586	-0.129	-0.106
-571.675	-200.000	0.011	-0.102
-570.661	-200.000	0.008	-0.083
-569.646	800.000	-0.105	0.353
-568.631	-200.000	-0.006	-0.029
-567.617	-200.000	-0.003	-0.186
-566.602	-165.795	-0.284	0.012
-565.588	-88.503	-0.164	-0.049
-564.573	133.415	-0.140	-0.182
-563.558	21.495	-0.144	-0.118
-562.544	-53.171	-0.106	-0.049
-561.529	9.281	0.233	-0.178
-560.515	18.722	0.077	0.062
-559.500	-29.811	-0.205	0.118
-558.485	649.062	-0.037	-0.095
-557.471	362.721	0.103	-0.208
-556.456	-200.000	0.013	-0.240
-555.442	-91.519	-0.530	0.152
-554.427	800.000	-0.064	0.266
-553.412	-66.885	-0.233	-0.093
-552.398	114.352	0.044	-0.054
-551.383	192.065	0.115	-0.174
-550.369	-164.853	0.350	-0.016
-549.354	800.000	-0.049	-0.175
-548.339	-106.133	0.200	-0.045
-547.325	-21.577	0.115	-0.071
-546.310	-200.000	0.000	-0.313
-545.296	-145.443	-0.174	-0.016
-544.281	159.588	-0.184	-0.258
-543.266	800.000	-0.042	0.156
-542.252	346.527	0.126	-0.249
-541.237	229.092	-0.240	0.395
-540.223	-71.871	0.288	0.108
-539.208	302.648	-0.188	0.351
-538.193	-128.085	-0.353	0.051
-537.179	28.876	0.020	0.017
-536.164	-43.459	0.107	-0.055
-535.150	30.685	0.244	-0.210
-534.135	800.000	-0.028	0.101
-533.121	-47.823	-0.173	0.084
-532.106	-47.997	-0.038	-0.018
-531.091	-200.000	-0.060	-0.335
-530.077	287.689	-0.051	-0.094
-529.062	800.000	0.060	-0.193
-528.048	115.344	0.115	-0.141
-527.033	-7.679	0.113	-0.077
-526.018	-193.439	0.320	-0.003
-525.004	241.655	0.058	0.098
-523.989	-6.448	0.092	0.063
-522.975	800.000	-0.045	0.181
-521.960	136.950	0.106	-0.139
-520.945	-109.061	0.304	0.065
-519.931	-126.138	-0.020	-0.003
-518.916	136.703	0.231	-0.304
-517.902	-137.246	0.019	-0.002
-516.887	800.000	-0.107	0.329
-515.872	-63.080	0.122	0.051
-514.858	112.600	0.231	-0.281
-513.843	247.162	0.073	0.124
-512.829	-115.200	-0.178	0.034
-511.814	-35.511	-0.253	0.138
-510.799	285.989	0.131	-0.238
-509.785	177.756	-0.183	0.268
-508.770	33.650	0.078	0.068
-507.756	16.495	-0.154	-0.123
-506.741	302.004	0.086	0.161
-505.726	221.308	-0.052	0.084
-504.712	112.565	0.148	0.180
-503.697	578.417	-0.049	0.120
-502.683	800.000	0.103	0.292
-501.668	800.000	0.019	-0.080
-500.653	-167.610	0.287	-0.011
-499.639	102.086	0.146	0.172
-498.624	-200.000	-0.017	-0.150
-497.610	224.653	0.256	0.417
-496.595	127.438	-0.068	0.086
-495.581	147.765	-0.181	-0.245
-494.566	589.491	0.084	0.209
-493.551	4.091	0.187	0.138
-492.537	174.090	0.224	-0.326
-491.522	75.053	-0.167	-0.177
-490.508	644.664	0.081	-0.209
-489.493	-160.723	0.125	0.007
-488.478	-81.790	-0.303	-0.100
-487.464	-200.000	0.008	0.078
-486.449	-200.000	0.003	-0.092
-485.435	44.369	-0.195	0.180
-484.420	800.000	-0.110	0.449
-483.405	-59.489	-0.128	0.055
-482.391	-0.803	-0.282	-0.201
-481.376	83.594	0.150	0.164
-480.362	341.547	-0.043	0.085
-479.347	630.046	0.051	0.129
-478.332	244.279	0.038	-0.064
-477.318	-60.550	-0.058	0.025
-476.303	99.825	-0.273	0.318
-475.289	499.295	0.108	0.250
-474.274	62.655	0.193	-0.194
-473.259	151.258	-0.112	0.153
-472.245	-97.194	0.119	-0.031
-471.230	64.153	-0.204	-0.206
-470.216	297.107	0.150	-0.276
-469.201	53.853	-0.263	0.253
-468.186	800.000	0.106	0.298
-467.172	-140.922	0.230	0.024
-466.157	-141.825	-0.181	-0.018
-465.143	-43.103	0.216	-0.110
-464.128	800.000	0.027	0.084
-463.113	-38.591	-0.271	-0.144
-462.099	-131.409	0.271	-0.036
-461.084	-33.842	-0.630	0.349
-460.070	800.000	-0.030	-0.124
-459.055	-79.045	0.144	-0.049
-458.040	-96.010	0.205	-0.055
-457.026	-7.511	-0.084	-0.057
-456.011	800.000	-0.076	0.280
-454.997	2.829	0.086	0.062
-453.982	800.000	0.075	-0.295
-452.968	-111.991	0.225	-0.046
-451.953	174.856	-0.103	0.150
-450.938	-200.000	-0.024	0.154
-449.924	124.437	-0.133	0.168
-448.909	800.000	-0.072	0.232
-447.895	800.000	0.062	0.269
-446.880	536.567	0.047	-0.113
-445.865	-11.303	-0.203	0.134
-444.851	201.429	0.076	-0.118
-443.836	-97.242	-0.220	0.058
-442.822	18.767	-0.238	0.191
-441.807	52.579	-0.127	-0.121
-440.792	-60.051	0.474	-0.203
-439.778	521.119	0.134	-0.315
-438.763	-96.100	0.139	-0.037
-437.749	-140.417	0.232	0.024
-436.734	113.622	0.245	0.299
-435.719	-99.444	-0.179	0.045
-434.705	-31.505	0.302	-0.170
-433.690	-200.000	0.001	0.211
-432.676	-127.086	-0.319	0.047
-431.661	-101.851	0.083	0.020
-430.646	186.298	0.161	0.240
-429.632	118.670	0.072	0.089
-428.617	-136.056	0.388	0.046
-427.603	-14.267	-0.365	0.236
-426.588	800.000	0.116	0.346
-425.573	155.201	0.172	-0.237
-424.559	-82.350	0.295	0.096
-423.544	230.954	-0.093	0.153
-422.530	232.389	-0.118	0.194
-421.515	-13.397	0.077	0.050
-420.500	137.455	-0.231	-0.304
-419.486	512.036	-0.111	-0.260
-418.471	-88.958	0.313	0.093
-417.457	457.040	-0.115	0.255
-416.442	-50.329	-0.493	-0.234
-415.428	-200.000	0.064	0.341
-414.413	585.719	-0.159	-0.391
-413.398	300.860	0.125	0.232
-412.384	-47.878	0.072	-0.035
-411.369	-99.109	0.087	-0.022
-410.355	-200.000	-0.028	0.221
-409.340	800.000	0.013	-0.040
-408.325	-92.566	0.319	-0.090
-407.311	-200.000	0.020	0.249
-406.296	-52.799	0.184	-0.085
-405.282	398.510	0.023	-0.048
-404.267	340.328	-0.144	-0.282
-403.252	-139.027	0.133	0.014
-402.238	-136.104	0.160	0.019
-401.223	-200.000	0.003	-0.157
-400.209	356.782	0.147	0.295
-399.194	274.230	0.013	0.023
-398.179	64.335	-0.302	0.304
-397.165	249.004	0.193	-0.327
-396.150	800.000	0.114	-0.472
-395.136	-15.443	0.300	0.192
-394.121	-85.162	-0.151	0.047
-393.106	261.753	-0.137	0.237
-392.092	-200.000	-0.021	-0.181
-391.077	85.935	0.193	-0.213
-390.063	142.684	-0.180	-0.240
-389.048	18.477	0.243	0.195
-388.033	89.855	0.053	0.059
-387.019	-55.675	0.226	0.101
-386.004	-166.385	-0.070	-0.003
-384.990	-3.224	0.138	0.096
-383.975	-52.006	0.089	0.041
-382.960	106.227	0.231	0.274
-381.946	800.000	-0.109	-0.337
-380.931	-200.000	-0.008	0.040
-379.917	-87.549	0.421	-0.127
-378.902	41.952	-0.163	0.148
-377.888	312.301	-0.191	-0.359
-376.873	47.823	-0.156	-0.145
-375.858	15.099	-0.081	0.063
-374.844	709.941	0.070	-0.185
-373.829	-153.808	-0.237	-0.016
-372.815	437.539	0.088	-0.192
-371.800	193.114	0.067	0.101
-370.785	407.888	-0.055	-0.115
-369.771	59.134	0.117	0.115
-368.756	55.756	-0.086	-0.083
-367.742	-200.000	0.007	0.066
-366.727	800.000	0.080	-0.257
-365.712	96.606	0.099	0.113
-364.698	4.441	0.374	0.274
-363.683	-200.000	-0.087	-0.499
-362.669	-86.500	0.087	0.027
-361.654	749.339	-0.139	0.374
-360.639	-129.425	-0.230	0.032
-359.625	800.000	0.063	-0.204
-358.610	-47.293	0.112	0.055
-357.596	294.914	-0.047	0.085
-356.581	800.000	-0.113	0.354
-355.566	-169.675	0.172	0.006
-354.552	-135.332	-0.106	0.013
-353.537	-68.056	0.343	0.134
-352.523	-83.436	0.365	-0.117
-351.508	49.691	-0.134	0.126
-350.493	-144.457	-0.180	-0.017
-349.479	800.000	-0.069	0.291
-348.464	736.483	-0.069	0.186
-347.450	-160.973	-0.158	0.008
-346.435	198.349	0.200	-0.306
-345.420	-200.000	0.030	0.319
-344.406	-62.275	-0.410	0.171
-343.391	16.611	0.118	-0.093
-342.377	-31.921	-0.294	0.164
-341.362	-117.816	0.132	0.024
-340.348	163.053	0.102	0.144
-339.333	-43.109	-0.138	-0.070
-338.318	59.230	-0.126	-0.124
-337.304	486.367	-0.085	0.194
-336.289	-74.738	0.346	0.124
-335.275	164.176	0.039	-0.054
-334.260	41.362	-0.325	-0.294
-333.245	43.194	0.232	0.211
-332.231	653.231	-0.024	0.063
-331.216	-200.000	-0.016	0.107
-330.202	-24.987	0.054	-0.032
-329.187	800.000	0.052	0.147
-328.172	800.000	-0.040	0.124
-327.158	-10.207	-0.229	0.152
-326.143	43.272	-0.077	-0.070
-325.129	603.049	0.099	0.246
-324.114	-175.188	-0.228	-0.006
-323.099	265.659	0.059	-0.103
-322.085	-42.906	-0.407	-0.206
-321.070	-101.030	0.232	0.057
-320.056	-145.825	-0.149	-0.013
-319.041	-117.838	-0.108	0.019
-318.026	-200.000	-0.018	-0.111
-317.012	-87.660	0.105	0.032
-315.997	-67.280	0.168	-0.066
-314.983	702.430	0.051	-0.133
-313.968	378.420	-0.139	-0.284
-312.953	800.000	0.059	-0.208
-311.939	-143.282	-0.288	-0.028
-310.924	162.345	-0.162	0.228
-309.910	-103.661	0.115	-0.027
-308.895	-32.896	0.199	-0.110
-307.880	-179.236	-0.070	0.002
-306.866	-107.606	-0.347	-0.076
-305.851	95.384	-0.190	0.217
-304.837	-51.869	-0.177	-0.082
-303.822	-199.490	-0.099	0.001
-302.807	14.618	0.082	0.064
-301.793	-75.190	-0.226	-0.081
-300.778	313.192	-0.151	-0.283
-299.764	310.426	-0.126	0.235
-298.749	327.820	0.092	-0.177
-297.735	-29.852	-0.264	-0.150
-296.720	-200.000	-0.010	0.064
-295.705	-64.485	-0.147	0.060
-294.691	-4.679	-0.261	-0.180
-293.676	-200.000	-0.017	-0.191
-292.662	76.046	0.062	0.065
-291.647	564.107	-0.105	-0.254
-290.632	-200.000	0.035	-0.270
-289.618	45.316	0.052	0.048
-288.603	715.642	-0.054	-0.142
-287.589	800.000	-0.056	0.229
-286.574	-93.081	-0.221	-0.061
-285.559	269.126	0.016	0.028
-284.545	36.674	-0.052	-0.045
-283.530	-4.791	0.188	0.129
-282.516	-121.541	0.383	0.063
-281.501	-200.000	0.008	0.270
-280.486	-77.697	0.325	0.112
-279.472	800.000	-0.044	0.154
-278.457	2.197	-0.134	-0.097
-277.443	-200.000	-0.041	0.248
-276.428	29.937	0.315	0.268
-275.413	-28.184	0.211	-0.122
-274.399	-200.000	-0.024	-0.328
-273.384	-109.399	-0.049	0.010
-272.370	48.967	0.067	-0.063
-271.355	800.000	-0.116	0.450
-270.340	-19.534	-0.123	-0.076
-269.326	-23.286	0.074	-0.044
-268.311	15.070	0.073	-0.057
-267.297	-163.998	0.181	-0.008
-266.282	-132.374	0.496	0.064
-265.267	327.366	0.126	-0.241
-264.253	86.611	0.108	0.118
-263.238	-18.224	-0.304	-0.190
-262.224	26.414	-0.241	-0.201
-261.209	-44.556	0.093	-0.046
-260.195	65.094	0.070	0.070
-259.180	57.605	0.211	0.206
-258.165	340.224	0.080	-0.155
-257.151	800.000	0.045	-0.191
-256.136	197.662	-0.197	0.299
-255.122	-133.344	0.339	0.043
-254.107	-43.152	0.192	0.097
-253.092	4.470	-0.118	0.086
-252.078	800.000	-0.013	0.055
-251.063	800.000	-0.031	-0.089
-250.049	-200.000	0.013	-0.132
-249.034	69.093	-0.072	0.073
-248.019	257.129	0.049	-0.084
-247.005	72.817	0.071	0.074
-245.990	800.000	-0.055	0.170
-244.976	116.109	-0.174	-0.212
-243.961	-200.000	0.016	-0.155
-242.946	-200.000	-0.009	-0.112
-241.932	800.000	0.095	0.307
-240.917	-31.563	-0.286	0.160
-239.903	20.135	-0.123	-0.099
-238.888	-63.375	0.216	-0.089
-237.873	-136.149	0.629	-0.073
-236.859	-131.192	0.225	-0.030
-235.844	-53.246	-0.202	-0.092
-234.830	-33.236	-0.130	-0.072
-233.815	13.395	0.176	0.136
-232.800	800.000	0.023	0.097
-231.786	-12.444	-0.051	-0.033
-230.771	800.000	-0.040	0.123
-229.757	800.000	0.063	0.230
-228.742	-200.000	0.063	-0.412
-227.727	-120.257	-0.199	-0.034
-226.713	39.671	-0.339	0.303
-225.698	-81.213	-0.244	-0.080
-224.684	19.760	0.059	-0.047
-223.669	197.618	-0.169	0.257
-222.655	-200.000	-0.003	0.028
-221.640	-93.104	0.235	-0.065
-220.625	394.023	-0.152	0.316
-219.611	16.818	0.133	0.105
-218.596	146.851	0.125	0.167
-217.582	600.844	0.073	-0.180
-216.567	-47.903	-0.299	0.144
-215.552	28.988	0.145	0.122
-214.538	-168.535	0.291	-0.011
-213.523	-26.766	-0.115	-0.067
-212.509	-200.000	0.017	0.120
-211.494	-101.783	0.420	0.101
-210.479	-200.000	0.007	-0.114
-209.465	-200.000	-0.009	0.104
-208.450	286.711	0.052	-0.093
-207.436	-200.000	0.024	-0.199
-206.421	234.576	-0.165	0.270
-205.406	800.000	0.023	0.095
-204.392	800.000	0.024	-0.084
-203.377	48.790	-0.117	0.110
-202.363	-48.731	0.208	-0.099
-201.348	87.720	0.214	-0.236
-200.333	800.000	0.055	-0.156
-199.319	-27.824	0.105	0.061
-198.304	-108.314	-0.222	-0.048
-197.290	-87.936	-0.105	0.031
-196.275	-14.459	0.153	-0.098
-195.260	166.578	0.122	-0.173
-194.246	-26.188	0.212	-0.124
-193.231	-68.488	-0.272	-0.105
-192.217	-200.000	0.033	0.245
-191.202	73.146	-0.083	0.086
-190.187	131.462	-0.209	-0.267
-189.173	245.375	0.162	-0.271
-188.158	-112.551	0.347	0.069
-187.144	-18.401	0.195	-0.121
-186.129	-200.000	-0.085	-0.424
-185.114	-200.000	0.045	-0.518
-184.100	-200.000	-0.047	-0.205
-183.085	800.000	-0.124	-0.374
-182.071	112.728	-0.309	-0.372
-181.056	125.125	0.127	0.159
-180.042	-149.331	0.190	-0.015
-179.027	-76.997	0.221	0.077
-178.012	800.000	0.036	-0.127
-176.998	271.663	0.131	0.229
-175.983	13.722	0.317	-0.245
-174.969	-20.553	0.035	0.022
-173.954	23.028	-0.140	-0.114
-172.939	-59.140	-0.390	0.167
-171.925	-34.167	0.188	0.102
-170.910	-107.990	-0.231	0.050
-169.896	-122.630	-0.238	0.038
-168.881	-32.735	0.661	0.365
-167.866	8.356	0.275	0.205
-166.852	-200.000	-0.048	0.416
-165.837	800.000	0.126	-0.514
-164.823	23.011	-0.172	0.140
-163.808	-200.000	-0.015	0.328
-162.793	-65.133	0.195	0.078
-161.779	-113.181	-0.372	-0.073
-160.764	2.706	-0.215	0.155
-159.750	-99.899	-0.176	0.044
-158.735	800.000	0.081	0.321
-157.720	-87.719	0.292	-0.088
-156.706	-200.000	0.021	0.408
-155.691	206.897	-0.059	0.091
-154.677	151.362	-0.176	0.238
-153.662	-103.850	0.462	0.107
-152.647	-15.616	-0.172	-0.109
-151.633	560.820	-0.146	0.351
-150.618	152.765	-0.192	-0.260
-149.604	232.881	-0.068	0.110
-148.589	800.000	-0.032	-0.116
-147.574	-135.173	-0.181	0.022
-146.560	-200.000	-0.031	-0.201
-145.545	640.508	-0.052	-0.131
-144.531	-135.661	0.103	0.012
-143.516	35.033	-0.143	0.124
-142.502	-200.000	-0.012	0.133
-141.487	561.406	0.186	-0.446
-140.472	244.619	0.154	0.257
-139.458	-95.645	0.143	-0.038
-138.443	-147.069	0.070	0.006
-137.429	-192.034	0.457	-0.004
-136.414	17.043	0.110	0.086
-135.399	-137.161	-0.153	0.017
-134.385	-4.774	-0.130	0.089
-133.370	-29.219	-0.165	0.094
-132.356	457.273	0.081	0.178
-131.341	-200.000	0.007	0.067
-130.326	99.014	-0.092	0.105
-129.312	-200.000	0.034	0.176
-128.297	69.236	0.137	0.139
-127.283	8.196	0.223	0.166
-126.268	564.697	-0.130	0.312
-125.253	-76.694	0.234	0.081
-124.239	-155.772	-0.259	-0.016
-123.224	-200.000	-0.000	0.240
-122.210	85.594	0.248	0.270
-121.195	584.085	0.092	-0.224
-120.180	800.000	-0.079	-0.261
