DTS Sentinel unit serial number:	SN413079Multiplexer serial number:	ORYXHardware model number:	OX4-SRSoftware version number:	ORYX F/W v4.00 Oryx Data Collector v3.7.2.0data status	okinstallation	princeton_trtdifferential loss correction	single-endedforward channel	channel 4reverse channel	N/Adate	2019/09/18time	06:37:35forward acquisition time	60.00reverse acquisition time	0.00gamma	496.2192k internal	0.2332k external	0.2332temperature offset calibration	0.9998default loss term (dB/km)	0.3790temperature slope calibration	1.0000multiplexer offset coefficient	1.0000multiplexer slope coefficient	1.0000fibre end	0.00T internal ref (°C)	23.28T ext. ref 1 (°C)	0.19T ext. ref 2 (°C)	17.16length (m)	temperature (°C)	Stokes	anti-Stokes-747.200	223.375	-0.097	0.157
-746.185	-42.932	-0.240	0.123
-745.171	-200.000	0.010	0.180
-744.156	-200.000	0.021	-0.179
-743.142	432.527	0.130	0.284
-742.127	146.795	-0.217	0.294
-741.112	-63.890	-0.325	-0.134
-740.098	-72.077	-0.226	-0.084
-739.083	357.121	-0.147	-0.295
-738.069	-200.000	-0.033	0.253
-737.054	800.000	-0.100	0.323
-736.039	-200.000	0.006	0.231
-735.025	-145.205	-0.141	-0.013
-734.010	49.494	-0.144	-0.136
-732.996	62.241	-0.282	-0.283
-731.981	386.691	-0.139	-0.289
-730.966	-122.866	-0.188	-0.030
-729.952	21.911	0.112	-0.092
-728.937	394.716	0.135	0.283
-727.923	740.639	-0.046	-0.125
-726.908	130.582	0.069	0.088
-725.894	-119.351	-0.393	-0.069
-724.879	-90.760	0.395	0.114
-723.864	-99.640	-0.152	0.038
-722.850	-124.583	0.086	-0.013
-721.835	-39.269	0.286	0.151
-720.821	-53.514	-0.311	0.143
-719.806	39.049	-0.198	-0.178
-718.791	508.316	0.071	-0.166
-717.777	505.603	-0.113	-0.263
-716.762	624.688	-0.079	-0.200
-715.748	30.401	-0.065	0.056
-714.733	-200.000	-0.010	-0.124
-713.718	-26.962	0.203	0.119
-712.704	-121.058	-0.117	-0.020
-711.689	316.468	-0.139	0.264
-710.675	-102.896	-0.105	-0.025
-709.660	800.000	0.084	0.302
-708.645	48.329	0.066	-0.062
-707.631	319.184	-0.146	-0.277
-706.616	111.846	0.185	0.225
-705.602	-200.000	0.043	0.350
-704.587	-58.086	-0.320	-0.140
-703.572	-36.126	0.314	0.171
-702.558	-200.000	-0.008	0.045
-701.543	0.814	-0.082	-0.059
-700.529	-17.366	0.572	0.362
-699.514	5.689	0.241	-0.179
-698.499	150.563	-0.150	-0.205
-697.485	-6.500	-0.257	-0.176
-696.470	106.527	0.146	-0.174
-695.456	800.000	0.061	0.199
-694.441	-76.360	0.117	-0.041
-693.426	36.677	0.292	-0.259
-692.412	-136.270	-0.459	-0.054
-691.397	404.379	-0.106	0.224
-690.383	-200.000	-0.020	0.372
-689.368	-114.915	-0.308	0.059
-688.354	-200.000	-0.016	-0.107
-687.339	-135.717	-0.093	-0.011
-686.324	122.657	-0.241	-0.303
-685.310	60.668	0.211	-0.210
-684.295	249.089	-0.068	0.115
-683.281	9.420	-0.065	-0.050
-682.266	-37.145	0.176	-0.095
-681.251	-3.384	-0.025	0.018
-680.237	517.835	0.103	-0.242
-679.222	-40.803	0.086	0.045
-678.208	-200.000	0.044	0.228
-677.193	-141.694	-0.068	-0.007
-676.178	-200.000	0.002	-0.148
-675.164	52.879	-0.190	-0.182
-674.149	196.898	-0.201	-0.307
-673.135	21.887	-0.154	-0.126
-672.120	800.000	0.060	0.257
-671.105	2.569	-0.149	0.109
-670.091	716.042	0.097	0.259
-669.076	-60.026	-0.196	0.084
-668.062	-24.586	-0.122	0.073
-667.047	28.546	0.041	0.035
-666.032	-200.000	0.040	-0.177
-665.018	650.265	-0.052	0.134
-664.003	-134.044	-0.101	-0.013
-662.989	271.945	-0.217	0.383
-661.974	-156.126	0.252	0.016
-660.959	-42.028	0.127	0.065
-659.945	-74.131	0.133	0.048
-658.930	614.697	0.115	-0.288
-657.916	-123.136	-0.243	-0.039
-656.901	-99.857	0.122	0.031
-655.886	-99.295	-0.258	-0.065
-654.872	441.073	0.181	-0.397
-653.857	6.653	-0.127	-0.095
-652.843	6.012	0.353	0.262
-651.828	102.312	-0.125	-0.146
-650.814	134.436	0.104	0.135
-649.799	800.000	-0.062	0.229
-648.784	67.829	0.210	0.215
-647.770	-25.772	0.293	-0.173
-646.755	61.610	0.040	-0.040
-645.741	32.875	0.136	0.118
-644.726	116.104	-0.174	-0.213
-643.711	142.584	-0.116	-0.155
-642.697	-65.845	0.416	0.167
-641.682	116.371	-0.132	0.163
-640.668	-122.407	0.246	0.040
-639.653	-19.321	-0.300	-0.187
-638.638	-200.000	-0.011	-0.097
-637.624	297.780	0.024	-0.045
-636.609	6.479	0.192	-0.143
-635.595	-200.000	0.011	-0.308
-634.580	-126.934	0.198	-0.029
-633.565	-42.452	-0.235	0.120
-632.551	14.115	-0.143	-0.111
-631.536	2.022	0.268	0.194
-630.522	-32.879	-0.210	0.117
-629.507	-108.763	-0.344	0.074
-628.492	-41.311	0.188	0.097
-627.478	97.653	0.162	0.186
-626.463	791.899	-0.142	0.391
-625.449	30.594	-0.179	-0.154
-624.434	-200.000	0.041	-0.522
-623.419	85.474	-0.036	0.040
-622.405	-8.716	-0.123	-0.083
-621.390	-41.995	0.059	-0.030
-620.376	72.596	-0.231	0.241
-619.361	800.000	-0.029	0.114
-618.346	10.056	0.190	-0.145
-617.332	-24.484	-0.194	-0.116
-616.317	-18.332	-0.162	-0.101
-615.303	79.862	0.255	0.275
-614.288	-200.000	-0.002	0.372
-613.273	298.053	0.178	0.327
-612.259	-200.000	-0.012	0.275
-611.244	394.702	-0.091	-0.189
-610.230	-17.120	0.213	-0.134
-609.215	-13.538	0.222	-0.144
-608.201	-75.917	0.229	0.081
-607.186	-200.000	-0.010	0.104
-606.171	39.923	-0.226	-0.203
-605.157	195.491	0.120	-0.183
-604.142	10.945	-0.108	-0.083
-603.128	-27.382	-0.034	0.020
-602.113	-200.000	0.019	0.229
-601.098	-46.111	-0.295	-0.145
-600.084	137.428	0.075	0.099
-599.069	50.155	-0.186	0.175
-598.055	46.334	0.171	0.159
-597.040	-12.650	0.492	0.321
-596.025	-81.238	-0.101	-0.033
-595.011	93.349	0.048	-0.054
-593.996	147.213	-0.076	0.103
-592.982	-24.497	0.169	-0.101
-591.967	-30.220	-0.222	-0.126
-590.952	231.371	0.133	-0.219
-589.938	-145.710	-0.114	0.010
-588.923	-111.656	-0.004	-0.001
-587.909	-102.133	-0.140	-0.034
-586.894	-66.287	0.381	0.152
-585.879	-110.345	-0.293	-0.061
-584.865	-163.764	0.134	0.006
-583.850	-50.248	0.124	0.058
-582.836	208.165	0.090	-0.140
-581.821	84.830	0.035	-0.038
-580.806	-61.187	0.261	-0.110
-579.792	-76.061	-0.124	-0.044
-578.777	312.713	0.027	-0.051
-577.763	-49.600	-0.112	-0.053
-576.748	800.000	-0.015	0.051
-575.733	-144.033	-0.228	-0.021
-574.719	-41.452	0.167	-0.086
-573.704	354.627	0.094	-0.186
-572.690	-88.957	0.218	-0.064
-571.675	-82.052	-0.067	0.022
-570.661	800.000	0.074	-0.204
-569.646	164.199	-0.085	0.119
-568.631	160.618	-0.113	0.157
-567.617	-175.753	-0.056	-0.002
-566.602	800.000	-0.036	-0.104
-565.588	45.062	0.123	0.113
-564.573	415.015	-0.044	0.094
-563.558	221.221	-0.115	-0.184
-562.544	-79.424	0.282	0.095
-561.529	55.818	0.092	-0.089
-560.515	-179.310	-0.225	-0.005
-559.500	-200.000	-0.003	0.061
-558.485	-105.324	0.115	0.026
-557.471	-187.907	-0.215	0.003
-556.456	-76.524	-0.143	0.050
-555.442	-28.171	-0.289	-0.167
-554.427	-117.548	0.100	0.018
-553.412	52.956	-0.235	-0.224
-552.398	-13.839	-0.212	-0.137
-551.383	800.000	0.059	-0.206
-550.369	800.000	0.120	0.409
-549.354	-69.741	-0.142	-0.054
-548.339	-7.374	-0.127	-0.086
-547.325	-200.000	0.007	-0.221
-546.310	-200.000	0.009	-0.098
-545.296	314.747	-0.085	-0.161
-544.281	-200.000	-0.020	-0.094
-543.266	-93.109	-0.031	0.009
-542.252	14.471	0.073	-0.057
-541.237	-200.000	-0.029	-0.290
-540.223	-200.000	0.020	0.207
-539.208	-200.000	0.031	-0.260
-538.193	-99.053	-0.116	-0.029
-537.179	208.673	0.057	0.089
-536.164	68.104	-0.121	0.124
-535.150	800.000	0.065	0.188
-534.135	-145.438	-0.078	0.007
-533.121	-161.444	-0.280	-0.014
-532.106	317.737	0.115	-0.217
-531.091	-47.717	-0.176	-0.085
-530.077	156.362	0.194	-0.267
-529.062	30.949	0.111	0.094
-528.048	96.690	-0.062	0.071
-527.033	-16.381	0.170	0.107
-526.018	22.330	-0.226	-0.184
-525.004	519.312	0.081	-0.190
-523.989	-59.576	-0.171	-0.073
-522.975	44.758	0.082	-0.075
-521.960	800.000	0.024	0.092
-520.945	-44.088	0.172	0.086
-519.931	-200.000	-0.032	0.159
-518.916	208.220	-0.122	-0.191
-517.902	-200.000	-0.063	-0.409
-516.887	14.634	0.232	-0.181
-515.872	-7.112	0.215	0.145
-514.858	-24.091	0.103	-0.061
-513.843	-200.000	-0.020	0.170
-512.829	280.824	0.132	0.235
-511.814	-140.976	0.079	0.008
-510.799	85.576	0.321	0.351
-509.785	-4.390	0.166	-0.114
-508.770	19.833	-0.143	-0.115
-507.756	451.346	-0.066	0.146
-506.741	-30.574	0.141	0.079
-505.726	-200.000	-0.065	-0.409
-504.712	-52.877	-0.101	-0.046
-503.697	121.531	-0.066	-0.083
-502.683	115.228	-0.144	-0.176
-501.668	198.396	0.102	-0.155
-500.653	-61.112	0.094	0.040
-499.639	-22.679	-0.233	0.140
-498.624	0.637	-0.048	0.034
-497.610	-144.007	0.204	0.019
-496.595	-200.000	-0.000	0.054
-495.581	-127.176	0.318	0.046
-494.566	-182.686	0.346	-0.006
-493.551	24.154	-0.137	-0.112
-492.537	-200.000	0.026	-0.117
-491.522	-96.684	-0.151	-0.040
-490.508	268.578	-0.087	0.152
-489.493	-200.000	0.006	0.248
-488.478	195.557	-0.132	0.199
-487.464	800.000	0.062	0.220
-486.449	22.784	-0.118	0.096
-485.435	800.000	-0.092	-0.380
-484.420	183.846	-0.214	-0.315
-483.405	-158.129	0.123	-0.007
-482.391	150.676	-0.253	0.342
-481.376	-80.211	0.237	0.079
-480.362	-139.049	-0.176	-0.019
-479.347	800.000	-0.049	0.151
-478.332	-30.524	-0.185	-0.104
-477.318	240.521	0.060	0.099
-476.303	234.093	-0.088	-0.144
-475.289	-200.000	-0.020	0.287
-474.274	105.856	0.095	0.112
-473.259	-115.117	0.170	-0.032
-472.245	-62.320	-0.198	0.082
-471.230	-60.980	-0.360	0.151
-470.216	258.194	-0.137	-0.234
-469.201	384.285	0.198	-0.407
-468.186	56.021	-0.172	-0.166
-467.172	100.221	-0.137	-0.158
-466.157	10.253	-0.185	-0.140
-465.143	-200.000	0.023	-0.151
-464.128	-93.801	-0.081	-0.022
-463.113	-92.979	-0.183	-0.051
-462.099	310.310	0.115	-0.214
-461.084	339.347	-0.145	-0.281
-460.070	-83.977	0.366	0.116
-459.055	192.923	-0.115	-0.173
-458.040	735.151	0.072	0.191
-457.026	124.196	0.138	0.172
-456.011	-93.980	0.111	0.030
-454.997	-200.000	0.045	0.230
-453.982	-99.076	0.229	-0.058
-452.968	800.000	-0.061	0.231
-451.953	156.320	-0.157	0.215
-450.938	-136.891	0.309	0.035
-449.924	800.000	-0.070	0.275
-448.909	-1.595	0.088	-0.062
-447.895	64.535	-0.076	-0.076
-446.880	696.226	0.084	-0.220
-445.865	22.269	0.176	0.143
-444.851	-200.000	0.021	-0.200
-443.836	-71.658	0.146	-0.054
-442.822	800.000	0.027	-0.084
-441.807	800.000	-0.046	0.173
-440.792	800.000	0.041	-0.154
-439.778	332.347	-0.092	0.177
-438.763	-16.343	-0.079	-0.050
-437.749	229.523	-0.027	0.044
-436.734	-149.128	0.115	0.009
-435.719	-127.843	0.114	0.016
-434.705	-200.000	0.060	-0.300
-433.690	800.000	0.055	-0.179
-432.676	3.615	-0.124	-0.090
-431.661	-200.000	-0.025	0.270
-430.646	-200.000	0.007	0.221
-429.632	-101.225	0.201	0.049
-428.617	-91.395	0.189	-0.054
-427.603	73.073	-0.312	0.324
-426.588	800.000	-0.046	0.136
-425.573	-141.616	0.185	0.019
-424.559	-40.238	-0.200	0.103
-423.544	-200.000	0.017	-0.129
-422.530	-119.941	0.335	-0.057
-421.515	-200.000	-0.035	0.528
-420.500	-153.477	0.242	-0.017
-419.486	458.175	0.238	-0.526
-418.471	17.152	-0.256	0.202
-417.457	-156.065	-0.172	0.011
-416.442	-170.294	0.545	-0.019
-415.428	-200.000	-0.011	-0.348
-414.413	-37.694	-0.252	-0.133
-413.398	-200.000	0.022	0.500
-412.384	168.489	-0.133	0.188
-411.369	-168.780	0.173	0.006
-410.355	-200.000	-0.060	0.273
-409.340	-200.000	0.017	0.086
-408.325	78.128	-0.174	-0.184
-407.311	102.996	-0.102	0.118
-406.296	-29.051	0.025	0.014
-405.282	134.869	0.120	-0.154
-404.267	-200.000	-0.006	-0.241
-403.252	-80.431	-0.154	-0.051
-402.238	112.044	0.198	0.238
-401.223	-61.117	-0.166	0.069
-400.209	-71.343	-0.075	-0.028
-399.194	374.495	-0.149	-0.300
-398.179	-162.418	-0.219	0.011
-397.165	800.000	0.029	-0.105
-396.150	800.000	0.016	0.060
-395.136	120.165	0.030	-0.037
-394.121	-200.000	-0.005	-0.339
-393.106	-32.869	-0.086	-0.047
-392.092	-200.000	-0.010	0.086
-391.077	-50.094	-0.105	0.049
-390.063	336.780	0.114	0.220
-389.048	45.797	0.174	0.160
-388.033	800.000	0.107	-0.426
-387.019	-175.436	-0.089	-0.002
-386.004	-200.000	0.018	0.357
-384.990	-120.532	-0.445	-0.075
-383.975	-61.997	0.192	-0.080
-382.960	-81.945	0.123	-0.040
-381.946	800.000	-0.080	-0.320
-380.931	-68.917	0.231	-0.088
-379.917	800.000	-0.067	0.263
-378.902	-200.000	-0.046	0.241
-377.888	627.403	-0.115	0.288
-376.873	800.000	-0.036	0.100
-375.858	-200.000	-0.027	0.178
-374.844	212.795	-0.099	-0.155
-373.829	-200.000	0.006	0.041
-372.815	-167.853	-0.132	0.005
-371.800	-86.333	-0.204	-0.062
-370.785	285.184	0.016	0.029
-369.771	-16.518	0.229	-0.144
-368.756	112.389	0.377	0.452
-367.742	800.000	0.019	0.068
-366.727	800.000	-0.047	-0.179
-365.712	-200.000	-0.019	-0.174
-364.698	-88.827	-0.237	-0.070
-363.683	-112.317	-0.452	-0.090
-362.669	-45.666	0.139	0.068
-361.654	-45.544	-0.266	-0.130
-360.639	-111.702	0.107	-0.021
-359.625	800.000	-0.111	0.461
-358.610	-200.000	0.003	0.047
-357.596	326.963	-0.129	0.245
-356.581	665.560	0.123	0.316
-355.566	800.000	-0.035	-0.139
-354.552	790.394	0.090	0.246
-353.537	-200.000	-0.043	0.281
-352.523	70.558	0.098	-0.100
-351.508	236.493	-0.185	0.303
-350.493	-44.500	-0.056	0.028
-349.479	800.000	-0.050	-0.189
-348.464	26.592	-0.125	0.104
-347.450	81.349	0.178	0.191
-346.435	94.573	-0.066	-0.075
-345.420	76.106	-0.057	0.060
-344.406	108.127	-0.078	0.092
-343.391	204.352	0.160	0.246
-342.377	-200.000	0.009	-0.075
-341.362	198.412	-0.064	0.097
-340.348	-68.105	-0.171	0.066
-339.333	-91.972	0.190	0.053
-338.318	196.063	-0.150	0.227
-337.304	59.398	0.209	0.203
-336.289	-98.778	0.090	-0.023
-335.275	-8.778	0.219	-0.145
-334.260	82.366	0.159	-0.170
-333.245	150.000	-0.280	0.376
-332.231	-28.962	-0.123	0.070
-331.216	103.194	-0.107	-0.124
-330.202	25.975	-0.155	-0.128
-329.187	800.000	-0.085	-0.247
-328.172	315.521	0.074	-0.138
-327.158	-200.000	0.239	0.000
-326.143	-21.304	0.166	-0.100
-325.129	-68.067	-0.251	-0.097
-324.114	-18.734	-0.068	-0.042
-323.099	-111.652	0.145	0.029
-322.085	168.565	-0.136	0.192
-321.070	268.017	0.048	0.084
-320.056	-181.352	-0.215	-0.004
-319.041	-101.165	-0.253	-0.061
-318.026	-105.427	0.114	-0.026
-317.012	-114.308	0.305	0.058
-315.997	-120.027	-0.193	-0.033
-314.983	-8.754	-0.351	0.233
-313.968	800.000	0.029	0.098
-312.953	-141.177	-0.309	0.031
-311.939	-155.890	0.147	-0.009
-310.924	-96.081	-0.054	0.014
-309.910	446.643	-0.125	0.273
-308.895	-58.419	0.197	-0.085
-307.880	76.646	0.125	-0.131
-306.866	-141.649	-0.099	-0.010
-305.851	-88.758	0.293	-0.086
-304.837	-96.934	0.252	-0.065
-303.822	346.089	0.056	0.109
-302.807	94.398	0.283	0.318
-301.793	-97.756	0.341	-0.087
-300.778	148.360	0.138	0.184
-299.764	-22.183	-0.434	-0.260
-298.749	-200.000	0.004	0.178
-297.735	-98.501	-0.232	0.059
-296.720	-86.578	0.366	0.111
-295.705	-29.185	-0.146	0.082
-294.691	378.892	0.151	0.306
-293.676	469.294	-0.102	-0.227
-292.662	800.000	-0.103	-0.321
-291.647	19.860	-0.259	-0.206
-290.632	394.200	-0.062	0.127
-289.618	-200.000	0.002	-0.269
-288.603	198.347	0.060	-0.091
-287.589	-200.000	0.036	-0.528
-286.574	245.036	-0.059	-0.098
-285.559	25.161	0.146	0.120
-284.545	17.821	-0.084	-0.066
-283.530	-130.417	-0.119	-0.016
-282.516	260.562	-0.027	-0.047
-281.501	93.144	-0.057	0.063
-280.486	42.319	0.069	0.062
-279.472	-79.083	0.032	0.011
-278.457	339.177	-0.098	-0.188
-277.443	635.646	-0.036	0.092
-276.428	800.000	-0.113	-0.345
-275.413	-57.424	0.407	0.177
-274.399	73.256	-0.101	0.104
-273.384	-0.149	-0.229	-0.161
-272.370	388.804	-0.087	0.179
-271.355	-89.734	-0.173	0.050
-270.340	-200.000	0.011	-0.068
-269.326	-200.000	-0.021	0.297
-268.311	-134.226	0.243	0.030
-267.297	800.000	0.016	-0.062
-266.282	164.276	0.078	-0.108
-265.267	-200.000	-0.059	0.262
-264.253	4.308	0.159	-0.115
-263.238	-80.929	-0.469	0.154
-262.224	-200.000	-0.018	0.097
-261.209	-109.477	0.045	-0.009
-260.195	-200.000	-0.012	-0.114
-259.180	-199.950	0.036	-0.000
-258.165	-155.578	-0.207	0.013
-257.151	-200.000	-0.042	0.225
-256.136	231.671	-0.081	0.132
-255.122	-23.984	0.111	-0.066
-254.107	-200.000	-0.036	-0.331
-253.092	-99.892	-0.108	0.027
-252.078	-15.163	-0.101	0.064
-251.063	-122.507	0.190	0.031
-250.049	-161.358	-0.315	0.016
-249.034	-29.947	-0.135	0.076
-248.019	555.724	-0.165	-0.392
-247.005	-82.446	0.243	0.078
-245.990	800.000	0.113	-0.379
-244.976	800.000	0.074	-0.309
-243.961	155.971	0.100	-0.137
-242.946	-15.202	-0.213	0.135
-241.932	-200.000	0.022	0.265
-240.917	-74.750	-0.326	0.115
-239.903	-80.437	0.063	0.021
-238.888	-37.077	-0.025	0.013
-237.873	-159.014	-0.184	-0.010
-236.859	-200.000	-0.013	-0.184
-235.844	10.430	-0.414	-0.311
-234.830	-40.570	0.296	-0.151
-233.815	-43.716	-0.215	-0.107
-232.800	-200.000	0.019	-0.088
-231.786	43.514	-0.216	0.195
-230.771	-26.237	0.291	0.168
-229.757	800.000	0.073	-0.204
-228.742	365.307	-0.096	0.190
-227.727	-200.000	-0.035	0.208
-226.713	-28.332	-0.069	-0.039
-225.698	574.766	-0.176	-0.423
-224.684	131.005	0.204	0.258
-223.669	-162.602	0.216	-0.010
-222.655	-92.963	0.232	0.064
-221.640	140.808	0.097	0.127
-220.625	800.000	0.047	0.151
-219.611	7.906	0.105	0.077
-218.596	-100.366	0.205	-0.050
-217.582	163.040	0.142	0.196
-216.567	363.286	0.089	0.176
-215.552	165.575	0.078	-0.108
-214.538	30.047	0.147	-0.124
-213.523	-53.288	-0.160	-0.072
-212.509	-200.000	0.005	-0.072
-211.494	-31.419	-0.178	-0.099
-210.479	-44.327	-0.154	0.076
-209.465	25.883	-0.133	-0.109
-208.450	457.260	-0.122	-0.268
-207.436	800.000	-0.106	0.427
-206.421	-134.929	0.065	0.008
-205.406	800.000	0.045	0.186
-204.392	10.992	0.239	-0.180
-203.377	-7.861	-0.303	0.201
-202.363	-200.000	-0.046	0.223
-201.348	-56.620	-0.172	-0.075
-200.333	-129.398	0.229	0.031
-199.319	706.658	-0.067	0.174
-198.304	44.682	-0.110	0.100
-197.290	-14.492	0.154	-0.098
-196.275	-91.362	0.242	-0.068
-195.260	-200.000	-0.045	0.406
-194.246	240.281	0.248	0.406
-193.231	-112.404	0.165	0.032
-192.217	242.410	0.034	-0.056
-191.202	-200.000	0.051	0.231
-190.187	-126.718	-0.137	0.020
-189.173	-200.000	-0.009	-0.194
-188.158	218.919	0.119	0.188
-187.144	-200.000	-0.009	-0.387
-186.129	-101.929	0.322	0.077
-185.114	-39.316	0.077	0.040
-184.100	368.205	0.070	0.139
-183.085	800.000	-0.027	-0.113
-182.071	486.997	0.026	-0.059
-181.056	-85.445	-0.232	-0.071
-180.042	-200.000	-0.005	-0.105
-179.027	-200.000	-0.010	-0.269
-178.012	-151.034	0.277	-0.021
-176.998	222.840	0.185	-0.293
-175.983	800.000	0.054	-0.169
-174.969	155.189	-0.181	-0.245
-173.954	389.779	0.092	-0.188
-172.939	-200.000	0.006	0.179
-171.925	-200.000	0.015	-0.148
-170.910	-200.000	-0.012	0.423
-169.896	286.378	-0.135	-0.240
-168.881	-55.860	0.210	0.092
-167.866	-200.000	-0.014	-0.300
-166.852	-200.000	0.049	-0.408
-165.837	800.000	-0.038	-0.128
-164.823	-200.000	-0.055	0.298
-163.808	-200.000	-0.007	0.100
-162.793	-200.000	0.016	0.078
-161.779	341.318	0.077	-0.147
-160.764	-200.000	-0.025	-0.114
-159.750	-67.486	0.174	-0.067
-158.735	-200.000	0.014	-0.158
-157.720	60.928	-0.131	-0.128
-156.706	800.000	0.013	0.058
-155.691	717.345	0.071	0.185
-154.677	21.837	0.149	0.119
-153.662	-99.767	0.175	-0.043
-152.647	36.848	-0.041	0.036
-151.633	800.000	0.068	-0.241
-150.618	-21.368	-0.105	-0.063
-149.604	268.733	-0.197	0.340
-148.589	-110.833	0.186	0.038
-147.574	785.623	0.104	-0.280
-146.560	188.524	-0.246	-0.362
-145.545	-200.000	-0.003	-0.266
-144.531	800.000	-0.038	-0.157
-143.516	-140.389	-0.356	0.036
-142.502	765.498	-0.074	0.196
-141.487	-159.898	-0.328	-0.018
-140.472	54.148	0.077	-0.073
-139.458	-200.000	-0.000	0.251
-138.443	-200.000	0.015	0.396
-137.429	-149.366	0.490	-0.038
-136.414	-141.290	0.127	-0.013
-135.399	-30.925	0.160	-0.089
-134.385	-200.000	-0.016	-0.115
-133.370	-200.000	0.001	0.107
-132.356	167.232	0.108	0.151
-131.341	272.282	-0.072	0.125
-130.326	65.162	-0.152	-0.151
-129.312	-200.000	-0.016	0.239
-128.297	-21.291	0.061	-0.037
-127.283	-200.000	0.050	0.265
-126.268	-158.771	0.331	-0.019
-125.253	-34.241	-0.136	0.073
-124.239	-38.955	0.075	0.039
-123.224	-158.698	0.188	-0.011
-122.210	162.285	0.045	0.062
