DTS Sentinel unit serial number:	SN413079Multiplexer serial number:	ORYXHardware model number:	OX4-SRSoftware version number:	ORYX F/W v4.00 Oryx Data Collector v3.7.2.0data status	okinstallation	princeton_trtdifferential loss correction	single-endedforward channel	channel 4reverse channel	N/Adate	2019/09/16time	16:09:35forward acquisition time	60.00reverse acquisition time	0.00gamma	496.2192k internal	0.2290k external	0.2290temperature offset calibration	0.9939default loss term (dB/km)	0.3790temperature slope calibration	1.0000multiplexer offset coefficient	1.0000multiplexer slope coefficient	1.0000fibre end	0.00T internal ref (°C)	40.78T ext. ref 1 (°C)	14.95T ext. ref 2 (°C)	34.98length (m)	temperature (°C)	Stokes	anti-Stokes-747.200	184.768	-0.025	-0.038
-746.185	164.827	-0.053	0.077
-745.171	204.015	0.234	0.371
-744.156	261.237	0.076	0.134
-743.142	-200.000	-0.031	-0.155
-742.127	17.505	0.062	-0.051
-741.112	92.076	-0.064	0.074
-740.098	-56.370	0.068	0.031
-739.083	-99.426	-0.113	0.029
-738.069	-174.599	-0.189	-0.006
-737.054	800.000	-0.068	0.201
-736.039	-77.102	-0.248	-0.089
-735.025	582.391	-0.064	0.161
-734.010	-37.605	-0.225	-0.123
-732.996	-160.488	-0.226	0.012
-731.981	167.066	0.110	-0.159
-730.966	214.758	-0.139	-0.226
-729.952	281.022	0.053	0.097
-728.937	800.000	0.039	-0.144
-727.923	332.938	-0.158	-0.312
-726.908	-49.569	-0.332	-0.162
-725.894	-1.611	-0.273	-0.197
-724.879	288.787	0.173	-0.320
-723.864	-104.393	-0.225	-0.053
-722.850	-200.000	-0.051	-0.293
-721.835	-163.917	-0.231	-0.011
-720.821	-66.690	0.322	-0.131
-719.806	-138.030	-0.319	-0.036
-718.791	-29.042	0.190	0.111
-717.777	-200.000	0.040	0.192
-716.762	200.418	-0.128	0.201
-715.748	86.145	0.151	0.170
-714.733	-171.056	0.242	0.008
-713.718	-121.276	-0.074	-0.013
-712.704	-108.683	-0.084	-0.018
-711.689	-88.319	-0.508	-0.155
-710.675	-132.398	0.408	0.054
-709.660	264.714	-0.028	0.049
-708.645	-200.000	0.028	-0.286
-707.631	-200.000	0.006	-0.236
-706.616	-128.301	-0.451	0.066
-705.602	273.003	-0.100	0.181
-704.587	64.551	-0.121	-0.125
-703.572	11.088	0.120	0.094
-702.558	-13.677	-0.220	-0.145
-701.543	-88.048	-0.046	0.014
-700.529	-200.000	-0.031	0.304
-699.514	-50.821	-0.121	0.058
-698.499	800.000	0.072	0.232
-697.485	-62.937	0.183	0.077
-696.470	-102.235	-0.047	-0.011
-695.456	-47.683	0.085	0.042
-694.441	-89.141	0.161	0.049
-693.426	214.569	-0.144	-0.232
-692.412	412.754	0.071	0.155
-691.397	-70.225	0.204	0.079
-690.383	95.656	-0.201	0.234
-689.368	800.000	-0.005	-0.015
-688.354	-88.102	-0.327	-0.100
-687.339	-200.000	0.029	-0.142
-686.324	275.643	0.137	0.249
-685.310	-200.000	-0.016	0.175
-684.295	-110.097	-0.257	-0.055
-683.281	5.321	0.221	0.166
-682.266	-200.000	-0.030	0.261
-681.251	-200.000	0.034	0.248
-680.237	-80.999	-0.206	-0.070
-679.222	800.000	0.136	-0.418
-678.208	94.259	-0.136	-0.157
-677.193	-131.381	-0.526	-0.071
-676.178	-174.549	-0.033	-0.001
-675.164	-113.312	0.110	0.022
-674.149	198.534	0.057	0.089
-673.135	-37.478	0.132	-0.072
-672.120	-200.000	0.043	-0.219
-671.105	-70.320	-0.300	0.116
-670.091	794.969	-0.021	0.060
-669.076	800.000	0.021	0.084
-668.062	800.000	0.093	-0.314
-667.047	-48.040	-0.260	0.128
-666.032	57.660	0.025	0.025
-665.018	-200.000	-0.010	-0.154
-664.003	532.559	0.026	0.063
-662.989	21.432	-0.112	-0.093
-661.974	-200.000	0.017	0.219
-660.959	800.000	0.045	-0.177
-659.945	-5.042	-0.354	-0.249
-658.930	290.820	-0.127	-0.235
-657.916	-97.873	0.292	-0.077
-656.901	230.403	0.076	-0.128
-655.886	-53.337	-0.194	0.091
-654.872	488.244	-0.063	0.147
-653.857	32.406	-0.290	0.256
-652.843	402.392	0.185	-0.398
-651.828	-200.000	0.007	0.203
-650.814	-51.915	-0.126	0.060
-649.799	-19.280	-0.241	-0.153
-648.784	-200.000	-0.032	0.179
-647.770	377.232	0.077	0.160
-646.755	-61.429	0.078	0.033
-645.741	-87.825	0.084	0.026
-644.726	-144.384	0.331	-0.031
-643.711	191.446	-0.087	0.134
-642.697	225.624	0.176	0.292
-641.682	367.404	-0.153	-0.316
-640.668	-54.334	-0.126	0.058
-639.653	-200.000	-0.012	-0.131
-638.638	-49.555	-0.096	-0.047
-637.624	48.891	-0.145	0.138
-636.609	-200.000	0.032	0.365
-635.595	-28.194	0.300	0.177
-634.580	187.771	-0.211	-0.322
-633.565	-154.670	-0.308	0.021
-632.551	201.170	-0.242	0.379
-631.536	800.000	0.114	-0.332
-630.522	-93.588	-0.267	-0.075
-629.507	63.531	0.054	-0.056
-628.492	-200.000	0.048	-0.279
-627.478	800.000	-0.073	-0.236
-626.463	-155.538	0.277	0.018
-625.449	-200.000	-0.014	-0.311
-624.434	800.000	0.126	-0.356
-623.419	611.922	-0.019	-0.050
-622.405	-200.000	0.019	-0.201
-621.390	-77.733	-0.318	0.112
-620.376	-113.014	-0.165	0.033
-619.361	634.367	0.106	0.274
-618.346	-22.026	0.171	-0.106
-617.332	-200.000	-0.050	0.238
-616.317	643.259	-0.130	-0.337
-615.303	-62.473	0.297	0.126
-614.288	800.000	-0.121	-0.387
-613.273	32.510	-0.074	0.065
-612.259	71.060	-0.075	-0.079
-611.244	168.023	-0.113	0.164
-610.230	-155.576	0.031	0.002
-609.215	-200.000	-0.006	-0.110
-608.201	-200.000	-0.049	-0.282
-607.186	210.839	-0.180	-0.288
-606.171	88.124	0.193	-0.219
-605.157	71.291	0.122	0.129
-604.142	34.698	-0.287	0.256
-603.128	167.259	0.068	-0.098
-602.113	-99.470	0.261	-0.067
-601.098	352.000	0.139	0.281
-600.084	193.255	-0.033	-0.051
-599.069	800.000	0.032	-0.132
-598.055	46.922	-0.110	-0.105
-597.040	492.425	-0.061	0.142
-596.025	162.468	-0.044	-0.064
-595.011	-73.713	0.291	-0.108
-593.996	132.521	0.113	-0.148
-592.982	-45.594	0.189	0.095
-591.967	-72.703	0.326	-0.122
-590.952	-200.000	-0.037	-0.271
-589.938	-32.883	0.220	-0.124
-588.923	-167.257	-0.016	0.001
-587.909	587.302	-0.069	-0.173
-586.894	-74.582	-0.288	0.106
-585.879	800.000	-0.076	-0.296
-584.865	-200.000	0.003	0.076
-583.850	302.356	-0.102	-0.192
-582.836	313.860	0.063	0.121
-581.821	462.010	-0.085	-0.194
-580.806	102.674	-0.104	0.124
-579.792	-86.040	0.368	0.116
-578.777	-138.441	-0.173	0.019
-577.763	-91.266	-0.290	0.085
-576.748	-200.000	-0.015	-0.182
-575.733	-167.728	-0.500	0.020
-574.719	-53.690	0.126	-0.059
-573.704	-163.340	-0.308	0.015
-572.690	-200.000	0.026	0.233
-571.675	-200.000	-0.007	-0.148
-570.661	-200.000	-0.006	-0.038
-569.646	-185.712	-0.245	-0.004
-568.631	800.000	-0.020	-0.081
-567.617	211.949	0.095	0.152
-566.602	-11.765	0.097	0.065
-565.588	42.743	0.220	-0.204
-564.573	-141.117	-0.074	0.008
-563.558	225.430	-0.021	-0.035
-562.544	-200.000	0.029	-0.144
-561.529	-98.384	0.161	-0.042
-560.515	363.734	0.032	-0.066
-559.500	-95.141	0.201	0.055
-558.485	-131.132	0.248	-0.034
-557.471	3.916	-0.083	0.061
-556.456	-181.571	0.018	-0.000
-555.442	25.102	-0.174	-0.146
-554.427	-97.579	0.315	-0.083
-553.412	2.566	0.055	-0.040
-552.398	216.808	-0.073	-0.117
-551.383	26.835	-0.099	-0.084
-550.369	40.787	-0.080	-0.073
-549.354	-153.867	0.118	-0.008
-548.339	371.219	-0.058	0.120
-547.325	19.647	0.226	-0.185
-546.310	-200.000	0.010	0.116
-545.296	37.831	-0.145	0.131
-544.281	-23.286	0.181	0.111
-543.266	10.158	-0.156	-0.121
-542.252	-161.795	-0.257	0.013
-541.237	-200.000	0.007	0.122
-540.223	-59.357	-0.391	-0.171
-539.208	-200.000	-0.006	0.148
-538.193	-78.624	-0.195	-0.068
-537.179	-22.864	0.505	-0.309
-536.164	305.501	0.063	-0.119
-535.150	122.898	0.159	0.202
-534.135	40.407	0.108	0.099
-533.121	251.121	0.166	-0.287
-532.106	-140.018	-0.046	-0.005
-531.091	-169.630	0.096	0.004
-530.077	-30.666	0.045	0.026
-529.062	-115.816	0.394	0.075
-528.048	-38.918	0.035	0.018
-527.033	-200.000	-0.025	-0.168
-526.018	-97.682	0.076	-0.020
-525.004	56.775	0.179	0.177
-523.989	-23.480	-0.150	0.091
-522.975	36.201	0.114	-0.102
-521.960	-200.000	0.047	0.393
-520.945	85.146	-0.307	-0.342
-519.931	-200.000	-0.004	-0.159
-518.916	104.018	0.047	-0.057
-517.902	16.271	-0.016	-0.013
-516.887	-200.000	-0.021	-0.185
-515.872	-200.000	-0.027	0.127
-514.858	-16.066	0.124	0.080
-513.843	-37.833	0.227	0.123
-512.829	800.000	0.034	0.109
-511.814	-200.000	0.031	-0.208
-510.799	-70.657	-0.106	0.041
-509.785	800.000	0.029	-0.127
-508.770	14.066	0.209	-0.165
-507.756	189.383	0.192	-0.292
-506.741	-177.924	0.225	0.005
-505.726	-200.000	0.034	0.336
-504.712	149.958	-0.114	-0.157
-503.697	55.121	0.140	0.137
-502.683	18.209	0.083	-0.068
-501.668	-71.863	-0.221	-0.084
-500.653	-200.000	-0.027	0.189
-499.639	800.000	-0.039	-0.152
-498.624	134.436	-0.196	0.258
-497.610	473.654	0.075	0.172
-496.595	22.273	-0.306	-0.254
-495.581	57.104	0.171	-0.169
-494.566	-145.334	0.212	0.019
-493.551	-147.611	-0.004	0.000
-492.537	-150.672	-0.393	0.030
-491.522	-50.677	-0.154	-0.073
-490.508	-27.754	0.108	0.063
-489.493	14.710	-0.326	-0.258
-488.478	60.416	-0.116	0.117
-487.464	-128.210	-0.128	0.018
-486.449	184.426	-0.110	0.165
-485.435	-200.000	0.003	-0.179
-484.420	-152.440	-0.363	-0.026
-483.405	-160.394	-0.230	-0.013
-482.391	-51.649	-0.153	0.073
-481.376	-92.591	-0.195	-0.056
-480.362	1.432	0.152	-0.111
-479.347	75.597	-0.068	-0.073
-478.332	-18.302	0.301	0.191
-477.318	-200.000	0.017	0.328
-476.303	-200.000	-0.011	0.309
-475.289	-144.299	-0.332	0.031
-474.274	-135.672	0.222	-0.027
-473.259	89.691	0.147	-0.166
-472.245	-53.812	-0.158	0.073
-471.230	-144.822	-0.162	0.015
-470.216	-200.000	0.042	0.275
-469.201	-56.722	-0.101	-0.045
-468.186	-60.773	0.336	-0.144
-467.172	-57.740	0.346	0.154
-466.157	273.850	-0.053	0.096
-465.143	-153.297	-0.226	0.016
-464.128	755.251	0.095	-0.260
-463.113	-89.489	0.143	-0.042
-462.099	-145.014	0.254	-0.023
-461.084	-16.685	0.085	0.055
-460.070	-101.617	0.086	-0.021
-459.055	1.187	0.042	-0.031
-458.040	-85.977	-0.045	-0.014
-457.026	-90.549	-0.186	0.055
-456.011	460.616	-0.017	0.038
-454.997	274.622	-0.024	-0.044
-453.982	800.000	0.085	0.294
-452.968	800.000	0.043	0.176
-451.953	-200.000	0.003	0.330
-450.938	129.485	-0.192	-0.248
-449.924	-200.000	-0.024	-0.128
-448.909	-200.000	0.029	0.351
-447.895	-168.679	-0.022	0.001
-446.880	-166.567	0.241	0.010
-445.865	-200.000	0.064	0.401
-444.851	-127.530	-0.161	0.024
-443.836	282.034	-0.075	-0.136
-442.822	-200.000	-0.002	-0.162
-441.807	-36.315	0.247	0.135
-440.792	286.379	-0.214	-0.392
-439.778	-66.833	0.162	0.065
-438.763	179.575	0.131	-0.194
-437.749	-200.000	-0.021	-0.366
-436.734	664.907	0.167	-0.436
-435.719	-200.000	-0.006	0.132
-434.705	-4.810	-0.072	-0.050
-433.690	800.000	0.037	0.115
-432.676	583.644	-0.120	-0.297
-431.661	9.724	0.336	-0.258
-430.646	467.776	0.204	-0.463
-429.632	-6.516	0.194	-0.134
-428.617	33.809	0.194	0.171
-427.603	121.341	-0.268	-0.337
-426.588	68.305	-0.229	-0.238
-425.573	-85.507	-0.033	-0.010
-424.559	95.248	0.151	-0.174
-423.544	-116.800	0.188	-0.035
-422.530	-24.628	-0.154	0.093
-421.515	-57.175	-0.149	-0.066
-420.500	-76.359	0.144	0.051
-419.486	-200.000	0.009	-0.085
-418.471	71.065	-0.272	0.285
-417.457	619.727	-0.052	-0.133
-416.442	235.991	0.010	-0.016
-415.428	800.000	0.020	-0.062
-414.413	23.975	-0.104	-0.087
-413.398	208.433	-0.096	-0.152
-412.384	29.139	0.204	0.175
-411.369	800.000	-0.091	0.383
-410.355	-200.000	-0.040	0.212
-409.340	-200.000	0.074	0.511
-408.325	165.368	0.154	0.220
-407.311	-42.277	0.165	-0.085
-406.296	743.623	-0.019	0.053
-405.282	-110.444	-0.152	-0.032
-404.267	-200.000	-0.043	0.282
-403.252	302.039	0.034	0.063
-402.238	240.074	0.064	0.108
-401.223	-25.556	-0.284	0.170
-400.209	20.314	0.164	0.134
-399.194	100.023	0.116	0.135
-398.179	7.226	-0.054	-0.040
-397.165	37.859	0.237	-0.213
-396.150	-29.647	0.083	-0.048
-395.136	-82.630	-0.177	0.058
-394.121	-55.107	-0.110	0.050
-393.106	-21.457	0.170	0.105
-392.092	-65.155	0.328	-0.134
-391.077	45.663	-0.135	-0.126
-390.063	-168.775	-0.282	-0.011
-389.048	530.492	-0.033	-0.079
-388.033	-186.977	-0.335	0.005
-387.019	-200.000	-0.016	0.139
-386.004	-148.316	0.206	-0.017
-384.990	-54.021	0.366	0.168
-383.975	92.836	-0.286	0.327
-382.960	-200.000	0.050	-0.626
-381.946	63.133	0.199	0.201
-380.931	-200.000	0.012	-0.103
-379.917	-200.000	0.035	-0.340
-378.902	800.000	-0.064	-0.227
-377.888	151.798	0.160	0.221
-376.873	18.214	-0.087	0.070
-375.858	-200.000	0.007	-0.047
-374.844	-83.467	0.059	0.019
-373.829	190.049	0.165	-0.251
-372.815	-37.775	-0.224	-0.120
-371.800	800.000	-0.080	0.237
-370.785	-200.000	0.042	0.323
-369.771	-200.000	-0.019	-0.251
-368.756	-200.000	0.140	-0.665
-367.742	-200.000	-0.045	0.270
-366.727	800.000	-0.019	0.076
-365.712	88.701	-0.173	-0.194
-364.698	-39.538	-0.178	-0.094
-363.683	-11.661	-0.219	0.145
-362.669	-200.000	0.012	0.094
-361.654	194.108	0.117	-0.178
-360.639	-122.167	-0.427	0.071
-359.625	614.867	-0.061	0.154
-358.610	-29.786	-0.330	0.190
-357.596	-40.069	0.218	-0.114
-356.581	315.330	0.128	0.244
-355.566	108.610	0.089	0.107
-354.552	800.000	0.003	0.008
-353.537	-3.456	0.301	-0.212
-352.523	-59.861	-0.179	-0.077
-351.508	456.728	-0.032	0.071
-350.493	-22.011	-0.181	0.111
-349.479	187.297	0.075	-0.112
-348.464	326.828	0.029	-0.056
-347.450	800.000	-0.067	0.224
-346.435	176.266	-0.046	0.067
-345.420	37.543	-0.195	-0.175
-344.406	-200.000	-0.171	-0.000
-343.391	-49.782	-0.111	-0.053
-342.377	800.000	0.087	-0.258
-341.362	-41.028	-0.201	-0.104
-340.348	-200.000	0.080	0.435
-339.333	-39.757	0.278	0.146
-338.318	-29.322	-0.335	0.193
-337.304	80.803	-0.058	-0.063
-336.289	800.000	0.013	-0.041
-335.275	-29.202	0.073	0.042
-334.260	106.500	-0.104	-0.125
-333.245	-130.590	-0.363	0.049
-332.231	800.000	0.018	0.052
-331.216	-112.304	0.172	-0.035
-330.202	-200.000	-0.037	0.201
-329.187	-0.523	0.149	0.107
-328.172	-64.689	0.190	-0.078
-327.158	-43.816	0.226	0.115
-326.143	42.526	0.088	0.081
-325.129	188.258	0.067	0.101
-324.114	-127.536	0.394	0.058
-323.099	-200.000	0.012	-0.143
-322.085	39.819	-0.130	0.118
-321.070	800.000	0.096	-0.289
-320.056	741.931	0.110	0.298
-319.041	-111.902	0.351	-0.071
-318.026	-111.207	0.335	-0.069
-317.012	-144.225	0.097	0.009
-315.997	-56.151	-0.207	0.093
-314.983	-200.000	0.027	-0.185
-313.968	-134.227	0.264	0.033
-312.953	-107.103	0.152	0.034
-311.939	39.825	-0.022	0.020
-310.924	-25.413	0.269	0.160
-309.910	-200.000	0.030	-0.146
-308.895	177.172	-0.131	0.192
-307.880	-131.439	0.618	0.082
-306.866	179.268	-0.115	0.169
-305.851	-70.049	-0.150	-0.058
-304.837	-200.000	-0.043	-0.284
-303.822	-51.437	-0.270	0.127
-302.807	226.110	-0.155	0.252
-301.793	-129.442	-0.054	-0.008
-300.778	-200.000	-0.004	0.456
-299.764	53.810	-0.265	0.256
-298.749	-64.075	0.140	-0.057
-297.735	-135.660	-0.143	-0.017
-296.720	69.793	-0.383	-0.397
-295.705	-28.419	-0.054	-0.031
-294.691	410.874	-0.163	0.348
-293.676	37.127	-0.094	0.084
-292.662	-13.852	0.419	-0.272
-291.647	290.171	0.124	-0.226
-290.632	-200.000	-0.027	0.154
-289.618	115.523	-0.313	-0.384
-288.603	800.000	-0.022	0.064
-287.589	-134.456	-0.294	-0.036
-286.574	389.780	-0.109	-0.228
-285.559	-160.871	0.084	-0.004
-284.545	113.890	-0.163	0.200
-283.530	416.595	0.012	0.027
-282.516	92.901	-0.043	-0.049
-281.501	-38.941	-0.034	0.018
-280.486	-66.096	0.102	0.041
-279.472	-70.192	-0.148	0.057
-278.457	24.740	0.102	0.085
-277.443	-200.000	0.034	0.223
-276.428	-125.851	0.206	-0.031
-275.413	-153.635	-0.353	0.024
-274.399	-63.511	-0.200	0.083
-273.384	8.669	0.166	0.126
-272.370	304.685	-0.097	0.180
-271.355	-116.021	-0.387	0.073
-270.340	-115.849	-0.015	0.003
-269.326	-45.303	0.063	-0.032
-268.311	346.568	0.089	0.175
-267.297	-109.846	-0.302	0.064
-266.282	-101.660	0.089	0.022
-265.267	-200.000	-0.055	-0.422
-264.253	18.414	0.204	0.164
-263.238	-200.000	0.056	0.304
-262.224	59.358	-0.087	-0.087
-261.209	-67.027	0.439	0.174
-260.195	-20.295	-0.117	0.073
-259.180	-10.652	0.245	0.163
-258.165	563.424	-0.152	-0.371
-257.151	-200.000	0.048	0.325
-256.136	40.110	-0.130	-0.117
-255.122	118.694	0.241	-0.299
-254.107	796.417	-0.135	0.374
-253.092	63.925	-0.132	0.133
-252.078	-18.780	0.129	-0.081
-251.063	800.000	-0.026	0.077
-250.049	-174.950	-0.325	0.009
-249.034	29.964	-0.153	-0.131
-248.019	800.000	-0.026	0.082
-247.005	-13.805	0.177	0.115
-245.990	-200.000	0.018	0.146
-244.976	41.331	-0.159	0.144
-243.961	26.054	-0.164	0.137
-242.946	800.000	-0.011	-0.039
-241.932	187.671	-0.031	0.047
-240.917	-171.384	-0.233	0.008
-239.903	-1.162	-0.080	-0.057
-238.888	-60.267	0.053	0.023
-237.873	325.689	-0.117	-0.224
-236.859	18.263	-0.130	0.104
-235.844	-25.628	-0.194	-0.115
-234.830	487.522	-0.037	0.084
-233.815	-1.983	0.115	0.081
-232.800	-95.310	-0.396	-0.107
-231.786	85.327	-0.333	-0.367
-230.771	-74.195	0.237	-0.086
-229.757	-11.104	-0.169	0.112
-228.742	-27.751	0.128	0.075
-227.727	106.773	0.097	0.116
-226.713	506.799	-0.047	0.110
-225.698	453.831	0.083	-0.185
-224.684	-34.425	-0.205	0.113
-223.669	106.275	0.159	-0.189
-222.655	116.040	-0.161	-0.198
-221.640	605.380	0.025	0.063
-220.625	-51.883	-0.193	0.090
-219.611	483.015	0.040	0.091
-218.596	-32.352	0.104	0.058
-217.582	-65.773	0.106	0.043
-216.567	250.369	0.057	0.098
-215.552	-200.000	-0.015	0.110
-214.538	10.467	0.244	0.186
-213.523	-56.073	-0.192	0.086
-212.509	-88.450	0.285	-0.085
-211.494	162.588	0.171	-0.241
-210.479	-155.190	0.335	0.022
-209.465	28.995	0.195	-0.166
-208.450	586.585	-0.079	0.195
-207.436	-200.000	0.012	0.150
-206.421	-49.407	0.386	-0.185
-205.406	-43.150	-0.165	0.084
-204.392	-200.000	0.027	0.227
-203.377	151.819	-0.232	0.317
-202.363	-77.616	-0.154	0.054
-201.348	-118.134	-0.209	0.037
-200.333	304.726	-0.132	-0.246
-199.319	66.338	-0.266	0.271
-198.304	-65.954	-0.127	-0.051
-197.290	-94.528	-0.202	-0.055
-196.275	-158.989	0.319	-0.018
-195.260	376.634	0.205	0.420
-194.246	95.138	-0.130	-0.149
-193.231	800.000	-0.154	-0.444
-192.217	-200.000	0.057	0.366
-191.202	-91.474	0.019	0.005
-190.187	-200.000	0.003	-0.118
-189.173	-54.954	0.292	0.132
-188.158	106.761	0.094	-0.112
-187.144	190.974	0.121	-0.182
-186.129	123.998	-0.136	0.171
-185.114	278.517	-0.119	-0.212
-184.100	-200.000	0.012	-0.279
-183.085	-149.295	0.302	-0.024
-182.071	-194.348	0.198	0.002
-181.056	-82.803	0.313	0.101
-180.042	-70.473	0.116	-0.044
-179.027	-158.063	0.240	-0.014
-178.012	-200.000	-0.016	-0.165
-176.998	800.000	0.059	0.221
-175.983	-56.533	-0.420	0.187
-174.969	-200.000	0.007	-0.091
-173.954	169.642	-0.030	0.043
-172.939	-81.424	-0.112	-0.037
-171.925	72.061	-0.143	0.149
-170.910	292.690	-0.150	0.273
-169.896	-54.851	0.197	-0.089
-168.881	800.000	0.045	-0.127
-167.866	477.190	0.030	-0.067
-166.852	78.128	0.125	0.134
-165.837	551.815	-0.090	0.217
-164.823	335.160	0.183	0.355
-163.808	385.232	0.143	0.295
-162.793	269.901	0.237	-0.418
-161.779	-200.000	-0.015	0.312
-160.764	407.156	-0.125	-0.264
-159.750	-84.709	-0.058	-0.018
-158.735	18.245	0.167	0.133
-157.720	-200.000	0.011	0.078
-156.706	-83.268	0.036	-0.011
-155.691	-200.000	0.060	-0.282
-154.677	-88.815	0.390	-0.116
-153.662	-24.755	-0.217	-0.129
-152.647	166.460	0.091	-0.129
-151.633	72.649	-0.195	0.203
-150.618	800.000	0.075	0.276
-149.604	334.641	0.120	-0.234
-148.589	800.000	-0.081	-0.327
-147.574	538.825	-0.062	-0.147
-146.560	-68.845	-0.347	0.134
-145.545	-200.000	-0.007	0.127
-144.531	-80.717	0.257	-0.086
-143.516	441.820	0.048	-0.106
-142.502	-156.040	0.277	-0.018
-141.487	61.362	-0.123	-0.122
-140.472	-21.546	0.147	0.090
-139.458	-200.000	0.037	-0.197
-138.443	-32.046	0.178	-0.099
-137.429	-156.386	-0.169	-0.011
-136.414	556.023	0.032	0.077
-135.399	-155.045	-0.091	-0.006
-134.385	185.144	-0.198	0.293
-133.370	576.125	-0.051	0.125
-132.356	55.310	0.128	0.124
-131.341	124.600	0.073	-0.092
-130.326	-93.866	-0.244	-0.067
-129.312	-50.363	0.115	0.054
-128.297	235.249	0.106	-0.176
-127.283	-50.481	0.344	0.162
-126.268	717.518	0.015	-0.039
-125.253	18.560	-0.223	0.178
-124.239	-140.364	0.215	-0.022
-123.224	-179.958	0.154	-0.003
-122.210	-142.979	0.140	0.014
-121.195	-10.372	0.176	-0.117
