DTS Sentinel unit serial number:	SN413079Multiplexer serial number:	ORYXHardware model number:	OX4-SRSoftware version number:	ORYX F/W v4.00 Oryx Data Collector v3.7.2.0data status	okinstallation	princeton_trtdifferential loss correction	single-endedforward channel	channel 4reverse channel	N/Adate	2019/09/16time	12:09:35forward acquisition time	60.00reverse acquisition time	0.00gamma	496.2192k internal	0.2294k external	0.2294temperature offset calibration	0.9947default loss term (dB/km)	0.3790temperature slope calibration	1.0000multiplexer offset coefficient	1.0000multiplexer slope coefficient	1.0000fibre end	0.00T internal ref (°C)	38.94T ext. ref 1 (°C)	13.23T ext. ref 2 (°C)	36.26length (m)	temperature (°C)	Stokes	anti-Stokes-747.200	-56.828	-0.364	0.164
-746.185	364.558	-0.181	0.373
-745.171	327.427	0.162	0.318
-744.156	-200.000	-0.031	-0.224
-743.142	60.301	0.088	0.089
-742.127	46.599	-0.176	-0.167
-741.112	39.589	0.234	-0.214
-740.098	800.000	0.042	-0.161
-739.083	272.342	-0.216	-0.389
-738.069	303.006	0.119	0.225
-737.054	91.491	-0.050	0.057
-736.039	-89.150	0.275	0.083
-735.025	-103.716	0.333	-0.080
-734.010	-17.120	0.091	-0.059
-732.996	367.191	0.070	-0.144
-731.981	6.183	0.315	-0.239
-730.966	-23.770	-0.127	-0.078
-729.952	14.152	-0.128	0.102
-728.937	-70.295	0.490	0.190
-727.923	256.298	-0.087	0.152
-726.908	-91.932	-0.209	0.061
-725.894	-134.279	-0.400	-0.050
-724.879	-100.125	-0.125	-0.032
-723.864	-68.227	-0.139	0.055
-722.850	228.784	0.102	-0.170
-721.835	800.000	0.036	0.126
-720.821	-54.818	-0.100	-0.046
-719.806	-75.210	0.170	0.062
-718.791	-147.959	0.303	-0.026
-717.777	-62.018	-0.390	-0.167
-716.762	198.157	-0.072	0.112
-715.748	193.485	0.096	-0.149
-714.733	235.005	0.175	-0.295
-713.718	196.047	0.054	0.084
-712.704	-64.108	0.236	0.098
-711.689	-172.026	-0.193	-0.006
-710.675	-176.513	-0.118	-0.003
-709.660	108.365	0.101	0.123
-708.645	-49.787	-0.186	0.090
-707.631	-46.078	-0.265	0.133
-706.616	83.434	-0.159	0.177
-705.602	-200.000	0.017	0.081
-704.587	274.945	-0.009	-0.017
-703.572	-200.000	-0.006	-0.293
-702.558	737.323	-0.033	0.091
-701.543	39.489	-0.236	0.216
-700.529	-14.247	-0.226	-0.148
-699.514	158.057	0.098	0.138
-698.499	394.767	0.094	-0.199
-697.485	84.665	0.018	0.020
-696.470	678.625	0.069	-0.182
-695.456	-200.000	0.033	0.218
-694.441	624.642	-0.040	-0.104
-693.426	-24.719	0.444	-0.269
-692.412	-200.000	0.023	-0.176
-691.397	793.351	-0.081	-0.228
-690.383	657.811	-0.015	0.039
-689.368	-164.082	0.172	0.008
-688.354	122.501	0.283	-0.361
-687.339	27.241	-0.067	-0.057
-686.324	158.908	0.171	0.242
-685.310	-52.228	-0.201	-0.095
-684.295	-200.000	0.016	-0.074
-683.281	68.600	0.068	-0.072
-682.266	713.170	0.103	0.278
-681.251	118.168	-0.235	-0.296
-680.237	-200.000	0.029	0.158
-679.222	-100.463	-0.206	-0.052
-678.208	1.738	0.156	0.115
-677.193	-21.263	0.091	-0.057
-676.178	-133.599	-0.268	0.034
-675.164	800.000	-0.042	0.143
-674.149	-200.000	0.003	-0.082
-673.135	-134.244	0.009	0.001
-672.120	-200.000	0.016	0.091
-671.105	-104.486	0.040	0.009
-670.091	84.715	0.067	0.075
-669.076	204.997	-0.027	0.042
-668.062	-200.000	-0.057	0.284
-667.047	416.084	0.134	0.292
-666.032	40.857	-0.219	-0.201
-665.018	180.008	-0.146	-0.219
-664.003	-80.182	0.178	0.061
-662.989	174.921	0.175	-0.258
-661.974	-34.314	-0.079	0.044
-660.959	11.774	-0.212	0.166
-659.945	-100.505	-0.239	0.060
-658.930	-30.361	-0.546	-0.316
-657.916	13.030	0.208	-0.164
-656.901	-18.902	0.260	0.165
-655.886	-127.727	-0.277	0.041
-654.872	4.057	-0.239	0.178
-653.857	-200.000	0.020	-0.151
-652.843	102.274	-0.211	-0.251
-651.828	551.249	-0.170	-0.416
-650.814	242.259	-0.066	0.112
-649.799	-62.985	0.159	0.067
-648.784	800.000	0.122	-0.415
-647.770	-30.358	0.182	0.105
-646.755	-129.812	0.187	-0.026
-645.741	-113.396	0.217	0.043
-644.726	-116.705	0.132	-0.025
-643.711	-68.938	0.243	-0.095
-642.697	-200.000	0.057	-0.300
-641.682	800.000	-0.073	0.219
-640.668	-200.000	-0.036	0.175
-639.653	107.267	0.153	-0.186
-638.638	-200.000	-0.002	-0.066
-637.624	-200.000	-0.010	0.159
-636.609	-137.076	-0.112	-0.013
-635.595	-124.920	0.167	0.026
-634.580	-141.160	0.266	-0.028
-633.565	440.643	-0.060	0.133
-632.551	-200.000	-0.005	0.155
-631.536	-200.000	-0.036	-0.161
-630.522	68.150	-0.052	-0.054
-629.507	12.229	0.071	-0.055
-628.492	305.246	0.156	-0.296
-627.478	-200.000	-0.013	-0.110
-626.463	-125.755	-0.145	-0.022
-625.449	-122.511	0.046	-0.008
-624.434	48.490	0.041	0.039
-623.419	-200.000	-0.061	0.286
-622.405	-100.078	-0.146	-0.037
-621.390	89.759	0.136	0.155
-620.376	-200.000	0.014	-0.246
-619.361	-200.000	-0.029	-0.549
-618.346	-200.000	0.042	0.255
-617.332	-200.000	0.026	-0.282
-616.317	800.000	-0.045	-0.130
-615.303	800.000	0.051	-0.195
-614.288	108.189	-0.110	-0.134
-613.273	-15.628	0.085	-0.055
-612.259	-93.922	-0.262	-0.073
-611.244	-200.000	0.048	0.250
-610.230	800.000	-0.051	-0.202
-609.215	683.369	-0.049	-0.129
-608.201	-141.055	-0.261	-0.027
-607.186	190.523	0.080	0.123
-606.171	-42.116	-0.249	0.130
-605.157	87.793	0.117	-0.131
-604.142	143.381	0.090	-0.122
-603.128	-90.106	0.132	-0.039
-602.113	147.892	-0.015	0.020
-601.098	87.334	0.057	0.064
-600.084	-200.000	-0.006	0.031
-599.069	800.000	0.008	0.038
-598.055	800.000	-0.062	0.241
-597.040	138.202	-0.189	-0.251
-596.025	-80.788	0.143	-0.048
-595.011	-3.567	-0.192	-0.136
-593.996	52.587	0.352	-0.342
-592.982	35.178	0.082	-0.073
-591.967	800.000	-0.082	-0.312
-590.952	-47.370	-0.070	-0.035
-589.938	800.000	0.025	0.093
-588.923	-38.522	0.163	-0.087
-587.909	-200.000	0.020	-0.380
-586.894	193.076	0.084	0.128
-585.879	-154.308	0.241	-0.016
-584.865	209.590	0.066	0.105
-583.850	-115.393	0.159	0.030
-582.836	235.967	-0.044	0.074
-581.821	203.977	0.117	0.184
-580.806	628.798	0.087	-0.224
-579.792	-200.000	0.119	-0.554
-578.777	800.000	0.088	0.301
-577.763	-200.000	-0.051	-0.477
-576.748	-105.157	-0.264	-0.061
-575.733	464.046	0.087	-0.199
-574.719	-53.936	-0.144	-0.067
-573.704	489.348	-0.137	-0.318
-572.690	-200.000	0.011	-0.271
-571.675	410.620	0.054	-0.116
-570.661	-113.080	-0.051	-0.010
-569.646	-200.000	0.012	0.137
-568.631	-77.927	-0.186	0.065
-567.617	-29.293	-0.125	-0.073
-566.602	63.346	0.201	0.204
-565.588	-29.998	-0.171	-0.099
-564.573	800.000	0.063	0.222
-563.558	207.932	0.041	0.065
-562.544	89.719	-0.182	-0.206
-561.529	62.021	-0.225	-0.228
-560.515	51.286	-0.082	-0.079
-559.500	-200.000	-0.039	-0.201
-558.485	113.785	-0.067	-0.083
-557.471	165.629	0.153	-0.220
-556.456	-200.000	0.005	0.141
-555.442	8.006	0.207	-0.158
-554.427	-200.000	0.049	-0.235
-553.412	207.773	-0.123	0.194
-552.398	-116.406	-0.273	0.051
-551.383	-75.606	-0.145	0.052
-550.369	78.775	-0.059	-0.064
-549.354	-33.595	0.036	0.020
-548.339	104.275	0.079	-0.094
-547.325	-63.354	0.269	-0.112
-546.310	-15.443	0.143	0.093
-545.296	-200.000	-0.013	0.086
-544.281	-200.000	-0.008	-0.051
-543.266	-40.743	-0.273	0.143
-542.252	85.589	0.258	0.288
-541.237	-200.000	-0.018	-0.142
-540.223	110.506	-0.197	0.240
-539.208	-111.782	0.134	-0.027
-538.193	-109.360	0.078	0.017
-537.179	31.717	-0.051	0.044
-536.164	-97.457	-0.272	0.072
-535.150	111.194	-0.043	0.053
-534.135	-103.646	0.024	0.006
-533.121	453.124	-0.050	-0.112
-532.106	-87.397	0.149	-0.046
-531.091	534.524	0.059	0.143
-530.077	361.585	0.159	-0.323
-529.062	305.443	-0.138	0.260
-528.048	-139.976	0.209	0.022
-527.033	-12.700	-0.332	0.219
-526.018	11.651	0.094	-0.073
-525.004	479.481	-0.115	0.263
-523.989	800.000	-0.075	0.229
-522.975	100.024	0.104	0.122
-521.960	-122.714	0.201	0.033
-520.945	-50.856	0.161	0.077
-519.931	44.983	-0.136	-0.127
-518.916	-200.000	0.013	0.097
-517.902	-51.917	-0.075	-0.036
-516.887	15.908	-0.165	0.132
-515.872	-200.000	0.025	-0.193
-514.858	800.000	-0.119	0.524
-513.843	-11.551	-0.163	-0.109
-512.829	39.626	-0.096	-0.088
-511.814	11.523	0.130	0.101
-510.799	102.117	0.165	0.195
-509.785	-91.838	-0.087	-0.025
-508.770	6.738	-0.085	0.064
-507.756	199.754	0.142	0.221
-506.741	-10.005	0.242	-0.163
-505.726	-116.994	0.230	0.043
-504.712	123.630	-0.126	0.160
-503.697	-17.186	0.121	0.077
-502.683	145.825	0.163	0.222
-501.668	-63.697	0.184	0.076
-500.653	-200.000	0.005	-0.022
-499.639	-1.617	-0.005	-0.004
-498.624	-49.058	0.170	0.083
-497.610	37.147	-0.055	0.049
-496.595	-142.685	0.154	0.015
-495.581	-172.747	-0.052	0.002
-494.566	-93.535	0.456	-0.128
-493.551	-200.000	-0.008	-0.244
-492.537	-141.132	-0.074	0.008
-491.522	-149.340	0.285	-0.023
-490.508	800.000	-0.083	0.272
-489.493	-37.007	-0.150	0.081
-488.478	-200.000	-0.013	-0.092
-487.464	-200.000	-0.031	-0.164
-486.449	-15.214	-0.138	0.089
-485.435	112.438	0.125	-0.153
-484.420	-41.895	0.167	-0.087
-483.405	-33.501	-0.245	0.137
-482.391	-14.205	-0.163	0.107
-481.376	-101.995	-0.265	-0.065
-480.362	-200.000	0.011	0.124
-479.347	-198.104	-0.125	0.001
-478.332	-200.000	0.046	-0.541
-477.318	-200.000	0.004	0.129
-476.303	308.162	-0.154	-0.291
-475.289	-27.627	0.141	0.083
-474.274	-54.771	-0.111	-0.051
-473.259	8.413	0.361	-0.275
-472.245	58.089	0.166	0.165
-471.230	-65.770	-0.040	-0.016
-470.216	-23.223	-0.270	0.164
-469.201	-116.596	0.225	-0.042
-468.186	-77.680	-0.244	-0.086
-467.172	-145.748	-0.352	0.032
-466.157	800.000	0.131	0.367
-465.143	-200.000	-0.014	0.190
-464.128	84.994	0.100	0.110
-463.113	-61.084	0.083	-0.036
-462.099	218.774	0.140	-0.227
-461.084	171.411	0.098	-0.143
-460.070	-83.805	0.023	0.007
-459.055	70.349	-0.102	-0.106
-458.040	-200.000	0.021	0.135
-457.026	-58.093	-0.284	-0.125
-456.011	218.524	0.097	-0.156
-454.997	27.981	0.162	-0.138
-453.982	-137.335	0.377	0.043
-452.968	-7.853	-0.212	0.144
-451.953	-107.993	-0.324	0.071
-450.938	-5.758	-0.254	0.176
-449.924	-168.770	-0.217	0.008
-448.909	1.820	0.181	-0.132
-447.895	-200.000	-0.008	-0.339
-446.880	-200.000	0.003	-0.287
-445.865	41.128	-0.191	0.174
-444.851	473.722	0.018	-0.040
-443.836	3.896	-0.231	0.170
-442.822	87.887	-0.214	0.240
-441.807	608.556	0.054	0.136
-440.792	276.812	0.099	0.178
-439.778	-158.967	-0.269	-0.015
-438.763	800.000	0.041	-0.150
-437.749	505.622	0.157	-0.368
-436.734	-200.000	-0.030	-0.273
-435.719	163.244	-0.175	-0.249
-434.705	150.251	-0.166	-0.228
-433.690	-79.870	0.052	-0.018
-432.676	193.166	-0.078	0.120
-431.661	147.266	-0.244	-0.332
-430.646	217.064	0.180	-0.290
-429.632	120.681	-0.254	0.319
-428.617	-4.442	-0.230	-0.160
-427.603	-132.220	0.086	0.011
-426.588	-200.000	0.010	-0.335
-425.573	-200.000	-0.021	-0.250
-424.559	35.496	0.110	0.097
-423.544	800.000	-0.111	-0.331
-422.530	-172.551	0.293	0.009
-421.515	134.907	-0.077	0.101
-420.500	-100.856	-0.089	0.022
-419.486	225.701	-0.088	0.145
-418.471	149.953	0.126	0.173
-417.457	-101.784	-0.275	-0.067
-416.442	-200.000	-0.015	-0.070
-415.428	181.454	0.031	0.046
-414.413	21.032	-0.113	0.093
-413.398	-97.989	-0.292	-0.076
-412.384	800.000	-0.172	0.604
-411.369	-10.086	0.162	0.108
-410.355	54.056	0.224	-0.217
-409.340	-143.862	0.540	0.051
-408.325	633.654	-0.145	0.371
-407.311	-109.510	-0.239	0.051
-406.296	-95.745	-0.368	-0.099
-405.282	-11.966	-0.176	-0.116
-404.267	181.442	-0.053	-0.078
-403.252	-200.000	-0.043	-0.195
-402.238	-182.208	0.094	0.002
-401.223	-71.969	-0.184	-0.069
-400.209	-200.000	-0.042	-0.318
-399.194	-191.473	-0.129	0.001
-398.179	-200.000	-0.029	0.311
-397.165	105.074	-0.102	0.122
-396.150	-77.299	-0.192	0.067
-395.136	74.971	-0.259	0.275
-394.121	3.344	-0.053	-0.039
-393.106	87.463	-0.200	-0.223
-392.092	220.639	0.131	0.212
-391.077	-75.059	0.210	-0.076
-390.063	-200.000	0.027	-0.259
-389.048	339.314	0.070	-0.138
-388.033	60.484	0.117	-0.117
-387.019	199.868	0.067	-0.104
-386.004	-54.806	-0.143	0.065
-384.990	38.458	-0.184	0.166
-383.975	-13.956	0.250	-0.163
-382.960	668.073	-0.055	0.143
-381.946	-108.778	-0.247	-0.053
-380.931	-182.594	-0.122	-0.002
-379.917	122.441	-0.065	-0.082
-378.902	-29.592	-0.227	-0.131
-377.888	171.241	-0.208	-0.301
-376.873	32.045	-0.101	0.088
-375.858	77.705	-0.195	-0.209
-374.844	171.577	0.073	-0.105
-373.829	800.000	0.078	0.310
-372.815	800.000	0.041	0.136
-371.800	110.218	0.090	-0.109
-370.785	-55.387	-0.297	-0.134
-369.771	800.000	-0.040	0.130
-368.756	186.494	0.176	0.263
-367.742	-43.351	-0.147	-0.075
-366.727	12.544	-0.114	-0.089
-365.712	800.000	-0.083	-0.317
-364.698	-200.000	-0.011	0.121
-363.683	-20.305	0.232	-0.144
-362.669	586.837	0.049	0.121
-361.654	145.508	0.221	0.298
-360.639	-50.813	0.133	0.063
-359.625	800.000	0.163	-0.462
-358.610	-200.000	0.031	-0.250
-357.596	-29.228	0.253	0.146
-356.581	-14.200	0.078	-0.050
-355.566	184.590	0.032	-0.048
-354.552	54.780	-0.186	-0.181
-353.537	-200.000	-0.017	-0.228
-352.523	-80.474	0.146	-0.049
-351.508	-51.038	-0.303	-0.143
-350.493	-200.000	0.043	-0.227
-349.479	198.552	-0.058	0.089
-348.464	477.768	0.063	0.143
-347.450	-200.000	0.022	-0.228
-346.435	-36.499	0.111	0.060
-345.420	-200.000	0.029	0.243
-344.406	357.162	0.029	0.059
-343.391	-131.815	-0.181	0.024
-342.377	-200.000	-0.024	0.108
-341.362	-200.000	-0.030	0.195
-340.348	-36.619	-0.220	0.119
-339.333	239.565	-0.158	0.265
-338.318	-92.487	0.381	0.108
-337.304	-172.988	-0.229	-0.007
-336.289	-139.767	-0.234	0.025
-335.275	800.000	-0.073	-0.305
-334.260	800.000	-0.022	0.089
-333.245	-52.714	-0.148	-0.069
-332.231	57.015	0.043	-0.042
-331.216	-61.092	0.079	-0.034
-330.202	-33.187	0.220	-0.123
-329.187	-28.446	-0.048	0.028
-328.172	-74.937	0.345	0.125
-327.158	800.000	-0.073	0.269
-326.143	-200.000	0.015	0.070
-325.129	52.971	-0.020	0.019
-324.114	-68.646	-0.184	0.072
-323.099	-61.055	-0.089	0.038
-322.085	800.000	0.046	-0.201
-321.070	-200.000	-0.102	-0.524
-320.056	-32.245	0.150	0.084
-319.041	-106.594	-0.099	-0.022
-318.026	-34.784	0.218	-0.120
-317.012	800.000	0.101	0.376
-315.997	-200.000	0.004	0.031
-314.983	237.957	0.103	0.171
-313.968	69.493	-0.173	0.180
-312.953	7.309	0.243	0.182
-311.939	13.043	0.230	0.179
-310.924	-20.484	-0.127	0.079
-309.910	27.097	-0.132	0.112
-308.895	46.883	-0.129	-0.121
-307.880	-96.872	-0.336	-0.089
-306.866	-200.000	-0.034	-0.172
-305.851	-166.594	0.418	0.017
-304.837	-5.965	0.073	0.050
-303.822	-139.634	-0.155	0.017
-302.807	-200.000	-0.005	-0.183
-301.793	241.189	0.064	0.108
-300.778	-132.332	0.164	0.021
-299.764	77.422	0.255	-0.273
-298.749	33.863	0.114	-0.100
-297.735	776.750	0.036	-0.099
-296.720	-123.043	-0.142	0.023
-295.705	-200.000	0.004	0.052
-294.691	-37.668	0.166	0.089
-293.676	-45.507	0.168	0.084
-292.662	215.704	0.172	0.275
-291.647	304.364	0.084	-0.158
-290.632	800.000	0.046	-0.183
-289.618	-98.396	0.186	0.048
-288.603	-200.000	0.005	-0.203
-287.589	-91.240	-0.120	0.035
-286.574	-200.000	0.036	0.307
-285.559	-16.495	0.181	-0.116
-284.545	-13.673	0.430	0.280
-283.530	-200.000	-0.056	0.424
-282.516	-200.000	-0.016	-0.086
-281.501	520.940	0.052	-0.123
-280.486	-49.230	-0.305	0.147
-279.472	13.978	-0.211	0.165
-278.457	144.093	-0.117	-0.156
-277.443	322.008	0.025	-0.049
-276.428	-40.521	0.108	0.056
-275.413	-117.349	0.441	0.080
-274.399	485.592	0.169	0.387
-273.384	-167.837	-0.169	-0.007
-272.370	-99.151	0.186	0.047
-271.355	-112.771	0.422	-0.084
-270.340	145.683	-0.049	-0.066
-269.326	-99.851	0.269	0.068
-268.311	126.062	-0.262	-0.332
-267.297	-200.000	-0.009	-0.259
-266.282	-200.000	0.014	0.280
-265.267	-70.150	-0.081	-0.031
-264.253	124.000	-0.170	0.214
-263.238	-51.257	0.126	0.059
-262.224	-200.000	-0.012	-0.259
-261.209	750.161	0.083	-0.225
-260.195	-2.816	-0.099	-0.070
-259.180	-19.152	0.058	-0.036
-258.165	20.874	0.188	-0.153
-257.151	-86.727	0.088	0.027
-256.136	40.682	0.123	-0.111
-255.122	-200.000	-0.014	0.097
-254.107	-103.231	-0.268	0.064
-253.092	-174.680	0.338	0.010
-252.078	-134.812	-0.107	-0.013
-251.063	-73.057	-0.384	-0.141
-250.049	800.000	0.050	0.186
-249.034	-44.170	0.113	0.057
-248.019	385.585	-0.148	-0.305
-247.005	-28.500	0.029	-0.017
-245.990	50.992	-0.087	0.083
-244.976	-200.000	0.030	-0.147
-243.961	-116.949	-0.340	0.062
-242.946	-177.151	-0.248	0.006
-241.932	-150.718	0.224	0.017
-240.917	32.235	-0.357	0.309
-239.903	34.244	0.191	0.167
-238.888	-29.346	-0.056	0.032
-237.873	-200.000	-0.017	-0.327
-236.859	169.422	0.050	-0.071
-235.844	800.000	-0.083	0.247
-234.830	-117.623	-0.117	0.021
-233.815	78.605	-0.089	0.095
-232.800	800.000	0.074	0.322
-231.786	34.210	0.141	0.124
-230.771	37.160	-0.024	0.022
-229.757	123.274	-0.168	-0.211
-228.742	-200.000	-0.013	-0.148
-227.727	-166.347	0.070	0.003
-226.713	-141.705	-0.103	-0.010
-225.698	10.522	-0.179	-0.137
-224.684	-162.420	0.173	-0.009
-223.669	-108.855	0.127	0.027
-222.655	-200.000	0.022	-0.280
-221.640	5.843	-0.299	0.222
-220.625	-57.388	0.307	0.135
-219.611	63.151	-0.154	0.154
-218.596	216.602	0.300	0.478
-217.582	-200.000	-0.059	0.279
-216.567	-200.000	-0.052	0.296
-215.552	449.783	-0.132	0.292
-214.538	165.489	0.163	0.231
-213.523	256.747	-0.135	-0.233
-212.509	53.078	0.122	0.117
-211.494	-200.000	0.016	0.120
-210.479	97.732	-0.052	-0.059
-209.465	391.877	-0.114	0.236
-208.450	-156.883	0.400	0.025
-207.436	2.021	-0.225	0.163
-206.421	-72.426	0.152	-0.056
-205.406	12.760	0.208	0.161
-204.392	-200.000	-0.013	0.095
-203.377	41.052	-0.147	0.133
-202.363	506.966	-0.114	-0.265
-201.348	-78.902	0.284	0.097
-200.333	300.487	0.090	0.166
-199.319	28.634	0.216	0.183
-198.304	-200.000	0.039	-0.238
-197.290	-200.000	-0.062	-0.278
-196.275	153.957	-0.135	-0.185
-195.260	-11.819	-0.165	0.108
-194.246	-200.000	-0.027	0.312
-193.231	243.298	0.079	0.133
-192.217	6.520	-0.219	0.163
-191.202	22.878	0.122	0.100
-190.187	800.000	-0.064	0.222
-189.173	287.675	-0.088	-0.158
-188.158	-200.000	0.002	-0.205
-187.144	-111.748	0.492	-0.100
-186.129	213.252	0.067	-0.106
-185.114	-200.000	0.025	0.220
-184.100	314.748	0.153	0.288
-183.085	-200.000	-0.000	0.103
-182.071	800.000	0.095	0.278
-181.056	-78.852	-0.149	-0.051
-180.042	800.000	-0.064	-0.273
-179.027	-149.404	-0.261	-0.021
-178.012	-9.039	-0.247	-0.165
-176.998	291.568	0.187	-0.341
-175.983	296.020	0.106	0.194
-174.969	-200.000	-0.014	-0.097
-173.954	83.377	-0.048	-0.052
-172.939	-61.392	0.238	0.100
-171.925	166.694	-0.078	0.111
-170.910	-200.000	0.006	0.217
-169.896	-25.998	-0.228	0.134
-168.881	-200.000	0.010	0.079
-167.866	234.085	-0.196	0.323
-166.852	-200.000	-0.015	0.079
-165.837	-106.333	-0.231	0.052
-164.823	-71.603	0.174	0.065
-163.808	800.000	0.119	0.405
-162.793	279.528	0.249	0.444
-161.779	559.243	-0.057	-0.137
-160.764	-12.130	-0.320	-0.209
-159.750	-146.210	0.319	-0.028
-158.735	800.000	-0.090	-0.263
-157.720	112.058	0.062	0.075
-156.706	-20.974	0.156	-0.096
-155.691	112.379	-0.274	0.332
-154.677	384.324	0.088	0.182
-153.662	60.110	-0.101	-0.100
-152.647	-200.000	-0.016	0.090
-151.633	-200.000	-0.008	-0.070
-150.618	-85.093	-0.183	0.057
-149.604	-200.000	0.028	-0.145
-148.589	-184.868	-0.206	0.003
-147.574	-200.000	-0.018	0.117
-146.560	108.912	-0.146	0.174
-145.545	480.774	-0.083	-0.188
-144.531	-200.000	-0.003	-0.200
-143.516	104.608	-0.079	-0.093
-142.502	-167.255	0.323	-0.013
-141.487	537.997	-0.130	0.309
-140.472	-33.124	-0.294	-0.163
-139.458	-73.462	-0.257	0.094
-138.443	-54.914	-0.316	-0.142
-137.429	63.216	-0.122	-0.122
-136.414	-193.568	-0.155	-0.001
-135.399	-57.266	-0.271	0.119
-134.385	112.769	-0.100	0.121
-133.370	35.254	0.012	0.010
-132.356	-200.000	0.206	-0.000
-131.341	-200.000	0.008	-0.110
-130.326	-0.548	0.275	-0.195
-129.312	118.794	0.060	-0.074
-128.297	-25.846	0.221	0.130
-127.283	-200.000	0.000	0.145
-126.268	-200.000	0.010	-0.213
-125.253	60.810	-0.165	-0.163
-124.239	-200.000	0.004	0.174
-123.224	-177.085	0.165	0.004
-122.210	-200.000	-0.036	-0.221
-121.195	-142.473	0.159	-0.016
