DTS Sentinel unit serial number:	SN413079Multiplexer serial number:	ORYXHardware model number:	OX4-SRSoftware version number:	ORYX F/W v4.00 Oryx Data Collector v3.7.2.0data status	okinstallation	princeton_trtdifferential loss correction	single-endedforward channel	channel 4reverse channel	N/Adate	2019/09/13time	19:25:35forward acquisition time	60.00reverse acquisition time	0.00gamma	496.2192k internal	0.2314k external	0.2314temperature offset calibration	1.0153default loss term (dB/km)	0.3790temperature slope calibration	1.0000multiplexer offset coefficient	1.0000multiplexer slope coefficient	1.0000fibre end	0.00T internal ref (°C)	30.91T ext. ref 1 (°C)	3.58T ext. ref 2 (°C)	24.42length (m)	temperature (°C)	Stokes	anti-Stokes-747.200	-200.000	-0.018	0.305
-746.185	-68.199	-0.155	-0.061
-745.171	31.253	-0.210	-0.183
-744.156	-83.627	0.439	0.142
-743.142	-65.231	0.257	0.105
-742.127	12.555	-0.065	-0.051
-741.112	49.029	0.038	0.036
-740.098	-11.255	-0.202	0.135
-739.083	800.000	-0.054	-0.183
-738.069	254.273	-0.343	0.594
-737.054	-49.911	-0.191	-0.092
-736.039	11.437	0.060	-0.046
-735.025	139.150	0.252	0.336
-734.010	-200.000	-0.012	0.170
-732.996	800.000	0.073	-0.314
-731.981	-74.406	-0.255	-0.093
-730.966	-200.000	-0.040	-0.551
-729.952	129.628	-0.140	-0.182
-728.937	7.382	-0.188	-0.142
-727.923	71.628	-0.373	-0.393
-726.908	800.000	-0.018	0.059
-725.894	-158.234	-0.362	-0.021
-724.879	-16.686	-0.178	-0.114
-723.864	800.000	0.051	-0.186
-722.850	21.437	-0.251	0.206
-721.835	-184.777	-0.167	-0.003
-720.821	800.000	-0.073	0.232
-719.806	47.571	-0.088	-0.083
-718.791	100.129	0.166	-0.195
-717.777	-105.375	-0.349	0.080
-716.762	174.930	-0.067	0.098
-715.748	-200.000	0.086	0.472
-714.733	369.567	0.080	0.165
-713.718	-0.176	-0.308	-0.222
-712.704	-70.582	-0.196	-0.075
-711.689	-89.378	-0.290	0.086
-710.675	146.135	-0.159	-0.216
-709.660	-126.070	-0.321	0.049
-708.645	376.942	0.073	-0.152
-707.631	525.998	-0.123	-0.292
-706.616	51.789	0.050	0.048
-705.602	-35.371	-0.286	0.157
-704.587	553.062	0.081	-0.197
-703.572	93.941	0.121	-0.139
-702.558	36.981	0.303	-0.272
-701.543	-66.684	0.077	0.031
-700.529	12.156	0.099	-0.077
-699.514	657.682	-0.059	0.155
-698.499	18.337	-0.194	-0.157
-697.485	-200.000	-0.018	0.200
-696.470	-182.317	0.461	0.009
-695.456	-10.335	-0.083	-0.056
-694.441	-200.000	-0.008	0.105
-693.426	800.000	-0.105	0.347
-692.412	-56.165	-0.477	0.215
-691.397	-31.699	-0.121	-0.069
-690.383	51.862	0.024	-0.023
-689.368	22.922	0.304	0.252
-688.354	67.620	-0.309	-0.320
-687.339	70.140	0.171	-0.179
-686.324	65.662	0.267	-0.273
-685.310	-139.586	-0.427	-0.046
-684.295	-200.000	0.006	-0.154
-683.281	-92.991	-0.273	0.077
-682.266	42.357	-0.167	-0.153
-681.251	-200.000	0.037	-0.206
-680.237	-200.000	0.008	-0.070
-679.222	-200.000	0.047	-0.252
-678.208	44.444	0.225	-0.209
-677.193	-120.990	-0.109	0.019
-676.178	476.278	0.014	0.031
-675.164	800.000	0.091	0.345
-674.149	-163.343	-0.230	-0.011
-673.135	-16.760	0.143	0.091
-672.120	90.193	-0.101	0.115
-671.105	-131.853	0.228	-0.030
-670.091	-106.090	0.491	0.112
-669.076	-15.885	0.065	0.042
-668.062	-200.000	0.027	-0.231
-667.047	-26.953	0.282	-0.166
-666.032	-2.979	0.058	0.041
-665.018	-200.000	0.008	0.085
-664.003	51.462	0.230	-0.221
-662.989	-26.732	0.201	0.119
-661.974	-93.844	0.176	0.049
-660.959	321.290	0.102	-0.195
-659.945	-200.000	0.008	-0.237
-658.930	254.433	0.189	-0.327
-657.916	-200.000	0.009	-0.132
-656.901	4.641	-0.111	-0.083
-655.886	-200.000	0.034	-0.176
-654.872	-173.300	0.168	0.005
-653.857	678.761	-0.063	-0.165
-652.843	26.366	-0.177	-0.150
-651.828	168.923	-0.050	-0.072
-650.814	-36.303	0.099	-0.054
-649.799	131.542	0.192	-0.250
-648.784	122.893	-0.171	-0.217
-647.770	-200.000	-0.003	-0.089
-646.755	109.820	-0.216	0.262
-645.741	-200.000	-0.011	0.405
-644.726	-114.916	-0.380	0.073
-643.711	800.000	-0.012	-0.044
-642.697	-24.315	0.143	-0.086
-641.682	-6.894	-0.110	0.075
-640.668	-200.000	0.024	0.141
-639.653	86.246	-0.053	0.059
-638.638	-167.784	-0.105	-0.004
-637.624	728.125	0.049	0.133
-636.609	86.008	-0.084	0.093
-635.595	-200.000	0.037	-0.375
-634.580	106.940	-0.105	-0.126
-633.565	-162.166	-0.121	0.006
-632.551	-34.314	-0.507	-0.281
-631.536	-84.276	-0.106	0.034
-630.522	-3.790	0.053	-0.037
-629.507	187.260	0.288	-0.434
-628.492	234.694	0.050	-0.084
-627.478	42.144	0.165	-0.151
-626.463	286.891	0.179	-0.327
-625.449	-106.179	0.244	0.055
-624.434	-200.000	-0.080	-0.438
-623.419	-200.000	-0.081	-0.397
-622.405	1.601	-0.097	-0.070
-621.390	285.802	-0.069	0.126
-620.376	-104.293	-0.252	0.059
-619.361	14.100	0.345	-0.271
-618.346	-160.540	-0.339	-0.018
-617.332	185.108	0.027	0.040
-616.317	433.259	0.081	0.178
-615.303	-49.905	-0.265	-0.127
-614.288	-102.490	0.126	0.030
-613.273	5.577	0.158	-0.118
-612.259	34.796	0.219	-0.193
-611.244	-115.637	0.242	-0.046
-610.230	-104.461	0.366	0.085
-609.215	-104.674	-0.243	-0.057
-608.201	800.000	-0.111	-0.385
-607.186	-186.609	-0.139	0.002
-606.171	-200.000	0.065	-0.333
-605.157	-200.000	-0.029	0.189
-604.142	-85.301	0.294	0.092
-603.128	-140.597	0.364	0.038
-602.113	199.894	-0.137	-0.212
-601.098	82.937	-0.203	0.223
-600.084	-200.000	0.020	0.163
-599.069	-200.000	0.061	0.273
-598.055	75.189	0.133	-0.141
-597.040	-36.765	0.029	0.016
-596.025	112.773	0.014	-0.017
-595.011	192.833	-0.048	0.073
-593.996	97.523	-0.082	-0.095
-592.982	610.577	0.014	0.036
-591.967	-142.386	-0.241	0.024
-590.952	429.776	-0.075	0.163
-589.938	-107.955	-0.086	-0.019
-588.923	542.953	-0.123	-0.295
-587.909	43.875	-0.270	0.249
-586.894	430.003	0.125	0.272
-585.879	-127.732	0.647	-0.094
-584.865	-200.000	0.000	-0.038
-583.850	800.000	-0.034	0.107
-582.836	-85.280	0.163	0.051
-581.821	800.000	-0.027	0.096
-580.806	-153.713	0.177	-0.012
-579.792	-113.041	-0.136	0.027
-578.777	121.308	0.224	0.281
-577.763	24.185	0.230	0.191
-576.748	-23.519	-0.545	-0.329
-575.733	800.000	-0.024	-0.100
-574.719	390.731	-0.015	-0.031
-573.704	121.072	-0.250	0.313
-572.690	-200.000	-0.062	0.425
-571.675	-200.000	-0.030	-0.193
-570.661	604.018	0.120	-0.300
-569.646	-200.000	-0.016	-0.193
-568.631	125.801	0.115	-0.147
-567.617	-56.091	-0.097	0.043
-566.602	-48.950	-0.108	0.052
-565.588	-54.886	0.041	0.019
-564.573	-171.316	-0.196	-0.007
-563.558	-200.000	-0.024	0.129
-562.544	213.676	-0.111	-0.176
-561.529	800.000	-0.038	0.120
-560.515	554.690	-0.015	-0.036
-559.500	-200.000	0.004	0.216
-558.485	800.000	0.037	0.111
-557.471	19.957	0.148	-0.120
-556.456	56.640	0.153	0.149
-555.442	-149.353	0.447	-0.036
-554.427	-200.000	0.029	-0.192
-553.412	494.457	-0.109	0.251
-552.398	-113.739	-0.247	0.048
-551.383	662.245	0.065	0.169
-550.369	323.254	-0.143	0.274
-549.354	-65.440	-0.183	-0.074
-548.339	749.601	0.062	0.169
-547.325	112.384	-0.133	-0.162
-546.310	-37.326	-0.162	-0.087
-545.296	490.136	-0.082	-0.188
-544.281	313.495	0.122	0.230
-543.266	111.115	-0.117	-0.142
-542.252	-200.000	-0.046	-0.328
-541.237	759.866	0.167	-0.456
-540.223	-188.079	-0.180	-0.002
-539.208	226.816	0.071	0.116
-538.193	800.000	-0.060	-0.181
-537.179	469.887	-0.118	-0.266
-536.164	68.937	0.194	-0.201
-535.150	800.000	-0.095	-0.266
-534.135	-90.346	0.231	-0.067
-533.121	-200.000	-0.007	-0.064
-532.106	85.868	-0.222	0.245
-531.091	-125.393	0.092	0.014
-530.077	-73.063	0.180	-0.066
-529.062	800.000	0.063	0.241
-528.048	126.700	-0.230	0.293
-527.033	30.086	-0.304	0.261
-526.018	-200.000	-0.001	-0.135
-525.004	-78.337	-0.213	0.073
-523.989	140.593	-0.134	-0.178
-522.975	-200.000	-0.026	-0.304
-521.960	131.834	-0.142	0.184
-520.945	114.812	0.058	0.071
-519.931	-200.000	-0.007	-0.126
-518.916	35.188	-0.077	0.068
-517.902	-67.837	0.051	0.020
-516.887	38.531	0.128	-0.115
-515.872	800.000	0.131	-0.487
-514.858	180.316	0.103	-0.152
-513.843	-99.773	0.277	0.070
-512.829	251.973	0.105	0.179
-511.814	24.374	-0.294	-0.244
-510.799	800.000	-0.065	-0.205
-509.785	-200.000	-0.057	0.261
-508.770	119.745	0.149	0.185
-507.756	-129.986	0.276	-0.038
-506.741	-94.302	-0.267	-0.073
-505.726	147.604	0.029	0.039
-504.712	-56.631	-0.206	0.092
-503.697	13.687	0.118	0.092
-502.683	-15.454	0.142	0.091
-501.668	-93.275	-0.016	-0.004
-500.653	-85.932	0.167	-0.052
-499.639	45.890	0.190	-0.176
-498.624	800.000	0.070	0.286
-497.610	59.797	-0.211	-0.210
-496.595	56.300	0.352	0.343
-495.581	166.966	0.262	-0.374
-494.566	439.932	0.057	-0.125
-493.551	-183.159	-0.165	-0.003
-492.537	17.943	0.134	-0.107
-491.522	-83.111	-0.276	0.089
-490.508	-102.860	0.214	0.051
-489.493	800.000	0.027	0.106
-488.478	-200.000	0.012	-0.402
-487.464	-63.325	-0.191	-0.079
-486.449	-200.000	-0.055	-0.280
-485.435	-57.774	0.094	-0.041
-484.420	-200.000	-0.010	0.164
-483.405	800.000	-0.060	-0.202
-482.391	800.000	-0.058	0.203
-481.376	-42.408	-0.171	0.088
-480.362	-200.000	-0.008	-0.215
-479.347	-200.000	-0.020	0.153
-478.332	51.843	-0.177	-0.169
-477.318	-146.240	-0.139	-0.012
-476.303	344.146	0.128	0.251
-475.289	-200.000	0.006	0.155
-474.274	-120.029	0.023	-0.004
-473.259	77.192	0.159	0.169
-472.245	-41.288	0.130	0.067
-471.230	-98.760	0.194	-0.050
-470.216	-84.496	0.197	0.062
-469.201	-12.042	-0.244	-0.160
-468.186	27.833	-0.078	-0.065
-467.172	-200.000	-0.004	0.147
-466.157	-200.000	0.003	-0.107
-465.143	346.600	-0.115	-0.227
-464.128	800.000	-0.051	0.195
-463.113	-52.904	0.200	-0.092
-462.099	158.285	-0.106	0.148
-461.084	197.285	0.243	0.372
-460.070	800.000	0.063	0.213
-459.055	-88.928	-0.156	-0.046
-458.040	-30.429	-0.266	-0.151
-457.026	176.231	-0.058	0.084
-456.011	800.000	-0.084	0.244
-454.997	-34.757	-0.087	0.048
-453.982	106.798	0.161	-0.192
-452.968	-69.777	0.328	-0.125
-451.953	5.661	0.077	-0.057
-450.938	-200.000	-0.017	0.183
-449.924	-128.560	0.092	-0.013
-448.909	156.864	-0.166	0.230
-447.895	73.475	-0.211	0.222
-446.880	101.590	0.089	0.104
-445.865	-200.000	0.108	-0.000
-444.851	268.970	0.062	0.110
-443.836	272.637	0.168	0.297
-442.822	-111.921	0.095	0.019
-441.807	7.963	0.275	0.207
-440.792	-200.000	-0.014	0.268
-439.778	403.718	0.073	-0.153
-438.763	594.528	0.067	0.166
-437.749	-92.429	-0.183	-0.052
-436.734	-89.942	-0.223	-0.065
-435.719	216.036	-0.128	0.204
-434.705	-111.980	-0.222	0.045
-433.690	-200.000	0.020	-0.138
-432.676	-107.754	-0.199	0.043
-431.661	492.761	0.028	0.063
-430.646	-144.322	0.330	0.031
-429.632	-200.000	0.058	0.285
-428.617	-52.371	-0.486	0.225
-427.603	-200.000	-0.018	-0.095
-426.588	-200.000	0.008	-0.127
-425.573	-55.758	0.155	0.069
-424.559	-149.021	-0.130	0.010
-423.544	800.000	0.091	0.261
-422.530	-9.474	-0.267	0.179
-421.515	123.214	0.103	0.129
-420.500	-25.430	0.174	-0.103
-419.486	31.501	-0.132	0.114
-418.471	333.826	0.092	-0.179
-417.457	-29.729	0.225	0.129
-416.442	124.857	-0.028	-0.035
-415.428	16.961	-0.248	-0.196
-414.413	-200.000	0.024	-0.147
-413.398	18.130	0.179	-0.143
-412.384	-79.648	-0.236	-0.080
-411.369	-200.000	0.008	0.066
-410.355	80.291	-0.097	-0.105
-409.340	627.338	-0.139	-0.352
-408.325	-49.780	-0.231	0.110
-407.311	-108.800	-0.420	0.090
-406.296	-200.000	0.044	0.278
-405.282	-83.880	-0.210	-0.067
-404.267	63.087	0.079	-0.079
-403.252	-70.522	-0.132	0.050
-402.238	55.062	-0.031	0.030
-401.223	120.121	0.214	0.266
-400.209	-73.537	-0.334	-0.122
-399.194	-12.607	0.483	-0.315
-398.179	472.832	0.091	0.205
-397.165	-1.631	-0.189	-0.133
-396.150	-200.000	0.016	-0.109
-395.136	-31.193	-0.443	0.250
-394.121	351.353	0.069	-0.137
-393.106	-71.690	-0.260	-0.097
-392.092	-67.762	0.157	-0.061
-391.077	-10.143	-0.198	-0.132
-390.063	69.610	0.192	0.198
-389.048	317.098	-0.027	-0.051
-388.033	144.274	0.191	-0.254
-387.019	-200.000	0.015	0.167
-386.004	82.775	0.092	0.100
-384.990	-61.269	-0.170	-0.072
-383.975	-71.722	0.509	-0.190
-382.960	800.000	0.033	-0.095
-381.946	268.653	0.020	-0.034
-380.931	75.415	0.158	-0.167
-379.917	501.056	0.040	-0.092
-378.902	-77.564	0.113	0.039
-377.888	-200.000	-0.045	0.347
-376.873	800.000	-0.021	-0.073
-375.858	-52.440	-0.273	0.126
-374.844	-76.533	0.261	0.091
-373.829	-62.418	0.519	0.215
-372.815	-73.120	0.313	0.115
-371.800	100.399	-0.153	0.178
-370.785	-189.054	-0.209	0.003
-369.771	-132.915	0.060	0.008
-368.756	-188.274	-0.245	0.003
-367.742	-200.000	-0.022	0.425
-366.727	368.863	0.194	0.393
-365.712	-176.290	-0.139	0.004
-364.698	186.200	0.131	0.195
-363.683	115.560	-0.127	0.155
-362.669	-55.961	-0.239	-0.107
-361.654	166.947	-0.116	-0.165
-360.639	65.599	0.095	-0.096
-359.625	-15.289	0.244	-0.156
-358.610	-43.988	0.131	-0.066
-357.596	-148.974	-0.327	0.026
-356.581	-200.000	-0.045	0.314
-355.566	800.000	-0.039	0.128
-354.552	88.207	-0.301	0.333
-353.537	740.910	0.056	0.151
-352.523	-87.632	-0.035	0.011
-351.508	-159.593	-0.173	0.010
-350.493	-81.504	-0.146	-0.048
-349.479	371.678	0.094	-0.190
-348.464	800.000	0.067	-0.193
-347.450	262.758	-0.188	0.325
-346.435	47.517	0.317	0.295
-345.420	-59.534	-0.195	0.083
-344.406	800.000	0.016	-0.065
-343.391	-200.000	-0.002	-0.039
-342.377	-27.026	0.405	0.236
-341.362	86.822	-0.200	0.220
-340.348	335.607	-0.085	0.165
-339.333	107.245	-0.187	-0.222
-338.318	-187.363	-0.289	-0.004
-337.304	-111.681	0.345	-0.070
-336.289	422.632	0.058	0.125
-335.275	41.062	0.183	-0.165
-334.260	800.000	0.117	-0.336
-333.245	568.034	0.095	0.230
-332.231	122.078	0.027	0.033
-331.216	-17.238	-0.067	-0.042
-330.202	156.535	-0.064	0.088
-329.187	-55.047	-0.312	0.140
-328.172	166.989	-0.106	0.151
-327.158	-98.503	0.199	0.051
-326.143	800.000	-0.029	-0.091
-325.129	-53.051	-0.316	0.145
-324.114	143.786	-0.090	-0.119
-323.099	-64.374	0.306	0.124
-322.085	65.534	0.093	0.094
-321.070	-126.038	0.227	-0.034
-320.056	7.391	-0.386	0.288
-319.041	19.838	-0.178	-0.143
-318.026	140.434	0.030	-0.039
-317.012	106.169	0.043	0.051
-315.997	-152.774	-0.184	0.013
-314.983	-53.502	0.096	0.044
-313.968	145.009	-0.221	-0.294
-312.953	-200.000	0.008	-0.168
-311.939	-1.441	-0.201	-0.141
-310.924	-200.000	-0.016	-0.358
-309.910	-103.393	0.113	-0.027
-308.895	800.000	-0.086	0.296
-307.880	232.718	-0.192	0.314
-306.866	5.414	0.132	-0.097
-305.851	33.013	0.217	-0.188
-304.837	319.902	0.154	0.291
-303.822	362.515	-0.066	-0.133
-302.807	-123.094	0.145	0.023
-301.793	-126.180	-0.258	-0.038
-300.778	704.432	-0.057	-0.150
-299.764	800.000	-0.062	0.243
-298.749	-54.722	-0.171	-0.077
-297.735	-2.076	-0.120	0.084
-296.720	-54.019	-0.308	-0.139
-295.705	-200.000	-0.033	-0.205
-294.691	101.372	0.202	-0.235
-293.676	800.000	-0.013	-0.054
-292.662	-109.312	0.091	0.019
-291.647	-25.444	0.220	-0.130
-290.632	58.538	-0.099	0.097
-289.618	-100.932	0.168	-0.041
-288.603	39.646	-0.144	0.129
-287.589	-200.000	-0.060	-0.317
-286.574	800.000	-0.061	0.246
-285.559	-106.549	0.239	0.053
-284.545	-200.000	0.020	0.162
-283.530	800.000	-0.020	0.082
-282.516	-59.311	-0.106	-0.045
-281.501	800.000	-0.017	0.074
-280.486	-200.000	0.100	-0.608
-279.472	698.273	0.049	-0.129
-278.457	334.613	0.088	-0.169
-277.443	238.840	0.080	-0.132
-276.428	380.558	-0.154	-0.313
-275.413	115.320	-0.119	0.145
-274.399	-59.715	0.216	0.092
-273.384	149.936	-0.154	0.207
-272.370	-200.000	0.031	0.174
-271.355	-200.000	-0.014	-0.298
-270.340	-5.272	0.303	-0.207
-269.326	305.095	0.062	0.114
-268.311	-126.392	-0.115	-0.017
-267.297	73.101	0.153	-0.159
-266.282	-153.134	0.093	-0.006
-265.267	179.228	-0.243	0.354
-264.253	-78.147	-0.043	0.015
-263.238	-117.623	-0.405	0.073
-262.224	7.140	0.167	-0.124
-261.209	-71.378	0.124	-0.046
-260.195	-137.167	0.039	-0.004
-259.180	-200.000	0.006	-0.195
-258.165	205.700	0.052	-0.081
-257.151	69.902	0.242	-0.249
-256.136	-200.000	-0.001	0.148
-255.122	-138.277	0.197	0.022
-254.107	46.272	0.070	-0.065
-253.092	-153.411	-0.118	0.008
-252.078	-14.569	-0.237	-0.152
-251.063	-46.458	0.029	-0.014
-250.049	-200.000	0.004	0.040
-249.034	-12.692	-0.088	-0.057
-248.019	64.236	-0.049	-0.049
-247.005	75.894	0.171	0.179
-245.990	791.698	-0.044	0.121
-244.976	-55.738	0.246	-0.109
-243.961	-141.412	0.302	-0.030
-242.946	71.255	0.111	-0.114
-241.932	-200.000	-0.033	-0.494
-240.917	38.857	-0.171	0.152
-239.903	-121.134	-0.172	0.029
-238.888	63.032	0.191	0.190
-237.873	104.992	0.143	0.167
-236.859	-200.000	-0.025	0.275
-235.844	5.504	-0.388	0.284
-234.830	437.381	0.111	0.240
-233.815	195.036	-0.090	0.136
-232.800	407.680	0.120	0.251
-231.786	-37.876	0.273	0.144
-230.771	75.689	-0.027	-0.029
-229.757	260.655	0.089	0.153
-228.742	595.779	0.069	0.170
-227.727	-20.700	0.158	0.097
-226.713	41.999	0.028	-0.026
-225.698	-99.916	-0.197	-0.049
-224.684	-28.743	0.152	0.087
-223.669	-113.605	0.172	-0.033
-222.655	-128.515	-0.106	-0.015
-221.640	14.625	0.082	0.064
-220.625	-149.331	-0.182	-0.014
-219.611	-93.895	-0.268	0.073
-218.596	-56.412	0.067	-0.030
-217.582	-50.074	0.149	-0.070
-216.567	-47.316	0.243	0.117
-215.552	-200.000	-0.023	-0.162
-214.538	-145.681	0.131	-0.012
-213.523	-104.115	-0.397	0.092
-212.509	-200.000	0.002	0.253
-211.494	-200.000	-0.051	0.221
-210.479	175.085	-0.169	0.243
-209.465	-145.639	0.255	0.023
-208.450	-27.413	0.394	-0.228
-207.436	-200.000	-0.002	-0.277
-206.421	293.989	0.149	-0.271
-205.406	98.501	0.068	-0.078
-204.392	32.160	0.077	-0.066
-203.377	-10.945	0.115	0.075
-202.363	-128.828	-0.234	-0.033
-201.348	-6.282	-0.187	0.127
-200.333	-152.267	0.157	0.011
-199.319	472.087	0.088	0.196
-198.304	-161.116	0.254	0.013
-197.290	800.000	-0.049	-0.168
-196.275	345.224	0.049	-0.095
-195.260	70.621	0.066	0.067
-194.246	-200.000	0.037	-0.211
-193.231	-200.000	-0.010	-0.050
-192.217	249.083	-0.078	-0.131
-191.202	-74.736	-0.262	-0.093
-190.187	-170.212	0.119	-0.004
-189.173	-24.556	0.201	0.119
-188.158	-132.689	0.094	-0.012
-187.144	-115.494	0.389	-0.073
-186.129	-11.778	-0.219	0.143
-185.114	-200.000	-0.030	-0.161
-184.100	-180.531	-0.188	0.004
-183.085	16.477	0.067	0.053
-182.071	-74.828	0.163	0.058
-181.056	75.663	-0.341	-0.358
-180.042	-200.000	-0.053	-0.307
-179.027	-2.273	0.227	0.158
-178.012	-200.000	0.039	-0.314
-176.998	94.076	0.119	-0.134
-175.983	192.681	0.148	-0.221
-174.969	90.430	-0.223	-0.247
-173.954	215.219	0.107	-0.168
-172.939	-200.000	0.008	-0.179
-171.925	536.059	-0.107	0.251
-170.910	-111.541	-0.123	0.025
-169.896	-200.000	0.035	0.194
-168.881	103.082	0.129	-0.150
-167.866	260.372	-0.078	-0.133
-166.852	-107.874	-0.212	-0.046
-165.837	59.850	0.097	0.095
-164.823	-200.000	0.050	0.302
-163.808	85.155	0.222	-0.241
-162.793	-70.220	-0.262	0.099
-161.779	-48.543	-0.360	0.172
-160.764	196.177	0.125	0.188
-159.750	-200.000	-0.019	-0.127
-158.735	-113.475	0.172	-0.033
-157.720	245.765	0.052	0.087
-156.706	-134.156	0.246	0.030
-155.691	8.319	0.256	-0.190
-154.677	-199.422	0.162	-0.001
-153.662	-10.324	-0.341	0.224
-152.647	453.895	-0.074	-0.163
-151.633	77.232	0.115	-0.121
-150.618	-200.000	-0.033	-0.263
-149.604	9.563	0.125	-0.094
-148.589	93.215	-0.008	-0.009
-147.574	-29.162	0.109	-0.062
-146.560	-200.000	-0.046	-0.230
-145.545	728.820	0.088	0.234
-144.531	78.059	0.185	-0.195
-143.516	-200.000	-0.011	-0.529
-142.502	-56.784	-0.164	-0.072
-141.487	278.736	-0.032	0.056
-140.472	87.665	-0.029	0.032
-139.458	80.053	0.159	-0.170
-138.443	800.000	0.033	-0.132
-137.429	162.407	0.121	-0.168
-136.414	-200.000	-0.030	-0.201
-135.399	-77.589	0.312	0.107
-134.385	-61.333	0.282	0.118
-133.370	-200.000	0.008	0.220
-132.356	-68.841	-0.210	-0.080
-131.341	-116.816	-0.379	-0.069
-130.326	458.207	-0.078	0.172
-129.312	89.645	-0.185	-0.204
-128.297	414.239	0.127	0.267
-127.283	207.093	-0.064	-0.099
-126.268	-200.000	0.014	-0.376
-125.253	-11.425	-0.272	0.177
-124.239	-200.000	0.021	-0.270
-123.224	91.951	0.125	0.140
-122.210	529.470	-0.043	0.100
-121.195	259.090	0.036	0.061
