DTS Sentinel unit serial number:	SN413079Multiplexer serial number:	ORYXHardware model number:	OX4-SRSoftware version number:	ORYX F/W v4.00 Oryx Data Collector v3.7.2.0data status	okinstallation	princeton_trtdifferential loss correction	single-endedforward channel	channel 4reverse channel	N/Adate	2019/09/10time	19:07:11forward acquisition time	60.00reverse acquisition time	0.00gamma	496.2192k internal	0.2307k external	0.2307temperature offset calibration	0.9943default loss term (dB/km)	0.3790temperature slope calibration	1.0000multiplexer offset coefficient	1.0000multiplexer slope coefficient	1.0000fibre end	0.00T internal ref (°C)	34.30T ext. ref 1 (°C)	-0.36T ext. ref 2 (°C)	26.56length (m)	temperature (°C)	Stokes	anti-Stokes-747.200	1.415	0.189	0.138
-746.185	800.000	0.087	0.319
-745.171	75.457	-0.039	0.042
-744.156	147.899	0.059	0.080
-743.142	283.333	-0.284	-0.518
-742.127	-200.000	-0.063	0.348
-741.112	88.507	-0.061	0.069
-740.098	117.658	0.077	-0.097
-739.083	-16.907	-0.133	0.086
-738.069	350.667	-0.187	0.376
-737.054	90.439	-0.131	-0.149
-736.039	-57.402	0.224	0.100
-735.025	101.393	0.131	0.156
-734.010	10.418	-0.110	0.085
-732.996	79.436	-0.170	-0.186
-731.981	395.029	0.090	0.192
-730.966	-114.353	-0.316	-0.062
-729.952	40.520	-0.112	-0.102
-728.937	-29.248	0.124	0.072
-727.923	-100.129	-0.171	0.043
-726.908	-200.000	-0.007	-0.082
-725.894	-200.000	-0.030	-0.139
-724.879	38.118	0.117	-0.106
-723.864	148.097	-0.205	0.280
-722.850	-200.000	0.016	-0.274
-721.835	15.190	-0.316	-0.252
-720.821	-156.147	0.093	-0.006
-719.806	283.372	0.205	-0.374
-718.791	-200.000	0.023	-0.246
-717.777	-23.769	-0.271	-0.165
-716.762	800.000	-0.014	0.058
-715.748	327.714	-0.097	0.188
-714.733	67.176	0.173	-0.179
-713.718	-88.755	-0.242	-0.073
-712.704	511.383	-0.142	-0.336
-711.689	-67.925	-0.172	-0.068
-710.675	192.041	-0.055	0.084
-709.660	-142.374	0.202	-0.020
-708.645	-4.100	-0.030	-0.021
-707.631	22.725	0.050	-0.042
-706.616	-11.875	0.123	0.082
-705.602	-200.000	-0.056	-0.000
-704.587	50.029	0.331	-0.317
-703.572	-200.000	0.012	-0.067
-702.558	74.174	0.313	-0.334
-701.543	97.233	0.072	0.084
-700.529	10.335	0.122	-0.094
-699.514	60.557	0.148	0.149
-698.499	203.031	0.173	-0.271
-697.485	-7.446	0.206	-0.142
-696.470	270.285	-0.199	-0.355
-695.456	-137.767	-0.248	-0.028
-694.441	628.076	-0.108	0.276
-693.426	132.250	0.111	-0.146
-692.412	-200.000	-0.007	0.173
-691.397	-93.478	-0.251	0.071
-690.383	38.819	0.228	-0.207
-689.368	-56.015	0.338	-0.153
-688.354	69.119	-0.369	0.384
-687.339	-200.000	0.049	-0.243
-686.324	250.801	-0.081	-0.139
-685.310	89.855	-0.247	-0.279
-684.295	-157.167	0.229	-0.014
-683.281	-174.629	-0.120	0.003
-682.266	621.189	0.048	0.122
-681.251	48.996	0.138	-0.131
-680.237	-181.489	0.059	0.001
-679.222	-164.048	-0.366	0.017
-678.208	263.132	-0.088	0.156
-677.193	-200.000	0.006	-0.229
-676.178	-54.336	0.236	0.109
-675.164	450.789	0.112	-0.252
-674.149	-5.839	-0.198	-0.137
-673.135	240.668	0.090	-0.152
-672.120	-60.654	0.073	0.031
-671.105	499.266	-0.028	-0.066
-670.091	-49.079	-0.244	0.118
-669.076	-200.000	-0.603	-0.001
-668.062	-92.909	0.232	0.066
-667.047	-168.752	-0.195	0.007
-666.032	-159.183	-0.431	-0.025
-665.018	69.164	-0.225	-0.235
-664.003	117.746	-0.094	-0.117
-662.989	-110.625	0.143	-0.030
-661.974	210.673	-0.165	-0.264
-660.959	97.514	-0.120	-0.140
-659.945	-200.000	0.029	-0.250
-658.930	54.464	-0.364	-0.356
-657.916	-85.075	0.150	-0.047
-656.901	-13.376	-0.144	0.094
-655.886	-139.198	0.236	0.026
-654.872	-131.982	-0.350	0.046
-653.857	249.565	0.214	-0.368
-652.843	-32.865	0.352	-0.198
-651.828	800.000	-0.073	-0.309
-650.814	-84.303	0.177	0.057
-649.799	31.880	-0.112	0.098
-648.784	-27.981	0.200	-0.117
-647.770	128.860	-0.113	-0.145
-646.755	-200.000	-0.011	-0.197
-645.741	34.893	0.071	-0.063
-644.726	-200.000	-0.026	0.192
-643.711	800.000	-0.052	-0.220
-642.697	-107.093	-0.372	-0.083
-641.682	-48.739	0.223	-0.109
-640.668	525.285	0.081	-0.194
-639.653	-13.320	-0.229	0.150
-638.638	-40.858	-0.142	-0.074
-637.624	-79.077	0.068	-0.023
-636.609	-200.000	-0.039	0.266
-635.595	800.000	-0.049	-0.148
-634.580	-76.575	-0.241	-0.086
-633.565	-14.276	0.163	0.106
-632.551	-200.000	0.001	-0.045
-631.536	-200.000	-0.022	0.125
-630.522	314.111	-0.166	-0.317
-629.507	-171.205	-0.274	-0.009
-628.492	-64.468	-0.400	-0.164
-627.478	-5.639	0.078	-0.054
-626.463	-23.216	-0.161	0.098
-625.449	92.516	-0.107	-0.123
-624.434	-200.000	0.007	-0.173
-623.419	-41.794	-0.078	0.040
-622.405	-111.525	-0.129	-0.026
-621.390	-200.000	0.001	-0.081
-620.376	-200.000	-0.032	0.337
-619.361	247.208	-0.081	0.139
-618.346	661.563	-0.031	-0.081
-617.332	-200.000	0.048	0.373
-616.317	-38.264	0.250	0.134
-615.303	-200.000	0.245	0.000
-614.288	-49.182	-0.253	-0.122
-613.273	800.000	-0.021	0.067
-612.259	14.388	0.048	-0.038
-611.244	20.918	-0.160	0.131
-610.230	-41.570	-0.314	0.164
-609.215	-35.115	0.227	0.125
-608.201	-200.000	0.008	0.111
-607.186	-188.916	-0.304	-0.004
-606.171	-131.263	-0.099	0.013
-605.157	17.769	-0.218	-0.175
-604.142	-70.365	-0.215	0.082
-603.128	-84.013	0.125	-0.040
-602.113	800.000	-0.028	0.121
-601.098	-65.013	0.389	-0.159
-600.084	-200.000	0.067	-0.503
-599.069	-55.169	-0.155	0.071
-598.055	416.391	0.086	-0.185
-597.040	68.042	-0.088	-0.091
-596.025	-200.000	-0.016	-0.138
-595.011	54.134	0.194	0.188
-593.996	205.274	0.052	0.082
-592.982	19.492	0.099	-0.080
-591.967	-200.000	-0.012	0.056
-590.952	-20.510	-0.124	0.077
-589.938	74.322	0.145	0.154
-588.923	19.839	-0.191	-0.156
-587.909	-1.261	-0.087	-0.062
-586.894	-200.000	0.030	0.256
-585.879	-200.000	0.002	-0.164
-584.865	-78.018	0.166	-0.058
-583.850	-111.639	0.395	0.081
-582.836	70.282	0.116	-0.122
-581.821	178.330	0.050	0.073
-580.806	62.860	0.057	0.058
-579.792	-162.628	0.242	0.012
-578.777	-128.663	0.135	0.019
-577.763	-200.000	-0.003	0.073
-576.748	-40.507	-0.031	0.016
-575.733	-42.246	-0.166	-0.086
-574.719	-60.413	0.399	0.171
-573.704	-98.670	0.222	0.057
-572.690	182.700	0.172	-0.256
-571.675	800.000	0.148	0.456
-570.661	-83.010	0.101	0.033
-569.646	-32.792	0.448	0.251
-568.631	612.129	-0.162	-0.409
-567.617	-129.784	-0.088	0.012
-566.602	61.749	-0.195	0.196
-565.588	133.285	-0.046	0.060
-564.573	-176.326	0.146	0.004
-563.558	800.000	-0.064	-0.237
-562.544	-52.777	-0.107	0.050
-561.529	-200.000	-0.013	0.168
-560.515	800.000	0.033	0.101
-559.500	118.130	-0.183	-0.228
-558.485	91.940	-0.067	0.076
-557.471	-200.000	0.017	0.170
-556.456	79.799	-0.210	0.228
-555.442	-44.560	-0.244	0.123
-554.427	153.724	-0.071	-0.098
-553.412	-200.000	0.059	0.373
-552.398	117.730	0.119	0.147
-551.383	-90.516	-0.220	-0.064
-550.369	-78.425	-0.244	-0.084
-549.354	-200.000	0.021	0.262
-548.339	800.000	0.086	0.245
-547.325	-200.000	-0.030	-0.190
-546.310	-200.000	-0.011	0.050
-545.296	553.491	-0.100	-0.242
-544.281	65.625	-0.282	-0.288
-543.266	-45.632	0.017	0.008
-542.252	-101.637	0.271	0.066
-541.237	-51.832	0.352	0.165
-540.223	37.922	-0.183	0.164
-539.208	-200.000	-0.036	-0.260
-538.193	-39.773	-0.274	-0.145
-537.179	-95.176	-0.328	-0.089
-536.164	2.744	0.067	0.049
-535.150	42.295	-0.206	0.189
-534.135	471.387	-0.073	0.166
-533.121	-25.062	0.308	0.184
-532.106	10.892	0.137	0.105
-531.091	-22.928	-0.060	-0.037
-530.077	83.534	-0.114	-0.126
-529.062	390.426	0.115	-0.241
-528.048	4.793	-0.154	-0.114
-527.033	28.941	0.279	0.239
-526.018	20.874	0.174	-0.142
-525.004	163.675	0.118	-0.168
-523.989	-68.400	0.277	0.108
-522.975	-148.333	-0.166	-0.014
-521.960	540.086	-0.075	-0.179
-520.945	-100.886	0.385	0.095
-519.931	-39.409	0.052	0.028
-518.916	61.879	-0.239	0.240
-517.902	-186.346	-0.083	-0.001
-516.887	559.523	0.154	-0.374
-515.872	-200.000	0.019	-0.258
-514.858	-89.846	0.263	-0.077
-513.843	759.785	-0.123	-0.335
-512.829	172.972	-0.107	-0.155
-511.814	-200.000	0.022	-0.296
-510.799	589.976	-0.102	0.254
-509.785	-68.996	-0.250	-0.097
-508.770	180.021	-0.189	-0.279
-507.756	-75.657	-0.129	-0.046
-506.741	254.009	-0.131	-0.226
-505.726	-54.933	0.064	-0.029
-504.712	-24.127	0.055	-0.033
-503.697	37.579	0.075	0.067
-502.683	800.000	-0.068	0.232
-501.668	23.218	-0.022	-0.018
-500.653	51.860	-0.130	0.124
-499.639	-105.362	-0.236	-0.054
-498.624	-179.753	0.189	-0.004
-497.610	-21.686	0.364	-0.224
-496.595	-169.004	0.109	-0.004
-495.581	-200.000	-0.029	-0.265
-494.566	-82.735	-0.211	-0.069
-493.551	-133.405	0.467	0.059
-492.537	-129.128	-0.042	-0.006
-491.522	-76.725	0.353	0.124
-490.508	-177.614	-0.277	-0.007
-489.493	-200.000	-0.026	-0.121
-488.478	-200.000	0.057	-0.435
-487.464	-124.506	0.502	0.079
-486.449	434.387	-0.091	0.198
-485.435	-87.051	0.229	-0.070
-484.420	50.922	-0.060	-0.057
-483.405	-80.316	-0.159	0.054
-482.391	289.083	-0.024	0.044
-481.376	-51.607	0.054	-0.026
-480.362	-72.212	0.156	0.058
-479.347	-52.445	-0.313	-0.146
-478.332	800.000	0.026	-0.111
-477.318	-200.000	0.015	0.080
-476.303	-82.988	0.344	0.112
-475.289	321.647	-0.117	-0.225
-474.274	68.809	0.079	0.081
-473.259	-50.319	0.078	0.037
-472.245	-94.423	-0.092	-0.025
-471.230	704.351	-0.019	0.049
-470.216	800.000	0.074	0.232
-469.201	-52.735	0.053	0.025
-468.186	541.635	-0.142	-0.340
-467.172	-127.455	-0.178	0.026
-466.157	85.154	-0.018	-0.020
-465.143	259.330	-0.181	0.315
-464.128	-200.000	-0.039	-0.210
-463.113	345.507	0.126	0.250
-462.099	-23.252	0.054	0.033
-461.084	5.687	-0.113	0.084
-460.070	-123.581	0.306	-0.049
-459.055	-137.657	-0.565	0.064
-458.040	322.689	0.042	-0.080
-457.026	-200.000	-0.055	-0.261
-456.011	177.254	-0.050	0.073
-454.997	-200.000	0.060	0.000
-453.982	151.314	0.176	0.241
-452.968	92.186	-0.264	0.299
-451.953	405.419	0.105	-0.223
-450.938	-108.732	-0.320	-0.069
-449.924	164.743	-0.137	0.195
-448.909	501.934	0.144	-0.334
-447.895	800.000	-0.093	-0.338
-446.880	-200.000	0.005	0.167
-445.865	-158.658	-0.250	0.014
-444.851	-153.241	0.336	-0.024
-443.836	-8.896	-0.205	0.138
-442.822	155.997	0.191	-0.264
-441.807	-141.030	0.401	0.041
-440.792	-200.000	0.028	-0.402
-439.778	800.000	-0.107	0.376
-438.763	-120.710	0.049	-0.008
-437.749	273.879	-0.038	0.068
-436.734	-85.786	-0.311	-0.097
-435.719	-80.977	0.099	0.033
-434.705	-89.662	0.107	-0.032
-433.690	25.663	0.254	-0.212
-432.676	107.166	0.229	0.273
-431.661	-200.000	0.016	-0.147
-430.646	-171.099	-0.184	-0.006
-429.632	222.590	-0.074	0.120
-428.617	800.000	0.126	0.476
-427.603	310.698	0.076	-0.143
-426.588	168.862	0.225	-0.322
-425.573	800.000	-0.149	0.514
-424.559	-78.008	-0.299	-0.103
-423.544	134.263	0.130	-0.169
-422.530	97.387	0.271	-0.312
-421.515	175.543	-0.248	-0.362
-420.500	208.099	-0.152	0.238
-419.486	83.933	0.119	-0.130
-418.471	-47.563	0.173	0.084
-417.457	-200.000	0.001	0.059
-416.442	539.780	-0.085	-0.203
-415.428	-26.816	0.118	-0.069
-414.413	59.126	-0.168	0.166
-413.398	-200.000	0.014	-0.141
-412.384	800.000	-0.015	0.061
-411.369	60.901	0.086	0.086
-410.355	-131.131	0.095	0.013
-409.340	-106.927	-0.100	0.022
-408.325	517.024	0.128	-0.301
-407.311	156.065	-0.177	-0.244
-406.296	13.118	0.269	0.209
-405.282	-200.000	-0.049	-0.508
-404.267	-53.001	-0.086	0.040
-403.252	80.501	-0.169	0.182
-402.238	344.028	0.253	-0.497
-401.223	-146.403	-0.334	-0.029
-400.209	-32.329	-0.066	-0.037
-399.194	-96.243	-0.287	0.076
-398.179	303.227	0.069	-0.129
-397.165	366.404	-0.024	0.048
-396.150	-110.151	0.320	-0.067
-395.136	201.234	-0.326	0.503
-394.121	490.299	0.186	0.427
-393.106	439.291	-0.117	-0.256
-392.092	-200.000	0.004	0.212
-391.077	-200.000	-0.010	0.260
-390.063	764.306	0.072	-0.197
-389.048	299.018	0.175	0.322
-388.033	283.463	-0.210	0.379
-387.019	104.975	-0.165	-0.195
-386.004	-109.670	-0.164	0.035
-384.990	-129.554	0.146	-0.020
-383.975	-173.045	-0.077	-0.002
-382.960	94.544	0.150	0.171
-381.946	89.061	-0.181	0.202
-380.931	-156.893	0.184	0.011
-379.917	-57.789	-0.269	0.118
-378.902	791.512	0.106	0.293
-377.888	-16.802	-0.165	0.105
-376.873	-76.818	0.368	0.129
-375.858	87.717	0.153	0.170
-374.844	658.090	0.009	0.024
-373.829	-45.838	-0.262	0.130
-372.815	97.440	0.131	0.151
-371.800	698.539	0.082	0.216
-370.785	-138.842	-0.487	0.053
-369.771	-200.000	-0.025	-0.361
-368.756	108.254	0.039	0.047
-367.742	432.982	-0.083	-0.180
-366.727	-126.538	-0.102	-0.015
-365.712	-200.000	0.050	0.234
-364.698	-200.000	-0.014	-0.070
-363.683	-129.150	-0.213	-0.030
-362.669	-91.566	-0.181	-0.052
-361.654	14.351	-0.029	-0.022
-360.639	34.631	-0.169	0.148
-359.625	-200.000	-0.006	0.049
-358.610	-200.000	0.021	0.158
-357.596	-200.000	0.021	0.142
-356.581	-200.000	0.001	0.039
-355.566	108.959	-0.187	0.224
-354.552	644.962	-0.123	-0.313
-353.537	-200.000	0.047	-0.301
-352.523	26.817	0.188	-0.158
-351.508	-78.654	-0.201	-0.069
-350.493	263.695	-0.050	-0.088
-349.479	-72.610	-0.142	-0.052
-348.464	47.707	0.198	0.185
-347.450	800.000	-0.045	-0.153
-346.435	-107.786	-0.216	-0.047
-345.420	183.394	0.138	0.204
-344.406	-81.239	0.169	-0.056
-343.391	42.042	-0.190	-0.173
-342.377	-128.400	-0.212	-0.030
-341.362	-24.995	-0.053	0.032
-340.348	655.792	-0.089	-0.228
-339.333	-52.367	-0.360	0.167
-338.318	81.211	-0.132	-0.143
-337.304	-16.923	0.439	-0.278
-336.289	-46.573	0.210	0.103
-335.275	-172.729	-0.185	-0.006
-334.260	222.392	0.085	0.137
-333.245	-200.000	0.007	-0.100
-332.231	602.294	-0.065	-0.163
-331.216	119.220	-0.088	-0.109
-330.202	-200.000	0.064	0.307
-329.187	-200.000	-0.072	-0.483
-328.172	-105.052	0.070	-0.016
-327.158	-200.000	-0.015	0.154
-326.143	18.991	0.070	-0.056
-325.129	685.176	0.031	-0.080
-324.114	29.931	-0.135	0.115
-323.099	-29.538	-0.096	0.055
-322.085	119.777	0.190	-0.235
-321.070	239.992	0.062	0.103
-320.056	241.063	0.153	-0.256
-319.041	63.876	0.072	-0.073
-318.026	-118.925	0.237	0.042
-317.012	78.840	0.227	-0.243
-315.997	662.351	0.044	0.112
-314.983	-81.974	0.100	0.033
-313.968	182.750	-0.207	-0.305
-312.953	51.768	0.218	-0.207
-311.939	19.851	0.061	0.049
-310.924	-153.500	0.212	-0.015
-309.910	-86.363	0.346	0.106
-308.895	-200.000	0.003	0.060
-307.880	5.081	0.150	0.111
-306.866	-177.232	0.156	-0.004
-305.851	-200.000	-0.020	0.161
-304.837	-86.614	-0.305	0.094
-303.822	-24.030	0.145	0.087
-302.807	-200.000	-0.000	0.277
-301.793	617.250	0.069	-0.172
-300.778	97.067	-0.119	-0.137
-299.764	565.608	-0.037	-0.089
-298.749	800.000	0.080	0.282
-297.735	593.722	0.098	-0.242
-296.720	-151.694	-0.119	0.009
-295.705	-30.884	-0.176	0.099
-294.691	164.920	0.104	-0.146
-293.676	38.544	0.059	0.053
-292.662	8.038	0.143	0.107
-291.647	-120.710	-0.224	-0.038
-290.632	-142.277	-0.309	-0.031
-289.618	-200.000	-0.016	-0.134
-288.603	78.067	0.193	-0.206
-287.589	702.086	0.042	0.111
-286.574	95.300	-0.186	0.212
-285.559	32.972	0.092	-0.080
-284.545	-200.000	0.013	-0.232
-283.530	800.000	-0.077	0.231
-282.516	-75.705	0.415	0.147
-281.501	124.545	-0.232	-0.292
-280.486	-200.000	0.007	0.070
-279.472	-35.634	-0.169	-0.092
-278.457	-61.689	0.081	0.034
-277.443	-200.000	-0.038	0.176
-276.428	-95.982	0.065	0.017
-275.413	0.090	0.135	-0.096
-274.399	-114.367	0.303	-0.058
-273.384	-143.066	-0.272	-0.026
-272.370	-200.000	-0.023	0.123
-271.355	19.552	-0.159	-0.128
-270.340	-81.163	0.320	-0.105
-269.326	-14.522	0.152	-0.097
-268.311	-200.000	-0.012	0.118
-267.297	194.146	0.151	0.229
-266.282	800.000	-0.050	-0.185
-265.267	62.384	0.064	0.064
-264.253	-200.000	-0.006	-0.175
-263.238	49.979	0.095	0.089
-262.224	622.924	-0.053	0.133
-261.209	-149.576	0.348	0.027
-260.195	-4.908	0.147	0.101
-259.180	505.693	-0.063	0.146
-258.165	173.454	-0.167	-0.241
-257.151	-200.000	0.010	-0.549
-256.136	-68.975	0.118	0.045
-255.122	32.159	0.147	-0.126
-254.107	666.513	0.183	0.473
-253.092	-71.438	-0.239	-0.089
-252.078	-115.796	-0.141	-0.026
-251.063	27.031	-0.156	0.131
-250.049	-200.000	-0.224	0.001
-249.034	38.313	0.191	0.169
-248.019	-132.383	-0.337	0.043
-247.005	-200.000	0.045	0.236
-245.990	-108.927	0.129	-0.027
-244.976	-30.689	0.399	-0.225
-243.961	733.076	-0.133	0.354
-242.946	-97.499	0.119	0.031
-241.932	-200.000	0.016	0.178
-240.917	-181.964	0.104	0.002
-239.903	74.514	0.155	-0.162
-238.888	489.438	-0.017	-0.039
-237.873	135.855	0.119	-0.154
-236.859	-35.502	0.104	0.056
-235.844	499.662	0.109	-0.250
-234.830	117.118	-0.225	-0.276
-233.815	60.163	0.066	-0.065
-232.800	10.947	-0.283	-0.215
-231.786	-200.000	0.001	0.108
-230.771	177.022	-0.071	-0.103
-229.757	-44.254	-0.179	0.089
-228.742	427.746	-0.042	0.090
-227.727	-176.312	-0.212	-0.006
-226.713	-200.000	0.048	0.274
-225.698	-184.265	-0.245	-0.004
-224.684	103.392	-0.210	-0.246
-223.669	527.997	-0.092	0.217
-222.655	800.000	0.093	0.284
-221.640	-172.447	0.198	-0.006
-220.625	800.000	-0.048	0.210
-219.611	53.625	0.388	0.371
-218.596	800.000	-0.096	0.353
-217.582	-128.766	0.083	0.012
-216.567	-40.703	0.208	-0.108
-215.552	800.000	-0.097	0.343
-214.538	-200.000	0.008	-0.119
-213.523	-190.922	0.116	-0.001
-212.509	80.780	0.105	0.113
-211.494	-98.648	-0.356	0.091
-210.479	135.138	0.116	-0.151
-209.465	318.339	0.116	0.219
-208.450	-200.000	-0.072	0.396
-207.436	-45.696	-0.109	-0.054
-206.421	-200.000	-0.041	0.191
-205.406	35.189	-0.145	-0.126
-204.392	800.000	-0.211	-0.645
-203.377	-200.000	0.046	0.221
-202.363	34.432	0.193	0.168
-201.348	-87.663	-0.563	0.169
-200.333	-59.724	0.461	-0.197
-199.319	-200.000	0.017	0.194
-198.304	103.626	0.282	-0.330
-197.290	800.000	-0.070	0.200
-196.275	-65.592	0.221	-0.088
-195.260	-109.097	-0.532	-0.113
-194.246	477.586	0.109	0.246
-193.231	540.821	0.108	-0.257
-192.217	4.445	-0.311	-0.227
-191.202	-16.865	0.263	-0.166
-190.187	-146.237	-0.162	-0.014
-189.173	-200.000	-0.014	-0.282
-188.158	-133.413	-0.253	-0.032
-187.144	205.515	0.163	-0.252
-186.129	-54.933	0.234	-0.105
-185.114	-53.253	-0.101	-0.046
-184.100	270.920	0.117	-0.205
-183.085	-121.736	-0.108	-0.018
-182.071	21.202	-0.097	0.078
-181.056	173.975	-0.112	0.161
-180.042	232.731	0.063	0.102
-179.027	78.506	0.194	-0.207
-178.012	800.000	-0.093	-0.370
-176.998	-42.879	0.139	-0.070
-175.983	-91.287	0.168	0.048
-174.969	-30.614	-0.041	-0.023
-173.954	-200.000	0.009	0.292
-172.939	65.932	0.161	0.163
-171.925	281.852	0.229	0.408
-170.910	-10.352	-0.200	0.132
-169.896	527.969	-0.070	0.165
-168.881	-101.737	0.119	-0.029
-167.866	-200.000	0.021	0.457
-166.852	800.000	-0.043	-0.119
-165.837	-110.956	0.126	0.026
-164.823	-75.783	0.128	-0.045
-163.808	58.903	0.125	-0.122
-162.793	-82.230	-0.125	-0.040
-161.779	800.000	-0.067	0.229
-160.764	-22.661	0.219	0.131
-159.750	132.011	-0.126	0.161
-158.735	13.274	0.288	0.221
-157.720	-98.896	-0.206	0.052
-156.706	-16.204	-0.207	0.131
-155.691	-200.000	-0.004	-0.101
-154.677	-76.452	0.455	-0.159
-153.662	41.669	0.222	0.200
-152.647	800.000	0.015	-0.063
-151.633	-28.829	-0.356	-0.203
-150.618	-110.187	-0.350	-0.073
-149.604	526.257	-0.035	0.082
-148.589	157.259	-0.202	0.277
-147.574	-6.297	0.025	-0.017
-146.560	-120.834	-0.198	-0.033
-145.545	-150.696	-0.214	0.016
-144.531	16.563	0.167	0.131
-143.516	-200.000	0.004	0.168
-142.502	55.341	0.112	-0.107
-141.487	742.160	-0.028	0.074
-140.472	-76.173	-0.081	-0.028
-139.458	800.000	0.043	-0.142
-138.443	231.496	-0.151	0.246
-137.429	-18.575	0.108	0.067
-136.414	524.314	-0.102	0.239
-135.399	64.161	0.101	0.101
-134.385	800.000	-0.097	-0.319
-133.370	-56.971	0.369	-0.162
-132.356	-200.000	0.003	0.049
-131.341	28.976	-0.307	-0.258
-130.326	-200.000	-0.029	0.168
-129.312	4.340	0.012	0.008
-128.297	-9.293	0.233	-0.155
-127.283	-13.920	0.056	0.036
-126.268	-57.210	0.451	0.197
-125.253	249.996	0.127	0.215
-124.239	432.527	-0.098	0.211
-123.224	230.022	-0.042	0.068
-122.210	-12.403	-0.128	0.083
-121.195	-121.277	-0.208	-0.034
