DTS Sentinel unit serial number:	SN413079Multiplexer serial number:	ORYXHardware model number:	OX4-SRSoftware version number:	ORYX F/W v4.00 Oryx Data Collector v3.7.2.0data status	okinstallation	princeton_trtdifferential loss correction	single-endedforward channel	channel 4reverse channel	N/Adate	2019/09/18time	19:49:35forward acquisition time	60.00reverse acquisition time	0.00gamma	496.2192k internal	0.2316k external	0.2316temperature offset calibration	1.0035default loss term (dB/km)	0.3790temperature slope calibration	1.0000multiplexer offset coefficient	1.0000multiplexer slope coefficient	1.0000fibre end	0.00T internal ref (°C)	31.19T ext. ref 1 (°C)	1.05T ext. ref 2 (°C)	22.00length (m)	temperature (°C)	Stokes	anti-Stokes-747.200	-38.298	0.254	0.136
-746.185	-185.269	0.195	0.003
-745.171	323.101	0.070	0.135
-744.156	-200.000	-0.023	-0.226
-743.142	204.375	-0.117	-0.183
-742.127	325.326	-0.115	0.223
-741.112	-200.000	-0.023	0.118
-740.098	800.000	-0.030	0.127
-739.083	108.919	-0.140	0.169
-738.069	800.000	-0.067	0.239
-737.054	-121.773	-0.149	0.025
-736.039	-135.904	-0.051	-0.006
-735.025	-16.576	0.139	-0.089
-734.010	-25.262	0.071	-0.042
-732.996	-8.174	0.097	-0.066
-731.981	-71.631	-0.008	0.003
-730.966	800.000	0.058	-0.233
-729.952	-76.640	0.105	0.037
-728.937	-76.761	-0.278	-0.099
-727.923	-105.019	0.182	-0.042
-726.908	440.484	-0.137	-0.302
-725.894	-200.000	-0.027	-0.218
-724.879	-200.000	-0.011	0.164
-723.864	-74.608	0.170	0.062
-722.850	132.868	-0.269	-0.352
-721.835	-60.356	0.327	-0.141
-720.821	-200.000	-0.057	-0.312
-719.806	-200.000	0.028	-0.307
-718.791	-37.742	0.075	-0.040
-717.777	48.857	-0.129	-0.123
-716.762	800.000	0.097	0.402
-715.748	302.095	-0.043	-0.080
-714.733	132.909	0.108	-0.142
-713.718	-95.057	-0.111	-0.030
-712.704	-27.640	-0.171	0.101
-711.689	800.000	-0.046	0.180
-710.675	-94.566	-0.101	0.028
-709.660	-200.000	-0.024	0.123
-708.645	-172.438	0.277	0.009
-707.631	63.720	-0.179	0.182
-706.616	388.039	0.060	-0.127
-705.602	10.040	-0.174	0.134
-704.587	-200.000	0.051	0.355
-703.572	-77.682	-0.159	-0.056
-702.558	82.242	-0.190	0.208
-701.543	5.018	-0.267	-0.199
-700.529	-39.677	0.161	-0.085
-699.514	-18.860	-0.255	-0.160
-698.499	-75.895	0.191	0.068
-697.485	-146.784	0.153	-0.013
-696.470	-200.000	0.010	-0.259
-695.456	-81.009	-0.189	-0.063
-694.441	-200.000	0.022	0.163
-693.426	-33.429	0.155	0.087
-692.412	40.232	-0.142	-0.129
-691.397	800.000	0.010	0.029
-690.383	-33.088	0.170	-0.095
-689.368	-200.000	0.038	0.231
-688.354	727.420	-0.107	0.287
-687.339	92.626	0.131	-0.150
-686.324	422.331	-0.163	-0.353
-685.310	17.744	0.224	0.180
-684.295	-109.724	0.130	-0.028
-683.281	4.215	0.259	-0.192
-682.266	-120.083	-0.159	-0.028
-681.251	-200.000	-0.004	-0.151
-680.237	-200.000	0.094	-0.442
-679.222	257.457	-0.130	-0.225
-678.208	-88.477	0.084	0.025
-677.193	-140.384	0.100	-0.011
-676.178	800.000	-0.063	-0.189
-675.164	-27.633	-0.259	0.152
-674.149	60.741	-0.112	0.112
-673.135	-200.000	-0.004	-0.061
-672.120	-200.000	0.063	-0.493
-671.105	-112.059	0.133	-0.027
-670.091	205.579	-0.251	0.394
-669.076	-126.142	-0.194	-0.029
-668.062	85.267	-0.127	-0.141
-667.047	79.067	0.148	-0.160
-666.032	-29.618	-0.253	-0.146
-665.018	412.352	-0.162	0.348
-664.003	35.005	-0.156	-0.138
-662.989	-157.219	0.205	0.013
-661.974	-45.080	0.129	-0.065
-660.959	-76.183	-0.250	-0.089
-659.945	-107.946	0.314	-0.069
-658.930	83.249	-0.196	-0.215
-657.916	-41.414	-0.301	-0.156
-656.901	202.566	0.154	-0.239
-655.886	-81.634	-0.046	-0.015
-654.872	-57.413	0.109	-0.048
-653.857	800.000	-0.121	0.396
-652.843	-8.927	0.179	0.121
-651.828	-200.000	0.054	-0.264
-650.814	83.349	0.213	-0.234
-649.799	800.000	-0.078	-0.296
-648.784	-200.000	0.056	-0.398
-647.770	0.928	-0.311	0.225
-646.755	624.329	0.065	-0.164
-645.741	-39.623	-0.334	0.177
-644.726	-200.000	0.011	0.067
-643.711	-200.000	-0.022	0.124
-642.697	17.049	0.233	0.186
-641.682	253.090	0.174	0.299
-640.668	4.288	0.210	0.155
-639.653	502.136	0.218	0.507
-638.638	432.812	0.169	-0.369
-637.624	300.969	0.123	-0.229
-636.609	185.707	0.096	-0.145
-635.595	800.000	-0.042	-0.165
-634.580	800.000	-0.056	-0.168
-633.565	-31.054	0.121	-0.069
-632.551	389.423	-0.142	-0.296
-631.536	-79.148	0.224	-0.077
-630.522	427.719	-0.095	0.206
-629.507	-200.000	-0.043	-0.222
-628.492	254.538	-0.106	-0.184
-627.478	69.269	0.278	-0.288
-626.463	-200.000	-0.019	0.155
-625.449	-37.260	-0.217	-0.117
-624.434	421.321	0.101	-0.219
-623.419	236.304	0.158	0.263
-622.405	234.455	-0.110	0.184
-621.390	410.023	0.087	-0.185
-620.376	-124.613	-0.129	0.020
-619.361	-55.247	-0.203	-0.092
-618.346	-200.000	-0.036	-0.177
-617.332	735.697	-0.148	-0.401
-616.317	300.954	0.106	0.198
-615.303	-139.510	0.205	-0.022
-614.288	243.428	0.135	-0.228
-613.273	576.441	0.090	-0.222
-612.259	188.791	0.091	0.137
-611.244	16.440	0.059	-0.047
-610.230	-121.671	-0.097	0.016
-609.215	-110.637	-0.159	0.033
-608.201	295.077	0.063	-0.116
-607.186	-200.000	-0.051	-0.483
-606.171	-147.531	0.151	0.013
-605.157	800.000	-0.081	0.246
-604.142	-78.303	-0.177	0.061
-603.128	331.021	0.049	-0.095
-602.113	-98.693	0.233	-0.060
-601.098	-0.600	0.242	-0.173
-600.084	-12.527	-0.187	-0.123
-599.069	800.000	0.086	-0.282
-598.055	445.875	-0.059	-0.130
-597.040	-200.000	-0.000	0.159
-596.025	56.839	0.245	-0.240
-595.011	-131.639	0.181	-0.024
-593.996	-72.354	-0.121	0.045
-592.982	-200.000	0.023	-0.187
-591.967	44.548	0.176	-0.162
-590.952	347.722	-0.099	-0.196
-589.938	562.937	0.123	0.299
-588.923	-11.191	-0.059	-0.039
-587.909	-200.000	0.024	-0.204
-586.894	-69.450	0.150	0.058
-585.879	800.000	-0.064	-0.251
-584.865	-84.570	0.082	0.026
-583.850	234.569	-0.134	0.222
-582.836	73.565	-0.167	-0.176
-581.821	-200.000	0.000	-0.370
-580.806	-86.976	0.106	-0.033
-579.792	26.957	-0.209	-0.176
-578.777	-124.944	0.020	0.003
-577.763	-107.134	-0.112	0.025
-576.748	9.421	0.138	0.105
-575.733	-95.592	-0.299	-0.081
-574.719	-130.782	-0.151	-0.020
-573.704	-14.422	0.111	-0.072
-572.690	-54.373	-0.249	-0.114
-571.675	-9.558	-0.186	-0.125
-570.661	-16.959	0.226	0.143
-569.646	-140.380	-0.089	-0.009
-568.631	-115.596	-0.041	0.008
-567.617	800.000	-0.037	-0.126
-566.602	165.093	0.128	-0.182
-565.588	59.601	-0.187	-0.186
-564.573	715.582	0.091	-0.244
-563.558	273.201	-0.076	0.135
-562.544	669.316	-0.029	-0.074
-561.529	800.000	-0.140	-0.492
-560.515	-12.915	0.218	-0.143
-559.500	800.000	0.093	0.282
-558.485	-115.255	-0.252	0.048
-557.471	245.300	0.129	-0.219
-556.456	475.726	0.110	0.250
-555.442	45.748	-0.132	-0.123
-554.427	-200.000	-0.002	0.223
-553.412	-200.000	-0.002	0.084
-552.398	-47.033	0.317	0.155
-551.383	121.427	-0.242	-0.304
-550.369	212.625	-0.130	0.207
-549.354	-200.000	-0.022	0.356
-548.339	-39.158	-0.154	0.082
-547.325	60.341	-0.195	-0.194
-546.310	130.003	-0.106	0.136
-545.296	-48.645	0.429	0.207
-544.281	378.007	-0.156	-0.321
-543.266	-150.317	0.133	0.010
-542.252	20.803	-0.084	-0.068
-541.237	151.941	-0.192	0.263
-540.223	-99.341	-0.133	-0.034
-539.208	800.000	0.017	-0.073
-538.193	710.867	-0.040	0.106
-537.179	-200.000	-0.046	-0.293
-536.164	60.011	-0.161	-0.160
-535.150	-176.405	-0.049	0.001
-534.135	-140.749	0.151	0.016
-533.121	62.162	-0.092	0.092
-532.106	615.689	-0.105	0.264
-531.091	211.100	0.019	-0.030
-530.077	-171.319	-0.369	0.012
-529.062	-137.105	-0.395	-0.045
-528.048	-100.209	0.390	-0.097
-527.033	800.000	0.018	0.064
-526.018	-122.697	0.273	-0.044
-525.004	-36.270	0.325	-0.176
-523.989	800.000	0.061	-0.249
-522.975	34.257	0.069	0.061
-521.960	-150.040	0.298	0.023
-520.945	-173.380	0.080	-0.002
-519.931	-200.000	0.047	-0.307
-518.916	-200.000	-0.024	0.465
-517.902	-83.297	-0.420	-0.135
-516.887	-200.000	0.012	0.097
-515.872	800.000	-0.078	-0.285
-514.858	800.000	0.065	0.221
-513.843	-0.572	-0.075	0.053
-512.829	81.318	0.234	-0.253
-511.814	-176.288	0.186	0.005
-510.799	-43.995	0.099	-0.050
-509.785	800.000	0.012	-0.038
-508.770	529.951	-0.039	-0.094
-507.756	-73.512	0.306	0.112
-506.741	-86.308	0.290	-0.090
-505.726	-52.125	0.284	0.132
-504.712	171.720	-0.235	-0.339
-503.697	-155.916	-0.214	0.014
-502.683	12.729	0.090	0.069
-501.668	-200.000	-0.023	-0.122
-500.653	-131.385	0.038	-0.005
-499.639	21.216	0.122	-0.100
-498.624	0.866	-0.142	0.102
-497.610	-20.541	0.164	0.101
-496.595	378.278	-0.031	0.065
-495.581	37.135	-0.232	-0.206
-494.566	800.000	-0.080	-0.280
-493.551	-116.766	0.147	-0.027
-492.537	-121.767	-0.087	0.014
-491.522	129.352	-0.121	0.155
-490.508	800.000	0.029	-0.122
-489.493	-18.700	-0.285	-0.178
-488.478	-121.866	-0.137	0.023
-487.464	-200.000	0.019	-0.091
-486.449	-8.307	0.180	-0.122
-485.435	-151.956	-0.364	-0.027
-484.420	-74.312	-0.199	-0.072
-483.405	-17.291	-0.130	0.082
-482.391	800.000	0.019	0.059
-481.376	-53.309	0.298	-0.137
-480.362	-200.000	0.057	-0.610
-479.347	111.390	-0.060	0.072
-478.332	-200.000	0.052	0.334
-477.318	94.920	-0.264	-0.302
-476.303	-109.569	0.071	0.015
-475.289	-114.848	-0.274	0.052
-474.274	144.813	-0.105	-0.141
-473.259	-135.025	-0.341	-0.041
-472.245	2.698	-0.245	-0.178
-471.230	-200.000	-0.001	-0.014
-470.216	-200.000	-0.009	0.058
-469.201	176.873	0.113	-0.165
-468.186	-102.080	-0.098	0.024
-467.172	19.410	0.063	0.051
-466.157	343.106	-0.183	-0.359
-465.143	80.615	0.106	0.114
-464.128	0.019	-0.080	0.057
-463.113	-45.223	0.202	0.100
-462.099	-7.828	0.155	-0.105
-461.084	-11.930	0.208	0.136
-460.070	50.699	-0.364	-0.346
-459.055	-182.699	-0.415	0.008
-458.040	-200.000	-0.032	-0.260
-457.026	-154.879	0.094	-0.006
-456.011	800.000	0.040	-0.135
-454.997	-38.316	-0.220	-0.117
-453.982	-200.000	-0.074	0.402
-452.968	-3.147	-0.131	0.091
-451.953	3.984	-0.139	-0.102
-450.938	-200.000	0.006	-0.330
-449.924	-200.000	0.000	-0.143
-448.909	-124.986	0.052	0.008
-447.895	-58.308	0.301	0.131
-446.880	-53.329	-0.142	-0.065
-445.865	-117.548	-0.283	0.051
-444.851	69.502	0.086	-0.088
-443.836	203.647	0.302	0.468
-442.822	-21.078	0.106	0.065
-441.807	-137.172	0.476	0.054
-440.792	-48.729	0.231	0.111
-439.778	-200.000	0.013	0.316
-438.763	800.000	-0.033	0.142
-437.749	-34.976	0.150	-0.082
-436.734	617.717	-0.134	-0.337
-435.719	-152.215	-0.093	0.007
-434.705	-200.000	-0.013	0.332
-433.690	784.885	-0.082	0.224
-432.676	57.348	-0.141	0.138
-431.661	353.708	-0.081	-0.161
-430.646	80.570	-0.139	-0.150
-429.632	443.475	-0.130	-0.285
-428.617	-156.625	0.194	-0.012
-427.603	-200.000	0.013	-0.290
-426.588	-44.945	0.055	0.027
-425.573	-200.000	0.004	0.266
-424.559	765.638	-0.054	0.147
-423.544	-200.000	-0.054	0.267
-422.530	-92.251	-0.246	-0.069
-421.515	17.072	-0.311	-0.246
-420.500	87.580	0.194	0.215
-419.486	7.051	-0.296	-0.220
-418.471	-200.000	0.069	-0.511
-417.457	-29.528	0.167	-0.095
-416.442	-200.000	0.014	-0.388
-415.428	800.000	0.057	0.183
-414.413	178.840	-0.148	0.217
-413.398	-13.014	-0.203	0.132
-412.384	-200.000	0.004	-0.295
-411.369	516.528	0.052	-0.121
-410.355	-74.373	-0.348	-0.126
-409.340	-133.227	-0.258	0.033
-408.325	-200.000	-0.089	-0.404
-407.311	-3.308	-0.223	0.155
-406.296	34.894	0.154	-0.135
-405.282	-165.999	0.275	-0.012
-404.267	103.048	0.228	0.268
-403.252	121.348	-0.045	-0.057
-402.238	-29.359	0.251	-0.143
-401.223	1.715	-0.310	-0.223
-400.209	-108.656	-0.083	-0.018
-399.194	-95.252	-0.322	0.087
-398.179	-200.000	-0.036	0.217
-397.165	-101.728	-0.318	-0.077
-396.150	29.712	0.254	-0.216
-395.136	291.077	0.079	-0.143
-394.121	715.792	0.084	-0.223
-393.106	149.069	-0.223	0.302
-392.092	75.817	-0.140	0.148
-391.077	800.000	0.008	0.025
-390.063	272.387	0.096	-0.170
-389.048	-101.281	0.246	0.060
-388.033	-88.600	-0.118	-0.035
-387.019	800.000	0.048	-0.149
-386.004	-1.518	-0.219	-0.155
-384.990	-68.004	-0.144	0.056
-383.975	-122.587	0.197	0.032
-382.960	-200.000	0.023	0.240
-381.946	124.742	-0.067	0.085
-380.931	800.000	-0.043	0.169
-379.917	113.990	-0.194	-0.236
-378.902	342.596	-0.039	0.076
-377.888	368.940	-0.068	-0.138
-376.873	-66.470	0.101	-0.040
-375.858	20.866	-0.267	0.216
-374.844	74.251	-0.018	-0.019
-373.829	662.318	-0.097	0.249
-372.815	-68.078	-0.150	0.058
-371.800	800.000	0.052	-0.145
-370.785	20.208	0.413	0.333
-369.771	-200.000	0.002	-0.058
-368.756	-92.376	-0.037	-0.010
-367.742	-67.609	0.460	-0.180
-366.727	-200.000	-0.114	0.562
-365.712	222.267	-0.075	0.120
-364.698	114.795	-0.254	0.309
-363.683	461.264	0.085	-0.189
-362.669	-200.000	0.019	-0.286
-361.654	-103.936	-0.169	0.039
-360.639	-116.754	0.243	0.045
-359.625	800.000	-0.072	0.301
-358.610	800.000	-0.053	-0.176
-357.596	-200.000	0.023	-0.108
-356.581	800.000	-0.005	-0.018
-355.566	308.614	0.205	-0.381
-354.552	-200.000	0.006	-0.102
-353.537	147.002	0.208	-0.279
-352.523	36.450	0.152	-0.134
-351.508	-200.000	-0.042	0.257
-350.493	636.465	0.032	-0.080
-349.479	-185.321	0.154	0.002
-348.464	-75.984	0.224	0.079
-347.450	90.129	-0.037	0.042
-346.435	29.732	0.071	-0.060
-345.420	268.001	-0.124	-0.217
-344.406	-13.067	0.115	-0.074
-343.391	-80.104	-0.315	0.105
-342.377	800.000	-0.033	0.103
-341.362	178.828	-0.146	0.213
-340.348	20.652	-0.028	-0.022
-339.333	258.387	0.126	0.217
-338.318	-200.000	-0.008	0.069
-337.304	227.488	0.118	-0.192
-336.289	-74.111	-0.349	-0.126
-335.275	187.040	-0.167	0.248
-334.260	800.000	-0.084	-0.289
-333.245	-54.486	0.137	0.062
-332.231	5.275	0.083	-0.061
-331.216	44.917	-0.110	0.101
-330.202	-200.000	0.102	-0.470
-329.187	800.000	-0.076	0.238
-328.172	-200.000	0.026	0.198
-327.158	484.552	0.109	0.248
-326.143	34.032	-0.088	0.077
-325.129	-168.873	-0.127	-0.005
-324.114	2.673	0.068	0.049
-323.099	126.119	0.121	-0.153
-322.085	-71.624	0.223	-0.083
-321.070	-200.000	0.005	-0.024
-320.056	211.645	-0.154	0.241
-319.041	-44.906	0.046	0.023
-318.026	800.000	-0.075	0.272
-317.012	120.983	0.258	0.320
-315.997	-24.673	0.204	0.121
-314.983	-21.241	-0.119	0.072
-313.968	200.181	-0.171	-0.261
-312.953	245.467	-0.116	-0.194
-311.939	-200.000	0.008	-0.384
-310.924	800.000	-0.103	-0.359
-309.910	800.000	0.115	0.338
-308.895	-200.000	-0.005	0.140
-307.880	37.481	-0.190	0.168
-306.866	800.000	-0.116	-0.369
-305.851	708.151	-0.141	-0.370
-304.837	-200.000	0.009	0.241
-303.822	380.649	-0.088	0.179
-302.807	7.764	-0.173	0.129
-301.793	-127.123	-0.247	-0.036
-300.778	39.355	-0.100	0.089
-299.764	75.156	0.180	0.188
-298.749	13.036	-0.076	-0.059
-297.735	-193.009	-0.504	-0.004
-296.720	-19.122	-0.084	0.052
-295.705	800.000	-0.091	-0.398
-294.691	713.419	0.152	0.402
-293.676	609.677	0.006	0.016
-292.662	-10.855	0.139	0.091
-291.647	-200.000	0.003	0.046
-290.632	800.000	0.044	-0.175
-289.618	-46.157	-0.196	-0.096
-288.603	-200.000	0.054	0.487
-287.589	-145.779	-0.369	-0.033
-286.574	61.833	-0.231	-0.229
-285.559	-30.074	-0.220	0.124
-284.545	-63.018	0.187	0.077
-283.530	-200.000	-0.027	0.223
-282.516	-200.000	-0.121	-0.000
-281.501	89.422	0.182	0.202
-280.486	260.343	-0.182	0.312
-279.472	800.000	0.062	-0.172
-278.457	242.719	-0.104	-0.173
-277.443	-200.000	0.074	-0.377
-276.428	800.000	-0.097	0.333
-275.413	-21.988	0.204	-0.123
-274.399	610.926	0.131	0.327
-273.384	-200.000	-0.043	0.331
-272.370	-127.486	0.125	0.018
-271.355	-74.062	0.112	-0.040
-270.340	-132.483	-0.042	0.005
-269.326	-105.767	0.415	0.093
-268.311	171.880	0.143	0.204
-267.297	-200.000	0.029	0.200
-266.282	-200.000	0.081	0.373
-265.267	8.296	-0.094	0.070
-264.253	354.183	-0.105	-0.207
-263.238	49.592	0.330	-0.309
-262.224	800.000	0.065	-0.215
-261.209	94.415	0.162	0.183
-260.195	800.000	0.073	0.221
-259.180	711.985	0.077	0.204
-258.165	13.262	0.281	0.216
-257.151	800.000	-0.054	0.184
-256.136	219.339	-0.130	0.206
-255.122	641.059	0.151	-0.382
-254.107	-61.060	0.054	0.023
-253.092	800.000	-0.105	0.315
-252.078	-27.780	-0.177	0.102
-251.063	-170.957	-0.147	0.005
-250.049	-75.771	0.280	-0.099
-249.034	0.205	0.231	0.164
-248.019	800.000	-0.059	0.196
-247.005	-200.000	-0.008	0.061
-245.990	-200.000	-0.043	0.312
-244.976	800.000	-0.057	0.243
-243.961	113.865	-0.134	-0.161
-242.946	361.822	0.059	-0.117
-241.932	-74.449	0.391	0.140
-240.917	332.298	0.116	0.223
-239.903	-62.477	0.109	-0.045
-238.888	587.163	-0.079	0.192
-237.873	-98.090	0.060	-0.015
-236.859	-177.525	0.218	0.005
-235.844	297.100	0.117	0.214
-234.830	44.283	0.214	0.195
-233.815	388.007	0.166	-0.342
-232.800	88.837	0.056	-0.062
-231.786	-37.947	0.183	-0.096
-230.771	-25.146	0.256	-0.151
-229.757	-33.397	-0.272	-0.149
-228.742	-200.000	0.067	0.455
-227.727	-19.473	0.311	0.191
-226.713	-28.214	0.180	-0.103
-225.698	-11.833	-0.253	0.165
-224.684	-72.269	0.234	0.086
-223.669	-84.326	0.374	0.117
-222.655	800.000	0.010	-0.035
-221.640	-200.000	0.056	0.294
-220.625	9.149	0.309	0.232
-219.611	-137.108	-0.200	-0.023
-218.596	-6.718	0.096	-0.065
-217.582	-126.557	-0.241	-0.035
-216.567	114.490	0.105	0.127
-215.552	-110.982	-0.106	0.022
-214.538	-93.182	-0.126	-0.035
-213.523	-110.115	0.011	0.002
-212.509	69.254	-0.152	-0.155
-211.494	-78.059	0.171	0.058
-210.479	-128.212	0.168	-0.024
-209.465	800.000	0.054	-0.208
-208.450	5.249	0.131	0.096
-207.436	-119.890	-0.279	-0.048
-206.421	83.569	-0.094	0.101
-205.406	-171.744	0.168	0.005
-204.392	-71.028	0.530	-0.198
-203.377	-113.916	-0.293	0.056
-202.363	800.000	0.053	0.180
-201.348	800.000	0.099	0.285
-200.333	191.002	0.221	-0.329
-199.319	-1.332	-0.064	0.045
-198.304	9.406	-0.281	0.211
-197.290	104.969	-0.126	0.147
-196.275	526.661	-0.089	-0.208
-195.260	584.443	0.027	0.067
-194.246	699.081	0.098	0.255
-193.231	-9.722	-0.241	-0.159
-192.217	118.566	0.168	0.206
-191.202	283.951	-0.210	-0.375
-190.187	16.473	-0.162	0.127
-189.173	222.130	0.064	0.103
-188.158	-151.743	0.040	0.003
-187.144	86.713	-0.207	0.227
-186.129	117.902	0.097	0.118
-185.114	93.513	0.129	0.144
-184.100	93.740	0.054	0.061
-183.085	137.845	0.096	-0.125
-182.071	38.638	0.164	-0.145
-181.056	-200.000	0.043	0.217
-180.042	800.000	-0.065	0.271
-179.027	208.358	0.060	-0.093
-178.012	-42.684	0.496	0.250
-176.998	-109.810	0.024	0.005
-175.983	-28.542	-0.392	0.224
-174.969	-44.889	0.308	0.152
-173.954	43.509	-0.010	0.009
-172.939	306.071	-0.198	-0.364
-171.925	242.807	-0.138	-0.229
-170.910	800.000	0.045	0.130
-169.896	-200.000	-0.007	0.280
-168.881	-46.774	0.069	0.033
-167.866	505.558	-0.080	-0.184
-166.852	800.000	-0.027	0.095
-165.837	-177.051	0.511	0.013
-164.823	167.382	-0.179	0.252
-163.808	232.860	-0.406	0.660
-162.793	-56.000	0.118	0.052
-161.779	460.230	0.122	0.269
-160.764	-200.000	-0.011	-0.129
-159.750	-104.944	-0.175	0.040
-158.735	-83.100	0.493	0.157
-157.720	-50.527	0.111	0.052
-156.706	791.097	0.185	0.504
-155.691	96.093	-0.146	-0.165
-154.677	800.000	-0.022	0.072
-153.662	-40.457	0.160	0.083
-152.647	-53.657	-0.273	-0.123
-151.633	-166.514	-0.225	0.009
-150.618	-24.310	-0.075	-0.044
-149.604	357.202	0.133	0.263
-148.589	-200.000	0.091	0.492
-147.574	-120.037	0.134	-0.023
-146.560	330.333	0.090	0.171
-145.545	-69.626	0.108	0.041
-144.531	-49.538	0.215	0.101
-143.516	373.958	0.067	0.135
-142.502	-22.967	-0.392	0.234
-141.487	-114.941	-0.110	-0.021
-140.472	-115.739	0.154	0.029
-139.458	81.594	0.088	-0.094
-138.443	58.367	-0.159	0.154
-137.429	800.000	0.068	-0.241
-136.414	-15.967	0.128	0.081
-135.399	-130.602	-0.299	-0.040
-134.385	-200.000	0.012	-0.210
-133.370	-200.000	0.021	-0.359
-132.356	-200.000	0.031	0.137
-131.341	4.710	0.213	-0.154
-130.326	246.294	-0.120	-0.201
-129.312	-132.048	0.368	-0.047
-128.297	-118.042	0.103	-0.018
-127.283	38.736	0.176	-0.155
-126.268	127.142	0.048	-0.061
-125.253	-49.856	-0.063	0.030
-124.239	-13.193	-0.486	0.312
-123.224	-8.525	0.211	-0.140
-122.210	-200.000	0.034	0.169
-121.195	259.060	0.348	0.594
-120.180	142.502	0.085	-0.111
