DTS Sentinel unit serial number:	SN413079Multiplexer serial number:	ORYXHardware model number:	OX4-SRSoftware version number:	ORYX F/W v4.00 Oryx Data Collector v3.7.2.0data status	okinstallation	princeton_trtdifferential loss correction	single-endedforward channel	channel 4reverse channel	N/Adate	2019/09/15time	22:49:34forward acquisition time	60.00reverse acquisition time	0.00gamma	496.2192k internal	0.2320k external	0.2320temperature offset calibration	0.9953default loss term (dB/km)	0.3790temperature slope calibration	1.0000multiplexer offset coefficient	1.0000multiplexer slope coefficient	1.0000fibre end	0.00T internal ref (°C)	28.75T ext. ref 1 (°C)	8.89T ext. ref 2 (°C)	22.33length (m)	temperature (°C)	Stokes	anti-Stokes-747.200	-134.922	-0.143	0.017
-746.185	53.911	-0.249	0.242
-745.171	-3.259	-0.360	0.254
-744.156	279.666	0.112	0.202
-743.142	-200.000	0.004	-0.106
-742.127	126.369	-0.174	0.222
-741.112	-13.411	-0.307	-0.201
-740.098	-200.000	0.017	-0.153
-739.083	32.707	0.032	0.028
-738.069	-58.937	-0.161	0.070
-737.054	67.745	-0.239	-0.247
-736.039	-66.175	-0.187	0.075
-735.025	9.255	0.231	0.176
-734.010	-150.583	-0.279	0.022
-732.996	100.458	-0.170	-0.199
-731.981	-200.000	0.017	0.085
-730.966	79.928	0.157	0.170
-729.952	800.000	0.065	-0.223
-728.937	420.458	-0.167	-0.363
-727.923	800.000	0.078	-0.240
-726.908	-200.000	-0.007	-0.114
-725.894	240.220	0.078	0.131
-724.879	-200.000	-0.031	0.174
-723.864	213.138	-0.099	0.158
-722.850	214.361	0.179	0.287
-721.835	18.821	-0.253	-0.204
-720.821	99.001	-0.024	0.028
-719.806	-124.500	-0.470	-0.074
-718.791	-126.983	-0.050	-0.007
-717.777	210.242	0.006	-0.009
-716.762	-200.000	0.003	-0.017
-715.748	-200.000	0.006	-0.207
-714.733	35.534	0.134	0.118
-713.718	800.000	-0.031	0.127
-712.704	0.346	0.094	-0.067
-711.689	387.904	-0.099	0.207
-710.675	-200.000	0.015	-0.369
-709.660	-112.089	0.373	-0.076
-708.645	-200.000	-0.009	-0.189
-707.631	-2.638	0.326	-0.230
-706.616	-53.790	0.094	-0.043
-705.602	800.000	-0.053	0.155
-704.587	-77.315	-0.275	-0.096
-703.572	-200.000	-0.058	-0.259
-702.558	36.303	0.053	0.047
-701.543	-115.749	0.194	0.037
-700.529	413.398	0.112	0.240
-699.514	82.846	0.189	-0.207
-698.499	157.129	-0.034	-0.047
-697.485	14.941	-0.263	-0.208
-696.470	-53.597	-0.174	-0.080
-695.456	-60.625	-0.122	0.052
-694.441	-130.921	0.335	0.045
-693.426	800.000	-0.043	0.136
-692.412	800.000	0.070	0.218
-691.397	-200.000	-0.047	0.399
-690.383	134.704	-0.003	-0.004
-689.368	-200.000	-0.022	-0.190
-688.354	-170.973	0.095	-0.003
-687.339	10.081	0.205	-0.157
-686.324	-55.863	0.142	-0.064
-685.310	-200.000	-0.048	0.241
-684.295	573.502	-0.035	-0.087
-683.281	-117.290	-0.128	-0.023
-682.266	800.000	-0.064	0.207
-681.251	26.737	-0.081	-0.068
-680.237	16.791	0.176	-0.140
-679.222	-200.000	-0.023	0.190
-678.208	235.920	-0.094	0.156
-677.193	212.710	0.110	-0.174
-676.178	-200.000	0.013	-0.178
-675.164	-200.000	0.014	-0.167
-674.149	-55.926	0.330	0.149
-673.135	-50.005	0.107	-0.051
-672.120	-200.000	0.002	0.119
-671.105	-62.375	-0.149	-0.062
-670.091	-90.208	-0.123	-0.036
-669.076	-20.654	-0.394	-0.244
-668.062	499.960	0.107	-0.249
-667.047	800.000	-0.037	-0.152
-666.032	-132.133	0.347	0.045
-665.018	-90.182	0.187	0.055
-664.003	800.000	-0.070	-0.259
-662.989	67.221	-0.065	-0.067
-661.974	56.565	-0.059	-0.058
-660.959	16.874	-0.057	0.045
-659.945	-162.202	0.209	0.011
-658.930	-61.545	0.358	-0.151
-657.916	-134.779	-0.103	0.013
-656.901	289.803	-0.042	-0.078
-655.886	-200.000	0.044	-0.279
-654.872	255.766	-0.125	0.215
-653.857	-120.005	0.095	0.016
-652.843	97.591	0.116	0.135
-651.828	-77.874	0.178	-0.062
-650.814	-200.000	-0.003	0.186
-649.799	-200.000	0.027	-0.138
-648.784	2.404	0.100	0.073
-647.770	-200.000	0.013	-0.074
-646.755	-200.000	0.003	0.268
-645.741	150.299	0.031	-0.043
-644.726	407.065	-0.016	0.035
-643.711	-8.179	0.200	-0.136
-642.697	-200.000	-0.038	-0.514
-641.682	73.610	-0.144	-0.152
-640.668	-200.000	0.060	0.546
-639.653	-200.000	0.052	-0.289
-638.638	-95.111	0.177	0.048
-637.624	-200.000	-0.003	-0.125
-636.609	800.000	-0.034	-0.110
-635.595	56.644	-0.138	-0.135
-634.580	-200.000	0.046	0.230
-633.565	231.144	-0.098	0.161
-632.551	-60.278	-0.466	0.200
-631.536	102.851	0.023	-0.027
-630.522	467.822	-0.040	0.090
-629.507	-119.574	-0.306	0.053
-628.492	800.000	0.092	-0.299
-627.478	153.532	0.177	0.245
-626.463	-200.000	-0.051	-0.275
-625.449	117.483	-0.225	0.279
-624.434	-88.795	-0.230	-0.069
-623.419	437.648	0.224	0.492
-622.405	-60.484	0.474	0.203
-621.390	-70.754	-0.025	0.009
-620.376	-81.927	0.419	0.138
-619.361	654.539	-0.065	-0.167
-618.346	-70.295	-0.329	-0.126
-617.332	-200.000	-0.031	-0.283
-616.317	-113.264	-0.140	-0.028
-615.303	800.000	0.045	-0.164
-614.288	800.000	0.031	-0.131
-613.273	-169.061	0.400	-0.015
-612.259	800.000	-0.038	-0.120
-611.244	-35.227	-0.147	-0.080
-610.230	-27.368	-0.180	0.105
-609.215	-110.734	-0.321	-0.067
-608.201	381.678	-0.054	-0.112
-607.186	-200.000	0.043	-0.355
-606.171	-15.688	0.095	0.061
-605.157	-108.213	0.290	-0.063
-604.142	92.471	-0.292	-0.332
-603.128	-15.954	-0.411	0.263
-602.113	-200.000	-0.019	0.428
-601.098	-28.552	-0.104	-0.060
-600.084	-176.584	0.324	-0.008
-599.069	296.341	0.050	-0.093
-598.055	800.000	0.041	-0.179
-597.040	-51.989	0.285	-0.133
-596.025	800.000	-0.058	0.206
-595.011	-111.740	0.397	0.081
-593.996	-53.351	-0.104	0.048
-592.982	14.340	0.093	0.073
-591.967	286.989	-0.071	-0.129
-590.952	-200.000	-0.015	-0.134
-589.938	-200.000	-0.005	-0.145
-588.923	121.125	-0.036	-0.045
-587.909	-200.000	-0.025	-0.220
-586.894	-200.000	0.005	-0.287
-585.879	134.115	-0.089	-0.116
-584.865	-136.588	-0.127	-0.015
-583.850	-149.191	0.108	0.009
-582.836	496.654	0.056	0.130
-581.821	-200.000	0.008	-0.187
-580.806	64.150	-0.056	-0.057
-579.792	800.000	-0.088	0.311
-578.777	373.764	0.077	-0.157
-577.763	38.159	0.094	-0.084
-576.748	800.000	-0.046	0.161
-575.733	44.145	0.187	-0.172
-574.719	800.000	0.051	-0.189
-573.704	3.906	-0.229	0.168
-572.690	-200.000	-0.004	-0.155
-571.675	-21.145	0.156	0.096
-570.661	472.200	0.093	0.210
-569.646	-38.236	-0.107	-0.057
-568.631	-40.963	-0.132	-0.069
-567.617	-43.449	-0.153	0.078
-566.602	210.363	-0.122	-0.192
-565.588	666.002	-0.116	0.302
-564.573	85.167	-0.223	0.245
-563.558	-161.476	0.107	-0.006
-562.544	-137.809	0.315	0.035
-561.529	-161.045	0.162	0.009
-560.515	97.727	0.162	-0.186
-559.500	-200.000	0.001	-0.159
-558.485	2.239	0.040	-0.029
-557.471	-108.769	0.260	-0.056
-556.456	77.673	0.090	-0.096
-555.442	236.139	0.081	-0.135
-554.427	116.127	-0.175	-0.216
-553.412	-102.886	-0.124	-0.030
-552.398	800.000	0.028	0.099
-551.383	-200.000	-0.003	-0.206
-550.369	-7.676	-0.225	-0.153
-549.354	796.342	0.113	-0.313
-548.339	-103.951	-0.191	-0.045
-547.325	-98.176	0.125	0.032
-546.310	-200.000	0.051	-0.485
-545.296	28.836	0.022	-0.019
-544.281	-200.000	-0.131	0.599
-543.266	272.184	-0.128	0.226
-542.252	121.231	-0.208	-0.260
-541.237	-200.000	0.009	0.262
-540.223	-200.000	-0.016	-0.248
-539.208	-48.430	0.269	-0.130
-538.193	-93.209	0.093	0.026
-537.179	574.834	-0.080	-0.195
-536.164	-135.629	-0.290	0.035
-535.150	49.543	-0.151	-0.142
-534.135	-75.650	-0.111	-0.039
-533.121	-200.000	-0.004	0.203
-532.106	281.554	-0.049	0.088
-531.091	800.000	0.079	0.256
-530.077	-200.000	-0.048	0.377
-529.062	-43.547	0.100	-0.051
-528.048	84.209	-0.110	-0.121
-527.033	86.478	0.217	0.239
-526.018	-113.229	-0.119	0.024
-525.004	-200.000	-0.034	0.324
-523.989	280.302	0.140	0.252
-522.975	352.824	-0.098	-0.195
-521.960	-200.000	0.003	-0.149
-520.945	-95.913	-0.142	-0.038
-519.931	-99.700	0.322	-0.081
-518.916	-10.375	0.138	-0.091
-517.902	-200.000	-0.011	-0.246
-516.887	110.985	-0.104	-0.125
-515.872	160.174	-0.176	0.246
-514.858	-106.566	0.185	0.041
-513.843	800.000	0.085	-0.284
-512.829	-93.993	0.217	0.060
-511.814	-177.632	-0.171	-0.004
-510.799	800.000	0.114	0.353
-509.785	23.946	0.197	-0.163
-508.770	-16.758	0.083	-0.052
-507.756	-147.012	-0.209	0.018
-506.741	800.000	-0.075	-0.214
-505.726	4.331	0.216	0.159
-504.712	41.347	0.123	0.112
-503.697	800.000	0.052	0.168
-502.683	-200.000	-0.010	-0.134
-501.668	800.000	-0.032	-0.117
-500.653	-120.120	-0.095	-0.016
-499.639	13.870	0.188	-0.146
-498.624	174.041	0.004	0.006
-497.610	-124.108	0.241	0.038
-496.595	596.125	0.090	0.223
-495.581	229.533	0.139	-0.227
-494.566	113.283	0.132	-0.161
-493.551	-94.348	0.164	-0.045
-492.537	424.281	0.078	-0.168
-491.522	-9.545	-0.159	0.106
-490.508	800.000	0.036	-0.106
-489.493	135.279	0.242	-0.315
-488.478	-32.972	0.024	-0.013
-487.464	800.000	0.072	0.218
-486.449	575.099	0.085	-0.207
-485.435	29.649	-0.285	0.243
-484.420	181.866	0.183	-0.270
-483.405	343.207	-0.130	-0.254
-482.391	269.140	-0.024	-0.042
-481.376	243.126	-0.086	-0.144
-480.362	800.000	0.018	0.052
-479.347	-200.000	-0.028	-0.324
-478.332	80.821	-0.164	0.177
-477.318	-200.000	-0.016	-0.231
-476.303	-39.847	-0.440	0.230
-475.289	-78.985	-0.283	-0.096
-474.274	775.746	-0.072	0.196
-473.259	-179.732	-0.069	-0.001
-472.245	150.781	0.156	-0.213
-471.230	239.412	-0.127	0.211
-470.216	-200.000	0.077	-0.427
-469.201	-200.000	0.004	0.102
-468.186	9.916	-0.291	0.221
-467.172	52.313	-0.283	0.270
-466.157	139.621	0.049	0.065
-465.143	131.509	-0.091	-0.118
-464.128	800.000	0.048	0.148
-463.113	-115.722	-0.178	-0.033
-462.099	400.302	0.170	-0.356
-461.084	62.600	-0.199	0.198
-460.070	8.900	-0.105	-0.079
-459.055	-12.630	-0.016	0.011
-458.040	385.013	-0.024	-0.050
-457.026	800.000	0.058	-0.253
-456.011	-200.000	-0.007	0.090
-454.997	-67.752	0.031	-0.012
-453.982	-26.199	-0.160	0.094
-452.968	-200.000	-0.042	0.210
-451.953	800.000	-0.019	0.075
-450.938	61.994	0.125	-0.125
-449.924	-2.105	0.126	0.089
-448.909	-86.118	0.131	0.040
-447.895	-200.000	0.036	-0.360
-446.880	3.983	-0.168	-0.123
-445.865	-7.751	-0.342	-0.231
-444.851	58.351	0.142	0.139
-443.836	117.379	-0.020	-0.025
-442.822	-200.000	-0.022	0.161
-441.807	194.122	-0.157	-0.237
-440.792	-135.624	-0.206	-0.024
-439.778	-56.164	-0.128	-0.057
-438.763	-15.801	0.292	0.186
-437.749	21.425	0.213	0.173
-436.734	2.030	0.097	-0.070
-435.719	-1.469	-0.081	0.057
-434.705	164.199	-0.040	0.057
-433.690	-12.310	-0.050	0.033
-432.676	-52.779	0.176	0.081
-431.661	-200.000	-0.008	-0.271
-430.646	89.802	0.223	-0.248
-429.632	36.527	0.355	0.313
-428.617	-101.812	0.205	-0.050
-427.603	800.000	0.046	0.137
-426.588	-88.251	0.315	-0.094
-425.573	631.376	0.024	-0.062
-424.559	-55.955	0.094	0.042
-423.544	-144.852	0.466	-0.043
-422.530	-66.943	-0.327	0.129
-421.515	-22.927	0.095	0.057
-420.500	508.701	0.183	0.425
-419.486	-200.000	-0.075	0.481
-418.471	-137.070	-0.363	-0.041
-417.457	800.000	-0.061	0.177
-416.442	-200.000	0.056	0.269
-415.428	-104.944	0.210	0.048
-414.413	-16.927	0.337	-0.212
-413.398	0.961	0.078	-0.056
-412.384	420.502	-0.065	-0.138
-411.369	125.037	0.305	-0.383
-410.355	-33.597	0.081	0.045
-409.340	203.202	0.036	0.056
-408.325	800.000	0.014	-0.055
-407.311	40.820	-0.290	0.261
-406.296	-114.576	-0.060	-0.012
-405.282	257.493	-0.211	-0.363
-404.267	-200.000	0.023	0.320
-403.252	-200.000	0.030	0.227
-402.238	800.000	0.016	0.058
-401.223	-200.000	-0.017	-0.092
-400.209	93.775	0.124	-0.140
-399.194	-74.166	-0.109	-0.039
-398.179	-51.460	-0.264	0.123
-397.165	22.956	0.109	0.089
-396.150	800.000	-0.117	0.434
-395.136	800.000	0.081	0.313
-394.121	-7.423	-0.302	0.204
-393.106	106.702	-0.102	0.121
-392.092	191.559	-0.165	-0.248
-391.077	-96.707	-0.194	0.051
-390.063	-200.000	0.025	0.330
-389.048	-95.453	-0.341	-0.091
-388.033	-126.649	0.232	0.034
-387.019	-200.000	-0.056	-0.327
-386.004	8.951	0.141	-0.106
-384.990	-33.101	0.074	0.041
-383.975	-98.836	0.444	0.113
-382.960	-123.455	0.159	-0.025
-381.946	-153.458	0.232	-0.016
-380.931	800.000	-0.117	0.341
-379.917	239.947	-0.112	0.185
-378.902	57.548	0.115	0.112
-377.888	-46.714	0.143	-0.070
-376.873	235.805	-0.177	-0.291
-375.858	650.273	-0.122	0.312
-374.844	-142.646	-0.270	0.026
-373.829	70.045	0.078	0.080
-372.815	-7.524	-0.120	0.081
-371.800	-200.000	-0.015	-0.138
-370.785	-164.247	-0.144	-0.007
-369.771	133.155	0.025	0.032
-368.756	-49.398	-0.102	0.048
-367.742	84.658	-0.149	0.162
-366.727	253.466	-0.162	-0.275
-365.712	92.728	0.259	0.292
-364.698	-66.958	-0.123	0.048
-363.683	-200.000	-0.014	0.224
-362.669	-89.339	-0.167	0.049
-361.654	269.128	-0.217	0.379
-360.639	-105.321	-0.086	-0.019
-359.625	-107.301	0.125	0.027
-358.610	-63.912	0.479	-0.195
-357.596	18.261	-0.309	0.246
-356.581	800.000	-0.028	-0.106
-355.566	118.492	-0.067	0.083
-354.552	51.958	-0.079	0.075
-353.537	-200.000	0.249	0.000
-352.523	285.905	-0.073	0.132
-351.508	28.190	-0.163	-0.137
-350.493	-36.060	-0.251	-0.135
-349.479	392.262	0.025	0.052
-348.464	6.438	-0.124	0.092
-347.450	-112.315	0.208	0.042
-346.435	82.112	0.258	-0.279
-345.420	-122.386	0.241	-0.039
-344.406	-62.033	-0.070	0.029
-343.391	-60.384	0.087	0.037
-342.377	800.000	-0.083	-0.274
-341.362	456.152	0.045	0.099
-340.348	800.000	0.024	-0.068
-339.333	295.536	-0.163	0.297
-338.318	-96.210	-0.046	-0.012
-337.304	133.610	-0.196	-0.252
-336.289	381.618	-0.106	-0.216
-335.275	-92.008	-0.077	0.022
-334.260	553.452	-0.033	0.079
-333.245	-200.000	-0.061	-0.468
-332.231	800.000	0.112	-0.330
-331.216	-53.436	0.300	0.137
-330.202	405.934	0.108	-0.226
-329.187	1.226	0.109	0.078
-328.172	-200.000	-0.019	0.088
-327.158	799.015	0.123	0.337
-326.143	-121.871	-0.071	0.012
-325.129	475.960	0.123	-0.276
-324.114	-129.342	0.247	0.034
-323.099	607.838	0.077	0.190
-322.085	-11.859	-0.075	0.049
-321.070	-123.927	0.361	-0.057
-320.056	748.825	-0.050	0.135
-319.041	-158.077	-0.056	-0.003
-318.026	-83.861	-0.055	0.017
-317.012	-153.654	-0.104	-0.007
-315.997	90.718	0.014	-0.015
-314.983	-65.250	-0.305	-0.122
-313.968	-200.000	0.003	-0.046
-312.953	76.955	-0.160	-0.169
-311.939	175.639	0.087	-0.125
-310.924	-33.872	-0.237	-0.130
-309.910	-200.000	0.050	-0.264
-308.895	-80.128	-0.333	0.111
-307.880	-83.339	0.113	0.036
-306.866	800.000	-0.062	0.199
-305.851	800.000	0.022	0.068
-304.837	-200.000	0.016	0.241
-303.822	-135.413	0.153	-0.018
-302.807	-200.000	0.009	0.126
-301.793	-34.849	0.218	0.118
-300.778	626.370	-0.007	-0.017
-299.764	775.611	0.080	-0.218
-298.749	800.000	-0.090	-0.349
-297.735	109.222	0.042	0.050
-296.720	47.956	-0.192	0.178
-295.705	-57.498	0.286	-0.125
-294.691	-200.000	0.036	-0.201
-293.676	131.308	0.110	-0.141
-292.662	800.000	0.079	0.334
-291.647	38.058	0.215	-0.190
-290.632	800.000	-0.104	0.320
-289.618	193.497	0.046	-0.069
-288.603	-176.682	-0.140	0.004
-287.589	-100.320	-0.260	0.064
-286.574	-200.000	0.024	-0.130
-285.559	62.530	-0.187	-0.185
-284.545	-200.000	0.002	0.057
-283.530	-149.091	0.139	0.011
-282.516	88.330	0.056	0.062
-281.501	800.000	-0.008	0.033
-280.486	-200.000	0.035	-0.188
-279.472	-134.413	0.130	-0.016
-278.457	-29.988	0.254	0.144
-277.443	-51.315	-0.280	0.130
-276.428	-106.568	0.101	0.022
-275.413	339.432	-0.041	-0.080
-274.399	-161.588	-0.093	-0.005
-273.384	86.816	0.182	0.200
-272.370	-137.898	0.266	-0.029
-271.355	-200.000	0.017	-0.141
-270.340	800.000	-0.119	0.338
-269.326	284.323	0.020	0.036
-268.311	310.335	0.053	-0.099
-267.297	31.170	-0.149	0.127
-266.282	82.286	-0.121	-0.130
-265.267	118.599	0.128	-0.156
-264.253	21.044	-0.064	0.052
-263.238	80.930	-0.076	0.082
-262.224	418.059	0.050	0.106
-261.209	135.092	0.108	0.139
-260.195	-49.746	0.107	0.051
-259.180	205.460	0.162	0.249
-258.165	-136.403	-0.116	0.013
-257.151	-94.264	-0.196	-0.053
-256.136	390.882	-0.097	0.200
-255.122	5.818	-0.098	-0.072
-254.107	-96.535	0.208	0.054
-253.092	125.505	-0.163	0.204
-252.078	-50.533	0.163	-0.076
-251.063	-26.329	-0.320	0.186
-250.049	-0.936	-0.121	-0.085
-249.034	-39.018	0.055	-0.029
-248.019	-135.994	-0.141	0.016
-247.005	-200.000	0.048	-0.240
-245.990	152.551	-0.153	-0.207
-244.976	498.521	0.040	0.092
-243.961	-200.000	-0.018	0.175
-242.946	-40.829	0.141	-0.073
-241.932	14.510	0.085	-0.066
-240.917	3.561	-0.084	0.061
-239.903	-200.000	-0.016	-0.434
-238.888	12.035	-0.155	0.118
-237.873	113.448	-0.311	0.374
-236.859	-200.000	-0.036	-0.304
-235.844	-8.981	-0.461	0.306
-234.830	-94.596	-0.308	0.083
-233.815	571.143	-0.018	0.044
-232.800	-110.196	0.211	0.044
-231.786	101.172	-0.162	0.186
-230.771	263.594	0.067	0.116
-229.757	12.844	0.048	0.037
-228.742	24.974	0.178	0.146
-227.727	-108.311	-0.134	0.029
-226.713	800.000	0.043	0.171
-225.698	-43.439	-0.304	0.152
-224.684	-137.794	-0.208	0.023
-223.669	81.017	0.248	0.265
-222.655	204.333	0.023	0.035
-221.640	-71.278	-0.174	0.064
-220.625	-155.501	0.110	-0.007
-219.611	-99.627	-0.291	-0.072
-218.596	-200.000	-0.003	0.231
-217.582	-200.000	-0.052	-0.334
-216.567	246.427	-0.064	-0.106
-215.552	196.023	0.190	-0.286
-214.538	-200.000	0.041	-0.357
-213.523	236.837	-0.207	0.339
-212.509	534.320	0.035	0.082
-211.494	-92.020	0.250	0.070
-210.479	208.940	0.154	0.239
-209.465	-169.272	0.272	-0.010
-208.450	122.293	0.131	0.162
-207.436	-32.166	0.244	0.135
-206.421	-200.000	-0.062	0.544
-205.406	71.101	0.316	-0.325
-204.392	8.543	-0.165	-0.123
-203.377	333.411	-0.074	-0.141
-202.363	-17.240	-0.237	-0.148
-201.348	-71.041	-0.079	-0.029
-200.333	-92.756	0.264	0.073
-199.319	-90.470	0.144	-0.041
-198.304	-200.000	0.021	0.099
-197.290	800.000	0.094	-0.320
-196.275	800.000	-0.011	0.044
-195.260	-92.261	0.080	-0.022
-194.246	800.000	-0.082	-0.303
-193.231	147.498	-0.100	-0.134
-192.217	19.261	0.137	0.109
-191.202	-200.000	-0.000	-0.140
-190.187	-48.228	0.245	-0.117
-189.173	5.092	0.316	-0.230
-188.158	336.359	-0.045	-0.086
-187.144	800.000	-0.083	-0.337
-186.129	83.443	0.038	0.041
-185.114	-128.840	-0.177	-0.025
-184.100	79.961	-0.189	0.201
-183.085	-94.426	-0.288	-0.078
-182.071	-178.052	0.299	-0.007
-181.056	800.000	-0.205	-0.563
-180.042	-44.809	-0.284	0.140
-179.027	-26.392	0.078	-0.045
-178.012	-32.376	-0.228	0.126
-176.998	604.483	0.080	-0.197
-175.983	-150.505	0.193	0.015
-174.969	-140.264	0.312	-0.032
-173.954	-168.606	0.065	0.002
-172.939	-138.193	-0.164	0.018
-171.925	140.890	-0.112	0.146
-170.910	-45.186	-0.177	-0.087
-169.896	800.000	-0.085	0.265
-168.881	468.513	0.112	0.248
-167.866	800.000	-0.061	-0.265
-166.852	-75.161	-0.231	0.082
-165.837	-84.191	-0.251	0.079
-164.823	72.663	0.123	-0.127
-163.808	2.919	0.090	-0.065
-162.793	800.000	-0.083	-0.299
-161.779	-165.219	-0.253	0.011
-160.764	-36.967	0.174	0.092
-159.750	344.475	0.087	0.169
-158.735	79.006	0.414	0.438
-157.720	-200.000	-0.004	-0.027
-156.706	-69.048	0.313	-0.119
-155.691	102.216	0.154	-0.177
-154.677	-26.357	0.324	0.188
-153.662	-200.000	-0.006	0.233
-152.647	59.018	-0.099	0.096
-151.633	800.000	-0.040	0.120
-150.618	159.420	-0.191	-0.262
-149.604	-200.000	0.008	0.247
-148.589	-188.015	-0.163	0.002
-147.574	-65.612	-0.072	-0.029
-146.560	-200.000	0.042	0.330
-145.545	143.737	0.181	0.238
-144.531	-154.241	0.289	0.019
-143.516	8.513	-0.265	-0.197
-142.502	-200.000	-0.039	0.466
-141.487	59.457	-0.021	-0.021
-140.472	174.391	0.113	-0.161
-139.458	-200.000	0.032	0.162
-138.443	238.269	-0.071	-0.117
-137.429	304.565	0.052	0.096
-136.414	480.890	-0.178	-0.399
-135.399	-149.470	-0.171	-0.013
-134.385	46.385	0.167	0.153
-133.370	-46.508	-0.300	-0.145
-132.356	-75.225	-0.227	0.080
-131.341	-200.000	0.005	0.207
-130.326	-154.391	0.280	0.019
-129.312	228.272	0.142	0.228
-128.297	539.391	-0.151	0.355
-127.283	85.039	0.222	0.240
-126.268	-115.972	-0.226	-0.042
-125.253	-200.000	0.046	-0.274
-124.239	69.430	-0.444	-0.451
-123.224	800.000	-0.084	0.302
-122.210	-80.958	0.172	0.056
-121.195	343.239	-0.185	0.358
