DTS Sentinel unit serial number:	SN413079Multiplexer serial number:	ORYXHardware model number:	OX4-SRSoftware version number:	ORYX F/W v4.00 Oryx Data Collector v3.7.2.0data status	okinstallation	princeton_trtdifferential loss correction	single-endedforward channel	channel 4reverse channel	N/Adate	2019/09/18time	09:45:34forward acquisition time	60.00reverse acquisition time	0.00gamma	496.2192k internal	0.2320k external	0.2320temperature offset calibration	0.9985default loss term (dB/km)	0.3790temperature slope calibration	1.0000multiplexer offset coefficient	1.0000multiplexer slope coefficient	1.0000fibre end	0.00T internal ref (°C)	26.92T ext. ref 1 (°C)	0.29T ext. ref 2 (°C)	23.51length (m)	temperature (°C)	Stokes	anti-Stokes-747.200	-5.425	0.355	-0.246
-746.185	386.289	-0.100	0.208
-745.171	-28.494	0.317	0.185
-744.156	124.110	0.183	-0.232
-743.142	-54.449	-0.140	0.064
-742.127	169.983	-0.061	0.088
-741.112	-38.910	-0.301	-0.160
-740.098	-105.497	0.038	0.009
-739.083	137.398	-0.228	-0.302
-738.069	-177.889	-0.091	-0.002
-737.054	715.883	0.209	-0.561
-736.039	-41.918	0.121	-0.063
-735.025	5.698	0.168	0.126
-734.010	-30.859	-0.251	-0.143
-732.996	-51.050	0.098	0.046
-731.981	-18.649	-0.219	-0.138
-730.966	335.948	0.134	-0.262
-729.952	800.000	0.029	-0.084
-728.937	-200.000	0.032	0.311
-727.923	22.769	-0.176	-0.146
-726.908	-175.118	-0.447	0.013
-725.894	-200.000	-0.014	-0.199
-724.879	142.292	-0.147	-0.197
-723.864	187.133	-0.191	-0.287
-722.850	104.476	0.070	0.083
-721.835	31.575	-0.125	0.108
-720.821	-135.658	-0.353	0.042
-719.806	173.932	-0.097	-0.142
-718.791	800.000	-0.071	-0.296
-717.777	73.536	-0.114	-0.120
-716.762	-88.992	-0.263	0.079
-715.748	-114.361	-0.077	-0.015
-714.733	62.204	-0.133	-0.135
-713.718	-98.257	0.016	-0.004
-712.704	-200.000	0.015	-0.095
-711.689	-102.949	0.082	0.020
-710.675	-98.959	-0.119	0.030
-709.660	800.000	0.018	-0.077
-708.645	214.757	0.114	-0.182
-707.631	-90.856	-0.190	-0.055
-706.616	647.241	0.085	-0.220
-705.602	-97.404	0.224	-0.059
-704.587	609.312	-0.119	-0.299
-703.572	-158.192	0.118	-0.007
-702.558	-7.725	0.223	-0.152
-701.543	6.411	0.039	0.029
-700.529	-200.000	0.013	-0.192
-699.514	-98.129	0.165	-0.043
-698.499	220.196	-0.126	-0.203
-697.485	-19.024	-0.064	-0.040
-696.470	-47.815	-0.148	0.073
-695.456	353.348	-0.203	-0.406
-694.441	7.799	0.299	0.226
-693.426	-200.000	0.054	-0.259
-692.412	634.452	0.124	0.317
-691.397	-63.572	-0.379	-0.157
-690.383	-200.000	-0.020	-0.307
-689.368	-200.000	-0.015	0.084
-688.354	505.763	0.064	-0.150
-687.339	-152.129	-0.241	-0.018
-686.324	-108.085	0.253	0.055
-685.310	-163.013	-0.063	-0.003
-684.295	144.343	0.158	-0.213
-683.281	-9.133	0.214	-0.144
-682.266	780.248	-0.052	-0.143
-681.251	-125.342	0.323	0.050
-680.237	-200.000	0.012	0.118
-679.222	-200.000	-0.052	-0.270
-678.208	-200.000	-0.040	-0.303
-677.193	91.224	0.049	-0.055
-676.178	-30.656	-0.178	-0.102
-675.164	190.402	-0.108	0.163
-674.149	119.419	-0.161	-0.200
-673.135	-14.215	-0.198	-0.129
-672.120	-101.827	-0.203	-0.049
-671.105	-72.548	0.249	-0.093
-670.091	-117.754	-0.222	0.040
-669.076	337.054	0.100	-0.196
-668.062	800.000	0.120	-0.358
-667.047	85.538	-0.047	-0.052
-666.032	-5.093	0.086	0.060
-665.018	-87.831	0.129	0.039
-664.003	-82.496	0.138	-0.045
-662.989	-200.000	-0.062	-0.286
-661.974	-63.267	-0.027	-0.011
-660.959	124.044	-0.064	0.081
-659.945	-32.161	0.064	-0.036
-658.930	-136.081	-0.044	-0.005
-657.916	-200.000	-0.014	-0.104
-656.901	-187.357	0.286	0.004
-655.886	333.128	0.071	0.139
-654.872	-200.000	-0.030	-0.373
-653.857	-0.106	0.342	-0.245
-652.843	-20.982	0.109	-0.067
-651.828	321.803	-0.060	-0.115
-650.814	10.793	0.089	-0.068
-649.799	-28.351	-0.126	0.073
-648.784	-200.000	-0.045	-0.309
-647.770	-200.000	0.012	-0.427
-646.755	800.000	0.027	-0.090
-645.741	-13.825	0.396	-0.258
-644.726	371.551	0.150	0.307
-643.711	-8.070	0.131	0.089
-642.697	-49.464	-0.194	0.093
-641.682	-200.000	-0.017	0.245
-640.668	-113.600	0.344	0.068
-639.653	-200.000	-0.014	-0.174
-638.638	-141.333	-0.116	-0.012
-637.624	-200.000	-0.002	0.237
-636.609	-78.094	-0.303	-0.105
-635.595	790.618	0.109	0.300
-634.580	-200.000	-0.009	-0.098
-633.565	566.763	-0.026	-0.063
-632.551	45.746	-0.187	-0.174
-631.536	-90.379	0.072	0.021
-630.522	-0.794	-0.144	-0.102
-629.507	-113.743	0.082	-0.016
-628.492	29.848	-0.029	0.024
-627.478	-147.167	-0.413	-0.035
-626.463	-200.000	-0.017	-0.508
-625.449	-13.700	-0.408	-0.266
-624.434	-200.000	-0.069	-0.317
-623.419	177.461	0.134	-0.197
-622.405	44.890	-0.158	-0.147
-621.390	-121.347	-0.218	-0.037
-620.376	73.691	0.165	-0.174
-619.361	20.867	0.358	-0.292
-618.346	800.000	0.037	0.148
-617.332	273.987	-0.170	-0.303
-616.317	494.145	0.185	-0.427
-615.303	45.497	-0.347	0.323
-614.288	208.022	0.206	0.324
-613.273	800.000	-0.069	0.248
-612.259	-82.953	0.238	-0.077
-611.244	-18.483	-0.217	0.136
-610.230	5.721	-0.224	-0.167
-609.215	14.745	0.132	-0.104
-608.201	-200.000	0.001	0.256
-607.186	-70.251	-0.353	0.135
-606.171	-200.000	-0.014	0.126
-605.157	-168.924	0.337	0.013
-604.142	-63.412	0.118	0.049
-603.128	-200.000	0.010	0.272
-602.113	-200.000	-0.030	0.253
-601.098	203.460	0.168	-0.261
-600.084	382.967	-0.231	-0.477
-599.069	800.000	0.061	0.225
-598.055	-33.622	0.438	-0.243
-597.040	373.209	0.043	0.087
-596.025	10.225	0.286	-0.219
-595.011	-114.251	-0.204	-0.039
-593.996	336.903	0.105	0.205
-592.982	494.245	-0.113	-0.260
-591.967	146.936	0.160	-0.217
-590.952	145.317	-0.070	-0.095
-589.938	-73.003	-0.296	0.109
-588.923	409.895	0.011	-0.023
-587.909	792.858	-0.035	-0.096
-586.894	-144.446	-0.283	0.026
-585.879	-34.644	-0.214	0.118
-584.865	-200.000	0.013	-0.056
-583.850	221.979	-0.149	-0.240
-582.836	-200.000	-0.020	-0.187
-581.821	277.250	-0.154	0.275
-580.806	15.834	-0.200	-0.158
-579.792	-200.000	-0.019	-0.151
-578.777	229.108	0.029	0.048
-577.763	800.000	0.048	-0.200
-576.748	66.436	-0.115	0.117
-575.733	800.000	0.056	0.188
-574.719	195.945	0.152	-0.232
-573.704	800.000	-0.018	-0.051
-572.690	-200.000	-0.052	-0.257
-571.675	131.093	-0.065	-0.084
-570.661	516.341	-0.195	-0.458
-569.646	118.879	-0.214	-0.266
-568.631	674.975	-0.009	-0.024
-567.617	-200.000	-0.006	0.146
-566.602	211.254	0.199	0.314
-565.588	-108.623	0.250	-0.054
-564.573	36.655	-0.119	0.105
-563.558	71.653	-0.249	0.260
-562.544	-200.000	-0.052	0.276
-561.529	-200.000	0.019	0.293
-560.515	-135.768	0.348	0.041
-559.500	-67.515	0.167	0.066
-558.485	-200.000	0.030	-0.159
-557.471	-200.000	-0.086	-0.405
-556.456	618.104	0.071	-0.179
-555.442	800.000	-0.046	-0.200
-554.427	-50.332	0.444	0.210
-553.412	140.370	0.094	-0.124
-552.398	124.600	0.078	0.099
-551.383	186.914	0.069	-0.103
-550.369	-102.247	0.045	0.011
-549.354	275.179	-0.049	-0.087
-548.339	-158.175	-0.433	0.025
-547.325	100.814	-0.083	0.096
-546.310	-200.000	0.043	0.274
-545.296	-2.374	0.120	-0.084
-544.281	-109.869	0.206	0.043
-543.266	689.000	0.029	-0.075
-542.252	-122.244	-0.342	0.056
-541.237	-61.462	0.180	0.076
-540.223	590.708	-0.092	-0.228
-539.208	-55.792	-0.101	-0.045
-538.193	255.606	0.212	-0.365
-537.179	2.619	0.227	-0.165
-536.164	-200.000	0.036	-0.356
-535.150	-200.000	-0.083	-0.379
-534.135	64.199	0.381	-0.384
-533.121	-30.557	-0.158	0.090
-532.106	-104.862	0.132	-0.030
-531.091	115.111	-0.136	-0.166
-530.077	-200.000	-0.050	0.255
-529.062	-200.000	0.025	0.141
-528.048	60.303	-0.271	0.269
-527.033	-148.195	0.172	0.014
-526.018	-17.722	0.113	-0.071
-525.004	245.819	0.018	-0.030
-523.989	-47.813	-0.233	0.113
-522.975	800.000	0.041	0.134
-521.960	800.000	0.110	0.365
-520.945	542.856	-0.154	-0.367
-519.931	-147.751	0.036	-0.003
-518.916	-147.398	0.307	-0.026
-517.902	800.000	-0.159	0.468
-516.887	-15.030	0.297	-0.191
-515.872	-184.333	-0.057	-0.001
-514.858	-149.399	0.328	0.026
-513.843	-21.102	0.228	-0.140
-512.829	5.223	-0.117	-0.087
-511.814	246.770	-0.122	-0.207
-510.799	183.863	0.106	-0.157
-509.785	-86.209	0.071	-0.022
-508.770	-1.082	-0.123	0.087
-507.756	-108.636	0.363	0.078
-506.741	-83.690	-0.125	0.040
-505.726	-200.000	-0.001	0.154
-504.712	-65.276	0.211	-0.085
-503.697	427.370	-0.048	0.105
-502.683	800.000	0.018	-0.065
-501.668	-107.396	-0.134	0.029
-500.653	-106.919	0.352	-0.078
-499.639	126.109	0.174	-0.221
-498.624	160.558	-0.109	-0.152
-497.610	800.000	-0.095	0.278
-496.595	-136.617	-0.258	-0.030
-495.581	-200.000	0.000	-0.153
-494.566	119.449	-0.091	-0.113
-493.551	-114.129	-0.057	0.011
-492.537	45.505	-0.209	-0.193
-491.522	70.855	0.214	-0.221
-490.508	250.485	-0.245	0.417
-489.493	-200.000	0.008	0.142
-488.478	-200.000	-0.012	-0.161
-487.464	-200.000	0.054	0.397
-486.449	88.126	-0.101	0.113
-485.435	48.845	-0.210	-0.197
-484.420	-6.230	0.195	0.133
-483.405	226.302	-0.025	-0.040
-482.391	800.000	-0.040	-0.134
-481.376	-150.493	-0.287	-0.022
-480.362	-42.098	0.136	0.070
-479.347	-94.189	-0.134	-0.037
-478.332	-200.000	-0.027	0.258
-477.318	-61.133	-0.023	0.010
-476.303	758.797	-0.102	-0.277
-475.289	69.602	0.343	-0.354
-474.274	-86.447	-0.389	-0.120
-473.259	-200.000	-0.000	-0.012
-472.245	759.861	0.113	-0.305
-471.230	-34.349	-0.342	0.188
-470.216	250.012	-0.148	-0.251
-469.201	-42.193	-0.100	-0.051
-468.186	800.000	0.084	0.320
-467.172	512.889	-0.094	-0.219
-466.157	18.537	0.369	-0.295
-465.143	69.826	0.082	0.084
-464.128	-149.447	0.441	0.035
-463.113	48.972	0.247	0.232
-462.099	-200.000	-0.052	-0.277
-461.084	800.000	-0.068	-0.211
-460.070	-17.579	0.164	0.103
-459.055	-50.549	0.162	0.076
-458.040	21.616	0.055	0.045
-457.026	95.552	-0.089	0.101
-456.011	75.520	-0.068	0.072
-454.997	800.000	-0.011	0.042
-453.982	7.786	0.298	0.223
-452.968	-100.214	-0.124	-0.031
-451.953	-200.000	0.031	0.167
-450.938	-200.000	-0.072	-0.382
-449.924	-200.000	-0.016	-0.196
-448.909	260.234	0.127	0.219
-447.895	-3.848	0.186	0.129
-446.880	538.065	0.158	-0.375
-445.865	-43.188	-0.135	-0.068
-444.851	-117.629	0.113	-0.020
-443.836	268.739	0.092	-0.161
-442.822	87.241	0.079	0.088
-441.807	800.000	0.026	-0.085
-440.792	-89.737	-0.250	-0.073
-439.778	-33.492	-0.189	0.104
-438.763	-116.971	0.245	0.045
-437.749	131.495	-0.135	-0.173
-436.734	-4.973	-0.546	0.376
-435.719	553.773	0.084	0.202
-434.705	-24.401	-0.361	0.215
-433.690	85.490	0.169	0.186
-432.676	800.000	-0.008	-0.036
-431.661	800.000	0.063	-0.179
-430.646	800.000	0.071	-0.208
-429.632	-130.855	0.074	-0.010
-428.617	-200.000	0.013	0.358
-427.603	299.911	-0.058	0.106
-426.588	-86.879	-0.254	0.077
-425.573	402.849	0.158	0.332
-424.559	-74.988	-0.218	0.078
-423.544	217.288	0.188	0.300
-422.530	27.456	0.449	-0.377
-421.515	-126.791	-0.211	-0.031
-420.500	-200.000	-0.078	-0.405
-419.486	291.409	0.186	-0.338
-418.471	-25.653	-0.221	-0.130
-417.457	-200.000	0.005	0.360
-416.442	-73.742	-0.178	-0.065
-415.428	-200.000	0.032	0.416
-414.413	139.660	-0.160	0.211
-413.398	-175.548	-0.231	0.006
-412.384	-100.360	0.014	0.003
-411.369	800.000	-0.113	0.411
-410.355	800.000	0.070	-0.254
-409.340	391.422	-0.044	-0.092
-408.325	-2.909	0.054	-0.038
-407.311	-108.044	0.121	0.026
-406.296	-200.000	0.084	-0.385
-405.282	-200.000	0.011	0.134
-404.267	-61.088	-0.241	-0.102
-403.252	-185.796	-0.505	-0.008
-402.238	800.000	0.067	0.212
-401.223	-200.000	0.042	-0.364
-400.209	216.368	0.113	-0.179
-399.194	42.568	-0.232	0.211
-398.179	138.331	0.096	-0.125
-397.165	30.182	-0.321	0.274
-396.150	4.153	0.195	-0.142
-395.136	-157.920	-0.290	0.017
-394.121	523.874	0.107	0.252
-393.106	96.925	-0.210	0.240
-392.092	-118.017	-0.221	-0.039
-391.077	160.885	0.010	-0.014
-390.063	122.984	-0.074	-0.093
-389.048	-200.000	-0.042	-0.186
-388.033	-127.510	-0.200	0.029
-387.019	-19.832	-0.264	0.163
-386.004	-81.404	-0.036	0.012
-384.990	-17.872	-0.430	-0.269
-383.975	81.444	-0.244	-0.263
-382.960	-53.154	-0.364	-0.166
-381.946	256.048	-0.054	0.092
-380.931	-21.589	0.099	-0.060
-379.917	355.678	-0.070	-0.140
-378.902	268.826	0.104	-0.181
-377.888	59.836	-0.147	0.145
-376.873	174.320	0.127	0.183
-375.858	-145.023	0.368	0.033
-374.844	142.737	0.065	-0.086
-373.829	-134.427	-0.053	0.006
-372.815	-78.538	-0.277	-0.094
-371.800	-200.000	0.009	-0.048
-370.785	-200.000	0.023	-0.263
-369.771	-76.862	0.107	-0.037
-368.756	-158.906	0.176	0.010
-367.742	-156.400	-0.177	-0.011
-366.727	-79.507	0.200	0.067
-365.712	-153.448	0.273	-0.019
-364.698	-24.434	-0.134	0.080
-363.683	394.280	-0.085	-0.177
-362.669	800.000	-0.052	-0.205
-361.654	115.631	0.091	-0.111
-360.639	90.521	0.132	-0.147
-359.625	800.000	-0.039	-0.145
-358.610	419.356	0.067	0.143
-357.596	6.430	0.261	0.193
-356.581	331.432	0.029	0.056
-355.566	-64.203	0.326	-0.132
-354.552	-146.664	0.136	0.012
-353.537	800.000	-0.032	0.121
-352.523	-180.703	0.176	0.004
-351.508	-39.546	-0.153	-0.080
-350.493	731.805	0.144	0.385
-349.479	-42.779	-0.136	-0.069
-348.464	-142.576	-0.171	-0.017
-347.450	-58.713	0.201	-0.087
-346.435	-200.000	-0.044	0.329
-345.420	-200.000	-0.039	0.221
-344.406	204.909	0.168	0.260
-343.391	150.152	-0.198	0.268
-342.377	-200.000	0.000	0.010
-341.362	3.428	0.183	-0.133
-340.348	-100.407	0.378	0.093
-339.333	15.361	-0.167	0.130
-338.318	7.577	0.126	-0.094
-337.304	7.692	-0.229	-0.171
-336.289	-148.676	0.306	0.025
-335.275	-200.000	0.208	-0.000
-334.260	-88.602	-0.130	-0.038
-333.245	-84.931	-0.172	0.054
-332.231	-148.189	0.177	0.015
-331.216	14.920	0.305	0.238
-330.202	772.271	-0.126	0.341
-329.187	-200.000	-0.045	0.278
-328.172	800.000	0.124	0.412
-327.158	-146.877	-0.494	0.042
-326.143	113.560	0.188	-0.227
-325.129	185.987	-0.090	-0.134
-324.114	125.918	0.164	0.206
-323.099	90.472	-0.070	-0.078
-322.085	-154.484	0.163	0.011
-321.070	-24.045	0.070	0.042
-320.056	25.184	0.094	0.077
-319.041	-29.902	-0.202	-0.114
-318.026	36.707	0.023	-0.020
-317.012	30.184	0.152	-0.129
-315.997	-52.362	0.237	-0.109
-314.983	-90.998	0.221	0.063
-313.968	144.851	-0.184	-0.244
-312.953	-200.000	0.006	-0.041
-311.939	2.432	-0.059	-0.043
-310.924	34.513	-0.301	-0.262
-309.910	-95.332	-0.173	0.046
-308.895	-176.115	0.211	-0.006
-307.880	-74.715	-0.260	-0.093
-306.866	364.946	0.101	0.201
-305.851	-44.644	-0.151	0.075
-304.837	249.449	-0.080	0.134
-303.822	776.105	-0.134	0.365
-302.807	258.946	-0.047	0.080
-301.793	208.637	-0.127	0.198
-300.778	381.799	0.140	0.286
-299.764	186.390	-0.058	0.085
-298.749	800.000	0.080	-0.307
-297.735	-37.700	-0.376	0.199
-296.720	-28.556	0.137	0.078
-295.705	-5.316	-0.364	-0.248
-294.691	800.000	0.049	0.184
-293.676	6.922	-0.103	-0.076
-292.662	155.299	0.159	0.217
-291.647	-200.000	-0.006	0.135
-290.632	443.748	0.128	0.279
-289.618	-200.000	-0.052	-0.237
-288.603	-130.652	-0.154	0.021
-287.589	135.444	0.241	0.311
-286.574	68.913	0.265	-0.271
-285.559	-39.963	-0.061	-0.032
-284.545	-66.032	-0.320	-0.127
-283.530	-101.664	0.151	-0.036
-282.516	-61.735	0.195	0.081
-281.501	34.096	-0.191	-0.165
-280.486	-78.578	0.179	-0.061
-279.472	-72.310	-0.283	0.104
-278.457	-11.613	0.062	-0.040
-277.443	203.736	-0.128	0.197
-276.428	-200.000	-0.003	0.080
-275.413	800.000	-0.048	-0.154
-274.399	-158.453	-0.244	0.014
-273.384	-200.000	-0.012	-0.101
-272.370	-1.663	-0.146	-0.102
-271.355	430.563	0.017	0.037
-270.340	-200.000	0.231	0.000
-269.326	-200.000	-0.025	-0.314
-268.311	-32.514	-0.211	-0.117
-267.297	-9.010	0.136	-0.090
-266.282	-56.445	-0.070	0.031
-265.267	163.398	-0.143	0.200
-264.253	355.545	-0.130	0.257
-263.238	-200.000	0.009	-0.409
-262.224	16.580	0.152	-0.119
-261.209	571.994	-0.058	-0.141
-260.195	800.000	-0.046	0.163
-259.180	175.287	0.036	-0.052
-258.165	36.631	0.185	-0.162
-257.151	-35.309	-0.326	-0.176
-256.136	-200.000	0.005	-0.053
-255.122	800.000	0.031	0.086
-254.107	-12.013	0.027	0.017
-253.092	-200.000	0.049	-0.245
-252.078	388.090	-0.091	0.186
-251.063	-174.907	0.145	0.004
-250.049	400.934	-0.123	-0.256
-249.034	39.903	-0.491	-0.437
-248.019	-200.000	-0.090	0.602
-247.005	-135.729	0.267	0.031
-245.990	-200.000	-0.003	0.178
-244.976	109.162	-0.087	0.103
-243.961	-138.479	-0.255	0.028
-242.946	61.873	-0.090	0.089
-241.932	84.519	-0.286	-0.311
-240.917	-200.000	0.007	0.057
-239.903	-30.250	0.062	-0.035
-238.888	800.000	-0.016	-0.046
-237.873	-75.282	0.314	-0.111
-236.859	-75.413	-0.307	-0.108
-235.844	54.751	-0.173	-0.165
-234.830	-200.000	-0.029	0.372
-233.815	800.000	-0.066	0.184
-232.800	-79.835	0.170	0.057
-231.786	65.327	0.119	-0.120
-230.771	-200.000	0.060	0.344
-229.757	145.064	0.170	0.225
-228.742	-22.874	-0.105	-0.063
-227.727	800.000	-0.106	-0.320
-226.713	429.767	-0.095	0.204
-225.698	-80.560	-0.204	-0.067
-224.684	-200.000	0.012	0.143
-223.669	-77.734	0.141	0.048
-222.655	800.000	-0.068	-0.207
-221.640	310.444	0.191	-0.355
-220.625	160.797	-0.141	0.195
-219.611	73.807	0.120	0.125
-218.596	725.107	0.051	-0.134
-217.582	8.955	0.071	-0.053
-216.567	102.752	0.048	-0.056
-215.552	-114.525	0.233	0.044
-214.538	30.822	0.089	0.075
-213.523	-28.600	0.169	-0.096
-212.509	402.494	-0.086	-0.180
-211.494	-69.907	0.234	0.088
-210.479	85.113	0.294	-0.319
-209.465	5.227	0.208	0.152
-208.450	363.660	0.044	-0.087
-207.436	-200.000	-0.003	0.013
-206.421	54.258	0.175	-0.167
-205.406	38.997	0.098	0.086
-204.392	-19.431	0.135	0.083
-203.377	729.092	0.058	0.153
-202.363	-44.920	0.431	0.213
-201.348	134.173	-0.145	0.186
-200.333	-200.000	0.008	0.296
-199.319	-200.000	0.006	0.162
-198.304	-129.738	0.063	-0.009
-197.290	-26.979	-0.107	0.062
-196.275	18.182	0.081	0.064
-195.260	282.401	-0.127	0.225
-194.246	-200.000	-0.054	0.270
-193.231	-200.000	-0.023	0.128
-192.217	64.941	0.197	0.197
-191.202	654.559	0.050	-0.126
-190.187	-49.773	0.179	0.084
-189.173	800.000	-0.041	0.148
-188.158	191.675	0.081	-0.121
-187.144	108.223	0.262	-0.309
-186.129	-200.000	0.097	0.470
-185.114	-200.000	0.014	0.270
-184.100	347.278	0.067	0.130
-183.085	-140.425	-0.096	0.010
-182.071	-200.000	-0.033	0.235
-181.056	177.920	-0.011	-0.016
-180.042	800.000	0.093	0.387
-179.027	-108.603	0.308	0.065
-178.012	418.945	-0.139	0.293
-176.998	101.851	-0.073	-0.084
-175.983	-108.021	0.456	-0.098
-174.969	-4.413	0.239	0.163
-173.954	-5.904	-0.071	-0.048
-172.939	-200.000	0.082	0.466
-171.925	-200.000	0.064	0.286
-170.910	800.000	0.095	0.363
-169.896	-200.000	-0.029	-0.233
-168.881	285.366	-0.074	0.132
-167.866	100.050	0.201	0.230
-166.852	-200.000	0.017	-0.190
-165.837	-200.000	0.024	0.312
-164.823	-200.000	0.049	-0.216
-163.808	-77.881	-0.316	-0.108
-162.793	682.495	-0.065	0.167
-161.779	-200.000	-0.023	-0.234
-160.764	800.000	0.063	-0.253
-159.750	800.000	-0.056	0.182
-158.735	-111.344	0.258	-0.052
-157.720	-62.037	-0.119	-0.049
-156.706	-135.171	-0.138	-0.016
-155.691	-163.377	-0.186	0.009
-154.677	286.056	-0.112	0.200
-153.662	-109.889	-0.130	-0.027
-152.647	-42.693	0.148	-0.075
-151.633	-108.277	0.262	-0.056
-150.618	4.789	0.291	-0.211
-149.604	404.157	0.062	0.128
-148.589	40.132	-0.427	0.379
-147.574	-53.366	0.117	-0.053
-146.560	-75.403	-0.214	-0.075
-145.545	-200.000	0.011	-0.340
-144.531	122.533	-0.182	-0.225
-143.516	-200.000	-0.021	0.165
-142.502	51.979	0.124	0.117
-141.487	115.211	0.088	-0.106
-140.472	-200.000	-0.062	0.272
-139.458	-54.449	0.104	0.047
-138.443	152.826	-0.310	0.418
-137.429	800.000	-0.069	0.246
-136.414	-38.411	-0.092	0.048
-135.399	294.802	-0.157	-0.283
-134.385	9.417	0.317	0.237
-133.370	-200.000	0.052	-0.405
-132.356	-123.412	0.113	0.018
-131.341	-123.614	-0.262	-0.041
-130.326	88.509	-0.109	-0.119
-129.312	542.235	0.104	0.245
-128.297	-94.536	-0.207	-0.056
-127.283	800.000	0.035	-0.105
-126.268	-17.233	0.308	0.191
-125.253	6.421	-0.055	-0.041
-124.239	17.219	-0.122	-0.095
-123.224	-27.942	0.230	-0.131
-122.210	-44.435	0.045	-0.022
