DTS Sentinel unit serial number:	SN413079Multiplexer serial number:	ORYXHardware model number:	OX4-SRSoftware version number:	ORYX F/W v4.00 Oryx Data Collector v3.7.2.0data status	okinstallation	princeton_trtdifferential loss correction	single-endedforward channel	channel 4reverse channel	N/Adate	2019/09/16time	10:41:35forward acquisition time	60.00reverse acquisition time	0.00gamma	496.2192k internal	0.2299k external	0.2299temperature offset calibration	0.9958default loss term (dB/km)	0.3790temperature slope calibration	1.0000multiplexer offset coefficient	1.0000multiplexer slope coefficient	1.0000fibre end	0.00T internal ref (°C)	35.89T ext. ref 1 (°C)	12.64T ext. ref 2 (°C)	34.04length (m)	temperature (°C)	Stokes	anti-Stokes-747.200	-105.532	0.021	-0.005
-746.185	73.716	0.244	0.261
-745.171	-134.613	-0.270	-0.034
-744.156	481.507	0.117	0.272
-743.142	-41.083	0.429	-0.226
-742.127	-18.920	0.528	-0.335
-741.112	-200.000	-0.033	0.217
-740.098	-95.290	0.115	-0.032
-739.083	-110.590	0.156	0.033
-738.069	-200.000	-0.055	0.433
-737.054	800.000	0.083	-0.358
-736.039	-98.718	-0.434	-0.113
-735.025	-200.000	-0.006	0.359
-734.010	-200.000	0.034	-0.287
-732.996	1.103	-0.555	-0.406
-731.981	-17.944	-0.178	0.114
-730.966	-100.415	-0.226	-0.057
-729.952	800.000	0.089	-0.343
-728.937	425.257	0.076	-0.166
-727.923	-49.186	0.247	0.120
-726.908	558.727	-0.076	-0.187
-725.894	-24.384	0.276	-0.168
-724.879	189.935	-0.034	-0.052
-723.864	-200.000	-0.008	-0.164
-722.850	-95.910	-0.165	-0.045
-721.835	-68.534	-0.100	-0.040
-720.821	183.651	-0.201	-0.303
-719.806	-199.669	0.142	0.001
-718.791	53.267	-0.140	-0.137
-717.777	161.537	-0.173	-0.247
-716.762	40.593	0.287	-0.263
-715.748	-82.583	-0.095	0.031
-714.733	-200.000	-0.044	-0.321
-713.718	800.000	-0.062	-0.248
-712.704	-42.033	-0.155	-0.081
-711.689	-81.088	0.019	0.006
-710.675	-200.000	-0.058	-0.318
-709.660	-111.779	0.116	0.024
-708.645	-21.206	0.089	0.056
-707.631	647.901	0.059	0.154
-706.616	-186.066	0.342	-0.005
-705.602	800.000	0.056	0.193
-704.587	-67.932	-0.181	0.072
-703.572	-30.730	-0.183	-0.105
-702.558	565.059	-0.056	0.139
-701.543	83.574	-0.100	0.111
-700.529	800.000	0.062	0.267
-699.514	336.056	0.065	-0.128
-698.499	7.170	-0.181	0.138
-697.485	-200.000	-0.025	-0.206
-696.470	-67.504	-0.423	-0.169
-695.456	312.262	-0.111	-0.213
-694.441	39.560	-0.201	-0.184
-693.426	-200.000	-0.009	-0.074
-692.412	251.470	0.131	-0.227
-691.397	-13.126	0.356	-0.235
-690.383	-200.000	0.039	0.260
-689.368	-33.994	0.176	-0.099
-688.354	-122.422	0.117	0.019
-687.339	-47.156	0.183	-0.091
-686.324	155.905	-0.199	0.280
-685.310	-151.635	0.140	-0.011
-684.295	-6.821	-0.146	0.101
-683.281	-200.000	-0.009	-0.378
-682.266	-86.802	-0.093	-0.029
-681.251	-75.084	-0.207	0.076
-680.237	-180.040	-0.271	0.006
-679.222	110.743	-0.132	-0.162
-678.208	-96.706	-0.142	0.038
-677.193	-200.000	0.010	0.313
-676.178	-200.000	-0.008	0.044
-675.164	800.000	0.087	0.301
-674.149	-200.000	-0.011	-0.091
-673.135	-82.513	-0.120	-0.040
-672.120	86.333	-0.163	-0.182
-671.105	-42.938	0.038	0.020
-670.091	133.709	-0.081	0.107
-669.076	127.777	0.129	-0.166
-668.062	12.947	0.246	0.193
-667.047	197.042	-0.114	0.177
-666.032	313.511	0.082	-0.157
-665.018	-108.191	0.073	-0.016
-664.003	403.400	0.071	0.151
-662.989	22.277	0.107	-0.089
-661.974	-149.689	-0.101	0.008
-660.959	302.607	0.072	0.136
-659.945	800.000	-0.017	0.061
-658.930	-79.532	-0.099	0.034
-657.916	156.244	-0.100	-0.141
-656.901	800.000	-0.051	0.165
-655.886	800.000	0.032	-0.119
-654.872	-86.020	-0.420	-0.132
-653.857	800.000	0.014	0.041
-652.843	800.000	-0.037	-0.123
-651.828	-6.209	-0.242	-0.168
-650.814	-84.413	-0.197	0.063
-649.799	800.000	0.036	-0.137
-648.784	294.153	-0.156	-0.291
-647.770	7.978	-0.280	0.213
-646.755	138.070	0.116	-0.155
-645.741	189.725	0.075	-0.114
-644.726	6.179	-0.235	-0.177
-643.711	8.345	0.201	0.153
-642.697	-166.875	0.295	-0.012
-641.682	36.470	-0.132	-0.118
-640.668	-145.722	-0.092	-0.008
-639.653	-112.397	-0.244	0.050
-638.638	800.000	-0.097	0.332
-637.624	23.516	0.228	0.191
-636.609	250.796	0.114	0.196
-635.595	-69.175	-0.243	-0.095
-634.580	-82.626	0.127	-0.042
-633.565	-200.000	-0.031	0.153
-632.551	-191.933	-0.105	-0.001
-631.536	31.092	-0.018	0.016
-630.522	-35.637	-0.216	-0.119
-629.507	-200.000	0.058	-0.361
-628.492	-73.344	0.115	-0.043
-627.478	-64.879	-0.198	-0.081
-626.463	-120.904	0.408	-0.070
-625.449	-15.992	-0.185	0.120
-624.434	113.923	0.151	0.187
-623.419	-166.520	-0.117	-0.005
-622.405	265.801	-0.183	0.325
-621.390	115.574	0.158	-0.196
-620.376	-158.179	-0.125	0.007
-619.361	800.000	0.101	-0.367
-618.346	685.791	-0.099	-0.263
-617.332	-138.424	-0.150	0.017
-616.317	289.084	0.030	-0.055
-615.303	-76.834	0.227	-0.081
-614.288	57.713	-0.116	-0.115
-613.273	150.722	-0.069	-0.095
-612.259	800.000	-0.068	-0.240
-611.244	800.000	0.062	-0.182
-610.230	266.309	0.158	-0.279
-609.215	-118.084	-0.163	-0.030
-608.201	-80.766	-0.456	0.154
-607.186	488.691	0.069	0.161
-606.171	-76.656	0.150	-0.053
-605.157	-15.180	-0.424	-0.276
-604.142	-61.345	0.229	-0.098
-603.128	148.038	-0.144	-0.197
-602.113	-200.000	-0.019	0.134
-601.098	-57.024	0.102	0.045
-600.084	10.074	-0.208	-0.160
-599.069	-154.702	0.199	0.013
-598.055	-200.000	0.012	-0.355
-597.040	132.799	-0.054	-0.070
-596.025	8.439	-0.198	-0.151
-595.011	-190.649	0.130	0.001
-593.996	-200.000	0.021	-0.218
-592.982	567.849	0.065	0.160
-591.967	-53.644	-0.140	-0.065
-590.952	-73.359	-0.121	-0.045
-589.938	24.284	0.217	0.182
-588.923	-42.952	-0.348	0.179
-587.909	800.000	-0.108	-0.313
-586.894	-149.714	-0.211	0.017
-585.879	-143.092	0.252	0.025
-584.865	-148.873	0.392	0.032
-583.850	211.393	-0.166	-0.265
-582.836	800.000	0.085	0.259
-581.821	676.654	-0.147	-0.386
-580.806	581.527	-0.020	0.051
-579.792	19.861	-0.150	-0.123
-578.777	605.496	0.045	0.113
-577.763	-6.940	-0.390	-0.268
-576.748	42.625	-0.048	-0.044
-575.733	-133.153	-0.087	-0.011
-574.719	-70.019	-0.284	-0.110
-573.704	-200.000	0.003	-0.135
-572.690	202.702	0.106	0.166
-571.675	-200.000	-0.003	0.315
-570.661	-74.439	-0.158	-0.058
-569.646	-200.000	0.078	0.496
-568.631	44.981	-0.171	0.160
-567.617	-77.435	-0.145	-0.051
-566.602	639.590	-0.102	0.264
-565.588	-200.000	0.009	0.204
-564.573	-136.817	-0.184	-0.021
-563.558	-43.159	-0.025	-0.013
-562.544	448.420	-0.149	-0.332
-561.529	-108.272	-0.281	0.062
-560.515	-200.000	-0.212	-0.000
-559.500	-68.420	0.036	-0.014
-558.485	-78.472	-0.109	0.038
-557.471	768.545	-0.073	0.201
-556.456	-138.837	0.198	-0.022
-555.442	-75.398	0.380	0.137
-554.427	-136.276	-0.328	0.039
-553.412	-81.995	0.162	0.054
-552.398	800.000	0.009	-0.027
-551.383	-13.484	0.069	0.045
-550.369	349.791	0.024	0.049
-549.354	352.889	0.049	-0.098
-548.339	-167.155	0.561	0.023
-547.325	-120.759	-0.134	0.023
-546.310	201.881	0.149	-0.233
-545.296	223.007	0.057	-0.093
-544.281	100.122	0.239	0.281
-543.266	132.107	-0.079	-0.103
-542.252	89.291	0.141	0.159
-541.237	-142.420	0.385	0.038
-540.223	800.000	-0.074	0.217
-539.208	30.903	-0.177	-0.154
-538.193	800.000	-0.022	0.079
-537.179	38.290	0.112	-0.101
-536.164	290.747	0.184	-0.339
-535.150	1.518	0.270	-0.197
-534.135	-17.780	0.137	-0.087
-533.121	377.724	0.060	0.124
-532.106	50.564	0.039	-0.037
-531.091	157.714	0.148	0.207
-530.077	227.652	-0.174	-0.286
-529.062	-36.451	-0.110	-0.060
-528.048	-155.581	0.331	0.022
-527.033	133.904	0.039	0.051
-526.018	800.000	0.047	-0.206
-525.004	-11.557	-0.268	-0.178
-523.989	408.283	-0.075	-0.160
-522.975	-97.790	-0.303	-0.079
-521.960	-119.185	-0.474	-0.084
-520.945	13.569	-0.197	-0.154
-519.931	204.449	0.175	0.274
-518.916	276.956	-0.044	0.079
-517.902	-155.279	0.132	0.009
-516.887	630.748	-0.127	0.326
-515.872	55.124	-0.144	0.141
-514.858	800.000	0.064	-0.218
-513.843	159.682	0.125	-0.176
-512.829	265.069	0.101	0.177
-511.814	291.560	0.190	0.349
-510.799	800.000	0.056	-0.215
-509.785	217.034	-0.160	0.257
-508.770	-31.506	-0.246	-0.140
-507.756	-200.000	-0.006	0.085
-506.741	186.529	-0.063	-0.095
-505.726	-200.000	-0.011	0.248
-504.712	-111.387	0.224	-0.046
-503.697	-108.351	-0.360	0.079
-502.683	114.069	0.080	-0.099
-501.668	-4.497	0.098	-0.068
-500.653	96.217	0.201	-0.233
-499.639	-43.309	0.067	0.034
-498.624	-109.142	0.453	-0.097
-497.610	-200.000	-0.001	0.148
-496.595	-182.381	-0.111	0.002
-495.581	235.854	-0.158	0.264
-494.566	392.529	-0.053	-0.111
-493.551	-75.594	-0.205	-0.073
-492.537	-140.484	-0.261	0.027
-491.522	-93.174	-0.424	-0.119
-490.508	-14.254	0.187	-0.122
-489.493	-190.338	-0.382	0.004
-488.478	103.770	0.147	-0.175
-487.464	723.730	-0.036	-0.096
-486.449	551.908	-0.105	-0.254
-485.435	34.324	0.215	0.190
-484.420	-200.000	-0.033	-0.216
-483.405	-200.000	0.007	-0.314
-482.391	-72.485	-0.260	-0.097
-481.376	-200.000	-0.073	0.378
-480.362	800.000	-0.109	-0.338
-479.347	800.000	0.044	-0.193
-478.332	-100.504	0.166	-0.042
-477.318	-133.878	-0.144	-0.018
-476.303	104.098	0.058	0.069
-475.289	-75.010	-0.161	-0.058
-474.274	492.122	-0.028	-0.066
-473.259	-7.093	-0.034	0.023
-472.245	91.931	-0.056	0.064
-471.230	-101.653	0.087	-0.021
-470.216	52.433	-0.075	0.073
-469.201	-56.835	-0.195	-0.087
-468.186	-147.058	0.185	0.016
-467.172	134.571	-0.118	0.154
-466.157	27.197	-0.123	0.104
-465.143	-55.926	0.374	0.168
-464.128	-200.000	-0.019	-0.376
-463.113	242.777	-0.153	0.259
-462.099	-200.000	0.008	-0.055
-461.084	431.284	0.041	0.091
-460.070	-83.627	-0.254	0.082
-459.055	723.461	0.066	-0.177
-458.040	800.000	-0.083	0.252
-457.026	96.189	0.118	0.137
-456.011	-200.000	-0.041	-0.396
-454.997	800.000	0.048	0.158
-453.982	432.049	-0.127	-0.279
-452.968	36.388	-0.180	-0.160
-451.953	-53.222	-0.338	0.157
-450.938	-109.996	-0.359	0.076
-449.924	78.410	-0.110	0.118
-448.909	800.000	-0.104	-0.333
-447.895	-160.635	-0.033	0.002
-446.880	160.429	-0.109	0.153
-445.865	-161.113	0.234	-0.012
-444.851	498.014	0.078	0.182
-443.836	94.255	0.083	-0.095
-442.822	-22.583	-0.216	0.131
-441.807	-64.405	-0.233	-0.096
-440.792	-121.455	0.232	0.039
-439.778	76.363	-0.123	0.131
-438.763	-97.106	-0.413	-0.109
-437.749	128.492	0.151	0.194
-436.734	-81.960	-0.310	0.102
-435.719	-200.000	0.003	0.215
-434.705	-2.325	-0.214	-0.151
-433.690	-144.139	0.307	-0.029
-432.676	79.931	-0.157	-0.170
-431.661	-200.000	-0.028	-0.280
-430.646	-200.000	-0.018	0.129
-429.632	-103.937	0.087	-0.020
-428.617	800.000	-0.029	0.105
-427.603	-200.000	-0.032	0.152
-426.588	-32.815	-0.354	0.198
-425.573	-200.000	0.053	-0.310
-424.559	337.572	-0.012	0.023
-423.544	-131.431	-0.228	0.030
-422.530	-200.000	0.008	-0.245
-421.515	59.251	0.049	-0.049
-420.500	-194.419	-0.119	-0.001
-419.486	-38.653	-0.147	-0.078
-418.471	97.618	0.208	0.241
-417.457	67.011	-0.265	0.272
-416.442	21.376	0.066	0.054
-415.428	-114.796	0.392	-0.075
-414.413	-120.549	0.313	0.053
-413.398	-85.515	0.071	-0.022
-412.384	-85.157	0.093	0.029
-411.369	-200.000	-0.035	0.453
-410.355	546.193	0.063	-0.151
-409.340	25.228	-0.087	0.073
-408.325	-193.732	0.409	-0.003
-407.311	92.408	0.157	-0.178
-406.296	-200.000	-0.026	-0.118
-405.282	318.816	0.114	0.217
-404.267	-8.880	0.139	0.094
-403.252	-200.000	0.008	0.104
-402.238	349.199	-0.138	0.274
-401.223	-200.000	0.011	-0.372
-400.209	74.448	-0.079	-0.084
-399.194	-200.000	0.046	-0.228
-398.179	47.576	0.098	-0.092
-397.165	8.287	0.126	0.095
-396.150	218.917	0.075	-0.120
-395.136	800.000	-0.041	0.155
-394.121	-200.000	-0.020	-0.121
-393.106	292.649	0.206	0.378
-392.092	800.000	0.006	-0.020
-391.077	7.916	0.027	-0.020
-390.063	-56.988	0.163	-0.072
-389.048	138.935	0.170	0.225
-388.033	-55.042	-0.194	-0.088
-387.019	-9.912	-0.175	0.117
-386.004	94.449	-0.089	-0.102
-384.990	-200.000	-0.007	-0.098
-383.975	305.528	-0.229	0.429
-382.960	-200.000	-0.163	-0.000
-381.946	-105.458	0.366	-0.084
-380.931	383.211	0.068	-0.140
-379.917	-51.384	0.280	-0.132
-378.902	65.203	-0.143	-0.146
-377.888	-90.356	0.120	-0.035
-376.873	-45.225	0.151	0.075
-375.858	96.100	0.043	0.050
-374.844	800.000	0.043	0.122
-373.829	-110.752	-0.126	-0.026
-372.815	777.011	0.079	0.217
-371.800	76.909	0.166	-0.177
-370.785	-46.581	0.092	0.046
-369.771	-126.489	-0.083	0.012
-368.756	-118.195	-0.247	0.044
-367.742	295.715	-0.064	0.118
-366.727	-164.144	0.016	-0.001
-365.712	-200.000	0.007	0.301
-364.698	-12.880	-0.235	0.154
-363.683	-38.590	-0.052	-0.027
-362.669	-62.355	0.098	-0.041
-361.654	30.986	-0.134	-0.115
-360.639	300.958	0.142	0.264
-359.625	-200.000	-0.025	0.209
-358.610	87.127	-0.105	0.116
-357.596	-124.258	-0.184	0.029
-356.581	800.000	0.060	-0.177
-355.566	23.914	0.371	-0.307
-354.552	226.126	-0.071	-0.116
-353.537	-97.518	-0.046	-0.012
-352.523	800.000	0.022	-0.081
-351.508	190.465	-0.111	-0.167
-350.493	-200.000	-0.001	-0.099
-349.479	-155.678	-0.222	-0.014
-348.464	264.283	-0.117	0.205
-347.450	264.793	0.201	0.353
-346.435	177.582	0.105	0.154
-345.420	-199.940	0.577	-0.003
-344.406	49.316	-0.190	0.179
-343.391	592.290	-0.078	-0.193
-342.377	-200.000	0.009	-0.411
-341.362	-200.000	-0.043	-0.326
-340.348	-60.666	-0.037	-0.016
-339.333	-108.637	0.264	0.057
-338.318	-52.896	0.290	-0.134
-337.304	-200.000	-0.015	0.080
-336.289	-20.739	0.163	0.100
-335.275	701.863	-0.083	0.219
-334.260	212.735	0.087	0.138
-333.245	-81.948	0.342	-0.112
-332.231	800.000	-0.124	0.413
-331.216	5.777	-0.041	0.031
-330.202	28.141	-0.213	0.180
-329.187	9.100	-0.066	0.050
-328.172	40.340	0.075	0.067
-327.158	-152.557	-0.090	0.006
-326.143	34.440	-0.142	0.125
-325.129	-24.938	0.319	0.190
-324.114	-200.000	-0.003	0.080
-323.099	-97.797	0.179	-0.046
-322.085	119.289	0.136	0.169
-321.070	-200.000	-0.011	-0.056
-320.056	-200.000	-0.040	-0.278
-319.041	45.220	0.146	-0.135
-318.026	-135.317	-0.098	-0.012
-317.012	450.864	-0.138	0.305
-315.997	585.159	0.145	0.357
-314.983	-153.546	0.473	-0.033
-313.968	800.000	0.034	-0.149
-312.953	36.320	0.137	-0.121
-311.939	452.940	0.042	-0.093
-310.924	-71.328	-0.281	-0.106
-309.910	636.205	0.102	0.259
-308.895	292.021	-0.137	0.250
-307.880	-59.861	0.109	-0.047
-306.866	-152.310	-0.241	-0.017
-305.851	800.000	0.163	0.525
-304.837	1.561	0.341	-0.246
-303.822	10.020	-0.036	0.027
-302.807	-187.495	-0.094	-0.001
-301.793	-200.000	-0.069	0.330
-300.778	-200.000	-0.029	-0.246
-299.764	713.591	0.007	-0.019
-298.749	-200.000	0.030	-0.398
-297.735	-5.788	0.098	0.067
-296.720	-200.000	0.057	-0.491
-295.705	280.769	-0.055	-0.099
-294.691	-70.364	0.066	0.025
-293.676	800.000	0.098	0.316
-292.662	-9.358	0.085	-0.057
-291.647	170.137	-0.152	0.218
-290.632	-25.823	-0.231	-0.136
-289.618	-98.925	0.327	0.083
-288.603	97.350	0.153	0.176
-287.589	-128.270	0.078	-0.011
-286.574	544.255	0.083	0.198
-285.559	-193.132	0.050	-0.000
-284.545	-156.373	0.214	-0.013
-283.530	-104.540	0.117	0.027
-282.516	-77.213	-0.291	0.102
-281.501	-147.543	-0.184	0.016
-280.486	-200.000	-0.062	0.283
-279.472	-68.744	-0.093	-0.036
-278.457	-88.490	-0.261	0.078
-277.443	-200.000	0.011	-0.105
-276.428	125.199	0.372	-0.470
-275.413	18.799	0.124	0.100
-274.399	-103.225	0.133	-0.032
-273.384	-65.254	0.192	0.077
-272.370	17.552	-0.157	-0.125
-271.355	-59.368	-0.068	-0.029
-270.340	115.774	-0.103	-0.126
-269.326	-200.000	0.052	0.234
-268.311	430.926	-0.097	0.211
-267.297	287.196	-0.110	-0.198
-266.282	234.395	-0.064	0.106
-265.267	197.572	0.177	-0.271
-264.253	-26.519	0.284	0.166
-263.238	-141.024	0.178	0.018
-262.224	-137.037	0.005	-0.001
-261.209	-140.121	-0.182	0.019
-260.195	800.000	-0.052	-0.211
-259.180	-28.465	0.045	0.026
-258.165	800.000	0.023	-0.087
-257.151	53.023	0.077	0.073
-256.136	-134.663	-0.171	0.021
-255.122	-79.222	0.250	0.085
-254.107	-142.608	-0.099	-0.010
-253.092	-46.923	-0.286	-0.140
-252.078	233.584	0.183	-0.302
-251.063	800.000	-0.038	0.134
-250.049	-200.000	0.001	-0.177
-249.034	208.083	0.150	0.234
-248.019	5.659	0.135	0.100
-247.005	103.573	-0.068	-0.080
-245.990	-166.906	-0.175	0.007
-244.976	800.000	-0.079	-0.275
-243.961	-70.355	-0.096	0.037
-242.946	-115.088	0.128	-0.024
-241.932	645.556	0.078	0.199
-240.917	-90.083	0.043	0.013
-239.903	-200.000	0.032	0.207
-238.888	-164.690	0.236	-0.011
-237.873	-55.166	0.188	-0.085
-236.859	5.708	-0.200	-0.148
-235.844	-12.376	0.234	0.153
-234.830	13.491	-0.232	-0.180
-233.815	-200.000	0.006	-0.036
-232.800	-124.770	0.067	-0.010
-231.786	-160.798	0.228	0.012
-230.771	-200.000	0.029	0.235
-229.757	-6.828	0.178	-0.121
-228.742	-19.960	0.156	-0.096
-227.727	549.244	-0.106	0.255
-226.713	-106.047	-0.226	-0.051
-225.698	-200.000	0.013	0.247
-224.684	-200.000	0.020	-0.313
-223.669	137.040	0.154	-0.201
-222.655	-125.266	0.394	0.060
-221.640	-21.519	0.150	-0.092
-220.625	800.000	-0.133	0.453
-219.611	-200.000	0.052	-0.287
-218.596	501.033	-0.092	-0.211
-217.582	-134.185	-0.076	-0.009
-216.567	-38.179	0.090	0.048
-215.552	800.000	0.008	-0.033
-214.538	536.467	-0.095	0.227
-213.523	800.000	-0.009	-0.030
-212.509	35.012	0.166	0.145
-211.494	-200.000	0.004	-0.136
-210.479	800.000	-0.019	0.073
-209.465	29.711	0.072	-0.061
-208.450	-136.449	0.304	-0.035
-207.436	51.194	-0.183	-0.174
-206.421	-47.119	0.139	-0.068
-205.406	252.985	-0.176	0.300
-204.392	265.064	0.029	-0.051
-203.377	-200.000	-0.011	-0.119
-202.363	-29.698	0.314	-0.179
-201.348	-11.013	0.312	-0.206
-200.333	-137.588	0.194	0.022
-199.319	243.484	-0.061	0.103
-198.304	-23.241	-0.370	0.222
-197.290	800.000	0.023	-0.094
-196.275	-84.449	0.211	0.066
-195.260	120.769	0.240	0.298
-194.246	70.692	-0.104	0.107
-193.231	-200.000	0.012	0.313
-192.217	133.780	-0.047	0.061
-191.202	150.942	-0.168	-0.228
-190.187	116.592	0.037	0.045
-189.173	137.451	0.101	0.132
-188.158	-9.042	0.246	-0.165
-187.144	-15.125	0.160	0.102
-186.129	-200.000	0.019	0.101
-185.114	-200.000	0.039	-0.248
-184.100	800.000	0.067	-0.228
-183.085	449.795	0.121	0.267
-182.071	406.406	0.182	-0.383
-181.056	227.517	0.197	-0.320
-180.042	800.000	0.091	0.334
-179.027	-200.000	-0.019	-0.199
-178.012	109.435	-0.167	0.200
-176.998	-80.580	-0.511	0.170
-175.983	-19.468	-0.100	0.062
-174.969	66.820	0.211	0.214
-173.954	128.444	0.187	-0.237
-172.939	106.226	0.135	-0.160
-171.925	-200.000	-0.036	0.499
-170.910	-194.146	0.209	-0.002
-169.896	-200.000	-0.012	-0.143
-168.881	800.000	-0.076	0.288
-167.866	25.506	-0.094	-0.078
-166.852	271.032	0.200	-0.351
-165.837	-130.754	-0.504	0.067
-164.823	56.849	0.106	0.103
-163.808	-28.252	0.047	-0.027
-162.793	-119.427	-0.295	-0.051
-161.779	-52.676	-0.188	0.087
-160.764	104.983	-0.216	0.254
-159.750	-140.383	-0.020	-0.002
-158.735	-132.648	0.321	-0.041
-157.720	-62.893	-0.467	-0.193
-156.706	12.281	-0.081	0.062
-155.691	800.000	-0.021	-0.062
-154.677	-16.581	0.181	0.114
-153.662	274.782	0.165	0.292
-152.647	-62.925	-0.167	-0.069
-151.633	-61.967	-0.360	0.150
-150.618	800.000	0.074	0.217
-149.604	-200.000	0.121	-0.583
-148.589	266.786	-0.043	0.076
-147.574	-28.283	0.242	-0.139
-146.560	-200.000	0.009	-0.144
-145.545	800.000	-0.019	-0.058
-144.531	204.312	0.198	-0.305
-143.516	-200.000	-0.003	0.021
-142.502	-200.000	0.029	0.177
-141.487	-200.000	-0.002	-0.145
-140.472	-200.000	-0.027	0.289
-139.458	65.114	-0.196	0.197
-138.443	103.452	-0.023	0.027
-137.429	41.680	0.111	-0.100
-136.414	-169.403	-0.428	-0.016
-135.399	225.716	-0.126	0.203
-134.385	-200.000	-0.003	0.015
-133.370	-119.069	-0.159	0.028
-132.356	150.535	-0.256	-0.346
-131.341	244.002	0.096	-0.161
-130.326	-67.145	-0.417	-0.164
-129.312	-38.894	-0.121	0.063
-128.297	800.000	-0.103	0.411
-127.283	-84.113	-0.290	-0.092
-126.268	321.489	-0.054	0.102
-125.253	800.000	-0.083	-0.230
-124.239	-200.000	0.022	0.132
-123.224	73.843	0.245	-0.256
-122.210	-105.188	0.279	-0.063
