DTS Sentinel unit serial number:	SN413079Multiplexer serial number:	ORYXHardware model number:	OX4-SRSoftware version number:	ORYX F/W v4.00 Oryx Data Collector v3.7.2.0data status	okinstallation	princeton_trtdifferential loss correction	single-endedforward channel	channel 4reverse channel	N/Adate	2019/09/12time	19:51:18forward acquisition time	15.00reverse acquisition time	0.00gamma	496.2192k internal	0.2310k external	0.2310temperature offset calibration	1.0166default loss term (dB/km)	0.3790temperature slope calibration	1.0000multiplexer offset coefficient	1.0000multiplexer slope coefficient	1.0000fibre end	0.00T internal ref (°C)	31.87T ext. ref 1 (°C)	3.44T ext. ref 2 (°C)	26.49length (m)	temperature (°C)	Stokes	anti-Stokes-747.200	-52.563	0.702	0.330
-746.185	16.690	-0.518	-0.416
-745.171	-18.282	-0.299	-0.190
-744.156	-108.169	0.380	-0.084
-743.142	496.950	-0.253	0.591
-742.127	700.689	0.292	0.781
-741.112	84.743	-0.161	-0.179
-740.098	145.545	0.441	-0.600
-739.083	-200.000	0.020	0.109
-738.069	133.531	-0.359	0.472
-737.054	-200.000	0.033	-0.986
-736.039	-168.364	-0.815	0.032
-735.025	-88.039	0.435	0.133
-734.010	-77.439	-0.037	-0.013
-732.996	-117.891	-0.346	0.063
-731.981	-200.000	-0.047	-0.471
-730.966	-48.302	-0.121	-0.059
-729.952	-46.223	-0.561	-0.280
-728.937	262.294	-0.138	0.243
-727.923	-69.670	-0.264	-0.103
-726.908	-8.020	1.116	0.764
-725.894	-90.346	-0.468	-0.138
-724.879	249.342	-0.269	-0.462
-723.864	-124.915	0.451	0.071
-722.850	-200.000	0.024	0.430
-721.835	-200.000	0.104	0.738
-720.821	36.024	0.677	-0.605
-719.806	-200.000	-0.021	-0.322
-718.791	-1.679	0.499	0.357
-717.777	-87.293	-0.606	-0.187
-716.762	57.899	-0.077	0.077
-715.748	151.592	0.399	-0.551
-714.733	-29.360	0.251	-0.146
-713.718	22.107	-0.367	0.304
-712.704	-93.918	0.702	-0.196
-711.689	800.000	-0.122	-0.520
-710.675	-200.000	0.026	-0.250
-709.660	80.271	0.672	-0.734
-708.645	-139.466	0.423	-0.046
-707.631	-200.000	0.003	-0.438
-706.616	-200.000	-0.009	0.146
-705.602	-157.436	0.427	0.026
-704.587	175.375	0.246	-0.361
-703.572	-106.185	0.620	-0.141
-702.558	-45.590	0.435	-0.218
-701.543	800.000	-0.253	-0.744
-700.529	-200.000	0.033	-0.443
-699.514	-66.745	-0.466	0.187
-698.499	-107.259	0.101	-0.022
-697.485	693.135	-0.050	0.133
-696.470	-200.000	0.026	-0.606
-695.456	-157.948	0.191	0.011
-694.441	-161.108	-0.496	0.026
-693.426	603.363	0.387	-0.975
-692.412	38.281	0.238	0.215
-691.397	-121.308	-0.314	-0.053
-690.383	800.000	0.177	0.558
-689.368	800.000	0.199	-0.695
-688.354	-101.165	-0.525	-0.130
-687.339	-200.000	0.108	-0.727
-686.324	-85.837	0.726	-0.228
-685.310	-200.000	-0.028	0.328
-684.295	-200.000	-0.077	0.712
-683.281	-200.000	0.072	0.491
-682.266	24.720	-0.231	-0.194
-681.251	80.312	-0.550	0.600
-680.237	-5.211	0.423	0.294
-679.222	24.090	0.146	0.122
-678.208	554.279	-0.071	-0.172
-677.193	-200.000	0.041	-0.192
-676.178	-200.000	0.010	0.406
-675.164	548.958	-0.097	0.236
-674.149	-127.522	-0.286	0.042
-673.135	42.199	0.286	-0.263
-672.120	297.632	-0.050	0.093
-671.105	-37.482	-0.260	0.140
-670.091	776.557	-0.059	0.164
-669.076	255.919	-0.146	0.253
-668.062	800.000	-0.239	0.702
-667.047	-200.000	0.043	0.926
-666.032	-200.000	0.101	-0.684
-665.018	0.890	0.337	0.244
-664.003	-97.253	-0.604	0.160
-662.989	-90.527	0.292	0.086
-661.974	-112.976	0.066	-0.013
-660.959	-6.944	0.305	-0.210
-659.945	-8.388	-0.051	0.035
-658.930	-12.124	0.867	-0.575
-657.916	800.000	-0.156	-0.519
-656.901	507.575	0.356	-0.836
-655.886	-200.000	0.023	-0.315
-654.872	-46.054	-0.439	0.219
-653.857	-200.000	-0.069	0.321
-652.843	1.109	-0.692	0.503
-651.828	163.043	-0.516	0.734
-650.814	79.731	0.491	-0.533
-649.799	800.000	-0.143	-0.556
-648.784	-200.000	0.034	-0.521
-647.770	42.213	0.668	-0.614
-646.755	800.000	-0.071	-0.267
-645.741	-135.033	0.521	-0.064
-644.726	103.550	0.215	-0.256
-643.711	-200.000	0.016	-0.772
-642.697	46.321	0.443	0.415
-641.682	800.000	-0.244	-1.031
-640.668	-200.000	-0.054	-0.721
-639.653	-200.000	-0.068	-0.505
-638.638	35.990	-0.723	0.644
-637.624	526.604	-0.442	-1.054
-636.609	-110.888	-0.130	0.027
-635.595	-14.582	-0.110	0.072
-634.580	139.550	0.410	0.545
-633.565	800.000	-0.076	0.239
-632.551	19.674	0.472	0.384
-631.536	376.909	-0.522	-1.079
-630.522	-90.089	0.272	0.080
-629.507	800.000	0.073	0.238
-628.492	89.030	-0.739	0.832
-627.478	408.707	-0.147	-0.314
-626.463	123.581	-0.500	-0.634
-625.449	-34.739	0.822	-0.454
-624.434	302.399	-0.137	0.256
-623.419	-93.859	-0.892	-0.248
-622.405	-103.527	-0.173	-0.041
-621.390	34.992	0.084	-0.075
-620.376	-112.283	0.389	0.079
-619.361	-69.037	0.633	-0.247
-618.346	232.844	-0.605	1.006
-617.332	-47.074	-0.812	0.401
-616.317	550.319	-0.080	-0.194
-615.303	309.086	-0.358	-0.676
-614.288	-23.672	0.499	0.302
-613.273	-200.000	0.015	-0.142
-612.259	800.000	-0.178	0.581
-611.244	162.282	0.074	-0.105
-610.230	-91.160	0.358	0.104
-609.215	176.797	-0.407	0.598
-608.201	692.321	0.159	-0.422
-607.186	72.898	-0.137	-0.145
-606.171	146.484	0.157	-0.214
-605.157	214.676	-0.206	-0.330
-604.142	13.781	-0.461	-0.362
-603.128	16.572	-0.516	0.412
-602.113	-152.117	-0.352	0.026
-601.098	-200.000	0.031	-0.186
-600.084	-120.336	0.349	-0.060
-599.069	-200.000	0.043	0.544
-598.055	47.279	-0.350	-0.330
-597.040	-200.000	-0.156	-0.710
-596.025	35.099	-0.584	-0.517
-595.011	77.524	0.319	-0.343
-593.996	-200.000	0.008	-0.637
-592.982	-112.286	-0.595	0.120
-591.967	-29.155	0.202	-0.117
-590.952	104.080	-0.422	0.501
-589.938	-26.272	-0.943	0.559
-588.923	410.647	0.194	-0.416
-587.909	-166.232	0.480	0.020
-586.894	-45.381	-0.387	0.194
-585.879	205.530	-0.355	-0.557
-584.865	43.971	-0.479	0.443
-583.850	8.048	0.943	-0.715
-582.836	-70.752	-0.545	-0.207
-581.821	45.844	-0.388	0.362
-580.806	-113.041	-0.351	0.070
-579.792	-127.716	0.573	-0.084
-578.777	-200.000	0.101	0.543
-577.763	-154.667	-0.870	-0.058
-576.748	800.000	0.104	-0.355
-575.733	-87.932	-0.379	-0.115
-574.719	-79.429	0.428	-0.146
-573.704	-35.379	0.552	0.303
-572.690	-200.000	-0.023	-0.787
-571.675	-140.035	0.869	0.092
-570.661	-5.051	-0.620	0.431
-569.646	-200.000	0.028	-0.386
-568.631	137.517	0.329	0.435
-567.617	-200.000	-0.236	-1.302
-566.602	245.174	-0.119	0.202
-565.588	800.000	0.190	0.749
-564.573	-99.906	0.694	0.175
-563.558	-200.000	-0.008	0.054
-562.544	77.408	-0.556	-0.597
-561.529	-161.116	-0.226	-0.012
-560.515	46.050	0.358	-0.334
-559.500	117.612	-0.472	-0.586
-558.485	-81.623	0.685	0.227
-557.471	20.974	0.581	-0.475
-556.456	49.176	0.230	0.218
-555.442	497.177	0.139	-0.322
-554.427	-95.591	0.156	-0.042
-553.412	51.559	0.190	0.182
-552.398	210.299	0.216	-0.342
-551.383	-66.855	-1.008	-0.402
-550.369	-144.513	0.795	0.074
-549.354	-154.839	1.740	0.116
-548.339	-74.610	1.105	-0.401
-547.325	116.590	-0.374	-0.463
-546.310	8.298	0.179	-0.136
-545.296	186.700	-0.337	-0.506
-544.281	-36.202	0.530	0.288
-543.266	-200.000	-0.060	0.995
-542.252	-129.429	0.100	-0.014
-541.237	536.015	-0.082	0.195
-540.223	164.465	0.575	0.817
-539.208	106.620	0.331	-0.396
-538.193	-12.035	-0.569	-0.376
-537.179	16.983	0.478	0.382
-536.164	-112.527	0.453	0.091
-535.150	266.197	0.105	-0.185
-534.135	-83.210	-0.458	-0.148
-533.121	-23.877	-0.847	0.511
-532.106	8.777	-0.240	0.182
-531.091	-121.779	-0.330	-0.055
-530.077	30.984	-0.980	0.846
-529.062	-56.645	-0.312	-0.139
-528.048	-125.960	-0.101	0.015
-527.033	-141.775	0.760	-0.077
-526.018	259.573	-0.199	-0.346
-525.004	-9.265	-0.400	-0.269
-523.989	533.672	-0.095	-0.226
-522.975	406.678	-0.027	-0.058
-521.960	-200.000	0.110	0.627
-520.945	-66.360	-0.540	-0.216
-519.931	109.418	0.077	-0.093
-518.916	-200.000	-0.059	0.520
-517.902	-44.740	0.491	0.247
-516.887	192.791	-0.358	0.545
-515.872	160.193	-0.405	0.568
-514.858	-194.050	-0.522	-0.004
-513.843	-122.411	-0.383	0.063
-512.829	109.279	0.406	-0.490
-511.814	-172.451	-0.171	0.005
-510.799	24.711	-0.114	0.095
-509.785	366.215	0.269	-0.546
-508.770	677.106	0.137	-0.357
-507.756	39.311	0.394	0.355
-506.741	19.681	0.326	-0.264
-505.726	-200.000	-0.013	0.406
-504.712	90.429	0.778	0.876
-503.697	-120.692	0.100	-0.017
-502.683	12.577	-0.508	-0.395
-501.668	800.000	0.377	-1.417
-500.653	384.366	0.235	-0.488
-499.639	-77.625	0.616	-0.215
-498.624	2.960	-0.750	-0.548
-497.610	-104.306	-0.576	-0.134
-496.595	140.276	0.382	-0.507
-495.581	-200.000	-0.111	-0.651
-494.566	-95.342	0.253	0.069
-493.551	623.509	0.105	0.267
-492.537	-33.262	-0.441	0.246
-491.522	-145.855	-0.794	0.071
-490.508	260.670	-0.040	0.070
-489.493	800.000	-0.109	-0.429
-488.478	8.767	0.461	0.350
-487.464	-95.586	0.301	-0.081
-486.449	-200.000	0.035	0.550
-485.435	106.214	-0.103	-0.122
-484.420	-200.000	0.002	0.844
-483.405	214.436	0.310	0.494
-482.391	-34.101	-0.530	0.293
-481.376	263.141	-0.334	-0.583
-480.362	-34.953	-0.220	0.121
-479.347	-78.584	0.781	0.268
-478.332	-91.604	-0.260	-0.075
-477.318	278.912	0.075	0.135
-476.303	241.301	0.291	-0.488
-475.289	-70.032	-0.122	-0.047
-474.274	5.728	-0.482	-0.358
-473.259	283.813	0.205	0.370
-472.245	800.000	-0.081	-0.310
-471.230	226.487	-0.506	0.825
-470.216	228.790	-0.098	0.160
-469.201	16.279	-0.374	0.296
-468.186	800.000	-0.070	0.200
-467.172	-21.854	-0.859	0.525
-466.157	800.000	-0.184	-0.573
-465.143	47.494	-0.472	-0.443
-464.128	-161.237	0.539	-0.028
-463.113	-56.302	-0.111	0.050
-462.099	330.677	-0.083	-0.160
-461.084	559.377	0.196	0.474
-460.070	80.161	0.348	-0.376
-459.055	134.406	0.372	-0.485
-458.040	183.457	0.163	0.242
-457.026	-200.000	0.003	0.530
-456.011	17.902	-0.374	0.300
-454.997	56.089	0.831	-0.811
-453.982	800.000	-0.208	0.648
-452.968	800.000	-0.017	0.066
-451.953	-200.000	-0.020	0.401
-450.938	-24.172	0.048	0.029
-449.924	-26.472	-0.694	-0.409
-448.909	46.407	-0.278	0.259
-447.895	-200.000	-0.001	0.749
-446.880	-200.000	-0.003	-0.469
-445.865	-200.000	-0.002	-0.436
-444.851	-94.740	-0.131	0.036
-443.836	39.812	-0.662	-0.597
-442.822	-49.854	0.570	0.272
-441.807	-200.000	-0.050	-0.579
-440.792	93.853	-0.255	0.290
-439.778	211.527	0.068	-0.107
-438.763	-52.153	-0.280	0.131
-437.749	-128.525	-0.336	0.048
-436.734	-200.000	0.011	-0.053
-435.719	112.535	0.501	0.609
-434.705	-44.628	0.277	-0.139
-433.690	152.708	-0.303	0.415
-432.676	49.843	0.174	0.165
-431.661	-29.754	0.459	-0.263
-430.646	87.063	-0.169	0.187
-429.632	20.666	-0.641	0.520
-428.617	-154.769	-0.454	0.030
-427.603	322.945	-0.243	0.465
-426.588	-143.165	0.906	-0.088
-425.573	-200.000	-0.107	-0.837
-424.559	-139.266	0.801	-0.086
-423.544	-101.108	0.734	-0.180
-422.530	-131.756	0.852	0.112
-421.515	-160.200	0.565	-0.031
-420.500	13.628	-0.528	-0.411
-419.486	-100.574	-0.814	0.202
-418.471	263.976	-0.491	0.857
-417.457	232.417	-0.009	0.016
-416.442	397.041	-0.237	0.496
-415.428	-5.044	0.665	-0.459
-414.413	-99.095	-0.505	-0.128
-413.398	-116.551	-0.954	0.176
-412.384	-4.115	0.112	-0.078
-411.369	-51.572	-0.752	-0.352
-410.355	800.000	0.114	-0.360
-409.340	121.733	-0.083	0.103
-408.325	153.850	0.095	-0.131
-407.311	-53.668	-0.530	0.243
-406.296	356.992	-0.499	0.997
-405.282	-52.495	-0.376	-0.174
-404.267	464.609	-0.372	0.834
-403.252	-200.000	-0.011	-0.198
-402.238	-38.538	-0.529	-0.280
-401.223	43.930	-0.408	-0.375
-400.209	-93.908	-0.484	0.133
-399.194	800.000	0.081	0.334
-398.179	-126.914	-0.596	0.088
-397.165	-119.916	-0.392	-0.068
-396.150	800.000	-0.162	0.503
-395.136	-102.972	-0.539	0.128
-394.121	258.477	0.516	0.891
-393.106	-162.817	-0.787	-0.038
-392.092	-8.064	-0.362	0.245
-391.077	-81.907	0.494	-0.162
-390.063	100.868	0.271	-0.316
-389.048	-11.718	-0.167	0.110
-388.033	-47.972	0.188	-0.091
-387.019	-200.000	0.043	0.360
-386.004	571.182	0.121	0.296
-384.990	-16.063	0.842	0.536
-383.975	-13.883	0.687	0.445
-382.960	160.484	-0.182	-0.255
-381.946	-200.000	-0.007	-0.437
-380.931	-90.605	0.563	0.163
-379.917	-158.462	0.944	0.055
-378.902	-20.009	0.237	0.147
-377.888	109.233	-0.381	-0.457
-376.873	800.000	-0.121	-0.470
-375.858	-72.246	-0.485	0.180
-374.844	441.434	0.108	-0.236
-373.829	800.000	0.255	-0.839
-372.815	-32.501	0.347	-0.194
-371.800	-200.000	0.009	-0.162
-370.785	156.701	-0.039	0.054
-369.771	-93.943	0.140	-0.039
-368.756	-43.499	0.082	-0.042
-367.742	-138.027	-0.625	-0.070
-366.727	-85.362	-0.500	0.156
-365.712	53.827	-0.441	0.424
-364.698	108.339	0.062	0.075
-363.683	-11.137	0.244	-0.161
-362.669	-95.881	1.026	0.274
-361.654	-3.205	0.409	-0.285
-360.639	-200.000	0.009	0.448
-359.625	800.000	0.341	1.249
-358.610	-53.014	-0.889	0.409
-357.596	-151.135	-0.474	-0.036
-356.581	480.226	0.112	-0.254
-355.566	18.334	-0.853	0.681
-354.552	123.426	0.583	0.731
-353.537	58.947	0.392	-0.386
-352.523	157.764	-0.435	-0.603
-351.508	157.781	-0.303	0.421
-350.493	800.000	-0.142	-0.569
-349.479	18.503	-0.284	0.227
-348.464	800.000	0.098	-0.339
-347.450	-11.841	0.678	0.445
-346.435	-200.000	-0.011	0.860
-345.420	-11.029	-0.329	-0.217
-344.406	192.719	-0.075	0.114
-343.391	-14.726	0.217	-0.139
-342.377	-73.964	-0.177	0.064
-341.362	800.000	-0.237	0.686
-340.348	-44.559	-0.331	-0.165
-339.333	-149.531	0.530	-0.042
-338.318	-10.332	0.395	0.262
-337.304	39.270	-0.058	0.052
-336.289	-78.101	-0.505	-0.174
-335.275	-131.112	-0.269	-0.036
-334.260	275.496	-0.119	-0.211
-333.245	-200.000	-0.131	-0.907
-332.231	265.323	0.391	0.682
-331.216	-94.566	-0.300	0.082
-330.202	-39.422	0.946	-0.496
-329.187	-70.482	-0.676	-0.256
-328.172	447.457	-0.207	-0.456
-327.158	122.429	-0.403	0.504
-326.143	-138.120	0.885	0.098
-325.129	70.778	0.215	0.223
-324.114	800.000	0.011	-0.044
-323.099	-43.195	-0.709	-0.359
-322.085	-200.000	-0.018	0.142
-321.070	800.000	-0.185	0.732
-320.056	800.000	-0.126	-0.421
-319.041	171.194	-0.423	-0.607
-318.026	-85.844	-0.538	-0.167
-317.012	8.724	0.338	0.254
-315.997	-83.119	-0.347	0.111
-314.983	800.000	-0.099	-0.307
-313.968	180.136	0.235	-0.345
-312.953	-169.441	0.319	-0.012
-311.939	7.653	0.033	-0.025
-310.924	-45.002	0.221	0.110
-309.910	-116.215	0.181	-0.034
-308.895	234.891	-0.284	0.468
-307.880	-200.000	-0.058	0.372
-306.866	86.340	0.452	-0.497
-305.851	-200.000	0.030	-0.584
-304.837	-96.475	0.537	0.142
-303.822	-40.829	-0.314	0.162
-302.807	490.235	0.054	-0.124
-301.793	-200.000	-0.118	0.705
-300.778	-148.728	-0.298	-0.024
-299.764	-11.848	-0.594	-0.389
-298.749	-64.975	0.244	-0.098
-297.735	252.710	0.487	0.830
-296.720	-133.287	0.230	-0.029
-295.705	360.781	0.314	-0.627
-294.691	-161.490	-0.654	-0.034
-293.676	591.187	0.149	-0.366
-292.662	12.616	-0.315	0.243
-291.647	653.528	-0.068	-0.174
-290.632	477.416	0.119	-0.269
-289.618	-11.748	-0.532	0.349
-288.603	164.087	0.066	-0.093
-287.589	-148.011	0.178	0.015
-286.574	-46.109	0.939	0.461
-285.559	11.642	-0.549	-0.421
-284.545	-200.000	-0.106	0.644
-283.530	78.654	0.378	0.404
-282.516	755.137	-0.280	0.755
-281.501	14.113	-0.282	0.219
-280.486	67.481	0.550	-0.560
-279.472	-116.278	0.468	0.087
-278.457	-136.594	-0.308	0.036
-277.443	95.001	-0.164	-0.186
-276.428	52.272	0.466	0.443
-275.413	-32.006	-0.199	0.111
-274.399	-92.674	-0.390	0.109
-273.384	12.220	0.500	0.384
-272.370	-119.200	-0.425	-0.074
-271.355	-200.000	-0.022	0.348
-270.340	90.429	0.189	0.211
-269.326	800.000	0.033	-0.092
-268.311	62.467	0.310	-0.309
-267.297	-157.185	-0.125	0.008
-266.282	54.195	-0.410	0.393
-265.267	-47.359	0.588	0.285
-264.253	-139.033	0.112	-0.012
-263.238	493.379	0.434	0.993
-262.224	-83.989	-0.407	-0.129
-261.209	-0.943	-0.550	0.388
-260.195	483.312	0.173	-0.391
-259.180	18.285	-0.785	-0.624
-258.165	242.034	-0.329	0.549
-257.151	95.865	0.568	-0.647
-256.136	4.999	-0.229	-0.168
-255.122	134.942	0.196	0.254
-254.107	96.278	-0.367	-0.419
-253.092	-200.000	-0.076	-0.527
-252.078	527.859	-0.347	0.815
-251.063	-90.865	0.549	-0.158
-250.049	-73.863	0.303	0.110
-249.034	-120.233	0.706	-0.120
-248.019	-154.564	0.094	0.006
-247.005	-51.119	0.982	0.459
-245.990	79.504	0.394	0.421
-244.976	133.778	0.419	-0.540
-243.961	-115.319	0.508	-0.096
-242.946	82.841	-0.238	-0.257
-241.932	296.471	0.153	-0.279
-240.917	-200.000	0.033	-0.263
-239.903	-200.000	0.089	-0.657
-238.888	-78.828	0.156	0.053
-237.873	117.228	0.144	0.176
-236.859	-200.000	-0.014	0.584
-235.844	-68.865	-0.397	-0.153
-234.830	356.842	-0.022	0.044
-233.815	-127.711	0.631	-0.091
-232.800	40.148	0.584	0.522
-231.786	87.256	-0.614	0.676
-230.771	68.355	-0.992	1.012
-229.757	-200.000	-0.062	0.983
-228.742	-56.137	0.782	0.347
-227.727	800.000	0.070	0.222
-226.713	-14.965	-0.128	-0.081
-225.698	-200.000	0.114	-0.861
-224.684	800.000	-0.184	-0.621
-223.669	-79.653	0.544	0.183
-222.655	13.109	0.037	-0.028
-221.640	-76.561	0.571	-0.200
-220.625	-88.838	-0.364	-0.107
-219.611	-10.876	-0.512	0.337
-218.596	-4.475	-0.482	0.332
-217.582	439.742	0.239	-0.520
-216.567	800.000	0.263	0.790
-215.552	237.628	0.540	-0.892
-214.538	-164.899	0.430	0.019
-213.523	0.575	-0.670	-0.477
-212.509	-200.000	0.085	0.380
-211.494	3.140	0.377	0.272
-210.479	238.763	-0.453	0.749
-209.465	-200.000	0.042	-0.328
-208.450	132.206	0.179	0.230
-207.436	-85.400	0.374	0.116
-206.421	-200.000	-0.088	-1.049
-205.406	731.938	0.205	0.545
-204.392	-200.000	0.033	-0.484
-203.377	-200.000	0.007	-0.092
-202.363	-200.000	0.059	0.472
-201.348	-200.000	-0.106	-0.892
-200.333	-162.778	-0.385	-0.019
-199.319	283.444	0.191	0.342
-198.304	-113.730	0.193	-0.037
-197.290	328.582	0.186	-0.355
-196.275	800.000	0.157	-0.556
-195.260	-156.808	0.302	0.018
-194.246	-78.012	-0.274	-0.094
-193.231	-200.000	0.060	0.596
-192.217	-143.763	0.618	0.058
-191.202	-41.815	0.432	0.220
-190.187	75.018	0.706	-0.739
-189.173	-31.314	-0.727	-0.407
-188.158	-200.000	-0.000	0.761
-187.144	-107.157	-0.398	-0.087
-186.129	800.000	0.277	0.792
-185.114	-101.087	0.372	0.091
-184.100	800.000	-0.139	-0.428
-183.085	-49.871	-0.679	0.321
-182.071	-200.000	-0.025	0.165
-181.056	-200.000	0.027	0.150
-180.042	23.861	0.295	0.242
-179.027	88.704	-0.117	0.129
-178.012	-200.000	0.077	-0.369
-176.998	392.831	0.100	-0.206
-175.983	-72.357	0.686	-0.252
-174.969	-200.000	-0.052	-0.620
-173.954	800.000	-0.184	0.630
-172.939	22.542	0.218	0.177
-171.925	-130.495	0.150	-0.020
-170.910	-200.000	-0.122	-0.755
-169.896	21.529	0.239	-0.193
-168.881	4.290	0.485	0.353
-167.866	-48.102	0.052	-0.025
-166.852	127.889	0.383	-0.484
-165.837	-200.000	0.016	0.445
-164.823	-131.054	0.859	-0.114
-163.808	-200.000	-0.036	-0.890
-162.793	90.019	-0.128	0.142
-161.779	483.206	0.145	-0.328
-160.764	310.911	0.250	-0.465
-159.750	-51.542	0.619	-0.287
-158.735	-71.145	0.395	0.147
-157.720	800.000	0.149	0.480
-156.706	231.106	0.263	0.428
-155.691	-40.499	0.368	0.190
-154.677	-200.000	0.065	0.448
-153.662	46.052	0.495	-0.455
-152.647	0.579	-0.391	-0.278
-151.633	-148.221	-1.100	0.090
-150.618	-25.477	0.907	0.532
-149.604	-79.452	0.567	0.190
-148.589	390.780	-0.308	-0.635
-147.574	-36.718	-0.328	-0.175
-146.560	278.627	-0.275	-0.486
-145.545	-200.000	-0.034	0.658
-144.531	-65.355	-1.107	-0.442
-143.516	-25.381	0.277	-0.163
-142.502	-30.427	0.158	-0.089
-141.487	389.815	-0.144	0.295
-140.472	-200.000	0.034	-0.323
-139.458	-39.178	-0.279	-0.146
-138.443	281.487	-0.156	-0.277
-137.429	-144.281	0.451	-0.042
-136.414	-137.972	1.018	0.113
-135.399	52.399	-0.479	0.453
-134.385	230.620	0.465	0.754
-133.370	-200.000	0.059	0.383
-132.356	-72.248	-0.721	0.265
-131.341	-133.989	1.009	-0.124
-130.326	-45.835	-0.574	-0.281
-129.312	175.028	-0.090	-0.130
-128.297	-57.207	0.884	0.386
-127.283	800.000	0.045	0.182
-126.268	800.000	0.201	-0.845
-125.253	11.579	-0.689	-0.524
-124.239	235.548	-0.364	-0.596
-123.224	-61.966	0.298	0.123
-122.210	800.000	0.032	-0.090
-121.195	183.911	0.516	0.756
