DTS Sentinel unit serial number:	SN413079Multiplexer serial number:	ORYXHardware model number:	OX4-SRSoftware version number:	ORYX F/W v4.00 Oryx Data Collector v3.7.2.0data status	okinstallation	princeton_trtdifferential loss correction	single-endedforward channel	channel 4reverse channel	N/Adate	2019/09/12time	05:03:11forward acquisition time	60.00reverse acquisition time	0.00gamma	496.2192k internal	0.2309k external	0.2309temperature offset calibration	1.0071default loss term (dB/km)	0.3790temperature slope calibration	1.0000multiplexer offset coefficient	1.0000multiplexer slope coefficient	1.0000fibre end	0.00T internal ref (°C)	31.75T ext. ref 1 (°C)	1.73T ext. ref 2 (°C)	27.07length (m)	temperature (°C)	Stokes	anti-Stokes-747.200	-14.810	0.151	-0.098
-746.185	800.000	-0.011	0.047
-745.171	18.399	-0.076	-0.062
-744.156	-200.000	0.055	0.536
-743.142	14.776	-0.069	0.055
-742.127	598.074	-0.125	0.314
-741.112	-66.731	0.015	0.006
-740.098	-200.000	-0.007	0.478
-739.083	39.132	0.321	-0.292
-738.069	-78.840	-0.286	0.099
-737.054	-12.866	-0.132	0.087
-736.039	649.865	0.052	-0.134
-735.025	-40.346	0.063	-0.034
-734.010	-106.936	-0.180	0.041
-732.996	-23.892	0.148	-0.090
-731.981	92.643	-0.170	-0.195
-730.966	-32.446	-0.046	0.026
-729.952	54.749	0.170	-0.167
-728.937	800.000	0.065	-0.248
-727.923	-62.837	0.455	0.191
-726.908	156.641	-0.299	-0.419
-725.894	-200.000	0.029	-0.230
-724.879	440.919	-0.074	-0.165
-723.864	-46.347	0.151	0.076
-722.850	-200.000	-0.028	0.215
-721.835	88.975	0.167	-0.189
-720.821	-98.878	0.299	-0.077
-719.806	312.334	-0.057	-0.109
-718.791	95.301	-0.379	-0.439
-717.777	-34.619	0.047	-0.026
-716.762	-123.483	-0.486	0.079
-715.748	26.505	0.178	-0.151
-714.733	-59.137	-0.223	-0.098
-713.718	-33.494	0.146	-0.082
-712.704	-78.191	-0.355	-0.124
-711.689	44.822	0.164	-0.153
-710.675	-200.000	-0.031	0.362
-709.660	-200.000	0.014	-0.272
-708.645	-46.679	0.323	-0.161
-707.631	-150.582	0.199	-0.015
-706.616	111.804	0.051	-0.062
-705.602	-25.743	-0.161	0.096
-704.587	18.096	0.092	0.074
-703.572	800.000	0.085	-0.359
-702.558	712.428	-0.029	-0.077
-701.543	28.233	-0.142	0.122
-700.529	-200.000	0.004	-0.106
-699.514	15.937	0.169	-0.135
-698.499	-87.239	0.322	-0.099
-697.485	339.402	0.140	-0.276
-696.470	-166.773	-0.201	0.008
-695.456	800.000	-0.102	-0.306
-694.441	-113.654	-0.091	-0.018
-693.426	800.000	0.128	0.387
-692.412	800.000	-0.061	-0.187
-691.397	-200.000	-0.036	-0.162
-690.383	45.100	-0.218	-0.204
-689.368	-200.000	0.010	0.299
-688.354	-35.329	-0.230	-0.127
-687.339	-200.000	0.011	0.172
-686.324	-4.996	-0.321	0.224
-685.310	184.703	0.213	-0.319
-684.295	-200.000	-0.029	-0.158
-683.281	-200.000	0.041	-0.255
-682.266	-124.821	0.158	0.025
-681.251	-85.719	-0.198	0.062
-680.237	-25.215	-0.167	-0.101
-679.222	-102.153	-0.403	0.098
-678.208	-52.437	0.060	0.028
-677.193	-62.182	-0.295	0.125
-676.178	16.782	-0.033	-0.027
-675.164	800.000	-0.059	0.249
-674.149	148.540	0.358	-0.490
-673.135	387.657	0.070	-0.147
-672.120	-61.647	-0.187	0.079
-671.105	800.000	0.076	-0.233
-670.091	-33.761	-0.370	-0.207
-669.076	80.547	0.091	0.099
-668.062	725.172	-0.059	0.158
-667.047	585.458	-0.134	-0.333
-666.032	314.436	-0.067	-0.127
-665.018	-183.894	0.136	0.002
-664.003	66.603	-0.227	-0.234
-662.989	338.816	-0.073	-0.144
-661.974	-172.832	-0.216	0.007
-660.959	433.473	0.165	0.363
-659.945	141.959	-0.102	0.137
-658.930	800.000	0.065	0.223
-657.916	320.100	0.039	-0.074
-656.901	-154.859	0.471	-0.031
-655.886	-97.170	-0.193	-0.051
-654.872	-200.000	0.069	-0.595
-653.857	800.000	-0.129	-0.380
-652.843	-2.969	0.130	0.092
-651.828	151.168	-0.172	0.237
-650.814	-90.506	0.222	0.065
-649.799	81.033	-0.170	0.185
-648.784	800.000	0.087	-0.265
-647.770	-8.589	0.243	0.165
-646.755	-7.316	0.092	0.063
-645.741	-200.000	0.031	0.253
-644.726	173.665	0.074	-0.108
-643.711	-167.280	-0.355	0.015
-642.697	230.810	-0.084	-0.139
-641.682	-18.011	0.059	-0.038
-640.668	-83.312	-0.320	0.104
-639.653	33.354	-0.396	0.348
-638.638	-200.000	-0.033	-0.225
-637.624	-200.000	0.027	-0.157
-636.609	-200.000	-0.048	0.291
-635.595	-96.244	-0.050	0.013
-634.580	-96.985	0.256	0.068
-633.565	566.853	-0.072	0.178
-632.551	-200.000	-0.020	0.156
-631.536	-165.783	0.183	0.008
-630.522	800.000	0.114	-0.435
-629.507	-200.000	0.084	-0.387
-628.492	223.207	-0.070	0.115
-627.478	-200.000	0.034	0.308
-626.463	-145.524	-0.075	0.007
-625.449	-0.844	-0.279	-0.200
-624.434	447.124	-0.110	-0.246
-623.419	-200.000	0.003	-0.265
-622.405	191.624	-0.099	-0.151
-621.390	-101.486	0.187	-0.046
-620.376	-112.117	-0.063	0.013
-619.361	-200.000	0.027	0.231
-618.346	-93.072	-0.104	0.029
-617.332	66.930	-0.080	0.082
-616.317	800.000	0.084	0.344
-615.303	-16.919	0.415	0.265
-614.288	-48.673	-0.087	-0.042
-613.273	800.000	0.009	-0.028
-612.259	241.065	-0.157	-0.264
-611.244	800.000	0.056	-0.181
-610.230	-73.520	-0.142	0.052
-609.215	-126.866	0.110	-0.016
-608.201	-50.144	-0.121	0.058
-607.186	626.940	-0.035	0.090
-606.171	-53.333	-0.050	0.023
-605.157	-103.321	-0.144	0.034
-604.142	-12.779	-0.124	0.082
-603.128	123.231	-0.202	-0.256
-602.113	-200.000	0.012	0.141
-601.098	800.000	0.049	0.178
-600.084	-12.263	0.220	0.145
-599.069	264.068	0.122	-0.214
-598.055	186.202	0.041	0.062
-597.040	61.418	-0.167	0.168
-596.025	-200.000	-0.030	-0.261
-595.011	32.237	-0.182	0.159
-593.996	-200.000	0.005	0.208
-592.982	-141.605	-0.141	0.014
-591.967	60.003	-0.080	-0.080
-590.952	114.817	-0.101	-0.124
-589.938	-8.516	-0.212	-0.144
-588.923	-1.092	-0.254	-0.182
-587.909	-55.203	-0.130	-0.059
-586.894	-91.670	-0.156	-0.045
-585.879	97.021	0.119	0.138
-584.865	678.471	-0.049	0.130
-583.850	6.444	-0.216	-0.162
-582.836	800.000	-0.087	-0.269
-581.821	43.305	-0.184	0.170
-580.806	-4.489	0.203	-0.141
-579.792	476.686	0.103	0.234
-578.777	417.156	0.112	-0.242
-577.763	642.558	-0.011	0.027
-576.748	150.223	-0.231	0.317
-575.733	203.446	-0.131	0.204
-574.719	-18.745	0.225	0.141
-573.704	-21.910	-0.144	-0.089
-572.690	-108.375	0.232	-0.051
-571.675	30.216	-0.101	-0.087
-570.661	-200.000	-0.025	-0.131
-569.646	102.706	0.145	-0.171
-568.631	800.000	0.037	-0.107
-567.617	86.938	0.282	0.315
-566.602	366.480	0.008	-0.015
-565.588	103.610	-0.088	0.104
-564.573	437.846	0.055	-0.120
-563.558	-65.113	-0.248	-0.101
-562.544	-62.018	0.241	-0.101
-561.529	185.492	-0.077	0.115
-560.515	-1.631	0.191	0.136
-559.500	4.517	-0.165	-0.122
-558.485	449.665	0.102	0.227
-557.471	-142.402	-0.213	0.021
-556.456	-200.000	-0.034	-0.426
-555.442	-200.000	0.031	0.162
-554.427	464.132	-0.181	-0.408
-553.412	-200.000	0.001	-0.193
-552.398	800.000	-0.053	0.215
-551.383	446.784	-0.017	-0.037
-550.369	-61.713	0.103	-0.044
-549.354	-17.803	-0.084	0.053
-548.339	-200.000	-0.027	0.248
-547.325	-2.145	-0.194	-0.137
-546.310	61.701	0.078	-0.078
-545.296	644.243	0.077	0.197
-544.281	-62.574	-0.147	0.061
-543.266	-23.903	0.151	-0.091
-542.252	469.788	-0.037	-0.083
-541.237	381.175	0.059	0.122
-540.223	106.911	0.246	0.294
-539.208	-42.760	0.107	-0.055
-538.193	-171.508	-0.439	-0.015
-537.179	146.034	-0.252	0.340
-536.164	-122.981	-0.129	0.021
-535.150	-44.590	-0.126	-0.063
-534.135	91.320	0.089	0.100
-533.121	249.764	0.149	-0.255
-532.106	-103.665	0.058	0.014
-531.091	-93.759	0.072	0.020
-530.077	124.169	-0.169	0.214
-529.062	800.000	0.050	-0.178
-528.048	52.906	0.286	-0.276
-527.033	525.424	-0.031	0.075
-526.018	325.252	-0.104	0.201
-525.004	621.522	0.099	0.250
-523.989	-69.608	0.172	-0.066
-522.975	122.452	0.189	-0.238
-521.960	-126.584	-0.382	0.057
-520.945	-138.025	-0.159	-0.018
-519.931	-200.000	0.070	-0.000
-518.916	-89.724	-0.224	-0.066
-517.902	46.821	0.084	0.078
-516.887	150.870	0.070	0.096
-515.872	-135.949	0.214	-0.025
-514.858	-154.617	0.046	0.003
-513.843	10.336	0.249	0.191
-512.829	212.025	-0.057	0.090
-511.814	513.839	-0.214	-0.502
-510.799	800.000	0.117	-0.393
-509.785	660.699	0.104	0.271
-508.770	14.758	-0.085	0.067
-507.756	-93.446	0.019	0.005
-506.741	-96.408	0.251	-0.067
-505.726	-59.259	-0.167	0.072
-504.712	-200.000	0.029	0.265
-503.697	-90.196	-0.141	-0.041
-502.683	71.571	0.094	-0.098
-501.668	-92.147	-0.245	-0.070
-500.653	-93.017	-0.078	0.022
-499.639	544.754	0.020	-0.049
-498.624	609.655	0.080	-0.202
-497.610	-29.828	-0.012	-0.007
-496.595	-34.484	-0.189	0.104
-495.581	-200.000	0.018	0.284
-494.566	28.381	0.206	0.175
-493.551	-97.005	0.247	-0.065
-492.537	-54.465	-0.171	0.078
-491.522	-165.010	0.026	0.001
-490.508	-75.172	0.159	0.057
-489.493	109.501	-0.100	0.120
-488.478	-81.263	-0.159	0.053
-487.464	-64.035	-0.153	0.063
-486.449	585.393	0.086	0.212
-485.435	247.515	0.176	0.299
-484.420	8.211	0.301	-0.228
-483.405	-60.597	0.184	0.078
-482.391	-139.880	0.195	0.021
-481.376	133.665	-0.119	-0.154
-480.362	-37.655	0.203	-0.109
-479.347	-200.000	0.058	-0.315
-478.332	-94.305	0.208	-0.057
-477.318	-4.153	0.334	-0.232
-476.303	-26.729	-0.092	0.054
-475.289	6.349	-0.122	0.091
-474.274	243.099	0.156	-0.262
-473.259	-69.331	-0.406	0.157
-472.245	132.892	-0.141	0.183
-471.230	655.861	0.146	0.376
-470.216	135.262	-0.128	-0.168
-469.201	74.885	0.169	0.179
-468.186	-111.605	0.043	0.009
-467.172	-124.870	-0.186	-0.029
-466.157	800.000	-0.062	0.228
-465.143	7.161	0.467	-0.350
-464.128	113.815	0.043	-0.052
-463.113	-200.000	-0.026	0.281
-462.099	88.301	0.123	0.137
-461.084	266.480	-0.145	-0.255
-460.070	-200.000	-0.011	0.241
-459.055	309.777	-0.077	0.145
-458.040	-200.000	0.017	0.155
-457.026	44.933	0.303	0.280
-456.011	-51.001	0.225	0.106
-454.997	175.545	-0.078	0.114
-453.982	-169.683	0.095	-0.003
-452.968	8.373	-0.224	0.169
-451.953	-200.000	0.013	-0.167
-450.938	-131.023	-0.350	0.047
-449.924	3.893	-0.229	-0.168
-448.909	131.018	0.185	0.238
-447.895	-125.385	0.102	-0.016
-446.880	78.589	0.155	-0.166
-445.865	8.034	0.143	-0.108
-444.851	-31.918	-0.151	-0.085
-443.836	18.930	-0.265	0.213
-442.822	-181.197	-0.267	0.005
-441.807	-200.000	-0.071	0.317
-440.792	-72.080	-0.238	-0.089
-439.778	58.277	0.126	-0.124
-438.763	310.344	0.085	-0.160
-437.749	-187.032	-0.175	-0.002
-436.734	43.025	-0.193	0.177
-435.719	81.631	-0.137	-0.149
-434.705	-96.149	-0.145	-0.039
-433.690	179.154	0.256	0.376
-432.676	101.451	-0.211	-0.247
-431.661	800.000	0.009	-0.027
-430.646	-136.707	-0.141	0.016
-429.632	162.299	-0.200	0.281
-428.617	-81.390	0.108	-0.036
-427.603	-131.495	0.258	-0.034
-426.588	-200.000	-0.028	0.183
-425.573	79.850	-0.122	0.132
-424.559	-72.442	-0.437	-0.162
-423.544	-21.397	-0.108	-0.066
-422.530	53.011	-0.086	0.082
-421.515	-200.000	0.038	-0.193
-420.500	504.169	0.079	0.182
-419.486	-15.020	-0.429	-0.276
-418.471	-200.000	-0.029	0.163
-417.457	800.000	0.063	0.196
-416.442	53.243	0.088	-0.084
-415.428	800.000	-0.101	0.392
-414.413	214.709	0.094	0.149
-413.398	-144.880	0.122	0.011
-412.384	800.000	0.017	-0.060
-411.369	728.393	-0.080	-0.215
-410.355	7.703	0.175	0.131
-409.340	-138.886	0.235	-0.026
-408.325	18.286	-0.217	-0.174
-407.311	-70.357	0.125	0.047
-406.296	-138.763	0.220	-0.024
-405.282	-170.146	0.352	-0.012
-404.267	458.460	0.065	0.145
-403.252	58.441	0.321	-0.315
-402.238	-143.249	-0.249	-0.024
-401.223	-200.000	-0.002	0.104
-400.209	-89.056	-0.140	0.041
-399.194	60.085	0.111	0.110
-398.179	21.264	-0.155	-0.126
-397.165	120.943	-0.074	0.092
-396.150	-90.388	0.156	0.045
-395.136	-200.000	0.007	0.074
-394.121	649.314	-0.151	-0.386
-393.106	759.768	-0.092	0.249
-392.092	136.322	-0.165	0.215
-391.077	326.470	-0.169	0.325
-390.063	-28.656	0.356	-0.205
-389.048	800.000	-0.114	-0.372
-388.033	6.964	-0.339	0.253
-387.019	68.034	-0.113	0.116
-386.004	652.327	0.103	-0.264
-384.990	239.347	0.107	-0.178
-383.975	57.313	-0.153	-0.149
-382.960	-200.000	0.017	0.404
-381.946	-85.850	0.108	0.034
-380.931	6.278	0.337	0.250
-379.917	-97.254	0.037	0.010
-378.902	-200.000	0.016	0.189
-377.888	-40.596	-0.300	-0.156
-376.873	-191.977	0.346	0.003
-375.858	-54.771	0.211	-0.096
-374.844	17.357	-0.167	-0.132
-373.829	800.000	-0.013	0.043
-372.815	0.979	0.241	0.173
-371.800	290.586	0.110	0.199
-370.785	-39.542	-0.394	0.207
-369.771	244.275	0.232	0.391
-368.756	-200.000	0.084	-0.417
-367.742	-115.935	-0.239	-0.045
-366.727	270.433	0.066	-0.116
-365.712	-200.000	0.023	-0.369
-364.698	140.235	0.139	-0.183
-363.683	35.791	-0.309	0.272
-362.669	194.829	0.155	-0.235
-361.654	213.704	0.206	-0.326
-360.639	-52.801	0.341	-0.157
-359.625	800.000	0.101	0.310
-358.610	-64.434	-0.282	-0.115
-357.596	147.910	0.304	-0.411
-356.581	418.835	-0.095	-0.204
-355.566	221.385	0.122	-0.196
-354.552	19.225	0.210	0.169
-353.537	48.740	0.369	0.347
-352.523	-9.326	0.020	-0.013
-351.508	-5.579	-0.192	0.132
-350.493	26.590	-0.122	-0.102
-349.479	592.509	0.085	0.210
-348.464	-200.000	0.007	-0.248
-347.450	-44.127	-0.115	-0.058
-346.435	-147.136	-0.254	-0.022
-345.420	-19.329	0.312	-0.194
-344.406	352.556	0.061	-0.120
-343.391	218.513	-0.073	-0.117
-342.377	164.628	-0.131	-0.185
-341.362	-92.269	0.107	-0.030
-340.348	14.298	-0.260	-0.203
-339.333	376.874	-0.015	0.030
-338.318	-122.678	0.329	0.053
-337.304	-42.724	0.267	-0.136
-336.289	97.974	-0.097	-0.112
-335.275	-200.000	0.016	-0.219
-334.260	4.923	-0.436	0.321
-333.245	17.769	0.270	0.214
-332.231	-200.000	-0.040	-0.234
-331.216	-200.000	0.010	-0.078
-330.202	96.890	0.128	-0.146
-329.187	-60.517	-0.420	0.178
-328.172	-200.000	0.011	-0.056
-327.158	-91.050	0.152	0.044
-326.143	-145.775	0.381	0.034
-325.129	-200.000	-0.009	-0.084
-324.114	264.507	-0.112	-0.195
-323.099	4.338	-0.199	-0.146
-322.085	780.971	0.061	0.167
-321.070	23.075	0.074	0.060
-320.056	-88.058	-0.057	0.017
-319.041	-25.123	0.102	-0.060
-318.026	60.073	0.262	0.259
-317.012	335.133	-0.025	-0.048
-315.997	391.783	0.112	0.233
-314.983	-124.976	0.095	0.015
-313.968	479.755	0.113	-0.255
-312.953	36.117	-0.282	-0.248
-311.939	27.477	0.249	-0.209
-310.924	206.096	0.129	-0.201
-309.910	-200.000	0.040	-0.381
-308.895	-200.000	-0.023	0.386
-307.880	24.485	-0.183	0.151
-306.866	-144.463	0.192	0.018
-305.851	-62.138	0.171	0.071
-304.837	741.804	-0.034	0.091
-303.822	-23.108	-0.169	-0.102
-302.807	-200.000	-0.028	0.157
-301.793	-54.765	-0.164	0.074
-300.778	-183.986	-0.072	-0.001
-299.764	800.000	0.045	-0.148
-298.749	-200.000	0.028	-0.136
-297.735	800.000	-0.032	0.095
-296.720	36.706	0.034	-0.030
-295.705	-200.000	0.012	0.060
-294.691	229.347	0.078	-0.127
-293.676	191.505	-0.198	-0.297
-292.662	430.283	-0.060	-0.131
-291.647	395.091	0.097	-0.201
-290.632	85.732	0.100	-0.110
-289.618	279.614	-0.080	0.143
-288.603	693.256	-0.077	0.201
-287.589	800.000	-0.093	-0.275
-286.574	721.100	-0.051	0.134
-285.559	-136.879	-0.495	0.057
-284.545	53.053	-0.294	-0.281
-283.530	-51.074	0.121	-0.057
-282.516	-46.217	-0.293	-0.144
-281.501	62.349	0.129	-0.129
-280.486	43.649	0.210	0.191
-279.472	0.164	0.189	-0.135
-278.457	171.626	-0.096	-0.138
-277.443	117.602	-0.115	0.142
-276.428	-23.918	0.175	0.104
-275.413	65.985	-0.049	-0.049
-274.399	-200.000	0.005	-0.028
-273.384	-40.768	0.129	-0.067
-272.370	-200.000	0.007	-0.249
-271.355	-57.655	-0.160	0.070
-270.340	-200.000	0.037	-0.350
-269.326	63.872	-0.079	0.079
-268.311	-107.782	0.227	0.049
-267.297	424.563	-0.058	-0.125
-266.282	-200.000	0.018	-0.144
-265.267	-12.731	0.164	-0.106
-264.253	-200.000	-0.030	-0.167
-263.238	495.497	0.050	-0.116
-262.224	15.563	0.142	-0.111
-261.209	-142.199	-0.054	0.005
-260.195	-109.339	-0.149	0.032
-259.180	146.704	-0.163	-0.219
-258.165	800.000	-0.033	0.113
-257.151	-50.702	0.082	-0.039
-256.136	-107.041	0.044	-0.010
-255.122	-112.160	0.312	-0.062
-254.107	68.958	0.128	0.131
-253.092	-39.217	0.156	0.082
-252.078	694.870	-0.082	0.216
-251.063	498.522	0.064	0.148
-250.049	-136.593	-0.245	0.028
-249.034	4.762	-0.225	0.165
-248.019	-97.712	0.250	0.064
-247.005	14.884	-0.168	0.131
-245.990	335.216	0.173	-0.334
-244.976	88.732	0.161	0.178
-243.961	16.158	-0.104	0.082
-242.946	-98.336	0.332	-0.085
-241.932	-189.885	-0.133	-0.001
-240.917	-122.733	-0.394	-0.063
-239.903	800.000	0.083	-0.259
-238.888	445.038	0.189	-0.414
-237.873	17.947	-0.215	-0.170
-236.859	800.000	-0.046	-0.191
-235.844	178.004	-0.074	0.107
-234.830	81.249	-0.123	-0.132
-233.815	7.035	-0.130	0.096
-232.800	-200.000	-0.040	-0.249
-231.786	-104.373	0.093	0.021
-230.771	-200.000	0.135	-0.000
-229.757	11.861	-0.270	-0.207
-228.742	228.101	-0.080	-0.129
-227.727	427.568	0.129	-0.278
-226.713	-73.358	-0.202	-0.074
-225.698	170.182	-0.140	0.200
-224.684	81.605	-0.091	0.098
-223.669	120.295	-0.191	-0.236
-222.655	800.000	-0.033	0.112
-221.640	1.185	-0.303	0.217
-220.625	-91.566	-0.041	0.012
-219.611	800.000	0.105	0.299
-218.596	-118.367	-0.186	0.033
-217.582	133.201	-0.091	0.117
-216.567	-200.000	0.063	0.292
-215.552	-200.000	0.013	0.092
-214.538	154.317	-0.067	-0.092
-213.523	740.223	-0.078	0.209
-212.509	606.594	0.032	-0.080
-211.494	800.000	0.031	-0.129
-210.479	800.000	-0.046	0.190
-209.465	-71.744	0.187	-0.070
-208.450	-200.000	-0.027	-0.281
-207.436	17.620	0.112	0.088
-206.421	245.055	0.234	0.392
-205.406	484.327	0.140	0.316
-204.392	-150.891	-0.129	-0.010
-203.377	173.016	0.120	-0.173
-202.363	26.833	0.287	0.239
-201.348	-35.462	0.081	-0.044
-200.333	-33.779	0.086	0.047
-199.319	800.000	0.004	-0.018
-198.304	-200.000	-0.012	0.061
-197.290	364.998	-0.145	-0.290
-196.275	-75.053	-0.156	-0.056
-195.260	-153.327	0.321	0.022
-194.246	79.313	-0.117	0.125
-193.231	-142.458	0.235	0.023
-192.217	8.529	-0.226	-0.169
-191.202	800.000	0.040	0.131
-190.187	7.612	0.210	0.156
-189.173	-54.042	0.083	0.038
-188.158	150.557	-0.091	0.122
-187.144	-41.946	0.223	-0.114
-186.129	21.420	0.212	0.171
-185.114	-175.211	0.184	-0.005
-184.100	123.418	0.102	0.127
-183.085	616.690	-0.083	-0.206
-182.071	-146.790	0.080	-0.007
-181.056	800.000	0.060	0.187
-180.042	-134.092	-0.125	0.015
-179.027	87.392	-0.192	-0.212
-178.012	-200.000	0.005	0.297
-176.998	498.948	0.050	0.115
-175.983	-138.941	0.259	-0.028
-174.969	-39.025	0.321	-0.168
-173.954	-97.549	-0.156	-0.040
-172.939	-86.607	0.015	-0.005
-171.925	-86.325	0.140	0.043
-170.910	103.780	-0.028	0.033
-169.896	-107.380	-0.168	0.037
-168.881	-47.633	-0.108	0.052
-167.866	-124.684	-0.024	-0.004
-166.852	228.145	-0.045	-0.073
-165.837	758.848	0.110	0.297
-164.823	13.276	0.245	0.188
-163.808	-6.031	0.198	-0.134
-162.793	558.710	0.048	-0.114
-161.779	82.887	0.084	0.090
-160.764	-62.181	-0.159	0.066
-159.750	-12.517	-0.075	-0.049
-158.735	396.219	0.205	0.426
-157.720	-168.541	0.183	0.007
-156.706	240.332	-0.037	0.062
-155.691	-200.000	0.002	0.099
-154.677	-114.037	0.146	0.028
-153.662	-48.987	-0.351	0.167
-152.647	-200.000	0.012	-0.258
-151.633	359.974	0.120	-0.239
-150.618	-88.832	-0.352	-0.104
-149.604	-200.000	-0.014	0.091
-148.589	-200.000	-0.015	-0.115
-147.574	-80.362	-0.155	-0.051
-146.560	-23.036	-0.252	0.150
-145.545	217.190	-0.065	-0.102
-144.531	37.865	0.225	-0.198
-143.516	115.654	0.030	-0.037
-142.502	-34.196	0.212	-0.116
-141.487	590.800	0.065	-0.160
-140.472	306.440	-0.117	0.216
-139.458	-84.197	0.146	0.046
-138.443	134.469	-0.134	-0.173
-137.429	-13.453	0.150	0.097
-136.414	-200.000	-0.020	0.280
-135.399	-200.000	-0.038	0.310
-134.385	215.048	0.081	0.128
-133.370	800.000	0.037	-0.159
-132.356	192.623	0.129	0.193
-131.341	155.566	-0.070	0.096
-130.326	-123.178	-0.119	-0.019
-129.312	127.169	-0.173	0.218
-128.297	-200.000	-0.033	0.331
-127.283	-200.000	-0.002	-0.210
-126.268	800.000	-0.051	0.192
-125.253	-114.955	-0.162	0.031
-124.239	721.740	0.053	-0.140
-123.224	8.055	-0.278	-0.207
-122.210	-113.215	-0.263	-0.051
-121.195	800.000	0.030	-0.115
-120.180	100.989	0.192	0.222
-119.166	706.247	0.112	0.294
