DTS Sentinel unit serial number:	SN413079Multiplexer serial number:	ORYXHardware model number:	OX4-SRSoftware version number:	ORYX F/W v4.00 Oryx Data Collector v3.7.2.0data status	okinstallation	princeton_trtdifferential loss correction	single-endedforward channel	channel 4reverse channel	N/Adate	2019/09/17time	08:21:34forward acquisition time	60.00reverse acquisition time	0.00gamma	496.2192k internal	0.2318k external	0.2318temperature offset calibration	0.9982default loss term (dB/km)	0.3790temperature slope calibration	1.0000multiplexer offset coefficient	1.0000multiplexer slope coefficient	1.0000fibre end	0.00T internal ref (°C)	27.45T ext. ref 1 (°C)	0.13T ext. ref 2 (°C)	22.85length (m)	temperature (°C)	Stokes	anti-Stokes-747.200	-62.840	-0.311	0.130
-746.185	-170.756	-0.434	0.015
-745.171	-200.000	-0.010	-0.219
-744.156	-41.922	0.190	-0.099
-743.142	161.163	0.203	0.287
-742.127	800.000	0.037	0.156
-741.112	41.924	-0.216	-0.198
-740.098	-54.421	-0.326	0.150
-739.083	-129.833	0.148	-0.021
-738.069	45.943	-0.179	0.167
-737.054	-200.000	0.015	0.188
-736.039	112.620	-0.146	-0.178
-735.025	-200.000	-0.017	0.327
-734.010	231.206	0.032	0.052
-732.996	-33.359	0.165	0.092
-731.981	351.906	0.148	-0.297
-730.966	126.118	-0.072	-0.092
-729.952	146.550	-0.304	-0.413
-728.937	-39.625	-0.134	-0.071
-727.923	140.519	-0.048	-0.064
-726.908	800.000	-0.135	-0.415
-725.894	304.371	0.101	0.189
-724.879	1.643	0.169	-0.123
-723.864	-143.361	-0.327	-0.032
-722.850	-120.711	0.094	0.016
-721.835	-72.655	-0.179	0.067
-720.821	-103.026	-0.148	0.035
-719.806	-50.373	-0.056	0.027
-718.791	-107.054	-0.263	-0.059
-717.777	255.644	0.104	0.180
-716.762	218.429	0.122	-0.197
-715.748	-44.200	0.249	-0.126
-714.733	-136.059	-0.257	-0.030
-713.718	-171.761	-0.143	0.005
-712.704	104.575	-0.102	-0.122
-711.689	-40.385	0.160	-0.084
-710.675	-21.617	0.100	-0.061
-709.660	20.638	0.125	-0.102
-708.645	-177.588	-0.251	-0.006
-707.631	-69.348	-0.181	0.070
-706.616	-16.346	-0.128	0.082
-705.602	793.651	0.059	-0.164
-704.587	800.000	-0.143	0.446
-703.572	-200.000	0.059	-0.282
-702.558	-167.326	-0.187	0.008
-701.543	-200.000	-0.067	-0.302
-700.529	-64.717	-0.421	-0.172
-699.514	179.166	0.181	0.267
-698.499	72.333	0.249	0.263
-697.485	-6.642	0.163	-0.112
-696.470	-114.573	0.356	0.069
-695.456	-119.706	-0.066	0.011
-694.441	-37.322	-0.243	-0.131
-693.426	-48.219	0.223	0.109
-692.412	729.286	-0.070	-0.188
-691.397	-79.693	0.222	-0.076
-690.383	-200.000	-0.035	-0.166
-689.368	71.205	0.172	-0.180
-688.354	22.466	-0.068	0.056
-687.339	-69.894	-0.270	0.104
-686.324	561.292	-0.112	-0.274
-685.310	-200.000	0.024	-0.218
-684.295	-115.257	0.099	-0.019
-683.281	-40.765	-0.097	-0.051
-682.266	800.000	-0.034	0.149
-681.251	800.000	-0.104	-0.304
-680.237	143.761	-0.041	-0.055
-679.222	222.415	0.197	-0.319
-678.208	-200.000	0.011	-0.179
-677.193	606.497	-0.098	-0.246
-676.178	10.548	-0.293	-0.225
-675.164	-53.595	0.037	-0.017
-674.149	353.192	0.053	0.106
-673.135	227.140	-0.362	0.594
-672.120	-129.117	0.210	-0.030
-671.105	-200.000	0.064	-0.404
-670.091	-200.000	0.012	0.145
-669.076	-87.506	0.429	-0.131
-668.062	800.000	0.077	0.300
-667.047	509.043	-0.189	-0.444
-666.032	100.823	0.156	-0.183
-665.018	800.000	0.046	-0.151
-664.003	361.102	0.178	0.359
-662.989	221.644	-0.099	0.161
-661.974	139.009	0.095	0.126
-660.959	800.000	-0.078	0.254
-659.945	-31.248	-0.115	-0.065
-658.930	-200.000	-0.043	0.362
-657.916	800.000	-0.101	-0.431
-656.901	-200.000	-0.019	-0.124
-655.886	-200.000	0.012	-0.093
-654.872	178.164	-0.165	-0.243
-653.857	777.245	-0.054	-0.149
-652.843	-200.000	-0.052	0.264
-651.828	-186.965	-0.141	0.002
-650.814	-124.548	0.140	-0.022
-649.799	-134.312	0.104	0.013
-648.784	201.888	-0.142	-0.220
-647.770	-18.592	0.188	-0.118
-646.755	48.665	-0.165	-0.156
-645.741	28.021	-0.094	-0.080
-644.726	-99.648	-0.280	0.071
-643.711	-200.000	-0.054	-0.388
-642.697	55.997	-0.209	0.204
-641.682	113.740	0.129	-0.158
-640.668	195.197	0.053	0.081
-639.653	178.625	0.215	-0.316
-638.638	368.685	0.054	0.110
-637.624	-137.411	-0.398	-0.045
-636.609	-97.007	0.118	-0.031
-635.595	-35.447	-0.149	0.081
-634.580	-92.988	0.272	-0.076
-633.565	-36.069	0.293	-0.159
-632.551	-200.000	0.011	0.059
-631.536	701.469	-0.039	-0.102
-630.522	16.892	0.268	0.213
-629.507	-101.152	0.232	0.057
-628.492	-15.347	-0.158	-0.102
-627.478	-200.000	-0.025	-0.116
-626.463	38.072	-0.284	-0.255
-625.449	-71.402	-0.210	0.079
-624.434	-88.627	-0.359	-0.108
-623.419	-200.000	-0.022	-0.406
-622.405	-200.000	0.011	-0.173
-621.390	361.411	-0.133	-0.269
-620.376	101.081	-0.018	0.021
-619.361	-147.770	0.201	0.017
-618.346	-170.341	0.193	0.007
-617.332	61.418	0.070	0.070
-616.317	74.102	0.257	-0.272
-615.303	190.529	0.199	-0.301
-614.288	-200.000	0.008	-0.219
-613.273	712.677	0.057	0.152
-612.259	-1.119	-0.124	-0.089
-611.244	330.361	-0.126	0.245
-610.230	-85.581	0.108	-0.034
-609.215	-57.320	0.220	0.097
-608.201	226.335	0.093	-0.151
-607.186	-14.980	-0.293	-0.189
-606.171	-98.843	0.126	0.032
-605.157	52.965	-0.111	-0.107
-604.142	7.202	-0.014	0.011
-603.128	-200.000	0.000	-0.153
-602.113	2.939	-0.123	0.090
-601.098	327.446	-0.081	0.157
-600.084	356.664	0.053	0.107
-599.069	-37.777	-0.234	-0.125
-598.055	-200.000	0.012	-0.121
-597.040	-96.020	-0.050	0.013
-596.025	308.348	-0.074	0.139
-595.011	-70.338	-0.104	0.040
-593.996	234.371	-0.151	0.250
-592.982	-181.599	-0.147	0.003
-591.967	197.922	0.115	0.177
-590.952	110.617	-0.118	0.143
-589.938	-20.464	-0.150	-0.093
-588.923	-107.922	0.171	-0.037
-587.909	-131.256	0.209	0.028
-586.894	164.950	0.144	0.204
-585.879	-29.924	-0.355	-0.204
-584.865	-103.841	-0.197	0.046
-583.850	-39.993	0.331	-0.174
-582.836	-188.664	0.307	-0.004
-581.821	800.000	0.048	-0.145
-580.806	800.000	0.052	0.169
-579.792	485.646	0.042	0.097
-578.777	800.000	0.088	-0.322
-577.763	-18.902	0.078	-0.049
-576.748	120.933	-0.150	0.187
-575.733	341.086	0.124	-0.244
-574.719	800.000	-0.052	0.166
-573.704	-71.921	0.329	-0.123
-572.690	-128.879	0.217	-0.031
-571.675	-200.000	0.046	0.338
-570.661	-200.000	-0.015	0.169
-569.646	800.000	0.072	-0.314
-568.631	-200.000	-0.045	-0.254
-567.617	138.398	-0.109	-0.144
-566.602	-200.000	-0.049	0.389
-565.588	-184.652	0.256	-0.004
-564.573	800.000	0.019	0.072
-563.558	26.090	0.131	-0.110
-562.544	687.479	-0.118	0.310
-561.529	800.000	0.050	0.212
-560.515	-33.531	-0.165	0.091
-559.500	800.000	0.038	-0.121
-558.485	262.707	0.083	0.144
-557.471	-85.055	-0.098	0.031
-556.456	-2.736	-0.267	-0.188
-555.442	-55.051	0.108	-0.049
-554.427	-81.673	-0.221	-0.073
-553.412	495.001	0.110	-0.254
-552.398	-22.359	-0.204	-0.124
-551.383	-153.586	-0.164	-0.011
-550.369	-200.000	0.029	-0.286
-549.354	-145.613	0.231	0.021
-548.339	-93.134	0.485	-0.136
-547.325	-200.000	-0.012	-0.582
-546.310	242.888	-0.085	-0.143
-545.296	-200.000	-0.010	0.242
-544.281	-60.461	0.322	-0.138
-543.266	192.865	-0.302	0.458
-542.252	17.386	-0.019	-0.016
-541.237	17.189	-0.142	-0.113
-540.223	550.475	-0.070	-0.170
-539.208	334.638	0.043	-0.084
-538.193	-161.237	-0.184	-0.010
-537.179	-71.266	0.146	0.055
-536.164	-200.000	0.018	0.222
-535.150	42.090	-0.257	0.234
-534.135	193.965	-0.207	0.315
-533.121	181.784	0.112	0.166
-532.106	-71.630	0.060	-0.022
-531.091	128.748	-0.100	0.128
-530.077	-46.665	0.188	0.092
-529.062	800.000	-0.121	0.398
-528.048	163.738	0.028	0.040
-527.033	800.000	0.005	0.019
-526.018	-200.000	0.015	0.399
-525.004	229.822	0.190	-0.312
-523.989	0.007	-0.152	-0.108
-522.975	745.408	0.099	-0.267
-521.960	800.000	0.087	-0.334
-520.945	451.025	-0.061	0.136
-519.931	-200.000	0.023	0.345
-518.916	70.473	0.096	0.099
-517.902	-99.806	0.053	0.013
-516.887	277.412	-0.174	0.311
-515.872	-76.011	-0.324	0.115
-514.858	23.773	-0.131	0.109
-513.843	-30.869	0.165	-0.093
-512.829	800.000	-0.023	-0.066
-511.814	-200.000	-0.031	-0.269
-510.799	79.372	0.194	-0.209
-509.785	-200.000	-0.376	-0.000
-508.770	-28.091	-0.066	0.038
-507.756	-68.679	0.166	-0.064
-506.741	216.909	-0.022	-0.036
-505.726	-200.000	0.001	-0.091
-504.712	4.770	0.220	-0.162
-503.697	33.908	0.129	-0.113
-502.683	-18.022	0.363	-0.228
-501.668	218.930	0.183	-0.294
-500.653	-56.731	0.034	-0.015
-499.639	-86.897	-0.073	-0.022
-498.624	659.867	-0.048	-0.124
-497.610	75.517	0.150	-0.159
-496.595	-88.580	-0.268	0.080
-495.581	56.524	0.126	0.123
-494.566	800.000	0.027	0.081
-493.551	144.828	0.134	0.179
-492.537	-194.701	0.115	0.001
-491.522	-200.000	-0.001	0.132
-490.508	210.536	-0.119	-0.188
-489.493	-85.356	0.306	0.096
-488.478	-101.604	0.294	0.072
-487.464	-9.851	-0.476	0.317
-486.449	17.376	-0.115	-0.092
-485.435	800.000	0.095	-0.285
-484.420	-48.155	-0.292	-0.141
-483.405	66.458	-0.361	-0.368
-482.391	-104.856	0.248	-0.057
-481.376	-103.807	0.032	0.007
-480.362	-200.000	0.041	0.183
-479.347	-0.808	0.099	-0.070
-478.332	-200.000	0.012	0.092
-477.318	-200.000	-0.025	0.183
-476.303	297.014	-0.060	-0.111
-475.289	-52.628	-0.029	-0.014
-474.274	-161.339	-0.237	-0.012
-473.259	252.255	-0.058	-0.099
-472.245	36.140	-0.107	0.094
-471.230	-118.486	0.216	-0.038
-470.216	579.092	-0.053	-0.129
-469.201	800.000	-0.039	0.158
-468.186	261.800	0.115	-0.200
-467.172	-17.861	-0.178	-0.112
-466.157	-11.280	0.238	0.157
-465.143	-80.760	0.043	-0.014
-464.128	-200.000	-0.030	-0.211
-463.113	260.164	0.068	-0.117
-462.099	174.575	-0.051	0.073
-461.084	6.875	-0.181	-0.135
-460.070	240.189	0.181	0.302
-459.055	-21.766	-0.242	0.147
-458.040	611.367	-0.143	0.358
-457.026	694.027	-0.028	0.073
-456.011	-138.423	-0.139	0.015
-454.997	28.225	0.262	-0.221
-453.982	122.786	-0.181	-0.227
-452.968	-200.000	0.017	0.172
-451.953	-4.338	-0.270	-0.187
-450.938	-200.000	-0.001	0.170
-449.924	-146.215	0.135	-0.012
-448.909	57.971	0.130	-0.127
-447.895	460.009	-0.070	-0.155
-446.880	-170.097	0.491	-0.017
-445.865	84.751	0.119	0.131
-444.851	-56.785	0.058	-0.026
-443.836	-53.444	-0.118	0.054
-442.822	-28.674	0.046	0.026
-441.807	-200.000	0.032	0.314
-440.792	50.648	-0.227	0.215
-439.778	-66.606	0.246	0.097
-438.763	-15.401	-0.237	-0.152
-437.749	-56.064	-0.462	-0.206
-436.734	17.439	-0.155	-0.123
-435.719	214.092	0.165	0.261
-434.705	-103.889	0.053	0.012
-433.690	-83.012	-0.130	-0.042
-432.676	-123.133	0.214	0.034
-431.661	21.095	0.461	0.374
-430.646	-17.900	0.287	0.180
-429.632	-147.265	-0.183	-0.016
-428.617	-36.534	-0.224	0.120
-427.603	214.181	0.051	-0.081
-426.588	-70.148	-0.269	0.102
-425.573	-2.249	-0.389	-0.273
-424.559	-181.221	0.174	0.003
-423.544	-103.427	-0.387	-0.091
-422.530	431.157	0.160	-0.347
-421.515	261.285	0.075	0.130
-420.500	-183.828	0.094	-0.002
-419.486	2.936	0.309	-0.224
-418.471	800.000	0.025	-0.094
-417.457	-153.610	-0.499	-0.034
-416.442	146.504	-0.246	-0.329
-415.428	800.000	-0.015	-0.059
-414.413	331.068	-0.042	0.082
-413.398	64.283	0.298	-0.299
-412.384	-37.027	0.115	-0.062
-411.369	-43.313	-0.409	0.207
-410.355	-114.773	0.068	0.013
-409.340	193.418	-0.068	-0.102
-408.325	-0.158	0.028	-0.020
-407.311	-200.000	0.007	0.094
-406.296	-11.622	-0.255	0.167
-405.282	3.199	0.191	0.139
-404.267	-200.000	-0.008	-0.085
-403.252	-137.863	-0.267	0.030
-402.238	197.478	-0.138	-0.210
-401.223	-68.574	-0.182	-0.070
-400.209	154.658	-0.139	0.190
-399.194	-46.668	0.737	0.361
-398.179	-64.915	-0.136	0.055
-397.165	-16.570	-0.108	-0.069
-396.150	-200.000	0.011	0.098
-395.136	9.922	0.252	-0.191
-394.121	381.308	0.090	0.184
-393.106	775.634	-0.015	-0.040
-392.092	41.074	-0.140	0.126
-391.077	55.416	-0.134	0.130
-390.063	220.323	0.115	-0.184
-389.048	-200.000	0.026	-0.157
-388.033	-86.151	-0.264	-0.081
-387.019	800.000	-0.040	0.137
-386.004	127.507	-0.123	-0.156
-384.990	-25.946	-0.211	0.124
-383.975	69.470	-0.224	-0.230
-382.960	28.717	-0.209	-0.177
-381.946	-57.136	-0.052	0.023
-380.931	104.924	0.254	0.299
-379.917	-75.282	0.235	0.084
-378.902	109.403	-0.259	0.309
-377.888	-200.000	0.050	0.276
-376.873	-200.000	0.081	-0.466
-375.858	75.966	0.285	-0.301
-374.844	300.154	-0.177	-0.326
-373.829	-200.000	-0.006	-0.130
-372.815	33.710	-0.199	-0.173
-371.800	-200.000	0.007	-0.245
-370.785	97.299	0.232	-0.266
-369.771	166.819	-0.078	0.110
-368.756	-170.614	0.245	0.008
-367.742	-45.372	0.130	-0.064
-366.727	800.000	0.062	0.218
-365.712	15.686	-0.232	-0.182
-364.698	800.000	0.033	-0.109
-363.683	-92.166	-0.265	0.075
-362.669	-200.000	0.052	0.257
-361.654	41.005	-0.142	-0.128
-360.639	18.128	-0.259	-0.206
-359.625	-166.284	0.174	0.007
-358.610	800.000	-0.043	0.162
-357.596	163.380	-0.028	0.039
-356.581	292.288	0.164	0.299
-355.566	-103.402	0.275	-0.065
-354.552	-200.000	0.003	0.260
-353.537	-82.360	0.078	-0.025
-352.523	-124.241	0.250	0.039
-351.508	-200.000	0.030	0.204
-350.493	52.071	-0.164	0.156
-349.479	652.463	-0.098	0.250
-348.464	1.638	-0.102	-0.073
-347.450	-4.611	-0.182	-0.125
-346.435	386.700	0.171	0.351
-345.420	-27.348	0.353	0.204
-344.406	800.000	-0.107	0.425
-343.391	0.545	-0.142	-0.101
-342.377	-17.100	0.099	-0.062
-341.362	-128.432	0.185	0.026
-340.348	-200.000	0.003	-0.273
-339.333	-200.000	-0.046	0.520
-338.318	800.000	0.088	0.257
-337.304	-107.202	0.378	-0.083
-336.289	-120.450	0.108	0.018
-335.275	-200.000	-0.037	-0.167
-334.260	269.167	0.062	-0.109
-333.245	49.694	0.137	-0.128
-332.231	-200.000	0.007	-0.300
-331.216	758.040	0.131	-0.352
-330.202	135.764	0.072	0.094
-329.187	102.256	0.091	0.106
-328.172	-200.000	-0.061	-0.279
-327.158	-200.000	0.017	-0.084
-326.143	-104.710	-0.330	0.076
-325.129	-100.968	-0.047	0.011
-324.114	489.285	0.097	-0.220
-323.099	-106.448	0.315	0.070
-322.085	14.947	0.140	-0.109
-321.070	-70.763	-0.151	-0.057
-320.056	197.671	0.125	0.189
-319.041	-74.534	0.179	-0.064
-318.026	32.034	0.304	0.260
-317.012	47.579	0.074	-0.069
-315.997	-200.000	-0.039	-0.259
-314.983	158.532	-0.041	0.056
-313.968	-57.880	-0.245	0.106
-312.953	242.512	0.230	0.383
-311.939	-50.951	0.206	0.096
-310.924	-200.000	-0.038	0.247
-309.910	-200.000	-0.037	0.359
-308.895	143.129	-0.077	0.102
-307.880	-64.230	0.018	0.007
-306.866	-86.531	-0.278	0.085
-305.851	800.000	-0.111	0.453
-304.837	241.421	0.127	0.211
-303.822	-94.175	-0.076	-0.021
-302.807	-164.567	-0.285	-0.013
-301.793	-161.051	0.231	0.012
-300.778	-10.828	-0.034	-0.023
-299.764	800.000	-0.071	0.205
-298.749	-12.086	0.188	0.122
-297.735	-175.127	0.257	-0.007
-296.720	54.179	0.151	-0.145
-295.705	800.000	-0.136	-0.375
-294.691	800.000	0.052	0.208
-293.676	108.972	0.127	-0.151
-292.662	-100.142	-0.162	0.040
-291.647	-118.298	-0.104	-0.018
-290.632	-200.000	-0.009	0.117
-289.618	800.000	-0.017	-0.070
-288.603	-160.913	-0.216	0.011
-287.589	-200.000	-0.047	0.271
-286.574	4.530	0.164	-0.120
-285.559	800.000	0.089	-0.329
-284.545	28.040	0.149	0.125
-283.530	-72.894	-0.273	-0.100
-282.516	361.933	0.026	0.051
-281.501	36.249	0.088	0.077
-280.486	590.149	0.047	0.114
-279.472	95.144	-0.149	0.168
-278.457	384.648	0.038	-0.078
-277.443	-72.580	0.072	-0.026
-276.428	13.764	0.078	0.061
-275.413	-105.190	0.546	0.124
-274.399	2.010	0.235	0.169
-273.384	169.797	0.112	0.159
-272.370	800.000	0.070	0.217
-271.355	-115.386	0.152	-0.028
-270.340	128.330	0.228	0.288
-269.326	12.586	-0.248	-0.190
-268.311	-200.000	-0.029	0.182
-267.297	76.849	0.161	0.170
-266.282	-65.898	0.162	0.064
-265.267	15.941	0.239	0.187
-264.253	54.482	-0.240	-0.230
-263.238	157.539	0.128	-0.175
-262.224	231.523	-0.163	0.265
-261.209	45.284	0.113	0.103
-260.195	-112.955	0.171	-0.034
-259.180	146.569	-0.076	-0.101
-258.165	-101.095	-0.096	-0.023
-257.151	225.488	0.146	0.234
-256.136	-200.000	-0.003	0.337
-255.122	-200.000	0.038	-0.169
-254.107	84.766	0.062	0.067
-253.092	-121.548	-0.298	-0.049
-252.078	10.696	-0.206	0.156
-251.063	-95.981	-0.178	-0.047
-250.049	-200.000	-0.003	0.113
-249.034	-91.437	-0.013	0.004
-248.019	16.669	-0.180	-0.142
-247.005	-180.461	-0.267	0.005
-245.990	-196.644	-0.096	0.001
-244.976	-58.539	-0.106	0.046
-243.961	432.906	-0.126	0.272
-242.946	800.000	-0.116	0.359
-241.932	-200.000	0.003	-0.129
-240.917	135.140	-0.168	0.217
-239.903	800.000	-0.015	0.047
-238.888	-16.559	0.021	-0.013
-237.873	-200.000	-0.029	0.206
-236.859	181.884	0.175	-0.256
-235.844	65.147	-0.186	-0.187
-234.830	-200.000	-0.025	-0.160
-233.815	-101.982	0.280	-0.067
-232.800	800.000	0.071	-0.209
-231.786	-65.095	-0.235	0.094
-230.771	-21.242	-0.104	-0.063
-229.757	-200.000	0.028	-0.197
-228.742	-62.188	-0.281	-0.116
-227.727	68.583	0.077	-0.079
-226.713	800.000	-0.034	0.120
-225.698	-27.345	-0.158	-0.091
-224.684	-77.139	-0.086	0.030
-223.669	-200.000	-0.009	0.234
-222.655	-84.421	-0.298	-0.093
-221.640	375.849	-0.086	-0.174
-220.625	-41.563	0.198	0.101
-219.611	138.267	0.171	-0.223
-218.596	166.881	-0.163	-0.229
-217.582	-20.874	-0.142	0.086
-216.567	800.000	-0.066	-0.230
-215.552	155.142	0.036	0.049
-214.538	-117.511	0.332	-0.059
-213.523	64.548	-0.116	-0.115
-212.509	177.249	-0.133	-0.192
-211.494	-126.940	0.238	0.035
-210.479	11.226	0.138	-0.104
-209.465	63.072	0.189	0.188
-208.450	-80.309	0.200	-0.066
-207.436	-88.156	-0.124	-0.037
-206.421	-69.474	0.039	-0.015
-205.406	290.538	0.089	0.161
-204.392	490.046	0.060	-0.136
-203.377	447.733	0.073	-0.159
-202.363	82.995	0.030	-0.033
-201.348	-92.598	-0.078	0.022
-200.333	800.000	-0.103	0.288
-199.319	-200.000	0.036	-0.294
-198.304	186.634	0.103	-0.151
-197.290	155.447	-0.113	0.154
-196.275	87.858	-0.130	-0.143
-195.260	-14.973	0.207	0.131
-194.246	250.928	0.094	-0.158
-193.231	-111.892	-0.255	-0.051
-192.217	-200.000	0.003	0.046
-191.202	86.580	0.213	0.232
-190.187	-59.071	0.147	0.063
-189.173	-200.000	-0.006	0.209
-188.158	-64.987	-0.399	-0.160
-187.144	-79.089	0.100	0.034
-186.129	-110.169	0.345	-0.071
-185.114	-28.635	-0.100	0.057
-184.100	49.715	-0.384	0.358
-183.085	-200.000	0.047	-0.273
-182.071	-84.531	0.122	0.038
-181.056	28.417	-0.068	-0.057
-180.042	-170.407	-0.039	0.001
-179.027	50.903	0.154	0.144
-178.012	140.721	0.066	0.086
-176.998	75.985	-0.082	0.086
-175.983	-57.505	-0.164	-0.071
-174.969	-200.000	0.012	-0.247
-173.954	800.000	0.016	0.061
-172.939	-146.429	-0.157	-0.014
-171.925	-200.000	-0.007	0.030
-170.910	800.000	0.073	-0.235
-169.896	-37.727	-0.118	-0.062
-168.881	108.254	0.033	-0.039
-167.866	800.000	0.074	0.229
-166.852	172.511	0.125	0.178
-165.837	-200.000	0.064	-0.387
-164.823	121.614	-0.271	-0.334
-163.808	95.037	-0.296	0.333
-162.793	247.250	0.135	0.225
-161.779	-77.934	0.067	-0.023
-160.764	-50.139	-0.341	0.160
-159.750	-53.398	-0.325	0.147
-158.735	-76.612	0.153	-0.053
-157.720	800.000	-0.034	0.108
-156.706	128.810	0.210	-0.264
-155.691	-200.000	0.031	0.135
-154.677	-108.729	-0.391	-0.083
-153.662	-32.071	0.417	0.230
-152.647	-171.631	-0.038	0.001
-151.633	800.000	0.051	0.156
-150.618	-200.000	-0.180	-0.001
-149.604	342.238	-0.054	0.104
-148.589	-129.531	-0.127	0.017
-147.574	93.032	-0.201	-0.224
-146.560	59.755	-0.147	0.143
-145.545	768.220	-0.060	-0.162
-144.531	22.211	0.023	0.019
-143.516	-134.792	0.182	0.022
-142.502	-152.866	0.193	0.014
-141.487	200.523	0.088	0.134
-140.472	175.415	0.187	0.267
-139.458	11.092	-0.254	0.192
-138.443	800.000	0.102	0.435
-137.429	-144.320	-0.148	0.014
-136.414	-200.000	-0.031	-0.182
-135.399	800.000	-0.022	0.065
-134.385	-200.000	-0.020	0.090
-133.370	707.306	-0.098	-0.255
-132.356	-154.650	-0.340	-0.022
-131.341	-44.298	0.213	0.105
-130.326	419.689	0.223	-0.471
-129.312	128.899	-0.159	-0.200
-128.297	-8.110	0.268	-0.178
-127.283	240.800	-0.159	-0.262
-126.268	103.326	-0.176	-0.204
-125.253	-61.154	0.120	-0.050
-124.239	-200.000	-0.008	0.361
-123.224	-48.332	0.173	0.083
-122.210	800.000	0.073	0.245
-121.195	-119.988	0.316	0.054
