DTS Sentinel unit serial number:	SN413079Multiplexer serial number:	ORYXHardware model number:	OX4-SRSoftware version number:	ORYX F/W v4.00 Oryx Data Collector v3.7.2.0data status	okinstallation	princeton_trtdifferential loss correction	single-endedforward channel	channel 4reverse channel	N/Adate	2019/09/18time	12:05:34forward acquisition time	60.00reverse acquisition time	0.00gamma	496.2192k internal	0.2309k external	0.2309temperature offset calibration	0.9990default loss term (dB/km)	0.3790temperature slope calibration	1.0000multiplexer offset coefficient	1.0000multiplexer slope coefficient	1.0000fibre end	0.00T internal ref (°C)	31.62T ext. ref 1 (°C)	0.49T ext. ref 2 (°C)	27.17length (m)	temperature (°C)	Stokes	anti-Stokes-747.200	225.246	0.047	0.078
-746.185	423.017	0.219	0.478
-745.171	-93.794	-0.114	0.032
-744.156	-78.556	-0.367	0.128
-743.142	800.000	0.038	-0.157
-742.127	-200.000	0.028	0.144
-741.112	651.557	-0.168	0.437
-740.098	286.148	-0.055	0.101
-739.083	-0.136	-0.186	0.134
-738.069	354.328	0.130	0.262
-737.054	100.829	0.087	0.103
-736.039	-73.010	0.362	0.135
-735.025	-49.609	-0.222	0.108
-734.010	-56.258	-0.148	-0.067
-732.996	-200.000	0.033	-0.209
-731.981	-6.449	-0.184	-0.128
-730.966	-112.474	0.182	0.037
-729.952	56.757	0.136	0.134
-728.937	57.631	-0.129	-0.128
-727.923	-129.745	-0.145	-0.020
-726.908	79.681	-0.170	0.185
-725.894	-63.518	-0.365	-0.152
-724.879	0.184	-0.141	-0.102
-723.864	-58.944	-0.275	-0.121
-722.850	335.009	-0.065	-0.128
-721.835	55.951	0.215	-0.212
-720.821	-115.394	-0.463	0.089
-719.806	-149.821	0.083	-0.007
-718.791	30.361	-0.065	-0.056
-717.777	53.886	-0.140	0.137
-716.762	-155.049	-0.353	0.023
-715.748	102.130	-0.157	-0.186
-714.733	103.653	0.143	-0.170
-713.718	-153.474	0.519	0.037
-712.704	29.266	-0.120	-0.103
-711.689	-48.015	-0.191	0.094
-710.675	29.141	0.025	-0.021
-709.660	69.296	0.038	-0.039
-708.645	-177.101	0.086	-0.002
-707.631	-200.000	-0.041	-0.219
-706.616	-121.016	0.062	-0.010
-705.602	800.000	-0.035	0.100
-704.587	-200.000	-0.018	-0.159
-703.572	800.000	0.032	-0.093
-702.558	800.000	-0.047	0.190
-701.543	-200.000	-0.052	-0.403
-700.529	73.285	-0.091	-0.097
-699.514	-200.000	-0.009	0.082
-698.499	13.370	-0.109	0.086
-697.485	-13.321	-0.113	0.074
-696.470	-58.861	-0.298	0.131
-695.456	800.000	0.076	0.219
-694.441	-200.000	0.045	-0.286
-693.426	-200.000	0.002	-0.172
-692.412	250.705	0.049	0.084
-691.397	-162.105	0.025	-0.001
-690.383	111.836	-0.205	-0.251
-689.368	210.494	-0.143	0.228
-688.354	-96.842	-0.084	-0.022
-687.339	-200.000	-0.093	-0.438
-686.324	557.192	-0.127	-0.309
-685.310	479.699	-0.115	-0.264
-684.295	-83.964	0.237	0.077
-683.281	-46.743	0.263	-0.130
-682.266	297.456	-0.138	-0.256
-681.251	-108.985	0.308	-0.067
-680.237	266.221	0.145	-0.257
-679.222	-76.216	0.173	0.062
-678.208	98.950	-0.091	0.106
-677.193	-34.703	-0.183	-0.101
-676.178	583.855	-0.057	-0.141
-675.164	800.000	0.068	-0.194
-674.149	-200.000	-0.005	-0.227
-673.135	-200.000	-0.010	-0.086
-672.120	45.317	-0.031	0.029
-671.105	-141.327	-0.175	0.018
-670.091	-200.000	-0.046	0.365
-669.076	-200.000	0.060	0.313
-668.062	182.049	-0.094	-0.140
-667.047	226.749	-0.068	0.113
-666.032	-100.376	-0.163	0.041
-665.018	-50.670	0.111	-0.053
-664.003	-13.608	0.433	-0.284
-662.989	105.082	-0.137	0.163
-661.974	125.585	0.151	-0.193
-660.959	129.475	-0.095	0.123
-659.945	127.267	-0.087	-0.112
-658.930	-126.813	0.325	-0.049
-657.916	-10.304	-0.085	0.057
-656.901	-55.244	-0.194	-0.088
-655.886	-118.799	0.176	-0.031
-654.872	-200.000	-0.011	-0.265
-653.857	800.000	0.088	-0.306
-652.843	-115.408	-0.311	-0.059
-651.828	-189.811	0.112	-0.001
-650.814	-115.455	0.128	0.024
-649.799	800.000	-0.030	-0.099
-648.784	174.148	-0.084	0.123
-647.770	145.945	0.150	0.204
-646.755	-200.000	0.004	-0.045
-645.741	-179.330	-0.280	0.006
-644.726	78.796	-0.158	-0.171
-643.711	-69.101	0.511	0.199
-642.697	-45.429	-0.075	-0.037
-641.682	154.200	0.138	0.192
-640.668	702.168	0.096	-0.257
-639.653	800.000	-0.122	-0.461
-638.638	-200.000	0.008	-0.089
-637.624	-200.000	-0.001	0.203
-636.609	720.651	0.077	0.207
-635.595	246.928	-0.151	0.257
-634.580	800.000	0.076	0.306
-633.565	184.331	0.085	-0.127
-632.551	579.600	-0.043	0.106
-631.536	95.528	-0.134	0.155
-630.522	219.845	-0.078	0.127
-629.507	-47.362	-0.130	-0.064
-628.492	-78.369	0.427	-0.148
-627.478	110.761	0.110	0.134
-626.463	-200.000	0.028	0.156
-625.449	-200.000	-0.035	0.193
-624.434	800.000	-0.080	-0.263
-623.419	-94.093	-0.228	-0.063
-622.405	0.772	0.293	-0.213
-621.390	-35.310	0.307	0.169
-620.376	800.000	0.040	0.133
-619.361	82.671	-0.161	0.177
-618.346	130.706	0.089	-0.116
-617.332	221.245	0.117	-0.190
-616.317	-15.699	-0.111	0.071
-615.303	264.429	0.097	-0.171
-614.288	800.000	0.081	0.331
-613.273	-95.479	-0.065	0.018
-612.259	554.056	0.046	0.112
-611.244	-200.000	0.025	-0.128
-610.230	102.563	0.151	-0.178
-609.215	-130.905	0.508	0.069
-608.201	117.787	-0.122	0.151
-607.186	-72.938	-0.155	0.058
-606.171	-88.932	-0.141	0.042
-605.157	136.301	0.082	0.108
-604.142	-74.111	0.060	-0.022
-603.128	40.585	0.097	0.089
-602.113	69.782	0.113	0.118
-601.098	-91.189	0.113	0.033
-600.084	-200.000	-0.095	0.429
-599.069	52.200	-0.161	0.155
-598.055	-115.504	-0.280	0.053
-597.040	174.371	0.039	0.057
-596.025	40.277	0.102	-0.093
-595.011	-78.093	0.220	-0.076
-593.996	-37.946	-0.220	0.118
-592.982	800.000	0.037	-0.136
-591.967	-40.056	-0.195	0.103
-590.952	-200.000	0.016	-0.307
-589.938	76.244	-0.191	0.205
-588.923	-200.000	-0.031	0.147
-587.909	-65.620	0.108	-0.044
-586.894	-181.820	-0.228	-0.004
-585.879	128.725	0.316	0.407
-584.865	-143.995	0.111	-0.010
-583.850	-178.033	-0.404	0.010
-582.836	-30.607	-0.083	0.048
-581.821	-36.262	-0.184	-0.100
-580.806	132.432	-0.142	0.185
-579.792	171.808	0.076	0.110
-578.777	1.214	0.268	0.195
-577.763	34.616	0.026	-0.023
-576.748	358.744	-0.107	0.215
-575.733	-86.827	0.094	-0.029
-574.719	-130.963	0.225	0.030
-573.704	-24.946	-0.101	-0.060
-572.690	-200.000	-0.007	0.169
-571.675	259.650	0.086	0.150
-570.661	227.278	0.057	-0.094
-569.646	-168.945	0.207	-0.008
-568.631	-73.358	0.230	0.085
-567.617	-26.109	-0.404	-0.240
-566.602	45.828	-0.243	-0.227
-565.588	-129.926	-0.231	0.032
-564.573	35.059	0.219	0.194
-563.558	395.426	0.073	-0.154
-562.544	128.118	0.121	-0.155
-561.529	187.500	-0.090	-0.136
-560.515	-200.000	-0.040	-0.245
-559.500	35.198	-0.134	0.118
-558.485	271.408	0.102	0.182
-557.471	137.349	0.275	-0.363
-556.456	-57.627	0.257	0.114
-555.442	-110.245	0.225	0.047
-554.427	800.000	-0.030	-0.085
-553.412	346.665	0.002	-0.005
-552.398	-125.199	0.432	0.067
-551.383	-60.082	0.066	0.028
-550.369	-200.000	0.072	-0.357
-549.354	137.860	-0.025	0.033
-548.339	-96.460	0.155	-0.041
-547.325	-126.626	0.176	0.026
-546.310	-200.000	0.069	-0.464
-545.296	-87.787	0.289	0.088
-544.281	-90.663	0.343	-0.100
-543.266	-111.083	-0.276	0.057
-542.252	800.000	0.119	0.436
-541.237	-83.329	-0.626	-0.202
-540.223	-78.004	-0.159	-0.055
-539.208	800.000	-0.049	-0.167
-538.193	-58.517	0.249	-0.109
-537.179	73.571	0.323	-0.341
-536.164	315.500	-0.018	0.033
-535.150	190.676	-0.039	0.060
-534.135	-200.000	-0.023	-0.134
-533.121	-83.260	-0.110	-0.036
-532.106	323.205	-0.134	0.257
-531.091	-6.700	0.039	0.027
-530.077	125.537	-0.026	0.033
-529.062	635.924	0.101	-0.258
-528.048	283.032	-0.025	-0.045
-527.033	123.667	0.087	-0.109
-526.018	-140.208	-0.053	-0.006
-525.004	-200.000	0.013	-0.119
-523.989	154.187	0.056	0.078
-522.975	-53.079	0.267	-0.124
-521.960	-171.170	-0.193	0.007
-520.945	-21.536	0.119	-0.073
-519.931	54.033	-0.082	-0.079
-518.916	116.946	0.128	0.159
-517.902	-200.000	0.088	0.503
-516.887	-200.000	-0.003	0.067
-515.872	2.298	-0.219	0.160
-514.858	-123.078	-0.341	-0.055
-513.843	77.154	0.109	-0.117
-512.829	79.635	-0.239	0.259
-511.814	-200.000	-0.012	0.159
-510.799	-91.035	0.061	0.018
-509.785	-132.620	-0.311	-0.040
-508.770	-122.521	0.333	0.054
-507.756	-200.000	0.004	-0.123
-506.741	215.305	0.169	0.269
-505.726	480.740	0.124	-0.282
-504.712	85.932	0.109	0.120
-503.697	458.422	-0.113	-0.253
-502.683	-81.573	-0.051	0.017
-501.668	-93.029	-0.409	-0.115
-500.653	-200.000	0.055	-0.405
-499.639	-102.175	-0.076	-0.018
-498.624	358.210	0.058	-0.116
-497.610	-62.863	0.511	-0.213
-496.595	-136.263	-0.097	-0.011
-495.581	800.000	-0.067	-0.260
-494.566	388.442	0.129	-0.268
-493.551	206.672	-0.109	-0.171
-492.537	-200.000	-0.005	-0.126
-491.522	-99.363	-0.069	-0.018
-490.508	800.000	-0.031	0.130
-489.493	-182.343	-0.376	0.007
-488.478	60.311	-0.190	-0.189
-487.464	6.802	0.189	-0.142
-486.449	-50.030	0.172	0.082
-485.435	-200.000	-0.013	0.155
-484.420	800.000	-0.019	-0.062
-483.405	-200.000	-0.028	-0.506
-482.391	379.529	0.158	-0.327
-481.376	-200.000	0.022	0.215
-480.362	-58.810	-0.133	0.058
-479.347	-85.145	-0.113	-0.036
-478.332	-200.000	-0.074	0.328
-477.318	-76.627	-0.165	0.058
-476.303	562.598	-0.095	-0.231
-475.289	-30.482	-0.149	0.085
-474.274	17.022	-0.248	0.197
-473.259	-107.949	-0.337	0.074
-472.245	384.044	-0.061	0.127
-471.230	-200.000	0.028	-0.228
-470.216	86.042	0.179	0.198
-469.201	-67.743	-0.274	-0.108
-468.186	-200.000	0.027	-0.139
-467.172	-137.534	0.087	-0.010
-466.157	-192.131	0.097	0.001
-465.143	-26.584	-0.294	0.173
-464.128	-133.995	0.339	-0.042
-463.113	-200.000	-0.203	-0.000
-462.099	-161.207	0.367	0.019
-461.084	800.000	0.092	-0.394
-460.070	-200.000	-0.079	0.373
-459.055	-200.000	-0.072	-0.372
-458.040	800.000	0.050	-0.151
-457.026	-40.419	-0.186	-0.097
-456.011	-18.090	0.295	0.185
-454.997	-63.748	-0.113	0.046
-453.982	-200.000	0.001	0.251
-452.968	-200.000	0.050	-0.223
-451.953	-158.604	0.447	0.026
-450.938	800.000	-0.005	-0.020
-449.924	-200.000	0.009	-0.062
-448.909	-63.015	0.139	0.058
-447.895	800.000	0.045	-0.181
-446.880	-155.995	-0.167	-0.011
-445.865	-28.964	-0.050	-0.029
-444.851	145.864	0.082	-0.111
-443.836	-173.937	0.309	-0.009
-442.822	800.000	0.081	0.262
-441.807	507.876	-0.104	-0.243
-440.792	-139.500	0.225	-0.024
-439.778	641.154	-0.041	-0.105
-438.763	4.855	0.096	-0.071
-437.749	98.179	-0.133	0.153
-436.734	-27.953	-0.028	-0.016
-435.719	-38.510	0.133	0.071
-434.705	126.951	-0.117	-0.149
-433.690	301.496	0.171	0.318
-432.676	437.855	0.018	0.040
-431.661	-11.378	-0.228	0.151
-430.646	-200.000	0.042	-0.334
-429.632	-128.679	0.083	0.012
-428.617	-167.717	-0.251	0.010
-427.603	800.000	-0.007	-0.025
-426.588	-130.377	0.235	0.032
-425.573	777.794	0.149	0.408
-424.559	0.725	-0.116	-0.083
-423.544	-200.000	-0.058	-0.266
-422.530	-57.333	-0.199	-0.088
-421.515	127.732	-0.117	-0.149
-420.500	-64.612	-0.311	-0.127
-419.486	-114.680	-0.328	0.063
-418.471	-200.000	-0.019	0.137
-417.457	192.604	-0.064	-0.097
-416.442	-200.000	-0.036	0.186
-415.428	-119.701	-0.563	-0.098
-414.413	800.000	0.088	0.292
-413.398	-57.808	0.171	-0.075
-412.384	-68.210	0.164	-0.064
-411.369	-180.232	-0.343	-0.007
-410.355	468.772	0.023	0.051
-409.340	231.013	-0.191	0.314
-408.325	748.826	0.107	-0.288
-407.311	59.909	-0.191	0.189
-406.296	-56.287	-0.105	0.047
-405.282	-190.988	-0.288	0.003
-404.267	470.813	-0.031	0.070
-403.252	800.000	0.101	-0.282
-402.238	-130.512	-0.565	0.077
-401.223	170.536	0.052	0.074
-400.209	29.799	0.100	-0.085
-399.194	-171.319	0.180	-0.006
-398.179	-200.000	-0.019	-0.159
-397.165	232.957	0.093	-0.153
-396.150	244.204	-0.178	0.300
-395.136	-168.622	-0.205	-0.008
-394.121	-148.128	0.158	0.013
-393.106	800.000	-0.092	-0.288
-392.092	94.338	-0.213	0.242
-391.077	-81.308	0.315	0.104
-390.063	298.150	-0.027	0.050
-389.048	-138.410	-0.117	0.013
-388.033	-129.099	0.125	-0.017
-387.019	0.511	0.199	-0.142
-386.004	173.512	-0.204	0.295
-384.990	-200.000	0.008	-0.102
-383.975	-200.000	-0.050	-0.377
-382.960	552.556	0.050	0.120
-381.946	-141.168	0.237	0.024
-380.931	87.618	-0.110	-0.122
-379.917	71.069	-0.109	0.114
-378.902	-200.000	-0.002	-0.182
-377.888	-82.769	-0.220	-0.071
-376.873	-200.000	0.080	-0.431
-375.858	-200.000	-0.057	0.292
-374.844	-56.756	-0.142	-0.063
-373.829	800.000	-0.067	0.260
-372.815	168.842	-0.123	0.175
-371.800	-140.776	-0.137	0.014
-370.785	800.000	0.107	-0.353
-369.771	800.000	-0.019	0.061
-368.756	192.713	0.270	-0.408
-367.742	-114.891	-0.050	0.010
-366.727	125.563	-0.246	-0.311
-365.712	101.126	0.109	0.127
-364.698	800.000	-0.041	-0.124
-363.683	-200.000	0.002	0.325
-362.669	134.901	0.130	-0.168
-361.654	305.636	0.093	-0.174
-360.639	-103.577	0.282	0.066
-359.625	68.314	-0.071	0.073
-358.610	800.000	-0.046	-0.191
-357.596	223.507	0.144	-0.233
-356.581	-200.000	-0.016	-0.191
-355.566	21.404	-0.102	-0.083
-354.552	316.776	-0.171	-0.323
-353.537	100.350	0.194	-0.225
-352.523	-6.958	-0.252	0.171
-351.508	293.529	0.129	-0.237
-350.493	800.000	-0.107	0.417
-349.479	87.379	0.304	0.336
-348.464	497.534	0.098	-0.225
-347.450	19.164	0.098	-0.079
-346.435	800.000	-0.071	0.282
-345.420	186.034	-0.184	0.273
-344.406	-200.000	0.042	0.191
-343.391	-142.238	-0.135	0.013
-342.377	-123.865	0.340	0.054
-341.362	30.918	0.107	-0.092
-340.348	-10.092	-0.050	0.033
-339.333	-158.577	-0.460	-0.027
-338.318	800.000	-0.077	0.271
-337.304	173.713	-0.045	-0.066
-336.289	-60.221	0.347	0.148
-335.275	-91.247	-0.190	-0.055
-334.260	800.000	-0.069	-0.252
-333.245	-200.000	0.043	0.277
-332.231	103.697	-0.261	0.307
-331.216	-80.573	-0.360	-0.120
-330.202	384.701	0.227	-0.467
-329.187	800.000	0.061	-0.179
-328.172	-10.031	0.090	-0.060
-327.158	-96.219	-0.406	0.108
-326.143	-100.512	0.120	-0.030
-325.129	-200.000	0.020	0.217
-324.114	29.630	-0.292	0.249
-323.099	-99.398	-0.103	0.026
-322.085	-200.000	0.035	-0.164
-321.070	-13.309	0.151	-0.098
-320.056	73.450	-0.055	-0.058
-319.041	-200.000	0.005	0.140
-318.026	7.566	0.167	-0.125
-317.012	800.000	-0.013	0.051
-315.997	-29.933	-0.389	-0.221
-314.983	-153.609	-0.090	-0.006
-313.968	-200.000	0.001	0.255
-312.953	-172.846	0.347	-0.011
-311.939	130.781	0.197	0.252
-310.924	-200.000	-0.016	-0.240
-309.910	60.172	0.345	0.341
-308.895	109.872	0.100	-0.120
-307.880	-200.000	0.016	0.089
-306.866	243.575	0.129	-0.217
-305.851	176.308	-0.169	-0.245
-304.837	-46.663	-0.143	0.070
-303.822	-61.768	0.038	0.016
-302.807	25.028	-0.102	0.084
-301.793	-32.849	-0.224	-0.124
-300.778	-8.460	0.215	-0.144
-299.764	-11.122	0.190	0.125
-298.749	428.730	0.052	0.112
-297.735	800.000	0.024	-0.089
-296.720	86.330	-0.186	-0.205
-295.705	-2.953	0.338	-0.235
-294.691	12.290	0.266	0.204
-293.676	-168.509	-0.316	0.012
-292.662	98.940	0.205	0.236
-291.647	105.525	-0.051	-0.060
-290.632	116.804	0.100	-0.122
-289.618	292.139	0.200	0.363
-288.603	-200.000	-0.019	0.215
-287.589	800.000	0.068	0.207
-286.574	-52.888	0.420	-0.193
-285.559	-56.608	0.218	-0.097
-284.545	9.006	-0.129	-0.098
-283.530	-200.000	-0.014	0.068
-282.516	238.678	-0.108	-0.180
-281.501	800.000	0.076	0.241
-280.486	-36.542	0.226	-0.121
-279.472	800.000	0.046	-0.147
-278.457	-2.236	-0.065	0.045
-277.443	650.680	-0.105	0.268
-276.428	-91.860	-0.276	0.078
-275.413	69.501	-0.183	0.188
-274.399	-43.368	0.110	0.056
-273.384	-53.353	-0.333	-0.152
-272.370	656.929	0.038	0.097
-271.355	-95.180	-0.251	-0.067
-270.340	-125.244	0.331	0.050
-269.326	23.273	-0.215	-0.176
-268.311	800.000	-0.091	-0.363
-267.297	-23.139	-0.156	-0.094
-266.282	-94.974	-0.163	0.044
-265.267	-155.153	0.175	-0.011
-264.253	354.657	-0.070	-0.138
-263.238	176.171	-0.111	-0.160
-262.224	158.628	0.055	-0.076
-261.209	-129.697	0.097	-0.013
-260.195	20.997	0.276	0.223
-259.180	-129.501	-0.259	0.036
-258.165	800.000	-0.038	-0.147
-257.151	-74.279	0.369	-0.133
-256.136	-200.000	-0.006	0.146
-255.122	-51.332	-0.137	-0.064
-254.107	-29.864	0.229	-0.130
-253.092	12.013	0.118	0.091
-252.078	413.973	0.024	-0.051
-251.063	-165.224	0.109	0.005
-250.049	9.892	0.061	-0.046
-249.034	237.052	-0.047	-0.078
-248.019	148.544	-0.106	0.143
-247.005	800.000	-0.122	0.350
-245.990	-80.779	0.236	-0.078
-244.976	-129.137	0.124	0.017
-243.961	-200.000	0.005	0.151
-242.946	-52.978	-0.227	0.104
-241.932	800.000	0.112	0.426
-240.917	-142.730	0.120	-0.012
-239.903	800.000	-0.050	0.147
-238.888	-60.378	0.253	-0.107
-237.873	70.417	0.126	0.129
-236.859	471.044	0.077	0.173
-235.844	19.787	-0.085	0.068
-234.830	29.995	0.287	-0.244
-233.815	-200.000	0.027	0.162
-232.800	72.924	-0.212	0.220
-231.786	-200.000	-0.033	0.255
-230.771	127.089	-0.227	0.287
-229.757	800.000	-0.049	0.156
-228.742	-124.244	-0.445	-0.069
-227.727	-162.162	-0.133	-0.007
-226.713	-126.748	-0.060	-0.009
-225.698	182.090	-0.098	-0.143
-224.684	-200.000	-0.000	0.130
-223.669	-200.000	-0.045	0.568
-222.655	-200.000	0.002	0.034
-221.640	-200.000	0.018	0.142
-220.625	308.048	0.095	-0.176
-219.611	276.053	-0.193	-0.341
-218.596	-193.902	0.190	-0.002
-217.582	217.499	0.012	-0.020
-216.567	592.326	-0.188	-0.462
-215.552	440.620	0.128	-0.280
-214.538	-142.075	0.191	0.019
-213.523	-200.000	-0.043	0.415
-212.509	800.000	-0.071	-0.245
-211.494	-200.000	0.045	-0.310
-210.479	270.182	-0.078	-0.136
-209.465	-78.082	-0.151	-0.052
-208.450	48.024	0.134	0.125
-207.436	-200.000	-0.011	0.353
-206.421	-200.000	-0.043	0.310
-205.406	103.520	0.074	-0.086
-204.392	396.750	-0.084	0.174
-203.377	508.235	-0.058	0.133
-202.363	693.861	0.126	0.329
-201.348	-97.727	0.182	0.047
-200.333	163.184	0.141	-0.197
-199.319	-200.000	0.009	-0.107
-198.304	268.721	0.026	0.046
-197.290	-131.772	-0.189	0.025
-196.275	-134.514	-0.228	-0.028
-195.260	45.161	0.236	-0.216
-194.246	-111.608	0.078	0.016
-193.231	71.559	0.161	-0.166
-192.217	85.562	-0.127	-0.138
-191.202	-75.307	-0.299	0.106
-190.187	-106.564	0.283	-0.063
-189.173	800.000	0.049	-0.147
-188.158	15.440	-0.100	0.078
-187.144	-200.000	-0.018	-0.458
-186.129	-182.763	-0.316	0.006
-185.114	278.886	-0.050	0.089
-184.100	-58.214	0.076	0.033
-183.085	-61.500	-0.136	0.057
-182.071	-165.680	-0.447	-0.019
-181.056	12.019	-0.151	-0.116
-180.042	-56.078	0.173	-0.076
-179.027	-74.985	0.177	-0.063
-178.012	-12.880	0.050	-0.033
-176.998	10.209	-0.277	-0.210
-175.983	84.379	0.201	0.219
-174.969	-127.218	0.332	0.048
-173.954	6.337	-0.166	0.123
-172.939	800.000	0.084	0.340
-171.925	666.872	0.092	-0.237
-170.910	300.533	-0.041	0.075
-169.896	-200.000	0.010	0.152
-168.881	-200.000	-0.041	0.239
-167.866	-105.536	-0.081	-0.018
-166.852	344.953	0.158	0.309
-165.837	-128.244	-0.260	0.037
-164.823	-61.222	0.161	-0.067
-163.808	186.946	0.105	0.155
-162.793	236.189	-0.108	-0.178
-161.779	-200.000	0.073	-0.464
-160.764	-200.000	0.019	-0.117
-159.750	-200.000	0.003	0.184
-158.735	-200.000	0.049	-0.230
-157.720	-1.531	0.175	0.123
-156.706	273.116	-0.128	0.224
-155.691	68.265	-0.087	-0.089
-154.677	18.661	0.343	-0.273
-153.662	205.857	0.212	0.327
-152.647	-200.000	0.000	-0.160
-151.633	128.798	-0.162	0.205
-150.618	10.538	0.066	-0.050
-149.604	38.701	-0.206	-0.182
-148.589	-84.941	0.455	-0.142
-147.574	127.437	0.131	0.166
-146.560	-54.058	-0.131	0.059
-145.545	-27.833	0.108	0.062
-144.531	-60.857	-0.206	0.087
-143.516	144.844	0.091	-0.121
-142.502	-200.000	0.003	-0.320
-141.487	-200.000	0.006	-0.256
-140.472	194.942	-0.019	0.028
-139.458	-162.688	-0.537	0.026
-138.443	161.534	-0.055	0.077
-137.429	-18.234	0.200	-0.124
-136.414	211.776	0.262	0.409
-135.399	26.562	-0.055	0.046
-134.385	74.210	0.034	-0.036
-133.370	40.246	-0.177	0.158
-132.356	-57.996	0.261	-0.113
-131.341	173.016	-0.107	0.153
-130.326	147.474	0.178	-0.238
-129.312	220.862	0.135	-0.214
-128.297	-98.556	0.215	-0.055
-127.283	110.042	-0.033	0.040
-126.268	-75.495	0.256	0.090
-125.253	-200.000	-0.038	-0.165
-124.239	-17.976	-0.117	-0.073
-123.224	133.719	-0.064	0.082
-122.210	144.348	-0.146	-0.194
