DTS Sentinel unit serial number:	SN413079Multiplexer serial number:	ORYXHardware model number:	OX4-SRSoftware version number:	ORYX F/W v4.00 Oryx Data Collector v3.7.2.0data status	okinstallation	princeton_trtdifferential loss correction	single-endedforward channel	channel 4reverse channel	N/Adate	2019/09/12time	18:24:18forward acquisition time	15.00reverse acquisition time	0.00gamma	496.2192k internal	0.2307k external	0.2307temperature offset calibration	1.0135default loss term (dB/km)	0.3790temperature slope calibration	1.0000multiplexer offset coefficient	1.0000multiplexer slope coefficient	1.0000fibre end	0.00T internal ref (°C)	33.37T ext. ref 1 (°C)	2.91T ext. ref 2 (°C)	27.91length (m)	temperature (°C)	Stokes	anti-Stokes-747.200	14.701	-0.280	-0.223
-746.185	-93.351	-1.062	0.300
-745.171	-200.000	-0.149	-0.854
-744.156	-200.000	0.024	0.880
-743.142	75.061	0.568	0.608
-742.127	29.225	0.142	0.122
-741.112	172.301	0.396	0.578
-740.098	550.996	0.184	0.449
-739.083	-200.000	-0.022	0.194
-738.069	-82.984	-0.081	0.026
-737.054	43.818	0.455	0.424
-736.039	-149.250	0.058	-0.005
-735.025	31.530	0.766	0.669
-734.010	15.901	0.428	0.342
-732.996	493.741	-0.271	0.632
-731.981	-5.367	0.548	0.382
-730.966	-93.606	-0.277	-0.078
-729.952	395.419	0.147	0.311
-728.937	87.500	0.264	-0.298
-727.923	37.070	0.262	-0.236
-726.908	-63.006	0.129	-0.054
-725.894	-60.623	-0.424	-0.183
-724.879	-95.181	0.138	-0.038
-723.864	-200.000	0.004	0.052
-722.850	-59.045	0.757	0.332
-721.835	-94.174	-0.091	0.025
-720.821	-88.204	-0.351	0.107
-719.806	-90.906	0.571	0.167
-718.791	0.719	-0.293	0.213
-717.777	311.845	-0.153	-0.292
-716.762	-200.000	-0.033	0.159
-715.748	141.670	-0.327	-0.440
-714.733	303.696	-0.216	0.407
-713.718	117.870	0.191	0.239
-712.704	161.732	0.424	-0.603
-711.689	263.699	-0.420	-0.743
-710.675	293.330	-0.165	-0.306
-709.660	105.390	0.698	-0.837
-708.645	-200.000	0.090	-0.660
-707.631	128.960	0.183	-0.237
-706.616	-91.783	0.358	-0.103
-705.602	-146.845	-0.551	0.048
-704.587	-22.799	0.438	-0.268
-703.572	309.980	-0.310	-0.590
-702.558	800.000	-0.061	-0.253
-701.543	-200.000	-0.010	0.639
-700.529	-94.940	-0.231	-0.063
-699.514	-200.000	0.019	-0.683
-698.499	8.489	-0.360	-0.275
-697.485	-29.019	-0.869	0.506
-696.470	-200.000	-0.065	-0.434
-695.456	800.000	0.174	0.493
-694.441	36.679	-0.641	0.574
-693.426	-176.306	0.321	-0.009
-692.412	-103.032	0.662	-0.159
-691.397	72.849	-0.268	-0.284
-690.383	800.000	-0.242	0.945
-689.368	-200.000	-0.276	-0.001
-688.354	800.000	0.079	0.256
-687.339	28.921	-0.719	0.619
-686.324	502.884	-0.106	0.248
-685.310	-11.359	-0.125	0.083
-684.295	800.000	-0.229	-0.660
-683.281	-15.275	0.221	-0.143
-682.266	118.018	-0.233	0.292
-681.251	384.722	-0.469	0.980
-680.237	11.572	0.677	-0.527
-679.222	-85.120	-0.286	-0.091
-678.208	800.000	0.101	-0.416
-677.193	800.000	-0.093	-0.321
-676.178	77.646	-0.312	0.337
-675.164	-200.000	0.030	-0.463
-674.149	223.232	0.109	-0.178
-673.135	-200.000	-0.130	-0.580
-672.120	78.442	-0.562	-0.609
-671.105	-152.463	-0.716	0.052
-670.091	-92.383	0.301	-0.086
-669.076	49.379	0.275	-0.262
-668.062	-91.552	-0.549	-0.159
-667.047	4.756	-0.099	0.074
-666.032	173.095	0.233	-0.341
-665.018	32.727	-0.720	-0.631
-664.003	-200.000	0.036	0.841
-662.989	-200.000	-0.032	1.042
-661.974	-129.551	0.473	0.066
-660.959	-11.562	-0.668	0.445
-659.945	-200.000	-0.044	-0.477
-658.930	-200.000	-0.153	0.897
-657.916	-42.999	0.267	0.137
-656.901	-53.825	0.646	0.299
-655.886	-156.683	-0.490	-0.031
-654.872	468.481	-0.267	-0.608
-653.857	-117.813	1.151	0.209
-652.843	800.000	-0.192	0.770
-651.828	-200.000	-0.108	0.692
-650.814	74.355	-0.404	0.430
-649.799	-200.000	0.004	-0.833
-648.784	800.000	0.215	0.605
-647.770	95.991	-0.088	0.102
-646.755	110.034	0.348	0.424
-645.741	-200.000	0.076	0.443
-644.726	-68.765	-0.307	0.120
-643.711	-200.000	-0.097	-0.661
-642.697	-34.059	0.362	0.202
-641.682	-140.334	-0.602	-0.064
-640.668	-12.609	-0.727	0.480
-639.653	360.388	-0.072	0.147
-638.638	113.215	-0.403	0.495
-637.624	175.387	0.668	0.981
-636.609	-119.681	0.579	-0.101
-635.595	-164.366	0.268	0.012
-634.580	39.652	-0.543	-0.493
-633.565	532.735	0.056	-0.134
-632.551	3.041	-0.170	0.125
-631.536	-3.163	-0.613	-0.433
-630.522	-86.355	0.370	-0.115
-629.507	-200.000	0.040	0.484
-628.492	-44.023	0.068	0.034
-627.478	13.161	-0.270	0.212
-626.463	-200.000	0.102	0.975
-625.449	-58.628	-0.893	-0.392
-624.434	12.944	0.084	0.066
-623.419	-200.000	-0.006	0.495
-622.405	-8.080	-0.092	0.063
-621.390	-53.451	0.287	0.133
-620.376	62.662	0.254	-0.257
-619.361	-2.566	-0.434	-0.307
-618.346	800.000	0.200	-0.776
-617.332	187.963	-0.154	-0.233
-616.317	179.310	-0.129	0.191
-615.303	-177.523	-0.577	-0.014
-614.288	337.533	-0.134	0.265
-613.273	800.000	-0.027	-0.081
-612.259	49.657	0.310	-0.296
-611.244	800.000	0.107	0.421
-610.230	800.000	-0.139	-0.531
-609.215	-200.000	-0.032	0.238
-608.201	103.953	-0.268	-0.318
-607.186	174.475	-0.532	-0.778
-606.171	4.616	0.859	-0.638
-605.157	281.118	0.051	-0.092
-604.142	-158.575	-0.375	0.022
-603.128	-99.284	-0.649	0.166
-602.113	-60.320	0.208	0.089
-601.098	16.907	0.802	0.643
-600.084	21.724	0.548	0.451
-599.069	16.223	0.630	0.502
-598.055	-118.189	-0.837	-0.151
-597.040	-200.000	0.058	-0.499
-596.025	-89.337	-0.462	-0.138
-595.011	800.000	-0.164	0.622
-593.996	800.000	-0.169	-0.710
-592.982	800.000	-0.129	0.362
-591.967	-200.000	0.021	0.418
-590.952	-94.064	-0.533	-0.148
-589.938	-200.000	-0.044	-0.308
-588.923	-47.203	-0.183	-0.090
-587.909	245.362	-0.368	0.626
-586.894	-200.000	-0.033	0.179
-585.879	-23.052	0.793	-0.483
-584.865	-83.250	0.650	0.211
-583.850	800.000	-0.236	-0.675
-582.836	8.029	-0.478	-0.363
-581.821	-159.485	0.529	0.030
-580.806	28.158	-0.569	-0.486
-579.792	800.000	-0.085	0.263
-578.777	277.133	-0.219	-0.393
-577.763	-86.589	0.221	-0.069
-576.748	575.132	-0.325	-0.802
-575.733	114.846	-0.166	0.205
-574.719	193.186	-0.321	0.490
-573.704	-200.000	-0.095	-0.601
-572.690	131.215	-0.203	-0.263
-571.675	-9.102	-0.614	0.415
-570.661	130.846	0.162	0.210
-569.646	-82.295	0.241	-0.079
-568.631	800.000	0.197	-0.836
-567.617	-108.528	0.890	-0.193
-566.602	191.682	0.200	0.304
-565.588	800.000	-0.198	0.647
-564.573	-186.830	0.289	0.004
-563.558	-200.000	-0.073	-0.549
-562.544	-200.000	-0.057	0.422
-561.529	527.020	0.148	-0.353
-560.515	228.869	0.351	0.578
-559.500	-200.000	-0.123	-0.784
-558.485	7.720	0.610	-0.462
-557.471	-93.535	0.884	0.247
-556.456	-3.356	0.344	0.242
-555.442	-200.000	-0.020	0.143
-554.427	-200.000	-0.024	0.111
-553.412	-151.851	-0.517	-0.038
-552.398	132.243	-0.333	0.433
-551.383	-117.561	0.679	0.124
-550.369	-200.000	-0.065	-0.786
-549.354	-153.849	-1.480	-0.102
-548.339	52.566	0.429	0.413
-547.325	331.021	0.524	1.020
-546.310	-102.304	0.823	0.199
-545.296	-184.010	0.602	0.010
-544.281	187.851	-0.284	-0.427
-543.266	-200.000	-0.088	-0.522
-542.252	82.905	-0.596	-0.654
-541.237	-114.429	0.159	0.031
-540.223	-23.287	-0.740	0.449
-539.208	-33.602	-0.189	0.105
-538.193	-165.468	0.206	0.009
-537.179	26.884	-0.275	-0.233
-536.164	-127.898	0.290	0.042
-535.150	-200.000	0.047	0.322
-534.135	-194.124	-0.421	-0.003
-533.121	-74.676	-0.203	0.074
-532.106	-74.898	0.523	-0.189
-531.091	-95.874	-0.169	0.046
-530.077	-200.000	0.040	-0.350
-529.062	-200.000	0.121	-0.552
-528.048	-200.000	-0.021	-0.137
-527.033	-116.892	0.158	0.029
-526.018	-78.138	-0.932	-0.323
-525.004	797.422	-0.196	-0.544
-523.989	-200.000	-0.120	0.560
-522.975	25.573	0.374	0.314
-521.960	-139.498	-0.708	-0.076
-520.945	800.000	-0.339	-0.977
-519.931	7.726	0.397	-0.299
-518.916	-106.339	0.323	0.073
-517.902	-187.056	0.479	0.007
-516.887	42.937	-0.829	0.762
-515.872	-113.527	0.635	0.125
-514.858	-162.050	-0.593	0.030
-513.843	-200.000	-0.012	-0.201
-512.829	-53.050	-0.524	0.243
-511.814	60.391	0.591	0.590
-510.799	-4.822	-0.413	0.287
-509.785	-15.696	0.394	-0.253
-508.770	800.000	-0.099	-0.361
-507.756	-169.327	-0.500	0.019
-506.741	230.430	0.123	0.203
-505.726	-200.000	0.037	0.224
-504.712	-27.012	0.232	-0.137
-503.697	-87.258	0.185	0.057
-502.683	46.040	0.305	0.285
-501.668	-34.606	-0.477	0.263
-500.653	-200.000	0.057	0.300
-499.639	314.101	0.101	0.192
-498.624	-113.613	0.668	0.131
-497.610	365.414	0.293	0.594
-496.595	-26.481	-0.223	0.132
-495.581	800.000	0.155	-0.568
-494.566	-2.566	-0.148	0.104
-493.551	800.000	-0.172	0.556
-492.537	-197.931	-0.952	0.006
-491.522	-122.702	0.255	0.042
-490.508	-66.347	0.943	0.378
-489.493	233.709	0.274	-0.455
-488.478	-7.113	-0.196	0.134
-487.464	-200.000	0.080	-0.401
-486.449	800.000	0.113	0.325
-485.435	-200.000	-0.105	0.673
-484.420	55.805	-0.425	0.415
-483.405	93.778	0.312	0.356
-482.391	-41.023	0.637	-0.331
-481.376	-200.000	0.017	0.109
-480.362	800.000	-0.247	0.831
-479.347	-68.554	-0.681	-0.265
-478.332	-43.554	0.571	-0.290
-477.318	-191.388	0.396	-0.004
-476.303	-200.000	0.008	-0.412
-475.289	-28.287	-0.257	-0.149
-474.274	204.016	-0.113	0.177
-473.259	2.077	-0.356	-0.258
-472.245	-152.587	0.366	0.026
-471.230	19.734	-0.632	-0.512
-470.216	-133.559	0.644	0.081
-469.201	111.461	0.355	0.431
-468.186	155.168	0.373	-0.516
-467.172	93.308	0.217	-0.247
-466.157	238.558	0.338	-0.566
-465.143	-149.534	-0.686	0.055
-464.128	312.452	0.200	0.377
-463.113	279.820	0.154	0.276
-462.099	607.549	-0.033	0.084
-461.084	371.066	0.239	-0.488
-460.070	-121.597	-0.229	-0.038
-459.055	-19.030	0.284	0.178
-458.040	-100.297	-0.287	-0.072
-457.026	-172.553	-0.204	-0.006
-456.011	-23.487	-0.713	0.431
-454.997	272.790	0.215	-0.381
-453.982	11.778	0.287	0.221
-452.968	-200.000	-0.028	0.636
-451.953	219.360	0.431	-0.693
-450.938	-200.000	-0.019	-0.533
-449.924	169.142	-0.446	-0.639
-448.909	-132.293	0.537	-0.070
-447.895	83.553	-0.140	0.154
-446.880	-200.000	0.016	-0.201
-445.865	-84.513	-0.130	-0.041
-444.851	-200.000	0.012	0.516
-443.836	2.163	-0.049	-0.035
-442.822	559.079	0.192	0.466
-441.807	769.915	0.410	1.123
-440.792	78.041	0.410	-0.440
-439.778	-200.000	0.116	-0.781
-438.763	-112.661	0.592	0.118
-437.749	55.149	0.224	0.218
-436.734	305.450	-0.104	0.194
-435.719	-99.167	-0.677	0.172
-434.705	800.000	0.185	0.581
-433.690	800.000	0.081	-0.265
-432.676	80.761	-0.538	-0.583
-431.661	-200.000	0.027	1.070
-430.646	-33.625	-0.615	-0.341
-429.632	800.000	-0.148	0.495
-428.617	-23.435	-0.713	-0.430
-427.603	800.000	-0.067	-0.223
-426.588	-33.518	0.514	0.285
-425.573	66.980	-0.230	0.236
-424.559	800.000	0.157	0.570
-423.544	113.428	-0.299	-0.364
-422.530	-200.000	-0.041	-0.622
-421.515	343.009	0.424	-0.835
-420.500	237.301	0.149	0.248
-419.486	800.000	0.142	0.489
-418.471	48.117	0.786	0.738
-417.457	27.450	0.244	0.206
-416.442	66.566	0.273	0.279
-415.428	-136.261	-0.454	0.053
-414.413	69.949	-0.223	-0.231
-413.398	-200.000	-0.049	0.614
-412.384	65.723	-0.374	-0.380
-411.369	-107.465	0.066	-0.015
-410.355	107.462	-0.373	-0.445
-409.340	-171.034	0.572	0.020
-408.325	12.365	-0.189	-0.146
-407.311	800.000	-0.033	0.093
-406.296	506.417	-0.153	-0.356
-405.282	637.868	-0.160	0.407
-404.267	23.364	-0.569	0.470
-403.252	-159.931	-0.501	-0.028
-402.238	-99.533	-0.495	-0.125
-401.223	272.939	-0.571	-1.012
-400.209	-107.172	-0.427	0.095
-399.194	183.330	-0.097	0.144
-398.179	249.165	0.238	0.405
-397.165	-108.237	0.438	-0.095
-396.150	800.000	-0.084	0.239
-395.136	-165.439	-0.473	0.021
-394.121	210.176	-0.320	0.505
-393.106	-46.214	-0.490	-0.242
-392.092	-51.263	-0.314	0.147
-391.077	-58.993	-0.138	0.060
-390.063	-200.000	0.372	-0.001
-389.048	9.253	0.532	0.403
-388.033	147.958	0.140	0.189
-387.019	190.971	-0.387	-0.583
-386.004	-200.000	-0.079	0.760
-384.990	-115.559	0.339	-0.064
-383.975	-68.172	0.550	0.215
-382.960	52.890	0.459	-0.440
-381.946	-52.684	-0.227	0.105
-380.931	-25.944	-0.458	0.270
-379.917	20.953	-0.492	-0.400
-378.902	-182.615	-0.441	0.008
-377.888	-34.545	0.287	-0.157
-376.873	-200.000	-0.066	0.580
-375.858	-200.000	0.056	0.396
-374.844	13.182	-0.738	-0.573
-373.829	200.693	-0.277	0.426
-372.815	339.000	-0.325	0.634
-371.800	-121.613	0.758	-0.126
-370.785	342.240	0.253	-0.497
-369.771	-188.000	0.768	-0.010
-368.756	-47.612	0.635	0.309
-367.742	40.485	0.586	-0.529
-366.727	-16.491	0.494	0.314
-365.712	35.922	0.286	-0.252
-364.698	271.099	0.275	0.485
-363.683	269.997	-0.228	-0.401
-362.669	-200.000	0.104	-0.513
-361.654	-58.045	-0.540	0.236
-360.639	800.000	-0.176	-0.725
-359.625	-158.302	0.228	0.013
-358.610	-110.834	0.212	-0.044
-357.596	159.773	-0.344	0.480
-356.581	34.379	-0.493	0.431
-355.566	-64.062	-0.598	-0.244
-354.552	-200.000	-0.125	-0.584
-353.537	-92.207	0.355	0.100
-352.523	-152.568	0.375	-0.027
-351.508	218.210	0.200	0.320
-350.493	127.458	0.032	-0.041
-349.479	284.938	0.167	0.301
-348.464	800.000	-0.096	0.364
-347.450	-84.071	-0.910	0.289
-346.435	-70.857	0.161	0.061
-345.420	-96.263	-0.553	-0.147
-344.406	800.000	-0.085	-0.368
-343.391	-200.000	0.015	-0.450
-342.377	278.996	-0.240	-0.428
-341.362	209.601	0.099	0.155
-340.348	-26.139	0.422	-0.248
-339.333	800.000	-0.125	-0.430
-338.318	783.321	-0.108	-0.297
-337.304	32.088	-0.212	-0.183
-336.289	-11.748	0.299	-0.196
-335.275	-200.000	-0.039	-0.668
-334.260	218.785	0.411	-0.657
-333.245	156.373	0.506	-0.699
-332.231	-10.463	0.470	-0.311
-331.216	-200.000	-0.886	-0.003
-330.202	-200.000	-0.038	0.599
-329.187	669.253	-0.113	-0.292
-328.172	-129.243	-0.626	-0.087
-327.158	-106.796	0.152	-0.034
-326.143	719.353	-0.062	-0.166
-325.129	31.667	-0.440	-0.378
-324.114	232.357	-0.224	0.368
-323.099	152.606	0.505	-0.690
-322.085	51.496	-0.047	-0.045
-321.070	125.826	-0.116	0.146
-320.056	-63.098	1.004	0.415
-319.041	800.000	-0.069	-0.299
-318.026	-200.000	0.164	1.109
-317.012	-32.965	-0.760	0.422
-315.997	-103.671	0.275	0.064
-314.983	-120.959	0.353	0.059
-313.968	109.962	-0.611	0.733
-312.953	-126.227	0.578	-0.086
-311.939	-69.054	-0.436	0.168
-310.924	627.997	0.152	0.385
-309.910	-110.786	-0.344	-0.071
-308.895	-200.000	0.077	0.368
-307.880	800.000	0.127	-0.420
-306.866	314.731	-0.196	0.368
-305.851	-65.073	-1.101	-0.444
-304.837	35.931	-0.474	-0.417
-303.822	-111.901	0.146	0.030
-302.807	-62.921	0.280	-0.116
-301.793	-93.096	0.304	-0.085
-300.778	-200.000	-0.006	0.363
-299.764	800.000	-0.104	-0.381
-298.749	-14.871	-0.666	-0.427
-297.735	-77.767	-1.261	-0.436
-296.720	10.721	-0.735	-0.561
-295.705	800.000	-0.221	-0.687
-294.691	373.326	0.316	0.641
-293.676	140.872	-0.446	-0.589
-292.662	-131.378	0.295	-0.039
-291.647	800.000	-0.103	0.433
-290.632	113.813	0.568	0.689
-289.618	-200.000	0.045	0.394
-288.603	-85.038	0.461	-0.144
-287.589	-120.642	-0.539	0.091
-286.574	111.173	0.406	-0.489
-285.559	238.241	-0.334	-0.553
-284.545	-8.636	-0.473	-0.317
-283.530	-187.788	-0.132	0.002
-282.516	800.000	0.121	0.347
-281.501	-200.000	0.033	0.263
-280.486	494.416	-0.317	-0.726
-279.472	-129.515	-0.453	0.063
-278.457	-42.775	-0.221	0.112
-277.443	-200.000	-0.018	-1.026
-276.428	255.009	-0.107	-0.183
-275.413	450.915	0.332	0.732
-274.399	-11.869	0.149	-0.098
-273.384	489.386	-0.434	-0.990
-272.370	-200.000	-0.068	-0.871
-271.355	-200.000	0.008	0.216
-270.340	-200.000	-0.147	0.798
-269.326	21.013	0.656	-0.531
-268.311	-8.514	0.043	-0.029
-267.297	-200.000	-0.030	0.142
-266.282	-43.563	0.906	0.456
-265.267	-200.000	0.036	0.367
-264.253	-91.539	0.654	0.186
-263.238	-122.534	0.583	-0.095
-262.224	361.409	0.262	0.523
-261.209	-12.733	0.456	-0.296
-260.195	-200.000	-0.006	0.493
-259.180	144.127	-0.401	0.534
-258.165	166.733	0.445	-0.629
-257.151	-60.539	-0.605	0.256
-256.136	146.622	0.187	0.251
-255.122	-30.831	-0.502	0.283
-254.107	-200.000	-0.001	0.670
-253.092	37.869	0.292	0.259
-252.078	-186.032	-0.634	0.009
-251.063	794.904	-0.248	-0.682
-250.049	-129.204	-0.595	-0.083
-249.034	-85.557	0.135	0.042
-248.019	-200.000	0.051	0.439
-247.005	-200.000	-0.012	-0.417
-245.990	-200.000	0.196	0.856
-244.976	64.784	0.350	-0.352
-243.961	-200.000	0.021	0.341
-242.946	800.000	0.093	0.325
-241.932	-200.000	-0.002	-0.232
-240.917	-200.000	-0.040	0.942
-239.903	-146.635	1.325	-0.115
-238.888	-71.101	-0.765	0.287
-237.873	-200.000	0.072	-0.504
-236.859	648.590	-0.099	-0.253
-235.844	103.075	0.415	-0.485
-234.830	43.152	0.426	0.387
-233.815	188.810	0.281	0.419
-232.800	73.508	-0.356	-0.371
-231.786	97.519	-0.317	0.363
-230.771	121.585	-0.209	-0.260
-229.757	-200.000	0.061	0.378
-228.742	-64.508	0.823	0.333
-227.727	-200.000	0.020	0.189
-226.713	59.631	0.321	-0.316
-225.698	156.990	-0.157	-0.217
-224.684	138.192	0.339	-0.443
-223.669	-108.875	-0.596	0.127
-222.655	44.703	0.391	0.359
-221.640	-140.589	-1.040	-0.108
-220.625	29.732	-0.339	-0.287
-219.611	121.259	0.179	0.222
-218.596	-57.095	-0.187	-0.082
-217.582	227.125	-0.087	-0.141
-216.567	12.809	0.189	0.146
-215.552	57.048	0.610	-0.593
-214.538	800.000	-0.137	-0.491
-213.523	-54.512	0.385	0.174
-212.509	49.244	0.444	0.416
-211.494	100.462	0.414	-0.478
-210.479	303.881	-0.104	0.191
-209.465	204.386	0.320	-0.495
-208.450	-70.691	-0.914	-0.344
-207.436	-200.000	0.040	-0.481
-206.421	-85.299	0.588	-0.183
-205.406	-23.295	0.829	-0.496
-204.392	3.485	0.297	-0.215
-203.377	-63.022	-0.135	0.056
-202.363	-184.359	0.419	0.007
-201.348	-115.336	-0.343	-0.065
-200.333	-200.000	0.012	0.638
-199.319	254.104	0.221	-0.377
-198.304	800.000	-0.058	-0.229
-197.290	-200.000	-0.130	-0.579
-196.275	800.000	0.150	-0.531
-195.260	-200.000	-0.005	0.532
-194.246	72.514	0.810	0.841
-193.231	-63.926	-0.807	-0.328
-192.217	398.358	0.333	-0.693
-191.202	143.142	0.359	0.476
-190.187	-62.402	0.355	-0.147
-189.173	248.177	0.488	-0.822
-188.158	105.410	-0.168	-0.197
-187.144	-83.810	1.242	-0.394
-186.129	-178.241	-0.464	0.011
-185.114	-42.063	0.219	0.111
-184.100	-107.041	-0.815	-0.179
-183.085	-137.287	0.230	0.026
-182.071	-10.718	-1.019	0.671
-181.056	-200.000	-0.021	0.120
-180.042	-200.000	0.054	-0.308
-179.027	-200.000	-0.038	0.257
-178.012	-79.397	0.345	-0.116
-176.998	127.387	-0.245	-0.309
-175.983	-123.304	0.724	0.115
-174.969	800.000	0.204	-0.732
-173.954	800.000	0.061	0.185
-172.939	-44.447	0.405	0.201
-171.925	45.364	-0.208	-0.191
-170.910	800.000	-0.254	1.081
-169.896	-176.136	0.393	-0.010
-168.881	-200.000	-0.011	0.344
-167.866	-92.352	0.881	0.247
-166.852	23.824	0.584	0.478
-165.837	85.821	0.154	-0.168
-164.823	-94.918	-0.902	0.243
-163.808	800.000	0.303	0.837
-162.793	219.319	-0.185	-0.294
-161.779	370.199	0.162	0.327
-160.764	-200.000	0.007	0.733
-159.750	800.000	0.265	0.984
-158.735	-74.282	-0.625	-0.225
-157.720	641.988	0.266	0.673
-156.706	181.387	-0.563	-0.823
-155.691	-200.000	0.118	-0.881
-154.677	-51.832	1.041	0.481
-153.662	-31.272	0.072	-0.040
-152.647	7.621	-0.507	-0.377
-151.633	158.885	-0.114	-0.157
-150.618	-98.371	-0.269	-0.069
-149.604	-56.941	-0.331	-0.145
-148.589	30.772	-0.184	0.157
-147.574	20.258	-0.169	0.136
-146.560	324.829	-0.701	-1.330
-145.545	14.183	0.646	-0.500
-144.531	108.829	-0.358	-0.425
-143.516	-0.040	-0.760	-0.538
-142.502	40.613	0.193	-0.173
-141.487	467.207	0.314	-0.699
-140.472	-200.000	-0.067	0.642
-139.458	264.640	0.257	-0.444
-138.443	-170.273	0.231	0.008
-137.429	16.213	0.650	0.509
-136.414	743.116	0.116	-0.308
-135.399	-56.005	-0.195	-0.086
-134.385	-38.733	-0.376	-0.197
-133.370	-200.000	-0.117	-0.602
-132.356	-144.922	0.595	-0.054
-131.341	-90.725	-0.388	-0.111
-130.326	82.876	-0.658	0.710
-129.312	-36.859	-0.365	0.194
-128.297	303.820	0.131	-0.242
-127.283	-16.551	0.604	0.380
-126.268	-85.403	-0.337	0.104
-125.253	-50.313	0.595	-0.279
-124.239	141.546	0.053	0.069
-123.224	58.407	0.051	-0.049
-122.210	-77.590	-0.075	-0.026
-121.195	-84.836	0.587	0.183
