DTS Sentinel unit serial number:	SN413079Multiplexer serial number:	ORYXHardware model number:	OX4-SRSoftware version number:	ORYX F/W v4.00 Oryx Data Collector v3.7.2.0data status	okinstallation	princeton_trtdifferential loss correction	single-endedforward channel	channel 4reverse channel	N/Adate	2019/09/14time	00:09:35forward acquisition time	60.00reverse acquisition time	0.00gamma	496.2192k internal	0.2324k external	0.2324temperature offset calibration	1.0131default loss term (dB/km)	0.3790temperature slope calibration	1.0000multiplexer offset coefficient	1.0000multiplexer slope coefficient	1.0000fibre end	0.00T internal ref (°C)	26.50T ext. ref 1 (°C)	3.17T ext. ref 2 (°C)	21.44length (m)	temperature (°C)	Stokes	anti-Stokes-747.200	620.917	0.017	-0.043
-746.185	-200.000	-0.023	0.114
-745.171	50.843	0.111	0.106
-744.156	-88.115	0.043	0.013
-743.142	646.859	-0.105	0.270
-742.127	90.650	0.247	0.280
-741.112	-8.600	0.150	0.102
-740.098	-200.000	0.022	0.115
-739.083	-200.000	-0.025	-0.167
-738.069	-200.000	-0.057	0.357
-737.054	-96.777	0.232	0.062
-736.039	8.015	-0.107	0.081
-735.025	-16.827	0.239	0.152
-734.010	800.000	-0.090	-0.297
-732.996	614.387	-0.069	0.175
-731.981	201.325	-0.145	0.226
-730.966	-138.737	0.276	0.030
-729.952	133.299	-0.211	-0.276
-728.937	435.758	-0.057	-0.126
-727.923	94.548	-0.103	0.118
-726.908	-77.056	0.161	-0.057
-725.894	-115.175	0.127	0.024
-724.879	-152.975	0.110	-0.008
-723.864	-79.356	0.209	0.071
-722.850	-68.815	-0.298	-0.116
-721.835	-147.241	-0.357	-0.031
-720.821	113.618	0.211	-0.258
-719.806	139.133	-0.133	-0.176
-718.791	664.048	0.023	-0.060
-717.777	-93.098	-0.258	-0.072
-716.762	36.562	0.162	-0.145
-715.748	800.000	0.067	0.214
-714.733	97.989	-0.169	-0.196
-713.718	-66.752	0.153	-0.061
-712.704	-135.807	0.142	-0.017
-711.689	64.157	-0.107	0.109
-710.675	604.923	-0.042	0.107
-709.660	147.417	0.158	-0.214
-708.645	-100.423	0.260	-0.065
-707.631	201.498	-0.075	0.116
-706.616	-56.868	-0.157	-0.070
-705.602	354.903	0.121	-0.242
-704.587	194.936	-0.136	0.209
-703.572	-2.990	0.147	-0.103
-702.558	-157.002	0.190	-0.012
-701.543	236.586	0.094	0.157
-700.529	23.653	-0.172	0.143
-699.514	737.950	-0.048	-0.130
-698.499	45.707	-0.133	-0.123
-697.485	-200.000	0.012	-0.323
-696.470	359.844	-0.061	-0.124
-695.456	128.788	-0.149	-0.192
-694.441	-200.000	0.015	-0.161
-693.426	260.150	-0.116	-0.203
-692.412	-82.779	0.073	0.024
-691.397	-200.000	0.024	-0.203
-690.383	-96.072	0.121	-0.032
-689.368	295.545	0.131	0.241
-688.354	95.382	-0.035	-0.040
-687.339	-120.446	0.145	-0.025
-686.324	-120.398	0.361	-0.062
-685.310	-131.483	-0.365	-0.049
-684.295	-75.200	0.077	-0.028
-683.281	-200.000	0.022	0.121
-682.266	15.761	-0.292	-0.231
-681.251	96.403	0.042	0.048
-680.237	800.000	-0.037	-0.151
-679.222	117.145	0.274	-0.339
-678.208	-27.576	-0.510	0.298
-677.193	-99.796	-0.233	-0.059
-676.178	114.012	-0.332	-0.406
-675.164	-62.023	0.226	0.095
-674.149	142.514	-0.073	0.097
-673.135	-59.269	-0.217	-0.094
-672.120	407.344	-0.064	0.136
-671.105	800.000	-0.062	-0.198
-670.091	213.362	0.127	0.202
-669.076	196.839	-0.200	-0.307
-668.062	487.603	0.044	-0.101
-667.047	19.847	-0.056	-0.046
-666.032	800.000	0.049	-0.199
-665.018	-120.843	-0.053	0.009
-664.003	-113.850	0.145	-0.028
-662.989	-102.756	-0.173	0.042
-661.974	-162.344	0.294	0.015
-660.959	14.448	-0.178	-0.140
-659.945	-76.617	-0.119	0.042
-658.930	-138.221	0.135	0.015
-657.916	324.781	-0.175	-0.337
-656.901	-200.000	0.016	-0.115
-655.886	-82.184	0.316	-0.104
-654.872	-31.734	-0.174	-0.098
-653.857	693.324	-0.148	-0.391
-652.843	-164.385	0.069	-0.003
-651.828	56.686	-0.180	-0.176
-650.814	-200.000	0.004	-0.019
-649.799	-126.824	0.409	-0.061
-648.784	55.068	0.119	-0.115
-647.770	-88.545	0.334	-0.100
-646.755	-1.201	0.052	0.037
-645.741	397.996	-0.109	0.229
-644.726	800.000	0.052	0.205
-643.711	25.574	0.206	-0.172
-642.697	-83.130	0.205	0.066
-641.682	-78.928	-0.212	0.073
-640.668	-115.284	-0.400	-0.076
-639.653	20.716	0.220	-0.179
-638.638	-112.592	-0.324	0.065
-637.624	79.938	0.300	-0.325
-636.609	680.946	-0.053	-0.139
-635.595	-23.956	-0.105	-0.063
-634.580	-27.266	-0.382	0.223
-633.565	-200.000	-0.028	0.255
-632.551	75.782	-0.038	-0.041
-631.536	-200.000	-0.015	-0.099
-630.522	758.298	0.105	-0.287
-629.507	-16.124	-0.143	0.091
-628.492	777.363	0.063	-0.174
-627.478	-200.000	0.004	0.027
-626.463	-91.719	-0.458	-0.131
-625.449	-200.000	0.000	0.295
-624.434	-152.711	-0.045	0.003
-623.419	-67.935	0.214	0.084
-622.405	74.341	-0.202	0.213
-621.390	503.061	-0.062	0.143
-620.376	101.285	0.131	-0.153
-619.361	-40.578	-0.149	-0.077
-618.346	528.793	0.053	0.126
-617.332	-165.271	0.284	-0.013
-616.317	589.272	0.094	-0.233
-615.303	-29.844	0.070	-0.040
-614.288	-200.000	-0.024	0.277
-613.273	800.000	0.043	0.180
-612.259	-200.000	-0.028	-0.157
-611.244	-101.327	0.294	0.072
-610.230	-145.609	0.203	-0.018
-609.215	313.349	-0.117	0.220
-608.201	800.000	-0.040	-0.157
-607.186	468.646	-0.079	0.178
-606.171	-200.000	-0.002	-0.286
-605.157	-133.435	-0.290	-0.037
-604.142	800.000	0.047	0.200
-603.128	-155.486	-0.034	-0.002
-602.113	43.498	-0.118	0.108
-601.098	87.331	0.008	0.009
-600.084	-92.645	-0.411	-0.116
-599.069	393.644	0.068	-0.141
-598.055	-114.966	-0.442	-0.084
-597.040	-132.126	-0.110	0.014
-596.025	155.391	0.192	0.265
-595.011	-200.000	-0.014	-0.091
-593.996	-200.000	-0.069	0.363
-592.982	-200.000	0.011	-0.133
-591.967	64.450	0.151	-0.153
-590.952	415.139	-0.017	-0.036
-589.938	-200.000	-0.014	-0.256
-588.923	-83.454	0.267	0.086
-587.909	-186.330	-0.289	-0.004
-586.894	192.915	0.036	-0.055
-585.879	206.005	-0.092	0.143
-584.865	18.496	-0.211	-0.169
-583.850	45.437	0.026	0.024
-582.836	-61.722	-0.400	-0.168
-581.821	-200.000	0.032	-0.212
-580.806	373.857	0.091	0.186
-579.792	58.952	-0.201	0.198
-578.777	786.921	-0.076	-0.210
-577.763	45.719	-0.232	-0.215
-576.748	-84.767	-0.298	-0.094
-575.733	-200.000	0.040	-0.260
-574.719	-142.881	-0.246	0.024
-573.704	-111.505	-0.304	-0.062
-572.690	81.279	-0.222	0.241
-571.675	273.642	-0.058	0.103
-570.661	48.180	0.160	-0.150
-569.646	-119.634	-0.399	-0.069
-568.631	-92.656	0.202	-0.057
-567.617	69.047	0.149	-0.153
-566.602	25.794	0.100	-0.084
-565.588	-121.252	-0.403	0.067
-564.573	800.000	-0.080	-0.234
-563.558	-74.022	-0.330	0.120
-562.544	-173.955	-0.202	0.006
-561.529	-200.000	-0.051	0.272
-560.515	101.241	-0.239	-0.279
-559.500	800.000	-0.120	-0.421
-558.485	675.648	-0.088	-0.229
-557.471	-155.883	0.165	0.011
-556.456	106.021	-0.130	-0.154
-555.442	800.000	-0.041	0.147
-554.427	-46.270	-0.265	0.130
-553.412	35.747	-0.164	0.144
-552.398	362.509	0.149	0.300
-551.383	-131.068	-0.530	0.071
-550.369	-200.000	0.029	-0.231
-549.354	-92.908	0.125	-0.035
-548.339	16.854	0.106	0.084
-547.325	-111.774	-0.189	0.038
-546.310	22.712	-0.272	-0.223
-545.296	-36.078	-0.265	0.144
-544.281	-200.000	-0.023	-0.198
-543.266	50.765	0.139	0.131
-542.252	-119.724	0.127	-0.022
-541.237	-200.000	0.037	-0.224
-540.223	310.763	0.084	-0.157
-539.208	90.727	0.138	0.155
-538.193	-117.346	-0.048	0.009
-537.179	748.344	-0.050	-0.136
-536.164	-152.093	0.079	-0.006
-535.150	-200.000	0.027	0.154
-534.135	136.065	-0.192	0.251
-533.121	-38.555	0.114	0.060
-532.106	-56.753	-0.171	-0.076
-531.091	-200.000	-0.147	-0.000
-530.077	85.591	-0.181	0.199
-529.062	11.823	0.060	0.046
-528.048	-13.110	-0.138	0.090
-527.033	-113.899	0.228	-0.044
-526.018	-50.444	0.231	0.109
-525.004	-126.061	-0.303	0.046
-523.989	-200.000	0.037	0.190
-522.975	-50.217	0.189	0.089
-521.960	28.565	0.110	-0.093
-520.945	-200.000	0.023	0.118
-519.931	-89.419	-0.287	-0.085
-518.916	-4.059	-0.151	0.105
-517.902	59.905	-0.238	0.235
-516.887	83.264	0.377	-0.411
-515.872	-187.536	0.325	0.004
-514.858	-122.363	-0.218	-0.036
-513.843	-173.441	0.190	-0.006
-512.829	707.961	-0.092	0.243
-511.814	359.189	0.100	-0.200
-510.799	-118.274	-0.522	0.093
-509.785	-200.000	-0.045	0.282
-508.770	-180.825	0.144	0.003
-507.756	-200.000	-0.348	0.002
-506.741	433.656	0.122	0.265
-505.726	-199.100	0.187	-0.001
-504.712	393.578	-0.107	-0.222
-503.697	116.134	-0.269	0.330
-502.683	800.000	0.100	-0.394
-501.668	-149.572	0.110	-0.009
-500.653	-2.450	0.143	0.100
-499.639	620.157	-0.021	0.054
-498.624	495.951	0.007	-0.017
-497.610	-200.000	-0.000	-0.299
-496.595	-49.757	0.327	-0.155
-495.581	-25.189	-0.285	-0.169
-494.566	14.468	-0.377	-0.294
-493.551	50.006	0.275	-0.259
-492.537	7.642	0.031	0.023
-491.522	-9.357	0.236	-0.158
-490.508	83.180	0.021	-0.023
-489.493	-70.291	0.114	0.043
-488.478	608.516	-0.018	0.044
-487.464	-200.000	0.083	0.368
-486.449	-125.217	-0.276	-0.042
-485.435	-106.280	-0.215	-0.048
-484.420	3.481	0.234	-0.170
-483.405	45.535	0.132	0.122
-482.391	-200.000	0.049	0.282
-481.376	227.671	-0.114	-0.186
-480.362	-86.695	0.132	0.040
-479.347	-43.386	0.010	-0.005
-478.332	800.000	-0.122	-0.382
-477.318	-118.577	-0.199	0.035
-476.303	-182.846	0.390	-0.007
-475.289	117.776	-0.105	0.129
-474.274	250.969	0.067	-0.113
-473.259	-200.000	0.018	-0.183
-472.245	-157.638	0.226	0.013
-471.230	-122.148	0.030	0.005
-470.216	-21.935	0.260	0.158
-469.201	-200.000	0.007	0.111
-468.186	-30.475	-0.080	0.045
-467.172	297.039	0.104	-0.190
-466.157	85.659	-0.196	-0.216
-465.143	-200.000	0.008	-0.044
-464.128	-73.407	0.202	0.074
-463.113	89.604	0.083	-0.093
-462.099	187.216	0.180	-0.268
-461.084	-111.741	-0.174	0.035
-460.070	-200.000	-0.037	0.330
-459.055	25.319	-0.345	-0.286
-458.040	800.000	-0.058	0.191
-457.026	260.622	-0.081	0.140
-456.011	-59.416	0.353	-0.152
-454.997	463.458	-0.207	0.461
-453.982	-200.000	0.028	-0.230
-452.968	-45.588	0.182	0.090
-451.953	799.893	-0.039	-0.108
-450.938	-30.340	0.383	0.217
-449.924	800.000	0.053	0.148
-448.909	57.590	0.194	-0.189
-447.895	516.879	0.051	-0.118
-446.880	-200.000	0.027	0.199
-445.865	15.506	-0.022	0.017
-444.851	-200.000	0.000	0.013
-443.836	-28.330	-0.143	0.082
-442.822	516.298	0.091	-0.212
-441.807	520.456	0.024	-0.056
-440.792	-200.000	0.006	0.149
-439.778	-153.423	0.106	-0.007
-438.763	-165.494	-0.222	0.010
-437.749	200.639	-0.192	0.295
-436.734	-138.074	-0.195	-0.022
-435.719	-143.427	0.551	-0.053
-434.705	-20.045	-0.219	-0.135
-433.690	123.490	-0.112	-0.140
-432.676	-200.000	0.022	-0.109
-431.661	782.358	0.105	0.286
-430.646	800.000	-0.107	0.354
-429.632	800.000	-0.066	0.252
-428.617	4.107	-0.130	-0.095
-427.603	113.746	-0.077	-0.094
-426.588	-34.834	0.206	-0.112
-425.573	-148.946	0.349	-0.028
-424.559	-200.000	0.014	0.419
-423.544	-25.095	-0.119	-0.070
-422.530	-126.154	0.175	-0.026
-421.515	317.327	0.104	0.197
-420.500	445.250	0.022	0.049
-419.486	-9.242	0.181	0.121
-418.471	-200.000	0.018	0.325
-417.457	-200.000	-0.031	0.220
-416.442	116.574	-0.079	0.096
-415.428	84.238	0.100	-0.109
-414.413	5.303	0.140	0.103
-413.398	-45.385	-0.177	-0.088
-412.384	386.938	-0.044	-0.091
-411.369	-17.719	0.091	-0.057
-410.355	669.345	0.082	0.210
-409.340	-200.000	-0.075	0.329
-408.325	25.275	0.378	-0.313
-407.311	139.575	0.053	0.070
-406.296	-89.647	0.117	-0.034
-405.282	431.636	-0.107	0.231
-404.267	-200.000	-0.027	0.136
-403.252	-65.053	0.321	0.129
-402.238	-132.383	0.203	0.026
-401.223	-72.630	-0.149	-0.055
-400.209	18.848	0.104	-0.083
-399.194	88.594	0.108	0.120
-398.179	-98.427	0.211	-0.054
-397.165	-42.425	-0.227	-0.115
-396.150	-52.164	0.137	-0.063
-395.136	274.606	-0.068	-0.120
-394.121	800.000	0.038	0.125
-393.106	-12.281	0.051	-0.033
-392.092	23.635	0.119	-0.098
-391.077	-166.322	0.316	-0.013
-390.063	-71.229	-0.284	0.106
-389.048	-200.000	-0.011	-0.107
-388.033	-122.289	-0.054	0.009
-387.019	511.036	-0.026	0.061
-386.004	-200.000	0.015	0.227
-384.990	-146.474	-0.186	0.016
-383.975	-200.000	-0.004	-0.133
-382.960	119.761	-0.101	0.124
-381.946	-200.000	-0.004	-0.143
-380.931	-200.000	-0.018	-0.319
-379.917	-189.303	0.099	-0.001
-378.902	693.589	0.059	0.154
-377.888	-15.958	-0.059	0.037
-376.873	-106.929	0.042	0.009
-375.858	800.000	0.095	0.358
-374.844	38.625	0.139	0.123
-373.829	127.144	0.062	0.078
-372.815	800.000	0.022	-0.072
-371.800	123.755	-0.184	-0.230
-370.785	-200.000	-0.024	0.200
-369.771	800.000	0.040	0.151
-368.756	26.751	-0.170	0.141
-367.742	33.001	0.277	0.239
-366.727	119.544	0.086	0.106
-365.712	-16.263	0.093	0.059
-364.698	171.694	0.121	-0.173
-363.683	91.545	0.083	-0.093
-362.669	158.124	-0.047	-0.064
-361.654	37.172	0.229	-0.202
-360.639	-8.134	-0.170	-0.114
-359.625	-200.000	-0.050	-0.241
-358.610	36.326	0.066	0.058
-357.596	230.549	-0.166	0.270
-356.581	-102.097	0.307	-0.074
-355.566	27.824	0.331	0.277
-354.552	-143.560	0.201	-0.019
-353.537	-9.645	-0.117	0.078
-352.523	106.377	0.101	0.119
-351.508	800.000	0.120	0.361
-350.493	776.542	0.080	-0.217
-349.479	601.070	-0.072	-0.177
-348.464	-41.995	-0.175	-0.089
-347.450	-142.801	0.198	-0.019
-346.435	-124.320	-0.192	0.030
-345.420	61.149	-0.129	-0.128
-344.406	800.000	0.191	0.535
-343.391	22.029	-0.415	0.336
-342.377	352.071	0.084	-0.164
-341.362	800.000	0.031	0.096
-340.348	436.084	-0.163	0.353
-339.333	343.631	0.093	-0.182
-338.318	-167.514	-0.296	-0.012
-337.304	800.000	0.038	-0.119
-336.289	171.916	-0.113	-0.161
-335.275	-108.058	-0.033	0.007
-334.260	21.517	0.498	0.402
-333.245	-29.697	-0.334	-0.189
-332.231	-94.668	-0.117	-0.032
-331.216	-200.000	0.019	0.103
-330.202	18.029	0.093	0.073
-329.187	-75.955	0.263	-0.093
-328.172	-130.703	-0.015	-0.002
-327.158	161.585	-0.168	-0.234
-326.143	-58.509	0.310	0.134
-325.129	-46.770	0.348	0.169
-324.114	-2.150	-0.183	-0.128
-323.099	155.607	0.052	0.071
-322.085	-134.500	-0.291	0.035
-321.070	-161.265	0.207	-0.011
-320.056	295.044	0.139	0.253
-319.041	-39.112	-0.233	0.122
-318.026	-88.604	-0.232	-0.068
-317.012	-42.348	-0.257	0.130
-315.997	99.010	-0.334	-0.383
-314.983	176.716	0.312	0.450
-313.968	-94.823	0.394	-0.106
-312.953	800.000	-0.102	-0.309
-311.939	687.948	0.068	-0.176
-310.924	-49.022	0.375	-0.178
-309.910	-56.018	0.180	0.080
-308.895	631.218	0.077	0.194
-307.880	800.000	0.041	0.113
-306.866	800.000	-0.041	0.150
-305.851	-113.964	-0.187	-0.036
-304.837	-155.530	-0.195	0.012
-303.822	-24.996	-0.079	-0.046
-302.807	800.000	0.089	0.273
-301.793	800.000	0.074	0.211
-300.778	-63.890	0.228	-0.093
-299.764	168.743	0.176	-0.248
-298.749	56.300	-0.228	-0.219
-297.735	168.546	-0.052	0.074
-296.720	46.880	-0.111	-0.102
-295.705	410.186	0.116	0.243
-294.691	119.861	-0.205	-0.252
-293.676	163.134	0.148	-0.206
-292.662	144.833	-0.206	-0.273
-291.647	87.027	-0.168	0.184
-290.632	800.000	0.064	-0.236
-289.618	448.199	-0.066	0.143
-288.603	683.463	-0.203	-0.525
-287.589	56.336	0.088	-0.085
-286.574	-200.000	-0.005	-0.235
-285.559	335.237	-0.101	-0.194
-284.545	-92.199	-0.214	-0.060
-283.530	-165.251	-0.069	-0.003
-282.516	-200.000	-0.004	-0.078
-281.501	39.366	0.122	0.108
-280.486	-54.100	-0.176	-0.079
-279.472	-105.745	-0.273	-0.061
-278.457	625.646	-0.095	0.239
-277.443	105.451	-0.052	0.061
-276.428	800.000	0.040	0.113
-275.413	202.471	0.091	-0.140
-274.399	70.039	-0.121	-0.124
-273.384	800.000	0.056	0.185
-272.370	706.925	-0.111	0.291
-271.355	-200.000	0.024	0.223
-270.340	-43.836	0.145	-0.073
-269.326	800.000	-0.004	0.016
-268.311	800.000	-0.137	0.427
-267.297	-162.008	0.362	0.018
-266.282	-124.403	0.200	0.031
-265.267	6.833	-0.156	-0.115
-264.253	-59.262	-0.324	-0.138
-263.238	-200.000	0.040	-0.214
-262.224	-200.000	-0.050	-0.398
-261.209	-24.907	-0.101	0.060
-260.195	-134.835	-0.112	-0.013
-259.180	258.254	-0.012	0.020
-258.165	-200.000	0.013	-0.069
-257.151	-25.650	0.371	-0.217
-256.136	99.117	-0.082	-0.094
-255.122	-77.037	0.236	0.081
-254.107	489.401	0.139	0.315
-253.092	75.838	0.066	0.069
-252.078	-97.320	0.019	-0.005
-251.063	-200.000	-0.038	0.294
-250.049	-100.332	-0.325	-0.080
-249.034	30.278	0.106	-0.090
-248.019	172.017	-0.218	-0.310
-247.005	-200.000	0.010	0.124
-245.990	-130.786	-0.238	-0.032
-244.976	-153.123	0.072	0.005
-243.961	-200.000	0.007	0.202
-242.946	-15.353	-0.015	0.009
-241.932	800.000	0.009	0.025
-240.917	-130.344	-0.185	-0.025
-239.903	111.018	-0.038	0.045
-238.888	6.848	0.050	0.037
-237.873	800.000	0.021	0.064
-236.859	-60.069	0.347	0.146
-235.844	-122.485	0.370	-0.060
-234.830	-98.971	0.141	0.035
-233.815	-69.617	-0.283	-0.107
-232.800	368.050	-0.043	-0.086
-231.786	28.992	0.218	0.183
-230.771	-200.000	0.019	0.157
-229.757	-110.366	-0.126	0.026
-228.742	-116.614	-0.195	0.035
-227.727	-200.000	-0.034	0.427
-226.713	-200.000	0.013	-0.097
-225.698	-200.000	-0.009	0.248
-224.684	224.048	0.103	0.165
-223.669	-200.000	0.024	-0.267
-222.655	-50.480	-0.200	-0.093
-221.640	800.000	-0.075	-0.247
-220.625	-131.820	0.365	-0.047
-219.611	0.281	-0.210	0.148
-218.596	-97.900	0.063	-0.016
-217.582	-55.432	0.146	-0.065
-216.567	30.417	0.287	0.243
-215.552	-40.264	0.289	0.148
-214.538	162.528	-0.201	-0.278
-213.523	619.508	0.095	0.236
-212.509	191.028	-0.089	-0.132
-211.494	-129.115	0.216	0.030
-210.479	-200.000	-0.001	0.128
-209.465	-11.198	-0.199	0.130
-208.450	-200.000	-0.008	-0.160
-207.436	317.670	-0.131	-0.245
-206.421	502.530	-0.005	0.011
-205.406	510.593	-0.060	-0.139
-204.392	49.920	0.269	-0.250
-203.377	2.057	0.076	0.054
-202.363	323.193	0.144	-0.272
-201.348	799.779	0.095	-0.259
-200.333	-55.509	0.067	-0.030
-199.319	-27.595	-0.044	-0.025
-198.304	-11.030	0.221	-0.144
-197.290	93.829	-0.235	0.263
-196.275	-200.000	-0.003	-0.240
-195.260	-60.885	0.027	-0.011
-194.246	-36.942	-0.088	0.047
-193.231	-200.000	-0.292	-0.001
-192.217	800.000	0.078	-0.249
-191.202	-85.829	0.281	-0.086
-190.187	-63.309	-0.387	0.158
-189.173	-154.891	-0.461	0.030
-188.158	-122.693	0.134	-0.021
-187.144	-200.000	0.010	-0.274
-186.129	-200.000	0.053	0.261
-185.114	-128.608	0.112	0.016
-184.100	-173.719	0.112	-0.003
-183.085	14.251	0.214	-0.165
-182.071	-84.485	-0.382	0.119
-181.056	-144.098	0.186	0.017
-180.042	-200.000	0.008	0.203
-179.027	-200.000	0.031	0.143
-178.012	-150.013	0.125	0.010
-176.998	184.527	0.017	0.025
-175.983	57.772	0.237	-0.229
-174.969	439.761	-0.008	-0.018
-173.954	66.902	0.066	-0.067
-172.939	304.701	0.112	-0.205
-171.925	-14.395	0.082	0.052
-170.910	6.664	0.178	-0.131
-169.896	26.633	0.147	-0.121
-168.881	-85.749	0.311	-0.095
-167.866	-84.419	-0.327	-0.102
-166.852	800.000	-0.072	-0.201
-165.837	129.374	0.183	-0.230
-164.823	88.810	0.205	0.225
-163.808	-200.000	-0.010	-0.107
-162.793	-200.000	0.002	-0.348
-161.779	395.875	-0.137	-0.282
-160.764	-200.000	0.041	-0.183
-159.750	-40.869	-0.396	0.202
-158.735	205.980	-0.114	-0.175
-157.720	116.491	-0.010	-0.012
-156.706	-8.058	0.337	0.224
-155.691	-80.765	0.215	-0.070
-154.677	-122.868	0.268	0.043
-153.662	-41.466	0.181	0.092
-152.647	-200.000	-0.070	0.403
-151.633	-20.277	-0.029	0.018
-150.618	301.301	0.088	-0.160
-149.604	-196.116	0.361	0.002
-148.589	-82.647	-0.304	0.097
-147.574	-118.159	0.077	-0.014
-146.560	-200.000	-0.033	0.162
-145.545	573.031	0.097	0.233
-144.531	-200.000	-0.025	-0.181
-143.516	119.649	-0.025	0.030
-142.502	800.000	-0.059	0.192
-141.487	-106.225	0.190	-0.042
-140.472	-200.000	-0.018	0.259
-139.458	-35.110	-0.027	-0.014
-138.443	-200.000	0.035	-0.191
-137.429	-200.000	0.022	-0.157
-136.414	223.360	-0.136	-0.215
-135.399	135.007	0.191	-0.245
-134.385	-54.321	0.343	0.153
-133.370	42.064	0.150	-0.135
-132.356	800.000	-0.030	-0.089
-131.341	800.000	-0.112	0.465
-130.326	36.269	0.123	-0.107
-129.312	329.622	-0.044	-0.084
-128.297	-84.711	0.179	-0.055
-127.283	400.491	-0.225	-0.466
-126.268	32.153	0.250	-0.213
-125.253	170.805	-0.170	0.240
-124.239	-87.190	-0.149	-0.044
-123.224	96.249	0.177	0.199
-122.210	-69.538	0.035	-0.013
-121.195	-56.829	0.322	0.140
