DTS Sentinel unit serial number:	SN413079Multiplexer serial number:	ORYXHardware model number:	OX4-SRSoftware version number:	ORYX F/W v4.00 Oryx Data Collector v3.7.2.0data status	okinstallation	princeton_trtdifferential loss correction	single-endedforward channel	channel 4reverse channel	N/Adate	2019/09/15time	13:57:35forward acquisition time	60.00reverse acquisition time	0.00gamma	496.2192k internal	0.2290k external	0.2290temperature offset calibration	0.9997default loss term (dB/km)	0.3790temperature slope calibration	1.0000multiplexer offset coefficient	1.0000multiplexer slope coefficient	1.0000fibre end	0.00T internal ref (°C)	38.37T ext. ref 1 (°C)	4.98T ext. ref 2 (°C)	35.01length (m)	temperature (°C)	Stokes	anti-Stokes-747.200	-66.888	-0.173	0.070
-746.185	-200.000	-0.083	0.386
-745.171	-93.784	-0.074	0.021
-744.156	-64.264	-0.302	0.126
-743.142	-73.837	0.104	0.039
-742.127	71.157	-0.054	-0.058
-741.112	285.016	-0.110	0.203
-740.098	-44.300	-0.344	-0.177
-739.083	-60.972	-0.175	-0.076
-738.069	800.000	-0.084	0.260
-737.054	579.780	-0.028	0.069
-736.039	238.798	0.085	0.145
-735.025	114.210	-0.283	0.353
-734.010	-143.769	0.080	-0.008
-732.996	14.476	-0.149	-0.119
-731.981	134.306	-0.253	-0.336
-730.966	-86.574	0.244	-0.077
-729.952	-0.542	-0.125	-0.091
-728.937	69.731	-0.119	0.126
-727.923	70.574	0.134	-0.142
-726.908	91.000	-0.137	-0.158
-725.894	8.881	0.050	-0.039
-724.879	-200.000	-0.030	0.168
-723.864	800.000	0.013	0.043
-722.850	-200.000	0.015	-0.146
-721.835	-200.000	-0.016	-0.264
-720.821	-7.041	0.135	0.094
-719.806	27.745	-0.193	-0.166
-718.791	178.519	0.096	0.143
-717.777	-50.724	0.078	-0.037
-716.762	322.230	-0.033	-0.064
-715.748	-140.382	-0.121	-0.013
-714.733	3.621	0.032	-0.024
-713.718	39.409	0.299	0.274
-712.704	38.120	0.155	0.142
-711.689	655.523	0.073	0.191
-710.675	800.000	0.034	-0.112
-709.660	-200.000	-0.008	0.247
-708.645	-173.322	0.531	0.017
-707.631	-117.101	0.373	0.070
-706.616	62.613	0.094	0.096
-705.602	-94.898	0.202	0.056
-704.587	245.533	0.060	0.103
-703.572	-200.000	0.092	-0.417
-702.558	86.421	0.138	0.155
-701.543	-196.357	-0.142	0.001
-700.529	778.846	-0.071	-0.198
-699.514	-200.000	-0.002	0.112
-698.499	70.192	-0.091	0.096
-697.485	22.034	-0.245	0.205
-696.470	9.453	-0.203	-0.157
-695.456	-200.000	-0.005	0.142
-694.441	23.966	-0.188	0.159
-693.426	-200.000	0.232	0.000
-692.412	32.779	0.300	0.265
-691.397	395.812	0.027	0.058
-690.383	-56.339	-0.178	-0.081
-689.368	-22.105	-0.336	-0.209
-688.354	283.207	-0.104	-0.192
-687.339	39.415	-0.204	0.187
-686.324	46.474	0.079	-0.075
-685.310	-2.228	0.439	-0.315
-684.295	-41.922	-0.140	0.073
-683.281	59.279	-0.249	0.251
-682.266	800.000	-0.165	0.498
-681.251	159.421	-0.083	0.118
-680.237	-84.394	-0.249	-0.080
-679.222	179.421	0.024	-0.036
-678.208	-124.543	-0.203	0.032
-677.193	-200.000	0.024	0.272
-676.178	-84.285	-0.016	-0.005
-675.164	213.310	-0.095	-0.153
-674.149	800.000	0.055	-0.213
-673.135	240.735	0.249	0.425
-672.120	-169.547	-0.273	0.010
-671.105	-8.673	0.168	-0.115
-670.091	86.283	0.086	-0.096
-669.076	-200.000	-0.015	0.102
-668.062	800.000	0.042	0.157
-667.047	-12.231	0.353	-0.236
-666.032	167.915	0.051	0.074
-665.018	-42.344	0.082	0.043
-664.003	-59.515	0.168	-0.074
-662.989	800.000	-0.052	-0.198
-661.974	17.165	0.143	-0.116
-660.959	-200.000	0.007	-0.159
-659.945	800.000	-0.100	-0.376
-658.930	-15.054	-0.180	-0.118
-657.916	-31.373	0.325	-0.187
-656.901	258.987	-0.046	-0.080
-655.886	259.132	-0.169	-0.297
-654.872	-139.613	0.124	-0.014
-653.857	678.701	0.021	0.055
-652.843	153.711	-0.150	0.210
-651.828	16.056	-0.175	-0.141
-650.814	-200.000	0.009	0.078
-649.799	-144.228	0.130	-0.012
-648.784	-97.105	-0.262	-0.070
-647.770	44.706	-0.013	0.013
-646.755	457.902	-0.080	0.182
-645.741	320.045	0.199	0.385
-644.726	-123.923	0.296	-0.048
-643.711	190.528	0.178	-0.273
-642.697	18.145	0.130	-0.106
-641.682	-54.343	0.119	0.055
-640.668	-200.000	-0.011	-0.088
-639.653	161.001	-0.149	0.212
-638.638	-118.964	0.120	0.021
-637.624	800.000	0.073	0.246
-636.609	46.680	0.062	0.059
-635.595	315.372	-0.180	-0.346
-634.580	26.601	-0.147	0.125
-633.565	296.345	-0.050	-0.093
-632.551	-119.851	-0.356	0.063
-631.536	211.148	0.148	-0.238
-630.522	145.416	-0.092	-0.125
-629.507	800.000	-0.077	0.279
-628.492	-200.000	-0.062	-0.291
-627.478	18.860	-0.206	0.169
-626.463	-72.146	0.098	-0.037
-625.449	-149.447	0.206	-0.017
-624.434	-200.000	0.032	-0.257
-623.419	-82.803	0.183	0.060
-622.405	232.684	0.123	-0.207
-621.390	4.639	-0.214	0.160
-620.376	-8.665	-0.099	0.067
-619.361	-58.755	-0.200	0.088
-618.346	566.358	-0.055	0.137
-617.332	443.366	-0.104	0.232
-616.317	182.559	-0.147	0.221
-615.303	-200.000	-0.015	0.182
-614.288	31.123	-0.083	-0.072
-613.273	-200.000	0.023	0.302
-612.259	750.752	0.044	-0.122
-611.244	128.438	0.189	-0.246
-610.230	-200.000	-0.062	0.355
-609.215	123.112	0.084	0.107
-608.201	370.510	0.283	0.584
-607.186	203.461	-0.125	0.197
-606.171	299.078	-0.157	0.295
-605.157	117.245	0.170	0.213
-604.142	800.000	-0.029	-0.111
-603.128	-96.944	0.196	0.052
-602.113	-200.000	0.005	-0.107
-601.098	-103.531	-0.196	-0.047
-600.084	-51.795	0.067	0.032
-599.069	-27.165	0.156	-0.092
-598.055	-3.875	-0.104	-0.074
-597.040	34.865	0.129	-0.115
-596.025	-34.665	-0.084	-0.047
-595.011	-200.000	0.011	-0.153
-593.996	-145.349	-0.151	0.014
-592.982	800.000	-0.079	-0.244
-591.967	-134.472	0.217	-0.027
-590.952	800.000	-0.082	0.237
-589.938	48.403	-0.121	0.115
-588.923	149.325	0.087	0.120
-587.909	37.011	-0.120	-0.108
-586.894	800.000	-0.039	0.133
-585.879	-77.347	-0.299	-0.106
-584.865	492.803	-0.089	0.207
-583.850	249.940	0.216	0.373
-582.836	36.462	-0.192	-0.172
-581.821	616.453	0.133	-0.339
-580.806	270.639	-0.137	-0.245
-579.792	703.728	0.082	0.220
-578.777	800.000	-0.083	0.237
-577.763	-200.000	0.021	-0.177
-576.748	-11.042	-0.269	0.181
-575.733	-185.478	0.423	-0.007
-574.719	-71.813	0.148	0.056
-573.704	26.531	-0.199	0.169
-572.690	56.582	0.283	0.280
-571.675	36.857	0.171	-0.154
-570.661	-72.112	-0.258	0.098
-569.646	-122.559	-0.418	-0.069
-568.631	346.683	-0.104	-0.209
-567.617	6.996	-0.083	-0.063
-566.602	113.751	-0.104	0.129
-565.588	11.055	-0.153	-0.119
-564.573	-200.000	0.024	-0.176
-563.558	-75.629	-0.431	-0.156
-562.544	-99.323	-0.403	-0.103
-561.529	-91.189	-0.300	0.087
-560.515	-200.000	-0.039	0.260
-559.500	40.666	-0.205	0.188
-558.485	231.626	-0.029	0.048
-557.471	-80.327	0.362	0.123
-556.456	65.330	0.346	0.356
-555.442	-122.689	-0.330	0.054
-554.427	86.517	-0.075	0.084
-553.412	110.655	0.206	-0.252
-552.398	-126.531	-0.321	-0.048
-551.383	147.700	0.043	-0.059
-550.369	25.617	0.128	-0.108
-549.354	-200.000	0.018	0.256
-548.339	136.436	0.081	0.107
-547.325	-116.585	0.410	-0.077
-546.310	27.440	-0.139	0.118
-545.296	14.328	-0.029	0.023
-544.281	-14.257	-0.222	-0.145
-543.266	-142.991	0.317	-0.031
-542.252	-73.811	0.255	-0.094
-541.237	268.992	0.164	-0.292
-540.223	-50.146	0.063	-0.030
-539.208	41.480	0.102	0.094
-538.193	322.052	0.092	-0.179
-537.179	-200.000	0.042	-0.353
-536.164	-50.382	0.253	-0.121
-535.150	800.000	-0.075	-0.215
-534.135	-152.256	0.365	-0.027
-533.121	153.742	0.179	-0.249
-532.106	-142.462	-0.368	-0.037
-531.091	19.466	-0.106	0.086
-530.077	22.786	0.170	-0.142
-529.062	91.835	0.247	0.282
-528.048	37.207	-0.171	-0.154
-527.033	202.933	-0.031	0.049
-526.018	-200.000	0.033	-0.342
-525.004	41.271	-0.168	-0.154
-523.989	-30.148	0.156	0.090
-522.975	-136.215	-0.080	-0.010
-521.960	800.000	-0.078	0.249
-520.945	17.354	-0.165	0.133
-519.931	601.340	0.046	0.116
-518.916	-200.000	0.004	-0.363
-517.902	-180.845	-0.069	-0.001
-516.887	-99.264	0.254	0.065
-515.872	-104.944	0.270	-0.063
-514.858	31.248	-0.341	0.297
-513.843	-200.000	-0.076	-0.345
-512.829	46.291	-0.042	0.040
-511.814	622.582	0.058	0.149
-510.799	759.050	0.055	-0.150
-509.785	-64.776	0.084	-0.035
-508.770	-42.844	-0.179	-0.092
-507.756	167.542	-0.233	-0.336
-506.741	-200.000	-0.082	-0.367
-505.726	-128.714	-0.266	0.038
-504.712	-200.000	0.021	0.261
-503.697	-63.073	0.260	0.109
-502.683	-88.710	-0.298	-0.090
-501.668	-200.000	-0.010	-0.129
-500.653	-129.038	-0.013	0.002
-499.639	-72.106	0.256	0.096
-498.624	800.000	-0.090	-0.254
-497.610	-16.813	0.324	-0.208
-496.595	800.000	-0.021	-0.087
-495.581	-92.177	0.047	0.014
-494.566	-200.000	-0.019	0.106
-493.551	800.000	0.055	0.200
-492.537	-61.264	0.204	0.087
-491.522	-82.556	-0.317	0.104
-490.508	-89.591	-0.313	0.093
-489.493	-48.471	0.127	-0.062
-488.478	-51.540	-0.089	-0.042
-487.464	-200.000	0.087	-0.428
-486.449	29.479	-0.055	-0.048
-485.435	208.398	0.073	0.116
-484.420	-79.032	0.078	-0.027
-483.405	-55.181	-0.463	-0.211
-482.391	162.395	0.037	-0.053
-481.376	-200.000	0.002	0.078
-480.362	-148.078	-0.051	0.004
-479.347	424.144	-0.087	-0.189
-478.332	-200.000	-0.055	0.000
-477.318	244.495	-0.133	0.227
-476.303	-200.000	-0.028	0.189
-475.289	4.049	0.234	0.174
-474.274	-200.000	-0.027	0.236
-473.259	-200.000	-0.009	0.263
-472.245	-200.000	0.036	-0.447
-471.230	504.700	-0.057	0.133
-470.216	107.710	-0.194	-0.234
-469.201	63.216	-0.172	0.175
-468.186	-27.307	-0.191	-0.113
-467.172	22.084	0.167	-0.138
-466.157	-93.626	-0.355	-0.099
-465.143	-119.961	0.069	0.012
-464.128	-200.000	-0.021	-0.181
-463.113	-200.000	0.004	-0.267
-462.099	-93.859	-0.270	0.075
-461.084	218.444	-0.004	-0.006
-460.070	-200.000	0.032	0.256
-459.055	593.106	-0.043	0.108
-458.040	800.000	-0.071	0.202
-457.026	107.957	0.173	-0.208
-456.011	265.224	0.125	0.220
-454.997	141.608	0.046	0.062
-453.982	-200.000	0.007	0.220
-452.968	-200.000	0.015	0.257
-451.953	74.043	0.181	0.193
-450.938	-78.525	-0.434	0.150
-449.924	-109.230	0.297	-0.064
-448.909	-139.703	0.181	0.019
-447.895	187.719	-0.112	0.169
-446.880	-96.262	-0.288	-0.077
-445.865	148.077	0.058	0.079
-444.851	-104.190	-0.360	-0.085
-443.836	177.180	-0.042	-0.062
-442.822	-200.000	-0.007	-0.064
-441.807	162.354	-0.252	-0.358
-440.792	116.220	-0.164	0.203
-439.778	23.818	-0.266	0.222
-438.763	-161.670	-0.291	0.015
-437.749	-200.000	-0.054	0.329
-436.734	800.000	-0.058	-0.245
-435.719	-200.000	-0.001	-0.141
-434.705	3.231	-0.152	0.112
-433.690	-141.607	-0.152	-0.015
-432.676	-56.796	-0.228	0.102
-431.661	-200.000	0.000	-0.175
-430.646	-77.694	-0.073	-0.025
-429.632	127.737	0.371	-0.477
-428.617	-142.958	0.211	-0.021
-427.603	800.000	-0.065	0.216
-426.588	-26.022	-0.128	-0.076
-425.573	-28.268	0.131	-0.076
-424.559	205.053	-0.156	0.245
-423.544	-98.426	-0.248	0.064
-422.530	785.029	0.077	-0.212
-421.515	-190.968	0.313	-0.003
-420.500	-98.841	-0.267	-0.069
-419.486	89.228	0.173	-0.195
-418.471	-200.000	-0.007	-0.212
-417.457	-84.868	-0.267	0.085
-416.442	-200.000	-0.021	-0.101
-415.428	-32.748	-0.215	-0.121
-414.413	54.461	0.120	-0.117
-413.398	560.006	0.041	0.101
-412.384	-40.503	-0.074	0.039
-411.369	49.716	-0.229	0.219
-410.355	38.815	0.175	-0.158
-409.340	266.091	-0.105	0.186
-408.325	-120.298	-0.268	-0.046
-407.311	529.805	-0.115	0.275
-406.296	-200.000	-0.004	-0.171
-405.282	-158.064	0.299	0.018
-404.267	-136.449	-0.166	-0.020
-403.252	-47.538	0.185	-0.091
-402.238	800.000	0.024	0.098
-401.223	276.816	-0.137	0.246
-400.209	190.429	0.046	0.070
-399.194	800.000	-0.044	0.172
-398.179	-142.664	-0.145	0.014
-397.165	741.595	0.092	0.250
-396.150	118.563	0.045	0.056
-395.136	-91.106	-0.255	-0.074
-394.121	131.302	-0.162	-0.210
-393.106	-140.469	0.110	0.012
-392.092	146.419	-0.108	-0.147
-391.077	-19.155	-0.167	-0.105
-390.063	280.051	0.136	-0.246
-389.048	1.301	0.063	-0.046
-388.033	-200.000	0.046	0.324
-387.019	-200.000	0.013	0.065
-386.004	-85.637	-0.266	-0.083
-384.990	-16.170	-0.230	-0.148
-383.975	392.348	0.115	-0.241
-382.960	-170.895	-0.083	-0.003
-381.946	-147.492	-0.020	0.002
-380.931	155.807	-0.143	-0.199
-379.917	264.153	0.126	0.221
-378.902	-31.861	0.208	-0.118
-377.888	800.000	-0.121	-0.383
-376.873	-18.235	-0.168	0.106
-375.858	-120.260	0.149	-0.026
-374.844	300.203	-0.028	0.052
-373.829	-106.178	-0.324	0.073
-372.815	-181.436	-0.043	0.001
-371.800	-108.646	0.249	0.054
-370.785	-119.022	-0.346	0.061
-369.771	-126.954	-0.161	0.024
-368.756	108.724	0.128	-0.154
-367.742	-200.000	0.039	-0.339
-366.727	-106.320	0.173	-0.039
-365.712	238.220	0.214	0.359
-364.698	87.177	0.010	0.012
-363.683	-97.064	-0.163	-0.043
-362.669	-65.858	-0.109	0.044
-361.654	-21.534	0.164	-0.101
-360.639	92.784	-0.101	0.115
-359.625	-27.370	0.250	0.147
-358.610	-200.000	0.062	0.000
-357.596	-133.691	-0.161	-0.020
-356.581	25.859	0.300	-0.253
-355.566	800.000	0.055	-0.179
-354.552	474.431	0.096	0.218
-353.537	-200.000	-0.054	0.253
-352.523	177.508	0.138	0.203
-351.508	-48.828	-0.288	0.139
-350.493	800.000	-0.160	-0.512
-349.479	118.642	-0.071	0.088
-348.464	100.894	-0.193	0.226
-347.450	800.000	0.052	0.161
-346.435	-129.278	0.139	0.020
-345.420	-200.000	-0.003	0.149
-344.406	8.419	-0.093	0.070
-343.391	-166.756	0.140	0.006
-342.377	-64.579	-0.024	-0.010
-341.362	-82.981	-0.186	0.061
-340.348	-188.141	0.095	-0.001
-339.333	-28.992	0.211	-0.122
-338.318	13.129	0.148	-0.116
-337.304	13.289	0.200	-0.156
-336.289	-200.000	-0.015	-0.235
-335.275	298.810	-0.057	0.106
-334.260	-34.451	0.244	-0.135
-333.245	800.000	-0.011	-0.033
-332.231	-181.684	0.150	0.003
-331.216	151.785	0.177	0.243
-330.202	190.878	-0.179	0.272
-329.187	-23.849	-0.208	-0.125
-328.172	800.000	0.054	-0.224
-327.158	-200.000	0.008	0.228
-326.143	-200.000	0.013	0.182
-325.129	105.168	-0.172	0.205
-324.114	11.444	0.344	0.266
-323.099	669.541	0.050	-0.129
-322.085	-22.039	0.263	-0.161
-321.070	-22.793	-0.152	0.092
-320.056	93.693	-0.073	-0.084
-319.041	520.170	-0.047	0.112
-318.026	-152.708	-0.133	-0.010
-317.012	-80.616	-0.193	0.065
-315.997	-117.497	-0.327	0.060
-314.983	53.462	0.227	-0.219
-313.968	369.775	0.096	-0.195
-312.953	151.082	-0.256	0.350
-311.939	800.000	-0.059	0.177
-310.924	579.968	0.070	0.172
-309.910	523.986	-0.104	-0.246
-308.895	304.352	0.165	-0.309
-307.880	42.726	-0.173	-0.158
-306.866	-106.024	0.231	0.052
-305.851	22.850	0.121	-0.100
-304.837	-46.822	-0.069	-0.034
-303.822	-115.998	0.147	-0.028
-302.807	-36.154	-0.086	0.047
-301.793	-46.353	0.275	-0.136
-300.778	800.000	0.083	-0.337
-299.764	-89.716	-0.098	0.029
-298.749	695.607	-0.093	0.245
-297.735	-108.098	0.361	0.079
-296.720	111.424	-0.193	0.234
-295.705	-200.000	-0.002	-0.106
-294.691	-37.725	-0.278	0.149
-293.676	-200.000	0.054	-0.292
-292.662	-200.000	-0.024	-0.164
-291.647	-40.087	0.201	0.105
-290.632	-80.366	0.394	0.133
-289.618	-99.455	0.334	-0.085
-288.603	-163.913	-0.390	-0.018
-287.589	-200.000	0.035	-0.209
-286.574	-191.215	0.020	0.000
-285.559	-65.715	0.252	-0.102
-284.545	-200.000	0.023	-0.183
-283.530	-59.495	-0.046	-0.020
-282.516	229.515	-0.034	0.056
-281.501	569.552	0.102	0.249
-280.486	267.710	-0.025	-0.044
-279.472	-90.752	0.278	-0.081
-278.457	-31.678	0.305	-0.172
-277.443	772.257	-0.081	0.222
-276.428	-84.293	0.225	-0.072
-275.413	282.191	-0.070	0.127
-274.399	800.000	0.074	0.224
-273.384	-93.976	-0.164	-0.045
-272.370	142.321	-0.199	-0.266
-271.355	473.723	-0.195	-0.443
-270.340	620.096	-0.112	-0.284
-269.326	94.561	0.085	0.097
-268.311	800.000	0.116	0.435
-267.297	196.024	0.129	-0.197
-266.282	-118.349	-0.125	-0.022
-265.267	118.621	-0.067	0.083
-264.253	-200.000	-0.015	0.075
-263.238	-22.197	0.303	0.185
-262.224	-62.349	-0.177	0.074
-261.209	-200.000	0.055	-0.327
-260.195	-56.435	0.014	0.006
-259.180	-200.000	-0.004	0.130
-258.165	-102.970	0.199	0.048
-257.151	12.920	-0.166	0.129
-256.136	-22.849	0.377	-0.229
-255.122	175.701	-0.107	-0.156
-254.107	-1.548	0.393	-0.278
-253.092	-200.000	-0.006	-0.162
-252.078	800.000	-0.036	-0.141
-251.063	800.000	0.125	0.531
-250.049	-86.201	0.142	0.044
-249.034	-13.610	0.185	0.120
-248.019	-86.345	0.348	-0.108
-247.005	800.000	-0.066	0.282
-245.990	-164.837	0.232	-0.010
-244.976	-50.942	-0.153	-0.072
-243.961	800.000	0.095	-0.269
-242.946	-29.907	0.236	0.135
-241.932	-20.239	0.180	-0.112
-240.917	34.400	0.158	0.138
-239.903	800.000	0.075	0.232
-238.888	-56.167	0.383	0.171
-237.873	146.542	-0.031	-0.042
-236.859	-200.000	-0.055	-0.265
-235.844	416.255	0.091	-0.195
-234.830	800.000	-0.064	-0.217
-233.815	455.663	-0.050	-0.111
-232.800	-200.000	0.022	0.368
-231.786	54.783	-0.141	-0.136
-230.771	800.000	-0.010	-0.045
-229.757	-144.700	-0.290	-0.027
-228.742	736.727	0.029	-0.079
-227.727	317.411	0.162	-0.308
-226.713	-36.548	0.075	0.041
-225.698	-200.000	-0.042	0.192
-224.684	461.828	0.095	-0.212
-223.669	124.011	-0.195	-0.246
-222.655	-200.000	0.029	-0.179
-221.640	-134.853	0.114	0.014
-220.625	237.789	-0.169	-0.282
-219.611	-200.000	0.029	0.193
-218.596	195.199	0.044	0.067
-217.582	-200.000	-0.028	-0.283
-216.567	-69.160	-0.289	-0.111
-215.552	800.000	0.051	-0.176
-214.538	-200.000	-0.126	0.567
-213.523	-121.005	0.305	-0.051
-212.509	800.000	-0.069	0.215
-211.494	132.767	-0.050	0.064
-210.479	-93.363	-0.139	-0.039
-209.465	-121.400	-0.258	0.043
-208.450	217.421	0.068	-0.109
-207.436	-37.516	-0.200	0.107
-206.421	-200.000	-0.027	-0.231
-205.406	-42.111	-0.230	0.118
-204.392	149.867	-0.076	-0.104
-203.377	325.678	0.222	-0.426
-202.363	137.774	-0.025	-0.032
-201.348	-200.000	0.039	-0.319
-200.333	19.385	0.490	0.395
-199.319	-89.886	0.323	0.095
-198.304	444.779	0.095	-0.209
-197.290	35.352	0.054	0.047
-196.275	-100.015	0.147	-0.037
-195.260	88.805	0.140	0.157
-194.246	800.000	0.046	-0.140
-193.231	275.960	0.062	-0.110
-192.217	800.000	0.071	0.220
-191.202	-200.000	-0.040	0.299
-190.187	-200.000	-0.012	0.288
-189.173	-4.397	0.045	0.031
-188.158	-75.885	-0.225	0.080
-187.144	-200.000	-0.011	0.173
-186.129	-54.637	0.239	-0.108
-185.114	-200.000	-0.032	-0.253
-184.100	-76.139	0.145	-0.051
-183.085	-63.247	-0.067	0.028
-182.071	-30.803	0.172	0.097
-181.056	-84.234	-0.202	-0.064
-180.042	800.000	0.066	-0.260
-179.027	-82.640	0.084	0.027
-178.012	104.698	0.230	-0.272
-176.998	150.528	-0.043	-0.058
-175.983	800.000	0.046	0.147
-174.969	-80.636	0.171	-0.057
-173.954	753.859	-0.068	-0.183
-172.939	-123.818	-0.319	-0.051
-171.925	232.487	-0.098	0.160
-170.910	-50.736	0.117	-0.055
-169.896	82.682	-0.133	0.145
-168.881	-74.191	-0.070	0.025
-167.866	21.872	-0.126	0.103
-166.852	21.760	0.096	0.079
-165.837	-70.279	0.061	-0.023
-164.823	19.135	0.438	0.352
-163.808	-19.579	0.188	0.117
-162.793	800.000	-0.059	-0.229
-161.779	-63.356	-0.148	0.061
-160.764	-111.203	-0.319	-0.065
-159.750	6.628	-0.255	-0.190
-158.735	-116.334	0.348	0.065
-157.720	59.584	0.370	0.365
-156.706	-97.599	0.524	0.136
-155.691	73.829	-0.102	0.107
-154.677	3.490	-0.189	0.138
-153.662	10.998	0.276	0.211
-152.647	-63.477	0.196	0.081
-151.633	-106.720	-0.231	0.051
-150.618	-109.067	0.231	-0.049
-149.604	31.066	0.003	0.003
-148.589	34.932	0.202	0.177
-147.574	-200.000	-0.035	0.338
-146.560	-200.000	0.031	0.330
-145.545	31.473	0.050	0.043
-144.531	800.000	0.028	-0.095
-143.516	-121.141	0.266	-0.045
-142.502	34.006	0.052	0.045
-141.487	81.830	0.212	-0.230
-140.472	175.443	-0.064	-0.093
-139.458	240.463	0.196	-0.327
-138.443	800.000	0.064	0.218
-137.429	-12.011	-0.183	-0.120
-136.414	-121.125	0.376	0.063
-135.399	-169.920	-0.088	-0.003
-134.385	800.000	0.108	-0.378
-133.370	124.686	-0.226	0.284
-132.356	32.983	0.150	0.130
-131.341	-122.290	-0.207	0.034
-130.326	-132.192	0.499	-0.065
-129.312	421.382	-0.021	-0.045
-128.297	19.219	0.235	0.188
-127.283	-183.147	-0.112	-0.002
-126.268	-101.052	0.250	0.061
-125.253	127.014	0.100	0.126
-124.239	67.902	-0.166	0.169
-123.224	-28.978	-0.263	-0.151
-122.210	-200.000	-0.002	-0.016
-121.195	84.543	-0.089	-0.098
