DTS Sentinel unit serial number:	SN413079Multiplexer serial number:	ORYXHardware model number:	OX4-SRSoftware version number:	ORYX F/W v4.00 Oryx Data Collector v3.7.2.0data status	okinstallation	princeton_trtdifferential loss correction	single-endedforward channel	channel 4reverse channel	N/Adate	2019/09/15time	07:29:34forward acquisition time	60.00reverse acquisition time	0.00gamma	496.2192k internal	0.2311k external	0.2311temperature offset calibration	1.0031default loss term (dB/km)	0.3790temperature slope calibration	1.0000multiplexer offset coefficient	1.0000multiplexer slope coefficient	1.0000fibre end	0.00T internal ref (°C)	30.62T ext. ref 1 (°C)	4.91T ext. ref 2 (°C)	25.57length (m)	temperature (°C)	Stokes	anti-Stokes-747.200	800.000	0.064	0.234
-746.185	-83.486	-0.108	0.035
-745.171	360.029	0.077	0.157
-744.156	352.831	-0.119	0.240
-743.142	686.558	-0.086	0.228
-742.127	-26.634	-0.314	0.187
-741.112	-188.468	-0.120	-0.002
-740.098	294.701	0.033	0.062
-739.083	-21.908	-0.228	0.141
-738.069	-154.316	0.025	0.002
-737.054	-128.403	-0.256	0.037
-736.039	472.017	-0.071	-0.162
-735.025	428.676	-0.135	0.296
-734.010	18.411	-0.203	-0.165
-732.996	329.976	-0.183	-0.357
-731.981	-173.114	-0.030	-0.001
-730.966	800.000	0.018	-0.070
-729.952	37.355	-0.117	-0.105
-728.937	22.102	-0.047	-0.039
-727.923	-166.783	-0.339	0.014
-726.908	673.064	0.120	-0.316
-725.894	-150.497	-0.393	-0.031
-724.879	-66.845	0.316	-0.127
-723.864	800.000	-0.055	0.180
-722.850	54.815	0.083	-0.081
-721.835	800.000	-0.114	-0.345
-720.821	-125.651	-0.051	-0.008
-719.806	-61.161	-0.418	-0.179
-718.791	-120.622	0.013	-0.002
-717.777	-89.831	0.043	-0.013
-716.762	-11.809	-0.173	0.115
-715.748	800.000	-0.048	-0.159
-714.733	-118.469	0.222	-0.040
-713.718	800.000	-0.133	-0.539
-712.704	61.489	0.181	-0.182
-711.689	-103.419	0.159	0.038
-710.675	69.622	0.114	-0.119
-709.660	217.484	0.146	-0.236
-708.645	78.009	-0.118	-0.128
-707.631	-151.925	-0.423	-0.031
-706.616	800.000	0.096	-0.381
-705.602	86.239	-0.267	-0.298
-704.587	-79.823	-0.168	-0.057
-703.572	27.193	-0.103	0.088
-702.558	-200.000	-0.049	0.424
-701.543	-9.846	-0.202	0.136
-700.529	-125.723	0.181	0.028
-699.514	-200.000	-0.002	-0.054
-698.499	53.888	-0.124	0.121
-697.485	37.154	-0.207	-0.186
-696.470	-107.975	0.213	-0.047
-695.456	800.000	-0.030	0.118
-694.441	136.135	-0.074	0.098
-693.426	101.377	0.143	-0.169
-692.412	78.634	0.151	0.163
-691.397	-34.434	-0.136	0.075
-690.383	-25.675	0.158	-0.095
-689.368	-200.000	0.020	-0.126
-688.354	-200.000	-0.006	0.035
-687.339	40.449	0.161	-0.147
-686.324	800.000	0.033	-0.101
-685.310	-200.000	-0.070	0.361
-684.295	347.282	0.117	0.234
-683.281	-65.754	0.270	0.110
-682.266	83.906	-0.324	-0.358
-681.251	50.929	-0.225	0.216
-680.237	87.154	-0.350	0.392
-679.222	-200.000	-0.050	0.303
-678.208	245.035	0.188	-0.321
-677.193	-5.395	-0.333	0.232
-676.178	253.228	0.114	0.197
-675.164	800.000	0.055	-0.201
-674.149	-16.977	0.280	0.179
-673.135	103.264	-0.055	-0.065
-672.120	-121.923	-0.128	-0.021
-671.105	-123.717	-0.105	0.017
-670.091	69.024	-0.140	0.146
-669.076	-39.884	0.114	-0.060
-668.062	104.188	0.138	-0.164
-667.047	615.796	-0.032	0.080
-666.032	-56.134	-0.107	0.048
-665.018	72.882	-0.165	-0.175
-664.003	-124.019	0.298	-0.047
-662.989	142.880	0.141	-0.189
-661.974	-200.000	-0.269	0.001
-660.959	9.053	0.201	-0.154
-659.945	800.000	0.065	0.277
-658.930	94.171	0.106	-0.121
-657.916	320.355	0.139	-0.267
-656.901	58.029	-0.264	-0.262
-655.886	-130.806	-0.323	-0.044
-654.872	143.088	-0.121	0.163
-653.857	-72.300	-0.529	0.198
-652.843	-7.019	0.120	0.083
-651.828	-10.349	0.400	-0.268
-650.814	-186.602	0.068	0.001
-649.799	-200.000	-0.058	-0.327
-648.784	-114.443	-0.237	-0.046
-647.770	231.617	-0.063	-0.105
-646.755	-200.000	-0.020	-0.351
-645.741	115.387	-0.120	0.148
-644.726	-200.000	-0.028	0.135
-643.711	91.370	-0.145	0.165
-642.697	-1.955	0.234	0.166
-641.682	292.061	-0.056	0.103
-640.668	-200.000	-0.013	-0.103
-639.653	800.000	-0.070	-0.264
-638.638	-200.000	-0.016	-0.183
-637.624	38.856	-0.123	-0.111
-636.609	435.177	0.134	-0.294
-635.595	174.087	0.078	-0.114
-634.580	-16.473	0.302	-0.194
-633.565	-53.184	0.314	-0.146
-632.551	657.438	0.051	-0.132
-631.536	-0.944	-0.279	-0.200
-630.522	176.644	0.142	-0.209
-629.507	-200.000	-0.033	-0.149
-628.492	-72.967	-0.078	-0.029
-627.478	21.952	0.099	-0.082
-626.463	-144.925	-0.267	0.025
-625.449	292.802	0.079	-0.145
-624.434	140.940	-0.080	0.107
-623.419	-107.418	-0.463	-0.103
-622.405	236.869	0.132	0.221
-621.390	56.436	-0.312	-0.306
-620.376	-142.034	-0.236	-0.024
-619.361	-200.000	0.021	-0.218
-618.346	-34.719	-0.139	-0.077
-617.332	90.284	0.224	0.254
-616.317	-200.000	-0.021	0.098
-615.303	-21.618	-0.115	-0.071
-614.288	291.915	-0.122	0.224
-613.273	-200.000	0.009	0.092
-612.259	252.036	-0.129	-0.221
-611.244	48.215	0.115	-0.108
-610.230	-28.141	-0.258	0.151
-609.215	-78.020	0.128	-0.045
-608.201	-136.228	0.240	-0.028
-607.186	-36.364	-0.264	-0.143
-606.171	-133.299	-0.119	0.015
-605.157	5.132	0.196	0.146
-604.142	-46.709	-0.156	0.077
-603.128	-74.953	-0.169	0.061
-602.113	121.616	0.150	-0.189
-601.098	400.661	0.112	-0.237
-600.084	-11.855	-0.172	-0.114
-599.069	-129.193	-0.111	-0.016
-598.055	-200.000	-0.004	0.123
-597.040	181.679	-0.096	0.143
-596.025	-113.532	-0.060	-0.012
-595.011	-150.127	0.097	-0.008
-593.996	616.131	0.040	0.101
-592.982	355.688	0.042	0.084
-591.967	124.462	0.165	-0.210
-590.952	-200.000	0.002	0.088
-589.938	-13.189	-0.225	0.148
-588.923	-159.169	0.135	0.008
-587.909	568.520	0.025	0.062
-586.894	-177.010	-0.049	-0.001
-585.879	-34.842	-0.225	-0.124
-584.865	-122.666	0.125	-0.020
-583.850	-200.000	0.012	0.106
-582.836	-200.000	0.014	-0.079
-581.821	-34.661	-0.527	-0.291
-580.806	-164.845	0.284	0.013
-579.792	-200.000	0.034	0.161
-578.777	-200.000	0.010	-0.063
-577.763	157.885	-0.073	0.102
-576.748	-8.142	-0.208	-0.141
-575.733	-101.145	-0.030	0.008
-574.719	107.516	0.255	0.306
-573.704	-200.000	0.043	-0.237
-572.690	800.000	0.006	0.017
-571.675	-102.423	-0.269	0.065
-570.661	89.081	-0.134	0.150
-569.646	-115.079	0.277	0.053
-568.631	225.242	0.114	0.186
-567.617	611.738	-0.081	0.203
-566.602	283.347	0.097	0.175
-565.588	-28.171	0.076	0.045
-564.573	32.554	0.140	0.122
-563.558	190.865	-0.080	0.122
-562.544	2.395	0.236	0.172
-561.529	-51.228	0.216	0.102
-560.515	711.189	0.066	0.176
-559.500	-200.000	0.018	0.105
-558.485	-190.773	-0.162	0.002
-557.471	-191.037	-0.387	-0.004
-556.456	70.484	-0.088	0.092
-555.442	6.919	0.096	-0.072
-554.427	-74.924	0.259	0.093
-553.412	-200.000	0.034	0.162
-552.398	-200.000	-0.003	-0.547
-551.383	-94.964	0.238	-0.065
-550.369	46.947	0.345	0.323
-549.354	118.896	-0.200	-0.249
-548.339	-127.080	0.051	0.008
-547.325	123.495	-0.164	0.207
-546.310	-107.904	-0.357	-0.078
-545.296	472.561	-0.022	0.049
-544.281	234.706	0.060	-0.100
-543.266	26.429	0.133	0.112
-542.252	-54.790	-0.146	-0.066
-541.237	-200.000	-0.026	-0.189
-540.223	-200.000	0.002	0.299
-539.208	-39.416	0.130	0.069
-538.193	2.356	-0.030	-0.022
-537.179	217.602	0.050	0.081
-536.164	-117.806	-0.140	0.025
-535.150	218.006	0.064	0.104
-534.135	-200.000	-0.002	-0.015
-533.121	-200.000	-0.017	-0.279
-532.106	-40.204	-0.380	0.199
-531.091	-31.617	-0.122	-0.069
-530.077	800.000	0.030	-0.100
-529.062	-1.238	0.234	0.166
-528.048	-200.000	0.015	-0.344
-527.033	-115.162	0.013	-0.002
-526.018	-63.403	-0.053	-0.022
-525.004	-200.000	0.071	0.446
-523.989	58.918	-0.199	0.197
-522.975	-97.967	-0.161	0.042
-521.960	222.182	0.131	-0.212
-520.945	-54.285	-0.244	-0.111
-519.931	86.456	0.056	0.063
-518.916	85.911	0.090	0.099
-517.902	187.598	-0.143	-0.215
-516.887	-127.805	0.219	-0.032
-515.872	21.567	-0.119	-0.097
-514.858	-151.755	0.350	-0.026
-513.843	800.000	-0.110	0.321
-512.829	555.522	-0.086	0.209
-511.814	147.846	0.131	0.178
-510.799	106.242	-0.143	-0.170
-509.785	92.085	0.087	-0.099
-508.770	-20.684	-0.056	-0.035
-507.756	-6.724	-0.099	-0.068
-506.741	-59.641	0.125	-0.054
-505.726	17.699	-0.085	-0.068
-504.712	-128.631	-0.310	0.044
-503.697	-22.754	0.073	0.045
-502.683	-46.423	0.092	0.045
-501.668	-41.831	-0.073	0.038
-500.653	800.000	0.072	0.204
-499.639	-141.368	-0.140	0.014
-498.624	-121.873	0.138	0.023
-497.610	-200.000	0.021	0.175
-496.595	-200.000	-0.004	-0.263
-495.581	-147.383	0.187	0.016
-494.566	70.472	0.224	-0.233
-493.551	-200.000	0.005	-0.032
-492.537	-154.596	0.245	0.016
-491.522	526.622	0.085	-0.202
-490.508	-23.235	0.129	0.078
-489.493	136.237	0.104	0.137
-488.478	126.967	-0.058	-0.073
-487.464	174.837	-0.032	-0.047
-486.449	-90.649	0.162	0.047
-485.435	-138.520	0.139	0.015
-484.420	267.603	0.137	-0.240
-483.405	42.940	-0.194	0.178
-482.391	155.304	-0.011	-0.015
-481.376	-200.000	0.044	0.238
-480.362	15.870	0.054	-0.042
-479.347	-114.570	-0.422	0.081
-478.332	593.914	0.096	0.240
-477.318	800.000	0.021	0.059
-476.303	437.938	-0.088	0.192
-475.289	-140.553	0.207	-0.022
-474.274	-2.222	-0.257	-0.181
-473.259	-176.852	0.276	-0.007
-472.245	533.068	-0.051	-0.121
-471.230	-200.000	0.012	-0.130
-470.216	6.928	-0.178	-0.133
-469.201	-143.796	0.396	-0.038
-468.186	-105.212	-0.233	0.053
-467.172	-200.000	0.031	-0.165
-466.157	800.000	-0.013	-0.046
-465.143	262.497	-0.143	-0.249
-464.128	-24.389	-0.120	0.072
-463.113	318.173	-0.042	0.079
-462.099	139.268	0.069	-0.091
-461.084	-96.167	-0.256	0.068
-460.070	746.880	0.103	0.279
-459.055	-200.000	-0.017	0.254
-458.040	-121.812	-0.260	0.043
-457.026	-17.685	-0.234	-0.148
-456.011	318.131	0.195	0.370
-454.997	516.009	-0.077	-0.180
-453.982	-37.712	-0.091	0.049
-452.968	495.637	0.085	0.196
-451.953	-148.774	0.079	0.006
-450.938	57.539	-0.103	-0.101
-449.924	-90.874	0.061	0.018
-448.909	42.742	-0.078	-0.072
-447.895	-138.509	-0.150	0.017
-446.880	115.736	-0.088	-0.108
-445.865	248.688	-0.081	0.138
-444.851	-71.743	-0.348	0.130
-443.836	-200.000	-0.030	0.298
-442.822	-142.040	-0.351	-0.035
-441.807	800.000	0.017	-0.048
-440.792	-64.096	0.216	0.088
-439.778	-35.835	0.209	0.113
-438.763	-11.249	-0.049	-0.032
-437.749	-56.401	0.206	0.092
-436.734	542.309	0.052	-0.124
-435.719	11.881	0.030	0.023
-434.705	75.950	0.086	-0.091
-433.690	-135.009	0.014	0.002
-432.676	490.090	0.098	0.224
-431.661	-7.755	0.238	-0.161
-430.646	461.166	0.127	0.284
-429.632	-73.792	-0.352	0.128
-428.617	-36.123	-0.218	-0.118
-427.603	-200.000	-0.041	-0.296
-426.588	-200.000	0.014	0.095
-425.573	-200.000	-0.013	-0.204
-424.559	-200.000	-0.027	-0.178
-423.544	800.000	-0.048	0.180
-422.530	-147.588	-0.191	0.016
-421.515	800.000	-0.081	-0.238
-420.500	596.489	0.083	-0.207
-419.486	800.000	0.051	-0.205
-418.471	68.562	0.091	-0.094
-417.457	743.798	0.117	-0.316
-416.442	-200.000	-0.018	0.128
-415.428	-42.428	0.156	0.080
-414.413	290.960	0.196	-0.358
-413.398	-157.622	0.172	0.010
-412.384	800.000	-0.043	0.133
-411.369	-117.694	-0.055	-0.010
-410.355	13.685	0.389	-0.303
-409.340	109.619	-0.028	-0.033
-408.325	548.624	0.057	0.137
-407.311	411.126	0.105	0.223
-406.296	-200.000	0.052	0.265
-405.282	47.655	-0.212	-0.198
-404.267	70.466	-0.116	0.120
-403.252	257.699	-0.083	0.144
-402.238	-200.000	0.038	0.230
-401.223	-75.529	0.201	-0.072
-400.209	94.661	-0.024	0.028
-399.194	-65.814	0.243	-0.097
-398.179	-200.000	0.007	-0.067
-397.165	-101.331	0.219	0.053
-396.150	39.760	-0.120	-0.108
-395.136	239.976	-0.175	-0.292
-394.121	53.395	0.131	0.126
-393.106	-72.806	0.122	-0.045
-392.092	-88.834	0.137	0.041
-391.077	256.065	0.094	-0.161
-390.063	237.867	-0.144	-0.239
-389.048	191.405	-0.133	0.200
-388.033	-126.829	0.247	-0.037
-387.019	137.233	0.026	0.034
-386.004	-77.479	0.293	-0.102
-384.990	-46.441	-0.206	0.101
-383.975	-63.987	-0.095	-0.039
-382.960	-200.000	-0.037	0.317
-381.946	-6.816	0.182	0.124
-380.931	311.578	-0.076	0.143
-379.917	32.645	-0.133	0.115
-378.902	528.641	-0.186	-0.438
-377.888	800.000	0.042	-0.128
-376.873	-58.055	0.228	0.100
-375.858	-179.733	0.420	-0.009
-374.844	-117.173	-0.263	0.048
-373.829	-152.801	-0.203	-0.014
-372.815	-200.000	-0.008	0.076
-371.800	355.277	0.129	0.256
-370.785	254.805	-0.059	0.101
-369.771	-200.000	0.008	0.097
-368.756	124.701	-0.151	0.190
-367.742	-23.306	-0.125	0.075
-366.727	-200.000	0.009	-0.152
-365.712	18.983	0.210	0.168
-364.698	-111.680	0.076	0.015
-363.683	-200.000	0.045	0.211
-362.669	321.529	-0.020	0.039
-361.654	-200.000	0.043	0.276
-360.639	491.590	0.139	0.319
-359.625	-101.533	0.270	-0.066
-358.610	-200.000	-0.058	0.265
-357.596	-87.338	-0.284	-0.086
-356.581	-13.453	0.292	0.189
-355.566	77.860	-0.250	-0.266
-354.552	22.019	-0.124	-0.101
-353.537	-57.268	0.248	0.109
-352.523	-60.114	0.141	-0.060
-351.508	21.861	0.377	0.307
-350.493	-80.194	-0.194	-0.065
-349.479	7.021	-0.230	-0.171
-348.464	-44.812	0.034	0.017
-347.450	-200.000	0.020	-0.413
-346.435	-177.975	-0.270	-0.006
-345.420	-200.000	-0.026	-0.177
-344.406	-133.004	0.336	-0.043
-343.391	371.766	-0.021	0.042
-342.377	5.431	-0.173	0.128
-341.362	398.474	-0.037	-0.077
-340.348	24.912	-0.050	-0.041
-339.333	-200.000	0.006	0.250
-338.318	47.138	-0.103	-0.096
-337.304	-150.764	0.308	0.023
-336.289	-134.795	0.260	0.032
-335.275	67.917	-0.167	-0.171
-334.260	283.425	0.172	-0.309
-333.245	-200.000	0.007	0.044
-332.231	43.753	0.047	0.043
-331.216	-68.247	0.113	0.044
-330.202	-73.154	0.360	-0.132
-329.187	381.002	-0.087	0.178
-328.172	155.028	-0.079	-0.109
-327.158	-200.000	0.019	0.140
-326.143	-2.372	0.278	0.195
-325.129	54.737	0.208	0.200
-324.114	-149.716	0.481	0.038
-323.099	339.929	0.089	0.174
-322.085	776.358	0.074	-0.202
-321.070	-200.000	0.012	-0.167
-320.056	-50.307	-0.113	0.053
-319.041	294.944	-0.179	-0.326
-318.026	800.000	-0.055	0.203
-317.012	68.043	0.029	-0.029
-315.997	-109.421	-0.151	0.032
-314.983	679.442	-0.100	0.260
-313.968	81.454	-0.192	-0.207
-312.953	800.000	-0.023	0.099
-311.939	-120.441	-0.193	-0.033
-310.924	-21.917	-0.044	-0.027
-309.910	800.000	0.030	0.091
-308.895	-18.569	-0.122	0.076
-307.880	130.012	0.216	0.275
-306.866	-29.826	-0.060	-0.034
-305.851	-157.403	-0.142	-0.009
-304.837	-17.101	-0.137	-0.086
-303.822	-91.784	-0.297	-0.084
-302.807	72.579	0.085	-0.088
-301.793	108.178	0.214	-0.254
-300.778	800.000	0.035	0.144
-299.764	800.000	-0.066	-0.229
-298.749	84.550	0.161	0.176
-297.735	-37.085	0.080	-0.043
-296.720	2.963	-0.232	0.168
-295.705	-68.782	0.226	0.087
-294.691	44.871	-0.223	0.204
-293.676	-5.041	0.171	0.118
-292.662	5.182	-0.042	-0.031
-291.647	-47.788	-0.238	0.115
-290.632	-13.256	-0.140	0.091
-289.618	-60.310	0.307	-0.131
-288.603	-124.550	0.164	0.025
-287.589	54.987	0.042	-0.041
-286.574	-85.515	-0.142	-0.044
-285.559	-200.000	0.016	-0.257
-284.545	-160.430	0.124	0.007
-283.530	134.383	-0.192	-0.248
-282.516	162.475	-0.191	0.267
-281.501	800.000	-0.072	0.212
-280.486	39.155	-0.143	-0.128
-279.472	800.000	0.027	0.077
-278.457	-144.866	0.168	0.015
-277.443	800.000	-0.014	-0.038
-276.428	800.000	-0.066	-0.204
-275.413	-200.000	-0.030	0.271
-274.399	104.843	-0.122	-0.144
-273.384	-115.196	-0.016	-0.003
-272.370	-166.167	-0.234	0.010
-271.355	-200.000	-0.008	-0.058
-270.340	6.844	0.387	0.287
-269.326	-200.000	-0.022	0.220
-268.311	-9.778	0.171	0.113
-267.297	-2.384	0.154	0.108
-266.282	-101.507	0.072	-0.018
-265.267	-72.438	-0.406	0.150
-264.253	-51.809	0.081	-0.038
-263.238	800.000	0.064	-0.221
-262.224	78.097	0.140	-0.149
-261.209	476.485	-0.114	-0.257
-260.195	-200.000	-0.010	0.054
-259.180	433.833	-0.061	0.133
-258.165	648.725	-0.040	-0.101
-257.151	-84.681	0.208	0.065
-256.136	181.767	0.078	0.115
-255.122	29.149	0.171	-0.144
-254.107	408.416	0.079	-0.167
-253.092	274.718	-0.036	-0.063
-252.078	-59.262	-0.158	0.068
-251.063	20.991	0.037	0.030
-250.049	-116.042	-0.136	0.025
-249.034	210.448	0.243	-0.380
-248.019	-200.000	-0.008	-0.354
-247.005	88.453	-0.248	-0.275
-245.990	-21.513	0.276	0.168
-244.976	26.973	-0.107	0.089
-243.961	-86.641	-0.210	0.064
-242.946	-54.409	-0.171	-0.077
-241.932	800.000	0.037	-0.112
-240.917	769.316	-0.156	-0.424
-239.903	-200.000	0.013	-0.167
-238.888	-105.795	-0.117	-0.026
-237.873	-62.996	-0.142	0.059
-236.859	380.639	0.118	0.241
-235.844	-200.000	-0.001	0.003
-234.830	-200.000	0.008	0.236
-233.815	-164.852	0.124	-0.006
-232.800	-92.583	-0.221	0.062
-231.786	-200.000	0.024	-0.186
-230.771	-93.094	-0.146	0.040
-229.757	-71.481	-0.126	-0.047
-228.742	-60.101	0.181	-0.077
-227.727	123.391	-0.220	0.274
-226.713	-154.415	-0.170	0.011
-225.698	-121.753	-0.116	0.019
-224.684	124.312	-0.090	-0.113
-223.669	-200.000	0.058	0.474
-222.655	42.783	0.237	-0.215
-221.640	-126.689	-0.478	-0.070
-220.625	-200.000	0.012	0.257
-219.611	-200.000	0.009	-0.267
-218.596	429.020	-0.110	-0.235
-217.582	-200.000	0.018	0.294
-216.567	-200.000	0.003	-0.147
-215.552	60.500	-0.072	-0.071
-214.538	-8.044	-0.292	-0.196
-213.523	94.509	0.227	-0.256
-212.509	269.821	-0.074	-0.129
-211.494	273.456	0.084	-0.147
-210.479	488.293	0.129	0.294
-209.465	-122.903	0.130	0.021
-208.450	364.905	0.069	-0.137
-207.436	81.151	0.248	0.266
-206.421	-200.000	0.014	0.145
-205.406	24.728	0.307	-0.252
-204.392	800.000	0.147	0.405
-203.377	484.303	0.084	0.190
-202.363	-72.640	-0.208	-0.076
-201.348	-44.960	0.199	0.098
-200.333	-65.083	0.155	0.062
-199.319	-18.083	-0.146	0.091
-198.304	-30.685	0.315	0.177
-197.290	-200.000	0.012	-0.162
-196.275	-99.242	-0.244	0.061
-195.260	-200.000	-0.017	-0.092
-194.246	6.266	0.110	-0.081
-193.231	-11.526	0.075	-0.049
-192.217	435.152	0.064	-0.139
-191.202	657.390	-0.021	-0.054
-190.187	800.000	0.069	0.244
-189.173	-125.940	0.430	0.064
-188.158	-21.997	-0.042	0.026
-187.144	85.238	0.101	-0.110
-186.129	181.218	0.225	0.329
-185.114	-130.089	-0.257	0.035
-184.100	366.355	0.040	0.079
-183.085	-21.357	0.080	0.048
-182.071	612.297	0.063	0.157
-181.056	5.133	-0.241	-0.177
-180.042	-200.000	-0.029	0.224
-179.027	-200.000	0.011	-0.382
-178.012	457.824	-0.136	-0.300
-176.998	-200.000	0.019	-0.539
-175.983	-200.000	-0.036	-0.258
-174.969	-47.617	0.232	0.112
-173.954	370.660	-0.114	0.230
-172.939	-144.647	0.359	0.033
-171.925	379.203	0.157	-0.319
-170.910	31.259	-0.115	-0.098
-169.896	-200.000	-0.006	-0.112
-168.881	31.166	-0.172	-0.147
-167.866	-200.000	0.067	-0.345
-166.852	-7.137	-0.212	-0.142
-165.837	-200.000	-0.042	0.248
-164.823	-42.335	-0.108	0.055
-163.808	800.000	0.019	-0.069
-162.793	-200.000	0.032	0.274
-161.779	-59.504	0.048	0.020
-160.764	-37.609	-0.218	0.115
-159.750	-131.780	0.427	-0.055
-158.735	-200.000	-0.120	0.547
-157.720	-200.000	-0.008	0.180
-156.706	-200.000	-0.007	-0.041
-155.691	-151.562	-0.185	0.014
-154.677	-15.174	-0.069	0.044
-153.662	-36.063	0.139	0.074
-152.647	800.000	-0.068	-0.262
-151.633	-163.902	-0.287	0.013
-150.618	-15.318	0.145	-0.092
-149.604	579.594	-0.126	0.306
-148.589	-110.374	0.133	-0.027
-147.574	-159.624	-0.374	-0.021
-146.560	-3.924	0.284	0.195
-145.545	-90.974	-0.013	-0.004
-144.531	-144.661	0.197	0.018
-143.516	-50.566	-0.135	-0.063
-142.502	70.960	-0.223	0.229
-141.487	-114.994	-0.175	0.033
-140.472	8.813	-0.126	0.094
-139.458	101.230	0.051	0.058
-138.443	1.939	-0.222	0.159
-137.429	-200.000	-0.030	0.175
-136.414	165.072	-0.041	0.057
-135.399	-200.000	-0.014	0.344
-134.385	6.535	0.359	0.264
-133.370	-130.292	-0.140	-0.019
-132.356	18.827	-0.215	0.171
-131.341	-115.538	0.170	-0.032
-130.326	536.441	0.153	0.361
-129.312	-70.221	-0.166	-0.063
-128.297	-71.093	-0.096	-0.036
-127.283	71.999	0.084	0.087
-126.268	195.214	0.105	0.158
-125.253	-19.301	-0.286	0.176
-124.239	251.407	0.128	-0.216
-123.224	-47.876	-0.112	0.054
-122.210	-155.443	0.129	0.008
-121.195	-200.000	0.002	0.140
