DTS Sentinel unit serial number:	SN413079Multiplexer serial number:	ORYXHardware model number:	OX4-SRSoftware version number:	ORYX F/W v4.00 Oryx Data Collector v3.7.2.0data status	okinstallation	princeton_trtdifferential loss correction	single-endedforward channel	channel 4reverse channel	N/Adate	2019/09/18time	08:53:34forward acquisition time	60.00reverse acquisition time	0.00gamma	496.2192k internal	0.2325k external	0.2325temperature offset calibration	0.9987default loss term (dB/km)	0.3790temperature slope calibration	1.0000multiplexer offset coefficient	1.0000multiplexer slope coefficient	1.0000fibre end	0.00T internal ref (°C)	24.87T ext. ref 1 (°C)	0.24T ext. ref 2 (°C)	20.99length (m)	temperature (°C)	Stokes	anti-Stokes-747.200	19.425	0.248	0.201
-746.185	42.858	-0.017	0.015
-745.171	-157.502	-0.081	0.005
-744.156	-150.197	0.024	-0.002
-743.142	-121.241	0.243	-0.041
-742.127	-37.629	0.050	0.027
-741.112	61.624	-0.133	0.133
-740.098	373.899	-0.119	0.244
-739.083	-75.712	-0.233	0.083
-738.069	259.476	-0.191	0.333
-737.054	291.721	0.129	0.237
-736.039	-108.805	-0.431	-0.093
-735.025	-95.168	0.177	-0.048
-734.010	800.000	-0.096	0.293
-732.996	334.669	0.135	-0.265
-731.981	-115.560	-0.246	0.047
-730.966	82.329	-0.292	0.320
-729.952	-182.388	-0.250	0.005
-728.937	-22.768	0.274	0.167
-727.923	235.352	-0.160	-0.266
-726.908	224.705	-0.078	-0.127
-725.894	-28.527	-0.440	-0.256
-724.879	301.708	-0.158	-0.295
-723.864	800.000	0.073	-0.212
-722.850	-200.000	0.014	-0.132
-721.835	219.024	-0.089	-0.143
-720.821	56.504	-0.185	0.181
-719.806	-112.074	0.114	-0.023
-718.791	-110.828	-0.321	0.067
-717.777	-140.909	0.147	0.015
-716.762	39.948	-0.115	0.104
-715.748	-132.513	0.271	0.035
-714.733	21.703	0.149	0.123
-713.718	28.092	0.025	-0.021
-712.704	-159.875	0.247	0.014
-711.689	482.878	-0.044	-0.101
-710.675	-11.986	0.233	0.154
-709.660	155.061	0.063	0.087
-708.645	-31.695	0.376	-0.213
-707.631	-200.000	0.044	-0.270
-706.616	800.000	-0.050	0.210
-705.602	157.803	0.159	0.223
-704.587	203.831	-0.100	-0.156
-703.572	135.796	0.074	0.097
-702.558	-69.659	0.285	0.110
-701.543	394.916	-0.066	-0.139
-700.529	30.008	0.254	-0.218
-699.514	-27.932	0.271	0.158
-698.499	-176.508	-0.091	0.002
-697.485	-70.069	-0.083	0.032
-696.470	732.754	0.062	-0.168
-695.456	5.290	-0.040	-0.030
-694.441	-75.850	-0.233	-0.083
-693.426	-71.985	0.151	0.057
-692.412	-82.865	0.272	-0.088
-691.397	800.000	-0.085	0.269
-690.383	-200.000	-0.004	0.031
-689.368	-65.834	-0.218	-0.088
-688.354	-5.573	-0.203	-0.140
-687.339	-200.000	0.054	-0.381
-686.324	-61.677	-0.262	0.111
-685.310	404.127	-0.106	0.224
-684.295	551.106	-0.038	0.091
-683.281	440.556	0.174	-0.384
-682.266	32.246	0.225	0.196
-681.251	-97.497	-0.038	-0.010
-680.237	-72.728	0.221	-0.082
-679.222	340.738	-0.262	-0.514
-678.208	-139.856	0.356	-0.038
-677.193	-78.275	-0.153	0.053
-676.178	698.408	-0.098	-0.258
-675.164	-163.014	-0.361	-0.018
-674.149	112.736	-0.106	0.129
-673.135	-200.000	0.008	-0.276
-672.120	-30.073	-0.291	0.167
-671.105	-200.000	-0.011	-0.115
-670.091	-46.157	-0.342	-0.169
-669.076	55.144	-0.187	-0.182
-668.062	-200.000	-0.023	-0.154
-667.047	-200.000	-0.079	-0.410
-666.032	124.661	-0.055	-0.070
-665.018	486.776	-0.066	0.152
-664.003	331.279	0.211	0.410
-662.989	278.819	-0.123	-0.221
-661.974	-69.188	-0.101	-0.039
-660.959	50.717	0.143	-0.136
-659.945	-200.000	-0.001	0.034
-658.930	800.000	0.074	-0.285
-657.916	-200.000	-0.028	0.241
-656.901	-41.980	0.415	0.214
-655.886	28.654	-0.227	-0.194
-654.872	-144.151	-0.262	-0.025
-653.857	-200.000	-0.007	0.148
-652.843	318.847	-0.049	-0.093
-651.828	-200.000	-0.073	-0.355
-650.814	15.268	-0.425	-0.335
-649.799	66.166	0.175	-0.178
-648.784	-62.787	-0.120	0.050
-647.770	-107.645	-0.312	-0.069
-646.755	-62.329	-0.091	-0.038
-645.741	473.147	-0.010	0.023
-644.726	536.010	-0.073	-0.174
-643.711	-82.354	-0.163	-0.053
-642.697	-47.377	-0.111	0.054
-641.682	-28.807	-0.323	0.187
-640.668	-125.419	-0.153	-0.024
-639.653	-42.735	-0.131	-0.067
-638.638	45.227	0.093	-0.086
-637.624	800.000	-0.059	-0.212
-636.609	80.506	-0.182	0.197
-635.595	-165.209	-0.137	-0.006
-634.580	-111.319	-0.161	0.033
-633.565	533.360	-0.066	0.157
-632.551	-200.000	-0.047	-0.210
-631.536	-200.000	0.038	-0.435
-630.522	285.918	-0.123	-0.223
-629.507	-70.838	-0.092	-0.035
-628.492	-43.569	-0.306	0.155
-627.478	285.111	0.168	0.303
-626.463	-52.240	0.168	0.078
-625.449	-200.000	-0.096	0.443
-624.434	264.807	0.104	-0.182
-623.419	-200.000	0.032	0.141
-622.405	-164.850	-0.400	0.018
-621.390	546.936	-0.165	0.397
-620.376	285.821	-0.089	-0.161
-619.361	-142.679	-0.059	-0.006
-618.346	79.208	-0.191	0.206
-617.332	307.864	-0.031	0.058
-616.317	476.611	0.158	0.360
-615.303	-64.882	-0.240	0.098
-614.288	-171.638	-0.208	-0.007
-613.273	-150.715	-0.171	-0.013
-612.259	-129.094	-0.125	-0.018
-611.244	239.638	-0.174	-0.291
-610.230	-49.727	0.204	-0.097
-609.215	498.843	0.100	0.232
-608.201	92.941	0.285	0.324
-607.186	145.158	0.139	-0.187
-606.171	-55.283	0.137	-0.062
-605.157	264.921	-0.140	0.245
-604.142	-159.981	-0.204	0.011
-603.128	56.202	-0.037	0.036
-602.113	-69.652	0.148	-0.057
-601.098	-173.067	0.144	0.004
-600.084	-200.000	-0.011	0.304
-599.069	27.308	-0.349	-0.294
-598.055	-200.000	-0.038	0.199
-597.040	7.542	0.170	0.128
-596.025	-75.186	-0.234	0.084
-595.011	-194.999	-0.078	0.001
-593.996	-183.129	0.079	0.001
-592.982	302.245	0.081	-0.151
-591.967	-200.000	0.002	0.180
-590.952	209.247	-0.060	-0.095
-589.938	-91.699	0.168	-0.048
-588.923	-200.000	-0.027	-0.245
-587.909	-79.062	0.407	-0.139
-586.894	-200.000	-0.033	-0.202
-585.879	-144.251	-0.326	0.030
-584.865	187.788	-0.284	-0.425
-583.850	-130.629	0.443	0.060
-582.836	-89.396	0.389	-0.115
-581.821	-200.000	0.015	-0.120
-580.806	104.578	0.235	-0.278
-579.792	-24.019	-0.214	0.128
-578.777	213.958	-0.136	0.216
-577.763	-101.329	0.261	0.064
-576.748	-130.663	0.188	-0.025
-575.733	573.312	-0.081	0.198
-574.719	122.291	-0.084	-0.106
-573.704	126.664	-0.132	0.168
-572.690	800.000	0.165	0.458
-571.675	71.785	-0.173	0.180
-570.661	341.389	0.087	-0.171
-569.646	-59.861	-0.179	-0.077
-568.631	-26.967	0.177	-0.104
-567.617	498.397	0.017	0.040
-566.602	13.981	0.098	0.076
-565.588	-200.000	-0.087	0.523
-564.573	-64.306	-0.147	0.060
-563.558	-139.461	-0.084	-0.009
-562.544	93.297	0.186	-0.211
-561.529	215.583	-0.093	0.148
-560.515	237.863	0.099	-0.164
-559.500	61.887	0.095	0.094
-558.485	-85.220	0.339	-0.106
-557.471	-79.823	-0.173	0.058
-556.456	800.000	0.029	-0.084
-555.442	-200.000	0.028	-0.324
-554.427	-149.081	-0.293	0.024
-553.412	21.853	-0.302	0.247
-552.398	-200.000	0.063	-0.275
-551.383	141.325	0.225	0.299
-550.369	-200.000	-0.002	0.111
-549.354	-20.755	0.224	0.137
-548.339	-200.000	-0.051	0.321
-547.325	541.878	-0.020	-0.048
-546.310	297.913	0.052	-0.096
-545.296	-60.499	0.133	-0.056
-544.281	310.828	-0.089	-0.167
-543.266	269.909	0.170	0.300
-542.252	-200.000	-0.005	0.053
-541.237	-170.650	-0.053	0.002
-540.223	114.984	-0.187	-0.228
-539.208	331.814	-0.057	-0.109
-538.193	226.683	-0.124	-0.201
-537.179	-200.000	0.019	-0.431
-536.164	12.814	-0.038	0.030
-535.150	-196.722	-0.124	-0.001
-534.135	-200.000	-0.007	-0.088
-533.121	33.914	-0.091	0.079
-532.106	800.000	0.088	-0.281
-531.091	27.976	-0.087	-0.074
-530.077	205.847	-0.077	-0.119
-529.062	107.768	-0.267	-0.318
-528.048	-22.013	0.204	0.124
-527.033	-183.291	0.241	0.004
-526.018	-87.120	0.114	-0.035
-525.004	-15.226	-0.131	-0.084
-523.989	-2.998	0.122	-0.085
-522.975	-200.000	-0.009	-0.187
-521.960	5.855	-0.175	0.129
-520.945	-81.931	-0.295	-0.096
-519.931	363.471	0.038	0.077
-518.916	-23.868	-0.069	0.042
-517.902	800.000	-0.077	-0.327
-516.887	-200.000	0.021	0.238
-515.872	-57.594	0.104	-0.046
-514.858	195.846	0.109	-0.167
-513.843	171.523	0.104	0.149
-512.829	-129.389	0.386	-0.054
-511.814	195.343	-0.269	-0.409
-510.799	5.258	0.210	0.155
-509.785	569.599	0.053	0.130
-508.770	143.296	0.039	0.052
-507.756	-121.644	0.210	-0.035
-506.741	800.000	0.132	0.421
-505.726	200.194	-0.111	0.170
-504.712	-200.000	0.001	-0.131
-503.697	77.183	0.188	-0.200
-502.683	10.812	-0.267	-0.204
-501.668	-90.003	-0.312	0.091
-500.653	56.650	-0.015	-0.015
-499.639	21.207	0.158	0.128
-498.624	-136.025	-0.186	-0.022
-497.610	-134.453	0.311	0.038
-496.595	103.351	-0.047	-0.056
-495.581	800.000	0.077	0.281
-494.566	428.160	-0.126	0.273
-493.551	800.000	0.048	-0.179
-492.537	-118.915	-0.111	0.019
-491.522	-49.868	-0.169	-0.080
-490.508	-81.827	-0.388	-0.127
-489.493	93.434	0.349	0.395
-488.478	67.812	-0.077	0.078
-487.464	-156.644	-0.117	0.007
-486.449	-200.000	0.014	0.137
-485.435	69.957	-0.124	-0.128
-484.420	-117.606	-0.145	0.026
-483.405	-51.822	-0.225	0.105
-482.391	-59.541	0.220	0.094
-481.376	307.851	-0.143	0.267
-480.362	-98.102	0.262	-0.067
-479.347	800.000	0.046	-0.198
-478.332	111.571	-0.030	0.037
-477.318	-125.493	-0.119	0.018
-476.303	-80.593	0.079	0.026
-475.289	-10.763	-0.135	-0.089
-474.274	-39.907	-0.148	0.077
-473.259	53.373	0.193	-0.184
-472.245	287.892	-0.067	0.121
-471.230	-150.410	-0.218	0.017
-470.216	-137.984	0.190	-0.021
-469.201	299.071	-0.109	0.201
-468.186	251.849	-0.017	-0.030
-467.172	-88.743	-0.221	-0.066
-466.157	-200.000	0.009	-0.086
-465.143	84.298	-0.073	-0.079
-464.128	800.000	-0.074	-0.248
-463.113	800.000	0.060	-0.174
-462.099	95.596	0.033	0.038
-461.084	800.000	0.170	-0.550
-460.070	103.494	0.138	0.161
-459.055	-81.010	-0.056	0.019
-458.040	800.000	0.059	-0.182
-457.026	-149.245	0.346	-0.028
-456.011	-68.268	0.131	0.051
-454.997	-149.143	0.100	0.008
-453.982	800.000	0.043	0.170
-452.968	-50.496	-0.233	0.110
-451.953	-200.000	0.004	0.360
-450.938	-179.630	0.362	0.008
-449.924	800.000	-0.061	-0.170
-448.909	-151.303	0.145	0.011
-447.895	-11.005	0.057	-0.037
-446.880	800.000	-0.106	0.319
-445.865	-96.599	-0.419	0.110
-444.851	-200.000	-0.029	0.231
-443.836	-0.383	-0.163	0.116
-442.822	-137.568	0.198	-0.022
-441.807	-110.027	0.187	-0.039
-440.792	-200.000	-0.005	-0.198
-439.778	-55.173	-0.222	0.100
-438.763	-200.000	-0.033	0.149
-437.749	800.000	-0.059	0.239
-436.734	-200.000	0.003	-0.190
-435.719	257.604	0.113	-0.193
-434.705	-200.000	-0.034	0.405
-433.690	-124.992	-0.358	0.055
-432.676	226.814	0.110	0.178
-431.661	-94.793	-0.128	0.035
-430.646	141.361	0.235	-0.311
-429.632	386.733	0.192	0.395
-428.617	76.364	0.165	0.174
-427.603	-116.424	-0.280	-0.052
-426.588	-200.000	-0.011	-0.277
-425.573	800.000	0.050	0.171
-424.559	-131.875	0.521	-0.068
-423.544	117.233	0.207	0.253
-422.530	-175.456	0.136	0.004
-421.515	-119.843	-0.159	0.027
-420.500	283.351	0.056	0.100
-419.486	237.524	-0.203	0.336
-418.471	-133.420	-0.503	-0.063
-417.457	800.000	-0.094	-0.271
-416.442	164.579	0.031	0.044
-415.428	-51.308	0.030	0.014
-414.413	-14.488	0.091	-0.058
-413.398	-106.657	-0.235	-0.052
-412.384	357.645	0.099	-0.197
-411.369	-41.473	-0.139	0.071
-410.355	84.131	-0.149	0.162
-409.340	39.858	-0.066	-0.059
-408.325	-200.000	0.014	-0.103
-407.311	24.451	0.263	-0.217
-406.296	800.000	-0.055	0.221
-405.282	-41.175	0.130	0.067
-404.267	432.240	-0.076	0.164
-403.252	-47.083	0.181	-0.088
-402.238	770.696	-0.041	-0.110
-401.223	-155.796	-0.313	0.020
-400.209	-70.160	-0.026	-0.010
-399.194	151.306	-0.064	-0.086
-398.179	-56.478	-0.315	-0.139
-397.165	141.681	-0.212	0.279
-396.150	20.423	-0.089	0.072
-395.136	139.242	-0.195	0.255
-394.121	-200.000	-0.005	-0.054
-393.106	-111.856	-0.048	0.010
-392.092	-32.111	-0.074	0.041
-391.077	222.244	0.227	0.363
-390.063	448.820	-0.053	0.117
-389.048	228.414	-0.058	0.095
-388.033	-49.452	0.089	0.042
-387.019	-200.000	-0.002	-0.239
-386.004	800.000	-0.063	0.233
-384.990	-91.647	0.222	0.063
-383.975	-129.944	0.103	-0.014
-382.960	-37.220	-0.036	0.019
-381.946	-71.282	0.301	-0.112
-380.931	-200.000	0.015	-0.270
-379.917	74.476	0.050	0.052
-378.902	76.405	0.096	-0.101
-377.888	-87.606	-0.535	-0.161
-376.873	-200.000	0.003	0.087
-375.858	601.760	0.148	0.366
-374.844	-102.695	0.070	-0.017
-373.829	-140.882	-0.080	-0.008
-372.815	-61.398	-0.254	-0.106
-371.800	485.706	-0.197	-0.446
-370.785	-200.000	-0.017	0.224
-369.771	-113.774	-0.076	0.015
-368.756	133.147	-0.088	0.112
-367.742	14.451	0.130	-0.100
-366.727	-200.000	0.026	0.168
-365.712	800.000	0.016	0.047
-364.698	-107.609	0.114	-0.025
-363.683	-117.943	0.310	0.055
-362.669	-54.980	0.168	-0.075
-361.654	-37.743	0.145	-0.077
-360.639	708.351	-0.127	-0.334
-359.625	-200.000	0.088	-0.431
-358.610	158.950	0.205	-0.283
-357.596	-200.000	-0.001	-0.062
-356.581	613.102	0.044	0.108
-355.566	-109.801	0.322	-0.067
-354.552	-95.302	0.224	0.060
-353.537	-112.785	-0.322	-0.063
-352.523	116.129	0.156	-0.190
-351.508	-28.141	-0.142	0.082
-350.493	135.445	-0.159	0.206
-349.479	-53.692	0.253	-0.115
-348.464	558.251	-0.081	0.193
-347.450	-46.557	-0.183	-0.089
-346.435	-9.666	0.106	0.070
-345.420	24.950	0.278	0.229
-344.406	41.561	-0.125	0.113
-343.391	-169.590	-0.053	-0.002
-342.377	800.000	0.064	0.206
-341.362	800.000	-0.013	0.051
-340.348	82.900	0.228	-0.246
-339.333	91.274	0.273	0.305
-338.318	588.115	0.018	0.044
-337.304	154.046	0.198	0.270
-336.289	-117.035	-0.314	0.057
-335.275	-93.768	0.235	-0.064
-334.260	188.139	-0.112	0.167
-333.245	16.604	-0.404	0.317
-332.231	-200.000	-0.011	0.231
-331.216	170.653	-0.171	0.243
-330.202	31.389	-0.312	-0.266
-329.187	507.343	0.061	-0.141
-328.172	200.168	-0.185	0.282
-327.158	-159.644	0.310	0.017
-326.143	294.741	-0.278	-0.505
-325.129	-140.944	-0.752	0.077
-324.114	-200.000	-0.016	-0.371
-323.099	303.196	0.081	0.149
-322.085	800.000	0.033	-0.134
-321.070	800.000	-0.053	0.173
-320.056	-124.901	-0.121	0.018
-319.041	-164.287	-0.117	0.005
-318.026	-57.462	-0.139	-0.060
-317.012	54.156	-0.211	-0.201
-315.997	-101.081	0.156	0.038
-314.983	21.745	0.037	-0.030
-313.968	-106.670	0.218	-0.048
-312.953	12.130	-0.260	0.199
-311.939	190.771	-0.118	-0.176
-310.924	108.019	-0.264	0.312
-309.910	-30.391	0.049	-0.028
-308.895	328.088	-0.069	0.132
-307.880	768.612	0.067	-0.182
-306.866	-200.000	-0.020	-0.452
-305.851	219.905	-0.126	0.200
-304.837	800.000	0.096	-0.337
-303.822	656.946	-0.070	-0.177
-302.807	13.675	0.109	0.084
-301.793	625.641	-0.116	-0.289
-300.778	339.947	0.127	0.246
-299.764	-62.557	0.398	-0.164
-298.749	-89.455	0.271	0.079
-297.735	105.368	0.065	-0.076
-296.720	0.194	-0.153	-0.108
-295.705	-35.953	0.186	0.100
-294.691	-200.000	-0.037	0.178
-293.676	-24.861	-0.178	-0.105
-292.662	228.774	0.236	0.382
-291.647	-122.477	0.139	-0.022
-290.632	-116.273	0.202	-0.037
-289.618	-200.000	-0.009	0.105
-288.603	10.914	-0.155	-0.118
-287.589	800.000	0.064	-0.231
-286.574	-9.725	0.119	-0.079
-285.559	-200.000	0.040	-0.373
-284.545	245.883	-0.187	-0.313
-283.530	35.038	0.136	-0.118
-282.516	-128.138	0.030	0.004
-281.501	69.712	-0.237	0.242
-280.486	-75.579	0.329	0.116
-279.472	800.000	0.063	-0.250
-278.457	800.000	-0.097	-0.316
-277.443	-67.968	0.312	-0.121
-276.428	-154.034	0.136	0.009
-275.413	800.000	-0.065	-0.216
-274.399	789.736	0.052	0.141
-273.384	-18.287	-0.289	-0.179
-272.370	60.735	-0.159	-0.156
-271.355	-136.662	0.308	-0.035
-270.340	-127.156	-0.362	0.052
-269.326	-55.362	-0.045	0.020
-268.311	227.577	0.033	-0.054
-267.297	-8.199	0.075	-0.050
-266.282	285.066	-0.201	0.359
-265.267	-200.000	0.037	0.240
-264.253	-118.816	0.431	0.075
-263.238	5.393	0.013	-0.009
-262.224	124.381	0.074	0.092
-261.209	288.208	0.198	-0.354
-260.195	-53.487	0.300	0.136
-259.180	-3.072	0.217	-0.150
-258.165	564.964	0.078	-0.187
-257.151	800.000	0.082	-0.308
-256.136	-80.638	-0.543	0.179
-255.122	-55.162	0.241	-0.107
-254.107	-8.915	-0.226	-0.150
-253.092	-200.000	0.018	0.090
-252.078	-92.376	-0.284	0.079
-251.063	-121.021	0.120	-0.020
-250.049	4.576	-0.197	-0.143
-249.034	-131.537	0.207	-0.027
-248.019	-93.127	0.174	0.048
-247.005	-38.469	0.388	-0.203
-245.990	436.806	-0.076	0.163
-244.976	57.735	-0.073	-0.071
-243.961	-107.448	-0.179	0.039
-242.946	-32.305	0.405	0.224
-241.932	463.684	0.075	0.166
-240.917	-181.790	0.480	0.009
-239.903	-42.438	0.119	0.060
-238.888	-200.000	0.043	0.329
-237.873	14.563	-0.036	-0.028
-236.859	-78.186	-0.153	0.052
-235.844	118.668	0.270	0.330
-234.830	-200.000	-0.031	-0.158
-233.815	-181.019	0.232	0.005
-232.800	-200.000	0.050	-0.229
-231.786	-200.000	-0.044	-0.312
-230.771	-155.627	-0.118	-0.007
-229.757	38.857	0.082	-0.073
-228.742	80.848	0.147	-0.156
-227.727	15.744	-0.162	-0.126
-226.713	469.295	-0.156	-0.345
-225.698	800.000	0.143	-0.546
-224.684	-31.993	-0.249	-0.138
-223.669	-200.000	0.033	-0.488
-222.655	-200.000	-0.006	-0.041
-221.640	642.948	0.061	0.153
-220.625	-200.000	-0.040	-0.235
-219.611	34.011	0.100	-0.086
-218.596	800.000	0.097	-0.283
-217.582	-23.624	0.162	0.096
-216.567	800.000	-0.070	-0.226
-215.552	89.081	0.104	0.114
-214.538	800.000	0.114	0.357
-213.523	-200.000	-0.034	0.262
-212.509	129.297	-0.046	0.058
-211.494	-200.000	-0.059	0.375
-210.479	71.959	0.157	0.162
-209.465	-28.491	0.097	-0.055
-208.450	-91.302	-0.360	0.102
-207.436	104.776	-0.093	-0.109
-206.421	17.135	0.103	0.081
-205.406	-17.302	0.126	0.078
-204.392	99.758	0.084	0.096
-203.377	63.611	0.213	0.211
-202.363	-80.989	0.303	0.099
-201.348	17.401	0.111	-0.087
-200.333	318.010	0.073	0.136
-199.319	41.297	0.126	-0.113
-198.304	32.082	0.254	-0.216
-197.290	-200.000	-0.025	-0.186
-196.275	-73.017	-0.140	-0.051
-195.260	-105.780	0.128	-0.029
-194.246	-95.593	-0.025	-0.007
-193.231	205.519	-0.195	0.299
-192.217	390.947	-0.077	-0.158
-191.202	-200.000	0.040	0.391
-190.187	-200.000	0.048	-0.253
-189.173	610.804	-0.110	-0.272
-188.158	-200.000	-0.013	0.243
-187.144	150.477	-0.273	0.366
-186.129	-15.964	0.346	-0.217
-185.114	-181.582	-0.062	-0.001
-184.100	78.882	0.165	0.174
-183.085	-2.299	0.178	0.123
-182.071	-69.093	-0.073	-0.028
-181.056	-8.568	0.298	0.198
-180.042	19.527	0.192	-0.152
-179.027	13.746	-0.152	-0.117
-178.012	178.856	0.189	0.272
-176.998	-200.000	-0.003	-0.196
-175.983	-66.701	0.172	0.067
-174.969	271.585	0.076	0.133
-173.954	170.418	0.145	0.205
-172.939	800.000	-0.075	-0.209
-171.925	45.173	-0.211	0.192
-170.910	800.000	-0.029	-0.107
-169.896	98.292	0.154	-0.175
-168.881	539.161	-0.105	0.246
-167.866	-200.000	0.014	-0.182
-166.852	-200.000	0.003	-0.155
-165.837	-11.819	-0.110	-0.071
-164.823	202.713	0.016	0.024
-163.808	-8.551	-0.212	0.141
-162.793	144.818	-0.138	-0.182
-161.779	-156.352	-0.215	-0.013
-160.764	-92.138	-0.245	0.068
-159.750	749.022	0.015	-0.041
-158.735	-122.438	0.319	0.051
-157.720	169.828	0.084	-0.119
-156.706	5.677	-0.123	-0.090
-155.691	-0.362	0.083	-0.058
-154.677	800.000	0.111	0.328
-153.662	-97.353	-0.208	0.053
-152.647	114.057	-0.087	0.104
-151.633	-59.249	0.263	-0.112
-150.618	-153.878	0.589	0.040
-149.604	2.114	0.239	-0.171
-148.589	7.125	-0.132	-0.097
-147.574	58.611	-0.199	0.192
-146.560	12.855	-0.115	-0.087
-145.545	-200.000	-0.007	-0.149
-144.531	-129.794	-0.253	0.034
-143.516	-40.615	0.134	0.069
-142.502	-200.000	0.195	-0.000
-141.487	420.863	-0.073	0.155
-140.472	10.492	0.226	0.170
-139.458	82.804	-0.150	-0.161
-138.443	-24.468	-0.124	-0.073
-137.429	800.000	0.042	0.163
-136.414	131.929	-0.207	0.263
-135.399	505.894	-0.149	-0.340
-134.385	-200.000	0.073	-0.332
-133.370	-34.702	-0.039	0.021
-132.356	800.000	-0.113	-0.364
-131.341	500.401	-0.012	0.027
-130.326	800.000	-0.066	-0.257
-129.312	-132.860	0.303	-0.038
-128.297	-135.914	0.352	0.041
-127.283	-95.136	-0.074	0.020
-126.268	-200.000	-0.055	-0.279
-125.253	96.197	0.099	-0.111
-124.239	15.535	-0.061	-0.047
-123.224	-84.468	0.187	0.058
-122.210	-87.084	-0.240	0.072
-121.195	232.583	0.063	0.102
