DTS Sentinel unit serial number:	SN413079Multiplexer serial number:	ORYXHardware model number:	OX4-SRSoftware version number:	ORYX F/W v4.00 Oryx Data Collector v3.7.2.0data status	okinstallation	princeton_trtdifferential loss correction	single-endedforward channel	channel 4reverse channel	N/Adate	2019/09/16time	05:09:35forward acquisition time	60.00reverse acquisition time	0.00gamma	496.2192k internal	0.2321k external	0.2321temperature offset calibration	0.9982default loss term (dB/km)	0.3790temperature slope calibration	1.0000multiplexer offset coefficient	1.0000multiplexer slope coefficient	1.0000fibre end	0.00T internal ref (°C)	27.19T ext. ref 1 (°C)	11.02T ext. ref 2 (°C)	22.20length (m)	temperature (°C)	Stokes	anti-Stokes-747.200	800.000	-0.048	-0.164
-746.185	-12.520	-0.142	0.094
-745.171	143.465	0.117	0.158
-744.156	800.000	-0.211	0.664
-743.142	-56.319	-0.185	0.083
-742.127	214.318	0.044	0.071
-741.112	-34.031	0.245	-0.136
-740.098	-56.496	0.118	0.053
-739.083	-63.616	-0.096	-0.040
-738.069	117.136	-0.114	0.142
-737.054	428.734	0.073	0.159
-736.039	2.457	0.066	0.048
-735.025	-24.984	0.172	0.103
-734.010	-125.865	0.211	0.032
-732.996	-200.000	-0.244	-0.000
-731.981	-27.343	0.188	0.110
-730.966	-200.000	-0.033	0.157
-729.952	-99.532	0.266	-0.068
-728.937	617.790	0.041	-0.104
-727.923	-200.000	0.019	-0.168
-726.908	-159.209	0.237	-0.013
-725.894	14.726	0.210	-0.165
-724.879	410.188	-0.148	-0.318
-723.864	-200.000	-0.019	-0.162
-722.850	-200.000	-0.027	-0.375
-721.835	-200.000	0.009	0.067
-720.821	-20.786	-0.250	0.155
-719.806	127.133	0.218	0.280
-718.791	-106.689	-0.438	0.098
-717.777	405.822	0.098	0.209
-716.762	-200.000	0.018	-0.090
-715.748	800.000	-0.122	-0.370
-714.733	-122.918	0.068	0.011
-713.718	800.000	-0.072	-0.251
-712.704	322.200	-0.194	-0.373
-711.689	-200.000	-0.008	-0.056
-710.675	-200.000	0.025	0.218
-709.660	-60.122	-0.261	-0.113
-708.645	-200.000	0.002	-0.235
-707.631	-86.029	-0.295	-0.092
-706.616	675.395	-0.027	0.071
-705.602	-8.236	0.041	-0.028
-704.587	479.719	-0.077	-0.176
-703.572	717.452	0.119	0.318
-702.558	-127.361	0.425	0.062
-701.543	-86.976	0.179	0.055
-700.529	-35.558	-0.121	0.066
-699.514	-200.000	-0.028	-0.186
-698.499	800.000	-0.036	0.117
-697.485	770.661	-0.007	-0.018
-696.470	-57.507	0.310	0.137
-695.456	-200.000	-0.030	0.154
-694.441	223.855	-0.167	0.271
-693.426	-30.180	-0.052	-0.030
-692.412	43.284	0.152	0.140
-691.397	-200.000	-0.084	0.000
-690.383	226.638	-0.197	-0.322
-689.368	-19.212	0.104	-0.065
-688.354	40.457	0.175	0.159
-687.339	42.326	0.136	-0.125
-686.324	-200.000	-0.025	-0.330
-685.310	-120.688	-0.388	0.066
-684.295	327.765	-0.087	0.169
-683.281	-200.000	0.063	0.442
-682.266	-131.200	0.039	-0.005
-681.251	800.000	-0.068	0.271
-680.237	-167.914	-0.077	-0.003
-679.222	-200.000	0.014	-0.196
-678.208	661.669	-0.088	-0.228
-677.193	-177.262	-0.271	-0.007
-676.178	49.541	0.307	0.292
-675.164	-55.639	-0.187	0.084
-674.149	-61.471	0.420	0.178
-673.135	-32.386	-0.184	-0.103
-672.120	163.801	0.190	-0.270
-671.105	-89.802	0.151	-0.044
-670.091	-31.392	0.072	0.041
-669.076	-140.274	-0.261	-0.028
-668.062	-200.000	-0.043	-0.296
-667.047	800.000	0.122	-0.397
-666.032	88.123	0.068	0.076
-665.018	750.160	0.096	0.261
-664.003	174.887	0.064	-0.094
-662.989	79.574	-0.196	0.212
-661.974	-125.527	-0.129	0.020
-660.959	-84.887	0.262	-0.083
-659.945	327.720	-0.050	0.096
-658.930	-193.617	-0.389	-0.003
-657.916	8.693	0.144	-0.109
-656.901	-178.117	0.550	0.013
-655.886	800.000	-0.088	-0.285
-654.872	800.000	0.069	-0.216
-653.857	104.328	0.184	-0.218
-652.843	-200.000	0.013	-0.190
-651.828	199.960	-0.300	-0.464
-650.814	242.818	0.175	-0.295
-649.799	223.635	0.139	-0.227
-648.784	240.655	0.102	0.171
-647.770	-166.241	0.208	-0.009
-646.755	145.173	-0.052	0.070
-645.741	63.193	0.059	-0.060
-644.726	293.146	0.095	-0.174
-643.711	-88.002	-0.270	-0.082
-642.697	348.948	0.062	-0.123
-641.682	131.339	-0.095	-0.123
-640.668	-200.000	0.001	-0.215
-639.653	748.172	-0.106	-0.288
-638.638	-200.000	-0.030	0.207
-637.624	42.523	-0.101	0.093
-636.609	25.738	0.168	0.141
-635.595	-113.449	-0.275	-0.054
-634.580	611.975	0.113	0.285
-633.565	714.652	0.110	0.293
-632.551	-15.752	0.145	-0.093
-631.536	114.510	-0.097	0.119
-630.522	-43.149	0.146	-0.074
-629.507	69.237	-0.129	0.134
-628.492	800.000	0.079	0.248
-627.478	-4.010	0.150	0.105
-626.463	-20.915	-0.098	-0.061
-625.449	-99.070	0.195	-0.050
-624.434	100.682	-0.253	0.296
-623.419	-47.914	0.089	-0.043
-622.405	-55.664	-0.140	0.063
-621.390	13.600	-0.180	0.141
-620.376	66.213	0.073	-0.075
-619.361	-36.556	0.125	-0.068
-618.346	-200.000	-0.013	-0.103
-617.332	294.297	0.194	-0.357
-616.317	-200.000	-0.004	-0.121
-615.303	243.034	-0.124	0.208
-614.288	337.555	0.157	-0.307
-613.273	-47.933	-0.288	0.140
-612.259	-73.506	-0.192	0.070
-611.244	-145.850	-0.122	0.011
-610.230	-44.049	0.164	-0.083
-609.215	-24.931	0.036	-0.022
-608.201	523.813	-0.118	0.279
-607.186	10.496	0.281	-0.215
-606.171	-95.594	-0.290	0.078
-605.157	800.000	0.067	0.250
-604.142	800.000	-0.061	-0.240
-603.128	400.758	-0.174	-0.367
-602.113	-200.000	0.007	0.064
-601.098	-81.173	0.242	0.080
-600.084	603.249	-0.099	-0.247
-599.069	800.000	-0.094	-0.303
-598.055	-12.279	0.203	0.134
-597.040	4.203	0.005	0.004
-596.025	60.014	-0.177	0.176
-595.011	278.075	-0.136	0.243
-593.996	-200.000	0.027	0.201
-592.982	187.325	-0.179	-0.268
-591.967	-80.995	0.174	0.058
-590.952	-5.688	0.049	-0.034
-589.938	47.942	-0.083	0.078
-588.923	73.062	0.161	0.169
-587.909	-78.623	0.276	0.095
-586.894	-32.481	0.055	0.031
-585.879	800.000	-0.056	0.172
-584.865	-28.286	-0.135	0.078
-583.850	119.138	0.080	0.100
-582.836	-200.000	0.051	-0.257
-581.821	-200.000	0.059	-0.418
-580.806	28.836	0.047	-0.040
-579.792	-49.927	-0.276	-0.132
-578.777	-200.000	0.034	0.236
-577.763	-68.828	-0.180	-0.070
-576.748	-98.167	0.185	-0.048
-575.733	288.776	0.185	0.337
-574.719	-200.000	0.004	-0.391
-573.704	800.000	-0.066	-0.270
-572.690	416.884	-0.096	0.206
-571.675	-14.034	-0.040	-0.026
-570.661	-40.044	0.185	-0.097
-569.646	-108.611	0.095	-0.021
-568.631	752.737	0.093	0.252
-567.617	64.305	-0.121	-0.122
-566.602	800.000	-0.062	-0.209
-565.588	-2.243	-0.236	0.166
-564.573	189.464	-0.152	0.228
-563.558	-200.000	0.004	0.042
-562.544	-90.088	0.163	0.048
-561.529	-159.087	-0.247	-0.014
-560.515	20.031	0.056	0.045
-559.500	-200.000	0.026	0.151
-558.485	-57.036	0.265	0.117
-557.471	-200.000	0.042	0.239
-556.456	24.377	0.121	0.100
-555.442	226.855	-0.160	0.261
-554.427	216.540	0.072	-0.115
-553.412	-65.991	0.091	-0.036
-552.398	-55.601	-0.464	0.208
-551.383	-200.000	-0.011	0.052
-550.369	-43.582	0.124	-0.063
-549.354	-164.308	-0.101	0.005
-548.339	95.978	-0.197	-0.226
-547.325	-23.041	-0.029	0.018
-546.310	-58.572	-0.169	-0.073
-545.296	410.206	-0.046	0.097
-544.281	800.000	-0.010	-0.030
-543.266	399.900	0.132	0.278
-542.252	-101.398	0.215	-0.052
-541.237	800.000	-0.111	0.320
-540.223	-22.836	0.407	0.247
-539.208	105.909	0.150	-0.178
-538.193	-99.804	-0.347	-0.087
-537.179	50.375	0.115	0.109
-536.164	52.078	0.190	-0.182
-535.150	-153.546	-0.202	-0.014
-534.135	800.000	-0.012	-0.042
-533.121	251.175	-0.162	0.276
-532.106	-70.122	0.172	-0.066
-531.091	106.659	-0.086	0.102
-530.077	258.380	0.072	0.123
-529.062	124.551	-0.078	0.098
-528.048	-82.499	-0.287	0.093
-527.033	-63.524	0.086	-0.036
-526.018	-50.084	0.433	0.205
-525.004	-200.000	-0.018	0.189
-523.989	-110.516	-0.144	-0.030
-522.975	-36.816	-0.336	-0.181
-521.960	-69.363	0.253	0.097
-520.945	325.559	0.069	0.132
-519.931	65.925	0.210	-0.213
-518.916	800.000	-0.032	-0.107
-517.902	193.873	0.032	0.049
-516.887	366.687	-0.166	0.336
-515.872	98.144	0.179	0.207
-514.858	-200.000	-0.002	-0.354
-513.843	-150.487	0.173	-0.013
-512.829	168.743	-0.162	-0.231
-511.814	14.920	0.072	-0.056
-510.799	-167.878	-0.051	-0.002
-509.785	-200.000	-0.056	-0.295
-508.770	-200.000	-0.000	0.054
-507.756	160.919	0.198	0.277
-506.741	-113.169	-0.353	0.070
-505.726	-5.482	-0.104	0.072
-504.712	393.522	0.071	-0.148
-503.697	-67.340	0.185	-0.073
-502.683	-200.000	-0.021	0.170
-501.668	408.490	0.052	0.109
-500.653	-72.465	-0.257	0.095
-499.639	-200.000	-0.011	0.102
-498.624	-91.830	-0.223	-0.063
-497.610	-44.009	-0.192	0.097
-496.595	53.845	-0.195	0.188
-495.581	-200.000	-0.004	0.199
-494.566	-62.683	0.023	-0.010
-493.551	29.602	0.202	-0.172
-492.537	289.386	0.132	0.240
-491.522	32.717	-0.118	-0.103
-490.508	69.424	-0.275	-0.283
-489.493	-158.458	0.316	0.018
-488.478	-80.131	0.272	-0.091
-487.464	120.877	0.191	-0.238
-486.449	351.105	-0.046	-0.090
-485.435	-70.462	-0.107	0.041
-484.420	369.688	-0.137	-0.277
-483.405	-39.843	0.071	0.037
-482.391	-45.605	0.242	-0.120
-481.376	-80.851	-0.217	-0.072
-480.362	-200.000	0.037	0.231
-479.347	-200.000	-0.006	0.143
-478.332	-143.868	0.026	-0.002
-477.318	-127.766	-0.152	-0.022
-476.303	322.043	-0.059	-0.112
-475.289	-200.000	0.004	-0.071
-474.274	-50.628	-0.306	-0.144
-473.259	-200.000	0.102	0.475
-472.245	-200.000	-0.030	-0.201
-471.230	800.000	0.031	-0.090
-470.216	79.355	-0.075	0.080
-469.201	98.123	0.262	0.302
-468.186	-175.197	0.388	0.011
-467.172	800.000	-0.025	-0.072
-466.157	-200.000	-0.064	0.285
-465.143	-200.000	0.034	0.247
-464.128	800.000	0.078	-0.242
-463.113	-44.189	-0.221	-0.111
-462.099	-60.058	0.258	0.110
-461.084	-157.747	0.041	0.002
-460.070	-115.166	0.170	-0.032
-459.055	227.064	-0.121	-0.197
-458.040	-58.649	-0.096	0.041
-457.026	-200.000	0.030	0.144
-456.011	-200.000	0.013	-0.121
-454.997	-160.908	0.179	-0.009
-453.982	-199.626	0.098	0.001
-452.968	214.986	-0.095	0.151
-451.953	-158.701	0.172	0.010
-450.938	-134.882	0.089	0.011
-449.924	-173.990	-0.330	0.010
-448.909	-200.000	-0.006	-0.099
-447.895	-200.000	0.052	0.244
-446.880	382.149	-0.061	-0.126
-445.865	-60.178	-0.189	0.081
-444.851	243.867	0.163	0.273
-443.836	272.528	-0.087	0.154
-442.822	-34.476	-0.240	0.131
-441.807	-125.640	-0.262	0.040
-440.792	84.069	-0.206	0.225
-439.778	-71.427	0.226	-0.085
-438.763	14.629	-0.060	0.047
-437.749	233.679	0.193	0.317
-436.734	18.692	-0.111	-0.089
-435.719	90.514	-0.045	-0.050
-434.705	-200.000	-0.059	0.312
-433.690	93.354	0.110	0.124
-432.676	800.000	0.087	-0.312
-431.661	463.005	-0.017	0.038
-430.646	170.212	0.069	0.099
-429.632	-200.000	0.076	0.450
-428.617	800.000	0.031	0.133
-427.603	372.556	0.043	0.087
-426.588	-200.000	0.004	-0.135
-425.573	116.538	-0.067	-0.082
-424.559	800.000	0.127	-0.464
-423.544	-79.039	0.332	0.112
-422.530	-200.000	-0.030	0.186
-421.515	-27.609	-0.274	0.159
-420.500	800.000	-0.042	0.177
-419.486	-200.000	0.050	0.286
-418.471	-61.215	-0.168	0.071
-417.457	-200.000	-0.011	0.246
-416.442	-138.971	-0.321	-0.035
-415.428	-84.831	-0.145	-0.045
-414.413	148.221	-0.159	-0.214
-413.398	-84.110	-0.116	-0.037
-412.384	255.766	0.104	0.178
-411.369	800.000	-0.081	0.346
-410.355	56.288	-0.080	0.077
-409.340	-7.871	0.364	-0.245
-408.325	-149.964	-0.184	-0.014
-407.311	-200.000	0.004	-0.129
-406.296	-40.756	-0.193	-0.100
-405.282	-200.000	-0.017	0.101
-404.267	31.982	-0.122	-0.105
-403.252	-47.629	0.431	-0.209
-402.238	59.747	0.176	0.173
-401.223	-200.000	-0.002	-0.342
-400.209	800.000	0.086	-0.280
-399.194	800.000	0.077	-0.245
-398.179	225.708	-0.222	-0.359
-397.165	-60.090	-0.359	-0.153
-396.150	98.363	-0.142	0.163
-395.136	-21.358	0.155	0.094
-394.121	-120.231	0.139	0.024
-393.106	800.000	0.022	-0.064
-392.092	176.014	0.069	0.100
-391.077	69.462	-0.326	-0.335
-390.063	800.000	-0.032	-0.114
-389.048	608.317	-0.098	0.243
-388.033	-165.063	-0.307	-0.014
-387.019	-187.649	0.252	0.003
-386.004	-200.000	-0.003	0.064
-384.990	86.523	-0.024	-0.026
-383.975	694.066	-0.029	0.077
-382.960	-1.676	0.050	-0.035
-381.946	800.000	-0.083	-0.244
-380.931	-128.799	-0.203	0.029
-379.917	-174.490	-0.377	-0.011
-378.902	573.809	0.174	-0.423
-377.888	-66.811	-0.302	0.119
-376.873	800.000	-0.053	-0.185
-375.858	145.281	-0.210	-0.280
-374.844	30.950	0.197	0.169
-373.829	304.892	0.087	0.161
-372.815	-200.000	0.020	-0.253
-371.800	33.327	0.222	0.192
-370.785	-64.755	0.419	0.169
-369.771	800.000	0.052	-0.170
-368.756	-200.000	-0.078	0.415
-367.742	-92.542	-0.134	0.038
-366.727	244.469	0.067	0.112
-365.712	179.825	0.097	0.142
-364.698	67.181	-0.308	-0.313
-363.683	800.000	-0.085	-0.263
-362.669	800.000	0.012	-0.034
-361.654	-24.365	0.282	0.168
-360.639	3.268	-0.222	0.161
-359.625	800.000	-0.073	-0.317
-358.610	-6.924	-0.245	0.166
-357.596	154.815	-0.079	0.108
-356.581	-200.000	0.027	-0.184
-355.566	-200.000	0.042	-0.240
-354.552	186.449	0.087	0.129
-353.537	-200.000	0.024	0.353
-352.523	-200.000	0.032	-0.286
-351.508	-91.170	-0.301	0.086
-350.493	-73.452	-0.209	0.076
-349.479	21.018	-0.316	0.255
-348.464	231.874	-0.026	0.043
-347.450	-200.000	-0.050	-0.261
-346.435	278.213	-0.084	-0.148
-345.420	-120.234	0.198	-0.034
-344.406	515.508	-0.047	0.110
-343.391	454.923	-0.019	-0.041
-342.377	-133.938	0.106	0.013
-341.362	148.467	0.056	0.076
-340.348	-161.965	0.016	0.001
-339.333	-200.000	-0.028	-0.126
-338.318	-78.731	0.167	0.057
-337.304	800.000	0.032	0.107
-336.289	-5.009	-0.277	-0.190
-335.275	128.596	-0.184	0.233
-334.260	-50.143	-0.151	0.071
-333.245	-17.218	0.160	-0.100
-332.231	490.697	-0.132	-0.300
-331.216	-200.000	-0.058	0.290
-330.202	-200.000	-0.054	0.270
-329.187	142.894	0.145	0.191
-328.172	-32.785	-0.170	-0.094
-327.158	227.402	0.160	0.258
-326.143	-30.899	0.175	0.098
-325.129	-49.462	0.016	-0.008
-324.114	-90.024	0.223	0.065
-323.099	800.000	-0.080	-0.288
-322.085	-200.000	0.052	-0.243
-321.070	-35.769	0.260	-0.140
-320.056	563.008	-0.099	-0.238
-319.041	-55.131	-0.060	-0.027
-318.026	-40.418	0.154	-0.079
-317.012	716.253	0.052	0.137
-315.997	-44.170	0.330	-0.165
-314.983	239.771	0.129	0.214
-313.968	105.356	0.031	-0.037
-312.953	-101.001	0.195	-0.048
-311.939	-18.231	0.189	0.117
-310.924	-22.033	0.125	-0.076
-309.910	-158.778	0.270	-0.015
-308.895	-94.895	0.219	-0.059
-307.880	162.150	0.069	-0.096
-306.866	800.000	-0.024	-0.099
-305.851	800.000	-0.030	-0.114
-304.837	-76.280	-0.098	0.034
-303.822	-26.972	-0.394	-0.228
-302.807	-89.327	0.241	0.071
-301.793	-18.091	-0.084	0.052
-300.778	-6.015	-0.008	-0.006
-299.764	84.347	-0.056	-0.061
-298.749	-106.450	0.086	-0.019
-297.735	-200.000	0.043	0.238
-296.720	72.221	-0.201	0.207
-295.705	800.000	-0.051	0.174
-294.691	99.192	-0.032	-0.037
-293.676	112.787	0.099	-0.119
-292.662	-108.640	0.345	0.074
-291.647	16.907	-0.267	-0.210
-290.632	218.277	-0.339	-0.538
-289.618	-200.000	0.025	0.115
-288.603	191.460	0.085	0.126
-287.589	171.071	0.128	0.182
-286.574	-54.761	-0.512	0.230
-285.559	58.367	-0.069	-0.067
-284.545	-96.603	0.090	-0.024
-283.530	49.136	-0.061	0.057
-282.516	382.091	-0.131	-0.267
-281.501	79.383	0.070	-0.075
-280.486	317.852	0.016	-0.031
-279.472	-139.022	-0.238	-0.026
-278.457	-79.857	-0.135	0.045
-277.443	59.685	0.266	-0.261
-276.428	25.935	-0.221	0.183
-275.413	-1.313	-0.263	-0.184
-274.399	-200.000	-0.070	0.374
-273.384	-200.000	0.012	-0.218
-272.370	32.531	-0.117	0.100
-271.355	-200.000	0.015	-0.194
-270.340	-25.222	0.144	-0.085
-269.326	-200.000	-0.059	-0.433
-268.311	143.345	0.287	0.378
-267.297	-200.000	-0.031	0.270
-266.282	96.297	0.151	-0.171
-265.267	-97.052	0.198	-0.051
-264.253	-60.994	-0.202	0.085
-263.238	-200.000	0.043	0.191
-262.224	211.236	-0.134	-0.209
-261.209	800.000	0.044	0.131
-260.195	-78.306	0.140	0.048
-259.180	-200.000	-0.013	0.261
-258.165	95.093	0.075	0.085
-257.151	75.506	0.217	-0.227
-256.136	21.755	-0.063	0.051
-255.122	-200.000	-0.002	-0.119
-254.107	73.853	-0.134	-0.139
-253.092	111.088	0.164	-0.196
-252.078	166.001	-0.199	0.280
-251.063	526.385	0.062	0.144
-250.049	-65.506	-0.056	-0.022
-249.034	109.632	-0.177	-0.211
-248.019	-73.861	0.162	-0.058
-247.005	-134.223	-0.373	-0.045
-245.990	101.462	-0.187	-0.215
-244.976	-44.482	0.087	-0.043
-243.961	800.000	0.091	-0.273
-242.946	-41.441	0.346	-0.176
-241.932	-200.000	-0.000	-0.073
-240.917	-102.771	-0.064	0.015
-239.903	525.456	-0.019	0.044
-238.888	-120.454	-0.212	-0.036
-237.873	-140.200	0.179	-0.019
-236.859	643.027	0.084	0.212
-235.844	-95.519	0.325	-0.086
-234.830	-101.991	0.158	0.038
-233.815	-200.000	0.038	0.300
-232.800	21.777	0.160	0.129
-231.786	596.962	0.057	-0.139
-230.771	-200.000	-0.187	-0.001
-229.757	54.294	0.124	0.118
-228.742	154.781	0.026	-0.035
-227.727	156.087	0.015	0.020
-226.713	410.620	-0.151	-0.316
-225.698	423.977	-0.061	0.130
-224.684	-200.000	-0.002	-0.495
-223.669	-187.143	0.270	-0.004
-222.655	-62.194	-0.049	0.020
-221.640	-116.293	0.025	-0.005
-220.625	800.000	-0.105	0.356
-219.611	286.780	-0.018	-0.032
-218.596	-200.000	-0.011	0.320
-217.582	414.940	-0.054	-0.114
-216.567	224.786	0.027	-0.043
-215.552	8.796	-0.273	-0.203
-214.538	-200.000	0.013	0.367
-213.523	-166.787	-0.129	-0.005
-212.509	-200.000	0.015	0.130
-211.494	-200.000	0.017	0.108
-210.479	-133.951	0.149	-0.018
-209.465	233.418	0.075	0.123
-208.450	-68.972	-0.179	0.068
-207.436	-200.000	-0.029	0.149
-206.421	800.000	-0.050	-0.189
-205.406	20.041	0.144	-0.115
-204.392	-95.507	0.272	-0.072
-203.377	-200.000	-0.013	-0.082
-202.363	-101.422	0.268	0.065
-201.348	75.882	0.181	0.189
-200.333	-159.159	-0.259	0.014
-199.319	-200.000	0.028	-0.277
-198.304	-182.980	0.238	0.004
-197.290	8.190	-0.028	0.021
-196.275	-146.716	0.133	-0.011
-195.260	41.570	0.119	0.107
-194.246	172.558	0.085	-0.120
-193.231	69.606	0.255	-0.260
-192.217	47.885	0.118	-0.109
-191.202	-200.000	0.013	-0.131
-190.187	-57.983	0.409	-0.176
-189.173	440.136	0.096	-0.208
-188.158	-142.151	0.081	0.008
-187.144	-197.739	0.164	-0.001
-186.129	44.274	0.170	0.154
-185.114	800.000	-0.119	0.327
-184.100	419.614	0.102	-0.216
-183.085	12.279	0.241	0.184
-182.071	-200.000	0.030	0.213
-181.056	184.772	-0.036	-0.052
-180.042	410.380	0.101	0.211
-179.027	243.060	0.031	0.051
-178.012	47.480	-0.078	-0.072
-176.998	-8.407	-0.292	-0.194
-175.983	84.444	0.012	-0.013
-174.969	-59.311	-0.242	0.103
-173.954	98.274	0.037	-0.042
-172.939	-148.005	-0.131	0.011
-171.925	800.000	0.069	-0.264
-170.910	-200.000	-0.032	-0.265
-169.896	331.658	0.139	-0.264
-168.881	-145.530	-0.180	-0.016
-167.866	138.378	0.194	-0.252
-166.852	-41.374	-0.203	-0.103
-165.837	-200.000	0.043	0.245
-164.823	-200.000	-0.021	-0.123
-163.808	429.390	0.060	0.128
-162.793	-64.398	-0.261	0.105
-161.779	184.814	0.129	-0.189
-160.764	219.879	-0.255	-0.404
-159.750	18.151	0.068	-0.053
-158.735	-100.182	0.238	0.058
-157.720	-97.114	-0.133	0.034
-156.706	-140.466	0.344	-0.035
-155.691	-200.000	0.021	0.180
-154.677	748.562	-0.102	-0.270
-153.662	-77.886	-0.298	0.102
-152.647	-200.000	-0.013	-0.158
-151.633	800.000	-0.113	-0.333
-150.618	168.044	0.050	-0.070
-149.604	-200.000	-0.008	0.078
-148.589	-94.722	-0.157	-0.042
-147.574	-152.995	0.153	-0.011
-146.560	-86.374	-0.231	0.070
-145.545	-146.762	-0.166	-0.014
-144.531	-48.332	-0.229	-0.109
-143.516	800.000	0.045	0.190
-142.502	-180.903	-0.243	-0.005
-141.487	-200.000	0.034	0.347
-140.472	800.000	0.060	-0.165
-139.458	-113.346	0.332	-0.064
-138.443	562.966	0.056	-0.134
-137.429	196.273	-0.155	-0.234
-136.414	-79.715	-0.114	0.038
-135.399	-105.312	0.296	0.067
-134.385	-41.080	-0.014	0.007
-133.370	129.005	0.095	-0.120
-132.356	-110.860	0.352	-0.072
-131.341	13.076	0.266	-0.203
-130.326	235.625	-0.016	-0.026
-129.312	394.497	-0.166	0.341
-128.297	800.000	-0.083	-0.290
-127.283	800.000	0.082	0.313
-126.268	10.427	0.213	-0.160
-125.253	-78.896	0.385	-0.129
-124.239	-165.869	-0.022	0.001
-123.224	634.766	-0.218	-0.547
-122.210	800.000	0.109	-0.371
