DTS Sentinel unit serial number:	SN413079Multiplexer serial number:	ORYXHardware model number:	OX4-SRSoftware version number:	ORYX F/W v4.00 Oryx Data Collector v3.7.2.0data status	okinstallation	princeton_trtdifferential loss correction	single-endedforward channel	channel 4reverse channel	N/Adate	2019/09/17time	22:37:35forward acquisition time	60.00reverse acquisition time	0.00gamma	496.2192k internal	0.2330k external	0.2330temperature offset calibration	0.9995default loss term (dB/km)	0.3790temperature slope calibration	1.0000multiplexer offset coefficient	1.0000multiplexer slope coefficient	1.0000fibre end	0.00T internal ref (°C)	25.19T ext. ref 1 (°C)	0.17T ext. ref 2 (°C)	18.48length (m)	temperature (°C)	Stokes	anti-Stokes-747.200	-57.385	0.246	0.109
-746.185	40.051	0.106	0.096
-745.171	25.556	0.213	-0.178
-744.156	-68.297	-0.343	0.134
-743.142	-78.256	0.173	-0.060
-742.127	168.656	-0.152	0.218
-741.112	543.491	0.263	0.632
-740.098	52.759	-0.199	0.192
-739.083	-133.283	0.572	0.073
-738.069	-103.176	-0.308	-0.073
-737.054	574.743	-0.173	0.425
-736.039	-128.574	-0.304	0.043
-735.025	-68.772	0.074	-0.029
-734.010	-17.633	0.274	0.173
-732.996	-158.290	-0.166	-0.010
-731.981	165.557	-0.244	-0.347
-730.966	382.040	-0.158	-0.327
-729.952	-164.288	-0.027	0.001
-728.937	14.662	-0.212	-0.167
-727.923	-20.930	0.245	-0.151
-726.908	-110.025	-0.050	-0.010
-725.894	-22.373	-0.146	-0.089
-724.879	198.860	-0.197	0.304
-723.864	39.506	0.137	0.124
-722.850	-200.000	-0.032	-0.149
-721.835	-121.128	-0.163	-0.027
-720.821	10.803	-0.182	-0.139
-719.806	296.629	0.133	-0.245
-718.791	109.529	-0.234	-0.282
-717.777	-66.324	-0.127	-0.051
-716.762	111.427	-0.197	-0.238
-715.748	151.161	0.092	0.126
-714.733	-200.000	0.010	-0.369
-713.718	150.593	0.250	0.341
-712.704	108.162	-0.172	-0.206
-711.689	800.000	-0.112	-0.363
-710.675	-197.324	0.250	-0.002
-709.660	-68.065	-0.237	0.093
-708.645	38.990	-0.510	-0.458
-707.631	-200.000	0.035	0.353
-706.616	84.830	0.050	-0.055
-705.602	-200.000	-0.021	-0.304
-704.587	59.746	-0.077	-0.076
-703.572	-90.146	0.085	0.025
-702.558	-200.000	0.041	-0.236
-701.543	-112.593	-0.447	-0.089
-700.529	-200.000	0.014	-0.331
-699.514	-18.811	0.334	0.209
-698.499	535.949	0.102	0.243
-697.485	20.524	-0.136	-0.110
-696.470	-200.000	-0.012	-0.280
-695.456	-101.169	-0.597	-0.147
-694.441	51.375	-0.105	0.101
-693.426	-200.000	-0.074	0.400
-692.412	-41.606	0.126	-0.065
-691.397	335.355	0.065	0.128
-690.383	-153.240	0.049	0.003
-689.368	-200.000	0.001	-0.004
-688.354	471.274	0.031	-0.071
-687.339	-41.320	-0.295	-0.153
-686.324	45.638	0.111	-0.103
-685.310	800.000	0.005	-0.016
-684.295	214.291	-0.146	-0.233
-683.281	-131.444	0.192	0.025
-682.266	-21.968	-0.281	0.171
-681.251	457.733	-0.054	-0.121
-680.237	207.212	0.039	0.061
-679.222	7.053	-0.082	0.061
-678.208	-6.608	0.090	-0.062
-677.193	51.842	-0.054	-0.052
-676.178	-119.686	0.202	-0.035
-675.164	338.513	-0.096	-0.187
-674.149	-66.407	-0.252	0.100
-673.135	800.000	-0.080	-0.255
-672.120	-200.000	-0.026	0.179
-671.105	83.036	0.028	0.030
-670.091	142.595	-0.225	-0.300
-669.076	-28.382	0.119	-0.069
-668.062	-66.109	-0.182	0.073
-667.047	133.566	0.080	-0.104
-666.032	319.357	-0.098	-0.187
-665.018	254.175	-0.152	-0.261
-664.003	-190.700	0.439	-0.005
-662.989	197.778	0.142	-0.218
-661.974	16.418	0.107	-0.085
-660.959	-200.000	-0.026	-0.508
-659.945	37.529	-0.210	-0.187
-658.930	800.000	-0.110	-0.318
-657.916	14.738	-0.154	-0.121
-656.901	800.000	0.083	-0.313
-655.886	129.322	-0.220	-0.282
-654.872	-181.243	0.249	0.005
-653.857	52.267	-0.129	0.123
-652.843	335.727	-0.092	0.179
-651.828	49.556	0.152	-0.143
-650.814	43.909	-0.041	0.038
-649.799	800.000	-0.052	0.147
-648.784	-200.000	-0.021	0.235
-647.770	-63.619	-0.151	-0.062
-646.755	552.624	-0.048	0.115
-645.741	800.000	-0.072	-0.240
-644.726	83.488	-0.180	-0.196
-643.711	-30.440	-0.043	-0.024
-642.697	-40.194	-0.075	-0.039
-641.682	784.873	0.088	-0.241
-640.668	135.977	-0.103	0.134
-639.653	134.814	0.092	-0.120
-638.638	800.000	-0.095	-0.335
-637.624	-200.000	0.061	-0.375
-636.609	-130.477	-0.405	-0.055
-635.595	43.704	-0.058	0.053
-634.580	-83.429	-0.348	0.112
-633.565	360.640	-0.118	-0.237
-632.551	77.415	-0.079	0.084
-631.536	449.202	0.035	-0.078
-630.522	588.865	-0.124	-0.306
-629.507	-200.000	-0.038	-0.226
-628.492	525.947	-0.082	0.193
-627.478	699.611	0.053	0.139
-626.463	275.890	0.141	0.251
-625.449	445.116	0.032	-0.070
-624.434	546.805	0.063	-0.152
-623.419	-128.959	-0.229	0.032
-622.405	-117.797	-0.442	-0.080
-621.390	148.740	0.192	-0.260
-620.376	-64.951	-0.105	-0.043
-619.361	-35.464	-0.204	0.111
-618.346	34.217	-0.125	0.109
-617.332	134.346	-0.172	0.223
-616.317	800.000	0.013	0.050
-615.303	348.775	-0.183	-0.362
-614.288	8.206	0.089	0.067
-613.273	-173.236	-0.341	0.010
-612.259	-39.900	0.150	0.079
-611.244	-9.325	-0.150	-0.101
-610.230	-44.381	-0.351	-0.176
-609.215	-12.838	0.358	-0.234
-608.201	800.000	0.067	-0.196
-607.186	-74.188	-0.360	-0.130
-606.171	-72.497	0.267	-0.099
-605.157	-36.809	-0.225	0.121
-604.142	544.968	-0.043	0.104
-603.128	-200.000	0.056	-0.326
-602.113	800.000	0.069	-0.194
-601.098	524.421	-0.143	-0.338
-600.084	-200.000	-0.056	0.255
-599.069	-200.000	-0.059	-0.268
-598.055	104.329	0.303	-0.357
-597.040	154.760	0.212	-0.292
-596.025	66.244	0.202	-0.205
-595.011	-145.095	0.265	0.024
-593.996	-32.156	0.257	-0.144
-592.982	-131.549	0.444	0.059
-591.967	-22.756	0.146	-0.088
-590.952	146.443	-0.084	-0.112
-589.938	-104.076	-0.108	0.025
-588.923	-77.404	0.169	-0.059
-587.909	195.220	-0.110	-0.167
-586.894	399.935	-0.059	0.124
-585.879	-100.129	-0.238	0.059
-584.865	-81.857	-0.188	-0.062
-583.850	48.877	-0.052	-0.048
-582.836	199.501	0.071	0.108
-581.821	263.266	0.104	0.180
-580.806	-169.741	0.105	-0.004
-579.792	392.978	-0.019	0.040
-578.777	391.731	0.075	0.156
-577.763	800.000	-0.053	-0.160
-576.748	531.042	-0.075	-0.178
-575.733	-200.000	-0.037	-0.164
-574.719	379.737	-0.081	0.165
-573.704	28.696	0.237	0.201
-572.690	-200.000	-0.017	-0.154
-571.675	20.199	-0.278	-0.224
-570.661	51.214	0.146	0.138
-569.646	293.287	-0.075	0.137
-568.631	-74.481	-0.062	-0.023
-567.617	800.000	-0.090	-0.391
-566.602	142.753	0.112	0.149
-565.588	-97.198	-0.427	-0.112
-564.573	-83.735	0.230	-0.073
-563.558	800.000	-0.108	0.468
-562.544	-97.293	-0.330	-0.086
-561.529	-114.622	-0.211	-0.040
-560.515	-41.126	-0.254	0.131
-559.500	-200.000	0.015	-0.069
-558.485	160.866	-0.169	-0.235
-557.471	-105.063	0.070	0.016
-556.456	104.809	-0.172	0.203
-555.442	-65.835	0.166	0.067
-554.427	-168.382	0.059	0.002
-553.412	-200.000	0.021	0.201
-552.398	-5.004	-0.162	0.112
-551.383	101.346	0.167	-0.195
-550.369	-101.620	-0.113	0.027
-549.354	800.000	-0.041	-0.125
-548.339	27.048	0.237	-0.199
-547.325	-51.941	-0.458	0.213
-546.310	-42.774	0.177	-0.090
-545.296	-53.024	0.186	0.085
-544.281	-131.455	-0.094	0.012
-543.266	-16.987	-0.108	0.068
-542.252	-50.488	-0.110	-0.052
-541.237	302.095	0.091	-0.168
-540.223	5.785	-0.213	0.157
-539.208	-43.272	0.360	0.182
-538.193	-200.000	-0.078	-0.341
-537.179	221.293	-0.053	0.084
-536.164	73.917	-0.031	-0.033
-535.150	-149.120	-0.141	0.011
-534.135	148.726	0.156	0.211
-533.121	151.286	-0.123	-0.167
-532.106	-112.350	-0.125	-0.025
-531.091	-18.716	0.049	0.031
-530.077	-158.613	0.084	-0.005
-529.062	282.785	0.195	0.350
-528.048	-158.075	-0.145	0.009
-527.033	-82.112	-0.110	-0.036
-526.018	170.612	-0.071	0.102
-525.004	-178.609	0.172	-0.004
-523.989	106.208	-0.031	0.037
-522.975	-200.000	0.048	-0.245
-521.960	180.397	0.089	-0.131
-520.945	207.866	-0.068	-0.105
-519.931	21.281	0.243	-0.197
-518.916	44.688	0.189	0.174
-517.902	401.975	0.162	0.339
-516.887	800.000	-0.111	0.307
-515.872	800.000	-0.088	-0.337
-514.858	126.871	-0.193	0.244
-513.843	800.000	0.085	0.279
-512.829	-80.617	0.226	0.075
-511.814	612.914	-0.088	-0.219
-510.799	-18.294	0.212	-0.132
-509.785	51.249	-0.239	0.226
-508.770	91.175	-0.263	0.295
-507.756	507.093	0.102	0.236
-506.741	23.991	-0.027	0.022
-505.726	52.981	-0.144	-0.137
-504.712	-74.224	0.052	0.019
-503.697	-160.534	-0.098	0.005
-502.683	206.163	0.033	0.051
-501.668	-79.041	-0.304	0.103
-500.653	-1.822	0.275	0.193
-499.639	224.795	-0.198	0.319
-498.624	694.474	0.067	-0.176
-497.610	800.000	-0.011	0.034
-496.595	-96.240	-0.222	0.059
-495.581	-150.128	0.323	0.025
-494.566	-18.075	-0.107	0.067
-493.551	-170.956	0.239	-0.008
-492.537	-200.000	0.025	0.188
-491.522	554.812	-0.059	0.143
-490.508	-127.866	-0.121	-0.017
-489.493	-200.000	0.019	0.115
-488.478	-200.000	0.104	-0.498
-487.464	-44.804	0.237	-0.118
-486.449	-63.301	-0.155	-0.063
-485.435	100.568	0.047	-0.055
-484.420	312.103	-0.029	-0.054
-483.405	602.990	-0.070	-0.175
-482.391	-139.917	0.381	-0.040
-481.376	8.752	-0.075	0.057
-480.362	97.692	-0.140	0.160
-479.347	-170.476	0.229	-0.008
-478.332	-142.317	-0.138	-0.014
-477.318	28.358	0.330	-0.277
-476.303	16.176	0.207	0.163
-475.289	227.910	0.208	-0.337
-474.274	-148.237	-0.158	-0.013
-473.259	-29.219	-0.129	-0.074
-472.245	800.000	0.031	0.122
-471.230	-97.505	0.240	-0.062
-470.216	107.556	0.144	-0.171
-469.201	97.241	0.174	-0.199
-468.186	1.049	0.302	-0.216
-467.172	135.959	-0.138	0.180
-466.157	-147.453	-0.241	-0.020
-465.143	-200.000	0.025	0.182
-464.128	-54.797	0.246	0.110
-463.113	-200.000	0.001	0.032
-462.099	-108.838	0.191	0.041
-461.084	-200.000	-0.019	-0.243
-460.070	-99.398	-0.343	0.086
-459.055	-40.280	0.269	0.139
-458.040	-110.989	-0.505	-0.103
-457.026	-51.040	-0.356	-0.166
-456.011	-200.000	-0.036	0.159
-454.997	-200.000	-0.016	0.246
-453.982	-200.000	0.010	-0.274
-452.968	-200.000	-0.002	0.149
-451.953	-43.088	0.105	0.053
-450.938	-200.000	-0.031	0.405
-449.924	800.000	0.110	0.320
-448.909	-100.191	0.235	-0.058
-447.895	-200.000	-0.026	-0.448
-446.880	-200.000	-0.026	0.293
-445.865	-73.882	-0.125	-0.045
-444.851	-200.000	0.004	0.086
-443.836	-102.692	0.150	-0.036
-442.822	-200.000	0.037	0.382
-441.807	-171.332	0.300	0.010
-440.792	800.000	-0.054	0.210
-439.778	-89.527	-0.273	-0.080
-438.763	21.263	0.242	-0.195
-437.749	109.416	-0.133	0.158
-436.734	-20.364	0.230	0.141
-435.719	-98.424	-0.197	-0.050
-434.705	800.000	0.082	0.284
-433.690	-38.809	0.052	-0.027
-432.676	662.717	-0.023	0.059
-431.661	8.208	-0.140	-0.104
-430.646	11.124	0.136	0.104
-429.632	-75.584	-0.250	-0.088
-428.617	71.597	0.219	0.227
-427.603	-200.000	-0.062	-0.322
-426.588	800.000	0.030	-0.096
-425.573	42.695	-0.184	-0.167
-424.559	697.667	-0.087	0.228
-423.544	31.240	0.219	0.187
-422.530	-21.190	-0.230	0.140
-421.515	-86.602	0.300	0.091
-420.500	-92.450	0.229	0.064
-419.486	46.878	0.072	0.067
-418.471	227.564	-0.099	-0.160
-417.457	49.854	0.110	-0.103
-416.442	7.352	0.240	0.179
-415.428	-70.692	0.116	0.044
-414.413	419.797	-0.042	-0.089
-413.398	568.202	0.084	0.204
-412.384	-4.769	-0.282	0.194
-411.369	800.000	-0.013	0.053
-410.355	-45.649	-0.262	-0.129
-409.340	156.742	-0.100	0.138
-408.325	-97.225	-0.054	0.014
-407.311	-200.000	0.025	0.238
-406.296	427.180	-0.097	-0.209
-405.282	-200.000	-0.031	-0.208
-404.267	298.711	-0.079	0.145
-403.252	598.953	-0.128	-0.315
-402.238	63.225	0.175	0.174
-401.223	458.723	-0.133	0.293
-400.209	-200.000	-0.088	0.439
-399.194	-104.092	-0.156	-0.036
-398.179	529.885	0.121	0.283
-397.165	800.000	0.030	-0.105
-396.150	-42.927	-0.261	0.132
-395.136	800.000	-0.060	0.217
-394.121	-142.919	-0.180	-0.017
-393.106	-200.000	-0.005	0.098
-392.092	728.628	-0.145	-0.384
-391.077	43.320	-0.106	0.097
-390.063	-33.152	-0.261	0.143
-389.048	-73.573	0.120	-0.044
-388.033	-6.462	0.133	-0.090
-387.019	-200.000	0.012	-0.142
-386.004	-79.788	0.260	0.087
-384.990	-30.958	-0.200	0.112
-383.975	800.000	-0.120	0.361
-382.960	302.030	0.095	0.174
-381.946	-32.774	0.231	-0.128
-380.931	-200.000	0.070	0.398
-379.917	800.000	-0.073	-0.247
-378.902	-87.297	-0.222	-0.067
-377.888	-200.000	-0.010	-0.273
-376.873	714.292	-0.081	-0.213
-375.858	20.965	-0.162	0.130
-374.844	39.791	-0.084	-0.075
-373.829	435.842	0.060	0.130
-372.815	107.504	-0.066	-0.078
-371.800	-89.616	0.085	0.025
-370.785	-200.000	0.025	-0.137
-369.771	-77.443	0.110	0.038
-368.756	-40.068	0.356	0.184
-367.742	-200.000	-0.039	0.265
-366.727	-110.551	0.325	0.067
-365.712	73.807	-0.124	0.129
-364.698	-179.481	0.070	0.002
-363.683	96.702	0.285	0.324
-362.669	800.000	0.031	-0.113
-361.654	-6.480	0.123	-0.083
-360.639	-100.396	-0.180	-0.044
-359.625	-79.273	-0.180	-0.060
-358.610	-9.721	-0.231	0.153
-357.596	-63.027	-0.116	-0.048
-356.581	-113.608	0.131	0.025
-355.566	-25.707	-0.225	0.132
-354.552	497.197	-0.071	-0.162
-353.537	-22.821	0.254	0.152
-352.523	120.368	-0.117	0.144
-351.508	509.444	0.085	0.195
-350.493	-176.153	-0.141	-0.004
-349.479	-5.144	-0.355	-0.242
-348.464	-79.498	0.347	0.116
-347.450	800.000	0.115	0.322
-346.435	-85.026	0.173	-0.054
-345.420	-3.919	-0.152	0.104
-344.406	-124.577	-0.394	-0.061
-343.391	185.022	-0.148	-0.218
-342.377	-123.523	0.295	0.046
-341.362	-151.770	0.184	0.013
-340.348	-8.030	-0.105	-0.070
-339.333	104.161	0.191	0.222
-338.318	28.461	0.140	0.117
-337.304	-200.000	-0.010	-0.078
-336.289	92.775	-0.086	-0.096
-335.275	800.000	-0.058	0.254
-334.260	541.012	-0.022	-0.051
-333.245	-61.909	0.160	-0.066
-332.231	-132.593	-0.201	0.026
-331.216	-54.506	-0.139	-0.063
-330.202	-22.967	-0.069	-0.041
-329.187	213.610	-0.098	-0.153
-328.172	-174.214	0.223	0.006
-327.158	-200.000	-0.045	-0.250
-326.143	57.867	0.052	0.051
-325.129	-200.000	0.006	-0.102
-324.114	166.276	0.249	0.349
-323.099	-83.021	-0.341	-0.109
-322.085	-194.982	-0.436	0.003
-321.070	-200.000	0.030	0.221
-320.056	-86.003	0.297	-0.091
-319.041	772.781	0.054	-0.146
-318.026	8.020	-0.015	-0.011
-317.012	18.652	-0.162	-0.128
-315.997	-120.446	-0.226	0.038
-314.983	-99.890	0.043	0.011
-313.968	-200.000	0.044	-0.251
-312.953	253.744	-0.110	-0.186
-311.939	-154.342	-0.331	-0.022
-310.924	-173.394	0.304	0.009
-309.910	-120.168	0.264	0.045
-308.895	319.855	0.047	0.088
-307.880	35.621	0.286	-0.249
-306.866	-77.086	-0.260	-0.090
-305.851	-39.480	0.188	0.098
-304.837	247.685	0.078	-0.130
-303.822	800.000	-0.162	-0.453
-302.807	130.553	-0.036	0.045
-301.793	29.896	-0.084	-0.070
-300.778	-35.672	-0.185	0.099
-299.764	302.669	0.132	-0.241
-298.749	305.939	-0.047	0.086
-297.735	-200.000	-0.048	0.222
-296.720	-28.046	0.253	0.145
-295.705	-140.430	-0.274	0.028
-294.691	98.548	0.105	0.120
-293.676	653.178	0.068	0.172
-292.662	-200.000	-0.022	-0.270
-291.647	-177.203	-0.104	0.003
-290.632	172.448	-0.285	0.405
-289.618	-200.000	-0.017	-0.146
-288.603	-89.342	-0.083	-0.024
-287.589	-29.023	0.283	-0.161
-286.574	374.444	-0.055	-0.112
-285.559	20.084	-0.250	-0.199
-284.545	-200.000	-0.035	0.233
-283.530	-54.713	-0.115	0.051
-282.516	86.665	0.215	0.235
-281.501	800.000	0.122	-0.505
-280.486	800.000	-0.101	-0.301
-279.472	19.155	0.256	-0.203
-278.457	-200.000	0.023	-0.237
-277.443	-200.000	0.055	-0.242
-276.428	-200.000	0.008	-0.154
-275.413	-200.000	-0.010	0.289
-274.399	-64.192	0.079	0.032
-273.384	22.612	0.222	-0.180
-272.370	-87.232	0.219	-0.066
-271.355	536.583	0.093	-0.218
-270.340	-78.599	-0.099	-0.033
-269.326	-131.766	-0.150	0.019
-268.311	-64.829	0.268	0.107
-267.297	-17.791	-0.146	-0.090
-266.282	-167.606	0.096	0.004
-265.267	181.837	0.145	0.210
-264.253	176.205	-0.121	0.173
-263.238	-73.011	0.049	-0.018
-262.224	-40.139	0.111	-0.057
-261.209	800.000	0.032	-0.117
-260.195	-8.681	0.146	-0.097
-259.180	73.793	-0.118	0.122
-258.165	-20.470	0.163	0.099
-257.151	55.045	-0.196	-0.187
-256.136	-200.000	-0.001	-0.100
-255.122	-95.824	-0.233	-0.062
-254.107	-60.473	-0.337	0.141
-253.092	224.431	0.195	0.311
-252.078	34.543	-0.167	0.144
-251.063	800.000	0.095	0.282
-250.049	-160.782	0.243	-0.013
-249.034	145.275	-0.123	0.163
-248.019	-200.000	0.002	-0.028
-247.005	-107.270	0.227	-0.049
-245.990	800.000	-0.036	0.106
-244.976	-92.785	-0.304	0.084
-243.961	800.000	0.029	-0.079
-242.946	132.623	0.106	0.136
-241.932	-200.000	-0.042	0.199
-240.917	46.126	-0.138	0.126
-239.903	648.939	-0.235	-0.593
-238.888	-157.719	0.062	-0.004
-237.873	69.975	-0.117	0.120
-236.859	25.877	-0.079	0.065
-235.844	7.884	-0.227	0.168
-234.830	-200.000	-0.021	-0.113
-233.815	-62.839	-0.271	0.111
-232.800	115.844	0.092	0.111
-231.786	-2.787	-0.037	-0.026
-230.771	800.000	0.039	0.160
-229.757	-125.461	0.252	-0.038
-228.742	170.783	0.157	0.222
-227.727	-160.716	0.211	0.011
-226.713	-200.000	0.016	0.359
-225.698	-96.424	0.258	-0.067
-224.684	480.840	-0.109	-0.243
-223.669	-139.739	-0.243	-0.025
-222.655	-116.193	0.527	-0.097
-221.640	-200.000	-0.028	-0.285
-220.625	-130.008	-0.137	-0.019
-219.611	117.723	0.122	-0.148
-218.596	124.637	-0.097	0.120
-217.582	42.560	-0.043	0.038
-216.567	138.965	0.169	-0.220
-215.552	624.064	-0.058	-0.144
-214.538	159.166	0.233	0.320
-213.523	800.000	0.056	-0.220
-212.509	-157.676	0.246	0.014
-211.494	90.756	-0.278	-0.307
-210.479	-170.702	0.198	0.007
-209.465	-200.000	0.000	0.169
-208.450	-200.000	-0.053	-0.277
-207.436	-19.554	0.170	-0.104
-206.421	-1.011	0.060	0.042
-205.406	139.578	-0.060	-0.078
-204.392	473.215	0.125	-0.277
-203.377	0.563	0.199	0.140
-202.363	1.343	-0.304	0.216
-201.348	319.832	0.051	0.095
-200.333	337.292	-0.101	0.194
-199.319	-74.107	0.336	-0.120
-198.304	381.557	0.087	0.176
-197.290	24.442	-0.250	-0.203
-196.275	800.000	-0.096	-0.318
-195.260	-105.338	0.129	-0.029
-194.246	-145.898	0.326	0.029
-193.231	160.561	-0.177	-0.244
-192.217	60.305	0.159	0.155
-191.202	-0.325	-0.360	0.252
-190.187	-71.659	0.233	0.086
-189.173	-200.000	-0.001	0.101
-188.158	-136.714	0.329	-0.037
-187.144	800.000	0.067	-0.189
-186.129	-0.259	-0.072	-0.050
-185.114	-73.784	0.547	0.196
-184.100	-37.439	-0.205	-0.108
-183.085	800.000	-0.079	-0.224
-182.071	334.367	0.033	-0.063
-181.056	-83.987	0.094	-0.029
-180.042	-90.741	0.364	0.103
-179.027	98.842	0.159	-0.180
-178.012	-95.139	0.217	-0.058
-176.998	-200.000	-0.021	0.139
-175.983	-75.468	-0.123	0.043
-174.969	-200.000	0.042	0.252
-173.954	434.710	0.103	0.220
-172.939	-162.445	0.290	0.014
-171.925	302.623	-0.114	-0.207
-170.910	800.000	-0.034	-0.132
-169.896	23.968	0.049	-0.040
-168.881	-200.000	0.040	0.307
-167.866	184.970	-0.187	0.273
-166.852	800.000	0.037	-0.151
-165.837	-200.000	0.017	-0.080
-164.823	116.261	0.218	0.263
-163.808	-54.645	0.319	-0.142
-162.793	-7.287	-0.077	0.051
-161.779	356.166	-0.034	-0.066
-160.764	122.972	-0.146	-0.180
-159.750	-117.876	0.150	0.026
-158.735	235.775	0.055	-0.089
-157.720	-24.877	-0.125	-0.073
-156.706	280.428	0.119	0.210
-155.691	602.300	-0.164	0.400
-154.677	20.702	0.192	-0.153
-153.662	-200.000	0.014	-0.208
-152.647	800.000	-0.029	0.090
-151.633	800.000	0.059	0.208
-150.618	-200.000	0.034	0.180
-149.604	-7.988	-0.243	0.161
-148.589	-130.853	0.428	-0.056
-147.574	-92.733	0.180	-0.050
-146.560	287.810	-0.147	0.262
-145.545	8.558	-0.102	0.076
-144.531	385.845	0.034	0.068
-143.516	194.400	-0.011	-0.016
-142.502	654.073	0.050	-0.126
-141.487	495.664	-0.093	-0.210
-140.472	800.000	0.145	-0.441
-139.458	767.165	0.110	0.294
-138.443	-68.011	0.247	0.095
-137.429	6.396	-0.193	0.141
-136.414	33.273	-0.188	-0.160
-135.399	-78.048	-0.189	-0.064
-134.385	289.083	-0.110	0.196
-133.370	73.778	-0.206	0.212
-132.356	-200.000	-0.014	0.118
-131.341	27.645	0.203	0.168
-130.326	651.688	-0.108	0.271
-129.312	-159.298	0.091	-0.005
-128.297	396.676	0.070	-0.143
-127.283	238.204	-0.130	-0.213
-126.268	-190.425	0.176	-0.002
-125.253	-53.086	0.383	0.173
-124.239	-200.000	0.037	0.473
-123.224	5.684	-0.240	0.174
-122.210	369.554	0.185	-0.367
-121.195	-129.119	-0.189	-0.026
