DTS Sentinel unit serial number:	SN413079Multiplexer serial number:	ORYXHardware model number:	OX4-SRSoftware version number:	ORYX F/W v4.00 Oryx Data Collector v3.7.2.0data status	okinstallation	princeton_trtdifferential loss correction	single-endedforward channel	channel 4reverse channel	N/Adate	2019/09/18time	16:13:35forward acquisition time	60.00reverse acquisition time	0.00gamma	496.2192k internal	0.2289k external	0.2289temperature offset calibration	1.0010default loss term (dB/km)	0.3790temperature slope calibration	1.0000multiplexer offset coefficient	1.0000multiplexer slope coefficient	1.0000fibre end	0.00T internal ref (°C)	38.28T ext. ref 1 (°C)	0.81T ext. ref 2 (°C)	36.85length (m)	temperature (°C)	Stokes	anti-Stokes-747.200	-200.000	0.058	-0.306
-746.185	279.214	-0.021	-0.039
-745.171	-176.360	-0.094	0.003
-744.156	800.000	-0.020	0.079
-743.142	262.726	-0.187	0.333
-742.127	202.671	0.053	-0.083
-741.112	-46.437	0.326	0.164
-740.098	543.309	0.203	-0.497
-739.083	89.721	0.156	0.178
-738.069	231.365	0.253	0.425
-737.054	107.735	-0.039	0.048
-736.039	495.590	0.064	0.150
-735.025	-83.368	0.031	0.010
-734.010	-111.845	0.177	-0.037
-732.996	-1.457	0.237	-0.171
-731.981	-105.723	0.167	-0.039
-730.966	-129.625	0.268	-0.038
-729.952	-72.034	-0.140	0.053
-728.937	-93.579	-0.106	-0.030
-727.923	800.000	0.079	-0.285
-726.908	-35.997	-0.039	-0.021
-725.894	-66.889	0.241	-0.098
-724.879	-106.260	-0.271	-0.062
-723.864	-29.342	-0.105	-0.062
-722.850	-200.000	0.018	0.228
-721.835	-99.213	-0.371	0.096
-720.821	709.070	0.042	-0.114
-719.806	-200.000	0.017	-0.090
-718.791	-38.669	0.121	0.065
-717.777	-200.000	0.060	-0.273
-716.762	-38.570	-0.298	0.161
-715.748	293.378	-0.131	0.245
-714.733	-200.000	-0.020	-0.252
-713.718	262.231	0.077	-0.137
-712.704	-62.559	0.103	0.044
-711.689	-200.000	0.002	-0.135
-710.675	112.589	-0.042	-0.051
-709.660	-42.347	0.242	0.127
-708.645	-87.148	0.412	0.128
-707.631	85.998	0.060	0.067
-706.616	-40.807	-0.300	0.159
-705.602	-185.805	0.083	-0.001
-704.587	800.000	-0.027	-0.102
-703.572	91.009	0.040	-0.046
-702.558	379.463	0.111	0.233
-701.543	-75.785	0.423	0.154
-700.529	-135.426	-0.176	0.021
-699.514	768.711	-0.064	0.178
-698.499	76.097	0.068	0.074
-697.485	130.184	0.224	-0.293
-696.470	36.935	-0.039	-0.035
-695.456	-26.991	-0.274	-0.164
-694.441	-200.000	-0.032	-0.200
-693.426	-4.170	0.142	-0.100
-692.412	39.504	0.037	-0.034
-691.397	800.000	-0.080	-0.242
-690.383	-126.852	-0.160	-0.024
-689.368	800.000	0.072	-0.230
-688.354	-102.318	-0.153	-0.038
-687.339	-3.764	-0.379	0.269
-686.324	-113.182	-0.200	0.040
-685.310	-94.839	-0.295	-0.082
-684.295	-97.333	0.043	0.011
-683.281	800.000	0.014	0.050
-682.266	150.476	-0.066	-0.092
-681.251	58.557	0.126	-0.126
-680.237	-91.765	-0.186	-0.054
-679.222	106.036	-0.272	0.329
-678.208	276.499	-0.148	0.268
-677.193	-86.977	0.293	-0.091
-676.178	-54.977	-0.124	-0.057
-675.164	-161.720	0.084	0.004
-674.149	-23.543	-0.134	0.082
-673.135	103.616	-0.185	-0.221
-672.120	82.005	0.138	0.153
-671.105	79.828	0.076	0.083
-670.091	-113.885	-0.298	0.059
-669.076	653.798	-0.068	0.179
-668.062	97.564	-0.127	0.149
-667.047	162.946	-0.044	-0.063
-666.032	406.218	-0.125	0.269
-665.018	30.847	0.135	0.118
-664.003	163.364	-0.230	-0.330
-662.989	-200.000	-0.018	-0.225
-661.974	49.818	-0.257	-0.248
-660.959	-200.000	-0.062	-0.465
-659.945	-117.623	-0.187	-0.035
-658.930	-94.813	0.111	0.031
-657.916	159.614	-0.128	0.183
-656.901	-124.925	0.247	0.039
-655.886	800.000	-0.084	-0.338
-654.872	-88.857	-0.280	-0.085
-653.857	-6.852	-0.175	-0.122
-652.843	-45.164	0.218	0.111
-651.828	577.274	0.015	-0.037
-650.814	-200.000	-0.005	-0.027
-649.799	90.083	-0.260	0.297
-648.784	-197.513	0.244	0.002
-647.770	-136.867	-0.051	-0.006
-646.755	201.459	0.073	0.115
-645.741	-57.912	-0.407	-0.182
-644.726	412.468	-0.093	-0.202
-643.711	800.000	-0.155	0.512
-642.697	-200.000	0.005	0.180
-641.682	800.000	0.005	0.021
-640.668	-179.483	-0.275	-0.006
-639.653	-122.889	-0.236	-0.039
-638.638	-200.000	-0.007	-0.186
-637.624	339.107	-0.027	-0.055
-636.609	-13.297	0.133	-0.088
-635.595	236.075	-0.131	0.220
-634.580	800.000	-0.052	-0.170
-633.565	17.892	0.095	0.077
-632.551	-109.735	0.082	0.018
-631.536	292.180	-0.068	-0.127
-630.522	-92.028	0.138	-0.040
-629.507	-90.284	0.261	0.077
-628.492	219.147	0.102	-0.167
-627.478	800.000	-0.050	0.152
-626.463	-47.272	-0.375	0.186
-625.449	-62.836	0.203	0.086
-624.434	-200.000	0.020	-0.148
-623.419	-93.362	0.166	0.047
-622.405	-61.324	0.282	-0.121
-621.390	60.658	0.152	0.153
-620.376	-110.425	-0.240	-0.051
-619.361	30.734	-0.255	-0.222
-618.346	-32.003	0.221	0.126
-617.332	-175.334	-0.238	0.007
-616.317	521.025	-0.048	0.115
-615.303	-173.675	0.272	0.008
-614.288	800.000	-0.021	0.095
-613.273	-200.000	-0.037	0.331
-612.259	73.409	0.144	-0.153
-611.244	-177.234	0.141	-0.004
-610.230	186.080	-0.106	-0.161
-609.215	-107.143	0.050	0.011
-608.201	-161.402	-0.272	-0.014
-607.186	-49.655	-0.114	-0.055
-606.171	118.830	-0.260	0.327
-605.157	800.000	0.099	0.385
-604.142	155.967	-0.086	0.121
-603.128	55.265	0.144	-0.142
-602.113	71.914	0.010	-0.011
-601.098	81.314	0.009	-0.010
-600.084	-85.170	0.062	0.020
-599.069	543.329	-0.123	-0.299
-598.055	466.379	-0.070	0.160
-597.040	800.000	0.013	0.053
-596.025	101.950	0.155	-0.184
-595.011	-136.005	0.182	0.022
-593.996	220.480	-0.151	-0.246
-592.982	188.181	0.127	0.194
-591.967	-113.468	-0.203	-0.041
-590.952	-39.608	-0.240	0.128
-589.938	800.000	0.046	0.180
-588.923	-41.602	-0.066	0.034
-587.909	360.296	0.085	0.173
-586.894	417.936	-0.061	-0.133
-585.879	-88.777	-0.110	-0.033
-584.865	-110.353	0.362	0.077
-583.850	519.294	-0.020	0.048
-582.836	-200.000	0.014	0.258
-581.821	126.628	0.248	0.320
-580.806	-200.000	0.062	-0.293
-579.792	-33.500	0.319	-0.179
-578.777	-21.182	0.178	-0.111
-577.763	800.000	0.041	0.163
-576.748	-120.115	0.065	0.011
-575.733	-21.661	-0.122	-0.076
-574.719	-200.000	0.010	-0.083
-573.704	-39.162	-0.395	0.212
-572.690	69.372	-0.301	-0.315
-571.675	-96.965	-0.135	0.036
-570.661	-60.797	-0.462	0.199
-569.646	202.101	-0.033	-0.052
-568.631	-200.000	-0.060	-0.334
-567.617	-47.483	-0.076	-0.038
-566.602	-28.796	0.066	-0.039
-565.588	-41.798	0.235	0.123
-564.573	800.000	-0.028	-0.114
-563.558	227.336	0.094	0.155
-562.544	1.701	-0.165	-0.121
-561.529	50.554	0.151	0.145
-560.515	-118.666	-0.203	-0.036
-559.500	-156.327	-0.278	-0.018
-558.485	-200.000	-0.064	0.313
-557.471	-54.536	-0.276	-0.127
-556.456	-119.980	-0.055	0.010
-555.442	-45.368	-0.088	-0.044
-554.427	-93.659	0.103	-0.029
-553.412	72.655	-0.193	0.204
-552.398	800.000	0.079	-0.224
-551.383	249.805	-0.069	0.119
-550.369	21.017	0.151	0.124
-549.354	-40.495	0.080	0.042
-548.339	78.822	0.087	-0.095
-547.325	-200.000	0.032	-0.177
-546.310	705.801	0.035	0.093
-545.296	-101.176	-0.056	0.014
-544.281	-45.219	-0.298	0.150
-543.266	193.983	0.185	-0.286
-542.252	472.907	0.090	-0.205
-541.237	-9.996	0.157	-0.106
-540.223	-17.745	0.043	-0.028
-539.208	302.269	0.184	-0.347
-538.193	-200.000	0.002	-0.125
-537.179	-200.000	0.022	0.142
-536.164	-200.000	-0.026	0.477
-535.150	94.601	0.173	-0.199
-534.135	724.001	-0.008	0.021
-533.121	103.856	0.141	-0.169
-532.106	317.858	-0.089	-0.172
-531.091	-200.000	-0.008	-0.202
-530.077	-184.838	-0.073	0.001
-529.062	226.470	-0.133	-0.219
-528.048	-105.573	-0.228	0.053
-527.033	-200.000	-0.002	-0.073
-526.018	-200.000	-0.011	0.114
-525.004	-200.000	0.010	-0.257
-523.989	26.920	-0.099	-0.084
-522.975	-200.000	0.032	-0.399
-521.960	-178.297	0.218	0.005
-520.945	-200.000	0.038	0.379
-519.931	218.706	-0.092	-0.150
-518.916	5.774	-0.209	0.157
-517.902	2.098	-0.247	-0.181
-516.887	-200.000	0.048	0.275
-515.872	-104.118	0.108	0.026
-514.858	-200.000	0.006	0.084
-513.843	-200.000	-0.027	-0.122
-512.829	66.560	-0.203	-0.210
-511.814	-200.000	0.069	-0.557
-510.799	-69.938	0.405	0.157
-509.785	6.816	0.176	-0.133
-508.770	153.510	0.049	-0.068
-507.756	-200.000	0.013	-0.123
-506.741	-80.208	0.145	-0.049
-505.726	-132.788	0.170	-0.022
-504.712	-98.495	0.045	-0.012
-503.697	-200.000	0.002	0.103
-502.683	-200.000	-0.075	-0.390
-501.668	293.884	-0.065	0.121
-500.653	800.000	0.064	0.192
-499.639	-36.874	0.121	-0.066
-498.624	800.000	-0.015	-0.061
-497.610	-16.280	0.258	-0.166
-496.595	12.204	0.412	0.322
-495.581	200.646	0.053	-0.083
-494.566	382.845	0.083	-0.172
-493.551	-200.000	0.001	0.088
-492.537	-200.000	0.023	0.167
-491.522	-112.394	0.229	-0.047
-490.508	-68.481	-0.239	-0.094
-489.493	800.000	0.089	0.269
-488.478	-200.000	-0.031	0.454
-487.464	190.558	0.060	-0.092
-486.449	69.312	-0.182	0.190
-485.435	-200.000	-0.026	0.155
-484.420	57.889	-0.084	-0.083
-483.405	800.000	-0.076	0.218
-482.391	-200.000	-0.034	0.202
-481.376	-65.155	-0.137	0.056
-480.362	800.000	-0.068	-0.212
-479.347	-48.870	-0.305	0.148
-478.332	522.978	-0.028	-0.066
-477.318	211.620	0.116	-0.186
-476.303	800.000	0.116	-0.509
-475.289	-61.516	0.133	-0.057
-474.274	103.433	0.218	0.259
-473.259	-141.480	-0.056	0.006
-472.245	-59.975	0.151	0.065
-471.230	-35.159	-0.108	-0.059
-470.216	161.489	-0.193	-0.273
-469.201	-63.950	0.152	-0.063
-468.186	-128.684	-0.091	-0.013
-467.172	230.862	-0.111	0.184
-466.157	800.000	-0.017	-0.055
-465.143	800.000	0.047	0.136
-464.128	-200.000	0.116	-0.589
-463.113	-18.348	0.055	-0.035
-462.099	800.000	0.002	-0.007
-461.084	-200.000	-0.030	-0.205
-460.070	26.397	-0.042	0.035
-459.055	-48.662	-0.068	-0.033
-458.040	0.710	0.124	-0.090
-457.026	-25.134	0.337	-0.202
-456.011	-200.000	0.076	0.610
-454.997	391.396	0.156	0.329
-453.982	-116.688	-0.376	-0.070
-452.968	-141.862	0.301	0.031
-451.953	296.822	0.036	0.067
-450.938	40.504	-0.143	0.130
-449.924	-131.605	-0.154	-0.021
-448.909	417.383	-0.053	0.115
-447.895	58.213	0.252	-0.250
-446.880	-152.021	0.199	0.015
-445.865	320.403	-0.186	0.359
-444.851	-200.000	-0.029	-0.176
-443.836	292.242	0.077	-0.142
-442.822	-200.000	-0.005	-0.035
-441.807	329.168	0.178	0.347
-440.792	-16.793	0.302	-0.194
-439.778	68.178	-0.060	0.062
-438.763	-200.000	-0.017	0.089
-437.749	-82.474	0.219	0.072
-436.734	-57.273	-0.265	-0.118
-435.719	9.045	0.241	-0.184
-434.705	800.000	-0.098	0.314
-433.690	117.539	0.085	0.106
-432.676	-26.598	0.316	-0.187
-431.661	369.159	-0.156	-0.320
-430.646	-57.516	-0.167	-0.074
-429.632	26.562	0.211	-0.179
-428.617	-52.094	-0.292	0.137
-427.603	-200.000	0.093	0.427
-426.588	228.117	-0.173	0.285
-425.573	-87.713	-0.125	-0.038
-424.559	-144.630	-0.054	0.005
-423.544	-115.675	0.331	-0.063
-422.530	-3.845	-0.109	0.076
-421.515	-83.948	0.112	-0.036
-420.500	21.228	0.094	0.077
-419.486	159.667	-0.149	0.210
-418.471	214.995	0.109	0.174
-417.457	-64.298	-0.143	0.059
-416.442	-135.188	-0.251	-0.031
-415.428	70.067	-0.260	-0.272
-414.413	97.230	0.123	-0.143
-413.398	248.467	0.121	-0.207
-412.384	4.392	-0.224	-0.166
-411.369	280.134	-0.081	-0.147
-410.355	-109.167	-0.081	0.017
-409.340	284.955	0.191	-0.348
-408.325	395.071	-0.144	-0.303
-407.311	-62.982	-0.430	-0.180
-406.296	-200.000	-0.018	0.256
-405.282	-200.000	-0.041	0.312
-404.267	800.000	0.049	-0.150
-403.252	326.689	-0.051	-0.099
-402.238	190.710	-0.069	-0.104
-401.223	-200.000	0.034	0.256
-400.209	11.011	-0.149	-0.115
-399.194	800.000	0.056	-0.226
-398.179	800.000	0.082	-0.349
-397.165	800.000	0.089	0.262
-396.150	-36.618	0.224	0.122
-395.136	47.316	-0.082	0.077
-394.121	-200.000	-0.100	-0.514
-393.106	254.852	0.288	-0.498
-392.092	-200.000	0.005	-0.129
-391.077	66.461	0.281	-0.289
-390.063	-16.357	0.209	-0.134
-389.048	-87.885	-0.343	-0.104
-388.033	-36.537	-0.284	-0.154
-387.019	407.548	-0.106	-0.226
-386.004	800.000	0.041	-0.148
-384.990	98.302	0.176	-0.205
-383.975	-62.017	-0.280	0.118
-382.960	-122.070	-0.253	-0.042
-381.946	-79.612	-0.259	-0.088
-380.931	-96.376	0.374	0.100
-379.917	28.441	-0.039	-0.033
-378.902	-12.861	0.224	0.148
-377.888	-99.479	-0.217	0.055
-376.873	776.224	-0.073	0.202
-375.858	137.109	0.163	0.215
-374.844	-129.422	0.106	-0.015
-373.829	-200.000	0.037	-0.216
-372.815	-141.713	-0.071	-0.007
-371.800	130.974	0.064	0.083
-370.785	142.080	0.303	-0.406
-369.771	107.343	-0.275	-0.330
-368.756	-61.325	-0.136	-0.058
-367.742	800.000	-0.034	0.126
-366.727	-13.015	-0.149	-0.098
-365.712	-59.843	0.109	-0.047
-364.698	-84.989	0.174	-0.055
-363.683	2.535	-0.184	-0.134
-362.669	169.694	0.030	0.044
-361.654	-88.200	0.182	0.055
-360.639	-93.912	-0.155	-0.043
-359.625	197.777	-0.124	0.191
-358.610	-72.487	-0.344	0.128
-357.596	-198.892	0.053	0.000
-356.581	-178.632	-0.239	0.006
-355.566	153.947	0.024	0.033
-354.552	-43.790	-0.270	0.137
-353.537	800.000	-0.079	0.266
-352.523	-200.000	-0.027	-0.148
-351.508	-200.000	-0.016	-0.097
-350.493	83.826	0.132	-0.145
-349.479	800.000	-0.027	0.107
-348.464	-200.000	-0.009	-0.055
-347.450	64.146	0.326	-0.331
-346.435	-39.496	-0.125	-0.066
-345.420	-72.662	-0.316	0.118
-344.406	-3.262	-0.119	0.084
-343.391	800.000	0.144	-0.413
-342.377	-136.992	0.121	-0.014
-341.362	66.625	0.051	0.052
-340.348	795.097	-0.069	-0.191
-339.333	647.382	-0.066	0.170
-338.318	211.425	0.078	-0.123
-337.304	-200.000	-0.010	-0.242
-336.289	-200.000	-0.034	-0.193
-335.275	800.000	-0.008	0.022
-334.260	9.880	0.126	-0.097
-333.245	-95.923	-0.197	-0.053
-332.231	-143.328	0.050	0.005
-331.216	-147.727	0.161	0.014
-330.202	-92.042	0.520	0.148
-329.187	-200.000	-0.039	0.283
-328.172	-200.000	-0.053	0.250
-327.158	261.137	0.103	0.180
-326.143	-100.359	-0.110	0.028
-325.129	800.000	0.076	-0.269
-324.114	-200.000	0.008	0.463
-323.099	800.000	-0.040	0.174
-322.085	225.599	0.212	0.346
-321.070	265.981	0.155	-0.273
-320.056	515.273	-0.044	0.104
-319.041	-156.871	0.105	-0.007
-318.026	-55.305	-0.432	0.196
-317.012	90.095	-0.178	0.200
-315.997	-50.319	0.296	-0.141
-314.983	174.389	-0.037	-0.053
-313.968	-200.000	0.022	-0.162
-312.953	479.838	-0.139	0.319
-311.939	30.848	-0.174	-0.150
-310.924	800.000	-0.053	-0.166
-309.910	-65.170	-0.181	0.073
-308.895	130.893	-0.218	0.282
-307.880	-180.555	0.589	-0.012
-306.866	-65.152	-0.112	0.046
-305.851	145.178	0.163	-0.220
-304.837	11.790	0.130	-0.101
-303.822	53.070	-0.117	0.113
-302.807	280.310	0.091	0.163
-301.793	800.000	-0.030	-0.110
-300.778	-190.143	0.239	-0.003
-299.764	800.000	-0.020	0.065
-298.749	378.051	0.131	0.271
-297.735	-172.324	-0.412	0.013
-296.720	-50.175	-0.239	0.114
-295.705	800.000	0.079	0.230
-294.691	-200.000	0.029	-0.217
-293.676	-200.000	0.029	0.345
-292.662	44.323	0.039	0.036
-291.647	-200.000	-0.002	0.403
-290.632	-26.941	-0.197	-0.116
-289.618	-34.947	0.275	0.151
-288.603	230.398	0.104	0.171
-287.589	-200.000	-0.020	0.278
-286.574	-200.000	-0.011	0.143
-285.559	292.597	0.128	-0.235
-284.545	273.060	-0.141	0.251
-283.530	26.936	-0.140	-0.118
-282.516	78.677	0.297	-0.320
-281.501	234.919	-0.113	0.188
-280.486	-45.620	-0.274	-0.136
-279.472	-200.000	-0.010	-0.094
-278.457	-200.000	0.008	0.068
-277.443	-200.000	-0.058	-0.287
-276.428	19.477	0.271	0.219
-275.413	24.480	0.142	0.118
-274.399	-14.565	-0.215	-0.139
-273.384	-51.401	-0.101	-0.048
-272.370	25.568	0.193	0.162
-271.355	-73.165	-0.240	0.088
-270.340	-120.502	0.441	0.075
-269.326	517.335	-0.022	-0.052
-268.311	-47.840	0.175	0.085
-267.297	-22.737	-0.126	0.077
-266.282	394.281	-0.094	-0.198
-265.267	-95.700	-0.115	0.031
-264.253	800.000	-0.080	-0.257
-263.238	-57.079	0.297	0.132
-262.224	259.972	-0.040	-0.069
-261.209	800.000	0.033	0.137
-260.195	-200.000	-0.001	0.123
-259.180	-21.509	-0.045	-0.027
-258.165	-119.908	0.179	-0.031
-257.151	-98.991	-0.249	0.064
-256.136	-200.000	0.216	-0.001
-255.122	-200.000	0.056	0.255
-254.107	316.203	0.093	0.177
-253.092	-134.529	-0.044	0.005
-252.078	-109.580	0.165	-0.035
-251.063	724.203	-0.030	-0.082
-250.049	-77.123	-0.361	0.127
-249.034	-200.000	-0.002	-0.024
-248.019	800.000	0.080	-0.283
-247.005	-149.614	0.085	-0.007
-245.990	-14.969	0.295	-0.190
-244.976	-200.000	-0.064	-0.474
-243.961	419.807	-0.069	0.149
-242.946	-200.000	-0.049	0.293
-241.932	-200.000	0.069	0.320
-240.917	319.781	-0.143	0.272
-239.903	-158.737	0.252	0.015
-238.888	-156.121	0.134	0.009
-237.873	-18.744	0.354	0.222
-236.859	800.000	-0.053	0.229
-235.844	-87.980	0.108	0.033
-234.830	-200.000	0.022	-0.286
-233.815	197.882	0.249	0.382
-232.800	-63.374	-0.100	0.041
-231.786	11.244	0.157	0.121
-230.771	-200.000	-0.031	0.430
-229.757	121.951	-0.161	0.201
-228.742	-179.756	-0.099	0.002
-227.727	105.974	-0.014	-0.017
-226.713	-35.944	-0.244	-0.133
-225.698	-24.001	-0.200	-0.120
-224.684	155.523	0.170	-0.236
-223.669	81.915	0.218	-0.237
-222.655	-200.000	-0.006	0.102
-221.640	38.809	0.133	0.120
-220.625	-34.611	-0.074	0.041
-219.611	800.000	0.100	0.431
-218.596	265.938	0.054	0.094
-217.582	-109.164	-0.146	-0.031
-216.567	-93.565	-0.190	0.053
-215.552	-131.531	-0.185	-0.024
-214.538	370.315	-0.101	0.205
-213.523	571.299	-0.117	-0.286
-212.509	800.000	-0.098	0.273
-211.494	-32.515	0.065	0.036
-210.479	-200.000	0.034	0.411
-209.465	183.235	-0.241	0.357
-208.450	-42.806	0.223	0.114
-207.436	280.901	0.052	-0.094
-206.421	20.958	-0.053	-0.043
-205.406	800.000	0.082	-0.283
-204.392	146.540	-0.152	0.205
-203.377	251.982	0.062	-0.106
-202.363	-200.000	-0.065	-0.297
-201.348	42.626	-0.258	-0.236
-200.333	71.626	-0.021	0.021
-199.319	36.466	0.106	0.094
-198.304	99.503	-0.044	-0.051
-197.290	-3.296	0.067	0.047
-196.275	160.662	0.138	0.193
-195.260	-45.424	0.140	0.070
-194.246	-81.992	-0.348	-0.114
-193.231	-10.320	-0.300	-0.199
-192.217	800.000	-0.015	-0.061
-191.202	100.687	0.226	-0.263
-190.187	62.047	-0.104	-0.104
-189.173	-200.000	-0.031	-0.366
-188.158	106.634	0.060	-0.072
-187.144	32.005	0.158	-0.137
-186.129	-126.458	0.339	0.051
-185.114	23.821	-0.203	0.168
-184.100	-118.586	0.353	0.063
-183.085	-191.992	0.168	-0.002
-182.071	22.237	-0.072	0.059
-181.056	-190.996	-0.156	-0.002
-180.042	-42.032	-0.188	-0.097
-179.027	201.440	-0.171	0.265
-178.012	337.811	0.157	-0.307
-176.998	278.804	0.195	0.348
-175.983	362.439	-0.165	0.331
-174.969	3.313	0.259	0.189
-173.954	800.000	0.080	-0.241
-172.939	-200.000	-0.002	-0.073
-171.925	598.983	0.210	0.522
-170.910	-200.000	-0.031	-0.251
-169.896	-68.900	0.143	0.055
-168.881	-175.584	0.120	-0.003
-167.866	5.449	-0.148	-0.109
-166.852	-83.824	0.180	0.057
-165.837	800.000	0.058	-0.199
-164.823	298.430	-0.019	0.035
-163.808	359.093	-0.079	-0.159
-162.793	-29.500	-0.393	-0.225
-161.779	-60.793	0.227	-0.096
-160.764	-18.483	-0.032	-0.020
-159.750	29.354	0.133	-0.113
-158.735	25.501	-0.281	0.234
-157.720	-61.871	-0.235	0.099
-156.706	118.006	-0.104	-0.129
-155.691	-200.000	0.056	-0.320
-154.677	55.557	0.226	-0.219
-153.662	-187.701	0.252	0.003
-152.647	13.737	-0.089	0.069
-151.633	-89.792	-0.184	0.054
-150.618	-200.000	-0.081	-0.460
-149.604	610.545	-0.071	-0.177
-148.589	584.392	0.099	0.244
-147.574	540.887	0.142	-0.339
-146.560	-184.081	-0.639	-0.011
-145.545	104.985	-0.049	-0.058
-144.531	800.000	-0.096	0.407
-143.516	-200.000	0.043	0.191
-142.502	175.129	0.194	-0.281
-141.487	-200.000	-0.044	-0.356
-140.472	-200.000	-0.038	-0.219
-139.458	39.416	0.097	-0.087
-138.443	-83.901	-0.061	0.019
-137.429	-83.264	-0.444	-0.143
-136.414	-200.000	-0.009	-0.392
-135.399	9.639	0.131	-0.100
-134.385	-200.000	0.012	-0.238
-133.370	-200.000	0.003	-0.222
-132.356	74.726	0.115	-0.121
-131.341	24.592	0.225	-0.186
-130.326	-106.771	-0.225	-0.050
-129.312	-61.075	0.073	0.031
-128.297	449.758	-0.114	0.251
-127.283	-86.753	0.083	-0.025
-126.268	-171.338	0.327	-0.011
-125.253	-158.491	0.114	-0.007
-124.239	-131.703	-0.468	-0.061
-123.224	-107.997	0.161	-0.035
-122.210	175.804	0.167	0.243
