DTS Sentinel unit serial number:	SN413079Multiplexer serial number:	ORYXHardware model number:	OX4-SRSoftware version number:	ORYX F/W v4.00 Oryx Data Collector v3.7.2.0data status	okinstallation	princeton_trtdifferential loss correction	single-endedforward channel	channel 4reverse channel	N/Adate	2019/09/17time	04:05:35forward acquisition time	60.00reverse acquisition time	0.00gamma	496.2192k internal	0.2312k external	0.2312temperature offset calibration	0.9976default loss term (dB/km)	0.3790temperature slope calibration	1.0000multiplexer offset coefficient	1.0000multiplexer slope coefficient	1.0000fibre end	0.00T internal ref (°C)	29.87T ext. ref 1 (°C)	0.12T ext. ref 2 (°C)	24.36length (m)	temperature (°C)	Stokes	anti-Stokes-747.200	-136.077	-0.384	-0.046
-746.185	-200.000	-0.034	-0.194
-745.171	-144.545	-0.369	0.035
-744.156	48.041	-0.276	0.262
-743.142	-82.032	-0.135	-0.045
-742.127	26.247	0.108	0.091
-741.112	800.000	-0.011	0.047
-740.098	230.984	0.082	0.136
-739.083	-13.872	-0.190	0.125
-738.069	335.537	0.179	0.352
-737.054	-132.569	-0.031	0.004
-736.039	-125.926	-0.424	0.065
-735.025	-81.757	0.285	-0.095
-734.010	-108.059	-0.192	-0.042
-732.996	-103.026	0.104	-0.025
-731.981	800.000	-0.070	-0.289
-730.966	371.839	0.197	-0.406
-729.952	53.111	0.144	-0.140
-728.937	-200.000	0.009	-0.259
-727.923	539.222	-0.167	-0.402
-726.908	103.497	0.143	0.171
-725.894	-200.000	0.043	0.216
-724.879	800.000	-0.127	0.385
-723.864	-200.000	-0.015	-0.167
-722.850	133.782	-0.112	-0.147
-721.835	800.000	-0.048	0.174
-720.821	800.000	-0.042	-0.119
-719.806	-2.992	-0.141	-0.100
-718.791	-87.237	0.122	0.038
-717.777	332.925	0.051	-0.100
-716.762	-14.483	-0.188	0.123
-715.748	379.049	0.078	0.161
-714.733	-54.184	-0.299	-0.138
-713.718	230.060	-0.096	0.159
-712.704	-200.000	0.024	0.271
-711.689	-101.848	-0.436	-0.107
-710.675	-200.000	0.041	-0.212
-709.660	147.785	-0.159	-0.217
-708.645	-103.606	-0.239	0.057
-707.631	-81.094	0.060	-0.020
-706.616	92.027	0.137	-0.156
-705.602	225.771	0.052	0.085
-704.587	147.971	-0.136	0.186
-703.572	255.905	0.068	0.117
-702.558	48.483	0.232	-0.220
-701.543	-156.433	0.108	0.007
-700.529	313.377	-0.022	-0.042
-699.514	97.992	0.135	-0.157
-698.499	-200.000	0.023	0.272
-697.485	-30.192	-0.221	0.127
-696.470	-63.165	-0.362	0.151
-695.456	-27.383	-0.336	-0.198
-694.441	10.206	-0.260	-0.200
-693.426	-13.128	0.257	0.169
-692.412	130.324	0.054	0.070
-691.397	60.601	-0.101	0.101
-690.383	-47.559	0.281	0.138
-689.368	67.207	-0.235	-0.243
-688.354	-116.644	0.194	0.036
-687.339	133.786	-0.053	0.070
-686.324	711.042	0.046	0.122
-685.310	246.875	0.181	0.310
-684.295	114.007	-0.188	-0.231
-683.281	-82.619	-0.278	-0.091
-682.266	-59.646	-0.356	-0.155
-681.251	-200.000	0.019	0.176
-680.237	-53.748	-0.099	0.046
-679.222	-82.465	-0.126	-0.041
-678.208	-200.000	-0.047	-0.229
-677.193	83.785	0.167	-0.185
-676.178	246.697	0.056	0.095
-675.164	4.003	-0.176	-0.131
-674.149	-15.855	-0.106	-0.068
-673.135	-71.279	0.016	-0.006
-672.120	394.938	0.049	-0.104
-671.105	-200.000	-0.020	0.250
-670.091	-110.218	-0.101	0.021
-669.076	-19.548	0.067	0.042
-668.062	-200.000	-0.027	0.161
-667.047	800.000	0.080	-0.280
-666.032	46.723	0.253	-0.237
-665.018	364.758	0.081	-0.165
-664.003	800.000	0.070	0.201
-662.989	-44.061	-0.187	-0.095
-661.974	40.030	-0.382	-0.347
-660.959	-200.000	0.014	-0.204
-659.945	-114.225	0.082	0.016
-658.930	288.320	-0.036	0.066
-657.916	-200.000	0.037	-0.000
-656.901	-168.214	0.092	0.004
-655.886	130.536	-0.121	0.156
-654.872	800.000	-0.025	-0.096
-653.857	280.525	0.051	-0.092
-652.843	40.616	-0.243	0.222
-651.828	-200.000	-0.063	0.376
-650.814	157.400	-0.232	0.325
-649.799	226.081	0.075	0.123
-648.784	151.980	-0.165	-0.228
-647.770	-200.000	0.015	-0.198
-646.755	800.000	-0.061	-0.215
-645.741	-120.640	0.173	0.030
-644.726	39.348	-0.157	0.142
-643.711	18.622	0.053	-0.043
-642.697	285.537	-0.076	0.139
-641.682	187.432	-0.069	-0.104
-640.668	-145.089	-0.226	0.021
-639.653	-200.000	0.037	0.216
-638.638	800.000	0.074	0.260
-637.624	800.000	0.111	-0.407
-636.609	-89.490	-0.348	-0.103
-635.595	-149.385	-0.180	-0.014
-634.580	105.139	0.142	-0.170
-633.565	67.192	-0.198	-0.204
-632.551	116.931	0.066	-0.082
-631.536	77.175	-0.372	-0.400
-630.522	322.707	0.078	0.150
-629.507	-200.000	0.001	0.134
-628.492	60.188	0.167	-0.167
-627.478	-141.742	-0.188	-0.019
-626.463	-112.156	0.245	0.050
-625.449	223.332	0.026	-0.043
-624.434	-200.000	-0.017	-0.156
-623.419	800.000	-0.082	-0.304
-622.405	800.000	0.011	-0.047
-621.390	-200.000	0.016	0.197
-620.376	-64.007	0.273	-0.113
-619.361	-200.000	0.012	-0.378
-618.346	-76.986	-0.077	-0.027
-617.332	307.622	0.104	-0.196
-616.317	-65.072	0.275	-0.112
-615.303	-9.841	0.259	-0.174
-614.288	14.361	-0.276	-0.218
-613.273	800.000	0.057	0.192
-612.259	-120.044	-0.217	-0.038
-611.244	-200.000	0.040	-0.189
-610.230	173.380	-0.062	-0.090
-609.215	800.000	0.061	-0.207
-608.201	452.009	0.054	-0.120
-607.186	-110.380	0.377	-0.079
-606.171	-200.000	-0.010	0.088
-605.157	88.909	-0.075	-0.084
-604.142	-31.671	0.428	0.242
-603.128	-200.000	-0.026	0.204
-602.113	158.462	-0.108	0.151
-601.098	800.000	-0.052	-0.212
-600.084	66.586	-0.253	-0.259
-599.069	-21.465	-0.257	0.158
-598.055	-200.000	0.009	0.211
-597.040	80.594	-0.035	-0.038
-596.025	-63.089	-0.236	0.098
-595.011	800.000	-0.155	-0.507
-593.996	-200.000	-0.008	-0.044
-592.982	455.364	0.092	-0.205
-591.967	8.991	-0.097	0.074
-590.952	43.108	-0.367	0.338
-589.938	354.375	0.098	-0.197
-588.923	370.954	0.077	-0.157
-587.909	-44.371	0.067	0.034
-586.894	800.000	-0.093	-0.326
-585.879	43.925	0.133	-0.123
-584.865	234.337	-0.147	-0.245
-583.850	-166.118	0.146	0.006
-582.836	-137.604	-0.180	-0.020
-581.821	-200.000	0.021	-0.263
-580.806	332.295	-0.153	-0.298
-579.792	91.926	0.082	-0.093
-578.777	393.017	-0.081	-0.169
-577.763	-63.811	0.335	0.138
-576.748	-59.300	0.376	-0.163
-575.733	10.607	0.063	0.048
-574.719	6.108	-0.187	-0.140
-573.704	-43.134	-0.176	0.090
-572.690	197.433	0.136	0.209
-571.675	76.014	-0.153	0.163
-570.661	-153.351	0.402	0.028
-569.646	800.000	-0.041	0.162
-568.631	97.984	-0.306	0.355
-567.617	-200.000	-0.010	-0.083
-566.602	212.795	0.165	-0.263
-565.588	123.359	-0.199	0.251
-564.573	-144.540	-0.235	-0.022
-563.558	-200.000	0.012	0.154
-562.544	38.513	-0.114	0.102
-561.529	25.659	-0.148	-0.124
-560.515	-50.413	-0.299	0.142
-559.500	7.935	0.152	-0.115
-558.485	-200.000	-0.035	-0.267
-557.471	56.002	-0.147	-0.144
-556.456	67.507	-0.145	0.149
-555.442	41.184	0.071	-0.065
-554.427	15.440	0.076	-0.060
-553.412	281.079	-0.175	-0.315
-552.398	-200.000	-0.009	-0.077
-551.383	-15.627	0.167	-0.107
-550.369	439.016	-0.010	-0.023
-549.354	218.794	-0.111	0.179
-548.339	-83.136	-0.272	0.088
-547.325	-115.227	0.535	-0.102
-546.310	-27.386	0.526	0.308
-545.296	113.309	-0.117	0.143
-544.281	-53.355	-0.119	-0.055
-543.266	-200.000	-0.056	-0.370
-542.252	14.457	0.089	0.070
-541.237	726.083	0.183	-0.492
-540.223	720.327	0.035	-0.093
-539.208	10.750	0.102	-0.079
-538.193	668.551	0.125	0.325
-537.179	-200.000	-0.038	0.229
-536.164	108.433	-0.211	-0.254
-535.150	26.469	0.106	0.089
-534.135	-18.852	-0.126	-0.079
-533.121	-138.810	-0.148	0.016
-532.106	-200.000	-0.048	0.301
-531.091	-36.462	0.174	-0.095
-530.077	32.877	-0.119	-0.104
-529.062	-62.099	0.197	-0.083
-528.048	52.391	0.152	-0.146
-527.033	800.000	0.062	-0.203
-526.018	-34.929	-0.172	-0.095
-525.004	-28.874	-0.096	0.056
-523.989	37.438	-0.111	-0.099
-522.975	-123.306	-0.230	0.037
-521.960	32.833	-0.216	-0.189
-520.945	113.959	0.037	0.045
-519.931	183.976	-0.056	-0.084
-518.916	-200.000	0.016	0.123
-517.902	260.183	0.201	0.349
-516.887	-200.000	0.018	0.101
-515.872	-41.146	-0.032	0.016
-514.858	152.568	-0.214	-0.294
-513.843	114.955	-0.135	0.165
-512.829	329.818	0.099	0.192
-511.814	-102.766	-0.280	-0.067
-510.799	349.080	0.093	0.184
-509.785	42.363	0.174	-0.159
-508.770	-89.869	-0.217	0.064
-507.756	52.761	-0.061	0.059
-506.741	-179.238	-0.194	0.004
-505.726	-39.916	-0.147	-0.077
-504.712	-131.630	0.248	-0.033
-503.697	-149.222	0.339	-0.027
-502.683	-200.000	-0.037	-0.446
-501.668	-125.165	0.186	-0.029
-500.653	64.176	-0.034	-0.034
-499.639	462.198	-0.074	-0.167
-498.624	-200.000	-0.086	-0.424
-497.610	15.435	-0.075	-0.059
-496.595	-106.542	-0.021	0.005
-495.581	109.039	-0.149	0.179
-494.566	-184.494	0.143	-0.002
-493.551	-65.893	-0.184	-0.074
-492.537	-18.577	0.256	-0.160
-491.522	-80.253	0.310	-0.104
-490.508	800.000	-0.062	0.226
-489.493	46.061	-0.253	0.235
-488.478	800.000	-0.074	0.257
-487.464	-5.470	0.203	-0.140
-486.449	30.323	0.105	0.090
-485.435	-113.750	0.355	0.069
-484.420	-200.000	0.035	-0.225
-483.405	54.891	-0.096	-0.093
-482.391	-168.242	0.415	-0.016
-481.376	97.245	0.037	0.042
-480.362	-137.023	-0.296	0.034
-479.347	-86.141	-0.033	0.010
-478.332	800.000	-0.041	-0.138
-477.318	-177.696	0.185	0.004
-476.303	-114.051	0.417	-0.081
-475.289	800.000	0.089	0.358
-474.274	352.853	-0.145	-0.290
-473.259	-39.355	0.091	-0.048
-472.245	-37.182	-0.114	-0.061
-471.230	234.955	-0.102	-0.170
-470.216	800.000	0.081	0.260
-469.201	366.267	0.140	0.283
-468.186	273.964	-0.200	0.355
-467.172	-200.000	-0.033	-0.212
-466.157	-200.000	0.066	0.311
-465.143	-83.719	-0.222	-0.071
-464.128	75.999	-0.165	-0.175
-463.113	-200.000	0.008	0.067
-462.099	-132.707	-0.221	0.028
-461.084	-141.977	0.361	-0.036
-460.070	-146.314	-0.217	-0.019
-459.055	351.574	-0.154	0.306
-458.040	-31.701	-0.135	-0.076
-457.026	140.475	-0.044	0.058
-456.011	-185.796	0.195	-0.003
-454.997	-67.888	-0.203	0.079
-453.982	-10.642	0.109	0.073
-452.968	42.823	-0.062	-0.056
-451.953	-200.000	0.002	0.157
-450.938	-87.270	0.207	-0.063
-449.924	170.343	0.111	0.159
-448.909	-142.400	-0.114	-0.011
-447.895	800.000	-0.017	0.062
-446.880	-1.461	-0.141	-0.100
-445.865	-142.554	-0.061	-0.006
-444.851	-200.000	-0.001	-0.488
-443.836	-80.991	0.092	0.031
-442.822	83.256	-0.104	-0.113
-441.807	226.060	-0.168	-0.272
-440.792	-200.000	0.030	-0.149
-439.778	89.940	0.078	0.087
-438.763	-12.068	-0.117	-0.077
-437.749	-176.985	-0.331	0.008
-436.734	183.726	0.200	0.296
-435.719	800.000	-0.050	0.182
-434.705	-200.000	0.025	0.243
-433.690	-200.000	0.059	-0.309
-432.676	-200.000	0.002	-0.235
-431.661	800.000	-0.076	0.314
-430.646	-59.083	0.272	-0.118
-429.632	661.596	-0.055	0.141
-428.617	-169.848	0.098	-0.004
-427.603	-25.159	0.207	0.123
-426.588	-85.851	-0.147	-0.046
-425.573	-18.887	0.148	-0.092
-424.559	800.000	0.034	-0.119
-423.544	0.244	0.190	0.136
-422.530	128.253	-0.059	0.075
-421.515	-143.381	-0.361	-0.035
-420.500	-96.369	0.322	0.085
-419.486	445.874	-0.179	0.395
-418.471	-67.996	-0.454	-0.178
-417.457	-118.903	-0.188	-0.033
-416.442	-125.824	-0.188	0.029
-415.428	90.345	-0.194	0.217
-414.413	-200.000	-0.002	-0.257
-413.398	180.399	0.174	0.256
-412.384	800.000	0.100	0.354
-411.369	-200.000	0.006	0.514
-410.355	33.931	0.142	-0.124
-409.340	-48.256	0.288	-0.139
-408.325	-100.917	-0.266	0.066
-407.311	-200.000	0.051	-0.501
-406.296	-23.102	0.254	-0.153
-405.282	43.219	0.156	-0.143
-404.267	-49.368	0.174	0.083
-403.252	-172.094	-0.093	0.003
-402.238	26.083	0.143	-0.120
-401.223	-56.539	0.307	-0.136
-400.209	32.499	-0.169	-0.146
-399.194	-117.772	0.426	-0.077
-398.179	206.078	-0.152	-0.237
-397.165	-200.000	0.031	0.185
-396.150	378.242	0.050	0.102
-395.136	-38.496	-0.145	-0.077
-394.121	4.201	-0.295	0.216
-393.106	-82.602	-0.090	0.029
-392.092	-200.000	-0.058	0.339
-391.077	800.000	-0.070	0.307
-390.063	-200.000	0.040	0.325
-389.048	249.106	-0.235	0.398
-388.033	-179.822	0.184	-0.004
-387.019	52.350	0.264	0.252
-386.004	-200.000	-0.005	-0.139
-384.990	-200.000	-0.033	-0.435
-383.975	-111.791	-0.051	-0.010
-382.960	-200.000	0.020	0.226
-381.946	800.000	-0.028	0.088
-380.931	704.522	-0.111	-0.292
-379.917	116.215	-0.159	-0.195
-378.902	-165.101	0.260	-0.012
-377.888	-200.000	0.004	0.020
-376.873	-200.000	0.002	0.162
-375.858	-129.358	-0.112	-0.016
-374.844	176.087	-0.204	0.296
-373.829	321.780	-0.045	0.086
-372.815	800.000	-0.046	0.196
-371.800	-169.934	-0.193	-0.007
-370.785	-53.783	-0.150	0.069
-369.771	36.205	-0.212	0.187
-368.756	-67.226	0.207	0.082
-367.742	290.189	-0.058	0.106
-366.727	121.453	-0.040	-0.049
-365.712	269.915	0.225	0.395
-364.698	-134.438	0.034	0.004
-363.683	119.709	-0.122	-0.151
-362.669	800.000	0.091	0.273
-361.654	-200.000	0.034	0.189
-360.639	-34.474	-0.216	-0.119
-359.625	-200.000	0.041	0.243
-358.610	-200.000	0.027	0.246
-357.596	-108.238	0.386	0.083
-356.581	207.028	-0.047	-0.074
-355.566	-25.343	0.315	-0.186
-354.552	788.925	-0.114	0.312
-353.537	-123.047	0.121	0.019
-352.523	-119.045	-0.269	-0.047
-351.508	-200.000	-0.074	0.334
-350.493	-22.161	-0.161	0.097
-349.479	-114.349	0.477	0.092
-348.464	-44.891	0.586	-0.292
-347.450	-54.235	-0.157	-0.071
-346.435	697.895	0.060	0.159
-345.420	-200.000	-0.015	-0.395
-344.406	101.458	0.038	-0.044
-343.391	-140.693	0.157	0.016
-342.377	9.742	0.208	-0.158
-341.362	61.367	0.166	-0.165
-340.348	30.728	-0.131	-0.112
-339.333	45.681	0.120	0.111
-338.318	13.596	0.290	0.225
-337.304	-41.745	0.322	0.165
-336.289	-200.000	0.004	-0.069
-335.275	-76.910	0.109	-0.038
-334.260	181.285	0.300	-0.441
-333.245	800.000	0.136	0.390
-332.231	-200.000	0.015	0.181
-331.216	-133.964	0.143	0.018
-330.202	-140.441	-0.379	0.039
-329.187	7.918	-0.280	0.210
-328.172	-71.763	-0.205	-0.076
-327.158	-133.920	0.268	-0.033
-326.143	17.812	-0.066	-0.052
-325.129	-200.000	-0.024	0.214
-324.114	-200.000	0.016	0.256
-323.099	491.499	-0.043	0.099
-322.085	106.088	-0.249	0.294
-321.070	-200.000	0.029	-0.204
-320.056	-51.935	-0.268	-0.124
-319.041	-59.995	0.217	0.093
-318.026	54.351	-0.205	0.197
-317.012	373.355	-0.185	-0.376
-315.997	-91.993	0.140	-0.040
-314.983	-200.000	0.005	0.328
-313.968	-163.333	-0.273	-0.013
-312.953	-1.791	0.120	0.084
-311.939	-152.477	-0.074	-0.005
-310.924	-163.306	-0.257	-0.012
-309.910	800.000	0.041	-0.154
-308.895	40.195	-0.279	-0.250
-307.880	-74.168	0.066	0.024
-306.866	238.851	-0.178	0.295
-305.851	118.924	-0.080	0.099
-304.837	-63.367	0.080	-0.033
-303.822	269.528	-0.115	0.201
-302.807	800.000	0.043	-0.164
-301.793	-36.507	0.323	-0.174
-300.778	-31.840	-0.267	0.149
-299.764	36.824	-0.269	-0.237
-298.749	-136.828	0.119	-0.014
-297.735	204.702	0.102	-0.158
-296.720	800.000	-0.034	0.148
-295.705	-40.145	0.060	0.031
-294.691	-200.000	-0.011	-0.185
-293.676	265.787	0.092	-0.161
-292.662	-47.822	0.123	-0.059
-291.647	-130.376	-0.138	-0.019
-290.632	10.009	0.207	0.156
-289.618	-147.215	0.223	-0.019
-288.603	-200.000	-0.014	0.179
-287.589	-108.311	0.095	-0.020
-286.574	29.018	0.396	0.335
-285.559	-135.445	-0.258	0.031
-284.545	-55.851	-0.077	0.034
-283.530	-100.746	0.276	-0.068
-282.516	40.307	0.298	-0.268
-281.501	-27.319	-0.156	-0.090
-280.486	-135.363	-0.369	-0.044
-279.472	18.488	0.086	0.069
-278.457	-92.433	-0.178	-0.050
-277.443	119.348	-0.286	0.353
-276.428	800.000	0.051	0.192
-275.413	-200.000	-0.004	0.023
-274.399	434.533	-0.105	0.228
-273.384	101.129	0.047	0.054
-272.370	-51.901	0.184	0.085
-271.355	346.700	0.112	-0.220
-270.340	227.140	0.085	-0.137
-269.326	44.220	0.358	0.327
-268.311	-200.000	-0.006	0.058
-267.297	800.000	0.041	-0.150
-266.282	-76.619	0.226	-0.079
-265.267	-200.000	-0.057	0.355
-264.253	395.631	0.122	0.253
-263.238	-200.000	0.031	0.296
-262.224	-200.000	0.004	0.228
-261.209	207.519	0.070	0.108
-260.195	126.721	0.058	-0.073
-259.180	63.315	0.281	-0.280
-258.165	-150.015	-0.145	-0.011
-257.151	52.549	0.109	-0.104
-256.136	79.240	0.039	0.042
-255.122	-83.102	-0.154	0.049
-254.107	-200.000	0.004	-0.186
-253.092	-85.899	0.120	0.037
-252.078	768.405	0.069	0.188
-251.063	-51.941	0.080	0.037
-250.049	12.503	-0.096	0.074
-249.034	-200.000	-0.024	-0.169
-248.019	-200.000	-0.020	0.094
-247.005	13.248	-0.037	0.028
-245.990	-61.250	0.301	0.126
-244.976	145.762	-0.101	-0.135
-243.961	111.049	-0.177	0.212
-242.946	-200.000	0.375	-0.000
-241.932	-39.936	-0.254	0.132
-240.917	-19.568	-0.157	0.097
-239.903	37.713	-0.320	-0.283
-238.888	-76.818	0.160	0.056
-237.873	800.000	-0.109	-0.419
-236.859	800.000	-0.068	-0.205
-235.844	-100.246	-0.072	-0.018
-234.830	37.832	-0.140	0.124
-233.815	357.758	0.217	0.430
-232.800	800.000	-0.059	-0.200
-231.786	-60.417	-0.222	0.094
-230.771	-15.934	0.132	0.084
-229.757	-148.627	0.300	-0.024
-228.742	256.688	0.134	0.229
-227.727	-200.000	-0.082	0.497
-226.713	-113.105	0.041	-0.008
-225.698	-19.923	0.095	-0.058
-224.684	-138.643	-0.264	-0.029
-223.669	464.422	0.018	-0.039
-222.655	-148.036	0.306	0.025
-221.640	-130.484	0.344	0.046
-220.625	800.000	-0.083	-0.307
-219.611	286.174	-0.141	0.252
-218.596	800.000	-0.076	-0.325
-217.582	-32.655	-0.193	-0.107
-216.567	161.179	-0.098	-0.137
-215.552	-47.953	-0.259	0.125
-214.538	-200.000	-0.024	0.114
-213.523	-76.122	-0.291	0.102
-212.509	-24.837	-0.171	0.101
-211.494	800.000	0.018	-0.066
-210.479	-60.869	-0.147	-0.062
-209.465	800.000	0.110	-0.315
-208.450	206.638	-0.016	0.025
-207.436	506.387	-0.068	0.157
-206.421	-20.124	-0.211	-0.129
-205.406	-88.755	0.383	-0.113
-204.392	-127.837	0.073	0.010
-203.377	800.000	0.153	0.526
-202.363	-200.000	0.014	-0.232
-201.348	94.685	0.070	-0.079
-200.333	-149.049	0.142	-0.011
-199.319	537.932	-0.055	-0.130
-198.304	219.737	0.058	-0.092
-197.290	659.733	-0.075	-0.192
-196.275	-200.000	-0.004	-0.218
-195.260	63.548	-0.192	0.191
-194.246	-30.968	0.141	-0.079
-193.231	126.716	-0.156	-0.197
-192.217	-200.000	-0.030	0.156
-191.202	-81.282	-0.196	0.064
-190.187	-178.623	-0.167	-0.004
-189.173	35.498	0.212	0.185
-188.158	-200.000	-0.003	-0.038
-187.144	-200.000	-0.016	0.217
-186.129	462.246	0.086	0.191
-185.114	221.225	-0.192	-0.306
-184.100	-31.764	-0.319	-0.178
-183.085	17.016	-0.147	0.115
-182.071	75.717	-0.052	0.055
-181.056	579.303	0.115	-0.280
-180.042	-200.000	0.003	-0.155
-179.027	110.354	0.040	-0.048
-178.012	12.016	-0.159	-0.121
-176.998	-200.000	0.049	0.266
-175.983	87.270	-0.268	-0.295
-174.969	-126.428	-0.262	0.039
-173.954	24.253	-0.089	0.073
-172.939	-200.000	0.054	0.561
-171.925	-192.040	-0.150	-0.001
-170.910	-200.000	0.012	0.170
-169.896	-117.907	0.401	-0.071
-168.881	-187.139	0.309	0.004
-167.866	-102.508	-0.143	-0.034
-166.852	800.000	-0.103	-0.327
-165.837	-86.796	0.341	0.104
-164.823	-56.577	0.109	0.048
-163.808	158.378	-0.201	-0.276
-162.793	23.139	0.220	-0.179
-161.779	-13.541	-0.221	0.142
-160.764	-200.000	-0.092	-0.535
-159.750	-63.130	0.037	0.015
-158.735	800.000	-0.049	0.189
-157.720	-195.180	0.272	-0.002
-156.706	-200.000	0.036	-0.257
-155.691	215.699	0.099	0.156
-154.677	0.581	0.212	-0.150
-153.662	732.547	0.122	0.324
-152.647	230.627	0.130	0.211
-151.633	800.000	-0.033	0.106
-150.618	-139.205	-0.180	-0.019
-149.604	-200.000	-0.022	0.290
-148.589	-200.000	0.008	0.137
-147.574	198.362	0.012	-0.018
-146.560	800.000	-0.047	-0.168
-145.545	-71.923	0.410	0.151
-144.531	418.387	-0.055	0.117
-143.516	366.912	-0.061	0.123
-142.502	142.838	-0.169	-0.222
-141.487	-131.576	0.079	0.010
-140.472	-60.477	0.299	0.126
-139.458	-11.750	0.184	0.120
-138.443	-200.000	-0.002	0.228
-137.429	-159.522	0.319	-0.018
-136.414	-84.844	0.140	-0.044
-135.399	686.780	-0.111	0.287
-134.385	404.774	0.020	0.042
-133.370	18.111	0.070	0.056
-132.356	-200.000	0.011	0.334
-131.341	-125.566	0.213	-0.032
-130.326	28.351	-0.081	-0.068
-129.312	-49.251	-0.126	-0.060
-128.297	-36.375	0.105	-0.056
-127.283	116.581	0.131	-0.159
-126.268	69.979	0.193	0.197
-125.253	-137.719	-0.469	0.052
-124.239	-134.839	-0.376	-0.045
-123.224	-200.000	-0.029	-0.195
-122.210	10.564	-0.152	-0.114
