DTS Sentinel unit serial number:	SN413079Multiplexer serial number:	ORYXHardware model number:	OX4-SRSoftware version number:	ORYX F/W v4.00 Oryx Data Collector v3.7.2.0data status	okinstallation	princeton_trtdifferential loss correction	single-endedforward channel	channel 4reverse channel	N/Adate	2019/09/18time	05:53:35forward acquisition time	60.00reverse acquisition time	0.00gamma	496.2192k internal	0.2333k external	0.2333temperature offset calibration	0.9999default loss term (dB/km)	0.3790temperature slope calibration	1.0000multiplexer offset coefficient	1.0000multiplexer slope coefficient	1.0000fibre end	0.00T internal ref (°C)	23.25T ext. ref 1 (°C)	0.19T ext. ref 2 (°C)	17.25length (m)	temperature (°C)	Stokes	anti-Stokes-747.200	-200.000	-0.017	0.088
-746.185	125.889	-0.103	0.130
-745.171	504.795	0.023	0.053
-744.156	316.795	-0.280	0.532
-743.142	62.530	-0.171	-0.172
-742.127	-139.841	-0.396	0.042
-741.112	-9.104	-0.012	-0.008
-740.098	800.000	-0.050	0.154
-739.083	-56.971	-0.046	-0.020
-738.069	52.480	0.033	0.031
-737.054	8.553	-0.138	-0.104
-736.039	-172.125	-0.470	0.015
-735.025	57.405	0.165	0.161
-734.010	-200.000	-0.068	0.360
-732.996	800.000	-0.072	-0.277
-731.981	330.995	-0.085	0.164
-730.966	-200.000	-0.018	-0.092
-729.952	112.545	-0.247	-0.300
-728.937	137.721	-0.277	-0.365
-727.923	-200.000	0.024	-0.110
-726.908	-90.930	-0.156	0.045
-725.894	-200.000	-0.004	-0.347
-724.879	-200.000	-0.024	0.185
-723.864	69.282	-0.057	-0.059
-722.850	-200.000	0.035	0.171
-721.835	426.497	-0.052	-0.113
-720.821	290.888	-0.199	-0.363
-719.806	-200.000	0.000	-0.133
-718.791	643.237	-0.096	0.247
-717.777	-200.000	0.008	0.220
-716.762	55.731	-0.143	-0.139
-715.748	63.001	-0.283	-0.284
-714.733	-137.162	0.165	-0.019
-713.718	-108.003	-0.262	0.057
-712.704	-200.000	-0.017	-0.176
-711.689	145.330	-0.113	-0.152
-710.675	-152.062	-0.082	-0.006
-709.660	556.741	0.017	0.041
-708.645	-99.994	-0.291	0.073
-707.631	121.356	-0.217	0.271
-706.616	800.000	0.067	-0.261
-705.602	-200.000	0.006	-0.306
-704.587	536.052	-0.061	-0.144
-703.572	750.948	0.089	0.241
-702.558	-71.378	-0.336	-0.126
-701.543	61.574	0.173	-0.172
-700.529	200.142	0.074	0.114
-699.514	800.000	0.136	0.437
-698.499	-200.000	-0.006	0.129
-697.485	-40.624	0.111	-0.058
-696.470	-30.929	-0.378	0.214
-695.456	449.462	0.163	-0.360
-694.441	-39.796	0.171	-0.090
-693.426	800.000	-0.043	-0.184
-692.412	91.536	-0.165	0.186
-691.397	-137.626	0.161	0.018
-690.383	193.621	-0.118	-0.179
-689.368	722.479	0.132	0.354
-688.354	-200.000	0.003	0.207
-687.339	800.000	-0.051	-0.205
-686.324	-20.716	0.296	0.182
-685.310	-104.665	-0.237	0.055
-684.295	-200.000	0.089	0.392
-683.281	591.537	0.167	-0.412
-682.266	-43.650	-0.288	0.146
-681.251	-74.265	0.189	-0.069
-680.237	202.237	0.091	0.141
-679.222	320.608	-0.105	0.200
-678.208	154.703	-0.141	0.194
-677.193	552.749	-0.124	-0.298
-676.178	-200.000	-0.027	-0.236
-675.164	800.000	0.038	-0.115
-674.149	-200.000	-0.031	-0.532
-673.135	-52.726	0.153	-0.071
-672.120	-62.504	0.193	0.080
-671.105	-82.867	-0.114	0.037
-670.091	-103.273	-0.467	-0.111
-669.076	-83.815	0.105	0.034
-668.062	145.114	0.242	-0.325
-667.047	-83.212	-0.180	-0.058
-666.032	-200.000	0.006	-0.209
-665.018	-78.343	-0.116	0.040
-664.003	218.979	-0.122	0.196
-662.989	-76.946	-0.187	0.066
-661.974	157.446	0.045	-0.062
-660.959	5.469	-0.396	-0.293
-659.945	-200.000	0.023	-0.171
-658.930	83.093	0.120	0.131
-657.916	-10.618	0.226	0.150
-656.901	-200.000	-0.013	0.078
-655.886	-200.000	-0.021	0.163
-654.872	-45.188	0.361	0.180
-653.857	-200.000	-0.065	-0.310
-652.843	-200.000	-0.008	-0.347
-651.828	220.328	-0.051	-0.081
-650.814	0.452	0.157	0.112
-649.799	330.735	-0.070	-0.134
-648.784	-200.000	0.038	0.264
-647.770	96.637	0.189	0.217
-646.755	-51.599	-0.163	-0.076
-645.741	-200.000	0.020	-0.194
-644.726	377.075	0.129	-0.263
-643.711	286.261	-0.051	-0.093
-642.697	-26.558	-0.335	-0.197
-641.682	20.521	-0.217	0.176
-640.668	-200.000	0.046	-0.386
-639.653	-200.000	0.009	-0.064
-638.638	800.000	-0.069	-0.215
-637.624	-21.648	0.170	0.104
-636.609	-29.607	0.225	-0.128
-635.595	-79.229	-0.039	0.013
-634.580	-134.161	0.192	0.024
-633.565	179.520	-0.159	-0.233
-632.551	262.381	-0.142	-0.246
-631.536	-200.000	0.005	-0.183
-630.522	234.159	0.061	-0.100
-629.507	-47.420	0.234	-0.114
-628.492	392.872	0.073	0.152
-627.478	-177.688	0.124	0.003
-626.463	-82.701	-0.319	-0.104
-625.449	-200.000	0.004	0.139
-624.434	-129.588	0.046	-0.006
-623.419	800.000	-0.054	0.172
-622.405	-13.938	0.194	0.125
-621.390	-9.034	0.144	-0.096
-620.376	-25.373	-0.054	-0.032
-619.361	600.769	-0.135	0.336
-618.346	-10.650	-0.207	-0.137
-617.332	-200.000	0.033	-0.298
-616.317	65.937	-0.069	-0.070
-615.303	-127.774	0.024	-0.004
-614.288	2.199	0.231	-0.167
-613.273	-200.000	-0.050	0.286
-612.259	-200.000	-0.009	0.257
-611.244	633.599	-0.120	-0.305
-610.230	800.000	-0.019	0.067
-609.215	-85.970	0.218	-0.067
-608.201	226.000	0.149	-0.242
-607.186	94.847	0.114	0.129
-606.171	172.486	-0.118	-0.169
-605.157	83.919	0.117	0.128
-604.142	-200.000	-0.086	0.451
-603.128	-188.126	0.062	0.001
-602.113	301.053	-0.149	0.274
-601.098	-200.000	-0.066	-0.349
-600.084	-117.016	0.254	-0.046
-599.069	347.563	0.099	0.194
-598.055	-200.000	-0.001	0.082
-597.040	-200.000	-0.049	-0.340
-596.025	800.000	-0.094	0.312
-595.011	-72.967	-0.150	-0.055
-593.996	-159.956	0.378	-0.021
-592.982	-49.175	0.174	0.083
-591.967	127.019	-0.030	-0.038
-590.952	-127.931	-0.057	-0.008
-589.938	7.706	-0.094	-0.071
-588.923	68.468	-0.217	0.223
-587.909	-168.645	0.312	0.012
-586.894	212.082	-0.093	-0.146
-585.879	34.777	-0.118	0.103
-584.865	-200.000	0.035	0.235
-583.850	-129.268	-0.056	-0.008
-582.836	-55.869	-0.135	-0.060
-581.821	-72.755	0.430	-0.158
-580.806	-200.000	-0.052	-0.275
-579.792	-112.717	0.157	-0.031
-578.777	797.706	-0.044	0.122
-577.763	473.667	-0.084	-0.190
-576.748	68.657	0.134	0.137
-575.733	6.844	-0.056	-0.041
-574.719	-39.875	0.256	-0.133
-573.704	84.776	0.123	0.135
-572.690	9.071	-0.093	0.070
-571.675	-150.622	-0.163	0.012
-570.661	-130.923	0.303	0.041
-569.646	-128.676	0.122	0.017
-568.631	1.323	-0.262	-0.188
-567.617	-200.000	-0.014	-0.280
-566.602	-148.241	-0.210	-0.017
-565.588	191.422	-0.027	-0.041
-564.573	-176.373	0.088	0.002
-563.558	-53.076	-0.292	-0.134
-562.544	7.440	0.189	0.141
-561.529	62.325	-0.140	-0.139
-560.515	197.578	0.055	-0.083
-559.500	-24.231	0.090	-0.054
-558.485	487.820	-0.037	0.084
-557.471	101.965	-0.192	0.223
-556.456	-200.000	-0.012	0.274
-555.442	800.000	-0.018	-0.050
-554.427	-200.000	0.013	-0.081
-553.412	800.000	0.109	0.396
-552.398	42.618	-0.236	-0.214
-551.383	199.889	0.135	-0.206
-550.369	522.280	-0.042	-0.097
-549.354	-14.144	0.137	-0.088
-548.339	180.579	0.159	0.232
-547.325	235.292	-0.039	-0.065
-546.310	0.008	-0.234	0.166
-545.296	-39.700	-0.207	-0.108
-544.281	72.830	-0.144	-0.150
-543.266	-200.000	0.011	-0.154
-542.252	-200.000	0.055	0.267
-541.237	152.679	0.170	-0.232
-540.223	550.260	0.085	0.203
-539.208	549.008	0.108	0.257
-538.193	-109.740	-0.398	-0.083
-537.179	-20.850	-0.026	-0.016
-536.164	-129.830	-0.192	0.026
-535.150	10.082	-0.046	-0.035
-534.135	-95.770	-0.132	0.035
-533.121	-109.085	0.182	-0.039
-532.106	-200.000	-0.011	-0.168
-531.091	92.326	0.231	-0.260
-530.077	571.139	-0.064	-0.156
-529.062	648.686	0.036	0.092
-528.048	-200.000	-0.003	0.215
-527.033	27.962	0.149	0.125
-526.018	-149.271	0.128	-0.010
-525.004	-14.828	-0.388	0.248
-523.989	191.303	-0.062	-0.093
-522.975	800.000	-0.053	0.195
-521.960	-146.862	0.205	-0.018
-520.945	57.061	0.160	-0.156
-519.931	800.000	-0.016	-0.043
-518.916	-200.000	-0.017	-0.197
-517.902	-200.000	-0.021	-0.227
-516.887	-200.000	0.016	-0.238
-515.872	-109.598	0.320	-0.067
-514.858	-54.382	0.188	0.085
-513.843	87.998	0.070	0.077
-512.829	-71.242	0.185	-0.069
-511.814	-200.000	0.001	0.059
-510.799	800.000	-0.014	-0.055
-509.785	-130.966	-0.063	0.008
-508.770	-86.929	-0.130	0.039
-507.756	-200.000	-0.013	-0.096
-506.741	-97.301	-0.361	-0.094
-505.726	-114.710	0.431	-0.082
-504.712	-12.607	0.193	-0.125
-503.697	800.000	0.022	-0.063
-502.683	112.583	0.063	0.076
-501.668	-105.060	0.140	0.032
-500.653	-200.000	-0.006	-0.134
-499.639	-57.724	0.168	0.073
-498.624	0.446	0.057	-0.040
-497.610	243.417	-0.170	-0.285
-496.595	-95.540	-0.156	0.042
-495.581	-136.536	0.108	0.013
-494.566	106.910	-0.105	-0.124
-493.551	-87.759	0.106	-0.032
-492.537	-200.000	0.013	-0.119
-491.522	800.000	0.082	0.286
-490.508	-200.000	0.024	0.197
-489.493	-92.247	-0.203	0.057
-488.478	206.099	0.196	-0.304
-487.464	-12.936	0.283	0.183
-486.449	-29.589	0.044	-0.025
-485.435	800.000	-0.066	-0.223
-484.420	-200.000	0.023	-0.281
-483.405	-83.891	-0.094	0.030
-482.391	-144.168	0.468	0.044
-481.376	-114.470	-0.244	0.047
-480.362	-35.795	-0.044	0.024
-479.347	533.985	-0.095	-0.224
-478.332	209.446	0.200	0.312
-477.318	-69.537	-0.202	0.077
-476.303	76.773	-0.200	0.211
-475.289	-52.760	0.234	0.107
-474.274	-6.487	-0.261	0.177
-473.259	468.138	0.109	-0.242
-472.245	-90.853	0.075	0.022
-471.230	429.493	-0.129	-0.277
-470.216	60.648	0.144	0.142
-469.201	667.537	0.093	0.240
-468.186	223.743	-0.243	-0.390
-467.172	65.725	0.162	0.164
-466.157	800.000	-0.144	-0.475
-465.143	-128.559	0.399	0.056
-464.128	-200.000	0.045	0.235
-463.113	-95.214	0.374	0.100
-462.099	151.271	0.065	0.089
-461.084	-127.767	-0.426	-0.061
-460.070	-15.269	-0.125	0.080
-459.055	-67.603	0.151	-0.059
-458.040	800.000	-0.044	0.142
-457.026	-13.888	-0.518	0.333
-456.011	-200.000	-0.025	-0.136
-454.997	25.524	0.200	-0.165
-453.982	367.839	0.069	-0.138
-452.968	-53.435	0.288	0.131
-451.953	23.152	-0.071	-0.058
-450.938	800.000	0.032	0.100
-449.924	157.030	-0.034	-0.047
-448.909	-200.000	0.031	0.158
-447.895	-101.256	-0.245	-0.059
-446.880	-138.160	0.432	0.048
-445.865	496.349	0.042	-0.095
-444.851	463.643	-0.083	0.183
-443.836	429.631	-0.074	0.160
-442.822	-137.050	-0.311	-0.035
-441.807	218.967	0.176	0.279
-440.792	800.000	0.076	0.289
-439.778	423.301	-0.130	-0.277
-438.763	-76.517	-0.191	-0.067
-437.749	13.056	0.238	0.183
-436.734	800.000	0.012	0.043
-435.719	-200.000	0.037	0.482
-434.705	29.950	-0.513	-0.435
-433.690	-137.694	0.132	0.015
-432.676	11.221	-0.156	0.118
-431.661	9.839	0.333	0.251
-430.646	144.646	-0.103	-0.136
-429.632	800.000	0.048	-0.199
-428.617	15.248	-0.139	0.108
-427.603	-82.717	0.235	-0.075
-426.588	-92.168	0.234	-0.066
-425.573	-159.872	-0.441	-0.024
-424.559	-32.064	0.087	-0.049
-423.544	737.260	-0.046	0.123
-422.530	-2.581	-0.169	-0.117
-421.515	39.091	-0.200	-0.177
-420.500	411.475	-0.091	0.192
-419.486	158.717	0.180	0.248
-418.471	505.403	-0.073	0.168
-417.457	49.734	-0.068	0.064
-416.442	226.249	-0.157	-0.254
-415.428	800.000	-0.079	0.247
-414.413	161.549	0.059	-0.083
-413.398	800.000	0.120	-0.429
-412.384	183.655	0.052	0.076
-411.369	-200.000	-0.006	-0.027
-410.355	25.955	-0.144	0.120
-409.340	-78.310	0.228	0.078
-408.325	-79.525	-0.048	0.016
-407.311	-200.000	-0.054	0.322
-406.296	-100.968	-0.230	-0.056
-405.282	-110.691	-0.133	0.027
-404.267	800.000	0.041	-0.172
-403.252	-200.000	0.007	0.155
-402.238	468.165	-0.117	0.260
-401.223	-47.512	0.087	-0.042
-400.209	-149.052	-0.339	0.027
-399.194	273.911	-0.025	0.045
-398.179	-64.091	0.208	0.084
-397.165	-30.699	-0.330	-0.185
-396.150	-68.075	0.187	-0.072
-395.136	181.205	0.133	0.194
-394.121	-200.000	-0.027	-0.190
-393.106	-133.173	0.100	0.013
-392.092	525.243	-0.079	-0.183
-391.077	-38.778	-0.049	0.025
-390.063	-29.065	-0.126	-0.072
-389.048	-138.428	-0.119	0.013
-388.033	172.212	-0.279	0.398
-387.019	-122.414	-0.029	-0.005
-386.004	-85.997	-0.220	-0.067
-384.990	2.863	-0.202	-0.145
-383.975	-126.370	-0.442	0.065
-382.960	724.024	0.105	-0.277
-381.946	247.305	0.157	-0.264
-380.931	-33.217	-0.128	0.071
-379.917	-167.360	-0.161	0.006
-378.902	-200.000	-0.006	0.035
-377.888	65.080	0.252	0.253
-376.873	-51.263	-0.272	-0.126
-375.858	306.410	0.180	-0.333
-374.844	800.000	-0.025	0.085
-373.829	65.840	0.210	0.211
-372.815	96.376	0.149	0.169
-371.800	-200.000	0.003	-0.070
-370.785	800.000	0.118	0.333
-369.771	-200.000	-0.094	0.439
-368.756	-154.715	-0.208	-0.014
-367.742	-80.686	0.454	0.149
-366.727	-19.275	0.232	0.142
-365.712	113.461	0.044	0.053
-364.698	-94.380	-0.169	-0.046
-363.683	-118.976	0.152	-0.026
-362.669	-166.155	0.348	0.015
-361.654	-147.130	-0.251	0.021
-360.639	-116.125	0.100	0.018
-359.625	800.000	0.052	-0.162
-358.610	-200.000	-0.029	0.239
-357.596	-64.246	0.132	-0.053
-356.581	-174.666	-0.465	-0.013
-355.566	-126.627	0.410	-0.060
-354.552	-134.703	-0.063	-0.008
-353.537	383.539	0.090	-0.183
-352.523	13.341	0.288	-0.221
-351.508	-200.000	0.045	-0.315
-350.493	334.425	0.080	0.152
-349.479	-200.000	0.024	0.124
-348.464	383.613	0.190	0.387
-347.450	-124.509	-0.279	0.043
-346.435	-182.441	0.124	-0.002
-345.420	-200.000	-0.053	0.302
-344.406	-200.000	-0.027	0.276
-343.391	13.591	0.066	0.051
-342.377	-39.915	0.150	-0.078
-341.362	800.000	0.082	-0.332
-340.348	-200.000	-0.039	0.447
-339.333	125.689	0.067	0.084
-338.318	-132.983	0.105	0.013
-337.304	21.148	0.383	-0.308
-336.289	-94.319	-0.137	-0.037
-335.275	153.269	-0.175	-0.237
-334.260	70.821	-0.204	-0.209
-333.245	-53.949	-0.516	-0.233
-332.231	453.020	0.105	-0.230
-331.216	-138.764	0.216	-0.023
-330.202	800.000	0.033	0.136
-329.187	-113.650	-0.315	-0.061
-328.172	-130.206	0.220	-0.030
-327.158	-200.000	0.015	0.133
-326.143	800.000	0.096	-0.383
-325.129	-120.265	-0.326	0.055
-324.114	6.295	-0.091	-0.067
-323.099	-8.205	-0.182	0.121
-322.085	-50.460	0.170	-0.079
-321.070	68.891	0.335	0.340
-320.056	321.942	-0.086	-0.162
-319.041	800.000	0.074	-0.288
-318.026	143.328	0.221	0.291
-317.012	800.000	-0.030	-0.087
-315.997	-66.426	0.359	-0.141
-314.983	92.148	-0.147	0.164
-313.968	-200.000	-0.002	-0.026
-312.953	-114.189	-0.133	0.025
-311.939	179.962	-0.190	-0.275
-310.924	-95.307	0.284	0.076
-309.910	-25.872	0.230	0.134
-308.895	-39.276	0.206	0.107
-307.880	-200.000	-0.021	0.314
-306.866	-44.393	-0.189	-0.093
-305.851	322.187	0.133	-0.250
-304.837	-71.024	-0.093	0.035
-303.822	-52.060	-0.428	-0.197
-302.807	250.557	-0.032	0.054
-301.793	378.054	-0.035	0.071
-300.778	658.346	0.043	-0.110
-299.764	800.000	-0.041	-0.173
-298.749	62.892	0.099	0.098
-297.735	-200.000	0.021	0.143
-296.720	-45.546	0.274	-0.134
-295.705	69.638	-0.110	0.112
-294.691	225.411	-0.118	-0.189
-293.676	-70.292	0.289	-0.109
-292.662	-9.494	-0.214	-0.141
-291.647	-25.321	-0.130	-0.076
-290.632	800.000	-0.027	0.106
-289.618	-200.000	-0.014	0.354
-288.603	10.090	0.404	0.304
-287.589	-200.000	-0.035	0.302
-286.574	162.642	-0.079	-0.109
-285.559	136.693	-0.139	0.179
-284.545	42.800	0.037	-0.033
-283.530	800.000	0.006	0.017
-282.516	620.729	-0.047	0.118
-281.501	-200.000	-0.010	0.097
-280.486	-41.071	-0.063	0.032
-279.472	567.668	-0.084	0.201
-278.457	607.866	-0.094	0.231
-277.443	-36.026	-0.183	0.098
-276.428	-27.528	-0.098	-0.056
-275.413	63.831	-0.049	0.049
-274.399	-184.573	0.285	-0.005
-273.384	-5.504	0.161	0.109
-272.370	57.345	-0.068	-0.065
-271.355	19.719	-0.098	0.078
-270.340	800.000	-0.061	0.179
-269.326	-200.000	-0.012	0.198
-268.311	6.163	0.195	0.143
-267.297	-200.000	-0.013	-0.314
-266.282	26.427	0.154	0.127
-265.267	244.706	-0.102	0.170
-264.253	11.138	-0.029	0.022
-263.238	-115.862	0.079	0.015
-262.224	57.463	-0.039	-0.038
-261.209	19.900	0.075	-0.059
-260.195	262.968	0.261	0.447
-259.180	3.063	0.182	0.131
-258.165	800.000	-0.067	-0.218
-257.151	11.726	-0.248	0.188
-256.136	-31.136	0.231	-0.129
-255.122	-109.251	-0.231	-0.048
-254.107	224.444	-0.102	0.163
-253.092	-156.668	0.218	0.013
-252.078	157.162	0.064	-0.087
-251.063	-200.000	-0.005	0.371
-250.049	-200.000	-0.013	-0.083
-249.034	136.884	-0.089	-0.114
-248.019	-200.000	-0.067	-0.292
-247.005	57.914	-0.212	0.204
-245.990	188.447	-0.026	0.039
-244.976	103.043	0.241	-0.279
-243.961	110.908	0.228	0.271
-242.946	164.615	0.185	-0.258
-241.932	-69.746	-0.145	-0.055
-240.917	-59.358	0.119	-0.051
-239.903	19.307	-0.078	-0.062
-238.888	16.361	-0.300	0.233
-237.873	389.081	-0.160	-0.327
-236.859	-56.821	-0.166	0.072
-235.844	-200.000	0.032	-0.251
-234.830	77.967	-0.210	0.221
-233.815	800.000	0.047	0.194
-232.800	-76.613	0.218	-0.075
-231.786	535.098	0.136	0.317
-230.771	-200.000	-0.055	-0.360
-229.757	-30.360	-0.192	0.107
-228.742	-168.937	0.609	0.022
-227.727	-200.000	-0.006	0.134
-226.713	311.571	0.059	0.109
-225.698	-200.000	-0.012	-0.098
-224.684	460.872	-0.196	-0.431
-223.669	-95.668	-0.262	-0.069
-222.655	-200.000	-0.017	0.319
-221.640	-99.806	-0.072	-0.018
-220.625	-57.730	-0.268	0.116
-219.611	-98.017	-0.272	-0.069
-218.596	-102.015	0.310	-0.074
-217.582	800.000	-0.084	0.277
-216.567	-100.337	-0.232	0.057
-215.552	-78.513	0.314	0.106
-214.538	419.889	0.172	0.363
-213.523	-115.215	-0.262	-0.049
-212.509	-117.006	-0.331	-0.059
-211.494	800.000	-0.089	0.332
-210.479	110.720	0.139	-0.165
-209.465	-48.283	0.125	-0.060
-208.450	-92.466	0.364	-0.101
-207.436	199.317	-0.238	0.359
-206.421	800.000	0.029	0.100
-205.406	187.850	0.039	0.057
-204.392	-200.000	0.004	0.052
-203.377	547.398	-0.051	0.120
-202.363	-200.000	0.066	-0.290
-201.348	302.348	-0.089	-0.161
-200.333	329.495	0.079	-0.150
-199.319	-147.813	0.025	-0.002
-198.304	-50.161	-0.219	0.102
-197.290	-84.216	-0.042	0.013
-196.275	-93.746	-0.208	-0.056
-195.260	-23.258	0.217	0.128
-194.246	169.071	-0.060	0.084
-193.231	-62.527	0.151	-0.062
-192.217	-50.380	-0.156	0.072
-191.202	262.042	0.147	-0.251
-190.187	-200.000	0.031	0.178
-189.173	-73.393	-0.188	-0.068
-188.158	-200.000	-0.029	0.128
-187.144	354.888	0.027	-0.052
-186.129	-56.576	-0.146	0.064
-185.114	-200.000	0.031	0.137
-184.100	-200.000	0.015	0.148
-183.085	-200.000	0.028	-0.264
-182.071	-200.000	-0.021	-0.130
-181.056	-131.464	-0.216	0.028
-180.042	-82.279	-0.263	0.084
-179.027	-96.773	0.418	-0.108
-178.012	800.000	-0.039	0.112
-176.998	335.762	0.117	-0.223
-175.983	-200.000	0.097	-0.426
-174.969	293.292	0.001	0.002
-173.954	-162.383	0.037	-0.002
-172.939	364.478	-0.082	-0.162
-171.925	800.000	0.018	-0.049
-170.910	-65.302	0.146	0.058
-169.896	-156.766	-0.382	-0.023
-168.881	-200.000	-0.014	-0.150
-167.866	800.000	0.040	-0.147
-166.852	208.403	-0.050	0.077
-165.837	36.231	-0.033	-0.029
-164.823	482.248	-0.161	-0.360
-163.808	113.318	0.223	-0.266
-162.793	123.012	0.083	-0.103
-161.779	-21.009	-0.243	0.146
-160.764	-37.704	0.165	0.086
-159.750	21.188	-0.271	-0.216
-158.735	-111.906	-0.270	0.054
-157.720	14.123	0.161	-0.124
-156.706	173.210	-0.033	-0.047
-155.691	-200.000	0.013	-0.342
-154.677	-22.016	0.220	-0.131
-153.662	192.305	-0.126	0.186
-152.647	-92.438	0.129	0.036
-151.633	20.880	-0.167	-0.133
-150.618	46.192	-0.021	0.019
-149.604	-200.000	-0.080	-0.350
-148.589	42.505	0.293	-0.262
-147.574	130.135	-0.172	0.217
-146.560	160.286	0.165	0.226
-145.545	-156.940	-0.184	0.011
-144.531	5.158	0.008	0.006
-143.516	-41.830	0.356	0.179
-142.502	69.987	0.120	-0.122
-141.487	-200.000	0.006	0.044
-140.472	7.151	-0.183	0.134
-139.458	25.600	0.276	0.225
-138.443	130.186	0.237	-0.298
-137.429	321.605	-0.185	0.346
-136.414	25.985	-0.114	0.093
-135.399	557.348	0.090	-0.213
-134.385	-107.721	0.267	-0.057
-133.370	800.000	-0.076	-0.244
-132.356	-200.000	0.087	-0.679
-131.341	26.065	-0.158	0.129
-130.326	1.618	0.046	0.033
-129.312	-30.614	0.032	0.018
-128.297	-42.290	-0.317	0.159
-127.283	-33.126	-0.193	0.105
-126.268	-130.878	0.175	0.023
-125.253	-157.154	0.265	0.016
-124.239	-114.096	0.097	0.018
-123.224	29.974	-0.401	0.335
-122.210	51.103	0.206	-0.192
