DTS Sentinel unit serial number:	SN413079Multiplexer serial number:	ORYXHardware model number:	OX4-SRSoftware version number:	ORYX F/W v4.00 Oryx Data Collector v3.7.2.0data status	okinstallation	princeton_trtdifferential loss correction	single-endedforward channel	channel 4reverse channel	N/Adate	2019/09/15time	01:17:35forward acquisition time	60.00reverse acquisition time	0.00gamma	496.2192k internal	0.2307k external	0.2307temperature offset calibration	1.0034default loss term (dB/km)	0.3790temperature slope calibration	1.0000multiplexer offset coefficient	1.0000multiplexer slope coefficient	1.0000fibre end	0.00T internal ref (°C)	31.94T ext. ref 1 (°C)	4.51T ext. ref 2 (°C)	26.85length (m)	temperature (°C)	Stokes	anti-Stokes-747.200	-51.899	0.038	-0.018
-746.185	-151.809	-0.288	-0.022
-745.171	-9.929	-0.139	0.094
-744.156	440.581	0.139	0.310
-743.142	491.476	-0.033	0.077
-742.127	800.000	-0.042	0.178
-741.112	-200.000	-0.030	-0.166
-740.098	-200.000	-0.037	0.312
-739.083	99.709	0.031	-0.036
-738.069	16.728	0.187	-0.150
-737.054	184.735	0.083	-0.125
-736.039	-188.127	-0.204	0.003
-735.025	800.000	-0.109	0.350
-734.010	38.633	-0.205	-0.186
-732.996	159.730	-0.021	-0.030
-731.981	-79.685	-0.287	-0.098
-730.966	-148.496	-0.451	-0.037
-729.952	-61.276	-0.068	-0.029
-728.937	534.512	0.110	0.266
-727.923	64.023	-0.110	-0.112
-726.908	800.000	-0.068	-0.194
-725.894	-200.000	0.051	-0.359
-724.879	-91.569	-0.057	-0.016
-723.864	-200.000	-0.008	0.036
-722.850	50.024	0.325	-0.311
-721.835	98.372	-0.289	-0.338
-720.821	27.217	0.142	-0.121
-719.806	377.467	0.132	-0.275
-718.791	-200.000	0.018	-0.102
-717.777	688.110	0.124	-0.329
-716.762	774.292	0.067	-0.185
-715.748	800.000	0.061	-0.174
-714.733	-124.966	-0.178	0.028
-713.718	-26.332	-0.274	0.163
-712.704	-200.000	0.034	0.289
-711.689	800.000	-0.056	0.161
-710.675	-85.626	0.044	-0.014
-709.660	-10.720	0.233	-0.156
-708.645	165.729	0.071	-0.102
-707.631	-200.000	-0.003	-0.316
-706.616	-148.475	0.118	0.010
-705.602	56.243	0.132	0.130
-704.587	110.181	0.156	0.191
-703.572	260.743	-0.126	-0.220
-702.558	462.914	-0.080	-0.181
-701.543	-200.000	-0.007	0.202
-700.529	-36.137	0.370	-0.203
-699.514	763.759	-0.067	0.185
-698.499	17.134	0.208	-0.168
-697.485	-200.000	0.014	0.087
-696.470	78.097	0.050	0.054
-695.456	-51.472	-0.029	0.014
-694.441	-200.000	0.018	0.342
-693.426	800.000	0.034	-0.127
-692.412	-1.094	0.215	-0.155
-691.397	800.000	0.040	-0.138
-690.383	-95.143	0.450	-0.123
-689.368	417.527	-0.096	-0.208
-688.354	-200.000	-0.010	-0.386
-687.339	-200.000	0.002	-0.272
-686.324	7.459	-0.142	-0.107
-685.310	-9.722	0.132	0.089
-684.295	39.617	0.123	0.112
-683.281	59.898	-0.106	-0.106
-682.266	141.924	-0.050	-0.068
-681.251	169.684	0.083	-0.121
-680.237	-200.000	0.039	0.183
-679.222	-51.628	-0.068	-0.032
-678.208	-17.950	0.226	-0.143
-677.193	-120.808	-0.222	0.038
-676.178	100.137	-0.326	-0.383
-675.164	190.765	-0.064	0.097
-674.149	800.000	-0.113	-0.365
-673.135	114.617	0.081	-0.099
-672.120	101.623	0.237	-0.280
-671.105	-109.373	0.182	0.039
-670.091	60.920	-0.181	-0.182
-669.076	-90.147	0.036	0.011
-668.062	-57.194	-0.163	0.073
-667.047	-83.195	-0.182	-0.059
-666.032	-200.000	0.006	-0.356
-665.018	11.379	0.101	0.078
-664.003	188.919	0.159	0.242
-662.989	-88.439	-0.211	0.064
-661.974	-125.313	-0.301	0.047
-660.959	-14.753	0.037	-0.024
-659.945	-24.681	-0.052	0.032
-658.930	282.900	0.115	0.209
-657.916	-0.670	0.131	0.094
-656.901	-37.758	0.164	-0.089
-655.886	-140.403	-0.118	0.012
-654.872	-200.000	-0.007	0.135
-653.857	-200.000	0.025	0.226
-652.843	-114.449	0.251	0.049
-651.828	-19.928	-0.241	0.151
-650.814	117.852	-0.095	-0.119
-649.799	-200.000	0.020	-0.389
-648.784	713.449	-0.108	-0.290
-647.770	-105.142	-0.084	0.019
-646.755	-4.547	0.255	-0.178
-645.741	163.495	-0.113	0.160
-644.726	-78.957	-0.099	0.034
-643.711	92.772	-0.101	-0.116
-642.697	523.992	-0.034	-0.082
-641.682	97.060	-0.206	-0.239
-640.668	-65.120	-0.077	-0.031
-639.653	-200.000	0.019	-0.243
-638.638	-78.959	-0.310	0.107
-637.624	-47.232	-0.202	-0.099
-636.609	-111.075	-0.230	0.048
-635.595	541.702	-0.060	-0.146
-634.580	-133.333	0.086	0.011
-633.565	-200.000	-0.042	-0.256
-632.551	-34.760	-0.261	0.145
-631.536	-70.915	-0.260	0.099
-630.522	-77.692	0.173	-0.061
-629.507	285.153	-0.129	-0.235
-628.492	-37.976	-0.095	-0.051
-627.478	-82.922	0.248	-0.081
-626.463	13.977	0.153	-0.120
-625.449	-200.000	0.049	-0.228
-624.434	78.452	0.170	-0.184
-623.419	-6.303	-0.219	0.151
-622.405	-68.634	-0.143	0.056
-621.390	364.278	-0.103	0.210
-620.376	800.000	0.073	-0.219
-619.361	800.000	-0.088	0.328
-618.346	-1.358	-0.123	-0.088
-617.332	-132.651	0.298	-0.039
-616.317	800.000	-0.090	-0.346
-615.303	16.979	0.056	0.045
-614.288	800.000	0.007	-0.023
-613.273	-35.270	0.396	-0.218
-612.259	-81.399	-0.236	-0.079
-611.244	-200.000	-0.031	0.173
-610.230	793.728	-0.098	-0.274
-609.215	-82.049	-0.245	0.081
-608.201	189.555	-0.170	-0.258
-607.186	-200.000	-0.006	-0.135
-606.171	175.564	-0.081	0.119
-605.157	-200.000	-0.035	0.351
-604.142	-67.585	0.131	0.052
-603.128	312.155	0.176	0.335
-602.113	-115.709	0.401	0.076
-601.098	143.062	0.212	-0.285
-600.084	-135.428	-0.236	0.028
-599.069	-34.668	0.175	0.097
-598.055	445.979	-0.008	-0.018
-597.040	-147.319	-0.273	0.023
-596.025	-55.252	-0.364	-0.165
-595.011	48.594	-0.162	0.154
-593.996	51.993	-0.386	0.372
-592.982	792.472	-0.024	-0.066
-591.967	-73.070	-0.101	0.037
-590.952	30.759	-0.203	0.176
-589.938	-191.891	-0.272	-0.003
-588.923	334.123	0.070	-0.137
-587.909	-80.856	-0.262	0.088
-586.894	346.162	0.016	0.032
-585.879	-200.000	-0.006	0.194
-584.865	91.985	-0.101	0.115
-583.850	-61.541	-0.209	0.089
-582.836	800.000	0.075	-0.325
-581.821	374.581	0.148	-0.305
-580.806	40.352	0.103	0.094
-579.792	561.062	-0.049	0.120
-578.777	750.055	0.027	-0.074
-577.763	-70.226	0.162	0.062
-576.748	-65.774	-0.144	0.058
-575.733	-200.000	-0.013	0.187
-574.719	335.864	-0.122	0.238
-573.704	-185.564	0.378	-0.006
-572.690	37.044	-0.250	-0.223
-571.675	-200.000	0.051	-0.241
-570.661	5.231	0.385	-0.287
-569.646	800.000	-0.041	-0.132
-568.631	-7.588	0.124	-0.085
-567.617	-200.000	0.037	-0.235
-566.602	-200.000	0.058	-0.372
-565.588	-24.591	-0.152	0.091
-564.573	-200.000	-0.005	0.252
-563.558	-200.000	0.010	0.101
-562.544	-191.559	0.120	0.001
-561.529	-2.197	0.223	-0.158
-560.515	-200.000	-0.002	-0.082
-559.500	3.244	-0.180	-0.132
-558.485	-5.562	0.259	-0.179
-557.471	80.762	-0.175	-0.190
-556.456	71.046	0.089	-0.093
-555.442	-166.581	0.194	-0.008
-554.427	237.150	0.225	-0.376
-553.412	-184.516	0.325	0.005
-552.398	800.000	0.031	-0.115
-551.383	17.438	-0.149	-0.119
-550.369	141.599	0.067	-0.089
-549.354	-14.379	-0.158	0.103
-548.339	-200.000	0.021	-0.233
-547.325	-116.345	0.136	0.025
-546.310	800.000	-0.101	0.414
-545.296	112.564	0.072	0.088
-544.281	147.152	-0.124	0.169
-543.266	-112.104	-0.314	-0.064
-542.252	50.200	-0.265	0.252
-541.237	-74.494	0.259	0.094
-540.223	-200.000	-0.012	-0.224
-539.208	426.545	0.031	-0.068
-538.193	-200.000	0.003	-0.052
-537.179	-148.442	0.050	0.004
-536.164	-200.000	0.013	0.088
-535.150	95.047	-0.154	-0.177
-534.135	-158.804	0.156	-0.009
-533.121	-81.040	-0.075	0.025
-532.106	-200.000	-0.030	0.250
-531.091	-200.000	-0.049	-0.345
-530.077	191.093	-0.145	-0.220
-529.062	-14.961	-0.284	0.183
-528.048	-42.224	-0.234	-0.120
-527.033	292.439	0.152	0.280
-526.018	199.384	-0.246	0.380
-525.004	-86.312	-0.215	-0.067
-523.989	67.699	-0.089	-0.092
-522.975	77.819	0.130	-0.140
-521.960	-200.000	0.010	-0.144
-520.945	95.870	0.104	0.119
-519.931	36.953	-0.055	-0.049
-518.916	284.520	-0.140	0.254
-517.902	-150.124	0.160	0.012
-516.887	-41.070	0.055	-0.028
-515.872	156.124	0.181	0.252
-514.858	-200.000	-0.011	0.196
-513.843	-105.386	-0.129	0.030
-512.829	197.623	0.082	-0.126
-511.814	800.000	0.029	-0.113
-510.799	-158.736	-0.226	-0.013
-509.785	121.523	0.121	0.152
-508.770	323.292	-0.026	0.050
-507.756	-200.000	-0.004	0.127
-506.741	-92.155	-0.158	0.045
-505.726	-54.145	-0.220	-0.101
-504.712	-26.200	0.349	0.206
-503.697	-200.000	-0.008	0.063
-502.683	-200.000	-0.019	0.227
-501.668	-123.081	-0.521	-0.084
-500.653	629.233	0.028	-0.072
-499.639	557.996	0.042	-0.101
-498.624	800.000	0.045	-0.156
-497.610	800.000	0.021	-0.062
-496.595	411.420	0.102	-0.219
-495.581	722.702	-0.095	0.254
-494.566	-33.748	0.204	-0.113
-493.551	193.354	-0.131	0.199
-492.537	50.337	-0.269	0.256
-491.522	724.322	0.082	0.221
-490.508	42.564	0.138	-0.126
-489.493	22.724	-0.113	0.093
-488.478	-40.657	0.251	-0.131
-487.464	-200.000	-0.069	0.304
-486.449	-147.424	-0.376	0.032
-485.435	8.710	-0.140	0.106
-484.420	106.098	0.149	-0.178
-483.405	171.203	-0.052	0.075
-482.391	-69.399	-0.214	-0.083
-481.376	-3.242	0.287	-0.201
-480.362	-200.000	-0.020	0.182
-479.347	800.000	-0.070	0.228
-478.332	322.318	-0.099	0.189
-477.318	-200.000	-0.034	-0.342
-476.303	-200.000	0.015	-0.228
-475.289	-55.174	0.149	-0.068
-474.274	-200.000	-0.006	-0.028
-473.259	727.401	-0.137	-0.368
-472.245	165.273	-0.102	0.145
-471.230	-46.648	-0.095	-0.047
-470.216	358.810	-0.094	-0.190
-469.201	133.722	0.161	0.209
-468.186	69.029	-0.076	-0.079
-467.172	605.673	0.079	-0.199
-466.157	-200.000	-0.016	0.126
-465.143	800.000	-0.086	0.251
-464.128	-136.055	-0.214	-0.025
-463.113	-149.738	0.243	-0.019
-462.099	147.844	-0.066	-0.089
-461.084	331.273	0.231	0.447
-460.070	117.755	0.146	-0.181
-459.055	12.517	0.148	-0.115
-458.040	-138.860	0.192	0.021
-457.026	38.336	-0.151	0.136
-456.011	95.193	-0.352	0.403
-454.997	800.000	-0.130	-0.375
-453.982	45.886	0.011	0.010
-452.968	-61.548	0.213	0.090
-451.953	243.897	0.058	-0.098
-450.938	-13.441	-0.096	-0.063
-449.924	89.882	0.049	0.055
-448.909	-141.125	0.395	-0.041
-447.895	-200.000	-0.006	-0.169
-446.880	-82.754	-0.294	-0.095
-445.865	215.158	-0.124	-0.197
-444.851	800.000	-0.095	-0.263
-443.836	-178.413	0.107	0.003
-442.822	736.903	-0.030	0.082
-441.807	785.704	-0.120	-0.332
-440.792	-75.339	0.180	-0.065
-439.778	-125.124	0.150	-0.023
-438.763	-143.495	-0.290	-0.028
-437.749	150.158	0.112	-0.153
-436.734	-58.744	0.049	-0.021
-435.719	-191.220	-0.318	-0.003
-434.705	336.073	-0.135	0.263
-433.690	475.276	-0.118	0.269
-432.676	-170.360	-0.222	-0.008
-431.661	-77.721	-0.182	0.063
-430.646	-10.873	0.063	0.042
-429.632	-77.950	0.196	0.068
-428.617	199.847	-0.052	0.081
-427.603	29.136	0.328	0.280
-426.588	-200.000	-0.024	-0.354
-425.573	-200.000	0.051	0.290
-424.559	-200.000	-0.038	0.284
-423.544	800.000	0.051	-0.194
-422.530	800.000	0.059	0.169
-421.515	-119.151	-0.264	0.046
-420.500	649.887	0.023	0.060
-419.486	-200.000	0.252	0.001
-418.471	800.000	0.045	0.170
-417.457	-174.781	0.503	-0.014
-416.442	-200.000	-0.022	-0.158
-415.428	191.257	-0.052	-0.079
-414.413	-200.000	-0.049	-0.221
-413.398	-1.277	0.144	-0.102
-412.384	-37.477	0.238	0.127
-411.369	79.738	-0.237	-0.255
-410.355	-21.159	-0.155	0.095
-409.340	-200.000	-0.039	-0.190
-408.325	-10.881	-0.078	0.051
-407.311	-145.035	-0.097	0.009
-406.296	-200.000	0.008	-0.103
-405.282	-200.000	0.041	0.180
-404.267	-84.897	0.153	-0.048
-403.252	-200.000	-0.008	-0.242
-402.238	-200.000	0.013	-0.116
-401.223	800.000	-0.042	0.134
-400.209	-141.884	-0.371	-0.037
-399.194	-18.295	0.121	-0.076
-398.179	-170.076	0.053	-0.002
-397.165	-131.490	0.042	0.006
-396.150	93.751	0.070	0.080
-395.136	-102.417	-0.177	-0.042
-394.121	313.128	0.066	0.125
-393.106	93.194	0.181	0.205
-392.092	-64.899	-0.445	0.181
-391.077	-38.526	0.147	0.078
-390.063	-147.865	0.100	0.008
-389.048	190.463	0.049	0.074
-388.033	289.571	0.156	-0.284
-387.019	-82.938	-0.147	0.047
-386.004	-177.713	-0.036	-0.001
-384.990	-200.000	0.012	0.175
-383.975	-171.112	0.368	0.012
-382.960	133.373	-0.037	-0.048
-381.946	203.469	0.171	0.266
-380.931	-57.413	-0.203	0.089
-379.917	0.409	0.229	-0.164
-378.902	-48.385	-0.282	0.136
-377.888	-81.878	0.138	0.045
-376.873	750.480	-0.051	-0.139
-375.858	476.887	0.090	0.204
-374.844	-176.557	-0.133	-0.003
-373.829	-69.577	0.337	-0.129
-372.815	242.673	-0.054	0.090
-371.800	47.494	-0.350	0.327
-370.785	-20.051	-0.232	0.143
-369.771	181.292	-0.049	0.073
-368.756	-90.310	0.015	-0.004
-367.742	62.638	0.332	-0.332
-366.727	-56.499	0.070	-0.031
-365.712	-10.278	0.255	-0.170
-364.698	-77.567	0.201	-0.070
-363.683	-200.000	0.023	-0.208
-362.669	-27.249	-0.035	0.020
-361.654	-91.332	-0.313	-0.090
-360.639	56.583	0.228	0.222
-359.625	8.607	0.106	0.080
-358.610	-11.926	-0.253	-0.166
-357.596	800.000	-0.007	-0.031
-356.581	380.869	-0.052	0.106
-355.566	-200.000	-0.002	0.097
-354.552	-47.027	0.339	-0.166
-353.537	169.078	-0.077	0.109
-352.523	398.778	-0.084	-0.175
-351.508	-200.000	0.019	0.311
-350.493	94.083	0.183	0.208
-349.479	221.464	0.260	0.418
-348.464	-21.716	0.259	0.158
-347.450	-70.357	-0.269	0.102
-346.435	16.103	-0.104	-0.082
-345.420	-87.004	0.241	0.073
-344.406	-162.923	0.070	0.003
-343.391	645.248	0.043	-0.111
-342.377	58.543	0.078	0.077
-341.362	-92.488	-0.163	0.046
-340.348	-200.000	0.046	0.436
-339.333	-93.534	-0.297	-0.082
-338.318	127.910	-0.169	-0.215
-337.304	-158.241	-0.317	-0.019
-336.289	130.556	0.085	0.109
-335.275	800.000	0.143	-0.470
-334.260	402.282	0.103	0.217
-333.245	277.348	-0.152	0.270
-332.231	-200.000	0.020	-0.114
-331.216	50.544	0.145	-0.137
-330.202	-36.591	-0.211	-0.114
-329.187	-101.622	0.102	0.025
-328.172	262.892	0.049	-0.085
-327.158	88.714	-0.095	-0.106
-326.143	-76.503	-0.261	0.092
-325.129	-47.556	0.073	0.035
-324.114	-200.000	-0.047	-0.385
-323.099	-174.256	-0.297	0.009
-322.085	-23.400	0.095	0.057
-321.070	800.000	0.011	0.031
-320.056	414.345	0.138	0.295
-319.041	-78.463	0.280	-0.096
-318.026	602.793	0.138	0.342
-317.012	48.519	-0.332	0.311
-315.997	119.512	0.138	-0.170
-314.983	15.231	-0.212	-0.166
-313.968	-66.009	-0.052	0.021
-312.953	162.108	0.061	0.085
-311.939	218.122	0.028	-0.044
-310.924	32.164	-0.078	0.067
-309.910	247.253	-0.095	0.161
-308.895	-121.254	-0.484	0.081
-307.880	-18.383	0.315	0.197
-306.866	-131.865	-0.285	-0.037
-305.851	11.427	-0.107	-0.082
-304.837	162.689	0.258	0.362
-303.822	-93.840	-0.084	-0.023
-302.807	800.000	0.077	-0.305
-301.793	800.000	0.140	-0.479
-300.778	-49.552	-0.105	-0.050
-299.764	-101.840	-0.217	0.052
-298.749	-7.290	0.183	0.124
-297.735	316.858	-0.104	0.197
-296.720	800.000	-0.029	0.103
-295.705	765.582	0.040	-0.109
-294.691	-39.934	-0.044	0.023
-293.676	-69.689	-0.252	-0.096
-292.662	34.107	0.157	-0.137
-291.647	-59.250	-0.045	0.019
-290.632	-32.701	-0.203	-0.113
-289.618	115.644	0.191	0.233
-288.603	-114.314	-0.128	-0.025
-287.589	-200.000	0.093	0.474
-286.574	151.943	-0.058	0.079
-285.559	187.327	0.033	0.049
-284.545	-128.482	0.351	0.050
-283.530	-59.167	-0.174	0.075
-282.516	737.981	0.193	-0.516
-281.501	384.823	-0.049	0.100
-280.486	-65.397	0.249	-0.100
-279.472	-10.574	0.184	-0.121
-278.457	57.269	-0.101	0.099
-277.443	-83.534	0.102	0.032
-276.428	-200.000	0.015	0.089
-275.413	45.280	0.077	-0.071
-274.399	-73.514	-0.248	0.090
-273.384	148.885	0.117	-0.158
-272.370	693.485	-0.082	0.214
-271.355	-200.000	0.018	0.351
-270.340	243.558	0.123	0.206
-269.326	253.323	-0.089	0.152
-268.311	-87.894	-0.112	-0.034
-267.297	-21.914	-0.056	0.034
-266.282	-21.438	0.017	-0.010
-265.267	-27.314	-0.111	0.064
-264.253	-200.000	0.022	-0.225
-263.238	21.110	-0.037	-0.030
-262.224	800.000	0.062	-0.175
-261.209	375.712	-0.188	0.382
-260.195	200.991	0.078	-0.119
-259.180	10.887	-0.283	0.215
-258.165	-103.509	0.047	0.011
-257.151	800.000	-0.031	0.096
-256.136	14.500	-0.064	0.050
-255.122	-45.664	0.168	-0.083
-254.107	320.654	0.136	0.258
-253.092	226.094	-0.073	0.118
-252.078	-13.206	0.147	0.095
-251.063	-46.808	-0.136	0.066
-250.049	-118.727	-0.294	0.052
-249.034	-86.453	0.396	0.121
-248.019	-200.000	-0.011	-0.136
-247.005	-200.000	-0.060	-0.374
-245.990	139.160	-0.131	-0.172
-244.976	182.043	0.152	-0.223
-243.961	-64.044	0.292	-0.119
-242.946	-27.939	-0.108	-0.062
-241.932	160.491	0.127	-0.176
-240.917	-200.000	-0.041	0.354
-239.903	-37.220	0.068	-0.036
-238.888	-43.173	0.311	0.157
-237.873	244.049	0.031	0.051
-236.859	28.927	0.179	-0.151
-235.844	162.259	-0.054	-0.075
-234.830	-200.000	0.008	0.116
-233.815	-25.184	-0.348	0.205
-232.800	-41.536	-0.117	0.060
-231.786	-134.364	0.285	0.035
-230.771	324.811	-0.016	-0.031
-229.757	11.133	0.185	0.141
-228.742	-51.933	0.339	0.157
-227.727	-114.732	-0.145	0.028
-226.713	-200.000	-0.004	0.310
-225.698	-18.192	0.106	-0.066
-224.684	37.955	-0.142	-0.126
-223.669	17.801	0.043	-0.034
-222.655	-200.000	-0.018	-0.100
-221.640	-91.340	0.260	0.074
-220.625	121.831	-0.131	-0.163
-219.611	-200.000	-0.063	-0.461
-218.596	-83.449	-0.126	0.040
-217.582	800.000	-0.109	0.366
-216.567	218.389	-0.112	0.178
-215.552	-200.000	-0.010	-0.059
-214.538	-85.520	0.137	-0.042
-213.523	74.434	0.076	0.079
-212.509	-64.838	0.080	0.032
-211.494	-29.185	0.159	0.091
-210.479	-111.164	0.156	-0.032
-209.465	67.562	-0.247	-0.251
-208.450	800.000	0.032	-0.098
-207.436	-42.345	-0.132	0.067
-206.421	-200.000	0.005	-0.060
-205.406	-200.000	0.007	-0.029
-204.392	385.040	-0.068	0.140
-203.377	28.104	-0.100	-0.084
-202.363	-120.124	0.091	-0.016
-201.348	-200.000	0.025	0.289
-200.333	0.513	0.155	-0.110
-199.319	-200.000	0.004	0.309
-198.304	800.000	0.036	0.143
-197.290	-200.000	-0.013	0.124
-196.275	696.847	0.098	-0.257
-195.260	-10.704	0.071	-0.047
-194.246	-200.000	-0.028	0.149
-193.231	191.556	-0.099	-0.148
-192.217	123.072	-0.106	-0.132
-191.202	-7.586	0.172	-0.116
-190.187	21.053	-0.028	0.023
-189.173	-200.000	-0.010	0.206
-188.158	-152.222	-0.167	-0.012
-187.144	-200.000	0.004	-0.152
-186.129	146.358	-0.133	0.178
-185.114	-92.940	0.216	0.060
-184.100	86.229	0.166	-0.182
-183.085	-47.983	-0.271	-0.130
-182.071	-59.120	0.351	-0.151
-181.056	-39.893	-0.187	0.097
-180.042	195.859	0.149	-0.226
-179.027	800.000	-0.154	-0.527
-178.012	135.943	-0.046	0.059
-176.998	-68.804	0.286	0.110
-175.983	-24.767	-0.060	0.036
-174.969	-170.934	-0.215	0.007
-173.954	-85.420	0.212	-0.066
-172.939	-165.006	0.118	0.005
-171.925	-200.000	0.014	-0.132
-170.910	-25.821	0.289	0.169
-169.896	-200.000	-0.015	-0.218
-168.881	-46.634	0.266	0.129
-167.866	-134.971	0.095	0.011
-166.852	-200.000	0.000	0.110
-165.837	800.000	0.072	0.240
-164.823	-103.726	0.181	-0.042
-163.808	190.898	0.067	0.101
-162.793	800.000	0.077	0.237
-161.779	-67.034	0.203	0.080
-160.764	52.004	-0.077	-0.073
-159.750	-24.703	0.159	-0.094
-158.735	-117.714	0.066	-0.012
-157.720	800.000	0.042	-0.158
-156.706	156.744	0.087	0.120
-155.691	414.423	-0.016	0.033
-154.677	-200.000	0.014	-0.117
-153.662	800.000	0.081	-0.277
-152.647	-21.353	0.375	-0.227
-151.633	-161.079	0.536	-0.028
-150.618	135.933	0.221	-0.287
-149.604	14.879	-0.058	-0.045
-148.589	288.563	-0.098	0.177
-147.574	179.439	0.092	-0.134
-146.560	-83.801	0.461	-0.146
-145.545	-116.949	0.202	-0.037
-144.531	800.000	0.108	0.301
-143.516	152.445	0.204	-0.276
-142.502	800.000	0.066	0.271
-141.487	284.934	0.165	-0.296
-140.472	27.652	0.272	0.227
-139.458	800.000	-0.061	0.170
-138.443	-110.323	-0.209	-0.043
-137.429	-56.628	-0.261	0.115
-136.414	405.872	-0.076	0.160
-135.399	286.714	-0.242	0.434
-134.385	-200.000	0.005	-0.091
-133.370	411.557	0.132	0.278
-132.356	605.968	0.123	-0.304
-131.341	266.497	0.050	-0.087
-130.326	95.087	-0.108	-0.122
-129.312	800.000	-0.093	-0.311
-128.297	-154.016	-0.185	0.012
-127.283	-200.000	-0.034	0.190
-126.268	800.000	0.071	0.255
-125.253	-124.240	-0.443	-0.069
-124.239	-82.377	-0.361	-0.116
-123.224	-146.723	0.135	-0.012
-122.210	322.704	-0.122	0.231
-121.195	-113.484	-0.048	-0.009
