DTS Sentinel unit serial number:	SN413079Multiplexer serial number:	ORYXHardware model number:	OX4-SRSoftware version number:	ORYX F/W v4.00 Oryx Data Collector v3.7.2.0data status	okinstallation	princeton_trtdifferential loss correction	single-endedforward channel	channel 4reverse channel	N/Adate	2019/09/15time	23:21:34forward acquisition time	60.00reverse acquisition time	0.00gamma	496.2192k internal	0.2322k external	0.2322temperature offset calibration	0.9954default loss term (dB/km)	0.3790temperature slope calibration	1.0000multiplexer offset coefficient	1.0000multiplexer slope coefficient	1.0000fibre end	0.00T internal ref (°C)	28.30T ext. ref 1 (°C)	9.11T ext. ref 2 (°C)	22.06length (m)	temperature (°C)	Stokes	anti-Stokes-747.200	135.117	0.166	0.218
-746.185	800.000	0.054	0.179
-745.171	-200.000	0.017	0.251
-744.156	680.261	-0.030	0.079
-743.142	-116.718	-0.223	-0.041
-742.127	-3.702	0.211	-0.148
-741.112	-4.584	0.413	0.288
-740.098	190.455	-0.067	0.102
-739.083	119.625	-0.193	-0.241
-738.069	-200.000	0.030	0.483
-737.054	163.642	-0.084	0.119
-736.039	142.273	-0.034	-0.045
-735.025	288.842	-0.107	0.197
-734.010	-108.647	-0.266	0.058
-732.996	-96.316	-0.636	-0.170
-731.981	210.686	0.056	0.089
-730.966	800.000	-0.087	-0.331
-729.952	800.000	0.034	-0.134
-728.937	145.905	-0.071	-0.096
-727.923	-200.000	0.038	-0.349
-726.908	246.040	-0.072	-0.122
-725.894	-0.015	0.283	0.204
-724.879	403.213	0.148	-0.315
-723.864	45.367	0.112	-0.105
-722.850	800.000	0.053	0.225
-721.835	-200.000	0.019	0.239
-720.821	800.000	-0.111	-0.326
-719.806	800.000	-0.077	0.220
-718.791	-123.402	0.355	-0.057
-717.777	-110.697	0.143	-0.030
-716.762	-46.017	0.057	0.028
-715.748	-200.000	0.011	0.146
-714.733	613.658	0.040	-0.102
-713.718	-200.000	-0.006	0.120
-712.704	-76.030	0.185	0.066
-711.689	-115.538	-0.117	-0.022
-710.675	52.015	-0.251	-0.242
-709.660	555.048	-0.138	-0.335
-708.645	469.641	0.064	0.144
-707.631	-80.742	-0.169	-0.057
-706.616	148.250	-0.247	-0.336
-705.602	-49.969	-0.233	-0.112
-704.587	-75.428	0.156	0.056
-703.572	28.533	0.057	0.049
-702.558	-48.263	0.242	-0.118
-701.543	-200.000	-0.000	0.005
-700.529	-200.000	-0.003	-0.235
-699.514	-60.089	0.087	0.037
-698.499	-109.791	0.158	-0.033
-697.485	497.301	-0.067	0.155
-696.470	-200.000	-0.027	-0.135
-695.456	-14.943	-0.162	0.105
-694.441	-200.000	-0.030	0.165
-693.426	10.426	0.174	-0.133
-692.412	800.000	0.108	0.381
-691.397	498.560	0.045	0.105
-690.383	-104.164	-0.253	0.059
-689.368	114.584	-0.009	0.011
-688.354	3.852	0.256	0.189
-687.339	-200.000	0.019	-0.450
-686.324	-42.657	0.114	0.059
-685.310	-9.876	-0.329	0.220
-684.295	-200.000	0.013	0.145
-683.281	-137.244	0.224	0.026
-682.266	800.000	-0.016	-0.060
-681.251	21.249	-0.256	0.209
-680.237	-119.510	0.095	0.017
-679.222	-83.398	-0.265	0.086
-678.208	165.025	-0.364	-0.518
-677.193	-200.000	-0.026	-0.432
-676.178	171.949	0.126	-0.183
-675.164	22.190	0.186	-0.153
-674.149	103.923	-0.086	-0.102
-673.135	734.840	-0.114	0.307
-672.120	-60.848	0.329	-0.140
-671.105	-108.885	-0.206	-0.044
-670.091	88.419	-0.095	0.107
-669.076	-103.065	0.184	0.044
-668.062	-200.000	0.035	-0.275
-667.047	-107.329	-0.134	0.030
-666.032	-108.839	0.281	0.061
-665.018	-114.808	-0.206	-0.040
-664.003	800.000	0.083	-0.297
-662.989	65.875	-0.167	0.171
-661.974	43.367	-0.230	-0.212
-660.959	-200.000	0.043	-0.320
-659.945	8.457	0.342	-0.259
-658.930	-122.576	0.329	-0.054
-657.916	187.897	0.063	0.095
-656.901	359.563	-0.173	0.348
-655.886	-102.638	0.093	-0.022
-654.872	359.753	-0.169	-0.340
-653.857	50.392	-0.138	-0.131
-652.843	800.000	0.063	-0.266
-651.828	800.000	-0.078	0.277
-650.814	103.705	-0.257	0.304
-649.799	340.310	-0.015	-0.029
-648.784	142.534	-0.354	0.474
-647.770	-51.861	-0.160	0.075
-646.755	161.499	0.113	0.159
-645.741	55.866	0.112	0.109
-644.726	-90.489	-0.184	0.054
-643.711	583.445	0.120	0.297
-642.697	-76.152	-0.384	0.136
-641.682	50.262	-0.207	-0.197
-640.668	635.518	-0.046	-0.118
-639.653	-99.738	-0.285	0.072
-638.638	-200.000	0.037	0.396
-637.624	428.616	0.072	-0.156
-636.609	48.716	-0.229	0.216
-635.595	58.769	-0.109	0.108
-634.580	-200.000	0.084	-0.380
-633.565	147.039	0.044	-0.060
-632.551	-101.775	-0.201	0.049
-631.536	-200.000	0.047	-0.373
-630.522	94.357	-0.035	-0.040
-629.507	-137.342	-0.198	-0.023
-628.492	-96.630	0.125	0.033
-627.478	744.835	-0.058	-0.158
-626.463	-200.000	0.009	-0.054
-625.449	-3.330	-0.063	-0.044
-624.434	-132.715	0.380	-0.049
-623.419	43.534	0.172	-0.159
-622.405	-104.975	-0.202	0.047
-621.390	93.076	-0.122	0.139
-620.376	-20.582	-0.302	-0.187
-619.361	800.000	0.080	0.286
-618.346	800.000	0.087	-0.248
-617.332	375.518	-0.135	-0.277
-616.317	-23.556	0.221	0.133
-615.303	-4.908	0.105	-0.073
-614.288	-102.403	-0.267	-0.064
-613.273	41.321	0.246	0.224
-612.259	-33.738	-0.443	-0.245
-611.244	-200.000	-0.037	-0.177
-610.230	222.997	0.028	-0.045
-609.215	-119.514	0.183	0.032
-608.201	-54.663	0.235	0.107
-607.186	65.025	0.317	-0.321
-606.171	420.149	-0.030	0.065
-605.157	39.171	0.142	-0.127
-604.142	-88.139	0.152	-0.046
-603.128	-121.931	0.118	0.019
-602.113	139.026	0.186	-0.246
-601.098	-200.000	0.000	-0.272
-600.084	-200.000	-0.059	0.386
-599.069	-129.765	0.276	-0.038
-598.055	590.660	0.095	0.235
-597.040	800.000	0.102	0.289
-596.025	-200.000	-0.023	-0.104
-595.011	-64.592	-0.173	-0.070
-593.996	800.000	-0.109	-0.357
-592.982	19.100	-0.234	0.188
-591.967	63.560	-0.143	-0.144
-590.952	367.424	0.024	0.048
-589.938	40.642	-0.164	0.149
-588.923	128.799	0.117	0.150
-587.909	800.000	0.093	0.330
-586.894	-200.000	-0.053	-0.275
-585.879	800.000	0.020	-0.065
-584.865	-200.000	0.051	-0.262
-583.850	-112.363	-0.430	-0.086
-582.836	772.455	0.069	0.188
-581.821	-6.278	-0.320	0.219
-580.806	106.894	0.084	-0.100
-579.792	59.727	0.172	0.171
-578.777	800.000	-0.017	-0.060
-577.763	-49.757	0.231	-0.110
-576.748	-28.941	-0.128	-0.074
-575.733	28.975	-0.050	0.042
-574.719	-63.214	-0.207	0.086
-573.704	800.000	0.091	0.361
-572.690	800.000	0.010	0.040
-571.675	106.883	-0.417	0.497
-570.661	189.980	0.163	-0.245
-569.646	-200.000	-0.004	0.140
-568.631	-150.000	-0.014	0.001
-567.617	713.437	-0.055	-0.147
-566.602	800.000	-0.065	0.198
-565.588	-115.724	-0.366	-0.069
-564.573	170.185	0.107	-0.154
-563.558	-122.770	0.304	0.049
-562.544	800.000	-0.091	0.290
-561.529	300.620	-0.171	0.317
-560.515	800.000	-0.043	0.180
-559.500	127.681	-0.148	0.188
-558.485	172.332	0.132	-0.190
-557.471	-113.958	0.203	0.040
-556.456	156.042	-0.121	0.167
-555.442	130.068	-0.148	0.190
-554.427	-200.000	-0.033	-0.283
-553.412	-180.142	-0.137	0.003
-552.398	-200.000	0.005	0.202
-551.383	-69.977	0.191	-0.073
-550.369	89.296	-0.071	-0.079
-549.354	-121.755	0.089	-0.015
-548.339	-200.000	0.006	0.183
-547.325	-200.000	-0.027	-0.191
-546.310	-200.000	0.005	-0.151
-545.296	194.819	0.052	-0.079
-544.281	106.127	-0.160	-0.190
-543.266	171.197	0.045	-0.065
-542.252	375.491	0.188	0.383
-541.237	-50.207	0.165	0.078
-540.223	-18.656	-0.158	0.099
-539.208	-111.851	-0.057	0.011
-538.193	156.721	0.092	-0.127
-537.179	366.052	-0.146	-0.295
-536.164	291.783	0.068	0.124
-535.150	40.875	0.155	-0.140
-534.135	-21.832	0.239	-0.146
-533.121	-105.871	0.304	0.069
-532.106	28.818	-0.266	-0.226
-531.091	-200.000	-0.032	0.311
-530.077	800.000	0.038	0.122
-529.062	-200.000	0.001	-0.186
-528.048	252.636	-0.030	-0.051
-527.033	800.000	-0.077	-0.305
-526.018	112.022	-0.057	-0.069
-525.004	283.313	-0.111	0.200
-523.989	38.911	-0.059	-0.053
-522.975	644.413	0.134	0.341
-521.960	34.069	-0.069	0.060
-520.945	53.166	0.159	-0.153
-519.931	800.000	0.078	-0.238
-518.916	800.000	-0.073	-0.237
-517.902	-16.417	0.185	0.117
-516.887	-200.000	0.019	-0.305
-515.872	57.826	-0.208	0.204
-514.858	159.089	-0.090	-0.125
-513.843	800.000	-0.075	0.240
-512.829	-107.687	0.288	-0.063
-511.814	-200.000	-0.063	0.287
-510.799	305.687	0.089	0.166
-509.785	197.799	-0.170	-0.260
-508.770	-99.357	0.377	-0.095
-507.756	-200.000	0.030	0.275
-506.741	103.885	0.099	0.117
-505.726	-179.858	-0.305	0.007
-504.712	-174.452	-0.204	0.006
-503.697	67.769	-0.161	-0.165
-502.683	-194.102	0.171	-0.001
-501.668	-99.326	0.249	0.063
-500.653	-173.585	-0.353	0.011
-499.639	-72.021	0.134	-0.050
-498.624	-200.000	0.055	0.316
-497.610	55.648	0.296	0.287
-496.595	623.645	-0.153	0.385
-495.581	752.018	-0.210	-0.567
-494.566	-200.000	-0.012	-0.116
-493.551	-87.580	-0.147	0.044
-492.537	84.563	-0.279	0.306
-491.522	-55.354	-0.329	-0.148
-490.508	-200.000	0.016	-0.115
-489.493	88.844	0.046	-0.052
-488.478	46.163	0.294	-0.273
-487.464	-143.198	-0.298	0.029
-486.449	23.743	-0.200	0.164
-485.435	43.390	-0.366	0.334
-484.420	42.922	0.250	-0.228
-483.405	76.365	0.103	-0.109
-482.391	103.460	0.133	-0.157
-481.376	14.662	0.201	0.157
-480.362	-70.243	-0.135	-0.051
-479.347	-72.897	-0.144	0.053
-478.332	800.000	0.070	0.196
-477.318	-9.019	0.144	0.097
-476.303	130.124	-0.081	0.104
-475.289	-67.827	0.206	-0.081
-474.274	800.000	0.046	-0.198
-473.259	57.444	0.278	0.271
-472.245	800.000	0.051	0.217
-471.230	324.172	0.122	0.233
-470.216	151.220	-0.029	0.040
-469.201	201.274	-0.165	-0.254
-468.186	800.000	-0.107	-0.372
-467.172	63.376	0.054	0.055
-466.157	-167.246	-0.134	0.005
-465.143	33.659	0.193	0.168
-464.128	-41.129	0.087	-0.045
-463.113	-200.000	-0.022	-0.144
-462.099	-200.000	-0.006	-0.032
-461.084	-19.194	-0.197	0.122
-460.070	-69.608	-0.165	-0.063
-459.055	269.740	0.104	-0.182
-458.040	-111.900	0.086	-0.017
-457.026	-169.897	-0.131	-0.005
-456.011	-127.335	-0.159	0.023
-454.997	33.284	0.194	-0.169
-453.982	-135.244	0.312	-0.037
-452.968	-45.149	-0.046	-0.023
-451.953	-92.336	0.084	0.023
-450.938	-67.092	0.216	-0.085
-449.924	-103.107	-0.273	-0.065
-448.909	5.785	0.086	-0.064
-447.895	207.844	-0.057	0.089
-446.880	-200.000	0.018	-0.179
-445.865	204.670	-0.089	-0.138
-444.851	-200.000	-0.014	0.065
-443.836	14.305	0.143	0.111
-442.822	-88.450	-0.233	0.070
-441.807	231.468	-0.047	-0.077
-440.792	276.957	0.104	-0.185
-439.778	-200.000	0.004	0.113
-438.763	-53.656	-0.097	0.044
-437.749	-88.886	0.128	-0.038
-436.734	108.934	0.142	-0.169
-435.719	-200.000	0.010	-0.211
-434.705	-200.000	0.012	-0.208
-433.690	-50.117	0.096	-0.045
-432.676	-113.161	-0.184	0.036
-431.661	-92.707	0.174	-0.049
-430.646	24.509	0.152	0.126
-429.632	800.000	-0.053	-0.220
-428.617	155.267	0.114	0.157
-427.603	46.176	-0.177	0.163
-426.588	-200.000	0.042	-0.399
-425.573	800.000	0.047	0.137
-424.559	-142.415	-0.077	0.008
-423.544	768.725	-0.137	0.373
-422.530	-200.000	-0.053	-0.292
-421.515	-200.000	-0.007	-0.359
-420.500	800.000	0.055	-0.234
-419.486	-200.000	0.054	0.255
-418.471	-127.880	-0.223	-0.032
-417.457	48.205	0.181	0.169
-416.442	-96.496	-0.101	-0.026
-415.428	-200.000	0.017	-0.375
-414.413	-200.000	-0.045	-0.239
-413.398	62.090	-0.170	0.169
-412.384	-118.849	0.078	-0.014
-411.369	-200.000	-0.006	0.208
-410.355	83.730	0.017	0.018
-409.340	627.309	-0.011	-0.027
-408.325	-69.445	0.105	0.040
-407.311	234.417	0.127	-0.209
-406.296	-47.581	0.491	-0.238
-405.282	800.000	-0.122	-0.354
-404.267	-200.000	-0.006	-0.333
-403.252	800.000	0.039	-0.155
-402.238	-33.445	-0.162	-0.089
-401.223	-200.000	0.084	-0.430
-400.209	-127.773	0.256	-0.037
-399.194	2.504	-0.054	0.039
-398.179	13.730	0.302	0.234
-397.165	23.056	-0.214	0.175
-396.150	-200.000	0.005	0.090
-395.136	-67.816	-0.443	-0.173
-394.121	-79.973	0.184	-0.062
-393.106	-30.375	0.159	-0.090
-392.092	-149.478	-0.161	-0.013
-391.077	557.120	0.050	-0.119
-390.063	-200.000	0.045	0.199
-389.048	-31.492	0.368	0.206
-388.033	-200.000	-0.033	-0.268
-387.019	-43.817	0.218	0.109
-386.004	197.047	0.100	-0.152
-384.990	-15.175	0.164	-0.105
-383.975	69.281	0.074	-0.076
-382.960	179.415	0.120	0.176
-381.946	0.627	-0.139	0.099
-380.931	263.404	-0.068	-0.117
-379.917	129.139	0.059	0.076
-378.902	163.432	0.162	-0.227
-377.888	-200.000	-0.022	-0.116
-376.873	-4.306	-0.214	0.148
-375.858	-44.624	-0.399	0.199
-374.844	-101.373	0.436	-0.106
-373.829	143.833	-0.262	-0.347
-372.815	44.945	0.203	-0.186
-371.800	264.531	-0.049	0.085
-370.785	-50.945	-0.235	-0.110
-369.771	-81.550	0.289	-0.095
-368.756	-16.220	0.330	0.209
-367.742	-200.000	0.029	0.193
-366.727	-200.000	-0.015	-0.083
-365.712	-66.076	-0.378	0.150
-364.698	-35.569	0.318	-0.172
-363.683	89.605	-0.222	0.246
-362.669	-0.799	0.064	0.045
-361.654	-102.744	-0.246	0.058
-360.639	13.777	0.193	0.149
-359.625	-67.509	-0.083	-0.032
-358.610	800.000	0.038	0.153
-357.596	-70.399	-0.270	0.102
-356.581	-200.000	-0.005	0.052
-355.566	37.581	-0.209	-0.185
-354.552	800.000	-0.079	0.235
-353.537	-44.435	-0.155	0.077
-352.523	-59.031	0.212	0.091
-351.508	434.491	-0.077	-0.167
-350.493	-16.353	0.334	0.211
-349.479	-200.000	0.054	0.366
-348.464	-183.717	-0.092	0.002
-347.450	156.091	0.072	0.099
-346.435	401.076	-0.231	-0.482
-345.420	358.930	-0.148	0.294
-344.406	-166.060	0.268	0.011
-343.391	156.249	-0.182	-0.250
-342.377	292.908	-0.096	0.174
-341.362	-11.306	-0.102	-0.067
-340.348	154.330	0.189	-0.258
-339.333	800.000	0.085	0.271
-338.318	-200.000	0.006	-0.291
-337.304	519.287	0.036	0.084
-336.289	-200.000	0.017	-0.302
-335.275	-81.499	-0.138	-0.045
-334.260	23.393	-0.165	-0.135
-333.245	163.551	0.035	-0.049
-332.231	-143.506	-0.068	-0.006
-331.216	397.791	-0.184	-0.383
-330.202	-28.589	-0.309	0.177
-329.187	-107.434	0.193	0.042
-328.172	241.022	-0.106	-0.176
-327.158	-85.465	-0.129	0.040
-326.143	296.864	0.058	0.106
-325.129	40.036	0.283	0.253
-324.114	800.000	0.089	-0.303
-323.099	131.959	-0.195	-0.250
-322.085	-108.268	-0.283	0.061
-321.070	-62.895	-0.196	-0.081
-320.056	-130.486	0.104	0.014
-319.041	-169.300	-0.347	-0.013
-318.026	-132.581	-0.174	-0.022
-317.012	23.923	0.224	0.184
-315.997	177.951	0.188	-0.273
-314.983	92.370	0.136	-0.153
-313.968	-44.621	-0.013	0.006
-312.953	24.917	0.243	-0.200
-311.939	-46.438	-0.258	0.126
-310.924	-145.640	0.118	-0.010
-309.910	-200.000	0.027	-0.145
-308.895	157.084	0.160	0.220
-307.880	-200.000	-0.003	0.060
-306.866	-200.000	-0.012	0.204
-305.851	-200.000	0.018	0.110
-304.837	89.905	0.154	0.171
-303.822	-136.510	-0.107	-0.012
-302.807	-200.000	0.001	-0.259
-301.793	40.726	-0.216	-0.193
-300.778	-73.031	0.127	0.046
-299.764	-56.435	-0.247	0.109
-298.749	12.159	-0.131	-0.100
-297.735	-200.000	-0.062	-0.282
-296.720	726.310	0.046	-0.123
-295.705	-200.000	0.034	-0.147
-294.691	688.009	0.096	0.248
-293.676	-38.777	0.144	0.075
-292.662	-200.000	0.000	-0.233
-291.647	171.082	0.073	0.103
-290.632	-124.481	0.063	0.010
-289.618	-68.289	0.145	0.056
-288.603	129.949	0.144	0.183
-287.589	-115.108	-0.318	0.060
-286.574	-108.799	0.185	-0.039
-285.559	800.000	0.050	0.157
-284.545	-14.990	-0.228	-0.145
-283.530	800.000	-0.075	-0.268
-282.516	245.814	-0.160	0.267
-281.501	-15.800	0.273	-0.172
-280.486	378.743	-0.197	0.401
-279.472	-93.750	-0.133	0.036
-278.457	411.993	-0.161	0.338
-277.443	97.657	0.084	0.095
-276.428	-161.646	0.145	-0.007
-275.413	-50.070	-0.083	0.039
-274.399	-82.341	-0.094	-0.030
-273.384	-72.627	-0.317	0.116
-272.370	284.960	-0.025	0.045
-271.355	35.552	-0.112	0.097
-270.340	-200.000	0.019	0.166
-269.326	72.100	-0.365	0.377
-268.311	800.000	-0.088	0.247
-267.297	122.875	0.243	0.302
-266.282	49.426	0.117	-0.109
-265.267	-84.551	-0.191	0.060
-264.253	-200.000	0.007	-0.034
-263.238	12.330	0.095	-0.073
-262.224	-116.486	0.279	-0.051
-261.209	-200.000	0.238	0.001
-260.195	-200.000	-0.029	0.157
-259.180	-200.000	-0.015	-0.261
-258.165	-92.831	-0.314	-0.087
-257.151	-39.999	0.086	0.044
-256.136	-6.267	-0.094	-0.064
-255.122	800.000	-0.042	-0.157
-254.107	-200.000	-0.011	-0.140
-253.092	-200.000	-0.038	-0.247
-252.078	121.763	-0.073	0.090
-251.063	-8.871	-0.235	0.156
-250.049	302.612	0.108	-0.198
-249.034	-135.243	0.296	0.035
-248.019	215.911	-0.155	0.243
-247.005	-200.000	0.023	0.263
-245.990	800.000	-0.085	-0.319
-244.976	113.472	0.095	-0.114
-243.961	-129.467	0.242	-0.033
-242.946	-18.733	-0.281	-0.173
-241.932	-116.435	0.453	-0.083
-240.917	215.761	0.055	-0.086
-239.903	-200.000	-0.057	-0.382
-238.888	157.371	0.044	-0.060
-237.873	-200.000	0.011	0.338
-236.859	29.304	0.195	0.164
-235.844	800.000	-0.037	-0.130
-234.830	23.793	-0.249	0.203
-233.815	-200.000	-0.067	0.368
-232.800	-93.572	-0.083	-0.023
-231.786	-79.028	0.327	0.110
-230.771	-78.847	0.132	-0.044
-229.757	-200.000	-0.007	0.119
-228.742	-162.089	-0.106	0.005
-227.727	199.430	0.128	0.194
-226.713	-108.024	-0.342	-0.073
-225.698	-141.268	0.180	0.018
-224.684	-22.604	0.463	0.277
-223.669	-64.318	-0.226	0.091
-222.655	28.563	0.143	-0.120
-221.640	92.093	0.148	0.165
-220.625	-200.000	-0.002	0.171
-219.611	800.000	0.028	0.079
-218.596	-22.713	0.254	0.152
-217.582	57.320	0.084	0.081
-216.567	-14.060	-0.103	-0.066
-215.552	494.996	0.137	-0.311
-214.538	-200.000	0.009	-0.172
-213.523	-200.000	-0.056	0.274
-212.509	289.983	0.112	-0.202
-211.494	-76.795	-0.277	0.096
-210.479	665.044	0.069	0.177
-209.465	-103.999	0.227	0.052
-208.450	-169.859	0.140	-0.005
-207.436	-200.000	0.027	0.136
-206.421	122.779	0.097	-0.120
-205.406	184.378	-0.185	0.271
-204.392	619.359	-0.133	0.331
-203.377	-99.807	0.296	0.073
-202.363	342.880	-0.129	-0.249
-201.348	25.163	-0.081	-0.067
-200.333	232.113	0.177	-0.288
-199.319	-115.292	0.260	-0.049
-198.304	-81.477	0.181	-0.059
-197.290	166.635	0.179	-0.251
-196.275	-19.203	-0.151	-0.093
-195.260	-200.000	-0.039	0.263
-194.246	-72.095	0.181	-0.066
-193.231	-150.072	0.134	-0.010
-192.217	-141.016	-0.238	0.024
-191.202	-105.983	0.390	0.087
-190.187	-21.286	0.158	0.095
-189.173	-122.357	0.077	-0.012
-188.158	-24.056	-0.272	0.161
-187.144	800.000	-0.061	-0.178
-186.129	-132.210	-0.283	0.036
-185.114	-70.281	-0.152	-0.057
-184.100	284.190	-0.123	-0.219
-183.085	53.226	-0.220	-0.208
-182.071	11.293	0.165	-0.125
-181.056	223.533	-0.116	0.184
-180.042	200.102	0.155	-0.236
-179.027	556.469	0.155	-0.370
-178.012	-157.860	0.326	0.019
-176.998	1.415	0.108	0.077
-175.983	-65.724	0.150	0.060
-174.969	274.170	-0.122	-0.213
-173.954	13.420	-0.304	-0.233
-172.939	-200.000	-0.025	-0.238
-171.925	20.505	-0.063	-0.050
-170.910	-153.675	-0.147	0.010
-169.896	632.809	0.124	0.311
-168.881	-200.000	0.016	-0.212
-167.866	580.129	-0.061	0.148
-166.852	117.425	0.153	0.186
-165.837	-3.494	0.127	0.087
-164.823	-112.757	0.258	0.051
-163.808	258.411	-0.097	0.165
-162.793	174.728	-0.088	0.126
-161.779	-10.695	-0.321	0.210
-160.764	-50.246	-0.122	0.057
-159.750	298.222	0.134	-0.243
-158.735	-200.000	0.003	-0.095
-157.720	83.375	0.241	-0.259
-156.706	352.863	-0.021	0.042
-155.691	-59.083	0.234	0.100
-154.677	-144.308	-0.316	0.029
-153.662	188.026	0.154	0.227
-152.647	-200.000	-0.008	0.382
-151.633	-200.000	0.001	0.450
-150.618	735.902	-0.098	0.258
-149.604	-200.000	-0.031	0.183
-148.589	-3.402	-0.323	0.222
-147.574	-200.000	-0.000	0.028
-146.560	-43.658	-0.129	-0.064
-145.545	91.529	0.207	-0.229
-144.531	176.792	0.037	0.054
-143.516	-115.200	-0.156	0.029
-142.502	774.854	0.053	-0.142
-141.487	-48.022	0.196	-0.093
-140.472	93.619	0.156	0.175
-139.458	-125.042	-0.533	0.081
-138.443	800.000	0.043	0.185
-137.429	599.537	0.170	0.417
-136.414	-78.331	-0.191	0.065
-135.399	-14.066	0.030	-0.019
-134.385	800.000	0.048	0.190
-133.370	84.505	0.077	0.083
-132.356	102.199	0.186	-0.215
-131.341	57.672	-0.147	-0.141
-130.326	-100.607	0.257	-0.063
-129.312	153.217	0.046	0.062
-128.297	260.075	-0.121	0.206
-127.283	649.916	-0.244	-0.617
-126.268	-76.083	-0.145	0.050
-125.253	89.214	0.111	0.122
-124.239	-200.000	-0.016	0.227
-123.224	-40.110	0.213	0.109
-122.210	-140.929	-0.067	-0.007
-121.195	-200.000	-0.040	-0.188
