DTS Sentinel unit serial number:	SN413079Multiplexer serial number:	ORYXHardware model number:	OX4-SRSoftware version number:	ORYX F/W v4.00 Oryx Data Collector v3.7.2.0data status	okinstallation	princeton_trtdifferential loss correction	single-endedforward channel	channel 4reverse channel	N/Adate	2019/09/11time	19:19:10forward acquisition time	60.00reverse acquisition time	0.00gamma	496.2192k internal	0.2291k external	0.2291temperature offset calibration	1.0040default loss term (dB/km)	0.3790temperature slope calibration	1.0000multiplexer offset coefficient	1.0000multiplexer slope coefficient	1.0000fibre end	0.00T internal ref (°C)	41.11T ext. ref 1 (°C)	1.28T ext. ref 2 (°C)	33.44length (m)	temperature (°C)	Stokes	anti-Stokes-747.200	-99.086	0.078	-0.020
-746.185	-200.000	0.036	0.247
-745.171	-24.501	0.249	-0.152
-744.156	-200.000	0.002	-0.012
-743.142	178.204	-0.031	-0.047
-742.127	800.000	0.035	0.111
-741.112	5.725	-0.136	-0.103
-740.098	-200.000	-0.046	0.359
-739.083	10.885	-0.370	-0.289
-738.069	-86.054	-0.125	0.039
-737.054	-153.320	-0.391	0.028
-736.039	-46.533	-0.342	-0.172
-735.025	105.715	0.021	-0.025
-734.010	800.000	-0.071	-0.238
-732.996	-200.000	0.028	-0.372
-731.981	800.000	-0.049	-0.145
-730.966	508.804	0.047	0.111
-729.952	67.493	-0.162	-0.169
-728.937	-200.000	0.011	0.185
-727.923	57.508	-0.091	-0.091
-726.908	-135.123	0.126	0.015
-725.894	-0.475	0.301	-0.219
-724.879	37.603	0.192	-0.174
-723.864	-96.478	0.258	-0.070
-722.850	453.192	-0.105	-0.238
-721.835	-200.000	-0.021	-0.164
-720.821	-129.395	0.167	-0.024
-719.806	-117.768	-0.405	0.075
-718.791	-87.514	-0.104	0.032
-717.777	9.265	-0.102	0.079
-716.762	454.126	-0.163	-0.368
-715.748	-200.000	0.040	-0.376
-714.733	-11.417	0.136	0.091
-713.718	-3.832	0.161	-0.115
-712.704	200.819	-0.197	-0.309
-711.689	-200.000	-0.014	-0.314
-710.675	-200.000	-0.044	-0.365
-709.660	-61.630	0.384	-0.165
-708.645	113.557	-0.079	0.098
-707.631	-200.000	-0.024	-0.156
-706.616	-28.101	-0.074	-0.044
-705.602	-160.764	0.068	-0.004
-704.587	-71.217	-0.278	0.107
-703.572	-154.347	-0.067	-0.005
-702.558	17.243	0.119	0.096
-701.543	-135.641	-0.138	0.017
-700.529	-116.624	0.119	-0.022
-699.514	-200.000	-0.012	-0.056
-698.499	-200.000	0.018	-0.399
-697.485	411.518	0.092	0.200
-696.470	330.500	0.018	-0.036
-695.456	-200.000	-0.002	-0.146
-694.441	-3.531	-0.189	0.134
-693.426	439.872	0.070	-0.155
-692.412	502.660	-0.116	-0.275
-691.397	800.000	0.090	-0.268
-690.383	46.354	0.209	-0.198
-689.368	-54.734	-0.082	0.038
-688.354	125.845	-0.098	-0.126
-687.339	-200.000	-0.042	-0.243
-686.324	-200.000	-0.022	-0.177
-685.310	579.113	0.177	0.442
-684.295	354.186	-0.142	-0.288
-683.281	-99.906	-0.316	0.081
-682.266	199.575	-0.108	-0.170
-681.251	-152.563	-0.201	-0.015
-680.237	-35.376	0.197	0.109
-679.222	-46.135	0.155	-0.078
-678.208	-200.000	-0.009	-0.235
-677.193	101.563	0.144	-0.172
-676.178	127.952	0.141	-0.184
-675.164	289.840	0.067	-0.125
-674.149	287.408	0.157	-0.290
-673.135	-58.991	-0.136	-0.060
-672.120	55.461	0.154	-0.152
-671.105	202.782	-0.193	0.304
-670.091	73.514	0.143	0.153
-669.076	-157.547	-0.107	0.007
-668.062	-178.053	-0.351	0.009
-667.047	489.323	0.069	0.160
-666.032	-10.725	0.126	0.085
-665.018	-19.852	0.108	-0.068
-664.003	16.405	-0.186	-0.150
-662.989	-200.000	0.011	0.177
-661.974	281.424	0.076	-0.138
-660.959	336.766	-0.111	-0.221
-659.945	389.790	0.114	-0.242
-658.930	200.139	-0.176	-0.276
-657.916	1.474	-0.082	-0.060
-656.901	-200.000	-0.006	-0.157
-655.886	-88.886	0.241	0.073
-654.872	369.364	-0.076	0.158
-653.857	-187.641	-0.158	0.002
-652.843	-200.000	0.012	-0.349
-651.828	800.000	0.069	0.255
-650.814	-200.000	0.000	0.011
-649.799	-200.000	-0.030	0.279
-648.784	-146.010	0.110	-0.010
-647.770	800.000	0.065	-0.237
-646.755	-200.000	-0.020	0.114
-645.741	88.393	-0.050	-0.056
-644.726	-3.437	-0.169	-0.120
-643.711	-99.327	-0.235	0.061
-642.697	194.464	-0.114	-0.177
-641.682	-86.441	0.199	0.062
-640.668	-25.109	-0.272	-0.165
-639.653	-154.202	0.191	-0.013
-638.638	-105.192	-0.372	0.087
-637.624	-200.000	0.004	-0.143
-636.609	-79.948	0.033	0.011
-635.595	-139.343	-0.331	0.036
-634.580	-200.000	0.019	-0.158
-633.565	92.449	0.220	-0.253
-632.551	800.000	0.053	0.184
-631.536	-200.000	0.015	0.099
-630.522	800.000	-0.053	-0.204
-629.507	800.000	0.059	-0.184
-628.492	-150.423	0.072	0.006
-627.478	-44.952	0.145	0.074
-626.463	158.507	-0.137	-0.194
-625.449	44.529	0.145	-0.136
-624.434	196.558	-0.046	-0.071
-623.419	-94.268	-0.100	-0.028
-622.405	800.000	-0.048	0.194
-621.390	527.105	-0.025	-0.060
-620.376	128.088	-0.228	0.296
-619.361	18.947	-0.371	-0.303
-618.346	164.692	-0.195	-0.280
-617.332	800.000	0.094	0.316
-616.317	-29.635	-0.148	0.086
-615.303	800.000	0.069	-0.287
-614.288	171.576	0.140	0.205
-613.273	-200.000	-0.028	0.167
-612.259	316.302	0.106	0.204
-611.244	-200.000	0.055	-0.255
-610.230	-110.189	-0.195	-0.042
-609.215	-200.000	-0.010	-0.090
-608.201	-200.000	0.012	0.151
-607.186	133.996	0.052	0.069
-606.171	800.000	0.024	0.096
-605.157	-11.043	-0.097	-0.065
-604.142	489.162	0.081	-0.188
-603.128	20.796	0.246	-0.203
-602.113	-200.000	0.071	0.425
-601.098	115.838	0.166	-0.207
-600.084	-200.000	-0.026	0.237
-599.069	-78.457	-0.299	-0.104
-598.055	-11.590	0.284	0.190
-597.040	45.970	-0.155	-0.146
-596.025	-200.000	0.057	0.295
-595.011	-28.479	0.253	0.149
-593.996	68.916	0.147	0.153
-592.982	56.589	0.049	-0.048
-591.967	207.240	-0.117	-0.186
-590.952	57.845	0.189	-0.188
-589.938	-40.927	-0.230	-0.121
-588.923	-134.426	-0.248	0.031
-587.909	-200.000	-0.003	0.076
-586.894	-200.000	-0.064	0.469
-585.879	14.565	0.227	0.181
-584.865	-101.065	-0.106	-0.026
-583.850	-0.457	0.185	-0.134
-582.836	-134.738	-0.127	-0.016
-581.821	-121.965	-0.169	-0.028
-580.806	64.956	-0.132	-0.135
-579.792	-146.504	0.139	-0.012
-578.777	-103.119	0.247	0.059
-577.763	-3.893	-0.108	0.076
-576.748	-100.827	-0.033	0.008
-575.733	91.179	-0.130	-0.148
-574.719	42.131	-0.030	-0.028
-573.704	1.385	0.157	0.115
-572.690	-36.358	0.295	0.162
-571.675	777.104	-0.076	0.211
-570.661	-92.643	0.351	-0.100
-569.646	127.874	0.157	-0.203
-568.631	-31.515	0.168	-0.096
-567.617	-126.365	-0.202	0.031
-566.602	-155.355	-0.095	0.006
-565.588	-81.604	0.421	0.141
-564.573	-97.969	0.235	0.062
-563.558	63.808	-0.074	-0.076
-562.544	-174.686	-0.058	0.002
-561.529	-6.159	-0.070	0.049
-560.515	-86.660	-0.427	-0.133
-559.500	404.572	0.128	-0.274
-558.485	-200.000	-0.047	0.306
-557.471	-200.000	-0.002	0.197
-556.456	-4.394	-0.053	0.037
-555.442	21.625	-0.441	-0.365
-554.427	-27.236	-0.106	-0.063
-553.412	800.000	0.037	0.159
-552.398	-200.000	-0.023	-0.237
-551.383	751.324	-0.082	-0.226
-550.369	264.078	0.066	-0.116
-549.354	330.701	-0.057	0.112
-548.339	800.000	-0.045	-0.179
-547.325	164.577	-0.112	-0.161
-546.310	-14.853	-0.093	-0.060
-545.296	194.483	-0.355	-0.547
-544.281	84.412	0.051	0.057
-543.266	-200.000	0.050	0.301
-542.252	133.363	0.052	-0.069
-541.237	800.000	-0.094	-0.335
-540.223	45.118	-0.124	-0.116
-539.208	246.929	0.044	-0.076
-538.193	-16.261	-0.263	-0.170
-537.179	-84.512	-0.408	-0.131
-536.164	-200.000	0.037	0.183
-535.150	-112.420	-0.027	0.005
-534.135	-200.000	-0.027	-0.285
-533.121	-19.458	-0.190	0.119
-532.106	-200.000	-0.018	0.391
-531.091	-25.068	-0.199	-0.120
-530.077	115.453	0.014	0.017
-529.062	-110.723	0.086	0.018
-528.048	-51.742	0.223	0.105
-527.033	-62.307	-0.203	-0.086
-526.018	-121.932	0.154	-0.026
-525.004	800.000	0.076	-0.276
-523.989	-89.012	-0.256	-0.077
-522.975	584.461	0.112	-0.280
-521.960	-158.057	0.123	-0.007
-520.945	-10.642	0.139	0.094
-519.931	-29.245	-0.264	-0.153
-518.916	184.524	0.121	0.182
-517.902	432.699	-0.127	0.280
-516.887	42.926	0.132	-0.123
-515.872	418.542	-0.093	-0.201
-514.858	-37.672	-0.210	0.113
-513.843	-108.958	0.329	-0.071
-512.829	213.373	0.150	-0.241
-511.814	-200.000	-0.011	-0.345
-510.799	-161.897	0.404	0.021
-509.785	-55.028	0.277	-0.127
-508.770	-140.293	-0.162	-0.017
-507.756	-200.000	-0.024	0.152
-506.741	-88.414	0.170	-0.052
-505.726	602.653	-0.060	-0.152
-504.712	-46.213	-0.185	-0.092
-503.697	-200.000	0.032	0.353
-502.683	-45.659	0.130	0.065
-501.668	800.000	0.125	-0.519
-500.653	-119.345	-0.370	0.065
-499.639	-200.000	-0.015	0.389
-498.624	-167.618	0.298	0.012
-497.610	479.014	-0.195	0.449
-496.595	800.000	-0.072	-0.203
-495.581	-137.081	0.170	-0.020
-494.566	-86.693	0.385	-0.119
-493.551	800.000	-0.038	-0.142
-492.537	454.599	-0.015	0.035
-491.522	-200.000	-0.028	0.132
-490.508	35.517	0.032	-0.029
-489.493	-45.171	-0.231	-0.116
-488.478	125.206	0.055	-0.070
-487.464	-200.000	-0.023	-0.369
-486.449	485.519	-0.060	-0.138
-485.435	-84.959	0.263	0.084
-484.420	-200.000	0.035	0.161
-483.405	564.318	-0.087	-0.213
-482.391	98.856	-0.158	-0.185
-481.376	135.135	-0.097	0.128
-480.362	-107.648	-0.265	-0.059
-479.347	-74.957	-0.265	0.096
-478.332	-200.000	0.001	0.011
-477.318	800.000	0.081	0.337
-476.303	-39.502	0.068	-0.036
-475.289	-95.723	0.225	0.061
-474.274	296.784	-0.162	-0.301
-473.259	90.270	-0.292	0.330
-472.245	-147.337	0.207	-0.018
-471.230	54.497	-0.228	-0.223
-470.216	618.466	-0.071	-0.180
-469.201	800.000	-0.087	0.298
-468.186	-120.313	-0.156	-0.027
-467.172	112.370	0.086	0.105
-466.157	415.994	-0.045	-0.097
-465.143	526.972	-0.119	-0.285
-464.128	-200.000	0.017	-0.191
-463.113	42.045	-0.322	-0.296
-462.099	64.904	-0.151	-0.154
-461.084	-200.000	-0.027	0.149
-460.070	-101.756	0.459	0.113
-459.055	56.300	0.059	0.058
-458.040	272.699	0.035	-0.062
-457.026	-41.210	0.133	0.069
-456.011	-108.417	-0.365	0.080
-454.997	-1.086	-0.082	0.059
-453.982	19.858	0.236	-0.193
-452.968	153.276	0.040	-0.055
-451.953	540.074	0.061	-0.147
-450.938	113.709	-0.265	0.326
-449.924	174.280	-0.182	0.266
-448.909	36.901	0.070	0.062
-447.895	-200.000	-0.001	0.066
-446.880	573.971	-0.173	-0.426
-445.865	-200.000	-0.308	-0.001
-444.851	-70.307	-0.301	0.116
-443.836	15.987	0.063	-0.051
-442.822	223.076	0.118	0.193
-441.807	-173.113	-0.215	0.007
-440.792	-27.150	-0.057	-0.034
-439.778	800.000	-0.143	0.470
-438.763	-200.000	0.036	0.212
-437.749	-29.458	-0.207	0.120
-436.734	-39.810	0.221	-0.117
-435.719	200.626	-0.151	0.234
-434.705	-145.228	0.365	0.033
-433.690	800.000	-0.040	-0.117
-432.676	-177.278	-0.217	-0.005
-431.661	507.913	0.185	0.434
-430.646	-154.489	-0.343	-0.023
-429.632	-33.404	0.280	0.157
-428.617	217.260	0.098	0.157
-427.603	41.434	0.161	0.147
-426.588	-80.063	-0.488	-0.165
-425.573	-200.000	0.014	0.065
-424.559	53.592	0.242	0.235
-423.544	-54.663	-0.111	0.051
-422.530	454.891	-0.130	0.292
-421.515	-94.879	-0.443	0.121
-420.500	-200.000	-0.012	-0.162
-419.486	110.139	-0.236	-0.287
-418.471	307.407	-0.142	0.268
-417.457	-51.840	-0.106	0.050
-416.442	95.229	-0.054	-0.062
-415.428	-93.356	-0.322	0.090
-414.413	312.570	0.076	0.145
-413.398	800.000	0.015	-0.058
-412.384	35.301	0.196	0.174
-411.369	100.937	0.068	0.080
-410.355	800.000	0.074	-0.275
-409.340	79.752	-0.085	0.092
-408.325	14.728	0.187	0.148
-407.311	-103.787	0.115	0.027
-406.296	30.452	0.119	-0.103
-405.282	-100.488	0.151	-0.038
-404.267	708.462	-0.103	-0.274
-403.252	-55.084	0.543	0.247
-402.238	-196.108	0.118	-0.001
-401.223	-200.000	0.007	-0.132
-400.209	360.607	0.071	-0.143
-399.194	-200.000	-0.025	-0.115
-398.179	-200.000	0.032	0.384
-397.165	-200.000	0.017	0.269
-396.150	-154.503	0.187	0.013
-395.136	-200.000	-0.001	0.417
-394.121	-23.640	0.132	0.080
-393.106	-200.000	0.050	0.277
-392.092	800.000	0.056	0.213
-391.077	800.000	0.053	-0.186
-390.063	262.858	-0.090	0.158
-389.048	-200.000	0.011	-0.085
-388.033	93.917	0.155	-0.178
-387.019	381.300	-0.044	-0.092
-386.004	107.875	-0.109	-0.131
-384.990	-200.000	0.015	-0.209
-383.975	-95.151	0.414	0.113
-382.960	-200.000	0.013	0.241
-381.946	-105.785	0.112	-0.026
-380.931	800.000	-0.059	-0.259
-379.917	102.332	-0.176	-0.208
-378.902	15.844	0.107	-0.085
-377.888	71.715	-0.215	0.226
-376.873	251.441	0.106	0.182
-375.858	-139.706	-0.108	0.012
-374.844	740.326	0.059	0.160
-373.829	48.404	-0.112	-0.106
-372.815	118.948	0.201	0.251
-371.800	-200.000	-0.011	-0.205
-370.785	-65.644	0.131	-0.053
-369.771	-81.170	0.153	0.051
-368.756	45.742	0.244	0.228
-367.742	194.884	-0.169	-0.259
-366.727	25.038	-0.098	0.082
-365.712	156.770	-0.274	0.382
-364.698	-46.850	0.255	-0.126
-363.683	-36.574	0.211	-0.115
-362.669	-55.541	0.168	-0.076
-361.654	-127.311	-0.228	-0.034
-360.639	208.431	-0.037	0.058
-359.625	-177.863	0.114	-0.003
-358.610	-200.000	-0.010	-0.126
-357.596	-200.000	-0.030	0.189
-356.581	-15.032	-0.285	0.184
-355.566	8.543	0.156	-0.118
-354.552	-100.792	-0.045	-0.011
-353.537	-62.473	-0.146	0.061
-352.523	7.959	-0.278	-0.210
-351.508	-151.272	-0.111	0.008
-350.493	-102.996	-0.168	-0.040
-349.479	-200.000	-0.023	0.250
-348.464	95.696	-0.122	0.140
-347.450	-200.000	0.042	0.218
-346.435	-0.087	0.067	-0.048
-345.420	385.120	0.073	0.152
-344.406	-24.406	0.154	0.093
-343.391	-87.098	0.139	0.043
-342.377	-3.714	0.050	0.035
-341.362	-36.747	-0.152	-0.083
-340.348	-42.378	0.073	-0.038
-339.333	243.818	-0.105	-0.177
-338.318	-135.222	0.264	-0.032
-337.304	800.000	-0.157	0.457
-336.289	485.125	-0.056	0.128
-335.275	-200.000	0.001	0.261
-334.260	118.904	0.199	-0.248
-333.245	-66.164	0.122	-0.049
-332.231	-55.669	-0.119	0.054
-331.216	157.560	-0.197	0.275
-330.202	-175.981	0.238	0.006
-329.187	-94.071	0.256	0.071
-328.172	-200.000	0.021	-0.195
-327.158	305.172	0.117	0.219
-326.143	-200.000	0.019	-0.200
-325.129	18.996	-0.111	0.089
-324.114	-96.122	-0.040	-0.011
-323.099	-27.323	0.029	0.017
-322.085	17.490	0.061	-0.049
-321.070	-200.000	0.033	0.353
-320.056	8.807	0.373	0.283
-319.041	366.653	0.010	-0.020
-318.026	288.615	-0.120	-0.219
-317.012	101.097	0.162	-0.190
-315.997	301.389	-0.029	-0.054
-314.983	-200.000	0.069	-0.456
-313.968	-27.982	-0.054	-0.032
-312.953	-117.226	0.288	0.053
-311.939	271.292	0.152	-0.270
-310.924	-200.000	0.059	0.264
-309.910	226.419	0.132	0.216
-308.895	800.000	-0.034	-0.111
-307.880	-42.914	0.102	-0.052
-306.866	-123.750	-0.171	-0.027
-305.851	-200.000	-0.022	0.333
-304.837	-90.994	0.328	-0.095
-303.822	557.890	-0.107	-0.259
-302.807	-84.164	-0.124	-0.040
-301.793	-38.174	0.324	0.173
-300.778	91.693	-0.089	-0.101
-299.764	-91.820	-0.430	0.123
-298.749	72.519	-0.055	-0.058
-297.735	800.000	0.049	0.178
-296.720	517.985	-0.159	0.375
-295.705	-92.596	0.192	0.054
-294.691	66.532	0.107	0.110
-293.676	-22.631	-0.423	-0.257
-292.662	-200.000	-0.004	-0.144
-291.647	-4.226	0.190	-0.132
-290.632	-107.744	0.156	0.034
-289.618	800.000	-0.039	-0.121
-288.603	481.435	0.092	0.211
-287.589	338.170	-0.160	-0.314
-286.574	-200.000	-0.036	0.173
-285.559	-126.247	-0.161	-0.024
-284.545	-200.000	0.002	-0.440
-283.530	316.394	-0.084	0.160
-282.516	120.049	-0.079	-0.098
-281.501	788.963	-0.078	-0.215
-280.486	800.000	0.012	0.041
-279.472	-103.495	-0.310	-0.073
-278.457	406.625	0.156	0.332
-277.443	-186.467	-0.123	0.002
-276.428	87.269	-0.138	0.153
-275.413	-16.413	0.268	0.171
-274.399	-2.431	-0.335	0.236
-273.384	-200.000	-0.006	-0.062
-272.370	-200.000	0.221	-0.000
-271.355	-106.020	-0.254	-0.057
-270.340	-47.240	0.133	-0.065
-269.326	751.538	-0.113	-0.305
-268.311	-80.604	0.274	0.092
-267.297	-103.274	0.369	-0.087
-266.282	457.530	-0.046	0.104
-265.267	461.875	-0.074	0.166
-264.253	481.433	-0.137	0.313
-263.238	-200.000	-0.007	0.229
-262.224	-144.049	-0.270	-0.025
-261.209	-200.000	0.018	0.199
-260.195	38.621	0.149	-0.133
-259.180	-200.000	0.008	-0.337
-258.165	2.235	-0.161	-0.117
-257.151	-200.000	0.006	-0.039
-256.136	69.944	-0.217	0.225
-255.122	225.832	-0.069	-0.113
-254.107	167.939	-0.119	-0.171
-253.092	48.504	-0.181	0.171
-252.078	77.201	0.170	-0.182
-251.063	-182.763	0.326	0.006
-250.049	-90.215	0.269	-0.079
-249.034	-36.882	-0.162	-0.087
-248.019	800.000	-0.026	-0.091
-247.005	150.170	-0.161	0.219
-245.990	800.000	-0.093	-0.305
-244.976	-174.803	0.230	0.007
-243.961	-96.024	0.503	-0.134
-242.946	422.229	-0.073	-0.158
-241.932	454.487	-0.092	-0.205
-240.917	-200.000	-0.006	-0.300
-239.903	-112.364	0.195	0.039
-238.888	-175.051	0.217	0.006
-237.873	-81.377	-0.178	0.059
-236.859	202.639	0.141	-0.219
-235.844	390.075	-0.044	0.091
-234.830	-171.239	-0.215	-0.007
-233.815	-200.000	0.001	0.335
-232.800	-137.078	0.314	0.036
-231.786	-76.091	-0.305	-0.108
-230.771	137.529	-0.216	0.284
-229.757	-80.237	-0.114	-0.038
-228.742	-27.908	-0.055	-0.032
-227.727	-34.043	0.160	0.088
-226.713	-140.776	0.318	0.033
-225.698	17.776	0.242	-0.194
-224.684	65.556	0.385	-0.391
-223.669	-88.120	-0.155	0.047
-222.655	-14.548	0.234	-0.151
-221.640	-93.601	0.122	-0.034
-220.625	-132.720	-0.171	-0.022
-219.611	-200.000	-0.003	-0.053
-218.596	-122.915	0.348	-0.056
-217.582	-69.533	0.150	0.058
-216.567	0.639	-0.223	0.160
-215.552	122.313	-0.112	-0.140
-214.538	800.000	0.043	0.165
-213.523	800.000	0.025	0.102
-212.509	-200.000	-0.005	0.229
-211.494	-200.000	-0.011	0.440
-210.479	53.025	0.040	0.038
-209.465	-200.000	-0.024	-0.156
-208.450	-99.129	0.296	0.075
-207.436	-167.907	-0.578	0.023
-206.421	800.000	0.061	0.208
-205.406	35.758	-0.166	-0.146
-204.392	800.000	-0.078	-0.266
-203.377	-200.000	-0.012	-0.102
-202.363	800.000	-0.216	0.629
-201.348	-34.938	-0.253	0.138
-200.333	-47.849	-0.138	-0.067
-199.319	-200.000	-0.045	-0.237
-198.304	144.369	-0.014	0.019
-197.290	-143.639	0.139	0.013
-196.275	76.417	0.168	-0.178
-195.260	15.764	-0.245	-0.193
-194.246	-14.338	0.114	-0.073
-193.231	-200.000	-0.003	-0.481
-192.217	-49.101	-0.439	0.210
-191.202	18.678	0.326	0.262
-190.187	130.321	0.165	-0.212
-189.173	800.000	-0.150	-0.466
-188.158	-3.904	-0.064	-0.044
-187.144	493.770	0.039	-0.090
-186.129	-135.776	-0.051	-0.006
-185.114	-42.146	-0.142	0.073
-184.100	196.759	0.156	-0.238
-183.085	-106.519	-0.083	0.019
-182.071	194.423	-0.133	-0.202
-181.056	-56.483	0.238	-0.106
-180.042	-147.694	0.314	-0.026
-179.027	158.772	-0.021	-0.030
-178.012	-200.000	-0.058	-0.287
-176.998	220.405	0.098	0.157
-175.983	-116.420	0.172	0.032
-174.969	-43.679	0.123	0.062
-173.954	-67.738	0.123	0.048
-172.939	-106.296	0.084	-0.019
-171.925	-56.199	0.192	0.085
-170.910	-200.000	-0.011	-0.337
-169.896	86.500	-0.202	0.223
-168.881	-200.000	-0.021	-0.101
-167.866	111.920	-0.276	0.333
-166.852	-105.015	0.296	0.068
-165.837	197.036	-0.118	-0.180
-164.823	153.142	-0.048	-0.066
-163.808	-200.000	0.062	0.291
-162.793	145.444	0.205	0.274
-161.779	-175.922	0.356	0.009
-160.764	800.000	0.090	0.387
-159.750	-121.919	0.332	0.055
-158.735	-101.519	0.193	-0.047
-157.720	178.590	-0.108	0.158
-156.706	-200.000	0.027	-0.210
-155.691	373.985	-0.140	0.286
-154.677	271.630	0.234	-0.413
-153.662	-165.876	0.345	0.015
-152.647	-200.000	0.016	-0.076
-151.633	-160.678	-0.050	0.003
-150.618	-146.924	-0.177	-0.015
-149.604	46.866	-0.129	-0.120
-148.589	800.000	0.048	0.170
-147.574	96.388	-0.038	-0.043
-146.560	-112.109	0.128	0.026
-145.545	309.670	0.168	-0.314
-144.531	-82.957	-0.158	-0.051
-143.516	-15.510	-0.231	-0.148
-142.502	-103.171	0.094	0.022
-141.487	-200.000	-0.007	-0.080
-140.472	-66.153	0.203	-0.081
-139.458	37.492	-0.311	0.276
-138.443	-115.176	-0.309	-0.058
-137.429	800.000	0.143	-0.420
-136.414	800.000	-0.021	-0.092
-135.399	-45.856	0.033	-0.016
-134.385	-88.456	0.348	0.104
-133.370	-72.386	0.323	-0.119
-132.356	-141.863	-0.072	-0.007
-131.341	-41.414	0.137	-0.071
-130.326	72.690	-0.101	-0.105
-129.312	-155.119	-0.231	0.015
-128.297	22.354	-0.256	-0.209
-127.283	-130.544	-0.126	-0.017
-126.268	211.301	0.185	0.290
-125.253	-86.160	-0.166	0.051
-124.239	-200.000	-0.069	-0.312
-123.224	800.000	-0.137	-0.391
