DTS Sentinel unit serial number:	SN413079Multiplexer serial number:	ORYXHardware model number:	OX4-SRSoftware version number:	ORYX F/W v4.00 Oryx Data Collector v3.7.2.0data status	okinstallation	princeton_trtdifferential loss correction	single-endedforward channel	channel 4reverse channel	N/Adate	2019/09/19time	03:41:35forward acquisition time	60.00reverse acquisition time	0.00gamma	496.2192k internal	0.2340k external	0.2340temperature offset calibration	1.0027default loss term (dB/km)	0.3790temperature slope calibration	1.0000multiplexer offset coefficient	1.0000multiplexer slope coefficient	1.0000fibre end	0.00T internal ref (°C)	20.56T ext. ref 1 (°C)	0.63T ext. ref 2 (°C)	14.17length (m)	temperature (°C)	Stokes	anti-Stokes-747.200	-11.048	-0.143	0.094
-746.185	-88.157	-0.174	0.052
-745.171	-77.106	0.228	0.080
-744.156	35.238	-0.516	0.454
-743.142	800.000	-0.144	-0.460
-742.127	335.089	-0.108	-0.209
-741.112	-155.353	-0.197	0.013
-740.098	325.713	0.134	0.256
-739.083	-98.827	0.218	0.056
-738.069	27.824	-0.126	-0.106
-737.054	365.843	-0.085	-0.171
-736.039	314.745	0.111	0.210
-735.025	570.960	0.124	0.302
-734.010	-172.936	0.211	-0.007
-732.996	-200.000	-0.031	-0.384
-731.981	-66.855	0.298	-0.118
-730.966	-1.144	0.083	-0.059
-729.952	-175.629	-0.294	0.008
-728.937	62.165	-0.144	-0.144
-727.923	-200.000	-0.060	0.266
-726.908	-99.703	-0.262	-0.066
-725.894	260.607	-0.137	-0.237
-724.879	-200.000	-0.002	-0.019
-723.864	-200.000	-0.009	0.074
-722.850	162.768	-0.159	-0.224
-721.835	800.000	-0.098	0.356
-720.821	-200.000	0.020	0.276
-719.806	94.139	-0.337	-0.383
-718.791	-15.512	-0.150	-0.096
-717.777	525.879	0.140	-0.329
-716.762	195.409	0.187	-0.284
-715.748	-200.000	0.009	0.227
-714.733	800.000	-0.051	0.175
-713.718	800.000	0.071	-0.274
-712.704	-30.617	-0.268	-0.152
-711.689	78.323	0.203	0.217
-710.675	-25.374	0.310	-0.184
-709.660	370.969	-0.121	0.246
-708.645	-152.010	-0.101	-0.007
-707.631	800.000	0.044	-0.143
-706.616	-52.458	0.106	0.049
-705.602	-200.000	0.003	0.019
-704.587	-98.411	0.167	-0.043
-703.572	-25.615	-0.111	-0.066
-702.558	37.408	0.332	-0.294
-701.543	88.143	0.191	-0.212
-700.529	556.037	0.104	-0.251
-699.514	-110.766	-0.220	0.045
-698.499	548.558	-0.108	0.260
-697.485	-78.390	-0.407	0.140
-696.470	62.006	-0.091	-0.091
-695.456	475.548	0.050	0.113
-694.441	-200.000	0.025	-0.269
-693.426	800.000	-0.085	0.311
-692.412	165.581	-0.037	-0.052
-691.397	-200.000	0.005	0.101
-690.383	436.779	-0.140	0.306
-689.368	-70.972	-0.176	0.066
-688.354	-45.035	0.093	-0.046
-687.339	-72.314	-0.291	-0.108
-686.324	-47.931	0.162	0.078
-685.310	-31.172	-0.189	-0.106
-684.295	152.715	-0.079	-0.108
-683.281	-133.540	0.226	-0.028
-682.266	152.883	0.149	0.203
-681.251	-95.560	-0.039	0.010
-680.237	168.146	-0.190	0.270
-679.222	16.798	0.308	0.244
-678.208	-133.206	-0.180	-0.023
-677.193	17.982	-0.149	0.119
-676.178	155.949	-0.134	0.185
-675.164	800.000	0.064	-0.255
-674.149	-147.145	-0.289	0.025
-673.135	225.752	0.192	-0.311
-672.120	177.518	-0.196	-0.285
-671.105	-200.000	0.002	-0.172
-670.091	281.289	-0.051	0.090
-669.076	186.345	-0.238	-0.354
-668.062	-36.943	-0.502	-0.269
-667.047	47.471	-0.182	-0.169
-666.032	166.317	-0.063	0.089
-665.018	-66.657	-0.117	-0.046
-664.003	40.750	-0.238	-0.214
-662.989	-58.749	-0.187	0.081
-661.974	-181.157	-0.130	0.003
-660.959	-27.653	0.210	0.122
-659.945	-11.177	-0.332	0.218
-658.930	-119.012	-0.205	-0.036
-657.916	141.475	-0.046	-0.060
-656.901	-200.000	-0.003	0.079
-655.886	543.417	-0.051	-0.121
-654.872	-24.629	-0.297	-0.177
-653.857	136.523	0.092	0.119
-652.843	37.796	-0.252	-0.224
-651.828	-140.586	0.039	-0.004
-650.814	14.409	0.279	-0.217
-649.799	-137.585	-0.304	-0.034
-648.784	-76.718	-0.115	-0.040
-647.770	-141.516	0.060	-0.006
-646.755	-87.716	-0.079	-0.024
-645.741	323.389	-0.018	-0.034
-644.726	-200.000	-0.029	0.190
-643.711	-157.763	0.046	0.003
-642.697	800.000	-0.063	-0.267
-641.682	-165.424	-0.297	0.013
-640.668	-162.994	-0.378	-0.018
-639.653	800.000	-0.040	0.164
-638.638	378.481	-0.114	0.233
-637.624	-132.942	-0.335	0.043
-636.609	-174.616	0.139	0.004
-635.595	38.493	0.062	-0.056
-634.580	-111.366	0.204	0.041
-633.565	-32.626	-0.386	-0.214
-632.551	800.000	-0.082	0.297
-631.536	-132.992	0.341	-0.043
-630.522	-200.000	-0.045	-0.235
-629.507	253.884	-0.201	-0.343
-628.492	628.539	0.117	-0.294
-627.478	-103.545	0.119	-0.028
-626.463	-64.019	0.069	0.028
-625.449	-28.848	-0.165	-0.095
-624.434	-103.052	-0.257	0.061
-623.419	20.821	-0.162	-0.131
-622.405	401.753	0.080	0.168
-621.390	-200.000	0.044	-0.248
-620.376	-83.519	-0.171	0.055
-619.361	-162.569	-0.243	-0.012
-618.346	-123.353	-0.203	-0.032
-617.332	6.987	0.224	-0.166
-616.317	-49.313	-0.048	0.023
-615.303	-39.714	0.124	-0.065
-614.288	-200.000	0.002	-0.283
-613.273	729.251	0.080	0.214
-612.259	320.201	0.101	-0.192
-611.244	583.493	0.048	0.118
-610.230	-35.155	-0.403	0.219
-609.215	-62.853	0.140	-0.058
-608.201	31.324	-0.182	0.156
-607.186	187.317	-0.303	0.450
-606.171	-200.000	-0.052	0.524
-605.157	83.732	0.151	0.165
-604.142	738.976	-0.055	-0.146
-603.128	-200.000	0.014	-0.195
-602.113	662.695	-0.071	-0.183
-601.098	-113.786	0.058	0.011
-600.084	-41.153	0.151	-0.078
-599.069	73.684	0.199	0.207
-598.055	19.379	0.140	0.112
-597.040	-78.443	0.336	0.115
-596.025	301.881	0.098	0.181
-595.011	-96.212	-0.343	-0.091
-593.996	-100.964	0.063	-0.015
-592.982	-200.000	0.002	0.025
-591.967	-24.653	-0.140	0.083
-590.952	800.000	0.122	0.407
-589.938	-181.291	-0.254	0.005
-588.923	434.205	0.029	-0.062
-587.909	-92.909	-0.397	-0.110
-586.894	-96.518	0.141	-0.037
-585.879	-44.407	0.445	-0.222
-584.865	-137.865	-0.148	0.017
-583.850	2.729	0.151	0.109
-582.836	-22.914	0.056	0.034
-581.821	-108.673	-0.191	0.041
-580.806	800.000	0.059	0.202
-579.792	800.000	-0.050	-0.192
-578.777	43.943	0.229	-0.209
-577.763	22.148	-0.094	-0.077
-576.748	-75.612	0.145	0.051
-575.733	63.936	0.154	-0.154
-574.719	642.188	0.160	-0.406
-573.704	210.038	-0.125	-0.196
-572.690	-91.613	-0.130	0.037
-571.675	-12.354	-0.075	-0.049
-570.661	-52.299	0.153	0.071
-569.646	-27.057	-0.142	-0.082
-568.631	800.000	0.029	0.097
-567.617	800.000	-0.035	-0.149
-566.602	-138.899	0.190	-0.021
-565.588	800.000	-0.123	0.345
-564.573	25.600	0.154	-0.128
-563.558	144.483	0.192	0.255
-562.544	170.994	-0.157	-0.225
-561.529	-129.841	-0.106	0.014
-560.515	10.603	-0.061	0.046
-559.500	90.948	0.172	-0.191
-558.485	-132.095	0.297	0.038
-557.471	352.727	0.146	0.288
-556.456	-157.232	-0.060	-0.004
-555.442	625.217	-0.112	0.280
-554.427	188.235	0.063	0.093
-553.412	-84.426	0.109	0.034
-552.398	458.353	-0.085	0.187
-551.383	-131.221	0.192	-0.025
-550.369	800.000	-0.048	-0.183
-549.354	317.025	-0.073	-0.137
-548.339	-48.833	-0.055	-0.026
-547.325	-131.557	-0.335	-0.044
-546.310	800.000	-0.077	0.237
-545.296	-75.832	0.238	0.084
-544.281	-128.864	-0.184	0.026
-543.266	-48.828	0.374	-0.178
-542.252	-22.724	-0.034	0.021
-541.237	-200.000	-0.015	0.084
-540.223	-50.838	0.185	-0.086
-539.208	-200.000	0.011	0.194
-538.193	-161.047	-0.462	0.024
-537.179	800.000	0.052	0.164
-536.164	27.970	0.107	0.090
-535.150	-134.684	0.162	-0.020
-534.135	-129.973	0.113	0.015
-533.121	298.090	-0.070	0.128
-532.106	278.911	0.008	-0.014
-531.091	-200.000	0.063	-0.330
-530.077	-77.027	0.275	-0.096
-529.062	-200.000	-0.002	-0.028
-528.048	-200.000	-0.001	0.244
-527.033	46.578	0.187	-0.173
-526.018	316.943	0.099	0.186
-525.004	173.042	-0.061	0.087
-523.989	492.085	-0.079	-0.180
-522.975	-181.258	-0.601	0.012
-521.960	371.516	0.114	-0.229
-520.945	-200.000	0.023	0.150
-519.931	800.000	-0.042	-0.144
-518.916	22.331	0.155	0.126
-517.902	-200.000	-0.020	-0.274
-516.887	-57.274	-0.370	-0.162
-515.872	194.091	0.089	0.134
-514.858	-173.216	0.089	-0.003
-513.843	-200.000	-0.066	-0.290
-512.829	81.834	-0.414	-0.445
-511.814	-200.000	-0.006	-0.362
-510.799	424.500	0.073	0.156
-509.785	-200.000	-0.025	-0.151
-508.770	135.397	0.103	-0.133
-507.756	-200.000	-0.023	0.114
-506.741	107.968	-0.155	-0.184
-505.726	12.272	-0.225	0.172
-504.712	-132.729	0.200	0.025
-503.697	-42.909	0.070	0.035
-502.683	-59.884	0.172	-0.073
-501.668	132.868	-0.075	-0.097
-500.653	81.358	-0.064	0.069
-499.639	52.562	-0.079	0.075
-498.624	-125.708	0.105	-0.016
-497.610	-65.312	0.074	-0.030
-496.595	-109.813	0.109	-0.023
-495.581	-121.764	-0.276	0.045
-494.566	242.577	0.116	-0.192
-493.551	-200.000	0.010	0.143
-492.537	-200.000	0.020	-0.148
-491.522	800.000	0.068	-0.236
-490.508	119.801	-0.185	-0.228
-489.493	-130.297	0.356	0.048
-488.478	-189.142	-0.310	0.004
-487.464	-47.830	0.165	-0.079
-486.449	-46.019	-0.189	-0.093
-485.435	39.019	0.100	0.089
-484.420	800.000	0.043	-0.169
-483.405	-43.720	-0.057	-0.029
-482.391	160.867	0.118	0.163
-481.376	56.764	0.142	0.137
-480.362	-200.000	0.009	0.128
-479.347	-105.365	-0.245	-0.055
-478.332	15.602	-0.192	0.150
-477.318	-200.000	-0.037	0.269
-476.303	10.365	0.079	-0.060
-475.289	-4.532	0.110	0.076
-474.274	-157.041	-0.270	-0.016
-473.259	800.000	-0.049	0.142
-472.245	351.916	-0.134	-0.262
-471.230	-104.059	0.063	0.014
-470.216	0.141	-0.122	-0.086
-469.201	-92.210	-0.259	0.072
-468.186	-200.000	-0.047	0.347
-467.172	59.801	-0.257	0.252
-466.157	548.885	0.044	-0.104
-465.143	-30.158	0.263	0.148
-464.128	-200.000	-0.046	-0.246
-463.113	167.908	0.167	0.235
-462.099	-168.306	-0.311	-0.012
-461.084	-23.281	-0.146	-0.087
-460.070	406.337	-0.105	0.220
-459.055	-106.487	0.272	0.060
-458.040	800.000	-0.025	0.097
-457.026	190.808	0.100	0.148
-456.011	137.566	0.179	0.232
-454.997	-1.712	-0.142	0.099
-453.982	-200.000	-0.038	0.199
-452.968	108.583	-0.117	0.138
-451.953	33.269	0.037	-0.032
-450.938	-200.000	-0.008	0.063
-449.924	-137.431	0.091	0.010
-448.909	-57.686	-0.296	0.128
-447.895	242.644	0.218	0.362
-446.880	223.847	-0.061	0.097
-445.865	54.022	0.153	-0.145
-444.851	363.087	-0.148	0.294
-443.836	559.061	-0.102	-0.244
-442.822	382.007	0.066	-0.135
-441.807	-7.320	0.224	-0.151
-440.792	236.645	0.019	0.031
-439.778	234.760	0.114	0.187
-438.763	84.549	-0.094	-0.102
-437.749	508.352	0.161	0.371
-436.734	85.137	0.053	-0.057
-435.719	87.144	-0.154	0.169
-434.705	262.543	0.088	0.151
-433.690	-4.357	-0.095	0.065
-432.676	-200.000	0.017	0.135
-431.661	100.238	0.155	0.178
-430.646	-78.855	0.222	0.075
-429.632	-138.823	-0.314	0.034
-428.617	314.621	0.194	-0.361
-427.603	-25.859	0.149	0.087
-426.588	211.753	0.118	-0.185
-425.573	-112.098	0.321	0.064
-424.559	157.739	0.042	-0.057
-423.544	95.875	0.476	0.538
-422.530	-102.863	-0.413	0.097
-421.515	-9.268	-0.170	0.113
-420.500	141.930	-0.051	-0.067
-419.486	-200.000	0.014	-0.218
-418.471	-200.000	0.069	0.350
-417.457	-50.058	0.200	-0.094
-416.442	83.935	-0.108	-0.116
-415.428	-52.251	-0.267	0.122
-414.413	-137.041	0.104	-0.012
-413.398	-98.881	-0.204	-0.051
-412.384	-161.149	-0.122	0.006
-411.369	800.000	-0.058	0.202
-410.355	184.190	-0.091	-0.134
-409.340	-200.000	0.024	0.123
-408.325	-200.000	-0.048	-0.248
-407.311	364.388	0.043	-0.085
-406.296	25.822	-0.239	-0.197
-405.282	28.042	-0.032	0.026
-404.267	-143.988	-0.335	0.031
-403.252	677.012	-0.060	-0.154
-402.238	-113.585	0.339	-0.065
-401.223	-113.201	-0.336	0.065
-400.209	800.000	0.012	0.038
-399.194	27.095	0.159	0.132
-398.179	-200.000	0.051	0.254
-397.165	800.000	-0.019	0.071
-396.150	-88.113	0.156	-0.046
-395.136	-150.266	-0.133	0.010
-394.121	800.000	0.072	0.212
-393.106	-8.549	-0.253	0.168
-392.092	800.000	0.057	-0.227
-391.077	41.058	0.252	-0.225
-390.063	209.625	0.143	-0.222
-389.048	-91.464	-0.139	-0.039
-388.033	327.447	-0.105	-0.199
-387.019	-157.000	0.331	0.020
-386.004	-200.000	0.022	-0.123
-384.990	346.813	-0.139	0.270
-383.975	800.000	-0.022	0.066
-382.960	-200.000	-0.012	0.262
-381.946	-46.861	0.172	-0.083
-380.931	-200.000	0.029	0.163
-379.917	-30.439	-0.114	-0.064
-378.902	68.193	0.283	0.286
-377.888	800.000	-0.044	-0.158
-376.873	-21.004	0.288	0.174
-375.858	222.512	-0.130	0.207
-374.844	800.000	-0.083	-0.232
-373.829	-76.808	-0.299	0.103
-372.815	190.675	-0.147	-0.218
-371.800	-47.114	-0.225	-0.109
-370.785	-200.000	0.024	0.334
-369.771	181.707	0.096	-0.139
-368.756	113.962	-0.152	-0.183
-367.742	319.204	0.167	0.313
-366.727	800.000	-0.077	0.285
-365.712	800.000	0.035	0.096
-364.698	10.377	0.155	0.117
-363.683	-39.406	-0.116	-0.060
-362.669	453.758	0.139	0.304
-361.654	157.572	-0.248	-0.338
-360.639	-124.035	-0.180	0.028
-359.625	-111.564	0.039	-0.008
-358.610	800.000	-0.124	-0.378
-357.596	604.642	-0.047	0.116
-356.581	-97.026	-0.304	-0.079
-355.566	-200.000	-0.060	0.300
-354.552	57.752	0.251	0.243
-353.537	-200.000	0.041	0.259
-352.523	-33.027	0.271	-0.148
-351.508	112.781	0.035	0.042
-350.493	-56.183	0.181	-0.080
-349.479	800.000	-0.052	0.154
-348.464	-113.623	0.412	0.079
-347.450	-9.380	-0.182	0.120
-346.435	167.820	-0.156	0.218
-345.420	618.911	0.023	-0.057
-344.406	-200.000	-0.052	-0.267
-343.391	-30.999	0.413	0.230
-342.377	-189.961	-0.197	0.002
-341.362	-2.087	0.287	0.199
-340.348	-123.983	0.300	0.047
-339.333	-85.002	-0.236	-0.073
-338.318	51.192	0.170	0.159
-337.304	-94.294	-0.166	-0.045
-336.289	-106.477	-0.365	0.080
-335.275	-200.000	0.118	0.550
-334.260	-66.900	-0.146	0.057
-333.245	167.417	-0.073	0.103
-332.231	-127.086	-0.193	0.028
-331.216	-200.000	-0.002	-0.211
-330.202	-104.117	0.292	0.067
-329.187	-200.000	-0.027	-0.159
-328.172	666.494	-0.074	-0.189
-327.158	-124.909	0.437	-0.066
-326.143	23.329	0.107	0.087
-325.129	-83.067	-0.363	0.115
-324.114	-200.000	-0.005	-0.119
-323.099	7.185	0.177	-0.130
-322.085	-53.939	0.101	-0.046
-321.070	13.710	-0.279	-0.214
-320.056	-130.051	0.110	-0.015
-319.041	-200.000	-0.093	-0.448
-318.026	800.000	-0.112	-0.389
-317.012	-200.000	-0.000	0.096
-315.997	449.815	0.030	0.066
-314.983	800.000	0.059	-0.164
-313.968	350.562	0.061	-0.118
-312.953	-111.060	0.151	0.031
-311.939	-200.000	-0.011	-0.046
-310.924	-64.859	0.309	-0.123
-309.910	800.000	0.062	-0.233
-308.895	-88.532	-0.097	0.029
-307.880	-146.622	-0.232	0.020
-306.866	-115.533	-0.110	-0.020
-305.851	116.828	0.243	0.294
-304.837	-18.524	-0.300	0.185
-303.822	800.000	0.047	-0.157
-302.807	800.000	-0.039	-0.128
-301.793	-85.968	0.317	0.097
-300.778	-89.724	-0.137	-0.040
-299.764	-200.000	0.007	0.042
-298.749	23.468	0.288	-0.234
-297.735	-153.744	-0.237	-0.016
-296.720	332.350	0.099	0.188
-295.705	24.836	0.178	-0.145
-294.691	42.344	-0.317	0.284
-293.676	800.000	-0.065	-0.262
-292.662	-200.000	0.011	-0.078
-291.647	76.811	-0.104	0.109
-290.632	45.604	0.280	0.255
-289.618	-84.578	0.287	-0.089
-288.603	295.252	-0.115	-0.208
-287.589	-39.965	-0.148	-0.076
-286.574	-43.090	-0.166	-0.083
-285.559	115.955	0.144	-0.173
-284.545	-1.562	0.263	-0.183
-283.530	-82.178	0.063	0.020
-282.516	800.000	-0.143	-0.438
-281.501	-78.502	-0.316	-0.107
-280.486	-88.486	0.124	0.036
-279.472	-146.284	0.170	0.015
-278.457	400.109	0.120	-0.248
-277.443	-7.270	-0.370	-0.247
-276.428	508.594	0.131	0.301
-275.413	20.531	0.088	-0.070
-274.399	83.732	-0.156	0.167
-273.384	34.667	0.218	0.187
-272.370	-116.451	-0.040	0.007
-271.355	-35.753	0.186	0.099
-270.340	-99.543	0.135	-0.033
-269.326	153.737	-0.108	-0.145
-268.311	-74.969	-0.235	0.083
-267.297	-60.554	-0.046	-0.019
-266.282	-18.675	0.114	0.070
-265.267	-29.573	-0.207	-0.116
-264.253	-200.000	0.011	-0.238
-263.238	-200.000	-0.001	-0.118
-262.224	40.230	-0.216	-0.191
-261.209	75.980	-0.078	-0.081
-260.195	-91.673	0.312	-0.087
-259.180	-144.199	-0.087	0.008
-258.165	51.043	0.254	0.237
-257.151	26.452	-0.051	0.042
-256.136	17.942	-0.083	0.065
-255.122	-89.623	-0.218	-0.063
-254.107	233.320	0.163	-0.263
-253.092	260.499	0.078	0.133
-252.078	-24.328	0.449	-0.263
-251.063	800.000	0.068	0.250
-250.049	-60.793	-0.255	0.106
-249.034	-99.573	-0.224	-0.055
-248.019	-54.133	-0.062	0.028
-247.005	-20.724	0.079	0.048
-245.990	-34.329	0.111	0.060
-244.976	-200.000	0.012	-0.120
-243.961	-200.000	-0.011	0.403
-242.946	-175.665	-0.124	-0.003
-241.932	-186.971	0.147	0.002
-240.917	800.000	-0.115	-0.315
-239.903	655.358	-0.073	0.184
-238.888	-38.629	0.263	-0.136
-237.873	9.189	-0.117	-0.087
-236.859	538.356	0.123	0.288
-235.844	34.516	-0.240	0.206
-234.830	-101.890	-0.205	-0.049
-233.815	245.055	0.080	-0.132
-232.800	2.176	0.101	-0.072
-231.786	645.948	0.119	-0.299
-230.771	113.942	0.054	-0.065
-229.757	-28.571	0.057	-0.033
-228.742	204.193	0.162	-0.246
-227.727	10.147	-0.212	-0.158
-226.713	-8.899	0.394	-0.259
-225.698	-200.000	-0.002	0.120
-224.684	-113.382	-0.056	-0.011
-223.669	754.736	0.052	-0.139
-222.655	130.784	0.162	-0.204
-221.640	-47.472	0.085	-0.040
-220.625	-200.000	-0.034	0.352
-219.611	693.453	-0.039	0.100
-218.596	-131.834	-0.385	0.049
-217.582	-200.000	-0.331	-0.001
-216.567	-200.000	0.036	0.206
-215.552	-22.051	-0.045	-0.027
-214.538	110.030	-0.087	-0.103
-213.523	16.729	0.095	-0.074
-212.509	184.612	0.146	-0.212
-211.494	52.357	0.181	0.170
-210.479	318.236	-0.140	-0.261
-209.465	-107.682	0.294	-0.063
-208.450	157.390	-0.020	0.027
-207.436	468.321	0.142	0.314
-206.421	-14.345	0.069	-0.044
-205.406	-21.555	-0.260	0.156
-204.392	-30.769	0.252	0.140
-203.377	-77.123	0.206	0.070
-202.363	-65.084	-0.271	0.107
-201.348	-200.000	-0.197	-0.001
-200.333	231.433	0.121	0.194
-199.319	-179.541	0.135	-0.003
-198.304	9.285	0.116	0.086
-197.290	-200.000	-0.060	0.425
-196.275	84.098	-0.079	-0.085
-195.260	773.892	0.120	-0.320
-194.246	-200.000	-0.058	-0.359
-193.231	340.809	-0.191	-0.366
-192.217	80.523	-0.138	0.146
-191.202	-200.000	-0.054	-0.235
-190.187	-113.450	-0.299	0.057
-189.173	143.503	0.108	0.141
-188.158	46.350	0.202	0.183
-187.144	230.218	0.147	0.236
-186.129	800.000	0.044	0.125
-185.114	-200.000	0.046	-0.370
-184.100	57.389	-0.027	-0.026
-183.085	-55.232	0.174	0.077
-182.071	-200.000	0.082	0.486
-181.056	800.000	-0.057	-0.170
-180.042	800.000	0.079	-0.226
-179.027	154.810	-0.178	-0.241
-178.012	126.769	-0.096	-0.119
-176.998	-200.000	-0.042	0.285
-175.983	800.000	-0.066	0.253
-174.969	-92.171	0.138	-0.038
-173.954	712.071	0.034	-0.087
-172.939	35.505	-0.269	0.231
-171.925	-108.002	-0.099	0.021
-170.910	184.527	0.148	0.214
-169.896	456.400	0.128	0.279
-168.881	127.248	0.095	-0.118
-167.866	800.000	0.102	-0.311
-166.852	-200.000	0.002	-0.154
-165.837	-93.691	0.367	-0.099
-164.823	-65.058	-0.188	0.074
-163.808	253.571	0.117	-0.195
-162.793	800.000	-0.101	-0.379
-161.779	-200.000	0.064	-0.452
-160.764	-26.602	0.218	0.125
-159.750	-48.813	0.588	-0.276
-158.735	619.945	-0.027	0.067
-157.720	800.000	0.030	0.102
-156.706	20.093	-0.215	0.170
-155.691	-200.000	-0.035	0.202
-154.677	425.180	-0.135	-0.285
-153.662	-200.000	0.047	-0.390
-152.647	-140.800	0.054	-0.005
-151.633	-60.474	0.112	-0.047
-150.618	525.503	0.080	0.184
-149.604	-109.057	-0.393	0.082
-148.589	450.941	0.096	-0.209
-147.574	-200.000	-0.017	-0.195
-146.560	-200.000	-0.015	0.170
-145.545	117.468	-0.305	0.367
-144.531	-66.834	0.195	-0.076
-143.516	-60.418	-0.422	0.176
-142.502	-200.000	0.031	0.143
-141.487	164.963	0.312	-0.432
-140.472	-150.766	0.328	-0.024
-139.458	-30.274	-0.223	0.124
-138.443	800.000	0.043	-0.144
-137.429	-200.000	-0.012	0.075
-136.414	313.912	-0.238	-0.438
-135.399	-200.000	-0.028	0.149
-134.385	-87.151	0.285	0.085
-133.370	-200.000	0.008	-0.324
-132.356	-173.056	0.106	-0.003
-131.341	546.614	0.092	0.215
-130.326	-17.485	0.028	0.017
-129.312	-200.000	0.070	-0.424
-128.297	-43.859	-0.255	-0.126
-127.283	174.898	0.098	0.139
-126.268	-200.000	-0.056	0.315
-125.253	442.152	0.035	0.075
-124.239	-45.269	0.135	-0.065
-123.224	718.891	-0.063	-0.163
-122.210	-112.631	0.137	-0.027
