DTS Sentinel unit serial number:	SN413079Multiplexer serial number:	ORYXHardware model number:	OX4-SRSoftware version number:	ORYX F/W v4.00 Oryx Data Collector v3.7.2.0data status	okinstallation	princeton_trtdifferential loss correction	single-endedforward channel	channel 4reverse channel	N/Adate	2019/09/11time	08:27:10forward acquisition time	60.00reverse acquisition time	0.00gamma	496.2192k internal	0.2304k external	0.2304temperature offset calibration	0.9971default loss term (dB/km)	0.3790temperature slope calibration	1.0000multiplexer offset coefficient	1.0000multiplexer slope coefficient	1.0000fibre end	0.00T internal ref (°C)	33.00T ext. ref 1 (°C)	0.09T ext. ref 2 (°C)	30.65length (m)	temperature (°C)	Stokes	anti-Stokes-747.200	-61.425	-0.173	-0.074
-746.185	-200.000	-0.061	0.309
-745.171	-26.545	0.347	0.207
-744.156	-200.000	-0.040	0.223
-743.142	62.455	-0.181	0.184
-742.127	-128.031	-0.448	0.065
-741.112	237.185	0.093	0.157
-740.098	800.000	-0.064	0.207
-739.083	800.000	0.049	0.202
-738.069	35.022	0.254	0.227
-737.054	34.775	-0.210	0.187
-736.039	536.255	-0.019	-0.047
-735.025	-13.602	0.093	0.061
-734.010	-85.247	-0.405	-0.129
-732.996	-195.657	-0.387	-0.003
-731.981	260.901	-0.170	-0.300
-730.966	-6.225	-0.107	0.075
-729.952	747.137	0.069	0.188
-728.937	-200.000	0.006	-0.086
-727.923	-129.481	0.346	0.049
-726.908	-200.000	0.037	-0.276
-725.894	81.403	0.147	-0.161
-724.879	313.348	-0.048	0.092
-723.864	262.109	0.020	-0.036
-722.850	-93.190	0.196	-0.055
-721.835	205.412	-0.083	-0.130
-720.821	-119.189	-0.312	-0.055
-719.806	-200.000	0.035	-0.221
-718.791	-11.933	-0.073	0.049
-717.777	37.342	0.124	-0.111
-716.762	800.000	-0.029	0.110
-715.748	800.000	-0.018	0.069
-714.733	-64.137	-0.208	-0.086
-713.718	166.815	-0.407	-0.588
-712.704	-59.746	-0.097	-0.042
-711.689	-123.090	-0.281	0.046
-710.675	553.748	0.080	-0.195
-709.660	-42.970	0.082	0.042
-708.645	-88.233	-0.031	-0.009
-707.631	-112.127	-0.410	0.084
-706.616	-129.780	0.249	0.035
-705.602	-132.146	-0.458	-0.060
-704.587	125.341	0.107	-0.137
-703.572	94.325	0.240	-0.277
-702.558	-200.000	-0.004	0.152
-701.543	-200.000	0.004	-0.060
-700.529	-6.791	-0.101	0.070
-699.514	239.757	0.209	0.354
-698.499	-200.000	-0.006	0.119
-697.485	-59.394	0.157	-0.068
-696.470	448.617	-0.165	-0.370
-695.456	-200.000	-0.004	-0.043
-694.441	392.937	-0.145	-0.306
-693.426	-10.514	-0.140	0.095
-692.412	122.987	-0.090	0.115
-691.397	213.160	-0.202	0.324
-690.383	800.000	0.094	0.367
-689.368	47.012	-0.151	0.142
-688.354	-103.332	-0.124	-0.030
-687.339	59.847	0.132	0.132
-686.324	-83.294	-0.287	0.094
-685.310	-200.000	0.039	0.330
-684.295	-20.851	-0.240	-0.149
-683.281	-151.602	0.182	0.014
-682.266	-98.400	-0.018	0.005
-681.251	-87.220	-0.239	0.074
-680.237	800.000	-0.028	0.092
-679.222	349.862	0.147	-0.295
-678.208	-200.000	0.015	0.235
-677.193	46.629	0.392	0.370
-676.178	223.192	-0.040	-0.065
-675.164	-200.000	-0.011	-0.066
-674.149	133.234	0.111	-0.146
-673.135	-200.000	-0.017	0.327
-672.120	-104.598	0.181	-0.042
-671.105	-113.677	0.130	0.026
-670.091	-152.356	0.179	-0.013
-669.076	0.886	0.239	0.174
-668.062	-155.359	-0.434	0.029
-667.047	167.940	-0.038	0.055
-666.032	-65.702	-0.108	-0.044
-665.018	-200.000	0.021	0.199
-664.003	270.772	0.033	0.059
-662.989	45.831	-0.244	-0.229
-661.974	95.697	0.189	-0.219
-660.959	-200.000	-0.003	-0.181
-659.945	-200.000	0.020	0.193
-658.930	260.013	0.043	-0.075
-657.916	54.044	0.174	0.170
-656.901	-144.598	-0.019	0.002
-655.886	800.000	0.050	-0.217
-654.872	-51.040	-0.242	0.115
-653.857	503.192	0.032	0.076
-652.843	-128.391	0.187	0.027
-651.828	-116.487	0.465	-0.087
-650.814	-35.098	0.200	-0.111
-649.799	-84.055	-0.031	-0.010
-648.784	-96.622	0.463	0.124
-647.770	-200.000	-0.026	-0.201
-646.755	-53.160	-0.130	0.060
-645.741	-64.875	0.136	-0.056
-644.726	-12.103	-0.304	-0.202
-643.711	96.758	-0.040	-0.046
-642.697	116.219	0.134	0.166
-641.682	37.884	0.201	-0.181
-640.668	90.752	-0.148	-0.168
-639.653	-15.893	-0.037	-0.024
-638.638	182.358	-0.078	0.117
-637.624	-64.409	-0.244	-0.101
-636.609	-140.378	0.441	-0.047
-635.595	558.752	-0.209	0.511
-634.580	-129.610	-0.188	0.026
-633.565	136.710	-0.033	0.044
-632.551	-200.000	0.037	0.285
-631.536	-48.701	-0.126	-0.061
-630.522	-10.023	0.149	0.100
-629.507	-200.000	0.205	0.000
-628.492	-200.000	0.008	0.064
-627.478	-200.000	-0.040	-0.273
-626.463	-16.006	-0.090	0.058
-625.449	-134.996	-0.273	0.033
-624.434	-200.000	0.010	0.066
-623.419	534.319	-0.011	-0.025
-622.405	328.405	-0.205	-0.399
-621.390	38.527	0.233	0.210
-620.376	-111.697	0.022	-0.004
-619.361	26.990	-0.263	-0.224
-618.346	-200.000	-0.020	-0.150
-617.332	32.302	0.047	0.041
-616.317	-95.166	0.086	0.023
-615.303	-87.812	-0.216	-0.066
-614.288	-67.365	0.165	-0.066
-613.273	-36.401	-0.109	0.060
-612.259	-86.079	-0.271	-0.085
-611.244	-200.000	-0.076	-0.361
-610.230	-129.141	0.373	-0.053
-609.215	-107.391	0.152	-0.034
-608.201	231.210	-0.034	0.056
-607.186	-200.000	0.014	0.130
-606.171	-200.000	-0.002	0.259
-605.157	297.381	-0.136	0.253
-604.142	-40.596	-0.278	0.146
-603.128	-200.000	0.027	-0.297
-602.113	53.279	-0.138	-0.134
-601.098	173.120	0.094	-0.138
-600.084	-200.000	-0.007	-0.346
-599.069	438.582	0.105	0.231
-598.055	-200.000	-0.103	-0.474
-597.040	12.010	-0.122	-0.095
-596.025	235.126	-0.114	-0.191
-595.011	-200.000	-0.001	0.042
-593.996	93.547	-0.114	-0.130
-592.982	54.277	-0.111	0.108
-591.967	800.000	0.062	0.220
-590.952	-43.182	0.420	0.215
-589.938	-104.604	0.286	0.067
-588.923	84.884	-0.186	0.206
-587.909	800.000	-0.065	0.266
-586.894	59.842	0.145	-0.145
-585.879	800.000	-0.093	-0.262
-584.865	-200.000	-0.020	0.150
-583.850	-200.000	-0.009	-0.074
-582.836	63.423	-0.067	0.068
-581.821	-38.915	0.213	-0.114
-580.806	-54.001	0.135	-0.062
-579.792	-68.264	0.084	0.033
-578.777	-200.000	-0.021	0.165
-577.763	800.000	0.053	0.197
-576.748	-5.736	-0.111	0.077
-575.733	-52.090	0.137	-0.064
-574.719	233.341	-0.042	0.070
-573.704	-200.000	0.017	-0.084
-572.690	-76.618	-0.154	0.055
-571.675	-113.694	-0.192	-0.038
-570.661	-24.631	0.265	0.159
-569.646	-42.640	-0.307	-0.158
-568.631	100.894	-0.189	-0.222
-567.617	800.000	-0.064	0.222
-566.602	-121.152	0.118	-0.020
-565.588	531.623	0.051	0.121
-564.573	150.168	0.157	0.215
-563.558	18.668	-0.241	-0.195
-562.544	487.468	-0.088	-0.202
-561.529	-4.023	-0.287	-0.201
-560.515	-121.879	0.212	-0.035
-559.500	-200.000	-0.050	0.271
-558.485	-137.249	-0.071	-0.008
-557.471	-95.622	0.238	0.064
-556.456	-75.597	0.137	-0.049
-555.442	-200.000	-0.007	-0.335
-554.427	-24.972	0.161	0.096
-553.412	-200.000	-0.027	-0.126
-552.398	89.960	0.160	-0.180
-551.383	800.000	-0.065	-0.251
-550.369	263.158	0.118	0.208
-549.354	132.474	0.252	0.329
-548.339	-200.000	-0.036	-0.199
-547.325	336.371	-0.102	-0.201
-546.310	800.000	0.064	0.187
-545.296	-113.533	-0.178	0.035
-544.281	800.000	0.076	-0.283
-543.266	-18.499	0.220	-0.139
-542.252	-41.550	0.089	-0.046
-541.237	-140.517	0.424	-0.044
-540.223	338.691	-0.099	0.195
-539.208	-53.702	-0.432	-0.199
-538.193	-192.567	-0.138	0.001
-537.179	-127.470	0.173	-0.025
-536.164	365.294	-0.110	-0.224
-535.150	413.096	0.056	0.120
-534.135	-48.363	0.375	-0.182
-533.121	-127.399	-0.230	0.034
-532.106	93.987	0.161	-0.185
-531.091	-31.272	-0.212	-0.120
-530.077	128.444	0.095	-0.123
-529.062	-200.000	-0.001	-0.206
-528.048	-200.000	0.003	-0.051
-527.033	-110.918	0.122	0.025
-526.018	-81.866	-0.135	0.045
-525.004	800.000	-0.079	-0.305
-523.989	-24.691	0.212	0.127
-522.975	454.525	0.085	0.190
-521.960	19.176	0.142	-0.115
-520.945	39.539	0.120	0.109
-519.931	265.717	-0.040	-0.070
-518.916	-83.736	0.206	-0.066
-517.902	-91.193	0.298	-0.086
-516.887	248.264	0.107	-0.183
-515.872	-200.000	-0.018	-0.135
-514.858	11.497	-0.238	0.184
-513.843	-74.709	-0.205	0.075
-512.829	57.232	-0.162	-0.159
-511.814	7.536	-0.017	0.013
-510.799	-200.000	-0.040	-0.339
-509.785	281.411	-0.177	-0.319
-508.770	152.444	0.047	0.065
-507.756	-184.380	0.236	-0.004
-506.741	25.798	0.177	0.149
-505.726	-200.000	-0.037	-0.174
-504.712	-73.457	0.247	0.091
-503.697	247.185	-0.157	-0.267
-502.683	-100.876	-0.105	-0.026
-501.668	-88.511	-0.267	0.080
-500.653	688.626	0.085	-0.225
-499.639	-189.601	-0.468	0.005
-498.624	223.127	0.185	0.301
-497.610	357.651	-0.030	-0.061
-496.595	638.036	-0.066	0.168
-495.581	541.853	0.087	-0.208
-494.566	800.000	-0.044	-0.160
-493.551	-123.480	-0.106	0.017
-492.537	630.123	-0.145	-0.370
-491.522	-194.462	0.171	-0.001
-490.508	-185.333	-0.210	0.003
-489.493	92.956	-0.111	0.126
-488.478	-40.224	0.332	0.174
-487.464	-200.000	-0.024	-0.180
-486.449	30.773	0.058	-0.050
-485.435	-104.724	0.291	-0.067
-484.420	55.304	-0.111	-0.108
-483.405	800.000	-0.054	0.220
-482.391	800.000	0.088	0.312
-481.376	65.289	-0.072	-0.074
-480.362	-200.000	-0.077	-0.371
-479.347	-35.575	0.300	-0.164
-478.332	-157.041	-0.096	-0.006
-477.318	586.598	0.060	-0.149
-476.303	800.000	0.008	-0.034
-475.289	129.626	-0.284	0.366
-474.274	800.000	0.014	0.041
-473.259	-40.419	-0.125	-0.066
-472.245	800.000	-0.128	0.435
-471.230	325.721	-0.064	0.123
-470.216	-200.000	-0.121	0.556
-469.201	-200.000	-0.021	-0.350
-468.186	-76.047	0.115	-0.041
-467.172	-159.281	-0.067	0.004
-466.157	800.000	-0.087	0.311
-465.143	-200.000	-0.069	0.320
-464.128	-92.748	0.225	-0.063
-463.113	-174.436	0.181	-0.005
-462.099	539.598	-0.092	-0.221
-461.084	472.746	0.195	0.443
-460.070	49.049	-0.125	0.119
-459.055	229.805	-0.027	-0.044
-458.040	-67.724	-0.202	-0.080
-457.026	-163.677	-0.142	-0.007
-456.011	203.725	0.015	-0.023
-454.997	39.476	0.172	-0.155
-453.982	-4.082	0.248	0.173
-452.968	214.411	-0.120	0.192
-451.953	-4.187	0.155	0.108
-450.938	-200.000	-0.213	-0.001
-449.924	-102.390	-0.055	0.013
-448.909	332.363	0.127	0.247
-447.895	740.617	0.086	0.232
-446.880	-82.428	-0.060	0.020
-445.865	177.436	-0.282	0.414
-444.851	-100.851	0.139	0.034
-443.836	154.785	-0.088	-0.121
-442.822	-49.217	-0.505	0.243
-441.807	159.013	-0.079	0.110
-440.792	-32.627	-0.290	0.162
-439.778	131.899	0.240	0.310
-438.763	412.916	-0.241	0.516
-437.749	-33.983	0.164	0.091
-436.734	80.141	-0.244	-0.264
-435.719	-200.000	0.236	0.001
-434.705	-200.000	-0.091	0.452
-433.690	-143.127	-0.248	0.024
-432.676	-61.192	0.148	0.063
-431.661	127.767	-0.014	-0.019
-430.646	-83.099	0.243	0.079
-429.632	-139.666	-0.198	-0.021
-428.617	-200.000	0.010	0.146
-427.603	-200.000	0.024	0.153
-426.588	800.000	0.065	0.198
-425.573	116.526	0.057	-0.070
-424.559	800.000	0.006	-0.018
-423.544	-11.842	0.214	-0.141
-422.530	105.405	0.275	-0.326
-421.515	-96.384	-0.242	-0.064
-420.500	93.187	0.241	-0.274
-419.486	37.651	0.133	-0.118
-418.471	593.786	0.131	0.326
-417.457	-129.645	0.254	0.035
-416.442	80.787	0.216	-0.234
-415.428	-43.601	-0.096	0.048
-414.413	-16.073	0.250	-0.160
-413.398	99.101	-0.073	0.084
-412.384	-195.642	-0.278	0.002
-411.369	-31.187	-0.073	-0.041
-410.355	-200.000	-0.005	0.140
-409.340	-91.785	0.102	-0.029
-408.325	-78.493	-0.267	0.092
-407.311	-112.147	-0.157	-0.032
-406.296	-94.103	0.187	0.052
-405.282	199.259	-0.116	0.178
-404.267	-50.577	-0.207	0.098
-403.252	364.990	0.056	-0.113
-402.238	-42.425	0.234	0.120
-401.223	800.000	0.061	0.268
-400.209	183.043	-0.197	0.292
-399.194	-21.222	-0.033	0.020
-398.179	111.682	-0.135	0.164
-397.165	-200.000	-0.029	-0.202
-396.150	-129.698	0.226	-0.031
-395.136	149.884	-0.192	0.261
-394.121	-99.330	0.163	0.041
-393.106	-7.390	0.112	-0.076
-392.092	-71.892	-0.154	-0.057
-391.077	630.419	-0.098	-0.249
-390.063	35.892	-0.064	-0.057
-389.048	-150.785	-0.260	0.020
-388.033	228.564	-0.117	0.191
-387.019	-200.000	-0.012	0.064
-386.004	-44.929	0.139	0.069
-384.990	1.045	-0.140	0.101
-383.975	-13.251	-0.119	0.078
-382.960	-66.227	0.043	-0.017
-381.946	-109.881	0.200	-0.042
-380.931	8.128	0.054	0.041
-379.917	-154.445	-0.209	0.014
-378.902	-200.000	-0.012	0.148
-377.888	133.980	0.163	0.212
-376.873	-186.316	-0.286	0.004
-375.858	-200.000	0.000	-0.139
-374.844	80.058	-0.182	0.196
-373.829	585.067	-0.071	-0.174
-372.815	800.000	-0.057	0.224
-371.800	69.492	-0.240	0.248
-370.785	-65.942	-0.162	0.065
-369.771	-167.977	-0.152	-0.006
-368.756	-30.096	0.145	-0.083
-367.742	-7.476	-0.232	0.158
-366.727	-136.341	-0.673	0.079
-365.712	-107.373	0.381	-0.084
-364.698	108.215	0.212	0.254
-363.683	-87.550	0.365	0.111
-362.669	-7.541	-0.212	0.144
-361.654	-129.195	0.284	-0.040
-360.639	-179.714	0.260	-0.006
-359.625	-200.000	0.006	0.194
-358.610	70.939	-0.194	0.202
-357.596	-33.508	0.129	-0.072
-356.581	399.998	0.103	-0.218
-355.566	-84.843	0.171	0.054
-354.552	19.258	0.162	0.131
-353.537	-198.957	-0.089	-0.000
-352.523	-200.000	0.031	0.362
-351.508	10.696	0.378	0.289
-350.493	-27.719	0.171	-0.100
-349.479	105.183	0.128	-0.151
-348.464	-181.684	0.153	0.003
-347.450	800.000	-0.044	0.164
-346.435	-5.590	0.196	0.134
-345.420	152.490	-0.082	-0.112
-344.406	-200.000	-0.006	-0.239
-343.391	-200.000	-0.045	-0.513
-342.377	-10.727	0.085	0.056
-341.362	-167.514	-0.369	0.015
-340.348	529.346	-0.140	-0.331
-339.333	-200.000	0.031	-0.165
-338.318	127.095	-0.157	0.199
-337.304	42.966	0.338	0.309
-336.289	-3.627	0.111	0.078
-335.275	800.000	-0.019	-0.066
-334.260	186.317	-0.227	0.339
-333.245	443.371	0.031	0.067
-332.231	28.637	-0.104	0.088
-331.216	55.967	0.320	0.311
-330.202	-19.071	-0.215	-0.134
-329.187	-38.774	-0.198	-0.104
-328.172	-196.574	0.264	0.002
-327.158	617.657	-0.132	-0.331
-326.143	31.629	-0.305	0.263
-325.129	-61.970	0.361	-0.151
-324.114	-63.221	-0.370	0.153
-323.099	-200.000	0.025	-0.241
-322.085	-200.000	-0.003	0.058
-321.070	142.743	-0.054	-0.072
-320.056	-85.812	-0.174	0.054
-319.041	-17.403	-0.147	-0.093
-318.026	27.805	-0.182	-0.153
-317.012	-50.135	0.234	0.111
-315.997	58.344	0.075	-0.074
-314.983	379.111	0.056	-0.116
-313.968	458.545	0.031	-0.069
-312.953	-200.000	-0.016	-0.092
-311.939	-105.123	0.107	0.025
-310.924	-85.693	-0.263	-0.082
-309.910	800.000	-0.069	0.227
-308.895	-90.817	-0.032	0.009
-307.880	-114.167	0.371	-0.072
-306.866	-97.151	0.202	-0.053
-305.851	70.904	0.197	-0.204
-304.837	407.279	-0.203	-0.429
-303.822	-12.497	-0.204	-0.133
-302.807	800.000	0.043	0.129
-301.793	5.849	0.221	-0.164
-300.778	3.010	0.150	0.109
-299.764	800.000	0.058	0.171
-298.749	105.534	-0.056	0.066
-297.735	48.940	-0.073	-0.068
-296.720	524.504	-0.112	-0.263
-295.705	49.384	-0.186	-0.175
-294.691	-65.157	0.185	-0.075
-293.676	-108.069	0.094	-0.020
-292.662	-4.180	-0.235	-0.163
-291.647	-176.921	0.235	-0.006
-290.632	-175.903	-0.152	-0.004
-289.618	-120.843	0.360	-0.061
-288.603	800.000	-0.039	-0.151
-287.589	-200.000	-0.044	-0.321
-286.574	572.034	0.075	0.182
-285.559	-200.000	0.012	0.170
-284.545	-148.412	0.377	0.031
-283.530	-100.963	-0.214	0.053
-282.516	-97.947	0.119	0.031
-281.501	94.220	0.215	-0.244
-280.486	-200.000	0.060	-0.292
-279.472	-68.020	-0.300	0.117
-278.457	-200.000	0.041	-0.185
-277.443	-200.000	0.096	-0.425
-276.428	-48.799	0.177	-0.085
-275.413	800.000	0.121	0.352
-274.399	-58.090	-0.302	-0.132
-273.384	748.568	0.078	-0.209
-272.370	-106.038	-0.231	-0.052
-271.355	284.980	-0.104	-0.188
-270.340	800.000	-0.071	0.242
-269.326	3.192	0.243	0.177
-268.311	373.293	-0.084	-0.171
-267.297	-43.610	-0.183	0.092
-266.282	-100.113	0.160	-0.040
-265.267	50.940	0.115	-0.109
-264.253	64.136	0.204	0.205
-263.238	282.591	0.130	-0.234
-262.224	134.876	-0.152	-0.197
-261.209	-32.295	0.276	0.154
-260.195	-107.939	0.123	-0.027
-259.180	756.256	0.036	-0.097
-258.165	109.439	0.140	0.167
-257.151	142.589	0.099	0.132
-256.136	120.669	0.223	0.277
-255.122	345.497	-0.094	0.184
-254.107	493.917	-0.144	0.329
-253.092	800.000	0.063	0.261
-252.078	-175.475	0.091	0.002
-251.063	-200.000	-0.052	-0.269
-250.049	12.502	-0.297	-0.228
-249.034	4.639	-0.187	-0.137
-248.019	-5.435	-0.350	-0.240
-247.005	80.976	-0.113	0.122
-245.990	-72.254	-0.170	0.063
-244.976	-200.000	-0.002	0.130
-243.961	-116.882	-0.085	0.016
-242.946	-46.984	-0.191	0.093
-241.932	-61.038	-0.186	0.078
-240.917	115.587	-0.126	-0.154
-239.903	-74.656	-0.213	0.077
-238.888	-64.194	-0.164	-0.067
-237.873	-57.845	-0.240	-0.105
-236.859	-133.376	0.197	0.025
-235.844	-22.425	-0.161	0.097
-234.830	-142.418	0.294	0.029
-233.815	93.442	-0.204	0.231
-232.800	96.027	-0.088	-0.100
-231.786	-200.000	0.049	-0.241
-230.771	-122.169	0.064	0.011
-229.757	-141.255	0.176	-0.018
-228.742	600.785	0.058	-0.143
-227.727	-111.999	0.334	0.067
-226.713	-84.565	0.404	-0.127
-225.698	-200.000	-0.016	-0.293
-224.684	-126.074	-0.458	-0.069
-223.669	319.329	-0.033	0.063
-222.655	387.158	0.253	-0.522
-221.640	556.837	-0.113	0.272
-220.625	569.793	-0.035	0.086
-219.611	-33.456	0.247	-0.136
-218.596	-68.077	-0.139	0.054
-217.582	25.667	0.221	0.183
-216.567	86.260	-0.227	-0.249
-215.552	74.263	-0.208	0.218
-214.538	693.229	-0.113	-0.296
-213.523	21.489	0.070	0.057
-212.509	-200.000	-0.201	-0.000
-211.494	413.941	-0.057	0.121
-210.479	-200.000	0.012	-0.169
-209.465	800.000	0.105	-0.294
-208.450	39.632	0.184	0.164
-207.436	-20.518	0.202	0.124
-206.421	123.939	-0.125	-0.157
-205.406	-150.246	-0.378	-0.029
-204.392	-140.299	0.259	0.027
-203.377	342.012	-0.119	-0.233
-202.363	-190.201	0.417	0.005
-201.348	-0.077	0.317	0.225
-200.333	-52.608	0.225	0.103
-199.319	-14.432	0.116	0.075
-198.304	87.859	-0.155	-0.171
-197.290	-82.848	0.212	0.068
-196.275	-191.774	0.091	-0.001
-195.260	21.522	-0.114	-0.092
-194.246	-55.060	-0.052	0.023
-193.231	800.000	-0.006	-0.020
-192.217	-200.000	0.015	0.296
-191.202	-1.847	-0.276	0.194
-190.187	-200.000	0.120	0.001
-189.173	115.888	0.127	-0.155
-188.158	114.144	0.210	-0.255
-187.144	-200.000	-0.011	0.103
-186.129	-85.957	0.165	-0.051
-185.114	-88.104	0.425	-0.127
-184.100	403.994	0.179	0.375
-183.085	-200.000	0.020	-0.130
-182.071	53.545	-0.036	-0.034
-181.056	-200.000	-0.013	-0.091
-180.042	-200.000	0.007	-0.136
-179.027	-194.967	-0.382	0.003
-178.012	-200.000	0.028	0.142
-176.998	273.624	0.261	0.460
-175.983	-97.215	-0.168	0.044
-174.969	800.000	-0.080	-0.333
-173.954	-33.078	0.381	-0.211
-172.939	-43.266	-0.411	0.207
-171.925	-151.193	0.272	0.020
-170.910	-84.071	-0.075	-0.024
-169.896	-200.000	-0.001	-0.224
-168.881	123.507	-0.222	0.277
-167.866	-59.295	-0.305	0.131
-166.852	70.192	-0.256	-0.263
-165.837	48.854	-0.155	-0.145
-164.823	-200.000	0.070	-0.332
-163.808	-108.604	0.065	-0.014
-162.793	-64.578	0.278	0.112
-161.779	-200.000	0.069	0.448
-160.764	-200.000	0.014	0.105
-159.750	159.915	-0.166	-0.230
-158.735	-116.382	-0.149	-0.027
-157.720	180.466	-0.152	0.222
-156.706	-90.941	-0.202	-0.058
-155.691	454.244	-0.032	-0.070
-154.677	-200.000	-0.051	-0.330
-153.662	114.134	0.105	0.128
-152.647	69.525	0.251	0.257
-151.633	-110.565	0.141	0.029
-150.618	-86.197	-0.216	0.066
-149.604	-50.321	-0.308	0.145
-148.589	800.000	-0.011	0.045
-147.574	800.000	0.075	0.296
-146.560	291.553	-0.057	0.103
-145.545	-92.816	0.430	0.120
-144.531	-156.349	-0.256	0.016
-143.516	41.539	0.130	0.117
-142.502	-200.000	0.031	0.188
-141.487	-93.924	-0.143	0.039
-140.472	-125.159	0.075	-0.011
-139.458	-191.937	0.138	-0.001
-138.443	-167.119	0.380	0.015
-137.429	-53.497	0.116	-0.053
-136.414	800.000	0.119	0.499
-135.399	65.696	0.364	-0.366
-134.385	-166.134	-0.138	-0.006
-133.370	-195.967	-0.507	-0.004
-132.356	8.408	-0.201	0.150
-131.341	-200.000	-0.037	-0.180
-130.326	-133.830	-0.298	-0.037
-129.312	-116.948	0.259	-0.047
-128.297	-57.238	-0.087	-0.038
-127.283	265.387	0.027	0.048
-126.268	161.936	0.049	0.069
-125.253	-165.854	-0.420	0.018
-124.239	800.000	0.079	-0.259
-123.224	-178.263	0.210	-0.005
-122.210	800.000	-0.129	0.358
