DTS Sentinel unit serial number:	SN413079Multiplexer serial number:	ORYXHardware model number:	OX4-SRSoftware version number:	ORYX F/W v4.00 Oryx Data Collector v3.7.2.0data status	okinstallation	princeton_trtdifferential loss correction	single-endedforward channel	channel 4reverse channel	N/Adate	2019/09/19time	05:45:35forward acquisition time	60.00reverse acquisition time	0.00gamma	496.2192k internal	0.2340k external	0.2340temperature offset calibration	1.0028default loss term (dB/km)	0.3790temperature slope calibration	1.0000multiplexer offset coefficient	1.0000multiplexer slope coefficient	1.0000fibre end	0.00T internal ref (°C)	19.25T ext. ref 1 (°C)	0.58T ext. ref 2 (°C)	12.87length (m)	temperature (°C)	Stokes	anti-Stokes-747.200	22.409	-0.324	0.266
-746.185	-137.214	0.325	-0.037
-745.171	-64.042	0.073	-0.030
-744.156	441.652	-0.156	0.342
-743.142	225.364	-0.225	0.365
-742.127	224.884	-0.024	-0.039
-741.112	-200.000	0.112	0.535
-740.098	800.000	-0.120	0.347
-739.083	106.604	-0.092	-0.110
-738.069	-99.577	-0.245	-0.062
-737.054	48.280	-0.185	0.174
-736.039	41.513	-0.181	0.165
-735.025	-25.632	-0.159	0.094
-734.010	269.545	-0.050	0.089
-732.996	361.366	-0.054	-0.109
-731.981	41.568	-0.109	-0.099
-730.966	10.812	0.126	-0.096
-729.952	-104.061	0.064	-0.015
-728.937	-24.632	0.025	-0.015
-727.923	95.913	-0.093	-0.106
-726.908	125.773	-0.230	-0.292
-725.894	-88.782	0.221	-0.066
-724.879	-75.897	0.268	0.095
-723.864	-68.914	-0.382	-0.148
-722.850	50.470	-0.012	-0.012
-721.835	-32.385	-0.069	-0.038
-720.821	-200.000	-0.055	0.518
-719.806	276.289	-0.104	0.184
-718.791	-33.396	-0.153	0.085
-717.777	800.000	-0.094	-0.360
-716.762	800.000	-0.039	-0.156
-715.748	-90.648	0.112	0.032
-714.733	-69.828	-0.068	-0.026
-713.718	20.965	-0.193	-0.157
-712.704	408.257	-0.081	-0.171
-711.689	-200.000	-0.022	-0.205
-710.675	-25.884	-0.320	-0.188
-709.660	-109.454	0.375	-0.079
-708.645	103.919	-0.180	-0.212
-707.631	800.000	0.099	0.298
-706.616	-119.297	0.370	-0.064
-705.602	-200.000	0.042	-0.501
-704.587	172.686	0.154	-0.223
-703.572	2.194	-0.301	0.218
-702.558	800.000	0.059	-0.213
-701.543	85.941	0.187	0.206
-700.529	-114.460	0.189	0.036
-699.514	-57.936	0.294	0.129
-698.499	-200.000	0.032	-0.151
-697.485	-200.000	-0.028	-0.303
-696.470	-73.345	-0.126	-0.046
-695.456	-200.000	-0.012	0.058
-694.441	800.000	-0.066	0.182
-693.426	-200.000	-0.007	0.215
-692.412	148.080	0.066	-0.089
-691.397	-200.000	0.004	0.129
-690.383	800.000	-0.097	0.288
-689.368	6.715	-0.071	0.053
-688.354	-200.000	-0.087	0.452
-687.339	-200.000	-0.010	-0.311
-686.324	-120.885	0.166	-0.028
-685.310	-23.117	-0.175	-0.105
-684.295	116.713	-0.110	0.136
-683.281	-126.125	0.209	0.031
-682.266	-200.000	-0.063	0.337
-681.251	88.551	-0.279	0.310
-680.237	-46.481	0.192	0.094
-679.222	162.614	0.194	0.273
-678.208	-17.873	-0.078	-0.049
-677.193	-107.202	-0.154	0.034
-676.178	74.886	-0.279	-0.294
-675.164	-87.413	0.318	-0.096
-674.149	390.074	0.050	0.104
-673.135	-154.747	-0.177	-0.012
-672.120	800.000	0.036	0.151
-671.105	-200.000	-0.537	0.002
-670.091	-200.000	0.014	0.255
-669.076	171.586	-0.102	0.146
-668.062	-75.719	0.308	-0.109
-667.047	-99.612	-0.253	0.064
-666.032	15.898	-0.176	0.138
-665.018	800.000	-0.072	0.221
-664.003	-75.613	0.274	0.097
-662.989	250.671	0.110	-0.186
-661.974	-21.836	0.025	-0.015
-660.959	800.000	0.073	-0.262
-659.945	189.260	0.289	0.433
-658.930	-43.597	-0.113	0.057
-657.916	-25.071	0.176	-0.104
-656.901	-192.272	0.183	0.002
-655.886	-200.000	-0.048	0.218
-654.872	-66.849	-0.059	-0.023
-653.857	80.393	0.097	-0.104
-652.843	800.000	-0.098	-0.410
-651.828	59.286	-0.262	0.258
-650.814	-3.789	0.192	0.133
-649.799	-200.000	0.000	-0.099
-648.784	-200.000	0.040	0.199
-647.770	-108.920	-0.356	0.076
-646.755	-135.632	0.191	0.023
-645.741	-51.393	-0.425	0.199
-644.726	-79.209	0.138	-0.047
-643.711	-200.000	-0.019	-0.233
-642.697	121.245	-0.117	-0.145
-641.682	-52.992	-0.207	-0.095
-640.668	-94.582	-0.372	-0.101
-639.653	-94.217	0.280	0.077
-638.638	-115.271	0.125	-0.024
-637.624	-9.855	-0.180	0.120
-636.609	89.485	0.211	-0.235
-635.595	114.999	-0.150	-0.183
-634.580	-69.289	-0.174	0.067
-633.565	467.147	-0.073	-0.164
-632.551	-31.010	-0.111	0.063
-631.536	-200.000	-0.059	0.497
-630.522	290.110	-0.079	-0.143
-629.507	800.000	0.051	-0.193
-628.492	131.573	-0.207	0.266
-627.478	-200.000	0.001	0.082
-626.463	-200.000	0.003	-0.318
-625.449	63.087	0.166	-0.166
-624.434	5.865	-0.102	0.076
-623.419	-82.052	0.256	0.083
-622.405	98.150	0.093	-0.107
-621.390	37.783	0.117	0.104
-620.376	75.362	-0.207	0.218
-619.361	55.864	0.289	-0.280
-618.346	-78.294	-0.209	-0.071
-617.332	-200.000	-0.003	-0.298
-616.317	-8.620	0.052	-0.035
-615.303	200.210	0.139	0.212
-614.288	148.378	0.167	-0.225
-613.273	383.365	-0.079	0.163
-612.259	-74.720	0.238	-0.085
-611.244	-80.011	-0.258	0.086
-610.230	-85.586	-0.204	0.063
-609.215	-200.000	0.031	0.235
-608.201	-31.883	-0.264	0.147
-607.186	-143.026	-0.014	0.001
-606.171	-128.046	-0.355	-0.051
-605.157	-124.252	-0.296	-0.046
-604.142	135.575	0.153	0.199
-603.128	119.436	-0.103	0.127
-602.113	-200.000	0.023	0.103
-601.098	800.000	-0.049	-0.152
-600.084	-200.000	0.012	0.146
-599.069	157.343	-0.109	-0.150
-598.055	-42.581	-0.243	0.123
-597.040	728.260	0.056	-0.149
-596.025	-138.879	-0.084	-0.009
-595.011	654.928	0.095	0.242
-593.996	99.657	0.049	0.057
-592.982	767.532	-0.036	0.098
-591.967	109.142	-0.176	-0.210
-590.952	-81.575	-0.180	-0.059
-589.938	-200.000	0.012	-0.322
-588.923	38.521	-0.261	-0.232
-587.909	-168.139	0.334	-0.013
-586.894	279.936	-0.087	0.155
-585.879	-125.581	0.152	0.023
-584.865	800.000	0.072	0.205
-583.850	-95.359	0.118	0.032
-582.836	10.741	-0.142	-0.108
-581.821	-200.000	-0.004	0.299
-580.806	54.134	-0.037	0.036
-579.792	800.000	0.055	0.163
-578.777	-24.553	0.268	0.159
-577.763	-86.994	-0.271	0.082
-576.748	118.861	-0.007	0.008
-575.733	-10.074	-0.307	0.203
-574.719	800.000	0.039	-0.149
-573.704	483.857	0.037	0.084
-572.690	138.958	-0.107	0.140
-571.675	-60.312	0.148	0.063
-570.661	-200.000	-0.024	-0.345
-569.646	110.827	-0.011	-0.014
-568.631	-57.375	-0.293	0.128
-567.617	29.913	0.049	0.042
-566.602	-22.370	0.406	-0.245
-565.588	-200.000	-0.021	0.194
-564.573	-48.022	0.182	0.087
-563.558	107.469	-0.015	-0.017
-562.544	-200.000	0.028	-0.380
-561.529	291.350	-0.051	-0.092
-560.515	-25.100	-0.319	-0.188
-559.500	8.469	0.135	-0.101
-558.485	429.784	-0.110	-0.236
-557.471	62.645	0.163	-0.162
-556.456	-79.772	-0.122	0.041
-555.442	-60.840	0.105	-0.044
-554.427	-200.000	0.031	0.195
-553.412	39.415	-0.275	-0.246
-552.398	-108.972	-0.426	0.090
-551.383	800.000	-0.057	-0.237
-550.369	95.917	-0.089	-0.101
-549.354	-200.000	0.027	0.171
-548.339	205.514	-0.139	0.216
-547.325	691.972	-0.133	0.348
-546.310	46.674	0.176	0.163
-545.296	64.198	0.171	-0.171
-544.281	-200.000	0.031	-0.154
-543.266	-85.677	-0.022	0.007
-542.252	69.863	-0.112	0.115
-541.237	-171.278	-0.241	-0.008
-540.223	-0.357	0.205	0.145
-539.208	3.522	-0.231	-0.167
-538.193	-120.170	-0.169	0.029
-537.179	62.824	-0.103	0.102
-536.164	800.000	-0.163	-0.638
-535.150	-200.000	-0.031	-0.347
-534.135	139.315	-0.088	-0.115
-533.121	-200.000	0.004	-0.022
-532.106	107.617	0.130	-0.153
-531.091	-40.444	-0.204	-0.105
-530.077	243.649	0.136	0.226
-529.062	800.000	0.068	0.225
-528.048	36.243	0.142	0.124
-527.033	-200.000	-0.026	0.412
-526.018	800.000	-0.183	0.522
-525.004	-128.768	-0.178	0.025
-523.989	-27.002	0.195	0.113
-522.975	-71.321	-0.185	0.069
-521.960	-200.000	0.017	-0.245
-520.945	-85.477	0.163	0.051
-519.931	-200.000	-0.029	-0.157
-518.916	-8.666	-0.111	0.074
-517.902	-117.337	-0.117	0.021
-516.887	85.540	-0.098	0.107
-515.872	-200.000	0.002	-0.085
-514.858	-168.249	0.379	-0.015
-513.843	52.444	-0.297	-0.281
-512.829	800.000	0.005	-0.016
-511.814	-67.089	0.274	0.107
-510.799	30.491	-0.297	-0.252
-509.785	18.709	0.381	0.303
-508.770	264.606	-0.081	-0.141
-507.756	415.607	-0.129	0.272
-506.741	304.091	0.123	0.227
-505.726	800.000	-0.058	0.185
-504.712	-127.311	0.108	-0.016
-503.697	752.929	-0.047	-0.127
-502.683	-163.338	-0.635	-0.030
-501.668	-112.571	0.075	-0.015
-500.653	800.000	-0.186	-0.583
-499.639	800.000	0.092	-0.314
-498.624	-2.986	-0.040	0.028
-497.610	70.721	0.281	-0.289
-496.595	497.537	-0.042	-0.095
-495.581	437.735	0.194	0.421
-494.566	92.877	0.284	0.319
-493.551	-200.000	0.062	0.300
-492.537	73.873	-0.098	-0.102
-491.522	-65.374	-0.215	0.086
-490.508	-200.000	0.002	0.038
-489.493	442.173	0.072	0.157
-488.478	-73.045	-0.173	-0.063
-487.464	-200.000	0.017	0.216
-486.449	551.127	-0.082	-0.195
-485.435	-200.000	-0.032	0.235
-484.420	-104.013	0.432	0.100
-483.405	283.185	-0.218	-0.388
-482.391	112.355	-0.227	-0.272
-481.376	-200.000	0.012	0.309
-480.362	586.594	-0.093	0.227
-479.347	-58.902	-0.134	-0.057
-478.332	-140.358	-0.160	0.017
-477.318	-131.257	-0.389	0.051
-476.303	57.236	0.179	-0.173
-475.289	-109.255	-0.118	-0.025
-474.274	104.110	-0.108	0.126
-473.259	-200.000	0.024	0.413
-472.245	-200.000	-0.005	-0.106
-471.230	28.161	-0.200	-0.167
-470.216	88.409	-0.262	0.288
-469.201	-200.000	-0.026	0.217
-468.186	800.000	-0.151	-0.469
-467.172	48.522	-0.125	0.116
-466.157	800.000	-0.078	0.262
-465.143	-143.052	0.400	0.038
-464.128	-10.618	-0.231	0.152
-463.113	-124.811	0.103	-0.016
-462.099	800.000	0.061	0.248
-461.084	236.672	0.046	-0.076
-460.070	-200.000	-0.080	-0.547
-459.055	170.827	0.131	0.186
-458.040	226.600	-0.211	0.339
-457.026	-200.000	0.029	0.175
-456.011	800.000	-0.063	-0.236
-454.997	-200.000	-0.042	-0.207
-453.982	-111.381	-0.060	0.012
-452.968	44.484	0.133	-0.122
-451.953	-200.000	0.032	-0.190
-450.938	-25.713	0.081	-0.047
-449.924	65.947	-0.147	-0.148
-448.909	-131.638	-0.219	-0.028
-447.895	-200.000	-0.002	0.182
-446.880	69.789	0.174	0.177
-445.865	109.512	0.165	-0.196
-444.851	353.798	0.105	-0.208
-443.836	-200.000	-0.024	0.195
-442.822	184.513	-0.040	-0.058
-441.807	-143.849	0.267	0.025
-440.792	-98.545	0.155	0.039
-439.778	-74.842	-0.071	-0.025
-438.763	-131.400	0.084	-0.011
-437.749	-200.000	0.028	-0.202
-436.734	469.216	-0.065	-0.144
-435.719	-200.000	0.012	-0.356
-434.705	392.328	0.135	-0.279
-433.690	43.693	-0.181	0.164
-432.676	-55.770	0.500	-0.221
-431.661	-155.305	-0.284	-0.018
-430.646	546.073	0.166	-0.393
-429.632	410.110	-0.131	0.274
-428.617	-200.000	-0.026	0.348
-427.603	482.339	0.146	-0.328
-426.588	-62.003	-0.334	0.138
-425.573	418.366	-0.047	0.100
-424.559	89.131	0.178	0.196
-423.544	-200.000	0.021	0.371
-422.530	10.251	-0.107	-0.081
-421.515	42.109	0.083	-0.074
-420.500	-87.500	0.091	-0.027
-419.486	-160.273	0.146	0.008
-418.471	183.779	-0.086	0.126
-417.457	33.428	0.178	-0.153
-416.442	-101.465	0.303	0.073
-415.428	-196.288	0.146	0.001
-414.413	-91.364	-0.314	0.089
-413.398	-21.696	-0.230	0.138
-412.384	-200.000	-0.031	0.000
-411.369	11.516	0.049	0.037
-410.355	-57.871	-0.348	-0.150
-409.340	16.816	0.176	0.138
-408.325	3.637	0.138	0.100
-407.311	-107.699	0.157	-0.034
-406.296	-116.294	0.367	-0.067
-405.282	337.906	0.130	-0.251
-404.267	-61.807	0.123	-0.051
-403.252	625.059	-0.137	0.341
-402.238	50.385	-0.181	-0.169
-401.223	112.235	0.122	0.146
-400.209	516.018	-0.052	0.120
-399.194	81.173	0.226	0.241
-398.179	-200.000	0.029	0.326
-397.165	-52.573	0.114	-0.052
-396.150	-104.355	-0.369	0.085
-395.136	60.679	0.098	0.096
-394.121	592.041	0.047	0.115
-393.106	-138.545	0.258	0.028
-392.092	-109.739	0.130	-0.027
-391.077	345.387	-0.087	0.168
-390.063	-200.000	0.038	0.274
-389.048	-25.586	-0.188	-0.110
-388.033	133.176	-0.287	0.367
-387.019	-128.819	0.178	0.025
-386.004	-85.610	0.155	0.048
-384.990	43.518	-0.153	0.139
-383.975	-168.504	0.333	0.013
-382.960	800.000	0.078	-0.244
-381.946	189.371	-0.172	-0.254
-380.931	-185.293	0.191	0.003
-379.917	-5.541	-0.175	-0.119
-378.902	-200.000	-0.039	0.232
-377.888	15.967	0.135	0.105
-376.873	-200.000	0.089	0.393
-375.858	-114.950	0.050	0.009
-374.844	-80.418	0.521	0.172
-373.829	50.214	-0.086	0.080
-372.815	53.409	0.077	-0.073
-371.800	-200.000	-0.017	0.315
-370.785	523.689	0.076	0.176
-369.771	-31.523	0.120	-0.067
-368.756	194.474	-0.083	0.124
-367.742	-120.928	0.216	0.036
-366.727	-200.000	-0.047	0.264
-365.712	-115.355	0.568	-0.106
-364.698	58.063	0.115	0.111
-363.683	564.761	-0.129	0.308
-362.669	656.299	-0.155	-0.394
-361.654	-15.965	-0.134	-0.084
-360.639	800.000	0.066	0.201
-359.625	-200.000	0.001	0.070
-358.610	355.799	-0.173	0.339
-357.596	774.071	0.133	-0.358
-356.581	262.680	-0.020	0.034
-355.566	-23.740	-0.185	0.109
-354.552	249.765	-0.143	0.240
-353.537	513.071	0.065	-0.149
-352.523	800.000	0.052	-0.176
-351.508	206.339	-0.077	0.119
-350.493	138.938	-0.110	0.143
-349.479	528.960	0.112	0.260
-348.464	-200.000	-0.039	-0.187
-347.450	-200.000	0.020	-0.282
-346.435	-99.047	0.249	0.062
-345.420	-200.000	-0.046	-0.391
-344.406	33.882	0.129	-0.111
-343.391	-51.448	-0.086	-0.040
-342.377	-200.000	0.033	0.307
-341.362	-7.591	0.335	-0.224
-340.348	-200.000	-0.026	-0.248
-339.333	381.252	0.156	-0.315
-338.318	-48.840	-0.121	0.057
-337.304	-88.597	-0.480	0.141
-336.289	-9.609	0.177	-0.116
-335.275	500.850	-0.050	-0.114
-334.260	144.757	-0.047	-0.061
-333.245	60.075	-0.163	-0.159
-332.231	-1.667	0.266	-0.185
-331.216	70.299	-0.104	0.106
-330.202	-1.016	-0.254	0.177
-329.187	-65.837	0.180	0.071
-328.172	800.000	-0.028	-0.118
-327.158	104.218	0.147	0.171
-326.143	-25.269	0.126	0.074
-325.129	-181.914	-0.299	0.006
-324.114	-60.872	0.092	-0.039
-323.099	800.000	0.046	-0.172
-322.085	-59.752	0.217	-0.092
-321.070	-63.990	-0.309	-0.124
-320.056	234.799	0.021	-0.034
-319.041	504.100	-0.035	0.079
-318.026	16.751	0.214	-0.167
-317.012	86.523	-0.241	-0.262
-315.997	-107.631	0.296	0.064
-314.983	-134.428	-0.189	0.023
-313.968	-17.119	0.166	-0.104
-312.953	-171.606	-0.241	0.008
-311.939	-54.493	-0.263	-0.117
-310.924	428.299	0.092	0.195
-309.910	-109.070	-0.541	-0.114
-308.895	-200.000	-0.011	0.140
-307.880	800.000	-0.068	-0.196
-306.866	-200.000	-0.009	0.211
-305.851	-136.948	0.074	0.008
-304.837	800.000	0.056	0.210
-303.822	-95.415	-0.188	0.050
-302.807	-200.000	0.030	-0.214
-301.793	-74.319	-0.095	-0.034
-300.778	-200.000	-0.077	-0.368
-299.764	242.835	-0.166	-0.274
-298.749	13.262	0.256	-0.195
-297.735	-15.185	0.190	0.120
-296.720	-160.396	0.241	0.013
-295.705	-200.000	0.020	-0.145
-294.691	800.000	-0.028	0.110
-293.676	-76.953	-0.238	0.082
-292.662	-103.535	0.149	-0.034
-291.647	-118.123	-0.195	0.034
-290.632	-200.000	-0.012	-0.152
-289.618	800.000	0.150	-0.575
-288.603	800.000	0.069	-0.278
-287.589	18.972	0.105	-0.083
-286.574	-73.582	0.171	-0.061
-285.559	526.841	0.053	-0.123
-284.545	184.918	-0.076	0.111
-283.530	348.168	0.159	0.308
-282.516	-200.000	0.001	0.123
-281.501	-24.321	0.274	0.161
-280.486	50.944	0.236	0.221
-279.472	-94.051	-0.423	-0.114
-278.457	113.034	-0.249	0.298
-277.443	-151.178	0.108	0.008
-276.428	-126.237	0.097	0.014
-275.413	-41.376	0.548	0.278
-274.399	123.108	0.310	0.382
-273.384	548.501	-0.040	-0.094
-272.370	-200.000	0.026	-0.215
-271.355	318.449	-0.048	-0.090
-270.340	320.197	-0.137	-0.257
-269.326	169.334	0.077	-0.108
-268.311	174.883	-0.025	-0.035
-267.297	800.000	-0.025	-0.092
-266.282	-38.715	0.195	-0.101
-265.267	-184.709	0.285	-0.004
-264.253	-200.000	0.012	0.163
-263.238	-200.000	0.035	0.388
-262.224	13.744	0.209	0.160
-261.209	-14.672	-0.274	-0.173
-260.195	224.566	0.226	-0.360
-259.180	-85.559	0.231	-0.071
-258.165	204.527	0.104	-0.159
-257.151	-51.757	0.100	-0.046
-256.136	-6.555	0.046	-0.031
-255.122	-82.016	0.292	-0.094
-254.107	-71.686	0.204	0.075
-253.092	14.843	0.199	-0.153
-252.078	-59.309	-0.135	-0.057
-251.063	8.529	0.181	-0.134
-250.049	-38.066	-0.332	0.173
-249.034	800.000	-0.087	-0.264
-248.019	36.255	-0.040	-0.035
-247.005	-79.107	0.006	-0.002
-245.990	-0.460	0.337	-0.235
-244.976	-200.000	-0.023	-0.199
-243.961	800.000	-0.023	-0.062
-242.946	-112.649	0.413	0.081
-241.932	644.764	-0.026	-0.064
-240.917	402.751	-0.141	-0.292
-239.903	-71.305	0.253	-0.093
-238.888	-155.069	0.196	-0.013
-237.873	1.987	0.089	0.063
-236.859	569.434	-0.055	0.131
-235.844	-13.439	-0.131	-0.083
-234.830	-34.485	-0.367	-0.198
-233.815	62.576	-0.028	-0.027
-232.800	41.382	0.295	-0.262
-231.786	44.289	0.101	0.091
-230.771	308.076	0.109	0.201
-229.757	-36.093	0.097	0.051
-228.742	-115.250	-0.188	0.035
-227.727	800.000	-0.069	-0.267
-226.713	-200.000	0.015	-0.135
-225.698	644.272	0.085	-0.213
-224.684	193.192	-0.238	0.353
-223.669	291.095	-0.016	0.028
-222.655	-153.304	-0.152	-0.010
-221.640	-55.150	0.346	-0.153
-220.625	303.644	0.083	0.152
-219.611	521.331	0.078	0.179
-218.596	-200.000	-0.030	-0.261
-217.582	-200.000	0.008	-0.045
-216.567	716.317	-0.058	0.152
-215.552	-151.664	0.088	0.006
-214.538	-200.000	0.013	-0.153
-213.523	-158.121	-0.342	0.020
-212.509	-200.000	-0.000	-0.215
-211.494	-0.176	0.098	-0.068
-210.479	151.892	0.212	0.284
-209.465	-49.716	-0.102	0.048
-208.450	43.127	0.063	0.056
-207.436	324.238	0.088	0.164
-206.421	-59.820	0.107	0.045
-205.406	-9.985	-0.244	0.159
-204.392	87.435	-0.089	0.096
-203.377	-71.412	0.051	0.019
-202.363	-46.655	0.064	0.031
-201.348	800.000	-0.076	-0.273
-200.333	-58.241	0.207	-0.089
-199.319	-98.885	-0.046	0.011
-198.304	-109.797	0.373	-0.077
-197.290	-82.549	0.063	-0.020
-196.275	-68.428	0.061	0.023
-195.260	-200.000	-0.031	0.142
-194.246	800.000	0.095	-0.268
-193.231	6.782	0.023	-0.017
-192.217	228.896	0.058	0.092
-191.202	800.000	-0.026	0.080
-190.187	800.000	-0.005	-0.021
-189.173	800.000	-0.022	-0.061
-188.158	800.000	0.024	-0.099
-187.144	58.435	-0.128	0.123
-186.129	-200.000	0.038	0.201
-185.114	-83.382	0.433	0.136
-184.100	-99.039	-0.274	0.068
-183.085	-95.425	0.105	0.028
-182.071	-200.000	0.028	0.139
-181.056	70.756	-0.180	0.183
-180.042	-200.000	-0.077	0.366
-179.027	-93.604	0.043	0.012
-178.012	800.000	0.042	0.114
-176.998	800.000	0.105	-0.308
-175.983	120.751	-0.099	-0.121
-174.969	224.532	-0.074	-0.117
-173.954	-44.300	-0.109	0.054
-172.939	21.462	0.083	-0.066
-171.925	800.000	0.118	0.337
-170.910	-42.567	-0.258	-0.129
-169.896	-90.118	-0.211	-0.060
-168.881	334.817	-0.142	0.270
-167.866	800.000	-0.096	0.271
-166.852	800.000	-0.047	0.148
-165.837	-200.000	0.034	0.322
-164.823	163.875	0.190	-0.261
-163.808	45.034	-0.212	-0.191
-162.793	53.165	-0.131	-0.123
-161.779	5.743	0.318	-0.230
-160.764	-110.171	-0.247	-0.051
-159.750	109.066	0.137	0.160
-158.735	166.018	0.022	0.030
-157.720	148.819	0.036	-0.047
-156.706	150.605	-0.233	-0.310
-155.691	-61.619	-0.032	0.013
-154.677	270.606	-0.205	0.353
-153.662	800.000	-0.029	-0.113
-152.647	-130.533	0.291	-0.039
-151.633	800.000	-0.075	-0.286
-150.618	-150.235	-0.149	-0.011
-149.604	-164.052	0.084	0.004
-148.589	-185.848	-0.031	-0.000
-147.574	570.066	0.128	0.305
-146.560	-200.000	0.000	0.106
-145.545	301.631	0.253	0.457
-144.531	-116.246	0.238	0.043
-143.516	-200.000	-0.049	0.353
-142.502	-200.000	-0.002	0.071
-141.487	-139.171	0.326	0.034
-140.472	-142.685	0.132	-0.013
-139.458	-200.000	-0.023	0.191
-138.443	-16.800	-0.150	-0.093
-137.429	-200.000	0.005	0.093
-136.414	-63.468	0.287	-0.116
-135.399	12.540	0.083	-0.063
-134.385	36.323	0.111	0.096
-133.370	-142.063	0.291	-0.028
-132.356	173.134	0.076	0.107
-131.341	-114.430	0.269	0.051
-130.326	-114.625	-0.371	-0.070
-129.312	-200.000	-0.049	0.248
-128.297	-117.495	0.130	-0.023
-127.283	-76.751	0.462	-0.158
-126.268	800.000	-0.069	-0.215
-125.253	-93.834	0.141	0.038
-124.239	-200.000	0.032	0.316
-123.224	-82.353	0.235	-0.075
-122.210	-52.551	-0.236	0.107
-121.195	-200.000	0.158	-0.000
