DTS Sentinel unit serial number:	SN413079Multiplexer serial number:	ORYXHardware model number:	OX4-SRSoftware version number:	ORYX F/W v4.00 Oryx Data Collector v3.7.2.0data status	okinstallation	princeton_trtdifferential loss correction	single-endedforward channel	channel 4reverse channel	N/Adate	2019/09/15time	20:53:34forward acquisition time	60.00reverse acquisition time	0.00gamma	496.2192k internal	0.2316k external	0.2316temperature offset calibration	0.9935default loss term (dB/km)	0.3790temperature slope calibration	1.0000multiplexer offset coefficient	1.0000multiplexer slope coefficient	1.0000fibre end	0.00T internal ref (°C)	32.12T ext. ref 1 (°C)	7.99T ext. ref 2 (°C)	24.39length (m)	temperature (°C)	Stokes	anti-Stokes-747.200	-200.000	-0.023	-0.236
-746.185	-200.000	-0.051	0.327
-745.171	-49.115	0.090	-0.043
-744.156	-88.726	0.182	-0.055
-743.142	504.385	0.091	0.213
-742.127	241.227	-0.113	0.191
-741.112	414.873	-0.083	0.180
-740.098	-42.114	-0.233	0.121
-739.083	4.707	0.090	-0.067
-738.069	704.301	-0.097	0.259
-737.054	388.974	-0.036	0.076
-736.039	-128.264	0.089	0.013
-735.025	451.926	-0.084	0.188
-734.010	-200.000	-0.006	-0.218
-732.996	212.989	0.230	-0.367
-731.981	-101.946	0.322	-0.079
-730.966	297.956	-0.111	-0.207
-729.952	-66.174	-0.160	0.064
-728.937	411.663	-0.057	-0.122
-727.923	-29.484	-0.375	-0.217
-726.908	-200.000	-0.004	-0.149
-725.894	800.000	0.179	-0.508
-724.879	20.381	-0.201	-0.165
-723.864	-29.224	0.205	0.119
-722.850	1.801	0.090	-0.066
-721.835	-167.342	0.149	0.006
-720.821	279.835	-0.108	-0.195
-719.806	800.000	-0.020	-0.072
-718.791	356.058	0.081	-0.163
-717.777	-200.000	-0.070	0.340
-716.762	-117.987	-0.161	-0.029
-715.748	-59.339	-0.297	-0.129
-714.733	-41.285	-0.099	-0.052
-713.718	84.961	-0.111	0.123
-712.704	142.130	0.211	-0.283
-711.689	-200.000	0.004	0.130
-710.675	-200.000	0.047	0.401
-709.660	-143.930	-0.243	-0.023
-708.645	-151.157	-0.143	0.011
-707.631	-95.756	-0.228	0.062
-706.616	466.187	-0.040	-0.090
-705.602	-1.081	-0.084	-0.060
-704.587	800.000	0.039	-0.139
-703.572	-200.000	0.020	0.258
-702.558	-143.329	-0.348	-0.034
-701.543	-141.542	-0.348	0.036
-700.529	-27.277	0.109	-0.064
-699.514	412.694	-0.213	-0.457
-698.499	-7.847	-0.421	-0.287
-697.485	-87.417	0.192	-0.059
-696.470	210.562	-0.131	0.208
-695.456	74.560	0.312	0.331
-694.441	348.827	0.079	-0.158
-693.426	800.000	-0.091	0.294
-692.412	-104.289	-0.347	0.081
-691.397	-3.286	-0.093	0.065
-690.383	-37.654	-0.053	0.029
-689.368	-149.928	0.081	0.006
-688.354	-19.688	0.362	-0.226
-687.339	143.394	-0.127	0.171
-686.324	46.123	-0.194	0.181
-685.310	800.000	0.063	-0.183
-684.295	77.725	0.064	0.069
-683.281	-124.164	0.159	0.025
-682.266	141.317	0.192	0.256
-681.251	-200.000	-0.069	-0.429
-680.237	-5.441	0.484	-0.336
-679.222	217.968	0.121	-0.194
-678.208	-20.970	0.240	-0.148
-677.193	370.419	-0.037	0.076
-676.178	800.000	-0.044	-0.141
-675.164	196.115	0.073	-0.113
-674.149	-44.770	-0.182	-0.092
-673.135	144.987	-0.089	0.120
-672.120	-86.698	0.243	0.075
-671.105	-200.000	0.007	-0.036
-670.091	360.608	0.145	-0.293
-669.076	800.000	-0.065	0.208
-668.062	-49.618	-0.162	-0.078
-667.047	378.314	-0.173	-0.357
-666.032	-66.581	0.292	0.117
-665.018	-43.759	-0.154	-0.078
-664.003	-151.287	-0.351	-0.027
-662.989	-32.599	0.189	0.106
-661.974	507.881	-0.170	-0.397
-660.959	-30.994	-0.330	-0.188
-659.945	-91.694	0.129	-0.037
-658.930	102.201	-0.224	0.264
-657.916	144.904	0.294	-0.397
-656.901	-14.557	0.091	0.059
-655.886	800.000	0.123	0.347
-654.872	-124.245	0.250	0.039
-653.857	24.830	-0.207	-0.173
-652.843	-12.427	0.168	-0.111
-651.828	-200.000	0.012	-0.221
-650.814	179.517	-0.156	-0.231
-649.799	-200.000	0.205	-0.000
-648.784	-25.965	-0.222	-0.132
-647.770	-131.755	-0.247	0.033
-646.755	-165.896	0.093	-0.004
-645.741	-108.850	-0.187	0.040
-644.726	621.220	-0.067	-0.170
-643.711	-91.486	0.153	0.044
-642.697	18.777	-0.264	0.213
-641.682	-199.790	0.325	0.002
-640.668	-54.331	-0.165	-0.075
-639.653	-132.983	0.443	-0.057
-638.638	22.105	0.189	-0.155
-637.624	800.000	-0.120	-0.447
-636.609	-72.245	0.177	-0.066
-635.595	-200.000	-0.047	-0.239
-634.580	360.339	0.115	0.233
-633.565	73.309	0.086	0.090
-632.551	-200.000	-0.011	-0.074
-631.536	-200.000	-0.182	-0.001
-630.522	486.021	-0.066	0.152
-629.507	-200.000	0.047	-0.386
-628.492	-47.670	-0.387	0.189
-627.478	363.543	-0.181	0.368
-626.463	-200.000	-0.036	-0.182
-625.449	-200.000	0.091	-0.472
-624.434	242.557	-0.119	-0.200
-623.419	-12.410	0.161	0.106
-622.405	246.645	0.086	0.146
-621.390	171.201	0.057	0.082
-620.376	-143.331	0.112	0.011
-619.361	800.000	0.068	-0.196
-618.346	-0.041	0.070	0.051
-617.332	-27.371	0.228	0.134
-616.317	128.052	0.142	0.182
-615.303	-129.879	-0.249	0.034
-614.288	800.000	0.067	0.249
-613.273	7.401	0.287	-0.216
-612.259	124.419	0.282	-0.358
-611.244	-200.000	0.002	-0.105
-610.230	800.000	-0.052	0.161
-609.215	-125.905	0.376	-0.057
-608.201	800.000	-0.094	-0.270
-607.186	-96.356	-0.092	-0.025
-606.171	421.348	-0.075	0.161
-605.157	10.777	-0.172	0.132
-604.142	697.362	-0.081	0.214
-603.128	-14.991	-0.127	0.082
-602.113	-92.824	-0.055	0.015
-601.098	248.619	0.100	-0.170
-600.084	-115.397	-0.060	0.011
-599.069	-80.006	-0.197	0.066
-598.055	800.000	-0.024	-0.094
-597.040	162.536	0.115	-0.163
-596.025	800.000	0.078	0.265
-595.011	-164.438	-0.397	0.018
-593.996	-0.308	-0.041	-0.030
-592.982	290.560	0.096	-0.176
-591.967	257.303	-0.214	-0.370
-590.952	-200.000	-0.070	0.384
-589.938	800.000	-0.070	-0.229
-588.923	624.626	0.114	0.289
-587.909	-53.161	0.206	-0.095
-586.894	11.260	0.071	-0.055
-585.879	-16.256	0.297	-0.190
-584.865	49.983	-0.105	0.100
-583.850	-91.217	-0.398	0.115
-582.836	368.018	0.025	0.050
-581.821	-25.140	-0.148	-0.089
-580.806	46.261	0.175	-0.163
-579.792	-200.000	-0.012	-0.483
-578.777	19.951	-0.186	-0.151
-577.763	-200.000	-0.037	0.372
-576.748	-200.000	0.016	-0.102
-575.733	46.476	-0.127	-0.119
-574.719	-43.446	-0.298	0.151
-573.704	-71.879	-0.313	-0.117
-572.690	-200.000	0.007	-0.228
-571.675	800.000	-0.032	0.133
-570.661	90.057	0.026	0.029
-569.646	141.190	0.141	-0.187
-568.631	-200.000	-0.020	-0.162
-567.617	53.948	-0.148	-0.143
-566.602	24.370	-0.181	-0.151
-565.588	96.260	0.075	-0.086
-564.573	800.000	-0.024	0.088
-563.558	368.545	-0.083	-0.168
-562.544	279.955	-0.183	-0.329
-561.529	367.224	-0.126	-0.256
-560.515	366.184	-0.033	-0.068
-559.500	222.640	0.165	0.268
-558.485	-200.000	0.071	-0.327
-557.471	59.558	0.176	-0.174
-556.456	-111.823	0.237	0.048
-555.442	14.885	-0.048	0.038
-554.427	92.681	0.140	0.158
-553.412	25.024	-0.362	0.302
-552.398	-200.000	-0.013	-0.200
-551.383	73.191	0.214	-0.225
-550.369	323.902	-0.111	-0.212
-549.354	190.272	-0.091	-0.137
-548.339	76.229	-0.196	-0.208
-547.325	-152.320	-0.022	0.002
-546.310	225.238	0.219	-0.356
-545.296	-175.432	0.021	0.001
-544.281	-87.380	-0.513	0.156
-543.266	9.049	0.218	-0.166
-542.252	-72.867	-0.308	0.114
-541.237	-200.000	-0.009	0.042
-540.223	-56.179	-0.042	-0.019
-539.208	-61.655	0.158	-0.066
-538.193	-200.000	-0.002	0.068
-537.179	431.197	-0.145	0.316
-536.164	800.000	0.078	0.248
-535.150	-35.643	-0.173	0.094
-534.135	800.000	0.028	0.106
-533.121	-44.413	-0.153	-0.077
-532.106	-73.183	0.084	-0.031
-531.091	106.205	0.122	0.145
-530.077	-53.941	0.166	0.076
-529.062	0.675	-0.329	0.236
-528.048	800.000	-0.038	-0.124
-527.033	463.007	-0.164	-0.368
-526.018	-101.955	0.515	-0.125
-525.004	-13.938	-0.222	0.144
-523.989	-200.000	0.040	0.248
-522.975	693.306	-0.039	-0.102
-521.960	445.223	0.056	-0.123
-520.945	211.614	0.065	0.103
-519.931	185.648	0.231	0.344
-518.916	-127.955	0.260	-0.038
-517.902	-132.857	0.265	0.034
-516.887	74.821	-0.052	-0.055
-515.872	561.456	0.059	0.144
-514.858	100.635	0.135	0.157
-513.843	-74.829	-0.428	-0.154
-512.829	-21.960	-0.146	0.089
-511.814	-96.768	-0.372	0.098
-510.799	512.966	0.056	0.131
-509.785	-111.548	-0.105	0.021
-508.770	-11.169	-0.307	-0.203
-507.756	286.519	0.105	-0.190
-506.741	20.754	0.025	0.021
-505.726	-160.028	-0.217	0.012
-504.712	800.000	0.039	-0.166
-503.697	800.000	-0.104	-0.322
-502.683	-122.289	0.204	-0.034
-501.668	65.585	0.392	-0.398
-500.653	-140.047	0.314	0.033
-499.639	-165.186	0.146	-0.006
-498.624	267.931	-0.065	0.115
-497.610	117.805	0.054	-0.067
-496.595	773.497	-0.109	0.299
-495.581	-134.559	0.269	0.033
-494.566	-200.000	-0.010	0.331
-493.551	-200.000	0.050	0.243
-492.537	124.289	-0.241	-0.304
-491.522	800.000	-0.042	-0.127
-490.508	203.250	-0.106	0.164
-489.493	-7.171	-0.298	0.203
-488.478	119.648	-0.059	-0.073
-487.464	-200.000	-0.041	-0.266
-486.449	-99.607	-0.024	-0.006
-485.435	-200.000	-0.099	0.436
-484.420	603.857	-0.083	0.206
-483.405	193.320	-0.091	0.138
-482.391	-60.966	-0.241	0.102
-481.376	-135.577	0.179	-0.021
-480.362	-14.431	-0.090	-0.058
-479.347	6.113	0.019	-0.014
-478.332	-200.000	-0.017	0.262
-477.318	263.884	-0.040	-0.070
-476.303	255.223	0.051	0.087
-475.289	79.299	0.111	0.120
-474.274	800.000	0.035	-0.101
-473.259	-200.000	-0.018	0.089
-472.245	-20.922	0.196	0.120
-471.230	64.055	-0.128	-0.129
-470.216	-125.911	0.538	0.081
-469.201	-67.744	-0.314	-0.123
-468.186	0.876	0.231	-0.166
-467.172	81.076	-0.209	0.226
-466.157	247.500	-0.081	-0.137
-465.143	-28.174	-0.302	-0.175
-464.128	-166.928	0.267	0.011
-463.113	-62.663	-0.115	0.048
-462.099	800.000	-0.055	0.233
-461.084	-200.000	-0.003	-0.276
-460.070	624.426	0.103	-0.260
-459.055	-85.375	0.163	-0.051
-458.040	-25.868	-0.107	-0.063
-457.026	34.610	-0.226	-0.198
-456.011	26.337	-0.108	0.091
-454.997	72.398	-0.034	-0.035
-453.982	-51.848	0.262	-0.122
-452.968	800.000	0.077	-0.251
-451.953	800.000	0.065	0.282
-450.938	361.918	-0.046	0.092
-449.924	-84.760	-0.181	0.057
-448.909	-23.017	0.070	-0.042
-447.895	456.199	0.119	0.264
-446.880	172.756	0.263	-0.379
-445.865	-137.117	-0.485	-0.055
-444.851	599.731	-0.084	0.209
-443.836	-81.915	0.015	-0.005
-442.822	77.556	0.178	0.190
-441.807	-200.000	0.014	0.147
-440.792	-200.000	-0.028	-0.252
-439.778	120.893	-0.241	0.300
-438.763	94.966	0.062	-0.071
-437.749	-143.361	-0.399	-0.038
-436.734	-42.091	0.301	0.154
-435.719	-200.000	0.018	-0.192
-434.705	145.910	0.238	0.320
-433.690	-129.159	0.172	0.024
-432.676	-41.093	-0.299	0.155
-431.661	-0.790	0.116	-0.082
-430.646	625.363	-0.068	-0.171
-429.632	-159.987	0.233	0.013
-428.617	-89.294	-0.239	-0.070
-427.603	605.751	-0.072	-0.181
-426.588	800.000	0.040	-0.131
-425.573	-200.000	-0.007	-0.138
-424.559	-200.000	0.051	-0.289
-423.544	318.777	-0.094	0.178
-422.530	-25.936	-0.257	0.152
-421.515	-130.565	0.123	-0.017
-420.500	-21.617	-0.211	-0.129
-419.486	220.788	0.129	0.206
-418.471	-200.000	0.061	0.288
-417.457	-68.663	0.076	0.029
-416.442	-124.725	0.180	-0.028
-415.428	-122.616	0.317	0.051
-414.413	27.587	-0.131	0.111
-413.398	163.326	-0.054	0.076
-412.384	603.555	0.022	-0.055
-411.369	769.734	0.129	0.350
-410.355	-30.736	-0.120	0.068
-409.340	14.337	-0.102	-0.080
-408.325	49.127	0.229	-0.215
-407.311	-200.000	0.005	-0.084
-406.296	-200.000	-0.005	0.092
-405.282	7.427	0.145	0.108
-404.267	444.764	-0.115	-0.253
-403.252	-200.000	-0.026	-0.220
-402.238	17.131	-0.272	-0.215
-401.223	-135.206	0.120	0.014
-400.209	29.364	-0.305	0.259
-399.194	800.000	0.087	-0.346
-398.179	-54.576	0.284	-0.128
-397.165	-113.529	0.274	0.054
-396.150	800.000	0.081	-0.258
-395.136	-100.225	-0.268	-0.067
-394.121	800.000	-0.073	0.234
-393.106	800.000	0.037	0.159
-392.092	-40.083	-0.131	0.068
-391.077	6.150	-0.129	0.096
-390.063	-33.502	-0.093	0.052
-389.048	-200.000	-0.031	-0.283
-388.033	258.905	0.022	0.037
-387.019	32.784	-0.150	-0.130
-386.004	584.651	-0.023	-0.056
-384.990	371.402	0.195	-0.394
-383.975	-200.000	-0.038	0.357
-382.960	400.023	0.088	-0.185
-381.946	96.273	0.015	-0.017
-380.931	-29.107	-0.124	-0.071
-379.917	251.611	0.151	0.257
-378.902	-200.000	-0.037	0.360
-377.888	-200.000	0.042	0.353
-376.873	759.758	-0.065	-0.175
-375.858	-74.903	-0.424	0.152
-374.844	81.725	-0.051	-0.056
-373.829	13.138	0.236	0.183
-372.815	-70.594	0.104	-0.039
-371.800	-38.377	0.133	0.070
-370.785	227.150	0.148	0.241
-369.771	29.797	0.025	0.021
-368.756	-74.385	-0.240	-0.087
-367.742	466.828	0.110	-0.245
-366.727	429.727	0.082	0.177
-365.712	-26.546	0.116	-0.068
-364.698	-38.382	0.477	0.252
-363.683	406.308	0.109	-0.229
-362.669	-200.000	0.025	0.242
-361.654	106.118	-0.194	0.230
-360.639	59.291	0.043	0.043
-359.625	-53.881	-0.106	0.048
-358.610	-188.511	-0.107	0.001
-357.596	800.000	0.070	0.195
-356.581	250.927	0.091	-0.155
-355.566	216.009	-0.048	0.076
-354.552	-81.779	0.061	-0.020
-353.537	800.000	0.094	-0.350
-352.523	800.000	-0.080	-0.259
-351.508	-200.000	0.060	0.335
-350.493	41.830	-0.124	0.112
-349.479	199.480	-0.148	0.227
-348.464	800.000	-0.040	-0.134
-347.450	32.712	-0.082	0.070
-346.435	-132.840	-0.221	0.028
-345.420	-5.939	0.215	0.147
-344.406	-66.325	0.282	0.112
-343.391	-16.946	-0.051	-0.032
-342.377	-78.805	0.229	-0.078
-341.362	153.804	-0.143	0.196
-340.348	163.110	0.149	-0.208
-339.333	800.000	0.035	0.102
-338.318	74.416	0.050	-0.052
-337.304	-65.355	-0.014	0.006
-336.289	-45.731	0.260	0.128
-335.275	-135.332	0.207	0.025
-334.260	-19.446	0.122	-0.075
-333.245	-157.985	0.199	-0.012
-332.231	-103.161	-0.468	-0.110
-331.216	-200.000	-0.056	0.354
-330.202	-26.976	-0.055	-0.032
-329.187	235.357	-0.205	0.337
-328.172	297.270	-0.097	-0.177
-327.158	-200.000	0.008	0.167
-326.143	652.626	-0.130	-0.331
-325.129	-96.229	-0.404	-0.107
-324.114	-200.000	0.069	-0.369
-323.099	285.794	-0.163	0.293
-322.085	461.800	-0.128	0.284
-321.070	800.000	-0.055	-0.174
-320.056	-40.573	-0.319	-0.165
-319.041	26.284	-0.142	0.118
-318.026	11.515	0.127	-0.097
-317.012	-43.567	-0.106	-0.053
-315.997	-200.000	0.073	-0.421
-314.983	-18.191	0.260	0.162
-313.968	-122.280	-0.381	0.062
-312.953	152.329	0.127	0.173
-311.939	-153.027	0.262	-0.018
-310.924	-78.369	-0.190	-0.065
-309.910	-57.098	0.138	0.061
-308.895	148.292	0.093	0.124
-307.880	-22.889	-0.176	0.106
-306.866	-200.000	-0.070	0.384
-305.851	-30.185	-0.174	0.098
-304.837	-130.150	0.091	-0.012
-303.822	-43.382	-0.153	0.077
-302.807	800.000	-0.066	0.286
-301.793	-151.608	-0.147	-0.011
-300.778	-18.754	0.133	-0.083
-299.764	575.416	-0.016	-0.039
-298.749	-38.025	-0.261	0.138
-297.735	337.637	-0.191	-0.370
-296.720	-2.846	0.281	-0.196
-295.705	182.268	-0.191	0.281
-294.691	107.656	-0.141	0.167
-293.676	-200.000	0.045	-0.372
-292.662	-157.162	0.250	-0.015
-291.647	24.037	-0.183	0.150
-290.632	42.309	0.128	-0.116
-289.618	365.376	-0.096	-0.192
-288.603	143.698	0.178	-0.236
-287.589	180.404	-0.062	0.090
-286.574	155.485	-0.145	0.199
-285.559	-29.045	0.293	0.167
-284.545	31.284	-0.165	0.141
-283.530	-200.000	0.003	-0.027
-282.516	800.000	0.057	-0.173
-281.501	218.753	-0.161	0.256
-280.486	-51.580	-0.417	-0.194
-279.472	-58.912	0.223	0.096
-278.457	109.514	0.163	-0.194
-277.443	756.186	-0.111	0.300
-276.428	-40.042	0.165	-0.085
-275.413	167.270	0.041	0.057
-274.399	218.431	-0.035	-0.055
-273.384	48.034	0.189	0.176
-272.370	-117.382	0.147	-0.027
-271.355	125.190	-0.119	-0.149
-270.340	-200.000	0.028	0.329
-269.326	309.020	0.188	0.349
-268.311	-69.698	0.071	-0.027
-267.297	-33.981	0.030	0.016
-266.282	-46.616	0.081	0.039
-265.267	279.135	0.041	-0.073
-264.253	-200.000	0.001	0.294
-263.238	800.000	0.026	0.072
-262.224	800.000	0.058	-0.230
-261.209	-25.878	0.218	-0.127
-260.195	185.980	-0.107	0.158
-259.180	-200.000	0.002	0.374
-258.165	800.000	0.029	-0.090
-257.151	101.014	-0.138	0.159
-256.136	-73.338	0.180	0.065
-255.122	7.445	-0.223	-0.166
-254.107	-125.593	0.304	0.046
-253.092	209.471	-0.196	0.306
-252.078	328.184	-0.121	0.231
-251.063	-109.784	0.220	-0.046
-250.049	306.601	-0.270	-0.500
-249.034	-80.933	-0.086	-0.028
-248.019	-6.330	-0.354	0.240
-247.005	800.000	0.065	-0.252
-245.990	742.992	-0.048	-0.129
-244.976	-131.582	0.176	0.023
-243.961	-200.000	0.038	-0.237
-242.946	800.000	-0.107	0.297
-241.932	629.673	0.132	-0.331
-240.917	163.317	-0.102	-0.143
-239.903	22.903	-0.085	-0.069
-238.888	-74.138	-0.072	-0.026
-237.873	-185.279	0.137	0.002
-236.859	-144.292	0.391	-0.036
-235.844	-123.441	0.116	0.018
-234.830	-107.778	0.177	-0.038
-233.815	-88.816	0.217	0.064
-232.800	158.931	-0.160	0.221
-231.786	-130.232	0.199	0.027
-230.771	-200.000	-0.023	0.274
-229.757	45.509	-0.171	-0.157
-228.742	375.151	0.038	0.077
-227.727	-124.820	-0.256	0.039
-226.713	-87.222	0.110	-0.033
-225.698	406.769	-0.099	-0.207
-224.684	-63.577	0.209	0.085
-223.669	-92.519	-0.219	0.061
-222.655	-28.430	-0.109	0.063
-221.640	-188.299	0.175	-0.002
-220.625	-112.327	0.017	-0.003
-219.611	800.000	-0.076	0.209
-218.596	-93.507	0.315	-0.087
-217.582	800.000	-0.072	-0.215
-216.567	68.886	-0.155	-0.158
-215.552	-200.000	0.066	0.367
-214.538	96.580	0.399	0.453
-213.523	-200.000	0.009	0.105
-212.509	-200.000	0.026	0.239
-211.494	-200.000	0.025	0.171
-210.479	-67.369	0.261	0.102
-209.465	203.424	-0.091	-0.140
-208.450	254.737	-0.134	-0.228
-207.436	-51.721	-0.236	-0.109
-206.421	185.766	-0.117	-0.173
-205.406	-200.000	-0.030	-0.350
-204.392	-1.243	0.129	0.091
-203.377	105.660	-0.160	-0.187
-202.363	139.431	-0.296	-0.387
-201.348	-151.576	0.312	0.023
-200.333	-150.993	0.067	0.005
-199.319	-47.312	-0.126	0.061
-198.304	43.488	0.120	-0.109
-197.290	-200.000	0.008	0.057
-196.275	800.000	0.054	0.183
-195.260	800.000	0.035	0.107
-194.246	-85.143	0.190	-0.059
-193.231	-55.805	0.109	-0.048
-192.217	-23.765	-0.131	-0.078
-191.202	217.030	0.240	-0.379
-190.187	-200.000	-0.021	0.163
-189.173	-79.754	-0.273	-0.091
-188.158	-200.000	-0.045	-0.233
-187.144	173.952	0.313	0.448
-186.129	44.861	0.206	-0.188
-185.114	-200.000	0.023	0.109
-184.100	-152.901	0.123	0.009
-183.085	-200.000	-0.078	-0.388
-182.071	800.000	0.040	-0.161
-181.056	-67.368	-0.158	0.062
-180.042	107.375	0.146	0.172
-179.027	-101.595	0.193	0.046
-178.012	-89.158	0.065	-0.019
-176.998	800.000	0.089	-0.300
-175.983	-52.995	0.301	-0.137
-174.969	-200.000	0.036	0.357
-173.954	-129.979	-0.066	0.009
-172.939	800.000	-0.051	0.216
-171.925	-116.840	0.212	-0.039
-170.910	42.141	0.069	-0.062
-169.896	114.009	-0.096	-0.115
-168.881	206.596	0.191	-0.294
-167.866	100.556	0.059	-0.068
-166.852	-17.236	0.046	-0.028
-165.837	282.327	0.114	0.202
-164.823	7.219	-0.264	-0.195
-163.808	381.458	-0.066	0.135
-162.793	-63.903	0.275	0.111
-161.779	202.623	-0.102	-0.156
-160.764	12.452	0.212	0.162
-159.750	279.106	-0.054	-0.095
-158.735	38.314	0.024	0.021
-157.720	-59.059	-0.093	-0.040
-156.706	-99.888	0.160	-0.040
-155.691	67.415	-0.343	0.347
-154.677	800.000	0.087	0.375
-153.662	-96.742	0.153	0.040
-152.647	-29.975	0.132	0.074
-151.633	210.018	-0.127	-0.198
-150.618	800.000	0.071	-0.252
-149.604	61.045	-0.094	0.092
-148.589	-94.302	-0.088	-0.024
-147.574	44.930	-0.164	-0.149
-146.560	10.470	0.423	-0.319
-145.545	-124.118	0.230	0.036
-144.531	-200.000	-0.009	0.134
-143.516	53.547	0.137	-0.130
-142.502	-122.648	0.257	-0.041
-141.487	-21.200	-0.077	0.047
-140.472	-54.990	-0.026	-0.012
-139.458	260.994	0.040	-0.068
-138.443	-200.000	0.009	-0.252
-137.429	-124.453	0.083	0.013
-136.414	315.880	0.076	-0.143
-135.399	-180.610	0.167	0.003
-134.385	-84.291	-0.082	-0.026
-133.370	182.479	-0.024	0.034
-132.356	-30.679	0.248	0.139
-131.341	-136.008	-0.235	-0.027
-130.326	-82.188	-0.257	-0.083
-129.312	-200.000	0.010	0.052
-128.297	-85.479	0.118	0.036
-127.283	-39.313	0.152	0.079
-126.268	18.846	-0.262	-0.208
-125.253	326.211	-0.237	0.449
-124.239	489.145	-0.072	-0.163
-123.224	-177.697	-0.403	-0.010
-122.210	800.000	0.036	-0.108
-121.195	-140.177	0.046	0.005
