DTS Sentinel unit serial number:	SN413079Multiplexer serial number:	ORYXHardware model number:	OX4-SRSoftware version number:	ORYX F/W v4.00 Oryx Data Collector v3.7.2.0data status	okinstallation	princeton_trtdifferential loss correction	single-endedforward channel	channel 4reverse channel	N/Adate	2019/09/19time	01:05:34forward acquisition time	60.00reverse acquisition time	0.00gamma	496.2192k internal	0.2339k external	0.2339temperature offset calibration	1.0028default loss term (dB/km)	0.3790temperature slope calibration	1.0000multiplexer offset coefficient	1.0000multiplexer slope coefficient	1.0000fibre end	0.00T internal ref (°C)	21.87T ext. ref 1 (°C)	0.72T ext. ref 2 (°C)	15.19length (m)	temperature (°C)	Stokes	anti-Stokes-747.200	800.000	0.050	-0.211
-746.185	192.349	-0.033	0.050
-745.171	313.702	-0.121	0.229
-744.156	116.560	0.107	0.131
-743.142	-200.000	-0.005	0.071
-742.127	-96.927	-0.113	-0.030
-741.112	-166.076	-0.110	0.005
-740.098	800.000	0.029	0.099
-739.083	-40.451	-0.225	0.117
-738.069	-200.000	-0.021	0.203
-737.054	747.063	-0.026	0.070
-736.039	-65.134	0.220	0.089
-735.025	-3.812	0.146	0.101
-734.010	-200.000	-0.038	0.271
-732.996	-131.709	0.223	-0.029
-731.981	243.098	-0.179	-0.301
-730.966	518.270	-0.165	-0.386
-729.952	-94.317	0.076	0.021
-728.937	161.826	-0.068	-0.095
-727.923	91.886	-0.134	-0.151
-726.908	-64.032	-0.209	-0.086
-725.894	-34.543	-0.237	-0.130
-724.879	-32.116	0.063	-0.035
-723.864	-30.093	0.250	-0.143
-722.850	22.785	-0.321	0.263
-721.835	-6.754	0.017	0.012
-720.821	-122.513	-0.414	0.067
-719.806	604.471	-0.123	-0.306
-718.791	800.000	-0.020	-0.067
-717.777	158.830	0.246	-0.343
-716.762	800.000	-0.055	-0.233
-715.748	-132.211	0.682	0.089
-714.733	791.576	-0.093	0.257
-713.718	193.458	0.065	-0.099
-712.704	36.870	-0.099	-0.088
-711.689	800.000	-0.101	0.287
-710.675	-200.000	0.003	0.058
-709.660	57.033	0.070	0.069
-708.645	17.136	-0.226	0.180
-707.631	-117.351	0.449	0.082
-706.616	103.430	0.134	-0.157
-705.602	141.758	0.203	-0.269
-704.587	-200.000	-0.017	0.135
-703.572	-107.548	-0.048	-0.011
-702.558	-33.600	-0.460	0.254
-701.543	-115.639	-0.112	0.021
-700.529	161.112	-0.102	-0.143
-699.514	59.898	0.283	0.280
-698.499	514.103	-0.054	-0.127
-697.485	-200.000	0.022	-0.134
-696.470	-200.000	-0.032	-0.437
-695.456	519.557	-0.129	-0.302
-694.441	-200.000	-0.020	0.329
-693.426	-27.108	0.215	-0.125
-692.412	-20.630	0.242	-0.149
-691.397	-31.352	-0.219	0.123
-690.383	-175.994	-0.197	-0.005
-689.368	800.000	-0.040	0.147
-688.354	-200.000	-0.004	-0.022
-687.339	55.467	0.014	-0.013
-686.324	-46.926	0.260	0.127
-685.310	-102.952	0.053	0.013
-684.295	388.103	-0.219	-0.453
-683.281	-90.631	0.212	-0.061
-682.266	-121.675	-0.414	0.069
-681.251	262.171	0.047	0.081
-680.237	44.437	-0.107	-0.098
-679.222	-52.340	-0.072	-0.033
-678.208	-129.074	0.273	0.038
-677.193	-82.459	-0.186	-0.060
-676.178	262.444	-0.067	-0.116
-675.164	800.000	-0.062	-0.217
-674.149	447.244	-0.058	-0.127
-673.135	100.054	-0.065	-0.075
-672.120	365.042	-0.047	0.095
-671.105	-22.465	0.198	-0.120
-670.091	-121.200	0.025	-0.004
-669.076	-200.000	-0.019	-0.293
-668.062	-111.355	0.462	-0.094
-667.047	357.846	-0.131	-0.261
-666.032	197.751	0.073	-0.112
-665.018	347.475	0.096	0.189
-664.003	405.429	-0.099	0.208
-662.989	800.000	0.064	-0.278
-661.974	-86.726	-0.335	0.102
-660.959	184.565	-0.170	0.252
-659.945	-200.000	0.046	0.251
-658.930	-96.155	-0.238	0.063
-657.916	800.000	0.071	0.225
-656.901	800.000	0.091	-0.385
-655.886	-132.039	-0.432	-0.056
-654.872	72.157	-0.080	-0.083
-653.857	-147.795	0.373	-0.031
-652.843	30.693	-0.126	-0.108
-651.828	424.468	-0.192	-0.414
-650.814	-200.000	0.001	-0.424
-649.799	8.762	-0.168	0.126
-648.784	54.131	0.265	0.255
-647.770	177.620	0.066	0.097
-646.755	800.000	0.054	-0.161
-645.741	-200.000	0.010	0.311
-644.726	-162.788	-0.141	-0.007
-643.711	-78.614	0.075	0.026
-642.697	375.099	0.089	-0.180
-641.682	-24.664	0.135	0.080
-640.668	-75.894	-0.092	-0.033
-639.653	-200.000	-0.012	-0.204
-638.638	-55.071	0.189	-0.085
-637.624	-200.000	0.010	-0.066
-636.609	-200.000	0.022	0.288
-635.595	-200.000	0.281	-0.001
-634.580	-200.000	-0.010	-0.321
-633.565	134.661	0.162	0.210
-632.551	-111.441	-0.142	-0.029
-631.536	-24.308	-0.105	-0.062
-630.522	622.054	-0.070	0.175
-629.507	-21.623	0.078	-0.047
-628.492	266.602	0.158	0.275
-627.478	178.977	-0.066	0.096
-626.463	258.317	0.083	0.143
-625.449	-200.000	0.017	-0.206
-624.434	336.040	-0.233	-0.452
-623.419	319.485	0.134	0.254
-622.405	266.740	0.130	-0.226
-621.390	304.850	-0.044	0.082
-620.376	800.000	0.108	-0.408
-619.361	351.630	0.086	-0.171
-618.346	-65.746	-0.143	0.057
-617.332	-200.000	-0.070	0.356
-616.317	116.086	0.132	0.161
-615.303	131.666	0.068	-0.088
-614.288	-200.000	0.011	-0.240
-613.273	-200.000	0.043	-0.260
-612.259	-200.000	0.014	-0.102
-611.244	-200.000	0.049	0.393
-610.230	174.439	-0.208	-0.301
-609.215	39.263	0.158	-0.141
-608.201	800.000	-0.111	0.376
-607.186	-84.400	-0.209	0.066
-606.171	319.728	0.163	-0.308
-605.157	-47.205	0.092	0.045
-604.142	-49.409	0.111	-0.053
-603.128	537.598	0.112	-0.266
-602.113	-111.468	0.187	0.038
-601.098	800.000	-0.034	0.124
-600.084	11.866	-0.151	-0.116
-599.069	9.214	0.211	0.159
-598.055	48.222	0.286	0.267
-597.040	-121.175	-0.138	0.023
-596.025	107.242	-0.054	-0.064
-595.011	-200.000	-0.006	-0.138
-593.996	113.413	-0.033	0.040
-592.982	-200.000	-0.014	-0.164
-591.967	-118.471	0.059	0.010
-590.952	26.605	-0.081	0.067
-589.938	-118.847	-0.513	-0.090
-588.923	-60.936	-0.182	-0.077
-587.909	-152.047	0.111	0.008
-586.894	164.652	0.066	0.093
-585.879	-38.632	-0.264	0.139
-584.865	43.222	0.327	-0.298
-583.850	-91.224	0.164	0.047
-582.836	96.813	-0.105	0.120
-581.821	147.696	-0.104	0.140
-580.806	55.313	-0.224	-0.216
-579.792	-31.945	-0.106	0.059
-578.777	137.742	0.067	0.087
-577.763	788.781	-0.047	-0.128
-576.748	27.116	0.102	-0.085
-575.733	96.718	0.071	-0.081
-574.719	87.687	-0.110	-0.121
-573.704	49.801	0.237	0.223
-572.690	-49.026	-0.117	0.056
-571.675	800.000	-0.035	0.115
-570.661	294.199	0.112	-0.204
-569.646	214.295	0.179	-0.282
-568.631	-200.000	0.011	-0.166
-567.617	-18.667	0.053	0.033
-566.602	800.000	0.042	0.145
-565.588	-102.908	0.267	-0.063
-564.573	344.857	-0.095	0.185
-563.558	-36.715	-0.294	0.157
-562.544	88.591	0.062	-0.069
-561.529	-71.488	0.136	-0.051
-560.515	-76.280	-0.133	-0.047
-559.500	-74.261	-0.278	-0.100
-558.485	-18.352	-0.332	0.206
-557.471	-200.000	0.004	0.230
-556.456	219.451	0.046	0.073
-555.442	-85.571	0.052	-0.016
-554.427	-79.114	-0.167	0.057
-553.412	67.539	0.168	0.171
-552.398	19.445	0.067	0.054
-551.383	361.811	0.060	-0.121
-550.369	-182.273	-0.245	0.005
-549.354	-14.802	-0.304	0.194
-548.339	-135.247	0.077	0.009
-547.325	102.914	-0.012	0.014
-546.310	-14.784	-0.179	-0.114
-545.296	-200.000	0.052	-0.326
-544.281	157.269	-0.103	0.141
-543.266	158.805	0.119	-0.165
-542.252	800.000	0.075	-0.319
-541.237	239.961	0.167	-0.276
-540.223	-89.457	0.169	-0.050
-539.208	131.815	0.256	0.327
-538.193	-116.113	0.241	-0.045
-537.179	-200.000	-0.036	-0.231
-536.164	34.426	-0.183	-0.159
-535.150	51.186	-0.124	-0.117
-534.135	168.727	0.173	0.245
-533.121	60.678	-0.010	-0.010
-532.106	-47.335	-0.235	-0.114
-531.091	16.492	0.169	-0.133
-530.077	73.927	-0.065	0.068
-529.062	-200.000	0.001	-0.090
-528.048	-200.000	0.011	-0.084
-527.033	74.950	-0.031	0.032
-526.018	800.000	0.050	0.187
-525.004	410.589	-0.131	0.276
-523.989	-130.211	-0.202	-0.027
-522.975	55.259	-0.066	-0.063
-521.960	77.227	-0.241	0.255
-520.945	-166.050	-0.184	-0.008
-519.931	292.685	0.036	0.065
-518.916	-125.409	-0.310	0.047
-517.902	662.118	0.151	-0.388
-516.887	800.000	-0.099	-0.353
-515.872	524.240	-0.020	0.048
-514.858	32.929	-0.249	-0.214
-513.843	-132.244	0.258	0.033
-512.829	800.000	0.055	-0.171
-511.814	-144.058	0.152	-0.014
-510.799	800.000	-0.062	0.174
-509.785	53.537	-0.339	-0.323
-508.770	-27.621	0.168	-0.097
-507.756	7.097	-0.265	0.197
-506.741	-200.000	0.006	0.148
-505.726	-200.000	-0.050	-0.218
-504.712	179.552	0.074	0.107
-503.697	73.257	-0.277	-0.288
-502.683	-168.577	-0.049	0.002
-501.668	92.273	-0.118	0.132
-500.653	-24.287	0.117	0.069
-499.639	-161.265	-0.505	0.026
-498.624	230.477	-0.105	-0.171
-497.610	-70.934	-0.068	-0.026
-496.595	217.966	0.125	-0.198
-495.581	-136.023	-0.127	-0.015
-494.566	424.586	-0.124	0.266
-493.551	90.199	0.126	-0.140
-492.537	-166.095	0.336	-0.014
-491.522	-144.257	0.233	0.022
-490.508	-166.750	0.139	-0.006
-489.493	275.395	0.018	-0.031
-488.478	-5.858	-0.168	-0.114
-487.464	-32.040	-0.029	-0.016
-486.449	800.000	0.074	-0.250
-485.435	68.876	-0.178	-0.181
-484.420	519.233	0.088	0.206
-483.405	-200.000	0.014	-0.139
-482.391	-200.000	0.033	0.303
-481.376	196.485	0.072	0.109
-480.362	-200.000	-0.031	0.155
-479.347	99.354	-0.222	0.255
-478.332	766.029	-0.046	-0.123
-477.318	41.382	0.127	-0.114
-476.303	-200.000	0.005	0.029
-475.289	196.905	0.310	-0.470
-474.274	1.271	-0.170	0.121
-473.259	41.054	-0.262	-0.235
-472.245	800.000	-0.073	-0.253
-471.230	800.000	0.047	0.131
-470.216	56.548	-0.184	-0.178
-469.201	43.356	0.259	-0.235
-468.186	-169.999	-0.232	0.008
-467.172	-158.978	0.072	-0.004
-466.157	-86.219	0.204	-0.062
-465.143	-67.778	0.126	0.049
-464.128	57.371	0.067	0.065
-463.113	10.924	-0.295	0.224
-462.099	800.000	0.056	0.166
-461.084	203.272	-0.152	-0.233
-460.070	-200.000	-0.030	0.301
-459.055	-200.000	-0.053	0.264
-458.040	-200.000	0.021	-0.239
-457.026	-47.330	0.176	-0.085
-456.011	-34.881	0.452	0.245
-454.997	43.339	0.101	-0.092
-453.982	12.263	0.326	-0.249
-452.968	-164.919	-0.306	0.014
-451.953	-57.048	0.191	-0.083
-450.938	-171.443	0.383	-0.013
-449.924	-200.000	-0.000	0.174
-448.909	-40.161	-0.219	0.113
-447.895	187.216	0.155	0.228
-446.880	-200.000	0.013	0.091
-445.865	105.901	0.072	0.084
-444.851	-64.573	0.277	-0.112
-443.836	-135.995	-0.303	-0.035
-442.822	135.566	-0.148	0.191
-441.807	-200.000	-0.004	0.128
-440.792	-15.126	0.192	-0.122
-439.778	-42.489	0.215	0.109
-438.763	69.010	-0.160	0.163
-437.749	29.062	0.096	0.081
-436.734	-200.000	-0.007	-0.038
-435.719	3.574	0.096	0.070
-434.705	800.000	0.138	0.383
-433.690	-200.000	0.005	0.237
-432.676	-200.000	0.062	0.420
-431.661	800.000	0.036	-0.136
-430.646	41.671	-0.194	0.174
-429.632	-80.095	0.114	-0.038
-428.617	25.567	-0.241	-0.199
-427.603	-72.757	0.237	-0.086
-426.588	-200.000	0.003	0.080
-425.573	85.110	-0.269	0.292
-424.559	800.000	0.047	-0.168
-423.544	-63.216	-0.316	0.129
-422.530	262.809	-0.101	0.173
-421.515	162.699	0.097	-0.135
-420.500	144.577	0.222	0.294
-419.486	69.177	0.264	0.269
-418.471	-150.900	-0.132	0.010
-417.457	-200.000	-0.032	0.292
-416.442	-200.000	0.029	0.203
-415.428	266.207	-0.154	0.267
-414.413	-80.506	-0.336	-0.111
-413.398	-106.907	0.133	-0.029
-412.384	74.059	-0.076	0.079
-411.369	266.273	0.069	0.119
-410.355	332.837	0.201	0.385
-409.340	-70.850	0.078	0.029
-408.325	69.979	-0.012	-0.013
-407.311	-129.227	-0.204	0.028
-406.296	30.221	-0.168	0.142
-405.282	-137.056	-0.629	-0.071
-404.267	202.786	0.242	0.370
-403.252	-63.669	0.150	0.061
-402.238	800.000	-0.092	-0.344
-401.223	333.742	-0.088	-0.168
-400.209	323.372	0.152	0.287
-399.194	21.098	-0.133	-0.107
-398.179	-89.029	-0.335	-0.098
-397.165	-200.000	0.010	0.300
-396.150	46.696	0.212	0.195
-395.136	-65.226	0.311	-0.124
-394.121	-173.319	-0.273	-0.008
-393.106	-50.044	-0.367	0.172
-392.092	44.334	0.176	0.160
-391.077	63.860	-0.235	-0.234
-390.063	800.000	-0.103	0.395
-389.048	-24.632	0.237	-0.140
-388.033	5.996	0.145	0.106
-387.019	187.110	0.080	-0.117
-386.004	158.795	-0.069	-0.095
-384.990	301.339	-0.046	-0.084
-383.975	-87.994	0.108	-0.032
-382.960	92.760	0.247	-0.275
-381.946	215.718	-0.214	0.336
-380.931	94.980	0.181	0.204
-379.917	725.618	-0.065	-0.171
-378.902	11.747	-0.079	-0.060
-377.888	-101.414	0.237	0.057
-376.873	202.230	0.231	-0.353
-375.858	194.070	-0.219	-0.328
-374.844	800.000	-0.029	-0.114
-373.829	-146.497	-0.135	-0.012
-372.815	159.774	-0.027	-0.037
-371.800	-200.000	0.027	-0.143
-370.785	64.600	0.095	0.094
-369.771	249.794	-0.144	-0.241
-368.756	64.375	0.203	-0.202
-367.742	800.000	-0.040	-0.160
-366.727	214.364	0.026	-0.041
-365.712	64.800	0.122	-0.121
-364.698	-74.886	-0.293	-0.104
-363.683	-20.903	0.208	-0.126
-362.669	-52.020	-0.250	0.115
-361.654	3.459	0.084	-0.061
-360.639	-200.000	0.023	0.196
-359.625	-200.000	0.275	0.000
-358.610	215.461	0.064	-0.100
-357.596	82.184	0.313	-0.336
-356.581	172.921	-0.092	0.131
-355.566	-3.520	0.149	0.102
-354.552	169.200	0.133	-0.188
-353.537	275.118	0.192	0.336
-352.523	800.000	0.188	0.515
-351.508	-90.457	-0.132	-0.038
-350.493	-79.078	-0.270	0.091
-349.479	800.000	-0.019	0.057
-348.464	62.209	0.111	-0.110
-347.450	800.000	0.051	-0.162
-346.435	-162.138	-0.041	-0.002
-345.420	-200.000	-0.038	-0.367
-344.406	-200.000	0.005	0.126
-343.391	461.758	0.028	0.061
-342.377	800.000	0.139	0.380
-341.362	4.378	-0.230	0.166
-340.348	-77.999	-0.059	-0.020
-339.333	-63.361	-0.377	-0.153
-338.318	240.554	0.040	0.065
-337.304	253.800	0.106	-0.179
-336.289	-106.119	-0.164	-0.036
-335.275	216.268	0.147	0.231
-334.260	36.022	0.284	-0.247
-333.245	-65.903	0.045	-0.018
-332.231	-117.856	0.125	0.022
-331.216	-200.000	0.004	-0.128
-330.202	-115.983	0.129	-0.024
-329.187	-31.104	-0.018	-0.010
-328.172	-34.858	-0.311	-0.168
-327.158	-95.073	0.110	-0.029
-326.143	134.193	0.082	0.105
-325.129	-58.812	-0.233	0.099
-324.114	-200.000	-0.009	-0.098
-323.099	34.446	-0.381	-0.328
-322.085	71.665	-0.181	0.185
-321.070	-200.000	0.068	0.375
-320.056	416.696	-0.202	0.426
-319.041	-200.000	0.014	0.369
-318.026	74.866	0.146	-0.151
-317.012	-200.000	-0.000	0.075
-315.997	-144.687	-0.135	-0.012
-314.983	15.873	-0.261	-0.202
-313.968	-116.469	-0.118	0.022
-312.953	12.059	0.363	0.275
-311.939	-200.000	0.036	0.188
-310.924	-143.771	-0.253	-0.024
-309.910	800.000	0.066	-0.233
-308.895	-200.000	-0.073	0.480
-307.880	-200.000	0.023	0.181
-306.866	-102.306	-0.192	-0.046
-305.851	-71.217	0.153	0.057
-304.837	-72.811	-0.301	-0.109
-303.822	-148.610	0.176	-0.014
-302.807	-122.585	-0.486	-0.078
-301.793	574.807	0.078	-0.188
-300.778	-173.606	-0.053	0.002
-299.764	-21.593	0.023	-0.014
-298.749	-55.451	-0.136	0.060
-297.735	-84.035	-0.195	0.061
-296.720	452.424	0.077	0.167
-295.705	185.319	0.111	-0.163
-294.691	800.000	0.127	0.433
-293.676	296.389	-0.110	0.198
-292.662	-200.000	0.027	-0.342
-291.647	800.000	-0.085	-0.367
-290.632	-29.042	0.065	0.037
-289.618	120.536	0.037	0.045
-288.603	22.713	0.017	-0.014
-287.589	88.619	0.064	0.070
-286.574	-92.130	-0.162	0.045
-285.559	-200.000	0.012	0.235
-284.545	-200.000	-0.043	-0.188
-283.530	-74.710	0.120	-0.042
-282.516	17.731	-0.323	-0.253
-281.501	610.835	-0.100	0.247
-280.486	185.269	0.099	-0.145
-279.472	-54.964	-0.184	-0.082
-278.457	-38.418	0.074	-0.039
-277.443	800.000	-0.058	0.226
-276.428	-0.020	0.366	0.257
-275.413	242.155	0.066	-0.108
-274.399	67.470	-0.112	0.113
-273.384	800.000	0.089	0.290
-272.370	-31.865	0.148	-0.081
-271.355	63.704	-0.043	0.042
-270.340	-61.059	-0.444	0.184
-269.326	-95.641	0.369	0.097
-268.311	-200.000	0.034	-0.467
-267.297	359.630	0.103	-0.203
-266.282	-27.725	0.405	0.231
-265.267	-200.000	-0.018	-0.180
-264.253	-200.000	0.002	-0.120
-263.238	-184.891	-0.186	-0.003
-262.224	47.758	0.133	0.122
-261.209	99.767	0.197	-0.225
-260.195	337.676	0.030	0.057
-259.180	-200.000	-0.009	-0.645
-258.165	491.742	-0.082	0.186
-257.151	438.402	0.098	0.211
-256.136	800.000	-0.083	-0.299
-255.122	-80.669	0.185	0.061
-254.107	17.578	0.253	0.198
-253.092	-93.337	-0.182	0.050
-252.078	162.676	0.078	-0.108
-251.063	323.566	-0.099	0.185
-250.049	-131.842	0.097	-0.013
-249.034	800.000	-0.081	0.256
-248.019	-5.517	-0.040	0.027
-247.005	-115.318	-0.146	-0.027
-245.990	-120.653	-0.085	0.014
-244.976	-200.000	-0.009	-0.099
-243.961	-155.145	0.359	0.023
-242.946	-16.414	-0.178	-0.111
-241.932	528.630	0.036	-0.084
-240.917	-200.000	0.000	0.132
-239.903	177.467	0.130	-0.186
-238.888	-125.371	0.329	0.049
-237.873	800.000	0.112	0.400
-236.859	30.306	-0.183	0.154
-235.844	-79.030	0.174	-0.058
-234.830	146.103	-0.170	-0.224
-233.815	-147.481	0.219	0.018
-232.800	231.461	0.050	-0.080
-231.786	-103.552	0.255	0.059
-230.771	-200.000	0.057	0.326
-229.757	-14.811	-0.079	-0.050
-228.742	800.000	-0.076	-0.306
-227.727	800.000	0.111	-0.325
-226.713	-70.320	-0.144	0.054
-225.698	145.947	0.022	-0.029
-224.684	388.337	0.037	0.075
-223.669	-47.585	0.128	0.061
-222.655	24.037	0.171	0.139
-221.640	261.826	-0.173	-0.294
-220.625	48.453	-0.030	-0.027
-219.611	-152.294	0.475	-0.034
-218.596	348.492	0.234	-0.453
-217.582	-158.011	-0.040	0.002
-216.567	800.000	0.144	-0.401
-215.552	-200.000	0.013	-0.402
-214.538	75.711	0.136	0.141
-213.523	28.946	0.139	-0.115
-212.509	-106.708	-0.285	0.062
-211.494	-153.273	0.187	0.013
-210.479	9.090	-0.135	-0.100
-209.465	649.475	-0.031	-0.078
-208.450	213.683	-0.151	-0.235
-207.436	-168.979	0.260	-0.010
-206.421	-200.000	-0.014	-0.434
-205.406	127.932	0.239	-0.298
-204.392	36.371	-0.168	0.146
-203.377	22.724	-0.014	0.011
-202.363	-200.000	-0.036	-0.213
-201.348	137.819	-0.259	-0.333
-200.333	-58.411	-0.116	0.050
-199.319	441.105	0.120	-0.257
-198.304	51.783	-0.210	-0.196
-197.290	226.447	-0.285	0.454
-196.275	-70.856	-0.397	-0.147
-195.260	-107.634	0.028	0.006
-194.246	561.766	-0.018	-0.043
-193.231	-200.000	-0.050	0.507
-192.217	-70.873	0.211	-0.078
-191.202	1.016	-0.361	-0.254
-190.187	800.000	0.052	0.174
-189.173	-126.051	0.265	-0.039
-188.158	25.431	-0.391	0.319
-187.144	800.000	-0.090	0.293
-186.129	96.173	0.351	0.394
-185.114	181.741	0.198	0.286
-184.100	77.791	-0.132	0.139
-183.085	70.380	0.103	-0.105
-182.071	78.327	-0.093	-0.097
-181.056	-200.000	0.025	0.202
-180.042	18.467	0.204	0.160
-179.027	-200.000	-0.021	0.109
-178.012	-71.449	0.190	-0.070
-176.998	-104.444	-0.166	0.038
-175.983	225.847	-0.142	-0.225
-174.969	-200.000	-0.018	0.101
-173.954	48.321	0.221	0.203
-172.939	-200.000	-0.001	-0.196
-171.925	-200.000	0.035	-0.164
-170.910	245.168	-0.109	0.181
-169.896	-153.059	-0.151	0.010
-168.881	-200.000	0.005	-0.096
-167.866	-27.749	-0.205	0.116
-166.852	315.683	0.094	0.174
-165.837	-54.350	0.259	0.115
-164.823	800.000	-0.034	-0.124
-163.808	150.047	-0.173	0.230
-162.793	-175.310	-0.317	0.009
-161.779	-92.698	-0.198	-0.054
-160.764	-200.000	-0.063	-0.347
-159.750	60.335	-0.225	0.218
-158.735	81.070	0.111	-0.118
-157.720	237.812	-0.059	0.095
-156.706	2.596	0.172	-0.122
-155.691	-80.160	0.251	0.082
-154.677	177.069	0.366	-0.523
-153.662	49.548	0.098	-0.090
-152.647	-200.000	-0.005	0.136
-151.633	42.382	-0.321	-0.286
-150.618	14.421	0.221	-0.169
-149.604	-200.000	-0.027	-0.155
-148.589	-86.463	-0.151	0.045
-147.574	-79.418	-0.290	-0.096
-146.560	75.056	0.281	-0.290
-145.545	36.400	-0.223	-0.192
-144.531	-60.164	-0.331	0.138
-143.516	-60.249	0.361	-0.151
-142.502	-200.000	0.012	-0.171
-141.487	-144.240	-0.448	0.041
-140.472	-110.713	0.164	0.033
-139.458	705.368	0.012	0.030
-138.443	367.961	-0.025	0.050
-137.429	75.498	0.256	0.265
-136.414	-74.283	-0.405	0.143
-135.399	12.930	-0.034	-0.025
-134.385	101.231	0.099	-0.113
-133.370	-58.213	0.164	0.070
-132.356	128.470	0.197	0.245
-131.341	-138.269	-0.372	-0.040
-130.326	27.869	0.224	-0.185
-129.312	-111.440	0.139	-0.028
-128.297	-139.671	0.277	0.029
-127.283	178.487	-0.243	0.347
-126.268	4.222	0.186	0.134
-125.253	800.000	-0.037	0.117
-124.239	103.982	-0.121	-0.139
-123.224	80.828	0.067	-0.070
-122.210	-200.000	-0.021	0.111
-121.195	-200.000	0.005	0.131
-120.180	207.746	-0.078	-0.119
