DTS Sentinel unit serial number:	SN413079Multiplexer serial number:	ORYXHardware model number:	OX4-SRSoftware version number:	ORYX F/W v4.00 Oryx Data Collector v3.7.2.0data status	okinstallation	princeton_trtdifferential loss correction	single-endedforward channel	channel 4reverse channel	N/Adate	2019/09/16time	05:53:35forward acquisition time	60.00reverse acquisition time	0.00gamma	496.2192k internal	0.2320k external	0.2320temperature offset calibration	0.9981default loss term (dB/km)	0.3790temperature slope calibration	1.0000multiplexer offset coefficient	1.0000multiplexer slope coefficient	1.0000fibre end	0.00T internal ref (°C)	27.37T ext. ref 1 (°C)	11.23T ext. ref 2 (°C)	22.22length (m)	temperature (°C)	Stokes	anti-Stokes-747.200	-80.107	-0.103	0.035
-746.185	800.000	0.085	0.340
-745.171	-22.332	-0.080	-0.049
-744.156	125.954	-0.395	0.505
-743.142	259.418	0.026	0.046
-742.127	73.857	-0.154	0.163
-741.112	186.769	0.219	-0.329
-740.098	-200.000	-0.014	-0.100
-739.083	695.465	0.105	-0.278
-738.069	-57.007	-0.088	-0.039
-737.054	-104.342	0.240	0.056
-736.039	-200.000	0.001	-0.096
-735.025	800.000	-0.008	-0.029
-734.010	89.445	0.227	-0.256
-732.996	-200.000	-0.013	0.071
-731.981	-129.515	-0.105	0.015
-730.966	784.955	0.077	0.214
-729.952	239.099	0.137	-0.231
-728.937	-200.000	-0.035	-0.322
-727.923	-23.897	-0.289	-0.175
-726.908	-138.466	-0.214	0.024
-725.894	-166.018	-0.229	-0.010
-724.879	-200.000	-0.010	0.215
-723.864	33.801	-0.235	0.207
-722.850	35.346	-0.359	0.318
-721.835	109.050	-0.125	-0.151
-720.821	-200.000	0.048	-0.230
-719.806	203.042	-0.134	-0.209
-718.791	-162.456	-0.338	0.017
-717.777	-26.037	-0.168	0.100
-716.762	109.098	-0.138	-0.167
-715.748	-127.249	0.228	0.034
-714.733	-200.000	-0.000	-0.051
-713.718	-38.000	-0.119	-0.064
-712.704	331.902	-0.075	-0.146
-711.689	-77.960	-0.147	0.051
-710.675	-56.117	-0.225	-0.101
-709.660	19.534	-0.243	0.198
-708.645	800.000	0.201	-0.688
-707.631	-200.000	-0.066	-0.396
-706.616	-200.000	0.019	0.202
-705.602	-9.717	0.124	0.084
-704.587	145.938	0.232	-0.315
-703.572	-171.312	0.152	-0.005
-702.558	-103.488	-0.366	-0.087
-701.543	-200.000	-0.009	-0.189
-700.529	72.582	-0.165	-0.174
-699.514	800.000	-0.068	-0.241
-698.499	-200.000	0.008	-0.147
-697.485	-98.663	0.281	-0.072
-696.470	-0.391	-0.247	0.177
-695.456	-200.000	0.049	-0.264
-694.441	-112.069	-0.277	-0.056
-693.426	-54.458	0.366	0.168
-692.412	800.000	0.066	0.243
-691.397	-90.851	-0.019	-0.006
-690.383	279.721	-0.086	0.155
-689.368	533.704	0.051	-0.122
-688.354	3.919	-0.200	-0.148
-687.339	800.000	0.058	-0.228
-686.324	13.610	-0.223	-0.175
-685.310	-116.592	-0.319	0.059
-684.295	495.946	-0.109	0.252
-683.281	800.000	0.089	-0.300
-682.266	-24.161	-0.082	0.050
-681.251	800.000	-0.042	0.136
-680.237	-93.908	-0.348	-0.097
-679.222	40.806	0.133	0.121
-678.208	-193.290	-0.116	0.001
-677.193	800.000	-0.054	0.169
-676.178	-18.775	-0.166	0.104
-675.164	201.141	0.084	-0.130
-674.149	-200.000	-0.009	-0.206
-673.135	-58.492	0.074	-0.032
-672.120	800.000	0.100	0.303
-671.105	438.427	0.062	-0.137
-670.091	-67.476	-0.059	-0.023
-669.076	-76.739	0.255	-0.090
-668.062	-94.278	0.165	-0.045
-667.047	181.885	-0.161	0.239
-666.032	-71.773	-0.189	-0.071
-665.018	9.443	0.202	-0.154
-664.003	103.794	0.264	-0.312
-662.989	108.765	-0.273	-0.329
-661.974	429.715	0.091	0.198
-660.959	22.244	0.123	-0.101
-659.945	-59.572	-0.052	0.022
-658.930	-200.000	-0.015	0.128
-657.916	800.000	-0.031	-0.131
-656.901	258.959	0.017	0.029
-655.886	-77.338	-0.260	-0.091
-654.872	90.603	-0.084	-0.095
-653.857	800.000	0.049	-0.197
-652.843	800.000	-0.036	-0.123
-651.828	-200.000	-0.019	-0.160
-650.814	667.347	-0.049	0.128
-649.799	578.919	0.146	-0.360
-648.784	-50.142	0.120	-0.057
-647.770	-150.890	0.255	-0.019
-646.755	123.858	0.096	-0.122
-645.741	-62.733	-0.081	-0.034
-644.726	114.069	0.024	0.029
-643.711	-70.990	-0.342	0.130
-642.697	440.661	-0.054	-0.118
-641.682	214.882	0.131	0.210
-640.668	-36.546	-0.329	0.178
-639.653	194.256	-0.130	-0.199
-638.638	-200.000	-0.012	-0.223
-637.624	-107.390	-0.471	0.104
-636.609	800.000	0.124	0.458
-635.595	800.000	-0.049	-0.158
-634.580	-52.439	0.225	0.105
-633.565	-200.000	-0.029	0.262
-632.551	-62.334	0.276	-0.116
-631.536	-142.449	-0.247	-0.024
-630.522	324.279	0.085	0.164
-629.507	-148.133	0.397	-0.033
-628.492	452.362	-0.056	0.126
-627.478	50.755	-0.088	-0.084
-626.463	-200.000	-0.024	0.150
-625.449	202.847	0.175	0.272
-624.434	210.391	0.036	-0.057
-623.419	-28.989	-0.075	0.043
-622.405	209.710	0.155	-0.244
-621.390	-142.042	-0.287	0.029
-620.376	230.152	-0.170	-0.279
-619.361	-79.673	-0.144	-0.049
-618.346	800.000	0.068	-0.216
-617.332	233.241	-0.105	0.173
-616.317	-26.769	0.132	-0.078
-615.303	-157.637	-0.094	-0.006
-614.288	70.347	-0.198	-0.205
-613.273	-200.000	-0.026	0.248
-612.259	629.266	-0.156	0.397
-611.244	-200.000	0.023	-0.346
-610.230	-174.222	0.042	0.001
-609.215	-107.759	-0.251	-0.055
-608.201	30.250	0.200	-0.172
-607.186	-163.719	-0.495	-0.023
-606.171	-89.106	-0.452	-0.135
-605.157	-84.323	-0.287	0.091
-604.142	99.039	0.110	-0.128
-603.128	-200.000	-0.001	-0.019
-602.113	53.274	0.105	-0.101
-601.098	-200.000	-0.008	-0.123
-600.084	328.454	-0.050	0.096
-599.069	28.069	0.184	-0.156
-598.055	-78.123	0.159	-0.055
-597.040	-95.823	0.295	0.079
-596.025	330.255	0.044	-0.085
-595.011	-119.885	-0.325	-0.056
-593.996	512.689	0.063	0.148
-592.982	800.000	0.009	-0.033
-591.967	800.000	-0.054	0.172
-590.952	98.125	-0.058	-0.067
-589.938	-185.650	0.150	0.002
-588.923	-11.390	-0.117	0.078
-587.909	468.675	-0.045	0.102
-586.894	-33.972	-0.117	0.065
-585.879	98.918	-0.242	-0.281
-584.865	-159.325	-0.139	0.008
-583.850	-200.000	-0.017	-0.206
-582.836	-200.000	-0.013	-0.174
-581.821	752.700	-0.129	0.349
-580.806	261.002	-0.167	0.291
-579.792	-172.444	0.068	-0.002
-578.777	-109.198	-0.208	-0.044
-577.763	-200.000	0.009	-0.226
-576.748	-192.605	-0.081	-0.001
-575.733	446.053	-0.093	0.204
-574.719	-48.140	-0.079	-0.038
-573.704	-97.237	0.173	0.045
-572.690	-70.905	-0.253	0.096
-571.675	510.420	-0.144	0.335
-570.661	-200.000	-0.017	0.319
-569.646	-44.058	0.233	0.118
-568.631	-67.250	0.232	-0.092
-567.617	15.549	-0.140	0.110
-566.602	97.695	-0.325	0.375
-565.588	800.000	-0.098	-0.403
-564.573	242.037	-0.040	0.067
-563.558	36.502	-0.352	-0.312
-562.544	-114.098	0.133	0.026
-561.529	19.293	-0.074	-0.060
-560.515	149.703	0.071	-0.097
-559.500	48.160	0.061	0.057
-558.485	-71.690	-0.420	-0.157
-557.471	-23.521	-0.062	-0.037
-556.456	28.440	0.201	0.171
-555.442	-107.593	0.306	-0.067
-554.427	-131.282	-0.430	0.057
-553.412	-75.936	-0.230	0.082
-552.398	-200.000	-0.037	0.259
-551.383	-65.989	0.200	0.080
-550.369	-200.000	0.035	0.498
-549.354	96.275	0.131	-0.150
-548.339	-65.078	0.331	0.134
-547.325	-109.501	0.119	0.025
-546.310	-86.162	0.147	-0.046
-545.296	-200.000	0.005	0.153
-544.281	-83.157	0.252	-0.081
-543.266	-200.000	0.024	-0.114
-542.252	-98.630	-0.153	0.039
-541.237	-200.000	0.017	0.145
-540.223	33.708	-0.289	-0.252
-539.208	800.000	0.077	-0.260
-538.193	738.761	-0.128	0.346
-537.179	29.007	-0.035	0.030
-536.164	-14.993	-0.212	-0.136
-535.150	-170.055	0.044	-0.002
-534.135	-79.825	0.031	0.011
-533.121	-200.000	0.034	-0.292
-532.106	-7.715	-0.119	-0.080
-531.091	71.504	-0.100	-0.104
-530.077	157.741	-0.123	-0.170
-529.062	-155.169	0.350	-0.023
-528.048	-112.608	0.444	0.089
-527.033	-34.398	-0.070	0.038
-526.018	-77.057	0.099	-0.035
-525.004	-6.542	-0.282	-0.192
-523.989	385.882	0.100	-0.207
-522.975	-69.793	-0.237	-0.091
-521.960	160.028	-0.112	0.157
-520.945	800.000	-0.009	0.033
-519.931	-113.886	-0.271	-0.053
-518.916	-150.618	0.445	-0.034
-517.902	-64.590	0.223	0.091
-516.887	-69.664	-0.276	0.106
-515.872	69.652	-0.073	0.075
-514.858	-200.000	-0.001	0.093
-513.843	13.245	-0.182	0.141
-512.829	800.000	0.051	0.192
-511.814	-93.988	0.243	0.067
-510.799	-98.342	0.257	0.066
-509.785	-74.762	0.098	-0.035
-508.770	183.969	0.249	0.369
-507.756	-200.000	0.039	0.326
-506.741	267.335	-0.102	-0.179
-505.726	800.000	-0.091	0.368
-504.712	-182.263	0.129	0.002
-503.697	-50.642	0.183	0.087
-502.683	-200.000	0.037	-0.170
-501.668	-82.687	0.122	0.040
-500.653	800.000	-0.034	0.138
-499.639	800.000	-0.061	-0.263
-498.624	43.099	-0.331	0.303
-497.610	-200.000	-0.007	0.078
-496.595	-128.778	0.216	-0.030
-495.581	14.661	-0.241	-0.188
-494.566	36.265	-0.246	0.217
-493.551	104.327	0.079	0.094
-492.537	267.233	0.151	-0.265
-491.522	-200.000	0.019	0.173
-490.508	800.000	-0.037	0.155
-489.493	30.051	0.353	0.301
-488.478	-19.219	-0.234	-0.145
-487.464	2.207	-0.183	0.132
-486.449	257.483	0.053	-0.091
-485.435	-94.307	0.415	0.114
-484.420	773.069	0.205	0.559
-483.405	60.370	0.081	-0.080
-482.391	-25.293	-0.048	0.029
-481.376	232.811	-0.114	-0.187
-480.362	268.331	0.116	-0.204
-479.347	334.636	-0.185	-0.358
-478.332	-200.000	-0.041	-0.309
-477.318	0.370	-0.380	-0.272
-476.303	249.294	0.042	-0.071
-475.289	-200.000	0.010	-0.093
-474.274	139.590	0.182	0.240
-473.259	-102.054	-0.216	0.052
-472.245	-80.948	0.101	0.034
-471.230	10.595	-0.095	-0.072
-470.216	-49.960	0.227	0.108
-469.201	-131.664	0.240	-0.032
-468.186	40.577	0.069	0.062
-467.172	78.604	-0.039	0.041
-466.157	223.930	0.041	-0.067
-465.143	-200.000	-0.046	-0.225
-464.128	-32.349	0.182	0.102
-463.113	-200.000	-0.060	-0.337
-462.099	565.300	0.137	-0.332
-461.084	255.297	0.145	-0.248
-460.070	285.201	0.135	-0.243
-459.055	142.328	-0.135	-0.180
-458.040	-200.000	-0.038	0.300
-457.026	147.847	-0.251	-0.338
-456.011	263.317	0.093	0.162
-454.997	-200.000	0.019	-0.369
-453.982	-38.811	0.003	-0.001
-452.968	-200.000	0.055	-0.407
-451.953	72.727	-0.281	0.294
-450.938	10.201	0.180	0.137
-449.924	-145.659	0.454	-0.041
-448.909	272.814	0.241	-0.426
-447.895	175.763	0.153	-0.222
-446.880	148.141	0.149	-0.201
-445.865	24.899	-0.088	0.073
-444.851	-132.155	0.174	0.023
-443.836	-13.349	-0.508	-0.329
-442.822	-46.682	0.081	0.039
-441.807	90.720	-0.129	0.145
-440.792	-86.094	0.155	-0.048
-439.778	26.348	0.141	0.118
-438.763	785.653	0.082	-0.226
-437.749	-90.886	-0.169	0.049
-436.734	-15.128	-0.351	-0.225
-435.719	-112.962	-0.155	0.031
-434.705	266.082	0.055	0.095
-433.690	-33.540	-0.056	0.031
-432.676	800.000	-0.062	-0.232
-431.661	50.464	0.126	0.119
-430.646	37.430	-0.025	0.022
-429.632	86.099	-0.091	-0.100
-428.617	-33.591	-0.066	0.036
-427.603	800.000	0.066	0.255
-426.588	-123.178	0.359	-0.058
-425.573	-51.514	-0.224	-0.104
-424.559	435.942	-0.054	0.117
-423.544	45.063	-0.139	-0.128
-422.530	800.000	0.120	-0.449
-421.515	-200.000	-0.028	-0.195
-420.500	800.000	0.070	-0.207
-419.486	119.575	-0.121	-0.150
-418.471	-101.465	-0.421	-0.102
-417.457	-200.000	0.006	0.029
-416.442	-186.517	0.063	-0.001
-415.428	108.657	-0.216	-0.258
-414.413	-114.732	-0.191	0.036
-413.398	-200.000	-0.022	0.231
-412.384	81.364	0.094	-0.101
-411.369	100.354	0.130	0.151
-410.355	-87.842	-0.141	-0.042
-409.340	-14.667	0.187	-0.120
-408.325	-163.177	-0.157	0.008
-407.311	-18.081	0.152	-0.095
-406.296	26.814	0.164	0.137
-405.282	484.463	-0.015	0.034
-404.267	267.516	-0.136	-0.238
-403.252	-136.128	0.055	0.006
-402.238	800.000	-0.058	-0.192
-401.223	-89.023	0.121	-0.036
-400.209	45.543	0.063	0.058
-399.194	103.127	0.257	0.301
-398.179	-200.000	0.024	0.159
-397.165	44.925	-0.057	0.052
-396.150	-40.319	-0.343	-0.178
-395.136	-102.725	0.186	-0.044
-394.121	53.601	-0.250	0.239
-393.106	800.000	-0.078	0.246
-392.092	-67.621	0.236	0.092
-391.077	-143.484	0.142	0.014
-390.063	800.000	-0.109	0.430
-389.048	158.311	0.227	0.314
-388.033	2.158	0.106	-0.076
-387.019	111.223	0.176	0.211
-386.004	24.374	0.097	0.080
-384.990	-124.207	-0.518	-0.081
-383.975	-177.474	0.431	-0.011
-382.960	201.594	0.185	0.284
-381.946	361.577	-0.126	-0.253
-380.931	-200.000	-0.026	-0.347
-379.917	-45.764	0.125	0.062
-378.902	647.264	0.106	-0.269
-377.888	-200.000	0.024	-0.144
-376.873	428.013	0.022	-0.048
-375.858	272.144	0.187	0.329
-374.844	14.081	0.100	-0.077
-373.829	-38.536	0.157	-0.083
-372.815	-58.748	0.047	-0.020
-371.800	-135.745	-0.255	0.030
-370.785	-200.000	-0.004	0.149
-369.771	-76.297	0.078	-0.027
-368.756	137.497	-0.217	-0.283
-367.742	-110.390	0.115	-0.024
-366.727	-200.000	0.066	0.307
-365.712	-35.735	0.331	0.179
-364.698	-37.381	-0.133	-0.071
-363.683	-96.625	-0.172	-0.045
-362.669	127.795	0.053	0.067
-361.654	-183.653	-0.305	-0.005
-360.639	-26.271	0.155	0.090
-359.625	-200.000	0.016	0.362
-358.610	-83.969	0.420	-0.133
-357.596	17.117	0.280	0.221
-356.581	-200.000	0.010	-0.060
-355.566	-152.738	-0.013	-0.001
-354.552	-200.000	-0.036	0.234
-353.537	-200.000	0.015	0.304
-352.523	800.000	0.032	0.118
-351.508	52.033	0.241	0.228
-350.493	160.550	0.064	0.089
-349.479	-200.000	0.011	-0.349
-348.464	-4.025	0.176	-0.122
-347.450	163.670	-0.072	0.102
-346.435	-179.186	-0.232	-0.005
-345.420	-28.400	0.313	0.180
-344.406	65.682	-0.087	-0.088
-343.391	-200.000	0.001	-0.298
-342.377	238.484	-0.214	0.353
-341.362	-166.846	-0.184	0.008
-340.348	248.768	-0.112	-0.188
-339.333	-77.270	0.158	0.055
-338.318	-200.000	0.047	0.273
-337.304	38.727	0.093	-0.083
-336.289	549.640	0.062	-0.148
-335.275	187.442	0.292	-0.433
-334.260	-1.259	-0.155	-0.109
-333.245	-62.426	0.039	-0.016
-332.231	124.294	0.106	0.133
-331.216	275.357	0.216	0.380
-330.202	49.529	0.115	0.108
-329.187	-200.000	-0.013	-0.155
-328.172	800.000	-0.084	0.266
-327.158	709.711	0.047	0.123
-326.143	-44.780	-0.121	0.060
-325.129	-118.917	-0.092	-0.016
-324.114	125.234	-0.129	-0.162
-323.099	136.007	-0.024	0.031
-322.085	-200.000	0.015	-0.380
-321.070	-200.000	-0.009	-0.190
-320.056	378.992	0.101	-0.206
-319.041	564.320	-0.118	0.284
-318.026	800.000	-0.017	-0.068
-317.012	-0.481	0.051	0.036
-315.997	-43.836	-0.248	0.124
-314.983	200.638	-0.013	0.021
-313.968	190.650	0.111	-0.165
-312.953	41.026	-0.133	-0.120
-311.939	-152.461	-0.275	0.020
-310.924	152.410	0.112	0.152
-309.910	171.330	0.117	0.167
-308.895	-30.533	-0.184	0.104
-307.880	-28.899	0.150	0.086
-306.866	88.929	-0.142	0.157
-305.851	800.000	-0.005	0.014
-304.837	10.060	0.411	0.310
-303.822	800.000	-0.036	0.127
-302.807	53.117	-0.085	-0.081
-301.793	53.116	-0.342	0.325
-300.778	-16.946	0.257	0.161
-299.764	-162.868	0.047	0.002
-298.749	104.920	0.089	-0.104
-297.735	-113.289	0.199	-0.039
-296.720	800.000	0.049	-0.155
-295.705	-110.331	0.191	-0.039
-294.691	38.574	0.278	0.246
-293.676	179.403	0.167	-0.243
-292.662	36.936	-0.325	-0.286
-291.647	-38.872	-0.201	0.105
-290.632	-200.000	0.052	0.400
-289.618	124.403	-0.108	-0.134
-288.603	-125.395	0.173	0.026
-287.589	60.631	0.171	0.168
-286.574	-121.786	-0.269	-0.044
-285.559	-111.651	-0.383	-0.077
-284.545	-125.065	0.055	-0.008
-283.530	29.437	-0.130	0.110
-282.516	800.000	-0.084	0.266
-281.501	-47.644	0.213	0.103
-280.486	-61.150	-0.239	-0.100
-279.472	58.823	-0.223	-0.217
-278.457	116.966	-0.017	-0.021
-277.443	-169.617	0.208	-0.008
-276.428	-56.943	0.152	-0.066
-275.413	800.000	0.130	0.396
-274.399	800.000	-0.044	0.146
-273.384	172.324	0.103	-0.147
-272.370	-183.923	0.258	-0.004
-271.355	-59.482	-0.388	-0.166
-270.340	800.000	-0.098	-0.269
-269.326	-35.299	-0.177	-0.096
-268.311	-50.541	0.254	0.119
-267.297	-114.961	-0.035	-0.007
-266.282	141.019	0.184	0.242
-265.267	-153.927	0.082	-0.006
-264.253	-68.301	0.212	0.082
-263.238	-200.000	0.023	-0.174
-262.224	-200.000	0.024	-0.179
-261.209	-200.000	-0.016	-0.178
-260.195	-21.071	0.122	-0.074
-259.180	-169.218	-0.269	-0.010
-258.165	-4.792	0.063	0.043
-257.151	800.000	0.057	0.225
-256.136	130.611	0.063	-0.080
-255.122	-34.283	-0.048	-0.026
-254.107	-102.903	0.105	0.025
-253.092	-200.000	0.019	0.254
-252.078	-60.921	0.196	0.082
-251.063	96.799	-0.196	-0.223
-250.049	-92.305	-0.180	-0.050
-249.034	-200.000	0.027	0.300
-248.019	-96.822	-0.308	0.080
-247.005	480.451	0.087	-0.195
-245.990	-200.000	0.071	-0.416
-244.976	7.396	-0.193	-0.143
-243.961	-161.460	0.163	-0.008
-242.946	-24.027	0.173	0.103
-241.932	277.926	-0.113	-0.200
-240.917	460.668	0.075	-0.166
-239.903	-138.730	0.313	0.034
-238.888	-81.072	-0.261	0.086
-237.873	64.681	-0.110	0.110
-236.859	-75.169	-0.156	-0.055
-235.844	-169.624	0.350	0.013
-234.830	68.905	0.202	0.206
-233.815	59.551	-0.282	-0.276
-232.800	84.026	0.265	0.287
-231.786	800.000	-0.101	-0.344
-230.771	800.000	0.130	-0.396
-229.757	-200.000	0.019	0.235
-228.742	112.065	-0.043	-0.051
-227.727	-200.000	-0.037	-0.391
-226.713	-200.000	-0.046	-0.302
-225.698	-51.139	0.193	0.090
-224.684	382.609	-0.123	0.251
-223.669	91.090	-0.217	0.242
-222.655	130.792	-0.127	0.161
-221.640	-89.012	0.087	0.025
-220.625	469.874	-0.135	-0.301
-219.611	-9.699	0.106	-0.070
-218.596	-28.890	-0.212	0.121
-217.582	-85.781	0.130	-0.040
-216.567	-200.000	0.096	-0.457
-215.552	96.373	0.184	0.209
-214.538	85.858	0.217	0.236
-213.523	62.731	0.064	-0.064
-212.509	-200.000	0.004	0.058
-211.494	10.532	-0.140	0.106
-210.479	-77.838	-0.160	0.055
-209.465	85.421	-0.070	-0.076
-208.450	-21.986	-0.164	0.099
-207.436	77.914	-0.093	0.098
-206.421	-70.090	0.117	0.044
-205.406	800.000	0.055	0.194
-204.392	-200.000	0.030	-0.322
-203.377	-17.543	-0.242	-0.151
-202.363	642.457	-0.125	-0.315
-201.348	25.837	0.152	-0.125
-200.333	153.741	0.134	0.182
-199.319	-200.000	0.038	0.169
-198.304	-200.000	0.006	-0.237
-197.290	88.211	-0.191	-0.210
-196.275	238.590	-0.115	-0.190
-195.260	171.720	-0.132	0.188
-194.246	-200.000	-0.007	0.192
-193.231	-200.000	-0.044	0.210
-192.217	124.486	0.148	0.184
-191.202	-147.577	0.355	0.030
-190.187	-95.775	-0.230	-0.061
-189.173	13.259	0.091	0.070
-188.158	-200.000	-0.023	0.121
-187.144	248.558	0.122	-0.205
-186.129	-33.689	-0.208	0.114
-185.114	101.630	-0.065	-0.075
-184.100	-200.000	-0.032	0.286
-183.085	538.396	-0.073	0.171
-182.071	-130.057	-0.240	-0.032
-181.056	-200.000	-0.074	-0.330
-180.042	-101.281	0.157	-0.038
-179.027	-200.000	0.000	0.146
-178.012	142.287	-0.068	-0.090
-176.998	-200.000	0.002	-0.126
-175.983	-200.000	0.107	0.467
-174.969	-200.000	0.015	0.185
-173.954	-200.000	0.032	-0.193
-172.939	-200.000	-0.003	0.120
-171.925	61.350	0.018	0.018
-170.910	-60.422	0.104	-0.044
-169.896	-200.000	0.002	0.218
-168.881	-57.982	-0.060	-0.026
-167.866	-103.533	0.245	-0.057
-166.852	36.971	-0.069	-0.061
-165.837	19.058	-0.150	0.119
-164.823	6.724	-0.153	0.112
-163.808	101.779	0.147	-0.170
-162.793	-200.000	-0.041	-0.236
-161.779	249.333	-0.120	-0.202
-160.764	-71.184	0.258	0.096
-159.750	-200.000	-0.062	-0.361
-158.735	202.350	0.106	0.162
-157.720	-117.947	-0.106	-0.019
-156.706	127.068	0.086	0.108
-155.691	35.581	0.109	-0.094
-154.677	31.206	0.182	0.154
-153.662	450.839	0.042	0.092
-152.647	-114.102	-0.126	-0.024
-151.633	0.780	-0.256	-0.181
-150.618	-79.012	0.330	-0.111
-149.604	-16.517	-0.131	-0.082
-148.589	-74.732	0.146	-0.052
-147.574	-0.291	0.223	0.156
-146.560	244.304	0.073	0.122
-145.545	-165.925	-0.321	-0.014
-144.531	249.664	0.053	-0.089
-143.516	800.000	0.057	0.170
-142.502	800.000	0.030	0.097
-141.487	129.689	-0.360	-0.455
-140.472	15.087	-0.214	0.165
-139.458	800.000	-0.044	-0.123
-138.443	-200.000	-0.032	-0.340
-137.429	-51.724	0.203	-0.093
-136.414	794.202	-0.042	0.114
-135.399	134.570	-0.085	-0.109
-134.385	-80.300	0.045	-0.015
-133.370	800.000	-0.092	0.395
-132.356	-77.064	0.121	-0.042
-131.341	33.974	-0.185	-0.159
-130.326	169.336	0.107	-0.150
-129.312	208.001	-0.134	-0.206
-128.297	490.261	-0.167	-0.378
-127.283	-142.238	0.415	-0.041
-126.268	24.586	0.315	0.258
-125.253	800.000	-0.092	-0.301
-124.239	79.760	-0.240	-0.254
-123.224	89.808	0.075	0.083
-122.210	-200.000	0.025	0.212
-121.195	-19.283	0.187	-0.114
