DTS Sentinel unit serial number:	SN413079Multiplexer serial number:	ORYXHardware model number:	OX4-SRSoftware version number:	ORYX F/W v4.00 Oryx Data Collector v3.7.2.0data status	okinstallation	princeton_trtdifferential loss correction	single-endedforward channel	channel 4reverse channel	N/Adate	2019/09/16time	09:45:35forward acquisition time	60.00reverse acquisition time	0.00gamma	496.2192k internal	0.2305k external	0.2305temperature offset calibration	0.9965default loss term (dB/km)	0.3790temperature slope calibration	1.0000multiplexer offset coefficient	1.0000multiplexer slope coefficient	1.0000fibre end	0.00T internal ref (°C)	32.62T ext. ref 1 (°C)	12.30T ext. ref 2 (°C)	30.66length (m)	temperature (°C)	Stokes	anti-Stokes-747.200	57.189	-0.149	0.148
-746.185	-51.406	-0.223	0.106
-745.171	-200.000	0.033	0.303
-744.156	150.584	-0.087	0.121
-743.142	-23.602	0.272	0.166
-742.127	-200.000	0.022	0.282
-741.112	-134.474	0.218	0.027
-740.098	800.000	0.057	0.251
-739.083	800.000	0.119	-0.387
-738.069	800.000	-0.012	0.049
-737.054	-45.055	-0.133	0.067
-736.039	172.691	-0.140	0.205
-735.025	-200.000	-0.014	0.140
-734.010	295.780	-0.094	-0.174
-732.996	20.918	-0.139	-0.115
-731.981	-111.996	-0.386	0.079
-730.966	-59.296	-0.055	0.024
-729.952	-200.000	-0.010	-0.174
-728.937	223.771	-0.024	0.039
-727.923	-60.517	0.241	-0.104
-726.908	800.000	-0.025	-0.098
-725.894	-134.711	0.242	-0.030
-724.879	54.613	-0.193	-0.190
-723.864	67.786	0.046	-0.048
-722.850	-200.000	0.040	0.283
-721.835	-94.916	-0.135	-0.037
-720.821	352.361	-0.215	-0.433
-719.806	800.000	0.064	0.230
-718.791	800.000	-0.037	0.110
-717.777	191.518	-0.084	-0.128
-716.762	709.189	-0.037	0.099
-715.748	-200.000	-0.006	-0.227
-714.733	1.385	-0.069	0.050
-713.718	-30.015	-0.089	0.052
-712.704	800.000	-0.039	-0.160
-711.689	-16.251	0.261	-0.168
-710.675	-200.000	-0.018	0.172
-709.660	268.979	0.042	-0.075
-708.645	41.141	-0.071	-0.066
-707.631	313.842	0.078	0.149
-706.616	-81.219	-0.331	0.111
-705.602	-124.253	-0.229	0.036
-704.587	-108.418	0.109	0.024
-703.572	136.837	0.060	0.080
-702.558	800.000	-0.020	-0.062
-701.543	-87.548	-0.025	0.008
-700.529	66.356	0.111	0.115
-699.514	-200.000	-0.001	-0.081
-698.499	212.603	-0.148	-0.237
-697.485	-41.638	0.129	-0.067
-696.470	-63.467	-0.324	-0.135
-695.456	105.089	-0.072	-0.086
-694.441	800.000	-0.048	0.176
-693.426	138.933	0.208	-0.278
-692.412	-200.000	-0.003	0.119
-691.397	-149.088	0.202	-0.016
-690.383	91.412	-0.135	-0.155
-689.368	133.101	-0.117	0.154
-688.354	-180.056	0.270	0.006
-687.339	800.000	0.010	-0.042
-686.324	73.710	-0.088	0.094
-685.310	-86.158	-0.328	0.103
-684.295	139.408	-0.162	0.216
-683.281	-54.403	0.207	0.095
-682.266	143.365	-0.081	-0.110
-681.251	-140.871	0.135	-0.014
-680.237	-179.820	-0.171	0.004
-679.222	800.000	0.065	0.217
-678.208	800.000	0.100	0.327
-677.193	-117.260	-0.139	0.026
-676.178	-35.366	-0.185	0.102
-675.164	-3.954	-0.340	0.239
-674.149	445.723	0.082	-0.182
-673.135	36.198	0.224	0.200
-672.120	-70.344	-0.442	-0.170
-671.105	148.264	-0.134	0.184
-670.091	2.950	-0.049	-0.036
-669.076	0.505	0.187	-0.135
-668.062	-85.263	-0.310	0.098
-667.047	-136.987	-0.197	-0.023
-666.032	494.463	0.068	-0.158
-665.018	214.927	-0.051	0.082
-664.003	51.753	0.099	-0.096
-662.989	45.594	-0.093	0.087
-661.974	-200.000	-0.007	-0.074
-660.959	-59.029	0.337	-0.148
-659.945	-200.000	-0.007	0.195
-658.930	-34.016	0.114	0.064
-657.916	800.000	0.009	-0.038
-656.901	70.202	-0.148	-0.155
-655.886	800.000	-0.069	0.213
-654.872	-71.149	-0.369	0.141
-653.857	77.702	0.043	0.046
-652.843	-171.922	0.377	-0.012
-651.828	93.678	-0.033	-0.038
-650.814	107.584	-0.196	0.237
-649.799	-135.948	0.253	-0.030
-648.784	-91.154	-0.319	-0.093
-647.770	88.509	0.220	0.248
-646.755	-149.705	0.048	0.004
-645.741	-46.404	0.087	-0.043
-644.726	-64.094	0.315	-0.130
-643.711	-21.356	0.444	0.275
-642.697	5.852	0.151	-0.113
-641.682	-134.166	-0.214	0.027
-640.668	-59.252	-0.225	0.098
-639.653	-145.847	-0.051	0.005
-638.638	-115.855	-0.127	0.024
-637.624	-200.000	-0.031	0.233
-636.609	-122.207	-0.182	-0.030
-635.595	-200.000	0.042	0.241
-634.580	800.000	0.061	-0.194
-633.565	-172.913	-0.367	-0.012
-632.551	677.283	0.090	0.237
-631.536	-153.137	-0.200	-0.014
-630.522	8.753	0.096	0.073
-629.507	55.402	0.166	0.163
-628.492	-23.457	0.201	-0.122
-627.478	-200.000	0.010	0.190
-626.463	209.851	0.108	0.171
-625.449	-1.872	-0.115	-0.082
-624.434	-103.371	-0.227	-0.054
-623.419	-42.249	-0.218	-0.113
-622.405	800.000	0.038	-0.163
-621.390	-200.000	0.031	-0.141
-620.376	-200.000	0.032	0.384
-619.361	-200.000	0.007	-0.103
-618.346	27.708	-0.056	0.048
-617.332	-194.225	0.273	0.002
-616.317	-200.000	0.025	-0.204
-615.303	113.865	-0.083	-0.102
-614.288	60.435	-0.037	0.037
-613.273	-105.295	-0.061	0.014
-612.259	73.495	0.161	-0.171
-611.244	7.506	-0.232	-0.175
-610.230	-200.000	-0.092	-0.494
-609.215	-76.577	-0.214	0.076
-608.201	207.366	0.021	0.033
-607.186	-147.687	-0.150	0.013
-606.171	-95.249	-0.186	-0.051
-605.157	-85.461	-0.172	0.054
-604.142	202.075	0.105	0.163
-603.128	-120.577	-0.216	0.037
-602.113	-11.492	0.108	0.072
-601.098	243.260	-0.137	-0.233
-600.084	-122.900	-0.399	-0.065
-599.069	-143.197	0.297	0.029
-598.055	-64.758	0.260	0.107
-597.040	264.007	0.092	0.161
-596.025	539.910	-0.119	-0.286
-595.011	82.585	0.172	-0.189
-593.996	344.793	-0.194	-0.386
-592.982	-18.924	0.075	-0.047
-591.967	-143.210	-0.133	0.013
-590.952	-137.788	-0.083	0.009
-589.938	-25.881	0.141	0.084
-588.923	-144.468	-0.133	-0.012
-587.909	96.427	-0.045	-0.052
-586.894	-200.000	0.011	0.088
-585.879	101.141	-0.247	0.291
-584.865	16.284	0.373	-0.297
-583.850	-200.000	0.027	0.691
-582.836	688.455	-0.081	-0.215
-581.821	-158.117	-0.295	-0.017
-580.806	-155.411	-0.526	0.034
-579.792	800.000	0.083	-0.251
-578.777	60.126	0.093	-0.093
-577.763	-65.753	-0.104	0.042
-576.748	-200.000	-0.009	0.352
-575.733	-61.286	-0.211	-0.090
-574.719	108.144	0.093	0.112
-573.704	11.621	-0.066	0.051
-572.690	-131.670	0.191	0.025
-571.675	-180.858	0.131	0.003
-570.661	-4.581	0.045	-0.031
-569.646	-128.284	-0.149	0.022
-568.631	144.705	-0.209	0.283
-567.617	240.210	-0.056	-0.095
-566.602	-200.000	0.018	-0.151
-565.588	800.000	-0.024	0.093
-564.573	-120.707	-0.154	0.026
-563.558	462.059	0.088	0.199
-562.544	-169.183	-0.308	-0.012
-561.529	82.426	-0.087	0.095
-560.515	-200.000	-0.031	-0.332
-559.500	134.772	0.209	-0.274
-558.485	-95.234	0.181	-0.049
-557.471	134.927	-0.117	0.154
-556.456	-13.309	0.088	0.058
-555.442	-157.297	0.044	0.003
-554.427	688.443	0.100	0.265
-553.412	800.000	-0.041	0.176
-552.398	-200.000	-0.015	0.364
-551.383	-137.623	-0.288	0.033
-550.369	-38.313	-0.304	-0.163
-549.354	73.352	0.139	-0.147
-548.339	-200.000	0.079	-0.474
-547.325	-200.000	-0.001	0.086
-546.310	-26.274	-0.301	-0.179
-545.296	800.000	-0.114	-0.390
-544.281	423.205	0.120	-0.261
-543.266	-200.000	-0.042	-0.364
-542.252	-134.697	0.134	0.016
-541.237	380.406	0.069	-0.142
-540.223	205.351	-0.099	0.155
-539.208	136.911	0.142	-0.187
-538.193	-115.085	-0.213	0.041
-537.179	82.222	0.124	-0.136
-536.164	86.461	0.106	-0.118
-535.150	-3.779	-0.200	-0.140
-534.135	2.930	-0.268	-0.197
-533.121	128.598	-0.131	0.168
-532.106	-36.612	-0.171	-0.093
-531.091	88.672	-0.168	0.189
-530.077	314.655	-0.220	-0.419
-529.062	-111.903	0.220	-0.045
-528.048	-200.000	0.008	-0.052
-527.033	18.484	-0.209	-0.169
-526.018	-80.510	-0.165	0.056
-525.004	388.347	-0.108	0.225
-523.989	-95.765	0.330	-0.089
-522.975	338.138	0.090	-0.178
-521.960	358.520	0.085	-0.171
-520.945	472.725	-0.095	-0.215
-519.931	8.158	-0.448	-0.340
-518.916	-17.454	-0.186	0.118
-517.902	-103.982	-0.178	-0.042
-516.887	-200.000	0.016	0.219
-515.872	-107.042	-0.385	0.086
-514.858	521.816	0.134	-0.318
-513.843	170.318	0.066	-0.096
-512.829	-127.128	0.112	0.016
-511.814	-99.081	-0.218	-0.056
-510.799	-44.211	-0.157	-0.079
-509.785	360.465	-0.023	0.047
-508.770	-153.072	-0.193	0.014
-507.756	-152.601	-0.145	0.010
-506.741	35.878	0.198	0.175
-505.726	11.195	-0.083	-0.064
-504.712	800.000	0.038	0.137
-503.697	91.863	0.027	0.030
-502.683	76.998	-0.217	0.232
-501.668	-64.898	-0.153	-0.062
-500.653	215.844	0.152	-0.243
-499.639	149.727	0.327	-0.447
-498.624	-57.080	-0.105	-0.047
-497.610	-24.881	0.230	0.138
-496.595	-200.000	0.010	-0.087
-495.581	800.000	-0.091	-0.320
-494.566	628.306	0.027	-0.068
-493.551	800.000	-0.007	-0.029
-492.537	520.294	-0.118	-0.279
-491.522	-200.000	0.018	0.116
-490.508	-44.458	-0.236	0.119
-489.493	-161.273	-0.192	-0.010
-488.478	-52.191	0.256	0.120
-487.464	-179.531	0.102	0.002
-486.449	-123.436	-0.089	0.014
-485.435	55.028	-0.118	-0.115
-484.420	-166.708	-0.118	0.005
-483.405	-121.594	-0.175	0.029
-482.391	-200.000	-0.005	-0.046
-481.376	-200.000	-0.360	-0.001
-480.362	36.736	-0.057	0.051
-479.347	94.726	0.040	-0.045
-478.332	800.000	-0.098	-0.411
-477.318	235.416	0.201	-0.335
-476.303	156.453	-0.218	-0.304
-475.289	15.851	-0.183	0.145
-474.274	218.834	-0.124	-0.200
-473.259	-200.000	0.022	0.184
-472.245	-96.070	-0.360	-0.096
-471.230	32.561	0.075	0.066
-470.216	152.510	0.182	-0.250
-469.201	-200.000	0.097	-0.480
-468.186	-126.371	-0.231	-0.035
-467.172	36.533	0.165	0.147
-466.157	-138.141	0.486	0.054
-465.143	800.000	0.095	-0.333
-464.128	-25.011	-0.226	-0.135
-463.113	-74.400	0.234	-0.085
-462.099	-93.550	-0.122	-0.034
-461.084	23.079	0.232	0.192
-460.070	447.184	0.036	0.079
-459.055	12.710	0.233	0.181
-458.040	137.633	0.417	-0.549
-457.026	119.932	-0.104	0.129
-456.011	-61.467	0.193	0.082
-454.997	-66.801	-0.294	0.117
-453.982	-200.000	0.042	0.423
-452.968	-200.000	-0.035	-0.169
-451.953	-68.721	-0.248	-0.097
-450.938	-55.619	-0.110	0.050
-449.924	-16.279	-0.304	-0.194
-448.909	84.989	-0.111	-0.122
-447.895	318.285	-0.084	-0.161
-446.880	800.000	-0.025	0.110
-445.865	111.224	-0.221	0.268
-444.851	-200.000	-0.022	-0.236
-443.836	-141.006	-0.194	-0.020
-442.822	106.601	0.077	-0.092
-441.807	-92.153	0.157	-0.045
-440.792	-200.000	-0.012	0.169
-439.778	112.126	-0.099	-0.120
-438.763	-72.350	-0.324	0.121
-437.749	69.877	0.101	-0.105
-436.734	-137.344	0.275	0.031
-435.719	293.459	-0.236	-0.434
-434.705	800.000	0.045	-0.181
-433.690	568.788	-0.112	-0.273
-432.676	-54.218	0.207	0.095
-431.661	800.000	0.010	-0.033
-430.646	-200.000	-0.027	0.308
-429.632	-200.000	-0.023	0.132
-428.617	-200.000	0.030	0.274
-427.603	279.243	0.089	0.160
-426.588	122.322	-0.143	0.180
-425.573	-200.000	0.009	-0.051
-424.559	474.113	-0.071	0.161
-423.544	-37.519	0.364	-0.195
-422.530	138.273	-0.236	-0.311
-421.515	-107.305	0.337	0.074
-420.500	-153.835	-0.043	-0.003
-419.486	-99.537	0.100	-0.025
-418.471	-175.483	0.378	-0.010
-417.457	23.767	-0.213	0.177
-416.442	-109.170	-0.341	0.073
-415.428	-200.000	-0.038	0.190
-414.413	-88.799	0.496	-0.148
-413.398	-200.000	-0.058	-0.258
-412.384	34.658	0.251	-0.220
-411.369	-200.000	-0.046	-0.208
-410.355	51.955	-0.120	0.114
-409.340	599.133	-0.067	0.168
-408.325	24.756	0.260	0.216
-407.311	-155.155	-0.472	0.031
-406.296	19.241	0.162	0.131
-405.282	-171.999	0.119	0.004
-404.267	-161.404	-0.183	-0.009
-403.252	-52.676	-0.149	0.069
-402.238	800.000	0.042	-0.124
-401.223	788.646	-0.036	0.100
-400.209	161.253	-0.135	-0.190
-399.194	-99.368	-0.244	0.062
-398.179	11.159	-0.134	0.103
-397.165	-73.872	0.144	-0.052
-396.150	-79.532	-0.114	-0.039
-395.136	305.927	-0.039	-0.073
-394.121	-71.271	0.247	0.093
-393.106	235.433	0.092	0.153
-392.092	34.122	-0.205	0.180
-391.077	726.708	0.107	0.287
-390.063	-138.545	0.343	0.038
-389.048	-123.119	0.335	0.054
-388.033	345.794	-0.087	0.172
-387.019	142.360	0.058	0.078
-386.004	132.098	-0.082	0.106
-384.990	10.821	0.166	0.127
-383.975	-200.000	0.012	0.088
-382.960	-119.146	0.311	-0.055
-381.946	-151.351	-0.216	-0.016
-380.931	800.000	0.101	0.383
-379.917	494.080	-0.102	0.235
-378.902	-25.018	0.202	-0.120
-377.888	224.187	0.188	-0.305
-376.873	-200.000	-0.011	0.094
-375.858	-53.855	-0.160	0.073
-374.844	-51.217	-0.085	0.040
-373.829	169.124	0.151	0.216
-372.815	51.703	-0.150	0.143
-371.800	-7.399	-0.282	-0.192
-370.785	-200.000	0.015	-0.155
-369.771	327.499	0.180	-0.346
-368.756	800.000	0.074	0.268
-367.742	-92.066	0.202	-0.057
-366.727	800.000	0.060	0.205
-365.712	-145.638	0.089	-0.008
-364.698	-55.239	0.293	-0.132
-363.683	764.691	0.011	0.030
-362.669	190.355	-0.210	0.316
-361.654	-164.391	0.221	0.010
-360.639	55.419	-0.138	-0.134
-359.625	-96.812	-0.512	0.135
-358.610	-200.000	0.012	-0.241
-357.596	562.489	0.089	0.215
-356.581	-14.528	-0.079	0.051
-355.566	-29.645	0.283	0.162
-354.552	33.455	-0.135	0.117
-353.537	-200.000	0.007	0.289
-352.523	-109.994	0.103	-0.022
-351.508	12.135	0.256	-0.197
-350.493	-110.359	0.281	-0.058
-349.479	52.918	0.166	-0.159
-348.464	-18.707	0.138	0.086
-347.450	800.000	-0.156	0.671
-346.435	5.348	-0.083	0.061
-345.420	800.000	0.049	0.169
-344.406	78.223	-0.323	-0.345
-343.391	-159.570	0.280	-0.016
-342.377	28.731	0.186	-0.158
-341.362	-111.463	-0.110	0.022
-340.348	140.879	-0.112	0.148
-339.333	120.242	-0.074	-0.092
-338.318	-73.461	0.226	0.083
-337.304	800.000	0.108	0.427
-336.289	-200.000	0.011	-0.123
-335.275	126.678	-0.210	0.266
-334.260	-200.000	-0.020	-0.098
-333.245	-79.051	-0.273	-0.093
-332.231	-120.526	0.128	-0.022
-331.216	-61.482	-0.223	-0.094
-330.202	-27.818	0.097	0.056
-329.187	20.653	-0.084	-0.068
-328.172	-98.043	-0.206	-0.053
-327.158	-200.000	0.012	-0.339
-326.143	-52.761	-0.150	-0.069
-325.129	-200.000	0.029	0.151
-324.114	-160.814	0.059	-0.003
-323.099	-137.578	-0.099	0.011
-322.085	-63.000	0.265	-0.110
-321.070	26.116	-0.291	-0.243
-320.056	800.000	0.030	0.114
-319.041	409.429	0.176	-0.374
-318.026	218.224	-0.137	0.219
-317.012	-39.419	-0.028	0.015
-315.997	-200.000	0.012	0.166
-314.983	-125.889	0.174	-0.026
-313.968	515.477	-0.200	0.468
-312.953	19.665	-0.243	0.196
-311.939	350.697	-0.194	0.384
-310.924	-58.192	-0.085	-0.037
-309.910	60.817	0.146	0.145
-308.895	116.360	0.149	-0.183
-307.880	244.632	-0.166	0.279
-306.866	47.601	0.136	-0.127
-305.851	217.932	-0.203	-0.324
-304.837	-200.000	-0.022	-0.155
-303.822	-153.963	0.281	0.019
-302.807	383.198	-0.109	-0.224
-301.793	-138.870	0.192	0.021
-300.778	148.211	0.170	0.230
-299.764	800.000	0.065	0.268
-298.749	-200.000	0.105	0.561
-297.735	-49.564	0.162	-0.077
-296.720	220.888	0.139	0.222
-295.705	-200.000	-0.012	0.257
-294.691	81.513	0.448	0.484
-293.676	-109.595	0.209	0.044
-292.662	137.105	-0.210	-0.275
-291.647	-97.808	-0.110	-0.028
-290.632	65.432	0.185	-0.187
-289.618	78.645	0.104	-0.111
-288.603	224.040	0.094	0.152
-287.589	-96.076	0.195	-0.052
-286.574	389.393	0.071	0.147
-285.559	12.042	0.085	0.065
-284.545	513.122	-0.085	-0.198
-283.530	181.227	0.102	-0.151
-282.516	-200.000	0.044	0.213
-281.501	-160.266	-0.421	0.023
-280.486	215.678	0.075	-0.119
-279.472	-200.000	0.000	0.020
-278.457	587.831	-0.049	-0.120
-277.443	73.041	-0.095	0.100
-276.428	453.652	-0.167	0.369
-275.413	135.571	0.149	0.194
-274.399	-105.877	-0.151	0.034
-273.384	173.021	-0.178	0.256
-272.370	222.746	0.044	0.070
-271.355	-16.436	0.180	0.114
-270.340	-131.367	-0.165	0.022
-269.326	16.037	-0.194	-0.153
-268.311	-90.876	0.142	0.041
-267.297	800.000	-0.014	-0.051
-266.282	79.392	0.262	0.281
-265.267	-101.198	0.106	0.026
-264.253	800.000	-0.028	0.081
-263.238	12.634	0.168	0.130
-262.224	-96.794	0.373	0.098
-261.209	800.000	0.076	-0.251
-260.195	172.309	0.208	0.298
-259.180	314.604	-0.098	0.185
-258.165	-200.000	0.023	-0.309
-257.151	-113.243	-0.018	0.004
-256.136	-200.000	-0.046	0.266
-255.122	-28.586	0.228	0.131
-254.107	-123.067	-0.103	-0.016
-253.092	48.453	0.308	-0.288
-252.078	-47.929	0.147	-0.071
-251.063	-66.457	0.259	0.103
-250.049	263.905	-0.120	0.208
-249.034	29.088	0.090	-0.076
-248.019	-200.000	-0.026	-0.298
-247.005	226.295	-0.113	0.184
-245.990	-200.000	0.014	0.113
-244.976	-200.000	-0.041	0.253
-243.961	27.676	0.057	0.048
-242.946	461.901	0.162	0.360
-241.932	800.000	-0.083	0.288
-240.917	800.000	-0.023	-0.079
-239.903	-200.000	0.012	0.185
-238.888	-75.515	0.267	-0.095
-237.873	-51.868	-0.363	-0.169
-236.859	3.513	-0.098	-0.071
-235.844	-34.446	0.079	-0.043
-234.830	48.188	0.177	-0.165
-233.815	800.000	-0.042	0.153
-232.800	-126.566	-0.232	-0.034
-231.786	-101.082	-0.179	-0.044
-230.771	-62.519	-0.357	-0.148
-229.757	-200.000	0.007	-0.126
-228.742	8.165	-0.299	-0.224
-227.727	717.700	0.056	-0.149
-226.713	-164.802	0.176	0.008
-225.698	-200.000	0.049	-0.258
-224.684	-143.840	0.099	0.009
-223.669	-200.000	0.049	-0.302
-222.655	536.985	-0.110	-0.259
-221.640	-35.517	0.233	0.126
-220.625	-71.344	-0.172	-0.064
-219.611	126.787	0.103	-0.130
-218.596	-94.795	-0.316	-0.085
-217.582	-200.000	0.014	-0.245
-216.567	-91.502	0.129	0.037
-215.552	-77.337	0.275	0.095
-214.538	-82.984	-0.393	-0.126
-213.523	172.767	-0.080	0.115
-212.509	-6.078	-0.048	0.033
-211.494	140.006	0.141	0.185
-210.479	248.420	-0.100	0.169
-209.465	472.729	0.058	0.129
-208.450	-200.000	0.022	-0.267
-207.436	-200.000	-0.004	0.308
-206.421	-122.406	-0.138	-0.022
-205.406	-118.742	-0.310	-0.054
-204.392	-200.000	-0.034	-0.203
-203.377	800.000	0.020	-0.084
-202.363	-129.999	0.437	-0.060
-201.348	-105.704	-0.230	0.052
-200.333	215.117	0.139	0.220
-199.319	57.748	0.182	-0.177
-198.304	-200.000	0.014	-0.105
-197.290	-113.644	0.048	-0.009
-196.275	-200.000	-0.014	0.108
-195.260	-23.951	-0.170	-0.101
-194.246	338.909	-0.107	0.207
-193.231	301.159	-0.048	-0.089
-192.217	-156.982	0.093	0.006
-191.202	-1.555	-0.030	0.021
-190.187	3.861	0.053	-0.039
-189.173	-200.000	0.045	-0.221
-188.158	-122.280	0.276	-0.045
-187.144	-25.921	0.198	-0.116
-186.129	55.744	0.143	-0.138
-185.114	204.583	0.100	0.154
-184.100	54.133	0.295	-0.283
-183.085	61.037	0.177	0.175
-182.071	56.975	0.098	0.095
-181.056	-154.522	0.218	-0.015
-180.042	83.844	-0.176	0.191
-179.027	17.637	-0.069	-0.055
-178.012	-200.000	0.011	0.166
-176.998	-200.000	0.006	0.063
-175.983	34.698	0.182	0.159
-174.969	-200.000	-0.003	0.049
-173.954	-9.361	-0.071	0.047
-172.939	307.605	-0.085	-0.157
-171.925	-200.000	-0.007	-0.239
-170.910	169.094	-0.223	-0.317
-169.896	530.982	0.073	-0.172
-168.881	-155.075	0.354	-0.023
-167.866	507.705	0.180	0.416
-166.852	-200.000	0.026	-0.161
-165.837	169.715	0.169	0.240
-164.823	-200.000	-0.004	0.037
-163.808	-93.356	-0.046	-0.013
-162.793	-24.904	0.102	0.060
-161.779	-200.000	-0.020	-0.106
-160.764	82.511	-0.096	0.104
-159.750	-200.000	0.033	0.177
-158.735	-133.222	0.152	-0.019
-157.720	-111.964	0.176	0.035
-156.706	321.517	0.146	-0.276
-155.691	-85.816	0.236	0.073
-154.677	-28.709	0.260	-0.149
-153.662	22.282	0.248	0.202
-152.647	-200.000	0.041	0.221
-151.633	800.000	0.082	0.236
-150.618	82.091	0.327	-0.352
-149.604	-71.123	0.204	0.076
-148.589	35.948	-0.109	0.095
-147.574	-200.000	0.014	-0.097
-146.560	-200.000	-0.032	-0.175
-145.545	14.654	0.049	0.038
-144.531	-200.000	0.017	0.115
-143.516	-104.497	0.227	-0.052
-142.502	-55.348	0.259	0.116
-141.487	17.140	0.046	0.036
-140.472	-177.589	-0.369	0.009
-139.458	-200.000	0.029	-0.148
-138.443	-138.530	0.356	0.039
-137.429	30.825	0.115	-0.098
-136.414	-71.495	0.247	0.092
-135.399	471.424	0.074	0.165
-134.385	-21.989	0.201	-0.121
-133.370	-200.000	0.025	-0.429
-132.356	153.926	0.088	0.119
-131.341	215.999	-0.130	0.205
-130.326	-77.976	0.351	0.120
-129.312	-135.345	-0.072	0.009
-128.297	69.839	-0.216	-0.221
-127.283	242.715	-0.103	0.172
-126.268	-200.000	0.015	0.301
-125.253	-200.000	-0.025	0.286
-124.239	-132.116	-0.057	-0.007
-123.224	-162.758	0.088	-0.004
-122.210	-200.000	0.003	-0.231
-121.195	800.000	-0.051	0.183
