DTS Sentinel unit serial number:	SN413079Multiplexer serial number:	ORYXHardware model number:	OX4-SRSoftware version number:	ORYX F/W v4.00 Oryx Data Collector v3.7.2.0data status	okinstallation	princeton_trtdifferential loss correction	single-endedforward channel	channel 4reverse channel	N/Adate	2019/09/19time	12:05:35forward acquisition time	60.00reverse acquisition time	0.00gamma	496.2192k internal	0.2325k external	0.2325temperature offset calibration	1.0017default loss term (dB/km)	0.3790temperature slope calibration	1.0000multiplexer offset coefficient	1.0000multiplexer slope coefficient	1.0000fibre end	0.00T internal ref (°C)	26.19T ext. ref 1 (°C)	0.84T ext. ref 2 (°C)	22.45length (m)	temperature (°C)	Stokes	anti-Stokes-747.200	-39.883	0.238	-0.125
-746.185	-200.000	-0.005	0.579
-745.171	492.917	0.040	0.093
-744.156	-53.090	-0.259	0.120
-743.142	-36.334	0.264	0.144
-742.127	-200.000	0.004	-0.030
-741.112	-57.962	-0.222	-0.098
-740.098	409.248	-0.067	0.143
-739.083	-13.645	0.117	0.076
-738.069	41.510	-0.213	0.194
-737.054	-16.715	0.197	-0.126
-736.039	800.000	-0.094	0.270
-735.025	-200.000	0.057	0.299
-734.010	14.009	-0.125	-0.098
-732.996	3.110	0.213	-0.156
-731.981	117.013	-0.303	0.375
-730.966	-127.198	-0.206	-0.030
-729.952	273.368	-0.138	-0.246
-728.937	800.000	0.016	0.045
-727.923	800.000	-0.061	0.173
-726.908	740.138	0.099	0.268
-725.894	145.252	0.268	-0.361
-724.879	236.027	0.064	0.106
-723.864	-5.086	0.076	0.052
-722.850	-85.269	0.181	0.057
-721.835	800.000	0.068	0.210
-720.821	-55.678	0.149	-0.067
-719.806	-38.361	-0.099	-0.053
-718.791	-73.964	0.162	-0.059
-717.777	-141.868	-0.034	-0.003
-716.762	-124.481	0.191	-0.030
-715.748	-33.037	0.258	-0.145
-714.733	-200.000	-0.011	0.209
-713.718	93.503	-0.269	-0.307
-712.704	52.013	0.228	0.219
-711.689	-200.000	0.045	0.304
-710.675	-200.000	-0.008	-0.264
-709.660	-88.633	-0.149	-0.045
-708.645	-200.000	0.016	0.326
-707.631	148.829	-0.171	-0.232
-706.616	-67.216	-0.144	0.057
-705.602	766.288	-0.037	-0.102
-704.587	131.723	0.126	-0.163
-703.572	220.905	0.198	0.320
-702.558	575.336	-0.047	0.117
-701.543	49.881	0.076	-0.072
-700.529	-31.476	0.226	0.128
-699.514	-11.894	-0.169	-0.112
-698.499	-200.000	-0.032	0.197
-697.485	-36.218	-0.286	-0.156
-696.470	-78.522	0.244	-0.084
-695.456	-110.876	0.230	0.048
-694.441	-14.242	0.246	0.160
-693.426	-43.401	0.064	0.032
-692.412	401.428	-0.066	-0.139
-691.397	800.000	-0.096	0.309
-690.383	-45.112	-0.242	0.121
-689.368	-127.211	-0.191	-0.028
-688.354	-110.973	-0.277	0.057
-687.339	39.447	0.273	-0.247
-686.324	-3.285	0.240	-0.168
-685.310	86.743	0.155	0.172
-684.295	800.000	-0.082	-0.289
-683.281	-30.136	0.144	-0.082
-682.266	-75.393	0.226	-0.081
-681.251	46.950	0.157	-0.147
-680.237	125.323	-0.187	-0.238
-679.222	-53.474	-0.077	-0.035
-678.208	-25.503	0.018	0.011
-677.193	-37.302	-0.090	-0.049
-676.178	-200.000	0.005	0.256
-675.164	-122.681	0.213	-0.035
-674.149	-200.000	-0.009	0.057
-673.135	-55.302	0.172	0.078
-672.120	220.713	0.100	0.162
-671.105	-114.641	-0.279	0.054
-670.091	316.011	-0.162	-0.307
-669.076	53.636	0.119	-0.115
-668.062	106.981	0.092	0.110
-667.047	95.244	-0.279	0.320
-666.032	-8.127	0.133	-0.090
-665.018	90.591	-0.079	0.089
-664.003	-200.000	0.017	-0.152
-662.989	-142.207	-0.085	-0.008
-661.974	-185.122	-0.047	-0.001
-660.959	39.863	-0.126	0.114
-659.945	282.603	0.018	-0.033
-658.930	295.294	0.047	0.087
-657.916	-200.000	0.006	0.533
-656.901	-87.492	-0.310	0.094
-655.886	174.965	0.077	-0.111
-654.872	800.000	0.109	0.363
-653.857	800.000	-0.084	-0.234
-652.843	388.752	0.013	0.027
-651.828	-200.000	0.177	0.000
-650.814	365.873	-0.117	-0.236
-649.799	-37.323	-0.224	-0.120
-648.784	786.543	0.021	-0.058
-647.770	84.413	0.105	0.115
-646.755	94.581	0.023	-0.027
-645.741	-95.891	0.100	0.027
-644.726	800.000	-0.107	-0.325
-643.711	82.750	0.237	-0.259
-642.697	284.486	-0.162	0.294
-641.682	-76.576	-0.252	-0.089
-640.668	-200.000	-0.012	0.158
-639.653	244.615	0.120	-0.202
-638.638	133.745	0.048	-0.062
-637.624	-158.125	-0.284	-0.017
-636.609	-200.000	0.022	0.151
-635.595	800.000	0.047	0.184
-634.580	177.491	-0.129	-0.189
-633.565	-200.000	-0.015	-0.158
-632.551	-115.158	-0.377	0.072
-631.536	-67.049	0.033	-0.013
-630.522	-95.042	-0.662	0.180
-629.507	198.671	0.058	0.090
-628.492	72.927	0.132	0.139
-627.478	-108.039	-0.178	0.039
-626.463	374.870	-0.181	-0.370
-625.449	-10.368	-0.089	-0.060
-624.434	-23.964	0.167	0.101
-623.419	26.100	0.075	0.063
-622.405	-104.961	0.179	0.041
-621.390	800.000	0.041	-0.151
-620.376	800.000	0.046	0.167
-619.361	92.033	0.149	-0.169
-618.346	-82.433	0.287	0.094
-617.332	47.419	0.109	0.102
-616.317	800.000	-0.118	-0.476
-615.303	800.000	-0.042	0.145
-614.288	151.875	-0.180	-0.246
-613.273	-160.477	-0.154	-0.008
-612.259	-44.581	0.199	0.100
-611.244	-128.816	0.128	0.018
-610.230	11.312	-0.192	-0.147
-609.215	5.566	0.336	-0.249
-608.201	463.686	-0.170	-0.380
-607.186	530.044	0.201	0.477
-606.171	240.999	-0.068	-0.113
-605.157	-112.087	0.098	-0.020
-604.142	-200.000	0.017	-0.172
-603.128	-200.000	-0.004	0.468
-602.113	-70.819	0.165	-0.062
-601.098	65.805	0.187	-0.190
-600.084	274.796	-0.083	-0.147
-599.069	-98.576	-0.567	0.145
-598.055	581.128	0.051	-0.125
-597.040	389.346	-0.118	-0.246
-596.025	243.096	-0.107	0.180
-595.011	-200.000	0.024	-0.198
-593.996	-41.405	0.227	0.117
-592.982	-52.014	-0.076	-0.035
-591.967	-178.665	-0.137	-0.003
-590.952	779.365	-0.042	0.117
-589.938	-168.601	0.086	-0.003
-588.923	134.358	0.100	0.131
-587.909	-23.705	0.393	-0.236
-586.894	-147.078	-0.549	-0.047
-585.879	336.416	0.042	0.081
-584.865	205.619	-0.074	-0.115
-583.850	-28.580	0.190	0.110
-582.836	90.439	0.170	-0.191
-581.821	800.000	0.058	0.254
-580.806	-87.576	-0.407	-0.123
-579.792	-108.822	0.312	-0.067
-578.777	-200.000	-0.006	0.183
-577.763	42.441	-0.267	-0.244
-576.748	-200.000	-0.006	0.134
-575.733	98.856	0.076	0.088
-574.719	-144.231	-0.133	-0.012
-573.704	26.809	-0.135	0.113
-572.690	26.420	-0.168	0.141
-571.675	186.314	0.236	-0.352
-570.661	800.000	0.041	-0.175
-569.646	-96.232	-0.117	-0.031
-568.631	-200.000	-0.037	0.308
-567.617	-200.000	0.011	-0.116
-566.602	-200.000	-0.038	0.190
-565.588	7.465	-0.058	0.044
-564.573	22.376	-0.361	0.296
-563.558	-200.000	0.041	-0.265
-562.544	83.956	0.092	-0.101
-561.529	-24.719	-0.154	-0.092
-560.515	800.000	-0.111	-0.443
-559.500	44.061	0.191	0.175
-558.485	170.561	-0.092	-0.131
-557.471	-101.525	0.231	0.056
-556.456	-200.000	-0.033	-0.444
-555.442	-42.407	0.145	-0.074
-554.427	-83.479	-0.296	0.095
-553.412	-200.000	-0.008	-0.157
-552.398	15.952	0.120	-0.095
-551.383	800.000	-0.066	0.200
-550.369	800.000	-0.093	0.319
-549.354	-200.000	-0.051	-0.285
-548.339	-109.393	-0.306	-0.065
-547.325	800.000	-0.062	0.220
-546.310	21.630	0.103	-0.084
-545.296	13.442	-0.186	-0.145
-544.281	-200.000	-0.012	0.142
-543.266	800.000	-0.139	-0.385
-542.252	195.920	0.108	-0.164
-541.237	800.000	0.055	0.188
-540.223	177.207	-0.174	-0.253
-539.208	38.889	0.208	-0.186
-538.193	-200.000	-0.041	-0.225
-537.179	104.143	-0.184	-0.217
-536.164	-29.293	-0.095	0.054
-535.150	762.465	-0.112	0.304
-534.135	213.400	-0.150	0.238
-533.121	84.496	0.079	-0.086
-532.106	576.539	0.048	-0.117
-531.091	800.000	0.025	-0.087
-530.077	800.000	0.167	-0.470
-529.062	-135.464	0.285	-0.034
-528.048	800.000	0.034	-0.141
-527.033	-74.168	-0.164	-0.059
-526.018	-95.157	-0.296	-0.080
-525.004	-97.031	-0.232	0.061
-523.989	-97.824	0.182	-0.047
-522.975	-67.601	-0.076	-0.030
-521.960	25.561	-0.111	-0.092
-520.945	-67.417	0.187	0.073
-519.931	18.895	-0.118	-0.094
-518.916	-46.252	-0.165	-0.081
-517.902	-24.495	-0.291	-0.174
-516.887	-200.000	-0.006	-0.112
-515.872	-79.044	0.317	0.108
-514.858	148.925	-0.117	-0.158
-513.843	123.660	-0.103	0.129
-512.829	533.248	0.093	-0.221
-511.814	144.444	0.234	0.313
-510.799	418.324	0.142	0.304
-509.785	-46.591	-0.278	-0.136
-508.770	-200.000	0.008	0.161
-507.756	-127.836	0.377	-0.054
-506.741	119.416	-0.087	-0.107
-505.726	-98.892	-0.170	-0.043
-504.712	757.760	0.073	0.198
-503.697	-33.230	0.062	0.034
-502.683	21.485	-0.198	-0.161
-501.668	20.702	-0.102	0.083
-500.653	-92.816	-0.290	0.081
-499.639	382.388	0.044	-0.090
-498.624	108.009	0.174	-0.207
-497.610	105.347	0.270	0.319
-496.595	-29.783	-0.150	-0.085
-495.581	21.927	0.109	0.089
-494.566	208.288	-0.144	-0.225
-493.551	-86.173	0.097	-0.030
-492.537	83.705	0.083	-0.090
-491.522	76.459	0.162	0.172
-490.508	117.175	-0.079	-0.097
-489.493	-91.059	0.104	-0.030
-488.478	-200.000	0.003	-0.169
-487.464	-71.035	-0.489	0.184
-486.449	11.524	-0.175	-0.134
-485.435	193.830	-0.209	-0.316
-484.420	455.403	0.041	-0.091
-483.405	-121.666	-0.241	0.040
-482.391	507.010	-0.077	0.179
-481.376	-175.385	0.352	-0.010
-480.362	184.147	-0.125	-0.185
-479.347	208.652	-0.034	-0.052
-478.332	800.000	-0.044	-0.123
-477.318	800.000	0.052	-0.191
-476.303	141.462	0.048	0.064
-475.289	300.919	-0.289	-0.532
-474.274	-81.003	-0.085	-0.028
-473.259	-80.136	-0.103	0.034
-472.245	-200.000	0.007	-0.173
-471.230	-32.806	0.165	-0.092
-470.216	-13.081	0.197	-0.128
-469.201	-76.718	0.239	0.084
-468.186	-119.169	-0.113	-0.020
-467.172	20.947	-0.255	0.206
-466.157	800.000	0.058	-0.188
-465.143	456.199	0.117	-0.258
-464.128	-200.000	0.016	0.323
-463.113	-20.145	0.065	-0.040
-462.099	180.161	-0.126	-0.184
-461.084	-89.750	0.336	0.098
-460.070	-76.450	0.087	-0.030
-459.055	556.856	0.089	0.214
-458.040	-77.073	0.204	-0.071
-457.026	-200.000	-0.053	0.443
-456.011	-200.000	0.035	0.224
-454.997	800.000	0.027	0.117
-453.982	-67.924	0.178	0.069
-452.968	103.341	0.119	-0.139
-451.953	-87.702	-0.188	0.056
-450.938	-35.426	0.256	-0.139
-449.924	76.224	0.053	0.056
-448.909	800.000	0.101	-0.383
-447.895	-89.793	-0.189	-0.055
-446.880	527.066	0.090	0.212
-445.865	157.442	-0.111	-0.153
-444.851	-2.435	0.279	0.195
-443.836	-48.911	-0.090	0.043
-442.822	47.306	0.214	-0.198
-441.807	-90.805	0.252	0.072
-440.792	800.000	-0.099	-0.312
-439.778	140.128	-0.079	0.104
-438.763	-39.703	-0.160	0.084
-437.749	134.751	-0.181	-0.235
-436.734	41.232	-0.139	0.125
-435.719	800.000	0.040	0.160
-434.705	-200.000	-0.006	-0.122
-433.690	41.644	0.282	-0.255
-432.676	-4.537	0.315	0.217
-431.661	-158.379	0.310	-0.018
-430.646	155.742	0.196	-0.270
-429.632	-200.000	-0.035	-0.355
-428.617	-41.968	-0.199	-0.102
-427.603	153.369	-0.251	0.342
-426.588	-95.478	0.258	0.069
-425.573	632.496	0.091	0.230
-424.559	210.253	0.186	0.291
-423.544	-170.924	-0.130	0.004
-422.530	156.143	-0.108	-0.148
-421.515	-200.000	0.012	0.256
-420.500	19.202	0.328	-0.263
-419.486	-147.679	-0.319	-0.027
-418.471	-200.000	0.067	-0.474
-417.457	279.500	-0.102	-0.181
-416.442	-123.499	-0.146	0.023
-415.428	-20.819	-0.367	-0.224
-414.413	800.000	0.066	-0.230
-413.398	-151.916	-0.066	-0.005
-412.384	-200.000	-0.031	0.395
-411.369	44.497	0.063	0.058
-410.355	360.880	-0.066	0.132
-409.340	-200.000	-0.028	0.293
-408.325	220.781	0.066	0.105
-407.311	-5.072	0.165	0.113
-406.296	146.583	-0.149	-0.200
-405.282	71.269	0.051	-0.053
-404.267	800.000	-0.020	0.058
-403.252	-200.000	-0.003	-0.249
-402.238	156.773	-0.226	0.311
-401.223	25.816	0.286	-0.237
-400.209	28.608	0.311	-0.262
-399.194	314.153	-0.041	0.076
-398.179	282.037	-0.061	0.109
-397.165	185.335	-0.100	0.148
-396.150	-124.172	-0.256	0.040
-395.136	83.137	-0.068	-0.073
-394.121	129.839	0.035	0.045
-393.106	-108.044	0.301	0.065
-392.092	7.763	-0.186	0.138
-391.077	800.000	-0.056	0.166
-390.063	-62.991	0.172	0.071
-389.048	90.003	0.135	0.150
-388.033	-200.000	0.020	-0.089
-387.019	65.900	0.104	-0.105
-386.004	77.013	-0.082	-0.086
-384.990	390.913	-0.059	-0.122
-383.975	-132.241	-0.321	0.041
-382.960	146.814	0.284	0.379
-381.946	-200.000	-0.072	0.542
-380.931	-200.000	0.006	0.198
-379.917	12.217	-0.105	0.081
-378.902	-2.760	0.242	-0.169
-377.888	800.000	-0.070	-0.254
-376.873	27.018	0.212	0.177
-375.858	800.000	-0.081	0.332
-374.844	-200.000	0.030	0.225
-373.829	-34.695	-0.185	0.101
-372.815	-67.965	0.154	-0.060
-371.800	13.473	0.135	0.104
-370.785	224.485	0.032	-0.052
-369.771	0.372	0.341	0.242
-368.756	-92.645	0.184	0.051
-367.742	-105.983	0.097	-0.022
-366.727	-102.068	-0.218	0.052
-365.712	412.163	0.143	0.302
-364.698	105.179	-0.081	0.095
-363.683	-200.000	-0.020	0.136
-362.669	-200.000	-0.029	-0.150
-361.654	800.000	-0.093	-0.394
-360.639	-9.458	-0.195	-0.129
-359.625	800.000	0.034	-0.108
-358.610	-137.265	-0.302	-0.034
-357.596	-77.315	-0.183	-0.063
-356.581	-158.509	0.348	0.020
-355.566	108.174	-0.191	-0.226
-354.552	-31.329	-0.394	-0.220
-353.537	148.642	-0.197	0.264
-352.523	466.519	0.127	0.283
-351.508	-36.328	-0.096	-0.052
-350.493	-200.000	0.084	0.393
-349.479	636.899	-0.020	0.049
-348.464	-200.000	0.005	0.251
-347.450	59.736	0.087	-0.086
-346.435	800.000	0.064	-0.221
-345.420	589.466	0.047	-0.115
-344.406	62.951	0.044	-0.044
-343.391	502.973	-0.083	0.192
-342.377	-9.808	0.241	-0.159
-341.362	-196.373	0.175	0.001
-340.348	196.143	-0.201	0.303
-339.333	800.000	0.085	-0.282
-338.318	173.058	0.024	-0.034
-337.304	-80.355	0.179	-0.059
-336.289	-200.000	0.008	-0.158
-335.275	-2.622	0.254	-0.177
-334.260	509.249	0.045	0.105
-333.245	800.000	-0.062	0.189
-332.231	800.000	0.069	0.292
-331.216	14.336	-0.279	0.216
-330.202	41.604	-0.068	0.061
-329.187	159.889	-0.243	0.336
-328.172	-170.254	-0.204	-0.007
-327.158	-7.587	0.075	0.050
-326.143	-71.364	0.342	0.127
-325.129	-79.700	-0.185	0.062
-324.114	-153.976	-0.051	-0.003
-323.099	-200.000	-0.007	-0.142
-322.085	-102.841	0.261	-0.062
-321.070	-200.000	0.013	-0.075
-320.056	800.000	-0.087	0.248
-319.041	376.107	0.119	0.241
-318.026	-135.692	0.189	-0.022
-317.012	-200.000	0.009	0.060
-315.997	800.000	-0.102	0.357
-314.983	-86.544	0.201	-0.061
-313.968	-32.348	-0.036	-0.020
-312.953	163.417	-0.135	-0.188
-311.939	107.336	-0.024	0.028
-310.924	719.970	-0.023	0.060
-309.910	-200.000	-0.062	-0.359
-308.895	-107.200	0.050	-0.011
-307.880	449.713	0.023	0.050
-306.866	554.276	-0.120	-0.286
-305.851	800.000	-0.026	-0.095
-304.837	-84.748	0.282	0.088
-303.822	480.864	0.080	-0.180
-302.807	-88.077	0.178	-0.053
-301.793	241.827	-0.024	-0.040
-300.778	168.642	-0.143	0.201
-299.764	-191.781	-0.149	0.001
-298.749	-70.507	0.078	0.029
-297.735	147.390	0.289	0.386
-296.720	168.664	-0.151	0.213
-295.705	24.129	-0.197	0.161
-294.691	-200.000	0.025	0.196
-293.676	66.905	0.174	-0.175
-292.662	-106.685	-0.054	0.012
-291.647	186.318	-0.242	0.357
-290.632	-200.000	-0.017	-0.200
-289.618	-123.146	-0.207	-0.033
-288.603	327.505	0.123	-0.234
-287.589	-170.523	-0.154	0.005
-286.574	-126.429	0.100	-0.015
-285.559	449.540	0.119	0.260
-284.545	-41.423	0.156	0.080
-283.530	77.598	-0.252	-0.266
-282.516	-200.000	0.065	0.436
-281.501	-135.173	0.176	-0.021
-280.486	545.112	0.162	0.384
-279.472	-200.000	0.069	0.383
-278.457	-56.836	0.284	-0.124
-277.443	-80.399	0.187	0.062
-276.428	377.005	-0.068	0.138
-275.413	58.858	-0.184	0.179
-274.399	800.000	0.052	0.174
-273.384	-24.411	0.403	0.238
-272.370	624.232	-0.018	0.044
-271.355	376.024	-0.105	-0.212
-270.340	800.000	-0.021	-0.071
-269.326	84.575	0.131	-0.142
-268.311	-78.415	0.197	0.067
-267.297	800.000	0.084	0.290
-266.282	-69.912	-0.230	-0.087
-265.267	-23.164	-0.206	0.123
-264.253	86.693	-0.111	0.121
-263.238	-184.447	0.424	-0.007
-262.224	186.884	0.222	0.327
-261.209	50.950	0.145	0.136
-260.195	-200.000	0.006	-0.083
-259.180	70.457	-0.182	-0.186
-258.165	106.760	-0.105	-0.124
-257.151	-63.607	0.330	0.134
-256.136	-0.239	0.300	0.211
-255.122	462.879	0.152	0.336
-254.107	36.457	0.238	0.208
-253.092	-32.114	0.118	-0.066
-252.078	-200.000	0.018	0.303
-251.063	-0.876	0.124	-0.087
-250.049	-200.000	0.010	0.059
-249.034	66.346	-0.232	0.233
-248.019	-200.000	-0.040	0.205
-247.005	800.000	0.078	0.224
-245.990	-200.000	-0.027	-0.374
-244.976	353.575	-0.117	-0.230
-243.961	-72.556	0.120	0.044
-242.946	-60.366	0.098	0.041
-241.932	800.000	-0.037	0.126
-240.917	-200.000	-0.046	-0.298
-239.903	225.282	0.084	0.135
-238.888	800.000	0.091	-0.304
-237.873	473.884	-0.166	-0.371
-236.859	13.293	0.227	-0.174
-235.844	28.653	0.161	0.135
-234.830	-200.000	0.001	0.271
-233.815	18.425	-0.065	-0.052
-232.800	-200.000	0.010	-0.177
-231.786	-124.237	0.277	0.043
-230.771	99.305	-0.161	0.184
-229.757	521.707	-0.139	-0.322
-228.742	627.599	-0.078	0.196
-227.727	73.931	0.225	-0.233
-226.713	-200.000	-0.007	0.114
-225.698	-200.000	0.016	0.171
-224.684	800.000	0.090	-0.258
-223.669	800.000	0.046	0.140
-222.655	800.000	-0.071	0.285
-221.640	-200.000	0.022	-0.251
-220.625	-175.041	0.203	0.006
-219.611	307.673	-0.290	0.534
-218.596	84.410	0.203	-0.220
-217.582	-1.235	-0.084	-0.059
-216.567	-48.396	-0.217	-0.103
-215.552	138.967	0.135	-0.175
-214.538	261.927	0.182	0.313
-213.523	519.253	0.176	-0.407
-212.509	558.103	0.083	0.199
-211.494	49.300	0.240	0.223
-210.479	-200.000	-0.038	-0.185
-209.465	189.478	-0.194	-0.288
-208.450	265.165	-0.128	-0.221
-207.436	271.454	-0.169	0.294
-206.421	124.110	-0.145	-0.180
-205.406	35.564	-0.033	-0.029
-204.392	30.167	-0.251	0.211
-203.377	590.132	-0.055	-0.133
-202.363	47.892	0.187	-0.173
-201.348	-152.686	0.051	0.004
-200.333	-200.000	-0.002	0.216
-199.319	45.783	-0.112	-0.102
-198.304	-20.829	-0.066	0.040
-197.290	-32.844	-0.282	-0.155
-196.275	-62.042	0.145	-0.060
-195.260	-200.000	-0.017	-0.093
-194.246	-143.915	0.230	-0.021
-193.231	122.521	0.285	-0.351
-192.217	134.811	0.097	-0.125
-191.202	-6.633	0.261	-0.176
-190.187	329.378	-0.122	-0.231
-189.173	800.000	0.045	-0.177
-188.158	21.204	-0.235	-0.188
-187.144	-200.000	-0.050	-0.287
-186.129	-113.396	-0.208	-0.040
-185.114	226.130	-0.306	0.489
-184.100	182.727	-0.256	0.373
-183.085	58.265	-0.284	-0.275
-182.071	243.304	-0.056	0.093
-181.056	11.106	-0.140	0.106
-180.042	-200.000	0.006	-0.089
-179.027	-104.992	-0.421	-0.095
-178.012	-64.328	0.073	-0.030
-176.998	-156.450	0.383	-0.024
-175.983	81.585	-0.180	-0.192
-174.969	456.883	-0.111	-0.243
-173.954	-179.317	-0.270	0.006
-172.939	142.808	-0.187	-0.245
-171.925	458.642	0.119	0.261
-170.910	96.356	0.033	-0.037
-169.896	-200.000	-0.032	-0.304
-168.881	-93.608	0.447	-0.122
-167.866	-173.211	-0.198	-0.006
-166.852	132.607	0.034	-0.043
-165.837	-200.000	0.005	0.299
-164.823	-37.544	0.169	-0.089
-163.808	-200.000	-0.007	0.118
-162.793	89.362	0.166	0.183
-161.779	-54.681	-0.206	0.092
-160.764	-121.116	0.164	0.027
-159.750	-200.000	0.030	0.169
-158.735	800.000	-0.056	0.158
-157.720	-49.884	-0.067	-0.031
-156.706	-200.000	0.052	0.336
-155.691	191.868	-0.054	0.080
-154.677	35.724	-0.264	0.229
-153.662	-87.992	0.259	0.077
-152.647	173.356	-0.126	0.179
-151.633	141.277	0.091	0.119
-150.618	-64.150	-0.135	-0.054
-149.604	344.884	-0.094	-0.183
-148.589	39.122	0.090	-0.079
-147.574	-200.000	-0.027	0.146
-146.560	800.000	0.034	-0.108
-145.545	289.012	0.019	-0.034
-144.531	75.888	-0.282	-0.294
-143.516	-110.540	-0.139	0.028
-142.502	-200.000	-0.028	-0.125
-141.487	-80.577	-0.184	0.060
-140.472	121.614	0.063	0.077
-139.458	-200.000	-0.044	-0.225
-138.443	-119.090	-0.170	-0.029
-137.429	31.892	0.240	-0.204
-136.414	-124.404	-0.088	0.013
-135.399	800.000	-0.043	0.136
-134.385	-139.835	-0.432	-0.045
-133.370	-200.000	0.012	-0.275
-132.356	425.849	0.119	-0.252
-131.341	-127.499	-0.125	-0.018
-130.326	47.136	0.174	-0.159
-129.312	800.000	-0.059	-0.181
-128.297	28.154	0.198	-0.164
-127.283	-17.047	0.114	0.071
-126.268	16.309	0.160	0.124
-125.253	-50.033	-0.154	-0.072
-124.239	-63.130	-0.130	0.053
-123.224	50.377	0.206	0.192
-122.210	33.627	0.093	0.080
-121.195	165.284	-0.052	0.073
-120.180	104.817	0.017	0.020
