DTS Sentinel unit serial number:	SN413079Multiplexer serial number:	ORYXHardware model number:	OX4-SRSoftware version number:	ORYX F/W v4.00 Oryx Data Collector v3.7.2.0data status	okinstallation	princeton_trtdifferential loss correction	single-endedforward channel	channel 4reverse channel	N/Adate	2019/09/16time	17:17:35forward acquisition time	60.00reverse acquisition time	0.00gamma	496.2192k internal	0.2296k external	0.2296temperature offset calibration	0.9943default loss term (dB/km)	0.3790temperature slope calibration	1.0000multiplexer offset coefficient	1.0000multiplexer slope coefficient	1.0000fibre end	0.00T internal ref (°C)	38.84T ext. ref 1 (°C)	15.38T ext. ref 2 (°C)	32.89length (m)	temperature (°C)	Stokes	anti-Stokes-747.200	172.256	-0.199	0.293
-746.185	800.000	-0.087	0.261
-745.171	-4.394	0.220	0.156
-744.156	412.544	0.266	0.577
-743.142	571.323	-0.098	0.245
-742.127	10.786	-0.047	-0.037
-741.112	-136.531	-0.373	0.044
-740.098	-200.000	0.001	-0.277
-739.083	-114.905	-0.154	0.030
-738.069	800.000	-0.020	0.074
-737.054	81.052	0.143	-0.158
-736.039	-0.089	-0.143	-0.104
-735.025	-16.223	0.323	-0.210
-734.010	55.820	-0.204	-0.202
-732.996	2.678	-0.603	-0.447
-731.981	-83.423	-0.273	-0.089
-730.966	322.169	-0.231	-0.449
-729.952	-134.778	-0.199	0.025
-728.937	-7.801	-0.186	-0.128
-727.923	276.941	-0.136	-0.247
-726.908	-200.000	0.001	0.127
-725.894	800.000	0.046	0.158
-724.879	264.803	-0.210	-0.373
-723.864	-89.895	-0.120	-0.036
-722.850	-200.000	-0.027	-0.427
-721.835	-128.264	-0.239	0.035
-720.821	384.767	0.068	-0.143
-719.806	-16.425	0.221	-0.143
-718.791	-39.670	-0.094	0.050
-717.777	-200.000	0.016	0.109
-716.762	800.000	-0.056	-0.200
-715.748	-198.616	0.079	-0.000
-714.733	-200.000	0.018	-0.115
-713.718	-200.000	-0.053	0.242
-712.704	0.789	-0.288	-0.210
-711.689	800.000	0.079	-0.291
-710.675	39.530	-0.196	-0.179
-709.660	156.160	-0.224	0.315
-708.645	20.289	0.094	0.077
-707.631	63.932	0.105	0.108
-706.616	-200.000	0.016	-0.260
-705.602	449.609	0.139	-0.314
-704.587	800.000	0.041	-0.121
-703.572	800.000	0.126	0.392
-702.558	-200.000	0.004	-0.268
-701.543	-73.995	-0.084	0.031
-700.529	246.691	0.111	-0.192
-699.514	-38.811	0.242	0.130
-698.499	-81.537	0.160	-0.054
-697.485	-200.000	-0.008	-0.287
-696.470	-12.715	-0.080	-0.053
-695.456	-27.048	-0.112	-0.067
-694.441	-4.927	-0.065	-0.046
-693.426	146.654	0.093	-0.128
-692.412	-200.000	0.000	-0.152
-691.397	-200.000	-0.012	0.197
-690.383	401.292	0.056	0.120
-689.368	-200.000	0.020	0.099
-688.354	-12.769	-0.129	-0.086
-687.339	-200.000	-0.019	0.193
-686.324	-29.294	-0.107	0.063
-685.310	-103.462	0.126	-0.030
-684.295	-15.751	-0.088	-0.057
-683.281	255.677	-0.225	-0.393
-682.266	16.457	-0.218	-0.175
-681.251	449.263	0.108	0.242
-680.237	-20.382	-0.183	-0.115
-679.222	-128.500	-0.087	-0.013
-678.208	-54.887	-0.272	-0.125
-677.193	-12.016	0.220	-0.147
-676.178	100.650	0.060	-0.071
-675.164	-37.747	-0.296	0.161
-674.149	-148.192	-0.148	-0.012
-673.135	609.656	-0.088	-0.223
-672.120	35.716	-0.125	-0.112
-671.105	-109.597	0.078	0.017
-670.091	-144.741	-0.436	-0.041
-669.076	-101.856	0.283	-0.070
-668.062	-200.000	-0.046	0.303
-667.047	69.529	0.246	0.258
-666.032	-163.942	-0.217	0.010
-665.018	27.405	0.233	-0.200
-664.003	212.533	0.095	-0.153
-662.989	396.993	0.041	0.088
-661.974	-119.017	0.231	-0.041
-660.959	-136.864	0.220	-0.026
-659.945	-25.206	-0.337	-0.204
-658.930	76.025	0.208	-0.224
-657.916	-127.602	-0.288	-0.042
-656.901	-123.471	-0.102	0.016
-655.886	93.241	-0.019	-0.022
-654.872	17.314	0.118	0.096
-653.857	-200.000	0.027	0.156
-652.843	800.000	-0.116	-0.360
-651.828	-120.494	0.287	0.050
-650.814	78.991	0.172	0.187
-649.799	800.000	-0.058	-0.194
-648.784	-200.000	0.035	0.166
-647.770	-178.656	-0.211	0.005
-646.755	236.259	0.157	-0.265
-645.741	800.000	-0.058	0.220
-644.726	-22.966	0.197	0.121
-643.711	-14.593	-0.330	-0.216
-642.697	4.778	0.256	-0.192
-641.682	-200.000	0.045	-0.243
-640.668	-91.654	-0.230	0.067
-639.653	3.000	-0.244	-0.180
-638.638	-200.000	0.001	-0.143
-637.624	478.711	-0.020	-0.046
-636.609	-200.000	0.057	-0.402
-635.595	337.963	0.070	0.139
-634.580	24.199	-0.144	-0.121
-633.565	-136.307	-0.251	-0.030
-632.551	37.449	-0.096	-0.087
-631.536	-200.000	-0.026	0.263
-630.522	-200.000	-0.061	-0.285
-629.507	-158.917	0.438	-0.025
-628.492	-200.000	-0.006	-0.067
-627.478	19.623	-0.134	0.110
-626.463	-96.679	0.296	0.079
-625.449	-87.759	0.320	0.098
-624.434	228.930	-0.073	-0.121
-623.419	-115.644	0.280	0.053
-622.405	43.915	-0.240	-0.223
-621.390	575.194	-0.133	0.331
-620.376	-41.306	0.137	-0.072
-619.361	-107.540	-0.131	-0.029
-618.346	-3.064	-0.091	0.065
-617.332	561.115	0.129	-0.316
-616.317	572.793	0.007	-0.017
-615.303	-32.752	0.415	0.235
-614.288	-200.000	-0.303	0.000
-613.273	213.718	0.244	0.393
-612.259	-113.916	0.050	-0.010
-611.244	-23.968	0.229	0.139
-610.230	-148.389	0.171	0.014
-609.215	-200.000	0.060	-0.349
-608.201	-54.875	0.087	0.040
-607.186	118.724	0.190	-0.238
-606.171	199.785	-0.066	0.102
-605.157	-135.679	-0.039	0.005
-604.142	78.396	-0.143	0.156
-603.128	-132.588	0.341	-0.045
-602.113	-200.000	-0.004	-0.118
-601.098	-200.000	0.035	-0.242
-600.084	-155.777	-0.036	0.002
-599.069	-5.854	-0.115	-0.080
-598.055	-128.143	0.204	0.030
-597.040	65.483	-0.221	-0.227
-596.025	-200.000	-0.007	-0.220
-595.011	43.213	0.199	0.185
-593.996	-92.154	-0.234	0.067
-592.982	-154.051	-0.081	-0.006
-591.967	-47.354	0.072	-0.036
-590.952	-93.167	0.039	-0.011
-589.938	-126.548	-0.273	0.041
-588.923	-0.095	0.089	-0.064
-587.909	250.211	-0.108	0.186
-586.894	800.000	0.101	0.287
-585.879	-111.673	-0.429	-0.088
-584.865	390.361	0.190	0.401
-583.850	-13.671	-0.159	0.104
-582.836	-200.000	-0.047	-0.408
-581.821	-200.000	-0.028	-0.209
-580.806	-200.000	-0.024	-0.293
-579.792	550.110	0.033	-0.080
-578.777	800.000	-0.056	-0.212
-577.763	424.263	-0.109	-0.239
-576.748	-102.550	0.128	0.031
-575.733	52.170	-0.209	0.202
-574.719	-10.761	-0.155	-0.104
-573.704	256.615	-0.128	-0.222
-572.690	48.836	0.281	0.268
-571.675	-39.707	0.355	0.188
-570.661	262.741	-0.108	-0.190
-569.646	-81.958	0.093	0.031
-568.631	-39.691	0.190	-0.101
-567.617	-129.665	-0.155	-0.022
-566.602	170.444	-0.189	-0.275
-565.588	112.180	-0.131	0.160
-564.573	340.959	-0.088	0.174
-563.558	-18.130	0.130	0.082
-562.544	-60.218	0.031	0.013
-561.529	191.272	-0.160	0.245
-560.515	102.988	-0.125	-0.148
-559.500	-73.687	0.117	0.043
-558.485	9.215	-0.231	0.177
-557.471	800.000	-0.049	-0.177
-556.456	170.570	0.077	0.111
-555.442	503.212	0.038	0.089
-554.427	-170.255	0.206	-0.007
-553.412	-31.669	-0.031	-0.018
-552.398	800.000	0.088	0.300
-551.383	163.489	-0.095	0.135
-550.369	294.331	-0.051	0.095
-549.354	-57.818	0.092	0.041
-548.339	-133.205	0.063	0.008
-547.325	-120.034	0.165	0.029
-546.310	-31.977	0.441	-0.250
-545.296	51.034	-0.024	-0.023
-544.281	-108.727	-0.151	0.033
-543.266	397.687	0.035	0.075
-542.252	800.000	-0.035	0.132
-541.237	311.579	0.093	-0.178
-540.223	-200.000	0.026	-0.179
-539.208	295.724	-0.017	-0.032
-538.193	-123.196	-0.170	0.028
-537.179	-200.000	0.038	0.172
-536.164	249.466	-0.135	-0.232
-535.150	800.000	0.046	0.184
-534.135	-99.241	0.175	-0.045
-533.121	121.926	-0.331	0.419
-532.106	649.573	0.095	0.245
-531.091	-200.000	0.034	0.169
-530.077	535.612	-0.150	-0.361
-529.062	3.532	-0.080	0.059
-528.048	421.848	-0.092	0.201
-527.033	74.455	-0.161	-0.172
-526.018	-142.579	-0.314	-0.031
-525.004	-52.912	0.334	0.156
-523.989	17.547	-0.165	-0.133
-522.975	22.673	-0.124	-0.103
-521.960	-200.000	0.065	-0.000
-520.945	-200.000	0.017	0.113
-519.931	-195.111	-0.091	-0.001
-518.916	800.000	-0.098	-0.324
-517.902	-16.794	-0.218	-0.139
-516.887	21.580	-0.135	-0.112
-515.872	124.951	-0.192	-0.245
-514.858	254.592	-0.047	-0.081
-513.843	-16.780	-0.252	0.161
-512.829	147.149	-0.082	0.111
-511.814	-82.925	0.117	0.038
-510.799	-12.790	0.153	0.101
-509.785	800.000	-0.047	0.168
-508.770	-28.654	-0.286	0.167
-507.756	-63.873	0.205	0.085
-506.741	123.544	0.010	-0.012
-505.726	-79.555	0.196	-0.067
-504.712	668.257	-0.041	-0.107
-503.697	207.099	-0.071	-0.112
-502.683	-200.000	0.051	-0.287
-501.668	273.705	0.061	-0.109
-500.653	-80.765	0.060	-0.020
-499.639	17.808	0.219	0.176
-498.624	-91.420	0.014	-0.004
-497.610	-200.000	0.076	0.366
-496.595	-200.000	-0.008	0.084
-495.581	-200.000	0.076	-0.399
-494.566	-122.337	0.133	-0.022
-493.551	263.965	0.152	-0.267
-492.537	50.176	0.149	-0.142
-491.522	265.901	-0.019	-0.034
-490.508	-200.000	-0.016	-0.180
-489.493	800.000	-0.165	0.511
-488.478	9.228	-0.066	-0.050
-487.464	276.821	-0.151	0.271
-486.449	800.000	0.054	0.221
-485.435	-26.826	-0.383	0.227
-484.420	-127.730	-0.118	-0.017
-483.405	800.000	0.052	-0.211
-482.391	91.221	-0.277	-0.315
-481.376	3.679	-0.210	0.155
-480.362	-200.000	0.018	0.244
-479.347	441.180	-0.120	-0.266
-478.332	261.327	-0.071	0.124
-477.318	-79.903	-0.217	-0.074
-476.303	456.842	0.192	-0.431
-475.289	-110.735	-0.058	-0.012
-474.274	-154.828	-0.357	0.024
-473.259	7.034	-0.228	0.172
-472.245	356.581	-0.115	-0.231
-471.230	194.118	-0.212	-0.325
-470.216	-168.674	-0.050	0.002
-469.201	800.000	-0.065	0.246
-468.186	800.000	0.018	0.056
-467.172	-117.004	-0.083	0.015
-466.157	-91.016	-0.365	0.106
-465.143	-95.814	0.349	-0.094
-464.128	31.845	-0.148	0.129
-463.113	-8.343	0.067	0.045
-462.099	-121.615	-0.292	0.049
-461.084	800.000	0.051	-0.157
-460.070	-100.032	-0.420	0.106
-459.055	782.129	-0.007	-0.019
-458.040	-17.978	-0.097	-0.062
-457.026	-133.246	0.153	-0.020
-456.011	89.216	-0.189	-0.212
-454.997	364.679	-0.032	0.065
-453.982	157.783	0.338	-0.473
-452.968	481.214	-0.071	0.163
-451.953	-127.819	-0.155	0.023
-450.938	520.530	0.130	-0.307
-449.924	32.373	0.075	-0.065
-448.909	177.169	0.181	0.266
-447.895	134.521	0.159	0.208
-446.880	-62.093	0.266	-0.112
-445.865	37.000	-0.178	0.159
-444.851	-100.606	-0.094	0.023
-443.836	-200.000	0.024	-0.272
-442.822	-200.000	-0.029	0.205
-441.807	-140.830	-0.418	0.043
-440.792	8.480	-0.124	0.094
-439.778	32.088	0.149	0.130
-438.763	437.369	-0.091	-0.200
-437.749	800.000	-0.025	-0.079
-436.734	-78.379	-0.333	-0.115
-435.719	616.318	-0.030	0.076
-434.705	-125.872	0.365	0.056
-433.690	8.643	0.194	0.147
-432.676	61.493	0.212	0.213
-431.661	93.498	0.350	-0.400
-430.646	354.044	0.069	0.139
-429.632	-200.000	0.045	0.286
-428.617	-136.093	-0.209	0.025
-427.603	-95.273	0.328	0.089
-426.588	800.000	0.072	-0.305
-425.573	-85.376	0.141	0.044
-424.559	-200.000	-0.085	0.513
-423.544	-200.000	0.019	0.172
-422.530	-200.000	0.026	-0.132
-421.515	-200.000	-0.037	-0.286
-420.500	524.433	-0.138	-0.328
-419.486	-89.387	-0.112	-0.033
-418.471	-200.000	0.003	-0.043
-417.457	114.574	-0.156	0.192
-416.442	171.255	0.049	0.071
-415.428	-44.893	-0.021	-0.010
-414.413	-3.197	-0.136	0.096
-413.398	-75.408	-0.371	0.133
-412.384	67.973	-0.220	-0.227
-411.369	-24.093	-0.168	-0.101
-410.355	-127.100	-0.431	0.064
-409.340	-139.050	0.264	0.029
-408.325	305.423	-0.061	-0.114
-407.311	10.635	0.251	-0.193
-406.296	769.234	0.085	-0.235
-405.282	-103.856	-0.147	0.035
-404.267	-69.925	-0.081	-0.031
-403.252	-8.819	-0.431	-0.291
-402.238	-28.957	0.089	0.052
-401.223	83.495	-0.207	-0.227
-400.209	103.237	0.179	0.212
-399.194	14.815	0.206	0.163
-398.179	121.229	0.091	0.114
-397.165	-200.000	0.039	0.220
-396.150	107.359	0.270	0.324
-395.136	-200.000	0.017	-0.123
-394.121	25.094	0.078	0.066
-393.106	191.312	-0.073	-0.110
-392.092	800.000	-0.077	-0.333
-391.077	-101.482	0.160	-0.039
-390.063	119.803	0.020	-0.025
-389.048	61.350	0.385	-0.386
-388.033	444.609	-0.194	-0.429
-387.019	306.998	-0.033	-0.063
-386.004	-11.605	-0.124	0.082
-384.990	343.451	0.082	-0.162
-383.975	269.089	0.160	0.284
-382.960	211.748	-0.038	0.061
-381.946	-200.000	-0.032	-0.152
-380.931	244.058	-0.128	-0.216
-379.917	-116.446	-0.262	0.049
-378.902	753.857	0.022	0.060
-377.888	165.378	-0.116	-0.165
-376.873	-98.886	0.288	0.074
-375.858	800.000	-0.062	0.210
-374.844	292.789	0.076	-0.140
-373.829	-86.636	0.199	0.061
-372.815	-200.000	0.002	0.149
-371.800	79.112	0.072	-0.078
-370.785	-106.213	0.355	-0.080
-369.771	-200.000	-0.039	-0.185
-368.756	800.000	0.108	0.391
-367.742	800.000	0.132	0.422
-366.727	-200.000	0.013	-0.104
-365.712	-200.000	-0.027	0.155
-364.698	15.218	0.036	0.028
-363.683	26.086	0.084	0.070
-362.669	16.817	-0.280	-0.223
-361.654	48.419	-0.042	0.040
-360.639	-200.000	0.012	-0.146
-359.625	-5.214	-0.084	-0.058
-358.610	-14.087	0.235	-0.152
-357.596	-144.382	-0.132	0.012
-356.581	-75.499	0.221	0.079
-355.566	304.584	-0.120	-0.224
-354.552	-126.984	0.309	-0.046
-353.537	-44.640	-0.218	-0.109
-352.523	-200.000	0.002	0.112
-351.508	-200.000	0.009	0.458
-350.493	25.220	-0.151	0.127
-349.479	-93.851	-0.216	0.060
-348.464	-121.857	-0.065	-0.011
-347.450	-60.585	0.159	0.068
-346.435	79.204	-0.237	-0.256
-345.420	-2.086	0.202	-0.143
-344.406	-107.095	0.160	-0.035
-343.391	-141.658	0.354	0.036
-342.377	-55.209	0.268	-0.121
-341.362	-200.000	0.065	-0.297
-340.348	436.203	-0.122	0.266
-339.333	26.901	-0.253	-0.213
-338.318	45.099	0.281	-0.260
-337.304	-170.887	0.342	0.012
-336.289	120.676	-0.130	0.163
-335.275	-14.134	0.182	-0.118
-334.260	-44.241	-0.013	-0.007
-333.245	-132.105	-0.196	0.026
-332.231	-60.588	0.405	-0.173
-331.216	-200.000	-0.016	-0.192
-330.202	47.101	0.213	-0.200
-329.187	149.109	0.089	-0.121
-328.172	-200.000	-0.065	0.457
-327.158	170.735	-0.236	0.340
-326.143	-200.000	0.029	0.423
-325.129	-63.348	0.280	0.116
-324.114	-36.190	-0.109	-0.059
-323.099	-66.815	0.500	0.199
-322.085	800.000	0.081	0.278
-321.070	51.666	0.085	0.081
-320.056	-200.000	0.006	-0.123
-319.041	38.811	0.246	0.221
-318.026	87.981	0.286	0.319
-317.012	-169.948	-0.146	0.005
-315.997	315.960	-0.096	0.182
-314.983	3.371	0.048	-0.035
-313.968	175.789	0.232	-0.338
-312.953	-28.930	-0.159	0.092
-311.939	488.293	0.074	0.171
-310.924	36.319	0.195	0.173
-309.910	-100.241	0.038	-0.009
-308.895	297.886	-0.157	-0.289
-307.880	-52.588	0.317	0.147
-306.866	-3.756	0.282	0.197
-305.851	-17.404	-0.225	0.142
-304.837	-200.000	-0.034	-0.202
-303.822	-71.398	0.533	0.200
-302.807	-200.000	0.015	0.106
-301.793	-46.269	0.339	0.167
-300.778	-200.000	-0.012	0.118
-299.764	-200.000	0.014	0.182
-298.749	-78.356	-0.216	-0.075
-297.735	587.314	-0.065	-0.161
-296.720	296.410	-0.228	0.419
-295.705	248.446	0.063	0.108
-294.691	-110.140	0.035	-0.007
-293.676	31.940	0.197	0.170
-292.662	216.770	-0.100	0.159
-291.647	411.273	-0.028	-0.059
-290.632	748.063	-0.083	0.224
-289.618	292.659	0.142	-0.259
-288.603	142.736	-0.192	-0.256
-287.589	-200.000	0.030	0.225
-286.574	-92.976	-0.290	0.081
-285.559	40.747	0.203	0.184
-284.545	-42.275	0.312	-0.160
-283.530	50.457	0.019	-0.018
-282.516	70.689	0.196	0.203
-281.501	672.743	-0.038	0.098
-280.486	-200.000	-0.021	0.114
-279.472	-29.587	0.106	0.061
-278.457	-0.729	-0.174	-0.124
-277.443	-141.302	-0.237	0.024
-276.428	800.000	0.025	0.092
-275.413	74.935	0.038	-0.040
-274.399	-153.821	0.186	0.013
-273.384	47.267	0.035	0.033
-272.370	-82.141	-0.308	-0.101
-271.355	-200.000	-0.045	-0.255
-270.340	-39.591	0.148	-0.077
-269.326	-50.390	-0.216	0.102
-268.311	-26.047	-0.213	-0.126
-267.297	394.694	0.160	0.335
-266.282	-45.175	0.377	0.188
-265.267	275.482	0.048	-0.085
-264.253	-200.000	0.038	-0.507
-263.238	-76.923	-0.134	0.047
-262.224	25.487	-0.216	-0.181
-261.209	240.136	0.126	-0.211
-260.195	-124.613	-0.352	0.055
-259.180	128.472	-0.039	-0.050
-258.165	37.293	-0.085	0.076
-257.151	102.329	-0.054	0.063
-256.136	-200.000	0.002	-0.155
-255.122	800.000	0.029	-0.081
-254.107	0.183	-0.170	0.122
-253.092	-200.000	0.000	-0.021
-252.078	296.935	-0.119	-0.218
-251.063	-146.811	-0.191	-0.016
-250.049	202.328	-0.100	0.155
-249.034	93.453	-0.122	-0.139
-248.019	-123.439	-0.279	-0.045
-247.005	-151.296	-0.415	0.031
-245.990	-30.706	0.419	-0.238
-244.976	109.365	-0.341	0.409
-243.961	-60.896	-0.308	-0.131
-242.946	-38.632	0.195	-0.103
-241.932	46.170	-0.048	0.045
-240.917	-200.000	-0.005	-0.197
-239.903	1.966	0.082	0.059
-238.888	-121.537	-0.299	0.050
-237.873	-18.330	0.191	-0.119
-236.859	-200.000	0.002	0.221
-235.844	-106.989	0.178	0.039
-234.830	-128.227	0.119	-0.017
-233.815	-68.408	0.097	-0.038
-232.800	28.156	-0.160	-0.135
-231.786	-200.000	-0.010	0.052
-230.771	-110.762	0.112	0.023
-229.757	3.412	-0.123	0.089
-228.742	135.541	0.160	0.208
-227.727	92.393	0.213	-0.241
-226.713	-200.000	-0.005	-0.061
-225.698	-200.000	0.006	0.045
-224.684	-200.000	-0.032	0.171
-223.669	800.000	0.071	-0.245
-222.655	175.042	0.040	0.058
-221.640	628.704	-0.031	-0.079
-220.625	-200.000	0.024	-0.282
-219.611	800.000	0.039	-0.110
-218.596	-86.975	-0.053	-0.016
-217.582	482.746	-0.029	0.065
-216.567	-200.000	-0.004	-0.055
-215.552	-17.784	0.096	0.060
-214.538	-200.000	-0.051	0.232
-213.523	-29.133	-0.245	-0.141
-212.509	-200.000	-0.020	-0.278
-211.494	-99.630	-0.197	-0.049
-210.479	-183.050	0.125	0.002
-209.465	54.774	-0.079	0.076
-208.450	-200.000	-0.003	-0.086
-207.436	-95.428	0.289	0.078
-206.421	800.000	0.053	-0.200
-205.406	-149.784	0.286	0.022
-204.392	-152.923	-0.235	0.017
-203.377	49.606	-0.110	-0.104
-202.363	800.000	-0.050	0.183
-201.348	-200.000	-0.011	0.185
-200.333	-200.000	0.009	0.078
-199.319	-200.000	-0.028	0.149
-198.304	435.380	-0.278	0.605
-197.290	393.628	0.042	0.088
-196.275	-200.000	0.051	0.276
-195.260	-40.285	0.227	0.118
-194.246	164.203	0.076	0.107
-193.231	-154.416	0.079	-0.005
-192.217	-16.530	-0.166	-0.105
-191.202	292.020	0.100	0.182
-190.187	-200.000	-0.056	-0.247
-189.173	800.000	0.037	-0.114
-188.158	-129.728	0.446	0.061
-187.144	165.192	-0.033	0.047
-186.129	56.545	-0.337	-0.328
-185.114	521.053	-0.077	-0.180
-184.100	196.736	0.120	-0.183
-183.085	-92.280	0.302	0.085
-182.071	375.481	0.124	-0.252
-181.056	-120.521	0.266	-0.045
-180.042	577.813	-0.025	0.062
-179.027	-92.334	-0.221	0.062
-178.012	207.677	0.209	0.326
-176.998	76.968	-0.130	0.138
-175.983	530.462	0.138	-0.326
-174.969	143.839	0.045	0.059
-173.954	-200.000	-0.017	0.142
-172.939	-6.445	0.306	-0.209
-171.925	-172.952	-0.154	-0.005
-170.910	-100.015	0.217	-0.054
-169.896	448.361	-0.054	0.119
-168.881	199.671	0.152	0.233
-167.866	-88.768	0.020	-0.006
-166.852	-110.158	-0.172	-0.036
-165.837	-200.000	0.023	0.202
-164.823	166.851	-0.021	-0.029
-163.808	-112.664	0.288	0.057
-162.793	-24.257	-0.098	-0.058
-161.779	60.640	-0.105	-0.104
-160.764	-200.000	0.000	0.292
-159.750	53.496	-0.210	0.201
-158.735	-49.433	-0.243	0.116
-157.720	-33.311	-0.056	0.031
-156.706	-71.584	-0.251	-0.094
-155.691	-187.048	0.228	-0.003
-154.677	499.851	0.063	-0.145
-153.662	-23.556	0.045	0.027
-152.647	-149.524	-0.239	0.019
-151.633	-35.798	0.156	-0.084
-150.618	-10.213	0.241	0.160
-149.604	9.305	0.368	0.278
-148.589	-157.895	-0.131	0.008
-147.574	116.298	0.159	0.195
-146.560	48.342	0.269	-0.251
-145.545	351.288	-0.091	0.180
-144.531	1.616	-0.011	0.008
-143.516	-200.000	0.222	0.000
-142.502	-200.000	-0.131	-0.000
-141.487	271.642	0.081	0.143
-140.472	225.420	-0.091	0.147
-139.458	34.852	0.354	0.309
-138.443	114.197	0.178	0.216
-137.429	-200.000	-0.023	0.103
-136.414	-141.198	0.211	-0.021
-135.399	251.660	-0.039	0.066
-134.385	-86.202	0.041	-0.013
-133.370	-200.000	-0.061	0.435
-132.356	65.171	-0.224	0.226
-131.341	-52.632	0.112	-0.052
-130.326	-24.549	0.127	0.076
-129.312	137.642	-0.155	-0.203
-128.297	701.825	-0.153	0.402
-127.283	-200.000	0.062	0.446
-126.268	101.724	-0.103	-0.120
-125.253	458.061	0.146	-0.324
-124.239	42.399	0.218	-0.198
-123.224	-103.495	0.194	0.046
-122.210	244.031	0.152	-0.255
-121.195	-51.527	-0.228	0.106
