DTS Sentinel unit serial number:	SN413079Multiplexer serial number:	ORYXHardware model number:	OX4-SRSoftware version number:	ORYX F/W v4.00 Oryx Data Collector v3.7.2.0data status	okinstallation	princeton_trtdifferential loss correction	single-endedforward channel	channel 4reverse channel	N/Adate	2019/09/16time	19:37:35forward acquisition time	60.00reverse acquisition time	0.00gamma	496.2192k internal	0.2308k external	0.2308temperature offset calibration	0.9969default loss term (dB/km)	0.3790temperature slope calibration	1.0000multiplexer offset coefficient	1.0000multiplexer slope coefficient	1.0000fibre end	0.00T internal ref (°C)	34.20T ext. ref 1 (°C)	0.12T ext. ref 2 (°C)	27.17length (m)	temperature (°C)	Stokes	anti-Stokes-747.200	-176.094	0.300	0.008
-746.185	126.944	-0.248	0.319
-745.171	-150.948	0.135	-0.010
-744.156	-30.701	0.182	-0.105
-743.142	54.440	-0.135	0.132
-742.127	800.000	-0.164	0.490
-741.112	330.276	0.182	-0.357
-740.098	331.278	0.185	0.363
-739.083	110.651	0.185	0.226
-738.069	42.740	0.173	0.160
-737.054	-200.000	-0.001	0.025
-736.039	-105.558	-0.348	0.080
-735.025	-133.631	0.207	0.026
-734.010	6.744	-0.233	-0.177
-732.996	-52.535	-0.133	-0.062
-731.981	102.574	-0.235	0.279
-730.966	89.230	-0.185	0.209
-729.952	23.518	-0.221	0.185
-728.937	-121.356	-0.410	0.069
-727.923	61.474	0.022	0.022
-726.908	21.611	0.111	-0.091
-725.894	-47.423	-0.077	0.038
-724.879	-58.991	-0.289	-0.127
-723.864	-159.720	-0.048	-0.003
-722.850	24.585	-0.217	-0.183
-721.835	-100.263	-0.201	-0.051
-720.821	95.455	-0.142	-0.164
-719.806	-111.895	0.369	-0.076
-718.791	286.664	-0.097	-0.178
-717.777	-21.160	-0.013	0.008
-716.762	800.000	-0.082	0.342
-715.748	-200.000	0.013	0.601
-714.733	800.000	0.064	0.211
-713.718	-200.000	0.012	-0.176
-712.704	-104.310	0.218	-0.051
-711.689	100.381	-0.107	-0.126
-710.675	-200.000	0.011	-0.059
-709.660	81.243	-0.180	0.197
-708.645	-28.226	-0.229	0.134
-707.631	27.506	-0.302	0.258
-706.616	-200.000	-0.010	0.200
-705.602	778.060	-0.048	0.132
-704.587	-37.751	-0.211	-0.114
-703.572	-39.549	0.123	0.065
-702.558	-143.305	0.414	-0.040
-701.543	-26.886	-0.073	0.043
-700.529	-66.680	-0.353	0.142
-699.514	-145.400	-0.212	-0.019
-698.499	78.156	-0.094	0.101
-697.485	-88.935	-0.204	0.061
-696.470	-182.109	0.286	-0.005
-695.456	167.972	0.139	0.201
-694.441	422.646	0.093	0.202
-693.426	218.138	0.012	0.020
-692.412	800.000	0.038	0.129
-691.397	58.405	0.165	0.165
-690.383	-26.108	-0.042	0.025
-689.368	-58.970	-0.022	0.010
-688.354	-101.383	0.119	-0.029
-687.339	-95.396	0.247	-0.067
-686.324	-200.000	0.021	-0.387
-685.310	500.678	0.095	-0.223
-684.295	-162.995	-0.114	-0.006
-683.281	-200.000	-0.055	-0.321
-682.266	-196.272	-0.090	0.001
-681.251	800.000	-0.103	0.366
-680.237	-33.609	-0.388	-0.217
-679.222	800.000	0.035	0.103
-678.208	632.102	0.138	0.354
-677.193	-59.295	-0.145	-0.063
-676.178	-73.021	0.112	0.042
-675.164	-200.000	0.041	-0.234
-674.149	65.475	0.105	0.107
-673.135	447.909	0.051	-0.114
-672.120	-37.579	0.194	0.105
-671.105	-173.778	-0.152	0.005
-670.091	527.594	0.130	-0.310
-669.076	-200.000	0.005	-0.179
-668.062	800.000	0.091	-0.286
-667.047	4.857	-0.347	0.259
-666.032	-200.000	0.082	-0.373
-665.018	59.651	-0.208	-0.208
-664.003	402.383	0.020	0.042
-662.989	800.000	-0.080	0.267
-661.974	-200.000	-0.032	-0.218
-660.959	59.365	-0.124	-0.124
-659.945	-133.198	-0.173	0.022
-658.930	-36.221	0.174	-0.095
-657.916	57.589	0.032	-0.032
-656.901	484.100	-0.107	-0.248
-655.886	-32.270	-0.328	-0.186
-654.872	35.322	-0.207	0.184
-653.857	-111.321	0.145	0.030
-652.843	22.326	-0.292	0.242
-651.828	-95.972	-0.345	0.093
-650.814	-4.320	-0.251	-0.176
-649.799	189.438	-0.059	0.089
-648.784	92.414	-0.296	-0.338
-647.770	795.878	0.111	-0.311
-646.755	800.000	-0.078	0.246
-645.741	-88.490	0.311	-0.094
-644.726	-5.639	-0.309	0.215
-643.711	-103.850	-0.137	0.032
-642.697	-51.303	0.319	-0.151
-641.682	-112.148	0.148	0.030
-640.668	800.000	-0.081	0.263
-639.653	800.000	0.067	0.198
-638.638	162.337	0.042	-0.060
-637.624	36.365	-0.255	-0.227
-636.609	-81.732	0.071	0.024
-635.595	292.391	-0.082	0.151
-634.580	240.160	0.027	0.046
-633.565	-137.125	-0.376	-0.043
-632.551	-43.445	-0.156	0.080
-631.536	220.284	0.096	0.156
-630.522	-200.000	0.008	0.404
-629.507	549.636	-0.086	0.209
-628.492	-1.553	-0.238	0.170
-627.478	460.757	0.092	-0.207
-626.463	150.017	0.186	-0.256
-625.449	-200.000	-0.049	-0.514
-624.434	-200.000	0.024	-0.154
-623.419	-168.015	0.255	-0.010
-622.405	86.232	-0.121	-0.135
-621.390	52.449	0.039	-0.038
-620.376	-200.000	0.028	-0.296
-619.361	102.462	0.148	0.175
-618.346	-200.000	-0.024	-0.122
-617.332	-47.644	-0.295	-0.145
-616.317	69.161	0.117	0.122
-615.303	73.912	0.084	0.089
-614.288	-6.528	-0.141	0.097
-613.273	-126.215	0.135	0.020
-612.259	-126.639	-0.144	0.022
-611.244	800.000	-0.003	0.009
-610.230	21.165	0.187	0.153
-609.215	633.364	0.198	0.509
-608.201	-200.000	-0.050	-0.314
-607.186	-107.495	0.191	-0.042
-606.171	25.895	0.108	-0.091
-605.157	95.421	0.249	0.287
-604.142	180.674	0.259	0.385
-603.128	-98.657	-0.170	0.044
-602.113	800.000	-0.097	-0.274
-601.098	262.962	-0.059	0.103
-600.084	-75.383	-0.061	-0.022
-599.069	129.228	0.145	0.187
-598.055	-89.217	-0.050	0.015
-597.040	18.143	-0.326	-0.263
-596.025	-7.795	-0.312	0.213
-595.011	-8.564	0.117	-0.079
-593.996	371.215	-0.130	-0.266
-592.982	-200.000	-0.008	-0.204
-591.967	-119.044	0.460	-0.081
-590.952	-160.449	-0.169	-0.009
-589.938	45.830	-0.278	0.260
-588.923	-86.168	0.149	-0.046
-587.909	-133.643	-0.106	-0.013
-586.894	-41.122	0.326	-0.170
-585.879	316.513	0.117	0.224
-584.865	-200.000	-0.017	-0.163
-583.850	255.819	-0.091	-0.157
-582.836	294.150	0.106	0.196
-581.821	641.826	-0.132	-0.339
-580.806	800.000	-0.071	-0.256
-579.792	-188.216	-0.298	0.004
-578.777	-200.000	-0.021	-0.146
-577.763	478.024	-0.057	0.131
-576.748	-130.339	-0.133	0.018
-575.733	255.627	-0.140	0.243
-574.719	1.051	0.163	0.118
-573.704	-200.000	-0.014	-0.068
-572.690	148.447	-0.101	0.137
-571.675	-155.648	0.366	0.024
-570.661	15.841	-0.029	-0.023
-569.646	-156.097	0.413	-0.026
-568.631	800.000	0.012	0.055
-567.617	-37.082	-0.278	-0.150
-566.602	750.219	0.108	0.295
-565.588	-200.000	-0.013	-0.113
-564.573	-200.000	0.014	-0.139
-563.558	-2.934	0.244	0.172
-562.544	226.847	-0.146	0.239
-561.529	-101.929	-0.207	0.051
-560.515	-200.000	0.028	-0.177
-559.500	-95.171	0.188	0.051
-558.485	21.986	0.113	0.093
-557.471	276.627	0.151	-0.272
-556.456	-48.839	-0.234	-0.113
-555.442	67.176	0.251	0.258
-554.427	-82.204	-0.311	-0.102
-553.412	-200.000	-0.008	-0.121
-552.398	-80.016	-0.267	-0.091
-551.383	19.017	-0.267	-0.216
-550.369	314.733	0.048	-0.091
-549.354	-200.000	-0.013	0.302
-548.339	675.267	0.202	0.530
-547.325	-17.054	0.079	0.051
-546.310	-94.131	-0.195	-0.054
-545.296	12.455	0.212	-0.165
-544.281	4.374	0.196	-0.145
-543.266	67.171	-0.042	0.043
-542.252	69.254	-0.070	-0.073
-541.237	-37.966	0.210	0.113
-540.223	-182.409	-0.249	0.005
-539.208	-200.000	-0.049	0.358
-538.193	-70.332	0.294	-0.112
-537.179	-67.994	-0.222	0.087
-536.164	88.287	0.261	-0.292
-535.150	-109.563	0.224	-0.048
-534.135	-52.827	0.386	-0.179
-533.121	132.326	-0.027	0.035
-532.106	162.313	-0.159	0.225
-531.091	800.000	0.044	0.146
-530.077	-120.950	-0.233	-0.039
-529.062	121.667	0.219	0.276
-528.048	42.031	-0.102	-0.093
-527.033	-200.000	0.022	-0.195
-526.018	257.476	-0.097	-0.168
-525.004	519.783	0.065	-0.153
-523.989	15.678	-0.070	0.055
-522.975	47.410	-0.115	0.108
-521.960	-200.000	-0.047	0.233
-520.945	800.000	0.078	-0.252
-519.931	545.832	0.054	-0.131
-518.916	-200.000	0.028	-0.338
-517.902	71.532	0.132	0.139
-516.887	272.733	-0.084	0.149
-515.872	65.085	-0.101	0.102
-514.858	451.266	-0.068	-0.152
-513.843	-38.199	-0.186	0.099
-512.829	67.138	-0.141	-0.145
-511.814	-69.468	0.599	-0.231
-510.799	-200.000	-0.025	0.117
-509.785	81.890	0.276	-0.301
-508.770	-153.206	0.153	0.011
-507.756	770.730	-0.139	0.381
-506.741	-200.000	-0.038	0.223
-505.726	-200.000	0.092	-0.444
-504.712	0.241	0.163	0.117
-503.697	154.221	0.201	0.277
-502.683	-200.000	0.007	0.136
-501.668	800.000	-0.104	-0.309
-500.653	478.563	-0.196	0.448
-499.639	-200.000	0.034	-0.183
-498.624	63.781	0.104	-0.105
-497.610	503.036	0.092	0.213
-496.595	-163.651	-0.113	-0.005
-495.581	-154.186	-0.342	-0.023
-494.566	800.000	0.088	-0.273
-493.551	-102.521	0.144	0.035
-492.537	592.025	0.074	0.183
-491.522	585.414	0.184	-0.455
-490.508	-66.093	-0.231	0.093
-489.493	-124.955	-0.288	-0.045
-488.478	73.282	0.193	0.203
-487.464	-106.508	0.333	-0.075
-486.449	-8.377	0.222	-0.150
-485.435	739.937	-0.064	0.172
-484.420	-200.000	-0.037	-0.420
-483.405	-8.621	-0.148	0.100
-482.391	-51.255	0.302	-0.142
-481.376	-200.000	0.012	0.071
-480.362	-200.000	-0.026	-0.267
-479.347	-106.553	-0.246	0.055
-478.332	-44.955	0.322	-0.161
-477.318	211.329	-0.073	0.115
-476.303	-200.000	0.055	-0.367
-475.289	-52.193	-0.484	-0.226
-474.274	82.121	0.205	-0.224
-473.259	-195.070	-0.101	0.001
-472.245	800.000	-0.141	-0.411
-471.230	-50.213	-0.284	0.135
-470.216	282.735	-0.078	-0.142
-469.201	800.000	-0.029	0.087
-468.186	102.058	-0.162	-0.190
-467.172	38.397	-0.259	-0.232
-466.157	192.549	0.239	0.363
-465.143	160.506	-0.135	0.190
-464.128	-35.668	-0.197	0.107
-463.113	-200.000	-0.029	-0.139
-462.099	800.000	-0.069	0.210
-461.084	114.472	-0.167	0.204
-460.070	-104.648	0.092	-0.021
-459.055	545.787	0.112	-0.270
-458.040	315.741	-0.099	0.187
-457.026	-200.000	0.001	-0.012
-456.011	2.121	-0.253	-0.184
-454.997	-152.867	0.224	0.016
-453.982	408.966	-0.104	-0.222
-452.968	125.427	-0.148	-0.188
-451.953	-9.662	0.169	-0.113
-450.938	-200.000	0.199	-0.000
-449.924	115.704	-0.153	0.188
-448.909	-24.453	-0.248	0.148
-447.895	59.829	-0.204	0.202
-446.880	800.000	-0.079	0.229
-445.865	36.078	-0.287	0.254
-444.851	-200.000	0.027	0.250
-443.836	323.963	-0.134	0.258
-442.822	-87.845	0.228	0.069
-441.807	-200.000	0.017	-0.239
-440.792	-33.407	-0.098	-0.055
-439.778	-200.000	-0.001	-0.060
-438.763	53.011	0.152	0.146
-437.749	-149.936	0.071	0.006
-436.734	-79.671	0.073	0.025
-435.719	259.925	-0.081	0.141
-434.705	158.694	-0.091	-0.127
-433.690	14.354	-0.191	-0.149
-432.676	-84.846	-0.090	0.028
-431.661	-64.199	0.353	-0.145
-430.646	369.926	0.090	0.183
-429.632	176.468	-0.108	-0.158
-428.617	-132.881	0.198	-0.025
-427.603	-71.779	-0.279	-0.105
-426.588	18.311	-0.294	-0.236
-425.573	-16.883	0.291	-0.185
-424.559	87.148	-0.251	-0.279
-423.544	-84.858	0.206	0.065
-422.530	-200.000	-0.019	0.243
-421.515	54.633	-0.221	0.214
-420.500	-8.993	0.338	0.227
-419.486	162.926	-0.263	-0.370
-418.471	-111.564	0.392	0.080
-417.457	-200.000	0.001	-0.162
-416.442	-75.487	-0.124	0.044
-415.428	413.271	0.006	-0.014
-414.413	130.896	0.189	0.243
-413.398	440.514	0.146	0.320
-412.384	-84.408	0.071	0.023
-411.369	-158.487	-0.416	0.024
-410.355	-111.213	-0.129	-0.027
-409.340	-33.038	-0.056	-0.031
-408.325	800.000	-0.032	-0.107
-407.311	-182.298	0.133	0.002
-406.296	-166.550	0.365	-0.015
-405.282	111.127	0.068	-0.082
-404.267	-44.083	-0.171	-0.086
-403.252	57.980	-0.058	0.057
-402.238	800.000	-0.017	-0.067
-401.223	-83.871	0.297	-0.095
-400.209	89.161	-0.183	0.204
-399.194	99.965	0.040	0.046
-398.179	-29.218	0.165	0.095
-397.165	442.047	-0.095	0.209
-396.150	340.252	-0.191	0.374
-395.136	-200.000	0.064	0.330
-394.121	13.123	0.270	0.210
-393.106	800.000	-0.043	0.140
-392.092	242.852	-0.138	-0.231
-391.077	-200.000	0.002	-0.100
-390.063	16.969	0.125	0.099
-389.048	-146.333	-0.232	-0.020
-388.033	-200.000	0.007	0.279
-387.019	155.763	-0.182	0.251
-386.004	-117.466	-0.300	-0.054
-384.990	182.768	0.117	-0.173
-383.975	6.742	0.124	0.093
-382.960	-120.807	-0.195	0.033
-381.946	150.793	-0.120	-0.163
-380.931	218.614	-0.195	-0.313
-379.917	27.951	-0.262	0.222
-378.902	-200.000	0.021	0.224
-377.888	-19.806	-0.046	-0.028
-376.873	-200.000	-0.004	-0.215
-375.858	800.000	0.028	-0.112
-374.844	-46.492	-0.180	0.089
-373.829	-83.347	-0.209	0.067
-372.815	-195.280	-0.144	-0.001
-371.800	800.000	0.081	0.232
-370.785	184.364	-0.273	0.405
-369.771	49.416	0.258	-0.244
-368.756	-57.694	0.116	-0.051
-367.742	-125.395	0.286	0.044
-366.727	-28.120	0.246	-0.142
-365.712	241.953	-0.094	0.157
-364.698	-48.255	0.214	0.103
-363.683	-77.439	-0.268	0.093
-362.669	-200.000	-0.049	-0.397
-361.654	203.194	-0.124	0.191
-360.639	-139.958	-0.209	0.022
-359.625	-110.967	0.278	0.057
-358.610	-66.798	0.220	0.087
-357.596	516.373	0.054	0.127
-356.581	-67.677	0.159	0.062
-355.566	216.881	-0.099	-0.159
-354.552	-176.788	-0.136	-0.003
-353.537	-162.186	-0.270	0.014
-352.523	713.983	-0.047	0.126
-351.508	-6.143	-0.289	-0.198
-350.493	2.094	-0.185	0.134
-349.479	694.014	-0.098	-0.256
-348.464	-200.000	0.039	0.000
-347.450	141.115	0.133	0.176
-346.435	-200.000	0.036	-0.228
-345.420	87.830	-0.224	-0.249
-344.406	46.449	-0.183	-0.170
-343.391	34.668	-0.044	0.038
-342.377	-110.207	-0.347	-0.072
-341.362	492.484	-0.023	0.053
-340.348	-120.055	0.053	0.009
-339.333	61.435	-0.140	0.140
-338.318	-137.202	0.071	-0.008
-337.304	20.603	0.099	0.080
-336.289	160.457	0.124	0.173
-335.275	-200.000	0.012	0.139
-334.260	-200.000	-0.032	-0.487
-333.245	-39.667	-0.186	-0.097
-332.231	-123.879	0.174	-0.028
-331.216	-0.368	0.036	0.025
-330.202	55.952	-0.180	0.174
-329.187	471.778	-0.108	0.244
-328.172	0.790	0.170	-0.122
-327.158	221.202	0.125	0.201
-326.143	-122.643	-0.066	-0.011
-325.129	31.630	0.313	-0.269
-324.114	271.583	-0.024	-0.042
-323.099	34.638	0.062	-0.055
-322.085	-67.099	0.306	-0.121
-321.070	15.477	-0.124	0.097
-320.056	522.975	0.045	-0.107
-319.041	-196.361	0.048	0.000
-318.026	490.594	-0.146	0.335
-317.012	-9.858	0.188	-0.125
-315.997	-147.071	-0.006	0.001
-314.983	-84.303	-0.373	0.118
-313.968	465.861	0.070	-0.156
-312.953	-165.314	0.276	-0.012
-311.939	-29.489	-0.233	-0.133
-310.924	378.422	-0.059	-0.120
-309.910	800.000	-0.039	0.157
-308.895	-65.553	0.252	0.101
-307.880	-200.000	-0.031	0.194
-306.866	107.279	0.058	-0.069
-305.851	-33.073	-0.219	-0.121
-304.837	-61.151	0.054	-0.023
-303.822	-159.906	-0.142	-0.008
-302.807	800.000	-0.032	0.135
-301.793	-148.617	0.201	-0.016
-300.778	12.614	-0.121	0.093
-299.764	-165.577	0.167	0.007
-298.749	-118.188	-0.109	0.019
-297.735	-2.272	0.117	-0.082
-296.720	-64.377	-0.257	0.105
-295.705	-47.018	0.095	0.046
-294.691	-200.000	-0.013	-0.097
-293.676	61.426	0.106	-0.105
-292.662	395.926	-0.114	-0.237
-291.647	53.500	-0.049	0.047
-290.632	-41.053	-0.166	-0.086
-289.618	441.877	-0.109	-0.239
-288.603	35.250	-0.216	-0.189
-287.589	-73.272	0.290	0.106
-286.574	301.222	-0.078	-0.145
-285.559	4.414	0.133	-0.098
-284.545	-137.861	0.263	-0.029
-283.530	-138.294	0.267	-0.029
-282.516	54.728	-0.244	0.235
-281.501	2.386	-0.246	0.178
-280.486	343.900	0.158	0.309
-279.472	-2.506	0.106	-0.074
-278.457	106.755	0.176	-0.209
-277.443	-0.841	0.181	-0.128
-276.428	502.573	-0.078	-0.180
-275.413	800.000	0.019	0.073
-274.399	563.345	-0.070	0.169
-273.384	-200.000	-0.035	0.373
-272.370	-177.684	0.361	-0.009
-271.355	-32.433	0.439	-0.245
-270.340	83.143	0.105	-0.114
-269.326	153.110	-0.102	-0.139
-268.311	800.000	0.103	0.292
-267.297	14.211	0.156	0.121
-266.282	391.263	-0.106	0.220
-265.267	-59.539	-0.254	-0.109
-264.253	22.392	0.122	0.099
-263.238	76.516	-0.169	-0.179
-262.224	-200.000	0.013	0.139
-261.209	597.513	-0.032	0.080
-260.195	-14.533	-0.141	0.090
-259.180	-0.572	-0.200	0.141
-258.165	800.000	0.085	0.308
-257.151	-68.067	0.494	0.192
-256.136	18.580	-0.029	-0.023
-255.122	-45.671	-0.135	-0.066
-254.107	-87.312	-0.105	0.032
-253.092	800.000	-0.128	0.373
-252.078	487.283	-0.122	0.278
-251.063	22.138	-0.089	0.073
-250.049	7.794	-0.265	-0.198
-249.034	678.739	0.049	0.126
-248.019	-62.855	0.189	-0.078
-247.005	-51.640	-0.140	-0.065
-245.990	31.375	0.092	-0.079
-244.976	-140.141	-0.210	-0.022
-243.961	-100.661	0.275	0.068
-242.946	-141.285	0.153	0.016
-241.932	26.984	0.074	0.062
-240.917	-99.695	0.088	0.022
-239.903	-200.000	0.022	-0.206
-238.888	133.239	0.233	0.301
-237.873	66.778	0.155	-0.157
-236.859	175.880	0.076	-0.110
-235.844	-200.000	0.007	0.228
-234.830	-16.875	-0.232	-0.146
-233.815	-51.389	-0.080	0.037
-232.800	-200.000	-0.085	0.371
-231.786	-40.952	0.066	0.034
-230.771	-43.193	0.252	0.127
-229.757	-200.000	0.007	-0.036
-228.742	-129.470	0.332	0.046
-227.727	800.000	0.040	-0.132
-226.713	-181.343	-0.146	-0.003
-225.698	174.585	0.166	-0.239
-224.684	266.801	-0.108	0.188
-223.669	108.846	-0.283	0.337
-222.655	-179.427	-0.219	-0.005
-221.640	-177.919	-0.398	-0.009
-220.625	198.691	-0.220	-0.335
-219.611	-160.158	0.214	-0.012
-218.596	31.179	0.098	-0.084
-217.582	-200.000	0.018	-0.218
-216.567	436.137	0.018	-0.040
-215.552	-200.000	0.009	-0.071
-214.538	-31.729	0.253	-0.141
-213.523	14.014	0.123	-0.095
-212.509	800.000	-0.025	0.093
-211.494	-200.000	-0.019	-0.120
-210.479	-48.337	-0.174	0.083
-209.465	-97.677	0.436	-0.112
-208.450	70.640	0.306	0.315
-207.436	-200.000	0.088	-0.382
-206.421	85.383	-0.176	0.192
-205.406	773.250	0.097	0.264
-204.392	-90.547	0.236	-0.068
-203.377	-73.786	0.023	-0.008
-202.363	646.878	0.055	0.139
-201.348	-79.041	-0.306	0.103
-200.333	-140.136	-0.117	-0.012
-199.319	143.500	0.152	-0.201
-198.304	229.528	0.092	0.149
-197.290	-82.681	-0.237	-0.076
-196.275	280.023	-0.111	-0.197
-195.260	-168.642	0.215	-0.008
-194.246	83.402	0.045	0.049
-193.231	147.160	-0.321	-0.430
-192.217	237.044	0.083	-0.137
-191.202	665.830	0.050	0.129
-190.187	-200.000	-0.090	0.406
-189.173	-75.866	0.124	0.044
-188.158	157.107	0.133	0.184
-187.144	-200.000	0.002	-0.073
-186.129	200.555	0.067	-0.102
-185.114	15.537	-0.223	-0.174
-184.100	-16.369	0.235	0.149
-183.085	-18.281	0.236	0.147
-182.071	-200.000	-0.024	-0.179
-181.056	-42.949	0.265	-0.134
-180.042	-66.257	0.112	0.044
-179.027	221.945	0.036	0.057
-178.012	28.050	0.203	-0.171
-176.998	42.982	0.142	-0.128
-175.983	-200.000	-0.043	-0.332
-174.969	-200.000	0.007	-0.084
-173.954	674.410	-0.051	0.131
-172.939	735.863	-0.063	0.167
-171.925	-67.934	-0.065	-0.025
-170.910	-200.000	-0.011	0.295
-169.896	-173.512	0.105	-0.003
-168.881	-25.459	0.182	0.107
-167.866	71.989	-0.248	0.257
-166.852	-200.000	-0.010	-0.152
-165.837	-200.000	-0.000	-0.068
-164.823	-200.000	0.005	-0.035
-163.808	191.183	0.164	0.245
-162.793	-8.700	-0.217	-0.144
-161.779	800.000	0.040	-0.132
-160.764	3.919	-0.226	-0.164
-159.750	145.094	0.163	-0.217
-158.735	-171.259	0.048	-0.002
-157.720	800.000	0.059	-0.223
-156.706	220.271	-0.128	-0.204
-155.691	-31.567	-0.419	-0.234
-154.677	125.247	0.230	-0.288
-153.662	-12.814	0.168	-0.109
-152.647	-168.887	0.234	-0.009
-151.633	46.637	-0.175	0.162
-150.618	-200.000	0.033	0.521
-149.604	-13.208	-0.081	0.052
-148.589	-80.461	-0.331	-0.110
-147.574	-1.030	-0.125	0.088
-146.560	-143.415	0.293	0.028
-145.545	321.080	-0.115	0.216
-144.531	456.644	-0.093	0.205
-143.516	529.642	-0.052	0.121
-142.502	128.101	-0.101	-0.128
-141.487	-137.585	-0.188	0.021
-140.472	-31.533	0.512	0.286
-139.458	56.663	-0.140	0.136
-138.443	31.534	-0.230	-0.196
-137.429	159.677	-0.157	-0.217
-136.414	44.376	0.191	-0.174
-135.399	38.793	-0.129	-0.114
-134.385	-180.678	0.316	0.006
-133.370	800.000	0.038	-0.143
-132.356	14.718	0.164	-0.127
-131.341	193.133	-0.089	-0.134
-130.326	-89.023	0.342	0.101
-129.312	-200.000	0.097	-0.000
-128.297	-24.722	0.273	0.161
-127.283	208.714	-0.064	0.099
-126.268	-24.908	-0.195	0.115
-125.253	201.987	0.184	-0.281
-124.239	-82.794	-0.127	0.041
-123.224	91.894	0.149	-0.167
-122.210	-141.059	-0.049	0.005
-121.195	-200.000	-0.002	-0.196
-120.180	-30.131	-0.127	0.071
