DTS Sentinel unit serial number:	SN413079Multiplexer serial number:	ORYXHardware model number:	OX4-SRSoftware version number:	ORYX F/W v4.00 Oryx Data Collector v3.7.2.0data status	okinstallation	princeton_trtdifferential loss correction	single-endedforward channel	channel 4reverse channel	N/Adate	2019/09/19time	09:57:34forward acquisition time	60.00reverse acquisition time	0.00gamma	496.2192k internal	0.2331k external	0.2331temperature offset calibration	1.0014default loss term (dB/km)	0.3790temperature slope calibration	1.0000multiplexer offset coefficient	1.0000multiplexer slope coefficient	1.0000fibre end	0.00T internal ref (°C)	23.67T ext. ref 1 (°C)	0.67T ext. ref 2 (°C)	19.33length (m)	temperature (°C)	Stokes	anti-Stokes-747.200	39.754	-0.126	-0.114
-746.185	-146.333	0.235	0.021
-745.171	280.029	0.119	0.214
-744.156	-84.064	0.381	0.122
-743.142	800.000	0.044	-0.159
-742.127	-200.000	-0.037	-0.284
-741.112	-71.543	-0.201	0.076
-740.098	-200.000	0.006	0.500
-739.083	-177.298	0.317	0.008
-738.069	45.524	-0.086	0.080
-737.054	21.800	0.347	0.284
-736.039	-200.000	-0.015	-0.289
-735.025	-44.473	0.121	-0.061
-734.010	800.000	-0.129	-0.456
-732.996	287.843	0.092	-0.168
-731.981	-64.878	0.234	-0.095
-730.966	600.753	-0.054	-0.135
-729.952	-107.472	-0.395	0.087
-728.937	397.352	-0.205	-0.431
-727.923	5.386	0.089	0.066
-726.908	260.093	0.194	0.337
-725.894	-25.025	0.140	-0.083
-724.879	330.540	-0.092	-0.179
-723.864	-113.237	-0.308	-0.061
-722.850	-200.000	0.014	0.081
-721.835	800.000	0.071	-0.224
-720.821	800.000	0.006	-0.021
-719.806	-4.649	0.317	-0.220
-718.791	-123.570	-0.472	0.075
-717.777	-115.974	-0.030	-0.006
-716.762	-122.715	-0.135	-0.022
-715.748	-76.259	-0.200	0.071
-714.733	-200.000	-0.059	-0.270
-713.718	-152.471	0.277	0.020
-712.704	70.840	0.055	0.058
-711.689	-85.565	0.155	-0.049
-710.675	-45.902	0.047	0.023
-709.660	800.000	-0.041	0.122
-708.645	103.199	-0.172	0.202
-707.631	-25.750	-0.252	-0.149
-706.616	37.814	0.195	-0.174
-705.602	-89.828	-0.223	-0.065
-704.587	-52.250	0.254	0.118
-703.572	-71.190	0.232	-0.087
-702.558	-56.127	0.157	0.070
-701.543	-146.365	-0.217	-0.019
-700.529	-200.000	-0.047	-0.238
-699.514	75.222	0.367	-0.389
-698.499	-63.199	-0.356	0.148
-697.485	602.453	-0.081	0.202
-696.470	50.851	0.065	-0.062
-695.456	800.000	-0.008	-0.027
-694.441	-161.648	-0.237	0.012
-693.426	694.630	0.127	0.335
-692.412	69.016	0.262	-0.270
-691.397	134.621	0.171	0.223
-690.383	-36.540	0.091	0.049
-689.368	800.000	-0.095	0.385
-688.354	800.000	0.050	0.177
-687.339	26.679	-0.138	0.116
-686.324	-186.666	-0.243	0.003
-685.310	54.742	-0.053	0.051
-684.295	485.544	0.131	-0.300
-683.281	800.000	0.024	-0.103
-682.266	-87.236	0.196	-0.060
-681.251	-47.329	0.101	-0.049
-680.237	55.628	-0.098	-0.095
-679.222	421.050	-0.070	-0.151
-678.208	25.923	0.063	-0.053
-677.193	-35.487	-0.265	0.144
-676.178	17.062	-0.031	0.025
-675.164	-200.000	-0.059	-0.318
-674.149	-108.487	-0.115	0.025
-673.135	32.834	-0.270	0.235
-672.120	752.139	-0.071	-0.192
-671.105	77.615	-0.138	-0.147
-670.091	258.001	-0.170	-0.293
-669.076	179.021	-0.074	-0.109
-668.062	-200.000	0.030	0.282
-667.047	-97.609	-0.273	-0.071
-666.032	46.876	0.177	-0.165
-665.018	87.725	-0.159	-0.177
-664.003	109.719	-0.348	-0.419
-662.989	-38.723	-0.310	-0.164
-661.974	249.969	-0.115	-0.196
-660.959	-76.883	-0.168	0.059
-659.945	227.496	0.240	-0.392
-658.930	-200.000	-0.005	-0.057
-657.916	800.000	0.039	-0.151
-656.901	-55.481	-0.147	0.066
-655.886	-132.480	-0.376	0.049
-654.872	4.686	-0.243	-0.179
-653.857	-113.531	-0.262	-0.051
-652.843	76.253	-0.145	-0.154
-651.828	288.591	-0.058	-0.104
-650.814	31.294	-0.084	-0.072
-649.799	305.545	-0.151	0.282
-648.784	58.716	0.018	-0.018
-647.770	-200.000	-0.050	-0.266
-646.755	-140.034	0.081	-0.009
-645.741	-141.649	0.233	-0.024
-644.726	800.000	-0.053	-0.213
-643.711	67.936	-0.261	-0.268
-642.697	-158.867	0.139	0.008
-641.682	388.897	-0.095	0.196
-640.668	-25.257	-0.238	0.141
-639.653	-200.000	-0.037	0.215
-638.638	-200.000	-0.007	0.076
-637.624	-100.568	-0.543	0.134
-636.609	-12.969	0.215	0.140
-635.595	263.656	-0.100	0.174
-634.580	171.191	-0.171	-0.246
-633.565	800.000	0.042	0.141
-632.551	232.174	-0.069	-0.113
-631.536	-95.249	-0.131	-0.035
-630.522	800.000	-0.083	-0.237
-629.507	-200.000	-0.003	0.164
-628.492	4.571	-0.204	-0.150
-627.478	-39.765	-0.158	-0.083
-626.463	29.937	-0.080	0.069
-625.449	442.899	-0.164	0.359
-624.434	-125.174	0.318	-0.049
-623.419	800.000	0.018	0.073
-622.405	-80.250	-0.067	-0.022
-621.390	-116.920	0.186	-0.034
-620.376	194.283	0.130	0.197
-619.361	18.865	-0.221	-0.178
-618.346	-49.678	-0.387	0.184
-617.332	-8.128	0.189	0.128
-616.317	-61.475	0.086	0.036
-615.303	-87.038	-0.061	0.019
-614.288	-200.000	-0.047	-0.247
-613.273	-44.241	0.305	-0.153
-612.259	-200.000	-0.184	0.000
-611.244	800.000	0.036	-0.129
-610.230	-25.456	-0.087	-0.052
-609.215	-0.118	-0.255	-0.182
-608.201	-83.194	-0.206	0.066
-607.186	32.215	0.484	0.418
-606.171	-57.754	0.317	0.139
-605.157	474.160	-0.138	-0.313
-604.142	224.323	0.275	-0.445
-603.128	29.351	-0.137	-0.116
-602.113	167.803	-0.192	-0.273
-601.098	82.595	0.143	-0.155
-600.084	468.778	0.173	0.389
-599.069	-65.678	-0.156	-0.063
-598.055	-200.000	-0.020	-0.171
-597.040	-29.880	0.234	0.133
-596.025	-125.790	0.159	-0.024
-595.011	113.662	0.144	0.175
-593.996	125.106	-0.092	0.116
-592.982	800.000	0.030	-0.106
-591.967	-137.809	-0.320	0.036
-590.952	-31.034	-0.362	0.204
-589.938	-78.458	-0.344	0.118
-588.923	467.752	0.051	0.115
-587.909	12.469	0.146	0.112
-586.894	800.000	-0.009	-0.037
-585.879	74.273	-0.058	0.061
-584.865	-200.000	0.009	-0.050
-583.850	800.000	0.041	0.128
-582.836	-15.854	0.135	0.086
-581.821	800.000	-0.031	0.104
-580.806	-113.862	0.285	0.055
-579.792	800.000	0.038	-0.134
-578.777	13.416	-0.127	0.098
-577.763	-143.982	0.422	-0.040
-576.748	610.044	-0.117	0.293
-575.733	112.074	0.068	-0.082
-574.719	53.655	-0.203	-0.195
-573.704	800.000	0.053	0.200
-572.690	800.000	-0.053	-0.213
-571.675	-29.812	-0.287	-0.164
-570.661	-23.265	0.015	-0.009
-569.646	208.322	-0.138	0.216
-568.631	-115.223	-0.568	0.108
-567.617	-200.000	-0.048	0.281
-566.602	597.352	-0.030	-0.074
-565.588	-200.000	-0.397	-0.001
-564.573	-31.084	0.244	0.137
-563.558	-200.000	0.009	-0.104
-562.544	800.000	0.147	-0.524
-561.529	800.000	-0.104	0.416
-560.515	-75.154	-0.383	0.137
-559.500	-68.187	0.210	-0.082
-558.485	26.099	-0.074	0.062
-557.471	109.820	0.120	-0.144
-556.456	800.000	-0.073	-0.264
-555.442	36.229	0.058	-0.051
-554.427	-200.000	0.029	0.270
-553.412	340.563	0.095	-0.185
-552.398	-159.411	-0.181	0.010
-551.383	-91.372	-0.222	0.063
-550.369	180.762	0.233	-0.342
-549.354	800.000	0.073	0.239
-548.339	-69.072	0.249	0.096
-547.325	-39.736	-0.149	0.078
-546.310	184.023	-0.224	-0.331
-545.296	800.000	-0.021	0.073
-544.281	-141.990	-0.114	-0.011
-543.266	323.889	0.099	-0.189
-542.252	-200.000	-0.040	-0.306
-541.237	34.044	-0.279	0.243
-540.223	145.521	-0.111	0.149
-539.208	-200.000	-0.006	-0.275
-538.193	800.000	-0.105	0.326
-537.179	-25.508	-0.238	0.140
-536.164	287.231	0.079	-0.143
-535.150	-200.000	-0.006	0.118
-534.135	-26.581	0.211	0.123
-533.121	266.611	-0.163	-0.285
-532.106	19.648	0.162	0.130
-531.091	227.535	-0.117	-0.190
-530.077	-52.266	0.296	-0.137
-529.062	206.503	-0.183	0.285
-528.048	-200.000	-0.029	0.283
-527.033	-121.191	0.284	-0.047
-526.018	800.000	0.059	0.177
-525.004	33.653	-0.140	0.121
-523.989	356.522	0.078	-0.155
-522.975	-200.000	0.024	0.151
-521.960	-58.013	0.243	0.106
-520.945	-200.000	-0.003	0.406
-519.931	40.412	0.319	-0.286
-518.916	65.200	-0.150	-0.152
-517.902	-24.297	-0.201	-0.119
-516.887	800.000	-0.024	-0.102
-515.872	704.949	-0.030	0.078
-514.858	233.387	0.103	-0.169
-513.843	-200.000	0.014	-0.128
-512.829	-93.334	0.329	0.091
-511.814	-170.283	-0.111	0.004
-510.799	67.852	-0.215	-0.219
-509.785	-200.000	0.006	-0.094
-508.770	415.199	-0.095	-0.201
-507.756	-176.461	0.203	0.005
-506.741	-160.432	0.195	-0.010
-505.726	187.032	0.212	-0.315
-504.712	157.927	-0.053	0.073
-503.697	77.125	-0.160	0.170
-502.683	140.647	0.152	0.201
-501.668	107.341	0.155	0.184
-500.653	-200.000	0.050	0.279
-499.639	68.543	-0.058	-0.060
-498.624	-21.479	0.090	0.055
-497.610	-63.629	0.138	-0.056
-496.595	-88.128	0.251	0.075
-495.581	-61.621	-0.071	-0.030
-494.566	128.301	0.229	0.290
-493.551	-79.120	-0.250	0.085
-492.537	800.000	0.120	-0.344
-491.522	-109.636	-0.296	-0.062
-490.508	618.684	0.152	0.379
-489.493	327.629	-0.018	0.034
-488.478	-112.020	0.157	0.032
-487.464	-200.000	-0.017	-0.152
-486.449	-30.059	-0.181	-0.102
-485.435	800.000	-0.033	-0.129
-484.420	416.295	-0.090	-0.191
-483.405	797.174	0.061	-0.169
-482.391	-200.000	-0.000	-0.001
-481.376	254.743	-0.134	0.228
-480.362	-143.615	-0.145	-0.014
-479.347	147.098	-0.250	0.335
-478.332	800.000	0.045	0.160
-477.318	55.445	0.061	0.058
-476.303	-23.873	-0.125	0.075
-475.289	90.037	-0.221	-0.246
-474.274	-137.881	-0.119	-0.013
-473.259	120.181	0.234	-0.289
-472.245	28.812	0.190	0.160
-471.230	270.031	0.140	0.245
-470.216	-200.000	0.057	-0.332
-469.201	492.429	0.048	-0.109
-468.186	-94.314	0.328	0.089
-467.172	-200.000	0.002	-0.141
-466.157	75.008	0.083	0.087
-465.143	-200.000	0.003	0.135
-464.128	-200.000	-0.032	-0.161
-463.113	-200.000	0.011	0.201
-462.099	-168.852	0.124	-0.005
-461.084	-82.945	-0.138	0.044
-460.070	-148.024	0.290	0.024
-459.055	800.000	-0.069	-0.213
-458.040	-74.648	-0.297	-0.106
-457.026	800.000	-0.082	-0.344
-456.011	-68.933	-0.182	0.070
-454.997	-200.000	-0.029	-0.271
-453.982	-181.538	0.347	-0.007
-452.968	62.720	0.201	0.200
-451.953	296.472	-0.078	0.142
-450.938	-98.775	-0.103	0.026
-449.924	-200.000	0.006	0.224
-448.909	-200.000	0.039	0.249
-447.895	44.422	0.135	0.123
-446.880	-34.048	0.147	0.081
-445.865	800.000	-0.097	0.305
-444.851	800.000	0.073	-0.239
-443.836	416.164	0.076	0.161
-442.822	324.533	0.097	0.185
-441.807	-70.501	0.384	-0.145
-440.792	800.000	0.036	0.102
-439.778	46.844	0.232	-0.215
-438.763	45.674	0.287	0.263
-437.749	25.121	0.093	-0.077
-436.734	-71.692	0.176	-0.065
-435.719	-88.261	-0.082	-0.025
-434.705	333.248	-0.106	0.204
-433.690	-200.000	-0.005	-0.053
-432.676	137.143	-0.239	0.311
-431.661	800.000	-0.020	0.071
-430.646	-31.837	-0.073	0.041
-429.632	-90.748	-0.293	-0.084
-428.617	180.568	-0.131	0.191
-427.603	-28.074	-0.030	0.017
-426.588	261.406	0.104	0.178
-425.573	308.119	0.109	-0.202
-424.559	-166.769	-0.243	0.010
-423.544	-114.684	-0.318	-0.060
-422.530	2.545	-0.201	-0.144
-421.515	623.198	0.107	-0.268
-420.500	-30.361	0.266	-0.150
-419.486	-200.000	-0.019	-0.327
-418.471	85.301	0.195	0.213
-417.457	-200.000	0.020	0.169
-416.442	-124.589	0.152	0.023
-415.428	-200.000	0.013	0.075
-414.413	800.000	0.114	-0.442
-413.398	-97.946	-0.468	0.120
-412.384	136.390	-0.098	0.127
-411.369	-161.190	0.256	-0.013
-410.355	-102.706	0.171	0.041
-409.340	-174.681	-0.386	-0.011
-408.325	255.792	-0.247	-0.421
-407.311	108.147	0.229	0.271
-406.296	-200.000	0.068	-0.515
-405.282	-130.203	0.221	-0.030
-404.267	-142.226	0.153	0.015
-403.252	-42.171	0.294	-0.149
-402.238	19.340	-0.054	-0.043
-401.223	-160.824	0.081	0.004
-400.209	236.885	-0.114	0.188
-399.194	38.365	0.140	-0.124
-398.179	352.562	-0.083	0.164
-397.165	800.000	0.039	-0.114
-396.150	-91.443	-0.102	-0.029
-395.136	-200.000	-0.001	-0.070
-394.121	800.000	0.099	0.338
-393.106	161.401	-0.217	-0.301
-392.092	192.893	0.175	-0.263
-391.077	-200.000	-0.044	0.192
-390.063	228.548	0.198	0.321
-389.048	-6.210	-0.269	0.182
-388.033	-124.005	-0.079	-0.012
-387.019	270.726	0.059	0.104
-386.004	-132.767	-0.123	0.016
-384.990	-200.000	-0.046	-0.215
-383.975	213.910	0.102	-0.161
-382.960	-200.000	0.065	0.323
-381.946	367.638	0.113	0.226
-380.931	-40.807	0.222	0.114
-379.917	-147.783	0.156	0.013
-378.902	800.000	0.030	-0.094
-377.888	-183.821	-0.346	0.006
-376.873	-7.340	0.362	-0.243
-375.858	69.091	0.224	-0.228
-374.844	-11.870	0.047	-0.031
-373.829	-57.359	0.141	-0.061
-372.815	-111.114	0.258	-0.053
-371.800	-99.382	-0.070	-0.017
-370.785	-117.460	-0.086	-0.015
-369.771	5.420	-0.190	0.139
-368.756	401.454	-0.095	0.198
-367.742	-178.821	-0.317	0.007
-366.727	-200.000	-0.015	-0.202
-365.712	148.231	-0.062	-0.083
-364.698	-200.000	0.003	-0.184
-363.683	127.516	-0.036	-0.046
-362.669	69.932	0.170	-0.174
-361.654	478.262	-0.127	-0.285
-360.639	-13.415	0.334	-0.215
-359.625	-131.518	-0.192	0.025
-358.610	60.520	-0.172	0.169
-357.596	224.676	0.034	-0.055
-356.581	6.121	-0.333	-0.245
-355.566	-200.000	0.076	0.344
-354.552	-200.000	-0.023	0.372
-353.537	162.632	0.043	-0.060
-352.523	123.789	0.178	-0.222
-351.508	72.331	0.108	-0.111
-350.493	-17.644	-0.355	-0.221
-349.479	-200.000	-0.026	-0.312
-348.464	749.906	-0.081	-0.216
-347.450	-200.000	0.007	0.228
-346.435	265.710	0.108	0.187
-345.420	800.000	0.107	-0.333
-344.406	267.855	0.194	-0.337
-343.391	-200.000	-0.020	-0.147
-342.377	-104.427	0.223	-0.051
-341.362	-200.000	0.066	0.337
-340.348	-126.100	-0.101	0.015
-339.333	131.873	0.030	0.038
-338.318	-5.689	0.185	-0.126
-337.304	-108.546	-0.081	0.017
-336.289	36.012	0.172	0.150
-335.275	-159.410	0.172	0.010
-334.260	21.261	0.049	0.039
-333.245	-200.000	0.031	0.204
-332.231	-168.901	0.138	0.005
-331.216	27.216	-0.152	-0.126
-330.202	-200.000	-0.035	-0.486
-329.187	-52.352	-0.287	0.131
-328.172	-46.593	-0.318	0.155
-327.158	153.807	-0.199	-0.270
-326.143	-200.000	-0.032	-0.288
-325.129	800.000	-0.058	-0.192
-324.114	-200.000	-0.030	-0.287
-323.099	-100.992	-0.147	-0.036
-322.085	497.623	0.109	0.248
-321.070	-200.000	-0.003	0.058
-320.056	110.927	0.243	-0.290
-319.041	29.252	-0.102	0.086
-318.026	-200.000	0.042	-0.193
-317.012	296.431	-0.003	0.005
-315.997	-22.737	-0.298	0.178
-314.983	27.931	-0.113	0.094
-313.968	-7.349	-0.140	-0.094
-312.953	-112.621	-0.037	0.007
-311.939	-200.000	-0.002	-0.029
-310.924	-199.879	-0.127	0.001
-309.910	-99.550	-0.433	0.108
-308.895	-55.468	-0.087	-0.039
-307.880	-103.714	-0.251	0.058
-306.866	-35.066	0.239	0.129
-305.851	33.241	-0.166	0.143
-304.837	-139.285	-0.100	-0.011
-303.822	138.967	-0.040	-0.052
-302.807	-133.352	-0.121	0.015
-301.793	-5.063	0.215	-0.147
-300.778	2.571	0.465	0.333
-299.764	-8.835	-0.155	-0.103
-298.749	140.301	0.092	-0.120
-297.735	-10.567	0.097	-0.064
-296.720	11.489	0.051	0.038
-295.705	-200.000	-0.002	-0.054
-294.691	41.270	0.074	0.066
-293.676	607.741	0.129	0.317
-292.662	142.711	0.167	-0.219
-291.647	-200.000	0.011	0.092
-290.632	-3.760	0.178	-0.123
-289.618	14.078	0.131	-0.101
-288.603	800.000	0.019	0.079
-287.589	-172.174	0.315	0.010
-286.574	173.094	0.049	-0.069
-285.559	24.889	-0.099	0.081
-284.545	293.571	-0.086	-0.155
-283.530	47.189	0.133	-0.123
-282.516	143.116	-0.045	-0.059
-281.501	-67.909	-0.348	-0.134
-280.486	-200.000	0.022	-0.139
-279.472	18.144	0.188	-0.148
-278.457	177.246	0.170	-0.245
-277.443	-176.417	0.061	0.002
-276.428	-68.137	0.171	-0.066
-275.413	-11.432	0.157	0.102
-274.399	-127.255	-0.133	-0.019
-273.384	142.457	-0.141	0.185
-272.370	-35.512	0.101	0.054
-271.355	-145.249	-0.299	0.027
-270.340	192.240	-0.112	-0.167
-269.326	710.222	-0.051	0.132
-268.311	-21.338	0.160	-0.096
-267.297	580.023	0.098	0.238
-266.282	-200.000	0.006	-0.114
-265.267	-95.797	0.427	-0.113
-264.253	294.729	-0.164	0.297
-263.238	-50.419	0.321	0.150
-262.224	105.445	-0.112	0.131
-261.209	-22.133	-0.060	0.036
-260.195	-200.000	0.044	0.356
-259.180	36.175	-0.181	-0.157
-258.165	21.639	0.257	0.206
-257.151	-43.332	0.350	0.175
-256.136	258.961	-0.121	-0.206
-255.122	18.744	-0.126	0.100
-254.107	597.548	0.038	-0.094
-253.092	490.194	0.025	0.057
-252.078	128.140	-0.018	-0.023
-251.063	-39.075	0.141	-0.073
-250.049	-200.000	-0.030	-0.243
-249.034	-200.000	-0.018	0.208
-248.019	32.846	0.192	-0.164
-247.005	-200.000	0.024	-0.189
-245.990	-41.888	0.081	-0.041
-244.976	568.141	0.140	0.336
-243.961	-200.000	-0.030	-0.311
-242.946	-73.811	0.017	0.006
-241.932	-83.771	0.030	0.009
-240.917	78.904	0.082	-0.087
-239.903	143.857	-0.112	-0.148
-238.888	-47.894	-0.081	0.039
-237.873	-200.000	0.036	0.265
-236.859	130.058	-0.144	0.182
-235.844	52.175	-0.202	-0.190
-234.830	668.312	-0.079	0.202
-233.815	263.947	-0.094	-0.160
-232.800	78.285	-0.270	0.284
-231.786	800.000	0.054	0.211
-230.771	-39.728	-0.127	-0.065
-229.757	-45.598	-0.122	0.060
-228.742	549.312	0.017	0.040
-227.727	-50.867	-0.086	0.040
-226.713	800.000	0.106	0.298
-225.698	50.440	-0.075	-0.070
-224.684	-151.112	0.129	0.010
-223.669	112.669	0.142	0.170
-222.655	800.000	0.030	-0.082
-221.640	235.740	0.164	0.267
-220.625	163.993	0.119	0.166
-219.611	8.635	0.179	-0.133
-218.596	-40.448	-0.110	-0.056
-217.582	800.000	-0.039	0.165
-216.567	786.726	0.149	-0.402
-215.552	-11.160	-0.312	-0.203
-214.538	-200.000	0.001	-0.157
-213.523	105.878	-0.329	0.384
-212.509	800.000	-0.051	0.216
-211.494	-200.000	0.023	-0.376
-210.479	-200.000	-0.016	0.215
-209.465	-200.000	0.010	-0.113
-208.450	135.811	-0.189	0.243
-207.436	-10.084	0.059	0.039
-206.421	137.141	0.176	-0.227
-205.406	-76.693	-0.118	0.041
-204.392	95.242	0.126	-0.141
-203.377	40.582	0.072	0.064
-202.363	-30.941	-0.290	-0.161
-201.348	193.624	0.187	0.279
-200.333	12.681	0.166	-0.126
-199.319	800.000	-0.051	-0.158
-198.304	-6.699	-0.188	0.126
-197.290	-121.845	-0.493	0.080
-196.275	483.277	0.085	-0.190
-195.260	-6.461	0.091	0.061
-194.246	-24.727	-0.038	0.022
-193.231	-22.647	0.155	-0.092
-192.217	108.799	0.075	-0.089
-191.202	-78.282	-0.125	-0.042
-190.187	800.000	0.015	0.064
-189.173	117.079	-0.146	0.176
-188.158	252.067	0.023	-0.039
-187.144	800.000	0.039	0.117
-186.129	173.347	0.030	-0.043
-185.114	-200.000	-0.001	0.033
-184.100	395.302	0.056	0.115
-183.085	-170.708	0.328	0.011
-182.071	144.306	0.049	0.064
-181.056	59.970	0.193	0.188
-180.042	-87.632	0.097	-0.029
-179.027	193.713	-0.161	-0.239
-178.012	-70.039	-0.205	0.077
-176.998	81.813	0.024	-0.026
-175.983	-153.950	0.132	0.009
-174.969	326.347	0.039	-0.073
-173.954	-187.715	-0.442	0.006
-172.939	43.847	0.311	0.280
-171.925	318.650	-0.149	0.277
-170.910	-62.228	0.133	-0.055
-169.896	-200.000	-0.014	-0.312
-168.881	108.986	0.179	-0.211
-167.866	800.000	-0.081	-0.345
-166.852	-133.841	0.106	-0.013
-165.837	-95.222	0.151	-0.040
-164.823	-182.068	0.018	0.000
-163.808	33.488	0.104	-0.089
-162.793	10.045	0.143	0.107
-161.779	541.948	-0.071	-0.166
-160.764	-0.369	-0.446	0.312
-159.750	174.231	0.010	-0.015
-158.735	162.933	0.126	-0.174
-157.720	-41.673	-0.392	0.198
-156.706	-25.753	0.123	-0.071
-155.691	-22.048	-0.145	0.087
-154.677	-34.867	0.329	0.177
-153.662	-200.000	0.025	0.151
-152.647	8.865	0.191	0.142
-151.633	-41.681	-0.419	0.212
-150.618	-172.911	0.115	-0.004
-149.604	-71.221	-0.085	-0.031
-148.589	-68.608	-0.204	-0.078
-147.574	-82.693	-0.206	0.066
-146.560	-41.346	-0.371	-0.188
-145.545	-91.719	-0.164	-0.046
-144.531	800.000	-0.084	-0.275
-143.516	12.115	0.283	0.214
-142.502	-174.266	0.306	-0.009
-141.487	-110.577	0.133	-0.027
-140.472	49.733	0.214	0.199
-139.458	-25.863	0.332	0.192
-138.443	-133.829	-0.277	0.034
-137.429	38.627	0.109	0.096
-136.414	-52.430	0.263	0.119
-135.399	523.278	0.104	0.240
-134.385	-175.410	0.228	0.006
-133.370	194.433	0.237	0.353
-132.356	800.000	-0.100	-0.402
-131.341	178.402	-0.207	0.296
-130.326	410.031	-0.045	-0.093
-129.312	-200.000	0.042	0.337
-128.297	-98.299	0.292	-0.073
-127.283	-128.741	-0.410	0.057
-126.268	-56.939	-0.306	0.133
-125.253	-1.965	0.165	-0.114
-124.239	314.993	0.034	0.062
-123.224	-127.114	0.304	-0.044
-122.210	557.609	0.053	0.126
-121.195	118.666	-0.090	-0.109
-120.180	601.598	-0.045	0.110
