DTS Sentinel unit serial number:	SN413079Multiplexer serial number:	ORYXHardware model number:	OX4-SRSoftware version number:	ORYX F/W v4.00 Oryx Data Collector v3.7.2.0data status	okinstallation	princeton_trtdifferential loss correction	single-endedforward channel	channel 4reverse channel	N/Adate	2019/09/16time	23:01:35forward acquisition time	60.00reverse acquisition time	0.00gamma	496.2192k internal	0.2314k external	0.2314temperature offset calibration	0.9974default loss term (dB/km)	0.3790temperature slope calibration	1.0000multiplexer offset coefficient	1.0000multiplexer slope coefficient	1.0000fibre end	0.00T internal ref (°C)	30.31T ext. ref 1 (°C)	0.09T ext. ref 2 (°C)	23.91length (m)	temperature (°C)	Stokes	anti-Stokes-747.200	352.251	-0.195	-0.391
-746.185	-200.000	-0.011	0.079
-745.171	232.637	0.134	-0.224
-744.156	242.734	-0.017	0.030
-743.142	109.957	-0.192	0.234
-742.127	19.745	-0.119	0.097
-741.112	291.276	0.202	-0.372
-740.098	-11.555	0.070	0.046
-739.083	15.530	-0.196	0.156
-738.069	-73.151	0.194	0.072
-737.054	-200.000	-0.005	-0.417
-736.039	40.377	0.138	-0.126
-735.025	-10.660	-0.028	0.019
-734.010	123.964	-0.265	-0.337
-732.996	-55.954	-0.092	0.042
-731.981	800.000	-0.025	0.096
-730.966	-105.552	-0.355	0.082
-729.952	-100.712	-0.200	0.050
-728.937	-107.458	-0.007	0.002
-727.923	214.847	0.088	-0.142
-726.908	-60.711	0.347	-0.149
-725.894	102.314	0.191	-0.227
-724.879	464.157	0.084	0.189
-723.864	121.598	-0.083	-0.105
-722.850	-109.846	-0.174	0.037
-721.835	409.444	0.157	0.337
-720.821	715.376	-0.097	-0.262
-719.806	-188.769	-0.123	0.002
-718.791	176.038	-0.166	-0.244
-717.777	220.117	0.242	-0.393
-716.762	-144.245	-0.259	0.024
-715.748	-140.868	0.160	0.017
-714.733	800.000	-0.073	-0.204
-713.718	554.272	0.029	-0.070
-712.704	-200.000	0.040	-0.283
-711.689	-200.000	0.094	-0.655
-710.675	792.382	-0.073	-0.203
-709.660	255.584	0.032	0.055
-708.645	-200.000	-0.047	0.339
-707.631	-15.243	-0.159	-0.103
-706.616	-78.955	0.386	0.133
-705.602	38.274	-0.271	0.244
-704.587	286.149	-0.098	-0.179
-703.572	-44.234	0.237	0.121
-702.558	129.406	0.234	0.302
-701.543	-32.058	0.237	-0.134
-700.529	-22.833	-0.236	0.144
-699.514	175.547	-0.227	0.334
-698.499	-200.000	0.004	-0.044
-697.485	-116.427	-0.219	-0.041
-696.470	-200.000	0.029	0.195
-695.456	800.000	0.049	-0.197
-694.441	-142.466	-0.140	-0.014
-693.426	726.512	0.071	-0.192
-692.412	-71.173	-0.366	-0.139
-691.397	800.000	-0.082	-0.279
-690.383	-200.000	0.047	0.453
-689.368	54.816	-0.184	-0.179
-688.354	-52.971	0.132	0.061
-687.339	-200.000	-0.005	0.195
-686.324	-159.703	-0.196	-0.011
-685.310	165.449	0.255	0.364
-684.295	800.000	-0.058	0.180
-683.281	-113.384	0.191	0.038
-682.266	12.664	0.083	-0.065
-681.251	116.503	-0.187	-0.232
-680.237	-113.097	-0.226	-0.045
-679.222	-102.514	-0.054	0.013
-678.208	98.093	-0.197	0.230
-677.193	-78.421	-0.134	0.046
-676.178	87.404	-0.110	0.124
-675.164	-200.000	0.041	-0.279
-674.149	-66.588	0.358	-0.143
-673.135	86.094	0.134	0.149
-672.120	-200.000	-0.003	-0.241
-671.105	-200.000	-0.001	0.026
-670.091	570.146	-0.062	-0.154
-669.076	-48.174	-0.152	0.074
-668.062	-200.000	-0.012	-0.213
-667.047	-99.334	-0.172	0.044
-666.032	-200.000	0.072	0.320
-665.018	54.188	0.289	-0.281
-664.003	138.624	0.035	0.047
-662.989	-200.000	0.036	-0.244
-661.974	-93.499	-0.332	0.093
-660.959	165.733	0.294	-0.420
-659.945	-200.000	-0.010	-0.329
-658.930	42.981	-0.164	0.151
-657.916	-122.447	0.157	0.026
-656.901	-46.190	0.153	0.076
-655.886	-99.331	-0.166	0.042
-654.872	546.172	-0.029	0.071
-653.857	-200.000	0.051	0.438
-652.843	357.140	0.123	0.248
-651.828	800.000	0.076	0.226
-650.814	-113.720	0.461	-0.091
-649.799	-60.981	-0.148	-0.063
-648.784	176.743	0.145	-0.213
-647.770	280.798	0.089	-0.161
-646.755	-200.000	-0.015	-0.081
-645.741	-114.461	-0.115	0.022
-644.726	800.000	-0.105	-0.394
-643.711	-45.463	0.107	0.054
-642.697	135.166	0.203	-0.267
-641.682	315.825	-0.040	-0.076
-640.668	201.394	-0.204	0.317
-639.653	13.241	0.177	0.138
-638.638	-9.187	-0.244	-0.165
-637.624	-45.873	-0.162	0.081
-636.609	-137.473	0.149	-0.017
-635.595	365.424	0.227	-0.462
-634.580	-8.745	-0.043	-0.029
-633.565	-19.502	-0.324	-0.203
-632.551	800.000	0.078	-0.241
-631.536	251.924	0.034	-0.059
-630.522	22.138	0.351	-0.290
-629.507	27.409	-0.387	-0.329
-628.492	-16.786	0.292	-0.186
-627.478	225.487	0.132	-0.215
-626.463	236.559	-0.077	0.128
-625.449	-93.442	0.250	-0.070
-624.434	-63.350	0.515	0.214
-623.419	-200.000	-0.013	0.345
-622.405	-99.483	-0.162	0.041
-621.390	-137.571	0.128	0.015
-620.376	800.000	-0.084	-0.324
-619.361	-200.000	-0.017	-0.318
-618.346	367.011	0.043	-0.088
-617.332	-133.454	-0.199	-0.025
-616.317	80.701	0.157	-0.171
-615.303	800.000	0.041	0.181
-614.288	800.000	0.089	-0.312
-613.273	71.230	-0.130	0.136
-612.259	84.620	0.238	0.263
-611.244	-73.151	0.194	0.072
-610.230	144.899	-0.113	0.153
-609.215	-169.956	-0.260	0.009
-608.201	57.375	0.159	-0.157
-607.186	-183.985	0.165	-0.003
-606.171	-200.000	-0.007	0.274
-605.157	-97.367	0.182	-0.048
-604.142	124.689	0.246	-0.312
-603.128	-34.811	0.458	-0.252
-602.113	-200.000	0.007	-0.081
-601.098	-118.602	-0.352	-0.063
-600.084	-200.000	0.051	-0.276
-599.069	-85.129	-0.231	0.073
-598.055	-146.726	-0.197	-0.017
-597.040	755.341	-0.120	-0.328
-596.025	17.859	0.206	-0.166
-595.011	248.049	-0.234	0.400
-593.996	-134.712	-0.297	0.036
-592.982	230.119	0.127	-0.209
-591.967	-156.980	-0.402	0.025
-590.952	-46.667	0.092	-0.045
-589.938	-200.000	0.060	-0.382
-588.923	156.543	-0.244	-0.339
-587.909	172.989	-0.133	0.193
-586.894	90.375	-0.307	-0.346
-585.879	-83.463	0.258	0.083
-584.865	255.121	-0.024	0.041
-583.850	214.821	-0.091	0.146
-582.836	-200.000	-0.014	-0.165
-581.821	251.737	-0.033	0.056
-580.806	-200.000	-0.016	-0.230
-579.792	-134.590	0.369	0.045
-578.777	-94.528	-0.324	-0.089
-577.763	55.762	0.071	-0.069
-576.748	-85.052	-0.412	-0.130
-575.733	139.844	-0.157	0.209
-574.719	435.979	-0.227	0.499
-573.704	186.917	0.025	-0.038
-572.690	-42.307	-0.209	-0.107
-571.675	-200.000	-0.012	0.121
-570.661	-104.680	0.140	0.032
-569.646	-200.000	-0.001	-0.081
-568.631	-77.034	-0.317	-0.111
-567.617	128.545	-0.055	-0.071
-566.602	-200.000	-0.017	0.270
-565.588	265.538	-0.092	0.162
-564.573	-45.286	0.376	-0.188
-563.558	184.337	0.106	0.158
-562.544	-11.551	-0.202	-0.133
-561.529	-74.376	-0.225	-0.082
-560.515	-131.964	0.253	0.033
-559.500	132.084	-0.118	-0.154
-558.485	-57.295	-0.071	-0.031
-557.471	-144.395	0.225	-0.021
-556.456	-70.425	-0.300	0.114
-555.442	382.165	-0.142	0.294
-554.427	800.000	-0.097	-0.325
-553.412	395.873	0.098	0.205
-552.398	37.889	0.236	0.211
-551.383	-200.000	-0.035	0.175
-550.369	-161.528	0.121	0.006
-549.354	-146.303	0.069	0.006
-548.339	278.959	-0.027	-0.048
-547.325	-7.122	0.130	-0.088
-546.310	-121.239	0.139	0.023
-545.296	86.265	0.108	0.120
-544.281	-200.000	0.002	-0.358
-543.266	177.149	0.081	-0.118
-542.252	370.747	-0.167	-0.342
-541.237	119.920	-0.049	0.062
-540.223	-13.690	0.070	-0.046
-539.208	41.131	-0.171	-0.155
-538.193	674.306	0.053	-0.139
-537.179	-95.886	0.359	-0.096
-536.164	-200.000	-0.004	-0.089
-535.150	-35.253	-0.234	0.128
-534.135	497.862	0.086	0.200
-533.121	122.868	0.089	-0.112
-532.106	391.541	0.066	0.137
-531.091	296.871	-0.133	0.244
-530.077	-200.000	0.011	0.284
-529.062	-200.000	-0.054	-0.257
-528.048	157.537	-0.153	-0.213
-527.033	800.000	-0.028	-0.095
-526.018	-129.395	0.191	0.027
-525.004	-87.085	-0.183	0.056
-523.989	20.299	0.079	0.064
-522.975	134.599	-0.259	0.338
-521.960	143.377	-0.258	0.345
-520.945	63.111	-0.157	0.159
-519.931	56.851	-0.267	-0.261
-518.916	9.852	0.374	0.285
-517.902	-22.198	0.329	-0.201
-516.887	-96.755	0.117	0.031
-515.872	800.000	0.046	0.166
-514.858	-52.792	0.394	0.183
-513.843	800.000	-0.019	-0.054
-512.829	-104.314	-0.473	-0.110
-511.814	111.891	-0.145	-0.176
-510.799	37.261	-0.174	-0.155
-509.785	-39.195	-0.168	-0.089
-508.770	-41.868	-0.209	0.108
-507.756	-138.380	-0.134	0.015
-506.741	-23.199	0.294	0.178
-505.726	-169.729	-0.164	0.006
-504.712	-200.000	0.003	0.181
-503.697	-31.992	0.370	0.208
-502.683	-45.855	-0.302	-0.150
-501.668	-200.000	0.009	-0.186
-500.653	289.208	-0.072	0.131
-499.639	800.000	0.009	0.029
-498.624	-50.950	-0.304	0.144
-497.610	800.000	0.171	-0.519
-496.595	800.000	0.067	0.191
-495.581	-61.577	0.157	-0.066
-494.566	-58.297	-0.189	-0.082
-493.551	-200.000	0.051	0.368
-492.537	98.084	-0.014	0.016
-491.522	-200.000	0.001	0.098
-490.508	-10.420	-0.109	-0.073
-489.493	-93.402	0.147	0.041
-488.478	-200.000	0.018	-0.124
-487.464	111.148	0.133	-0.161
-486.449	422.536	0.033	0.070
-485.435	-143.166	-0.537	0.052
-484.420	-55.652	0.116	0.052
-483.405	67.323	-0.033	-0.034
-482.391	177.393	0.100	-0.147
-481.376	-72.882	-0.196	0.072
-480.362	-111.997	-0.281	0.057
-479.347	-134.830	0.296	0.036
-478.332	-200.000	-0.034	-0.243
-477.318	-29.837	-0.021	0.012
-476.303	61.228	0.176	0.175
-475.289	-89.859	0.142	0.042
-474.274	-66.568	-0.171	0.068
-473.259	-82.966	-0.021	0.007
-472.245	-50.199	-0.362	-0.172
-471.230	313.384	-0.195	-0.367
-470.216	-17.977	-0.231	0.145
-469.201	81.416	-0.208	-0.225
-468.186	-10.136	-0.291	-0.194
-467.172	67.337	-0.150	0.153
-466.157	-200.000	-0.112	-0.515
-465.143	-133.411	-0.108	-0.014
-464.128	416.931	0.225	-0.481
-463.113	-0.924	-0.285	0.203
-462.099	19.896	-0.211	-0.171
-461.084	-64.001	0.210	0.086
-460.070	-182.725	0.308	-0.006
-459.055	66.102	0.029	-0.029
-458.040	-200.000	0.052	0.432
-457.026	-200.000	0.043	-0.267
-456.011	-60.649	0.097	0.041
-454.997	-178.649	0.334	-0.008
-453.982	710.501	0.109	-0.288
-452.968	-36.729	-0.112	-0.060
-451.953	630.345	-0.129	-0.326
-450.938	800.000	0.015	0.048
-449.924	496.042	0.044	-0.102
-448.909	151.273	0.117	-0.159
-447.895	-197.098	0.546	-0.004
-446.880	160.506	-0.106	0.149
-445.865	-30.467	0.381	-0.217
-444.851	-200.000	-0.025	0.144
-443.836	-35.371	-0.075	0.041
-442.822	99.285	0.110	0.128
-441.807	99.085	-0.118	0.136
-440.792	214.946	0.147	0.233
-439.778	-200.000	-0.090	0.521
-438.763	304.137	-0.237	0.440
-437.749	107.528	-0.123	0.147
-436.734	-200.000	0.028	0.227
-435.719	86.732	-0.198	-0.218
-434.705	139.369	-0.157	0.207
-433.690	361.802	-0.121	0.243
-432.676	516.403	0.061	-0.142
-431.661	-114.449	0.149	0.029
-430.646	-200.000	0.031	-0.318
-429.632	25.608	-0.279	-0.233
-428.617	75.651	0.272	-0.288
-427.603	371.423	0.149	0.302
-426.588	148.900	0.112	-0.151
-425.573	800.000	-0.020	0.066
-424.559	385.865	0.197	0.407
-423.544	800.000	0.024	-0.086
-422.530	-52.278	0.397	0.184
-421.515	-79.998	-0.111	-0.037
-420.500	30.764	-0.410	0.352
-419.486	0.198	0.256	0.183
-418.471	271.241	0.101	-0.178
-417.457	574.369	-0.055	-0.133
-416.442	443.423	0.161	-0.353
-415.428	-200.000	-0.001	-0.035
-414.413	125.476	-0.174	-0.220
-413.398	-200.000	-0.043	0.235
-412.384	158.514	0.043	-0.060
-411.369	800.000	0.056	-0.222
-410.355	-56.255	0.059	-0.026
-409.340	-195.083	-0.209	-0.002
-408.325	-200.000	0.003	0.097
-407.311	-50.167	0.097	0.046
-406.296	367.996	-0.121	0.244
-405.282	225.599	-0.302	0.489
-404.267	-49.210	-0.286	0.137
-403.252	-31.299	0.127	-0.071
-402.238	-200.000	-0.037	0.376
-401.223	-98.632	0.134	0.034
-400.209	-61.986	-0.032	0.013
-399.194	-200.000	-0.051	0.337
-398.179	-9.093	0.304	0.204
-397.165	338.795	-0.129	-0.251
-396.150	800.000	-0.062	-0.253
-395.136	226.802	-0.133	-0.216
-394.121	-200.000	0.009	-0.404
-393.106	-3.423	-0.235	-0.163
-392.092	-107.852	0.253	0.055
-391.077	263.129	-0.051	-0.088
-390.063	25.520	-0.395	0.328
-389.048	-157.600	0.193	-0.012
-388.033	61.895	0.174	0.173
-387.019	-52.450	-0.217	-0.100
-386.004	168.966	0.204	-0.291
-384.990	794.005	-0.091	-0.250
-383.975	131.356	0.099	0.127
-382.960	133.399	-0.150	0.194
-381.946	-150.896	0.184	0.014
-380.931	40.067	-0.198	0.178
-379.917	-200.000	-0.026	-0.192
-378.902	46.144	-0.138	-0.128
-377.888	-130.113	-0.232	0.032
-376.873	335.752	0.265	0.514
-375.858	-17.211	-0.011	-0.007
-374.844	497.025	-0.196	-0.451
-373.829	-38.035	-0.114	-0.061
-372.815	-200.000	0.041	-0.188
-371.800	39.657	0.234	-0.209
-370.785	118.029	0.184	-0.227
-369.771	58.861	0.038	-0.037
-368.756	-107.451	-0.103	-0.023
-367.742	45.466	-0.238	-0.220
-366.727	-200.000	0.011	0.085
-365.712	102.732	0.060	-0.070
-364.698	-81.035	0.244	-0.081
-363.683	68.226	-0.137	-0.140
-362.669	-185.111	0.368	-0.006
-361.654	-92.274	0.082	-0.023
-360.639	214.456	0.046	-0.072
-359.625	-77.663	-0.051	0.018
-358.610	-95.095	0.271	-0.073
-357.596	-53.105	-0.277	0.127
-356.581	12.343	0.118	0.090
-355.566	-13.200	-0.164	-0.106
-354.552	-141.702	-0.074	0.007
-353.537	92.408	-0.099	-0.112
-352.523	-12.826	0.168	0.109
-351.508	257.947	-0.124	-0.213
-350.493	800.000	0.044	-0.141
-349.479	169.689	0.114	0.163
-348.464	48.236	0.227	0.212
-347.450	7.805	0.414	-0.310
-346.435	-162.001	0.241	-0.012
-345.420	103.431	-0.213	0.249
-344.406	-134.550	0.202	0.025
-343.391	514.870	0.041	0.094
-342.377	-200.000	-0.015	-0.168
-341.362	-200.000	-0.006	-0.161
-340.348	78.171	0.149	0.158
-339.333	254.906	-0.148	-0.252
-338.318	135.116	0.086	0.112
-337.304	-72.401	-0.229	0.084
-336.289	64.477	0.190	0.191
-335.275	-131.921	0.291	-0.038
-334.260	-106.068	0.167	0.038
-333.245	-175.532	0.269	0.007
-332.231	-33.993	-0.444	0.244
-331.216	-175.557	0.481	-0.013
-330.202	420.569	-0.196	0.419
-329.187	-200.000	-0.044	0.229
-328.172	800.000	0.058	-0.160
-327.158	-111.215	-0.298	-0.061
-326.143	35.644	0.187	-0.164
-325.129	800.000	-0.083	0.325
-324.114	-200.000	0.018	0.097
-323.099	420.820	-0.128	-0.273
-322.085	-66.432	-0.272	-0.108
-321.070	69.991	-0.263	0.271
-320.056	290.007	-0.108	-0.196
-319.041	-200.000	0.026	-0.216
-318.026	-200.000	-0.009	0.117
-317.012	371.021	-0.159	0.322
-315.997	30.347	-0.191	-0.163
-314.983	800.000	-0.085	-0.340
-313.968	37.334	-0.038	0.033
-312.953	-10.874	0.213	0.140
-311.939	81.542	0.033	0.035
-310.924	-200.000	0.045	0.212
-309.910	-38.778	0.171	0.090
-308.895	-64.695	-0.223	0.090
-307.880	71.320	-0.235	0.243
-306.866	119.676	0.026	-0.032
-305.851	-43.628	-0.097	-0.049
-304.837	-54.989	0.156	0.070
-303.822	50.267	-0.151	0.143
-302.807	-161.804	0.191	0.010
-301.793	800.000	0.068	0.289
-300.778	800.000	0.013	-0.053
-299.764	-91.116	-0.122	-0.035
-298.749	488.933	-0.028	-0.064
-297.735	800.000	-0.105	0.330
-296.720	-200.000	-0.012	-0.209
-295.705	337.849	0.200	0.388
-294.691	281.625	0.278	0.496
-293.676	-95.598	0.264	-0.070
-292.662	-13.260	-0.179	0.115
-291.647	800.000	-0.019	-0.078
-290.632	361.051	0.036	-0.072
-289.618	2.652	0.169	-0.122
-288.603	-200.000	-0.008	-0.086
-287.589	-62.455	0.155	-0.064
-286.574	-32.475	-0.234	0.130
-285.559	-123.044	0.218	-0.035
-284.545	-200.000	0.008	-0.055
-283.530	7.133	0.074	0.055
-282.516	54.081	0.341	0.327
-281.501	-200.000	0.031	0.169
-280.486	-69.359	-0.337	0.129
-279.472	47.043	-0.192	0.178
-278.457	-200.000	0.009	0.168
-277.443	-144.456	-0.311	-0.029
-276.428	-200.000	-0.065	0.317
-275.413	117.284	0.119	0.146
-274.399	-42.988	0.391	0.198
-273.384	-200.000	-0.005	-0.047
-272.370	-80.143	0.062	-0.021
-271.355	139.792	0.102	0.134
-270.340	724.794	0.048	-0.128
-269.326	-200.000	-0.021	-0.166
-268.311	180.585	-0.039	0.057
-267.297	6.250	0.203	0.150
-266.282	-200.000	-0.022	0.118
-265.267	800.000	0.144	-0.495
-264.253	-60.449	0.282	0.119
-263.238	104.857	0.122	0.143
-262.224	388.158	0.162	0.334
-261.209	-7.707	-0.072	-0.048
-260.195	125.814	-0.242	0.304
-259.180	390.876	-0.173	-0.358
-258.165	573.868	0.076	0.183
-257.151	-200.000	0.040	-0.326
-256.136	-99.917	0.198	0.049
-255.122	800.000	0.109	0.466
-254.107	-96.003	0.345	-0.091
-253.092	581.199	-0.184	-0.449
-252.078	87.844	-0.197	-0.218
-251.063	-200.000	0.028	-0.248
-250.049	-190.829	0.393	-0.004
-249.034	-67.342	-0.073	-0.029
-248.019	800.000	-0.016	0.063
-247.005	121.827	0.087	-0.108
-245.990	184.492	-0.137	0.202
-244.976	-89.248	-0.217	0.064
-243.961	-89.305	0.058	0.017
-242.946	48.541	-0.110	0.102
-241.932	170.040	-0.101	0.144
-240.917	800.000	0.078	0.266
-239.903	-200.000	0.012	0.319
-238.888	800.000	0.125	-0.345
-237.873	800.000	0.013	-0.041
-236.859	351.608	-0.139	0.273
-235.844	15.716	-0.219	-0.171
-234.830	52.506	-0.198	-0.188
-233.815	-73.026	-0.089	0.032
-232.800	-200.000	-0.004	-0.022
-231.786	800.000	0.081	0.318
-230.771	-27.794	-0.159	0.092
-229.757	-200.000	0.041	0.335
-228.742	635.521	0.126	0.317
-227.727	-200.000	0.054	-0.278
-226.713	32.392	0.254	-0.218
-225.698	-95.773	0.364	-0.096
-224.684	-127.568	-0.265	0.038
-223.669	77.153	-0.117	-0.124
-222.655	-200.000	-0.015	-0.236
-221.640	-52.149	-0.304	0.140
-220.625	800.000	-0.021	0.075
-219.611	-200.000	-0.040	-0.186
-218.596	-79.208	-0.163	0.055
-217.582	28.567	-0.157	-0.132
-216.567	-90.945	-0.212	0.061
-215.552	-37.856	0.260	0.137
-214.538	-200.000	0.002	-0.123
-213.523	-24.654	-0.161	0.095
-212.509	800.000	-0.037	0.125
-211.494	37.029	0.015	0.013
-210.479	59.894	0.129	0.126
-209.465	-200.000	-0.017	0.390
-208.450	132.817	-0.073	0.094
-207.436	12.432	-0.055	0.042
-206.421	-200.000	0.049	0.226
-205.406	-165.753	0.501	-0.021
-204.392	-90.836	0.062	-0.018
-203.377	-200.000	-0.045	0.283
-202.363	-1.118	-0.276	-0.193
-201.348	800.000	-0.100	0.322
-200.333	183.692	0.039	-0.057
-199.319	631.069	-0.117	0.294
-198.304	-146.179	-0.169	0.015
-197.290	-31.481	0.267	-0.149
-196.275	-200.000	-0.022	0.135
-195.260	800.000	0.145	-0.462
-194.246	167.533	-0.026	-0.037
-193.231	98.946	-0.215	-0.246
-192.217	-35.271	-0.292	-0.158
-191.202	686.317	-0.090	0.232
-190.187	142.130	0.115	-0.152
-189.173	-200.000	-0.003	0.076
-188.158	-2.365	-0.207	-0.144
-187.144	-10.031	0.146	0.097
-186.129	-200.000	0.008	-0.388
-185.114	228.807	0.117	-0.189
-184.100	724.341	-0.064	-0.168
-183.085	-194.619	-0.187	-0.001
-182.071	-189.257	0.130	0.002
-181.056	-200.000	-0.020	0.177
-180.042	237.631	0.083	0.137
-179.027	323.564	-0.044	-0.084
-178.012	-10.918	-0.110	0.072
-176.998	-200.000	-0.011	-0.293
-175.983	-200.000	-0.020	0.168
-174.969	-22.620	0.176	-0.106
-173.954	-157.381	-0.225	-0.013
-172.939	-200.000	0.019	-0.088
-171.925	6.029	-0.151	-0.111
-170.910	-18.888	-0.325	-0.201
-169.896	-200.000	0.017	0.245
-168.881	800.000	-0.130	0.379
-167.866	516.977	-0.022	0.051
-166.852	-51.202	0.100	0.047
-165.837	-76.007	0.296	0.104
-164.823	-185.428	0.363	0.006
-163.808	-137.152	0.202	-0.023
-162.793	243.462	0.175	-0.292
-161.779	28.160	0.145	0.121
-160.764	-200.000	-0.020	-0.209
-159.750	261.691	0.257	0.442
-158.735	-139.393	0.244	0.026
-157.720	-55.109	-0.093	-0.041
-156.706	-10.020	0.230	-0.152
-155.691	-200.000	-0.001	0.225
-154.677	-200.000	0.001	0.102
-153.662	-200.000	0.026	-0.293
-152.647	-48.956	-0.132	0.063
-151.633	-49.469	0.439	0.207
-150.618	226.706	0.159	-0.255
-149.604	-200.000	0.005	0.381
-148.589	472.229	-0.076	-0.169
-147.574	-200.000	0.031	-0.228
-146.560	-200.000	-0.005	0.094
-145.545	-116.555	0.232	0.042
-144.531	427.150	-0.176	-0.377
-143.516	-33.943	-0.327	0.179
-142.502	-97.870	0.217	-0.055
-141.487	-194.524	0.352	-0.003
-140.472	159.724	0.225	0.310
-139.458	-67.638	-0.058	0.022
-138.443	-200.000	0.009	0.273
-137.429	284.623	-0.215	0.383
-136.414	167.301	0.203	0.286
-135.399	123.494	0.005	0.006
-134.385	339.926	-0.164	-0.316
-133.370	-14.453	0.114	0.073
-132.356	267.337	0.030	-0.052
-131.341	81.262	0.352	0.377
-130.326	800.000	-0.103	0.301
-129.312	10.583	0.327	0.246
-128.297	-97.248	-0.457	-0.118
-127.283	-39.123	0.267	0.139
-126.268	-133.770	-0.203	0.025
-125.253	55.578	-0.088	0.084
-124.239	162.517	-0.145	0.201
-123.224	604.414	0.127	0.313
-122.210	-71.348	0.131	-0.048
-121.195	-200.000	-0.025	-0.126
