DTS Sentinel unit serial number:	SN413079Multiplexer serial number:	ORYXHardware model number:	OX4-SRSoftware version number:	ORYX F/W v4.00 Oryx Data Collector v3.7.2.0data status	okinstallation	princeton_trtdifferential loss correction	single-endedforward channel	channel 4reverse channel	N/Adate	2019/09/13time	06:01:35forward acquisition time	60.00reverse acquisition time	0.00gamma	496.2192k internal	0.2323k external	0.2323temperature offset calibration	1.0198default loss term (dB/km)	0.3790temperature slope calibration	1.0000multiplexer offset coefficient	1.0000multiplexer slope coefficient	1.0000fibre end	0.00T internal ref (°C)	26.12T ext. ref 1 (°C)	4.07T ext. ref 2 (°C)	20.93length (m)	temperature (°C)	Stokes	anti-Stokes-747.200	-133.498	0.307	-0.039
-746.185	327.480	-0.215	0.416
-745.171	-200.000	-0.055	0.301
-744.156	45.995	-0.266	0.248
-743.142	208.033	-0.131	-0.206
-742.127	-110.437	-0.400	-0.084
-741.112	800.000	-0.077	-0.266
-740.098	35.358	-0.067	-0.059
-739.083	-200.000	0.034	0.251
-738.069	-200.000	0.018	0.277
-737.054	63.079	-0.115	-0.117
-736.039	-62.629	-0.284	0.119
-735.025	-72.991	0.080	-0.030
-734.010	74.736	0.104	0.110
-732.996	8.660	-0.272	-0.207
-731.981	-200.000	-0.005	-0.204
-730.966	-12.863	-0.139	-0.092
-729.952	-200.000	0.011	0.178
-728.937	362.752	-0.120	-0.243
-727.923	130.845	0.262	0.340
-726.908	-110.845	-0.183	-0.038
-725.894	800.000	-0.052	0.168
-724.879	-46.109	-0.360	-0.179
-723.864	-161.773	-0.044	-0.002
-722.850	62.381	-0.325	0.328
-721.835	230.549	-0.169	0.278
-720.821	-200.000	0.001	0.292
-719.806	-14.874	-0.397	-0.257
-718.791	800.000	0.092	0.277
-717.777	-34.377	0.358	-0.198
-716.762	16.087	-0.138	0.110
-715.748	-200.000	-0.020	0.247
-714.733	311.252	0.104	-0.197
-713.718	447.913	0.105	-0.232
-712.704	-40.195	0.286	-0.150
-711.689	108.558	-0.168	-0.202
-710.675	37.254	-0.220	0.197
-709.660	138.808	-0.191	-0.253
-708.645	-200.000	0.006	0.186
-707.631	-29.578	-0.243	0.140
-706.616	-134.293	0.287	0.036
-705.602	-28.584	-0.053	-0.031
-704.587	256.117	0.040	-0.069
-703.572	657.905	0.051	-0.132
-702.558	-162.407	-0.059	-0.003
-701.543	201.379	0.180	-0.279
-700.529	800.000	0.039	0.131
-699.514	11.490	0.069	-0.053
-698.499	800.000	-0.127	-0.419
-697.485	800.000	0.109	-0.368
-696.470	-83.659	0.274	0.088
-695.456	-200.000	0.039	-0.186
-694.441	550.419	0.031	-0.076
-693.426	-51.109	0.343	-0.162
-692.412	-94.869	-0.120	0.033
-691.397	-74.531	0.334	0.121
-690.383	-71.182	-0.277	-0.105
-689.368	-200.000	-0.100	0.462
-688.354	43.998	-0.161	-0.149
-687.339	-200.000	-0.014	0.295
-686.324	-43.675	0.254	-0.129
-685.310	800.000	-0.076	-0.305
-684.295	778.991	0.155	0.427
-683.281	-196.114	0.340	-0.002
-682.266	240.461	-0.170	0.285
-681.251	0.358	-0.362	-0.260
-680.237	279.439	0.085	-0.153
-679.222	-82.771	0.278	-0.090
-678.208	120.787	-0.205	0.257
-677.193	-100.811	-0.295	0.073
-676.178	-31.413	0.207	-0.117
-675.164	-91.228	0.126	-0.036
-674.149	-87.758	-0.142	-0.043
-673.135	751.230	-0.084	0.229
-672.120	800.000	0.041	-0.144
-671.105	345.966	-0.153	0.303
-670.091	-99.268	0.062	0.016
-669.076	-21.184	-0.212	-0.130
-668.062	-93.628	-0.211	0.059
-667.047	800.000	-0.041	0.175
-666.032	-28.252	-0.204	-0.119
-665.018	-23.658	0.154	-0.093
-664.003	-105.069	-0.403	0.093
-662.989	-160.565	-0.124	-0.007
-661.974	-200.000	0.005	-0.170
-660.959	-124.657	0.496	-0.077
-659.945	434.112	-0.118	-0.258
-658.930	63.216	0.084	-0.085
-657.916	-45.648	0.394	-0.196
-656.901	-200.000	-0.013	0.210
-655.886	-143.284	-0.295	0.028
-654.872	23.459	0.200	-0.166
-653.857	-55.659	-0.160	-0.072
-652.843	-200.000	0.001	0.172
-651.828	-200.000	0.051	-0.298
-650.814	800.000	0.075	-0.233
-649.799	-23.197	0.223	-0.135
-648.784	-200.000	-0.016	-0.112
-647.770	-200.000	-0.024	-0.226
-646.755	638.674	0.094	0.241
-645.741	800.000	0.195	0.560
-644.726	56.826	0.208	0.204
-643.711	-3.626	0.278	-0.194
-642.697	800.000	0.058	-0.182
-641.682	-72.731	-0.336	-0.125
-640.668	-6.892	-0.332	0.227
-639.653	49.192	-0.109	-0.103
-638.638	-184.734	-0.220	0.004
-637.624	221.112	0.056	-0.090
-636.609	-42.391	0.300	-0.154
-635.595	10.302	0.084	-0.065
-634.580	-71.739	0.118	0.044
-633.565	-135.383	-0.207	-0.025
-632.551	-200.000	-0.000	-0.072
-631.536	-104.860	-0.144	0.033
-630.522	71.195	0.058	0.060
-629.507	15.341	0.272	0.214
-628.492	255.083	-0.135	0.233
-627.478	11.857	0.140	-0.109
-626.463	-200.000	-0.014	-0.090
-625.449	525.604	0.169	-0.399
-624.434	-200.000	0.001	-0.047
-623.419	-200.000	0.019	0.264
-622.405	76.392	0.061	0.065
-621.390	800.000	-0.007	0.025
-620.376	-184.692	0.498	-0.008
-619.361	-158.428	-0.074	-0.004
-618.346	800.000	-0.111	-0.327
-617.332	-200.000	0.024	-0.175
-616.317	303.772	0.083	0.154
-615.303	-84.682	0.201	-0.064
-614.288	-200.000	-0.017	0.094
-613.273	-2.709	-0.202	-0.142
-612.259	-200.000	0.069	-0.345
-611.244	-93.024	-0.399	-0.112
-610.230	-162.145	-0.351	-0.018
-609.215	-120.699	-0.100	-0.017
-608.201	800.000	0.071	0.241
-607.186	800.000	-0.080	0.300
-606.171	178.778	0.190	0.278
-605.157	-165.879	0.127	-0.005
-604.142	-72.902	-0.167	-0.062
-603.128	800.000	0.035	-0.123
-602.113	197.834	0.135	-0.207
-601.098	303.050	0.051	0.096
-600.084	-18.706	0.285	-0.178
-599.069	-200.000	-0.011	-0.292
-598.055	-139.570	-0.253	0.027
-597.040	13.795	0.061	0.048
-596.025	-14.219	0.058	-0.038
-595.011	32.937	0.014	-0.013
-593.996	-74.815	0.349	-0.126
-592.982	-45.666	-0.138	0.069
-591.967	-146.926	-0.162	-0.014
-590.952	-10.279	0.209	-0.139
-589.938	800.000	0.112	-0.325
-588.923	-77.732	0.312	0.108
-587.909	-200.000	0.046	-0.409
-586.894	113.190	-0.081	-0.099
-585.879	-200.000	-0.033	-0.224
-584.865	-77.012	-0.104	-0.036
-583.850	220.295	0.079	0.126
-582.836	-162.613	-0.165	0.008
-581.821	66.299	0.105	0.107
-580.806	800.000	-0.040	0.141
-579.792	-73.571	0.465	0.170
-578.777	-151.023	0.220	-0.017
-577.763	-60.216	-0.167	0.071
-576.748	-129.528	0.127	0.018
-575.733	42.688	-0.305	-0.279
-574.719	86.857	-0.287	-0.318
-573.704	16.964	-0.218	-0.173
-572.690	16.807	-0.256	0.203
-571.675	-90.829	-0.241	0.070
-570.661	800.000	0.070	-0.202
-569.646	286.238	-0.075	-0.137
-568.631	-200.000	0.008	0.116
-567.617	57.319	-0.305	0.299
-566.602	35.624	-0.197	0.174
-565.588	-92.769	-0.032	-0.009
-564.573	-80.800	-0.377	-0.126
-563.558	-112.462	0.054	-0.011
-562.544	-135.699	0.173	-0.021
-561.529	-171.556	0.129	0.004
-560.515	800.000	-0.065	-0.229
-559.500	9.000	-0.097	-0.074
-558.485	-200.000	-0.041	0.255
-557.471	202.466	-0.074	-0.115
-556.456	456.823	0.077	-0.172
-555.442	46.665	-0.219	0.204
-554.427	-116.969	0.096	-0.018
-553.412	171.607	-0.170	-0.245
-552.398	28.820	-0.234	0.199
-551.383	-177.953	-0.358	0.009
-550.369	-147.405	0.302	0.026
-549.354	115.818	-0.157	-0.193
-548.339	94.909	-0.217	0.248
-547.325	-200.000	0.065	0.313
-546.310	31.967	-0.131	0.113
-545.296	-88.400	0.104	-0.031
-544.281	-91.541	0.398	-0.114
-543.266	25.304	0.137	-0.114
-542.252	249.089	-0.008	0.013
-541.237	453.400	0.041	-0.090
-540.223	-60.946	-0.287	0.122
-539.208	27.100	0.202	0.170
-538.193	51.919	-0.155	-0.148
-537.179	-200.000	-0.006	-0.320
-536.164	-120.490	-0.262	0.045
-535.150	800.000	-0.127	-0.433
-534.135	-76.407	0.268	-0.094
-533.121	110.616	-0.152	0.183
-532.106	-83.602	-0.245	0.079
-531.091	-136.230	0.245	0.029
-530.077	-63.956	0.239	-0.098
-529.062	-148.648	0.274	0.022
-528.048	109.041	-0.142	-0.170
-527.033	-35.083	-0.327	0.178
-526.018	27.135	0.150	0.126
-525.004	-58.887	0.425	0.184
-523.989	-148.509	0.183	-0.015
-522.975	37.068	0.241	0.214
-521.960	-170.136	0.388	-0.014
-520.945	29.038	0.194	0.165
-519.931	-37.380	-0.168	0.090
-518.916	364.027	-0.080	0.161
-517.902	258.791	0.251	0.433
-516.887	-80.982	-0.272	-0.090
-515.872	170.758	-0.163	-0.233
-514.858	2.069	-0.049	-0.035
-513.843	378.640	0.158	0.323
-512.829	-200.000	0.019	-0.207
-511.814	-113.175	0.431	0.085
-510.799	477.817	-0.146	-0.330
-509.785	-25.679	0.031	-0.019
-508.770	1.519	0.219	0.158
-507.756	-200.000	0.046	-0.315
-506.741	733.258	-0.113	-0.304
-505.726	-177.007	-0.124	-0.003
-504.712	-100.600	-0.200	0.049
-503.697	563.923	0.080	-0.194
-502.683	7.514	0.037	-0.028
-501.668	402.205	-0.069	-0.145
-500.653	29.944	-0.291	-0.248
-499.639	-155.406	0.144	-0.009
-498.624	800.000	-0.049	-0.170
-497.610	-49.120	0.370	-0.177
-496.595	-200.000	0.053	0.299
-495.581	3.277	0.108	0.079
-494.566	137.939	0.115	-0.151
-493.551	195.431	0.040	-0.061
-492.537	-157.001	-0.301	-0.018
-491.522	81.111	-0.016	-0.018
-490.508	800.000	0.116	0.372
-489.493	-200.000	-0.025	-0.241
-488.478	5.554	0.081	0.060
-487.464	-11.014	0.353	-0.233
-486.449	-185.408	0.182	0.003
-485.435	263.736	-0.069	0.121
-484.420	-200.000	-0.011	0.171
-483.405	-200.000	-0.017	0.389
-482.391	220.296	0.190	0.304
-481.376	-185.779	-0.089	-0.001
-480.362	-37.126	-0.298	0.159
-479.347	-175.891	0.144	0.004
-478.332	538.101	0.101	-0.240
-477.318	46.633	-0.136	-0.126
-476.303	-9.295	0.272	-0.181
-475.289	-200.000	0.046	0.409
-474.274	-0.535	-0.185	0.131
-473.259	800.000	-0.091	-0.278
-472.245	72.798	0.213	-0.222
-471.230	-114.989	0.272	-0.052
-470.216	800.000	0.042	0.164
-469.201	333.106	-0.027	0.052
-468.186	63.001	-0.115	-0.115
-467.172	-200.000	0.079	-0.364
-466.157	304.038	-0.120	-0.223
-465.143	218.455	-0.180	-0.287
-464.128	-154.933	-0.372	-0.024
-463.113	379.056	0.129	0.264
-462.099	800.000	0.102	-0.444
-461.084	22.275	-0.173	-0.141
-460.070	-90.614	-0.142	-0.041
-459.055	183.607	0.141	0.208
-458.040	38.956	0.212	-0.189
-457.026	95.768	-0.177	-0.201
-456.011	-200.000	0.007	0.290
-454.997	-106.628	0.091	0.020
-453.982	-5.856	0.211	-0.144
-452.968	120.579	-0.029	0.036
-451.953	361.531	0.150	-0.300
-450.938	-152.351	0.371	0.027
-449.924	-40.859	-0.195	0.101
-448.909	-200.000	0.053	-0.349
-447.895	-102.631	0.047	0.011
-446.880	48.364	-0.180	0.168
-445.865	-200.000	-0.005	-0.230
-444.851	584.152	0.078	0.192
-443.836	389.551	-0.072	0.148
-442.822	-200.000	0.049	0.261
-441.807	800.000	0.048	0.189
-440.792	44.440	0.106	0.098
-439.778	-66.349	0.105	0.042
-438.763	800.000	0.083	0.246
-437.749	800.000	-0.014	0.044
-436.734	70.882	-0.180	0.186
-435.719	-84.979	-0.354	0.111
-434.705	45.157	0.208	0.192
-433.690	-79.404	0.132	-0.044
-432.676	-200.000	-0.044	-0.239
-431.661	226.772	0.103	0.167
-430.646	229.962	-0.035	-0.058
-429.632	800.000	0.016	-0.061
-428.617	800.000	0.026	0.095
-427.603	457.099	0.148	0.327
-426.588	66.372	-0.042	-0.042
-425.573	253.204	0.164	0.279
-424.559	-30.188	-0.112	-0.063
-423.544	5.226	0.077	-0.056
-422.530	-149.452	-0.141	-0.011
-421.515	-115.643	-0.165	0.031
-420.500	-48.985	-0.279	-0.133
-419.486	-27.408	-0.269	-0.156
-418.471	110.598	0.168	-0.201
-417.457	-131.683	-0.275	0.036
-416.442	-16.166	0.152	0.096
-415.428	735.011	-0.098	0.262
-414.413	17.536	0.188	-0.149
-413.398	527.877	-0.010	0.023
-412.384	75.802	0.186	-0.196
-411.369	-61.713	-0.362	-0.151
-410.355	-59.597	0.220	-0.094
-409.340	627.744	0.012	0.031
-408.325	-40.288	-0.183	-0.095
-407.311	-1.351	-0.215	0.151
-406.296	237.180	-0.040	-0.066
-405.282	800.000	-0.123	-0.478
-404.267	280.966	-0.177	-0.315
-403.252	-86.104	-0.183	0.056
-402.238	-120.668	-0.163	0.027
-401.223	6.394	-0.229	0.170
-400.209	400.831	-0.074	0.155
-399.194	37.958	-0.058	-0.051
-398.179	-200.000	0.017	-0.233
-397.165	458.011	0.078	0.174
-396.150	-200.000	-0.012	0.084
-395.136	6.040	-0.038	0.028
-394.121	800.000	0.013	0.054
-393.106	144.261	-0.218	0.289
-392.092	-200.000	-0.040	0.304
-391.077	-64.475	-0.162	-0.065
-390.063	518.079	-0.104	0.242
-389.048	324.228	0.167	0.317
-388.033	299.577	-0.072	-0.133
-387.019	92.438	-0.218	0.245
-386.004	499.107	-0.023	0.052
-384.990	800.000	0.101	-0.293
-383.975	-11.685	0.069	0.045
-382.960	199.164	0.123	-0.187
-381.946	315.984	0.144	0.271
-380.931	137.920	-0.164	-0.214
-379.917	800.000	0.072	0.243
-378.902	800.000	-0.019	0.081
-377.888	-136.319	-0.550	-0.064
-376.873	82.386	-0.196	-0.212
-375.858	299.838	0.094	0.172
-374.844	-200.000	-0.067	-0.375
-373.829	-27.048	0.241	0.140
-372.815	127.574	-0.031	0.040
-371.800	-74.734	-0.124	-0.044
-370.785	75.151	-0.106	-0.111
-369.771	800.000	0.056	-0.197
-368.756	800.000	0.160	0.490
-367.742	-68.288	0.284	0.110
-366.727	-4.350	0.124	0.085
-365.712	332.301	-0.086	0.164
-364.698	111.016	0.034	-0.041
-363.683	-200.000	-0.009	-0.286
-362.669	-9.402	0.267	0.178
-361.654	290.975	0.195	0.353
-360.639	330.235	0.014	-0.027
-359.625	-3.331	0.418	0.290
-358.610	32.920	0.154	-0.133
-357.596	298.061	-0.069	-0.126
-356.581	800.000	0.017	-0.053
-355.566	-154.074	-0.263	-0.018
-354.552	242.126	-0.183	0.304
-353.537	48.852	-0.283	-0.264
-352.523	372.000	-0.047	0.094
-351.508	607.472	0.072	-0.178
-350.493	82.292	-0.059	-0.063
-349.479	308.890	-0.067	0.125
-348.464	-171.048	0.150	-0.005
-347.450	51.209	-0.045	-0.043
-346.435	-200.000	-0.018	0.187
-345.420	241.026	0.092	0.153
-344.406	24.084	-0.111	0.091
-343.391	303.984	0.078	0.145
-342.377	-51.642	-0.132	-0.061
-341.362	525.346	0.072	-0.169
-340.348	124.238	0.107	-0.134
-339.333	56.607	0.153	0.148
-338.318	-34.144	-0.335	0.183
-337.304	121.375	-0.167	0.207
-336.289	-74.390	0.203	-0.073
-335.275	724.588	-0.054	-0.143
-334.260	535.133	-0.097	-0.228
-333.245	168.648	0.170	0.240
-332.231	156.976	-0.131	0.180
-331.216	-200.000	-0.020	-0.192
-330.202	-200.000	-0.010	-0.314
-329.187	-19.326	0.345	0.212
-328.172	-200.000	0.003	-0.306
-327.158	-126.839	0.198	-0.029
-326.143	-45.499	-0.149	-0.073
-325.129	-200.000	-0.026	-0.284
-324.114	-97.323	0.388	0.100
-323.099	800.000	0.085	-0.244
-322.085	441.655	0.084	0.182
-321.070	77.349	-0.330	-0.348
-320.056	34.799	0.087	0.076
-319.041	64.425	-0.146	0.146
-318.026	248.908	0.113	-0.190
-317.012	-200.000	0.024	-0.146
-315.997	133.402	0.118	-0.152
-314.983	-159.353	-0.085	-0.005
-313.968	-74.209	0.281	-0.101
-312.953	657.378	0.108	0.276
-311.939	800.000	-0.050	0.205
-310.924	-200.000	-0.008	0.143
-309.910	-149.641	-0.185	0.015
-308.895	-200.000	0.024	-0.103
-307.880	800.000	-0.040	-0.111
-306.866	800.000	0.034	0.115
-305.851	-200.000	0.090	-0.440
-304.837	-19.141	0.151	-0.093
-303.822	440.863	0.170	-0.369
-302.807	-200.000	0.002	0.183
-301.793	398.566	0.085	0.177
-300.778	-200.000	-0.002	0.105
-299.764	-122.153	0.276	-0.045
-298.749	-200.000	-0.011	0.174
-297.735	93.170	0.027	-0.030
-296.720	77.318	0.073	0.077
-295.705	29.792	0.157	0.133
-294.691	-85.280	-0.268	0.083
-293.676	-200.000	0.017	0.086
-292.662	413.662	-0.039	-0.083
-291.647	-40.930	-0.245	-0.126
-290.632	-71.042	-0.267	0.100
-289.618	60.863	-0.137	-0.135
-288.603	-27.607	0.134	0.077
-287.589	591.524	0.073	-0.179
-286.574	-43.042	-0.283	0.142
-285.559	800.000	-0.065	0.278
-284.545	6.766	-0.160	-0.118
-283.530	477.472	-0.118	-0.264
-282.516	-54.028	-0.115	0.052
-281.501	204.889	0.023	0.036
-280.486	24.850	-0.121	0.099
-279.472	501.565	-0.109	0.250
-278.457	200.344	-0.048	0.073
-277.443	-56.750	-0.089	-0.039
-276.428	46.677	0.256	0.236
-275.413	-60.315	-0.251	0.106
-274.399	800.000	0.060	-0.213
-273.384	277.353	-0.177	-0.313
-272.370	-148.158	0.249	0.020
-271.355	-162.310	-0.228	0.011
-270.340	95.680	-0.018	-0.020
-269.326	-90.211	0.177	-0.051
-268.311	49.289	0.069	0.065
-267.297	-87.038	0.185	0.056
-266.282	800.000	-0.087	0.247
-265.267	-200.000	-0.006	-0.250
-264.253	212.996	-0.201	0.315
-263.238	-101.017	-0.373	-0.091
-262.224	-0.658	-0.106	-0.074
-261.209	800.000	-0.092	-0.297
-260.195	42.643	-0.178	-0.160
-259.180	152.770	0.146	-0.197
-258.165	270.578	-0.149	-0.260
-257.151	14.189	-0.508	-0.393
-256.136	3.079	-0.319	0.229
-255.122	-153.628	-0.258	-0.018
-254.107	-109.757	0.198	-0.041
-253.092	-200.000	0.015	-0.288
-252.078	-86.319	-0.424	0.129
-251.063	296.994	-0.092	-0.168
-250.049	-13.586	0.135	-0.087
-249.034	-163.175	0.358	-0.017
-248.019	-90.539	-0.371	-0.106
-247.005	-146.122	0.294	0.026
-245.990	-200.000	-0.037	-0.186
-244.976	800.000	0.087	-0.327
-243.961	800.000	-0.076	-0.221
-242.946	124.810	0.119	0.148
-241.932	800.000	-0.041	-0.124
-240.917	-200.000	-0.012	-0.060
-239.903	303.451	-0.116	-0.213
-238.888	-56.480	0.197	0.087
-237.873	271.310	-0.107	-0.186
-236.859	-100.487	-0.487	0.119
-235.844	38.901	0.208	0.184
-234.830	-200.000	-0.014	0.120
-233.815	800.000	-0.098	-0.305
-232.800	-105.797	0.422	-0.094
-231.786	-200.000	0.028	0.138
-230.771	105.381	0.115	-0.134
-229.757	-100.373	-0.205	0.050
-228.742	51.743	-0.074	0.069
-227.727	509.456	0.062	-0.142
-226.713	800.000	-0.059	-0.251
-225.698	-197.490	-0.313	0.002
-224.684	207.308	-0.055	-0.086
-223.669	219.365	-0.069	0.109
-222.655	-97.376	0.196	-0.050
-221.640	-36.987	0.218	0.116
-220.625	-103.227	-0.206	-0.048
-219.611	153.663	-0.051	0.069
-218.596	266.847	-0.108	0.187
-217.582	-52.976	-0.126	-0.057
-216.567	-188.210	-0.261	-0.003
-215.552	61.530	0.222	0.218
-214.538	-200.000	0.038	0.321
-213.523	-200.000	0.067	0.295
-212.509	107.741	0.161	0.189
-211.494	258.488	0.106	-0.180
-210.479	-90.085	-0.106	-0.030
-209.465	-200.000	0.010	-0.097
-208.450	763.160	-0.060	0.160
-207.436	-32.134	-0.119	-0.066
-206.421	175.778	0.075	0.107
-205.406	-32.880	0.209	-0.115
-204.392	14.659	-0.047	-0.037
-203.377	800.000	0.022	-0.068
-202.363	-200.000	-0.013	0.289
-201.348	800.000	0.081	0.252
-200.333	54.036	0.112	0.107
-199.319	9.695	-0.203	0.152
-198.304	-200.000	-0.025	-0.123
-197.290	-33.389	-0.141	-0.077
-196.275	-88.775	0.109	-0.032
-195.260	-57.528	0.152	0.066
-194.246	202.363	0.055	-0.084
-193.231	654.063	0.095	-0.241
-192.217	158.764	0.310	0.426
-191.202	800.000	-0.080	0.328
-190.187	-200.000	0.034	0.347
-189.173	-43.144	0.031	-0.015
-188.158	800.000	0.112	-0.386
-187.144	-200.000	-0.034	-0.210
-186.129	331.665	0.182	0.347
-185.114	-22.327	0.058	0.035
-184.100	-200.000	-0.008	0.146
-183.085	-51.163	0.090	-0.042
-182.071	-195.277	-0.157	0.001
-181.056	800.000	-0.088	-0.316
-180.042	-200.000	-0.023	0.228
-179.027	800.000	-0.038	-0.148
-178.012	-108.173	-0.103	-0.022
-176.998	-200.000	0.023	0.212
-175.983	800.000	-0.141	0.477
-174.969	-200.000	0.012	-0.063
-173.954	-43.530	0.385	0.192
-172.939	199.290	-0.130	-0.197
-171.925	-165.548	0.397	-0.017
-170.910	62.013	0.075	0.073
-169.896	-200.000	0.030	0.228
-168.881	-44.549	0.115	0.057
-167.866	229.482	0.216	0.348
-166.852	-8.701	0.115	0.076
-165.837	148.951	-0.158	0.211
-164.823	35.930	0.221	0.192
-163.808	37.297	0.187	0.164
-162.793	-200.000	-0.007	0.141
-161.779	800.000	0.079	0.226
-160.764	130.924	0.097	0.123
-159.750	6.746	0.133	0.097
-158.735	25.447	0.037	-0.030
-157.720	620.996	0.010	-0.026
-156.706	-32.159	-0.177	0.098
-155.691	185.666	0.176	0.258
-154.677	126.295	-0.105	-0.132
-153.662	0.079	0.276	-0.194
-152.647	-4.020	-0.273	-0.187
-151.633	800.000	0.036	0.145
-150.618	-80.860	0.275	0.090
-149.604	383.875	0.031	0.063
-148.589	800.000	0.045	0.149
-147.574	-132.121	-0.200	0.026
-146.560	23.810	-0.064	-0.052
-145.545	31.616	0.071	0.060
-144.531	302.781	-0.061	-0.111
-143.516	-200.000	-0.052	0.478
-142.502	-200.000	-0.019	-0.199
-141.487	-103.050	0.437	0.102
-140.472	32.160	0.115	-0.098
-139.458	160.394	-0.301	-0.414
-138.443	-84.607	0.359	0.112
-137.429	-123.926	0.334	-0.052
-136.414	-90.010	-0.105	-0.030
-135.399	-200.000	-0.001	-0.149
-134.385	13.874	0.183	0.140
-133.370	-99.562	0.213	0.053
-132.356	402.629	-0.139	-0.288
-131.341	38.465	-0.151	-0.133
-130.326	800.000	0.114	-0.421
-129.312	-200.000	-0.045	-0.196
-128.297	-100.833	0.108	-0.026
-127.283	110.906	-0.168	-0.199
-126.268	63.039	0.299	0.296
-125.253	457.991	0.068	0.149
-124.239	120.889	0.247	-0.303
-123.224	-47.678	0.236	0.113
-122.210	-36.114	0.026	0.014
-121.195	280.583	-0.057	-0.101
