DTS Sentinel unit serial number:	SN413079Multiplexer serial number:	ORYXHardware model number:	OX4-SRSoftware version number:	ORYX F/W v4.00 Oryx Data Collector v3.7.2.0data status	okinstallation	princeton_trtdifferential loss correction	single-endedforward channel	channel 4reverse channel	N/Adate	2019/09/15time	00:01:35forward acquisition time	60.00reverse acquisition time	0.00gamma	496.2192k internal	0.2307k external	0.2307temperature offset calibration	1.0047default loss term (dB/km)	0.3790temperature slope calibration	1.0000multiplexer offset coefficient	1.0000multiplexer slope coefficient	1.0000fibre end	0.00T internal ref (°C)	32.25T ext. ref 1 (°C)	4.61T ext. ref 2 (°C)	27.19length (m)	temperature (°C)	Stokes	anti-Stokes-747.200	800.000	-0.048	-0.170
-746.185	204.160	0.085	0.134
-745.171	298.999	-0.113	0.211
-744.156	-55.519	0.130	-0.059
-743.142	-69.962	-0.158	-0.061
-742.127	-25.568	-0.217	0.130
-741.112	-33.736	0.292	-0.163
-740.098	-142.188	0.010	-0.001
-739.083	800.000	-0.023	0.066
-738.069	800.000	0.135	0.476
-737.054	-62.682	-0.017	0.007
-736.039	-200.000	0.024	-0.199
-735.025	-200.000	-0.009	0.124
-734.010	24.921	-0.143	0.121
-732.996	-200.000	-0.031	0.194
-731.981	118.826	0.071	-0.089
-730.966	163.638	0.212	-0.302
-729.952	800.000	0.025	0.095
-728.937	-68.166	-0.224	-0.089
-727.923	-49.224	-0.193	0.094
-726.908	-163.699	-0.283	0.014
-725.894	774.653	-0.099	0.275
-724.879	-200.000	-0.009	-0.047
-723.864	-200.000	-0.049	-0.222
-722.850	-200.000	-0.002	-0.019
-721.835	191.505	-0.185	-0.283
-720.821	-200.000	0.018	-0.094
-719.806	-200.000	0.075	0.391
-718.791	261.883	-0.240	-0.422
-717.777	137.334	-0.104	0.139
-716.762	-72.745	-0.382	-0.143
-715.748	54.410	0.139	-0.136
-714.733	93.091	0.145	0.166
-713.718	51.480	0.194	0.188
-712.704	800.000	-0.081	0.285
-711.689	-200.000	-0.015	-0.381
-710.675	800.000	-0.078	-0.318
-709.660	59.134	0.226	0.225
-708.645	-18.721	0.207	0.131
-707.631	-200.000	-0.031	0.161
-706.616	-81.582	0.310	-0.104
-705.602	-42.424	-0.462	-0.239
-704.587	800.000	0.071	0.244
-703.572	797.728	-0.098	0.275
-702.558	800.000	0.035	-0.153
-701.543	-52.545	-0.213	-0.100
-700.529	-200.000	0.023	-0.292
-699.514	-108.443	-0.263	0.057
-698.499	800.000	0.047	-0.143
-697.485	-74.043	-0.321	0.118
-696.470	-25.015	0.188	0.113
-695.456	-112.728	0.195	0.039
-694.441	-200.000	0.038	-0.301
-693.426	-65.593	0.082	-0.033
-692.412	145.835	0.090	-0.122
-691.397	254.161	-0.083	0.145
-690.383	-26.745	0.095	-0.056
-689.368	94.535	0.081	-0.094
-688.354	-117.123	-0.234	0.043
-687.339	-104.833	0.343	0.080
-686.324	-200.000	0.011	0.462
-685.310	646.680	0.088	0.227
-684.295	-71.720	0.091	-0.035
-683.281	360.745	0.110	-0.224
-682.266	30.116	-0.113	0.097
-681.251	-200.000	-0.038	-0.171
-680.237	-102.747	0.200	0.048
-679.222	51.077	0.227	-0.219
-678.208	-200.000	0.001	-0.005
-677.193	82.531	-0.264	0.291
-676.178	301.896	0.079	0.149
-675.164	-107.794	0.339	-0.075
-674.149	-200.000	0.011	-0.121
-673.135	-117.040	-0.162	0.030
-672.120	183.256	0.045	0.068
-671.105	62.096	0.267	0.270
-670.091	9.495	0.120	0.092
-669.076	15.974	-0.260	0.207
-668.062	-84.159	0.260	0.084
-667.047	-64.127	-0.196	0.081
-666.032	-102.246	0.162	-0.040
-665.018	-16.669	0.097	-0.062
-664.003	-71.539	0.319	0.121
-662.989	-53.513	0.126	0.058
-661.974	-94.180	-0.063	-0.018
-660.959	-200.000	-0.173	0.001
-659.945	800.000	-0.049	0.155
-658.930	480.822	-0.100	-0.230
-657.916	-200.000	-0.059	-0.426
-656.901	-110.943	-0.409	-0.085
-655.886	61.606	0.065	0.066
-654.872	190.659	-0.263	0.400
-653.857	-10.116	-0.294	0.198
-652.843	-63.611	-0.238	0.099
-651.828	86.192	0.038	-0.043
-650.814	-200.000	-0.052	0.269
-649.799	333.656	0.128	-0.250
-648.784	-160.911	-0.247	-0.013
-647.770	800.000	-0.070	0.227
-646.755	-5.512	-0.143	-0.099
-645.741	-200.000	0.010	-0.118
-644.726	180.042	-0.156	0.232
-643.711	-126.731	0.417	0.063
-642.697	-49.519	-0.185	0.089
-641.682	-200.000	0.025	-0.225
-640.668	187.385	0.079	-0.119
-639.653	-2.608	0.035	-0.025
-638.638	-129.843	0.191	-0.027
-637.624	-96.013	-0.253	0.068
-636.609	78.627	-0.100	-0.108
-635.595	800.000	-0.068	-0.298
-634.580	68.390	-0.246	-0.256
-633.565	-200.000	0.013	-0.150
-632.551	-105.707	-0.169	0.039
-631.536	30.970	0.073	-0.063
-630.522	155.403	-0.083	0.116
-629.507	208.995	0.147	0.232
-628.492	800.000	-0.010	0.035
-627.478	72.970	-0.124	0.131
-626.463	2.281	0.140	0.102
-625.449	25.118	-0.120	0.101
-624.434	-18.860	0.015	0.010
-623.419	-51.117	-0.258	0.123
-622.405	-200.000	-0.037	0.291
-621.390	326.315	0.165	0.320
-620.376	-84.822	-0.169	0.054
-619.361	-96.424	-0.398	0.106
-618.346	506.680	-0.117	0.274
-617.332	73.606	-0.173	0.184
-616.317	-82.122	0.148	-0.049
-615.303	-119.094	0.203	0.036
-614.288	156.774	-0.195	0.273
-613.273	-53.317	0.163	-0.076
-612.259	800.000	0.097	-0.277
-611.244	106.994	-0.193	0.232
-610.230	55.299	-0.126	-0.123
-609.215	-175.490	0.397	-0.011
-608.201	282.319	-0.094	-0.170
-607.186	-200.000	0.028	0.152
-606.171	102.351	-0.206	0.244
-605.157	800.000	0.057	0.248
-604.142	320.635	0.145	0.278
-603.128	-60.585	-0.173	0.074
-602.113	101.492	-0.036	-0.043
-601.098	-164.134	0.055	0.003
-600.084	-118.416	0.155	0.028
-599.069	41.806	-0.151	-0.138
-598.055	20.664	-0.323	-0.264
-597.040	15.128	0.282	-0.224
-596.025	-200.000	0.023	-0.244
-595.011	-62.276	-0.231	-0.097
-593.996	-53.543	0.131	0.061
-592.982	-94.901	-0.288	-0.079
-591.967	-78.268	0.164	0.057
-590.952	-200.000	0.008	0.103
-589.938	221.413	0.149	0.243
-588.923	-2.145	-0.336	0.238
-587.909	119.730	0.018	0.022
-586.894	97.588	0.027	-0.031
-585.879	800.000	0.017	0.057
-584.865	-68.706	0.188	0.074
-583.850	152.041	0.216	-0.297
-582.836	-200.000	-0.014	0.135
-581.821	200.040	0.149	-0.232
-580.806	-64.720	-0.160	0.066
-579.792	-7.892	-0.101	-0.069
-578.777	138.626	-0.137	0.181
-577.763	47.453	-0.067	-0.063
-576.748	-8.095	-0.260	0.177
-575.733	800.000	-0.041	0.131
-574.719	631.200	-0.085	-0.217
-573.704	-59.144	0.265	-0.116
-572.690	-121.713	0.209	0.035
-571.675	800.000	0.096	-0.284
-570.661	61.864	0.213	-0.214
-569.646	656.402	-0.084	0.218
-568.631	-18.025	0.302	0.191
-567.617	135.230	-0.218	-0.286
-566.602	2.716	-0.199	-0.146
-565.588	-141.979	-0.140	-0.014
-564.573	35.319	0.043	-0.038
-563.558	800.000	0.033	0.121
-562.544	242.346	-0.005	0.008
-561.529	-200.000	0.040	0.309
-560.515	-67.995	-0.153	-0.060
-559.500	-200.000	0.026	-0.421
-558.485	-200.000	-0.050	-0.261
-557.471	-46.583	-0.170	-0.084
-556.456	110.029	0.158	-0.191
-555.442	-120.705	-0.072	0.012
-554.427	800.000	0.020	0.071
-553.412	-200.000	-0.033	0.329
-552.398	89.058	0.028	0.032
-551.383	78.844	-0.194	-0.210
-550.369	16.665	-0.082	-0.066
-549.354	142.304	-0.091	-0.122
-548.339	115.115	-0.035	-0.044
-547.325	447.686	0.053	-0.117
-546.310	-200.000	-0.025	0.136
-545.296	-132.654	0.099	0.013
-544.281	800.000	0.031	0.131
-543.266	800.000	0.111	-0.344
-542.252	283.520	0.078	0.142
-541.237	4.209	-0.218	0.161
-540.223	-95.717	-0.211	-0.057
-539.208	-143.173	0.294	0.029
-538.193	749.219	0.100	-0.272
-537.179	-72.058	-0.310	-0.116
-536.164	553.908	-0.028	-0.067
-535.150	620.558	0.032	-0.081
-534.135	147.761	-0.109	-0.148
-533.121	331.071	0.091	-0.176
-532.106	800.000	0.056	-0.247
-531.091	-37.141	0.380	-0.205
-530.077	176.979	-0.151	0.221
-529.062	-104.671	-0.130	0.030
-528.048	-143.300	-0.240	0.023
-527.033	120.343	0.313	-0.391
-526.018	135.019	0.088	-0.115
-525.004	42.911	0.265	0.244
-523.989	-71.447	-0.039	-0.015
-522.975	461.664	-0.135	-0.303
-521.960	800.000	0.154	-0.535
-520.945	-154.372	-0.165	0.011
-519.931	464.844	-0.056	-0.126
-518.916	-97.838	0.205	0.053
-517.902	-60.664	-0.028	0.012
-516.887	-85.340	0.085	0.027
-515.872	268.119	-0.085	0.150
-514.858	-30.572	-0.198	-0.113
-513.843	170.151	0.126	-0.181
-512.829	118.221	-0.138	-0.171
-511.814	-92.452	-0.228	0.065
-510.799	-77.204	-0.057	-0.020
-509.785	-119.639	-0.270	-0.047
-508.770	-118.436	0.146	0.026
-507.756	-74.642	0.255	-0.092
-506.741	800.000	-0.018	0.076
-505.726	-200.000	0.001	0.249
-504.712	-59.418	0.220	0.095
-503.697	-109.960	0.208	0.044
-502.683	92.993	0.039	-0.045
-501.668	-200.000	-0.029	0.345
-500.653	133.890	-0.098	-0.128
-499.639	-45.220	-0.273	0.136
-498.624	-200.000	0.017	-0.095
-497.610	283.193	-0.101	-0.183
-496.595	800.000	0.130	0.433
-495.581	-200.000	-0.002	-0.255
-494.566	-33.576	0.428	0.238
-493.551	36.795	-0.249	0.222
-492.537	79.461	-0.064	-0.069
-491.522	-116.961	0.114	-0.021
-490.508	800.000	-0.025	0.111
-489.493	-100.476	0.382	0.095
-488.478	-200.000	0.028	0.355
-487.464	137.695	-0.051	-0.068
-486.449	-200.000	0.035	0.299
-485.435	400.958	-0.114	0.241
-484.420	271.893	0.050	0.088
-483.405	117.419	0.045	-0.056
-482.391	119.666	0.097	0.122
-481.376	-157.588	-0.312	-0.019
-480.362	-193.084	0.070	0.001
-479.347	-43.003	0.222	-0.113
-478.332	-108.030	0.135	-0.029
-477.318	-30.161	-0.439	-0.251
-476.303	-120.747	0.057	-0.010
-475.289	-200.000	0.020	0.279
-474.274	800.000	0.106	-0.296
-473.259	-54.217	-0.315	-0.144
-472.245	-57.431	0.068	0.030
-471.230	-70.977	0.287	0.109
-470.216	800.000	-0.059	-0.232
-469.201	-40.673	0.150	-0.078
-468.186	-200.000	0.012	-0.073
-467.172	368.847	-0.139	0.282
-466.157	-55.499	-0.256	0.115
-465.143	-84.155	-0.297	-0.095
-464.128	800.000	-0.078	-0.286
-463.113	-125.398	0.285	-0.044
-462.099	272.699	0.218	0.387
-461.084	-73.854	-0.140	-0.051
-460.070	534.446	0.156	0.372
-459.055	30.657	0.086	-0.074
-458.040	-37.353	-0.099	0.053
-457.026	159.715	0.087	-0.121
-456.011	24.420	0.147	-0.122
-454.997	-72.777	0.117	0.043
-453.982	800.000	0.068	-0.273
-452.968	-35.829	-0.014	0.008
-451.953	-29.842	0.162	0.093
-450.938	796.116	0.149	-0.412
-449.924	-103.698	0.142	-0.033
-448.909	-22.614	-0.172	-0.105
-447.895	166.016	-0.243	0.346
-446.880	-200.000	-0.035	0.178
-445.865	600.703	0.082	-0.204
-444.851	354.670	-0.173	0.346
-443.836	419.174	0.069	0.149
-442.822	32.487	0.150	-0.130
-441.807	-86.394	-0.024	-0.007
-440.792	81.073	0.159	-0.173
-439.778	-200.000	-0.021	-0.110
-438.763	166.333	0.140	-0.200
-437.749	252.155	0.196	0.335
-436.734	52.656	0.152	-0.146
-435.719	104.723	-0.061	0.073
-434.705	800.000	-0.038	-0.141
-433.690	164.636	0.016	0.023
-432.676	-30.133	-0.280	0.160
-431.661	-126.255	-0.178	-0.027
-430.646	-200.000	0.011	-0.247
-429.632	-81.020	-0.358	0.119
-428.617	800.000	0.115	-0.340
-427.603	-133.977	0.282	-0.035
-426.588	87.616	-0.151	-0.168
-425.573	0.042	0.070	-0.050
-424.559	-122.624	-0.349	-0.057
-423.544	-200.000	-0.031	-0.321
-422.530	-183.097	0.178	0.003
-421.515	800.000	0.066	-0.194
-420.500	-8.398	0.165	-0.112
-419.486	-117.573	-0.133	-0.024
-418.471	800.000	-0.053	-0.173
-417.457	415.566	0.094	-0.201
-416.442	40.442	0.190	0.172
-415.428	275.354	-0.179	0.319
-414.413	-175.738	0.079	0.002
-413.398	74.274	0.058	0.061
-412.384	207.558	0.191	0.299
-411.369	53.285	-0.238	-0.229
-410.355	-200.000	-0.059	-0.280
-409.340	800.000	0.108	0.451
-408.325	-92.333	-0.179	0.051
-407.311	437.198	-0.083	-0.182
-406.296	-132.799	0.261	0.033
-405.282	-200.000	-0.042	-0.335
-404.267	317.542	-0.179	-0.340
-403.252	-163.493	0.466	-0.022
-402.238	53.783	0.025	-0.024
-401.223	-81.061	-0.146	-0.049
-400.209	-115.168	-0.106	0.020
-399.194	11.667	-0.102	0.079
-398.179	-53.438	0.412	-0.189
-397.165	-62.967	-0.357	-0.148
-396.150	247.890	-0.069	-0.118
-395.136	17.655	0.086	-0.069
-394.121	177.188	-0.113	0.165
-393.106	-57.964	-0.283	-0.124
-392.092	90.635	-0.159	-0.179
-391.077	-91.115	0.469	0.135
-390.063	-51.885	-0.014	-0.006
-389.048	318.348	0.034	-0.065
-388.033	-172.978	-0.218	-0.007
-387.019	724.953	0.029	-0.077
-386.004	638.835	0.009	-0.023
-384.990	99.729	-0.106	0.123
-383.975	285.559	0.080	-0.144
-382.960	-104.505	0.241	-0.056
-381.946	-148.357	-0.142	-0.012
-380.931	-64.548	-0.273	0.111
-379.917	-200.000	0.053	-0.435
-378.902	-200.000	-0.022	-0.259
-377.888	800.000	-0.072	0.283
-376.873	-200.000	0.033	0.334
-375.858	800.000	0.144	0.431
-374.844	800.000	0.082	0.326
-373.829	247.891	0.224	0.379
-372.815	-38.775	-0.170	-0.090
-371.800	465.536	-0.069	-0.156
-370.785	-73.519	0.329	-0.120
-369.771	-55.360	0.066	0.030
-368.756	-114.311	0.175	0.034
-367.742	233.181	-0.105	-0.173
-366.727	-180.706	0.071	-0.001
-365.712	-132.424	0.184	0.024
-364.698	-53.735	0.327	-0.149
-363.683	-55.881	-0.303	-0.135
-362.669	800.000	-0.081	0.356
-361.654	310.222	0.074	0.138
-360.639	-151.635	0.137	0.010
-359.625	-160.965	0.120	-0.006
-358.610	164.759	0.081	0.114
-357.596	-200.000	-0.019	0.176
-356.581	9.395	0.099	-0.075
-355.566	-126.960	-0.125	0.018
-354.552	217.497	-0.114	-0.181
-353.537	-14.382	0.023	0.015
-352.523	0.673	-0.297	-0.213
-351.508	-200.000	0.024	0.125
-350.493	82.302	-0.155	0.168
-349.479	61.138	-0.231	-0.230
-348.464	-161.443	0.041	0.002
-347.450	-200.000	-0.010	-0.053
-346.435	-200.000	-0.061	0.275
-345.420	-200.000	0.028	-0.347
-344.406	800.000	-0.058	-0.202
-343.391	-77.472	0.209	-0.073
-342.377	-61.670	-0.214	0.090
-341.362	-200.000	0.018	-0.198
-340.348	-10.663	-0.083	0.055
-339.333	-90.746	-0.309	0.089
-338.318	800.000	-0.032	-0.100
-337.304	-200.000	-0.015	0.406
-336.289	-200.000	0.020	0.288
-335.275	-200.000	-0.014	-0.147
-334.260	-200.000	0.058	-0.411
-333.245	414.230	-0.094	0.201
-332.231	-200.000	-0.072	0.523
-331.216	-200.000	0.026	0.138
-330.202	800.000	-0.013	-0.037
-329.187	-164.157	0.102	-0.005
-328.172	50.707	-0.226	-0.214
-327.158	108.121	-0.128	0.152
-326.143	800.000	-0.023	-0.085
-325.129	54.965	0.048	-0.047
-324.114	-38.075	0.188	-0.100
-323.099	-94.685	0.127	0.035
-322.085	-75.637	0.133	-0.047
-321.070	800.000	0.046	0.135
-320.056	-79.397	-0.211	0.071
-319.041	137.174	0.213	0.279
-318.026	-51.300	0.243	0.114
-317.012	-116.275	-0.240	0.044
-315.997	800.000	0.061	0.235
-314.983	-200.000	-0.026	0.117
-313.968	-95.890	0.103	-0.027
-312.953	-111.146	0.213	-0.044
-311.939	-88.951	0.132	-0.039
-310.924	382.686	0.072	0.148
-309.910	-118.389	-0.137	0.024
-308.895	680.095	-0.122	0.319
-307.880	-47.271	0.122	0.059
-306.866	692.516	-0.068	-0.179
-305.851	-90.509	-0.272	0.079
-304.837	-200.000	-0.039	-0.195
-303.822	-9.739	0.257	-0.171
-302.807	-67.254	-0.191	0.075
-301.793	272.801	-0.120	-0.212
-300.778	198.137	0.139	-0.212
-299.764	-23.636	0.100	-0.060
-298.749	800.000	0.086	0.309
-297.735	-70.198	-0.179	-0.068
-296.720	800.000	0.084	-0.275
-295.705	107.856	-0.151	0.180
-294.691	-60.132	-0.229	0.098
-293.676	749.612	-0.025	0.068
-292.662	-83.645	0.300	-0.096
-291.647	-200.000	0.008	-0.355
-290.632	-110.784	0.114	0.023
-289.618	-151.309	-0.151	-0.011
-288.603	11.334	0.187	-0.143
-287.589	-93.840	-0.141	0.039
-286.574	579.837	0.076	-0.186
-285.559	-3.044	0.053	-0.037
-284.545	-63.867	-0.171	0.070
-283.530	-43.109	0.151	-0.076
-282.516	800.000	-0.056	-0.174
-281.501	-69.424	0.168	-0.065
-280.486	497.756	0.089	0.206
-279.472	91.351	-0.252	0.282
-278.457	-22.371	-0.290	0.175
-277.443	800.000	0.108	0.332
-276.428	-94.032	0.173	-0.047
-275.413	332.549	0.143	-0.276
-274.399	51.741	0.222	-0.211
-273.384	20.257	-0.051	-0.041
-272.370	262.916	0.199	0.345
-271.355	58.592	0.117	0.115
-270.340	-6.408	-0.212	-0.144
-269.326	83.408	-0.072	0.078
-268.311	78.735	-0.132	0.141
-267.297	-200.000	0.018	-0.082
-266.282	112.300	-0.168	0.202
-265.267	-200.000	-0.010	0.204
-264.253	157.786	0.098	-0.135
-263.238	489.240	0.151	0.344
-262.224	554.174	0.126	0.303
-261.209	-200.000	-0.030	0.268
-260.195	410.157	-0.066	-0.139
-259.180	-47.642	-0.111	0.054
-258.165	240.985	0.275	0.458
-257.151	-124.762	0.147	-0.023
-256.136	-129.587	-0.601	-0.083
-255.122	800.000	0.092	0.322
-254.107	-200.000	-0.007	0.046
-253.092	34.228	0.186	0.161
-252.078	-200.000	0.021	-0.186
-251.063	133.685	-0.075	-0.097
-250.049	-90.993	0.175	0.050
-249.034	216.923	0.248	0.394
-248.019	509.613	0.074	0.172
-247.005	-156.591	-0.212	0.013
-245.990	178.212	-0.211	-0.308
-244.976	800.000	0.061	-0.192
-243.961	233.207	0.208	0.341
-242.946	800.000	-0.084	0.321
-241.932	-154.035	0.209	-0.014
-240.917	-68.862	0.198	-0.076
-239.903	-68.222	-0.242	-0.094
-238.888	-113.504	-0.397	-0.077
-237.873	276.987	0.284	0.504
-236.859	353.356	-0.130	0.257
-235.844	-89.229	0.282	0.083
-234.830	-54.648	-0.253	-0.114
-233.815	-46.257	-0.364	0.178
-232.800	-42.884	0.114	0.057
-231.786	148.316	-0.108	0.145
-230.771	403.141	-0.024	-0.050
-229.757	-40.101	0.104	0.054
-228.742	-182.169	0.193	0.004
-227.727	-117.844	-0.068	-0.012
-226.713	-181.419	-0.401	-0.008
-225.698	93.296	-0.129	-0.145
-224.684	13.227	-0.189	0.146
-223.669	600.551	0.092	-0.227
-222.655	139.671	-0.199	0.261
-221.640	325.472	0.066	-0.125
-220.625	-165.965	-0.112	0.005
-219.611	-73.130	-0.038	0.014
-218.596	-82.145	0.022	-0.007
-217.582	-74.088	-0.426	-0.154
-216.567	702.496	-0.120	-0.316
-215.552	-200.000	0.009	0.260
-214.538	-12.909	0.086	-0.056
-213.523	-200.000	-0.041	0.205
-212.509	800.000	-0.095	-0.263
-211.494	75.864	-0.110	-0.116
-210.479	-54.464	-0.081	-0.037
-209.465	800.000	0.099	-0.283
-208.450	90.795	-0.136	0.152
-207.436	17.823	-0.225	-0.178
-206.421	277.423	-0.099	-0.175
-205.406	42.643	0.260	-0.236
-204.392	32.719	-0.135	-0.116
-203.377	227.141	-0.122	0.197
-202.363	86.705	0.112	0.123
-201.348	109.843	0.178	-0.213
-200.333	134.509	-0.172	-0.222
-199.319	-76.597	-0.236	-0.083
-198.304	-157.859	0.201	-0.012
-197.290	-150.398	-0.261	-0.020
-196.275	-9.183	0.357	-0.238
-195.260	-109.743	0.214	0.045
-194.246	94.955	0.094	-0.106
-193.231	146.871	0.107	-0.143
-192.217	38.445	-0.155	-0.138
-191.202	-10.387	0.182	-0.120
-190.187	290.504	-0.089	0.162
-189.173	67.924	0.264	0.269
-188.158	5.297	0.130	0.095
-187.144	99.356	-0.072	-0.083
-186.129	-78.444	0.149	0.051
-185.114	369.290	0.055	0.111
-184.100	-135.768	-0.117	-0.014
-183.085	166.486	0.224	0.316
-182.071	-58.240	0.570	-0.247
-181.056	-108.391	-0.043	-0.009
-180.042	154.125	0.081	0.110
-179.027	146.365	0.083	0.110
-178.012	151.891	-0.124	-0.168
-176.998	-134.226	-0.296	-0.036
-175.983	-102.317	0.131	0.031
-174.969	320.468	0.089	0.169
-173.954	-128.864	-0.262	0.037
-172.939	79.693	0.162	0.172
-171.925	124.394	-0.051	-0.063
-170.910	172.808	0.086	-0.123
-169.896	75.047	-0.260	-0.273
-168.881	-8.826	0.098	0.066
-167.866	-3.471	-0.171	-0.118
-166.852	-131.042	0.390	0.052
-165.837	154.227	0.143	0.195
-164.823	55.783	0.144	0.139
-163.808	448.882	0.113	-0.247
-162.793	800.000	0.104	-0.344
-161.779	-74.408	0.095	0.034
-160.764	695.455	0.101	-0.264
-159.750	170.836	0.093	-0.132
-158.735	262.662	0.242	0.417
-157.720	800.000	-0.086	0.298
-156.706	-105.497	0.353	-0.080
-155.691	-200.000	-0.012	0.074
-154.677	-47.525	-0.251	-0.121
-153.662	22.122	0.157	0.127
-152.647	-87.174	-0.091	0.027
-151.633	-200.000	-0.059	-0.323
-150.618	221.409	-0.274	-0.437
-149.604	-97.604	0.101	-0.026
-148.589	195.774	-0.090	-0.135
-147.574	-200.000	-0.007	-0.036
-146.560	154.322	-0.103	0.140
-145.545	-31.285	0.223	0.125
-144.531	-200.000	0.051	0.244
-143.516	800.000	-0.060	0.234
-142.502	-79.233	0.217	-0.073
-141.487	54.117	0.056	0.053
-140.472	-74.087	-0.111	-0.040
-139.458	-12.590	-0.087	-0.056
-138.443	783.657	0.058	-0.158
-137.429	-58.486	0.366	0.158
-136.414	43.222	0.129	-0.117
-135.399	220.351	0.026	-0.041
-134.385	169.531	0.177	-0.251
-133.370	77.038	0.073	-0.077
-132.356	800.000	0.093	0.344
-131.341	-200.000	0.034	0.414
-130.326	-22.211	0.292	-0.176
-129.312	-77.370	-0.018	-0.006
-128.297	-136.943	0.639	0.073
-127.283	-200.000	0.072	0.402
-126.268	98.733	0.200	0.229
-125.253	-200.000	0.024	0.317
-124.239	-7.611	-0.213	0.143
-123.224	-59.629	0.056	-0.024
-122.210	-200.000	-0.037	0.315
-121.195	60.657	-0.280	-0.276
