DTS Sentinel unit serial number:	SN413079Multiplexer serial number:	ORYXHardware model number:	OX4-SRSoftware version number:	ORYX F/W v4.00 Oryx Data Collector v3.7.2.0data status	okinstallation	princeton_trtdifferential loss correction	single-endedforward channel	channel 4reverse channel	N/Adate	2019/09/15time	14:57:34forward acquisition time	60.00reverse acquisition time	0.00gamma	496.2192k internal	0.2288k external	0.2288temperature offset calibration	0.9970default loss term (dB/km)	0.3790temperature slope calibration	1.0000multiplexer offset coefficient	1.0000multiplexer slope coefficient	1.0000fibre end	0.00T internal ref (°C)	40.06T ext. ref 1 (°C)	4.88T ext. ref 2 (°C)	37.41length (m)	temperature (°C)	Stokes	anti-Stokes-747.200	-92.687	-0.221	-0.064
-746.185	-200.000	-0.003	0.151
-745.171	800.000	-0.020	0.077
-744.156	-200.000	-0.028	0.432
-743.142	195.374	0.042	-0.065
-742.127	-200.000	-0.012	0.187
-741.112	156.056	0.248	-0.351
-740.098	-101.959	0.073	-0.018
-739.083	441.335	0.012	0.027
-738.069	31.014	-0.282	0.248
-737.054	233.294	-0.006	0.011
-736.039	-27.740	-0.244	-0.145
-735.025	277.332	-0.088	0.160
-734.010	368.996	0.092	-0.190
-732.996	-200.000	-0.300	-0.000
-731.981	-200.000	0.047	-0.237
-730.966	239.854	-0.073	0.125
-729.952	-112.811	0.139	-0.028
-728.937	175.963	-0.085	-0.126
-727.923	-161.242	0.182	-0.010
-726.908	-200.000	-0.010	-0.048
-725.894	-114.616	-0.201	-0.039
-724.879	-148.531	-0.321	-0.027
-723.864	-200.000	0.013	0.138
-722.850	-49.300	0.249	0.122
-721.835	682.154	0.090	0.239
-720.821	800.000	-0.027	-0.085
-719.806	222.858	-0.216	0.356
-718.791	348.380	-0.137	-0.277
-717.777	77.310	-0.192	-0.209
-716.762	170.852	-0.114	-0.167
-715.748	372.082	-0.062	-0.129
-714.733	-8.671	-0.263	0.181
-713.718	-77.570	-0.310	-0.110
-712.704	-9.677	-0.283	0.193
-711.689	-18.491	0.264	-0.169
-710.675	-16.071	0.199	0.129
-709.660	273.061	-0.117	0.211
-708.645	222.246	0.129	-0.213
-707.631	-96.901	-0.091	0.025
-706.616	-200.000	-0.002	-0.026
-705.602	-200.000	-0.020	0.216
-704.587	-200.000	-0.067	-0.403
-703.572	679.795	0.067	-0.178
-702.558	-70.900	-0.131	-0.051
-701.543	590.313	0.048	-0.122
-700.529	203.411	-0.164	-0.260
-699.514	134.081	-0.098	-0.129
-698.499	537.615	-0.050	0.121
-697.485	139.694	-0.182	0.246
-696.470	-29.708	0.188	0.110
-695.456	760.837	0.096	-0.268
-694.441	3.443	0.263	-0.196
-693.426	17.475	0.142	0.115
-692.412	-47.403	-0.284	0.142
-691.397	128.856	0.310	-0.405
-690.383	135.493	0.183	-0.244
-689.368	800.000	-0.086	-0.315
-688.354	63.960	-0.072	0.074
-687.339	62.308	-0.164	0.167
-686.324	-200.000	0.015	0.129
-685.310	40.647	0.128	0.118
-684.295	800.000	0.046	-0.168
-683.281	800.000	-0.094	-0.313
-682.266	-87.124	-0.496	-0.154
-681.251	167.386	-0.230	-0.334
-680.237	271.064	-0.177	-0.318
-679.222	800.000	-0.103	-0.306
-678.208	800.000	0.011	-0.046
-677.193	800.000	0.127	-0.429
-676.178	-34.876	-0.308	-0.172
-675.164	-200.000	-0.038	-0.316
-674.149	196.193	0.304	-0.473
-673.135	122.772	-0.155	0.198
-672.120	-45.558	-0.231	-0.117
-671.105	7.930	0.087	-0.067
-670.091	-200.000	0.047	-0.278
-669.076	-13.795	0.246	-0.163
-668.062	274.311	-0.010	0.018
-667.047	6.016	0.297	-0.225
-666.032	104.787	-0.209	0.252
-665.018	-92.727	0.231	-0.066
-664.003	-62.656	0.218	0.092
-662.989	-11.150	-0.160	0.108
-661.974	456.807	-0.053	-0.119
-660.959	-139.735	-0.469	0.051
-659.945	-103.210	0.123	-0.030
-658.930	145.464	-0.151	-0.207
-657.916	655.380	-0.157	0.413
-656.901	27.843	0.181	-0.156
-655.886	237.954	0.095	0.161
-654.872	-60.003	-0.303	-0.132
-653.857	-113.987	-0.155	-0.031
-652.843	2.188	-0.274	0.202
-651.828	-103.739	0.138	-0.033
-650.814	245.170	-0.203	0.350
-649.799	-141.288	-0.125	0.013
-648.784	-46.870	0.132	-0.066
-647.770	74.754	0.065	0.070
-646.755	-138.129	-0.292	0.033
-645.741	-100.829	0.191	-0.048
-644.726	-200.000	0.034	-0.225
-643.711	-139.070	0.102	0.011
-642.697	538.680	-0.104	0.252
-641.682	800.000	0.047	0.205
-640.668	12.047	0.439	0.345
-639.653	-200.000	0.024	-0.130
-638.638	167.137	0.106	0.154
-637.624	-73.956	0.107	-0.040
-636.609	-107.578	0.156	0.035
-635.595	92.406	-0.195	-0.225
-634.580	-37.352	-0.245	-0.134
-633.565	14.389	0.091	-0.072
-632.551	-40.663	0.154	0.082
-631.536	-25.969	0.163	-0.098
-630.522	-7.538	0.026	0.018
-629.507	149.606	0.132	-0.183
-628.492	-200.000	0.020	0.121
-627.478	24.568	-0.237	-0.201
-626.463	-9.696	0.165	-0.112
-625.449	-68.437	-0.407	0.161
-624.434	59.535	0.083	0.083
-623.419	-200.000	0.001	0.186
-622.405	-183.618	0.191	-0.003
-621.390	-55.980	-0.277	0.126
-620.376	240.060	0.254	0.432
-619.361	66.553	-0.205	-0.213
-618.346	-189.433	0.007	0.000
-617.332	40.426	0.166	0.152
-616.317	-66.063	-0.166	-0.067
-615.303	85.147	-0.200	-0.224
-614.288	-144.479	0.106	0.010
-613.273	-101.627	-0.353	-0.088
-612.259	232.387	-0.124	-0.208
-611.244	-32.436	0.210	-0.119
-610.230	102.395	-0.271	-0.323
-609.215	142.903	-0.145	-0.197
-608.201	-143.889	0.398	0.038
-607.186	800.000	0.058	-0.239
-606.171	-154.307	-0.137	-0.009
-605.157	132.909	0.094	-0.124
-604.142	-101.586	-0.067	0.017
-603.128	97.873	0.033	-0.038
-602.113	-5.948	-0.137	-0.096
-601.098	-5.843	0.171	0.119
-600.084	-58.514	-0.176	0.078
-599.069	18.917	0.233	-0.190
-598.055	-200.000	-0.084	0.000
-597.040	161.068	-0.073	0.103
-596.025	-31.772	-0.124	-0.071
-595.011	226.670	-0.040	0.067
-593.996	29.756	0.052	-0.045
-592.982	338.954	0.148	0.293
-591.967	8.087	-0.161	-0.123
-590.952	-163.437	-0.191	0.009
-589.938	-41.229	0.223	0.117
-588.923	800.000	-0.044	0.166
-587.909	-82.162	0.165	0.055
-586.894	-155.252	0.130	0.009
-585.879	18.589	0.120	0.098
-584.865	-128.080	0.167	0.024
-583.850	608.652	-0.099	-0.253
-582.836	78.275	0.103	-0.112
-581.821	495.242	0.164	0.384
-580.806	-31.086	0.162	-0.093
-579.792	-200.000	-0.003	0.150
-578.777	-200.000	-0.006	0.386
-577.763	219.090	-0.224	-0.364
-576.748	-129.511	-0.204	-0.029
-575.733	76.565	0.064	0.069
-574.719	594.931	0.055	0.138
-573.704	-123.965	0.207	-0.033
-572.690	441.176	0.046	0.102
-571.675	-58.291	-0.107	-0.047
-570.661	800.000	0.033	-0.099
-569.646	399.827	0.117	0.250
-568.631	133.970	-0.058	0.076
-567.617	-73.612	-0.289	-0.107
-566.602	-127.685	-0.123	0.018
-565.588	-73.991	0.271	0.100
-564.573	800.000	-0.021	-0.073
-563.558	-200.000	0.083	-0.420
-562.544	800.000	-0.063	-0.233
-561.529	-1.216	-0.024	-0.017
-560.515	40.189	-0.009	0.008
-559.500	172.846	0.131	-0.192
-558.485	33.652	-0.241	-0.213
-557.471	-137.310	0.283	-0.033
-556.456	-26.646	-0.055	-0.033
-555.442	800.000	-0.065	-0.218
-554.427	163.618	-0.228	0.326
-553.412	-38.307	-0.307	0.166
-552.398	-59.505	-0.168	0.073
-551.383	-102.617	-0.358	0.087
-550.369	25.814	0.200	0.169
-549.354	-35.010	0.277	-0.153
-548.339	89.254	-0.206	-0.234
-547.325	-200.000	-0.015	0.227
-546.310	-125.744	0.210	-0.032
-545.296	800.000	0.071	-0.305
-544.281	269.989	-0.109	0.196
-543.266	50.340	0.317	-0.304
-542.252	-90.202	-0.250	0.074
-541.237	167.879	0.153	0.222
-540.223	800.000	0.054	0.157
-539.208	784.287	-0.048	-0.135
-538.193	-200.000	0.024	-0.160
-537.179	36.208	-0.376	0.337
-536.164	-55.248	0.105	0.048
-535.150	9.696	0.171	0.132
-534.135	-200.000	0.009	0.149
-533.121	-173.647	0.529	-0.016
-532.106	-101.046	-0.173	-0.043
-531.091	-81.560	0.139	-0.047
-530.077	-154.633	-0.463	0.031
-529.062	-62.570	-0.279	0.118
-528.048	-109.952	-0.126	-0.027
-527.033	412.308	0.127	0.275
-526.018	-126.243	-0.152	0.023
-525.004	261.284	0.080	0.141
-523.989	-155.887	-0.359	-0.023
-522.975	-91.125	0.196	-0.057
-521.960	-200.000	-0.049	-0.423
-520.945	-200.000	0.016	0.163
-519.931	-71.539	-0.070	-0.027
-518.916	81.890	0.063	-0.069
-517.902	-48.853	-0.286	0.139
-516.887	-147.090	-0.326	0.028
-515.872	-200.000	0.086	-0.580
-514.858	-162.887	-0.154	-0.008
-513.843	-200.000	-0.025	0.117
-512.829	800.000	0.014	-0.041
-511.814	-103.997	-0.319	0.075
-510.799	345.210	-0.112	-0.223
-509.785	-111.266	-0.203	-0.042
-508.770	-50.238	0.248	0.119
-507.756	-148.265	-0.208	0.017
-506.741	-200.000	0.013	-0.198
-505.726	-70.270	0.057	0.022
-504.712	-200.000	-0.013	0.232
-503.697	51.586	0.151	0.146
-502.683	-27.860	-0.298	-0.175
-501.668	-3.652	-0.146	-0.103
-500.653	184.306	-0.216	0.326
-499.639	-127.859	0.128	-0.019
-498.624	177.495	0.148	-0.219
-497.610	-131.198	0.242	0.033
-496.595	800.000	-0.052	-0.176
-495.581	800.000	0.123	-0.369
-494.566	-80.532	-0.171	-0.058
-493.551	343.396	0.074	-0.148
-492.537	-71.154	0.299	0.114
-491.522	488.404	-0.150	0.348
-490.508	-101.177	0.155	-0.038
-489.493	29.377	0.217	0.187
-488.478	110.153	-0.138	0.168
-487.464	800.000	-0.013	-0.050
-486.449	-101.652	0.062	0.015
-485.435	132.025	-0.134	0.175
-484.420	109.246	-0.117	-0.142
-483.405	-119.913	-0.215	0.038
-482.391	-41.718	-0.028	0.015
-481.376	89.302	-0.199	-0.225
-480.362	88.667	0.198	0.224
-479.347	520.519	-0.013	-0.030
-478.332	164.206	0.193	0.276
-477.318	-169.372	-0.260	0.010
-476.303	0.746	0.265	-0.192
-475.289	8.053	-0.133	-0.101
-474.274	800.000	-0.186	-0.541
-473.259	220.081	0.065	0.105
-472.245	-134.153	-0.142	-0.018
-471.230	-120.544	-0.402	-0.069
-470.216	-107.892	-0.127	0.028
-469.201	800.000	0.011	0.035
-468.186	99.859	0.121	-0.142
-467.172	143.826	-0.173	-0.235
-466.157	-92.564	-0.156	-0.044
-465.143	358.236	-0.096	0.195
-464.128	-41.787	-0.346	-0.180
-463.113	-123.808	-0.126	0.020
-462.099	-121.066	-0.294	0.050
-461.084	-200.000	-0.030	-0.194
-460.070	84.887	0.301	-0.334
-459.055	-116.870	0.288	0.053
-458.040	-3.561	-0.296	-0.209
-457.026	-11.991	0.079	0.053
-456.011	43.624	-0.060	0.056
-454.997	-175.611	-0.094	0.003
-453.982	-200.000	-0.036	-0.363
-452.968	429.156	0.062	-0.135
-451.953	290.500	0.119	-0.220
-450.938	-122.123	0.258	-0.043
-449.924	-200.000	-0.013	0.089
-448.909	-47.426	-0.192	-0.095
-447.895	-6.751	-0.116	0.080
-446.880	103.810	-0.133	0.158
-445.865	628.771	-0.270	-0.691
-444.851	254.369	0.171	-0.297
-443.836	-85.928	-0.263	-0.083
-442.822	235.182	-0.064	-0.107
-441.807	-200.000	-0.010	-0.052
-440.792	509.789	0.080	0.189
-439.778	-97.819	-0.198	0.052
-438.763	-113.016	0.305	-0.061
-437.749	124.505	0.137	-0.175
-436.734	-200.000	0.047	0.281
-435.719	-50.243	0.160	-0.077
-434.705	-136.783	-0.189	-0.022
-433.690	-45.097	-0.155	0.078
-432.676	-21.498	-0.109	0.067
-431.661	-80.174	0.214	0.073
-430.646	314.135	-0.033	-0.062
-429.632	-12.709	-0.142	-0.093
-428.617	226.637	-0.058	0.096
-427.603	36.799	-0.163	-0.146
-426.588	-200.000	-0.020	-0.373
-425.573	-99.923	0.240	-0.061
-424.559	-46.216	0.097	-0.048
-423.544	-66.676	-0.169	-0.068
-422.530	108.145	0.101	-0.122
-421.515	111.610	-0.057	-0.070
-420.500	-12.690	-0.104	0.069
-419.486	254.261	-0.079	-0.137
-418.471	54.636	0.210	-0.205
-417.457	-107.009	0.113	-0.025
-416.442	-54.825	-0.161	-0.073
-415.428	-34.398	-0.286	0.158
-414.413	-41.765	0.258	-0.134
-413.398	-200.000	-0.031	0.190
-412.384	-163.403	0.066	0.003
-411.369	-24.463	-0.135	0.081
-410.355	6.260	-0.247	-0.186
-409.340	26.225	-0.228	0.193
-408.325	-200.000	0.053	-0.312
-407.311	190.891	0.156	0.237
-406.296	22.263	-0.208	0.172
-405.282	-200.000	0.002	0.262
-404.267	-200.000	-0.024	0.272
-403.252	81.064	0.248	0.271
-402.238	-92.848	0.093	0.026
-401.223	133.218	0.084	-0.110
-400.209	426.171	0.038	-0.082
-399.194	-117.683	0.263	-0.048
-398.179	-104.119	0.118	0.028
-397.165	464.870	0.044	-0.100
-396.150	240.418	-0.044	0.074
-395.136	800.000	0.022	-0.096
-394.121	619.962	0.081	0.207
-393.106	5.791	0.290	-0.217
-392.092	163.473	0.273	0.388
-391.077	209.833	-0.277	-0.439
-390.063	-200.000	0.035	-0.168
-389.048	150.187	0.093	0.128
-388.033	-200.000	0.052	0.269
-387.019	-170.872	-0.173	0.006
-386.004	-200.000	-0.017	-0.190
-384.990	5.220	0.389	0.290
-383.975	-30.012	0.272	0.157
-382.960	595.776	-0.092	0.230
-381.946	-19.975	0.293	0.183
-380.931	-200.000	-0.013	-0.101
-379.917	-78.275	0.315	0.109
-378.902	-106.466	-0.187	-0.042
-377.888	-140.996	-0.122	-0.013
-376.873	496.406	0.019	0.044
-375.858	157.210	-0.112	0.156
-374.844	465.075	-0.121	0.273
-373.829	-91.493	0.236	-0.068
-372.815	540.107	-0.031	-0.073
-371.800	103.630	-0.037	0.044
-370.785	396.201	-0.122	-0.258
-369.771	-200.000	-0.011	-0.119
-368.756	-166.783	-0.137	-0.006
-367.742	-200.000	0.006	-0.230
-366.727	-200.000	-0.045	0.260
-365.712	800.000	-0.090	-0.286
-364.698	-101.081	-0.058	-0.014
-363.683	-200.000	0.264	0.001
-362.669	-200.000	0.095	0.000
-361.654	-49.864	-0.398	0.191
-360.639	-200.000	-0.026	0.158
-359.625	453.987	0.107	-0.240
-358.610	138.746	0.086	0.113
-357.596	53.824	0.189	0.183
-356.581	43.541	0.162	-0.149
-355.566	65.146	0.137	-0.140
-354.552	-10.853	-0.298	0.199
-353.537	97.495	-0.182	-0.211
-352.523	-200.000	0.027	0.150
-351.508	-200.000	-0.010	0.261
-350.493	17.158	0.106	-0.085
-349.479	105.787	0.214	0.255
-348.464	-157.138	0.098	-0.006
-347.450	501.409	-0.066	-0.154
-346.435	76.781	-0.234	-0.251
-345.420	523.332	-0.114	-0.271
-344.406	-9.907	0.199	-0.134
-343.391	-104.389	-0.153	-0.036
-342.377	-200.000	0.051	-0.470
-341.362	-128.433	-0.097	-0.014
-340.348	121.447	-0.267	0.335
-339.333	800.000	0.081	-0.316
-338.318	107.561	0.126	0.152
-337.304	-86.256	0.353	-0.110
-336.289	193.573	-0.165	0.251
-335.275	-113.753	-0.186	0.037
-334.260	-170.153	-0.127	-0.005
-333.245	-200.000	-0.009	0.216
-332.231	-70.782	-0.201	0.076
-331.216	-200.000	-0.015	-0.335
-330.202	-200.000	0.004	0.105
-329.187	200.990	-0.124	-0.193
-328.172	303.651	0.113	0.212
-327.158	-185.654	0.103	-0.002
-326.143	62.909	-0.194	-0.196
-325.129	-37.621	0.190	0.102
-324.114	712.076	0.017	0.045
-323.099	-112.683	-0.062	-0.013
-322.085	-109.639	0.286	0.061
-321.070	-86.453	0.254	0.079
-320.056	108.080	0.069	0.083
-319.041	54.043	0.083	0.081
-318.026	178.031	0.141	0.207
-317.012	-64.852	0.315	-0.129
-315.997	-200.000	-0.045	-0.438
-314.983	387.806	0.112	-0.234
-313.968	-84.847	0.160	0.051
-312.953	6.771	-0.096	0.072
-311.939	432.192	0.043	0.095
-310.924	-9.617	0.455	0.305
-309.910	-32.950	0.091	-0.051
-308.895	800.000	0.027	0.103
-307.880	639.519	0.106	0.272
-306.866	612.868	-0.059	0.150
-305.851	411.651	0.071	-0.151
-304.837	12.848	0.138	-0.108
-303.822	-200.000	0.003	-0.182
-302.807	-97.507	0.573	0.150
-301.793	-86.935	-0.045	-0.014
-300.778	315.766	0.022	0.041
-299.764	350.571	0.111	-0.221
-298.749	91.312	-0.174	-0.196
-297.735	-70.530	0.087	0.033
-296.720	326.917	0.134	0.259
-295.705	39.402	-0.071	-0.064
-294.691	-109.825	0.225	-0.048
-293.676	-200.000	0.013	-0.237
-292.662	-125.344	0.034	0.005
-291.647	-147.817	-0.131	-0.011
-290.632	-153.362	0.268	-0.019
-289.618	-73.697	0.131	-0.048
-288.603	-163.062	0.261	-0.013
-287.589	123.169	0.113	0.142
-286.574	-120.776	-0.127	0.022
-285.559	-37.046	0.272	-0.147
-284.545	-98.489	0.137	-0.035
-283.530	-66.412	-0.212	0.085
-282.516	-176.224	0.318	-0.008
-281.501	34.749	0.122	-0.108
-280.486	26.746	0.067	0.057
-279.472	69.350	-0.138	-0.143
-278.457	13.274	-0.132	-0.103
-277.443	800.000	-0.042	0.141
-276.428	361.294	-0.112	-0.226
-275.413	-200.000	0.023	-0.254
-274.399	-200.000	-0.001	-0.326
-273.384	201.422	0.069	-0.108
-272.370	-6.245	0.137	-0.094
-271.355	-200.000	-0.050	0.288
-270.340	-200.000	-0.011	-0.068
-269.326	-200.000	0.010	-0.087
-268.311	-22.414	0.215	-0.131
-267.297	-75.229	0.115	-0.041
-266.282	45.146	-0.033	-0.030
-265.267	800.000	0.050	-0.150
-264.253	-79.392	-0.295	0.100
-263.238	67.307	-0.182	-0.187
-262.224	-6.866	-0.084	0.057
-261.209	722.854	-0.149	0.400
-260.195	-200.000	0.030	-0.185
-259.180	-200.000	-0.241	0.001
-258.165	177.917	-0.124	0.181
-257.151	20.899	0.142	0.116
-256.136	48.021	-0.243	0.229
-255.122	-80.538	-0.402	0.135
-254.107	-142.713	-0.113	-0.011
-253.092	-162.715	0.224	-0.011
-252.078	-185.554	0.335	-0.005
-251.063	63.918	-0.155	-0.156
-250.049	-200.000	-0.022	0.265
-249.034	268.978	0.181	-0.320
-248.019	-82.748	-0.219	-0.071
-247.005	800.000	0.092	0.322
-245.990	-178.498	0.284	-0.007
-244.976	-76.119	0.313	-0.111
-243.961	-20.891	0.243	-0.150
-242.946	-182.806	0.135	-0.002
-241.932	-124.501	0.115	0.018
-240.917	15.543	-0.099	-0.078
-239.903	12.017	-0.276	-0.213
-238.888	-132.605	0.214	-0.028
-237.873	800.000	-0.029	-0.120
-236.859	-169.110	0.383	-0.014
-235.844	-200.000	-0.010	-0.083
-234.830	-75.901	-0.472	-0.168
-233.815	-200.000	0.022	-0.110
-232.800	342.255	0.055	0.108
-231.786	-75.977	-0.171	0.061
-230.771	-49.026	-0.161	0.077
-229.757	-144.674	-0.187	-0.017
-228.742	-200.000	0.019	0.157
-227.727	172.611	-0.180	-0.261
-226.713	27.325	-0.167	-0.141
-225.698	800.000	-0.049	0.201
-224.684	349.032	-0.161	0.319
-223.669	-67.085	-0.153	0.061
-222.655	8.590	0.435	0.329
-221.640	43.049	0.048	-0.044
-220.625	-200.000	-0.008	0.337
-219.611	221.964	-0.116	0.187
-218.596	129.831	0.159	0.204
-217.582	83.462	0.215	0.235
-216.567	-161.437	0.219	0.011
-215.552	-119.124	0.390	-0.068
-214.538	-200.000	-0.015	0.202
-213.523	-200.000	0.005	-0.161
-212.509	402.066	0.172	-0.362
-211.494	655.158	-0.066	0.171
-210.479	-45.800	-0.227	0.112
-209.465	-30.879	0.320	0.182
-208.450	800.000	0.070	0.234
-207.436	131.249	-0.043	0.055
-206.421	-194.310	-0.191	0.002
-205.406	-200.000	-0.009	-0.253
-204.392	99.158	0.056	-0.065
-203.377	20.078	-0.224	0.181
-202.363	-128.284	-0.193	0.028
-201.348	-200.000	0.012	-0.150
-200.333	-123.211	-0.120	0.019
-199.319	197.583	0.083	0.127
-198.304	-91.025	0.269	-0.077
-197.290	800.000	0.036	-0.142
-196.275	422.615	-0.085	-0.182
-195.260	-200.000	-0.014	-0.147
-194.246	-200.000	-0.035	-0.213
-193.231	695.373	-0.122	0.320
-192.217	59.021	-0.201	0.198
-191.202	-200.000	-0.010	0.413
-190.187	143.900	-0.073	0.098
-189.173	-80.561	-0.093	0.031
-188.158	800.000	-0.110	0.325
-187.144	-200.000	0.021	0.197
-186.129	26.875	-0.101	0.085
-185.114	75.706	-0.146	-0.155
-184.100	45.535	-0.190	-0.176
-183.085	800.000	-0.028	-0.087
-182.071	278.301	-0.073	0.130
-181.056	-34.680	0.194	0.107
-180.042	-163.999	0.211	0.010
-179.027	800.000	0.055	0.158
-178.012	96.518	-0.220	-0.252
-176.998	217.656	-0.102	0.163
-175.983	143.879	0.092	-0.123
-174.969	-200.000	0.059	0.686
-173.954	800.000	-0.050	0.176
-172.939	-39.491	-0.080	0.042
-171.925	-167.965	-0.304	-0.012
-170.910	-78.861	0.126	-0.043
-169.896	719.489	-0.112	0.300
-168.881	180.587	0.202	0.297
-167.866	209.797	0.050	-0.079
-166.852	139.819	0.087	-0.115
-165.837	-5.946	-0.138	0.095
-164.823	88.343	0.083	-0.092
-163.808	111.585	0.108	-0.131
-162.793	53.756	-0.044	0.042
-161.779	-158.072	0.192	0.011
-160.764	12.406	-0.122	0.094
-159.750	-83.154	-0.182	0.059
-158.735	-200.000	-0.010	0.360
-157.720	-93.318	0.120	-0.033
-156.706	26.806	-0.236	-0.198
-155.691	50.214	0.062	0.059
-154.677	-117.772	-0.191	0.034
-153.662	-200.000	-0.039	0.406
-152.647	-200.000	0.040	0.337
-151.633	-8.235	0.175	-0.118
-150.618	800.000	0.015	-0.051
-149.604	-118.162	0.134	0.024
-148.589	184.235	0.064	0.095
-147.574	-0.121	0.326	0.232
-146.560	105.924	-0.157	-0.186
-145.545	-190.120	-0.352	0.004
-144.531	-46.650	0.189	0.093
-143.516	9.739	-0.051	-0.039
-142.502	48.068	0.165	-0.154
-141.487	-187.243	-0.071	0.001
-140.472	-11.930	-0.121	0.079
-139.458	115.055	-0.136	-0.167
-138.443	2.660	-0.141	0.102
-137.429	-5.130	-0.161	0.111
-136.414	800.000	0.102	-0.375
-135.399	477.138	-0.098	0.223
-134.385	-79.135	-0.223	0.076
-133.370	8.399	0.093	-0.070
-132.356	800.000	0.081	-0.290
-131.341	800.000	0.081	0.313
-130.326	359.758	0.099	-0.198
-129.312	-162.505	-0.202	0.010
-128.297	-36.828	0.141	-0.076
-127.283	248.283	0.142	0.240
-126.268	-4.038	-0.193	-0.134
-125.253	-200.000	-0.023	0.314
-124.239	-200.000	-0.042	-0.369
-123.224	-122.088	-0.188	-0.031
-122.210	800.000	-0.091	0.332
