DTS Sentinel unit serial number:	SN413079Multiplexer serial number:	ORYXHardware model number:	OX4-SRSoftware version number:	ORYX F/W v4.00 Oryx Data Collector v3.7.2.0data status	okinstallation	princeton_trtdifferential loss correction	single-endedforward channel	channel 4reverse channel	N/Adate	2019/09/17time	20:41:35forward acquisition time	60.00reverse acquisition time	0.00gamma	496.2192k internal	0.2321k external	0.2321temperature offset calibration	0.9990default loss term (dB/km)	0.3790temperature slope calibration	1.0000multiplexer offset coefficient	1.0000multiplexer slope coefficient	1.0000fibre end	0.00T internal ref (°C)	29.83T ext. ref 1 (°C)	0.20T ext. ref 2 (°C)	20.81length (m)	temperature (°C)	Stokes	anti-Stokes-747.200	16.205	-0.126	0.101
-746.185	800.000	-0.217	0.611
-745.171	-11.073	-0.348	-0.232
-744.156	-105.038	-0.304	-0.070
-743.142	356.925	0.044	0.088
-742.127	-200.000	0.029	0.500
-741.112	99.931	0.193	-0.227
-740.098	800.000	-0.043	-0.128
-739.083	225.824	0.090	0.148
-738.069	800.000	-0.019	-0.077
-737.054	201.264	0.105	-0.164
-736.039	-15.727	-0.333	-0.215
-735.025	-200.000	-0.038	0.235
-734.010	-59.223	-0.194	-0.084
-732.996	-76.722	0.202	0.072
-731.981	-93.525	-0.203	-0.057
-730.966	232.623	0.106	-0.176
-729.952	-164.078	-0.168	-0.008
-728.937	800.000	0.046	-0.193
-727.923	-15.811	-0.097	-0.062
-726.908	-200.000	-0.080	0.509
-725.894	-119.443	-0.059	0.010
-724.879	-166.872	0.297	-0.012
-723.864	-130.077	-0.228	-0.031
-722.850	-78.217	-0.227	-0.079
-721.835	30.284	0.136	0.117
-720.821	-200.000	0.008	-0.071
-719.806	-182.244	-0.322	-0.006
-718.791	-60.812	-0.244	0.105
-717.777	-15.779	0.071	0.046
-716.762	163.719	-0.248	-0.352
-715.748	-112.198	0.251	-0.051
-714.733	-115.258	-0.267	-0.051
-713.718	-67.117	-0.340	0.135
-712.704	-200.000	-0.028	0.198
-711.689	-123.769	0.083	0.013
-710.675	27.178	-0.162	0.137
-709.660	164.103	0.102	0.145
-708.645	-104.794	-0.217	-0.050
-707.631	768.320	0.102	-0.281
-706.616	-200.000	-0.014	-0.213
-705.602	53.761	0.404	-0.391
-704.587	-200.000	-0.207	0.001
-703.572	525.321	-0.061	0.144
-702.558	0.451	0.113	0.081
-701.543	-200.000	-0.023	-0.266
-700.529	-17.154	-0.148	0.094
-699.514	7.723	-0.184	-0.139
-698.499	800.000	-0.037	-0.122
-697.485	-73.379	-0.259	-0.095
-696.470	-22.163	0.138	0.085
-695.456	800.000	0.127	-0.378
-694.441	800.000	0.069	-0.249
-693.426	-64.583	0.109	-0.045
-692.412	137.674	-0.039	-0.052
-691.397	-24.519	0.029	-0.017
-690.383	-94.643	-0.085	0.023
-689.368	89.266	0.062	0.070
-688.354	101.533	0.137	-0.161
-687.339	596.012	0.156	0.391
-686.324	42.602	-0.195	0.179
-685.310	-100.533	0.231	-0.058
-684.295	59.930	-0.216	0.215
-683.281	111.181	0.264	0.321
-682.266	-200.000	0.035	0.159
-681.251	46.873	0.078	0.073
-680.237	-91.212	-0.256	-0.074
-679.222	275.165	-0.148	0.264
-678.208	-149.498	0.255	-0.020
-677.193	-147.416	-0.328	-0.028
-676.178	-200.000	0.003	-0.028
-675.164	21.440	0.166	-0.136
-674.149	158.269	-0.181	0.253
-673.135	800.000	-0.082	-0.242
-672.120	-100.444	-0.267	-0.067
-671.105	123.126	-0.034	-0.043
-670.091	218.161	-0.127	-0.205
-669.076	249.898	0.104	-0.177
-668.062	-145.067	-0.155	0.014
-667.047	-200.000	-0.032	-0.367
-666.032	70.610	-0.257	-0.268
-665.018	382.232	-0.158	0.326
-664.003	15.740	0.098	-0.078
-662.989	-200.000	0.011	0.140
-661.974	-182.545	-0.259	-0.005
-660.959	-107.546	0.066	-0.015
-659.945	111.857	0.177	0.216
-658.930	-171.479	0.301	0.010
-657.916	800.000	0.054	-0.171
-656.901	-200.000	-0.026	-0.265
-655.886	800.000	0.105	-0.350
-654.872	800.000	-0.050	0.179
-653.857	-200.000	0.014	0.114
-652.843	-200.000	-0.352	0.001
-651.828	-139.694	0.341	-0.037
-650.814	-103.804	-0.241	0.057
-649.799	-51.941	-0.337	-0.158
-648.784	172.131	0.148	-0.215
-647.770	64.846	-0.151	-0.154
-646.755	-130.464	0.016	-0.002
-645.741	800.000	-0.091	0.272
-644.726	-200.000	-0.037	-0.253
-643.711	-200.000	-0.185	-0.001
-642.697	-50.009	-0.207	-0.099
-641.682	-109.153	-0.301	-0.064
-640.668	59.640	0.204	-0.202
-639.653	-200.000	-0.029	0.192
-638.638	-200.000	-0.009	0.078
-637.624	153.954	0.185	-0.255
-636.609	-200.000	-0.021	-0.256
-635.595	-200.000	-0.011	0.320
-634.580	-40.899	0.311	0.162
-633.565	73.716	0.096	-0.101
-632.551	-200.000	0.027	0.262
-631.536	800.000	-0.097	0.293
-630.522	-139.154	-0.243	-0.026
-629.507	44.308	0.312	-0.288
-628.492	548.258	-0.129	-0.311
-627.478	-28.907	-0.143	0.082
-626.463	-18.196	-0.323	0.204
-625.449	-73.769	-0.071	0.026
-624.434	478.503	-0.122	-0.278
-623.419	62.359	0.082	-0.082
-622.405	-81.092	0.278	0.092
-621.390	-200.000	0.010	0.178
-620.376	-70.701	0.332	-0.126
-619.361	800.000	0.092	-0.301
-618.346	-200.000	-0.029	-0.171
-617.332	4.488	0.252	-0.186
-616.317	52.070	-0.231	0.221
-615.303	403.374	0.204	0.432
-614.288	80.164	-0.203	0.220
-613.273	-200.000	0.019	-0.307
-612.259	800.000	-0.063	-0.187
-611.244	-23.096	0.223	-0.135
-610.230	32.409	0.103	0.089
-609.215	-69.405	0.136	0.053
-608.201	-116.804	0.129	-0.024
-607.186	9.174	-0.216	0.164
-606.171	-116.120	-0.162	-0.030
-605.157	-26.924	0.102	-0.060
-604.142	-200.000	-0.028	0.170
-603.128	-21.235	-0.254	0.156
-602.113	-200.000	-0.004	-0.223
-601.098	499.181	-0.075	0.174
-600.084	-200.000	0.058	-0.319
-599.069	-200.000	-0.015	-0.184
-598.055	-200.000	-0.001	0.050
-597.040	89.189	-0.194	-0.218
-596.025	92.898	0.205	0.233
-595.011	65.366	-0.326	-0.332
-593.996	-200.000	-0.047	0.222
-592.982	-200.000	0.015	-0.254
-591.967	96.868	-0.220	0.254
-590.952	-200.000	-0.033	-0.269
-589.938	-147.810	-0.336	0.028
-588.923	20.120	0.031	0.025
-587.909	800.000	-0.149	0.429
-586.894	74.818	-0.137	0.145
-585.879	-8.912	0.206	0.138
-584.865	-193.102	0.096	0.001
-583.850	800.000	0.048	-0.178
-582.836	-200.000	-0.011	-0.100
-581.821	-166.571	0.212	-0.009
-580.806	485.008	0.022	-0.049
-579.792	237.677	-0.134	0.223
-578.777	-92.133	0.122	-0.035
-577.763	800.000	-0.061	-0.264
-576.748	-200.000	0.033	-0.281
-575.733	-200.000	-0.004	-0.165
-574.719	-200.000	-0.008	-0.280
-573.704	-27.586	0.224	-0.131
-572.690	800.000	0.007	-0.031
-571.675	-131.017	0.188	0.025
-570.661	521.376	0.098	-0.230
-569.646	155.254	-0.121	-0.167
-568.631	-172.060	0.339	-0.011
-567.617	-200.000	0.020	-0.111
-566.602	412.374	0.091	0.194
-565.588	-76.995	-0.167	-0.058
-564.573	597.028	-0.092	-0.229
-563.558	-92.494	-0.262	0.074
-562.544	57.740	-0.215	0.211
-561.529	-11.090	0.138	-0.091
-560.515	98.365	0.169	0.195
-559.500	-26.176	0.105	-0.062
-558.485	49.742	-0.294	0.278
-557.471	-32.564	0.057	0.032
-556.456	7.182	0.129	0.096
-555.442	0.772	0.283	-0.203
-554.427	-79.191	-0.257	0.088
-553.412	0.223	0.175	0.125
-552.398	-19.072	0.064	-0.040
-551.383	525.978	-0.060	0.143
-550.369	33.887	0.248	-0.216
-549.354	-71.010	-0.166	0.063
-548.339	800.000	-0.023	-0.066
-547.325	-173.653	-0.322	0.010
-546.310	298.553	-0.080	-0.148
-545.296	153.469	0.081	-0.111
-544.281	-11.689	-0.515	0.339
-543.266	157.647	-0.040	0.056
-542.252	-200.000	-0.040	0.214
-541.237	-117.897	-0.325	0.058
-540.223	-200.000	0.014	0.153
-539.208	102.413	0.126	0.148
-538.193	107.665	-0.364	0.434
-537.179	800.000	-0.062	0.255
-536.164	-15.173	-0.102	-0.065
-535.150	-95.057	0.187	-0.051
-534.135	-143.359	-0.326	-0.031
-533.121	800.000	0.046	-0.154
-532.106	120.865	0.049	0.061
-531.091	-64.474	-0.225	0.092
-530.077	240.948	0.109	-0.182
-529.062	800.000	0.103	-0.385
-528.048	213.727	0.067	-0.105
-527.033	-115.141	0.115	0.022
-526.018	25.786	-0.186	-0.156
-525.004	-82.073	-0.524	-0.171
-523.989	263.371	0.137	-0.238
-522.975	800.000	0.027	-0.079
-521.960	-200.000	0.037	0.343
-520.945	726.821	-0.060	0.159
-519.931	210.454	0.165	-0.260
-518.916	-200.000	0.004	0.231
-517.902	-200.000	0.010	-0.084
-516.887	-144.144	0.109	0.010
-515.872	96.934	0.023	0.027
-514.858	41.927	0.144	-0.131
-513.843	24.154	-0.254	-0.210
-512.829	750.050	0.089	-0.240
-511.814	-28.925	0.077	-0.045
-510.799	64.983	0.391	0.395
-509.785	-200.000	0.010	-0.167
-508.770	64.845	0.079	0.080
-507.756	601.552	-0.099	0.246
-506.741	-44.733	-0.320	0.160
-505.726	-15.757	0.242	-0.155
-504.712	-45.186	0.175	-0.087
-503.697	-55.822	0.189	0.085
-502.683	-75.698	0.337	0.120
-501.668	-200.000	0.005	-0.144
-500.653	800.000	-0.069	0.241
-499.639	-15.340	0.171	-0.110
-498.624	10.334	0.132	-0.100
-497.610	42.072	0.202	0.183
-496.595	-200.000	0.025	0.114
-495.581	-180.391	-0.158	-0.003
-494.566	23.808	-0.125	-0.103
-493.551	-49.634	0.273	0.130
-492.537	-46.855	0.269	0.132
-491.522	362.023	-0.149	0.299
-490.508	-179.075	-0.278	0.006
-489.493	527.433	-0.088	0.208
-488.478	119.929	0.237	0.295
-487.464	800.000	-0.052	0.163
-486.449	32.971	0.294	0.255
-485.435	-174.174	-0.218	0.006
-484.420	264.838	0.189	0.330
-483.405	-170.177	-0.152	-0.005
-482.391	731.145	0.041	-0.108
-481.376	-82.921	-0.244	-0.079
-480.362	3.044	-0.193	0.140
-479.347	-200.000	0.008	-0.040
-478.332	116.399	0.105	-0.128
-477.318	-6.924	0.102	0.070
-476.303	-19.314	-0.110	0.068
-475.289	-115.858	-0.185	0.035
-474.274	800.000	-0.093	-0.271
-473.259	402.928	0.051	0.107
-472.245	61.291	-0.268	-0.266
-471.230	-50.039	0.220	0.104
-470.216	48.575	0.059	0.056
-469.201	64.783	0.105	-0.106
-468.186	-68.323	-0.433	0.168
-467.172	132.406	-0.047	-0.060
-466.157	800.000	-0.084	-0.233
-465.143	-168.630	-0.253	0.010
-464.128	79.876	0.088	0.094
-463.113	-103.899	-0.331	0.077
-462.099	357.737	-0.052	-0.103
-461.084	461.465	0.130	0.289
-460.070	-62.052	0.110	-0.046
-459.055	-54.782	-0.096	0.043
-458.040	-40.066	0.060	0.031
-457.026	70.947	0.046	0.048
-456.011	49.897	0.060	-0.057
-454.997	-200.000	0.025	0.147
-453.982	-200.000	0.054	-0.328
-452.968	-95.637	0.150	-0.040
-451.953	93.731	-0.225	-0.255
-450.938	-185.295	-0.325	0.005
-449.924	208.854	-0.282	-0.440
-448.909	-141.308	0.474	0.048
-447.895	85.692	-0.207	-0.227
-446.880	-166.128	0.345	0.015
-445.865	-26.462	0.112	0.066
-444.851	23.279	-0.297	-0.243
-443.836	-87.437	-0.198	-0.060
-442.822	800.000	0.035	-0.109
-441.807	-83.344	-0.067	0.022
-440.792	-131.206	-0.175	0.023
-439.778	-163.855	0.115	0.005
-438.763	-18.035	-0.385	0.241
-437.749	-43.194	-0.171	0.087
-436.734	100.718	0.182	0.211
-435.719	-5.945	0.206	-0.141
-434.705	639.879	0.022	-0.055
-433.690	-200.000	0.010	0.154
-432.676	43.448	-0.068	-0.062
-431.661	-74.802	0.214	0.077
-430.646	81.813	0.130	0.140
-429.632	-121.821	0.218	0.036
-428.617	688.419	0.117	-0.306
-427.603	-200.000	0.008	-0.231
-426.588	89.873	-0.089	0.100
-425.573	-146.975	-0.574	-0.049
-424.559	-58.704	-0.224	0.097
-423.544	29.288	0.348	0.295
-422.530	-21.458	-0.330	0.201
-421.515	-190.039	0.065	-0.001
-420.500	20.047	0.217	-0.175
-419.486	54.258	-0.336	-0.323
-418.471	58.172	0.094	0.092
-417.457	417.442	-0.061	0.131
-416.442	136.615	0.076	-0.099
-415.428	87.533	-0.193	0.213
-414.413	-200.000	0.039	-0.187
-413.398	596.587	0.063	-0.157
-412.384	374.921	0.218	-0.443
-411.369	800.000	-0.063	-0.193
-410.355	223.262	0.183	-0.294
-409.340	15.047	0.226	0.177
-408.325	-144.072	0.257	-0.024
-407.311	-26.592	-0.054	0.032
-406.296	800.000	0.113	0.490
-405.282	9.630	-0.174	0.132
-404.267	417.121	-0.077	-0.164
-403.252	-59.126	-0.366	-0.158
-402.238	-200.000	-0.049	0.257
-401.223	-15.071	-0.139	-0.089
-400.209	166.215	-0.117	0.165
-399.194	-90.368	-0.453	-0.131
-398.179	-200.000	0.030	-0.201
-397.165	15.111	-0.226	-0.176
-396.150	19.660	-0.324	0.260
-395.136	322.075	-0.118	-0.223
-394.121	-137.972	0.233	0.026
-393.106	-24.387	0.278	-0.165
-392.092	95.211	-0.101	0.115
-391.077	96.297	-0.052	-0.059
-390.063	-139.684	-0.530	-0.056
-389.048	-155.794	0.170	0.011
-388.033	-200.000	-0.037	0.203
-387.019	-200.000	0.006	0.081
-386.004	800.000	0.058	0.211
-384.990	204.029	-0.182	0.281
-383.975	88.130	-0.220	-0.243
-382.960	-51.807	0.166	-0.077
-381.946	-72.455	0.201	0.074
-380.931	-200.000	-0.028	0.171
-379.917	213.702	0.091	0.144
-378.902	-115.515	0.211	-0.040
-377.888	-200.000	0.021	-0.194
-376.873	-86.092	-0.386	0.119
-375.858	298.473	0.301	-0.551
-374.844	255.959	-0.130	-0.222
-373.829	-79.847	0.377	0.126
-372.815	26.208	0.095	-0.079
-371.800	-100.285	0.418	0.103
-370.785	-65.755	0.193	0.077
-369.771	-131.059	0.288	-0.038
-368.756	-39.477	-0.470	-0.245
-367.742	63.400	-0.094	0.094
-366.727	-62.670	-0.151	-0.062
-365.712	800.000	0.093	0.274
-364.698	800.000	-0.048	-0.208
-363.683	-23.032	0.321	0.193
-362.669	-200.000	-0.002	0.278
-361.654	-83.104	0.349	0.112
-360.639	504.153	0.150	-0.345
-359.625	-119.335	-0.100	-0.017
-358.610	-58.118	0.230	0.100
-357.596	80.952	-0.146	0.157
-356.581	280.790	-0.175	0.312
-355.566	800.000	0.057	0.166
-354.552	-75.744	0.200	-0.071
-353.537	10.287	-0.073	-0.055
-352.523	-200.000	-0.009	-0.205
-351.508	-127.436	-0.165	-0.024
-350.493	102.898	-0.126	0.146
-349.479	-166.703	-0.377	0.016
-348.464	-200.000	0.047	0.212
-347.450	-26.990	-0.187	0.109
-346.435	-200.000	0.047	-0.346
-345.420	740.617	-0.023	-0.060
-344.406	-149.871	0.181	0.014
-343.391	800.000	0.069	0.213
-342.377	-200.000	0.002	0.237
-341.362	63.932	-0.154	0.154
-340.348	250.485	0.156	-0.264
-339.333	18.791	-0.139	-0.111
-338.318	-101.408	0.235	0.057
-337.304	109.821	-0.035	-0.042
-336.289	290.611	0.133	-0.241
-335.275	-200.000	0.049	-0.323
-334.260	515.912	-0.050	0.115
-333.245	174.133	0.043	0.062
-332.231	-93.061	0.142	0.039
-331.216	-200.000	0.012	-0.088
-330.202	560.627	-0.115	-0.278
-329.187	49.173	0.201	-0.188
-328.172	-136.047	-0.140	0.016
-327.158	-156.710	-0.427	0.026
-326.143	50.831	-0.102	-0.096
-325.129	141.508	-0.041	-0.054
-324.114	652.970	0.123	0.315
-323.099	-78.697	0.117	0.040
-322.085	800.000	0.043	-0.138
-321.070	-41.004	0.310	0.159
-320.056	-113.576	-0.281	0.055
-319.041	97.167	0.242	-0.276
-318.026	111.314	-0.132	-0.159
-317.012	-49.272	0.030	0.014
-315.997	344.519	0.065	-0.126
-314.983	800.000	0.098	-0.335
-313.968	3.540	0.209	-0.151
-312.953	-54.810	-0.307	-0.138
-311.939	225.830	-0.246	0.397
-310.924	-8.535	0.191	0.128
-309.910	100.426	0.375	0.433
-308.895	-133.610	0.145	0.018
-307.880	-6.065	0.032	-0.022
-306.866	-59.694	0.251	0.107
-305.851	-145.664	0.296	0.026
-304.837	-200.000	0.019	0.199
-303.822	-132.308	-0.157	-0.020
-302.807	-200.000	-0.052	0.315
-301.793	-53.755	0.242	0.110
-300.778	482.020	0.038	-0.086
-299.764	302.301	-0.265	-0.487
-298.749	4.766	-0.287	-0.209
-297.735	13.465	-0.161	0.124
-296.720	-26.836	0.143	-0.083
-295.705	-200.000	0.001	0.040
-294.691	-97.580	0.177	-0.046
-293.676	-69.608	0.337	-0.128
-292.662	-200.000	0.049	0.294
-291.647	41.140	-0.211	0.189
-290.632	635.225	0.126	-0.317
-289.618	1.218	0.154	0.110
-288.603	-21.230	0.387	0.235
-287.589	-200.000	-0.009	-0.175
-286.574	-100.341	0.197	0.048
-285.559	-124.535	0.323	-0.050
-284.545	258.341	-0.153	0.261
-283.530	40.145	-0.113	-0.101
-282.516	-200.000	0.019	-0.304
-281.501	40.387	0.119	0.106
-280.486	-119.681	-0.187	0.032
-279.472	-171.493	-0.108	0.004
-278.457	-171.287	-0.319	0.011
-277.443	-101.227	-0.218	0.053
-276.428	17.277	0.169	-0.133
-275.413	95.507	0.235	-0.265
-274.399	48.858	0.047	0.044
-273.384	-74.418	-0.123	0.044
-272.370	800.000	0.065	0.221
-271.355	-200.000	0.025	-0.377
-270.340	-12.823	0.370	0.239
-269.326	-200.000	-0.015	0.390
-268.311	-78.086	-0.294	0.101
-267.297	11.142	0.458	0.348
-266.282	-200.000	0.015	-0.105
-265.267	-42.397	0.306	-0.155
-264.253	800.000	-0.036	0.152
-263.238	490.300	0.152	0.344
-262.224	-200.000	-0.047	-0.311
-261.209	-120.918	0.239	0.040
-260.195	-85.184	0.026	0.008
-259.180	464.703	-0.086	-0.192
-258.165	40.050	-0.137	-0.122
-257.151	106.789	0.093	-0.109
-256.136	26.676	-0.183	-0.152
-255.122	-67.599	0.065	0.025
-254.107	-44.743	-0.480	-0.237
-253.092	800.000	0.138	0.475
-252.078	-110.089	0.030	-0.006
-251.063	-15.044	0.205	-0.130
-250.049	360.430	0.207	0.412
-249.034	305.787	-0.107	0.197
-248.019	93.379	-0.106	-0.119
-247.005	-40.352	-0.180	0.093
-245.990	-104.977	0.095	0.022
-244.976	800.000	-0.053	-0.228
-243.961	92.413	-0.152	-0.170
-242.946	-200.000	0.036	0.541
-241.932	-200.000	0.184	0.001
-240.917	800.000	-0.058	-0.234
-239.903	49.036	-0.191	-0.178
-238.888	-148.320	-0.113	0.009
-237.873	-116.923	-0.184	-0.033
-236.859	800.000	0.029	-0.117
-235.844	42.137	-0.203	-0.183
-234.830	62.812	-0.115	0.114
-233.815	-64.036	0.149	0.060
-232.800	11.519	-0.188	-0.143
-231.786	111.553	-0.183	0.218
-230.771	-83.195	0.480	0.153
-229.757	38.294	-0.095	0.084
-228.742	-200.000	-0.002	0.057
-227.727	18.080	-0.131	0.103
-226.713	386.710	0.005	0.011
-225.698	-55.496	-0.272	-0.121
-224.684	-89.054	-0.177	0.052
-223.669	-114.786	0.296	-0.056
-222.655	139.184	0.233	-0.304
-221.640	-149.985	0.330	0.025
-220.625	-200.000	-0.013	0.152
-219.611	197.139	-0.052	0.079
-218.596	360.148	-0.187	0.370
-217.582	118.454	0.140	0.171
-216.567	-200.000	-0.058	0.284
-215.552	-31.463	0.267	-0.149
-214.538	-20.904	0.118	0.072
-213.523	11.072	-0.117	0.089
-212.509	-95.869	0.164	0.043
-211.494	-75.177	-0.126	-0.045
-210.479	-57.088	-0.088	0.038
-209.465	-142.963	-0.252	-0.024
-208.450	242.391	0.083	0.138
-207.436	-200.000	0.006	0.253
-206.421	630.460	-0.111	-0.278
-205.406	51.851	0.071	0.067
-204.392	66.795	0.072	-0.073
-203.377	-48.087	0.256	0.122
-202.363	2.408	-0.010	0.007
-201.348	800.000	0.083	-0.228
-200.333	-39.283	-0.110	-0.057
-199.319	51.705	-0.024	0.023
-198.304	-110.295	0.285	0.059
-197.290	-200.000	-0.030	-0.191
-196.275	800.000	0.086	0.332
-195.260	177.808	-0.174	0.251
-194.246	-23.790	0.085	0.050
-193.231	-122.519	0.265	0.043
-192.217	128.692	0.195	-0.246
-191.202	-33.380	0.108	-0.059
-190.187	-200.000	0.037	-0.184
-189.173	6.036	-0.230	-0.169
-188.158	-95.267	-0.126	0.034
-187.144	-153.597	0.296	-0.020
-186.129	-18.741	-0.286	0.176
-185.114	365.714	0.055	0.109
-184.100	512.384	0.039	-0.089
-183.085	-174.590	-0.211	-0.006
-182.071	800.000	-0.033	-0.117
-181.056	-177.488	0.219	0.005
-180.042	-200.000	-0.012	0.089
-179.027	524.574	-0.106	-0.247
-178.012	47.737	0.197	-0.182
-176.998	-28.786	0.100	-0.057
-175.983	-200.000	-0.003	0.073
-174.969	37.849	-0.197	-0.173
-173.954	241.385	0.044	0.073
-172.939	-131.839	0.369	0.048
-171.925	-73.962	0.154	0.055
-170.910	-4.135	-0.093	-0.064
-169.896	444.869	0.054	-0.118
-168.881	230.262	-0.090	-0.146
-167.866	505.334	0.031	-0.072
-166.852	34.316	-0.109	-0.094
-165.837	397.125	-0.078	0.162
-164.823	-11.414	0.090	-0.059
-163.808	-135.269	-0.299	-0.035
-162.793	-62.118	-0.276	0.114
-161.779	4.875	0.145	0.105
-160.764	800.000	0.085	-0.272
-159.750	55.666	0.025	0.024
-158.735	-120.076	0.182	0.031
-157.720	64.613	-0.341	0.340
-156.706	-200.000	-0.064	0.361
-155.691	-200.000	-0.020	-0.210
-154.677	27.160	0.193	-0.160
-153.662	-130.164	-0.241	-0.032
-152.647	-156.556	0.147	0.009
-151.633	800.000	0.067	0.190
-150.618	174.598	-0.006	-0.008
-149.604	-77.658	0.209	0.071
-148.589	-26.513	-0.099	-0.057
-147.574	649.935	-0.033	0.083
-146.560	85.870	-0.176	0.191
-145.545	-113.544	0.156	-0.030
-144.531	117.217	-0.400	0.486
-143.516	-108.175	-0.552	-0.118
-142.502	-36.892	0.169	-0.090
-141.487	184.494	0.126	-0.184
-140.472	-68.479	-0.301	0.115
-139.458	73.163	0.164	-0.169
-138.443	133.594	-0.185	-0.236
-137.429	800.000	-0.026	-0.093
-136.414	800.000	0.071	-0.208
-135.399	-105.886	-0.133	-0.030
-134.385	800.000	-0.073	-0.285
-133.370	12.475	-0.279	0.213
-132.356	-102.659	-0.161	0.038
-131.341	-24.923	-0.228	-0.134
-130.326	81.570	-0.127	-0.136
-129.312	-199.183	0.306	-0.002
-128.297	405.530	-0.097	-0.203
-127.283	-200.000	0.013	0.085
-126.268	-29.084	-0.185	0.105
-125.253	-30.636	-0.222	-0.124
-124.239	279.789	0.127	-0.223
-123.224	-136.390	-0.196	-0.023
-122.210	-200.000	-0.014	-0.166
-121.195	191.192	0.090	0.133
-120.180	53.468	0.176	0.166
