DTS Sentinel unit serial number:	SN413079Multiplexer serial number:	ORYXHardware model number:	OX4-SRSoftware version number:	ORYX F/W v4.00 Oryx Data Collector v3.7.2.0data status	okinstallation	princeton_trtdifferential loss correction	single-endedforward channel	channel 4reverse channel	N/Adate	2019/09/11time	03:55:11forward acquisition time	60.00reverse acquisition time	0.00gamma	496.2192k internal	0.2315k external	0.2315temperature offset calibration	0.9944default loss term (dB/km)	0.3790temperature slope calibration	1.0000multiplexer offset coefficient	1.0000multiplexer slope coefficient	1.0000fibre end	0.00T internal ref (°C)	29.56T ext. ref 1 (°C)	-0.29T ext. ref 2 (°C)	23.66length (m)	temperature (°C)	Stokes	anti-Stokes-747.200	800.000	-0.029	0.086
-746.185	54.244	-0.209	0.203
-745.171	241.027	0.039	0.066
-744.156	-93.081	-0.199	0.056
-743.142	-72.034	0.037	-0.014
-742.127	-10.055	0.171	0.115
-741.112	-84.599	-0.074	-0.024
-740.098	14.757	-0.322	0.255
-739.083	-152.413	-0.293	-0.021
-738.069	-136.194	-0.119	-0.014
-737.054	-68.243	0.303	-0.120
-736.039	-59.057	-0.157	0.069
-735.025	23.571	0.103	0.086
-734.010	-200.000	0.003	-0.255
-732.996	47.910	0.037	0.035
-731.981	217.987	0.035	0.057
-730.966	219.023	-0.040	-0.065
-729.952	182.052	0.276	-0.411
-728.937	169.553	-0.226	-0.326
-727.923	800.000	-0.019	-0.057
-726.908	168.283	-0.095	0.137
-725.894	-32.735	0.020	-0.011
-724.879	-31.639	-0.258	-0.147
-723.864	294.118	-0.135	-0.250
-722.850	800.000	0.087	-0.321
-721.835	-200.000	0.041	-0.261
-720.821	-2.391	-0.199	-0.141
-719.806	707.882	0.027	-0.073
-718.791	261.111	0.106	-0.186
-717.777	-200.000	0.032	0.272
-716.762	5.967	-0.190	0.142
-715.748	-200.000	0.023	0.116
-714.733	184.181	-0.075	0.113
-713.718	-200.000	0.038	0.195
-712.704	-10.286	-0.381	-0.256
-711.689	188.320	-0.169	-0.256
-710.675	56.359	0.112	-0.110
-709.660	-92.314	0.108	-0.031
-708.645	800.000	0.118	-0.471
-707.631	184.169	0.047	0.071
-706.616	66.279	0.235	0.242
-705.602	-105.983	0.324	0.074
-704.587	-5.335	-0.194	-0.135
-703.572	16.835	0.240	-0.192
-702.558	-200.000	0.001	-0.065
-701.543	36.496	0.120	-0.108
-700.529	-48.893	0.025	0.012
-699.514	171.364	0.196	0.284
-698.499	3.847	-0.167	-0.124
-697.485	-107.737	-0.214	0.047
-696.470	-166.805	-0.192	0.008
-695.456	198.264	0.202	-0.313
-694.441	-147.668	-0.225	-0.019
-693.426	-75.933	-0.075	0.027
-692.412	135.924	0.084	0.110
-691.397	106.065	-0.055	-0.066
-690.383	-82.947	-0.185	-0.060
-689.368	-17.759	0.122	0.078
-688.354	-46.659	-0.038	0.019
-687.339	-126.906	0.289	0.043
-686.324	-67.779	-0.281	0.111
-685.310	73.109	-0.035	0.037
-684.295	203.268	0.104	-0.163
-683.281	297.791	0.005	-0.009
-682.266	-200.000	-0.017	-0.213
-681.251	-27.559	-0.145	0.085
-680.237	-2.013	-0.082	0.058
-679.222	169.040	0.169	-0.244
-678.208	-84.226	0.031	0.010
-677.193	-200.000	-0.005	0.370
-676.178	292.781	-0.059	-0.108
-675.164	104.337	0.138	0.164
-674.149	-31.453	-0.081	-0.046
-673.135	-146.850	0.165	-0.014
-672.120	800.000	0.099	0.423
-671.105	-41.643	0.038	-0.020
-670.091	-199.363	-0.276	-0.001
-669.076	-53.899	-0.168	-0.077
-668.062	-113.630	0.097	0.019
-667.047	-111.617	-0.268	-0.055
-666.032	426.428	0.144	-0.313
-665.018	-200.000	0.005	-0.152
-664.003	239.180	-0.065	-0.109
-662.989	-97.281	-0.304	-0.080
-661.974	-153.109	0.040	0.003
-660.959	-54.962	0.264	-0.120
-659.945	800.000	0.082	-0.334
-658.930	-21.092	-0.206	0.128
-657.916	-53.952	0.189	0.087
-656.901	713.276	0.188	-0.504
-655.886	-132.012	0.450	-0.059
-654.872	366.959	0.056	-0.115
-653.857	-200.000	-0.039	-0.280
-652.843	213.634	-0.129	0.207
-651.828	-154.278	-0.063	0.004
-650.814	-14.493	-0.078	-0.050
-649.799	800.000	-0.019	0.063
-648.784	-41.322	0.277	0.144
-647.770	800.000	0.084	-0.302
-646.755	-200.000	-0.001	-0.165
-645.741	-77.513	-0.132	0.046
-644.726	-145.753	0.287	-0.026
-643.711	238.564	-0.173	-0.290
-642.697	-200.000	0.001	0.035
-641.682	-200.000	-0.100	0.589
-640.668	396.829	-0.123	0.259
-639.653	-116.214	0.162	-0.030
-638.638	-43.254	-0.598	0.305
-637.624	-42.476	0.221	0.113
-636.609	-200.000	0.028	0.175
-635.595	800.000	-0.050	-0.199
-634.580	301.517	-0.168	-0.314
-633.565	-186.467	-0.307	-0.004
-632.551	161.996	0.171	-0.241
-631.536	-200.000	-0.001	0.090
-630.522	-33.520	-0.328	-0.183
-629.507	81.582	-0.142	-0.155
-628.492	76.590	-0.028	0.030
-627.478	-139.862	0.318	0.034
-626.463	-200.000	-0.036	-0.255
-625.449	-43.852	0.087	0.044
-624.434	-33.382	0.131	0.073
-623.419	473.043	0.069	0.158
-622.405	-108.552	-0.276	0.060
-621.390	-200.000	-0.011	0.121
-620.376	215.170	-0.063	-0.101
-619.361	-168.297	0.252	0.010
-618.346	-36.623	0.068	-0.037
-617.332	-126.022	0.284	-0.043
-616.317	187.528	-0.122	-0.184
-615.303	188.058	0.114	-0.172
-614.288	-69.742	-0.248	0.096
-613.273	-3.437	0.130	-0.091
-612.259	42.616	-0.033	-0.031
-611.244	-200.000	0.035	-0.204
-610.230	-44.089	-0.140	-0.071
-609.215	15.884	0.142	0.113
-608.201	-45.670	0.229	0.114
-607.186	-65.086	0.163	0.066
-606.171	156.362	-0.157	-0.219
-605.157	-200.000	-0.002	-0.261
-604.142	-124.735	0.191	0.030
-603.128	318.582	-0.034	0.066
-602.113	-117.800	-0.202	-0.037
-601.098	517.266	0.036	-0.085
-600.084	-99.114	0.118	-0.030
-599.069	-70.981	-0.140	0.053
-598.055	174.178	-0.124	0.181
-597.040	-200.000	0.050	-0.425
-596.025	-98.221	0.060	-0.015
-595.011	-73.147	-0.314	-0.116
-593.996	79.800	0.284	-0.307
-592.982	-171.952	-0.167	-0.005
-591.967	67.443	-0.186	0.191
-590.952	311.487	0.124	-0.233
-589.938	48.355	-0.261	0.246
-588.923	-46.541	0.236	0.117
-587.909	92.018	0.218	-0.247
-586.894	-114.039	0.114	0.022
-585.879	77.148	-0.185	-0.198
-584.865	-11.380	-0.390	-0.259
-583.850	-78.362	0.218	-0.075
-582.836	-79.704	-0.216	-0.073
-581.821	86.611	-0.011	0.012
-580.806	40.751	-0.191	0.173
-579.792	-17.233	-0.109	0.069
-578.777	58.233	0.129	-0.127
-577.763	-200.000	-0.295	0.001
-576.748	776.731	-0.082	0.226
-575.733	-129.640	-0.450	0.063
-574.719	-200.000	0.050	-0.280
-573.704	21.275	-0.071	-0.058
-572.690	42.544	0.105	-0.096
-571.675	39.809	0.053	0.048
-570.661	-91.961	-0.157	0.045
-569.646	-200.000	0.001	-0.158
-568.631	714.613	0.095	-0.253
-567.617	-132.546	0.308	-0.040
-566.602	-11.114	-0.105	-0.070
-565.588	31.184	0.157	0.135
-564.573	-105.525	0.099	0.023
-563.558	-113.504	0.273	0.054
-562.544	266.133	-0.063	0.111
-561.529	371.321	0.066	0.134
-560.515	-54.681	0.294	-0.134
-559.500	-63.585	-0.081	0.033
-558.485	-163.334	0.040	-0.002
-557.471	62.997	-0.089	0.090
-556.456	-80.128	-0.375	-0.126
-555.442	-172.451	0.236	0.008
-554.427	-200.000	-0.063	-0.347
-553.412	154.540	-0.191	-0.264
-552.398	-107.420	-0.333	0.073
-551.383	15.479	0.229	0.181
-550.369	800.000	0.073	-0.253
-549.354	526.259	0.251	-0.593
-548.339	-200.000	0.038	-0.317
-547.325	-78.185	0.341	-0.118
-546.310	-10.793	-0.157	-0.104
-545.296	-200.000	-0.016	0.223
-544.281	-200.000	-0.012	0.118
-543.266	135.056	0.179	-0.233
-542.252	800.000	-0.030	-0.086
-541.237	800.000	-0.072	-0.218
-540.223	702.972	-0.074	-0.196
-539.208	165.511	-0.115	0.163
-538.193	-170.268	-0.260	0.009
-537.179	45.860	0.165	0.154
-536.164	-200.000	-0.004	-0.203
-535.150	41.527	-0.177	0.161
-534.135	-200.000	-0.015	0.067
-533.121	-151.572	-0.437	-0.033
-532.106	6.620	-0.057	-0.042
-531.091	37.616	0.194	-0.173
-530.077	212.634	-0.047	-0.074
-529.062	144.108	-0.142	0.191
-528.048	-171.254	0.172	0.006
-527.033	-200.000	0.017	-0.156
-526.018	324.775	0.097	0.187
-525.004	-152.533	0.253	0.018
-523.989	-183.447	0.299	0.005
-522.975	-87.187	0.290	0.089
-521.960	-43.740	-0.297	-0.150
-520.945	-28.459	0.212	0.123
-519.931	111.484	-0.070	-0.085
-518.916	800.000	0.049	-0.206
-517.902	3.560	0.075	-0.055
-516.887	-67.522	0.217	-0.085
-515.872	-200.000	0.082	0.439
-514.858	-84.574	-0.027	0.008
-513.843	-86.695	0.193	-0.059
-512.829	91.622	-0.127	-0.144
-511.814	-127.152	0.398	-0.059
-510.799	227.389	-0.112	0.183
-509.785	800.000	0.165	0.516
-508.770	800.000	-0.026	0.079
-507.756	-172.467	-0.223	-0.007
-506.741	-72.408	-0.004	0.001
-505.726	169.566	-0.272	-0.389
-504.712	-15.598	0.044	-0.028
-503.697	-200.000	-0.022	0.333
-502.683	217.882	-0.079	0.127
-501.668	45.438	-0.138	0.128
-500.653	307.014	-0.030	-0.056
-499.639	-156.059	0.096	0.006
-498.624	72.039	-0.185	-0.194
-497.610	75.809	-0.108	-0.115
-496.595	452.084	-0.079	0.176
-495.581	18.389	-0.290	-0.232
-494.566	66.256	-0.088	0.090
-493.551	-118.788	-0.336	0.059
-492.537	102.556	-0.211	0.247
-491.522	41.045	0.133	-0.121
-490.508	182.911	0.154	-0.228
-489.493	-134.579	0.495	-0.061
-488.478	-200.000	-0.008	-0.227
-487.464	-200.000	-0.031	-0.406
-486.449	-37.312	-0.267	-0.143
-485.435	-200.000	-0.009	-0.123
-484.420	-200.000	-0.040	0.219
-483.405	-161.257	-0.427	-0.022
-482.391	175.705	0.076	0.110
-481.376	800.000	0.023	-0.097
-480.362	-144.722	-0.053	0.005
-479.347	-33.671	-0.088	0.049
-478.332	-121.237	-0.236	0.040
-477.318	-7.967	0.095	0.064
-476.303	389.416	-0.109	-0.226
-475.289	-41.833	-0.280	0.144
-474.274	352.623	-0.051	-0.101
-473.259	41.018	0.167	-0.151
-472.245	-200.000	-0.007	0.189
-471.230	-115.367	0.211	-0.040
-470.216	-79.971	-0.031	0.010
-469.201	70.583	0.171	-0.177
-468.186	174.866	0.259	0.375
-467.172	366.580	-0.175	0.353
-466.157	-158.992	0.161	0.009
-465.143	154.245	0.206	0.284
-464.128	-200.000	-0.016	0.068
-463.113	-87.714	-0.137	0.042
-462.099	-49.475	-0.145	0.069
-461.084	137.954	-0.061	-0.080
-460.070	2.787	-0.154	0.112
-459.055	-97.121	-0.275	0.072
-458.040	89.448	0.219	-0.244
-457.026	-170.905	0.304	0.010
-456.011	-9.580	-0.109	-0.073
-454.997	224.383	0.053	-0.086
-453.982	-200.000	0.003	-0.037
-452.968	-15.072	-0.227	-0.146
-451.953	800.000	0.041	-0.161
-450.938	-18.913	-0.245	0.153
-449.924	-200.000	0.004	-0.240
-448.909	-26.738	0.175	-0.102
-447.895	18.617	-0.051	0.041
-446.880	4.800	0.114	-0.084
-445.865	-200.000	-0.035	0.265
-444.851	317.960	0.147	0.278
-443.836	321.919	-0.134	-0.256
-442.822	-200.000	0.078	0.423
-441.807	179.934	-0.153	0.225
-440.792	178.470	0.273	0.399
-439.778	24.931	0.139	0.116
-438.763	-105.679	0.236	-0.054
-437.749	-57.093	0.204	0.090
-436.734	529.600	0.055	-0.129
-435.719	52.761	-0.129	-0.124
-434.705	487.802	0.142	-0.325
-433.690	-200.000	-0.007	-0.080
-432.676	30.969	-0.187	-0.160
-431.661	800.000	0.164	-0.494
-430.646	149.966	0.109	0.147
-429.632	800.000	-0.026	-0.086
-428.617	216.186	0.221	-0.352
-427.603	164.837	-0.089	-0.126
-426.588	-169.439	-0.117	-0.004
-425.573	-200.000	-0.058	-0.347
-424.559	800.000	-0.053	-0.205
-423.544	-31.311	-0.065	-0.037
-422.530	-98.484	0.214	0.055
-421.515	-26.240	-0.132	0.078
-420.500	800.000	-0.076	-0.228
-419.486	-153.464	-0.167	0.012
-418.471	64.333	-0.124	-0.125
-417.457	-109.542	-0.170	-0.036
-416.442	-200.000	-0.044	0.333
-415.428	114.400	-0.229	-0.279
-414.413	574.979	0.069	0.169
-413.398	-184.612	0.433	-0.007
-412.384	316.042	0.241	0.456
-411.369	800.000	0.037	-0.136
-410.355	-53.836	-0.229	0.104
-409.340	-48.276	0.357	-0.172
-408.325	756.732	0.027	-0.073
-407.311	292.190	0.112	0.204
-406.296	266.632	-0.148	0.259
-405.282	-126.254	0.128	0.019
-404.267	-200.000	0.025	0.381
-403.252	52.720	0.042	0.040
-402.238	4.196	-0.417	-0.305
-401.223	536.431	-0.202	-0.480
-400.209	-141.009	0.153	-0.016
-399.194	-200.000	0.000	-0.021
-398.179	800.000	0.036	-0.151
-397.165	-200.000	-0.016	0.236
-396.150	-200.000	-0.004	0.288
-395.136	-145.223	0.129	0.012
-394.121	-200.000	0.042	0.229
-393.106	-200.000	0.216	-0.001
-392.092	-119.977	0.102	0.018
-391.077	70.569	-0.067	0.070
-390.063	464.150	-0.055	0.123
-389.048	-115.451	-0.114	0.021
-388.033	-136.969	-0.119	-0.014
-387.019	-85.720	-0.157	0.049
-386.004	800.000	0.143	0.402
-384.990	-32.196	-0.047	0.026
-383.975	-109.462	-0.077	0.016
-382.960	-200.000	0.019	0.128
-381.946	-157.614	0.204	0.012
-380.931	61.241	-0.187	-0.185
-379.917	294.648	-0.044	0.080
-378.902	800.000	-0.091	0.314
-377.888	-57.189	0.206	-0.091
-376.873	-200.000	-0.040	0.308
-375.858	163.714	-0.267	0.375
-374.844	-44.944	-0.127	-0.063
-373.829	-38.834	0.161	-0.085
-372.815	-200.000	-0.067	0.294
-371.800	84.989	0.257	0.281
-370.785	128.367	-0.280	0.356
-369.771	-200.000	-0.028	0.329
-368.756	-200.000	-0.001	0.028
-367.742	-161.638	-0.348	-0.018
-366.727	-64.007	0.120	-0.049
-365.712	800.000	0.103	0.435
-364.698	55.744	-0.113	0.109
-363.683	-200.000	-0.018	-0.251
-362.669	-200.000	-0.016	-0.185
-361.654	339.134	-0.106	-0.206
-360.639	66.247	0.158	0.161
-359.625	800.000	0.082	0.360
-358.610	235.721	0.135	-0.223
-357.596	-90.598	0.218	-0.063
-356.581	-85.674	0.302	-0.094
-355.566	-163.644	-0.161	0.008
-354.552	488.117	-0.137	0.311
-353.537	-19.283	-0.329	0.204
-352.523	68.222	0.181	-0.185
-351.508	131.160	0.073	-0.094
-350.493	-141.596	-0.140	-0.014
-349.479	635.718	0.063	0.158
-348.464	-26.190	0.123	-0.072
-347.450	206.584	0.041	0.064
-346.435	-140.149	0.266	-0.028
-345.420	80.917	-0.345	0.372
-344.406	388.891	0.051	-0.105
-343.391	-200.000	-0.001	-0.314
-342.377	-74.501	-0.206	0.074
-341.362	1.073	-0.387	0.277
-340.348	31.267	-0.130	-0.112
-339.333	800.000	-0.048	-0.177
-338.318	429.768	-0.038	0.083
-337.304	800.000	0.129	0.390
-336.289	208.415	0.049	-0.076
-335.275	-104.827	-0.087	0.020
-334.260	-200.000	-0.042	0.389
-333.245	-124.231	-0.117	-0.018
-332.231	800.000	0.020	-0.075
-331.216	-56.611	0.206	0.091
-330.202	86.756	-0.134	-0.147
-329.187	-39.858	0.282	-0.147
-328.172	-145.746	-0.321	-0.028
-327.158	159.582	0.213	-0.295
-326.143	430.693	-0.059	-0.127
-325.129	42.034	-0.033	0.030
-324.114	290.886	-0.267	-0.483
-323.099	151.631	-0.115	-0.157
-322.085	-74.828	-0.137	-0.049
-321.070	498.908	-0.144	0.331
-320.056	630.956	-0.084	-0.211
-319.041	-200.000	0.052	0.257
-318.026	800.000	0.049	0.203
-317.012	-200.000	0.013	-0.119
-315.997	-200.000	0.028	0.358
-314.983	1.006	-0.025	-0.018
-313.968	0.375	0.320	0.228
-312.953	16.573	0.167	-0.132
-311.939	-145.610	-0.160	-0.014
-310.924	5.444	0.022	0.016
-309.910	72.670	0.137	0.143
-308.895	-200.000	0.029	0.189
-307.880	800.000	0.071	0.258
-306.866	297.836	0.077	-0.140
-305.851	-200.000	-0.026	0.197
-304.837	-200.000	0.004	-0.070
-303.822	-200.000	0.069	0.303
-302.807	102.294	0.176	0.205
-301.793	332.018	-0.115	0.220
-300.778	-7.638	-0.132	-0.089
-299.764	258.321	0.141	0.241
-298.749	-81.881	0.151	-0.049
-297.735	651.036	-0.122	0.311
-296.720	800.000	0.050	-0.147
-295.705	373.058	-0.104	-0.210
-294.691	0.167	-0.275	0.196
-293.676	-119.344	0.144	0.025
-292.662	-132.551	-0.169	-0.022
-291.647	-167.516	-0.190	0.008
-290.632	728.640	0.097	-0.257
-289.618	-200.000	0.030	-0.149
-288.603	-66.157	-0.061	-0.024
-287.589	-200.000	-0.015	0.208
-286.574	800.000	-0.037	0.125
-285.559	-200.000	-0.004	-0.136
-284.545	-97.227	0.183	0.047
-283.530	-63.445	-0.163	0.067
-282.516	-26.978	0.113	0.065
-281.501	-121.038	0.217	0.036
-280.486	-70.404	-0.085	0.032
-279.472	-88.731	0.163	-0.048
-278.457	-19.853	0.043	0.027
-277.443	85.603	-0.112	0.122
-276.428	-200.000	-0.048	-0.237
-275.413	-133.872	0.512	0.063
-274.399	-111.627	-0.262	-0.053
-273.384	231.296	-0.069	0.113
-272.370	133.723	0.107	-0.138
-271.355	-200.000	-0.009	-0.049
-270.340	800.000	0.028	-0.119
-269.326	-107.912	0.506	-0.109
-268.311	-200.000	-0.005	-0.074
-267.297	-54.937	-0.073	0.033
-266.282	183.798	-0.076	0.111
-265.267	-64.887	-0.058	-0.023
-264.253	-120.374	0.313	-0.053
-263.238	-69.294	0.183	-0.070
-262.224	325.420	-0.040	-0.075
-261.209	-58.715	-0.200	-0.086
-260.195	60.279	-0.142	-0.139
-259.180	-20.962	0.211	0.128
-258.165	70.256	0.103	0.106
-257.151	141.792	-0.065	0.085
-256.136	34.673	-0.137	-0.119
-255.122	800.000	-0.079	-0.250
-254.107	81.308	-0.201	0.216
-253.092	-55.738	0.484	0.215
-252.078	-200.000	-0.004	0.114
-251.063	-200.000	-0.070	-0.335
-250.049	-27.761	0.124	0.072
-249.034	163.240	0.179	-0.250
-248.019	-27.519	0.192	0.111
-247.005	-59.986	0.038	-0.016
-245.990	-200.000	0.023	-0.205
-244.976	33.249	0.268	-0.231
-243.961	-57.169	-0.138	-0.060
-242.946	-186.091	-0.304	0.004
-241.932	-30.899	0.054	0.030
-240.917	-84.587	0.096	-0.030
-239.903	58.073	0.167	0.162
-238.888	317.481	0.085	0.161
-237.873	-200.000	-0.017	-0.266
-236.859	-44.539	-0.164	-0.082
-235.844	316.832	-0.059	-0.112
-234.830	-200.000	-0.061	-0.300
-233.815	36.276	0.255	-0.224
-232.800	-61.620	-0.194	-0.081
-231.786	-200.000	0.011	0.064
-230.771	165.500	-0.184	0.258
-229.757	-53.069	0.292	0.133
-228.742	-180.671	0.169	-0.003
-227.727	122.399	-0.113	0.140
-226.713	800.000	0.044	0.175
-225.698	-200.000	0.083	-0.366
-224.684	-200.000	0.053	0.457
-223.669	-200.000	-0.014	-0.170
-222.655	-2.683	-0.142	-0.099
-221.640	800.000	-0.047	0.193
-220.625	800.000	-0.087	-0.251
-219.611	-44.476	0.114	0.056
-218.596	321.635	0.073	-0.137
-217.582	13.838	0.040	-0.031
-216.567	-200.000	0.035	-0.217
-215.552	-10.828	-0.145	-0.095
-214.538	-132.836	-0.417	-0.053
-213.523	-99.969	0.177	0.044
-212.509	-21.109	0.027	-0.016
-211.494	-200.000	0.015	0.290
-210.479	-128.352	-0.084	0.012
-209.465	-200.000	0.012	0.084
-208.450	11.978	0.305	-0.232
-207.436	56.065	0.342	0.329
-206.421	142.174	-0.153	0.201
-205.406	800.000	-0.019	0.051
-204.392	-200.000	0.003	-0.159
-203.377	80.092	-0.223	-0.238
-202.363	-37.857	-0.335	0.176
-201.348	-38.398	-0.357	-0.188
-200.333	66.939	0.369	0.373
-199.319	-14.262	0.184	-0.118
-198.304	-77.819	0.075	-0.026
-197.290	800.000	0.046	0.143
-196.275	74.855	0.117	-0.122
-195.260	63.417	-0.128	0.127
-194.246	-140.842	0.497	0.051
-193.231	-94.090	-0.150	-0.041
-192.217	328.399	0.159	-0.303
-191.202	-119.967	0.126	0.021
-190.187	126.221	-0.240	-0.301
-189.173	-16.172	-0.093	0.058
-188.158	-4.490	-0.068	0.047
-187.144	-200.000	0.017	-0.079
-186.129	46.220	-0.130	-0.120
-185.114	-95.051	0.304	0.081
-184.100	-200.000	-0.007	0.125
-183.085	314.920	0.103	-0.193
-182.071	154.804	0.120	-0.163
-181.056	-200.000	-0.013	0.067
-180.042	-200.000	0.072	0.338
-179.027	-200.000	-0.055	0.377
-178.012	-200.000	0.020	0.188
-176.998	-49.127	-0.161	0.076
-175.983	800.000	-0.016	0.062
-174.969	800.000	-0.138	-0.407
-173.954	800.000	-0.091	0.345
-172.939	800.000	0.064	-0.182
-171.925	340.062	0.150	0.289
-170.910	-48.359	0.240	0.115
-169.896	-63.540	0.340	0.138
-168.881	-81.722	-0.314	0.102
-167.866	-42.193	-0.072	0.036
-166.852	800.000	-0.036	-0.100
-165.837	-37.251	0.065	-0.034
-164.823	-200.000	0.003	0.118
-163.808	154.047	0.203	-0.276
-162.793	-2.007	-0.187	0.130
-161.779	-59.000	-0.051	-0.022
-160.764	-85.889	-0.065	0.020
-159.750	-200.000	-0.003	-0.206
-158.735	89.330	-0.183	-0.202
-157.720	-56.482	-0.155	0.068
-156.706	-200.000	-0.048	-0.368
-155.691	47.121	0.199	0.183
-154.677	-183.446	-0.215	-0.004
-153.662	61.294	0.290	0.285
-152.647	-78.800	0.241	0.081
-151.633	-155.950	-0.446	-0.028
-150.618	-82.760	-0.234	0.075
-149.604	800.000	-0.051	0.163
-148.589	800.000	-0.016	0.059
-147.574	62.115	0.098	0.097
-146.560	-89.038	0.158	-0.046
-145.545	334.865	0.064	0.124
-144.531	19.321	-0.145	-0.115
-143.516	-200.000	0.047	0.355
-142.502	-200.000	0.063	0.368
-141.487	-15.529	-0.086	-0.055
-140.472	-200.000	-0.051	0.226
-139.458	144.858	-0.127	0.168
-138.443	-99.652	0.210	-0.052
-137.429	455.908	0.057	-0.124
-136.414	-37.364	0.152	-0.080
-135.399	410.446	-0.112	-0.235
-134.385	190.773	-0.188	0.279
-133.370	-99.998	-0.222	0.055
-132.356	-200.000	0.009	0.261
-131.341	-200.000	-0.035	-0.256
-130.326	800.000	-0.104	0.347
-129.312	800.000	-0.049	-0.157
-128.297	-109.944	-0.258	0.054
-127.283	800.000	-0.012	0.034
-126.268	459.334	0.146	0.322
-125.253	71.267	-0.117	-0.120
-124.239	147.606	-0.244	-0.325
-123.224	-87.084	-0.133	0.040
-122.210	301.544	-0.137	0.251
