DTS Sentinel unit serial number:	SN413079Multiplexer serial number:	ORYXHardware model number:	OX4-SRSoftware version number:	ORYX F/W v4.00 Oryx Data Collector v3.7.2.0data status	okinstallation	princeton_trtdifferential loss correction	single-endedforward channel	channel 4reverse channel	N/Adate	2019/09/17time	16:57:35forward acquisition time	60.00reverse acquisition time	0.00gamma	496.2192k internal	0.2281k external	0.2281temperature offset calibration	0.9981default loss term (dB/km)	0.3790temperature slope calibration	1.0000multiplexer offset coefficient	1.0000multiplexer slope coefficient	1.0000fibre end	0.00T internal ref (°C)	42.44T ext. ref 1 (°C)	0.35T ext. ref 2 (°C)	38.95length (m)	temperature (°C)	Stokes	anti-Stokes-747.200	5.664	-0.187	0.142
-746.185	557.540	-0.093	0.230
-745.171	154.902	0.219	0.310
-744.156	800.000	0.073	0.305
-743.142	-200.000	-0.002	0.044
-742.127	800.000	-0.100	0.310
-741.112	-53.161	-0.251	0.118
-740.098	-200.000	0.020	0.109
-739.083	134.361	-0.192	-0.256
-738.069	83.908	-0.216	0.242
-737.054	800.000	-0.060	0.184
-736.039	345.494	-0.193	0.389
-735.025	219.678	0.207	0.342
-734.010	310.699	0.053	0.102
-732.996	-1.948	0.223	-0.161
-731.981	-16.846	0.207	0.134
-730.966	-140.597	-0.332	0.035
-729.952	-160.600	0.073	-0.004
-728.937	-121.463	-0.527	0.090
-727.923	-162.472	0.164	0.008
-726.908	164.455	-0.085	-0.123
-725.894	18.517	-0.075	-0.062
-724.879	-200.000	0.012	-0.134
-723.864	800.000	0.041	0.121
-722.850	44.014	0.100	-0.094
-721.835	-68.588	0.090	0.036
-720.821	-154.825	-0.148	-0.010
-719.806	496.777	0.054	-0.128
-718.791	259.023	-0.161	-0.285
-717.777	-200.000	-0.022	-0.165
-716.762	-200.000	0.078	0.359
-715.748	59.757	-0.108	0.109
-714.733	770.249	0.001	-0.003
-713.718	-69.719	0.100	0.039
-712.704	39.042	0.164	-0.151
-711.689	-73.787	0.219	-0.082
-710.675	31.193	-0.201	-0.177
-709.660	9.142	-0.025	0.019
-708.645	-157.874	0.146	0.009
-707.631	-69.736	0.298	-0.117
-706.616	-69.852	-0.156	0.061
-705.602	132.199	0.177	-0.234
-704.587	-98.056	-0.357	-0.094
-703.572	104.904	0.232	-0.281
-702.558	-132.340	-0.078	0.010
-701.543	-148.055	-0.268	0.023
-700.529	-200.000	-0.378	-0.001
-699.514	-32.472	0.331	0.190
-698.499	-4.150	0.207	-0.148
-697.485	6.578	0.049	-0.037
-696.470	-200.000	-0.059	0.305
-695.456	14.776	-0.284	0.228
-694.441	-71.718	0.110	-0.042
-693.426	-200.000	-0.007	-0.209
-692.412	1.101	0.136	0.100
-691.397	289.370	0.137	-0.255
-690.383	800.000	-0.074	0.237
-689.368	118.811	-0.220	0.279
-688.354	-200.000	-0.037	-0.172
-687.339	-134.319	-0.214	-0.027
-686.324	-94.818	-0.220	0.061
-685.310	37.752	-0.298	-0.272
-684.295	-200.000	0.009	-0.169
-683.281	-200.000	-0.007	0.114
-682.266	316.660	-0.083	0.161
-681.251	-112.954	0.060	0.012
-680.237	-200.000	0.004	0.101
-679.222	-86.338	-0.199	0.063
-678.208	-107.022	0.163	-0.037
-677.193	158.483	-0.063	0.090
-676.178	-99.260	-0.193	-0.050
-675.164	174.673	-0.142	-0.211
-674.149	-139.001	-0.037	0.004
-673.135	277.263	0.119	-0.217
-672.120	-21.260	0.161	0.101
-671.105	-200.000	0.015	-0.227
-670.091	596.298	0.164	0.416
-669.076	184.723	-0.195	0.296
-668.062	119.094	0.220	-0.278
-667.047	-156.304	-0.084	0.005
-666.032	65.366	0.146	-0.152
-665.018	-92.269	0.098	-0.028
-664.003	-12.790	-0.092	0.062
-662.989	-200.000	0.016	-0.213
-661.974	800.000	0.088	-0.371
-660.959	-87.935	0.103	0.032
-659.945	-80.525	-0.208	0.071
-658.930	-200.000	0.003	-0.136
-657.916	-79.638	-0.316	0.109
-656.901	-121.466	0.182	-0.031
-655.886	76.420	0.077	-0.084
-654.872	-200.000	-0.012	-0.211
-653.857	15.707	0.209	-0.168
-652.843	-200.000	0.032	-0.347
-651.828	-83.123	-0.302	-0.100
-650.814	68.198	0.418	0.439
-649.799	-200.000	-0.044	-0.269
-648.784	56.977	0.127	-0.127
-647.770	102.843	0.106	-0.127
-646.755	97.322	-0.108	0.127
-645.741	148.248	0.127	0.176
-644.726	-36.755	-0.075	-0.041
-643.711	482.216	0.061	0.142
-642.697	-71.652	-0.207	0.079
-641.682	-107.391	0.108	0.024
-640.668	128.001	0.246	0.320
-639.653	244.430	-0.049	0.084
-638.638	57.518	0.173	-0.173
-637.624	284.318	0.173	0.319
-636.609	-200.000	0.070	0.327
-635.595	-140.482	-0.086	-0.009
-634.580	109.436	0.308	0.378
-633.565	216.218	0.135	-0.219
-632.551	247.958	-0.037	-0.063
-631.536	-169.281	-0.263	-0.010
-630.522	200.519	0.039	0.061
-629.507	-4.046	-0.161	-0.114
-628.492	15.559	-0.080	-0.064
-627.478	-20.788	-0.127	-0.080
-626.463	800.000	-0.021	0.062
-625.449	-118.286	0.027	-0.005
-624.434	564.158	-0.007	-0.017
-623.419	800.000	-0.061	0.178
-622.405	156.261	-0.062	0.087
-621.390	62.879	-0.087	-0.089
-620.376	539.836	-0.029	0.070
-619.361	-14.588	-0.186	0.123
-618.346	-52.496	0.242	-0.114
-617.332	-118.864	-0.195	-0.035
-616.317	-200.000	-0.024	0.133
-615.303	-200.000	0.012	-0.157
-614.288	145.052	0.188	0.258
-613.273	689.300	-0.091	-0.244
-612.259	56.944	-0.220	-0.219
-611.244	58.972	0.137	0.138
-610.230	-98.721	-0.129	-0.034
-609.215	-16.347	0.281	-0.183
-608.201	42.695	0.140	0.131
-607.186	-98.219	-0.181	-0.047
-606.171	800.000	-0.052	0.218
-605.157	-61.647	0.172	-0.074
-604.142	-76.290	-0.288	-0.104
-603.128	266.577	0.113	-0.202
-602.113	240.358	-0.267	-0.456
-601.098	215.666	0.030	-0.049
-600.084	-93.835	0.272	-0.076
-599.069	443.052	0.088	0.198
-598.055	-58.860	-0.186	0.082
-597.040	60.048	0.011	0.011
-596.025	-122.600	-0.356	0.059
-595.011	94.905	0.060	0.069
-593.996	800.000	0.061	-0.202
-592.982	-200.000	-0.010	-0.197
-591.967	224.085	0.146	-0.242
-590.952	-35.291	-0.394	-0.219
-589.938	7.606	-0.052	-0.040
-588.923	-200.000	0.010	-0.171
-587.909	-200.000	0.018	-0.154
-586.894	-177.183	-0.344	-0.009
-585.879	-48.120	-0.032	0.016
-584.865	-93.766	-0.440	0.124
-583.850	345.456	-0.049	-0.099
-582.836	-96.400	0.159	0.043
-581.821	-100.674	0.155	0.039
-580.806	-149.839	0.370	0.030
-579.792	61.208	-0.080	0.081
-578.777	-22.370	0.291	0.180
-577.763	800.000	-0.061	0.272
-576.748	-200.000	-0.032	0.248
-575.733	339.621	-0.081	-0.162
-574.719	800.000	-0.023	0.090
-573.704	-88.693	-0.239	-0.073
-572.690	13.685	-0.251	0.199
-571.675	410.765	-0.046	0.100
-570.661	338.702	0.075	-0.149
-569.646	-88.781	-0.073	0.022
-568.631	4.561	-0.143	-0.107
-567.617	380.729	0.059	-0.124
-566.602	-145.544	0.052	-0.005
-565.588	-72.362	-0.197	-0.075
-564.573	117.907	-0.152	0.191
-563.558	-59.017	-0.129	0.057
-562.544	-129.110	0.261	0.037
-561.529	-200.000	0.007	0.147
-560.515	50.694	0.294	-0.285
-559.500	-154.175	-0.033	0.002
-558.485	133.334	-0.319	0.421
-557.471	-35.594	0.155	0.086
-556.456	617.006	0.073	0.187
-555.442	-59.695	-0.118	0.052
-554.427	55.322	0.133	0.131
-553.412	-200.000	0.006	0.161
-552.398	61.400	-0.112	-0.113
-551.383	-97.740	-0.071	-0.019
-550.369	-93.451	-0.304	-0.086
-549.354	87.385	0.245	0.276
-548.339	800.000	-0.019	0.079
-547.325	800.000	0.056	-0.174
-546.310	-118.153	-0.173	0.031
-545.296	22.777	-0.241	-0.201
-544.281	-108.964	-0.262	-0.057
-543.266	-57.229	0.153	-0.069
-542.252	-200.000	0.010	-0.190
-541.237	19.336	0.202	0.166
-540.223	-98.280	-0.239	-0.063
-539.208	182.335	-0.120	-0.180
-538.193	-48.010	-0.198	-0.098
-537.179	-95.410	-0.070	0.019
-536.164	309.172	0.112	-0.213
-535.150	-152.408	-0.136	0.010
-534.135	-22.864	0.112	0.069
-533.121	-36.621	-0.192	0.105
-532.106	422.038	0.106	-0.233
-531.091	-65.937	0.079	0.032
-530.077	-58.070	-0.231	0.103
-529.062	-200.000	0.013	0.285
-528.048	70.423	-0.219	-0.231
-527.033	-24.890	-0.102	-0.062
-526.018	-200.000	0.006	-0.107
-525.004	26.114	-0.276	0.235
-523.989	34.215	-0.123	0.109
-522.975	-80.808	0.287	-0.097
-521.960	-40.217	-0.131	0.069
-520.945	-79.227	0.360	-0.125
-519.931	277.281	0.024	-0.044
-518.916	554.678	-0.055	-0.135
-517.902	73.585	0.168	0.179
-516.887	-158.300	-0.087	-0.005
-515.872	394.435	-0.097	-0.207
-514.858	81.076	-0.106	0.117
-513.843	-200.000	0.037	-0.199
-512.829	-121.498	-0.156	0.026
-511.814	-200.000	-0.018	-0.149
-510.799	-6.391	0.118	0.082
-509.785	-107.354	-0.004	-0.001
-508.770	-89.700	0.147	-0.044
-507.756	-171.604	-0.422	-0.014
-506.741	727.105	-0.048	-0.131
-505.726	612.917	0.158	-0.402
-504.712	-61.187	-0.151	-0.065
-503.697	-161.536	0.289	-0.015
-502.683	-200.000	-0.301	-0.001
-501.668	7.711	-0.144	0.110
-500.653	-43.484	0.279	0.144
-499.639	-75.231	-0.080	-0.029
-498.624	69.782	0.229	0.240
-497.610	29.024	-0.126	0.109
-496.595	273.278	0.087	-0.156
-495.581	677.742	-0.114	-0.303
-494.566	-200.000	-0.039	0.197
-493.551	245.127	0.011	0.018
-492.537	-40.556	-0.191	-0.101
-491.522	-113.669	0.308	0.061
-490.508	-200.000	-0.013	-0.117
-489.493	-8.998	0.289	0.197
-488.478	-134.201	0.147	0.018
-487.464	-169.251	-0.260	-0.010
-486.449	-200.000	-0.050	-0.238
-485.435	-52.509	-0.171	0.081
-484.420	-5.851	0.245	0.170
-483.405	691.587	0.030	-0.079
-482.391	298.368	0.028	-0.052
-481.376	68.149	-0.212	-0.221
-480.362	-56.199	-0.267	0.121
-479.347	800.000	0.154	-0.479
-478.332	635.133	0.155	-0.401
-477.318	179.609	-0.119	0.178
-476.303	-90.159	-0.224	0.066
-475.289	277.223	0.088	0.159
-474.274	32.705	-0.134	-0.118
-473.259	243.879	0.064	0.109
-472.245	-24.630	-0.173	0.105
-471.230	-200.000	-0.031	-0.228
-470.216	-79.899	0.145	-0.050
-469.201	-91.256	-0.266	0.077
-468.186	199.216	-0.062	-0.096
-467.172	35.475	0.304	0.271
-466.157	127.083	-0.116	0.149
-465.143	-200.000	0.046	-0.413
-464.128	-200.000	0.011	-0.125
-463.113	-21.993	0.310	-0.191
-462.099	160.841	0.229	0.326
-461.084	-0.879	0.133	0.096
-460.070	-200.000	0.012	-0.169
-459.055	529.820	0.244	0.587
-458.040	6.311	-0.267	0.201
-457.026	-194.311	-0.306	-0.003
-456.011	-47.444	0.155	0.076
-454.997	-101.021	-0.560	0.140
-453.982	717.758	0.041	-0.111
-452.968	800.000	-0.087	-0.271
-451.953	689.145	-0.093	0.249
-450.938	407.303	0.054	0.117
-449.924	-133.166	0.172	0.022
-448.909	800.000	0.076	0.243
-447.895	88.634	-0.063	-0.072
-446.880	-19.218	-0.321	0.202
-445.865	62.893	-0.309	0.314
-444.851	800.000	0.068	0.297
-443.836	534.768	0.156	0.375
-442.822	253.151	-0.072	0.125
-441.807	-171.632	-0.189	-0.006
-440.792	-118.574	0.237	0.043
-439.778	-40.870	-0.319	-0.168
-438.763	-200.000	0.043	0.281
-437.749	-200.000	-0.026	-0.179
-436.734	-68.361	0.435	-0.172
-435.719	-1.298	0.365	0.262
-434.705	181.943	0.198	0.297
-433.690	398.164	-0.080	-0.169
-432.676	5.093	0.222	0.166
-431.661	-153.708	-0.142	-0.010
-430.646	-200.000	0.019	0.126
-429.632	174.033	0.055	-0.081
-428.617	575.116	-0.059	0.145
-427.603	-111.842	0.367	-0.075
-426.588	-200.000	0.002	0.067
-425.573	331.369	0.100	-0.197
-424.559	-169.312	0.317	-0.012
-423.544	245.367	-0.196	0.335
-422.530	-155.174	-0.025	-0.002
-421.515	-200.000	-0.020	-0.280
-420.500	-137.471	0.128	-0.015
-419.486	800.000	-0.054	0.184
-418.471	-46.767	0.129	-0.064
-417.457	106.612	-0.069	-0.083
-416.442	-200.000	-0.036	0.159
-415.428	21.670	0.133	0.110
-414.413	263.222	-0.144	0.253
-413.398	130.534	-0.102	-0.132
-412.384	-58.657	-0.214	-0.094
-411.369	57.352	0.253	-0.251
-410.355	73.123	0.116	0.123
-409.340	69.162	-0.152	-0.158
-408.325	461.149	0.110	-0.248
-407.311	-3.943	-0.064	-0.045
-406.296	-104.828	-0.225	-0.052
-405.282	282.217	-0.096	-0.174
-404.267	146.945	0.223	-0.304
-403.252	752.221	0.042	0.114
-402.238	-58.441	0.217	-0.096
-401.223	104.542	0.108	-0.129
-400.209	94.749	0.199	-0.230
-399.194	-200.000	0.035	-0.279
-398.179	-123.570	0.243	-0.039
-397.165	-77.702	0.231	-0.081
-396.150	-200.000	0.023	-0.107
-395.136	10.254	-0.142	0.110
-394.121	296.302	-0.056	-0.103
-393.106	-200.000	0.018	-0.138
-392.092	22.769	0.086	-0.072
-391.077	-58.537	0.194	-0.085
-390.063	-13.559	0.132	-0.087
-389.048	714.206	-0.051	0.138
-388.033	-112.451	0.400	-0.081
-387.019	-112.052	0.234	0.048
-386.004	800.000	0.029	0.092
-384.990	-19.125	0.128	-0.080
-383.975	130.488	0.230	-0.299
-382.960	86.385	0.217	-0.242
-381.946	-69.946	0.060	0.023
-380.931	-54.649	0.225	0.103
-379.917	-68.963	-0.101	-0.040
-378.902	17.709	0.210	-0.169
-377.888	-200.000	-0.004	-0.077
-376.873	-40.842	0.217	0.114
-375.858	-105.359	0.213	0.049
-374.844	49.019	-0.126	0.120
-373.829	-136.265	-0.041	-0.005
-372.815	-200.000	0.019	0.269
-371.800	-171.871	0.269	-0.009
-370.785	277.823	-0.159	-0.287
-369.771	68.553	0.285	0.296
-368.756	-47.673	0.083	-0.041
-367.742	119.390	-0.060	0.075
-366.727	-159.577	-0.237	-0.013
-365.712	800.000	0.052	-0.163
-364.698	55.977	-0.087	0.085
-363.683	-47.300	-0.121	-0.060
-362.669	16.873	0.071	0.057
-361.654	800.000	-0.090	0.260
-360.639	-30.948	0.215	-0.123
-359.625	-130.625	-0.254	-0.035
-358.610	445.858	0.086	-0.191
-357.596	357.173	-0.187	-0.379
-356.581	17.158	-0.076	0.061
-355.566	77.219	0.206	-0.222
-354.552	-140.852	-0.100	0.010
-353.537	39.055	-0.061	0.055
-352.523	3.254	0.327	0.241
-351.508	124.544	-0.110	0.140
-350.493	-109.205	0.285	0.061
-349.479	130.072	-0.087	0.112
-348.464	-37.575	-0.133	-0.072
-347.450	-39.837	-0.136	0.072
-346.435	335.636	-0.128	-0.252
-345.420	596.330	-0.122	0.307
-344.406	800.000	0.061	0.185
-343.391	108.817	0.043	-0.052
-342.377	110.113	-0.126	0.153
-341.362	-200.000	-0.011	-0.075
-340.348	338.867	0.090	-0.177
-339.333	416.746	0.028	0.061
-338.318	294.993	-0.170	-0.314
-337.304	-95.553	-0.338	0.092
-336.289	-125.469	-0.315	0.049
-335.275	21.153	0.231	-0.190
-334.260	-143.930	-0.206	0.020
-333.245	-200.000	0.011	0.608
-332.231	-200.000	-0.016	0.260
-331.216	800.000	-0.071	-0.223
-330.202	263.968	0.071	-0.125
-329.187	-200.000	0.031	-0.423
-328.172	-57.919	-0.154	-0.068
-327.158	198.186	0.089	-0.137
-326.143	52.859	-0.207	-0.201
-325.129	138.438	0.240	-0.318
-324.114	-128.397	0.159	0.023
-323.099	-92.679	0.302	-0.086
-322.085	-58.945	0.029	0.013
-321.070	213.523	-0.036	-0.058
-320.056	114.645	-0.055	-0.067
-319.041	260.579	0.075	-0.131
-318.026	151.761	-0.098	0.135
-317.012	-6.366	0.010	-0.007
-315.997	-35.443	0.119	0.065
-314.983	120.094	-0.152	0.190
-313.968	-106.879	-0.068	0.015
-312.953	13.766	0.103	-0.081
-311.939	-178.031	-0.038	0.001
-310.924	29.300	0.247	-0.212
-309.910	149.920	0.147	-0.202
-308.895	688.774	-0.119	-0.314
-307.880	-65.356	-0.070	0.028
-306.866	134.712	-0.111	0.145
-305.851	581.846	-0.039	-0.096
-304.837	166.074	0.115	-0.165
-303.822	-200.000	-0.012	-0.290
-302.807	-16.404	-0.088	-0.057
-301.793	-100.713	-0.324	-0.081
-300.778	640.634	-0.120	-0.308
-299.764	-78.529	0.367	-0.127
-298.749	-200.000	-0.020	0.195
-297.735	218.932	-0.165	0.267
-296.720	800.000	-0.079	0.258
-295.705	32.285	-0.333	0.291
-294.691	800.000	-0.010	0.028
-293.676	59.718	-0.120	-0.119
-292.662	-200.000	0.046	-0.323
-291.647	-114.179	-0.311	0.061
-290.632	-95.640	-0.097	0.026
-289.618	-200.000	-0.005	-0.275
-288.603	204.924	0.141	0.221
-287.589	-97.701	0.025	0.007
-286.574	-33.082	0.161	-0.090
-285.559	127.768	0.136	0.175
-284.545	48.974	0.228	-0.216
-283.530	60.365	0.314	0.314
-282.516	-31.979	-0.378	-0.214
-281.501	-82.481	0.139	0.046
-280.486	-47.771	-0.197	0.096
-279.472	125.576	0.072	0.092
-278.457	65.278	0.089	-0.091
-277.443	-96.496	0.243	-0.065
-276.428	800.000	0.092	-0.332
-275.413	125.818	-0.066	0.084
-274.399	-200.000	0.017	-0.087
-273.384	-115.344	-0.086	0.016
-272.370	74.938	-0.155	0.165
-271.355	-126.294	-0.111	-0.017
-270.340	503.926	-0.104	-0.244
-269.326	800.000	0.026	-0.075
-268.311	-200.000	0.041	-0.209
-267.297	-45.117	-0.207	-0.104
-266.282	30.318	0.172	0.149
-265.267	67.833	0.108	0.111
-264.253	-200.000	0.017	0.365
-263.238	16.790	0.156	-0.124
-262.224	-198.241	-0.328	0.002
-261.209	-94.887	-0.281	0.077
-260.195	800.000	-0.019	0.081
-259.180	-200.000	-0.023	-0.284
-258.165	-60.601	-0.265	0.114
-257.151	-29.610	-0.332	0.192
-256.136	-75.168	0.174	-0.063
-255.122	-71.587	0.272	-0.103
-254.107	738.482	-0.078	-0.211
-253.092	329.261	0.069	-0.134
-252.078	545.719	-0.109	0.263
-251.063	192.141	0.071	0.108
-250.049	205.373	-0.125	0.195
-249.034	-73.158	-0.185	-0.068
-248.019	-141.017	-0.396	0.041
-247.005	65.008	0.117	-0.119
-245.990	-10.287	-0.146	-0.098
-244.976	-97.522	-0.274	0.072
-243.961	106.931	0.274	0.328
-242.946	-200.000	0.032	0.154
-241.932	-152.873	0.249	0.018
-240.917	-200.000	-0.027	0.344
-239.903	-91.422	-0.198	0.057
-238.888	13.375	0.151	0.118
-237.873	147.821	0.200	-0.272
-236.859	37.115	-0.149	0.133
-235.844	74.234	-0.232	0.246
-234.830	-98.214	-0.184	0.048
-233.815	-38.478	-0.115	0.061
-232.800	-183.869	-0.172	-0.003
-231.786	800.000	-0.032	0.136
-230.771	85.692	-0.068	-0.076
-229.757	423.320	-0.050	-0.109
-228.742	-57.834	0.349	0.154
-227.727	-62.576	0.096	-0.040
-226.713	412.801	0.159	-0.341
-225.698	-111.524	0.184	-0.038
-224.684	-50.278	-0.200	-0.095
-223.669	415.591	-0.055	0.119
-222.655	-63.441	-0.047	0.020
-221.640	-188.960	-0.207	-0.003
-220.625	-29.054	0.325	0.188
-219.611	-136.138	0.280	0.033
-218.596	-51.599	0.455	0.214
-217.582	77.466	0.102	0.110
-216.567	64.191	-0.128	0.130
-215.552	-60.592	0.201	0.086
-214.538	800.000	-0.100	0.313
-213.523	47.206	-0.064	-0.060
-212.509	59.014	0.060	0.060
-211.494	533.846	-0.062	-0.148
-210.479	800.000	-0.049	-0.201
-209.465	-188.370	-0.281	-0.004
-208.450	151.452	0.184	-0.252
-207.436	-28.579	-0.312	0.181
-206.421	-48.434	0.346	-0.168
-205.406	-125.501	0.057	-0.009
-204.392	-200.000	-0.021	-0.232
-203.377	250.071	0.064	0.109
-202.363	-125.541	-0.354	0.054
-201.348	800.000	-0.058	0.217
-200.333	-200.000	-0.015	0.143
-199.319	162.593	-0.119	-0.168
-198.304	-21.029	-0.247	0.152
-197.290	-200.000	0.059	0.471
-196.275	-200.000	-0.003	-0.115
-195.260	-54.755	-0.381	-0.173
-194.246	-130.777	0.559	-0.076
-193.231	-107.595	0.389	0.086
-192.217	800.000	0.028	-0.107
-191.202	340.246	-0.105	-0.206
-190.187	-29.673	-0.111	-0.064
-189.173	-200.000	0.148	-0.000
-188.158	299.513	-0.144	-0.268
-187.144	-109.893	0.220	0.046
-186.129	26.223	0.049	-0.041
-185.114	-103.766	-0.394	0.093
-184.100	54.455	0.170	-0.165
-183.085	-57.322	-0.065	-0.029
-182.071	146.141	0.115	-0.156
-181.056	-6.768	0.136	-0.093
-180.042	143.998	0.135	-0.181
-179.027	137.158	-0.036	0.047
-178.012	185.869	0.145	-0.217
-176.998	-162.842	0.118	-0.006
-175.983	-96.891	-0.300	0.079
-174.969	-72.424	-0.119	0.044
-173.954	-69.121	0.263	0.102
-172.939	-79.095	0.426	-0.145
-171.925	-200.000	0.058	0.359
-170.910	-154.572	-0.422	0.028
-169.896	732.737	0.087	0.235
-168.881	-41.095	0.288	-0.149
-167.866	-24.828	-0.257	-0.154
-166.852	-37.563	-0.232	0.125
-165.837	-200.000	0.013	0.100
-164.823	-80.778	0.208	0.069
-163.808	-144.877	0.076	0.007
-162.793	613.278	0.101	0.255
-161.779	189.773	0.063	-0.095
-160.764	-174.409	0.113	-0.003
-159.750	-92.183	-0.097	-0.027
-158.735	-200.000	0.004	0.252
-157.720	-3.654	-0.173	0.121
-156.706	671.778	0.121	0.316
-155.691	-80.398	0.345	0.116
-154.677	89.873	0.207	0.232
-153.662	92.564	-0.078	0.088
-152.647	265.032	-0.044	0.078
-151.633	-113.578	0.175	-0.034
-150.618	-18.733	-0.424	0.266
-149.604	-200.000	-0.006	-0.180
-148.589	-56.280	0.198	-0.088
-147.574	-200.000	-0.011	0.370
-146.560	-200.000	0.001	-0.187
-145.545	173.308	0.110	-0.159
-144.531	-54.475	-0.137	-0.062
-143.516	114.277	0.239	0.292
-142.502	-200.000	-0.005	-0.051
-141.487	-200.000	-0.409	-0.002
-140.472	9.738	-0.151	-0.115
-139.458	-200.000	-0.001	-0.138
-138.443	-200.000	0.002	0.166
-137.429	70.632	0.168	0.174
-136.414	703.369	0.046	-0.121
-135.399	-125.242	0.131	-0.020
-134.385	800.000	0.088	0.276
-133.370	-67.899	-0.122	0.048
-132.356	68.817	0.214	0.221
-131.341	377.372	-0.206	0.423
-130.326	235.192	0.169	0.280
-129.312	-43.902	0.329	0.166
-128.297	13.088	0.164	-0.128
-127.283	-200.000	0.022	0.378
-126.268	-184.704	-0.267	0.004
-125.253	161.825	0.102	-0.144
-124.239	-128.358	-0.387	-0.055
-123.224	142.901	-0.270	0.360
-122.210	221.193	0.116	0.186
-121.195	-119.741	-0.200	-0.035
