DTS Sentinel unit serial number:	SN413079Multiplexer serial number:	ORYXHardware model number:	OX4-SRSoftware version number:	ORYX F/W v4.00 Oryx Data Collector v3.7.2.0data status	okinstallation	princeton_trtdifferential loss correction	single-endedforward channel	channel 4reverse channel	N/Adate	2019/09/19time	12:25:35forward acquisition time	60.00reverse acquisition time	0.00gamma	496.2192k internal	0.2321k external	0.2321temperature offset calibration	1.0016default loss term (dB/km)	0.3790temperature slope calibration	1.0000multiplexer offset coefficient	1.0000multiplexer slope coefficient	1.0000fibre end	0.00T internal ref (°C)	26.86T ext. ref 1 (°C)	0.87T ext. ref 2 (°C)	24.22length (m)	temperature (°C)	Stokes	anti-Stokes-747.200	28.752	0.047	-0.040
-746.185	189.097	-0.159	0.241
-745.171	-14.833	0.244	-0.158
-744.156	-30.442	0.388	0.223
-743.142	-127.769	-0.159	0.023
-742.127	96.614	0.131	-0.152
-741.112	-2.554	0.202	0.143
-740.098	-105.946	-0.297	-0.068
-739.083	-200.000	0.009	0.438
-738.069	-200.000	-0.036	0.462
-737.054	71.255	0.173	-0.181
-736.039	-144.683	-0.415	-0.039
-735.025	528.017	0.075	0.179
-734.010	-76.358	0.302	0.107
-732.996	-189.436	-0.401	-0.005
-731.981	-121.882	-0.290	0.048
-730.966	800.000	0.032	0.098
-729.952	-200.000	0.015	0.125
-728.937	181.968	-0.047	-0.070
-727.923	16.360	-0.296	0.236
-726.908	-13.180	-0.145	-0.095
-725.894	42.975	-0.232	-0.214
-724.879	-98.887	-0.029	0.007
-723.864	-160.780	-0.235	-0.013
-722.850	107.873	-0.300	-0.361
-721.835	800.000	-0.026	-0.073
-720.821	-46.706	0.293	0.145
-719.806	-200.000	0.001	0.045
-718.791	1.575	-0.254	-0.185
-717.777	170.470	0.090	0.130
-716.762	40.207	-0.154	-0.139
-715.748	239.423	0.145	-0.244
-714.733	-85.375	-0.328	-0.103
-713.718	70.329	-0.166	-0.173
-712.704	72.088	0.211	0.222
-711.689	-200.000	0.004	0.125
-710.675	-21.451	0.250	-0.154
-709.660	-84.609	-0.285	-0.091
-708.645	-89.857	-0.086	0.026
-707.631	-23.644	0.080	-0.049
-706.616	-200.000	-0.020	-0.213
-705.602	10.427	0.209	-0.160
-704.587	13.180	0.320	-0.250
-703.572	-200.000	-0.087	-0.476
-702.558	-3.672	-0.328	-0.230
-701.543	18.437	-0.135	-0.108
-700.529	124.624	-0.267	0.339
-699.514	-200.000	0.004	0.400
-698.499	-141.546	0.345	0.035
-697.485	-200.000	0.001	-0.153
-696.470	-79.092	0.276	0.095
-695.456	-64.801	-0.160	-0.065
-694.441	7.379	0.050	0.038
-693.426	800.000	0.067	0.234
-692.412	-178.828	0.369	0.008
-691.397	-42.241	-0.203	0.105
-690.383	-200.000	0.018	0.116
-689.368	153.569	-0.219	-0.302
-688.354	529.083	-0.062	-0.147
-687.339	76.422	0.175	-0.187
-686.324	209.879	0.078	0.123
-685.310	-63.644	-0.385	0.159
-684.295	-135.764	0.041	-0.005
-683.281	-23.924	-0.161	-0.097
-682.266	-1.481	-0.139	0.099
-681.251	-86.740	-0.068	-0.021
-680.237	800.000	0.071	-0.271
-679.222	109.120	-0.091	0.110
-678.208	-200.000	0.070	-0.340
-677.193	236.999	-0.180	0.301
-676.178	-128.450	0.464	-0.066
-675.164	-57.247	0.156	-0.069
-674.149	-78.835	-0.344	-0.118
-673.135	-70.253	0.111	-0.042
-672.120	249.849	0.125	-0.214
-671.105	-200.000	0.020	0.160
-670.091	-112.071	-0.359	-0.073
-669.076	224.879	-0.058	-0.094
-668.062	-200.000	0.032	0.211
-667.047	108.734	0.079	-0.095
-666.032	-45.881	-0.230	0.115
-665.018	309.872	-0.091	0.172
-664.003	-200.000	-0.034	-0.159
-662.989	27.657	-0.275	0.233
-661.974	-200.000	-0.013	0.258
-660.959	800.000	0.045	0.186
-659.945	656.021	0.086	0.224
-658.930	44.923	0.246	0.228
-657.916	800.000	0.031	-0.100
-656.901	30.701	-0.093	0.080
-655.886	102.878	-0.027	0.032
-654.872	800.000	0.028	0.110
-653.857	-128.230	0.528	0.076
-652.843	-92.976	-0.304	0.085
-651.828	118.132	-0.159	-0.198
-650.814	-169.653	-0.125	-0.005
-649.799	800.000	-0.003	0.009
-648.784	-177.905	0.207	-0.005
-647.770	-185.743	0.058	-0.001
-646.755	36.467	-0.217	0.193
-645.741	-200.000	0.004	0.098
-644.726	58.827	0.152	-0.151
-643.711	800.000	-0.022	-0.065
-642.697	-103.935	-0.174	0.041
-641.682	303.827	-0.227	0.424
-640.668	654.281	0.084	-0.217
-639.653	-60.067	-0.242	-0.104
-638.638	-190.098	-0.228	0.003
-637.624	-173.132	0.317	0.010
-636.609	446.502	-0.123	0.273
-635.595	-173.822	0.239	0.007
-634.580	800.000	0.098	0.377
-633.565	189.863	0.174	-0.263
-632.551	-152.595	-0.168	-0.012
-631.536	116.429	-0.248	-0.307
-630.522	-114.854	0.178	-0.034
-629.507	-200.000	0.043	0.393
-628.492	-86.378	0.107	0.033
-627.478	-73.851	-0.437	0.160
-626.463	121.721	-0.193	-0.242
-625.449	-4.325	-0.384	-0.268
-624.434	-90.712	-0.276	-0.080
-623.419	109.278	-0.189	0.228
-622.405	33.948	0.229	-0.201
-621.390	-200.000	-0.067	-0.408
-620.376	-200.000	0.033	0.283
-619.361	-49.401	-0.448	-0.215
-618.346	427.615	0.103	-0.224
-617.332	-83.478	-0.204	-0.066
-616.317	0.796	-0.198	0.143
-615.303	-122.425	-0.307	0.050
-614.288	171.634	0.168	0.242
-613.273	383.968	-0.165	0.342
-612.259	-114.181	0.244	0.047
-611.244	-200.000	0.020	0.157
-610.230	320.296	0.084	-0.160
-609.215	-15.178	-0.254	-0.164
-608.201	-131.831	0.055	-0.007
-607.186	209.368	-0.345	0.543
-606.171	139.235	0.242	-0.321
-605.157	-200.000	-0.010	0.201
-604.142	60.673	0.046	0.046
-603.128	-99.600	-0.113	-0.028
-602.113	-167.607	0.307	-0.012
-601.098	-15.930	-0.108	-0.069
-600.084	-41.598	-0.116	-0.060
-599.069	775.072	-0.084	-0.231
-598.055	-87.538	0.246	-0.075
-597.040	-200.000	-0.028	-0.178
-596.025	101.573	-0.105	-0.123
-595.011	189.611	0.096	0.145
-593.996	112.577	-0.115	0.140
-592.982	800.000	0.067	-0.264
-591.967	-68.156	0.326	0.128
-590.952	800.000	-0.041	-0.160
-589.938	-200.000	-0.074	-0.375
-588.923	-94.075	0.103	-0.028
-587.909	800.000	-0.054	-0.199
-586.894	-134.533	0.318	0.039
-585.879	-69.463	-0.112	-0.043
-584.865	693.682	0.093	0.246
-583.850	1.615	-0.070	0.050
-582.836	-200.000	0.070	0.504
-581.821	63.024	-0.149	0.150
-580.806	800.000	0.148	-0.481
-579.792	-72.273	-0.339	-0.126
-578.777	-77.855	-0.183	-0.063
-577.763	-72.694	0.395	0.146
-576.748	77.136	-0.172	-0.183
-575.733	-200.000	0.027	-0.201
-574.719	-200.000	0.019	-0.130
-573.704	348.653	-0.044	0.088
-572.690	223.872	0.154	0.250
-571.675	153.781	0.205	-0.282
-570.661	-163.863	0.243	-0.011
-569.646	800.000	-0.072	-0.256
-568.631	-63.871	-0.318	0.131
-567.617	-81.986	0.228	-0.075
-566.602	-200.000	-0.049	0.220
-565.588	-21.743	-0.085	0.052
-564.573	-200.000	0.013	-0.100
-563.558	800.000	0.039	0.169
-562.544	228.044	-0.049	-0.080
-561.529	59.918	0.188	0.187
-560.515	118.672	0.053	0.066
-559.500	128.920	-0.090	0.115
-558.485	800.000	-0.122	-0.363
-557.471	-200.000	0.011	-0.161
-556.456	-5.596	-0.081	-0.056
-555.442	17.328	-0.089	-0.071
-554.427	-68.093	-0.242	0.095
-553.412	-141.785	0.172	-0.017
-552.398	623.497	-0.032	-0.080
-551.383	444.474	-0.037	-0.080
-550.369	-109.971	0.114	-0.024
-549.354	629.418	0.102	-0.259
-548.339	800.000	0.013	0.038
-547.325	287.651	-0.237	0.429
-546.310	378.672	-0.131	-0.269
-545.296	-173.160	-0.119	-0.004
-544.281	147.332	0.187	-0.253
-543.266	-42.479	-0.257	-0.131
-542.252	21.625	0.133	0.108
-541.237	69.254	0.223	-0.230
-540.223	-179.406	0.464	0.010
-539.208	-0.606	0.097	0.069
-538.193	800.000	-0.077	0.322
-537.179	557.872	-0.086	0.208
-536.164	-64.701	0.173	-0.070
-535.150	-5.833	0.151	-0.104
-534.135	-200.000	-0.038	0.175
-533.121	800.000	0.041	0.152
-532.106	-200.000	0.022	0.325
-531.091	-51.662	0.161	0.075
-530.077	439.182	0.069	0.151
-529.062	86.505	-0.033	-0.036
-528.048	-10.556	-0.192	-0.127
-527.033	-99.383	-0.123	0.031
-526.018	-200.000	-0.090	-0.605
-525.004	774.227	-0.153	-0.419
-523.989	54.369	0.190	0.183
-522.975	206.292	-0.132	0.205
-521.960	-200.000	0.001	-0.018
-520.945	6.845	-0.178	0.133
-519.931	-66.693	0.218	-0.087
-518.916	30.324	0.222	0.190
-517.902	-19.316	0.112	0.070
-516.887	155.340	0.078	-0.107
-515.872	146.678	-0.067	0.090
-514.858	800.000	0.021	0.067
-513.843	-83.310	-0.129	0.042
-512.829	508.496	0.063	-0.147
-511.814	-19.740	-0.030	0.019
-510.799	-4.844	-0.196	-0.135
-509.785	-2.854	-0.158	-0.111
-508.770	51.312	0.151	0.144
-507.756	-25.059	-0.277	0.164
-506.741	719.650	-0.073	-0.194
-505.726	279.182	0.207	-0.370
-504.712	-15.770	-0.162	0.103
-503.697	-127.255	0.247	-0.036
-502.683	-58.960	0.078	-0.034
-501.668	-57.866	-0.291	0.128
-500.653	63.103	-0.193	0.193
-499.639	800.000	-0.087	0.364
-498.624	65.033	0.240	-0.243
-497.610	703.404	-0.089	-0.235
-496.595	22.735	0.095	0.078
-495.581	-200.000	-0.018	0.100
-494.566	-62.220	-0.286	0.120
-493.551	144.664	0.175	0.235
-492.537	-112.740	-0.153	-0.030
-491.522	83.037	0.256	-0.278
-490.508	-142.627	0.462	0.045
-489.493	94.547	0.116	0.132
-488.478	47.194	-0.143	-0.133
-487.464	800.000	-0.114	0.396
-486.449	24.721	-0.217	-0.180
-485.435	-49.522	-0.160	-0.076
-484.420	-200.000	0.007	-0.074
-483.405	441.379	-0.035	-0.076
-482.391	-63.984	0.130	-0.053
-481.376	85.587	-0.143	0.157
-480.362	800.000	0.025	-0.093
-479.347	-0.438	0.241	0.171
-478.332	-134.940	-0.143	0.017
-477.318	-17.427	0.098	0.061
-476.303	-162.386	-0.272	0.014
-475.289	91.005	0.133	-0.149
-474.274	-200.000	0.013	-0.237
-473.259	-137.971	0.230	0.026
-472.245	-117.161	0.399	-0.073
-471.230	100.080	0.126	0.146
-470.216	-91.173	0.264	0.076
-469.201	-62.709	-0.155	0.064
-468.186	10.336	-0.324	-0.246
-467.172	156.146	0.144	-0.199
-466.157	407.403	-0.099	-0.210
-465.143	-79.524	-0.069	0.023
-464.128	-200.000	0.025	-0.160
-463.113	-20.537	0.191	-0.117
-462.099	-200.000	-0.076	0.347
-461.084	-74.433	-0.171	0.062
-460.070	98.821	0.135	-0.156
-459.055	-180.055	-0.321	-0.007
-458.040	-75.550	0.243	-0.086
-457.026	23.369	0.193	0.159
-456.011	-200.000	0.018	0.104
-454.997	745.686	0.017	-0.047
-453.982	-200.000	-0.019	-0.113
-452.968	-101.372	0.042	-0.010
-451.953	-53.411	-0.351	-0.161
-450.938	-200.000	-0.022	0.288
-449.924	755.322	0.174	0.471
-448.909	141.447	0.296	-0.391
-447.895	-37.049	-0.329	0.176
-446.880	-93.978	-0.214	-0.059
-445.865	537.363	0.021	-0.050
-444.851	47.434	-0.271	0.252
-443.836	395.085	0.068	-0.141
-442.822	-114.717	-0.104	-0.020
-441.807	-36.009	0.488	0.263
-440.792	249.888	-0.042	-0.070
-439.778	-101.608	-0.118	-0.029
-438.763	800.000	-0.109	-0.393
-437.749	245.039	0.205	0.344
-436.734	116.863	-0.137	-0.168
-435.719	-200.000	-0.008	0.163
-434.705	-200.000	-0.022	0.142
-433.690	253.282	-0.159	-0.272
-432.676	800.000	0.063	-0.208
-431.661	-200.000	-0.005	-0.183
-430.646	-96.217	-0.088	0.023
-429.632	800.000	0.070	0.202
-428.617	36.360	-0.209	0.184
-427.603	-10.270	-0.177	0.117
-426.588	116.758	0.245	0.300
-425.573	-200.000	-0.093	-0.453
-424.559	-139.934	-0.287	-0.030
-423.544	341.356	-0.041	0.081
-422.530	-200.000	0.039	0.193
-421.515	678.465	-0.128	-0.332
-420.500	76.653	0.370	-0.392
-419.486	172.136	-0.259	0.372
-418.471	-4.425	-0.418	0.289
-417.457	-200.000	-0.014	0.210
-416.442	-200.000	0.009	0.105
-415.428	525.467	-0.131	0.308
-414.413	-69.986	0.157	0.060
-413.398	-65.793	0.074	0.029
-412.384	260.043	-0.027	0.047
-411.369	29.873	0.080	-0.068
-410.355	201.886	0.118	-0.181
-409.340	136.787	-0.072	0.094
-408.325	800.000	0.019	0.053
-407.311	-158.186	0.093	-0.005
-406.296	-200.000	-0.039	-0.174
-405.282	-25.577	0.085	-0.050
-404.267	-79.393	-0.405	0.137
-403.252	-77.143	0.220	0.077
-402.238	-152.996	0.141	-0.010
-401.223	61.426	-0.199	0.197
-400.209	-200.000	-0.002	-0.079
-399.194	-200.000	0.007	0.224
-398.179	316.499	0.128	-0.241
-397.165	-200.000	0.016	0.106
-396.150	800.000	-0.107	0.330
-395.136	-200.000	0.025	0.271
-394.121	236.652	-0.100	0.165
-393.106	-92.238	-0.223	-0.063
-392.092	-97.958	0.180	-0.046
-391.077	800.000	0.088	-0.272
-390.063	-200.000	0.053	-0.309
-389.048	50.952	0.103	0.097
-388.033	800.000	-0.050	0.167
-387.019	-200.000	0.021	-0.120
-386.004	-87.563	-0.210	0.063
-384.990	-25.382	0.106	0.063
-383.975	37.691	-0.061	0.054
-382.960	-89.816	-0.179	-0.052
-381.946	-57.676	0.148	0.064
-380.931	-200.000	-0.019	-0.178
-379.917	800.000	0.039	-0.107
-378.902	-4.193	-0.113	-0.078
-377.888	-47.816	0.073	-0.035
-376.873	316.072	-0.143	0.268
-375.858	36.736	-0.254	-0.224
-374.844	-200.000	0.005	0.107
-373.829	51.354	0.271	-0.257
-372.815	800.000	-0.028	0.104
-371.800	196.222	-0.183	0.277
-370.785	-68.428	0.070	0.027
-369.771	-200.000	0.001	-0.076
-368.756	-196.664	-0.262	-0.002
-367.742	800.000	0.054	-0.178
-366.727	800.000	0.079	0.275
-365.712	49.883	-0.127	0.119
-364.698	-87.018	0.052	-0.016
-363.683	800.000	0.027	-0.095
-362.669	21.605	-0.173	-0.140
-361.654	329.925	-0.033	-0.063
-360.639	47.226	-0.064	0.059
-359.625	103.076	0.148	-0.172
-358.610	-94.493	-0.178	-0.048
-357.596	503.547	0.112	0.258
-356.581	67.683	0.059	0.060
-355.566	-78.687	0.170	-0.058
-354.552	-55.893	0.240	-0.107
-353.537	-40.823	-0.255	-0.131
-352.523	-200.000	-0.023	0.152
-351.508	-200.000	-0.002	0.160
-350.493	-49.731	-0.116	0.055
-349.479	-71.631	0.107	-0.040
-348.464	-147.363	-0.340	-0.029
-347.450	665.395	-0.009	-0.024
-346.435	79.252	0.171	0.182
-345.420	-69.367	0.071	0.027
-344.406	198.503	0.072	-0.110
-343.391	68.116	0.113	-0.115
-342.377	422.414	0.092	0.196
-341.362	-200.000	0.007	0.266
-340.348	184.280	0.133	0.196
-339.333	37.497	0.212	-0.187
-338.318	-200.000	0.035	-0.296
-337.304	190.846	-0.125	-0.188
-336.289	-57.098	-0.097	0.043
-335.275	-112.220	0.023	0.005
-334.260	29.126	0.140	-0.119
-333.245	-200.000	0.009	-0.097
-332.231	-119.780	0.263	-0.045
-331.216	-93.869	0.340	-0.093
-330.202	87.349	-0.083	0.091
-329.187	-6.840	0.189	-0.128
-328.172	-200.000	0.003	-0.089
-327.158	35.033	0.122	0.107
-326.143	800.000	0.019	0.065
-325.129	800.000	0.020	0.072
-324.114	512.165	-0.115	-0.267
-323.099	-8.372	-0.202	-0.135
-322.085	39.212	-0.378	0.336
-321.070	-200.000	0.029	0.135
-320.056	-63.274	0.176	0.072
-319.041	800.000	0.092	-0.289
-318.026	210.218	-0.188	0.293
-317.012	-76.735	0.212	-0.074
-315.997	-72.094	0.079	0.029
-314.983	-44.295	0.141	0.070
-313.968	202.511	-0.017	-0.026
-312.953	74.459	0.034	0.036
-311.939	-66.870	-0.086	0.034
-310.924	-102.662	0.193	-0.046
-309.910	281.619	-0.184	-0.327
-308.895	-23.130	-0.180	0.108
-307.880	-80.156	-0.035	-0.012
-306.866	800.000	0.058	-0.182
-305.851	25.624	-0.087	0.072
-304.837	-200.000	-0.027	0.370
-303.822	-200.000	-0.011	0.104
-302.807	-200.000	0.006	-0.114
-301.793	344.428	0.111	-0.217
-300.778	124.679	0.066	-0.082
-299.764	800.000	-0.069	-0.273
-298.749	22.415	-0.048	0.039
-297.735	800.000	-0.014	0.042
-296.720	800.000	0.081	0.264
-295.705	-142.998	-0.068	0.007
-294.691	-91.929	0.080	0.022
-293.676	800.000	-0.029	0.111
-292.662	48.151	-0.106	0.099
-291.647	391.288	-0.156	0.322
-290.632	-185.838	0.221	0.003
-289.618	238.660	0.156	0.258
-288.603	800.000	0.054	0.167
-287.589	-200.000	-0.084	0.463
-286.574	123.852	0.055	-0.069
-285.559	-95.402	-0.123	-0.033
-284.545	84.832	-0.257	-0.279
-283.530	48.918	0.069	-0.064
-282.516	-200.000	0.001	-0.048
-281.501	-77.330	0.075	-0.026
-280.486	-200.000	-0.004	-0.098
-279.472	71.348	0.217	0.223
-278.457	75.576	-0.172	0.181
-277.443	20.814	0.191	-0.154
-276.428	98.343	0.238	-0.272
-275.413	-19.758	0.020	-0.012
-274.399	20.160	0.080	-0.064
-273.384	174.050	-0.197	0.283
-272.370	-67.956	0.154	-0.060
-271.355	186.634	-0.238	-0.352
-270.340	-15.998	-0.167	-0.105
-269.326	15.658	0.064	0.050
-268.311	-105.236	-0.102	0.023
-267.297	-76.261	0.165	0.058
-266.282	-86.337	-0.215	-0.066
-265.267	50.736	0.071	0.067
-264.253	90.676	-0.254	0.283
-263.238	-60.008	0.183	0.078
-262.224	364.349	-0.149	-0.297
-261.209	-200.000	0.050	0.233
-260.195	651.175	-0.154	0.391
-259.180	-80.315	0.115	-0.038
-258.165	552.650	-0.108	0.257
-257.151	342.484	0.139	0.270
-256.136	-85.454	0.231	-0.071
-255.122	-137.975	-0.219	-0.024
-254.107	-119.323	0.179	0.031
-253.092	-28.348	-0.147	-0.084
-252.078	2.899	0.151	0.109
-251.063	21.175	-0.192	0.154
-250.049	-97.389	0.168	0.043
-249.034	-178.252	0.193	0.004
-248.019	-200.000	0.042	0.199
-247.005	27.974	-0.095	0.079
-245.990	322.995	-0.136	0.257
-244.976	34.634	-0.060	0.052
-243.961	187.356	0.118	0.174
-242.946	-157.142	-0.174	-0.010
-241.932	-188.725	0.352	-0.004
-240.917	-76.880	0.089	-0.031
-239.903	-45.192	-0.161	-0.079
-238.888	-126.431	0.261	0.038
-237.873	-76.837	0.126	-0.044
-236.859	-200.000	-0.062	-0.311
-235.844	602.461	-0.142	-0.350
-234.830	-102.789	0.148	-0.035
-233.815	-33.343	0.065	-0.035
-232.800	800.000	0.034	-0.138
-231.786	-87.398	0.130	-0.039
-230.771	-138.725	0.184	0.020
-229.757	-155.986	0.272	0.017
-228.742	209.939	-0.080	-0.124
-227.727	-166.979	-0.106	-0.004
-226.713	745.047	0.119	0.317
-225.698	255.816	0.043	0.072
-224.684	40.235	0.143	0.127
-223.669	48.063	0.226	-0.209
-222.655	139.937	0.065	0.085
-221.640	405.653	-0.041	0.086
-220.625	40.099	-0.242	-0.216
-219.611	800.000	0.097	-0.303
-218.596	67.957	0.198	-0.201
-217.582	-94.652	0.160	-0.043
-216.567	21.968	0.171	-0.138
-215.552	101.553	-0.105	-0.121
-214.538	43.057	-0.494	-0.446
-213.523	215.525	0.207	0.325
-212.509	73.733	-0.009	-0.009
-211.494	-167.495	0.217	-0.009
-210.479	719.616	0.037	0.098
-209.465	-200.000	-0.043	-0.196
-208.450	-14.903	0.102	-0.065
-207.436	-200.000	0.007	0.371
-206.421	-85.749	-0.148	0.045
-205.406	114.204	-0.088	0.106
-204.392	-40.113	-0.156	-0.080
-203.377	219.439	-0.120	0.191
-202.363	-85.411	0.130	-0.040
-201.348	-168.441	-0.316	-0.012
-200.333	560.202	0.012	-0.029
-199.319	-200.000	-0.015	0.130
-198.304	-75.220	0.054	-0.019
-197.290	64.463	-0.054	0.054
-196.275	-83.749	-0.146	-0.046
-195.260	-51.360	0.079	-0.037
-194.246	-200.000	-0.025	-0.238
-193.231	146.568	-0.079	-0.105
-192.217	-143.274	0.244	0.023
-191.202	-178.602	0.247	-0.006
-190.187	89.797	-0.046	-0.051
-189.173	800.000	-0.013	-0.044
-188.158	99.406	-0.115	0.132
-187.144	-104.163	0.100	-0.023
-186.129	800.000	-0.098	0.346
-185.114	-2.704	0.250	0.173
-184.100	194.939	-0.072	0.108
-183.085	257.956	-0.094	0.160
-182.071	81.559	-0.229	-0.245
-181.056	-136.450	-0.506	0.058
-180.042	-151.700	-0.108	0.008
-179.027	63.027	0.366	0.362
-178.012	-22.362	0.136	0.081
-176.998	-200.000	0.007	-0.035
-175.983	226.719	-0.049	-0.078
-174.969	56.258	-0.094	-0.091
-173.954	800.000	0.085	0.267
-172.939	-200.000	-0.130	-0.677
-171.925	-200.000	-0.018	-0.112
-170.910	-64.906	0.173	0.069
-169.896	44.366	0.198	-0.180
-168.881	-200.000	0.047	-0.248
-167.866	60.470	0.156	-0.153
-166.852	78.651	0.150	-0.158
-165.837	402.530	0.126	-0.262
-164.823	-200.000	0.019	0.254
-163.808	19.012	0.231	-0.183
-162.793	800.000	0.031	-0.120
-161.779	261.231	-0.183	-0.314
-160.764	-34.664	0.141	-0.076
-159.750	-22.782	0.194	0.116
-158.735	98.657	-0.193	-0.220
-157.720	-200.000	-0.025	-0.159
-156.706	96.140	-0.143	0.162
-155.691	-200.000	0.029	-0.177
-154.677	-200.000	-0.002	0.176
-153.662	-76.566	-0.207	0.072
-152.647	-200.000	0.046	-0.260
-151.633	50.072	0.184	0.171
-150.618	-89.641	0.118	-0.034
-149.604	-137.866	-0.254	0.028
-148.589	769.787	0.090	0.242
-147.574	-145.217	0.144	-0.013
-146.560	800.000	-0.062	-0.171
-145.545	-200.000	0.022	0.187
-144.531	-49.873	0.170	0.079
-143.516	-73.705	-0.076	0.027
-142.502	403.061	0.078	0.163
-141.487	194.139	-0.106	0.158
-140.472	-200.000	0.020	0.124
-139.458	2.148	-0.165	-0.118
-138.443	-115.795	-0.242	-0.045
-137.429	-95.768	-0.172	-0.045
-136.414	-63.567	0.164	-0.067
-135.399	-200.000	0.020	-0.111
-134.385	-92.506	-0.108	0.030
-133.370	92.466	0.186	0.207
-132.356	-77.615	0.067	0.023
-131.341	209.515	0.164	0.254
-130.326	62.952	0.132	-0.130
-129.312	184.157	-0.163	-0.238
-128.297	-200.000	-0.020	0.217
-127.283	-126.487	-0.184	0.027
-126.268	-200.000	-0.018	-0.134
-125.253	-200.000	0.006	-0.068
-124.239	-200.000	-0.096	-0.442
-123.224	-12.732	-0.119	-0.076
-122.210	351.837	0.117	0.229
-121.195	20.023	0.336	0.268
-120.180	288.599	-0.086	0.153
