DTS Sentinel unit serial number:	SN413079Multiplexer serial number:	ORYXHardware model number:	OX4-SRSoftware version number:	ORYX F/W v4.00 Oryx Data Collector v3.7.2.0data status	okinstallation	princeton_trtdifferential loss correction	single-endedforward channel	channel 4reverse channel	N/Adate	2019/09/17time	18:25:35forward acquisition time	60.00reverse acquisition time	0.00gamma	496.2192k internal	0.2279k external	0.2279temperature offset calibration	0.9976default loss term (dB/km)	0.3790temperature slope calibration	1.0000multiplexer offset coefficient	1.0000multiplexer slope coefficient	1.0000fibre end	0.00T internal ref (°C)	43.19T ext. ref 1 (°C)	0.30T ext. ref 2 (°C)	36.36length (m)	temperature (°C)	Stokes	anti-Stokes-747.200	800.000	0.029	0.089
-746.185	255.603	0.083	0.147
-745.171	-106.581	-0.332	-0.076
-744.156	-124.647	0.268	0.043
-743.142	257.226	-0.026	0.046
-742.127	138.199	0.137	0.185
-741.112	-72.366	0.226	-0.086
-740.098	-108.669	0.102	-0.023
-739.083	-56.897	0.144	0.065
-738.069	-18.333	0.387	0.249
-737.054	301.189	-0.156	-0.297
-736.039	-200.000	0.002	0.071
-735.025	-36.757	0.107	0.059
-734.010	800.000	-0.075	-0.217
-732.996	80.196	-0.128	0.141
-731.981	-17.227	-0.119	0.077
-730.966	190.374	0.066	0.103
-729.952	-200.000	-0.063	0.378
-728.937	800.000	-0.111	-0.423
-727.923	-53.265	-0.272	-0.128
-726.908	-50.886	0.286	-0.138
-725.894	502.004	0.071	-0.170
-724.879	-200.000	0.048	0.371
-723.864	710.412	0.109	-0.298
-722.850	716.940	0.115	0.314
-721.835	-32.598	0.074	0.042
-720.821	130.903	-0.063	0.083
-719.806	800.000	0.031	-0.135
-718.791	95.583	0.163	-0.191
-717.777	89.771	-0.219	-0.251
-716.762	676.850	-0.100	-0.267
-715.748	-98.975	0.101	0.026
-714.733	147.890	-0.102	-0.142
-713.718	-44.543	0.242	-0.125
-712.704	-158.170	-0.278	0.017
-711.689	-52.507	0.247	0.117
-710.675	411.040	0.121	-0.263
-709.660	96.982	-0.061	-0.072
-708.645	107.906	0.150	0.184
-707.631	446.554	0.116	-0.263
-706.616	-200.000	-0.006	0.073
-705.602	44.604	-0.082	-0.077
-704.587	-144.784	0.159	-0.015
-703.572	-139.379	-0.264	0.029
-702.558	14.366	0.194	-0.156
-701.543	-40.421	-0.077	-0.041
-700.529	-200.000	-0.003	-0.212
-699.514	-200.000	0.014	-0.477
-698.499	18.251	-0.183	-0.150
-697.485	800.000	-0.090	-0.257
-696.470	141.586	-0.067	-0.091
-695.456	-18.796	-0.265	-0.170
-694.441	800.000	0.089	-0.274
-693.426	-107.681	0.287	0.064
-692.412	-114.237	-0.113	-0.022
-691.397	19.498	0.187	-0.154
-690.383	72.316	-0.044	-0.047
-689.368	94.375	-0.274	0.319
-688.354	-200.000	-0.007	0.111
-687.339	-69.223	-0.146	-0.058
-686.324	124.218	-0.239	-0.309
-685.310	-51.226	-0.312	-0.150
-684.295	85.814	-0.109	0.123
-683.281	-73.122	-0.411	0.155
-682.266	795.826	-0.098	0.277
-681.251	33.584	-0.090	-0.080
-680.237	-88.581	-0.228	-0.070
-679.222	0.750	0.191	-0.141
-678.208	800.000	0.052	-0.203
-677.193	116.765	0.137	0.173
-676.178	-40.842	-0.188	0.100
-675.164	47.857	-0.041	-0.039
-674.149	800.000	0.072	-0.224
-673.135	-200.000	0.075	-0.408
-672.120	47.325	0.189	0.181
-671.105	800.000	0.078	0.268
-670.091	277.482	0.020	0.036
-669.076	-200.000	0.054	0.265
-668.062	-41.415	-0.268	0.142
-667.047	-200.000	0.005	0.040
-666.032	79.419	-0.093	0.102
-665.018	460.487	-0.184	0.420
-664.003	-1.782	0.137	0.099
-662.989	-58.540	-0.148	0.066
-661.974	22.451	-0.198	0.166
-660.959	17.389	0.209	-0.170
-659.945	-62.753	-0.210	-0.089
-658.930	-147.170	0.221	0.019
-657.916	-78.813	-0.223	0.078
-656.901	-110.744	0.184	-0.039
-655.886	244.556	0.150	-0.258
-654.872	30.950	0.014	-0.012
-653.857	94.413	-0.210	-0.245
-652.843	271.184	-0.087	-0.157
-651.828	-200.000	-0.054	0.307
-650.814	81.182	-0.259	-0.287
-649.799	185.737	0.110	0.168
-648.784	-200.000	-0.077	-0.694
-647.770	-135.254	-0.269	-0.033
-646.755	800.000	0.028	0.087
-645.741	-200.000	0.025	0.180
-644.726	800.000	0.078	-0.268
-643.711	-105.781	0.128	-0.030
-642.697	-111.164	-0.354	-0.074
-641.682	-86.533	-0.154	0.049
-640.668	26.200	-0.194	-0.166
-639.653	-131.035	0.362	-0.050
-638.638	-196.096	-0.301	-0.002
-637.624	-200.000	0.013	-0.239
-636.609	-126.434	0.235	0.036
-635.595	-36.293	-0.208	0.115
-634.580	797.065	-0.072	0.204
-633.565	800.000	-0.094	-0.320
-632.551	-125.639	-0.190	-0.029
-631.536	-200.000	-0.010	0.145
-630.522	-173.775	-0.144	-0.004
-629.507	755.664	0.129	0.357
-628.492	139.382	-0.042	-0.057
-627.478	78.423	0.180	-0.197
-626.463	-102.061	0.224	0.055
-625.449	-70.973	-0.316	0.122
-624.434	800.000	0.033	0.146
-623.419	800.000	0.018	-0.057
-622.405	-169.010	-0.226	0.009
-621.390	-126.196	-0.091	0.014
-620.376	-18.648	-0.260	0.166
-619.361	181.420	-0.189	-0.285
-618.346	-172.853	-0.263	-0.008
-617.332	753.658	0.065	-0.181
-616.317	-68.068	-0.040	-0.016
-615.303	112.420	0.089	-0.110
-614.288	-63.524	0.079	0.033
-613.273	7.443	0.426	0.326
-612.259	116.232	0.105	0.132
-611.244	-76.772	-0.097	0.035
-610.230	-200.000	0.010	-0.228
-609.215	-133.904	0.117	-0.015
-608.201	-59.732	0.115	-0.050
-607.186	-200.000	0.040	0.238
-606.171	-200.000	-0.003	0.023
-605.157	-113.860	-0.076	0.015
-604.142	-105.616	-0.252	0.058
-603.128	76.309	-0.119	-0.129
-602.113	315.991	0.248	-0.479
-601.098	323.395	0.200	0.391
-600.084	-79.224	-0.328	-0.114
-599.069	800.000	-0.078	-0.223
-598.055	-78.121	-0.091	-0.032
-597.040	-39.798	-0.062	-0.033
-596.025	13.921	0.165	0.131
-595.011	-177.129	0.253	0.006
-593.996	-0.128	-0.172	0.125
-592.982	71.477	-0.246	-0.262
-591.967	-24.656	0.299	0.182
-590.952	-87.960	0.373	-0.115
-589.938	-6.626	0.210	-0.146
-588.923	-34.364	-0.217	0.122
-587.909	-36.871	-0.267	-0.147
-586.894	192.210	-0.070	-0.109
-585.879	-7.529	-0.205	-0.142
-584.865	-200.000	0.047	0.301
-583.850	-199.598	-0.237	0.001
-582.836	-200.000	-0.006	-0.215
-581.821	-200.000	0.047	-0.233
-580.806	3.856	-0.083	-0.062
-579.792	-129.303	0.164	0.023
-578.777	-200.000	0.011	-0.206
-577.763	-200.000	-0.019	-0.204
-576.748	-27.324	-0.093	-0.055
-575.733	11.954	0.082	0.064
-574.719	-16.024	0.080	0.052
-573.704	-127.456	0.175	-0.026
-572.690	-200.000	0.019	-0.102
-571.675	-108.131	0.235	0.052
-570.661	-117.525	0.139	0.026
-569.646	14.105	-0.134	-0.107
-568.631	-76.336	-0.166	-0.060
-567.617	-91.166	0.294	-0.086
-566.602	-200.000	-0.015	-0.209
-565.588	73.840	-0.166	0.178
-564.573	-200.000	-0.023	0.107
-563.558	479.208	0.132	0.305
-562.544	178.503	0.147	0.219
-561.529	-84.398	-0.125	0.040
-560.515	22.233	-0.083	-0.069
-559.500	800.000	-0.040	0.152
-558.485	111.635	0.220	0.271
-557.471	-200.000	0.026	-0.115
-556.456	43.572	-0.147	0.138
-555.442	404.145	0.046	-0.100
-554.427	800.000	0.049	-0.184
-553.412	431.474	0.081	-0.180
-552.398	-200.000	-0.012	0.131
-551.383	-200.000	0.030	0.000
-550.369	143.445	-0.097	-0.132
-549.354	41.575	0.128	0.118
-548.339	-63.443	-0.151	-0.063
-547.325	45.100	0.209	-0.196
-546.310	-135.063	-0.316	-0.039
-545.296	-115.702	-0.149	0.029
-544.281	-200.000	-0.007	-0.195
-543.266	-200.000	0.005	0.569
-542.252	274.770	0.057	0.103
-541.237	-200.000	0.003	0.026
-540.223	-114.134	0.125	-0.025
-539.208	800.000	-0.109	-0.380
-538.193	444.856	-0.173	-0.388
-537.179	800.000	-0.026	0.080
-536.164	-23.968	-0.534	0.326
-535.150	800.000	-0.035	-0.105
-534.135	228.667	-0.077	0.129
-533.121	67.074	0.167	-0.173
-532.106	-89.457	-0.331	-0.099
-531.091	800.000	0.086	-0.275
-530.077	307.474	-0.060	0.115
-529.062	368.020	0.112	0.230
-528.048	-113.483	-0.153	0.031
-527.033	-121.702	-0.319	0.054
-526.018	457.327	0.077	-0.175
-525.004	-200.000	0.049	0.278
-523.989	-32.532	0.089	0.051
-522.975	-146.980	0.226	-0.020
-521.960	70.052	0.123	0.129
-520.945	-30.000	-0.269	-0.157
-519.931	-98.494	0.281	0.073
-518.916	-200.000	0.020	0.149
-517.902	-200.000	0.035	-0.210
-516.887	407.202	0.143	-0.309
-515.872	-154.689	-0.386	0.026
-514.858	155.518	0.114	-0.160
-513.843	-104.786	0.171	-0.040
-512.829	12.004	-0.262	0.206
-511.814	199.216	-0.082	-0.128
-510.799	-67.558	0.226	0.091
-509.785	-129.847	-0.139	0.020
-508.770	-17.727	-0.431	-0.276
-507.756	233.967	0.097	-0.162
-506.741	145.825	-0.057	-0.078
-505.726	-36.274	0.150	-0.083
-504.712	-200.000	-0.004	-0.191
-503.697	-38.621	-0.248	-0.134
-502.683	44.818	-0.198	-0.186
-501.668	442.879	0.090	0.200
-500.653	246.817	-0.074	-0.128
-499.639	676.667	0.022	-0.060
-498.624	-147.003	0.174	-0.015
-497.610	-121.123	0.288	0.049
-496.595	154.264	-0.200	0.279
-495.581	800.000	-0.016	0.048
-494.566	38.360	0.177	-0.161
-493.551	392.799	0.163	-0.346
-492.537	-66.639	0.368	0.149
-491.522	115.227	0.167	-0.208
-490.508	-32.247	-0.321	0.183
-489.493	-58.038	-0.148	0.066
-488.478	179.142	0.113	-0.169
-487.464	25.895	-0.174	-0.148
-486.449	-39.699	0.065	0.034
-485.435	-92.687	0.281	-0.080
-484.420	-200.000	-0.047	0.220
-483.405	377.109	-0.233	-0.485
-482.391	661.905	-0.077	-0.201
-481.376	-200.000	-0.006	-0.085
-480.362	117.816	0.207	0.260
-479.347	271.492	0.114	0.204
-478.332	460.097	0.167	0.378
-477.318	-54.010	0.169	-0.079
-476.303	-134.258	0.292	0.037
-475.289	95.076	0.223	-0.259
-474.274	111.838	0.161	-0.198
-473.259	-103.542	0.251	-0.060
-472.245	143.507	-0.073	-0.099
-471.230	73.499	-0.273	0.291
-470.216	-200.000	-0.009	0.208
-469.201	199.528	0.135	-0.210
-468.186	-107.236	0.205	0.046
-467.172	800.000	0.067	0.251
-466.157	-134.873	-0.193	0.024
-465.143	66.350	-0.094	-0.097
-464.128	-81.664	-0.207	-0.069
-463.113	-0.535	0.171	0.124
-462.099	-30.481	0.346	-0.200
-461.084	97.520	0.137	0.161
-460.070	-19.782	-0.172	-0.108
-459.055	-200.000	-0.005	0.193
-458.040	-22.958	0.322	0.198
-457.026	-128.463	-0.078	-0.011
-456.011	-2.960	-0.235	0.167
-454.997	406.363	0.037	0.079
-453.982	-83.151	0.256	0.084
-452.968	-200.000	-0.009	-0.287
-451.953	566.499	0.028	0.069
-450.938	-122.027	-0.471	0.079
-449.924	-200.000	0.025	0.153
-448.909	-143.962	0.169	-0.016
-447.895	800.000	-0.066	0.187
-446.880	-200.000	0.022	0.259
-445.865	388.406	-0.078	0.164
-444.851	-33.026	-0.349	0.197
-443.836	25.304	-0.106	-0.090
-442.822	101.515	-0.134	-0.159
-441.807	107.205	-0.175	0.211
-440.792	-200.000	0.021	-0.105
-439.778	-52.398	0.051	-0.024
-438.763	800.000	0.064	-0.265
-437.749	399.510	0.053	0.114
-436.734	-107.237	0.334	0.075
-435.719	42.604	-0.061	0.056
-434.705	-116.904	-0.089	-0.017
-433.690	84.974	0.060	-0.067
-432.676	-138.472	-0.381	0.043
-431.661	-43.524	0.222	-0.114
-430.646	272.499	0.045	0.081
-429.632	42.869	0.173	0.161
-428.617	-200.000	0.041	0.258
-427.603	-200.000	-0.014	-0.344
-426.588	-189.574	0.307	-0.004
-425.573	168.826	0.140	-0.203
-424.559	-83.647	-0.187	-0.061
-423.544	-96.512	0.388	-0.104
-422.530	391.395	0.081	0.171
-421.515	-24.815	-0.054	-0.032
-420.500	-99.287	-0.163	-0.042
-419.486	-75.901	0.211	0.076
-418.471	-80.581	-0.127	0.043
-417.457	-22.253	-0.026	-0.016
-416.442	15.910	0.064	0.051
-415.428	90.758	-0.092	0.105
-414.413	8.925	0.131	0.100
-413.398	-106.760	-0.259	0.058
-412.384	-89.564	-0.107	-0.032
-411.369	-200.000	-0.010	-0.051
-410.355	800.000	0.028	-0.097
-409.340	-116.934	0.211	-0.039
-408.325	-200.000	-0.038	0.257
-407.311	-94.166	0.339	0.094
-406.296	8.546	-0.341	0.261
-405.282	800.000	0.094	0.413
-404.267	-1.809	0.170	0.122
-403.252	109.767	0.042	0.052
-402.238	358.179	0.231	0.468
-401.223	22.421	-0.070	-0.058
-400.209	366.814	-0.028	-0.057
-399.194	639.877	-0.074	0.191
-398.179	-132.449	0.199	-0.026
-397.165	-68.862	-0.238	-0.093
-396.150	-124.363	-0.183	0.029
-395.136	-200.000	-0.008	-0.147
-394.121	-26.440	-0.150	0.089
-393.106	-80.084	0.286	0.097
-392.092	-197.128	-0.401	0.003
-391.077	-189.091	-0.227	-0.003
-390.063	-200.000	0.042	0.204
-389.048	-49.405	-0.149	-0.072
-388.033	-200.000	0.095	0.442
-387.019	61.458	0.037	0.037
-386.004	1.330	0.148	-0.108
-384.990	0.914	-0.348	-0.253
-383.975	-151.720	0.188	0.014
-382.960	800.000	-0.115	-0.348
-381.946	143.349	0.246	-0.333
-380.931	-200.000	-0.073	0.376
-379.917	-151.190	0.227	-0.017
-378.902	-100.932	-0.188	-0.047
-377.888	258.358	0.170	-0.298
-376.873	-61.344	-0.142	0.061
-375.858	14.067	0.140	0.110
-374.844	-200.000	0.028	0.151
-373.829	444.242	-0.153	0.340
-372.815	372.859	-0.149	0.307
-371.800	619.620	-0.010	0.025
-370.785	139.939	0.297	-0.398
-369.771	-40.157	-0.019	-0.010
-368.756	207.291	0.094	-0.148
-367.742	-80.824	0.164	0.055
-366.727	-200.000	0.003	-0.244
-365.712	-164.550	0.385	0.018
-364.698	-200.000	-0.017	0.170
-363.683	-5.841	-0.141	-0.098
-362.669	800.000	0.032	0.117
-361.654	-17.288	0.212	-0.135
-360.639	36.271	0.086	-0.077
-359.625	37.763	-0.142	0.128
-358.610	-4.153	0.297	0.208
-357.596	-49.328	0.189	-0.091
-356.581	-5.231	-0.265	-0.184
-355.566	-87.283	0.236	-0.073
-354.552	-20.856	-0.224	0.139
-353.537	-75.857	-0.244	-0.088
-352.523	74.978	-0.113	-0.120
-351.508	520.226	-0.062	0.147
-350.493	-58.161	0.298	-0.131
-349.479	-165.850	0.451	0.020
-348.464	185.802	-0.073	-0.109
-347.450	-107.716	0.089	0.020
-346.435	32.911	0.122	0.107
-345.420	-200.000	0.026	-0.287
-344.406	-77.082	-0.228	-0.081
-343.391	95.241	0.010	-0.012
-342.377	-200.000	0.044	0.230
-341.362	-25.447	0.205	0.123
-340.348	252.817	-0.110	-0.191
-339.333	1.490	-0.185	0.135
-338.318	-175.300	-0.344	-0.010
-337.304	-82.269	-0.304	-0.100
-336.289	-200.000	0.034	-0.158
-335.275	57.315	-0.324	-0.320
-334.260	364.786	0.089	-0.181
-333.245	20.524	0.132	-0.108
-332.231	-51.390	-0.103	-0.049
-331.216	-87.254	0.268	0.082
-330.202	497.112	-0.132	-0.307
-329.187	84.457	0.132	-0.146
-328.172	-12.369	0.071	0.047
-327.158	15.924	0.113	-0.090
-326.143	196.244	0.165	-0.254
-325.129	286.348	-0.111	-0.203
-324.114	-133.962	-0.192	-0.024
-323.099	-200.000	0.038	0.279
-322.085	-28.594	-0.242	0.141
-321.070	-153.511	-0.362	-0.025
-320.056	123.382	-0.010	0.012
-319.041	-84.567	0.193	0.062
-318.026	381.295	0.139	-0.289
-317.012	259.091	-0.146	0.255
-315.997	-91.838	-0.159	-0.046
-314.983	-200.000	0.013	-0.105
-313.968	-200.000	-0.002	-0.175
-312.953	-135.346	-0.120	-0.015
-311.939	-184.240	0.084	0.001
-310.924	1.532	0.133	-0.097
-309.910	58.588	0.199	-0.197
-308.895	800.000	-0.053	-0.153
-307.880	-134.052	0.158	-0.020
-306.866	-20.119	0.109	0.068
-305.851	15.367	0.325	0.258
-304.837	-54.397	-0.372	-0.171
-303.822	16.760	-0.271	0.217
-302.807	677.453	0.104	0.273
-301.793	-200.000	-0.030	-0.264
-300.778	-171.787	-0.091	-0.003
-299.764	477.017	-0.142	0.326
-298.749	-51.789	-0.169	-0.080
-297.735	-32.164	0.206	-0.117
-296.720	0.927	-0.187	0.136
-295.705	384.139	0.203	0.424
-294.691	-48.625	0.510	0.248
-293.676	707.384	0.075	0.200
-292.662	-200.000	-0.006	-0.239
-291.647	-157.538	0.363	0.022
-290.632	571.971	0.053	0.131
-289.618	169.090	0.099	-0.142
-288.603	136.453	0.148	-0.195
-287.589	800.000	-0.021	0.093
-286.574	-119.648	-0.382	-0.067
-285.559	150.968	-0.066	-0.091
-284.545	-177.106	-0.090	-0.002
-283.530	381.156	0.046	0.095
-282.516	-200.000	-0.038	0.169
-281.501	-200.000	-0.177	0.000
-280.486	-79.535	0.131	0.045
-279.472	-119.109	-0.144	0.025
-278.457	-67.789	-0.134	-0.053
-277.443	272.636	-0.201	-0.359
-276.428	-137.689	-0.297	-0.034
-275.413	796.585	0.092	0.257
-274.399	243.766	0.052	0.088
-273.384	-75.162	-0.279	0.101
-272.370	-95.374	-0.046	0.013
-271.355	192.907	-0.158	-0.241
-270.340	800.000	0.065	-0.212
-269.326	-116.279	0.300	0.056
-268.311	-92.812	0.117	-0.033
-267.297	800.000	0.244	0.736
-266.282	416.526	0.214	0.462
-265.267	378.383	-0.039	0.080
-264.253	56.724	0.188	0.185
-263.238	-200.000	0.017	-0.088
-262.224	-200.000	-0.039	-0.229
-261.209	-118.265	0.239	-0.043
-260.195	-200.000	0.001	-0.051
-259.180	-195.466	0.307	0.002
-258.165	-13.689	-0.099	-0.065
-257.151	-53.201	0.306	-0.142
-256.136	800.000	-0.066	0.263
-255.122	-109.487	-0.352	-0.075
-254.107	-101.111	-0.291	0.072
-253.092	7.074	-0.178	0.134
-252.078	-101.174	0.087	-0.022
-251.063	336.777	0.206	0.403
-250.049	-200.000	0.009	0.045
-249.034	800.000	-0.044	0.147
-248.019	612.919	-0.095	0.241
-247.005	-182.744	-0.360	0.007
-245.990	39.696	0.033	-0.030
-244.976	-200.000	0.007	0.277
-243.961	-72.823	-0.338	0.126
-242.946	-138.370	-0.077	-0.009
-241.932	85.401	-0.051	0.056
-240.917	273.405	-0.034	0.061
-239.903	-113.288	0.313	-0.062
-238.888	210.684	0.030	0.048
-237.873	26.107	0.263	0.222
-236.859	202.791	0.011	-0.018
-235.844	800.000	0.115	0.373
-234.830	-200.000	0.024	-0.221
-233.815	-90.325	0.363	0.106
-232.800	350.832	0.065	0.129
-231.786	160.263	-0.207	-0.292
-230.771	53.778	-0.236	-0.229
-229.757	-200.000	0.036	-0.399
-228.742	800.000	0.028	-0.087
-227.727	-42.075	-0.385	-0.199
-226.713	662.594	-0.047	-0.123
-225.698	25.635	0.040	0.033
-224.684	800.000	0.007	0.026
-223.669	188.070	-0.137	-0.207
-222.655	579.897	0.041	0.101
-221.640	115.438	0.309	-0.380
-220.625	-200.000	0.039	-0.256
-219.611	-121.599	0.184	0.031
-218.596	-155.344	0.226	-0.015
-217.582	170.729	0.184	0.266
-216.567	-87.795	0.397	0.120
-215.552	-184.207	0.172	-0.003
-214.538	-40.995	-0.176	-0.092
-213.523	103.843	0.185	0.219
-212.509	-34.987	-0.303	-0.167
-211.494	-111.926	-0.422	-0.086
-210.479	405.863	0.031	-0.066
-209.465	27.501	-0.278	0.236
-208.450	-200.000	0.017	0.147
-207.436	-200.000	0.007	-0.220
-206.421	-118.169	0.259	0.046
-205.406	-17.856	0.199	0.126
-204.392	-200.000	0.013	0.311
-203.377	173.009	-0.018	-0.027
-202.363	72.994	0.186	0.195
-201.348	508.596	-0.055	0.129
-200.333	-200.000	-0.002	0.104
-199.319	-144.869	-0.202	0.019
-198.304	119.730	-0.082	0.102
-197.290	-19.309	-0.053	0.033
-196.275	-200.000	0.001	0.122
-195.260	267.057	0.128	-0.226
-194.246	330.285	0.090	0.175
-193.231	-17.448	0.304	0.193
-192.217	54.665	-0.075	-0.073
-191.202	-118.710	-0.307	-0.054
-190.187	5.915	-0.167	0.124
-189.173	6.860	-0.359	-0.269
-188.158	800.000	-0.076	-0.214
-187.144	29.804	0.184	0.157
-186.129	-75.229	-0.168	-0.061
-185.114	-86.170	-0.197	0.061
-184.100	-50.422	0.057	-0.027
-183.085	-144.217	0.245	-0.023
-182.071	349.216	-0.078	-0.155
-181.056	-200.000	0.017	0.121
-180.042	-200.000	-0.035	0.201
-179.027	102.656	0.053	0.062
-178.012	-200.000	-0.021	-0.113
-176.998	298.647	-0.081	0.150
-175.983	-163.773	-0.313	-0.015
-174.969	800.000	0.033	0.121
-173.954	-130.310	-0.449	-0.061
-172.939	55.842	-0.148	0.145
-171.925	-114.474	0.403	-0.078
-170.910	260.784	0.106	-0.185
-169.896	44.626	-0.150	-0.139
-168.881	24.959	0.119	-0.100
-167.866	-147.945	-0.298	0.025
-166.852	-200.000	0.024	0.261
-165.837	-138.243	0.251	0.028
-164.823	-169.095	0.113	0.004
-163.808	664.300	-0.066	-0.171
-162.793	-105.844	-0.328	0.074
-161.779	-86.983	0.081	-0.025
-160.764	-112.797	0.059	-0.012
-159.750	100.356	0.310	-0.362
-158.735	465.343	0.102	-0.229
-157.720	-14.129	0.097	-0.063
-156.706	89.714	-0.358	-0.402
-155.691	254.586	0.155	0.267
-154.677	-200.000	0.024	-0.391
-153.662	800.000	-0.172	0.538
-152.647	593.662	-0.048	-0.120
-151.633	12.912	0.160	0.124
-150.618	-18.186	-0.276	0.174
-149.604	-117.684	0.218	0.040
-148.589	261.108	0.112	0.196
-147.574	-3.453	-0.210	0.147
-146.560	-119.281	0.347	-0.061
-145.545	-200.000	0.025	-0.146
-144.531	-86.844	-0.227	-0.070
-143.516	42.952	-0.245	0.225
-142.502	120.289	0.160	0.199
-141.487	148.633	-0.234	-0.317
-140.472	-49.792	-0.217	0.104
-139.458	139.752	0.181	-0.240
-138.443	-119.074	-0.184	-0.032
-137.429	-59.056	-0.286	-0.124
-136.414	-200.000	0.009	0.125
-135.399	-93.989	-0.094	-0.026
-134.385	-82.885	0.317	0.103
-133.370	-65.760	-0.372	-0.150
-132.356	-49.779	-0.266	0.127
-131.341	-38.071	0.175	-0.094
-130.326	-41.655	-0.142	-0.073
-129.312	-107.756	0.257	0.056
-128.297	343.614	0.192	0.377
-127.283	274.231	-0.040	0.072
-126.268	-9.183	0.346	0.232
-125.253	120.435	-0.141	0.177
-124.239	-154.103	-0.194	-0.013
-123.224	307.640	0.074	-0.139
-122.210	181.113	0.185	0.273
-121.195	-21.240	-0.215	0.132
