DTS Sentinel unit serial number:	SN413079Multiplexer serial number:	ORYXHardware model number:	OX4-SRSoftware version number:	ORYX F/W v4.00 Oryx Data Collector v3.7.2.0data status	okinstallation	princeton_trtdifferential loss correction	single-endedforward channel	channel 4reverse channel	N/Adate	2019/09/19time	00:09:35forward acquisition time	60.00reverse acquisition time	0.00gamma	496.2192k internal	0.2336k external	0.2336temperature offset calibration	1.0029default loss term (dB/km)	0.3790temperature slope calibration	1.0000multiplexer offset coefficient	1.0000multiplexer slope coefficient	1.0000fibre end	0.00T internal ref (°C)	22.87T ext. ref 1 (°C)	0.75T ext. ref 2 (°C)	15.81length (m)	temperature (°C)	Stokes	anti-Stokes-747.200	108.225	0.227	0.272
-746.185	-125.867	-0.307	0.046
-745.171	-19.397	0.171	0.107
-744.156	-101.114	-0.123	-0.030
-743.142	85.323	0.336	0.370
-742.127	800.000	0.043	0.159
-741.112	-74.082	0.233	-0.085
-740.098	-200.000	0.041	-0.220
-739.083	-44.041	-0.204	-0.103
-738.069	-174.141	-0.115	-0.003
-737.054	800.000	0.055	0.158
-736.039	29.906	-0.121	-0.104
-735.025	88.080	0.123	-0.136
-734.010	-200.000	-0.015	0.106
-732.996	800.000	0.036	-0.131
-731.981	130.862	0.101	-0.130
-730.966	-179.514	0.187	0.004
-729.952	-200.000	0.027	-0.133
-728.937	86.034	-0.139	0.154
-727.923	-200.000	-0.022	0.271
-726.908	-147.846	-0.212	0.018
-725.894	-200.000	0.070	-0.345
-724.879	-40.910	-0.105	-0.055
-723.864	113.181	-0.271	-0.329
-722.850	332.050	-0.186	-0.360
-721.835	86.437	-0.149	0.164
-720.821	-19.771	-0.330	-0.205
-719.806	-46.500	-0.204	-0.100
-718.791	236.400	-0.124	-0.206
-717.777	-97.626	0.298	0.078
-716.762	-96.068	0.077	0.020
-715.748	59.914	-0.065	-0.064
-714.733	-200.000	0.010	-0.351
-713.718	-200.000	0.004	-0.233
-712.704	225.735	0.065	0.105
-711.689	623.875	-0.158	0.398
-710.675	109.380	0.187	-0.224
-709.660	-163.025	0.288	0.014
-708.645	27.530	-0.390	0.329
-707.631	-200.000	0.020	0.202
-706.616	-62.047	0.199	0.083
-705.602	7.400	-0.147	0.110
-704.587	6.471	-0.112	-0.084
-703.572	-143.892	-0.026	-0.002
-702.558	-81.180	-0.183	-0.061
-701.543	4.302	-0.009	0.007
-700.529	-200.000	0.017	-0.093
-699.514	40.400	0.130	0.118
-698.499	320.101	0.113	0.215
-697.485	800.000	-0.036	0.150
-696.470	-200.000	0.045	0.227
-695.456	-72.110	-0.187	-0.069
-694.441	-200.000	0.022	-0.170
-693.426	400.369	0.049	0.104
-692.412	203.317	0.139	-0.215
-691.397	49.108	-0.113	0.107
-690.383	-200.000	0.005	-0.216
-689.368	800.000	0.013	-0.051
-688.354	42.965	-0.138	-0.126
-687.339	-200.000	0.038	-0.215
-686.324	26.163	-0.004	0.004
-685.310	-21.098	0.036	0.022
-684.295	-23.880	-0.186	-0.112
-683.281	-200.000	0.016	-0.389
-682.266	-66.313	0.134	-0.053
-681.251	800.000	0.023	-0.093
-680.237	-200.000	-0.039	0.385
-679.222	-200.000	-0.010	0.262
-678.208	800.000	-0.109	0.308
-677.193	-123.574	0.049	0.008
-676.178	-155.531	0.300	0.019
-675.164	608.833	-0.065	0.162
-674.149	-48.023	-0.192	-0.093
-673.135	-160.074	0.214	-0.012
-672.120	229.821	0.115	-0.188
-671.105	-200.000	-0.003	0.032
-670.091	800.000	-0.106	0.366
-669.076	232.039	-0.205	-0.337
-668.062	-200.000	0.003	0.159
-667.047	187.146	0.047	-0.071
-666.032	58.129	-0.203	-0.199
-665.018	800.000	0.073	-0.207
-664.003	-77.900	0.465	0.161
-662.989	43.032	-0.066	0.060
-661.974	800.000	-0.041	-0.129
-660.959	-63.307	-0.152	-0.063
-659.945	15.909	-0.215	-0.170
-658.930	-200.000	0.028	-0.461
-657.916	-43.154	0.064	0.032
-656.901	94.918	0.156	0.178
-655.886	-200.000	-0.009	-0.223
-654.872	145.834	0.134	-0.179
-653.857	-169.279	-0.097	-0.004
-652.843	70.272	0.091	-0.094
-651.828	-75.427	0.191	-0.068
-650.814	-72.781	0.123	-0.045
-649.799	-83.695	0.137	-0.044
-648.784	-134.346	-0.130	-0.016
-647.770	-109.761	0.259	-0.054
-646.755	210.037	0.064	-0.101
-645.741	536.785	0.085	-0.201
-644.726	8.516	0.032	0.024
-643.711	103.855	-0.207	0.243
-642.697	656.990	-0.089	0.229
-641.682	56.518	0.175	-0.170
-640.668	186.517	-0.173	-0.258
-639.653	700.896	-0.100	-0.264
-638.638	-164.135	-0.150	-0.007
-637.624	-200.000	-0.074	-0.398
-636.609	-200.000	0.081	-0.380
-635.595	-147.635	0.216	-0.018
-634.580	-200.000	-0.014	-0.103
-633.565	-200.000	0.006	0.221
-632.551	-137.049	-0.230	0.026
-631.536	800.000	0.125	0.424
-630.522	-186.355	-0.296	-0.004
-629.507	390.707	0.145	0.301
-628.492	800.000	0.091	-0.257
-627.478	304.154	0.107	0.198
-626.463	-135.150	0.179	0.022
-625.449	100.205	0.097	0.112
-624.434	-6.604	-0.148	-0.100
-623.419	358.899	0.086	-0.173
-622.405	-19.198	-0.153	0.095
-621.390	-200.000	-0.022	-0.147
-620.376	-64.305	-0.199	0.081
-619.361	-2.341	-0.110	0.077
-618.346	168.852	0.175	-0.249
-617.332	-143.069	-0.167	0.016
-616.317	-200.000	0.056	0.364
-615.303	-18.743	-0.088	-0.055
-614.288	-27.060	0.328	-0.191
-613.273	-66.025	0.180	0.072
-612.259	-200.000	0.030	0.166
-611.244	-200.000	-0.024	0.282
-610.230	800.000	0.058	-0.201
-609.215	-50.497	0.129	0.061
-608.201	-149.376	0.156	-0.012
-607.186	79.289	0.079	-0.085
-606.171	148.779	-0.189	-0.256
-605.157	-61.665	0.276	-0.116
-604.142	-200.000	-0.057	-0.478
-603.128	-7.442	-0.104	-0.070
-602.113	-200.000	-0.002	0.090
-601.098	-101.079	-0.346	0.085
-600.084	33.197	0.242	0.210
-599.069	-10.898	0.164	0.108
-598.055	711.438	0.003	-0.008
-597.040	-200.000	-0.014	0.271
-596.025	-80.443	0.171	-0.057
-595.011	-200.000	-0.044	-0.301
-593.996	460.616	0.136	0.303
-592.982	800.000	0.050	-0.212
-591.967	-104.885	0.181	-0.041
-590.952	800.000	-0.058	0.239
-589.938	-84.733	0.305	-0.096
-588.923	34.859	-0.244	0.213
-587.909	-114.202	-0.036	-0.007
-586.894	-95.267	-0.357	0.096
-585.879	-145.397	0.233	0.021
-584.865	-200.000	-0.021	-0.238
-583.850	800.000	0.172	-0.532
-582.836	-91.207	0.214	-0.061
-581.821	-40.845	-0.197	-0.102
-580.806	-78.341	-0.190	0.065
-579.792	800.000	0.051	-0.148
-578.777	157.185	-0.176	0.243
-577.763	227.188	0.234	-0.379
-576.748	6.074	-0.081	-0.060
-575.733	273.013	-0.023	0.041
-574.719	-200.000	0.009	-0.320
-573.704	57.958	-0.150	0.146
-572.690	27.443	-0.216	-0.181
-571.675	-54.428	0.338	-0.153
-570.661	-200.000	0.014	0.109
-569.646	-56.560	0.047	0.021
-568.631	800.000	-0.003	-0.011
-567.617	-66.753	0.074	-0.029
-566.602	-88.280	-0.483	-0.144
-565.588	116.793	-0.116	0.142
-564.573	800.000	-0.089	0.344
-563.558	-200.000	-0.026	0.123
-562.544	-200.000	0.009	0.127
-561.529	800.000	0.035	0.125
-560.515	800.000	0.062	-0.265
-559.500	-200.000	0.011	0.320
-558.485	166.366	0.142	0.201
-557.471	61.099	-0.010	0.010
-556.456	611.222	-0.106	-0.265
-555.442	-132.928	-0.333	0.042
-554.427	707.515	-0.096	0.253
-553.412	-200.000	-0.011	-0.194
-552.398	-200.000	0.002	-0.104
-551.383	-78.773	-0.204	-0.069
-550.369	-85.207	0.130	0.040
-549.354	800.000	-0.016	-0.043
-548.339	800.000	0.009	0.034
-547.325	-103.651	0.233	0.054
-546.310	28.533	0.162	-0.137
-545.296	-152.378	-0.481	-0.035
-544.281	-200.000	0.036	-0.380
-543.266	-19.538	-0.164	0.101
-542.252	280.091	0.029	-0.052
-541.237	-116.907	0.116	0.021
-540.223	60.064	0.055	0.054
-539.208	-200.000	-0.065	-0.403
-538.193	301.334	-0.050	-0.092
-537.179	281.528	0.035	-0.063
-536.164	-59.102	-0.108	0.046
-535.150	-155.810	0.214	-0.014
-534.135	5.436	-0.249	-0.183
-533.121	32.971	0.222	0.192
-532.106	248.336	-0.189	-0.319
-531.091	27.294	0.182	-0.152
-530.077	-27.978	-0.133	0.076
-529.062	23.033	-0.139	-0.114
-528.048	-132.720	0.191	-0.024
-527.033	247.853	-0.231	0.389
-526.018	122.993	0.200	0.249
-525.004	388.045	0.142	0.292
-523.989	-200.000	-0.002	0.072
-522.975	800.000	-0.051	0.178
-521.960	247.227	-0.092	0.154
-520.945	-7.483	0.233	-0.157
-519.931	-110.455	-0.321	0.066
-518.916	-15.548	0.189	0.120
-517.902	-80.285	0.060	-0.020
-516.887	586.316	-0.147	0.361
-515.872	457.094	-0.049	-0.109
-514.858	96.624	-0.196	-0.224
-513.843	253.591	-0.103	0.176
-512.829	-200.000	0.066	0.316
-511.814	-100.191	-0.080	-0.020
-510.799	584.843	-0.076	0.185
-509.785	-200.000	-0.018	0.149
-508.770	-1.675	0.219	-0.153
-507.756	-46.465	-0.115	-0.056
-506.741	658.516	0.064	0.163
-505.726	-174.132	0.037	-0.001
-504.712	779.232	-0.107	-0.292
-503.697	393.499	0.062	-0.128
-502.683	576.285	-0.141	-0.343
-501.668	45.659	-0.072	-0.066
-500.653	800.000	-0.073	0.201
-499.639	800.000	0.082	-0.242
-498.624	391.254	0.090	-0.186
-497.610	-200.000	0.051	-0.273
-496.595	589.965	-0.039	0.095
-495.581	310.111	0.063	0.117
-494.566	-200.000	-0.003	-0.081
-493.551	-200.000	0.056	0.304
-492.537	224.656	0.136	-0.218
-491.522	35.660	-0.113	-0.099
-490.508	-200.000	-0.032	0.246
-489.493	15.725	-0.055	-0.043
-488.478	800.000	0.080	0.276
-487.464	142.293	-0.058	-0.076
-486.449	-76.271	0.318	-0.111
-485.435	-162.327	-0.374	0.018
-484.420	106.466	-0.154	-0.181
-483.405	-103.719	0.198	0.046
-482.391	520.514	-0.119	0.277
-481.376	-200.000	-0.028	0.324
-480.362	-129.272	-0.186	-0.026
-479.347	94.817	-0.294	0.333
-478.332	800.000	0.035	0.150
-477.318	-108.496	0.330	0.071
-476.303	-200.000	0.006	0.070
-475.289	800.000	-0.089	-0.280
-474.274	55.083	0.049	-0.047
-473.259	-78.442	-0.116	0.039
-472.245	184.164	-0.087	0.128
-471.230	211.597	-0.021	-0.032
-470.216	-37.746	-0.359	0.190
-469.201	382.730	-0.165	0.338
-468.186	19.394	0.055	-0.044
-467.172	-109.644	0.265	-0.055
-466.157	-200.000	-0.053	0.294
-465.143	-200.000	0.003	0.209
-464.128	170.946	0.178	0.253
-463.113	183.144	0.152	0.222
-462.099	800.000	-0.085	-0.240
-461.084	-57.038	-0.068	-0.030
-460.070	800.000	-0.031	-0.125
-459.055	42.526	0.388	0.351
-458.040	-42.595	-0.272	-0.137
-457.026	-200.000	-0.031	0.296
-456.011	27.189	-0.184	0.154
-454.997	22.614	0.332	-0.270
-453.982	-85.350	0.005	0.002
-452.968	800.000	-0.079	0.305
-451.953	-154.175	0.034	0.002
-450.938	-200.000	-0.023	-0.125
-449.924	270.179	0.169	-0.295
-448.909	-91.194	0.202	0.057
-447.895	-111.998	-0.034	0.007
-446.880	-200.000	-0.001	0.257
-445.865	106.142	0.128	0.150
-444.851	41.756	-0.116	0.105
-443.836	-147.069	-0.207	-0.018
-442.822	196.169	0.093	-0.140
-441.807	35.299	-0.045	0.039
-440.792	-119.626	0.489	0.084
-439.778	800.000	-0.057	0.160
-438.763	-200.000	0.010	0.062
-437.749	-16.505	0.318	-0.200
-436.734	-127.251	-0.281	-0.041
-435.719	209.865	0.051	-0.079
-434.705	-200.000	-0.035	-0.347
-433.690	394.171	0.171	-0.353
-432.676	-190.924	0.175	-0.002
-431.661	-184.572	-0.174	-0.003
-430.646	55.000	0.297	-0.285
-429.632	-200.000	0.058	-0.261
-428.617	800.000	-0.098	0.360
-427.603	-141.006	-0.046	-0.005
-426.588	800.000	0.061	-0.187
-425.573	15.780	0.293	-0.228
-424.559	800.000	-0.042	-0.134
-423.544	95.876	-0.119	-0.134
-422.530	-200.000	-0.108	0.000
-421.515	352.617	0.032	-0.064
-420.500	271.029	0.108	-0.188
-419.486	-130.994	-0.421	0.056
-418.471	27.672	0.149	0.125
-417.457	-101.165	-0.210	0.051
-416.442	21.843	0.172	-0.139
-415.428	-200.000	0.000	0.100
-414.413	-136.234	0.300	-0.035
-413.398	-26.289	-0.368	0.214
-412.384	607.439	0.106	-0.261
-411.369	132.253	-0.030	-0.038
-410.355	-47.793	-0.263	-0.126
-409.340	14.903	0.389	-0.301
-408.325	-143.217	-0.108	0.010
-407.311	-139.511	-0.368	0.039
-406.296	-149.749	-0.170	-0.013
-405.282	800.000	0.086	-0.260
-404.267	800.000	-0.034	-0.100
-403.252	736.456	-0.148	0.393
-402.238	-62.026	-0.282	-0.117
-401.223	190.362	-0.133	-0.197
-400.209	16.537	0.148	-0.116
-399.194	-68.432	0.190	-0.073
-398.179	-45.856	0.354	-0.173
-397.165	664.270	-0.066	-0.168
-396.150	-65.589	0.282	-0.112
-395.136	-26.680	-0.181	-0.105
-394.121	57.497	-0.098	-0.094
-393.106	-200.000	0.038	-0.197
-392.092	-164.651	0.229	-0.010
-391.077	8.096	-0.116	0.087
-390.063	-71.126	-0.158	-0.059
-389.048	-169.056	-0.206	0.008
-388.033	214.618	0.146	-0.228
-387.019	-139.248	-0.421	0.045
-386.004	105.611	-0.239	0.280
-384.990	-200.000	-0.001	-0.287
-383.975	-158.033	0.394	0.023
-382.960	132.676	0.096	-0.123
-381.946	31.759	-0.150	-0.128
-380.931	-200.000	-0.010	-0.119
-379.917	534.211	0.186	-0.437
-378.902	84.762	0.148	0.160
-377.888	-200.000	-0.009	-0.125
-376.873	220.531	0.340	0.540
-375.858	78.328	0.196	0.207
-374.844	-200.000	-0.043	-0.265
-373.829	-72.751	0.368	-0.134
-372.815	87.001	0.164	0.179
-371.800	-49.353	-0.048	-0.023
-370.785	-78.195	-0.047	-0.016
-369.771	-160.817	0.461	0.024
-368.756	-103.522	0.064	-0.015
-367.742	-67.482	0.154	-0.060
-366.727	800.000	0.015	-0.048
-365.712	-27.883	0.381	-0.219
-364.698	-200.000	-0.008	-0.116
-363.683	-200.000	-0.021	0.179
-362.669	759.865	0.049	0.132
-361.654	-200.000	0.017	0.153
-360.639	-20.030	0.348	0.212
-359.625	29.965	-0.139	0.117
-358.610	800.000	-0.074	-0.260
-357.596	124.989	-0.213	-0.265
-356.581	-200.000	-0.036	0.368
-355.566	-124.160	-0.255	0.040
-354.552	9.272	0.134	-0.100
-353.537	-200.000	-0.025	0.491
-352.523	-200.000	0.006	0.434
-351.508	-200.000	0.051	0.262
-350.493	316.390	0.097	-0.180
-349.479	339.504	0.184	0.355
-348.464	800.000	0.062	0.230
-347.450	800.000	0.013	-0.036
-346.435	-37.198	-0.192	-0.102
-345.420	409.114	-0.139	-0.290
-344.406	-163.382	0.103	-0.005
-343.391	-200.000	0.020	0.123
-342.377	-30.946	0.331	-0.185
-341.362	228.013	-0.234	-0.376
-340.348	-119.353	0.318	-0.055
-339.333	800.000	0.049	0.167
-338.318	-92.927	-0.145	-0.040
-337.304	-8.138	0.173	-0.115
-336.289	-200.000	0.012	-0.052
-335.275	800.000	-0.066	-0.181
-334.260	5.830	0.226	-0.165
-333.245	800.000	-0.053	-0.213
-332.231	640.671	-0.134	0.337
-331.216	291.696	0.025	0.045
-330.202	413.748	-0.083	0.175
-329.187	-1.358	0.214	-0.149
-328.172	-64.970	-0.290	0.116
-327.158	65.202	-0.208	0.208
-326.143	-87.794	-0.262	0.078
-325.129	65.573	-0.112	0.112
-324.114	-200.000	-0.029	0.141
-323.099	75.862	0.058	0.060
-322.085	48.210	-0.373	-0.344
-321.070	-35.041	-0.196	-0.106
-320.056	268.521	0.251	0.434
-319.041	365.467	-0.276	0.550
-318.026	800.000	-0.176	0.490
-317.012	-142.201	0.114	-0.011
-315.997	-18.911	0.161	0.099
-314.983	333.533	0.081	0.154
-313.968	12.244	-0.458	0.348
-312.953	75.124	-0.372	0.387
-311.939	245.226	-0.261	-0.434
-310.924	68.513	0.064	0.064
-309.910	-88.334	-0.461	-0.136
-308.895	800.000	-0.058	0.176
-307.880	800.000	0.022	0.087
-306.866	-144.946	0.190	0.017
-305.851	657.519	0.063	-0.160
-304.837	266.152	0.125	0.216
-303.822	-46.659	-0.263	-0.127
-302.807	-120.368	0.058	-0.010
-301.793	-79.962	0.096	-0.032
-300.778	-164.946	-0.425	-0.019
-299.764	-200.000	0.051	0.348
-298.749	70.239	0.164	0.167
-297.735	-200.000	-0.011	-0.174
-296.720	581.379	0.110	-0.267
-295.705	-157.424	-0.178	0.011
-294.691	196.400	0.206	-0.309
-293.676	-70.117	-0.121	-0.045
-292.662	76.388	-0.105	0.110
-291.647	-200.000	-0.048	0.245
-290.632	61.633	-0.031	0.031
-289.618	-115.706	0.248	-0.046
-288.603	215.352	-0.061	-0.096
-287.589	-110.020	0.060	0.012
-286.574	385.322	0.030	0.060
-285.559	-137.065	0.185	-0.021
-284.545	-120.984	-0.371	0.061
-283.530	-200.000	-0.007	-0.164
-282.516	-92.460	0.484	-0.134
-281.501	687.300	0.040	-0.104
-280.486	97.412	0.272	0.308
-279.472	7.244	0.115	-0.085
-278.457	56.756	0.066	0.063
-277.443	-67.357	-0.156	-0.061
-276.428	-147.548	-0.458	0.038
-275.413	800.000	0.071	0.218
-274.399	-195.947	0.261	-0.002
-273.384	-40.919	0.212	0.108
-272.370	-145.189	-0.846	-0.076
-271.355	800.000	0.042	-0.121
-270.340	-35.350	0.218	0.117
-269.326	-200.000	-0.012	0.127
-268.311	612.453	0.076	-0.187
-267.297	-123.459	-0.400	0.063
-266.282	655.708	0.065	-0.165
-265.267	138.867	0.120	0.155
-264.253	345.928	0.069	0.133
-263.238	27.440	0.170	-0.141
-262.224	8.637	0.137	-0.102
-261.209	-80.826	-0.098	0.032
-260.195	-184.650	-0.325	0.005
-259.180	-93.854	0.229	0.062
-258.165	-200.000	0.056	-0.287
-257.151	99.081	-0.355	-0.404
-256.136	-71.845	0.281	-0.103
-255.122	203.477	0.148	0.226
-254.107	104.576	-0.223	-0.259
-253.092	42.484	-0.015	0.014
-252.078	-122.517	0.238	0.038
-251.063	250.419	-0.056	-0.094
-250.049	375.329	0.045	-0.091
-249.034	289.419	-0.112	-0.201
-248.019	800.000	0.015	0.047
-247.005	-144.760	-0.236	0.021
-245.990	-200.000	0.002	-0.008
-244.976	-91.127	0.085	0.024
-243.961	-24.986	0.120	-0.070
-242.946	800.000	0.122	-0.340
-241.932	-200.000	0.066	-0.412
-240.917	-150.000	0.090	-0.007
-239.903	101.767	-0.180	-0.206
-238.888	-93.172	0.131	-0.036
-237.873	485.900	-0.178	0.398
-236.859	-64.465	-0.117	-0.047
-235.844	-72.235	-0.135	-0.049
-234.830	214.015	0.052	0.080
-233.815	-200.000	0.068	-0.296
-232.800	34.768	0.203	0.175
-231.786	298.124	0.037	0.068
-230.771	-71.002	-0.177	-0.065
-229.757	-110.260	0.095	-0.019
-228.742	-35.447	0.276	0.148
-227.727	409.057	-0.120	0.250
-226.713	4.410	0.279	0.201
-225.698	179.531	-0.144	-0.207
-224.684	-1.220	-0.301	0.209
-223.669	-188.711	-0.089	-0.001
-222.655	-51.562	-0.300	-0.138
-221.640	-41.571	0.282	0.142
-220.625	-18.899	-0.276	0.169
-219.611	800.000	0.057	-0.171
-218.596	239.451	-0.132	-0.217
-217.582	683.345	-0.062	0.158
-216.567	-3.535	0.277	0.190
-215.552	-54.495	-0.158	0.070
-214.538	-93.422	0.508	0.138
-213.523	37.674	-0.152	0.132
-212.509	-200.000	-0.010	-0.053
-211.494	-52.135	-0.201	0.092
-210.479	800.000	-0.078	0.211
-209.465	-200.000	0.011	0.198
-208.450	226.854	-0.102	-0.163
-207.436	-92.310	0.101	-0.028
-206.421	-157.004	-0.084	0.005
-205.406	263.106	0.188	-0.322
-204.392	-200.000	-0.015	0.282
-203.377	234.937	-0.030	0.048
-202.363	-107.661	-0.333	-0.072
-201.348	372.907	-0.072	-0.144
-200.333	-55.070	-0.216	-0.096
-199.319	28.694	-0.139	0.116
-198.304	800.000	0.075	-0.271
-197.290	184.761	-0.111	-0.162
-196.275	-58.097	-0.114	-0.049
-195.260	269.573	-0.142	0.245
-194.246	-107.184	0.046	-0.010
-193.231	423.984	0.025	0.052
-192.217	-23.685	-0.054	0.032
-191.202	800.000	-0.112	-0.384
-190.187	304.900	0.077	-0.140
-189.173	800.000	0.017	-0.051
-188.158	637.954	0.060	0.150
-187.144	-108.287	-0.298	-0.063
-186.129	-174.088	0.159	-0.005
-185.114	689.773	-0.106	0.272
-184.100	-55.647	-0.120	0.053
-183.085	55.686	-0.142	-0.136
-182.071	-200.000	0.025	0.275
-181.056	800.000	0.011	0.030
-180.042	-157.325	0.030	-0.002
-179.027	258.195	0.067	-0.113
-178.012	-46.956	0.223	0.107
-176.998	-11.894	-0.266	0.172
-175.983	66.465	0.109	-0.109
-174.969	314.459	0.124	0.230
-173.954	223.488	0.121	0.191
-172.939	-200.000	0.033	0.237
-171.925	236.091	0.338	-0.549
-170.910	510.146	0.082	-0.188
-169.896	560.719	0.184	0.437
-168.881	332.790	0.119	0.226
-167.866	-37.373	0.266	-0.140
-166.852	-74.162	-0.210	-0.074
-165.837	-117.408	0.545	0.097
-164.823	324.079	0.084	0.157
-163.808	800.000	-0.050	-0.202
-162.793	-200.000	-0.092	-0.433
-161.779	49.803	-0.158	0.146
-160.764	-200.000	0.014	0.219
-159.750	8.670	0.241	0.178
-158.735	430.904	0.031	0.065
-157.720	-109.574	0.325	-0.067
-156.706	-156.526	0.178	-0.011
-155.691	-112.665	-0.312	0.061
-154.677	60.456	0.102	0.100
-153.662	508.136	0.038	0.086
-152.647	303.567	-0.154	-0.280
-151.633	50.794	-0.100	0.093
-150.618	165.630	0.039	0.054
-149.604	12.925	0.238	0.181
-148.589	-200.000	0.005	0.167
-147.574	-112.025	-0.173	0.034
-146.560	-100.299	0.180	0.044
-145.545	-200.000	0.048	-0.342
-144.531	14.171	-0.147	-0.113
-143.516	-115.756	-0.345	0.063
-142.502	-25.366	0.282	0.164
-141.487	-92.263	0.338	0.094
-140.472	-96.652	-0.073	0.019
-139.458	63.403	0.099	0.097
-138.443	9.695	-0.167	-0.124
-137.429	0.955	0.131	0.092
-136.414	158.471	0.062	0.084
-135.399	-0.435	0.286	0.199
-134.385	206.449	-0.141	-0.216
-133.370	-200.000	0.019	-0.232
-132.356	-200.000	-0.016	-0.166
-131.341	-46.045	-0.148	0.071
-130.326	-200.000	-0.053	0.271
-129.312	-118.305	-0.364	0.063
-128.297	-98.439	0.186	0.047
-127.283	800.000	0.028	0.120
-126.268	-110.537	0.470	-0.096
-125.253	-38.638	-0.066	-0.034
-124.239	41.118	0.207	-0.184
-123.224	-7.127	0.370	-0.246
-122.210	1.576	0.234	0.165
-121.195	109.962	-0.183	0.215
