DTS Sentinel unit serial number:	SN413079Multiplexer serial number:	ORYXHardware model number:	OX4-SRSoftware version number:	ORYX F/W v4.00 Oryx Data Collector v3.7.2.0data status	okinstallation	princeton_trtdifferential loss correction	single-endedforward channel	channel 4reverse channel	N/Adate	2019/09/12time	19:30:18forward acquisition time	15.00reverse acquisition time	0.00gamma	496.2192k internal	0.2309k external	0.2309temperature offset calibration	1.0149default loss term (dB/km)	0.3790temperature slope calibration	1.0000multiplexer offset coefficient	1.0000multiplexer slope coefficient	1.0000fibre end	0.00T internal ref (°C)	32.25T ext. ref 1 (°C)	3.23T ext. ref 2 (°C)	26.81length (m)	temperature (°C)	Stokes	anti-Stokes-747.200	-143.928	-0.418	0.040
-746.185	99.403	-0.913	1.073
-745.171	-120.392	0.921	-0.159
-744.156	309.498	-0.378	0.719
-743.142	-200.000	0.028	-0.381
-742.127	-17.392	-0.896	-0.573
-741.112	-159.539	0.439	-0.025
-740.098	800.000	0.082	0.344
-739.083	-110.244	0.870	-0.184
-738.069	-49.625	-0.562	-0.272
-737.054	-121.598	0.516	0.087
-736.039	-67.137	0.293	0.117
-735.025	-15.366	0.451	0.293
-734.010	8.636	0.144	-0.110
-732.996	-44.379	-0.532	-0.270
-731.981	-200.000	-0.026	0.297
-730.966	-66.903	-0.952	0.382
-729.952	-76.485	0.820	-0.293
-728.937	72.901	-0.362	-0.384
-727.923	800.000	-0.135	0.509
-726.908	-200.000	-0.135	0.651
-725.894	8.083	-1.196	-0.911
-724.879	800.000	0.186	-0.632
-723.864	-150.951	-0.175	-0.013
-722.850	-116.031	0.983	-0.186
-721.835	25.042	-0.396	0.334
-720.821	414.535	0.136	0.295
-719.806	376.279	0.336	-0.697
-718.791	-123.695	-1.072	-0.172
-717.777	-165.076	0.727	-0.033
-716.762	800.000	0.275	-0.794
-715.748	173.938	0.329	-0.483
-714.733	270.688	0.054	-0.097
-713.718	-200.000	0.071	-0.408
-712.704	205.491	0.405	-0.639
-711.689	58.929	0.672	0.670
-710.675	261.978	-0.272	-0.478
-709.660	-63.911	-0.474	0.197
-708.645	-200.000	-0.089	-0.702
-707.631	393.351	0.120	-0.254
-706.616	-119.970	0.358	0.062
-705.602	-200.000	-0.015	0.114
-704.587	800.000	-0.187	0.786
-703.572	-200.000	0.031	-0.423
-702.558	-12.329	-0.300	-0.199
-701.543	144.459	-0.175	-0.237
-700.529	-184.481	-0.674	-0.011
-699.514	-86.583	-0.677	-0.211
-698.499	800.000	-0.166	-0.579
-697.485	180.696	0.094	-0.140
-696.470	20.775	0.305	0.250
-695.456	-5.652	-0.127	-0.088
-694.441	55.594	-0.285	0.280
-693.426	-122.348	-0.212	-0.035
-692.412	354.612	0.415	-0.837
-691.397	329.497	-0.371	-0.724
-690.383	-200.000	-0.805	-0.004
-689.368	31.489	-0.169	-0.147
-688.354	-114.569	0.255	-0.050
-687.339	-13.642	-0.190	0.125
-686.324	-10.121	-0.768	0.517
-685.310	271.105	-0.470	-0.839
-684.295	25.600	0.558	-0.471
-683.281	107.803	0.419	-0.506
-682.266	82.395	0.203	0.223
-681.251	-200.000	0.003	-0.312
-680.237	800.000	-0.155	0.513
-679.222	105.322	0.296	-0.355
-678.208	573.618	0.028	0.070
-677.193	-200.000	-0.051	0.588
-676.178	-200.000	0.019	-0.375
-675.164	800.000	-0.154	-0.582
-674.149	-131.953	0.467	0.062
-673.135	230.471	0.246	-0.408
-672.120	385.381	0.066	0.138
-671.105	800.000	-0.193	-0.637
-670.091	15.659	0.163	-0.130
-669.076	73.844	0.463	0.491
-668.062	10.806	-0.353	0.273
-667.047	2.092	-0.721	-0.527
-666.032	696.893	0.225	-0.599
-665.018	17.649	-0.468	-0.377
-664.003	-128.215	-0.136	0.020
-662.989	130.866	0.521	0.677
-661.974	229.516	-0.293	-0.485
-660.959	90.199	-0.356	-0.404
-659.945	-100.967	-0.297	-0.074
-658.930	116.814	0.018	0.022
-657.916	-100.322	-0.415	0.104
-656.901	-72.636	-0.430	-0.161
-655.886	11.384	-0.111	-0.086
-654.872	-200.000	0.106	-0.596
-653.857	-155.690	0.826	0.054
-652.843	368.351	-0.220	-0.451
-651.828	-102.561	0.208	-0.050
-650.814	-200.000	0.208	1.030
-649.799	-5.672	0.055	-0.038
-648.784	-73.283	-0.650	-0.241
-647.770	800.000	0.113	-0.479
-646.755	-200.000	-0.021	-1.045
-645.741	-37.712	0.440	-0.237
-644.726	800.000	0.061	0.260
-643.711	-25.168	0.824	-0.494
-642.697	-146.211	0.081	-0.007
-641.682	77.555	0.244	0.263
-640.668	-200.000	-0.004	0.206
-639.653	36.561	0.148	0.132
-638.638	-68.580	0.873	0.342
-637.624	67.275	0.286	-0.296
-636.609	-64.953	0.369	-0.151
-635.595	800.000	0.115	-0.367
-634.580	0.983	-0.608	-0.441
-633.565	42.314	-0.328	0.302
-632.551	242.708	-0.075	0.127
-631.536	-82.731	-0.213	-0.070
-630.522	45.573	0.630	-0.589
-629.507	48.803	0.278	-0.263
-628.492	115.126	-0.189	0.233
-627.478	155.138	-0.524	-0.729
-626.463	38.802	-0.885	0.799
-625.449	-118.592	0.722	0.129
-624.434	-200.000	0.028	-0.148
-623.419	49.617	0.338	-0.322
-622.405	-200.000	-0.063	-0.492
-621.390	800.000	-0.227	-1.003
-620.376	66.332	0.236	-0.243
-619.361	-200.000	-0.016	0.312
-618.346	-1.668	0.461	0.329
-617.332	-87.121	0.460	-0.141
-616.317	62.043	0.233	-0.234
-615.303	202.649	0.284	-0.443
-614.288	800.000	-0.093	0.327
-613.273	-197.750	-0.380	0.002
-612.259	77.757	-0.208	0.224
-611.244	0.209	0.516	-0.372
-610.230	275.738	0.220	-0.394
-609.215	-200.000	0.062	-0.887
-608.201	127.288	-0.570	-0.731
-607.186	213.815	0.184	-0.293
-606.171	93.877	-0.391	-0.448
-605.157	800.000	0.152	0.560
-604.142	147.447	-0.437	-0.594
-603.128	-13.139	0.091	-0.060
-602.113	780.941	-0.185	0.510
-601.098	-20.451	1.020	0.634
-600.084	800.000	0.132	-0.531
-599.069	-5.039	0.328	-0.228
-598.055	-200.000	-0.083	0.393
-597.040	-134.673	0.484	-0.059
-596.025	342.678	0.194	-0.383
-595.011	484.142	-0.032	-0.073
-593.996	65.182	-0.665	0.679
-592.982	-84.074	-0.549	-0.176
-591.967	-200.000	0.013	-0.303
-590.952	-200.000	-0.085	0.467
-589.938	475.367	0.318	0.726
-588.923	800.000	0.235	-0.677
-587.909	-200.000	-0.055	-0.326
-586.894	-200.000	-0.040	-0.322
-585.879	-200.000	0.065	0.673
-584.865	32.608	-0.172	-0.150
-583.850	0.380	-0.075	-0.054
-582.836	36.638	-0.596	0.531
-581.821	30.977	0.303	-0.263
-580.806	29.374	0.327	-0.281
-579.792	82.499	-0.418	-0.458
-578.777	800.000	-0.212	-0.739
-577.763	-139.213	0.285	0.031
-576.748	-145.037	-0.273	0.025
-575.733	203.081	-0.343	0.535
-574.719	136.740	-0.189	-0.249
-573.704	118.024	-0.304	0.378
-572.690	800.000	-0.172	-0.674
-571.675	-143.022	-1.181	-0.115
-570.661	-200.000	0.078	-0.442
-569.646	-0.995	-0.471	-0.336
-568.631	-129.022	-0.532	-0.075
-567.617	-47.103	0.099	0.049
-566.602	51.375	-0.405	0.388
-565.588	-200.000	0.110	-0.670
-564.573	-139.658	0.509	-0.055
-563.558	800.000	-0.184	-0.756
-562.544	-153.981	0.829	0.057
-561.529	-200.000	-0.101	0.541
-560.515	-171.829	-0.209	-0.007
-559.500	85.057	0.509	-0.563
-558.485	34.069	-0.686	-0.603
-557.471	800.000	-0.053	-0.198
-556.456	244.194	-0.596	-1.010
-555.442	416.039	-0.381	-0.819
-554.427	-11.837	-0.383	-0.253
-553.412	102.291	-0.463	0.546
-552.398	800.000	-0.318	-1.123
-551.383	-177.668	0.350	-0.009
-550.369	-131.309	0.726	-0.097
-549.354	-91.186	0.623	0.180
-548.339	-200.000	-0.132	0.773
-547.325	-186.487	0.215	-0.003
-546.310	221.101	-0.321	0.520
-545.296	-128.090	0.546	0.079
-544.281	19.088	-0.544	-0.440
-543.266	58.879	-0.447	0.443
-542.252	-200.000	0.080	-0.464
-541.237	-57.253	-0.549	0.244
-540.223	42.920	-0.522	-0.480
-539.208	-89.142	-0.488	0.145
-538.193	800.000	-0.203	0.753
-537.179	92.945	0.248	0.282
-536.164	800.000	-0.039	0.136
-535.150	-145.004	0.579	0.053
-534.135	800.000	-0.033	-0.101
-533.121	-158.517	0.466	0.027
-532.106	131.618	-0.477	-0.618
-531.091	-200.000	0.007	0.320
-530.077	512.593	-0.281	-0.659
-529.062	-102.960	-0.580	0.139
-528.048	237.548	0.174	0.290
-527.033	467.460	0.147	0.333
-526.018	219.314	-0.093	-0.149
-525.004	-116.178	-0.320	0.060
-523.989	-136.585	-0.700	0.082
-522.975	-99.094	-0.746	-0.190
-521.960	-141.578	0.680	-0.069
-520.945	800.000	-0.125	-0.361
-519.931	613.537	0.311	-0.784
-518.916	-51.755	0.577	0.271
-517.902	509.051	0.269	0.630
-516.887	-126.380	-0.519	-0.078
-515.872	510.563	-0.348	-0.815
-514.858	-163.137	-0.387	-0.019
-513.843	159.320	-0.309	-0.432
-512.829	-200.000	0.072	0.702
-511.814	17.537	0.591	0.473
-510.799	44.183	-0.412	-0.381
-509.785	177.010	0.132	0.194
-508.770	-153.800	0.461	-0.032
-507.756	43.828	0.949	-0.875
-506.741	39.975	1.018	0.920
-505.726	-25.565	-0.144	0.086
-504.712	238.352	-0.341	0.569
-503.697	429.232	0.278	0.604
-502.683	-90.364	-0.485	-0.142
-501.668	-84.301	-0.403	0.128
-500.653	-192.057	0.850	0.008
-499.639	479.308	-0.215	0.491
-498.624	-109.122	0.669	-0.143
-497.610	-3.204	-0.550	0.386
-496.595	-20.049	1.054	-0.654
-495.581	-67.461	-0.987	0.390
-494.566	-37.364	0.268	-0.144
-493.551	78.344	0.289	-0.311
-492.537	-200.000	-0.009	-0.435
-491.522	77.474	-0.130	-0.139
-490.508	-18.329	-0.708	-0.445
-489.493	-89.226	-0.230	-0.068
-488.478	97.069	0.297	-0.343
-487.464	-196.476	0.685	0.005
-486.449	-88.413	-0.441	-0.133
-485.435	-46.437	-0.433	-0.214
-484.420	-200.000	-0.057	0.889
-483.405	800.000	-0.171	0.681
-482.391	-200.000	0.005	-0.056
-481.376	259.104	0.340	-0.590
-480.362	-26.891	-0.172	0.101
-479.347	476.262	0.236	0.535
-478.332	-200.000	0.051	-1.179
-477.318	203.389	-0.234	-0.364
-476.303	392.674	-0.044	-0.092
-475.289	-180.687	0.330	0.007
-474.274	800.000	-0.162	0.662
-473.259	-116.182	0.024	0.004
-472.245	32.418	-0.313	0.272
-471.230	800.000	0.244	0.854
-470.216	78.011	0.211	-0.226
-469.201	-40.900	-0.165	0.086
-468.186	-200.000	0.047	-0.585
-467.172	602.319	0.068	-0.169
-466.157	-64.798	-0.366	-0.149
-465.143	262.089	-0.426	0.742
-464.128	185.091	-0.320	0.477
-463.113	703.193	-0.035	0.092
-462.099	-17.600	0.658	-0.416
-461.084	800.000	-0.143	0.468
-460.070	-172.766	-0.620	0.019
-459.055	405.102	0.107	0.228
-458.040	-149.044	-0.336	-0.027
-457.026	72.478	-0.246	0.258
-456.011	-70.302	0.501	-0.191
-454.997	-42.693	-0.695	-0.355
-453.982	215.416	0.239	-0.381
-452.968	261.807	0.139	-0.242
-451.953	-83.936	0.697	-0.223
-450.938	-200.000	-0.100	0.724
-449.924	800.000	0.033	0.138
-448.909	-13.889	0.452	-0.293
-447.895	370.337	-0.035	0.072
-446.880	-122.969	-0.637	0.103
-445.865	22.675	-0.809	-0.665
-444.851	279.251	-0.442	0.791
-443.836	-136.679	-1.291	-0.150
-442.822	-200.000	-0.073	0.362
-441.807	-64.374	0.227	0.093
-440.792	-94.128	0.152	-0.042
-439.778	-118.314	0.579	0.103
-438.763	-83.290	-0.208	0.067
-437.749	-48.159	-0.289	-0.140
-436.734	73.916	0.669	0.704
-435.719	800.000	-0.193	0.638
-434.705	-146.440	-0.759	-0.067
-433.690	-200.000	-0.032	-0.557
-432.676	-24.386	0.620	0.371
-431.661	210.080	0.387	0.609
-430.646	-35.838	-0.660	0.359
-429.632	-141.874	-0.461	-0.046
-428.617	136.108	-0.047	-0.061
-427.603	703.854	-0.153	0.405
-426.588	11.360	0.178	-0.136
-425.573	61.896	-0.160	-0.160
-424.559	800.000	-0.285	0.992
-423.544	-141.289	-0.297	0.030
-422.530	120.616	0.343	0.428
-421.515	369.199	0.157	0.319
-420.500	-40.686	-0.689	-0.358
-419.486	94.706	0.268	-0.306
-418.471	569.689	-0.265	0.646
-417.457	47.439	0.347	0.325
-416.442	-169.748	0.660	0.024
-415.428	-135.561	0.142	-0.017
-414.413	258.443	0.583	-1.008
-413.398	318.650	-0.399	-0.759
-412.384	-111.754	0.553	0.112
-411.369	-200.000	-0.016	0.579
-410.355	-200.000	-0.011	0.174
-409.340	-135.081	-0.338	-0.041
-408.325	-200.000	-0.003	0.579
-407.311	-97.028	-0.426	-0.112
-406.296	44.645	0.568	-0.523
-405.282	70.270	0.326	0.338
-404.267	409.609	0.079	-0.168
-403.252	-80.930	0.843	-0.280
-402.238	32.973	0.764	0.664
-401.223	33.434	-0.469	0.409
-400.209	-62.785	-0.536	0.223
-399.194	303.560	-0.327	-0.608
-398.179	-200.000	0.074	0.734
-397.165	-97.055	-0.254	0.067
-396.150	229.081	-0.160	0.261
-395.136	125.791	0.581	0.735
-394.121	-41.178	0.035	-0.018
-393.106	-41.545	0.218	0.112
-392.092	3.867	0.117	0.086
-391.077	-144.957	-0.825	-0.075
-390.063	-44.083	-0.590	0.297
-389.048	43.013	-0.213	-0.195
-388.033	-44.219	0.342	-0.172
-387.019	18.685	-0.437	-0.351
-386.004	800.000	0.158	0.500
-384.990	-135.277	0.882	-0.106
-383.975	-119.972	-0.410	-0.071
-382.960	-64.573	-0.997	-0.405
-381.946	74.030	-0.266	-0.279
-380.931	800.000	0.150	0.494
-379.917	-200.000	-0.095	0.722
-378.902	-200.000	0.006	-0.524
-377.888	72.916	-0.390	-0.408
-376.873	258.281	0.333	0.574
-375.858	-200.000	-0.096	0.549
-374.844	-32.613	0.377	0.210
-373.829	-200.000	0.004	0.308
-372.815	-200.000	0.063	-0.444
-371.800	-13.414	-0.442	-0.287
-370.785	-39.176	0.635	-0.334
-369.771	-74.581	0.396	0.143
-368.756	575.719	-0.294	-0.719
-367.742	800.000	0.119	-0.439
-366.727	390.423	-0.168	-0.348
-365.712	-40.119	0.457	0.238
-364.698	-131.320	0.381	0.051
-363.683	-200.000	0.005	0.639
-362.669	297.391	0.166	-0.305
-361.654	-135.312	0.305	0.037
-360.639	15.956	-0.143	-0.113
-359.625	616.958	0.292	-0.733
-358.610	-168.104	0.694	0.027
-357.596	800.000	-0.110	-0.378
-356.581	-83.393	0.088	0.028
-355.566	800.000	0.205	0.603
-354.552	-200.000	-0.055	1.063
-353.537	-195.442	-0.151	0.001
-352.523	-18.297	0.597	0.373
-351.508	-90.136	0.554	0.161
-350.493	800.000	-0.094	0.346
-349.479	-200.000	-0.061	-0.754
-348.464	-200.000	-0.045	-0.557
-347.450	800.000	0.121	-0.387
-346.435	800.000	0.057	-0.228
-345.420	-138.571	0.159	0.017
-344.406	37.227	-0.058	-0.051
-343.391	-112.061	-0.611	-0.123
-342.377	-200.000	-0.042	-0.205
-341.362	54.120	0.339	0.326
-340.348	248.892	0.645	1.093
-339.333	-17.169	-0.494	-0.312
-338.318	-100.405	0.584	-0.145
-337.304	-200.000	-0.032	0.311
-336.289	42.258	0.436	0.396
-335.275	-169.955	0.678	-0.024
-334.260	-158.778	-0.817	0.047
-333.245	-3.276	-0.444	0.309
-332.231	-67.078	0.304	0.120
-331.216	-16.868	-0.278	0.176
-330.202	800.000	-0.118	0.453
-329.187	41.712	-0.470	-0.426
-328.172	800.000	0.094	0.273
-327.158	-0.157	-0.013	0.009
-326.143	-200.000	0.015	-0.379
-325.129	629.804	0.062	-0.157
-324.114	800.000	0.004	-0.017
-323.099	-113.791	-0.807	0.157
-322.085	-167.531	-1.060	0.042
-321.070	149.357	-0.479	0.648
-320.056	-21.141	-0.620	0.379
-319.041	800.000	0.037	0.156
-318.026	206.228	-0.291	-0.452
-317.012	177.020	0.411	0.597
-315.997	-200.000	0.005	-0.039
-314.983	23.874	-0.190	-0.157
-313.968	800.000	-0.192	0.690
-312.953	-143.220	-0.527	0.051
-311.939	50.354	0.556	0.525
-310.924	800.000	0.243	0.743
-309.910	-39.902	-0.593	0.309
-308.895	-42.205	0.410	0.209
-307.880	197.237	-0.340	0.517
-306.866	306.776	-0.347	0.645
-305.851	675.318	-0.124	0.321
-304.837	296.568	0.452	-0.829
-303.822	113.151	-0.208	-0.252
-302.807	-100.625	0.417	-0.103
-301.793	-115.408	-0.244	0.046
-300.778	388.866	-0.144	0.297
-299.764	-200.000	-0.009	-0.598
-298.749	-200.000	0.029	-0.242
-297.735	-200.000	-0.164	0.856
-296.720	-200.000	0.135	0.647
-295.705	-77.895	-0.127	-0.044
-294.691	-35.573	-0.874	0.474
-293.676	-200.000	-0.040	-0.189
-292.662	625.179	-0.068	0.170
-291.647	24.589	-0.462	-0.382
-290.632	800.000	0.203	-0.562
-289.618	33.842	0.059	0.051
-288.603	77.371	-0.595	-0.632
-287.589	190.173	0.135	-0.203
-286.574	-200.000	-0.214	-1.118
-285.559	-200.000	-0.020	0.282
-284.545	-110.227	-0.630	-0.131
-283.530	-89.452	-0.331	0.097
-282.516	59.233	1.260	-1.238
-281.501	-78.837	-0.335	0.114
-280.486	1.954	0.367	0.264
-279.472	-86.869	0.711	-0.217
-278.457	191.901	-0.972	1.461
-277.443	-111.468	0.568	0.115
-276.428	-200.000	-0.019	0.087
-275.413	-140.696	-0.107	0.011
-274.399	532.223	0.239	0.565
-273.384	-64.079	0.432	0.176
-272.370	-200.000	-0.145	-0.795
-271.355	-106.074	-0.244	-0.055
-270.340	800.000	0.152	0.569
-269.326	571.628	-0.251	-0.610
-268.311	-75.754	-0.452	0.160
-267.297	-29.117	0.112	-0.064
-266.282	800.000	-0.169	-0.485
-265.267	-64.917	0.882	0.355
-264.253	-46.300	0.791	0.388
-263.238	-85.465	-0.509	0.158
-262.224	800.000	-0.165	0.491
-261.209	-56.115	0.842	0.374
-260.195	-133.965	-0.623	0.077
-259.180	-115.866	0.220	-0.041
-258.165	-124.720	-0.590	-0.091
-257.151	-200.000	-0.104	0.526
-256.136	229.749	0.502	0.818
-255.122	56.832	-0.479	-0.465
-254.107	-55.527	-0.975	0.435
-253.092	-19.609	0.522	0.322
-252.078	-139.687	0.982	0.104
-251.063	-105.236	0.453	-0.103
-250.049	266.914	0.319	0.556
-249.034	-200.000	0.001	-0.227
-248.019	-39.733	0.305	-0.159
-247.005	-76.110	0.316	0.111
-245.990	321.773	0.139	-0.263
-244.976	800.000	0.164	-0.455
-243.961	800.000	-0.239	0.675
-242.946	-125.143	-0.560	-0.086
-241.932	-154.285	-0.469	0.031
-240.917	139.082	0.132	-0.173
-239.903	67.050	0.305	0.310
-238.888	-44.822	0.356	0.177
-237.873	210.472	-0.045	-0.070
-236.859	-137.389	0.580	0.065
-235.844	4.645	-0.403	0.295
-234.830	-200.000	0.037	0.276
-233.815	800.000	-0.094	-0.330
-232.800	296.667	0.340	-0.622
-231.786	-94.060	0.379	-0.104
-230.771	474.446	-0.177	-0.399
-229.757	326.153	-0.299	-0.570
-228.742	-173.585	0.578	0.017
-227.727	-39.546	0.707	0.369
-226.713	-149.120	-0.410	0.033
-225.698	481.163	0.253	0.571
-224.684	-91.511	-0.322	0.091
-223.669	-56.681	1.457	-0.642
-222.655	-25.952	-0.302	-0.177
-221.640	227.022	0.214	0.347
-220.625	107.376	0.319	0.377
-219.611	294.917	-0.416	-0.757
-218.596	147.010	-0.728	-0.974
-217.582	108.808	-0.284	-0.338
-216.567	-58.433	-0.192	-0.083
-215.552	-61.362	-0.220	0.092
-214.538	122.412	-0.400	0.498
-213.523	800.000	0.166	-0.586
-212.509	-200.000	-0.092	0.788
-211.494	-155.292	0.541	-0.035
-210.479	-36.524	0.372	0.199
-209.465	-73.481	0.280	-0.102
-208.450	27.655	0.120	0.101
-207.436	-21.379	0.470	0.285
-206.421	35.289	-0.379	-0.330
-205.406	-200.000	0.049	0.632
-204.392	-77.777	0.499	0.172
-203.377	-9.985	0.551	0.364
-202.363	-200.000	-0.032	-0.639
-201.348	-28.291	-0.472	-0.271
-200.333	-50.273	-0.299	0.141
-199.319	129.936	-0.110	-0.140
-198.304	-37.875	-0.157	-0.083
-197.290	-200.000	-0.096	-0.492
-196.275	-116.466	-0.269	-0.049
-195.260	-200.000	-0.036	-0.878
-194.246	-74.003	0.208	0.075
-193.231	38.278	0.640	0.567
-192.217	303.857	0.248	0.457
-191.202	251.671	0.229	0.388
-190.187	-140.833	1.553	0.159
-189.173	-121.788	-0.088	-0.014
-188.158	-74.265	-0.429	0.154
-187.144	800.000	0.115	0.398
-186.129	-92.676	0.849	0.237
-185.114	-99.608	-0.772	0.193
-184.100	29.150	0.416	-0.351
-183.085	-47.219	0.742	-0.359
-182.071	-105.328	0.508	0.115
-181.056	-58.927	0.468	0.201
-180.042	17.125	0.107	0.084
-179.027	58.019	-0.452	-0.440
-178.012	-54.866	0.315	0.141
-176.998	-74.664	-0.397	-0.142
-175.983	103.059	-0.339	0.395
-174.969	455.475	0.065	-0.142
-173.954	-162.478	-0.625	0.031
-172.939	215.327	-0.411	-0.648
-171.925	-59.764	0.578	0.246
-170.910	-23.553	-0.480	-0.286
-169.896	-9.206	-0.193	0.128
-168.881	-30.017	-0.308	0.174
-167.866	377.876	-0.277	-0.563
-166.852	-95.881	-0.309	0.082
-165.837	-94.127	0.432	0.118
-164.823	-189.561	0.609	-0.007
-163.808	800.000	-0.215	-0.707
-162.793	92.470	0.562	-0.629
-161.779	-166.048	0.436	-0.018
-160.764	800.000	-0.094	0.302
-159.750	-106.737	-0.197	0.044
-158.735	-90.429	-0.518	-0.149
-157.720	800.000	-0.277	0.847
-156.706	522.904	0.014	-0.034
-155.691	514.507	-0.089	0.206
-154.677	299.789	-0.105	0.192
-153.662	299.190	-0.342	-0.626
-152.647	-125.397	0.248	0.038
-151.633	-107.352	0.854	-0.186
-150.618	-200.000	-0.005	0.486
-149.604	-115.229	-0.414	0.078
-148.589	-121.991	0.168	0.027
-147.574	182.377	-0.189	-0.276
-146.560	572.835	-0.111	0.267
-145.545	97.111	0.332	0.378
-144.531	-53.624	-0.515	0.234
-143.516	-102.350	-0.468	0.111
-142.502	515.075	-0.249	0.577
-141.487	-171.903	-0.846	0.027
-140.472	159.153	-0.441	-0.609
-139.458	-49.165	-0.655	-0.311
-138.443	209.834	0.479	-0.746
-137.429	518.117	-0.159	0.370
-136.414	-98.001	-0.243	-0.062
-135.399	800.000	0.046	0.162
-134.385	800.000	-0.104	-0.377
-133.370	262.159	-0.288	0.496
-132.356	800.000	0.153	0.654
-131.341	-200.000	0.019	0.851
-130.326	118.090	0.347	0.424
-129.312	-200.000	0.097	-0.510
-128.297	800.000	0.169	0.576
-127.283	-9.347	0.359	-0.238
-126.268	-68.203	-0.286	0.110
-125.253	-200.000	0.056	0.404
-124.239	327.088	0.424	0.805
-123.224	-12.008	0.564	-0.367
-122.210	-52.552	0.482	0.221
