DTS Sentinel unit serial number:	SN413079Multiplexer serial number:	ORYXHardware model number:	OX4-SRSoftware version number:	ORYX F/W v4.00 Oryx Data Collector v3.7.2.0data status	okinstallation	princeton_trtdifferential loss correction	single-endedforward channel	channel 4reverse channel	N/Adate	2019/09/14time	12:01:35forward acquisition time	60.00reverse acquisition time	0.00gamma	496.2192k internal	0.2293k external	0.2293temperature offset calibration	1.0152default loss term (dB/km)	0.3790temperature slope calibration	1.0000multiplexer offset coefficient	1.0000multiplexer slope coefficient	1.0000fibre end	0.00T internal ref (°C)	37.44T ext. ref 1 (°C)	4.66T ext. ref 2 (°C)	34.86length (m)	temperature (°C)	Stokes	anti-Stokes-747.200	800.000	-0.025	-0.104
-746.185	37.737	-0.131	-0.119
-745.171	800.000	0.053	-0.161
-744.156	800.000	0.043	0.175
-743.142	800.000	0.059	0.179
-742.127	542.097	-0.087	0.213
-741.112	-47.055	0.292	-0.146
-740.098	-168.240	0.338	-0.013
-739.083	800.000	0.018	0.064
-738.069	84.960	-0.058	-0.065
-737.054	253.768	0.114	-0.199
-736.039	-67.435	-0.381	-0.153
-735.025	329.497	-0.048	-0.094
-734.010	764.814	0.053	-0.146
-732.996	-143.051	-0.710	0.070
-731.981	-147.739	-0.188	0.016
-730.966	86.350	-0.117	0.132
-729.952	-99.916	-0.194	0.049
-728.937	333.585	-0.030	-0.060
-727.923	-128.782	-0.334	-0.048
-726.908	422.372	-0.108	-0.238
-725.894	-116.062	-0.194	0.037
-724.879	800.000	-0.113	0.389
-723.864	-86.079	0.385	-0.122
-722.850	764.836	0.072	0.201
-721.835	-200.000	0.017	0.246
-720.821	-106.394	0.282	-0.065
-719.806	18.211	-0.111	-0.090
-718.791	-101.685	0.108	-0.027
-717.777	-66.784	-0.289	-0.117
-716.762	5.931	0.155	-0.117
-715.748	-116.286	0.165	0.031
-714.733	737.992	0.077	-0.211
-713.718	178.089	-0.140	-0.209
-712.704	188.983	0.131	-0.201
-711.689	502.748	-0.095	0.226
-710.675	-181.176	-0.187	0.004
-709.660	-182.879	0.224	0.004
-708.645	-200.000	0.018	-0.113
-707.631	-93.540	-0.163	-0.046
-706.616	53.964	0.048	0.048
-705.602	497.043	0.091	0.213
-704.587	111.071	-0.161	-0.199
-703.572	800.000	-0.092	0.379
-702.558	76.029	0.179	0.193
-701.543	-69.230	0.234	-0.092
-700.529	97.107	0.117	-0.137
-699.514	-200.000	-0.041	-0.240
-698.499	-200.000	0.040	-0.268
-697.485	800.000	-0.027	0.116
-696.470	-36.946	-0.066	-0.036
-695.456	-49.066	0.186	0.091
-694.441	-48.887	0.168	-0.082
-693.426	-196.402	0.134	-0.001
-692.412	129.071	0.201	0.262
-691.397	-75.433	-0.200	-0.073
-690.383	51.450	-0.084	-0.082
-689.368	30.544	0.071	0.062
-688.354	-112.668	0.064	0.013
-687.339	408.502	0.128	-0.276
-686.324	-95.197	-0.099	0.027
-685.310	-133.116	0.188	-0.024
-684.295	436.589	-0.045	-0.100
-683.281	148.517	0.252	-0.347
-682.266	-22.610	0.202	0.125
-681.251	-59.632	-0.096	-0.042
-680.237	-99.280	-0.247	-0.064
-679.222	-82.968	-0.223	0.073
-678.208	800.000	0.089	-0.279
-677.193	800.000	-0.037	0.113
-676.178	-175.626	0.528	-0.015
-675.164	110.763	0.092	0.113
-674.149	-147.310	-0.153	0.013
-673.135	800.000	-0.054	0.211
-672.120	-101.674	0.165	-0.041
-671.105	-200.000	-0.035	0.208
-670.091	365.798	-0.107	-0.220
-669.076	-11.818	0.083	-0.055
-668.062	-113.077	0.125	0.025
-667.047	800.000	0.055	-0.247
-666.032	800.000	-0.093	-0.293
-665.018	800.000	-0.119	-0.381
-664.003	-131.258	-0.157	0.021
-662.989	-114.625	-0.056	0.011
-661.974	456.073	0.101	0.229
-660.959	-200.000	0.048	0.252
-659.945	-72.764	-0.045	-0.017
-658.930	123.633	-0.342	-0.438
-657.916	-70.501	-0.016	0.006
-656.901	290.977	0.123	-0.228
-655.886	-200.000	0.058	-0.456
-654.872	800.000	-0.122	-0.429
-653.857	-70.748	0.090	0.034
-652.843	-96.498	0.171	-0.046
-651.828	-200.000	-0.006	0.147
-650.814	117.738	0.229	0.287
-649.799	-26.586	0.259	-0.155
-648.784	612.377	0.025	-0.064
-647.770	-48.858	-0.177	-0.086
-646.755	-40.237	0.386	0.205
-645.741	-200.000	-0.001	0.114
-644.726	-138.657	-0.179	0.020
-643.711	800.000	-0.060	-0.264
-642.697	275.529	-0.108	0.195
-641.682	-102.961	0.100	0.024
-640.668	84.789	-0.040	-0.044
-639.653	800.000	0.105	-0.406
-638.638	-95.919	-0.329	-0.089
-637.624	-55.693	0.025	-0.011
-636.609	234.308	0.261	0.439
-635.595	-165.084	0.152	-0.007
-634.580	496.123	0.081	0.189
-633.565	-129.921	-0.059	0.008
-632.551	155.196	-0.037	-0.052
-631.536	-168.540	-0.150	-0.006
-630.522	23.168	-0.149	0.125
-629.507	141.255	-0.104	0.140
-628.492	171.140	0.101	0.148
-627.478	-50.206	-0.208	-0.100
-626.463	57.372	0.159	0.158
-625.449	800.000	-0.037	0.119
-624.434	-31.063	-0.021	-0.012
-623.419	-111.439	0.205	-0.042
-622.405	-184.131	0.374	0.006
-621.390	19.895	0.030	-0.025
-620.376	-200.000	-0.028	0.204
-619.361	-153.151	-0.310	-0.022
-618.346	-200.000	0.006	0.282
-617.332	245.682	-0.145	0.249
-616.317	-200.000	0.023	-0.196
-615.303	95.003	-0.052	0.060
-614.288	-200.000	0.012	0.213
-613.273	654.160	0.128	-0.334
-612.259	370.472	0.160	-0.330
-611.244	-52.047	-0.131	0.062
-610.230	-200.000	0.059	-0.349
-609.215	-8.662	0.187	-0.128
-608.201	11.692	0.142	0.111
-607.186	21.518	-0.205	0.169
-606.171	-50.012	0.287	-0.138
-605.157	340.378	0.130	0.258
-604.142	-116.368	-0.213	-0.040
-603.128	-200.000	-0.001	0.103
-602.113	-158.144	0.274	-0.016
-601.098	224.185	-0.029	0.047
-600.084	685.847	0.082	-0.217
-599.069	-115.028	-0.180	-0.035
-598.055	800.000	0.079	-0.251
-597.040	-119.856	0.304	-0.053
-596.025	-143.013	0.204	0.020
-595.011	345.416	-0.105	0.210
-593.996	276.967	0.025	-0.045
-592.982	-200.000	-0.054	0.269
-591.967	-200.000	0.011	0.350
-590.952	347.535	0.058	-0.116
-589.938	-41.337	-0.177	0.093
-588.923	-200.000	-0.045	-0.217
-587.909	160.851	-0.167	0.237
-586.894	-145.810	-0.174	-0.016
-585.879	-51.619	-0.156	0.074
-584.865	243.835	-0.091	0.155
-583.850	183.362	0.164	0.246
-582.836	-29.423	-0.074	0.043
-581.821	33.588	0.129	0.114
-580.806	-108.059	-0.486	-0.107
-579.792	800.000	-0.075	0.231
-578.777	800.000	0.056	0.239
-577.763	111.202	-0.098	-0.120
-576.748	10.545	-0.044	0.034
-575.733	231.571	0.162	0.270
-574.719	181.348	0.058	0.087
-573.704	306.249	0.042	0.079
-572.690	388.148	0.126	-0.265
-571.675	-166.924	-0.158	-0.007
-570.661	252.258	-0.191	0.330
-569.646	-200.000	-0.018	-0.219
-568.631	-142.667	-0.171	-0.017
-567.617	-28.777	0.244	-0.143
-566.602	-83.044	-0.152	0.050
-565.588	800.000	0.083	0.287
-564.573	-200.000	0.007	-0.101
-563.558	411.457	0.179	0.387
-562.544	-75.605	-0.333	-0.120
-561.529	50.094	0.200	-0.192
-560.515	-153.340	-0.114	0.008
-559.500	-110.854	0.212	0.044
-558.485	-82.729	0.320	0.105
-557.471	282.286	0.058	-0.106
-556.456	25.879	0.068	-0.057
-555.442	-122.805	-0.236	0.039
-554.427	27.764	-0.139	-0.118
-553.412	-122.531	-0.334	-0.055
-552.398	64.954	0.081	-0.083
-551.383	-77.451	0.070	-0.025
-550.369	79.850	0.148	-0.162
-549.354	-107.948	0.259	0.057
-548.339	-140.989	-0.122	0.013
-547.325	-85.438	0.107	-0.034
-546.310	800.000	-0.020	-0.070
-545.296	-136.424	0.413	0.049
-544.281	-71.388	-0.286	0.109
-543.266	0.741	0.265	-0.192
-542.252	313.306	0.150	-0.286
-541.237	-5.520	-0.195	0.136
-540.223	152.305	0.120	0.167
-539.208	-70.354	-0.195	-0.075
-538.193	8.240	0.306	-0.234
-537.179	-200.000	0.026	-0.293
-536.164	-200.000	0.013	-0.108
-535.150	-145.170	0.276	-0.025
-534.135	115.973	-0.079	0.098
-533.121	-200.000	-0.044	-0.307
-532.106	-152.069	0.179	-0.013
-531.091	261.246	-0.115	-0.201
-530.077	76.672	-0.033	0.036
-529.062	39.115	-0.231	0.210
-528.048	-114.623	0.113	-0.022
-527.033	-200.000	0.005	0.165
-526.018	36.129	0.311	0.278
-525.004	525.742	0.069	0.165
-523.989	-55.726	0.246	-0.111
-522.975	-200.000	-0.012	0.078
-521.960	-200.000	-0.013	0.171
-520.945	161.126	-0.135	-0.191
-519.931	-52.704	0.092	-0.043
-518.916	800.000	0.074	0.304
-517.902	800.000	-0.088	0.311
-516.887	800.000	-0.156	-0.454
-515.872	34.087	0.079	0.070
-514.858	140.321	0.106	-0.142
-513.843	241.595	-0.133	0.226
-512.829	-200.000	-0.004	0.078
-511.814	272.616	0.170	-0.305
-510.799	800.000	-0.008	0.033
-509.785	35.563	0.196	-0.175
-508.770	205.019	0.102	-0.161
-507.756	146.304	0.045	0.061
-506.741	-200.000	0.334	0.001
-505.726	-99.969	-0.123	-0.031
-504.712	-97.596	-0.411	-0.108
-503.697	-22.989	-0.186	0.114
-502.683	-116.394	0.211	-0.040
-501.668	800.000	-0.037	-0.116
-500.653	118.260	-0.275	0.344
-499.639	-8.617	-0.231	0.157
-498.624	193.522	-0.055	0.084
-497.610	499.018	0.099	0.232
-496.595	-83.051	-0.214	0.070
-495.581	-200.000	0.059	-0.294
-494.566	312.167	0.150	0.286
-493.551	756.951	0.053	0.145
-492.537	-200.000	-0.022	0.141
-491.522	41.174	0.079	-0.073
-490.508	47.954	0.320	-0.303
-489.493	-180.127	-0.411	-0.009
-488.478	516.751	0.108	-0.255
-487.464	34.098	-0.108	-0.095
-486.449	301.606	0.048	-0.089
-485.435	-137.126	-0.046	0.005
-484.420	58.156	-0.225	0.223
-483.405	267.350	0.122	-0.216
-482.391	-99.066	0.198	0.051
-481.376	-129.686	-0.092	-0.013
-480.362	425.148	-0.051	0.112
-479.347	79.281	0.151	0.164
-478.332	-44.018	0.126	-0.064
-477.318	-80.042	-0.215	-0.073
-476.303	449.401	0.042	0.093
-475.289	45.271	-0.045	-0.042
-474.274	-55.063	0.155	0.071
-473.259	46.617	-0.022	0.020
-472.245	-177.541	-0.074	-0.002
-471.230	-100.332	0.165	0.041
-470.216	141.761	-0.106	-0.142
-469.201	-200.000	0.009	-0.142
-468.186	-200.000	0.005	-0.066
-467.172	-200.000	-0.018	0.250
-466.157	-200.000	-0.019	-0.238
-465.143	-200.000	-0.038	-0.199
-464.128	124.083	-0.074	-0.094
-463.113	-112.437	-0.309	-0.062
-462.099	-200.000	-0.046	-0.263
-461.084	800.000	0.073	0.214
-460.070	54.052	-0.077	-0.074
-459.055	246.507	-0.047	0.080
-458.040	-165.095	-0.210	0.009
-457.026	-140.654	-0.193	0.020
-456.011	-147.396	-0.167	0.014
-454.997	-122.961	-0.209	-0.034
-453.982	84.177	-0.072	-0.079
-452.968	96.068	-0.035	-0.041
-451.953	546.743	-0.094	0.227
-450.938	332.966	-0.170	0.333
-449.924	159.352	-0.245	-0.345
-448.909	-63.074	-0.077	0.032
-447.895	265.977	0.062	0.110
-446.880	800.000	0.046	-0.149
-445.865	-200.000	-0.017	0.344
-444.851	-80.136	0.249	-0.084
-443.836	386.305	-0.019	0.039
-442.822	-200.000	0.032	-0.292
-441.807	-129.900	0.287	-0.040
-440.792	98.213	-0.078	-0.091
-439.778	-18.964	0.181	0.114
-438.763	75.471	-0.355	-0.379
-437.749	-148.622	-0.173	-0.014
-436.734	20.874	-0.172	0.141
-435.719	800.000	-0.058	0.165
-434.705	620.680	-0.071	-0.180
-433.690	800.000	0.086	-0.318
-432.676	-63.407	0.387	0.161
-431.661	800.000	-0.045	-0.150
-430.646	3.511	0.334	-0.246
-429.632	90.224	0.075	-0.084
-428.617	-172.955	-0.178	0.006
-427.603	83.198	-0.252	-0.277
-426.588	-200.000	0.054	0.250
-425.573	230.349	0.086	0.141
-424.559	738.345	-0.119	0.323
-423.544	-132.075	-0.390	0.051
-422.530	-14.787	-0.107	0.069
-421.515	-200.000	0.046	-0.230
-420.500	711.209	-0.078	-0.208
-419.486	478.662	0.065	0.149
-418.471	-33.760	-0.030	0.017
-417.457	-29.147	-0.145	-0.084
-416.442	-200.000	0.046	-0.213
-415.428	-71.598	0.050	-0.019
-414.413	800.000	0.092	0.275
-413.398	70.263	0.047	-0.049
-412.384	25.873	0.114	0.096
-411.369	508.140	0.052	0.122
-410.355	-144.574	-0.190	-0.018
-409.340	-99.745	0.181	-0.046
-408.325	65.588	0.067	0.068
-407.311	125.496	-0.260	-0.331
-406.296	-64.200	-0.017	-0.007
-405.282	-54.523	0.194	0.089
-404.267	-48.928	0.170	0.082
-403.252	-20.464	-0.430	-0.267
-402.238	277.218	0.079	-0.141
-401.223	63.014	-0.097	-0.098
-400.209	165.541	-0.079	-0.113
-399.194	-83.146	-0.185	-0.060
-398.179	-43.997	0.049	0.025
-397.165	-200.000	-0.052	-0.273
-396.150	63.652	0.068	0.069
-395.136	2.265	-0.151	-0.110
-394.121	-141.649	-0.141	0.014
-393.106	262.269	0.175	-0.306
-392.092	-200.000	0.017	0.114
-391.077	170.860	0.245	0.354
-390.063	-200.000	-0.003	0.221
-389.048	96.270	-0.260	0.301
-388.033	39.961	-0.136	-0.123
-387.019	69.983	0.035	-0.036
-386.004	-59.761	-0.327	0.141
-384.990	-41.129	0.282	-0.147
-383.975	111.230	-0.072	-0.088
-382.960	14.633	0.068	-0.054
-381.946	-97.536	-0.136	-0.036
-380.931	114.623	-0.061	-0.075
-379.917	152.620	-0.260	-0.358
-378.902	-200.000	0.025	-0.121
-377.888	30.031	0.061	0.053
-376.873	-101.907	-0.232	0.057
-375.858	-200.000	0.021	0.116
-374.844	-200.000	-0.022	-0.122
-373.829	38.893	-0.184	-0.166
-372.815	116.625	0.047	-0.058
-371.800	800.000	0.054	0.186
-370.785	-151.994	0.060	0.004
-369.771	-121.638	0.038	-0.006
-368.756	58.624	0.163	0.162
-367.742	-100.703	-0.154	0.038
-366.727	-141.365	0.409	-0.042
-365.712	612.686	-0.062	0.156
-364.698	-144.856	0.131	0.012
-363.683	-114.055	-0.144	0.028
-362.669	-87.166	-0.173	-0.053
-361.654	-54.701	0.436	0.198
-360.639	-8.336	-0.172	0.117
-359.625	-161.613	-0.162	-0.008
-358.610	800.000	-0.061	-0.198
-357.596	14.281	0.107	0.084
-356.581	-106.798	0.075	-0.017
-355.566	-200.000	-0.013	-0.239
-354.552	324.289	-0.084	-0.162
-353.537	800.000	0.064	0.203
-352.523	-198.476	0.292	-0.002
-351.508	244.727	-0.169	0.287
-350.493	-80.348	-0.254	0.085
-349.479	-119.551	0.043	-0.007
-348.464	41.994	-0.040	-0.036
-347.450	214.952	-0.025	0.040
-346.435	75.179	-0.262	0.278
-345.420	-135.867	0.218	0.026
-344.406	-70.484	0.185	0.071
-343.391	435.606	-0.117	-0.255
-342.377	31.723	0.053	-0.046
-341.362	800.000	-0.122	-0.491
-340.348	14.432	0.139	0.109
-339.333	16.535	-0.160	-0.127
-338.318	-168.214	-0.383	0.015
-337.304	-141.297	-0.274	-0.028
-336.289	-46.095	-0.351	0.174
-335.275	-55.604	0.049	0.022
-334.260	-142.120	-0.079	-0.008
-333.245	-200.000	-0.018	-0.220
-332.231	-200.000	0.046	0.233
-331.216	177.469	0.122	-0.178
-330.202	25.939	-0.237	-0.199
-329.187	-200.000	0.011	0.277
-328.172	-153.891	0.180	0.012
-327.158	-200.000	0.001	-0.370
-326.143	36.315	-0.285	-0.253
-325.129	-162.563	0.288	-0.014
-324.114	-33.629	0.161	0.089
-323.099	-200.000	0.000	-0.177
-322.085	-200.000	-0.011	0.099
-321.070	-104.479	0.182	-0.042
-320.056	-74.340	0.249	-0.090
-319.041	285.991	0.061	-0.110
-318.026	-142.256	-0.659	0.066
-317.012	-63.161	0.256	0.106
-315.997	-63.309	-0.481	0.199
-314.983	-174.781	-0.045	0.001
-313.968	500.718	0.025	0.059
-312.953	-200.000	0.036	0.268
-311.939	-158.041	0.119	-0.007
-310.924	-200.000	0.027	-0.150
-309.910	-109.705	0.205	0.043
-308.895	800.000	0.027	0.090
-307.880	101.490	0.182	0.213
-306.866	-200.000	0.024	-0.121
-305.851	54.613	0.200	0.194
-304.837	800.000	0.056	0.197
-303.822	-200.000	0.015	0.069
-302.807	-59.589	0.248	0.107
-301.793	-68.493	0.115	0.045
-300.778	33.253	0.194	-0.169
-299.764	-64.027	-0.200	0.082
-298.749	-136.939	0.331	0.038
-297.735	699.719	-0.081	0.213
-296.720	-200.000	-0.023	-0.259
-295.705	61.304	-0.149	-0.149
-294.691	260.166	-0.127	-0.220
-293.676	181.353	0.153	0.226
-292.662	31.026	-0.145	0.125
-291.647	-69.716	-0.110	-0.042
-290.632	-29.645	-0.159	-0.091
-289.618	65.802	0.147	-0.150
-288.603	-200.000	0.058	-0.288
-287.589	3.401	0.245	0.179
-286.574	800.000	0.085	-0.276
-285.559	-60.985	-0.197	-0.084
-284.545	-46.154	0.138	-0.068
-283.530	388.974	-0.071	-0.148
-282.516	800.000	0.065	-0.200
-281.501	-200.000	-0.030	-0.323
-280.486	222.703	0.060	0.097
-279.472	-114.309	0.335	-0.065
-278.457	103.096	0.152	0.179
-277.443	-136.947	-0.141	0.016
-276.428	36.747	0.216	0.192
-275.413	155.272	-0.179	0.247
-274.399	-33.736	0.275	-0.152
-273.384	154.420	-0.188	0.259
-272.370	-175.441	0.180	-0.005
-271.355	-99.527	-0.250	-0.063
-270.340	41.726	0.233	-0.212
-269.326	321.341	-0.132	-0.252
-268.311	-51.279	0.292	-0.137
-267.297	-159.964	0.005	0.000
-266.282	-200.000	-0.037	0.253
-265.267	392.999	0.062	0.130
-264.253	182.322	-0.123	0.182
-263.238	-200.000	-0.026	-0.157
-262.224	75.569	0.178	0.188
-261.209	-28.392	-0.105	0.061
-260.195	-200.000	0.006	0.140
-259.180	-31.279	0.322	0.182
-258.165	99.752	0.318	0.369
-257.151	-46.424	0.137	-0.068
-256.136	65.647	-0.034	-0.035
-255.122	-98.993	0.214	-0.055
-254.107	-100.088	-0.197	0.049
-253.092	-67.445	0.250	0.099
-252.078	-170.635	0.087	-0.003
-251.063	-200.000	-0.011	-0.106
-250.049	-121.567	0.274	0.046
-249.034	-200.000	-0.071	0.374
-248.019	800.000	-0.068	-0.217
-247.005	25.875	0.124	0.104
-245.990	-200.000	-0.016	0.368
-244.976	14.793	0.109	0.085
-243.961	393.683	-0.030	0.062
-242.946	11.356	-0.233	-0.179
-241.932	-111.068	-0.281	0.058
-240.917	37.519	-0.169	0.150
-239.903	-111.530	0.624	0.127
-238.888	267.604	0.235	-0.413
-237.873	-35.319	0.266	-0.145
-236.859	-200.000	-0.077	-0.512
-235.844	-11.493	-0.140	-0.092
-234.830	1.530	0.176	-0.127
-233.815	-57.449	-0.180	-0.079
-232.800	9.066	0.179	-0.135
-231.786	6.261	0.191	0.142
-230.771	-133.705	0.104	0.013
-229.757	586.124	0.079	-0.194
-228.742	-16.285	-0.049	-0.031
-227.727	-153.624	-0.081	0.006
-226.713	-156.919	-0.280	-0.017
-225.698	-173.950	0.192	-0.006
-224.684	-200.000	0.061	-0.406
-223.669	-44.991	0.148	-0.074
-222.655	150.609	0.166	-0.226
-221.640	225.839	0.227	0.369
-220.625	-74.852	-0.198	-0.071
-219.611	-13.473	0.263	0.171
-218.596	-13.345	-0.183	0.119
-217.582	235.426	0.198	0.328
-216.567	800.000	0.012	-0.035
-215.552	-200.000	-0.018	0.107
-214.538	-174.937	0.125	0.004
-213.523	-200.000	-0.006	-0.084
-212.509	-29.524	0.079	0.045
-211.494	800.000	0.069	0.291
-210.479	-153.549	-0.151	0.010
-209.465	333.686	0.125	0.243
-208.450	134.397	-0.046	0.060
-207.436	-200.000	-0.050	-0.234
-206.421	83.893	0.243	-0.266
-205.406	-200.000	0.001	-0.011
-204.392	12.088	-0.219	0.169
-203.377	141.544	0.094	-0.125
-202.363	203.369	-0.126	-0.196
-201.348	800.000	-0.021	0.059
-200.333	230.867	-0.165	0.270
-199.319	278.248	-0.201	-0.359
-198.304	122.054	-0.077	0.096
-197.290	-174.340	-0.202	-0.006
-196.275	300.423	-0.122	-0.226
-195.260	-147.361	-0.294	-0.025
-194.246	-200.000	0.017	0.089
-193.231	-71.293	0.102	0.038
-192.217	-200.000	0.040	-0.216
-191.202	-102.574	0.140	0.034
-190.187	-70.725	-0.176	0.066
-189.173	-151.704	0.296	-0.022
-188.158	800.000	-0.121	-0.348
-187.144	-48.316	-0.439	0.212
-186.129	-141.204	-0.316	0.032
-185.114	800.000	-0.078	-0.304
-184.100	-103.831	-0.119	0.028
-183.085	-127.713	-0.156	0.023
-182.071	-52.387	-0.235	-0.109
-181.056	-69.574	-0.228	-0.087
-180.042	-55.241	0.405	0.182
-179.027	101.449	-0.071	-0.083
-178.012	315.437	0.077	0.146
-176.998	-200.000	0.081	0.415
-175.983	800.000	-0.035	-0.142
-174.969	0.475	-0.066	0.048
-173.954	-97.246	0.218	0.057
-172.939	-200.000	-0.023	-0.460
-171.925	503.873	0.072	-0.167
-170.910	23.459	-0.073	-0.060
-169.896	-200.000	0.031	0.283
-168.881	678.640	-0.103	0.267
-167.866	-61.286	-0.262	0.110
-166.852	-200.000	-0.063	0.290
-165.837	-70.860	0.372	0.140
-164.823	310.444	-0.033	-0.062
-163.808	704.358	0.051	0.134
-162.793	-11.914	0.376	-0.246
-161.779	-200.000	0.013	-0.205
-160.764	800.000	-0.078	-0.264
-159.750	-11.620	-0.059	0.039
-158.735	-200.000	-0.022	0.202
-157.720	-102.678	-0.254	-0.061
-156.706	-200.000	-0.226	0.001
-155.691	599.787	0.100	0.249
-154.677	-93.260	-0.439	0.122
-153.662	431.505	0.072	0.157
-152.647	-90.343	-0.093	0.027
-151.633	75.304	0.117	0.123
-150.618	-132.772	0.056	-0.007
-149.604	-123.247	0.167	-0.027
-148.589	333.199	0.027	0.052
-147.574	800.000	0.084	0.327
-146.560	48.618	0.126	0.118
-145.545	663.594	-0.023	-0.059
-144.531	89.983	0.137	-0.153
-143.516	-40.043	-0.181	-0.094
-142.502	-200.000	0.064	0.286
-141.487	-72.702	-0.051	0.019
-140.472	-91.582	0.282	0.080
-139.458	59.743	0.118	0.116
-138.443	-128.797	-0.416	-0.059
-137.429	796.686	0.045	0.123
-136.414	800.000	-0.056	0.203
-135.399	-131.978	0.219	0.029
-134.385	-143.737	-0.300	-0.028
-133.370	-200.000	-0.011	0.068
-132.356	84.391	0.226	-0.247
-131.341	-199.541	0.152	-0.001
-130.326	-97.958	-0.227	-0.059
-129.312	-148.986	0.186	0.015
-128.297	54.981	0.100	0.096
-127.283	-120.992	-0.102	-0.017
-126.268	-120.997	0.375	-0.063
-125.253	300.131	0.095	-0.176
-124.239	-200.000	-0.015	0.074
-123.224	800.000	-0.101	0.280
-122.210	-29.654	-0.306	0.175
