DTS Sentinel unit serial number:	SN413079Multiplexer serial number:	ORYXHardware model number:	OX4-SRSoftware version number:	ORYX F/W v4.00 Oryx Data Collector v3.7.2.0data status	okinstallation	princeton_trtdifferential loss correction	single-endedforward channel	channel 4reverse channel	N/Adate	2019/09/16time	06:21:35forward acquisition time	60.00reverse acquisition time	0.00gamma	496.2192k internal	0.2320k external	0.2320temperature offset calibration	0.9981default loss term (dB/km)	0.3790temperature slope calibration	1.0000multiplexer offset coefficient	1.0000multiplexer slope coefficient	1.0000fibre end	0.00T internal ref (°C)	27.44T ext. ref 1 (°C)	11.35T ext. ref 2 (°C)	21.64length (m)	temperature (°C)	Stokes	anti-Stokes-747.200	-200.000	0.007	-0.085
-746.185	-133.843	0.274	0.034
-745.171	-161.595	-0.109	-0.006
-744.156	343.223	-0.199	0.394
-743.142	65.083	-0.096	0.098
-742.127	266.462	-0.176	0.310
-741.112	13.788	0.369	0.290
-740.098	385.407	-0.106	0.221
-739.083	-67.948	-0.119	-0.047
-738.069	320.086	-0.088	-0.170
-737.054	-71.736	-0.368	-0.139
-736.039	-59.516	-0.313	-0.136
-735.025	-27.446	0.356	0.209
-734.010	183.411	0.053	-0.079
-732.996	244.807	-0.083	-0.141
-731.981	-57.733	-0.096	0.042
-730.966	-120.455	-0.533	-0.091
-729.952	-52.108	0.094	0.044
-728.937	-11.013	-0.378	-0.252
-727.923	415.166	0.173	-0.373
-726.908	-112.170	0.148	-0.030
-725.894	-55.061	0.136	-0.062
-724.879	-48.813	-0.109	-0.053
-723.864	-71.238	-0.089	-0.034
-722.850	-34.760	0.091	-0.050
-721.835	-120.183	0.496	0.086
-720.821	-183.849	0.271	-0.005
-719.806	-76.314	-0.134	-0.048
-718.791	800.000	0.077	-0.319
-717.777	-154.502	0.180	0.012
-716.762	-200.000	0.000	0.091
-715.748	281.940	-0.064	-0.115
-714.733	-200.000	0.019	-0.095
-713.718	-52.832	-0.190	-0.088
-712.704	244.165	0.137	0.232
-711.689	800.000	-0.054	-0.201
-710.675	157.290	-0.022	-0.030
-709.660	-200.000	0.014	-0.406
-708.645	263.980	-0.050	-0.088
-707.631	120.022	-0.154	-0.192
-706.616	-35.243	-0.394	0.216
-705.602	-200.000	0.016	-0.139
-704.587	-200.000	0.071	0.000
-703.572	-176.528	-0.267	-0.007
-702.558	-40.631	-0.159	-0.083
-701.543	-200.000	0.042	0.358
-700.529	554.767	0.156	0.379
-699.514	-89.152	-0.132	-0.039
-698.499	800.000	-0.113	0.370
-697.485	-118.975	-0.410	-0.072
-696.470	1.830	-0.146	0.107
-695.456	615.205	0.054	0.136
-694.441	-200.000	-0.020	-0.205
-693.426	800.000	-0.068	-0.292
-692.412	70.214	-0.195	-0.203
-691.397	100.948	-0.188	0.221
-690.383	-41.357	-0.193	-0.101
-689.368	296.370	-0.139	-0.258
-688.354	75.751	-0.245	-0.261
-687.339	-175.696	-0.141	-0.004
-686.324	-17.251	0.174	-0.110
-685.310	34.047	0.008	0.007
-684.295	185.798	0.174	-0.261
-683.281	389.570	-0.108	-0.225
-682.266	-200.000	-0.004	-0.097
-681.251	-139.926	-0.161	-0.017
-680.237	-122.176	-0.356	-0.059
-679.222	800.000	0.101	-0.303
-678.208	-81.165	-0.240	-0.080
-677.193	-21.402	-0.103	0.063
-676.178	499.515	-0.056	0.130
-675.164	800.000	0.138	-0.444
-674.149	-200.000	-0.012	0.156
-673.135	800.000	-0.032	0.135
-672.120	-65.511	-0.056	0.023
-671.105	-80.715	0.161	-0.054
-670.091	-43.614	-0.309	-0.157
-669.076	229.805	-0.134	0.221
-668.062	-26.053	0.102	0.060
-667.047	-15.664	-0.031	-0.020
-666.032	475.036	-0.140	-0.318
-665.018	-54.354	-0.182	-0.083
-664.003	44.245	0.101	0.094
-662.989	79.149	0.057	-0.061
-661.974	-45.738	0.152	-0.076
-660.959	-148.516	0.455	-0.037
-659.945	-2.203	0.205	-0.145
-658.930	-200.000	-0.015	0.091
-657.916	-57.398	-0.130	-0.058
-656.901	-36.527	-0.270	-0.147
-655.886	274.911	-0.089	-0.158
-654.872	408.560	-0.117	-0.250
-653.857	145.118	0.061	-0.083
-652.843	441.221	0.018	0.041
-651.828	-63.154	0.303	-0.126
-650.814	800.000	-0.061	-0.179
-649.799	-81.091	-0.228	0.076
-648.784	800.000	-0.058	-0.208
-647.770	514.672	-0.020	0.048
-646.755	422.815	-0.147	0.318
-645.741	-88.640	-0.286	-0.086
-644.726	-200.000	-0.001	0.109
-643.711	-179.230	0.259	-0.006
-642.697	253.201	-0.027	0.046
-641.682	-200.000	0.010	-0.353
-640.668	-119.199	0.250	0.044
-639.653	-120.454	-0.326	0.056
-638.638	-18.884	-0.253	-0.159
-637.624	-63.968	-0.160	0.066
-636.609	328.800	-0.166	0.320
-635.595	32.038	0.105	0.091
-634.580	-200.000	-0.002	0.114
-633.565	630.269	-0.081	-0.205
-632.551	10.835	0.113	0.087
-631.536	-200.000	-0.005	0.194
-630.522	-163.353	-0.275	0.013
-629.507	800.000	-0.180	-0.658
-628.492	254.958	0.093	-0.160
-627.478	-18.521	-0.296	0.186
-626.463	800.000	0.076	-0.256
-625.449	1.624	-0.261	0.189
-624.434	800.000	-0.104	-0.398
-623.419	30.504	-0.168	0.144
-622.405	-117.224	0.258	0.047
-621.390	-137.493	-0.350	-0.040
-620.376	-153.473	0.323	0.023
-619.361	59.758	-0.079	-0.078
-618.346	-116.874	-0.236	0.043
-617.332	800.000	0.045	0.142
-616.317	-160.093	-0.319	-0.017
-615.303	-78.781	-0.133	0.046
-614.288	-200.000	-0.022	0.167
-613.273	740.619	-0.066	0.177
-612.259	800.000	0.036	0.149
-611.244	-200.000	-0.064	0.298
-610.230	-37.109	-0.165	0.089
-609.215	140.971	0.041	0.055
-608.201	730.148	0.106	-0.285
-607.186	5.886	-0.311	0.232
-606.171	345.441	0.229	0.452
-605.157	800.000	-0.040	0.168
-604.142	272.519	-0.154	-0.272
-603.128	-186.259	-0.252	0.004
-602.113	228.675	-0.031	0.051
-601.098	-8.375	0.322	0.218
-600.084	-2.020	-0.077	-0.055
-599.069	-131.556	0.502	0.067
-598.055	800.000	0.066	-0.254
-597.040	78.352	-0.047	-0.050
-596.025	-200.000	-0.023	0.123
-595.011	247.736	-0.175	-0.297
-593.996	66.544	0.066	0.067
-592.982	-108.233	-0.192	-0.042
-591.967	189.986	-0.210	-0.316
-590.952	58.875	-0.075	0.074
-589.938	-108.230	-0.237	-0.052
-588.923	-85.987	-0.245	-0.076
-587.909	-200.000	-0.030	-0.259
-586.894	-170.117	0.053	0.002
-585.879	800.000	0.057	-0.189
-584.865	-176.674	0.080	0.002
-583.850	33.428	0.246	-0.215
-582.836	-50.700	0.140	-0.066
-581.821	-200.000	-0.001	-0.161
-580.806	-159.715	-0.244	-0.014
-579.792	71.943	0.235	-0.245
-578.777	153.270	0.250	0.344
-577.763	-200.000	-0.007	-0.268
-576.748	171.404	-0.071	-0.103
-575.733	-21.514	0.424	0.260
-574.719	-128.915	0.160	0.023
-573.704	-84.683	-0.194	-0.061
-572.690	761.854	-0.043	0.117
-571.675	73.599	-0.072	-0.076
-570.661	0.611	0.079	-0.057
-569.646	-95.157	-0.278	0.075
-568.631	76.445	0.420	0.447
-567.617	-32.844	-0.395	0.220
-566.602	-40.239	-0.272	0.142
-565.588	-200.000	-0.011	0.270
-564.573	-21.058	-0.134	0.082
-563.558	-200.000	-0.029	-0.180
-562.544	-200.000	0.060	-0.298
-561.529	35.543	-0.138	0.122
-560.515	9.074	-0.129	-0.098
-559.500	800.000	-0.044	0.136
-558.485	800.000	0.052	0.183
-557.471	85.511	0.163	-0.179
-556.456	-133.192	0.258	-0.033
-555.442	-200.000	-0.003	-0.258
-554.427	800.000	0.080	-0.233
-553.412	10.257	-0.082	0.063
-552.398	-142.324	0.033	0.003
-551.383	9.580	0.209	0.159
-550.369	-200.000	-0.012	0.559
-549.354	58.222	0.200	0.196
-548.339	48.725	-0.072	-0.068
-547.325	26.726	0.085	-0.071
-546.310	-46.591	0.308	-0.151
-545.296	-14.690	-0.196	0.126
-544.281	800.000	-0.034	0.125
-543.266	-6.998	-0.116	-0.079
-542.252	100.508	0.141	-0.165
-541.237	457.488	0.061	-0.136
-540.223	-21.766	-0.232	-0.142
-539.208	-200.000	-0.088	0.608
-538.193	586.102	0.098	0.242
-537.179	-90.398	-0.070	0.020
-536.164	179.504	-0.147	0.216
-535.150	300.012	-0.167	-0.309
-534.135	-152.671	0.300	0.021
-533.121	240.340	0.044	-0.074
-532.106	800.000	-0.045	-0.173
-531.091	-167.636	0.256	-0.010
-530.077	800.000	0.063	-0.229
-529.062	-53.313	-0.335	-0.154
-528.048	395.806	0.199	0.416
-527.033	25.315	-0.106	-0.089
-526.018	-200.000	0.004	-0.089
-525.004	185.967	-0.210	-0.314
-523.989	-42.956	0.028	-0.014
-522.975	-72.580	0.096	0.035
-521.960	44.277	0.107	-0.099
-520.945	-171.331	0.110	-0.004
-519.931	-96.220	0.181	0.048
-518.916	11.854	-0.182	0.140
-517.902	-44.607	-0.071	0.035
-516.887	-162.189	-0.216	0.011
-515.872	-200.000	0.011	0.088
-514.858	179.310	-0.263	0.386
-513.843	-200.000	-0.048	0.212
-512.829	634.934	-0.094	0.239
-511.814	-200.000	-0.039	0.289
-510.799	-71.006	0.148	0.056
-509.785	800.000	-0.066	-0.196
-508.770	179.491	0.066	0.097
-507.756	-200.000	-0.031	-0.218
-506.741	-108.600	0.178	-0.038
-505.726	-200.000	-0.030	-0.397
-504.712	162.384	0.271	0.381
-503.697	-118.692	0.165	0.029
-502.683	-200.000	0.044	0.245
-501.668	-200.000	-0.035	0.155
-500.653	-150.113	0.320	-0.025
-499.639	-107.826	0.385	-0.084
-498.624	-71.518	0.142	0.053
-497.610	-200.000	0.010	0.223
-496.595	-196.375	0.213	-0.001
-495.581	-83.713	-0.264	-0.084
-494.566	3.312	0.277	0.202
-493.551	-64.374	-0.410	-0.167
-492.537	293.705	0.210	-0.384
-491.522	-200.000	-0.001	-0.162
-490.508	-116.254	-0.260	-0.048
-489.493	-108.737	-0.283	0.061
-488.478	-134.293	0.217	-0.027
-487.464	-112.414	-0.248	0.050
-486.449	42.669	0.107	0.098
-485.435	-200.000	0.021	0.136
-484.420	-6.226	-0.546	0.373
-483.405	127.036	-0.318	0.404
-482.391	-200.000	0.001	-0.177
-481.376	-42.474	0.060	-0.031
-480.362	-200.000	0.038	0.260
-479.347	-200.000	-0.014	-0.074
-478.332	800.000	-0.067	-0.258
-477.318	-164.094	-0.135	-0.006
-476.303	319.691	-0.093	0.177
-475.289	354.484	0.069	0.138
-474.274	-101.271	0.184	-0.045
-473.259	-200.000	0.012	-0.208
-472.245	171.304	0.120	-0.172
-471.230	151.089	-0.161	0.220
-470.216	-57.099	0.221	0.097
-469.201	-94.692	0.062	0.017
-468.186	-200.000	-0.002	0.430
-467.172	800.000	0.105	0.321
-466.157	-52.363	0.222	-0.103
-465.143	-68.764	0.085	0.033
-464.128	52.725	-0.261	-0.249
-463.113	-79.618	0.101	0.034
-462.099	189.720	-0.077	-0.115
-461.084	-87.555	-0.566	-0.171
-460.070	-6.465	-0.352	-0.240
-459.055	135.068	-0.224	-0.291
-458.040	-200.000	-0.047	0.318
-457.026	-163.155	0.619	0.030
-456.011	116.902	-0.028	-0.034
-454.997	56.151	0.143	0.139
-453.982	799.553	0.041	-0.114
-452.968	-196.161	-0.217	-0.002
-451.953	-200.000	-0.003	0.231
-450.938	-9.008	0.157	0.105
-449.924	673.164	-0.062	0.161
-448.909	800.000	0.057	0.180
-447.895	87.838	-0.170	-0.188
-446.880	-73.627	-0.335	-0.122
-445.865	-73.100	0.395	-0.145
-444.851	-64.352	-0.260	0.106
-443.836	66.402	-0.169	0.171
-442.822	-58.968	-0.163	-0.070
-441.807	-200.000	-0.021	0.284
-440.792	-7.364	-0.140	0.095
-439.778	-37.505	0.222	0.118
-438.763	120.912	0.068	0.084
-437.749	-69.912	-0.207	0.079
-436.734	70.587	-0.192	-0.199
-435.719	15.810	0.290	-0.228
-434.705	800.000	-0.055	-0.239
-433.690	243.309	-0.066	0.111
-432.676	800.000	0.063	0.244
-431.661	-126.921	-0.184	-0.027
-430.646	181.750	0.109	-0.160
-429.632	35.304	0.242	-0.212
-428.617	800.000	0.084	-0.280
-427.603	-32.479	0.166	-0.093
-426.588	-54.401	-0.318	-0.144
-425.573	-80.396	0.057	-0.019
-424.559	-111.603	-0.248	-0.050
-423.544	-109.256	0.389	-0.082
-422.530	111.614	-0.227	-0.273
-421.515	-111.523	-0.112	-0.023
-420.500	93.788	0.128	0.145
-419.486	-200.000	0.015	-0.128
-418.471	800.000	0.177	-0.527
-417.457	800.000	0.060	0.205
-416.442	229.254	0.102	0.167
-415.428	599.912	-0.019	0.046
-414.413	-71.821	-0.114	-0.042
-413.398	-7.476	-0.264	0.178
-412.384	399.982	0.094	0.197
-411.369	-87.477	-0.207	0.063
-410.355	-200.000	0.013	0.229
-409.340	-56.995	0.326	-0.144
-408.325	-200.000	0.005	0.236
-407.311	800.000	-0.081	-0.326
-406.296	-115.270	0.403	-0.076
-405.282	-128.909	0.052	-0.007
-404.267	800.000	-0.125	-0.354
-403.252	-105.235	-0.410	-0.093
-402.238	800.000	0.052	0.162
-401.223	35.776	-0.253	-0.222
-400.209	-60.141	0.245	-0.104
-399.194	412.545	-0.182	0.386
-398.179	-4.741	0.354	-0.243
-397.165	89.302	0.214	0.237
-396.150	358.975	-0.147	-0.294
-395.136	-45.074	-0.365	-0.181
-394.121	800.000	-0.021	-0.082
-393.106	286.753	-0.091	-0.164
-392.092	-77.699	-0.150	0.052
-391.077	-141.615	-0.255	0.026
-390.063	-84.576	0.119	-0.038
-389.048	800.000	-0.024	0.065
-388.033	68.749	-0.253	0.258
-387.019	149.178	-0.053	-0.072
-386.004	-200.000	-0.025	-0.140
-384.990	800.000	0.069	0.229
-383.975	-200.000	0.004	0.457
-382.960	689.379	0.037	0.097
-381.946	403.338	0.015	-0.032
-380.931	800.000	0.029	0.094
-379.917	172.884	0.077	-0.111
-378.902	-32.474	0.248	-0.138
-377.888	7.590	-0.258	-0.192
-376.873	-97.691	0.420	-0.108
-375.858	113.782	0.125	0.152
-374.844	352.421	-0.050	-0.100
-373.829	800.000	-0.027	-0.098
-372.815	-77.114	-0.168	-0.059
-371.800	800.000	0.091	-0.269
-370.785	-148.336	0.190	-0.016
-369.771	175.327	0.024	-0.034
-368.756	13.272	0.084	-0.065
-367.742	295.840	0.130	0.237
-366.727	-200.000	-0.032	0.207
-365.712	52.230	-0.124	0.118
-364.698	31.295	0.174	0.149
-363.683	-7.139	-0.079	0.053
-362.669	721.012	-0.194	0.515
-361.654	-145.434	-0.179	-0.016
-360.639	800.000	-0.089	-0.259
-359.625	-200.000	0.011	0.287
-358.610	-13.073	-0.100	0.065
-357.596	-200.000	0.028	-0.250
-356.581	13.637	-0.355	0.274
-355.566	556.213	-0.037	-0.090
-354.552	-142.289	-0.068	-0.007
-353.537	260.208	-0.117	0.201
-352.523	10.188	0.161	-0.122
-351.508	38.376	0.044	0.039
-350.493	-156.914	0.260	0.016
-349.479	-80.529	-0.207	-0.069
-348.464	-7.363	0.255	0.172
-347.450	-92.299	-0.068	-0.019
-346.435	-200.000	0.008	0.128
-345.420	-161.505	0.263	0.013
-344.406	-60.609	-0.184	-0.078
-343.391	39.107	-0.263	0.234
-342.377	-200.000	-0.017	0.327
-341.362	-87.745	0.130	0.039
-340.348	15.498	0.082	0.064
-339.333	-15.567	-0.153	0.097
-338.318	-200.000	0.001	0.146
-337.304	-172.619	0.169	0.005
-336.289	-153.409	0.268	0.019
-335.275	179.849	0.127	-0.185
-334.260	-200.000	-0.056	-0.289
-333.245	-75.150	-0.083	-0.030
-332.231	-142.766	-0.206	-0.020
-331.216	-89.940	0.192	0.056
-330.202	-62.054	-0.161	0.067
-329.187	398.127	0.216	0.450
-328.172	6.596	-0.176	-0.130
-327.158	53.101	0.240	0.229
-326.143	-117.123	-0.193	-0.035
-325.129	38.019	-0.039	-0.035
-324.114	800.000	0.134	-0.459
-323.099	-200.000	0.026	-0.294
-322.085	285.156	0.052	0.094
-321.070	800.000	0.062	0.176
-320.056	8.167	-0.205	0.153
-319.041	38.229	0.442	0.392
-318.026	-5.068	-0.271	0.186
-317.012	-200.000	-0.050	0.245
-315.997	118.936	-0.042	-0.051
-314.983	-130.809	-0.028	-0.004
-313.968	-200.000	0.012	-0.263
-312.953	800.000	0.058	-0.247
-311.939	800.000	0.035	-0.124
-310.924	133.380	0.168	0.216
-309.910	-18.218	0.206	0.128
-308.895	3.527	0.149	0.108
-307.880	38.676	0.185	0.164
-306.866	19.807	-0.138	-0.110
-305.851	17.050	0.192	-0.151
-304.837	298.478	-0.208	-0.380
-303.822	502.568	-0.033	0.077
-302.807	-200.000	0.023	-0.154
-301.793	-95.930	0.288	-0.076
-300.778	-200.000	-0.021	-0.104
-299.764	-200.000	-0.018	-0.252
-298.749	84.371	-0.071	-0.077
-297.735	47.542	0.033	-0.031
-296.720	-200.000	0.013	-0.181
-295.705	647.922	-0.114	0.289
-294.691	-127.085	0.145	-0.021
-293.676	33.678	0.229	0.198
-292.662	-200.000	-0.020	0.220
-291.647	111.710	-0.154	0.185
-290.632	3.962	-0.015	0.011
-289.618	-32.162	0.113	0.063
-288.603	-176.908	0.320	-0.008
-287.589	9.552	0.314	-0.237
-286.574	64.582	0.196	0.196
-285.559	22.443	0.137	-0.111
-284.545	-88.280	-0.213	-0.063
-283.530	582.204	-0.128	0.311
-282.516	41.929	0.348	-0.313
-281.501	-200.000	0.037	-0.327
-280.486	-6.805	0.175	0.118
-279.472	-84.315	-0.135	0.042
-278.457	505.809	-0.058	-0.134
-277.443	-109.986	0.244	0.051
-276.428	-42.284	-0.175	-0.089
-275.413	122.922	0.074	-0.092
-274.399	-200.000	-0.080	0.354
-273.384	6.847	-0.091	-0.067
-272.370	-115.994	-0.154	0.028
-271.355	46.727	0.054	0.049
-270.340	27.951	0.212	0.177
-269.326	-39.808	0.140	0.072
-268.311	-200.000	-0.081	-0.430
-267.297	-200.000	-0.031	-0.285
-266.282	226.344	-0.017	0.028
-265.267	450.630	0.172	-0.377
-264.253	-29.214	-0.212	-0.121
-263.238	72.535	-0.164	0.170
-262.224	73.172	-0.191	-0.198
-261.209	-24.852	-0.391	0.230
-260.195	-188.559	0.202	0.002
-259.180	61.854	0.092	0.091
-258.165	225.616	0.163	0.262
-257.151	20.835	0.340	-0.273
-256.136	416.937	-0.116	-0.247
-255.122	-25.016	-0.314	-0.185
-254.107	-157.209	-0.340	-0.020
-253.092	-145.161	-0.507	0.046
-252.078	-53.856	0.154	0.070
-251.063	326.383	-0.141	0.268
-250.049	53.917	0.178	0.170
-249.034	469.642	0.186	-0.415
-248.019	25.381	0.114	-0.094
-247.005	-31.338	0.211	-0.118
-245.990	71.562	0.144	-0.149
-244.976	450.808	-0.021	0.046
-243.961	228.269	0.132	0.213
-242.946	-200.000	0.035	-0.200
-241.932	7.428	-0.078	-0.058
-240.917	245.236	-0.233	-0.388
-239.903	232.947	-0.046	-0.075
-238.888	201.364	0.227	0.347
-237.873	146.506	-0.178	0.237
-236.859	185.865	0.182	-0.269
-235.844	105.368	-0.053	0.062
-234.830	30.533	0.101	0.086
-233.815	325.468	-0.094	0.178
-232.800	354.741	-0.171	-0.337
-231.786	800.000	-0.085	-0.240
-230.771	-200.000	-0.017	0.159
-229.757	335.588	0.027	-0.051
-228.742	-25.419	-0.194	0.114
-227.727	-30.729	0.219	0.123
-226.713	-103.031	-0.115	0.027
-225.698	89.715	-0.136	-0.151
-224.684	-200.000	-0.001	-0.117
-223.669	-171.471	0.194	-0.006
-222.655	-122.530	0.306	0.049
-221.640	473.177	0.132	-0.295
-220.625	-200.000	0.023	0.114
-219.611	-83.138	0.295	-0.094
-218.596	-16.213	-0.235	-0.148
-217.582	-200.000	0.016	-0.251
-216.567	32.341	-0.102	-0.087
-215.552	772.268	-0.071	-0.192
-214.538	-181.800	-0.108	-0.002
-213.523	160.502	0.068	0.094
-212.509	611.752	0.080	-0.199
-211.494	-103.410	-0.097	-0.023
-210.479	-168.565	0.196	-0.007
-209.465	-200.000	-0.065	-0.317
-208.450	328.046	-0.182	-0.346
-207.436	-200.000	0.032	-0.180
-206.421	55.209	-0.234	-0.224
-205.406	-200.000	0.037	0.300
-204.392	122.480	0.090	0.111
-203.377	-110.916	0.040	0.008
-202.363	-5.186	-0.327	-0.223
-201.348	800.000	0.071	-0.294
-200.333	240.204	-0.106	-0.175
-199.319	-200.000	0.019	0.311
-198.304	-30.020	-0.174	-0.098
-197.290	-39.666	0.164	-0.085
-196.275	-28.852	0.214	0.122
-195.260	-90.922	0.153	-0.044
-194.246	118.299	0.145	-0.178
-193.231	800.000	0.056	0.163
-192.217	-103.008	0.184	-0.043
-191.202	34.396	-0.136	0.117
-190.187	224.149	-0.152	-0.243
-189.173	128.702	0.149	-0.188
-188.158	800.000	-0.067	-0.183
-187.144	-200.000	-0.021	-0.124
-186.129	-102.282	0.143	-0.034
-185.114	-128.314	-0.233	0.033
-184.100	-200.000	0.009	0.286
-183.085	-72.384	0.236	0.087
-182.071	-5.469	-0.248	0.168
-181.056	800.000	0.012	-0.039
-180.042	-200.000	-0.009	-0.314
-179.027	486.798	-0.089	0.202
-178.012	800.000	-0.116	0.458
-176.998	301.403	-0.087	0.159
-175.983	24.377	0.210	0.171
-174.969	43.772	0.028	-0.025
-173.954	-177.025	0.425	0.011
-172.939	800.000	0.029	0.107
-171.925	-22.557	0.231	0.138
-170.910	21.791	0.200	-0.161
-169.896	-19.169	0.065	0.040
-168.881	15.986	-0.307	0.239
-167.866	624.186	-0.041	0.102
-166.852	800.000	0.053	-0.173
-165.837	-108.900	-0.135	-0.028
-164.823	223.348	0.066	0.104
-163.808	91.841	0.221	0.245
-162.793	800.000	0.028	0.104
-161.779	-167.697	0.268	-0.010
-160.764	73.652	0.180	-0.187
-159.750	521.557	0.091	0.212
-158.735	2.944	0.617	-0.443
-157.720	13.903	0.033	0.025
-156.706	-82.355	-0.113	0.036
-155.691	81.927	0.126	0.135
-154.677	-200.000	0.108	-0.523
-153.662	97.878	-0.168	0.191
-152.647	119.952	0.125	-0.153
-151.633	-46.210	0.096	0.047
-150.618	800.000	0.039	-0.125
-149.604	-200.000	-0.025	-0.134
-148.589	-147.415	0.263	-0.022
-147.574	-30.882	-0.181	0.101
-146.560	199.330	0.126	-0.191
-145.545	-150.105	0.241	-0.019
-144.531	198.303	-0.040	-0.061
-143.516	-48.003	0.156	0.074
-142.502	-62.825	0.126	0.052
-141.487	800.000	0.050	-0.167
-140.472	-200.000	-0.007	-0.166
-139.458	326.035	0.036	-0.069
-138.443	-74.749	-0.040	0.014
-137.429	-68.055	0.380	-0.146
-136.414	474.316	-0.060	0.134
-135.399	-84.656	0.148	-0.046
-134.385	163.905	0.038	-0.052
-133.370	-120.625	0.480	-0.080
-132.356	93.394	-0.135	-0.150
-131.341	166.421	-0.099	-0.138
-130.326	800.000	0.027	-0.081
-129.312	-108.646	-0.066	0.014
-128.297	-200.000	0.042	-0.219
-127.283	36.119	-0.197	-0.171
-126.268	108.244	0.129	-0.152
-125.253	18.927	-0.153	0.121
-124.239	26.060	-0.133	-0.110
-123.224	36.392	0.132	0.115
-122.210	318.017	-0.142	0.266
-121.195	-27.579	0.424	0.243
