DTS Sentinel unit serial number:	SN413079Multiplexer serial number:	ORYXHardware model number:	OX4-SRSoftware version number:	ORYX F/W v4.00 Oryx Data Collector v3.7.2.0data status	okinstallation	princeton_trtdifferential loss correction	single-endedforward channel	channel 4reverse channel	N/Adate	2019/09/15time	05:37:35forward acquisition time	60.00reverse acquisition time	0.00gamma	496.2192k internal	0.2311k external	0.2311temperature offset calibration	1.0032default loss term (dB/km)	0.3790temperature slope calibration	1.0000multiplexer offset coefficient	1.0000multiplexer slope coefficient	1.0000fibre end	0.00T internal ref (°C)	30.62T ext. ref 1 (°C)	4.78T ext. ref 2 (°C)	25.77length (m)	temperature (°C)	Stokes	anti-Stokes-747.200	800.000	0.066	-0.278
-746.185	800.000	0.055	0.230
-745.171	-174.001	0.456	0.014
-744.156	-200.000	-0.014	-0.235
-743.142	258.353	-0.042	0.073
-742.127	-77.540	0.248	-0.087
-741.112	800.000	-0.055	-0.206
-740.098	-78.229	-0.407	0.142
-739.083	-181.182	-0.090	-0.002
-738.069	-96.205	-0.305	-0.082
-737.054	-174.637	-0.271	0.008
-736.039	-154.960	-0.087	-0.006
-735.025	-164.339	0.248	0.012
-734.010	114.164	0.160	-0.198
-732.996	66.255	-0.116	0.120
-731.981	-7.545	-0.245	0.168
-730.966	-108.780	-0.267	0.058
-729.952	253.281	0.196	-0.339
-728.937	800.000	-0.132	0.527
-727.923	-64.256	-0.057	-0.023
-726.908	607.909	-0.201	-0.509
-725.894	56.002	-0.273	0.269
-724.879	141.278	-0.081	0.109
-723.864	-200.000	0.001	0.328
-722.850	23.826	-0.119	0.100
-721.835	-136.501	-0.250	-0.029
-720.821	556.396	-0.033	0.081
-719.806	73.921	0.068	-0.073
-718.791	-56.539	-0.212	-0.095
-717.777	-2.277	-0.065	-0.046
-716.762	-97.491	-0.184	0.048
-715.748	-200.000	0.036	-0.173
-714.733	-200.000	0.051	0.248
-713.718	-116.024	0.087	-0.016
-712.704	42.496	-0.104	-0.096
-711.689	-200.000	0.002	0.085
-710.675	101.048	-0.087	0.103
-709.660	-121.345	0.271	-0.046
-708.645	466.394	0.093	0.211
-707.631	480.057	-0.036	0.083
-706.616	-22.945	0.140	0.086
-705.602	329.113	-0.143	0.280
-704.587	552.618	0.063	0.153
-703.572	68.588	-0.095	-0.099
-702.558	245.603	-0.113	-0.193
-701.543	-171.675	0.190	0.006
-700.529	-166.304	-0.122	-0.005
-699.514	-200.000	0.245	-0.000
-698.499	49.341	-0.048	0.046
-697.485	28.731	0.177	-0.152
-696.470	-94.186	-0.162	0.045
-695.456	-107.042	-0.381	0.085
-694.441	163.060	0.166	0.236
-693.426	359.452	-0.039	0.079
-692.412	-3.513	-0.038	-0.026
-691.397	800.000	0.054	-0.188
-690.383	-42.022	0.302	0.157
-689.368	42.651	0.132	0.121
-688.354	-154.347	0.227	-0.015
-687.339	800.000	0.138	0.394
-686.324	-51.753	-0.403	0.190
-685.310	47.430	0.222	0.209
-684.295	-138.689	-0.152	0.017
-683.281	-200.000	0.072	-0.378
-682.266	27.641	-0.112	0.095
-681.251	-127.647	-0.172	-0.025
-680.237	-101.261	-0.291	0.072
-679.222	169.212	-0.114	0.164
-678.208	5.592	0.052	-0.039
-677.193	-107.534	-0.071	0.016
-676.178	-200.000	-0.062	-0.319
-675.164	-146.072	-0.070	-0.006
-674.149	-79.811	0.083	0.028
-673.135	136.978	0.081	0.107
-672.120	-200.000	0.020	-0.171
-671.105	-89.978	-0.311	0.092
-670.091	16.977	0.304	0.244
-669.076	132.927	0.086	0.112
-668.062	800.000	-0.034	0.099
-667.047	-124.062	0.418	-0.066
-666.032	3.099	-0.074	-0.055
-665.018	800.000	0.116	-0.361
-664.003	120.865	0.094	-0.119
-662.989	-107.319	-0.377	-0.084
-661.974	96.279	-0.139	-0.161
-660.959	-118.140	0.381	-0.069
-659.945	357.868	-0.112	-0.225
-658.930	87.958	-0.192	-0.215
-657.916	-200.000	-0.012	0.081
-656.901	118.495	0.338	0.422
-655.886	470.724	-0.097	0.221
-654.872	-80.673	-0.225	0.076
-653.857	-168.283	-0.041	0.002
-652.843	-88.057	0.224	0.068
-651.828	800.000	-0.050	-0.157
-650.814	84.716	0.126	-0.140
-649.799	118.872	-0.231	-0.289
-648.784	800.000	-0.043	-0.174
-647.770	326.502	0.091	-0.176
-646.755	67.388	0.095	-0.098
-645.741	326.311	-0.141	-0.272
-644.726	50.693	-0.172	-0.164
-643.711	-127.609	-0.366	-0.054
-642.697	800.000	0.106	0.297
-641.682	-164.700	0.111	-0.005
-640.668	-46.996	0.052	0.026
-639.653	800.000	0.038	-0.155
-638.638	83.926	-0.296	0.327
-637.624	-152.554	-0.170	0.012
-636.609	-93.475	-0.189	0.053
-635.595	89.598	0.136	0.153
-634.580	-4.716	0.077	-0.054
-633.565	166.701	0.099	-0.142
-632.551	2.575	-0.019	-0.014
-631.536	77.539	-0.131	0.141
-630.522	-53.083	0.294	-0.137
-629.507	-200.000	-0.030	-0.241
-628.492	-23.009	-0.249	-0.152
-627.478	-59.615	-0.230	0.100
-626.463	-88.321	0.175	0.053
-625.449	120.151	-0.169	0.212
-624.434	-91.495	-0.461	0.133
-623.419	-91.357	0.212	-0.061
-622.405	53.997	0.114	0.111
-621.390	679.382	0.048	0.126
-620.376	515.660	0.075	0.177
-619.361	-1.959	-0.235	0.167
-618.346	-56.610	-0.059	0.026
-617.332	-200.000	0.033	0.282
-616.317	249.781	0.093	-0.160
-615.303	-93.749	-0.283	-0.079
-614.288	800.000	0.059	0.214
-613.273	-200.000	0.024	0.131
-612.259	-66.817	-0.207	0.083
-611.244	-127.591	0.111	0.016
-610.230	-200.000	-0.002	0.075
-609.215	-200.000	0.023	-0.228
-608.201	-151.567	-0.355	0.026
-607.186	800.000	0.021	0.085
-606.171	-179.529	0.203	-0.004
-605.157	-158.136	0.250	0.015
-604.142	-200.000	0.059	-0.560
-603.128	-200.000	0.022	0.412
-602.113	-68.347	-0.302	0.118
-601.098	-132.030	-0.198	-0.026
-600.084	800.000	-0.014	-0.046
-599.069	-117.030	-0.102	-0.019
-598.055	76.558	-0.075	-0.080
-597.040	-71.502	0.174	-0.066
-596.025	-200.000	-0.011	0.376
-595.011	-68.627	0.055	0.022
-593.996	457.722	-0.100	0.225
-592.982	-107.525	0.167	-0.037
-591.967	-200.000	0.012	-0.121
-590.952	800.000	-0.040	-0.128
-589.938	11.712	-0.119	-0.092
-588.923	579.042	0.069	-0.169
-587.909	-136.769	-0.222	0.026
-586.894	-75.772	0.183	0.065
-585.879	-171.253	-0.150	-0.005
-584.865	-2.624	0.093	0.066
-583.850	-200.000	0.035	-0.344
-582.836	66.183	0.119	-0.122
-581.821	-200.000	0.037	0.218
-580.806	800.000	-0.122	0.405
-579.792	76.457	0.126	-0.134
-578.777	473.099	-0.111	0.252
-577.763	-132.438	0.372	0.048
-576.748	-124.398	0.046	-0.007
-575.733	-200.000	-0.019	0.168
-574.719	242.358	0.039	0.066
-573.704	-157.499	0.189	-0.011
-572.690	-3.895	0.162	-0.113
-571.675	215.837	-0.041	0.065
-570.661	-41.089	0.121	-0.063
-569.646	-153.575	-0.034	0.002
-568.631	-200.000	-0.019	0.193
-567.617	330.958	0.208	-0.404
-566.602	-70.382	0.137	-0.053
-565.588	19.774	-0.021	-0.017
-564.573	-185.369	0.151	0.002
-563.558	-11.487	-0.145	-0.096
-562.544	176.529	-0.161	-0.235
-561.529	800.000	0.050	0.192
-560.515	20.452	0.204	0.166
-559.500	-130.132	-0.067	-0.009
-558.485	-86.675	-0.392	-0.121
-557.471	74.242	-0.052	-0.055
-556.456	-88.990	-0.294	-0.088
-555.442	-29.819	-0.164	0.094
-554.427	376.261	0.219	0.451
-553.412	512.929	-0.067	-0.156
-552.398	-113.492	0.105	-0.021
-551.383	-168.286	-0.167	0.006
-550.369	-40.888	-0.339	0.177
-549.354	-200.000	-0.003	-0.065
-548.339	6.799	-0.197	0.148
-547.325	173.848	-0.224	0.326
-546.310	-84.771	0.291	0.092
-545.296	-83.527	0.086	-0.028
-544.281	-156.636	0.143	-0.009
-543.266	-148.569	-0.269	-0.022
-542.252	-59.485	-0.441	-0.191
-541.237	-35.125	0.008	-0.005
-540.223	800.000	0.030	-0.133
-539.208	800.000	0.048	0.158
-538.193	800.000	0.044	0.137
-537.179	-112.769	-0.114	0.023
-536.164	-177.136	-0.075	0.002
-535.150	-200.000	-0.010	0.309
-534.135	131.846	-0.123	0.160
-533.121	-200.000	0.007	0.251
-532.106	-148.719	0.211	-0.017
-531.091	800.000	-0.077	-0.323
-530.077	51.599	-0.088	-0.085
-529.062	-70.671	0.159	-0.060
-528.048	13.240	-0.220	-0.171
-527.033	-114.674	-0.186	-0.036
-526.018	-100.403	-0.352	-0.088
-525.004	-56.548	0.185	-0.082
-523.989	-67.225	-0.066	-0.026
-522.975	-7.539	-0.110	0.075
-521.960	-37.485	-0.172	0.092
-520.945	-128.607	0.116	0.017
-519.931	295.287	0.093	0.171
-518.916	133.111	-0.085	-0.111
-517.902	204.776	0.123	-0.192
-516.887	-95.996	0.127	-0.034
-515.872	-200.000	-0.051	-0.310
-514.858	-200.000	-0.034	-0.296
-513.843	-200.000	0.025	-0.333
-512.829	-200.000	-0.005	0.089
-511.814	-39.667	-0.211	-0.111
-510.799	141.591	-0.231	-0.307
-509.785	283.619	0.153	0.276
-508.770	-200.000	0.016	-0.086
-507.756	115.766	-0.212	0.261
-506.741	-53.352	-0.177	0.082
-505.726	305.428	0.027	0.051
-504.712	391.254	0.134	-0.280
-503.697	-91.095	-0.199	-0.057
-502.683	-34.494	-0.412	0.227
-501.668	-114.248	0.189	0.037
-500.653	-140.914	0.376	-0.039
-499.639	279.388	0.035	-0.063
-498.624	-50.219	0.129	0.061
-497.610	-200.000	-0.019	0.384
-496.595	96.455	0.058	0.067
-495.581	365.786	0.183	0.371
-494.566	220.762	-0.136	0.219
-493.551	72.499	-0.185	0.194
-492.537	39.553	-0.187	0.169
-491.522	170.427	0.090	-0.129
-490.508	-119.255	0.223	-0.039
-489.493	800.000	0.046	0.181
-488.478	-200.000	-0.001	0.027
-487.464	148.294	0.155	0.210
-486.449	551.110	0.102	0.247
-485.435	2.498	0.048	0.035
-484.420	800.000	-0.050	-0.215
-483.405	69.985	-0.232	-0.241
-482.391	35.748	0.282	-0.249
-481.376	-89.061	0.169	0.050
-480.362	-27.996	-0.302	0.175
-479.347	-152.452	0.056	-0.004
-478.332	300.106	0.153	0.284
-477.318	60.095	0.139	-0.138
-476.303	-136.538	-0.067	0.008
-475.289	582.452	0.048	0.119
-474.274	306.237	-0.124	-0.232
-473.259	-64.793	0.271	-0.110
-472.245	-200.000	-0.011	0.300
-471.230	800.000	-0.032	-0.125
-470.216	-15.084	0.170	0.109
-469.201	-58.135	0.229	0.100
-468.186	329.864	-0.145	0.279
-467.172	95.453	-0.110	-0.126
-466.157	-147.213	0.213	0.018
-465.143	800.000	-0.031	-0.134
-464.128	94.744	0.012	0.014
-463.113	733.559	-0.077	0.206
-462.099	-12.322	0.058	-0.038
-461.084	140.808	0.251	-0.333
-460.070	-69.614	-0.165	0.063
-459.055	38.242	0.150	-0.134
-458.040	-103.672	-0.265	-0.062
-457.026	256.383	0.060	0.103
-456.011	-200.000	0.029	-0.192
-454.997	247.764	-0.154	-0.261
-453.982	-200.000	-0.015	-0.202
-452.968	-165.389	-0.308	-0.014
-451.953	-195.651	-0.311	-0.002
-450.938	800.000	-0.035	-0.110
-449.924	800.000	-0.073	-0.245
-448.909	-152.446	-0.046	-0.003
-447.895	-48.784	-0.134	-0.064
-446.880	-83.008	-0.124	-0.040
-445.865	411.305	-0.133	-0.282
-444.851	-74.593	-0.287	0.104
-443.836	-18.745	0.119	0.075
-442.822	-112.770	-0.133	-0.026
-441.807	-200.000	-0.029	0.144
-440.792	266.165	-0.129	-0.225
-439.778	5.230	-0.230	0.170
-438.763	57.619	0.258	0.253
-437.749	-85.228	-0.485	0.152
-436.734	279.240	0.157	-0.281
-435.719	-200.000	-0.016	-0.142
-434.705	662.563	-0.060	-0.154
-433.690	-115.895	0.408	-0.076
-432.676	-200.000	-0.049	0.266
-431.661	-26.634	-0.605	0.355
-430.646	789.593	0.009	-0.024
-429.632	-144.962	0.307	0.028
-428.617	-176.097	0.094	0.002
-427.603	45.379	0.459	0.425
-426.588	27.019	-0.178	0.150
-425.573	466.450	0.030	-0.068
-424.559	4.939	0.170	-0.126
-423.544	-106.327	0.221	0.049
-422.530	18.704	0.262	-0.210
-421.515	-200.000	0.023	0.126
-420.500	-200.000	0.001	0.176
-419.486	0.945	0.068	-0.049
-418.471	31.595	-0.070	0.060
-417.457	277.579	0.075	0.133
-416.442	-23.029	0.507	-0.306
-415.428	-121.736	0.059	-0.010
-414.413	-153.507	-0.193	-0.013
-413.398	-43.247	-0.089	-0.045
-412.384	-200.000	0.020	0.210
-411.369	-78.939	-0.349	0.119
-410.355	-115.868	-0.338	0.063
-409.340	33.125	0.116	-0.101
-408.325	800.000	-0.021	0.083
-407.311	-188.191	0.404	0.005
-406.296	119.904	-0.144	-0.179
-405.282	-200.000	0.033	-0.208
-404.267	-56.436	-0.166	0.074
-403.252	485.556	0.134	-0.305
-402.238	-86.104	-0.461	-0.143
-401.223	403.593	-0.056	0.118
-400.209	-83.193	0.224	0.072
-399.194	800.000	0.099	0.320
-398.179	287.619	0.113	0.205
-397.165	55.729	0.318	-0.309
-396.150	22.337	-0.020	-0.016
-395.136	800.000	-0.101	0.319
-394.121	139.251	0.147	0.194
-393.106	-124.138	0.096	-0.015
-392.092	63.767	0.071	0.072
-391.077	800.000	-0.127	0.468
-390.063	-200.000	-0.050	0.562
-389.048	440.003	-0.015	0.032
-388.033	209.872	-0.151	-0.237
-387.019	79.220	-0.179	0.192
-386.004	-132.302	-0.211	-0.027
-384.990	-200.000	0.008	-0.078
-383.975	66.299	-0.124	0.126
-382.960	702.487	0.153	-0.404
-381.946	-5.772	0.174	-0.119
-380.931	-74.706	0.103	-0.037
-379.917	-200.000	0.002	-0.347
-378.902	-70.173	0.171	0.065
-377.888	6.794	0.143	0.107
-376.873	-78.009	-0.144	0.050
-375.858	-200.000	0.015	-0.323
-374.844	-43.588	-0.102	0.051
-373.829	15.955	0.168	-0.132
-372.815	-200.000	-0.062	0.278
-371.800	-15.293	-0.244	-0.156
-370.785	-110.874	-0.256	-0.053
-369.771	69.516	0.266	0.274
-368.756	32.413	-0.123	-0.106
-367.742	-51.893	0.285	-0.132
-366.727	800.000	0.055	-0.157
-365.712	800.000	-0.048	0.179
-364.698	174.677	-0.242	0.350
-363.683	-200.000	0.021	0.177
-362.669	298.579	0.139	-0.256
-361.654	800.000	-0.030	0.122
-360.639	-200.000	-0.007	-0.134
-359.625	-200.000	-0.002	-0.162
-358.610	-38.781	-0.192	0.101
-357.596	75.331	-0.071	-0.075
-356.581	198.643	-0.132	-0.202
-355.566	-12.009	0.094	-0.062
-354.552	800.000	-0.056	0.194
-353.537	73.398	0.092	0.097
-352.523	106.423	-0.025	-0.030
-351.508	-161.513	0.292	-0.015
-350.493	-167.628	0.208	0.008
-349.479	-200.000	0.004	-0.106
-348.464	-116.292	0.081	-0.015
-347.450	-123.527	0.097	0.015
-346.435	800.000	0.047	0.141
-345.420	-200.000	-0.041	0.232
-344.406	-152.674	0.157	-0.011
-343.391	800.000	0.008	0.032
-342.377	-34.631	-0.096	-0.053
-341.362	800.000	0.032	-0.105
-340.348	-110.510	-0.111	0.023
-339.333	74.369	0.250	0.262
-338.318	108.931	0.171	0.204
-337.304	274.571	-0.080	0.142
-336.289	-11.624	-0.214	0.140
-335.275	81.232	-0.275	-0.296
-334.260	75.838	0.135	0.142
-333.245	418.147	-0.110	-0.235
-332.231	-92.848	0.155	-0.043
-331.216	800.000	0.051	0.165
-330.202	-88.390	0.246	-0.073
-329.187	-100.681	0.262	0.065
-328.172	800.000	0.116	-0.373
-327.158	-118.073	0.360	-0.064
-326.143	628.133	-0.027	0.069
-325.129	-200.000	0.008	0.285
-324.114	-13.338	-0.179	-0.116
-323.099	-200.000	0.019	0.230
-322.085	391.919	-0.126	-0.262
-321.070	-52.062	0.152	-0.070
-320.056	-200.000	-0.009	0.411
-319.041	212.239	0.089	-0.140
-318.026	-3.501	-0.012	-0.008
-317.012	-14.422	0.072	-0.046
-315.997	-142.713	-0.232	-0.023
-314.983	69.233	0.147	-0.151
-313.968	-19.507	0.136	-0.084
-312.953	-200.000	-0.073	-0.369
-311.939	67.508	0.124	0.126
-310.924	-64.559	-0.358	0.145
-309.910	244.112	0.161	-0.270
-308.895	362.995	-0.137	0.274
-307.880	-200.000	-0.030	0.162
-306.866	12.449	-0.185	-0.142
-305.851	-200.000	-0.012	-0.182
-304.837	-200.000	0.015	0.082
-303.822	-83.113	-0.261	0.084
-302.807	631.633	-0.137	0.345
-301.793	-34.589	0.365	0.199
-300.778	66.114	-0.075	-0.076
-299.764	-66.204	0.086	-0.034
-298.749	207.645	0.017	0.027
-297.735	279.071	0.062	-0.111
-296.720	-200.000	0.050	0.578
-295.705	-7.245	-0.180	0.121
-294.691	-99.926	-0.079	-0.020
-293.676	800.000	-0.051	-0.152
-292.662	-45.538	-0.067	0.033
-291.647	4.095	-0.087	0.064
-290.632	-101.889	0.120	0.029
-289.618	527.876	-0.055	0.130
-288.603	95.942	-0.074	-0.084
-287.589	31.966	0.115	0.099
-286.574	-138.394	-0.226	0.025
-285.559	-169.342	0.074	-0.003
-284.545	-124.788	0.179	-0.028
-283.530	-76.374	-0.019	-0.007
-282.516	-200.000	-0.000	-0.045
-281.501	-200.000	0.122	-0.565
-280.486	66.330	-0.158	-0.160
-279.472	800.000	0.048	0.142
-278.457	-200.000	0.044	-0.518
-277.443	-47.108	0.131	0.064
-276.428	554.565	-0.099	0.238
-275.413	-11.873	-0.086	0.056
-274.399	-200.000	-0.007	-0.123
-273.384	-200.000	-0.013	-0.090
-272.370	-92.242	0.197	-0.055
-271.355	-120.301	0.089	-0.015
-270.340	59.124	0.185	0.181
-269.326	163.539	0.116	0.162
-268.311	502.922	-0.177	0.409
-267.297	67.914	-0.018	-0.018
-266.282	800.000	0.019	0.059
-265.267	183.611	0.105	-0.154
-264.253	-48.559	-0.189	0.091
-263.238	17.770	-0.183	-0.145
-262.224	800.000	-0.073	0.275
-261.209	94.053	-0.043	-0.048
-260.195	-153.822	-0.185	-0.013
-259.180	217.453	-0.151	0.240
-258.165	-115.985	-0.245	-0.045
-257.151	85.687	-0.203	0.223
-256.136	137.709	-0.059	-0.077
-255.122	-42.110	-0.131	-0.067
-254.107	331.331	-0.130	0.249
-253.092	63.489	-0.112	-0.112
-252.078	294.633	-0.136	-0.247
-251.063	800.000	-0.089	-0.293
-250.049	-200.000	0.069	-0.353
-249.034	-81.342	0.347	-0.114
-248.019	800.000	0.072	0.236
-247.005	-60.930	-0.179	-0.075
-245.990	14.104	0.078	0.060
-244.976	-154.022	-0.087	0.006
-243.961	800.000	-0.030	-0.108
-242.946	4.990	-0.364	-0.267
-241.932	79.338	-0.065	-0.069
-240.917	222.167	0.121	0.194
-239.903	580.379	0.020	-0.048
-238.888	-33.493	0.363	0.200
-237.873	-66.724	0.048	-0.019
-236.859	-200.000	0.002	-0.132
-235.844	160.711	-0.158	0.220
-234.830	13.275	0.085	0.065
-233.815	-200.000	-0.019	-0.498
-232.800	-103.725	0.164	-0.038
-231.786	216.334	-0.179	0.284
-230.771	63.072	0.291	0.289
-229.757	-115.759	0.221	-0.041
-228.742	132.525	0.055	-0.070
-227.727	80.631	0.104	-0.111
-226.713	-104.965	0.409	-0.093
-225.698	-200.000	-0.016	0.243
-224.684	-200.000	-0.045	-0.220
-223.669	800.000	0.075	0.258
-222.655	597.213	-0.173	-0.427
-221.640	800.000	-0.015	-0.052
-220.625	-109.364	0.164	-0.034
-219.611	474.486	-0.214	-0.480
-218.596	59.342	0.171	-0.168
-217.582	800.000	0.054	0.212
-216.567	-109.654	0.288	-0.060
-215.552	429.436	-0.047	-0.101
-214.538	-200.000	-0.019	0.200
-213.523	279.558	0.215	-0.382
-212.509	756.000	-0.145	-0.391
-211.494	404.014	0.106	-0.221
-210.479	24.637	0.208	-0.171
-209.465	613.392	0.156	-0.387
-208.450	-15.466	0.202	-0.128
-207.436	-50.374	-0.288	0.135
-206.421	686.249	0.038	0.099
-205.406	800.000	0.091	-0.270
-204.392	800.000	0.021	0.065
-203.377	-29.117	0.195	-0.111
-202.363	174.877	0.228	-0.328
-201.348	-200.000	0.013	0.124
-200.333	71.483	-0.078	0.081
-199.319	-88.177	0.126	0.037
-198.304	-200.000	-0.015	-0.075
-197.290	-101.930	-0.192	-0.046
-196.275	8.318	0.343	0.256
-195.260	-109.603	-0.114	-0.024
-194.246	485.841	-0.155	0.351
-193.231	-13.907	0.182	-0.117
-192.217	-148.148	0.221	-0.018
-191.202	-161.218	-0.148	0.008
-190.187	-55.909	-0.245	-0.109
-189.173	77.779	-0.238	-0.252
-188.158	-200.000	0.008	-0.118
-187.144	-30.907	0.468	0.263
-186.129	-28.423	-0.151	-0.087
-185.114	413.447	-0.031	0.066
-184.100	469.891	0.086	-0.192
-183.085	-121.852	-0.165	0.027
-182.071	-159.734	-0.239	-0.013
-181.056	-89.972	0.083	-0.024
-180.042	-200.000	0.007	-0.236
-179.027	698.720	-0.012	-0.033
-178.012	366.255	0.108	-0.216
-176.998	217.687	0.160	-0.253
-175.983	-73.550	-0.068	-0.025
-174.969	-79.658	-0.176	-0.059
-173.954	-200.000	0.012	-0.125
-172.939	46.125	0.068	0.063
-171.925	800.000	-0.026	0.099
-170.910	747.296	0.100	-0.268
-169.896	-9.166	-0.146	0.097
-168.881	-200.000	-0.005	0.076
-167.866	-20.133	0.118	0.072
-166.852	438.456	0.103	0.223
-165.837	547.001	0.072	0.171
-164.823	-90.510	0.234	0.067
-163.808	-200.000	0.040	0.203
-162.793	4.241	0.040	0.029
-161.779	745.481	0.024	-0.063
-160.764	96.903	0.018	0.021
-159.750	-38.227	0.229	0.120
-158.735	114.807	0.127	-0.154
-157.720	18.867	-0.064	-0.051
-156.706	-18.697	0.190	0.117
-155.691	-160.382	-0.233	0.012
-154.677	126.785	0.134	-0.169
-153.662	-122.394	0.469	0.076
-152.647	-76.387	0.159	0.055
-151.633	-200.000	-0.003	0.109
-150.618	62.398	-0.057	-0.056
-149.604	-118.095	0.353	0.063
-148.589	-57.210	0.231	0.101
-147.574	-200.000	0.014	-0.449
-146.560	221.640	0.183	-0.292
-145.545	154.067	-0.256	-0.348
-144.531	312.519	-0.134	0.250
-143.516	-200.000	-0.016	-0.101
-142.502	0.800	0.242	-0.172
-141.487	-28.506	0.089	-0.051
-140.472	-15.890	-0.087	0.055
-139.458	-58.507	0.193	-0.083
-138.443	-200.000	-0.024	-0.221
-137.429	-93.760	-0.093	0.025
-136.414	73.377	0.208	-0.216
-135.399	800.000	-0.102	-0.321
-134.385	-165.152	0.127	0.006
-133.370	-40.292	0.295	-0.152
-132.356	-103.568	0.043	-0.010
-131.341	-62.081	0.279	-0.115
-130.326	-81.717	0.118	0.038
-129.312	-57.489	0.252	-0.110
-128.297	-124.540	0.130	0.020
-127.283	86.406	0.086	-0.094
-126.268	-200.000	-0.032	-0.321
-125.253	213.715	-0.111	0.174
-124.239	800.000	0.064	-0.220
-123.224	-146.168	0.325	-0.028
-122.210	-200.000	-0.028	0.130
-121.195	600.743	0.119	0.292
