DTS Sentinel unit serial number:	SN413079Multiplexer serial number:	ORYXHardware model number:	OX4-SRSoftware version number:	ORYX F/W v4.00 Oryx Data Collector v3.7.2.0data status	okinstallation	princeton_trtdifferential loss correction	single-endedforward channel	channel 4reverse channel	N/Adate	2019/09/16time	16:01:35forward acquisition time	60.00reverse acquisition time	0.00gamma	496.2192k internal	0.2289k external	0.2289temperature offset calibration	0.9935default loss term (dB/km)	0.3790temperature slope calibration	1.0000multiplexer offset coefficient	1.0000multiplexer slope coefficient	1.0000fibre end	0.00T internal ref (°C)	40.97T ext. ref 1 (°C)	14.90T ext. ref 2 (°C)	35.30length (m)	temperature (°C)	Stokes	anti-Stokes-747.200	-71.898	-0.560	-0.214
-746.185	58.860	-0.398	0.401
-745.171	55.562	-0.069	0.068
-744.156	800.000	0.099	0.293
-743.142	-86.876	-0.039	0.012
-742.127	267.285	-0.219	0.392
-741.112	46.573	-0.171	0.163
-740.098	-69.154	0.292	-0.115
-739.083	569.815	-0.051	0.127
-738.069	683.798	-0.048	0.130
-737.054	-200.000	0.018	0.423
-736.039	129.899	0.028	0.037
-735.025	-21.026	0.205	0.128
-734.010	-130.981	-0.092	-0.013
-732.996	-200.000	-0.025	-0.136
-731.981	-68.342	0.277	0.110
-730.966	556.036	-0.091	0.224
-729.952	251.417	0.149	-0.259
-728.937	-50.905	0.133	0.064
-727.923	-200.000	0.016	-0.074
-726.908	-200.000	-0.392	0.001
-725.894	800.000	0.026	0.095
-724.879	58.328	-0.067	-0.068
-723.864	-200.000	-0.044	0.342
-722.850	-200.000	0.029	-0.142
-721.835	-30.844	0.269	0.156
-720.821	-27.622	-0.194	-0.115
-719.806	-24.114	0.193	-0.118
-718.791	142.575	0.089	-0.121
-717.777	91.202	0.145	0.167
-716.762	593.773	-0.072	0.181
-715.748	800.000	0.010	-0.032
-714.733	-200.000	-0.014	0.066
-713.718	-109.715	0.183	0.039
-712.704	800.000	0.051	-0.182
-711.689	-190.808	0.065	-0.001
-710.675	354.104	-0.144	-0.294
-709.660	-77.354	-0.307	0.109
-708.645	-200.000	-0.004	-0.175
-707.631	800.000	0.061	-0.183
-706.616	50.444	0.050	0.048
-705.602	-200.000	-0.026	0.153
-704.587	10.480	-0.066	-0.051
-703.572	-60.230	-0.061	-0.027
-702.558	-62.401	0.061	-0.026
-701.543	800.000	-0.015	0.044
-700.529	9.243	-0.271	-0.209
-699.514	-144.804	0.215	-0.020
-698.499	-86.920	-0.268	0.084
-697.485	110.255	0.127	-0.156
-696.470	187.812	-0.225	0.344
-695.456	-171.101	-0.179	-0.006
-694.441	72.701	-0.326	-0.348
-693.426	-67.048	-0.272	0.110
-692.412	-79.065	0.070	-0.024
-691.397	85.464	-0.020	-0.022
-690.383	-200.000	-0.051	0.238
-689.368	148.817	0.262	0.362
-688.354	-82.997	0.057	0.019
-687.339	326.670	-0.137	-0.269
-686.324	-200.000	-0.015	0.139
-685.310	573.732	0.133	-0.332
-684.295	285.690	-0.064	-0.119
-683.281	-153.679	0.093	0.007
-682.266	241.630	0.144	0.245
-681.251	-200.000	0.020	0.123
-680.237	32.033	0.146	0.129
-679.222	215.294	-0.230	0.373
-678.208	151.081	0.099	0.138
-677.193	-112.937	0.079	-0.016
-676.178	800.000	-0.008	0.027
-675.164	-23.078	-0.098	-0.061
-674.149	143.479	-0.109	0.148
-673.135	-1.413	0.109	-0.079
-672.120	58.474	-0.079	0.079
-671.105	54.899	-0.248	-0.245
-670.091	509.725	-0.098	-0.233
-669.076	-154.483	-0.077	0.005
-668.062	-30.228	-0.050	0.029
-667.047	800.000	-0.096	0.400
-666.032	311.789	0.131	-0.251
-665.018	-200.000	0.007	-0.188
-664.003	3.592	0.222	-0.166
-662.989	102.174	-0.130	0.155
-661.974	689.482	0.123	-0.329
-660.959	800.000	0.134	-0.415
-659.945	16.518	-0.303	-0.245
-658.930	126.183	-0.063	0.081
-657.916	-65.965	0.194	-0.079
-656.901	800.000	-0.078	-0.227
-655.886	-76.050	0.206	-0.074
-654.872	-33.090	-0.242	0.137
-653.857	-200.000	-0.057	-0.368
-652.843	-200.000	0.040	0.341
-651.828	-51.156	-0.167	0.080
-650.814	466.705	0.030	-0.068
-649.799	487.040	0.081	-0.190
-648.784	-200.000	0.028	-0.252
-647.770	-100.509	-0.442	0.112
-646.755	136.936	-0.091	-0.122
-645.741	-142.274	-0.098	0.010
-644.726	-13.233	-0.032	-0.021
-643.711	70.707	-0.147	-0.155
-642.697	31.064	-0.047	-0.041
-641.682	-24.934	-0.170	-0.103
-640.668	69.872	-0.055	-0.058
-639.653	-90.750	0.162	0.048
-638.638	683.856	-0.100	-0.266
-637.624	800.000	-0.030	-0.089
-636.609	800.000	-0.039	0.113
-635.595	-52.504	-0.256	0.121
-634.580	-200.000	-0.013	-0.234
-633.565	-16.123	-0.300	0.194
-632.551	800.000	-0.029	0.107
-631.536	328.896	-0.041	-0.081
-630.522	69.434	-0.276	-0.290
-629.507	-121.211	0.193	0.033
-628.492	78.034	0.059	-0.064
-627.478	-6.146	0.088	0.061
-626.463	185.929	0.115	0.174
-625.449	-17.320	0.252	-0.162
-624.434	-124.867	0.445	0.070
-623.419	179.505	0.121	-0.181
-622.405	-200.000	0.046	0.544
-621.390	-200.000	-0.008	0.118
-620.376	-100.797	0.184	0.046
-619.361	-69.410	-0.314	-0.123
-618.346	-200.000	0.018	-0.085
-617.332	404.796	-0.096	-0.206
-616.317	-200.000	0.051	0.280
-615.303	800.000	0.054	-0.217
-614.288	-7.313	0.244	0.169
-613.273	-82.527	-0.230	0.076
-612.259	39.379	-0.104	0.095
-611.244	-37.681	-0.262	0.142
-610.230	800.000	-0.119	-0.339
-609.215	5.438	0.085	-0.064
-608.201	93.392	-0.161	0.186
-607.186	800.000	-0.066	0.230
-606.171	-173.537	-0.122	0.004
-605.157	-200.000	-0.049	-0.358
-604.142	-55.307	-0.172	-0.079
-603.128	-124.841	0.248	0.039
-602.113	-130.742	-0.257	0.035
-601.098	160.751	0.081	-0.115
-600.084	-200.000	-0.036	-0.358
-599.069	147.638	0.024	0.033
-598.055	-200.000	0.005	-0.070
-597.040	59.531	-0.061	-0.062
-596.025	-81.629	0.159	0.053
-595.011	-200.000	-0.029	0.160
-593.996	800.000	0.017	0.049
-592.982	33.337	-0.064	0.056
-591.967	-200.000	-0.033	-0.176
-590.952	-72.996	-0.258	-0.096
-589.938	328.771	-0.131	-0.257
-588.923	-200.000	0.019	0.103
-587.909	-0.708	-0.189	-0.136
-586.894	-116.676	-0.033	-0.006
-585.879	398.863	-0.030	-0.065
-584.865	226.239	0.156	0.257
-583.850	217.470	-0.199	0.323
-582.836	800.000	-0.103	0.390
-581.821	37.758	0.342	0.310
-580.806	437.310	-0.082	0.181
-579.792	-20.085	-0.520	0.326
-578.777	98.787	-0.166	0.195
-577.763	1.567	-0.130	0.095
-576.748	392.784	0.097	0.206
-575.733	59.377	-0.313	-0.314
-574.719	73.868	-0.125	-0.134
-573.704	320.967	-0.070	-0.136
-572.690	-200.000	0.065	-0.348
-571.675	-198.496	0.276	-0.002
-570.661	150.571	-0.120	-0.166
-569.646	37.657	-0.087	-0.079
-568.631	-107.224	-0.156	0.035
-567.617	-21.054	0.187	-0.116
-566.602	-168.295	-0.112	-0.004
-565.588	-91.690	-0.161	-0.047
-564.573	304.218	0.162	-0.306
-563.558	-74.556	0.105	0.038
-562.544	-111.812	0.099	-0.020
-561.529	-35.833	0.178	0.098
-560.515	8.771	-0.243	-0.186
-559.500	800.000	0.045	-0.186
-558.485	-53.736	0.200	0.093
-557.471	449.386	0.101	0.226
-556.456	-29.223	0.252	0.147
-555.442	4.413	-0.223	0.166
-554.427	-61.962	-0.135	-0.058
-553.412	-200.000	0.059	-0.429
-552.398	-19.226	0.113	-0.071
-551.383	-200.000	0.019	0.130
-550.369	800.000	0.015	-0.051
-549.354	-31.305	-0.077	0.044
-548.339	357.405	0.140	0.285
-547.325	243.363	-0.103	-0.176
-546.310	-172.061	-0.094	-0.003
-545.296	338.834	0.080	-0.158
-544.281	433.331	-0.201	0.444
-543.266	136.882	0.207	-0.275
-542.252	246.945	-0.042	-0.073
-541.237	-94.284	0.344	-0.096
-540.223	-141.811	0.400	-0.041
-539.208	-200.000	-0.048	0.395
-538.193	-200.000	0.007	-0.188
-537.179	-103.064	0.136	-0.033
-536.164	236.009	-0.234	-0.393
-535.150	326.297	-0.073	0.142
-534.135	101.658	-0.034	-0.041
-533.121	-83.639	-0.121	-0.039
-532.106	-9.708	-0.020	0.014
-531.091	87.775	0.179	0.201
-530.077	-61.981	-0.211	-0.090
-529.062	-49.305	0.240	-0.117
-528.048	-84.313	-0.265	-0.085
-527.033	314.105	0.093	-0.177
-526.018	-200.000	-0.021	-0.244
-525.004	198.664	-0.132	-0.206
-523.989	-135.623	0.106	0.013
-522.975	-81.599	-0.106	-0.035
-521.960	-200.000	-0.034	0.240
-520.945	-10.514	0.379	0.255
-519.931	800.000	-0.031	-0.129
-518.916	800.000	-0.082	-0.289
-517.902	262.501	-0.037	0.065
-516.887	-70.038	-0.133	0.051
-515.872	-11.021	-0.044	0.029
-514.858	800.000	-0.095	-0.313
-513.843	108.837	0.191	-0.232
-512.829	800.000	0.086	0.365
-511.814	-199.114	0.198	0.001
-510.799	800.000	0.077	-0.231
-509.785	4.621	0.080	-0.059
-508.770	-114.595	0.246	-0.048
-507.756	98.876	0.048	0.056
-506.741	10.693	-0.080	0.062
-505.726	-97.690	-0.248	-0.065
-504.712	-177.725	0.259	-0.006
-503.697	69.338	-0.115	0.120
-502.683	32.759	-0.168	-0.148
-501.668	-200.000	-0.005	0.254
-500.653	169.137	0.327	0.474
-499.639	-94.439	-0.064	-0.018
-498.624	-200.000	0.019	0.118
-497.610	-140.044	-0.127	0.014
-496.595	-22.945	0.095	0.058
-495.581	6.208	0.355	0.267
-494.566	645.581	0.052	-0.134
-493.551	-19.312	0.274	-0.172
-492.537	43.695	-0.068	-0.063
-491.522	-100.512	0.100	-0.025
-490.508	228.383	-0.012	-0.020
-489.493	465.457	-0.080	-0.181
-488.478	-84.563	-0.067	-0.021
-487.464	-59.883	-0.058	0.025
-486.449	96.506	0.217	0.252
-485.435	-165.579	0.147	-0.006
-484.420	800.000	0.136	-0.405
-483.405	-89.105	0.255	0.076
-482.391	-7.339	-0.232	0.159
-481.376	-33.386	0.026	-0.015
-480.362	62.589	0.121	-0.122
-479.347	-23.020	-0.064	-0.039
-478.332	-41.723	0.323	0.168
-477.318	-69.034	0.212	-0.083
-476.303	800.000	-0.076	-0.255
-475.289	800.000	-0.048	0.171
-474.274	150.973	-0.122	0.168
-473.259	-35.889	0.153	0.084
-472.245	-200.000	-0.092	0.475
-471.230	-38.314	0.362	0.195
-470.216	-200.000	0.017	0.181
-469.201	-107.976	0.354	0.078
-468.186	-200.000	-0.039	0.293
-467.172	-200.000	0.043	0.204
-466.157	498.044	-0.068	-0.158
-465.143	-43.092	-0.321	-0.165
-464.128	-200.000	-0.006	-0.103
-463.113	-200.000	-0.004	0.361
-462.099	58.051	-0.234	-0.232
-461.084	202.291	0.022	-0.034
-460.070	-7.567	-0.161	0.110
-459.055	800.000	-0.035	0.105
-458.040	223.775	-0.128	0.210
-457.026	800.000	-0.024	-0.077
-456.011	-200.000	-0.023	-0.106
-454.997	800.000	0.031	0.108
-453.982	-158.022	-0.385	-0.023
-452.968	-40.474	0.410	0.216
-451.953	57.042	-0.086	0.085
-450.938	-86.033	-0.114	-0.036
-449.924	-200.000	-0.020	-0.107
-448.909	800.000	-0.064	-0.242
-447.895	-155.792	0.182	0.012
-446.880	120.118	0.129	0.162
-445.865	-104.197	0.141	0.033
-444.851	-114.544	0.487	0.095
-443.836	-122.312	-0.300	-0.050
-442.822	800.000	-0.049	0.157
-441.807	-200.000	-0.013	0.102
-440.792	287.329	-0.146	-0.268
-439.778	-126.308	-0.183	-0.028
-438.763	90.528	-0.136	0.154
-437.749	-16.261	-0.052	0.033
-436.734	131.422	-0.064	-0.083
-435.719	-116.981	0.262	-0.049
-434.705	-148.505	-0.193	-0.016
-433.690	-49.189	0.167	0.081
-432.676	-53.070	0.207	0.096
-431.661	-200.000	-0.020	-0.095
-430.646	-46.406	-0.115	-0.057
-429.632	57.737	-0.290	-0.287
-428.617	-200.000	-0.028	-0.367
-427.603	-28.101	0.134	0.078
-426.588	800.000	0.028	0.093
-425.573	50.496	-0.151	-0.145
-424.559	-200.000	0.060	0.372
-423.544	-200.000	0.006	-0.113
-422.530	-63.598	0.169	-0.070
-421.515	189.127	0.116	0.176
-420.500	304.232	-0.107	0.201
-419.486	-200.000	-0.031	-0.494
-418.471	21.326	0.301	0.248
-417.457	-200.000	0.010	-0.278
-416.442	-96.216	-0.338	-0.091
-415.428	800.000	0.038	0.122
-414.413	-145.223	0.366	-0.034
-413.398	3.319	-0.274	0.202
-412.384	711.764	-0.136	0.363
-411.369	-200.000	-0.004	-0.132
-410.355	-139.355	0.236	-0.026
-409.340	800.000	0.105	0.436
-408.325	-200.000	-0.040	0.241
-407.311	143.638	0.039	0.053
-406.296	-103.976	0.202	0.048
-405.282	39.852	0.147	0.134
-404.267	-84.149	0.376	-0.121
-403.252	157.613	0.095	0.133
-402.238	48.262	0.146	0.138
-401.223	-3.447	-0.289	-0.204
-400.209	-94.750	-0.075	-0.020
-399.194	-200.000	-0.062	-0.379
-398.179	-164.037	-0.099	0.005
-397.165	-200.000	0.019	0.133
-396.150	59.278	-0.152	0.152
-395.136	-154.462	-0.194	0.013
-394.121	-131.107	0.137	0.018
-393.106	-90.119	0.567	-0.167
-392.092	-200.000	-0.017	0.150
-391.077	-49.549	-0.183	0.088
-390.063	220.512	0.013	0.021
-389.048	-160.492	-0.212	0.011
-388.033	464.357	-0.053	-0.119
-387.019	-130.432	-0.235	0.032
-386.004	-143.846	-0.242	0.023
-384.990	42.780	-0.322	-0.297
-383.975	215.448	-0.219	-0.351
-382.960	-200.000	0.001	0.407
-381.946	782.790	0.095	-0.264
-380.931	24.190	-0.071	0.059
-379.917	-137.745	0.185	0.021
-378.902	117.079	0.139	0.172
-377.888	205.220	0.093	-0.146
-376.873	-179.679	0.127	-0.003
-375.858	552.260	0.079	0.191
-374.844	-43.555	0.342	-0.174
-373.829	-57.555	0.195	-0.086
-372.815	111.128	0.221	-0.269
-371.800	644.939	0.034	0.088
-370.785	291.508	-0.227	0.418
-369.771	-99.136	0.355	0.091
-368.756	-82.661	0.273	0.089
-367.742	-200.000	0.019	-0.377
-366.727	-200.000	-0.017	-0.231
-365.712	-139.162	-0.104	0.011
-364.698	446.359	-0.152	-0.338
-363.683	-161.588	0.161	0.008
-362.669	271.949	0.089	-0.159
-361.654	99.635	0.268	-0.313
-360.639	415.861	-0.090	0.194
-359.625	800.000	-0.026	0.094
-358.610	-23.293	-0.312	-0.190
-357.596	-165.639	0.094	-0.004
-356.581	35.751	0.142	-0.126
-355.566	-117.498	-0.134	-0.024
-354.552	8.848	0.057	-0.043
-353.537	-85.316	-0.172	-0.054
-352.523	-50.275	-0.126	-0.060
-351.508	-92.164	-0.171	0.049
-350.493	-51.381	0.470	0.222
-349.479	108.775	-0.033	0.040
-348.464	-4.858	0.241	0.168
-347.450	-138.266	-0.148	0.017
-346.435	-200.000	0.002	0.277
-345.420	-104.137	0.088	-0.021
-344.406	32.196	0.215	0.187
-343.391	37.795	0.091	-0.081
-342.377	51.111	0.129	0.123
-341.362	43.172	0.202	0.186
-340.348	103.112	0.104	0.123
-339.333	-108.798	-0.357	-0.077
-338.318	364.534	0.130	0.264
-337.304	548.728	0.077	0.187
-336.289	278.656	-0.152	-0.273
-335.275	267.022	0.099	0.175
-334.260	19.216	-0.184	-0.149
-333.245	111.038	0.156	0.189
-332.231	-200.000	-0.057	-0.394
-331.216	-20.335	-0.506	-0.314
-330.202	34.333	-0.135	0.119
-329.187	10.729	-0.225	0.173
-328.172	116.765	0.224	-0.277
-327.158	-69.892	-0.054	0.021
-326.143	800.000	0.053	-0.155
-325.129	73.632	0.135	0.143
-324.114	31.257	0.007	0.006
-323.099	-41.574	-0.231	0.120
-322.085	125.684	-0.212	0.270
-321.070	-200.000	-0.015	0.154
-320.056	115.005	0.093	0.114
-319.041	139.602	0.351	0.466
-318.026	27.507	-0.187	0.159
-317.012	108.500	-0.079	0.094
-315.997	5.426	0.135	-0.100
-314.983	-88.165	0.117	-0.035
-313.968	157.977	-0.059	-0.082
-312.953	60.395	0.136	-0.136
-311.939	800.000	0.019	-0.067
-310.924	-147.841	0.138	0.012
-309.910	-30.461	-0.253	-0.145
-308.895	34.210	-0.113	-0.099
-307.880	-5.747	-0.143	-0.098
-306.866	-200.000	0.017	-0.372
-305.851	-102.510	-0.153	-0.037
-304.837	-200.000	0.034	-0.197
-303.822	734.174	0.016	0.042
-302.807	76.514	-0.248	-0.264
-301.793	-146.085	-0.077	0.007
-300.778	-163.058	0.242	0.012
-299.764	292.952	-0.065	-0.120
-298.749	-100.492	-0.215	0.053
-297.735	-43.638	-0.134	0.068
-296.720	752.043	0.071	0.193
-295.705	-200.000	-0.025	0.443
-294.691	-200.000	-0.035	-0.223
-293.676	172.578	-0.072	0.105
-292.662	230.275	0.080	-0.131
-291.647	627.936	-0.113	-0.286
-290.632	352.655	-0.036	-0.072
-289.618	-89.789	-0.134	0.039
-288.603	-200.000	0.090	-0.399
-287.589	-200.000	-0.043	-0.204
-286.574	-180.787	0.172	-0.004
-285.559	-40.841	0.170	-0.088
-284.545	87.266	0.159	0.177
-283.530	-200.000	-0.037	0.300
-282.516	83.295	-0.116	-0.127
-281.501	234.133	-0.114	0.189
-280.486	-200.000	-0.008	0.555
-279.472	-28.428	0.243	0.141
-278.457	312.951	0.072	0.136
-277.443	735.276	-0.080	-0.216
-276.428	-8.870	0.391	0.263
-275.413	-51.988	-0.172	0.080
-274.399	-200.000	0.019	0.224
-273.384	-199.951	0.126	0.001
-272.370	-94.822	-0.201	-0.055
-271.355	800.000	0.039	-0.166
-270.340	553.604	-0.078	-0.189
-269.326	140.391	-0.127	0.168
-268.311	-89.432	-0.117	-0.035
-267.297	-200.000	-0.001	0.100
-266.282	-12.019	0.248	0.163
-265.267	800.000	-0.054	0.237
-264.253	800.000	-0.086	0.322
-263.238	-78.245	0.270	0.093
-262.224	-200.000	-0.040	-0.245
-261.209	20.429	-0.127	0.103
-260.195	-76.878	0.118	0.042
-259.180	58.208	0.193	-0.191
-258.165	448.452	-0.192	0.425
-257.151	126.057	0.227	0.289
-256.136	55.859	-0.098	0.095
-255.122	-174.809	0.368	0.010
-254.107	-200.000	-0.027	-0.308
-253.092	274.596	-0.056	-0.100
-252.078	-98.829	0.024	-0.006
-251.063	305.764	-0.095	0.177
-250.049	-180.554	-0.213	-0.004
-249.034	-88.769	-0.244	-0.073
-248.019	183.108	0.103	0.153
-247.005	-131.897	0.152	0.020
-245.990	-36.826	0.376	-0.203
-244.976	-135.500	-0.065	0.008
-243.961	76.764	0.223	-0.238
-242.946	196.764	0.184	0.283
-241.932	800.000	-0.064	0.263
-240.917	-200.000	-0.024	-0.214
-239.903	800.000	0.043	0.173
-238.888	101.823	0.233	-0.273
-237.873	-200.000	-0.002	-0.119
-236.859	-26.407	0.217	-0.128
-235.844	195.569	-0.189	-0.289
-234.830	-200.000	-0.017	0.145
-233.815	-82.199	-0.253	-0.083
-232.800	-200.000	-0.002	0.186
-231.786	-180.637	-0.225	0.005
-230.771	91.600	0.281	-0.317
-229.757	-58.317	-0.322	-0.141
-228.742	400.778	0.145	0.306
-227.727	-200.000	0.051	-0.234
-226.713	-29.194	-0.056	-0.032
-225.698	-71.856	0.151	0.056
-224.684	-123.180	0.154	0.025
-223.669	666.259	-0.094	-0.244
-222.655	-103.077	0.194	0.046
-221.640	-38.185	-0.192	-0.102
-220.625	-44.440	-0.185	0.093
-219.611	-200.000	-0.057	0.313
-218.596	800.000	0.054	0.173
-217.582	32.966	-0.225	0.196
-216.567	800.000	0.094	0.372
-215.552	50.697	-0.120	-0.114
-214.538	262.856	0.149	0.260
-213.523	485.037	-0.063	-0.144
-212.509	-200.000	0.053	-0.238
-211.494	236.237	0.134	-0.223
-210.479	5.113	0.137	0.101
-209.465	-176.101	0.055	-0.001
-208.450	537.392	0.085	-0.202
-207.436	416.309	0.088	-0.188
-206.421	163.177	-0.179	-0.253
-205.406	37.433	-0.165	0.147
-204.392	-95.622	-0.025	-0.007
-203.377	-138.432	0.157	-0.017
-202.363	-200.000	-0.002	-0.345
-201.348	-106.062	0.119	-0.027
-200.333	-77.137	0.204	0.071
-199.319	-200.000	-0.021	-0.140
-198.304	800.000	-0.054	0.234
-197.290	800.000	-0.063	0.246
-196.275	187.470	0.183	0.275
-195.260	-127.404	-0.198	-0.029
-194.246	87.023	-0.122	0.135
-193.231	800.000	0.095	-0.321
-192.217	-200.000	0.022	-0.098
-191.202	-140.296	-0.338	-0.035
-190.187	-1.350	-0.177	-0.125
-189.173	800.000	0.112	-0.401
-188.158	113.262	0.185	-0.225
-187.144	-159.948	-0.307	0.017
-186.129	95.322	-0.157	-0.179
-185.114	81.011	-0.112	-0.121
-184.100	502.313	0.150	0.348
-183.085	26.663	0.119	0.100
-182.071	-200.000	0.002	0.213
-181.056	-200.000	-0.061	0.430
-180.042	89.277	-0.202	-0.226
-179.027	744.622	0.035	-0.095
-178.012	-162.909	-0.246	-0.012
-176.998	-129.227	-0.256	-0.036
-175.983	-150.828	0.106	0.008
-174.969	-120.371	0.367	0.063
-173.954	-200.000	-0.020	0.239
-172.939	-169.374	0.281	-0.010
-171.925	-200.000	-0.019	-0.125
-170.910	-134.804	0.359	-0.044
-169.896	-83.151	-0.119	0.038
-168.881	800.000	0.051	-0.190
-167.866	-36.819	0.155	0.083
-166.852	-70.091	-0.180	-0.069
-165.837	302.978	-0.108	-0.200
-164.823	800.000	0.072	-0.257
-163.808	148.337	-0.061	0.082
-162.793	-9.617	-0.545	0.364
-161.779	28.981	-0.312	-0.265
-160.764	-67.742	-0.180	-0.071
-159.750	27.430	0.091	0.076
-158.735	-25.812	-0.079	-0.046
-157.720	150.727	-0.013	0.018
-156.706	91.583	-0.128	0.144
-155.691	82.448	-0.151	-0.164
-154.677	-200.000	-0.063	-0.375
-153.662	-200.000	-0.025	-0.240
-152.647	-87.806	0.385	0.116
-151.633	-8.663	-0.203	0.137
-150.618	-94.396	-0.161	-0.044
-149.604	268.866	0.057	-0.100
-148.589	50.463	0.261	0.248
-147.574	-200.000	-0.067	0.364
-146.560	610.704	-0.092	0.229
-145.545	-160.216	0.080	0.004
-144.531	-200.000	-0.016	-0.080
-143.516	-200.000	0.018	-0.150
-142.502	-49.715	-0.186	0.088
-141.487	-97.770	-0.201	0.052
-140.472	-161.898	0.361	0.018
-139.458	-200.000	0.040	-0.194
-138.443	-153.250	0.268	0.019
-137.429	-132.384	-0.210	0.027
-136.414	-29.180	0.081	0.047
-135.399	-69.782	0.251	0.096
-134.385	177.281	-0.119	-0.174
-133.370	-60.810	-0.200	-0.085
-132.356	35.280	0.081	0.071
-131.341	203.424	-0.118	-0.182
-130.326	-122.942	0.391	-0.063
-129.312	-31.610	0.162	-0.091
-128.297	190.007	0.159	0.239
-127.283	800.000	0.112	0.366
-126.268	-200.000	-0.010	0.302
-125.253	800.000	0.058	0.216
-124.239	157.192	0.075	-0.103
-123.224	-75.162	-0.162	-0.058
-122.210	8.221	-0.041	-0.031
