DTS Sentinel unit serial number:	SN413079Multiplexer serial number:	ORYXHardware model number:	OX4-SRSoftware version number:	ORYX F/W v4.00 Oryx Data Collector v3.7.2.0data status	okinstallation	princeton_trtdifferential loss correction	single-endedforward channel	channel 4reverse channel	N/Adate	2019/09/17time	12:37:34forward acquisition time	60.00reverse acquisition time	0.00gamma	496.2192k internal	0.2303k external	0.2303temperature offset calibration	0.9993default loss term (dB/km)	0.3790temperature slope calibration	1.0000multiplexer offset coefficient	1.0000multiplexer slope coefficient	1.0000fibre end	0.00T internal ref (°C)	32.20T ext. ref 1 (°C)	0.44T ext. ref 2 (°C)	29.87length (m)	temperature (°C)	Stokes	anti-Stokes-747.200	104.204	0.121	0.145
-746.185	-6.827	-0.164	-0.113
-745.171	800.000	-0.101	0.285
-744.156	-200.000	0.027	0.277
-743.142	-200.000	0.029	0.257
-742.127	237.222	0.169	0.286
-741.112	-200.000	-0.004	0.156
-740.098	-5.114	-0.120	-0.084
-739.083	-41.444	-0.252	0.132
-738.069	-200.000	-0.031	-0.191
-737.054	44.763	0.313	0.294
-736.039	-124.519	-0.267	0.042
-735.025	-28.979	-0.214	0.125
-734.010	177.953	-0.089	0.132
-732.996	-200.000	0.047	-0.236
-731.981	42.715	-0.159	-0.148
-730.966	-97.063	-0.212	0.057
-729.952	-181.205	0.210	-0.004
-728.937	305.884	-0.031	0.059
-727.923	-41.270	-0.205	0.108
-726.908	-67.078	-0.284	-0.114
-725.894	62.398	0.036	0.037
-724.879	800.000	0.144	-0.452
-723.864	-156.989	-0.202	-0.013
-722.850	26.379	-0.229	-0.195
-721.835	704.685	0.073	-0.196
-720.821	-16.373	-0.148	0.095
-719.806	-104.502	0.343	-0.081
-718.791	53.018	-0.161	0.157
-717.777	-200.000	0.016	-0.084
-716.762	23.572	0.146	-0.122
-715.748	-200.000	-0.017	-0.205
-714.733	30.099	-0.124	-0.107
-713.718	-149.314	-0.242	-0.020
-712.704	-108.181	-0.283	-0.062
-711.689	-45.267	0.408	-0.206
-710.675	-200.000	0.021	0.168
-709.660	-200.000	0.004	0.037
-708.645	-73.697	0.108	0.040
-707.631	-67.896	0.308	-0.123
-706.616	-200.000	0.010	-0.113
-705.602	-200.000	0.001	0.185
-704.587	335.164	0.021	0.041
-703.572	-63.904	0.034	-0.014
-702.558	-41.449	-0.356	-0.186
-701.543	800.000	0.014	0.064
-700.529	800.000	0.129	-0.426
-699.514	323.866	0.168	-0.327
-698.499	-50.640	0.241	-0.115
-697.485	-32.064	0.100	0.057
-696.470	91.599	-0.083	-0.095
-695.456	34.713	-0.310	-0.276
-694.441	583.938	0.082	0.205
-693.426	298.395	0.151	0.282
-692.412	162.499	0.211	-0.301
-691.397	483.719	0.082	-0.190
-690.383	-68.952	0.312	-0.122
-689.368	-200.000	-0.006	-0.125
-688.354	14.496	-0.138	-0.109
-687.339	-83.194	0.056	-0.018
-686.324	199.089	-0.154	0.240
-685.310	800.000	0.050	-0.166
-684.295	-136.017	0.091	-0.011
-683.281	-120.326	0.323	-0.056
-682.266	-3.960	-0.261	-0.184
-681.251	407.596	0.122	0.261
-680.237	-156.949	-0.229	-0.014
-679.222	142.095	-0.062	0.083
-678.208	-153.815	0.202	0.014
-677.193	-15.947	-0.170	0.110
-676.178	-133.549	-0.470	-0.060
-675.164	400.895	0.109	0.233
-674.149	323.345	0.090	0.175
-673.135	353.315	-0.211	-0.426
-672.120	-200.000	-0.042	0.229
-671.105	20.276	0.199	0.163
-670.091	-137.994	-0.270	-0.031
-669.076	-79.999	0.198	-0.067
-668.062	-95.138	0.458	-0.126
-667.047	-90.095	-0.384	-0.114
-666.032	800.000	0.047	0.143
-665.018	-82.437	0.179	-0.059
-664.003	-153.839	0.147	-0.010
-662.989	-200.000	-0.040	0.479
-661.974	156.647	-0.124	-0.174
-660.959	327.045	-0.092	0.179
-659.945	440.889	-0.109	-0.243
-658.930	-200.000	-0.038	-0.181
-657.916	800.000	-0.041	-0.177
-656.901	3.514	-0.172	-0.127
-655.886	5.407	0.068	-0.051
-654.872	38.976	-0.383	-0.347
-653.857	103.183	-0.095	-0.113
-652.843	-106.850	-0.130	-0.029
-651.828	-2.513	-0.410	-0.291
-650.814	800.000	-0.052	0.150
-649.799	-200.000	-0.030	-0.212
-648.784	792.590	0.080	0.224
-647.770	-31.950	0.325	0.185
-646.755	-200.000	-0.033	0.190
-645.741	-82.750	0.045	-0.015
-644.726	800.000	-0.037	-0.110
-643.711	-45.086	0.097	-0.049
-642.697	800.000	0.122	-0.343
-641.682	197.415	-0.057	0.088
-640.668	-200.000	0.028	-0.240
-639.653	-200.000	-0.004	-0.178
-638.638	409.352	-0.081	0.173
-637.624	-69.324	0.373	0.145
-636.609	-91.746	0.039	0.011
-635.595	-200.000	0.020	-0.287
-634.580	11.743	-0.121	-0.095
-633.565	-81.492	0.193	0.064
-632.551	-159.168	0.175	-0.010
-631.536	79.847	0.079	0.086
-630.522	30.291	-0.118	-0.102
-629.507	-10.326	0.361	-0.243
-628.492	-119.372	-0.164	0.029
-627.478	174.390	-0.197	0.289
-626.463	144.579	-0.252	0.341
-625.449	800.000	0.056	-0.204
-624.434	-72.932	-0.032	-0.012
-623.419	-200.000	0.018	-0.169
-622.405	-24.523	-0.419	-0.253
-621.390	-11.689	0.177	-0.118
-620.376	-68.016	0.378	0.149
-619.361	-200.000	0.000	0.230
-618.346	141.384	0.153	-0.205
-617.332	27.178	-0.207	0.177
-616.317	-105.696	-0.546	0.125
-615.303	301.680	-0.073	0.137
-614.288	-90.250	0.327	0.096
-613.273	-0.145	0.214	0.154
-612.259	-90.519	-0.159	-0.047
-611.244	60.062	0.166	0.167
-610.230	262.873	-0.086	0.151
-609.215	-114.077	0.339	-0.067
-608.201	-163.631	0.411	-0.020
-607.186	130.319	0.165	-0.214
-606.171	-52.759	0.170	-0.079
-605.157	144.858	-0.111	-0.151
-604.142	597.982	-0.086	-0.216
-603.128	-17.952	-0.232	-0.147
-602.113	190.960	0.153	0.234
-601.098	800.000	0.054	0.201
-600.084	800.000	0.083	-0.245
-599.069	421.700	0.180	-0.390
-598.055	-61.675	-0.088	-0.037
-597.040	160.359	-0.208	-0.294
-596.025	54.708	-0.117	-0.114
-595.011	9.345	-0.259	0.198
-593.996	515.661	-0.073	0.172
-592.982	-132.534	-0.072	0.009
-591.967	-23.367	-0.113	-0.069
-590.952	-200.000	0.000	0.161
-589.938	800.000	-0.077	0.245
-588.923	143.634	0.109	0.147
-587.909	-163.107	-0.259	0.013
-586.894	183.377	0.176	-0.263
-585.879	128.345	0.084	0.108
-584.865	-90.156	-0.132	0.039
-583.850	800.000	-0.079	0.349
-582.836	-200.000	-0.056	-0.271
-581.821	800.000	-0.090	-0.337
-580.806	-86.558	-0.210	0.065
-579.792	-114.670	-0.231	0.045
-578.777	-3.908	0.142	0.100
-577.763	-52.958	0.132	-0.062
-576.748	388.377	-0.026	0.055
-575.733	-60.919	0.134	0.058
-574.719	-200.000	-0.015	-0.253
-573.704	800.000	-0.082	-0.261
-572.690	-200.000	-0.049	0.217
-571.675	146.406	0.081	0.110
-570.661	725.543	-0.081	0.219
-569.646	-21.585	-0.121	0.075
-568.631	-200.000	0.114	0.000
-567.617	-92.747	-0.336	0.095
-566.602	800.000	-0.043	-0.137
-565.588	800.000	0.092	0.357
-564.573	-118.258	-0.078	0.014
-563.558	-200.000	0.006	-0.027
-562.544	59.785	0.216	0.215
-561.529	-94.858	-0.330	-0.091
-560.515	47.099	0.169	-0.159
-559.500	-6.513	-0.277	0.191
-558.485	800.000	-0.033	0.118
-557.471	-47.042	0.142	-0.070
-556.456	151.929	-0.147	0.203
-555.442	-95.689	-0.341	0.092
-554.427	88.482	-0.084	0.094
-553.412	-45.195	-0.166	-0.083
-552.398	585.528	-0.086	-0.214
-551.383	-125.676	-0.149	0.023
-550.369	800.000	0.048	0.206
-549.354	324.604	0.087	-0.167
-548.339	-200.000	0.025	-0.183
-547.325	-153.199	-0.311	-0.022
-546.310	-200.000	-0.003	0.168
-545.296	-38.723	0.234	0.125
-544.281	738.409	0.068	0.186
-543.266	488.312	-0.117	0.271
-542.252	800.000	-0.042	-0.149
-541.237	482.705	0.086	-0.198
-540.223	-52.103	0.217	0.102
-539.208	-55.267	-0.379	-0.172
-538.193	153.671	-0.099	0.137
-537.179	13.777	0.021	0.017
-536.164	111.752	0.089	-0.109
-535.150	-120.407	-0.170	-0.029
-534.135	-200.000	-0.044	-0.237
-533.121	-155.553	0.222	0.014
-532.106	-42.286	-0.084	-0.043
-531.091	47.498	-0.169	-0.159
-530.077	52.878	-0.225	0.218
-529.062	-200.000	0.021	-0.140
-528.048	-174.843	0.459	-0.013
-527.033	40.892	-0.145	0.132
-526.018	314.439	0.070	-0.132
-525.004	-200.000	-0.022	-0.151
-523.989	-200.000	-0.033	-0.177
-522.975	-110.873	0.221	0.046
-521.960	145.295	-0.136	0.184
-520.945	34.885	-0.135	-0.120
-519.931	-22.852	-0.039	-0.024
-518.916	11.231	-0.349	-0.269
-517.902	-91.412	0.236	-0.068
-516.887	183.687	-0.217	0.324
-515.872	-200.000	0.057	-0.297
-514.858	-200.000	0.069	-0.391
-513.843	110.978	-0.216	-0.262
-512.829	-200.000	-0.019	-0.083
-511.814	-91.235	-0.166	0.048
-510.799	-56.585	0.039	0.017
-509.785	468.814	0.111	-0.251
-508.770	776.761	-0.038	0.106
-507.756	-125.568	0.250	0.038
-506.741	-200.000	0.037	0.181
-505.726	-139.950	0.157	0.017
-504.712	-200.000	-0.002	-0.219
-503.697	-200.000	-0.018	-0.108
-502.683	-55.732	-0.251	0.113
-501.668	800.000	-0.051	0.151
-500.653	-200.000	-0.010	-0.070
-499.639	414.821	0.049	-0.105
-498.624	-200.000	0.008	-0.157
-497.610	50.331	-0.138	0.131
-496.595	-65.732	0.300	0.121
-495.581	353.098	0.018	-0.035
-494.566	-28.725	0.156	-0.091
-493.551	800.000	0.093	-0.341
-492.537	-51.359	-0.207	-0.097
-491.522	72.528	0.163	-0.171
-490.508	-178.627	0.215	-0.005
-489.493	-142.280	0.045	-0.004
-488.478	-200.000	-0.008	-0.182
-487.464	800.000	-0.029	-0.091
-486.449	-200.000	-0.012	-0.361
-485.435	-80.879	-0.103	0.034
-484.420	800.000	-0.018	-0.077
-483.405	206.667	0.065	0.102
-482.391	-63.006	-0.377	-0.157
-481.376	224.832	0.160	-0.261
-480.362	26.128	0.096	0.080
-479.347	800.000	0.059	0.212
-478.332	800.000	0.096	0.343
-477.318	60.957	0.049	-0.049
-476.303	165.471	-0.257	-0.366
-475.289	-165.259	-0.184	-0.008
-474.274	12.915	-0.037	-0.029
-473.259	800.000	0.043	-0.133
-472.245	-113.381	0.226	0.045
-471.230	24.613	-0.095	0.079
-470.216	800.000	-0.032	-0.120
-469.201	99.016	-0.138	-0.161
-468.186	42.943	0.111	-0.102
-467.172	281.916	-0.033	-0.059
-466.157	800.000	-0.044	-0.149
-465.143	372.928	-0.103	0.211
-464.128	220.502	-0.156	0.251
-463.113	667.844	-0.084	-0.219
-462.099	-14.702	0.282	0.183
-461.084	-36.757	0.187	0.101
-460.070	-136.173	0.132	0.016
-459.055	354.041	-0.090	0.180
-458.040	40.029	-0.229	-0.207
-457.026	443.825	-0.220	0.486
-456.011	358.271	-0.063	0.126
-454.997	-200.000	-0.040	-0.194
-453.982	-77.189	-0.108	-0.038
-452.968	-200.000	0.009	-0.055
-451.953	171.521	-0.131	0.189
-450.938	-90.485	-0.181	-0.053
-449.924	-116.151	-0.256	-0.048
-448.909	-158.537	-0.232	-0.014
-447.895	-76.208	0.160	-0.057
-446.880	800.000	0.062	-0.217
-445.865	46.058	-0.158	-0.147
-444.851	673.254	0.072	-0.189
-443.836	65.294	0.164	-0.167
-442.822	169.041	-0.137	0.197
-441.807	-42.338	0.196	-0.101
-440.792	-44.816	-0.167	0.084
-439.778	-70.120	0.095	0.037
-438.763	800.000	-0.037	-0.112
-437.749	128.862	-0.107	-0.137
-436.734	12.604	-0.140	0.108
-435.719	-162.952	0.183	0.009
-434.705	-146.933	0.209	0.018
-433.690	25.970	0.207	0.174
-432.676	-93.041	0.055	0.016
-431.661	5.134	-0.072	0.053
-430.646	-34.167	0.130	0.072
-429.632	270.224	-0.041	0.073
-428.617	377.562	-0.190	0.390
-427.603	-168.954	0.454	0.017
-426.588	35.328	0.038	0.033
-425.573	800.000	-0.050	-0.140
-424.559	-181.893	-0.355	0.007
-423.544	189.598	0.024	0.036
-422.530	-72.694	-0.215	0.080
-421.515	195.361	-0.013	-0.021
-420.500	-81.989	0.068	0.022
-419.486	324.104	-0.058	0.111
-418.471	0.178	-0.314	-0.225
-417.457	-135.847	-0.194	-0.023
-416.442	359.640	0.126	-0.254
-415.428	-200.000	-0.011	-0.206
-414.413	-2.598	0.205	-0.145
-413.398	-0.304	0.063	-0.045
-412.384	-69.201	0.084	0.032
-411.369	119.779	-0.152	-0.190
-410.355	-200.000	-0.032	-0.255
-409.340	800.000	0.130	0.372
-408.325	800.000	0.112	0.445
-407.311	-200.000	-0.019	0.093
-406.296	78.815	-0.092	0.099
-405.282	-153.677	-0.138	0.010
-404.267	432.109	-0.030	0.064
-403.252	800.000	-0.117	-0.385
-402.238	-92.568	0.121	-0.034
-401.223	382.817	-0.086	0.177
-400.209	250.925	0.127	-0.217
-399.194	108.062	0.135	-0.162
-398.179	216.985	0.102	-0.162
-397.165	79.247	0.046	0.050
-396.150	-172.233	-0.082	0.003
-395.136	118.311	0.172	-0.213
-394.121	-114.778	-0.090	-0.017
-393.106	-42.205	-0.054	0.028
-392.092	84.877	-0.196	-0.216
-391.077	59.814	-0.286	0.283
-390.063	800.000	-0.068	-0.237
-389.048	800.000	0.071	0.292
-388.033	203.774	-0.087	-0.135
-387.019	4.530	-0.098	0.072
-386.004	-200.000	-0.051	0.438
-384.990	128.337	0.083	-0.106
-383.975	-200.000	0.030	0.187
-382.960	-21.454	0.093	-0.057
-381.946	155.272	-0.233	-0.323
-380.931	-146.083	0.364	0.032
-379.917	-187.327	-0.152	0.002
-378.902	127.275	-0.127	-0.162
-377.888	657.363	0.086	-0.223
-376.873	154.455	-0.106	-0.147
-375.858	-75.271	0.291	0.104
-374.844	-62.448	-0.339	0.141
-373.829	-200.000	0.029	-0.128
-372.815	15.455	0.177	0.140
-371.800	-30.052	0.031	-0.018
-370.785	118.875	-0.229	0.285
-369.771	481.659	0.088	0.202
-368.756	-200.000	0.019	-0.177
-367.742	102.190	-0.110	0.129
-366.727	800.000	-0.065	-0.189
-365.712	-125.330	0.187	-0.029
-364.698	800.000	0.057	-0.201
-363.683	-13.786	-0.206	-0.134
-362.669	-50.315	0.231	0.109
-361.654	192.780	-0.101	-0.154
-360.639	-94.228	-0.272	0.075
-359.625	-24.504	0.123	0.073
-358.610	-47.345	0.122	-0.060
-357.596	289.094	0.040	-0.073
-356.581	-199.734	0.251	-0.001
-355.566	60.018	0.159	0.158
-354.552	-12.805	-0.104	0.068
-353.537	-32.686	-0.127	-0.071
-352.523	799.960	0.028	-0.079
-351.508	578.000	0.200	-0.490
-350.493	-200.000	0.012	0.098
-349.479	119.955	-0.235	0.292
-348.464	-31.536	0.212	0.120
-347.450	56.504	0.110	0.107
-346.435	-35.531	-0.130	0.071
-345.420	115.922	0.050	0.062
-344.406	222.869	-0.136	0.219
-343.391	-200.000	-0.053	-0.289
-342.377	-55.145	0.116	0.053
-341.362	270.506	-0.079	-0.140
-340.348	-166.828	-0.189	-0.008
-339.333	585.634	0.055	-0.136
-338.318	-19.419	-0.086	0.053
-337.304	800.000	-0.061	0.216
-336.289	-134.122	0.054	0.007
-335.275	-75.985	0.090	0.032
-334.260	-151.903	0.213	0.016
-333.245	9.180	0.051	-0.039
-332.231	-18.864	-0.309	0.193
-331.216	44.728	0.057	0.053
-330.202	16.073	0.146	0.115
-329.187	-132.164	-0.253	0.033
-328.172	178.409	0.069	-0.100
-327.158	240.743	-0.071	-0.118
-326.143	233.860	-0.093	-0.154
-325.129	467.520	-0.098	0.221
-324.114	-121.502	-0.123	0.021
-323.099	-172.480	-0.248	-0.008
-322.085	13.572	-0.343	0.267
-321.070	-109.583	-0.166	-0.035
-320.056	-200.000	-0.255	0.001
-319.041	-68.271	0.439	0.171
-318.026	-91.686	0.390	0.111
-317.012	-73.811	-0.343	0.125
-315.997	86.505	0.149	-0.165
-314.983	-47.715	-0.052	-0.025
-313.968	-36.743	-0.203	-0.109
-312.953	800.000	-0.077	0.241
-311.939	-50.399	0.368	0.174
-310.924	227.933	0.046	-0.074
-309.910	-200.000	0.044	-0.371
-308.895	107.975	-0.118	-0.141
-307.880	33.453	0.079	-0.069
-306.866	-20.426	0.103	-0.063
-305.851	201.882	-0.057	0.087
-304.837	-200.000	0.041	0.411
-303.822	-200.000	0.033	0.177
-302.807	-59.899	-0.314	0.135
-301.793	-136.325	0.140	0.016
-300.778	71.581	-0.095	0.099
-299.764	95.586	-0.254	0.290
-298.749	-200.000	0.000	0.279
-297.735	-16.177	0.184	0.117
-296.720	-1.793	0.087	0.061
-295.705	-200.000	-0.055	-0.357
-294.691	71.099	0.019	0.020
-293.676	55.657	0.157	0.152
-292.662	-97.673	0.085	-0.022
-291.647	-200.000	0.015	0.318
-290.632	-32.544	0.345	-0.192
-289.618	380.497	-0.073	0.150
-288.603	61.600	0.148	0.148
-287.589	800.000	-0.076	-0.284
-286.574	50.666	0.138	0.131
-285.559	-120.020	-0.244	-0.042
-284.545	-200.000	-0.059	-0.320
-283.530	264.181	0.109	0.190
-282.516	-200.000	0.030	-0.376
-281.501	800.000	-0.012	0.042
-280.486	53.265	-0.044	0.042
-279.472	133.943	-0.220	-0.285
-278.457	137.330	-0.168	0.219
-277.443	-52.539	-0.228	0.106
-276.428	-67.099	-0.326	-0.128
-275.413	-87.253	-0.195	-0.059
-274.399	296.475	0.224	0.412
-273.384	538.819	0.097	-0.230
-272.370	52.825	-0.170	0.163
-271.355	155.402	-0.064	0.088
-270.340	-53.336	-0.319	-0.146
-269.326	273.065	0.041	0.072
-268.311	-15.457	0.329	0.210
-267.297	-200.000	0.004	-0.152
-266.282	467.318	-0.113	-0.254
-265.267	164.500	0.140	-0.198
-264.253	-143.972	-0.309	0.029
-263.238	-66.506	0.210	0.084
-262.224	12.964	0.190	0.147
-261.209	-200.000	-0.029	0.188
-260.195	73.788	0.086	0.090
-259.180	255.930	-0.099	-0.170
-258.165	-159.373	0.196	0.011
-257.151	-92.717	-0.214	0.060
-256.136	106.106	0.137	-0.162
-255.122	-200.000	-0.024	0.127
-254.107	-200.000	-0.007	0.147
-253.092	22.116	0.228	-0.186
-252.078	1.241	-0.111	-0.080
-251.063	624.334	0.036	0.090
-250.049	-76.027	-0.076	0.027
-249.034	-162.507	0.136	0.007
-248.019	116.331	0.072	0.088
-247.005	800.000	-0.033	-0.109
-245.990	196.489	-0.063	0.095
-244.976	-178.598	0.178	-0.004
-243.961	-141.722	-0.208	-0.021
-242.946	-120.569	0.225	-0.038
-241.932	800.000	-0.024	0.074
-240.917	10.271	-0.297	-0.226
-239.903	-200.000	0.033	0.181
-238.888	532.496	0.078	0.185
-237.873	-169.383	0.227	-0.008
-236.859	-82.962	0.385	-0.124
-235.844	800.000	0.099	0.291
-234.830	-79.173	-0.356	0.121
-233.815	-200.000	0.000	-0.039
-232.800	87.601	-0.144	-0.159
-231.786	23.920	0.257	-0.211
-230.771	4.866	-0.247	0.182
-229.757	43.779	-0.047	-0.043
-228.742	-91.338	0.277	0.079
-227.727	174.484	-0.253	0.365
-226.713	800.000	-0.027	0.104
-225.698	608.362	-0.097	-0.243
-224.684	19.021	0.303	0.243
-223.669	800.000	-0.101	0.281
-222.655	800.000	-0.069	0.222
-221.640	-57.757	0.058	-0.026
-220.625	-59.516	0.424	0.182
-219.611	-160.330	-0.392	-0.021
-218.596	-200.000	-0.041	-0.226
-217.582	-10.251	0.151	0.100
-216.567	-108.470	-0.271	0.058
-215.552	-83.947	0.251	0.080
-214.538	-180.979	-0.271	-0.005
-213.523	-186.530	0.293	-0.004
-212.509	137.465	0.108	-0.141
-211.494	59.147	-0.016	-0.016
-210.479	-181.991	0.160	0.003
-209.465	-26.089	0.392	0.230
-208.450	-98.860	-0.069	0.017
-207.436	-127.880	-0.120	0.017
-206.421	-48.378	0.165	-0.079
-205.406	140.084	0.047	0.062
-204.392	-200.000	0.000	-0.036
-203.377	-160.789	-0.188	0.010
-202.363	47.020	-0.155	0.144
-201.348	743.649	-0.099	0.265
-200.333	10.236	0.136	-0.103
-199.319	-99.970	-0.087	0.022
-198.304	-87.624	0.128	-0.039
-197.290	71.083	0.167	0.172
-196.275	-2.130	0.315	0.221
-195.260	53.127	0.032	-0.031
-194.246	47.758	0.141	0.132
-193.231	203.290	-0.116	0.179
-192.217	-15.878	0.294	0.186
-191.202	228.660	-0.107	-0.174
-190.187	800.000	-0.065	0.189
-189.173	-25.569	-0.237	-0.140
-188.158	-119.001	-0.241	0.042
-187.144	83.897	0.126	-0.137
-186.129	274.796	0.196	0.346
-185.114	536.130	-0.024	-0.058
-184.100	6.092	0.281	-0.207
-183.085	-123.357	-0.336	0.053
-182.071	-48.972	0.223	-0.107
-181.056	166.453	-0.301	-0.425
-180.042	98.457	0.153	0.176
-179.027	223.673	-0.028	0.046
-178.012	-18.455	0.112	-0.070
-176.998	-79.636	0.333	0.112
-175.983	-160.811	-0.083	-0.004
-174.969	63.730	0.162	0.162
-173.954	-200.000	0.005	0.126
-172.939	117.560	0.262	0.322
-171.925	159.541	0.172	0.239
-170.910	-200.000	-0.009	-0.127
-169.896	-125.303	-0.040	0.006
-168.881	800.000	-0.099	-0.328
-167.866	-134.023	0.406	-0.050
-166.852	246.506	-0.125	-0.210
-165.837	800.000	-0.130	-0.386
-164.823	110.846	0.027	0.032
-163.808	-44.581	0.289	0.144
-162.793	-12.380	0.070	-0.046
-161.779	164.545	0.149	-0.209
-160.764	-200.000	-0.003	0.103
-159.750	-136.438	0.131	0.015
-158.735	-55.950	-0.091	0.040
-157.720	-94.132	0.256	0.070
-156.706	-31.272	0.321	-0.180
-155.691	57.886	0.050	-0.049
-154.677	-34.129	-0.101	-0.055
-153.662	-200.000	0.004	-0.136
-152.647	287.429	0.033	-0.060
-151.633	9.550	0.376	-0.283
-150.618	-200.000	-0.019	0.154
-149.604	-67.103	0.332	0.130
-148.589	-37.333	0.244	0.130
-147.574	-62.423	0.144	-0.060
-146.560	51.557	-0.165	-0.156
-145.545	324.221	0.171	-0.325
-144.531	-200.000	-0.013	0.090
-143.516	317.625	-0.077	-0.144
-142.502	-200.000	0.018	0.172
-141.487	-200.000	0.087	0.382
-140.472	-75.593	-0.141	-0.050
-139.458	-200.000	-0.014	-0.078
-138.443	-200.000	0.019	-0.223
-137.429	-80.404	-0.118	-0.039
-136.414	22.379	0.089	0.072
-135.399	128.132	0.127	-0.160
-134.385	-200.000	-0.044	-0.278
-133.370	-3.381	0.056	-0.039
-132.356	-200.000	-0.027	0.130
-131.341	-65.578	0.029	0.012
-130.326	109.723	0.135	0.162
-129.312	800.000	0.106	-0.306
-128.297	-59.614	0.238	0.101
-127.283	-97.061	0.300	0.078
-126.268	-200.000	0.008	0.097
-125.253	-184.994	0.240	0.004
-124.239	-63.630	0.295	0.120
-123.224	-81.706	-0.241	0.079
-122.210	800.000	0.111	0.394
-121.195	512.495	0.072	-0.166
