DTS Sentinel unit serial number:	SN413079Multiplexer serial number:	ORYXHardware model number:	OX4-SRSoftware version number:	ORYX F/W v4.00 Oryx Data Collector v3.7.2.0data status	okinstallation	princeton_trtdifferential loss correction	single-endedforward channel	channel 4reverse channel	N/Adate	2019/09/14time	15:05:34forward acquisition time	60.00reverse acquisition time	0.00gamma	496.2192k internal	0.2290k external	0.2290temperature offset calibration	1.0141default loss term (dB/km)	0.3790temperature slope calibration	1.0000multiplexer offset coefficient	1.0000multiplexer slope coefficient	1.0000fibre end	0.00T internal ref (°C)	39.06T ext. ref 1 (°C)	5.08T ext. ref 2 (°C)	34.92length (m)	temperature (°C)	Stokes	anti-Stokes-747.200	431.707	-0.128	-0.283
-746.185	-118.137	0.218	-0.040
-745.171	-200.000	0.004	-0.194
-744.156	160.443	-0.283	0.404
-743.142	-200.000	0.003	0.128
-742.127	-136.469	0.251	-0.030
-741.112	109.132	0.146	0.179
-740.098	-2.833	-0.164	0.118
-739.083	70.744	-0.066	-0.070
-738.069	116.413	0.040	0.050
-737.054	-111.975	-0.242	-0.050
-736.039	17.971	-0.093	0.076
-735.025	-200.000	0.031	0.426
-734.010	-126.725	-0.539	0.082
-732.996	329.393	-0.094	-0.184
-731.981	-77.809	-0.440	-0.156
-730.966	-118.832	-0.127	0.023
-729.952	107.321	0.121	-0.148
-728.937	-153.680	-0.187	-0.013
-727.923	586.876	-0.072	-0.182
-726.908	-48.657	0.395	-0.194
-725.894	800.000	-0.067	-0.279
-724.879	-37.701	0.065	0.035
-723.864	800.000	-0.026	0.089
-722.850	-200.000	0.063	-0.345
-721.835	-148.545	0.146	-0.012
-720.821	165.644	0.029	-0.042
-719.806	509.699	0.015	0.035
-718.791	15.796	0.235	-0.190
-717.777	800.000	-0.014	0.063
-716.762	-104.633	0.031	0.007
-715.748	-140.412	0.149	0.016
-714.733	-200.000	-0.029	0.213
-713.718	-106.549	-0.295	0.067
-712.704	286.323	0.150	-0.277
-711.689	1.860	0.076	0.056
-710.675	-79.229	-0.207	-0.072
-709.660	48.253	0.245	-0.235
-708.645	77.345	-0.313	-0.341
-707.631	84.267	0.084	-0.094
-706.616	-142.544	-0.321	-0.032
-705.602	-77.451	-0.416	-0.148
-704.587	144.861	-0.246	-0.337
-703.572	10.395	-0.227	-0.177
-702.558	-142.265	0.255	0.026
-701.543	-87.319	0.267	0.083
-700.529	-111.332	0.254	-0.053
-699.514	800.000	-0.073	0.317
-698.499	647.955	-0.096	0.250
-697.485	-200.000	0.026	0.229
-696.470	-200.000	0.058	0.291
-695.456	222.682	-0.140	-0.230
-694.441	169.719	-0.165	-0.241
-693.426	599.923	0.137	-0.348
-692.412	-200.000	0.033	0.192
-691.397	-102.371	0.217	-0.053
-690.383	-200.000	-0.010	-0.087
-689.368	-200.000	-0.026	-0.533
-688.354	57.276	-0.195	-0.195
-687.339	69.438	-0.185	0.195
-686.324	-100.493	0.225	-0.057
-685.310	605.547	0.063	-0.160
-684.295	-200.000	0.008	-0.388
-683.281	46.610	-0.052	0.049
-682.266	-53.748	-0.140	0.065
-681.251	-169.125	0.281	-0.011
-680.237	175.789	0.159	-0.235
-679.222	449.689	-0.063	-0.141
-678.208	-86.559	-0.339	-0.106
-677.193	-40.796	0.031	0.016
-676.178	-200.000	-0.059	-0.294
-675.164	-118.195	-0.282	-0.051
-674.149	311.859	0.118	0.225
-673.135	-55.627	0.454	-0.208
-672.120	-200.000	0.065	-0.333
-671.105	-130.703	-0.135	-0.019
-670.091	800.000	0.067	-0.193
-669.076	5.578	0.151	-0.114
-668.062	-200.000	0.014	-0.342
-667.047	409.178	0.109	-0.235
-666.032	-86.673	-0.092	-0.029
-665.018	71.140	-0.114	-0.121
-664.003	-52.130	-0.100	-0.047
-662.989	152.427	0.087	0.121
-661.974	-93.366	-0.192	-0.054
-660.959	-200.000	-0.019	-0.225
-659.945	-81.663	0.262	-0.088
-658.930	-200.000	0.012	-0.271
-657.916	-200.000	-0.082	-0.456
-656.901	207.316	-0.084	0.133
-655.886	-200.000	0.006	-0.341
-654.872	-200.000	-0.006	-0.138
-653.857	800.000	0.044	0.159
-652.843	-136.909	-0.104	0.012
-651.828	-117.477	-0.256	0.047
-650.814	-114.913	-0.198	-0.039
-649.799	-8.288	0.273	0.187
-648.784	214.075	-0.211	0.341
-647.770	100.966	0.173	0.205
-646.755	800.000	0.041	0.164
-645.741	41.279	0.074	-0.068
-644.726	-114.646	-0.164	-0.032
-643.711	-200.000	-0.039	0.322
-642.697	800.000	-0.047	0.143
-641.682	8.947	0.268	-0.207
-640.668	-200.000	0.009	0.232
-639.653	-68.046	-0.305	-0.121
-638.638	-39.953	0.085	-0.045
-637.624	-13.965	-0.112	0.074
-636.609	-145.439	0.078	-0.007
-635.595	192.340	0.116	-0.179
-634.580	15.016	0.174	-0.139
-633.565	324.479	0.103	0.201
-632.551	15.409	0.271	-0.217
-631.536	70.067	-0.151	-0.159
-630.522	-89.184	0.190	0.057
-629.507	-34.020	0.225	-0.126
-628.492	-200.000	0.024	-0.444
-627.478	-90.029	-0.333	0.099
-626.463	-133.136	-0.128	-0.016
-625.449	78.414	-0.116	-0.126
-624.434	-135.066	-0.411	-0.050
-623.419	486.926	0.106	-0.247
-622.405	-83.300	0.130	-0.042
-621.390	275.365	0.167	0.303
-620.376	20.337	0.131	0.108
-619.361	157.966	-0.197	0.279
-618.346	-51.118	0.061	0.029
-617.332	-10.779	-0.092	0.062
-616.317	-12.161	-0.143	0.095
-615.303	-200.000	0.029	0.241
-614.288	190.283	0.082	-0.126
-613.273	-91.788	-0.189	0.055
-612.259	58.491	0.304	-0.304
-611.244	-75.722	0.170	0.062
-610.230	-200.000	-0.022	0.207
-609.215	-200.000	-0.019	-0.232
-608.201	-74.493	0.172	0.063
-607.186	-69.213	0.400	0.157
-606.171	800.000	-0.104	-0.303
-605.157	116.792	0.083	0.104
-604.142	73.218	-0.061	0.065
-603.128	-1.301	-0.144	0.104
-602.113	65.115	0.096	-0.099
-601.098	-24.999	0.037	-0.022
-600.084	-107.304	0.131	0.029
-599.069	310.780	0.163	-0.311
-598.055	800.000	-0.012	-0.045
-597.040	-90.530	0.156	0.046
-596.025	-152.104	-0.493	-0.036
-595.011	381.935	-0.094	-0.197
-593.996	-26.803	0.256	-0.152
-592.982	-0.586	-0.135	0.097
-591.967	-200.000	-0.036	0.170
-590.952	-83.054	-0.351	0.115
-589.938	-95.460	-0.054	-0.015
-588.923	52.416	-0.205	0.200
-587.909	128.407	-0.067	0.086
-586.894	800.000	-0.134	-0.393
-585.879	237.292	0.132	0.222
-584.865	17.401	0.242	-0.196
-583.850	-47.737	0.023	-0.011
-582.836	800.000	0.041	0.161
-581.821	188.749	0.154	0.234
-580.806	-66.786	-0.134	0.054
-579.792	-152.263	0.040	-0.003
-578.777	-31.981	0.156	0.089
-577.763	291.272	-0.125	0.232
-576.748	-76.464	-0.350	-0.125
-575.733	-50.159	0.061	0.029
-574.719	-139.165	0.084	-0.009
-573.704	-87.542	-0.350	0.108
-572.690	-116.897	-0.331	0.062
-571.675	-200.000	-0.023	0.176
-570.661	-63.480	-0.386	-0.161
-569.646	-118.171	0.064	0.012
-568.631	40.433	-0.135	-0.123
-567.617	-44.493	0.109	-0.055
-566.602	-122.307	-0.358	-0.059
-565.588	121.686	-0.200	0.253
-564.573	-23.387	-0.276	0.169
-563.558	86.607	-0.057	0.064
-562.544	165.739	0.099	-0.142
-561.529	-7.632	-0.078	0.054
-560.515	-65.382	-0.312	-0.128
-559.500	53.568	-0.207	-0.202
-558.485	-113.164	-0.209	-0.042
-557.471	-30.674	0.168	-0.097
-556.456	-97.347	-0.388	0.103
-555.442	28.983	0.140	-0.121
-554.427	-106.694	0.312	-0.070
-553.412	-23.543	-0.293	0.179
-552.398	-200.000	0.022	-0.122
-551.383	-3.445	0.154	-0.109
-550.369	-200.000	0.006	0.064
-549.354	78.177	-0.152	0.165
-548.339	-98.173	-0.390	0.102
-547.325	-61.927	-0.143	0.061
-546.310	33.207	0.164	-0.144
-545.296	-55.281	-0.022	-0.010
-544.281	-200.000	-0.034	-0.166
-543.266	268.900	0.127	-0.226
-542.252	-149.995	0.311	0.025
-541.237	-31.424	0.129	-0.074
-540.223	-200.000	0.023	-0.148
-539.208	-200.000	-0.023	0.309
-538.193	-38.151	-0.194	0.104
-537.179	-200.000	0.001	0.178
-536.164	-11.406	0.145	0.097
-535.150	27.284	0.151	-0.129
-534.135	-131.852	-0.187	-0.025
-533.121	17.616	0.228	0.184
-532.106	359.065	0.082	0.166
-531.091	-200.000	0.046	0.415
-530.077	118.463	-0.229	-0.287
-529.062	-200.000	0.007	0.124
-528.048	79.929	0.036	-0.040
-527.033	-200.000	0.006	-0.323
-526.018	-200.000	-0.005	-0.167
-525.004	800.000	0.027	-0.117
-523.989	-200.000	-0.018	-0.095
-522.975	800.000	-0.075	0.221
-521.960	800.000	-0.070	0.205
-520.945	104.190	-0.082	-0.098
-519.931	164.653	0.127	0.182
-518.916	528.125	-0.156	-0.373
-517.902	-134.593	0.231	-0.029
-516.887	800.000	0.025	0.078
-515.872	286.536	-0.187	-0.343
-514.858	109.404	0.132	-0.160
-513.843	-101.022	0.025	0.006
-512.829	800.000	-0.040	0.146
-511.814	198.454	-0.130	0.202
-510.799	-122.055	0.101	0.017
-509.785	60.935	0.200	0.201
-508.770	-200.000	0.082	-0.392
-507.756	-90.737	0.410	0.120
-506.741	-200.000	-0.042	0.311
-505.726	-75.476	-0.030	-0.011
-504.712	198.411	0.144	-0.224
-503.697	434.897	0.050	-0.111
-502.683	-145.962	0.066	0.006
-501.668	-200.000	0.001	0.048
-500.653	187.531	0.074	0.111
-499.639	-14.556	0.112	0.073
-498.624	81.178	-0.053	0.058
-497.610	-200.000	0.016	0.243
-496.595	-200.000	-0.000	0.294
-495.581	158.541	-0.157	-0.221
-494.566	36.659	-0.181	-0.162
-493.551	-12.508	0.068	-0.045
-492.537	56.622	-0.113	-0.111
-491.522	166.840	-0.108	0.155
-490.508	-69.302	-0.422	0.164
-489.493	197.424	0.186	-0.288
-488.478	-108.574	-0.159	-0.035
-487.464	396.577	0.156	-0.330
-486.449	13.081	-0.085	-0.067
-485.435	430.495	0.106	-0.234
-484.420	800.000	0.111	-0.367
-483.405	21.549	0.047	0.039
-482.391	-124.227	0.210	-0.033
-481.376	-200.000	0.026	-0.121
-480.362	-200.000	0.011	0.076
-479.347	-87.920	-0.287	-0.088
-478.332	54.341	0.106	-0.103
-477.318	-125.219	-0.239	0.037
-476.303	111.056	0.130	0.159
-475.289	-133.532	-0.214	0.027
-474.274	-200.000	0.015	-0.311
-473.259	-200.000	0.035	-0.475
-472.245	800.000	0.046	0.159
-471.230	-80.112	0.112	0.038
-470.216	-200.000	-0.007	0.113
-469.201	116.832	0.261	0.325
-468.186	594.211	-0.125	-0.313
-467.172	-123.910	0.120	0.019
-466.157	-84.185	0.041	-0.013
-465.143	-160.097	-0.188	0.010
-464.128	360.861	0.090	-0.183
-463.113	11.994	-0.077	0.060
-462.099	31.694	-0.244	0.212
-461.084	133.776	0.028	-0.036
-460.070	3.370	-0.033	0.024
-459.055	32.576	0.075	0.065
-458.040	257.262	-0.046	0.080
-457.026	-11.618	-0.115	-0.076
-456.011	800.000	-0.097	-0.321
-454.997	32.771	-0.076	-0.067
-453.982	-200.000	-0.036	-0.243
-452.968	-14.153	0.144	0.094
-451.953	-163.021	0.315	0.015
-450.938	8.132	0.081	-0.061
-449.924	800.000	-0.034	0.150
-448.909	377.894	-0.032	0.067
-447.895	49.284	0.251	0.239
-446.880	105.572	-0.152	0.182
-445.865	-144.705	-0.217	0.020
-444.851	-175.312	0.085	0.002
-443.836	-72.535	0.281	-0.105
-442.822	58.233	0.050	-0.050
-441.807	365.234	0.077	-0.156
-440.792	-65.896	-0.290	-0.117
-439.778	-145.458	0.117	-0.011
-438.763	-22.999	-0.147	0.090
-437.749	800.000	0.024	-0.068
-436.734	800.000	0.040	0.143
-435.719	-200.000	0.315	-0.001
-434.705	77.469	0.084	-0.090
-433.690	72.565	-0.182	-0.192
-432.676	-158.531	-0.036	0.002
-431.661	-107.876	-0.275	-0.061
-430.646	145.832	0.173	0.235
-429.632	-82.845	0.325	-0.106
-428.617	607.930	-0.041	-0.103
-427.603	-57.910	-0.290	0.128
-426.588	800.000	-0.009	-0.038
-425.573	34.875	0.159	0.141
-424.559	134.665	-0.208	0.272
-423.544	-153.491	-0.093	-0.007
-422.530	260.443	0.066	-0.116
-421.515	-200.000	-0.067	0.349
-420.500	-102.349	-0.087	0.021
-419.486	124.892	0.199	-0.253
-418.471	-113.196	0.198	-0.039
-417.457	578.213	0.108	0.268
-416.442	453.716	0.081	0.182
-415.428	84.572	0.094	-0.105
-414.413	800.000	0.130	0.406
-413.398	-162.513	-0.128	-0.006
-412.384	-200.000	-0.022	-0.167
-411.369	-121.609	-0.236	0.040
-410.355	800.000	0.070	0.262
-409.340	-200.000	0.028	0.233
-408.325	-200.000	0.030	-0.180
-407.311	560.169	0.088	0.216
-406.296	81.624	-0.197	0.216
-405.282	-200.000	-0.024	-0.168
-404.267	-200.000	0.077	-0.392
-403.252	729.125	-0.070	0.190
-402.238	91.985	0.057	-0.065
-401.223	-166.873	0.329	-0.014
-400.209	-33.182	-0.167	-0.093
-399.194	800.000	0.075	-0.240
-398.179	67.436	-0.093	-0.096
-397.165	800.000	-0.040	-0.143
-396.150	38.377	-0.157	0.141
-395.136	335.530	0.098	0.193
-394.121	-200.000	0.004	0.130
-393.106	800.000	-0.040	0.124
-392.092	49.570	0.166	0.158
-391.077	156.633	0.075	-0.105
-390.063	-112.148	0.427	0.087
-389.048	33.819	-0.044	-0.039
-388.033	-51.450	0.171	0.081
-387.019	403.262	0.053	-0.113
-386.004	-0.499	0.181	0.130
-384.990	416.959	0.111	-0.240
-383.975	-149.423	-0.211	0.017
-382.960	-34.748	-0.204	0.113
-381.946	408.293	0.177	0.379
-380.931	-38.831	-0.333	-0.177
-379.917	-58.216	-0.036	-0.016
-378.902	83.969	-0.233	0.257
-377.888	61.430	-0.212	-0.213
-376.873	-116.121	0.354	0.066
-375.858	32.332	-0.079	-0.069
-374.844	-34.404	0.362	-0.200
-373.829	-108.633	0.269	0.058
-372.815	519.915	-0.073	-0.174
-371.800	-165.377	0.479	-0.021
-370.785	800.000	0.067	0.287
-369.771	-152.193	-0.363	-0.027
-368.756	-84.295	-0.118	0.038
-367.742	-54.367	-0.185	0.085
-366.727	-200.000	-0.001	0.274
-365.712	58.580	-0.119	0.117
-364.698	-53.830	0.030	0.014
-363.683	206.953	0.026	0.042
-362.669	70.514	-0.017	0.018
-361.654	-35.981	-0.055	0.030
-360.639	-19.288	-0.179	-0.112
-359.625	-157.999	0.167	-0.010
-358.610	-69.599	0.020	0.008
-357.596	15.481	-0.184	-0.146
-356.581	187.576	-0.108	-0.163
-355.566	-118.116	0.385	0.069
-354.552	-32.212	0.353	0.199
-353.537	-46.912	0.177	0.087
-352.523	-21.981	0.048	0.029
-351.508	-200.000	-0.032	-0.172
-350.493	-106.747	-0.304	0.068
-349.479	-148.799	-0.249	0.020
-348.464	2.498	0.473	0.345
-347.450	473.839	-0.061	-0.139
-346.435	406.113	0.052	0.111
-345.420	-130.886	0.189	0.026
-344.406	-154.201	0.337	0.023
-343.391	-155.966	0.260	0.017
-342.377	299.405	-0.103	0.191
-341.362	-13.508	0.046	-0.030
-340.348	-143.676	-0.236	0.023
-339.333	285.323	-0.128	-0.232
-338.318	78.993	-0.110	0.119
-337.304	-14.633	0.204	0.132
-336.289	-17.087	0.385	0.245
-335.275	800.000	-0.056	0.237
-334.260	-94.848	-0.130	-0.035
-333.245	-14.361	0.125	-0.081
-332.231	-200.000	0.003	-0.020
-331.216	-38.118	0.037	-0.020
-330.202	120.647	-0.094	0.118
-329.187	-131.233	-0.359	0.048
-328.172	800.000	-0.024	-0.079
-327.158	-44.646	0.165	-0.083
-326.143	-28.764	0.077	0.045
-325.129	50.152	-0.230	-0.219
-324.114	-200.000	-0.024	-0.150
-323.099	234.952	-0.091	-0.152
-322.085	-17.044	-0.231	-0.147
-321.070	-176.471	0.103	-0.003
-320.056	-20.618	0.367	-0.227
-319.041	800.000	-0.025	0.100
-318.026	331.237	0.049	0.095
-317.012	546.309	0.028	0.067
-315.997	-200.000	-0.048	-0.288
-314.983	91.142	0.036	0.040
-313.968	-15.612	-0.061	-0.039
-312.953	9.606	-0.187	-0.143
-311.939	-83.642	0.205	0.066
-310.924	-110.404	-0.183	0.038
-309.910	727.862	0.039	0.105
-308.895	-32.221	-0.300	-0.169
-307.880	307.525	0.062	0.116
-306.866	-104.731	0.195	0.045
-305.851	124.146	-0.049	0.062
-304.837	-123.015	0.308	0.050
-303.822	73.939	-0.050	0.053
-302.807	-132.025	-0.351	-0.046
-301.793	800.000	-0.028	-0.110
-300.778	-164.481	0.113	-0.005
-299.764	800.000	0.037	0.104
-298.749	800.000	0.061	0.236
-297.735	27.880	-0.218	-0.185
-296.720	169.007	-0.088	0.126
-295.705	37.596	0.126	0.113
-294.691	70.141	0.039	-0.041
-293.676	-200.000	-0.029	-0.387
-292.662	422.678	-0.126	0.273
-291.647	-6.234	0.046	-0.032
-290.632	-107.662	0.022	-0.005
-289.618	69.178	-0.039	0.040
-288.603	-71.448	-0.187	-0.070
-287.589	69.472	-0.162	0.167
-286.574	24.686	-0.185	-0.154
-285.559	48.508	0.258	-0.243
-284.545	75.447	0.203	0.215
-283.530	800.000	0.066	-0.236
-282.516	-35.059	-0.251	-0.138
-281.501	-200.000	-0.001	0.509
-280.486	-39.299	0.173	-0.092
-279.472	-129.754	-0.153	-0.021
-278.457	390.881	0.118	-0.247
-277.443	-16.727	0.106	-0.067
-276.428	97.004	-0.095	0.109
-275.413	-25.262	0.164	0.098
-274.399	52.427	0.061	-0.059
-273.384	-200.000	-0.012	-0.173
-272.370	259.942	-0.123	0.214
-271.355	99.788	-0.170	0.198
-270.340	-200.000	-0.039	-0.339
-269.326	24.220	-0.148	-0.123
-268.311	-150.762	0.107	0.008
-267.297	-152.226	-0.128	0.009
-266.282	-65.993	0.222	-0.089
-265.267	-66.055	-0.106	0.042
-264.253	-145.764	-0.303	-0.027
-263.238	184.608	0.094	-0.140
-262.224	800.000	0.059	-0.180
-261.209	466.477	-0.137	-0.310
-260.195	-9.611	0.100	-0.067
-259.180	110.325	0.144	0.174
-258.165	301.819	0.186	-0.345
-257.151	437.497	0.196	-0.428
-256.136	1.662	-0.234	0.170
-255.122	-94.913	0.140	-0.038
-254.107	25.341	0.109	0.091
-253.092	76.062	-0.089	-0.095
-252.078	-200.000	0.039	0.279
-251.063	-74.757	0.159	-0.058
-250.049	51.779	0.076	0.073
-249.034	103.174	0.263	0.310
-248.019	-200.000	0.009	0.121
-247.005	-34.442	-0.305	-0.168
-245.990	54.818	0.148	0.144
-244.976	192.704	0.175	0.265
-243.961	-182.325	-0.056	0.001
-242.946	-20.323	-0.139	-0.086
-241.932	-104.058	-0.114	-0.027
-240.917	-6.140	0.117	0.080
-239.903	24.727	0.163	0.135
-238.888	-200.000	0.053	-0.351
-237.873	64.431	0.093	-0.094
-236.859	331.629	-0.129	0.250
-235.844	508.367	0.157	0.367
-234.830	-83.424	-0.154	0.049
-233.815	266.923	-0.088	-0.155
-232.800	129.365	-0.052	0.067
-231.786	75.551	-0.100	-0.107
-230.771	376.238	0.107	-0.218
-229.757	-23.833	-0.251	-0.151
-228.742	535.599	-0.088	-0.209
-227.727	35.674	-0.090	-0.079
-226.713	-18.821	-0.164	-0.102
-225.698	-200.000	0.020	-0.254
-224.684	-200.000	0.018	0.078
-223.669	-86.964	-0.116	-0.036
-222.655	-33.401	0.253	0.141
-221.640	206.093	-0.103	0.160
-220.625	-62.123	0.052	0.022
-219.611	-19.381	-0.059	0.036
-218.596	-84.258	-0.131	-0.042
-217.582	-121.410	0.281	-0.047
-216.567	211.490	0.128	0.203
-215.552	-200.000	-0.045	0.429
-214.538	-47.694	0.244	-0.119
-213.523	-8.603	-0.158	0.107
-212.509	-50.926	0.127	0.060
-211.494	199.816	0.224	0.345
-210.479	800.000	-0.084	0.313
-209.465	-78.046	0.148	0.051
-208.450	800.000	0.020	0.081
-207.436	-200.000	-0.003	-0.098
-206.421	-34.747	-0.222	-0.121
-205.406	578.715	-0.074	0.182
-204.392	275.517	0.174	-0.310
-203.377	21.311	-0.151	-0.123
-202.363	7.814	0.196	-0.147
-201.348	-118.496	-0.033	-0.006
-200.333	-111.237	0.112	-0.023
-199.319	-146.041	0.132	0.012
-198.304	-200.000	0.026	-0.158
-197.290	26.122	0.272	0.227
-196.275	-200.000	0.005	0.103
-195.260	-200.000	0.007	-0.083
-194.246	-87.511	-0.306	-0.093
-193.231	-9.163	-0.150	-0.101
-192.217	-200.000	-0.032	-0.371
-191.202	-26.356	-0.202	0.119
-190.187	-19.146	-0.143	-0.089
-189.173	-104.069	0.695	-0.162
-188.158	-147.335	0.106	0.009
-187.144	46.986	0.344	-0.320
-186.129	-90.471	0.092	-0.027
-185.114	-28.641	0.188	0.109
-184.100	800.000	-0.045	0.155
-183.085	41.678	0.131	0.119
-182.071	-200.000	-0.011	0.177
-181.056	-106.315	-0.179	0.040
-180.042	-200.000	0.010	0.144
-179.027	-130.485	0.180	-0.024
-178.012	-200.000	-0.036	-0.181
-176.998	5.865	-0.155	0.115
-175.983	383.669	-0.187	0.385
-174.969	70.772	-0.175	0.182
-173.954	-130.905	-0.256	0.034
-172.939	114.015	0.134	-0.163
-171.925	-114.617	-0.331	0.063
-170.910	-162.080	0.286	-0.014
-169.896	-104.705	-0.153	0.035
-168.881	-70.696	0.056	0.021
-167.866	604.130	-0.084	-0.210
-166.852	-22.685	-0.058	-0.035
-165.837	152.716	-0.205	-0.281
-164.823	-138.548	0.217	-0.024
-163.808	-200.000	0.005	-0.368
-162.793	1.300	0.410	-0.295
-161.779	-50.541	-0.037	-0.018
-160.764	-200.000	-0.010	-0.084
-159.750	208.957	0.042	-0.066
-158.735	255.141	-0.035	0.060
-157.720	178.973	-0.191	0.280
-156.706	-155.840	-0.286	-0.018
-155.691	-20.343	-0.365	0.225
-154.677	268.985	-0.165	-0.290
-153.662	414.836	-0.150	0.319
-152.647	800.000	-0.080	-0.285
-151.633	452.487	-0.138	-0.305
-150.618	-200.000	-0.013	0.071
-149.604	-200.000	-0.009	-0.286
-148.589	52.421	-0.027	-0.026
-147.574	-169.298	-0.165	-0.006
-146.560	-36.215	0.283	0.153
-145.545	340.600	0.140	0.273
-144.531	-200.000	-0.009	-0.215
-143.516	62.411	0.339	-0.339
-142.502	-181.294	-0.075	0.001
-141.487	800.000	0.034	0.127
-140.472	-94.600	-0.021	-0.006
-139.458	155.171	-0.135	0.185
-138.443	294.513	-0.110	0.201
-137.429	-94.758	-0.145	-0.039
-136.414	-200.000	-0.052	0.272
-135.399	-66.782	-0.250	-0.099
-134.385	32.153	-0.073	0.063
-133.370	386.561	0.104	0.215
-132.356	-123.807	0.118	-0.019
-131.341	108.692	0.085	0.102
-130.326	5.725	-0.227	0.168
-129.312	-49.598	0.179	-0.085
-128.297	251.477	0.054	0.092
-127.283	-200.000	0.009	0.185
-126.268	141.322	0.234	-0.310
-125.253	368.120	0.014	-0.028
-124.239	-52.754	-0.295	-0.136
-123.224	80.641	0.084	0.091
-122.210	-200.000	0.060	0.271
-121.195	264.445	-0.093	0.162
