DTS Sentinel unit serial number:	SN413079Multiplexer serial number:	ORYXHardware model number:	OX4-SRSoftware version number:	ORYX F/W v4.00 Oryx Data Collector v3.7.2.0data status	okinstallation	princeton_trtdifferential loss correction	single-endedforward channel	channel 4reverse channel	N/Adate	2019/09/11time	11:51:11forward acquisition time	60.00reverse acquisition time	0.00gamma	496.2192k internal	0.2288k external	0.2288temperature offset calibration	0.9968default loss term (dB/km)	0.3790temperature slope calibration	1.0000multiplexer offset coefficient	1.0000multiplexer slope coefficient	1.0000fibre end	0.00T internal ref (°C)	38.87T ext. ref 1 (°C)	0.19T ext. ref 2 (°C)	37.06length (m)	temperature (°C)	Stokes	anti-Stokes-747.200	201.008	0.188	-0.296
-746.185	-116.555	0.122	0.023
-745.171	-167.804	-0.081	0.003
-744.156	-25.416	-0.247	0.150
-743.142	-200.000	-0.003	-0.022
-742.127	-36.576	0.061	-0.033
-741.112	272.339	0.015	-0.028
-740.098	-175.137	-0.218	0.006
-739.083	-64.322	0.255	0.106
-738.069	-200.000	-0.017	-0.170
-737.054	59.571	-0.116	0.117
-736.039	-200.000	0.039	0.482
-735.025	-23.316	0.198	0.122
-734.010	-63.020	0.098	0.041
-732.996	-90.510	0.422	-0.125
-731.981	800.000	0.049	-0.160
-730.966	61.374	-0.122	0.125
-729.952	49.563	-0.227	0.219
-728.937	-200.000	-0.060	0.305
-727.923	615.595	-0.036	0.094
-726.908	75.207	-0.087	-0.095
-725.894	-35.439	-0.276	-0.154
-724.879	-200.000	-0.041	-0.188
-723.864	-54.962	0.114	-0.053
-722.850	-134.471	-0.188	0.024
-721.835	-200.000	-0.015	0.219
-720.821	23.921	0.130	0.110
-719.806	255.465	0.116	0.204
-718.791	-74.387	-0.258	-0.095
-717.777	-200.000	0.094	0.000
-716.762	121.670	-0.201	-0.256
-715.748	-104.834	0.150	-0.035
-714.733	-65.069	0.201	-0.083
-713.718	-200.000	0.010	-0.189
-712.704	781.432	0.070	-0.196
-711.689	707.585	0.062	-0.168
-710.675	21.781	-0.452	-0.377
-709.660	-200.000	0.031	-0.280
-708.645	-115.800	-0.013	-0.003
-707.631	-49.231	0.287	-0.140
-706.616	-163.817	-0.300	0.014
-705.602	743.636	0.045	0.125
-704.587	-182.265	-0.342	-0.007
-703.572	-200.000	0.110	-0.519
-702.558	-200.000	0.031	0.203
-701.543	-200.000	-0.002	0.029
-700.529	-39.852	-0.100	0.053
-699.514	22.978	-0.105	0.088
-698.499	-177.354	-0.129	0.003
-697.485	-65.259	-0.117	0.048
-696.470	297.616	-0.061	-0.114
-695.456	381.259	-0.016	-0.034
-694.441	558.209	-0.085	-0.209
-693.426	-200.000	-0.007	0.183
-692.412	800.000	0.096	-0.280
-691.397	43.146	-0.085	0.079
-690.383	57.664	-0.212	0.212
-689.368	-149.605	-0.201	-0.016
-688.354	-66.914	-0.176	0.071
-687.339	-54.758	0.317	0.146
-686.324	363.070	-0.081	0.166
-685.310	800.000	-0.047	0.141
-684.295	104.130	-0.244	0.294
-683.281	-19.708	-0.051	-0.033
-682.266	800.000	0.031	0.127
-681.251	-200.000	0.042	-0.209
-680.237	570.234	-0.162	0.404
-679.222	253.039	-0.044	0.077
-678.208	-98.758	-0.569	-0.148
-677.193	-58.739	0.294	0.130
-676.178	17.163	-0.113	0.091
-675.164	-200.000	-0.009	-0.078
-674.149	-80.729	-0.282	-0.096
-673.135	-28.088	0.408	-0.241
-672.120	-31.066	-0.170	-0.098
-671.105	-8.804	-0.149	-0.102
-670.091	66.627	-0.054	0.056
-669.076	208.780	-0.143	0.228
-668.062	274.652	0.141	-0.255
-667.047	31.191	0.088	0.077
-666.032	486.138	-0.145	0.337
-665.018	-155.780	0.241	-0.016
-664.003	-134.191	0.296	-0.037
-662.989	320.889	-0.090	-0.174
-661.974	-114.289	0.234	-0.046
-660.959	800.000	-0.039	-0.119
-659.945	-200.000	0.037	0.171
-658.930	-114.346	-0.264	0.052
-657.916	-60.692	-0.264	0.114
-656.901	-44.798	-0.092	-0.047
-655.886	410.379	0.088	0.190
-654.872	101.623	-0.287	0.342
-653.857	-54.503	0.283	0.131
-652.843	-168.104	-0.178	0.007
-651.828	9.614	0.338	0.261
-650.814	440.182	-0.040	0.089
-649.799	163.473	-0.099	0.142
-648.784	-200.000	0.035	-0.205
-647.770	758.508	-0.061	0.169
-646.755	-47.480	-0.250	0.124
-645.741	-75.648	0.162	0.059
-644.726	-125.030	-0.240	0.038
-643.711	99.105	-0.208	-0.246
-642.697	59.000	-0.089	-0.089
-641.682	186.422	0.141	-0.215
-640.668	107.058	0.049	-0.059
-639.653	-39.735	0.324	0.173
-638.638	65.101	0.067	0.069
-637.624	-37.032	-0.192	0.105
-636.609	-200.000	-0.013	0.152
-635.595	64.795	0.116	-0.119
-634.580	64.638	0.281	-0.289
-633.565	800.000	0.004	0.014
-632.551	8.619	-0.054	0.042
-631.536	303.420	-0.153	0.290
-630.522	-116.758	-0.048	-0.009
-629.507	-105.611	0.072	-0.017
-628.492	-8.343	0.197	0.135
-627.478	170.302	0.158	-0.231
-626.463	-100.814	0.268	-0.067
-625.449	49.423	0.136	-0.130
-624.434	109.177	0.124	0.151
-623.419	132.994	-0.157	-0.206
-622.405	74.309	-0.172	0.184
-621.390	-142.274	0.152	0.015
-620.376	-104.846	0.141	-0.033
-619.361	-35.964	-0.174	0.096
-618.346	-200.000	-0.002	0.009
-617.332	-177.733	-0.132	-0.003
-616.317	-61.523	-0.139	0.060
-615.303	-200.000	-0.076	0.339
-614.288	91.046	0.086	0.098
-613.273	-200.000	-0.024	0.187
-612.259	-200.000	0.027	-0.396
-611.244	-200.000	-0.009	0.316
-610.230	-56.569	-0.039	-0.018
-609.215	800.000	-0.097	0.385
-608.201	224.038	0.204	0.337
-607.186	170.732	-0.106	-0.155
-606.171	-48.811	0.165	-0.081
-605.157	-200.000	0.019	0.103
-604.142	-95.357	-0.360	-0.099
-603.128	-200.000	-0.016	0.147
-602.113	92.646	-0.148	-0.171
-601.098	-5.191	0.185	-0.130
-600.084	-81.299	0.347	0.117
-599.069	25.344	0.005	-0.004
-598.055	391.274	0.077	-0.163
-597.040	296.722	-0.121	-0.227
-596.025	-165.871	-0.401	-0.018
-595.011	349.145	-0.071	-0.142
-593.996	-58.580	-0.173	-0.077
-592.982	43.670	-0.175	-0.164
-591.967	800.000	0.022	-0.090
-590.952	19.934	-0.075	-0.062
-589.938	120.351	0.072	-0.091
-588.923	300.932	-0.105	-0.198
-587.909	227.935	-0.086	-0.143
-586.894	-200.000	0.052	-0.234
-585.879	-159.966	0.171	-0.010
-584.865	60.227	-0.181	0.182
-583.850	-200.000	0.004	-0.111
-582.836	-200.000	0.025	0.183
-581.821	800.000	0.021	-0.087
-580.806	800.000	-0.064	-0.264
-579.792	143.152	0.193	0.262
-578.777	800.000	0.030	-0.115
-577.763	-140.263	0.072	0.008
-576.748	353.525	0.111	0.224
-575.733	-124.825	0.050	-0.008
-574.719	46.181	-0.078	0.073
-573.704	63.346	-0.249	-0.254
-572.690	-200.000	0.009	0.057
-571.675	103.830	0.120	-0.144
-570.661	-200.000	-0.014	-0.403
-569.646	187.054	-0.078	-0.119
-568.631	-200.000	-0.034	0.210
-567.617	-18.785	-0.255	-0.162
-566.602	122.587	0.236	0.300
-565.588	-25.767	-0.167	0.100
-564.573	-110.685	0.140	0.029
-563.558	-41.852	-0.293	-0.153
-562.544	-126.595	-0.141	-0.021
-561.529	-56.064	0.206	0.093
-560.515	-125.240	-0.070	-0.011
-559.500	-200.000	-0.065	-0.454
-558.485	-14.224	0.268	-0.176
-557.471	-59.512	0.098	-0.043
-556.456	-15.433	-0.254	0.165
-555.442	162.420	0.178	0.254
-554.427	20.719	-0.194	-0.159
-553.412	-146.174	0.217	0.019
-552.398	37.531	-0.060	-0.055
-551.383	-200.000	-0.029	-0.254
-550.369	-1.046	0.079	0.057
-549.354	800.000	0.085	-0.272
-548.339	-98.964	-0.265	0.068
-547.325	-173.632	0.216	-0.007
-546.310	94.463	-0.113	-0.130
-545.296	-46.267	0.005	-0.002
-544.281	-200.000	-0.029	-0.150
-543.266	-106.288	-0.237	-0.054
-542.252	27.665	0.348	-0.298
-541.237	-200.000	-0.041	0.220
-540.223	-125.251	0.166	-0.026
-539.208	631.547	-0.074	-0.190
-538.193	-178.709	-0.051	0.001
-537.179	48.029	-0.239	0.228
-536.164	253.076	-0.072	-0.126
-535.150	-200.000	-0.011	-0.094
-534.135	50.680	-0.212	0.204
-533.121	-16.318	-0.067	0.043
-532.106	448.270	-0.154	-0.345
-531.091	-40.585	0.208	0.110
-530.077	411.455	0.079	0.171
-529.062	207.869	0.106	-0.168
-528.048	279.034	-0.167	-0.303
-527.033	-78.702	-0.334	-0.116
-526.018	800.000	-0.035	0.102
-525.004	-200.000	-0.005	-0.221
-523.989	229.388	0.040	-0.066
-522.975	258.670	-0.145	0.254
-521.960	-200.000	-0.071	0.489
-520.945	32.032	0.089	0.078
-519.931	-49.703	0.308	-0.149
-518.916	-93.890	0.186	-0.052
-517.902	-86.080	0.330	0.103
-516.887	21.334	-0.066	-0.054
-515.872	775.927	-0.102	-0.283
-514.858	-108.284	-0.303	0.067
-513.843	-164.754	0.227	-0.010
-512.829	-101.762	-0.416	-0.102
-511.814	-200.000	-0.045	0.251
-510.799	-125.255	0.339	0.053
-509.785	194.602	-0.214	-0.330
-508.770	-86.712	0.116	-0.036
-507.756	344.584	-0.006	-0.012
-506.741	-0.915	-0.164	-0.118
-505.726	792.845	0.134	0.375
-504.712	-16.560	-0.083	0.053
-503.697	-200.000	-0.028	-0.198
-502.683	-149.894	-0.075	-0.006
-501.668	800.000	0.026	-0.089
-500.653	262.442	-0.094	-0.166
-499.639	800.000	-0.125	0.550
-498.624	-18.022	0.157	0.100
-497.610	-154.561	-0.090	-0.006
-496.595	-41.534	-0.187	0.098
-495.581	-200.000	0.005	-0.304
-494.566	397.003	0.143	0.303
-493.551	-2.225	0.165	-0.118
-492.537	800.000	0.083	-0.321
-491.522	-157.639	0.343	0.021
-490.508	-87.261	0.227	0.070
-489.493	147.478	0.223	0.305
-488.478	-200.000	0.002	0.241
-487.464	-76.512	0.195	-0.069
-486.449	-200.000	-0.000	0.040
-485.435	-53.330	-0.255	0.119
-484.420	349.886	-0.060	-0.120
-483.405	432.928	-0.116	-0.255
-482.391	-116.414	0.299	0.056
-481.376	246.460	0.077	-0.132
-480.362	-10.227	0.090	0.061
-479.347	-90.709	0.054	0.016
-478.332	372.424	0.190	-0.391
-477.318	464.687	-0.094	-0.212
-476.303	-200.000	0.010	0.046
-475.289	26.298	-0.304	0.257
-474.274	-200.000	-0.029	-0.176
-473.259	156.045	0.192	-0.269
-472.245	19.549	-0.156	-0.127
-471.230	-200.000	-0.033	-0.206
-470.216	56.942	-0.190	0.188
-469.201	695.086	0.142	-0.379
-468.186	21.033	-0.335	0.275
-467.172	662.964	-0.115	0.301
-466.157	259.633	-0.131	0.230
-465.143	-200.000	0.044	-0.404
-464.128	-165.455	-0.070	0.003
-463.113	-34.372	0.261	-0.145
-462.099	-127.516	0.122	0.018
-461.084	-200.000	0.006	0.046
-460.070	-55.456	-0.174	0.079
-459.055	299.967	0.098	-0.184
-458.040	-0.134	0.092	-0.066
-457.026	413.160	0.054	0.116
-456.011	481.326	0.098	0.225
-454.997	-200.000	0.021	0.396
-453.982	-92.827	0.180	0.051
-452.968	-200.000	-0.053	-0.242
-451.953	348.743	0.073	0.146
-450.938	-30.670	-0.230	-0.132
-449.924	584.487	0.042	0.105
-448.909	-200.000	-0.018	-0.085
-447.895	484.340	-0.033	-0.077
-446.880	800.000	-0.066	0.275
-445.865	800.000	-0.045	-0.126
-444.851	-140.772	-0.224	-0.023
-443.836	-200.000	-0.060	0.274
-442.822	-200.000	-0.009	-0.084
-441.807	561.894	0.055	-0.135
-440.792	650.133	-0.089	-0.232
-439.778	9.899	-0.235	-0.180
-438.763	86.040	0.064	0.071
-437.749	-200.000	-0.040	-0.287
-436.734	-200.000	0.147	0.001
-435.719	800.000	-0.104	-0.381
-434.705	-182.428	-0.087	0.002
-433.690	-184.739	0.163	0.003
-432.676	800.000	0.041	-0.123
-431.661	-134.128	-0.179	-0.022
-430.646	-9.443	-0.275	-0.186
-429.632	-14.410	-0.208	0.136
-428.617	81.964	0.184	0.202
-427.603	19.750	-0.102	0.083
-426.588	-200.000	0.063	-0.411
-425.573	800.000	-0.022	0.084
-424.559	-99.364	0.138	-0.035
-423.544	-157.804	0.171	-0.010
-422.530	-200.000	0.186	0.000
-421.515	-131.116	0.494	-0.067
-420.500	184.442	0.054	-0.081
-419.486	-84.236	0.028	0.009
-418.471	-200.000	-0.139	-0.001
-417.457	35.411	0.267	-0.237
-416.442	-39.616	-0.342	0.181
-415.428	-200.000	0.053	-0.311
-414.413	-200.000	-0.031	-0.176
-413.398	74.177	0.078	-0.083
-412.384	-200.000	0.080	-0.540
-411.369	800.000	-0.061	0.204
-410.355	-18.485	-0.448	0.283
-409.340	800.000	0.058	0.196
-408.325	-200.000	-0.043	-0.211
-407.311	-200.000	-0.034	0.231
-406.296	355.335	0.060	0.121
-405.282	-2.252	-0.218	-0.155
-404.267	-71.814	-0.102	-0.039
-403.252	800.000	-0.119	0.382
-402.238	61.710	-0.257	0.259
-401.223	134.263	0.126	0.166
-400.209	775.453	-0.007	-0.019
-399.194	47.048	0.131	-0.123
-398.179	-200.000	-0.030	0.167
-397.165	-65.570	0.277	0.113
-396.150	28.559	0.057	0.049
-395.136	14.317	0.234	-0.184
-394.121	-200.000	-0.009	0.164
-393.106	21.765	-0.262	0.216
-392.092	225.185	-0.079	-0.129
-391.077	-10.119	-0.095	-0.064
-390.063	800.000	0.113	0.330
-389.048	-63.101	-0.238	0.099
-388.033	-200.000	-0.050	0.265
-387.019	374.070	-0.094	0.193
-386.004	-200.000	-0.006	0.227
-384.990	-47.449	0.280	-0.138
-383.975	183.372	0.169	0.252
-382.960	48.302	0.322	-0.305
-381.946	165.806	0.295	0.422
-380.931	-96.516	0.288	-0.077
-379.917	-153.951	0.379	-0.026
-378.902	130.432	-0.194	-0.252
-377.888	336.664	-0.077	-0.150
-376.873	-200.000	0.023	-0.148
-375.858	-72.943	0.275	0.102
-374.844	76.130	-0.057	-0.061
-373.829	-183.093	-0.232	-0.004
-372.815	-26.759	-0.122	-0.072
-371.800	758.694	-0.063	0.171
-370.785	30.382	0.079	0.068
-369.771	800.000	-0.050	-0.140
-368.756	-28.256	-0.145	-0.085
-367.742	-75.642	-0.241	-0.086
-366.727	-62.788	0.240	0.100
-365.712	670.656	-0.206	-0.538
-364.698	-200.000	0.014	0.069
-363.683	800.000	0.019	0.058
-362.669	601.261	-0.038	0.096
-361.654	312.682	0.190	0.361
-360.639	54.152	0.132	-0.128
-359.625	-18.175	-0.363	-0.230
-358.610	-200.000	-0.006	-0.188
-357.596	800.000	-0.069	-0.230
-356.581	63.427	-0.128	0.130
-355.566	-141.818	0.031	-0.003
-354.552	-80.222	-0.191	0.065
-353.537	-112.990	-0.213	0.042
-352.523	335.927	0.033	0.064
-351.508	9.013	-0.275	0.210
-350.493	79.050	-0.121	0.131
-349.479	664.560	-0.071	0.186
-348.464	89.401	-0.083	0.093
-347.450	-67.817	0.425	-0.168
-346.435	-200.000	0.052	-0.251
-345.420	800.000	-0.125	-0.415
-344.406	-200.000	-0.027	0.270
-343.391	-95.365	0.240	0.065
-342.377	484.930	0.015	-0.034
-341.362	-100.938	0.253	-0.063
-340.348	-93.381	0.201	-0.056
-339.333	-28.531	0.214	0.125
-338.318	-10.277	0.094	0.063
-337.304	269.774	-0.173	0.307
-336.289	-200.000	0.060	-0.332
-335.275	-200.000	-0.014	-0.153
-334.260	-200.000	-0.026	0.186
-333.245	479.839	0.092	0.210
-332.231	-86.682	0.189	-0.058
-331.216	86.321	-0.052	-0.058
-330.202	100.802	0.130	-0.153
-329.187	-135.641	0.397	-0.047
-328.172	21.586	0.071	-0.058
-327.158	127.804	0.053	0.069
-326.143	-200.000	0.003	0.020
-325.129	-6.162	0.080	-0.055
-324.114	-113.744	-0.373	0.073
-323.099	-200.000	-0.002	-0.159
-322.085	569.740	-0.087	-0.212
-321.070	-13.331	0.148	0.097
-320.056	6.734	-0.025	-0.018
-319.041	209.248	-0.177	-0.279
-318.026	119.122	-0.084	-0.105
-317.012	-154.698	-0.033	-0.002
-315.997	-200.000	0.049	-0.507
-314.983	24.513	-0.235	-0.196
-313.968	616.724	-0.096	-0.242
-312.953	-56.969	0.167	0.074
-311.939	-62.525	0.071	0.030
-310.924	-41.058	0.332	-0.173
-309.910	-200.000	0.012	0.066
-308.895	112.614	0.106	0.129
-307.880	286.461	0.115	0.210
-306.866	-35.958	-0.205	0.112
-305.851	210.325	0.183	-0.290
-304.837	384.649	-0.040	0.083
-303.822	-61.702	-0.296	-0.125
-302.807	149.195	-0.107	-0.145
-301.793	-200.000	0.014	-0.136
-300.778	92.015	-0.088	0.099
-299.764	-57.608	0.200	-0.088
-298.749	800.000	-0.084	0.261
-297.735	-69.194	-0.183	0.071
-296.720	-61.973	0.099	0.042
-295.705	-127.950	-0.165	0.024
-294.691	485.979	0.068	-0.157
-293.676	-200.000	-0.009	0.255
-292.662	-5.390	0.148	0.103
-291.647	-30.939	-0.083	0.047
-290.632	131.380	-0.127	0.165
-289.618	7.086	-0.072	-0.054
-288.603	118.953	0.186	0.231
-287.589	-200.000	0.031	-0.311
-286.574	-25.910	-0.118	0.070
-285.559	-95.008	0.051	0.014
-284.545	34.215	0.125	0.109
-283.530	1.070	-0.325	-0.234
-282.516	79.151	0.227	-0.245
-281.501	34.882	0.196	-0.173
-280.486	-26.501	-0.178	0.105
-279.472	-34.418	0.033	0.018
-278.457	-120.539	0.179	0.031
-277.443	-200.000	-0.006	0.058
-276.428	-21.180	-0.308	-0.189
-275.413	-98.607	0.099	-0.025
-274.399	111.185	0.225	-0.273
-273.384	463.217	-0.076	0.172
-272.370	75.275	-0.081	0.085
-271.355	-20.477	0.361	0.223
-270.340	272.469	0.124	-0.221
-269.326	-27.518	0.138	0.081
-268.311	424.998	0.044	0.095
-267.297	-19.779	0.284	-0.177
-266.282	-160.338	0.214	0.012
-265.267	-200.000	-0.003	-0.346
-264.253	67.191	-0.071	-0.073
-263.238	-146.585	-0.263	0.023
-262.224	-107.057	-0.268	0.060
-261.209	-129.656	0.137	0.019
-260.195	620.121	0.102	-0.257
-259.180	-28.423	-0.278	0.161
-258.165	-114.211	0.260	-0.050
-257.151	340.479	-0.052	-0.102
-256.136	588.335	0.092	0.228
-255.122	108.446	-0.252	0.302
-254.107	147.742	0.148	0.201
-253.092	20.336	0.273	0.222
-252.078	397.227	-0.103	0.216
-251.063	178.834	-0.052	-0.077
-250.049	516.553	-0.171	0.402
-249.034	800.000	0.035	0.122
-248.019	199.717	0.059	-0.091
-247.005	13.925	0.140	0.110
-245.990	-64.068	0.380	-0.156
-244.976	-34.434	-0.118	0.065
-243.961	-200.000	-0.010	-0.221
-242.946	-54.976	0.210	-0.095
-241.932	800.000	0.025	-0.102
-240.917	-140.495	0.172	-0.018
-239.903	42.902	0.063	0.057
-238.888	-147.919	-0.240	-0.020
-237.873	205.469	-0.107	-0.167
-236.859	502.172	0.061	0.142
-235.844	-86.316	-0.172	-0.053
-234.830	-66.426	0.136	0.054
-233.815	-9.860	0.287	0.192
-232.800	-168.480	-0.248	-0.010
-231.786	-200.000	-0.090	0.424
-230.771	-51.069	-0.039	-0.018
-229.757	-90.012	-0.023	0.007
-228.742	79.832	-0.230	0.248
-227.727	105.370	0.169	-0.200
-226.713	-200.000	-0.087	0.431
-225.698	-84.618	0.209	-0.066
-224.684	48.941	-0.226	0.213
-223.669	-38.590	0.067	0.035
-222.655	-200.000	-0.014	-0.146
-221.640	464.418	0.042	-0.094
-220.625	-59.094	0.228	0.099
-219.611	301.236	-0.148	-0.274
-218.596	-109.589	0.290	0.061
-217.582	800.000	-0.019	-0.056
-216.567	62.677	0.155	0.156
-215.552	-200.000	0.023	0.133
-214.538	800.000	0.091	-0.306
-213.523	-200.000	-0.012	-0.240
-212.509	-68.446	0.192	0.075
-211.494	-144.437	0.108	0.010
-210.479	436.894	0.109	0.239
-209.465	-117.222	-0.232	0.042
-208.450	-200.000	-0.070	0.353
-207.436	-40.160	-0.018	0.009
-206.421	-145.724	-0.370	-0.033
-205.406	554.368	-0.129	0.312
-204.392	-29.347	0.353	-0.203
-203.377	-200.000	0.037	-0.356
-202.363	-109.887	-0.467	-0.098
-201.348	303.892	-0.041	-0.076
-200.333	62.530	0.121	0.121
-199.319	-35.671	0.112	-0.061
-198.304	373.848	0.040	-0.081
-197.290	91.898	-0.309	0.349
-196.275	-141.133	-0.217	-0.022
-195.260	125.087	0.341	0.431
-194.246	-200.000	-0.018	-0.272
-193.231	272.092	0.071	-0.125
-192.217	-60.246	-0.099	0.042
-191.202	-200.000	0.014	0.073
-190.187	-101.949	-0.180	-0.044
-189.173	303.888	-0.096	0.178
-188.158	-196.415	-0.147	0.001
-187.144	-101.846	-0.235	0.057
-186.129	800.000	0.076	0.240
-185.114	-19.629	-0.113	0.070
-184.100	8.725	-0.264	0.200
-183.085	-200.000	-0.026	-0.137
-182.071	-200.000	0.046	0.213
-181.056	-117.913	-0.140	-0.025
-180.042	-142.729	0.049	-0.005
-179.027	426.809	-0.215	0.465
-178.012	-200.000	-0.034	0.320
-176.998	168.693	0.136	-0.195
-175.983	173.752	0.029	-0.043
-174.969	-148.196	-0.070	-0.006
-173.954	265.461	-0.046	0.080
-172.939	-200.000	-0.025	-0.264
-171.925	-1.690	0.028	0.020
-170.910	49.965	0.064	0.060
-169.896	800.000	0.051	-0.211
-168.881	-200.000	-0.045	-0.314
-167.866	-143.160	0.117	-0.011
-166.852	211.511	-0.182	0.287
-165.837	-200.000	-0.035	0.219
-164.823	246.060	0.106	0.178
-163.808	-200.000	0.009	0.441
-162.793	800.000	-0.078	0.310
-161.779	-30.838	0.200	0.113
-160.764	800.000	-0.022	0.073
-159.750	800.000	0.085	0.254
-158.735	-200.000	0.052	-0.478
-157.720	-13.600	0.191	0.124
-156.706	196.182	-0.166	0.253
-155.691	2.030	0.078	-0.057
-154.677	-30.010	0.298	-0.170
-153.662	-200.000	-0.011	0.174
-152.647	240.998	-0.144	0.242
-151.633	-97.536	-0.290	0.075
-150.618	42.092	0.060	0.054
-149.604	-67.976	0.234	0.091
-148.589	-108.130	0.162	0.035
-147.574	304.133	0.072	0.134
-146.560	47.132	-0.207	-0.193
-145.545	800.000	0.060	-0.173
-144.531	43.370	0.130	-0.119
-143.516	-128.043	0.179	-0.026
-142.502	-200.000	-0.012	-0.376
-141.487	800.000	-0.032	-0.091
-140.472	11.710	0.112	0.086
-139.458	191.486	-0.195	0.294
-138.443	51.012	-0.051	0.049
-137.429	20.297	0.168	0.136
-136.414	307.024	0.117	-0.219
-135.399	-138.702	-0.055	-0.006
-134.385	22.602	0.192	0.157
-133.370	191.388	-0.131	-0.198
-132.356	-36.546	-0.285	0.154
-131.341	-200.000	-0.009	0.264
-130.326	744.776	-0.041	0.109
-129.312	199.904	-0.212	-0.326
-128.297	-24.475	0.291	-0.174
-127.283	703.878	0.073	0.194
-126.268	800.000	-0.049	0.185
-125.253	-200.000	-0.007	0.195
-124.239	52.323	0.142	-0.135
-123.224	67.332	-0.087	0.089
-122.210	-200.000	0.026	0.132
