DTS Sentinel unit serial number:	SN413079Multiplexer serial number:	ORYXHardware model number:	OX4-SRSoftware version number:	ORYX F/W v4.00 Oryx Data Collector v3.7.2.0data status	okinstallation	princeton_trtdifferential loss correction	single-endedforward channel	channel 4reverse channel	N/Adate	2019/09/16time	04:37:35forward acquisition time	60.00reverse acquisition time	0.00gamma	496.2192k internal	0.2322k external	0.2322temperature offset calibration	0.9977default loss term (dB/km)	0.3790temperature slope calibration	1.0000multiplexer offset coefficient	1.0000multiplexer slope coefficient	1.0000fibre end	0.00T internal ref (°C)	27.25T ext. ref 1 (°C)	10.89T ext. ref 2 (°C)	21.42length (m)	temperature (°C)	Stokes	anti-Stokes-747.200	-200.000	-0.012	0.132
-746.185	-200.000	0.080	0.417
-745.171	267.353	-0.101	0.178
-744.156	5.115	0.189	0.141
-743.142	-124.299	-0.103	0.016
-742.127	362.263	-0.026	0.053
-741.112	-200.000	0.018	0.119
-740.098	-148.245	0.172	-0.014
-739.083	88.618	0.087	0.098
-738.069	294.722	-0.114	0.210
-737.054	800.000	-0.024	0.092
-736.039	-68.196	-0.321	0.126
-735.025	344.566	-0.103	-0.205
-734.010	407.877	-0.107	0.229
-732.996	-138.931	-0.370	0.041
-731.981	334.720	-0.140	-0.273
-730.966	145.968	-0.334	-0.453
-729.952	98.646	-0.112	0.131
-728.937	-200.000	0.016	-0.121
-727.923	453.274	0.034	0.077
-726.908	23.318	-0.343	-0.284
-725.894	106.269	-0.043	-0.051
-724.879	-86.108	0.084	-0.026
-723.864	-104.924	0.328	0.076
-722.850	-200.000	0.081	0.402
-721.835	-38.302	-0.314	-0.168
-720.821	7.401	-0.234	0.176
-719.806	-152.915	0.434	0.031
-718.791	-200.000	0.006	0.200
-717.777	357.324	-0.066	0.133
-716.762	69.425	0.130	0.135
-715.748	243.469	-0.045	0.076
-714.733	394.216	-0.015	0.032
-713.718	339.402	-0.095	0.187
-712.704	16.990	-0.329	-0.263
-711.689	-200.000	0.006	0.155
-710.675	-10.820	0.163	-0.108
-709.660	55.749	-0.103	0.100
-708.645	57.875	0.188	0.185
-707.631	-200.000	-0.036	-0.199
-706.616	-42.772	-0.106	0.054
-705.602	-14.572	0.158	0.102
-704.587	-130.942	0.144	-0.019
-703.572	-40.815	-0.190	-0.099
-702.558	-200.000	0.034	0.246
-701.543	-68.914	0.155	-0.060
-700.529	320.230	-0.115	0.220
-699.514	-200.000	0.045	0.266
-698.499	-22.262	0.102	-0.062
-697.485	86.926	0.064	-0.072
-696.470	-200.000	0.033	0.259
-695.456	-112.862	0.034	-0.007
-694.441	-136.776	0.318	0.037
-693.426	800.000	0.123	0.425
-692.412	245.225	-0.177	-0.300
-691.397	-200.000	0.045	0.242
-690.383	-151.814	-0.135	-0.010
-689.368	-200.000	-0.013	0.219
-688.354	-200.000	0.000	0.034
-687.339	20.744	-0.086	-0.070
-686.324	-200.000	0.007	0.196
-685.310	-168.624	-0.045	0.002
-684.295	459.914	0.188	0.422
-683.281	-78.124	-0.144	-0.050
-682.266	61.517	0.176	-0.177
-681.251	800.000	-0.121	-0.371
-680.237	212.519	-0.105	-0.168
-679.222	-78.487	0.011	0.004
-678.208	4.449	-0.229	0.169
-677.193	-2.442	-0.132	-0.093
-676.178	-126.031	0.169	-0.026
-675.164	-200.000	0.052	-0.309
-674.149	192.664	-0.232	0.353
-673.135	292.633	0.110	-0.201
-672.120	-29.275	0.278	0.160
-671.105	74.547	-0.077	0.081
-670.091	-100.355	0.117	0.029
-669.076	-34.161	-0.158	-0.087
-668.062	272.137	-0.077	-0.136
-667.047	92.774	0.245	0.279
-666.032	-87.969	-0.144	0.044
-665.018	-19.786	0.204	0.127
-664.003	-200.000	0.037	-0.243
-662.989	147.098	-0.037	0.050
-661.974	572.325	-0.052	-0.129
-660.959	30.366	0.094	-0.081
-659.945	-180.330	0.138	-0.003
-658.930	-200.000	0.168	0.000
-657.916	69.898	-0.046	0.048
-656.901	-50.708	-0.254	0.120
-655.886	85.924	0.039	-0.043
-654.872	-120.507	-0.201	-0.034
-653.857	-43.391	-0.204	0.104
-652.843	356.830	0.027	-0.054
-651.828	-77.514	-0.260	-0.091
-650.814	-69.316	-0.170	-0.066
-649.799	311.604	0.094	-0.178
-648.784	108.624	-0.099	-0.119
-647.770	-131.330	0.224	-0.030
-646.755	-110.330	-0.419	0.088
-645.741	347.928	0.103	0.204
-644.726	800.000	0.123	0.429
-643.711	-67.163	-0.374	0.148
-642.697	-139.074	-0.377	0.041
-641.682	-16.603	0.093	-0.059
-640.668	754.593	-0.036	-0.097
-639.653	-157.120	0.195	0.012
-638.638	48.413	-0.016	0.015
-637.624	-134.461	-0.216	0.027
-636.609	-73.839	-0.161	-0.059
-635.595	-70.690	0.216	-0.082
-634.580	730.659	-0.054	-0.144
-633.565	-74.877	-0.167	-0.060
-632.551	-78.848	-0.302	0.103
-631.536	424.822	-0.169	-0.365
-630.522	-200.000	0.015	0.246
-629.507	280.946	0.092	0.165
-628.492	-106.638	-0.327	-0.073
-627.478	-120.809	0.139	-0.024
-626.463	-132.749	0.353	-0.045
-625.449	-82.433	-0.216	0.071
-624.434	-193.139	0.110	0.001
-623.419	800.000	-0.028	0.096
-622.405	800.000	-0.037	-0.144
-621.390	-200.000	0.040	-0.359
-620.376	-14.743	-0.248	0.160
-619.361	76.086	-0.081	0.086
-618.346	119.669	-0.058	-0.072
-617.332	340.702	-0.146	-0.287
-616.317	-200.000	-0.011	0.177
-615.303	77.153	0.113	-0.121
-614.288	174.160	-0.067	-0.097
-613.273	-78.394	-0.232	0.080
-612.259	188.409	0.097	0.146
-611.244	800.000	0.074	-0.253
-610.230	-107.202	-0.229	-0.051
-609.215	-200.000	0.027	-0.238
-608.201	128.509	-0.119	-0.153
-607.186	-50.777	0.342	-0.162
-606.171	328.015	-0.155	0.298
-605.157	168.110	-0.041	0.059
-604.142	-133.488	-0.328	-0.041
-603.128	172.674	0.180	0.260
-602.113	25.625	-0.105	-0.088
-601.098	-81.217	-0.163	0.054
-600.084	10.673	-0.168	0.129
-599.069	152.229	0.082	0.113
-598.055	800.000	0.034	0.135
-597.040	-59.450	0.239	0.103
-596.025	-56.100	0.223	0.100
-595.011	292.750	0.107	-0.196
-593.996	100.003	-0.080	-0.093
-592.982	-132.938	-0.300	0.038
-591.967	800.000	0.148	-0.421
-590.952	800.000	-0.089	-0.293
-589.938	-200.000	-0.008	-0.062
-588.923	800.000	-0.063	-0.195
-587.909	293.585	-0.163	0.299
-586.894	207.609	-0.071	-0.111
-585.879	-200.000	-0.041	0.207
-584.865	800.000	0.045	-0.161
-583.850	800.000	0.073	-0.277
-582.836	142.063	-0.100	-0.133
-581.821	-195.615	-0.434	-0.003
-580.806	-11.320	-0.236	-0.156
-579.792	163.113	0.098	-0.138
-578.777	800.000	0.095	-0.286
-577.763	-105.739	0.191	0.043
-576.748	800.000	0.082	0.255
-575.733	-25.791	-0.158	-0.093
-574.719	460.281	0.147	0.329
-573.704	-43.476	0.185	0.094
-572.690	-170.992	-0.202	0.007
-571.675	-123.488	-0.135	0.022
-570.661	22.709	-0.235	-0.193
-569.646	303.401	-0.010	-0.018
-568.631	800.000	0.071	-0.260
-567.617	637.340	-0.111	0.283
-566.602	358.975	-0.124	0.249
-565.588	-57.107	-0.158	-0.070
-564.573	30.645	-0.227	-0.195
-563.558	8.201	0.120	-0.091
-562.544	685.809	-0.109	0.286
-561.529	58.697	-0.157	-0.155
-560.515	266.122	-0.116	0.202
-559.500	-61.008	-0.301	0.128
-558.485	-26.399	0.200	0.117
-557.471	36.387	0.221	-0.195
-556.456	487.238	-0.098	-0.224
-555.442	571.686	0.038	0.092
-554.427	221.212	-0.091	-0.146
-553.412	119.953	0.132	0.164
-552.398	-123.251	0.160	0.026
-551.383	-149.933	0.107	-0.008
-550.369	-76.395	-0.468	0.165
-549.354	-39.772	-0.137	0.072
-548.339	60.201	0.156	-0.155
-547.325	93.991	-0.188	-0.214
-546.310	-109.870	0.239	-0.050
-545.296	271.277	-0.105	-0.186
-544.281	-5.694	-0.368	0.253
-543.266	-200.000	-0.025	-0.302
-542.252	-117.389	-0.155	-0.028
-541.237	14.348	-0.304	-0.237
-540.223	800.000	-0.049	-0.149
-539.208	-47.349	-0.393	0.192
-538.193	-94.241	0.067	-0.018
-537.179	327.084	0.108	0.208
-536.164	166.915	0.082	-0.117
-535.150	-200.000	-0.005	0.074
-534.135	558.059	0.079	0.191
-533.121	210.406	0.148	0.234
-532.106	800.000	0.161	-0.503
-531.091	-158.844	0.266	-0.015
-530.077	-171.854	-0.229	0.007
-529.062	-200.000	-0.021	-0.151
-528.048	227.131	0.191	-0.310
-527.033	-200.000	0.024	-0.324
-526.018	800.000	-0.072	-0.217
-525.004	800.000	0.073	0.208
-523.989	-86.150	0.282	-0.087
-522.975	96.694	0.203	-0.233
-521.960	80.074	0.137	0.147
-520.945	800.000	0.047	0.131
-519.931	-100.386	-0.181	-0.045
-518.916	-93.310	-0.221	-0.062
-517.902	93.100	0.129	0.146
-516.887	-85.522	-0.053	0.016
-515.872	86.094	0.049	0.054
-514.858	800.000	0.067	0.286
-513.843	617.453	0.083	-0.210
-512.829	403.401	-0.045	-0.095
-511.814	42.074	0.186	0.169
-510.799	692.747	-0.084	-0.221
-509.785	-119.616	0.188	0.033
-508.770	1.746	0.079	-0.057
-507.756	5.480	0.237	-0.175
-506.741	800.000	-0.020	0.090
-505.726	800.000	0.052	-0.155
-504.712	-133.337	0.138	-0.017
-503.697	-52.515	-0.265	-0.123
-502.683	-200.000	-0.041	0.196
-501.668	369.772	0.053	0.108
-500.653	8.677	0.271	-0.204
-499.639	-200.000	-0.030	-0.206
-498.624	-17.627	-0.098	0.062
-497.610	50.741	-0.071	-0.067
-496.595	321.686	0.056	0.107
-495.581	-200.000	-0.027	-0.152
-494.566	196.343	-0.089	-0.135
-493.551	-138.856	-0.423	0.046
-492.537	42.819	-0.157	0.143
-491.522	-50.672	-0.035	-0.016
-490.508	191.257	-0.053	-0.079
-489.493	-113.081	0.139	0.028
-488.478	-79.175	0.103	0.035
-487.464	-200.000	-0.019	-0.088
-486.449	-200.000	-0.005	0.116
-485.435	115.292	-0.214	-0.261
-484.420	98.395	0.095	0.109
-483.405	-12.382	-0.262	0.171
-482.391	-200.000	-0.007	0.154
-481.376	-200.000	-0.066	0.440
-480.362	800.000	-0.057	0.213
-479.347	-124.766	-0.241	0.037
-478.332	-200.000	0.008	0.119
-477.318	270.942	0.127	-0.223
-476.303	-69.922	-0.031	-0.012
-475.289	-141.389	0.198	0.020
-474.274	800.000	0.029	-0.105
-473.259	72.230	-0.122	0.127
-472.245	-6.718	-0.121	0.082
-471.230	12.698	-0.077	0.059
-470.216	-200.000	-0.018	0.137
-469.201	-163.202	-0.271	-0.013
-468.186	98.367	-0.100	0.116
-467.172	-53.177	0.302	-0.139
-466.157	-200.000	0.016	-0.285
-465.143	119.742	-0.242	0.300
-464.128	-83.530	-0.234	0.075
-463.113	209.935	0.107	0.168
-462.099	-191.036	-0.077	-0.001
-461.084	-200.000	0.022	-0.393
-460.070	-26.262	0.186	-0.109
-459.055	-15.801	-0.164	-0.104
-458.040	77.227	0.259	-0.275
-457.026	-69.236	-0.148	0.057
-456.011	420.536	0.069	0.148
-454.997	21.054	0.157	-0.127
-453.982	66.820	-0.085	0.087
-452.968	-200.000	-0.109	0.773
-451.953	186.705	0.103	0.153
-450.938	800.000	0.044	-0.159
-449.924	-200.000	-0.041	0.305
-448.909	800.000	0.136	-0.448
-447.895	800.000	-0.077	-0.307
-446.880	-200.000	0.025	0.584
-445.865	-140.588	0.252	0.026
-444.851	-159.562	-0.250	0.014
-443.836	-58.139	0.386	0.168
-442.822	-100.583	-0.118	-0.029
-441.807	404.861	0.098	-0.207
-440.792	103.571	0.174	0.203
-439.778	6.349	0.204	0.151
-438.763	65.594	-0.081	0.081
-437.749	-75.475	-0.229	-0.082
-436.734	-164.511	0.221	-0.010
-435.719	438.432	0.092	0.201
-434.705	1.670	-0.320	-0.230
-433.690	-16.080	-0.263	-0.167
-432.676	-31.449	0.130	-0.073
-431.661	330.545	-0.079	-0.152
-430.646	-154.986	0.074	-0.005
-429.632	-200.000	-0.025	-0.460
-428.617	170.057	-0.099	0.141
-427.603	23.038	-0.107	-0.087
-426.588	119.694	0.104	-0.128
-425.573	-200.000	0.030	0.199
-424.559	38.138	0.105	0.093
-423.544	-143.263	-0.114	-0.011
-422.530	8.799	-0.145	-0.109
-421.515	451.488	0.123	-0.271
-420.500	20.879	0.184	0.149
-419.486	-133.599	0.103	-0.013
-418.471	800.000	-0.109	-0.305
-417.457	-200.000	-0.005	-0.140
-416.442	-128.499	0.139	0.020
-415.428	12.655	0.102	0.079
-414.413	-185.987	-0.217	0.003
-413.398	7.224	0.248	0.184
-412.384	-200.000	0.005	-0.243
-411.369	449.822	-0.104	-0.230
-410.355	-200.000	0.019	-0.192
-409.340	800.000	-0.007	-0.021
-408.325	196.428	-0.105	-0.159
-407.311	118.293	0.029	-0.036
-406.296	-200.000	-0.007	-0.548
-405.282	-200.000	0.034	0.416
-404.267	60.814	0.091	-0.090
-403.252	800.000	0.018	-0.075
-402.238	-5.403	-0.189	-0.130
-401.223	-140.612	-0.013	-0.001
-400.209	188.152	-0.034	0.050
-399.194	800.000	0.133	-0.484
-398.179	-200.000	-0.064	-0.389
-397.165	800.000	-0.097	-0.272
-396.150	624.220	-0.038	0.096
-395.136	800.000	-0.023	0.097
-394.121	-148.383	-0.275	-0.022
-393.106	-200.000	-0.001	-0.262
-392.092	800.000	0.065	-0.227
-391.077	-7.560	0.054	-0.036
-390.063	361.683	0.190	0.379
-389.048	-5.753	-0.090	0.062
-388.033	-200.000	-0.021	0.115
-387.019	21.046	-0.215	0.174
-386.004	800.000	0.039	-0.128
-384.990	-160.709	0.341	-0.018
-383.975	39.889	0.115	0.103
-382.960	-200.000	0.019	0.238
-381.946	-69.253	-0.247	0.094
-380.931	800.000	-0.113	-0.313
-379.917	141.449	-0.076	-0.101
-378.902	-133.692	0.063	0.008
-377.888	800.000	-0.070	0.299
-376.873	349.721	-0.214	0.422
-375.858	-200.000	0.024	-0.124
-374.844	302.247	0.204	0.375
-373.829	234.976	-0.070	-0.115
-372.815	-21.789	-0.046	-0.028
-371.800	-99.710	-0.240	0.060
-370.785	800.000	0.126	0.448
-369.771	-57.900	-0.221	0.096
-368.756	332.496	0.068	0.131
-367.742	149.089	0.131	0.176
-366.727	-71.571	-0.125	0.047
-365.712	-200.000	0.028	0.238
-364.698	-51.013	0.299	0.139
-363.683	171.568	0.214	0.306
-362.669	-38.299	0.314	0.165
-361.654	-35.809	0.558	-0.301
-360.639	-123.730	-0.268	0.042
-359.625	800.000	0.054	0.154
-358.610	-200.000	0.006	-0.141
-357.596	33.132	0.055	0.048
-356.581	-200.000	-0.001	0.021
-355.566	-111.987	-0.046	0.009
-354.552	-200.000	-0.012	0.201
-353.537	-143.166	0.312	0.030
-352.523	800.000	0.070	-0.253
-351.508	-79.101	-0.438	0.148
-350.493	135.331	0.171	0.221
-349.479	43.891	0.104	0.094
-348.464	-31.326	-0.088	0.049
-347.450	162.954	0.067	0.093
-346.435	437.366	-0.118	0.256
-345.420	-105.028	0.204	-0.047
-344.406	439.543	-0.038	-0.082
-343.391	-71.839	-0.164	0.061
-342.377	-73.029	-0.192	-0.070
-341.362	241.264	0.125	-0.207
-340.348	-62.056	0.293	-0.122
-339.333	253.263	0.111	0.188
-338.318	-200.000	0.003	-0.178
-337.304	-100.749	0.159	-0.039
-336.289	273.025	-0.101	-0.178
-335.275	6.656	0.168	0.124
-334.260	-4.066	-0.074	-0.051
-333.245	89.235	-0.201	0.223
-332.231	-112.984	0.106	-0.021
-331.216	-114.087	0.203	-0.039
-330.202	800.000	-0.068	-0.194
-329.187	800.000	0.133	0.389
-328.172	-200.000	-0.001	-0.132
-327.158	36.477	-0.122	-0.107
-326.143	-200.000	0.003	0.215
-325.129	-200.000	-0.005	0.210
-324.114	90.530	-0.044	0.049
-323.099	443.641	0.083	-0.182
-322.085	26.690	0.143	0.119
-321.070	443.451	-0.093	0.202
-320.056	800.000	0.091	0.346
-319.041	-57.057	0.118	-0.052
-318.026	197.376	0.168	-0.255
-317.012	-116.040	0.057	0.011
-315.997	-151.147	-0.230	-0.017
-314.983	-80.931	-0.150	0.050
-313.968	60.832	0.105	0.104
-312.953	-18.568	0.313	0.194
-311.939	-59.964	0.011	0.005
-310.924	0.215	-0.124	0.088
-309.910	-200.000	-0.020	0.115
-308.895	-200.000	0.000	-0.245
-307.880	-111.869	-0.270	-0.054
-306.866	-200.000	0.035	0.245
-305.851	-17.046	-0.273	-0.171
-304.837	-200.000	0.003	-0.166
-303.822	733.891	-0.072	-0.192
-302.807	-61.277	-0.386	0.161
-301.793	-108.592	-0.636	0.136
-300.778	-27.890	0.217	0.125
-299.764	67.365	-0.098	0.100
-298.749	357.379	-0.073	-0.144
-297.735	-88.754	-0.142	-0.042
-296.720	-200.000	0.001	-0.129
-295.705	11.861	0.042	-0.032
-294.691	618.904	0.113	0.282
-293.676	-200.000	-0.052	-0.315
-292.662	20.738	0.162	0.130
-291.647	-200.000	0.072	-0.369
-290.632	-11.849	0.106	0.069
-289.618	-111.580	-0.019	-0.004
-288.603	-200.000	0.007	-0.061
-287.589	-89.527	0.231	-0.067
-286.574	-64.889	0.121	0.048
-285.559	-42.614	-0.182	-0.092
-284.545	-200.000	-0.033	0.195
-283.530	52.248	-0.327	0.309
-282.516	800.000	0.026	-0.076
-281.501	800.000	0.127	0.353
-280.486	179.009	0.071	0.104
-279.472	-173.998	-0.431	0.013
-278.457	-78.499	-0.367	-0.125
-277.443	-200.000	0.024	-0.341
-276.428	100.982	0.091	-0.105
-275.413	-94.782	0.193	0.052
-274.399	-200.000	-0.009	-0.129
-273.384	-29.525	-0.148	0.084
-272.370	-200.000	0.085	0.483
-271.355	800.000	0.078	0.329
-270.340	2.651	-0.145	0.104
-269.326	-127.991	-0.116	0.017
-268.311	290.866	0.115	-0.207
-267.297	-11.437	0.122	-0.080
-266.282	-28.863	0.184	-0.105
-265.267	-129.392	-0.087	-0.012
-264.253	-12.073	-0.182	-0.118
-263.238	183.612	0.253	0.371
-262.224	95.940	0.164	-0.185
-261.209	732.740	-0.057	0.152
-260.195	-85.443	-0.550	0.170
-259.180	-6.799	0.341	0.230
-258.165	-86.720	-0.293	-0.089
-257.151	-29.124	0.341	-0.194
-256.136	-39.801	-0.080	0.042
-255.122	341.814	0.234	-0.454
-254.107	-133.449	0.166	0.021
-253.092	148.632	0.152	-0.204
-252.078	660.580	0.045	-0.115
-251.063	-96.309	0.424	-0.111
-250.049	225.276	-0.113	-0.182
-249.034	-200.000	-0.026	0.240
-248.019	218.534	0.058	-0.092
-247.005	-200.000	0.025	0.221
-245.990	-200.000	-0.053	-0.563
-244.976	391.378	-0.033	0.068
-243.961	241.856	0.224	0.372
-242.946	90.703	0.246	-0.273
-241.932	54.976	0.171	-0.164
-240.917	-81.030	-0.173	-0.057
-239.903	-96.605	-0.225	0.059
-238.888	800.000	-0.058	0.165
-237.873	800.000	-0.064	-0.215
-236.859	312.729	0.110	0.205
-235.844	55.350	-0.107	0.102
-234.830	310.090	-0.131	0.242
-233.815	586.857	0.129	0.313
-232.800	60.286	0.150	0.147
-231.786	-25.226	0.302	0.177
-230.771	-79.208	-0.257	-0.086
-229.757	-200.000	0.066	0.429
-228.742	-102.261	-0.138	-0.033
-227.727	-200.000	-0.382	0.000
-226.713	-35.949	0.150	-0.080
-225.698	417.578	0.030	-0.064
-224.684	198.668	0.080	-0.121
-223.669	9.696	0.201	0.151
-222.655	-200.000	0.104	-0.452
-221.640	-109.934	0.220	0.046
-220.625	60.604	-0.119	-0.117
-219.611	143.809	0.096	0.127
-218.596	476.029	0.171	0.383
-217.582	-185.792	-0.256	0.004
-216.567	800.000	0.014	0.058
-215.552	-55.355	0.107	-0.048
-214.538	3.159	0.245	0.176
-213.523	14.836	-0.135	0.104
-212.509	-69.159	-0.049	0.019
-211.494	-110.966	-0.176	0.036
-210.479	-200.000	-0.017	0.211
-209.465	-200.000	0.022	0.248
-208.450	-154.913	0.260	-0.017
-207.436	-157.603	-0.139	-0.008
-206.421	-167.383	-0.092	0.004
-205.406	-139.987	0.198	0.021
-204.392	20.367	0.190	-0.152
-203.377	-200.000	-0.009	-0.419
-202.363	-23.284	0.083	-0.049
-201.348	-23.512	0.142	0.084
-200.333	296.399	0.202	0.367
-199.319	-83.710	-0.205	-0.065
-198.304	-109.800	0.402	0.084
-197.290	171.806	-0.011	0.016
-196.275	-200.000	-0.064	0.319
-195.260	265.033	0.178	0.306
-194.246	-200.000	0.044	-0.254
-193.231	-26.182	-0.123	-0.072
-192.217	800.000	-0.047	-0.145
-191.202	168.495	0.022	0.031
-190.187	-45.013	0.159	0.078
-189.173	68.680	0.062	0.063
-188.158	-91.834	0.326	-0.091
-187.144	-155.742	-0.163	0.010
-186.129	-200.000	0.000	0.189
-185.114	-107.439	0.286	0.062
-184.100	800.000	-0.117	-0.500
-183.085	145.457	0.078	-0.103
-182.071	800.000	0.036	-0.118
-181.056	-200.000	0.020	-0.144
-180.042	-40.112	0.140	0.072
-179.027	-52.925	-0.096	0.044
-178.012	-105.893	-0.438	-0.098
-176.998	-200.000	0.003	-0.101
-175.983	272.384	0.189	0.329
-174.969	-200.000	-0.013	0.210
-173.954	-125.571	0.254	-0.038
-172.939	219.598	-0.073	-0.116
-171.925	495.135	-0.028	-0.063
-170.910	800.000	0.030	-0.124
-169.896	658.175	-0.167	-0.423
-168.881	-10.225	0.204	0.134
-167.866	-37.303	-0.375	-0.198
-166.852	-168.934	0.050	0.002
-165.837	-109.507	0.323	-0.067
-164.823	78.490	0.330	0.348
-163.808	-187.426	0.164	0.002
-162.793	-125.140	-0.183	0.028
-161.779	65.772	0.054	-0.054
-160.764	-100.029	0.202	-0.050
-159.750	-200.000	0.022	-0.207
-158.735	-57.202	-0.413	0.180
-157.720	-176.850	0.317	-0.008
-156.706	-181.674	0.362	0.007
-155.691	-200.000	0.001	-0.295
-154.677	235.597	0.164	0.267
-153.662	-200.000	-0.011	-0.152
-152.647	-65.318	0.259	0.103
-151.633	-4.407	0.121	-0.083
-150.618	-200.000	-0.020	0.097
-149.604	800.000	0.073	-0.212
-148.589	82.026	-0.143	0.153
-147.574	800.000	0.035	0.132
-146.560	322.980	0.155	0.292
-145.545	415.222	0.104	0.219
-144.531	-200.000	0.033	0.253
-143.516	212.351	-0.100	0.156
-142.502	25.811	0.063	0.052
-141.487	-41.680	-0.211	0.107
-140.472	800.000	0.089	0.311
-139.458	-200.000	-0.032	-0.210
-138.443	-200.000	0.006	-0.172
-137.429	17.389	0.129	0.101
-136.414	-96.700	-0.331	0.086
-135.399	781.496	0.101	0.274
-134.385	-183.120	-0.047	0.001
-133.370	-41.245	0.258	0.131
-132.356	800.000	-0.061	-0.208
-131.341	201.522	0.262	-0.397
-130.326	28.325	-0.202	-0.169
-129.312	-73.795	0.208	-0.074
-128.297	800.000	-0.034	0.098
-127.283	-83.702	0.180	0.057
-126.268	-21.635	-0.165	0.099
-125.253	-56.756	0.204	-0.089
-124.239	-187.212	-0.182	0.002
-123.224	69.599	0.381	0.387
-122.210	17.538	-0.275	0.216
-121.195	8.911	-0.230	-0.171
