DTS Sentinel unit serial number:	SN413079Multiplexer serial number:	ORYXHardware model number:	OX4-SRSoftware version number:	ORYX F/W v4.00 Oryx Data Collector v3.7.2.0data status	okinstallation	princeton_trtdifferential loss correction	single-endedforward channel	channel 4reverse channel	N/Adate	2019/09/14time	16:57:35forward acquisition time	60.00reverse acquisition time	0.00gamma	496.2192k internal	0.2293k external	0.2293temperature offset calibration	1.0118default loss term (dB/km)	0.3790temperature slope calibration	1.0000multiplexer offset coefficient	1.0000multiplexer slope coefficient	1.0000fibre end	0.00T internal ref (°C)	38.00T ext. ref 1 (°C)	4.99T ext. ref 2 (°C)	33.26length (m)	temperature (°C)	Stokes	anti-Stokes-747.200	-103.723	0.103	-0.025
-746.185	-171.945	0.192	0.006
-745.171	-54.014	-0.139	0.065
-744.156	296.322	-0.152	0.284
-743.142	-200.000	0.004	0.247
-742.127	70.424	-0.365	0.386
-741.112	141.570	-0.088	0.119
-740.098	-47.167	-0.184	0.092
-739.083	42.521	-0.066	0.062
-738.069	72.888	-0.178	0.190
-737.054	-84.181	-0.312	0.101
-736.039	-186.024	-0.433	0.007
-735.025	20.984	0.507	-0.420
-734.010	800.000	0.074	-0.209
-732.996	-83.526	-0.158	0.052
-731.981	-200.000	0.032	-0.225
-730.966	140.015	-0.048	0.064
-729.952	-86.752	-0.298	0.093
-728.937	-111.782	-0.094	-0.019
-727.923	-56.028	-0.185	-0.084
-726.908	-70.422	-0.075	0.029
-725.894	-50.054	-0.355	-0.172
-724.879	45.958	-0.095	-0.090
-723.864	-122.978	-0.151	0.025
-722.850	207.471	0.053	0.084
-721.835	414.486	-0.239	0.520
-720.821	800.000	0.043	0.137
-719.806	131.236	-0.197	-0.259
-718.791	-200.000	0.021	-0.184
-717.777	-112.806	-0.086	-0.017
-716.762	-54.230	-0.355	0.165
-715.748	56.378	-0.249	-0.248
-714.733	-78.527	0.205	-0.072
-713.718	-200.000	-0.013	0.059
-712.704	-144.070	0.164	0.016
-711.689	115.894	0.021	-0.026
-710.675	-139.478	-0.268	-0.029
-709.660	-26.657	-0.184	0.110
-708.645	-33.630	-0.528	0.298
-707.631	91.276	0.271	0.311
-706.616	99.863	-0.176	0.208
-705.602	-25.111	-0.263	0.159
-704.587	66.712	-0.068	0.070
-703.572	755.838	0.137	-0.379
-702.558	-20.650	-0.087	-0.054
-701.543	800.000	0.066	0.188
-700.529	-9.115	-0.203	0.139
-699.514	79.772	-0.128	0.141
-698.499	-40.461	0.183	0.097
-697.485	-166.699	0.119	-0.005
-696.470	13.267	-0.261	-0.206
-695.456	-158.203	0.104	0.006
-694.441	550.017	0.137	0.334
-693.426	-200.000	0.030	0.251
-692.412	263.375	-0.053	0.094
-691.397	-114.501	0.414	-0.081
-690.383	800.000	0.052	0.156
-689.368	-84.091	-0.276	0.090
-688.354	-200.000	-0.001	0.055
-687.339	-12.070	-0.173	0.116
-686.324	-11.597	0.056	-0.038
-685.310	362.751	0.073	0.150
-684.295	136.150	0.148	0.197
-683.281	-19.906	-0.245	-0.155
-682.266	-112.350	0.190	0.039
-681.251	-45.829	-0.306	0.154
-680.237	-94.391	-0.300	0.084
-679.222	-200.000	0.032	-0.190
-678.208	-200.000	-0.016	0.192
-677.193	800.000	0.059	-0.236
-676.178	3.757	-0.190	0.141
-675.164	40.987	0.064	-0.059
-674.149	-200.000	0.000	-0.207
-673.135	-72.904	0.077	-0.029
-672.120	-61.975	-0.267	-0.114
-671.105	16.076	-0.099	-0.080
-670.091	-150.549	0.289	0.023
-669.076	800.000	-0.102	-0.441
-668.062	197.891	-0.082	0.128
-667.047	-200.000	-0.020	-0.143
-666.032	193.175	0.113	-0.174
-665.018	800.000	0.116	-0.514
-664.003	-11.697	-0.137	0.092
-662.989	-2.129	-0.081	-0.058
-661.974	-200.000	0.003	-0.205
-660.959	-76.611	-0.407	0.146
-659.945	410.464	0.131	0.283
-658.930	800.000	0.049	0.213
-657.916	-94.299	0.222	0.062
-656.901	-200.000	0.035	0.203
-655.886	-167.817	0.199	0.008
-654.872	568.906	0.127	0.316
-653.857	-61.638	-0.522	-0.224
-652.843	115.804	-0.048	-0.060
-651.828	7.468	-0.125	-0.095
-650.814	-200.000	0.083	-0.416
-649.799	-49.069	-0.160	0.078
-648.784	-14.443	-0.310	-0.203
-647.770	188.892	0.124	-0.188
-646.755	43.357	-0.119	-0.110
-645.741	-200.000	-0.009	0.189
-644.726	796.757	0.087	-0.245
-643.711	537.469	-0.085	-0.207
-642.697	383.566	0.094	-0.196
-641.682	-31.769	-0.100	0.057
-640.668	-92.430	-0.335	-0.096
-639.653	-200.000	-0.001	0.225
-638.638	-102.482	0.285	0.070
-637.624	435.940	-0.068	-0.151
-636.609	-42.921	0.123	0.064
-635.595	-7.204	0.161	0.111
-634.580	-160.720	-0.203	-0.011
-633.565	-156.912	-0.204	0.013
-632.551	800.000	0.089	0.293
-631.536	-33.074	0.259	-0.146
-630.522	236.943	-0.030	-0.051
-629.507	50.872	-0.211	-0.204
-628.492	-134.919	0.242	0.030
-627.478	192.656	0.120	0.185
-626.463	107.856	0.073	0.088
-625.449	-200.000	-0.001	-0.275
-624.434	-167.243	0.292	-0.012
-623.419	12.222	0.387	0.303
-622.405	800.000	-0.038	0.162
-621.390	412.684	0.160	-0.347
-620.376	227.696	-0.101	-0.168
-619.361	165.692	0.064	0.092
-618.346	800.000	-0.081	-0.293
-617.332	-46.265	0.381	-0.191
-616.317	-64.778	-0.256	0.105
-615.303	44.379	-0.209	-0.195
-614.288	800.000	-0.056	0.200
-613.273	123.582	-0.132	0.169
-612.259	54.783	0.278	-0.273
-611.244	175.440	-0.125	-0.184
-610.230	-176.520	-0.039	0.001
-609.215	-151.290	-0.158	-0.012
-608.201	173.976	0.175	0.257
-607.186	-70.746	-0.113	0.044
-606.171	-46.876	0.037	0.018
-605.157	-51.101	-0.138	-0.066
-604.142	-183.965	0.104	-0.002
-603.128	-102.077	0.146	0.036
-602.113	206.148	0.104	0.165
-601.098	600.824	-0.147	0.372
-600.084	61.459	-0.126	-0.128
-599.069	97.970	0.190	-0.223
-598.055	-122.041	-0.166	0.028
-597.040	92.885	0.283	0.325
-596.025	-186.014	-0.218	0.003
-595.011	-200.000	0.007	-0.098
-593.996	-139.353	-0.151	0.016
-592.982	-200.000	-0.009	-0.063
-591.967	-145.223	-0.332	-0.031
-590.952	-188.426	0.208	0.003
-589.938	800.000	-0.040	-0.122
-588.923	412.310	-0.062	-0.133
-587.909	138.299	0.247	0.329
-586.894	116.575	-0.206	0.257
-585.879	22.692	0.162	0.135
-584.865	-108.698	0.153	0.033
-583.850	61.646	-0.124	-0.126
-582.836	56.349	0.043	0.043
-581.821	-128.021	-0.150	-0.022
-580.806	-161.607	0.299	0.016
-579.792	800.000	-0.041	0.144
-578.777	109.845	-0.151	0.184
-577.763	27.646	0.110	0.094
-576.748	-200.000	0.006	0.293
-575.733	-110.779	0.137	0.029
-574.719	545.577	0.030	-0.072
-573.704	137.208	-0.114	0.152
-572.690	-28.833	-0.293	-0.171
-571.675	-63.654	-0.229	0.095
-570.661	-98.562	-0.114	0.030
-569.646	124.446	0.140	0.179
-568.631	-145.710	0.268	0.024
-567.617	431.852	-0.057	0.126
-566.602	141.071	-0.218	0.293
-565.588	10.568	-0.234	-0.181
-564.573	800.000	-0.045	0.133
-563.558	800.000	0.080	0.292
-562.544	53.674	0.147	0.144
-561.529	117.934	0.205	-0.256
-560.515	-40.541	0.104	0.055
-559.500	121.414	-0.191	0.241
-558.485	-200.000	-0.003	0.177
-557.471	800.000	0.100	0.335
-556.456	-52.023	-0.355	-0.168
-555.442	99.325	-0.185	-0.218
-554.427	-117.768	-0.187	0.034
-553.412	67.990	-0.152	0.158
-552.398	128.022	0.061	-0.079
-551.383	-20.723	-0.252	-0.157
-550.369	-108.682	0.063	0.014
-549.354	-20.076	0.200	0.125
-548.339	800.000	-0.067	-0.295
-547.325	-106.839	-0.358	0.081
-546.310	36.737	-0.243	-0.218
-545.296	-26.358	0.155	-0.092
-544.281	22.261	0.313	0.260
-543.266	220.412	-0.105	-0.171
-542.252	-102.605	-0.330	0.080
-541.237	369.485	-0.089	-0.184
-540.223	169.987	-0.082	0.119
-539.208	67.864	-0.149	0.154
-538.193	424.133	-0.201	-0.440
-537.179	-200.000	0.002	0.104
-536.164	-45.249	0.062	0.031
-535.150	-158.697	0.145	-0.008
-534.135	60.208	-0.216	-0.217
-533.121	390.260	-0.061	-0.129
-532.106	565.938	-0.151	-0.372
-531.091	573.800	-0.040	0.098
-530.077	185.912	0.163	0.246
-529.062	800.000	-0.070	0.204
-528.048	-200.000	-0.021	0.129
-527.033	352.813	-0.076	-0.153
-526.018	77.080	-0.136	-0.146
-525.004	403.327	0.077	0.164
-523.989	-63.928	-0.093	-0.038
-522.975	192.497	0.172	-0.263
-521.960	33.322	-0.135	0.119
-520.945	800.000	0.026	-0.110
-519.931	79.088	-0.021	-0.023
-518.916	374.290	0.115	-0.238
-517.902	-105.992	0.153	-0.035
-516.887	-75.704	-0.215	0.077
-515.872	-22.774	0.177	-0.108
-514.858	6.739	-0.177	-0.133
-513.843	-200.000	0.008	0.195
-512.829	23.220	-0.167	-0.139
-511.814	147.091	-0.086	-0.117
-510.799	515.722	0.143	0.338
-509.785	537.852	0.071	0.171
-508.770	-200.000	0.010	-0.122
-507.756	174.056	-0.087	0.128
-506.741	-200.000	0.029	0.252
-505.726	-79.468	-0.173	-0.059
-504.712	45.618	-0.170	-0.160
-503.697	-172.282	0.179	-0.006
-502.683	-200.000	-0.064	-0.303
-501.668	17.845	0.133	0.108
-500.653	267.294	0.216	-0.383
-499.639	-10.344	0.063	0.042
-498.624	358.750	0.141	-0.285
-497.610	536.887	0.038	-0.092
-496.595	162.355	0.119	-0.169
-495.581	-200.000	-0.038	0.172
-494.566	-200.000	0.009	0.176
-493.551	-20.599	-0.445	0.277
-492.537	-16.665	-0.152	-0.098
-491.522	524.000	0.074	0.177
-490.508	292.921	-0.116	0.214
-489.493	124.709	-0.251	-0.320
-488.478	11.679	0.274	-0.213
-487.464	50.438	0.252	0.241
-486.449	-175.801	0.246	-0.007
-485.435	591.222	0.044	-0.110
-484.420	-164.951	0.295	0.013
-483.405	81.041	-0.239	-0.261
-482.391	-200.000	0.036	-0.248
-481.376	-55.135	0.189	-0.086
-480.362	73.382	-0.164	-0.174
-479.347	-200.000	0.047	-0.287
-478.332	-200.000	0.036	0.251
-477.318	-18.091	-0.158	0.100
-476.303	-103.659	0.161	0.038
-475.289	-84.314	-0.186	-0.060
-474.274	17.219	-0.104	-0.084
-473.259	800.000	-0.021	-0.078
-472.245	251.936	0.060	-0.104
-471.230	19.028	0.113	-0.092
-470.216	496.391	-0.091	0.212
-469.201	-200.000	-0.013	-0.094
-468.186	-10.445	-0.086	-0.058
-467.172	-200.000	0.007	-0.195
-466.157	-14.670	-0.206	0.134
-465.143	42.402	-0.177	0.163
-464.128	643.742	0.044	-0.114
-463.113	201.390	-0.050	0.078
-462.099	-60.313	0.144	0.062
-461.084	36.408	-0.408	-0.365
-460.070	156.013	0.089	0.124
-459.055	20.298	0.027	-0.022
-458.040	-72.286	-0.123	0.046
-457.026	800.000	-0.154	-0.489
-456.011	-200.000	-0.027	-0.192
-454.997	-101.536	0.298	0.073
-453.982	115.113	-0.323	0.399
-452.968	-110.535	-0.279	0.058
-451.953	-114.035	0.060	-0.012
-450.938	140.209	0.358	-0.478
-449.924	-94.447	-0.211	0.058
-448.909	94.717	0.077	-0.088
-447.895	107.210	0.102	0.122
-446.880	-38.733	-0.134	-0.071
-445.865	800.000	-0.028	0.091
-444.851	119.917	-0.062	0.078
-443.836	800.000	-0.074	-0.265
-442.822	800.000	0.053	-0.228
-441.807	-200.000	0.032	-0.264
-440.792	-42.032	-0.088	0.046
-439.778	800.000	0.030	-0.134
-438.763	-200.000	-0.009	0.129
-437.749	-112.090	-0.219	-0.045
-436.734	-200.000	-0.005	-0.155
-435.719	-200.000	0.022	0.274
-434.705	800.000	-0.101	-0.337
-433.690	30.284	0.194	-0.168
-432.676	-200.000	-0.001	0.187
-431.661	175.138	0.352	0.515
-430.646	800.000	-0.130	-0.431
-429.632	-170.648	-0.089	-0.003
-428.617	-160.480	-0.279	0.015
-427.603	102.559	-0.196	-0.232
-426.588	800.000	0.083	-0.245
-425.573	-153.816	-0.354	0.024
-424.559	288.111	-0.190	-0.348
-423.544	-90.363	0.177	0.052
-422.530	-108.150	-0.169	0.037
-421.515	-136.833	-0.075	-0.009
-420.500	-200.000	-0.063	0.349
-419.486	772.929	0.033	0.091
-418.471	800.000	-0.089	-0.250
-417.457	306.542	0.084	-0.157
-416.442	73.744	0.090	0.095
-415.428	-141.531	0.166	0.017
-414.413	17.461	-0.118	0.095
-413.398	-200.000	0.033	0.184
-412.384	-115.760	0.208	0.039
-411.369	800.000	-0.063	-0.205
-410.355	236.223	0.137	0.229
-409.340	48.974	-0.201	0.190
-408.325	-190.223	0.357	0.004
-407.311	-34.092	0.227	0.126
-406.296	57.209	0.254	-0.250
-405.282	102.532	-0.085	-0.100
-404.267	468.113	0.140	-0.317
-403.252	30.139	0.167	0.144
-402.238	-4.951	0.158	0.110
-401.223	664.889	-0.052	0.135
-400.209	-111.234	0.381	0.079
-399.194	-169.993	0.321	0.012
-398.179	110.356	-0.162	0.197
-397.165	-200.000	0.020	0.124
-396.150	-200.000	-0.056	0.413
-395.136	-60.343	0.073	0.031
-394.121	4.478	-0.068	-0.050
-393.106	-121.766	-0.240	0.040
-392.092	-200.000	0.038	-0.215
-391.077	-48.824	0.347	-0.168
-390.063	-72.901	0.196	-0.073
-389.048	159.218	-0.113	-0.159
-388.033	365.650	0.059	0.120
-387.019	122.011	-0.038	-0.048
-386.004	171.626	0.200	-0.289
-384.990	800.000	0.040	0.125
-383.975	-200.000	0.026	-0.147
-382.960	-200.000	0.000	0.070
-381.946	-108.118	-0.296	0.065
-380.931	36.798	-0.186	0.166
-379.917	-96.795	0.378	0.100
-378.902	800.000	-0.076	0.282
-377.888	-49.772	0.153	0.073
-376.873	-50.734	-0.264	-0.125
-375.858	-151.050	0.314	0.024
-374.844	-159.785	-0.096	-0.005
-373.829	23.558	0.068	0.056
-372.815	-24.627	0.242	0.145
-371.800	-71.206	0.271	-0.103
-370.785	-200.000	-0.009	0.245
-369.771	-200.000	-0.002	0.057
-368.756	287.447	0.161	-0.293
-367.742	-41.248	0.065	0.034
-366.727	-172.844	-0.161	-0.005
-365.712	-25.638	0.188	0.112
-364.698	-200.000	0.016	0.168
-363.683	-87.307	0.414	0.127
-362.669	169.035	-0.082	0.118
-361.654	-37.599	0.102	0.055
-360.639	800.000	0.079	0.288
-359.625	-200.000	-0.023	0.222
-358.610	82.613	0.128	0.140
-357.596	-36.292	0.144	0.078
-356.581	-112.445	0.101	0.020
-355.566	-143.275	0.384	-0.037
-354.552	478.489	-0.101	-0.231
-353.537	-134.152	-0.179	-0.022
-352.523	122.901	0.193	-0.243
-351.508	800.000	-0.071	0.282
-350.493	800.000	0.052	-0.227
-349.479	51.318	-0.222	0.213
-348.464	-31.537	-0.396	-0.224
-347.450	-148.818	0.440	-0.036
-346.435	-136.162	0.180	0.021
-345.420	-200.000	-0.002	-0.053
-344.406	-55.127	0.209	0.095
-343.391	-200.000	0.020	0.151
-342.377	233.955	-0.209	-0.346
-341.362	71.968	0.227	0.238
-340.348	-200.000	0.016	0.194
-339.333	-71.578	-0.179	0.067
-338.318	179.422	0.076	-0.112
-337.304	165.371	0.140	0.200
-336.289	800.000	-0.128	0.395
-335.275	308.883	0.118	0.223
-334.260	800.000	-0.063	-0.217
-333.245	-200.000	-0.032	-0.288
-332.231	85.894	0.076	0.084
-331.216	-97.451	-0.347	-0.091
-330.202	-122.329	-0.252	-0.041
-329.187	440.343	-0.050	0.110
-328.172	3.990	0.084	0.062
-327.158	65.795	0.084	0.086
-326.143	793.629	0.092	0.255
-325.129	-144.650	0.213	-0.020
-324.114	-200.000	-0.022	0.160
-323.099	-200.000	-0.021	0.096
-322.085	595.949	-0.112	0.279
-321.070	108.492	0.046	0.055
-320.056	-200.000	-0.035	0.327
-319.041	194.991	0.213	0.325
-318.026	3.428	-0.169	-0.124
-317.012	499.613	-0.025	-0.058
-315.997	-24.818	-0.050	0.030
-314.983	90.992	0.149	-0.168
-313.968	-71.208	-0.365	-0.138
-312.953	148.548	-0.079	-0.108
-311.939	-85.494	0.242	-0.076
-310.924	9.672	0.091	-0.069
-309.910	252.145	-0.099	-0.170
-308.895	269.093	-0.221	0.390
-307.880	-200.000	0.033	0.368
-306.866	148.247	0.084	0.114
-305.851	-19.108	0.348	-0.218
-304.837	-28.856	0.145	0.084
-303.822	-66.102	0.246	0.099
-302.807	-69.210	-0.310	0.120
-301.793	-200.000	0.069	-0.345
-300.778	-153.224	-0.270	0.019
-299.764	-6.381	-0.402	-0.276
-298.749	-200.000	-0.037	-0.276
-297.735	122.815	-0.180	-0.227
-296.720	236.357	-0.070	-0.116
-295.705	-75.753	0.046	0.016
-294.691	440.728	-0.126	-0.277
-293.676	727.720	-0.116	-0.311
-292.662	-87.581	0.169	-0.051
-291.647	81.857	0.169	-0.184
-290.632	-92.721	0.247	0.070
-289.618	-167.658	-0.089	0.004
-288.603	-97.726	0.171	-0.045
-287.589	-200.000	0.012	0.068
-286.574	72.530	0.172	-0.180
-285.559	189.304	0.117	-0.177
-284.545	158.814	0.164	-0.229
-283.530	-200.000	0.326	0.001
-282.516	663.428	0.081	-0.210
-281.501	106.507	0.060	0.072
-280.486	59.675	-0.137	0.136
-279.472	122.635	0.304	-0.382
-278.457	-36.648	-0.255	0.138
-277.443	-123.481	0.231	0.037
-276.428	-119.605	-0.166	0.029
-275.413	13.723	0.182	0.142
-274.399	-200.000	-0.003	0.151
-273.384	180.244	0.071	0.105
-272.370	-86.675	-0.200	0.062
-271.355	109.520	0.070	-0.084
-270.340	-200.000	0.038	0.276
-269.326	800.000	-0.091	-0.273
-268.311	800.000	0.024	0.080
-267.297	-180.636	-0.375	-0.008
-266.282	-15.292	0.206	0.132
-265.267	-42.697	0.039	0.020
-264.253	-200.000	-0.016	0.327
-263.238	50.515	0.181	0.172
-262.224	-87.531	-0.394	-0.120
-261.209	800.000	-0.071	0.301
-260.195	375.206	-0.078	0.159
-259.180	-87.483	-0.062	0.019
-258.165	540.488	0.011	-0.026
-257.151	-102.395	0.155	0.037
-256.136	143.976	-0.123	-0.164
-255.122	800.000	0.107	-0.400
-254.107	-81.381	-0.276	0.091
-253.092	-6.686	0.194	0.132
-252.078	-200.000	-0.023	-0.116
-251.063	-200.000	-0.021	-0.314
-250.049	-28.455	0.296	-0.171
-249.034	-36.423	-0.315	-0.170
-248.019	-105.511	-0.304	-0.069
-247.005	180.242	0.107	0.157
-245.990	239.282	-0.096	0.161
-244.976	-200.000	0.037	0.219
-243.961	-30.575	0.271	0.154
-242.946	-200.000	0.056	0.265
-241.932	800.000	0.035	-0.120
-240.917	-200.000	-0.013	0.348
-239.903	-78.284	-0.394	-0.136
-238.888	-110.117	-0.362	0.076
-237.873	800.000	-0.077	0.234
-236.859	26.575	-0.091	0.076
-235.844	-192.335	-0.175	-0.002
-234.830	153.542	0.058	0.080
-233.815	103.826	0.017	0.020
-232.800	21.894	0.151	0.123
-231.786	-70.242	-0.359	-0.137
-230.771	-200.000	0.043	-0.237
-229.757	-200.000	-0.039	-0.306
-228.742	-61.739	0.304	-0.128
-227.727	-159.306	0.258	0.015
-226.713	283.542	-0.051	-0.091
-225.698	-200.000	-0.065	-0.452
-224.684	34.087	0.161	-0.141
-223.669	332.589	0.079	0.153
-222.655	-200.000	-0.004	-0.057
-221.640	771.121	-0.100	0.272
-220.625	-94.726	-0.464	-0.126
-219.611	-95.127	-0.094	-0.025
-218.596	-200.000	0.040	-0.597
-217.582	800.000	0.064	0.181
-216.567	93.703	0.167	-0.190
-215.552	800.000	0.058	-0.215
-214.538	-75.987	-0.456	0.162
-213.523	-200.000	-0.021	-0.321
-212.509	323.945	0.111	-0.213
-211.494	349.682	-0.099	0.197
-210.479	98.725	0.213	0.246
-209.465	-54.080	0.373	-0.170
-208.450	-88.843	-0.310	-0.092
-207.436	800.000	0.042	-0.129
-206.421	-200.000	0.004	-0.026
-205.406	-56.228	-0.395	0.176
-204.392	-49.849	0.242	0.115
-203.377	-84.058	-0.027	0.009
-202.363	-23.839	0.058	-0.035
-201.348	-147.705	-0.180	0.015
-200.333	-200.000	-0.034	0.349
-199.319	-157.729	-0.090	-0.005
-198.304	-69.169	0.167	0.064
-197.290	-200.000	-0.004	0.068
-196.275	-154.432	-0.241	0.016
-195.260	-200.000	0.026	0.463
-194.246	-116.016	0.166	0.031
-193.231	-6.995	-0.070	0.048
-192.217	-200.000	0.010	-0.047
-191.202	158.747	-0.024	-0.033
-190.187	-200.000	-0.046	0.342
-189.173	-103.883	0.062	0.015
-188.158	92.563	0.125	-0.141
-187.144	192.327	-0.086	0.130
-186.129	98.652	0.176	-0.203
-185.114	95.110	-0.184	-0.209
-184.100	-200.000	0.023	-0.400
-183.085	-200.000	-0.039	-0.223
-182.071	128.846	0.173	0.221
-181.056	-66.423	0.349	0.139
-180.042	122.566	-0.110	-0.137
-179.027	-144.523	0.271	0.025
-178.012	-4.490	0.334	0.231
-176.998	184.159	-0.073	-0.107
-175.983	-200.000	0.033	-0.247
-174.969	-106.188	0.310	0.070
-173.954	0.198	0.288	0.206
-172.939	337.332	0.102	0.198
-171.925	-80.259	-0.292	-0.098
-170.910	19.024	-0.095	0.076
-169.896	125.978	-0.151	0.192
-168.881	-24.267	-0.089	0.053
-167.866	-60.736	-0.139	-0.059
-166.852	-9.959	-0.253	0.168
-165.837	-49.624	0.153	0.073
-164.823	-200.000	0.054	-0.259
-163.808	-200.000	0.017	-0.119
-162.793	83.595	-0.101	-0.110
-161.779	44.003	0.248	-0.227
-160.764	20.443	-0.043	0.034
-159.750	-0.522	0.102	0.073
-158.735	106.985	0.075	0.089
-157.720	487.307	0.113	0.257
-156.706	207.508	-0.030	0.047
-155.691	-52.929	-0.211	0.097
-154.677	800.000	0.104	0.294
-153.662	-100.939	-0.116	-0.028
-152.647	800.000	0.059	-0.214
-151.633	79.971	-0.183	0.197
-150.618	-122.215	0.332	-0.054
-149.604	6.874	0.162	-0.120
-148.589	347.462	0.032	0.063
-147.574	476.671	0.018	0.040
-146.560	10.810	0.212	-0.162
-145.545	98.667	-0.027	-0.031
-144.531	800.000	0.015	-0.056
-143.516	-26.597	-0.134	-0.079
-142.502	167.286	0.090	0.128
-141.487	5.224	-0.065	-0.048
-140.472	-83.397	0.076	-0.024
-139.458	6.555	-0.128	0.095
-138.443	-30.130	-0.168	-0.095
-137.429	-94.993	-0.125	-0.034
-136.414	115.976	-0.206	-0.252
-135.399	-28.776	0.101	-0.058
-134.385	-126.965	-0.231	-0.034
-133.370	129.471	0.136	0.174
-132.356	-32.874	0.198	-0.110
-131.341	-78.499	0.129	0.044
-130.326	-200.000	0.088	0.394
-129.312	-109.163	0.197	-0.042
-128.297	10.481	0.144	0.109
-127.283	190.613	0.086	0.130
-126.268	-200.000	-0.018	0.317
-125.253	-32.055	0.203	0.113
-124.239	70.637	-0.144	-0.149
-123.224	-16.572	-0.030	0.019
-122.210	-12.279	-0.262	-0.171
-121.195	-93.081	-0.136	-0.038
-120.180	-97.850	0.025	-0.006
