DTS Sentinel unit serial number:	SN413079Multiplexer serial number:	ORYXHardware model number:	OX4-SRSoftware version number:	ORYX F/W v4.00 Oryx Data Collector v3.7.2.0data status	okinstallation	princeton_trtdifferential loss correction	single-endedforward channel	channel 4reverse channel	N/Adate	2019/09/13time	08:53:35forward acquisition time	60.00reverse acquisition time	0.00gamma	496.2192k internal	0.2315k external	0.2315temperature offset calibration	1.0199default loss term (dB/km)	0.3790temperature slope calibration	1.0000multiplexer offset coefficient	1.0000multiplexer slope coefficient	1.0000fibre end	0.00T internal ref (°C)	28.19T ext. ref 1 (°C)	4.34T ext. ref 2 (°C)	25.25length (m)	temperature (°C)	Stokes	anti-Stokes-747.200	1.966	0.234	-0.171
-746.185	800.000	-0.098	0.381
-745.171	239.469	-0.026	0.043
-744.156	45.670	-0.411	0.385
-743.142	-90.744	-0.301	-0.088
-742.127	-50.722	0.104	0.050
-741.112	-112.994	0.224	-0.045
-740.098	416.218	0.039	0.085
-739.083	-82.244	0.216	0.071
-738.069	2.983	0.138	0.102
-737.054	-49.523	0.150	-0.073
-736.039	713.670	-0.088	-0.235
-735.025	-172.760	0.437	-0.014
-734.010	496.131	-0.145	-0.337
-732.996	87.837	0.198	-0.222
-731.981	512.526	-0.092	-0.217
-730.966	800.000	0.147	-0.492
-729.952	92.887	0.286	-0.327
-728.937	-152.816	-0.385	0.028
-727.923	449.793	0.036	0.080
-726.908	165.931	0.133	0.191
-725.894	28.415	-0.349	-0.299
-724.879	183.070	0.235	-0.351
-723.864	157.515	-0.276	-0.387
-722.850	34.353	0.321	0.284
-721.835	-73.937	-0.210	-0.077
-720.821	-25.953	0.289	-0.172
-719.806	-200.000	0.026	-0.228
-718.791	-200.000	0.001	0.080
-717.777	800.000	0.069	0.252
-716.762	-129.377	0.083	-0.012
-715.748	-148.288	-0.230	0.019
-714.733	800.000	0.033	-0.124
-713.718	263.418	0.175	-0.308
-712.704	-200.000	-0.097	-0.439
-711.689	66.171	0.098	0.100
-710.675	0.085	0.130	0.094
-709.660	-200.000	-0.014	-0.175
-708.645	182.537	-0.176	0.263
-707.631	28.631	-0.093	-0.080
-706.616	-4.433	0.171	0.119
-705.602	387.406	0.112	-0.234
-704.587	99.567	-0.119	-0.139
-703.572	-200.000	0.048	-0.366
-702.558	437.064	0.092	0.203
-701.543	89.392	0.105	-0.119
-700.529	-200.000	0.056	-0.304
-699.514	557.143	0.049	-0.119
-698.499	-58.769	0.230	0.101
-697.485	235.268	-0.112	-0.187
-696.470	-150.717	-0.210	-0.016
-695.456	292.591	-0.135	0.249
-694.441	-139.750	0.126	-0.014
-693.426	314.160	-0.074	-0.140
-692.412	-67.631	-0.273	-0.108
-691.397	378.573	0.122	-0.253
-690.383	-80.711	-0.109	-0.037
-689.368	-200.000	0.052	-0.299
-688.354	-145.324	0.241	-0.022
-687.339	13.555	-0.081	-0.064
-686.324	-34.020	0.029	-0.016
-685.310	82.704	0.232	0.254
-684.295	-27.642	-0.351	-0.206
-683.281	-198.906	0.198	-0.001
-682.266	-78.942	-0.173	0.059
-681.251	-200.000	0.003	0.024
-680.237	212.695	0.165	0.264
-679.222	800.000	-0.024	0.068
-678.208	-10.792	-0.078	0.052
-677.193	-94.825	0.330	0.090
-676.178	11.783	-0.157	0.122
-675.164	-31.082	0.042	0.024
-674.149	-92.042	-0.328	-0.094
-673.135	49.405	-0.248	-0.236
-672.120	-54.011	-0.135	-0.062
-671.105	-173.452	0.280	0.009
-670.091	-200.000	-0.025	-0.198
-669.076	161.821	0.020	-0.028
-668.062	-200.000	-0.030	-0.137
-667.047	233.527	-0.101	0.168
-666.032	-200.000	-0.042	-0.361
-665.018	-78.378	-0.155	0.054
-664.003	77.171	-0.052	-0.056
-662.989	800.000	-0.041	-0.149
-661.974	-200.000	0.023	0.295
-660.959	282.992	0.026	0.048
-659.945	555.430	0.049	0.119
-658.930	126.664	0.222	-0.284
-657.916	-200.000	-0.017	0.144
-656.901	347.573	-0.066	0.131
-655.886	-152.077	-0.145	0.011
-654.872	35.815	0.261	-0.232
-653.857	283.915	0.151	-0.273
-652.843	50.545	0.252	-0.241
-651.828	2.604	0.222	0.163
-650.814	-122.807	0.137	0.022
-649.799	-31.759	-0.073	0.041
-648.784	-145.643	0.248	-0.022
-647.770	-200.000	0.081	-0.395
-646.755	33.874	-0.175	-0.154
-645.741	-25.633	-0.190	-0.113
-644.726	-116.363	0.068	0.013
-643.711	-175.579	-0.197	-0.005
-642.697	-184.365	0.319	0.005
-641.682	433.946	-0.092	0.203
-640.668	-200.000	-0.005	0.151
-639.653	-94.027	0.025	-0.007
-638.638	611.401	0.083	-0.210
-637.624	242.739	-0.064	0.108
-636.609	282.520	0.085	0.153
-635.595	-84.852	0.299	0.095
-634.580	-118.772	-0.078	-0.014
-633.565	-139.031	0.234	0.026
-632.551	121.578	-0.117	-0.147
-631.536	109.921	-0.158	-0.192
-630.522	-156.391	0.241	-0.015
-629.507	-63.754	-0.139	0.058
-628.492	-200.000	-0.032	-0.215
-627.478	-24.826	0.317	0.190
-626.463	-200.000	-0.012	0.171
-625.449	185.832	0.201	0.301
-624.434	-21.863	0.168	-0.103
-623.419	-94.156	0.064	-0.018
-622.405	135.721	-0.057	-0.074
-621.390	-184.192	0.148	0.002
-620.376	64.306	-0.246	0.250
-619.361	563.436	0.110	0.268
-618.346	-200.000	0.035	-0.177
-617.332	-200.000	-0.077	-0.424
-616.317	34.700	-0.093	0.082
-615.303	203.790	-0.059	-0.092
-614.288	183.045	-0.090	0.134
-613.273	-200.000	-0.020	-0.127
-612.259	24.633	0.263	0.219
-611.244	236.010	0.065	-0.108
-610.230	426.486	-0.046	-0.101
-609.215	43.603	-0.138	0.128
-608.201	656.235	-0.119	-0.307
-607.186	-82.540	0.022	-0.007
-606.171	800.000	-0.037	0.162
-605.157	269.710	0.224	-0.396
-604.142	800.000	-0.084	0.249
-603.128	-33.879	0.266	-0.148
-602.113	-107.703	-0.035	0.008
-601.098	231.467	0.097	0.161
-600.084	401.735	-0.081	-0.172
-599.069	466.646	-0.065	0.147
-598.055	-0.972	-0.255	-0.182
-597.040	291.718	-0.109	-0.199
-596.025	-49.360	-0.131	-0.063
-595.011	259.800	0.140	-0.244
-593.996	-82.104	-0.138	0.045
-592.982	-200.000	0.022	-0.138
-591.967	-162.632	-0.101	0.005
-590.952	285.904	0.030	0.055
-589.938	282.580	-0.127	-0.229
-588.923	364.140	0.056	-0.114
-587.909	-51.616	0.236	-0.111
-586.894	-38.468	0.432	-0.230
-585.879	17.634	-0.046	-0.037
-584.865	328.907	0.044	-0.085
-583.850	-200.000	-0.061	0.308
-582.836	-200.000	-0.026	0.313
-581.821	-13.718	0.124	-0.081
-580.806	800.000	0.055	-0.160
-579.792	173.618	-0.091	0.132
-578.777	333.603	-0.196	-0.382
-577.763	800.000	-0.043	-0.179
-576.748	800.000	0.037	0.160
-575.733	300.608	-0.028	0.051
-574.719	177.403	0.214	0.313
-573.704	-170.065	-0.255	0.009
-572.690	178.495	-0.151	0.222
-571.675	669.600	0.108	-0.282
-570.661	367.065	0.067	0.136
-569.646	-59.447	0.021	0.009
-568.631	161.296	0.246	0.346
-567.617	50.863	-0.010	-0.010
-566.602	-147.944	0.257	-0.022
-565.588	191.253	0.025	0.037
-564.573	-90.415	0.256	0.075
-563.558	197.815	0.212	-0.326
-562.544	-200.000	-0.003	-0.263
-561.529	8.933	-0.171	0.130
-560.515	19.375	-0.166	0.134
-559.500	115.004	0.050	0.061
-558.485	9.465	-0.044	0.033
-557.471	313.111	0.183	-0.346
-556.456	142.658	-0.164	0.219
-555.442	283.608	0.075	0.136
-554.427	22.480	0.200	-0.165
-553.412	-173.859	0.103	0.003
-552.398	196.573	0.317	0.486
-551.383	800.000	0.082	-0.266
-550.369	265.062	0.053	0.093
-549.354	-76.437	0.287	0.102
-548.339	16.821	-0.142	-0.113
-547.325	-200.000	-0.019	-0.154
-546.310	-47.039	-0.096	-0.047
-545.296	-69.536	-0.275	0.106
-544.281	273.000	0.135	0.239
-543.266	-46.251	0.298	-0.148
-542.252	-175.317	-0.055	-0.002
-541.237	269.177	-0.250	-0.441
-540.223	800.000	0.049	0.182
-539.208	-82.457	-0.236	0.077
-538.193	21.896	-0.102	-0.083
-537.179	-200.000	-0.001	0.101
-536.164	-200.000	-0.032	0.204
-535.150	-117.460	0.148	-0.027
-534.135	-107.573	-0.389	0.086
-533.121	176.552	0.099	0.145
-532.106	-181.113	-0.187	-0.004
-531.091	159.113	0.144	0.201
-530.077	-200.000	0.023	0.144
-529.062	-200.000	-0.012	-0.428
-528.048	110.446	-0.127	-0.153
-527.033	-45.939	-0.155	-0.077
-526.018	-87.047	0.213	-0.065
-525.004	800.000	0.048	0.206
-523.989	-200.000	0.002	-0.232
-522.975	-109.654	-0.129	0.027
-521.960	800.000	-0.035	-0.148
-520.945	-28.125	0.092	0.054
-519.931	304.260	-0.130	0.242
-518.916	800.000	-0.072	-0.245
-517.902	800.000	0.034	-0.121
-516.887	10.735	0.185	-0.142
-515.872	48.796	0.154	0.145
-514.858	-52.743	0.242	0.112
-513.843	-180.457	0.002	0.000
-512.829	-76.356	0.141	-0.050
-511.814	-133.198	-0.302	-0.038
-510.799	240.124	0.191	0.320
-509.785	-27.255	0.134	0.079
-508.770	-157.329	-0.243	0.015
-507.756	-32.055	0.248	-0.139
-506.741	27.399	0.260	0.220
-505.726	-39.232	-0.081	0.043
-504.712	-138.964	-0.125	0.014
-503.697	-135.980	-0.415	-0.049
-502.683	296.092	-0.119	0.219
-501.668	4.280	0.395	-0.290
-500.653	10.674	-0.255	-0.195
-499.639	379.749	-0.086	0.177
-498.624	140.632	0.137	0.182
-497.610	-200.000	0.030	0.246
-496.595	132.023	0.054	-0.069
-495.581	-200.000	-0.008	0.067
-494.566	-200.000	-0.023	-0.281
-493.551	287.330	-0.106	-0.193
-492.537	675.678	-0.030	0.079
-491.522	-97.862	-0.279	-0.072
-490.508	-119.343	0.068	-0.012
-489.493	356.595	0.013	-0.027
-488.478	-69.045	0.050	0.020
-487.464	377.321	-0.061	-0.125
-486.449	-200.000	0.006	-0.210
-485.435	123.089	-0.092	-0.116
-484.420	-117.234	-0.147	0.027
-483.405	800.000	-0.022	-0.064
-482.391	-127.105	-0.117	-0.017
-481.376	800.000	-0.082	0.231
-480.362	-38.393	-0.229	-0.121
-479.347	258.368	0.076	-0.132
-478.332	-13.158	-0.120	0.078
-477.318	-200.000	0.011	-0.110
-476.303	162.064	0.063	0.088
-475.289	800.000	-0.042	0.161
-474.274	-158.740	0.051	0.003
-473.259	-21.923	-0.258	0.157
-472.245	-200.000	0.061	-0.390
-471.230	-110.185	-0.101	-0.021
-470.216	-88.009	-0.158	0.048
-469.201	693.075	-0.069	-0.181
-468.186	375.267	-0.185	0.377
-467.172	7.419	0.154	-0.115
-466.157	22.559	0.317	0.260
-465.143	800.000	-0.063	-0.210
-464.128	590.647	-0.070	0.174
-463.113	86.896	0.269	0.298
-462.099	-167.089	0.503	0.021
-461.084	22.793	0.265	0.218
-460.070	-115.831	0.144	0.027
-459.055	80.371	0.115	0.124
-458.040	-200.000	0.003	0.280
-457.026	313.819	-0.179	-0.338
-456.011	-200.000	-0.010	0.264
-454.997	193.055	0.038	0.057
-453.982	-200.000	-0.020	-0.131
-452.968	-3.450	0.082	0.057
-451.953	-200.000	-0.029	0.402
-450.938	800.000	-0.094	-0.261
-449.924	-42.743	0.034	-0.017
-448.909	-200.000	-0.046	0.319
-447.895	80.986	-0.022	-0.023
-446.880	64.106	-0.082	0.083
-445.865	23.222	0.050	0.041
-444.851	-200.000	0.008	-0.625
-443.836	-200.000	-0.004	-0.042
-442.822	-200.000	0.020	0.245
-441.807	213.450	-0.232	-0.367
-440.792	-83.577	0.229	0.073
-439.778	-200.000	-0.019	-0.099
-438.763	237.912	-0.101	-0.169
-437.749	363.419	0.149	-0.301
-436.734	-200.000	0.007	-0.106
-435.719	99.031	-0.104	0.120
-434.705	-106.857	-0.077	0.017
-433.690	-65.312	0.218	-0.088
-432.676	800.000	0.064	-0.243
-431.661	800.000	0.054	0.187
-430.646	-19.937	-0.130	-0.080
-429.632	797.341	-0.025	-0.069
-428.617	-200.000	-0.012	0.294
-427.603	-200.000	0.018	-0.250
-426.588	-44.464	-0.095	0.048
-425.573	-77.834	0.035	-0.012
-424.559	-71.220	0.145	-0.054
-423.544	-117.197	-0.344	0.063
-422.530	-200.000	-0.009	-0.336
-421.515	-87.830	-0.369	-0.111
-420.500	179.994	-0.111	0.163
-419.486	94.665	0.067	0.076
-418.471	800.000	0.096	0.297
-417.457	-200.000	-0.012	0.075
-416.442	-63.096	-0.385	-0.159
-415.428	-200.000	0.006	0.256
-414.413	-2.951	-0.244	-0.171
-413.398	-110.745	0.072	0.015
-412.384	800.000	0.021	-0.079
-411.369	37.510	0.142	-0.126
-410.355	91.409	-0.106	0.119
-409.340	-200.000	-0.024	-0.117
-408.325	-56.910	-0.236	0.104
-407.311	-200.000	-0.002	-0.098
-406.296	460.966	-0.090	0.200
-405.282	-200.000	0.012	-0.402
-404.267	-47.846	0.280	-0.136
-403.252	-139.650	0.161	0.017
-402.238	800.000	0.112	-0.447
-401.223	-21.963	-0.151	-0.092
-400.209	-70.713	0.262	-0.099
-399.194	-81.697	-0.345	0.113
-398.179	-52.293	-0.274	0.127
-397.165	530.561	-0.061	-0.143
-396.150	61.513	0.118	-0.118
-395.136	-200.000	-0.024	0.118
-394.121	125.507	0.148	0.187
-393.106	-68.700	-0.150	-0.058
-392.092	-200.000	0.015	0.107
-391.077	-200.000	0.049	0.240
-390.063	55.427	-0.094	0.091
-389.048	800.000	-0.087	-0.286
-388.033	251.159	-0.104	0.176
-387.019	97.078	0.188	0.215
-386.004	-176.430	-0.294	-0.008
-384.990	310.526	-0.028	0.053
-383.975	-88.362	0.191	0.057
-382.960	-200.000	0.005	0.249
-381.946	-147.743	-0.128	-0.011
-380.931	69.882	0.151	0.156
-379.917	-20.381	0.065	-0.040
-378.902	800.000	-0.027	-0.083
-377.888	662.476	-0.067	-0.173
-376.873	-200.000	0.009	-0.214
-375.858	-172.387	-0.258	-0.008
-374.844	120.335	0.235	0.291
-373.829	-200.000	0.020	-0.157
-372.815	-95.931	-0.096	0.026
-371.800	94.505	0.097	-0.110
-370.785	65.604	0.025	-0.026
-369.771	-106.638	0.084	-0.019
-368.756	58.739	-0.071	0.069
-367.742	-200.000	-0.033	-0.195
-366.727	-200.000	0.001	0.059
-365.712	-51.802	-0.165	-0.077
-364.698	-94.883	0.123	0.033
-363.683	-75.131	-0.329	-0.117
-362.669	258.039	0.127	-0.219
-361.654	-63.072	0.250	-0.103
-360.639	164.776	-0.095	0.133
-359.625	-75.458	-0.235	-0.084
-358.610	88.691	0.212	0.235
-357.596	-87.058	0.090	0.027
-356.581	-25.970	-0.346	-0.204
-355.566	-37.261	0.299	0.159
-354.552	161.874	-0.040	0.056
-353.537	-25.712	-0.266	0.156
-352.523	687.428	0.084	0.220
-351.508	800.000	-0.140	-0.391
-350.493	720.883	-0.112	0.298
-349.479	-101.673	0.167	-0.040
-348.464	-200.000	0.076	0.337
-347.450	800.000	-0.104	-0.380
-346.435	-13.721	0.159	-0.103
-345.420	17.422	-0.246	0.195
-344.406	-99.347	0.117	-0.030
-343.391	-1.662	-0.227	0.160
-342.377	-59.681	-0.290	0.124
-341.362	7.150	0.190	-0.141
-340.348	-85.661	0.169	-0.052
-339.333	-62.324	-0.067	-0.028
-338.318	-153.005	0.174	0.012
-337.304	-60.728	0.321	-0.136
-336.289	-12.729	0.056	-0.036
-335.275	35.759	-0.255	0.223
-334.260	-200.000	0.007	-0.092
-333.245	-40.563	0.241	-0.125
-332.231	-84.129	-0.201	-0.064
-331.216	-61.182	-0.129	0.054
-330.202	352.880	-0.044	0.086
-329.187	-200.000	-0.041	-0.195
-328.172	-104.556	-0.287	0.066
-327.158	21.863	0.218	-0.177
-326.143	-146.882	-0.401	-0.034
-325.129	295.826	-0.143	0.262
-324.114	-200.000	-0.021	-0.317
-323.099	-200.000	-0.003	0.233
-322.085	409.014	0.123	0.260
-321.070	800.000	-0.059	0.186
-320.056	48.824	-0.239	-0.223
-319.041	-70.326	0.132	0.050
-318.026	362.617	0.106	0.211
-317.012	-96.007	-0.230	-0.061
-315.997	-115.878	0.085	-0.016
-314.983	-25.333	-0.130	-0.077
-313.968	434.990	-0.111	-0.241
-312.953	-200.000	-0.028	0.239
-311.939	451.576	-0.134	0.295
-310.924	-200.000	0.016	-0.177
-309.910	-148.462	0.220	-0.018
-308.895	-106.943	0.134	-0.030
-307.880	-200.000	0.010	-0.388
-306.866	800.000	0.011	-0.045
-305.851	47.527	0.109	-0.101
-304.837	284.606	0.145	0.260
-303.822	60.178	0.147	0.145
-302.807	276.910	-0.112	-0.197
-301.793	-200.000	-0.025	-0.435
-300.778	56.854	-0.292	0.284
-299.764	46.506	0.062	0.057
-298.749	-144.114	-0.100	0.009
-297.735	10.400	-0.048	0.036
-296.720	294.704	0.132	0.241
-295.705	-87.069	-0.285	0.086
-294.691	-200.000	0.007	0.356
-293.676	138.992	-0.120	0.158
-292.662	800.000	0.123	-0.342
-291.647	-143.059	0.272	-0.026
-290.632	77.832	0.084	-0.089
-289.618	800.000	0.094	-0.363
-288.603	241.940	0.063	-0.105
-287.589	97.750	0.022	0.025
-286.574	331.337	0.168	-0.322
-285.559	20.458	0.106	-0.086
-284.545	12.387	0.064	0.049
-283.530	54.864	-0.254	-0.244
-282.516	-200.000	-0.004	0.031
-281.501	-200.000	0.017	-0.160
-280.486	413.739	-0.112	-0.236
-279.472	-200.000	0.030	0.235
-278.457	-66.003	0.167	0.066
-277.443	90.418	-0.186	-0.207
-276.428	0.754	0.251	0.179
-275.413	-72.281	0.083	0.031
-274.399	-200.000	-0.008	-0.086
-273.384	-94.249	0.013	0.004
-272.370	-38.643	-0.050	-0.026
-271.355	800.000	-0.106	-0.372
-270.340	-87.425	0.035	0.010
-269.326	70.789	-0.152	-0.157
-268.311	670.274	-0.169	0.436
-267.297	800.000	0.132	0.468
-266.282	-200.000	0.039	0.438
-265.267	-71.210	0.119	0.044
-264.253	-200.000	-0.013	0.316
-263.238	-61.855	0.365	0.152
-262.224	-76.614	-0.280	-0.098
-261.209	241.470	0.108	0.179
-260.195	800.000	-0.043	0.123
-259.180	-64.880	-0.171	0.069
-258.165	-65.277	-0.130	-0.052
-257.151	-176.026	-0.488	0.013
-256.136	33.674	0.174	0.150
-255.122	-200.000	0.006	0.039
-254.107	350.641	0.060	0.118
-253.092	98.680	0.155	0.177
-252.078	101.813	-0.197	0.229
-251.063	800.000	-0.039	0.136
-250.049	-65.475	0.174	0.069
-249.034	-200.000	0.036	0.185
-248.019	800.000	0.037	0.131
-247.005	80.350	0.193	0.207
-245.990	3.324	0.194	-0.140
-244.976	94.161	-0.234	0.264
-243.961	-164.395	-0.224	0.010
-242.946	-114.349	-0.236	-0.045
-241.932	-50.603	0.059	0.028
-240.917	-200.000	0.023	-0.139
-239.903	-48.404	0.188	-0.090
-238.888	-23.197	-0.039	0.023
-237.873	-200.000	-0.024	-0.239
-236.859	60.237	0.213	0.209
-235.844	216.394	0.050	0.078
-234.830	21.431	-0.011	0.009
-233.815	292.693	-0.172	-0.312
-232.800	-103.096	-0.105	-0.025
-231.786	-139.818	0.193	-0.020
-230.771	148.402	0.057	0.076
-229.757	178.275	-0.036	0.053
-228.742	492.170	-0.150	0.342
-227.727	-149.528	0.272	-0.021
-226.713	-110.635	0.157	0.032
-225.698	800.000	-0.030	-0.102
-224.684	70.133	-0.170	0.174
-223.669	800.000	-0.108	0.310
-222.655	20.016	0.090	0.072
-221.640	13.094	-0.108	-0.083
-220.625	693.976	0.047	-0.123
-219.611	-200.000	-0.002	-0.099
-218.596	-200.000	-0.012	-0.248
-217.582	298.081	0.123	-0.224
-216.567	-200.000	0.030	0.293
-215.552	-107.511	-0.189	0.041
-214.538	-100.607	-0.307	-0.075
-213.523	137.445	-0.130	0.168
-212.509	-200.000	-0.006	0.166
-211.494	41.648	-0.056	-0.050
-210.479	-43.644	0.349	-0.175
-209.465	100.244	-0.189	-0.217
-208.450	190.230	0.200	0.299
-207.436	800.000	0.045	0.177
-206.421	84.664	-0.173	0.188
-205.406	-200.000	0.050	-0.308
-204.392	271.254	-0.022	-0.039
-203.377	25.987	0.216	-0.179
-202.363	-53.767	0.239	0.108
-201.348	301.735	-0.068	0.124
-200.333	-22.229	-0.305	0.184
-199.319	800.000	0.033	-0.105
-198.304	363.067	0.236	-0.471
-197.290	-200.000	0.002	-0.046
-196.275	-38.508	0.177	-0.093
-195.260	-64.651	-0.217	-0.087
-194.246	-200.000	-0.049	-0.254
-193.231	800.000	-0.024	0.083
-192.217	82.367	0.222	-0.238
-191.202	800.000	-0.050	0.175
-190.187	172.766	0.097	0.139
-189.173	212.116	-0.129	0.201
-188.158	6.987	0.156	-0.116
-187.144	265.569	0.113	0.195
-186.129	-200.000	-0.011	0.168
-185.114	-63.352	0.249	-0.102
-184.100	-140.723	-0.212	-0.022
-183.085	226.158	0.107	0.171
-182.071	48.270	0.158	0.146
-181.056	-173.592	-0.166	-0.005
-180.042	-8.385	0.411	-0.274
-179.027	72.211	-0.027	-0.028
-178.012	-127.531	0.133	-0.019
-176.998	17.536	0.199	-0.157
-175.983	-73.234	0.086	-0.031
-174.969	-200.000	-0.011	-0.090
-173.954	-150.463	-0.196	0.015
-172.939	-132.974	0.271	-0.034
-171.925	-4.635	-0.137	0.094
-170.910	51.197	-0.114	-0.108
-169.896	509.655	-0.011	-0.026
-168.881	-18.277	0.224	0.139
-167.866	110.968	-0.129	-0.154
-166.852	800.000	-0.117	0.437
-165.837	113.067	0.080	0.096
-164.823	460.791	0.023	-0.050
-163.808	-200.000	0.003	-0.181
-162.793	556.720	0.099	-0.237
-161.779	142.481	0.113	0.148
-160.764	-200.000	0.018	-0.250
-159.750	-1.740	-0.168	0.117
-158.735	-200.000	-0.016	0.234
-157.720	-152.435	-0.160	0.011
-156.706	92.456	-0.071	-0.079
-155.691	-90.164	0.250	-0.072
-154.677	800.000	-0.018	0.077
-153.662	-19.717	-0.233	-0.143
-152.647	-26.094	-0.183	0.107
-151.633	159.486	-0.191	-0.263
-150.618	-90.659	0.277	-0.079
-149.604	-200.000	0.010	-0.200
-148.589	-18.339	-0.178	0.110
-147.574	-4.937	0.195	0.133
-146.560	-106.389	-0.238	-0.053
-145.545	49.147	0.202	-0.188
-144.531	-172.131	-0.173	-0.006
-143.516	-128.327	-0.139	0.020
-142.502	9.748	0.061	-0.046
-141.487	230.938	-0.166	-0.270
-140.472	-70.164	-0.047	-0.018
-139.458	-53.656	-0.208	-0.094
-138.443	-83.710	0.317	-0.100
-137.429	-91.262	-0.232	0.066
-136.414	-130.227	-0.063	-0.008
-135.399	288.881	-0.041	-0.074
-134.385	416.430	-0.218	0.461
-133.370	-200.000	-0.003	0.080
-132.356	-200.000	0.034	0.439
-131.341	125.208	0.241	0.300
-130.326	708.908	-0.136	-0.355
-129.312	369.439	-0.169	-0.338
-128.297	-190.996	0.105	-0.001
-127.283	-41.339	-0.112	0.057
-126.268	77.493	0.258	0.272
-125.253	-34.783	0.065	-0.035
-124.239	-200.000	0.010	-0.224
-123.224	-69.955	0.100	-0.038
-122.210	-39.021	0.310	-0.161
-121.195	67.306	-0.129	-0.130
