DTS Sentinel unit serial number:	SN413079Multiplexer serial number:	ORYXHardware model number:	OX4-SRSoftware version number:	ORYX F/W v4.00 Oryx Data Collector v3.7.2.0data status	okinstallation	princeton_trtdifferential loss correction	single-endedforward channel	channel 4reverse channel	N/Adate	2019/09/13time	14:41:35forward acquisition time	60.00reverse acquisition time	0.00gamma	496.2192k internal	0.2294k external	0.2294temperature offset calibration	1.0210default loss term (dB/km)	0.3790temperature slope calibration	1.0000multiplexer offset coefficient	1.0000multiplexer slope coefficient	1.0000fibre end	0.00T internal ref (°C)	35.42T ext. ref 1 (°C)	4.67T ext. ref 2 (°C)	32.48length (m)	temperature (°C)	Stokes	anti-Stokes-747.200	349.609	-0.066	-0.133
-746.185	628.900	0.007	-0.019
-745.171	123.650	-0.152	-0.196
-744.156	424.420	-0.170	0.374
-743.142	176.605	0.042	-0.063
-742.127	3.404	-0.325	0.242
-741.112	-93.354	-0.109	-0.031
-740.098	675.292	-0.081	0.215
-739.083	358.930	-0.037	-0.076
-738.069	-47.180	0.181	-0.090
-737.054	-169.001	0.292	-0.011
-736.039	-87.458	-0.175	0.054
-735.025	800.000	0.067	-0.220
-734.010	-170.362	-0.294	-0.011
-732.996	36.831	0.085	0.077
-731.981	-11.586	0.279	-0.187
-730.966	-127.585	-0.113	-0.017
-729.952	183.978	-0.189	-0.285
-728.937	278.310	-0.205	-0.374
-727.923	800.000	0.048	0.144
-726.908	-130.670	0.238	0.033
-725.894	-200.000	-0.089	-0.419
-724.879	-47.600	-0.295	-0.147
-723.864	796.142	-0.107	-0.301
-722.850	-134.879	-0.251	-0.031
-721.835	-109.096	-0.112	-0.024
-720.821	362.903	-0.023	0.048
-719.806	-97.322	0.281	0.075
-718.791	800.000	-0.048	-0.213
-717.777	502.831	0.105	-0.249
-716.762	420.544	-0.086	0.189
-715.748	514.710	0.011	0.026
-714.733	141.801	-0.046	0.063
-713.718	-85.298	-0.466	0.149
-712.704	46.631	0.185	-0.175
-711.689	-90.332	0.174	-0.052
-710.675	-95.692	-0.202	-0.055
-709.660	273.131	0.155	-0.280
-708.645	-57.141	0.199	0.089
-707.631	3.093	0.161	0.119
-706.616	242.609	-0.068	-0.116
-705.602	164.927	0.146	-0.210
-704.587	-68.678	-0.220	0.087
-703.572	156.281	0.116	-0.164
-702.558	-26.990	0.135	-0.081
-701.543	-100.429	-0.149	0.038
-700.529	-108.761	0.376	-0.082
-699.514	-4.509	-0.069	0.049
-698.499	-122.858	0.074	0.012
-697.485	347.770	0.049	-0.099
-696.470	278.578	-0.128	0.233
-695.456	-92.506	0.269	-0.077
-694.441	-200.000	0.014	0.359
-693.426	49.558	0.175	-0.168
-692.412	-122.483	-0.041	-0.007
-691.397	-200.000	-0.034	-0.503
-690.383	185.744	-0.054	-0.082
-689.368	-168.345	-0.151	-0.006
-688.354	-200.000	-0.005	-0.025
-687.339	800.000	-0.060	-0.222
-686.324	-200.000	0.078	-0.629
-685.310	254.930	-0.088	0.154
-684.295	545.277	-0.125	0.305
-683.281	-168.384	-0.366	0.014
-682.266	-44.551	-0.119	0.061
-681.251	-52.693	-0.403	0.190
-680.237	-59.712	0.199	0.087
-679.222	101.727	0.195	-0.232
-678.208	186.497	0.038	-0.057
-677.193	-156.842	-0.305	0.019
-676.178	-200.000	0.011	0.073
-675.164	-76.871	0.128	-0.046
-674.149	140.953	0.046	-0.062
-673.135	-72.466	-0.260	-0.098
-672.120	-15.929	-0.240	-0.156
-671.105	-200.000	0.074	-0.559
-670.091	40.708	-0.351	-0.322
-669.076	-25.085	-0.350	-0.211
-668.062	-105.622	0.261	-0.060
-667.047	-74.179	-0.298	-0.110
-666.032	-98.350	0.179	-0.047
-665.018	-60.536	-0.531	-0.230
-664.003	-100.902	0.389	-0.097
-662.989	-80.427	-0.226	-0.077
-661.974	-195.662	-0.228	-0.002
-660.959	269.827	-0.106	-0.190
-659.945	800.000	-0.092	-0.345
-658.930	-200.000	-0.003	-0.106
-657.916	800.000	-0.081	0.291
-656.901	76.357	-0.101	-0.109
-655.886	197.778	-0.110	0.172
-654.872	-130.568	0.394	0.054
-653.857	-54.117	-0.087	0.040
-652.843	-200.000	-0.024	0.119
-651.828	111.127	-0.142	-0.175
-650.814	-129.667	-0.347	0.049
-649.799	348.049	0.067	-0.135
-648.784	-11.505	0.104	-0.070
-647.770	-19.768	-0.145	-0.092
-646.755	28.208	0.138	-0.119
-645.741	-10.578	0.098	0.066
-644.726	35.982	-0.224	-0.201
-643.711	-19.333	0.225	-0.142
-642.697	-149.647	0.161	-0.013
-641.682	-70.369	0.100	0.039
-640.668	-37.853	0.006	-0.003
-639.653	-90.765	-0.250	0.073
-638.638	214.920	0.087	-0.140
-637.624	800.000	-0.073	-0.219
-636.609	158.587	0.139	-0.196
-635.595	-200.000	0.023	0.113
-634.580	673.341	-0.097	0.257
-633.565	-140.655	0.150	-0.016
-632.551	253.243	0.130	-0.225
-631.536	-61.290	-0.080	0.034
-630.522	740.893	-0.045	-0.123
-629.507	800.000	0.042	-0.144
-628.492	800.000	-0.064	0.184
-627.478	-91.148	-0.242	0.071
-626.463	37.466	-0.291	-0.262
-625.449	-141.219	0.166	-0.017
-624.434	332.613	-0.185	-0.364
-623.419	-62.959	0.306	-0.129
-622.405	800.000	-0.004	-0.015
-621.390	-40.357	-0.253	-0.134
-620.376	114.184	0.046	0.057
-619.361	-191.577	0.039	0.000
-618.346	-96.039	-0.098	-0.027
-617.332	-66.664	0.288	-0.116
-616.317	-132.122	0.103	-0.014
-615.303	-9.373	-0.226	0.153
-614.288	55.525	0.073	0.072
-613.273	-200.000	0.005	0.118
-612.259	-99.711	0.393	0.100
-611.244	181.474	0.129	0.193
-610.230	-67.831	-0.104	0.041
-609.215	-88.664	-0.251	-0.076
-608.201	-2.283	0.331	-0.236
-607.186	144.140	0.127	0.172
-606.171	681.027	-0.052	0.137
-605.157	92.916	-0.055	-0.063
-604.142	-148.010	-0.072	-0.006
-603.128	-200.000	0.006	0.059
-602.113	-5.859	0.052	0.036
-601.098	-161.605	0.180	-0.009
-600.084	-34.073	-0.137	0.076
-599.069	-1.332	-0.125	-0.090
-598.055	52.769	0.129	0.125
-597.040	800.000	-0.089	0.343
-596.025	-109.052	0.277	-0.060
-595.011	17.994	-0.421	-0.341
-593.996	719.642	0.047	-0.127
-592.982	-41.908	0.139	0.073
-591.967	71.084	0.132	-0.139
-590.952	-150.090	0.132	-0.010
-589.938	800.000	0.009	0.039
-588.923	-200.000	-0.045	0.310
-587.909	800.000	-0.055	-0.203
-586.894	-146.276	0.428	-0.038
-585.879	44.917	0.166	-0.155
-584.865	-175.803	0.051	-0.001
-583.850	-180.424	-0.217	0.005
-582.836	189.376	0.211	-0.321
-581.821	148.776	-0.127	-0.174
-580.806	375.230	-0.011	0.022
-579.792	-200.000	-0.014	0.155
-578.777	-200.000	0.001	0.269
-577.763	134.168	0.125	-0.165
-576.748	-42.615	0.152	0.079
-575.733	-200.000	0.024	0.194
-574.719	800.000	-0.064	0.185
-573.704	196.503	-0.079	0.122
-572.690	75.519	-0.029	-0.031
-571.675	800.000	-0.065	0.229
-570.661	-200.000	-0.014	-0.385
-569.646	-181.196	-0.104	-0.002
-568.631	-124.371	0.230	-0.037
-567.617	800.000	0.055	-0.221
-566.602	-200.000	0.073	-0.408
-565.588	800.000	0.051	-0.169
-564.573	-191.948	-0.396	-0.004
-563.558	-185.936	0.068	0.001
-562.544	112.768	0.113	-0.139
-561.529	-80.007	-0.342	-0.117
-560.515	153.925	0.084	-0.117
-559.500	-200.000	-0.015	-0.108
-558.485	207.663	-0.096	-0.152
-557.471	-73.939	-0.101	0.037
-556.456	-200.000	-0.004	0.083
-555.442	800.000	-0.063	0.233
-554.427	153.587	-0.132	-0.183
-553.412	-82.544	0.091	0.030
-552.398	20.361	-0.230	0.189
-551.383	249.023	-0.194	0.334
-550.369	-200.000	-0.020	0.116
-549.354	-57.931	-0.266	-0.118
-548.339	9.003	-0.210	0.161
-547.325	-145.403	0.008	0.001
-546.310	56.084	-0.147	-0.145
-545.296	-90.011	0.270	-0.080
-544.281	800.000	0.039	-0.170
-543.266	328.366	-0.157	-0.305
-542.252	163.036	-0.254	0.362
-541.237	-200.000	0.044	0.445
-540.223	-200.000	-0.012	-0.185
-539.208	-32.598	-0.132	-0.074
-538.193	-157.597	0.468	-0.028
-537.179	-200.000	0.002	-0.110
-536.164	-10.640	-0.091	0.061
-535.150	-200.000	-0.093	0.492
-534.135	0.679	-0.123	-0.089
-533.121	112.176	0.287	-0.351
-532.106	-50.682	0.179	-0.085
-531.091	244.739	-0.070	0.119
-530.077	194.700	-0.075	-0.116
-529.062	-200.000	-0.002	0.253
-528.048	80.811	0.178	-0.195
-527.033	104.211	-0.184	-0.219
-526.018	-85.822	0.238	0.075
-525.004	526.413	-0.089	0.212
-523.989	186.977	0.130	-0.197
-522.975	20.669	-0.331	-0.272
-521.960	-200.000	0.051	0.253
-520.945	653.849	0.094	-0.244
-519.931	-123.468	0.270	0.044
-518.916	-128.346	0.216	-0.031
-517.902	800.000	-0.090	0.290
-516.887	185.103	0.192	0.288
-515.872	-78.871	0.161	0.056
-514.858	358.030	0.093	0.188
-513.843	800.000	0.055	-0.188
-512.829	-200.000	-0.020	-0.210
-511.814	75.948	0.102	-0.110
-510.799	800.000	-0.062	-0.190
-509.785	-172.354	-0.063	0.002
-508.770	243.542	-0.081	-0.137
-507.756	-134.545	0.216	0.027
-506.741	361.705	0.086	0.175
-505.726	-65.311	0.218	-0.089
-504.712	-124.554	-0.237	-0.037
-503.697	-66.823	-0.208	0.083
-502.683	-36.127	0.287	-0.157
-501.668	-107.466	-0.219	0.049
-500.653	104.658	0.029	-0.035
-499.639	448.495	0.133	0.296
-498.624	-200.000	-0.040	-0.315
-497.610	-93.786	0.277	0.077
-496.595	13.903	0.062	0.049
-495.581	-3.442	-0.118	0.083
-494.566	0.143	-0.425	0.307
-493.551	800.000	-0.067	0.230
-492.537	186.440	0.110	-0.166
-491.522	-65.979	-0.156	-0.063
-490.508	800.000	-0.120	0.335
-489.493	-77.109	-0.168	-0.059
-488.478	-200.000	-0.009	0.046
-487.464	286.921	0.066	-0.121
-486.449	162.102	-0.111	0.157
-485.435	-119.813	0.215	-0.038
-484.420	523.089	-0.140	0.333
-483.405	323.042	-0.197	0.381
-482.391	-200.000	-0.015	-0.266
-481.376	1.868	-0.122	0.089
-480.362	97.520	0.129	-0.150
-479.347	39.380	-0.265	0.241
-478.332	-106.484	-0.241	0.055
-477.318	-86.864	-0.291	-0.090
-476.303	-63.029	-0.167	0.070
-475.289	6.207	0.156	0.117
-474.274	84.936	-0.048	-0.053
-473.259	149.819	-0.160	-0.219
-472.245	179.385	-0.073	0.108
-471.230	-142.976	-0.228	0.022
-470.216	-196.519	0.329	-0.002
-469.201	14.669	0.251	0.199
-468.186	0.508	0.128	0.093
-467.172	-18.338	-0.203	0.129
-466.157	-29.199	-0.073	-0.042
-465.143	-10.165	-0.242	-0.163
-464.128	-200.000	-0.017	-0.349
-463.113	618.218	0.112	0.285
-462.099	-48.060	0.169	0.083
-461.084	125.701	0.177	0.226
-460.070	100.932	-0.286	0.337
-459.055	9.709	-0.066	-0.051
-458.040	-34.109	-0.255	0.142
-457.026	-200.000	-0.009	-0.163
-456.011	93.187	0.139	0.159
-454.997	59.917	0.047	-0.047
-453.982	-200.000	-0.013	-0.154
-452.968	-104.175	0.381	0.089
-451.953	401.708	-0.209	0.444
-450.938	-110.947	-0.319	-0.066
-449.924	-23.981	0.256	0.155
-448.909	44.110	0.075	0.070
-447.895	629.537	-0.035	-0.088
-446.880	96.923	0.163	-0.189
-445.865	-95.906	0.155	0.042
-444.851	-200.000	-0.002	0.058
-443.836	-200.000	-0.060	0.269
-442.822	-200.000	0.053	0.316
-441.807	-200.000	-0.020	0.135
-440.792	-77.336	-0.002	0.001
-439.778	328.084	0.168	-0.326
-438.763	-160.379	0.064	-0.003
-437.749	-60.090	0.068	0.029
-436.734	-200.000	-0.001	-0.111
-435.719	-52.793	-0.180	0.084
-434.705	-62.170	-0.200	-0.084
-433.690	800.000	0.047	0.152
-432.676	-85.923	-0.318	-0.099
-431.661	-200.000	-0.028	-0.145
-430.646	-7.757	0.388	0.265
-429.632	-6.825	0.133	-0.091
-428.617	-62.300	-0.343	0.144
-427.603	669.236	-0.130	0.341
-426.588	8.358	-0.134	-0.102
-425.573	365.210	-0.111	-0.226
-424.559	800.000	0.113	-0.365
-423.544	-50.159	0.158	-0.076
-422.530	-49.421	0.070	0.034
-421.515	-163.226	0.257	-0.012
-420.500	-200.000	-0.020	-0.204
-419.486	-200.000	0.008	0.082
-418.471	-27.370	-0.227	-0.134
-417.457	527.958	-0.140	0.334
-416.442	-88.504	0.098	0.029
-415.428	52.285	0.200	-0.192
-414.413	218.591	-0.201	-0.324
-413.398	-71.058	-0.046	0.017
-412.384	-152.718	-0.338	0.024
-411.369	378.666	0.063	-0.129
-410.355	800.000	-0.094	-0.412
-409.340	-84.516	0.428	0.136
-408.325	-200.000	0.008	-0.305
-407.311	244.513	0.170	-0.288
-406.296	46.282	0.242	-0.226
-405.282	-12.884	-0.349	0.229
-404.267	-28.882	0.121	0.070
-403.252	800.000	0.077	-0.246
-402.238	215.843	-0.090	-0.144
-401.223	68.064	-0.077	0.080
-400.209	-200.000	0.010	-0.201
-399.194	-86.696	0.296	-0.091
-398.179	157.983	0.124	-0.173
-397.165	324.073	-0.036	0.068
-396.150	-13.649	0.280	0.183
-395.136	-81.193	0.331	0.110
-394.121	-92.942	-0.274	0.077
-393.106	163.309	0.218	-0.309
-392.092	-74.291	-0.033	-0.012
-391.077	57.813	-0.367	-0.362
-390.063	-49.950	-0.089	0.043
-389.048	286.505	0.179	0.326
-388.033	137.522	0.078	0.103
-387.019	-96.653	0.027	0.007
-386.004	-133.364	0.156	0.020
-384.990	800.000	0.035	0.149
-383.975	228.468	0.102	0.168
-382.960	-200.000	0.029	-0.167
-381.946	745.127	-0.066	-0.180
-380.931	-31.728	-0.052	-0.030
-379.917	-200.000	-0.030	-0.344
-378.902	107.071	-0.374	-0.448
-377.888	-200.000	-0.031	-0.287
-376.873	111.072	0.045	0.054
-375.858	11.387	0.227	-0.176
-374.844	6.318	-0.116	-0.087
-373.829	-102.342	-0.228	0.055
-372.815	-113.010	0.260	0.052
-371.800	218.361	0.075	0.120
-370.785	-89.031	0.209	0.062
-369.771	554.471	0.087	-0.210
-368.756	800.000	0.050	0.143
-367.742	34.168	0.190	0.167
-366.727	-63.866	-0.217	-0.089
-365.712	-142.484	0.405	-0.040
-364.698	-200.000	-0.005	-0.134
-363.683	382.341	-0.197	-0.407
-362.669	4.974	-0.180	-0.133
-361.654	-16.031	0.434	-0.278
-360.639	531.675	-0.147	-0.349
-359.625	340.506	0.115	-0.227
-358.610	332.095	-0.138	0.268
-357.596	-200.000	0.138	-0.000
-356.581	-65.087	-0.198	-0.080
-355.566	-55.131	-0.223	-0.101
-354.552	122.433	0.267	0.336
-353.537	-73.124	0.172	0.064
-352.523	-90.084	0.262	-0.077
-351.508	-53.530	-0.179	0.083
-350.493	-84.823	-0.075	-0.024
-349.479	-174.139	-0.356	0.010
-348.464	-200.000	-0.004	0.115
-347.450	74.862	-0.008	-0.008
-346.435	-32.083	-0.293	0.165
-345.420	-200.000	0.010	0.077
-344.406	-48.557	-0.061	0.030
-343.391	179.995	-0.181	0.266
-342.377	496.637	0.016	-0.037
-341.362	-144.911	-0.305	0.028
-340.348	5.478	-0.183	0.136
-339.333	24.681	0.138	0.115
-338.318	107.871	0.130	0.156
-337.304	800.000	-0.013	-0.043
-336.289	-200.000	-0.039	0.266
-335.275	800.000	0.082	-0.230
-334.260	-124.163	0.105	0.017
-333.245	-83.929	-0.129	-0.041
-332.231	353.367	-0.191	0.382
-331.216	168.058	-0.098	0.141
-330.202	-125.547	-0.225	0.034
-329.187	672.433	0.057	-0.149
-328.172	-159.220	-0.220	-0.012
-327.158	-200.000	0.028	-0.182
-326.143	500.291	0.086	-0.199
-325.129	-147.838	0.114	-0.010
-324.114	207.195	-0.016	0.026
-323.099	604.196	-0.125	0.313
-322.085	-200.000	-0.002	0.189
-321.070	-62.534	-0.321	-0.134
-320.056	-103.337	-0.273	-0.065
-319.041	-98.396	0.170	0.044
-318.026	368.797	-0.171	-0.347
-317.012	50.723	-0.089	0.084
-315.997	-33.944	-0.318	0.176
-314.983	-78.343	0.336	-0.116
-313.968	-200.000	0.003	-0.099
-312.953	-77.846	-0.063	0.022
-311.939	-46.004	-0.211	0.105
-310.924	356.496	-0.042	-0.084
-309.910	-10.286	0.140	-0.093
-308.895	46.258	-0.236	0.219
-307.880	-200.000	0.032	-0.184
-306.866	-47.726	0.251	0.122
-305.851	70.746	0.054	0.056
-304.837	-19.833	-0.091	-0.057
-303.822	406.940	-0.181	-0.384
-302.807	484.190	-0.084	0.193
-301.793	-88.684	-0.375	0.112
-300.778	-133.563	0.197	0.025
-299.764	800.000	0.081	0.307
-298.749	27.490	-0.321	0.272
-297.735	800.000	-0.110	-0.306
-296.720	-22.876	-0.017	0.010
-295.705	9.085	-0.113	-0.086
-294.691	178.947	0.184	-0.270
-293.676	88.290	0.109	0.121
-292.662	-200.000	-0.003	0.064
-291.647	-57.150	-0.196	0.087
-290.632	-200.000	0.032	0.210
-289.618	-200.000	0.023	-0.258
-288.603	-58.649	0.311	-0.136
-287.589	-75.441	0.329	0.118
-286.574	-200.000	0.001	-0.043
-285.559	-130.341	-0.055	-0.007
-284.545	-56.528	-0.115	-0.051
-283.530	-14.680	-0.128	-0.082
-282.516	-200.000	0.014	-0.148
-281.501	280.254	0.141	0.253
-280.486	-200.000	0.033	-0.164
-279.472	-22.381	-0.184	-0.112
-278.457	319.153	0.125	0.237
-277.443	-200.000	0.189	0.000
-276.428	-92.732	-0.116	-0.033
-275.413	367.703	-0.192	-0.388
-274.399	-60.123	-0.089	-0.038
-273.384	22.592	-0.169	0.139
-272.370	-110.309	-0.442	-0.092
-271.355	800.000	-0.069	-0.241
-270.340	-101.838	0.157	0.038
-269.326	-81.090	-0.133	-0.044
-268.311	-200.000	-0.015	0.083
-267.297	-200.000	0.012	-0.240
-266.282	190.228	0.102	0.154
-265.267	268.127	0.046	0.080
-264.253	-27.733	-0.154	0.090
-263.238	-200.000	0.003	0.061
-262.224	-200.000	-0.020	0.215
-261.209	-73.978	0.126	-0.046
-260.195	-44.700	0.115	0.058
-259.180	248.423	0.182	0.310
-258.165	-82.599	0.150	-0.049
-257.151	24.824	0.211	0.175
-256.136	102.768	0.150	-0.176
-255.122	-84.618	-0.068	-0.021
-254.107	88.459	-0.146	-0.163
-253.092	149.870	0.177	0.241
-252.078	-99.827	-0.464	-0.116
-251.063	-97.552	-0.286	-0.075
-250.049	-30.107	0.318	-0.182
-249.034	57.318	-0.154	-0.151
-248.019	-200.000	0.001	-0.077
-247.005	-102.040	0.311	0.075
-245.990	-200.000	-0.016	0.288
-244.976	-200.000	0.012	0.086
-243.961	-28.375	0.115	-0.066
-242.946	-32.298	0.087	0.049
-241.932	-200.000	0.006	0.079
-240.917	-82.262	0.206	0.067
-239.903	423.139	-0.129	0.278
-238.888	-200.000	0.006	0.079
-237.873	-74.909	0.173	-0.062
-236.859	-200.000	0.047	0.371
-235.844	397.273	0.183	-0.383
-234.830	-200.000	-0.012	-0.102
-233.815	-200.000	0.008	-0.121
-232.800	-51.096	0.086	-0.041
-231.786	240.458	0.075	-0.126
-230.771	496.919	0.117	0.270
-229.757	153.438	0.209	-0.287
-228.742	-100.950	-0.355	-0.087
-227.727	191.150	0.085	-0.129
-226.713	204.641	-0.170	-0.265
-225.698	800.000	-0.100	0.319
-224.684	-3.195	-0.119	0.083
-223.669	-53.172	-0.182	0.084
-222.655	318.952	0.047	-0.090
-221.640	518.910	0.010	-0.023
-220.625	58.307	0.112	0.110
-219.611	-152.474	0.214	0.015
-218.596	-200.000	0.027	0.140
-217.582	33.144	0.169	0.147
-216.567	-200.000	0.031	-0.150
-215.552	-153.198	-0.251	0.018
-214.538	-55.698	0.359	-0.161
-213.523	119.102	0.053	0.066
-212.509	-89.419	0.096	-0.028
-211.494	66.766	-0.157	0.160
-210.479	-200.000	-0.003	-0.113
-209.465	534.866	0.064	0.152
-208.450	-200.000	-0.041	0.185
-207.436	103.814	0.085	-0.100
-206.421	-115.401	0.154	0.029
-205.406	-116.990	0.106	-0.019
-204.392	-96.962	0.266	-0.070
-203.377	-147.678	-0.160	0.013
-202.363	169.341	-0.051	0.073
-201.348	782.483	0.140	0.385
-200.333	800.000	0.086	-0.279
-199.319	800.000	-0.019	0.065
-198.304	-143.726	0.485	-0.046
-197.290	-14.156	0.133	0.086
-196.275	-200.000	-0.013	-0.123
-195.260	-8.786	-0.094	-0.063
-194.246	-200.000	0.010	-0.046
-193.231	188.902	0.090	0.134
-192.217	597.646	-0.032	0.078
-191.202	-10.759	-0.382	0.253
-190.187	86.813	-0.101	-0.111
-189.173	51.307	-0.281	0.266
-188.158	129.436	0.146	-0.187
-187.144	-200.000	-0.005	0.289
-186.129	-96.769	0.213	0.056
-185.114	118.751	-0.161	0.199
-184.100	-25.201	0.075	-0.044
-183.085	727.392	0.031	-0.081
-182.071	171.308	-0.097	0.139
-181.056	800.000	0.076	0.266
-180.042	226.520	0.127	0.206
-179.027	-200.000	-0.028	0.146
-178.012	-141.697	0.389	-0.039
-176.998	196.831	-0.224	0.341
-175.983	800.000	-0.055	0.177
-174.969	-200.000	-0.063	-0.281
-173.954	-21.433	0.115	0.070
-172.939	800.000	-0.093	-0.282
-171.925	-129.210	-0.143	-0.020
-170.910	-115.718	0.175	0.033
-169.896	-200.000	-0.015	0.078
-168.881	74.882	0.254	-0.267
-167.866	-200.000	0.008	0.313
-166.852	-82.614	-0.175	-0.057
-165.837	593.769	0.063	0.155
-164.823	-167.271	-0.296	0.012
-163.808	-126.281	-0.210	-0.031
-162.793	153.039	-0.018	-0.024
-161.779	415.986	-0.060	-0.128
-160.764	32.079	0.154	0.132
-159.750	142.461	0.161	-0.214
-158.735	800.000	-0.088	0.277
-157.720	-200.000	-0.017	-0.110
-156.706	-184.859	0.134	-0.002
-155.691	-97.351	0.034	-0.009
-154.677	-44.351	0.125	-0.062
-153.662	40.665	-0.084	0.075
-152.647	-200.000	0.023	0.421
-151.633	13.845	-0.080	0.062
-150.618	-200.000	0.122	0.000
-149.604	69.438	-0.177	0.182
-148.589	-200.000	0.014	-0.131
-147.574	231.145	0.138	-0.226
-146.560	246.498	0.215	-0.363
-145.545	50.532	0.229	-0.216
-144.531	0.517	0.184	-0.132
-143.516	261.610	0.165	0.285
-142.502	-74.669	-0.061	0.022
-141.487	-109.499	0.233	-0.049
-140.472	-55.284	0.377	-0.169
-139.458	800.000	-0.035	-0.133
-138.443	-5.383	-0.135	-0.093
-137.429	115.105	0.409	-0.498
-136.414	-108.122	-0.232	0.050
-135.399	-195.859	0.169	-0.001
-134.385	-200.000	0.011	0.102
-133.370	600.238	0.032	0.079
-132.356	435.241	-0.181	0.393
-131.341	-62.114	0.177	-0.074
-130.326	-102.540	0.118	0.028
-129.312	-99.537	0.163	0.041
-128.297	-200.000	0.012	-0.321
-127.283	800.000	-0.059	-0.172
-126.268	800.000	0.044	-0.171
-125.253	-200.000	-0.036	0.393
-124.239	-118.039	-0.153	0.027
-123.224	-16.135	-0.208	0.132
-122.210	34.397	-0.202	0.176
