DTS Sentinel unit serial number:	SN413079Multiplexer serial number:	ORYXHardware model number:	OX4-SRSoftware version number:	ORYX F/W v4.00 Oryx Data Collector v3.7.2.0data status	okinstallation	princeton_trtdifferential loss correction	single-endedforward channel	channel 4reverse channel	N/Adate	2019/09/16time	14:37:35forward acquisition time	60.00reverse acquisition time	0.00gamma	496.2192k internal	0.2287k external	0.2287temperature offset calibration	0.9937default loss term (dB/km)	0.3790temperature slope calibration	1.0000multiplexer offset coefficient	1.0000multiplexer slope coefficient	1.0000fibre end	0.00T internal ref (°C)	41.75T ext. ref 1 (°C)	14.30T ext. ref 2 (°C)	36.24length (m)	temperature (°C)	Stokes	anti-Stokes-747.200	-89.802	0.091	-0.027
-746.185	79.092	0.200	-0.219
-745.171	25.524	0.175	0.150
-744.156	189.148	-0.183	0.281
-743.142	-137.790	-0.398	-0.046
-742.127	624.023	-0.182	0.471
-741.112	-200.000	0.002	-0.181
-740.098	800.000	-0.109	0.346
-739.083	-200.000	-0.003	-0.130
-738.069	-58.070	-0.235	0.105
-737.054	-93.086	-0.368	0.105
-736.039	-161.120	0.108	0.006
-735.025	-127.365	0.413	0.062
-734.010	-68.827	-0.105	0.042
-732.996	800.000	0.055	-0.200
-731.981	183.508	-0.086	-0.130
-730.966	-105.708	-0.400	-0.093
-729.952	-180.186	0.384	0.008
-728.937	-200.000	0.024	-0.123
-727.923	800.000	-0.135	0.393
-726.908	800.000	-0.083	0.236
-725.894	-200.000	-0.039	0.256
-724.879	189.994	0.181	0.279
-723.864	240.414	-0.195	-0.332
-722.850	282.430	0.118	-0.216
-721.835	191.186	0.028	-0.043
-720.821	-116.485	-0.381	-0.072
-719.806	-111.036	0.205	0.043
-718.791	167.169	0.063	0.092
-717.777	-77.844	-0.245	-0.087
-716.762	2.608	-0.174	-0.129
-715.748	56.534	-0.156	-0.155
-714.733	8.018	0.098	-0.075
-713.718	178.642	0.093	-0.139
-712.704	800.000	-0.041	-0.126
-711.689	-116.518	0.146	0.028
-710.675	-77.293	0.170	-0.060
-709.660	800.000	0.099	-0.317
-708.645	-158.565	-0.268	-0.016
-707.631	-16.886	0.362	0.234
-706.616	-8.293	-0.033	-0.022
-705.602	472.574	-0.105	0.243
-704.587	800.000	-0.033	0.103
-703.572	-173.980	-0.324	0.010
-702.558	95.338	-0.143	-0.167
-701.543	-200.000	0.027	0.139
-700.529	30.551	0.106	-0.093
-699.514	-19.435	0.047	0.030
-698.499	-51.824	0.235	-0.112
-697.485	-128.470	-0.275	-0.040
-696.470	504.218	-0.041	0.098
-695.456	-45.426	-0.414	0.210
-694.441	-138.978	-0.058	-0.006
-693.426	800.000	0.077	-0.270
-692.412	-81.834	0.077	0.026
-691.397	187.914	0.043	-0.066
-690.383	112.199	-0.265	-0.327
-689.368	-40.381	-0.429	0.228
-688.354	-61.926	-0.420	-0.180
-687.339	-149.123	0.221	-0.018
-686.324	-200.000	-0.072	-0.342
-685.310	298.339	0.221	-0.415
-684.295	800.000	-0.122	0.351
-683.281	-26.719	0.199	-0.119
-682.266	-200.000	0.061	-0.306
-681.251	-200.000	0.045	0.353
-680.237	-129.235	-0.214	-0.030
-679.222	-105.919	0.204	-0.047
-678.208	58.520	0.017	0.017
-677.193	-200.000	-0.003	0.150
-676.178	377.158	-0.175	0.365
-675.164	-79.261	-0.218	0.075
-674.149	25.159	0.181	-0.153
-673.135	-143.166	0.141	0.014
-672.120	51.685	0.203	0.198
-671.105	46.839	-0.200	0.190
-670.091	800.000	-0.078	0.246
-669.076	800.000	0.085	-0.291
-668.062	660.126	0.079	0.208
-667.047	-200.000	0.021	-0.202
-666.032	-133.145	-0.019	0.002
-665.018	63.953	-0.117	0.120
-664.003	-0.138	-0.261	0.190
-662.989	642.447	-0.015	0.040
-661.974	-109.615	-0.258	-0.056
-660.959	-9.620	0.055	0.037
-659.945	12.431	0.040	0.031
-658.930	57.197	-0.255	-0.254
-657.916	-27.404	-0.337	0.200
-656.901	-42.919	0.038	0.020
-655.886	-200.000	-0.026	0.165
-654.872	-145.201	0.145	0.013
-653.857	800.000	-0.103	0.350
-652.843	800.000	0.095	-0.312
-651.828	-52.026	-0.419	0.199
-650.814	29.286	0.261	-0.227
-649.799	41.799	0.125	-0.115
-648.784	646.393	-0.148	-0.387
-647.770	-200.000	0.021	0.108
-646.755	173.759	0.061	0.090
-645.741	-200.000	-0.030	-0.169
-644.726	379.119	-0.102	-0.214
-643.711	-48.154	-0.417	0.206
-642.697	143.474	-0.057	-0.077
-641.682	-19.603	-0.289	0.182
-640.668	-160.129	0.128	-0.007
-639.653	-54.292	-0.106	0.049
-638.638	-200.000	-0.058	0.342
-637.624	-0.395	0.406	-0.294
-636.609	82.826	-0.039	0.043
-635.595	-200.000	-0.004	-0.021
-634.580	-200.000	-0.003	-0.144
-633.565	253.168	-0.139	-0.243
-632.551	800.000	0.149	-0.646
-631.536	473.819	-0.084	-0.193
-630.522	-17.056	-0.216	-0.139
-629.507	460.856	0.024	0.054
-628.492	-124.267	0.069	-0.011
-627.478	800.000	-0.028	0.122
-626.463	20.610	-0.198	-0.164
-625.449	-1.028	0.136	-0.098
-624.434	171.791	0.188	-0.275
-623.419	107.544	-0.114	-0.138
-622.405	-28.155	0.236	-0.139
-621.390	95.212	-0.206	0.239
-620.376	54.419	0.238	-0.234
-619.361	-91.297	0.127	-0.037
-618.346	800.000	0.018	-0.064
-617.332	-200.000	0.024	-0.137
-616.317	-77.862	-0.174	0.061
-615.303	85.930	0.116	-0.130
-614.288	107.291	-0.086	-0.105
-613.273	-96.236	0.105	0.028
-612.259	20.761	0.272	0.225
-611.244	-67.693	-0.076	0.031
-610.230	405.335	0.079	0.170
-609.215	-37.250	-0.087	-0.047
-608.201	167.718	-0.023	-0.033
-607.186	-167.635	-0.110	0.004
-606.171	-200.000	0.011	0.472
-605.157	-200.000	0.016	-0.410
-604.142	38.781	-0.167	0.152
-603.128	3.358	0.026	-0.019
-602.113	31.182	-0.052	0.046
-601.098	-132.279	-0.159	0.021
-600.084	361.859	-0.106	-0.216
-599.069	541.808	0.104	-0.252
-598.055	164.663	-0.093	-0.134
-597.040	800.000	0.039	-0.129
-596.025	-200.000	0.003	-0.063
-595.011	290.537	-0.064	0.118
-593.996	-55.705	0.369	-0.168
-592.982	-148.157	0.223	-0.019
-591.967	-94.074	0.142	-0.040
-590.952	-200.000	0.036	0.357
-589.938	-200.000	0.116	0.525
-588.923	800.000	-0.039	0.120
-587.909	108.525	0.261	-0.317
-586.894	-37.631	-0.402	-0.219
-585.879	84.510	0.096	0.107
-584.865	-200.000	-0.016	0.161
-583.850	-29.308	-0.247	0.144
-582.836	34.797	-0.179	-0.160
-581.821	800.000	-0.062	-0.233
-580.806	-200.000	0.032	-0.146
-579.792	800.000	-0.005	0.024
-578.777	-141.117	-0.390	0.041
-577.763	-72.176	0.159	0.060
-576.748	78.364	-0.126	0.137
-575.733	146.226	0.194	-0.265
-574.719	306.350	0.095	-0.180
-573.704	-200.000	-0.013	-0.221
-572.690	-31.620	-0.281	-0.161
-571.675	34.496	0.159	0.141
-570.661	-126.135	-0.233	0.036
-569.646	-2.213	0.170	-0.122
-568.631	22.327	-0.182	-0.151
-567.617	183.976	-0.013	0.020
-566.602	22.080	0.027	0.022
-565.588	-154.814	-0.459	0.031
-564.573	-25.573	0.086	0.052
-563.558	-12.833	-0.014	0.009
-562.544	-56.542	-0.160	-0.072
-561.529	-161.207	-0.168	-0.009
-560.515	-83.438	0.523	0.171
-559.500	-118.383	0.064	-0.012
-558.485	-200.000	-0.012	0.111
-557.471	-200.000	0.015	-0.190
-556.456	271.857	-0.058	0.104
-555.442	-200.000	0.008	-0.254
-554.427	-190.811	0.209	0.002
-553.412	-110.834	-0.261	-0.055
-552.398	35.969	-0.134	0.120
-551.383	62.582	-0.148	-0.151
-550.369	800.000	0.035	-0.114
-549.354	-63.758	-0.104	0.044
-548.339	-7.123	0.195	0.134
-547.325	-200.000	-0.011	-0.099
-546.310	-51.316	-0.167	-0.080
-545.296	-96.929	0.185	-0.049
-544.281	44.713	0.133	0.125
-543.266	-200.000	0.026	-0.141
-542.252	800.000	0.046	-0.143
-541.237	433.764	0.095	-0.209
-540.223	-136.604	0.115	0.014
-539.208	-200.000	0.020	0.211
-538.193	-33.607	0.358	-0.201
-537.179	-118.846	-0.450	-0.080
-536.164	23.705	-0.086	-0.072
-535.150	-98.072	0.331	0.087
-534.135	800.000	0.050	0.219
-533.121	65.064	-0.161	0.166
-532.106	384.095	-0.060	-0.125
-531.091	673.373	-0.057	0.151
-530.077	166.170	0.100	-0.144
-529.062	187.241	-0.073	0.111
-528.048	-55.915	0.058	-0.026
-527.033	800.000	0.087	-0.379
-526.018	450.011	0.104	-0.233
-525.004	-40.107	-0.218	0.116
-523.989	-200.000	0.002	0.240
-522.975	515.209	-0.037	-0.088
-521.960	-200.000	-0.036	0.168
-520.945	395.584	0.115	-0.243
-519.931	-3.791	-0.352	-0.249
-518.916	11.739	0.179	0.140
-517.902	-68.294	-0.280	-0.111
-516.887	-79.869	0.205	-0.070
-515.872	131.334	0.107	0.140
-514.858	-84.367	0.127	0.041
-513.843	-200.000	-0.001	0.054
-512.829	345.124	-0.126	-0.251
-511.814	646.370	-0.112	0.291
-510.799	-89.484	0.253	-0.075
-509.785	-185.983	-0.422	-0.006
-508.770	594.043	-0.069	0.174
-507.756	-4.977	0.287	-0.201
-506.741	-119.589	0.098	-0.017
-505.726	800.000	-0.050	-0.191
-504.712	557.256	-0.041	-0.100
-503.697	-94.258	-0.151	-0.042
-502.683	136.405	0.144	-0.191
-501.668	162.573	-0.264	-0.376
-500.653	-82.239	-0.143	0.047
-499.639	-109.792	0.089	0.019
-498.624	12.972	0.149	-0.117
-497.610	-97.606	-0.312	0.082
-496.595	-141.295	-0.222	0.023
-495.581	-127.740	-0.112	0.016
-494.566	-140.659	0.163	0.017
-493.551	-200.000	-0.009	-0.115
-492.537	-76.864	-0.270	-0.096
-491.522	-13.902	0.132	0.086
-490.508	410.268	0.227	0.488
-489.493	-84.727	-0.092	0.029
-488.478	239.633	0.118	0.199
-487.464	-117.835	-0.233	0.042
-486.449	-200.000	0.028	-0.149
-485.435	-102.484	-0.343	0.083
-484.420	-14.935	0.221	-0.144
-483.405	438.281	-0.074	-0.164
-482.391	800.000	0.036	0.146
-481.376	800.000	-0.032	-0.127
-480.362	-200.000	-0.032	0.217
-479.347	244.891	-0.094	-0.161
-478.332	-46.906	0.102	0.051
-477.318	-183.866	0.059	-0.001
-476.303	-200.000	0.002	-0.177
-475.289	227.610	0.006	0.011
-474.274	-200.000	0.006	0.297
-473.259	-200.000	-0.049	0.263
-472.245	-121.497	0.031	-0.005
-471.230	-200.000	-0.023	0.290
-470.216	800.000	0.072	0.239
-469.201	-117.302	0.355	-0.065
-468.186	333.074	-0.116	0.228
-467.172	6.042	0.328	0.246
-466.157	-125.050	-0.190	-0.030
-465.143	-38.351	-0.398	0.214
-464.128	241.234	-0.017	0.029
-463.113	-200.000	0.009	-0.059
-462.099	450.080	-0.159	0.356
-461.084	199.710	-0.068	-0.106
-460.070	-161.540	0.137	-0.007
-459.055	109.744	-0.140	-0.170
-458.040	-77.168	-0.071	-0.025
-457.026	-200.000	-0.013	0.070
-456.011	64.199	0.284	0.290
-454.997	563.720	-0.164	-0.402
-453.982	-111.189	-0.266	-0.055
-452.968	-94.185	-0.191	-0.053
-451.953	-200.000	-0.001	-0.138
-450.938	-66.357	-0.181	-0.073
-449.924	-51.224	-0.227	0.108
-448.909	237.866	-0.051	-0.086
-447.895	-137.847	0.083	0.009
-446.880	417.414	0.089	0.192
-445.865	800.000	-0.191	-0.600
-444.851	526.311	-0.070	-0.166
-443.836	219.813	-0.045	0.073
-442.822	-177.413	0.322	0.008
-441.807	-196.213	-0.192	-0.001
-440.792	23.168	0.130	0.108
-439.778	-200.000	0.019	-0.365
-438.763	418.131	0.102	0.222
-437.749	-134.148	-0.171	0.021
-436.734	-25.513	-0.079	0.047
-435.719	-200.000	0.016	0.345
-434.705	99.276	0.236	0.276
-433.690	-200.000	0.004	-0.089
-432.676	-200.000	-0.016	0.072
-431.661	-36.746	0.166	0.090
-430.646	-200.000	0.021	0.230
-429.632	-19.830	-0.155	0.097
-428.617	800.000	-0.086	-0.343
-427.603	-200.000	0.022	-0.220
-426.588	800.000	-0.017	0.076
-425.573	-43.660	0.091	-0.046
-424.559	103.403	-0.179	0.212
-423.544	800.000	0.123	-0.394
-422.530	800.000	-0.026	-0.086
-421.515	267.614	-0.150	-0.266
-420.500	-133.342	0.043	0.006
-419.486	-56.205	-0.186	0.084
-418.471	58.194	-0.165	-0.164
-417.457	-200.000	-0.040	-0.000
-416.442	163.215	0.108	0.154
-415.428	-113.331	-0.300	-0.060
-414.413	529.995	-0.165	0.395
-413.398	244.502	-0.116	-0.197
-412.384	-67.707	0.425	0.169
-411.369	-200.000	-0.008	-0.163
-410.355	268.967	-0.202	0.358
-409.340	98.160	-0.098	0.114
-408.325	-178.840	0.188	0.004
-407.311	-140.198	0.380	0.040
-406.296	197.560	-0.169	-0.262
-405.282	-200.000	0.023	0.173
-404.267	-200.000	0.026	0.327
-403.252	-9.315	-0.129	-0.087
-402.238	-32.614	-0.272	-0.153
-401.223	-71.980	0.252	0.095
-400.209	800.000	-0.115	-0.388
-399.194	410.692	0.160	-0.344
-398.179	-200.000	-0.006	-0.054
-397.165	492.886	-0.143	0.332
-396.150	290.980	0.158	0.291
-395.136	-17.342	-0.053	0.034
-394.121	117.781	0.196	0.244
-393.106	-137.005	0.097	-0.011
-392.092	107.879	-0.032	0.038
-391.077	-23.278	-0.132	-0.080
-390.063	-91.561	0.387	-0.112
-389.048	98.845	-0.166	0.194
-388.033	-143.398	-0.070	-0.007
-387.019	-115.819	0.283	-0.054
-386.004	150.935	0.113	-0.155
-384.990	125.590	-0.062	-0.079
-383.975	-24.954	0.281	-0.169
-382.960	-34.628	0.138	0.077
-381.946	800.000	-0.086	0.339
-380.931	800.000	0.112	0.376
-379.917	160.690	-0.122	0.172
-378.902	737.502	0.095	-0.258
-377.888	800.000	0.029	-0.106
-376.873	-87.702	-0.316	-0.096
-375.858	-200.000	-0.062	-0.331
-374.844	218.349	-0.066	0.106
-373.829	-98.343	0.139	0.036
-372.815	800.000	0.085	-0.308
-371.800	-62.588	0.216	0.091
-370.785	800.000	0.063	-0.265
-369.771	782.001	0.028	-0.078
-368.756	212.609	-0.169	-0.269
-367.742	-41.030	-0.205	-0.107
-366.727	800.000	-0.055	0.201
-365.712	676.850	-0.089	-0.233
-364.698	273.955	-0.119	-0.213
-363.683	99.620	-0.084	-0.099
-362.669	-148.530	-0.018	0.001
-361.654	40.127	0.237	-0.216
-360.639	-200.000	0.034	0.207
-359.625	50.736	0.245	-0.235
-358.610	-200.000	-0.010	-0.059
-357.596	428.861	-0.090	0.197
-356.581	19.475	0.226	-0.184
-355.566	-81.350	0.053	-0.018
-354.552	136.538	0.147	0.193
-353.537	-77.968	-0.277	0.096
-352.523	-200.000	-0.075	-0.396
-351.508	800.000	0.020	-0.063
-350.493	-71.249	-0.181	-0.069
-349.479	-31.911	0.098	0.055
-348.464	280.649	-0.184	0.332
-347.450	-200.000	-0.000	0.049
-346.435	541.626	-0.092	-0.221
-345.420	158.226	0.051	-0.072
-344.406	-200.000	-0.021	0.130
-343.391	104.652	0.078	0.092
-342.377	747.183	0.138	-0.375
-341.362	50.409	0.161	0.154
-340.348	-87.308	0.293	0.090
-339.333	148.119	0.072	0.098
-338.318	-200.000	0.020	-0.269
-337.304	150.549	0.118	-0.162
-336.289	150.780	-0.168	0.231
-335.275	-40.826	0.062	0.032
-334.260	800.000	0.085	0.251
-333.245	800.000	-0.062	0.218
-332.231	-40.333	0.175	0.092
-331.216	102.559	0.099	-0.116
-330.202	348.828	-0.109	-0.217
-329.187	108.874	0.059	-0.071
-328.172	-200.000	-0.020	0.297
-327.158	-200.000	0.039	-0.268
-326.143	39.161	0.216	0.195
-325.129	28.599	0.240	0.205
-324.114	189.925	0.108	0.164
-323.099	-133.561	0.081	0.010
-322.085	-80.395	0.200	-0.067
-321.070	216.355	0.108	0.173
-320.056	186.924	0.112	-0.168
-319.041	430.504	0.048	0.105
-318.026	-112.259	-0.048	-0.010
-317.012	800.000	0.056	0.224
-315.997	-200.000	-0.042	0.237
-314.983	-200.000	0.022	0.175
-313.968	488.827	-0.023	-0.052
-312.953	800.000	-0.038	0.141
-311.939	557.838	-0.138	0.337
-310.924	-158.241	0.163	-0.010
-309.910	-102.347	0.189	0.046
-308.895	-200.000	0.000	0.187
-307.880	195.686	0.131	0.201
-306.866	-200.000	0.020	-0.100
-305.851	800.000	0.014	0.060
-304.837	203.325	0.008	-0.012
-303.822	-23.152	0.060	-0.037
-302.807	-66.470	0.318	-0.127
-301.793	800.000	0.046	0.148
-300.778	-93.682	-0.078	0.022
-299.764	-200.000	-0.019	0.353
-298.749	360.433	-0.118	-0.238
-297.735	-200.000	0.001	0.051
-296.720	-200.000	0.057	0.294
-295.705	800.000	-0.051	-0.203
-294.691	148.323	0.085	-0.115
-293.676	-132.576	0.218	-0.028
-292.662	-131.144	0.181	0.024
-291.647	-69.277	-0.314	0.121
-290.632	-119.919	0.288	-0.050
-289.618	-200.000	-0.036	0.190
-288.603	-23.341	-0.159	-0.097
-287.589	-37.564	0.109	0.059
-286.574	800.000	0.048	0.137
-285.559	-200.000	-0.049	0.340
-284.545	-60.324	-0.200	-0.086
-283.530	-95.232	0.101	-0.027
-282.516	-81.892	-0.326	0.107
-281.501	-7.906	0.164	-0.111
-280.486	208.320	0.190	-0.300
-279.472	-46.372	-0.123	-0.061
-278.457	-200.000	0.020	-0.320
-277.443	-110.445	-0.022	-0.005
-276.428	-74.437	0.147	0.053
-275.413	800.000	-0.005	-0.019
-274.399	-200.000	-0.030	0.225
-273.384	7.284	-0.118	-0.089
-272.370	19.402	0.237	-0.191
-271.355	697.937	-0.018	-0.047
-270.340	-44.551	-0.141	-0.071
-269.326	38.255	-0.150	0.135
-268.311	248.906	0.051	-0.087
-267.297	-9.888	0.037	0.025
-266.282	146.826	0.198	-0.267
-265.267	89.633	-0.053	0.060
-264.253	800.000	-0.101	-0.286
-263.238	800.000	-0.100	0.441
-262.224	-1.599	-0.109	-0.077
-261.209	-200.000	-0.011	0.060
-260.195	800.000	-0.035	0.124
-259.180	800.000	-0.080	0.267
-258.165	105.119	0.146	0.173
-257.151	153.960	-0.104	0.143
-256.136	161.358	-0.067	0.095
-255.122	-64.730	-0.022	0.009
-254.107	-81.975	-0.250	0.082
-253.092	20.077	0.105	-0.085
-252.078	-62.770	-0.162	0.067
-251.063	-200.000	-0.304	0.000
-250.049	88.825	-0.016	-0.017
-249.034	-74.048	-0.167	-0.061
-248.019	-200.000	0.038	-0.287
-247.005	800.000	-0.063	0.222
-245.990	-30.694	-0.034	0.020
-244.976	359.527	0.150	0.301
-243.961	-200.000	-0.006	0.180
-242.946	-200.000	0.212	0.001
-241.932	-137.933	-0.206	0.023
-240.917	192.244	-0.010	0.015
-239.903	95.911	0.218	-0.250
-238.888	80.897	0.164	-0.178
-237.873	-18.815	0.322	0.201
-236.859	800.000	-0.059	0.167
-235.844	484.850	0.029	0.065
-234.830	-149.073	0.266	-0.022
-233.815	-10.688	0.026	0.017
-232.800	46.626	0.118	0.110
-231.786	800.000	-0.074	0.263
-230.771	-95.380	0.102	-0.027
-229.757	3.938	-0.350	-0.258
-228.742	104.859	-0.376	0.446
-227.727	-200.000	-0.006	0.097
-226.713	2.623	-0.019	-0.014
-225.698	-115.523	-0.163	0.031
-224.684	12.958	-0.238	-0.185
-223.669	324.868	0.040	-0.078
-222.655	299.460	-0.075	-0.139
-221.640	321.264	0.075	0.143
-220.625	-29.356	-0.077	-0.044
-219.611	220.087	-0.078	-0.126
-218.596	-107.134	-0.256	0.057
-217.582	-46.270	0.202	-0.100
-216.567	-120.198	-0.197	-0.034
-215.552	57.933	-0.013	-0.013
-214.538	-189.150	-0.137	-0.002
-213.523	-200.000	0.036	-0.211
-212.509	114.684	0.146	0.179
-211.494	18.741	0.260	0.209
-210.479	151.025	0.083	0.113
-209.465	-200.000	0.033	0.194
-208.450	-200.000	0.016	0.414
-207.436	619.975	0.086	0.218
-206.421	28.038	-0.384	-0.325
-205.406	800.000	-0.009	0.031
-204.392	-31.264	0.161	0.091
-203.377	-200.000	-0.007	-0.433
-202.363	778.463	-0.174	0.479
-201.348	98.380	-0.059	-0.068
-200.333	-32.349	-0.201	-0.112
-199.319	-98.635	0.363	0.093
-198.304	78.979	-0.107	0.115
-197.290	-49.794	-0.131	-0.062
-196.275	-200.000	-0.029	-0.262
-195.260	329.694	-0.047	-0.090
-194.246	149.327	-0.099	-0.134
-193.231	-161.621	-0.167	-0.009
-192.217	-200.000	-0.017	0.207
-191.202	-33.610	0.261	0.145
-190.187	-23.385	-0.165	-0.099
-189.173	-200.000	-0.014	0.308
-188.158	-15.997	0.194	-0.124
-187.144	800.000	0.049	0.143
-186.129	-113.104	0.171	0.034
-185.114	-200.000	-0.013	-0.420
-184.100	-104.788	0.251	-0.058
-183.085	167.378	0.088	0.125
-182.071	222.376	-0.174	0.281
-181.056	800.000	0.071	0.215
-180.042	-53.256	0.102	-0.047
-179.027	-52.796	0.077	-0.036
-178.012	-31.717	0.075	0.042
-176.998	36.312	0.211	0.186
-175.983	-161.741	-0.200	-0.010
-174.969	14.455	-0.136	0.106
-173.954	-84.415	0.229	0.072
-172.939	-93.808	-0.366	-0.101
-171.925	-1.254	0.354	-0.251
-170.910	218.223	-0.140	0.225
-169.896	-200.000	0.014	-0.133
-168.881	148.442	0.074	-0.101
-167.866	-52.150	0.407	-0.189
-166.852	53.433	-0.052	-0.050
-165.837	-200.000	0.001	-0.414
-164.823	-200.000	0.008	-0.083
-163.808	-200.000	-0.000	-0.220
-162.793	-17.754	-0.272	0.171
-161.779	577.786	-0.080	-0.195
-160.764	11.799	0.108	-0.083
-159.750	387.048	0.082	0.170
-158.735	90.226	0.364	0.408
-157.720	601.617	-0.128	0.318
-156.706	-178.863	0.223	0.005
-155.691	-75.491	0.208	0.074
-154.677	51.449	0.060	0.058
-153.662	-97.401	-0.074	0.019
-152.647	-122.799	-0.122	-0.020
-151.633	428.964	-0.036	0.078
-150.618	-158.546	-0.136	0.008
-149.604	80.084	-0.220	0.237
-148.589	207.440	0.031	-0.048
-147.574	554.886	0.210	-0.506
-146.560	2.022	0.049	0.035
-145.545	-113.724	-0.335	-0.066
-144.531	324.288	-0.031	0.060
-143.516	-200.000	0.021	0.201
-142.502	-79.956	0.269	0.091
-141.487	-52.320	0.378	-0.175
-140.472	221.848	-0.148	-0.238
-139.458	-68.443	-0.367	0.143
-138.443	-71.096	0.168	0.063
-137.429	-33.602	-0.314	-0.174
-136.414	-200.000	0.000	-0.017
-135.399	-200.000	-0.004	0.201
-134.385	110.322	-0.113	-0.136
-133.370	528.083	0.081	-0.192
-132.356	-62.873	-0.105	0.043
-131.341	122.901	-0.293	-0.368
-130.326	-200.000	-0.025	-0.128
-129.312	-200.000	0.059	0.323
-128.297	-200.000	0.016	0.559
-127.283	800.000	-0.050	0.150
-126.268	-150.495	0.307	-0.024
-125.253	-132.035	0.240	-0.031
-124.239	-200.000	0.007	0.192
-123.224	-85.170	-0.320	-0.100
-122.210	800.000	-0.037	0.106
