DTS Sentinel unit serial number:	SN413079Multiplexer serial number:	ORYXHardware model number:	OX4-SRSoftware version number:	ORYX F/W v4.00 Oryx Data Collector v3.7.2.0data status	okinstallation	princeton_trtdifferential loss correction	single-endedforward channel	channel 4reverse channel	N/Adate	2019/09/14time	14:29:35forward acquisition time	60.00reverse acquisition time	0.00gamma	496.2192k internal	0.2289k external	0.2289temperature offset calibration	1.0145default loss term (dB/km)	0.3790temperature slope calibration	1.0000multiplexer offset coefficient	1.0000multiplexer slope coefficient	1.0000fibre end	0.00T internal ref (°C)	39.09T ext. ref 1 (°C)	5.08T ext. ref 2 (°C)	35.78length (m)	temperature (°C)	Stokes	anti-Stokes-747.200	366.937	0.125	-0.258
-746.185	-200.000	-0.017	0.309
-745.171	-77.526	-0.216	0.077
-744.156	32.981	-0.091	0.081
-743.142	-168.409	-0.053	0.002
-742.127	800.000	0.124	0.482
-741.112	-91.156	-0.229	0.067
-740.098	-85.034	0.281	0.090
-739.083	35.470	0.173	-0.156
-738.069	245.480	0.156	0.269
-737.054	800.000	0.036	0.155
-736.039	-200.000	-0.016	-0.221
-735.025	-58.603	-0.087	0.038
-734.010	-31.408	0.197	0.114
-732.996	-200.000	-0.018	0.163
-731.981	-135.734	0.152	0.018
-730.966	130.130	-0.122	0.160
-729.952	276.998	0.119	-0.216
-728.937	140.407	0.038	-0.051
-727.923	5.730	0.227	-0.172
-726.908	-200.000	0.035	-0.219
-725.894	-150.665	-0.240	-0.019
-724.879	155.223	-0.054	-0.076
-723.864	-180.368	-0.181	0.004
-722.850	-200.000	-0.006	0.274
-721.835	800.000	-0.058	0.181
-720.821	800.000	-0.072	-0.324
-719.806	-72.376	-0.378	-0.143
-718.791	569.462	0.095	0.238
-717.777	-161.764	-0.319	0.017
-716.762	297.319	-0.135	-0.254
-715.748	-144.732	-0.069	0.007
-714.733	-124.341	-0.246	-0.039
-713.718	155.819	-0.193	-0.272
-712.704	-72.299	0.074	0.028
-711.689	-200.000	0.361	0.001
-710.675	107.738	0.180	-0.219
-709.660	43.904	0.103	-0.097
-708.645	330.599	0.034	0.067
-707.631	143.637	0.116	-0.158
-706.616	-157.738	-0.063	0.004
-705.602	-109.710	-0.144	-0.031
-704.587	-162.864	0.072	-0.004
-703.572	-39.867	-0.531	-0.284
-702.558	-95.738	-0.237	-0.065
-701.543	-200.000	-0.063	0.411
-700.529	75.552	0.099	0.107
-699.514	-48.259	-0.041	-0.020
-698.499	-166.260	-0.196	-0.008
-697.485	44.637	-0.111	0.105
-696.470	289.353	0.137	0.254
-695.456	-188.574	0.199	0.003
-694.441	-17.228	-0.150	-0.096
-693.426	-200.000	-0.081	0.412
-692.412	800.000	-0.080	0.252
-691.397	115.430	-0.003	-0.003
-690.383	800.000	0.041	0.133
-689.368	-69.376	0.098	0.038
-688.354	476.631	-0.197	-0.455
-687.339	80.076	-0.348	0.383
-686.324	144.867	0.012	-0.017
-685.310	-200.000	-0.020	0.123
-684.295	-121.136	0.153	0.026
-683.281	-14.023	-0.145	-0.096
-682.266	193.972	-0.162	-0.251
-681.251	-153.338	-0.277	-0.020
-680.237	14.959	-0.310	-0.248
-679.222	-46.075	0.275	0.139
-678.208	104.969	-0.006	0.007
-677.193	480.329	-0.099	-0.229
-676.178	-79.853	-0.302	-0.104
-675.164	167.552	-0.225	0.327
-674.149	21.731	0.142	-0.118
-673.135	800.000	-0.061	-0.187
-672.120	72.435	-0.082	0.088
-671.105	-200.000	-0.030	0.246
-670.091	-200.000	0.003	-0.136
-669.076	2.425	-0.146	0.108
-668.062	-200.000	-0.008	-0.056
-667.047	-24.598	-0.118	-0.072
-666.032	-200.000	-0.012	0.400
-665.018	-50.204	0.150	0.072
-664.003	800.000	0.041	-0.150
-662.989	34.489	-0.099	-0.088
-661.974	87.224	0.266	0.300
-660.959	800.000	0.042	-0.131
-659.945	-200.000	0.231	-0.001
-658.930	6.422	-0.135	-0.102
-657.916	145.615	0.122	-0.167
-656.901	-200.000	0.000	-0.101
-655.886	168.045	0.138	0.201
-654.872	-111.276	0.184	0.038
-653.857	800.000	-0.036	-0.122
-652.843	321.201	-0.143	-0.278
-651.828	-200.000	-0.034	0.164
-650.814	114.527	-0.218	-0.271
-649.799	-50.785	-0.053	0.025
-648.784	185.118	-0.139	0.211
-647.770	74.162	-0.180	0.193
-646.755	130.183	-0.069	0.090
-645.741	-69.740	-0.105	0.041
-644.726	-158.997	0.282	-0.016
-643.711	-200.000	-0.006	-0.222
-642.697	337.046	0.034	0.067
-641.682	800.000	-0.034	0.111
-640.668	-92.343	0.168	-0.048
-639.653	634.597	-0.011	-0.029
-638.638	800.000	0.036	-0.123
-637.624	-56.181	0.282	-0.128
-636.609	675.662	-0.076	-0.203
-635.595	285.530	-0.069	-0.127
-634.580	-138.300	-0.238	0.027
-633.565	-16.203	-0.233	0.151
-632.551	-200.000	-0.037	0.232
-631.536	144.908	-0.018	-0.025
-630.522	-2.349	0.205	0.147
-629.507	-17.919	0.209	0.134
-628.492	-200.000	0.060	-0.319
-627.478	269.124	0.088	0.157
-626.463	-54.310	-0.212	-0.098
-625.449	22.991	0.214	0.179
-624.434	67.431	-0.128	0.133
-623.419	-200.000	-0.033	0.398
-622.405	125.958	-0.081	0.104
-621.390	-58.336	-0.221	-0.098
-620.376	82.942	0.284	-0.315
-619.361	-200.000	-0.019	0.218
-618.346	76.542	-0.217	-0.234
-617.332	800.000	-0.042	-0.183
-616.317	359.549	0.031	-0.063
-615.303	-29.546	-0.225	-0.131
-614.288	58.907	-0.024	0.024
-613.273	-200.000	-0.244	0.001
-612.259	-128.936	0.360	-0.052
-611.244	-200.000	0.014	-0.077
-610.230	264.563	-0.119	-0.211
-609.215	99.204	-0.071	-0.084
-608.201	800.000	-0.023	0.090
-607.186	-15.640	-0.112	-0.073
-606.171	-200.000	0.005	-0.355
-605.157	-107.906	0.073	0.016
-604.142	800.000	-0.109	0.306
-603.128	-200.000	0.036	-0.168
-602.113	679.771	0.044	0.117
-601.098	800.000	-0.094	0.289
-600.084	213.226	-0.198	-0.318
-599.069	96.845	-0.197	-0.230
-598.055	-200.000	0.046	-0.364
-597.040	-61.339	-0.150	-0.064
-596.025	319.020	-0.167	-0.323
-595.011	-145.938	-0.416	0.038
-593.996	-200.000	0.009	-0.078
-592.982	-97.370	-0.251	-0.067
-591.967	800.000	0.086	-0.306
-590.952	-104.128	0.504	-0.119
-589.938	42.597	-0.103	0.096
-588.923	-0.752	-0.438	-0.317
-587.909	-135.697	-0.025	-0.003
-586.894	-200.000	-0.020	-0.143
-585.879	-74.286	-0.224	0.083
-584.865	174.420	-0.158	-0.232
-583.850	314.455	-0.103	0.198
-582.836	-51.142	-0.318	0.152
-581.821	-168.833	0.411	-0.016
-580.806	-200.000	-0.024	-0.146
-579.792	128.175	-0.213	0.276
-578.777	-200.000	0.006	0.047
-577.763	-200.000	-0.012	-0.069
-576.748	-200.000	-0.008	0.101
-575.733	-200.000	-0.010	-0.175
-574.719	-200.000	-0.040	0.258
-573.704	-95.690	0.154	0.042
-572.690	113.381	0.192	0.237
-571.675	80.861	0.049	-0.054
-570.661	638.385	0.127	-0.328
-569.646	-51.611	0.037	0.017
-568.631	336.887	0.172	-0.341
-567.617	-56.034	-0.164	0.075
-566.602	-146.923	0.207	-0.018
-565.588	-66.113	0.128	0.052
-564.573	-132.978	-0.140	-0.018
-563.558	800.000	0.038	0.144
-562.544	3.929	0.140	-0.104
-561.529	800.000	-0.033	-0.112
-560.515	800.000	0.015	0.044
-559.500	-200.000	0.004	-0.087
-558.485	-200.000	0.059	-0.337
-557.471	-200.000	-0.089	-0.483
-556.456	-200.000	-0.048	-0.327
-555.442	586.162	0.105	0.264
-554.427	287.245	-0.034	0.062
-553.412	-200.000	0.024	-0.165
-552.398	-89.447	0.125	-0.037
-551.383	7.681	0.025	-0.019
-550.369	324.239	0.116	-0.226
-549.354	-75.857	-0.489	0.176
-548.339	-35.992	0.315	0.173
-547.325	372.723	-0.055	0.114
-546.310	180.704	0.191	-0.286
-545.296	-117.839	0.081	0.015
-544.281	-6.921	0.110	-0.076
-543.266	-14.882	-0.184	0.120
-542.252	-95.946	-0.267	0.072
-541.237	-200.000	0.030	0.291
-540.223	-200.000	-0.000	-0.187
-539.208	-200.000	0.020	0.160
-538.193	102.361	0.197	0.234
-537.179	-200.000	-0.028	-0.135
-536.164	112.017	0.137	0.168
-535.150	-164.618	0.190	-0.009
-534.135	12.851	0.146	0.115
-533.121	-58.011	-0.147	0.065
-532.106	-28.872	-0.158	0.092
-531.091	-200.000	0.016	0.236
-530.077	54.532	0.162	0.158
-529.062	800.000	0.053	0.193
-528.048	129.862	0.151	-0.196
-527.033	39.130	-0.126	0.115
-526.018	-200.000	0.026	-0.253
-525.004	320.500	-0.079	-0.152
-523.989	52.253	0.125	-0.121
-522.975	61.244	-0.337	-0.340
-521.960	-200.000	0.030	-0.299
-520.945	-80.561	0.286	0.097
-519.931	285.222	0.095	0.174
-518.916	-138.665	-0.116	0.013
-517.902	16.826	-0.167	0.134
-516.887	24.859	0.083	-0.070
-515.872	16.111	-0.179	-0.143
-514.858	351.644	0.029	0.058
-513.843	-95.689	-0.366	-0.100
-512.829	-200.000	0.021	0.223
-511.814	-69.291	0.320	-0.125
-510.799	35.082	-0.107	0.095
-509.785	117.452	-0.042	0.053
-508.770	-156.520	0.186	-0.012
-507.756	254.913	-0.070	0.121
-506.741	34.985	-0.066	0.059
-505.726	-121.510	-0.218	-0.037
-504.712	-131.876	0.040	0.005
-503.697	82.015	-0.122	0.134
-502.683	74.729	0.145	0.155
-501.668	494.140	0.092	-0.214
-500.653	-200.000	-0.004	-0.048
-499.639	36.181	0.133	0.119
-498.624	278.105	0.065	0.117
-497.610	-200.000	-0.033	0.245
-496.595	432.179	-0.017	-0.037
-495.581	256.422	0.049	0.086
-494.566	800.000	-0.019	-0.064
-493.551	143.332	-0.047	0.064
-492.537	-75.610	-0.164	0.059
-491.522	-21.176	0.219	0.136
-490.508	800.000	-0.042	0.154
-489.493	28.525	0.308	-0.265
-488.478	-200.000	-0.012	0.092
-487.464	-24.901	-0.193	-0.116
-486.449	297.315	-0.080	-0.150
-485.435	-200.000	-0.057	-0.547
-484.420	292.180	0.189	0.350
-483.405	579.487	0.062	0.154
-482.391	-27.951	0.142	-0.084
-481.376	1.508	-0.230	-0.168
-480.362	-30.044	-0.404	0.233
-479.347	-112.767	0.236	0.048
-478.332	800.000	0.051	-0.214
-477.318	-173.473	0.190	-0.006
-476.303	265.316	-0.042	-0.075
-475.289	-53.894	0.209	0.097
-474.274	-200.000	0.018	-0.262
-473.259	105.957	0.345	0.414
-472.245	-200.000	-0.039	0.293
-471.230	800.000	-0.068	0.237
-470.216	-200.000	-0.011	-0.284
-469.201	430.510	0.085	0.187
-468.186	42.504	0.075	-0.070
-467.172	800.000	0.073	0.285
-466.157	-19.246	-0.158	-0.099
-465.143	406.671	-0.116	0.247
-464.128	800.000	0.117	0.392
-463.113	-138.795	0.175	0.019
-462.099	-106.186	-0.267	-0.061
-461.084	800.000	-0.048	-0.154
-460.070	800.000	0.035	-0.100
-459.055	-4.877	0.045	0.032
-458.040	800.000	-0.009	-0.032
-457.026	-200.000	-0.003	0.080
-456.011	-93.430	-0.095	-0.027
-454.997	55.547	-0.053	-0.052
-453.982	800.000	0.103	-0.365
-452.968	-169.920	0.234	-0.008
-451.953	-98.461	-0.074	-0.019
-450.938	-10.273	-0.349	0.235
-449.924	-200.000	0.075	0.625
-448.909	97.777	-0.038	0.044
-447.895	201.585	0.197	-0.307
-446.880	-120.816	-0.492	0.084
-445.865	16.193	0.087	0.069
-444.851	45.198	-0.087	0.081
-443.836	800.000	0.044	0.166
-442.822	-9.248	0.104	-0.071
-441.807	-200.000	0.021	0.117
-440.792	-200.000	-0.054	-0.275
-439.778	-106.980	-0.128	-0.029
-438.763	-35.203	0.212	0.117
-437.749	-55.678	0.315	-0.143
-436.734	609.012	-0.085	0.215
-435.719	-200.000	0.039	0.229
-434.705	-200.000	-0.043	-0.223
-433.690	58.423	-0.080	-0.079
-432.676	-88.299	-0.157	-0.047
-431.661	152.813	-0.105	0.145
-430.646	-157.216	-0.305	-0.019
-429.632	-118.484	-0.232	0.042
-428.617	-111.097	0.096	0.020
-427.603	419.279	-0.036	0.077
-426.588	-58.495	0.219	0.096
-425.573	44.943	0.069	0.064
-424.559	-200.000	-0.004	-0.264
-423.544	282.488	-0.081	-0.148
-422.530	-75.080	-0.086	0.031
-421.515	800.000	0.055	0.183
-420.500	-116.687	-0.515	-0.096
-419.486	375.652	0.176	0.362
-418.471	-28.145	-0.277	0.162
-417.457	3.597	0.093	0.069
-416.442	-142.133	-0.142	-0.014
-415.428	38.335	0.017	0.015
-414.413	-75.266	-0.192	0.070
-413.398	-143.774	-0.189	-0.018
-412.384	105.681	-0.046	0.055
-411.369	-131.310	0.356	-0.048
-410.355	168.188	-0.137	-0.198
-409.340	-113.964	0.463	-0.091
-408.325	12.978	-0.178	-0.139
-407.311	-200.000	-0.047	-0.229
-406.296	-200.000	0.026	-0.146
-405.282	148.816	-0.118	-0.161
-404.267	173.499	0.157	-0.228
-403.252	319.400	0.079	-0.152
-402.238	-81.568	-0.127	-0.042
-401.223	124.979	0.252	-0.321
-400.209	371.940	-0.147	-0.303
-399.194	22.296	0.160	0.132
-398.179	800.000	0.078	-0.229
-397.165	800.000	0.137	0.477
-396.150	61.610	0.383	0.386
-395.136	-85.908	-0.273	0.085
-394.121	10.559	-0.154	-0.119
-393.106	800.000	0.048	-0.212
-392.092	-169.301	-0.427	-0.016
-391.077	-77.335	0.156	0.055
-390.063	237.887	0.129	0.217
-389.048	21.222	0.388	-0.318
-388.033	800.000	-0.074	0.229
-387.019	-200.000	-0.011	-0.212
-386.004	-100.078	-0.268	0.067
-384.990	-141.426	0.135	-0.014
-383.975	349.594	0.015	-0.031
-382.960	312.053	-0.073	0.139
-381.946	51.448	0.279	-0.267
-380.931	-200.000	0.013	-0.373
-379.917	-33.677	-0.202	-0.113
-378.902	-68.443	0.074	0.029
-377.888	800.000	-0.052	0.169
-376.873	-200.000	0.056	0.361
-375.858	-97.636	0.355	-0.093
-374.844	68.702	0.266	0.276
-373.829	257.835	-0.075	0.131
-372.815	-200.000	-0.037	-0.334
-371.800	800.000	0.048	-0.136
-370.785	507.937	-0.079	-0.185
-369.771	-76.998	0.229	-0.081
-368.756	53.766	-0.156	0.151
-367.742	-200.000	-0.027	-0.210
-366.727	-69.758	-0.186	-0.072
-365.712	21.870	0.179	0.147
-364.698	-8.152	-0.036	0.025
-363.683	-200.000	0.012	-0.227
-362.669	18.711	-0.117	-0.094
-361.654	800.000	0.002	-0.007
-360.639	-200.000	-0.039	0.228
-359.625	-86.633	-0.203	-0.063
-358.610	-152.957	0.363	0.026
-357.596	243.473	-0.122	0.206
-356.581	-200.000	-0.064	-0.311
-355.566	800.000	0.033	0.133
-354.552	635.884	-0.048	-0.122
-353.537	-52.688	-0.181	-0.084
-352.523	-136.775	-0.088	0.010
-351.508	-80.454	-0.139	-0.047
-350.493	159.727	0.097	0.136
-349.479	249.896	-0.111	0.190
-348.464	-34.928	-0.362	0.199
-347.450	-125.721	0.201	-0.031
-346.435	-200.000	0.012	0.150
-345.420	-200.000	-0.028	0.310
-344.406	37.700	0.128	-0.114
-343.391	95.033	0.161	-0.185
-342.377	198.981	0.101	-0.156
-341.362	-150.322	-0.160	0.012
-340.348	-33.954	-0.205	0.114
-339.333	-200.000	-0.020	-0.143
-338.318	104.085	0.084	0.100
-337.304	-136.982	-0.199	0.023
-336.289	69.809	-0.098	0.102
-335.275	-98.564	0.069	-0.018
-334.260	519.956	-0.029	-0.068
-333.245	749.998	0.041	0.111
-332.231	-85.739	-0.098	0.031
-331.216	-200.000	-0.012	-0.335
-330.202	-155.759	0.270	0.017
-329.187	-107.348	-0.017	-0.004
-328.172	35.242	-0.159	0.141
-327.158	615.448	-0.052	0.131
-326.143	-14.941	0.312	0.201
-325.129	23.160	0.087	0.072
-324.114	-43.175	0.179	-0.091
-323.099	-73.689	0.198	-0.073
-322.085	-151.334	0.047	0.004
-321.070	28.737	-0.077	-0.066
-320.056	-55.816	-0.334	0.150
-319.041	38.704	-0.256	0.230
-318.026	29.507	0.138	-0.118
-317.012	-106.647	-0.254	-0.057
-315.997	800.000	0.151	0.545
-314.983	-127.394	-0.224	0.033
-313.968	-58.103	-0.093	0.041
-312.953	-99.335	0.206	-0.052
-311.939	-57.414	-0.148	-0.066
-310.924	121.609	-0.164	0.206
-309.910	-78.029	-0.372	-0.129
-308.895	-200.000	-0.021	-0.210
-307.880	-115.947	0.437	-0.082
-306.866	-200.000	-0.052	-0.266
-305.851	-175.361	-0.145	-0.004
-304.837	0.304	-0.357	-0.257
-303.822	83.643	-0.106	0.117
-302.807	-24.923	-0.136	0.081
-301.793	-200.000	0.043	-0.240
-300.778	16.305	0.412	0.328
-299.764	33.436	-0.220	-0.192
-298.749	-138.551	-0.274	-0.030
-297.735	-80.885	0.106	-0.035
-296.720	39.085	-0.119	-0.107
-295.705	79.932	0.070	0.075
-294.691	146.216	0.199	0.269
-293.676	800.000	-0.075	0.307
-292.662	463.756	0.113	-0.253
-291.647	54.281	0.084	-0.082
-290.632	-31.232	-0.160	0.091
-289.618	597.118	0.130	0.324
-288.603	229.897	-0.131	-0.216
-287.589	140.939	-0.085	0.113
-286.574	-34.932	0.253	-0.139
-285.559	67.162	-0.104	0.107
-284.545	-200.000	-0.013	0.285
-283.530	800.000	0.006	0.024
-282.516	-37.195	0.226	-0.122
-281.501	-73.505	-0.228	-0.084
-280.486	-73.304	0.113	0.042
-279.472	-145.296	-0.132	0.012
-278.457	-150.706	0.272	-0.021
-277.443	196.158	0.063	-0.096
-276.428	155.391	-0.045	-0.063
-275.413	37.205	0.209	-0.187
-274.399	-72.602	0.086	-0.032
-273.384	272.770	0.079	-0.140
-272.370	-200.000	0.018	0.323
-271.355	171.949	0.087	0.125
-270.340	-200.000	-0.020	-0.100
-269.326	432.505	-0.098	-0.213
-268.311	-134.357	0.456	0.056
-267.297	130.614	-0.238	0.307
-266.282	194.472	0.106	0.162
-265.267	800.000	0.088	-0.263
-264.253	339.533	0.010	0.019
-263.238	133.360	0.084	0.110
-262.224	164.050	0.068	-0.096
-261.209	800.000	-0.089	-0.279
-260.195	-200.000	-0.072	0.387
-259.180	400.272	-0.097	0.204
-258.165	326.465	-0.059	-0.113
-257.151	294.172	-0.054	0.099
-256.136	388.801	-0.070	-0.146
-255.122	-200.000	0.010	-0.079
-254.107	-86.617	0.122	-0.037
-253.092	-59.484	0.069	-0.030
-252.078	136.211	-0.098	-0.128
-251.063	535.807	0.148	-0.353
-250.049	-78.824	-0.188	-0.064
-249.034	60.390	0.040	0.040
-248.019	-86.587	-0.056	-0.017
-247.005	583.551	-0.090	-0.222
-245.990	-29.794	0.117	-0.067
-244.976	-117.826	0.215	0.039
-243.961	-37.704	-0.230	0.123
-242.946	-71.608	-0.052	-0.020
-241.932	800.000	-0.086	0.264
-240.917	-141.549	0.212	-0.022
-239.903	-30.993	0.131	0.074
-238.888	83.412	0.075	0.082
-237.873	-200.000	0.007	0.106
-236.859	235.707	0.162	-0.269
-235.844	42.736	-0.138	-0.126
-234.830	800.000	-0.011	-0.039
-233.815	-134.149	-0.177	-0.022
-232.800	-155.732	-0.079	-0.005
-231.786	-113.299	0.182	0.036
-230.771	-119.532	-0.229	-0.040
-229.757	800.000	0.044	-0.134
-228.742	534.528	0.100	-0.239
-227.727	-37.296	-0.077	0.041
-226.713	-54.715	-0.394	-0.179
-225.698	426.531	0.095	-0.206
-224.684	125.049	0.129	-0.163
-223.669	26.341	0.135	-0.113
-222.655	194.716	0.212	-0.322
-221.640	-13.035	0.217	0.142
-220.625	78.925	-0.206	0.221
-219.611	201.370	-0.140	0.216
-218.596	-200.000	-0.009	0.219
-217.582	-20.278	0.199	0.123
-216.567	-120.306	0.136	0.023
-215.552	347.488	0.024	0.047
-214.538	-84.529	-0.286	0.091
-213.523	267.403	-0.079	0.139
-212.509	191.566	-0.113	-0.171
-211.494	-94.226	0.169	-0.046
-210.479	633.124	0.065	0.165
-209.465	800.000	0.066	0.251
-208.450	139.398	-0.151	-0.200
-207.436	777.239	0.127	-0.348
-206.421	-200.000	-0.006	-0.182
-205.406	100.033	0.183	0.212
-204.392	-18.679	-0.176	0.110
-203.377	-68.938	-0.108	-0.042
-202.363	733.993	0.066	0.177
-201.348	5.941	0.224	0.167
-200.333	-21.296	0.156	0.096
-199.319	-175.673	-0.066	-0.002
-198.304	174.190	-0.149	0.216
-197.290	-200.000	0.015	-0.235
-196.275	69.609	-0.037	-0.039
-195.260	-200.000	0.009	0.304
-194.246	36.588	0.084	0.074
-193.231	-126.031	-0.400	-0.060
-192.217	-101.732	0.168	0.041
-191.202	-111.082	0.231	-0.048
-190.187	-200.000	-0.040	-0.557
-189.173	-142.522	0.275	0.027
-188.158	-200.000	-0.027	0.359
-187.144	717.855	-0.023	-0.060
-186.129	184.354	-0.109	-0.162
-185.114	-107.349	0.152	-0.034
-184.100	800.000	0.094	-0.316
-183.085	27.043	-0.177	0.149
-182.071	133.236	0.174	0.225
-181.056	-162.479	0.314	0.016
-180.042	-120.474	-0.147	0.025
-179.027	-87.581	0.263	0.080
-178.012	-200.000	0.033	-0.175
-176.998	-200.000	0.033	0.450
-175.983	-93.150	0.037	-0.010
-174.969	-58.288	0.399	0.174
-173.954	-200.000	0.011	0.239
-172.939	800.000	-0.114	0.339
-171.925	-116.128	0.098	0.018
-170.910	156.645	0.030	-0.042
-169.896	-200.000	-0.026	0.218
-168.881	-200.000	0.000	0.242
-167.866	-200.000	0.006	-0.044
-166.852	34.263	-0.328	-0.287
-165.837	-148.837	-0.202	-0.016
-164.823	-101.763	0.152	-0.037
-163.808	-45.063	-0.310	0.154
-162.793	-165.465	-0.163	0.007
-161.779	84.486	0.122	-0.133
-160.764	800.000	0.091	-0.314
-159.750	800.000	0.074	0.278
-158.735	-86.372	0.115	-0.036
-157.720	-57.161	0.297	0.131
-156.706	-127.845	0.346	0.050
-155.691	800.000	-0.044	0.165
-154.677	633.459	0.078	0.198
-153.662	509.585	-0.038	-0.087
-152.647	-148.222	0.149	0.012
-151.633	800.000	-0.020	-0.087
-150.618	83.350	0.142	0.155
-149.604	-151.227	0.180	-0.014
-148.589	-200.000	-0.039	0.221
-147.574	240.942	-0.115	-0.193
-146.560	35.152	0.202	-0.178
-145.545	-200.000	0.049	0.248
-144.531	800.000	-0.166	0.518
-143.516	-70.652	-0.113	-0.043
-142.502	730.493	-0.092	0.246
-141.487	-110.907	0.263	0.054
-140.472	-39.920	-0.286	-0.149
-139.458	60.243	0.065	0.064
-138.443	28.384	0.032	-0.027
-137.429	110.402	0.270	0.324
-136.414	556.190	-0.109	0.262
-135.399	529.244	0.080	-0.189
-134.385	137.103	0.183	0.239
-133.370	-0.301	0.160	-0.114
-132.356	-122.888	0.263	0.042
-131.341	676.875	0.121	-0.313
-130.326	-200.000	0.248	0.001
-129.312	435.728	-0.169	-0.369
-128.297	109.122	-0.295	-0.353
-127.283	-44.653	0.301	0.150
-126.268	206.321	-0.117	-0.182
-125.253	-61.336	-0.152	0.064
-124.239	-130.481	-0.040	-0.005
-123.224	310.290	0.110	0.206
-122.210	-18.222	0.089	-0.055
