DTS Sentinel unit serial number:	SN413079Multiplexer serial number:	ORYXHardware model number:	OX4-SRSoftware version number:	ORYX F/W v4.00 Oryx Data Collector v3.7.2.0data status	okinstallation	princeton_trtdifferential loss correction	single-endedforward channel	channel 4reverse channel	N/Adate	2019/09/17time	21:09:35forward acquisition time	60.00reverse acquisition time	0.00gamma	496.2192k internal	0.2325k external	0.2325temperature offset calibration	0.9989default loss term (dB/km)	0.3790temperature slope calibration	1.0000multiplexer offset coefficient	1.0000multiplexer slope coefficient	1.0000fibre end	0.00T internal ref (°C)	28.14T ext. ref 1 (°C)	0.20T ext. ref 2 (°C)	19.77length (m)	temperature (°C)	Stokes	anti-Stokes-747.200	-68.690	-0.228	-0.089
-746.185	208.970	-0.188	0.297
-745.171	95.619	0.170	0.196
-744.156	-54.827	-0.199	0.091
-743.142	-200.000	-0.055	0.250
-742.127	159.581	-0.173	0.243
-741.112	-6.555	0.289	0.198
-740.098	623.602	0.068	0.172
-739.083	-80.563	-0.381	0.128
-738.069	55.896	-0.174	0.170
-737.054	-200.000	-0.002	-0.223
-736.039	-21.434	-0.122	-0.075
-735.025	-200.000	0.048	0.385
-734.010	-46.771	-0.184	0.091
-732.996	70.986	-0.057	-0.060
-731.981	-90.373	0.181	-0.053
-730.966	-200.000	0.007	-0.182
-729.952	-24.616	-0.229	-0.137
-728.937	167.762	-0.098	0.141
-727.923	800.000	-0.157	-0.502
-726.908	-113.290	0.029	-0.006
-725.894	-200.000	-0.003	-0.205
-724.879	-200.000	0.035	0.310
-723.864	290.542	-0.194	-0.355
-722.850	-25.451	-0.349	-0.208
-721.835	723.391	-0.067	-0.180
-720.821	-85.623	-0.320	-0.100
-719.806	-145.949	0.052	-0.005
-718.791	-69.349	-0.118	0.046
-717.777	37.139	-0.289	-0.258
-716.762	-200.000	0.006	-0.313
-715.748	-39.660	0.166	-0.088
-714.733	-200.000	0.017	-0.408
-713.718	-72.640	0.222	0.083
-712.704	-200.000	-0.031	0.175
-711.689	-77.606	0.116	-0.040
-710.675	-200.000	0.053	0.246
-709.660	800.000	-0.088	0.299
-708.645	25.947	-0.063	0.053
-707.631	705.251	0.169	-0.450
-706.616	-200.000	-0.008	0.117
-705.602	-145.077	-0.299	0.027
-704.587	-200.000	0.001	-0.172
-703.572	-61.357	0.508	-0.215
-702.558	-113.857	-0.286	-0.056
-701.543	-85.117	-0.057	-0.018
-700.529	-200.000	-0.003	-0.286
-699.514	607.133	-0.067	0.168
-698.499	-69.995	-0.116	0.045
-697.485	58.644	-0.114	0.112
-696.470	80.173	0.155	0.168
-695.456	41.030	0.146	-0.132
-694.441	39.369	0.021	-0.019
-693.426	800.000	-0.051	0.156
-692.412	66.323	-0.132	0.135
-691.397	124.587	-0.090	-0.114
-690.383	-200.000	-0.014	-0.393
-689.368	473.439	-0.068	-0.154
-688.354	336.363	0.062	0.122
-687.339	768.750	-0.139	-0.381
-686.324	-143.025	-0.154	0.015
-685.310	76.997	0.178	-0.190
-684.295	-200.000	0.015	0.172
-683.281	134.697	-0.164	-0.214
-682.266	59.164	-0.222	-0.220
-681.251	159.218	0.076	-0.106
-680.237	-158.978	0.057	0.003
-679.222	-76.946	0.344	0.121
-678.208	-81.989	-0.187	-0.062
-677.193	508.420	0.204	0.476
-676.178	-200.000	-0.037	0.342
-675.164	-200.000	0.001	-0.168
-674.149	-200.000	-0.017	-0.277
-673.135	394.211	0.051	-0.107
-672.120	-136.293	0.242	0.028
-671.105	306.208	-0.028	0.052
-670.091	-4.972	-0.468	-0.324
-669.076	-92.630	-0.230	0.065
-668.062	-91.564	-0.018	-0.005
-667.047	-97.795	-0.481	0.125
-666.032	-61.091	-0.311	-0.132
-665.018	-45.203	-0.323	0.162
-664.003	-126.782	-0.098	-0.015
-662.989	-200.000	0.069	0.304
-661.974	474.458	0.089	0.202
-660.959	-200.000	0.026	-0.186
-659.945	-155.218	-0.393	-0.026
-658.930	-200.000	0.007	-0.412
-657.916	382.592	-0.208	-0.430
-656.901	-20.359	0.157	-0.097
-655.886	120.153	0.028	0.035
-654.872	-165.987	0.184	-0.008
-653.857	-56.201	-0.390	-0.174
-652.843	-182.490	-0.115	-0.002
-651.828	-112.290	-0.130	0.026
-650.814	704.621	-0.079	-0.208
-649.799	132.313	-0.036	0.047
-648.784	-200.000	-0.035	-0.443
-647.770	800.000	-0.077	-0.297
-646.755	16.763	-0.393	0.313
-645.741	800.000	-0.094	0.393
-644.726	-74.870	0.463	0.167
-643.711	-3.521	-0.050	-0.035
-642.697	-32.983	0.174	0.097
-641.682	375.486	-0.165	-0.339
-640.668	356.636	-0.183	-0.367
-639.653	55.387	0.046	0.045
-638.638	-111.836	-0.130	-0.026
-637.624	61.534	0.362	-0.362
-636.609	272.089	-0.059	-0.104
-635.595	19.249	-0.151	0.122
-634.580	-200.000	-0.018	-0.305
-633.565	-52.090	-0.169	0.079
-632.551	503.095	0.103	0.239
-631.536	-1.422	0.091	-0.064
-630.522	-127.240	-0.078	0.012
-629.507	63.640	-0.127	-0.128
-628.492	-7.658	-0.136	0.092
-627.478	-3.065	0.191	-0.134
-626.463	-100.735	0.239	-0.059
-625.449	-200.000	-0.008	0.108
-624.434	277.293	-0.093	0.167
-623.419	660.659	0.057	-0.148
-622.405	-149.848	-0.242	-0.019
-621.390	53.777	0.140	0.135
-620.376	-19.339	-0.128	-0.080
-619.361	269.718	-0.168	-0.296
-618.346	11.889	-0.123	-0.095
-617.332	371.784	-0.270	-0.550
-616.317	-200.000	-0.010	0.078
-615.303	-75.717	-0.267	-0.095
-614.288	-83.555	-0.085	0.027
-613.273	176.298	-0.101	-0.147
-612.259	-200.000	-0.006	0.066
-611.244	95.167	-0.194	-0.221
-610.230	-6.574	0.343	-0.235
-609.215	-89.537	0.056	0.016
-608.201	158.198	-0.272	0.379
-607.186	117.043	0.253	0.312
-606.171	178.040	-0.216	-0.316
-605.157	800.000	-0.171	0.724
-604.142	-41.374	0.156	-0.081
-603.128	570.494	0.106	0.259
-602.113	265.075	-0.137	0.239
-601.098	-200.000	0.064	0.325
-600.084	-94.827	-0.312	0.085
-599.069	-67.134	-0.248	-0.098
-598.055	72.053	0.231	-0.242
-597.040	800.000	0.169	-0.545
-596.025	-200.000	0.021	0.395
-595.011	26.670	-0.221	0.186
-593.996	-170.633	0.276	0.010
-592.982	-116.392	-0.301	-0.056
-591.967	-200.000	0.042	0.232
-590.952	-186.269	-0.336	-0.005
-589.938	-22.961	0.165	0.100
-588.923	-131.299	-0.011	0.001
-587.909	131.252	-0.084	-0.108
-586.894	-119.765	-0.308	-0.053
-585.879	-200.000	-0.032	0.412
-584.865	670.434	0.032	0.084
-583.850	-68.927	0.150	0.058
-582.836	-19.496	0.146	0.091
-581.821	-60.621	-0.163	-0.069
-580.806	73.366	-0.047	-0.049
-579.792	-76.736	-0.326	-0.114
-578.777	132.286	0.205	-0.265
-577.763	62.678	0.254	-0.254
-576.748	-39.882	-0.257	0.135
-575.733	-95.175	0.405	-0.110
-574.719	57.128	-0.310	0.303
-573.704	-56.030	0.290	0.130
-572.690	-200.000	0.024	0.159
-571.675	-105.629	0.155	-0.035
-570.661	-54.675	0.219	0.099
-569.646	-22.224	0.135	0.082
-568.631	-109.593	-0.253	0.053
-567.617	-40.526	-0.047	-0.025
-566.602	-200.000	0.013	-0.148
-565.588	-200.000	0.004	0.092
-564.573	-127.433	0.388	-0.057
-563.558	339.496	0.209	-0.409
-562.544	-200.000	-0.010	-0.090
-561.529	-152.245	-0.165	0.012
-560.515	2.080	-0.358	-0.259
-559.500	-74.657	-0.251	-0.090
-558.485	70.008	0.098	-0.102
-557.471	13.361	-0.367	0.285
-556.456	-200.000	-0.041	-0.187
-555.442	-6.019	0.220	0.151
-554.427	-200.000	0.042	0.352
-553.412	800.000	0.117	0.340
-552.398	96.152	-0.031	-0.036
-551.383	-200.000	0.025	0.234
-550.369	-109.724	0.195	-0.041
-549.354	-147.067	-0.231	-0.020
-548.339	-122.436	-0.163	-0.027
-547.325	50.581	-0.283	0.268
-546.310	308.909	-0.112	-0.210
-545.296	-200.000	0.038	-0.406
-544.281	121.256	0.254	0.316
-543.266	-61.996	0.247	-0.104
-542.252	-90.289	0.155	-0.045
-541.237	98.855	-0.156	-0.180
-540.223	-200.000	-0.008	0.150
-539.208	-179.184	0.248	-0.006
-538.193	-115.358	-0.154	0.029
-537.179	490.824	0.030	-0.069
-536.164	-23.821	-0.286	-0.171
-535.150	-200.000	0.006	0.054
-534.135	156.048	0.114	-0.157
-533.121	46.731	0.082	-0.076
-532.106	42.023	0.138	-0.126
-531.091	-63.855	0.240	-0.098
-530.077	14.777	-0.212	0.166
-529.062	-45.990	0.203	0.100
-528.048	62.750	-0.278	0.279
-527.033	-37.795	0.346	-0.184
-526.018	457.592	0.083	0.184
-525.004	-119.915	0.272	0.047
-523.989	-42.908	-0.135	0.069
-522.975	720.577	-0.073	-0.193
-521.960	39.745	-0.179	0.160
-520.945	800.000	-0.037	-0.109
-519.931	-89.937	-0.251	-0.073
-518.916	124.874	0.051	-0.065
-517.902	-109.714	-0.266	0.056
-516.887	-1.428	0.082	-0.058
-515.872	-200.000	-0.009	-0.082
-514.858	-29.501	0.063	-0.036
-513.843	-123.210	-0.338	-0.054
-512.829	586.393	0.095	-0.233
-511.814	-60.216	0.349	0.149
-510.799	-200.000	-0.017	-0.119
-509.785	-27.631	0.422	-0.245
-508.770	33.984	-0.031	0.027
-507.756	-36.104	-0.079	0.043
-506.741	-48.559	0.261	-0.126
-505.726	-50.503	0.316	-0.149
-504.712	-138.806	-0.266	0.029
-503.697	-122.860	-0.267	0.043
-502.683	118.854	0.242	0.298
-501.668	-20.268	-0.105	-0.065
-500.653	148.338	0.184	0.249
-499.639	-200.000	-0.011	0.054
-498.624	-149.985	-0.179	-0.014
-497.610	-11.494	0.219	-0.144
-496.595	-163.649	0.152	-0.007
-495.581	-177.902	0.118	0.003
-494.566	311.718	-0.084	0.158
-493.551	46.161	-0.204	-0.189
-492.537	-194.510	0.086	0.001
-491.522	800.000	0.071	0.287
-490.508	-158.953	0.117	0.007
-489.493	-200.000	0.004	0.171
-488.478	-200.000	-0.033	-0.402
-487.464	-117.850	-0.151	-0.027
-486.449	196.798	-0.075	-0.114
-485.435	38.799	0.133	-0.118
-484.420	36.251	0.217	-0.191
-483.405	-98.052	0.088	-0.023
-482.391	-44.719	0.099	0.049
-481.376	800.000	-0.030	0.131
-480.362	-27.601	-0.336	-0.195
-479.347	345.038	-0.053	-0.104
-478.332	-153.894	-0.275	-0.019
-477.318	-6.800	0.213	-0.145
-476.303	-137.580	0.373	-0.042
-475.289	-200.000	-0.026	0.287
-474.274	-102.655	-0.200	-0.048
-473.259	800.000	0.125	-0.353
-472.245	317.469	-0.177	-0.335
-471.230	-40.758	-0.149	0.077
-470.216	-74.280	0.267	0.096
-469.201	-62.873	-0.253	-0.104
-468.186	-200.000	-0.031	0.178
-467.172	-87.127	0.059	0.018
-466.157	-200.000	0.010	-0.172
-465.143	-76.020	-0.059	-0.021
-464.128	-113.463	-0.081	-0.016
-463.113	-76.616	-0.210	0.074
-462.099	-21.038	-0.123	0.075
-461.084	-37.423	-0.277	-0.147
-460.070	-119.578	-0.125	0.022
-459.055	-183.152	0.379	0.007
-458.040	379.893	-0.068	-0.138
-457.026	-200.000	-0.049	-0.220
-456.011	66.238	-0.206	-0.209
-454.997	136.496	0.215	-0.280
-453.982	-200.000	0.014	-0.336
-452.968	-30.236	0.126	0.071
-451.953	469.411	-0.079	0.176
-450.938	569.105	0.130	0.314
-449.924	-77.398	0.120	-0.042
-448.909	-2.331	0.078	-0.054
-447.895	-9.020	0.321	0.214
-446.880	126.514	0.108	0.136
-445.865	-146.315	-0.175	-0.015
-444.851	-200.000	0.014	0.311
-443.836	762.142	-0.114	-0.309
-442.822	83.673	-0.099	0.108
-441.807	-7.293	-0.173	0.117
-440.792	-114.766	-0.063	0.012
-439.778	-196.562	0.494	-0.003
-438.763	-85.301	0.369	0.115
-437.749	-200.000	-0.014	-0.102
-436.734	-200.000	0.010	-0.482
-435.719	102.585	-0.087	0.102
-434.705	-200.000	-0.009	-0.080
-433.690	-200.000	-0.005	0.049
-432.676	-200.000	0.044	0.306
-431.661	-90.112	0.083	0.024
-430.646	48.982	-0.247	0.231
-429.632	676.704	0.078	-0.202
-428.617	-45.901	0.198	0.097
-427.603	-166.309	-0.140	0.006
-426.588	-145.886	-0.300	0.027
-425.573	331.714	0.140	-0.269
-424.559	-142.601	0.131	0.013
-423.544	443.785	0.042	0.091
-422.530	-200.000	0.016	-0.133
-421.515	4.897	0.171	0.125
-420.500	121.877	-0.194	0.241
-419.486	82.100	-0.099	-0.107
-418.471	800.000	0.072	-0.238
-417.457	186.098	-0.212	-0.314
-416.442	-59.831	-0.237	-0.101
-415.428	-33.919	-0.253	-0.139
-414.413	649.511	0.143	0.365
-413.398	107.897	-0.094	-0.112
-412.384	149.746	0.078	-0.106
-411.369	733.151	0.047	-0.125
-410.355	-80.856	-0.276	-0.091
-409.340	-148.348	-0.106	-0.009
-408.325	455.127	0.127	0.280
-407.311	800.000	-0.059	0.184
-406.296	-131.293	0.264	-0.035
-405.282	340.618	0.095	-0.185
-404.267	218.679	0.136	0.216
-403.252	800.000	-0.045	0.144
-402.238	-145.344	-0.308	-0.028
-401.223	64.212	-0.115	0.115
-400.209	218.703	-0.072	0.115
-399.194	182.164	0.096	-0.141
-398.179	-178.344	0.038	-0.001
-397.165	-19.590	0.310	0.191
-396.150	-108.321	0.236	0.051
-395.136	-200.000	-0.044	0.205
-394.121	800.000	-0.070	0.260
-393.106	91.521	-0.258	0.289
-392.092	-136.016	0.048	-0.006
-391.077	184.490	-0.150	0.222
-390.063	-200.000	-0.031	0.155
-389.048	-71.599	0.149	-0.055
-388.033	107.418	0.015	0.018
-387.019	-95.129	0.133	-0.036
-386.004	-115.445	-0.194	-0.036
-384.990	-200.000	0.023	-0.285
-383.975	166.050	0.172	0.242
-382.960	-200.000	-0.002	0.057
-381.946	51.356	0.023	-0.022
-380.931	101.441	0.184	0.213
-379.917	317.203	0.081	0.152
-378.902	-200.000	0.004	-0.182
-377.888	21.166	0.089	-0.072
-376.873	347.799	-0.217	0.425
-375.858	-139.345	-0.151	0.016
-374.844	-112.790	0.120	-0.024
-373.829	800.000	-0.041	-0.125
-372.815	800.000	0.115	-0.328
-371.800	146.679	-0.083	0.110
-370.785	25.141	0.135	0.111
-369.771	100.898	-0.074	0.086
-368.756	-23.716	-0.182	0.108
-367.742	-138.699	-0.365	-0.040
-366.727	30.585	0.058	-0.050
-365.712	441.987	0.114	0.248
-364.698	126.518	-0.144	0.182
-363.683	125.968	0.276	-0.347
-362.669	-200.000	0.027	-0.259
-361.654	-106.224	-0.217	-0.048
-360.639	800.000	0.081	-0.269
-359.625	-200.000	-0.003	0.317
-358.610	-200.000	-0.013	0.187
-357.596	740.277	0.085	-0.228
-356.581	87.515	0.114	-0.126
-355.566	-67.903	0.326	0.126
-354.552	20.302	0.176	0.141
-353.537	-28.223	0.075	0.043
-352.523	-2.154	0.219	0.152
-351.508	45.696	0.177	0.163
-350.493	65.953	-0.198	-0.199
-349.479	-200.000	-0.010	0.068
-348.464	285.265	-0.021	0.037
-347.450	-200.000	0.047	-0.407
-346.435	-148.561	-0.410	-0.033
-345.420	94.926	0.037	0.042
-344.406	-109.035	-0.186	0.039
-343.391	730.455	0.121	-0.321
-342.377	48.160	-0.145	0.135
-341.362	800.000	0.082	0.265
-340.348	-148.633	0.283	0.023
-339.333	90.061	0.104	-0.116
-338.318	-200.000	0.043	0.417
-337.304	-64.526	-0.166	-0.067
-336.289	800.000	-0.056	-0.198
-335.275	-30.872	-0.087	0.049
-334.260	29.986	-0.079	0.067
-333.245	-116.203	0.177	-0.033
-332.231	800.000	0.017	0.066
-331.216	670.981	0.064	-0.164
-330.202	-200.000	0.014	-0.136
-329.187	-200.000	-0.025	-0.168
-328.172	143.084	0.057	0.075
-327.158	144.427	-0.089	0.117
-326.143	800.000	0.133	0.455
-325.129	-200.000	0.031	0.445
-324.114	-200.000	-0.030	0.197
-323.099	26.097	0.071	-0.059
-322.085	-49.769	0.153	-0.072
-321.070	-200.000	0.021	-0.159
-320.056	265.545	-0.155	-0.269
-319.041	-200.000	0.014	-0.095
-318.026	800.000	0.093	0.381
-317.012	80.518	0.179	0.192
-315.997	-200.000	-0.077	0.389
-314.983	-200.000	-0.028	-0.243
-313.968	-184.551	0.070	0.001
-312.953	-130.422	0.349	0.047
-311.939	24.709	0.033	-0.027
-310.924	97.790	0.104	0.118
-309.910	-200.000	0.008	-0.058
-308.895	174.951	-0.060	-0.086
-307.880	22.588	-0.032	0.026
-306.866	-138.418	-0.273	-0.030
-305.851	-200.000	0.103	0.454
-304.837	26.369	0.193	0.160
-303.822	-200.000	0.057	0.532
-302.807	-200.000	0.028	0.152
-301.793	-98.190	-0.194	-0.049
-300.778	570.360	-0.098	0.237
-299.764	207.792	-0.104	0.162
-298.749	134.626	-0.090	0.116
-297.735	-200.000	0.006	-0.055
-296.720	48.212	-0.126	-0.117
-295.705	-200.000	0.028	0.306
-294.691	-160.476	-0.081	0.004
-293.676	-94.811	-0.219	-0.059
-292.662	800.000	-0.042	-0.174
-291.647	45.091	0.248	-0.227
-290.632	800.000	-0.156	-0.426
-289.618	-80.099	-0.048	0.016
-288.603	800.000	0.122	0.428
-287.589	-200.000	-0.017	0.336
-286.574	-125.071	0.153	0.023
-285.559	706.384	0.046	0.120
-284.545	481.861	-0.070	-0.157
-283.530	123.965	-0.035	-0.043
-282.516	800.000	-0.049	0.165
-281.501	-155.809	0.266	0.017
-280.486	15.354	-0.082	0.063
-279.472	800.000	-0.071	0.198
-278.457	-123.898	-0.179	-0.028
-277.443	200.870	0.104	0.158
-276.428	81.387	0.193	-0.206
-275.413	-17.600	-0.197	-0.122
-274.399	515.173	0.101	0.234
-273.384	397.677	0.056	-0.116
-272.370	-28.328	0.044	0.025
-271.355	-200.000	-0.035	-0.236
-270.340	60.099	-0.182	-0.178
-269.326	402.539	-0.053	-0.111
-268.311	280.033	-0.037	-0.065
-267.297	361.174	-0.152	-0.302
-266.282	800.000	-0.032	0.130
-265.267	-11.928	-0.173	-0.112
-264.253	-76.434	-0.154	0.054
-263.238	-111.382	-0.080	0.016
-262.224	-200.000	0.049	0.250
-261.209	132.582	0.076	-0.097
-260.195	-53.727	0.157	0.071
-259.180	-126.686	-0.205	-0.030
-258.165	3.071	0.285	-0.205
-257.151	81.755	0.087	-0.093
-256.136	800.000	0.081	0.288
-255.122	155.473	0.117	-0.160
-254.107	49.213	-0.383	-0.357
-253.092	140.312	-0.156	-0.204
-252.078	-19.406	0.187	-0.115
-251.063	362.228	0.053	-0.106
-250.049	800.000	0.040	0.119
-249.034	-99.996	0.324	-0.080
-248.019	-200.000	0.083	-0.375
-247.005	479.485	-0.071	-0.158
-245.990	-64.552	-0.341	-0.137
-244.976	267.336	-0.109	-0.189
-243.961	-45.829	0.109	-0.054
-242.946	-16.827	-0.214	-0.134
-241.932	-76.146	0.104	0.036
-240.917	134.863	0.155	0.199
-239.903	659.794	-0.171	-0.435
-238.888	-200.000	-0.016	0.125
-237.873	217.456	0.176	-0.278
-236.859	800.000	0.027	-0.073
-235.844	36.908	-0.099	0.086
-234.830	493.389	-0.080	0.181
-233.815	98.351	0.050	0.057
-232.800	-200.000	0.030	-0.293
-231.786	270.765	-0.037	-0.064
-230.771	14.814	-0.064	0.050
-229.757	-135.158	-0.110	0.013
-228.742	189.895	-0.074	-0.109
-227.727	-106.603	-0.134	-0.029
-226.713	327.795	0.082	0.156
-225.698	-23.752	-0.025	0.015
-224.684	210.971	-0.218	-0.340
-223.669	800.000	-0.064	-0.194
-222.655	800.000	-0.070	-0.279
-221.640	-200.000	0.085	-0.385
-220.625	-200.000	0.030	-0.286
-219.611	-38.078	-0.098	0.051
-218.596	460.854	-0.110	-0.242
-217.582	101.541	0.079	0.091
-216.567	-91.021	0.290	0.082
-215.552	49.824	-0.319	0.297
-214.538	90.385	-0.241	0.267
-213.523	800.000	0.050	0.140
-212.509	122.888	-0.129	0.160
-211.494	-99.674	0.060	0.015
-210.479	757.255	0.067	0.178
-209.465	-200.000	0.006	0.043
-208.450	-48.722	0.311	0.148
-207.436	-61.934	0.381	-0.157
-206.421	-200.000	0.009	-0.153
-205.406	-130.964	0.215	-0.028
-204.392	63.218	0.179	-0.178
-203.377	-200.000	0.019	0.238
-202.363	28.139	0.131	0.109
-201.348	-200.000	0.000	0.428
-200.333	129.234	-0.264	-0.333
-199.319	-93.673	-0.364	0.099
-198.304	-80.483	-0.178	0.059
-197.290	-28.425	0.142	0.081
-196.275	-119.726	-0.171	-0.029
-195.260	437.775	0.241	-0.520
-194.246	27.342	0.026	-0.022
-193.231	125.777	-0.124	-0.154
-192.217	-52.088	-0.489	0.224
-191.202	-200.000	0.006	0.097
-190.187	-18.088	-0.176	-0.109
-189.173	-37.270	0.373	0.197
-188.158	259.142	-0.145	0.247
-187.144	-200.000	0.006	-0.325
-186.129	300.792	-0.044	-0.080
-185.114	417.247	0.104	-0.219
-184.100	-81.716	0.335	0.108
-183.085	-200.000	-0.005	0.208
-182.071	402.333	0.068	0.141
-181.056	-102.647	0.238	-0.056
-180.042	800.000	0.007	0.023
-179.027	173.813	0.281	-0.400
-178.012	800.000	-0.079	0.324
-176.998	-40.281	0.150	-0.077
-175.983	-109.559	0.302	0.063
-174.969	-115.576	-0.091	-0.017
-173.954	-200.000	-0.045	-0.289
-172.939	-200.000	0.010	-0.179
-171.925	619.745	0.111	0.277
-170.910	43.934	0.106	0.096
-169.896	202.896	-0.222	0.339
-168.881	800.000	-0.037	0.152
-167.866	-200.000	-0.038	0.314
-166.852	36.389	0.275	-0.239
-165.837	14.116	-0.157	0.121
-164.823	5.458	0.028	0.020
-163.808	90.674	-0.008	0.009
-162.793	-200.000	0.040	0.203
-161.779	800.000	-0.031	0.107
-160.764	217.726	0.080	0.126
-159.750	528.581	-0.142	-0.331
-158.735	3.525	0.087	0.062
-157.720	578.833	0.156	0.376
-156.706	384.179	-0.048	0.097
-155.691	224.169	-0.110	-0.175
-154.677	-200.000	-0.007	0.101
-153.662	581.880	0.137	-0.332
-152.647	-91.254	-0.067	0.019
-151.633	-15.433	0.116	-0.073
-150.618	225.822	0.123	-0.197
-149.604	304.418	-0.132	-0.241
-148.589	528.020	0.186	0.432
-147.574	221.554	0.108	-0.172
-146.560	283.128	-0.160	-0.283
-145.545	-68.229	-0.251	0.096
-144.531	203.478	0.039	-0.060
-143.516	-67.094	0.050	0.019
-142.502	-3.667	0.202	-0.138
-141.487	119.247	0.120	-0.147
-140.472	-36.597	-0.100	0.053
-139.458	-182.134	-0.211	-0.004
-138.443	800.000	0.152	0.453
-137.429	-105.309	0.262	-0.059
-136.414	465.875	-0.065	-0.143
-135.399	-59.025	0.054	0.023
-134.385	800.000	0.044	-0.159
-133.370	-185.033	0.329	-0.005
-132.356	-50.331	-0.396	-0.184
-131.341	102.342	0.285	-0.328
-130.326	43.493	-0.075	-0.068
-129.312	84.189	-0.103	-0.111
-128.297	42.010	0.229	-0.205
-127.283	-91.999	0.056	0.016
-126.268	-200.000	0.020	0.335
-125.253	-200.000	-0.018	0.604
-124.239	-76.645	0.250	-0.086
-123.224	-87.110	0.340	0.102
-122.210	30.463	0.235	-0.198
