DTS Sentinel unit serial number:	SN413079Multiplexer serial number:	ORYXHardware model number:	OX4-SRSoftware version number:	ORYX F/W v4.00 Oryx Data Collector v3.7.2.0data status	okinstallation	princeton_trtdifferential loss correction	single-endedforward channel	channel 4reverse channel	N/Adate	2019/09/18time	02:45:35forward acquisition time	60.00reverse acquisition time	0.00gamma	496.2192k internal	0.2334k external	0.2334temperature offset calibration	0.9998default loss term (dB/km)	0.3790temperature slope calibration	1.0000multiplexer offset coefficient	1.0000multiplexer slope coefficient	1.0000fibre end	0.00T internal ref (°C)	22.77T ext. ref 1 (°C)	0.16T ext. ref 2 (°C)	16.67length (m)	temperature (°C)	Stokes	anti-Stokes-747.200	-200.000	-0.038	0.171
-746.185	47.781	0.088	-0.082
-745.171	800.000	-0.132	-0.377
-744.156	325.378	-0.195	0.375
-743.142	30.362	-0.045	0.039
-742.127	-152.041	-0.203	-0.015
-741.112	45.712	0.157	0.146
-740.098	-161.236	-0.213	-0.011
-739.083	-26.321	0.448	0.264
-738.069	140.891	-0.155	0.206
-737.054	-83.954	0.361	-0.116
-736.039	11.224	-0.255	0.196
-735.025	-104.255	0.267	-0.062
-734.010	294.428	-0.102	-0.187
-732.996	-1.156	-0.180	-0.128
-731.981	-200.000	0.005	-0.105
-730.966	41.021	0.148	0.134
-729.952	-40.803	-0.091	0.047
-728.937	54.671	0.114	-0.110
-727.923	-82.400	-0.196	0.064
-726.908	-58.710	-0.025	0.011
-725.894	800.000	0.069	-0.235
-724.879	357.411	0.075	-0.151
-723.864	322.031	0.136	0.260
-722.850	-158.419	0.175	0.010
-721.835	772.976	0.106	-0.291
-720.821	-42.727	-0.306	-0.156
-719.806	205.783	-0.111	0.174
-718.791	377.396	0.042	-0.086
-717.777	-108.447	0.035	0.008
-716.762	162.669	0.120	0.169
-715.748	173.563	0.151	-0.218
-714.733	782.538	0.062	-0.172
-713.718	-177.251	-0.536	0.013
-712.704	-135.474	0.465	0.056
-711.689	35.485	-0.184	0.162
-710.675	-200.000	-0.003	0.232
-709.660	190.394	0.068	0.102
-708.645	-133.336	0.156	0.020
-707.631	-2.532	-0.120	0.085
-706.616	67.867	-0.131	0.134
-705.602	447.462	0.136	0.301
-704.587	-70.669	0.172	-0.065
-703.572	-200.000	0.005	-0.513
-702.558	-145.650	-0.218	0.020
-701.543	280.110	0.077	-0.138
-700.529	-200.000	0.005	0.078
-699.514	53.275	-0.254	0.244
-698.499	-17.834	-0.134	0.085
-697.485	31.457	0.281	0.242
-696.470	19.848	-0.324	0.262
-695.456	51.413	-0.155	-0.148
-694.441	-130.719	-0.282	-0.038
-693.426	800.000	0.046	-0.147
-692.412	800.000	0.019	-0.081
-691.397	14.305	0.063	-0.049
-690.383	-200.000	0.018	-0.285
-689.368	-6.757	0.185	-0.126
-688.354	-85.030	-0.165	-0.052
-687.339	-59.370	-0.267	-0.115
-686.324	119.517	0.162	-0.201
-685.310	-200.000	-0.021	0.108
-684.295	-200.000	0.029	-0.131
-683.281	-1.578	-0.202	-0.143
-682.266	-114.210	-0.383	-0.074
-681.251	-87.343	0.264	0.080
-680.237	142.455	-0.117	0.156
-679.222	-79.273	-0.361	-0.123
-678.208	-35.143	-0.113	-0.062
-677.193	83.268	-0.158	0.173
-676.178	121.964	-0.105	0.131
-675.164	-200.000	0.044	0.231
-674.149	-104.086	0.259	0.060
-673.135	82.047	-0.185	-0.201
-672.120	181.631	-0.195	0.288
-671.105	162.169	0.053	-0.074
-670.091	23.323	0.280	0.231
-669.076	-200.000	-0.002	-0.115
-668.062	195.110	0.047	-0.071
-667.047	360.488	0.064	0.129
-666.032	-181.219	0.204	-0.004
-665.018	-200.000	-0.002	0.500
-664.003	53.159	-0.351	0.336
-662.989	800.000	-0.088	-0.292
-661.974	292.088	0.070	0.128
-660.959	15.578	-0.226	0.178
-659.945	-16.524	-0.143	0.091
-658.930	116.060	-0.153	0.188
-657.916	177.846	-0.081	-0.118
-656.901	66.197	0.152	0.155
-655.886	437.147	-0.043	0.093
-654.872	14.010	0.068	-0.053
-653.857	-200.000	-0.314	0.000
-652.843	1.781	-0.070	0.051
-651.828	35.104	0.133	-0.117
-650.814	-200.000	0.028	-0.162
-649.799	-63.688	0.205	-0.084
-648.784	-178.025	-0.168	-0.004
-647.770	-82.203	-0.283	0.092
-646.755	30.236	-0.040	0.034
-645.741	-5.146	0.041	-0.028
-644.726	800.000	0.039	-0.127
-643.711	-200.000	0.027	-0.333
-642.697	-133.307	-0.485	0.061
-641.682	800.000	0.010	0.042
-640.668	-200.000	-0.001	0.073
-639.653	800.000	-0.104	-0.413
-638.638	16.318	0.108	-0.086
-637.624	-67.577	0.260	-0.102
-636.609	-200.000	-0.030	-0.315
-635.595	541.001	-0.144	-0.343
-634.580	-95.797	0.307	-0.082
-633.565	-78.183	-0.182	0.063
-632.551	-200.000	0.038	-0.313
-631.536	-83.330	0.376	0.121
-630.522	-124.924	0.401	0.062
-629.507	-58.942	0.188	-0.081
-628.492	32.731	0.110	-0.095
-627.478	-192.928	-0.356	0.003
-626.463	335.657	0.157	0.304
-625.449	800.000	0.098	-0.360
-624.434	-17.580	-0.220	-0.138
-623.419	-128.372	0.336	0.048
-622.405	122.182	0.081	-0.101
-621.390	800.000	0.088	0.251
-620.376	800.000	-0.077	0.310
-619.361	-57.747	-0.374	0.164
-618.346	-200.000	0.041	-0.192
-617.332	-112.589	-0.283	-0.056
-616.317	69.386	-0.211	0.217
-615.303	7.222	0.066	0.050
-614.288	-200.000	0.010	0.056
-613.273	-200.000	-0.031	0.229
-612.259	-200.000	0.022	0.201
-611.244	-8.645	0.236	-0.159
-610.230	-103.123	0.063	0.015
-609.215	-45.202	0.106	-0.053
-608.201	55.286	-0.207	0.200
-607.186	334.531	0.134	0.259
-606.171	-200.000	-0.026	-0.207
-605.157	-24.813	-0.063	-0.038
-604.142	-200.000	-0.027	0.196
-603.128	-132.766	-0.129	-0.017
-602.113	-200.000	0.028	0.213
-601.098	12.928	0.137	0.106
-600.084	191.974	-0.088	-0.133
-599.069	118.268	-0.126	-0.155
-598.055	-130.998	0.228	-0.030
-597.040	493.327	0.053	0.121
-596.025	-200.000	0.004	0.128
-595.011	9.705	-0.083	0.063
-593.996	81.111	-0.225	-0.243
-592.982	-200.000	-0.001	0.215
-591.967	29.128	-0.264	-0.224
-590.952	-32.180	0.216	0.121
-589.938	6.502	0.259	0.192
-588.923	-200.000	-0.065	0.292
-587.909	-129.824	0.198	-0.027
-586.894	-200.000	-0.041	-0.311
-585.879	389.677	0.052	0.108
-584.865	800.000	0.050	0.184
-583.850	-200.000	-0.006	0.150
-582.836	-200.000	0.019	-0.298
-581.821	-163.527	0.166	0.008
-580.806	-200.000	0.025	-0.136
-579.792	-100.443	0.203	0.050
-578.777	-58.767	0.242	-0.104
-577.763	-99.625	-0.082	0.020
-576.748	-93.971	0.125	-0.034
-575.733	57.852	0.062	0.061
-574.719	-200.000	0.016	-0.237
-573.704	294.578	0.065	-0.119
-572.690	311.840	-0.230	0.431
-571.675	-200.000	0.034	-0.433
-570.661	319.656	-0.025	-0.047
-569.646	55.576	0.056	-0.054
-568.631	-104.354	-0.266	-0.061
-567.617	53.683	0.176	0.169
-566.602	-73.506	-0.044	0.016
-565.588	578.602	0.083	0.204
-564.573	-168.047	-0.250	0.010
-563.558	-60.088	-0.232	-0.099
-562.544	96.473	0.034	0.038
-561.529	42.469	-0.121	0.110
-560.515	114.963	0.200	0.244
-559.500	-123.356	0.160	-0.026
-558.485	316.561	-0.097	0.183
-557.471	-80.181	0.282	0.094
-556.456	-79.638	-0.084	0.028
-555.442	82.774	-0.133	0.144
-554.427	57.972	-0.040	-0.039
-553.412	-66.696	0.121	-0.048
-552.398	246.149	0.118	-0.199
-551.383	-200.000	-0.028	-0.193
-550.369	-107.291	-0.337	-0.074
-549.354	-1.324	-0.279	0.197
-548.339	15.056	0.193	-0.151
-547.325	259.102	0.108	-0.186
-546.310	43.776	0.174	-0.159
-545.296	-200.000	-0.052	-0.310
-544.281	-200.000	-0.005	-0.341
-543.266	58.059	-0.060	0.058
-542.252	276.791	-0.091	0.161
-541.237	71.585	-0.052	0.054
-540.223	46.606	-0.070	-0.065
-539.208	5.390	0.305	-0.224
-538.193	-77.780	0.126	-0.043
-537.179	-5.027	0.203	0.139
-536.164	-55.995	0.169	-0.075
-535.150	-121.880	0.093	0.015
-534.135	367.015	0.137	0.275
-533.121	800.000	0.093	-0.340
-532.106	98.462	0.122	0.140
-531.091	115.520	0.201	-0.245
-530.077	-71.538	0.231	0.086
-529.062	27.453	-0.036	0.030
-528.048	46.640	0.093	0.086
-527.033	235.572	0.088	0.144
-526.018	-88.110	-0.183	0.055
-525.004	-2.975	0.144	-0.101
-523.989	800.000	0.048	-0.153
-522.975	-137.847	0.500	0.056
-521.960	295.770	-0.052	0.095
-520.945	-44.733	0.279	-0.139
-519.931	115.770	-0.083	-0.101
-518.916	14.203	-0.078	-0.060
-517.902	-83.576	0.198	-0.063
-516.887	358.233	-0.116	-0.232
-515.872	-28.751	-0.246	0.141
-514.858	800.000	-0.064	0.217
-513.843	551.195	0.067	-0.160
-512.829	113.507	0.130	-0.157
-511.814	-93.793	-0.368	0.101
-510.799	-200.000	0.053	-0.233
-509.785	-104.860	-0.249	0.057
-508.770	-200.000	0.026	0.156
-507.756	-112.986	-0.214	0.042
-506.741	800.000	-0.029	0.100
-505.726	-122.613	0.270	0.044
-504.712	182.230	-0.156	-0.229
-503.697	258.140	0.164	0.281
-502.683	-19.644	-0.474	-0.292
-501.668	136.584	0.114	0.148
-500.653	-200.000	-0.064	0.349
-499.639	-131.993	-0.303	0.039
-498.624	-58.755	-0.225	0.097
-497.610	-161.813	-0.344	-0.017
-496.595	477.960	-0.106	0.240
-495.581	76.332	-0.111	-0.117
-494.566	-142.617	-0.039	0.004
-493.551	-26.615	-0.278	0.162
-492.537	-200.000	0.017	0.089
-491.522	-70.306	-0.353	0.133
-490.508	395.168	0.126	0.261
-489.493	800.000	0.075	-0.220
-488.478	-132.940	-0.128	-0.016
-487.464	-157.424	0.293	-0.018
-486.449	-158.376	0.013	0.001
-485.435	-200.000	-0.038	0.169
-484.420	-200.000	-0.001	0.196
-483.405	-172.025	0.311	0.010
-482.391	-65.457	0.098	-0.039
-481.376	-62.495	0.249	-0.103
-480.362	238.443	0.137	-0.226
-479.347	-200.000	0.019	-0.169
-478.332	477.772	-0.113	-0.255
-477.318	-31.866	-0.166	0.093
-476.303	-200.000	0.028	-0.153
-475.289	-115.553	-0.257	-0.048
-474.274	30.532	-0.185	0.157
-473.259	-117.042	0.014	0.003
-472.245	-103.686	0.037	0.009
-471.230	-29.617	0.207	0.118
-470.216	53.215	-0.070	0.067
-469.201	-29.664	-0.376	0.213
-468.186	800.000	0.149	0.572
-467.172	28.558	-0.061	0.051
-466.157	-200.000	0.074	-0.327
-465.143	-84.704	-0.469	0.147
-464.128	265.266	0.101	0.175
-463.113	-157.051	0.140	-0.008
-462.099	800.000	0.100	0.331
-461.084	-200.000	0.004	-0.032
-460.070	-30.116	0.120	0.068
-459.055	-47.270	0.268	-0.130
-458.040	20.918	0.145	0.117
-457.026	-40.581	-0.362	-0.187
-456.011	-78.172	0.333	0.114
-454.997	519.106	0.114	0.264
-453.982	-200.000	0.030	0.136
-452.968	-63.205	-0.230	-0.094
-451.953	-167.247	-0.277	-0.011
-450.938	800.000	-0.101	0.354
-449.924	-79.149	0.217	0.073
-448.909	-62.851	-0.380	-0.156
-447.895	-200.000	0.049	0.271
-446.880	-156.209	-0.156	0.010
-445.865	-134.681	-0.261	-0.032
-444.851	-22.275	0.243	-0.146
-443.836	-30.135	-0.160	0.090
-442.822	206.205	-0.151	-0.233
-441.807	-150.302	0.155	-0.012
-440.792	-200.000	0.023	-0.215
-439.778	259.465	0.081	-0.140
-438.763	800.000	-0.062	0.171
-437.749	-22.130	-0.324	-0.195
-436.734	-200.000	0.034	-0.189
-435.719	-125.669	-0.101	0.015
-434.705	611.008	-0.106	0.264
-433.690	306.061	-0.107	-0.198
-432.676	-124.222	0.102	0.016
-431.661	739.608	-0.116	-0.309
-430.646	502.550	-0.144	-0.329
-429.632	-200.000	-0.002	0.102
-428.617	645.240	-0.097	0.245
-427.603	-83.683	-0.139	-0.044
-426.588	-108.433	0.104	-0.022
-425.573	193.877	-0.169	0.255
-424.559	-66.317	-0.073	-0.029
-423.544	-133.549	0.204	-0.025
-422.530	800.000	-0.116	0.317
-421.515	800.000	-0.021	-0.061
-420.500	14.925	-0.135	0.105
-419.486	86.329	-0.042	0.046
-418.471	-135.339	-0.200	-0.024
-417.457	131.631	0.131	0.167
-416.442	-119.098	0.320	0.056
-415.428	-11.711	0.030	-0.019
-414.413	-140.241	-0.199	-0.021
-413.398	-174.244	0.196	-0.006
-412.384	582.068	-0.055	0.134
-411.369	-75.784	0.227	-0.080
-410.355	-116.209	-0.055	0.010
-409.340	-128.713	0.112	-0.016
-408.325	-46.109	-0.151	0.074
-407.311	800.000	0.045	-0.155
-406.296	-138.659	-0.107	0.012
-405.282	111.497	-0.046	-0.055
-404.267	275.712	0.203	0.358
-403.252	472.979	-0.250	0.558
-402.238	-18.018	0.375	0.233
-401.223	141.471	-0.062	0.081
-400.209	122.811	-0.062	0.077
-399.194	-149.828	-0.195	-0.015
-398.179	277.512	-0.202	-0.357
-397.165	43.842	0.242	-0.220
-396.150	-139.246	-0.105	0.011
-395.136	-200.000	-0.033	-0.208
-394.121	238.496	0.154	-0.254
-393.106	800.000	-0.025	-0.067
-392.092	130.918	0.136	-0.173
-391.077	-200.000	-0.026	-0.411
-390.063	-120.490	0.309	-0.052
-389.048	-200.000	-0.003	-0.094
-388.033	-23.545	0.113	0.067
-387.019	-25.675	-0.080	0.047
-386.004	-200.000	0.003	-0.136
-384.990	-55.002	0.193	-0.086
-383.975	-98.133	0.427	0.109
-382.960	94.845	0.193	0.217
-381.946	1.277	0.344	-0.245
-380.931	-143.212	-0.341	0.032
-379.917	56.119	-0.081	0.078
-378.902	-200.000	0.039	0.278
-377.888	-110.712	0.148	0.030
-376.873	-200.000	-0.008	-0.055
-375.858	-104.783	-0.406	-0.093
-374.844	-56.770	0.184	0.081
-373.829	-199.112	-0.464	0.002
-372.815	333.183	0.169	0.323
-371.800	-200.000	-0.001	0.055
-370.785	-4.004	-0.158	0.109
-369.771	-200.000	0.029	0.553
-368.756	800.000	-0.042	0.141
-367.742	800.000	-0.148	-0.560
-366.727	-106.118	-0.309	0.069
-365.712	-105.739	-0.124	-0.028
-364.698	264.029	-0.204	-0.352
-363.683	-200.000	-0.009	-0.193
-362.669	-143.536	0.382	-0.036
-361.654	-67.218	-0.126	-0.049
-360.639	-177.868	0.437	-0.010
-359.625	800.000	0.071	0.252
-358.610	-200.000	-0.001	0.266
-357.596	-118.852	0.285	0.050
-356.581	-77.885	-0.314	-0.107
-355.566	-2.142	0.119	0.083
-354.552	760.771	0.083	0.224
-353.537	-99.008	-0.405	-0.102
-352.523	-79.852	0.186	0.062
-351.508	-126.318	0.210	0.031
-350.493	800.000	0.106	-0.370
-349.479	277.311	-0.104	-0.183
-348.464	28.976	-0.115	-0.096
-347.450	-131.700	-0.212	0.028
-346.435	520.215	-0.100	0.232
-345.420	-200.000	0.032	-0.218
-344.406	74.618	-0.232	-0.241
-343.391	37.079	0.311	0.272
-342.377	-63.594	0.184	0.075
-341.362	-84.464	0.077	0.024
-340.348	-127.880	0.324	-0.046
-339.333	313.192	0.078	-0.146
-338.318	-65.596	0.475	-0.189
-337.304	47.413	-0.182	-0.168
-336.289	-200.000	0.005	0.256
-335.275	175.067	-0.169	-0.242
-334.260	-200.000	-0.012	0.417
-333.245	800.000	0.073	0.205
-332.231	-200.000	0.024	-0.213
-331.216	-157.140	-0.204	0.012
-330.202	-57.478	-0.163	-0.071
-329.187	-27.515	-0.130	-0.075
-328.172	215.093	0.114	-0.178
-327.158	4.846	-0.153	0.111
-326.143	712.749	-0.031	0.082
-325.129	-70.305	0.142	-0.053
-324.114	-200.000	0.014	0.213
-323.099	304.533	-0.052	0.095
-322.085	-131.340	-0.092	0.012
-321.070	-144.511	0.289	-0.026
-320.056	-87.292	-0.346	0.104
-319.041	267.641	0.162	0.280
-318.026	-30.753	0.136	-0.076
-317.012	328.318	0.096	0.182
-315.997	-42.537	-0.162	-0.081
-314.983	800.000	0.093	0.316
-313.968	-105.571	-0.352	0.079
-312.953	229.001	-0.059	0.095
-311.939	-128.342	-0.204	-0.029
-310.924	-12.335	0.268	0.173
-309.910	536.308	-0.123	-0.287
-308.895	71.294	-0.083	0.085
-307.880	346.438	-0.115	-0.223
-306.866	470.944	0.039	0.087
-305.851	-200.000	0.035	-0.386
-304.837	-40.568	0.147	0.075
-303.822	720.753	0.098	0.257
-302.807	-38.261	0.152	0.080
-301.793	800.000	-0.113	0.350
-300.778	1.932	0.078	0.055
-299.764	800.000	0.072	0.225
-298.749	-200.000	-0.063	-0.332
-297.735	7.729	-0.170	-0.126
-296.720	-15.807	0.162	0.102
-295.705	-200.000	0.045	-0.196
-294.691	206.625	-0.099	-0.152
-293.676	800.000	-0.097	-0.306
-292.662	111.084	-0.165	-0.196
-291.647	17.147	0.140	-0.109
-290.632	800.000	-0.058	-0.185
-289.618	-114.897	-0.414	0.078
-288.603	-7.512	0.156	-0.104
-287.589	65.024	-0.234	0.233
-286.574	159.908	-0.054	-0.074
-285.559	3.036	-0.193	0.139
-284.545	-135.787	-0.139	0.016
-283.530	99.813	0.319	-0.365
-282.516	-10.056	0.283	0.186
-281.501	-49.914	-0.183	-0.086
-280.486	343.857	-0.104	0.201
-279.472	-74.049	0.397	-0.142
-278.457	-61.515	0.058	0.024
-277.443	-41.538	0.104	-0.053
-276.428	-27.469	-0.017	-0.010
-275.413	98.877	-0.184	-0.210
-274.399	-200.000	-0.040	0.295
-273.384	-60.677	-0.227	-0.095
-272.370	9.789	0.260	0.195
-271.355	250.542	0.153	0.257
-270.340	55.245	0.241	-0.230
-269.326	-25.113	-0.312	-0.183
-268.311	208.166	0.079	-0.122
-267.297	-100.896	0.073	0.018
-266.282	-146.827	0.371	0.032
-265.267	-200.000	0.029	0.198
-264.253	-126.004	0.105	-0.016
-263.238	27.931	0.247	0.205
-262.224	79.128	0.052	-0.055
-261.209	92.794	0.271	0.302
-260.195	-84.407	0.147	0.046
-259.180	31.624	-0.041	0.035
-258.165	12.490	0.093	-0.071
-257.151	-21.664	0.067	-0.040
-256.136	254.375	-0.172	-0.289
-255.122	15.629	0.169	-0.131
-254.107	800.000	-0.091	-0.319
-253.092	-155.651	-0.298	-0.019
-252.078	800.000	0.045	0.141
-251.063	-119.246	0.408	-0.070
-250.049	443.562	0.064	-0.138
-249.034	-89.768	0.272	0.079
-248.019	487.653	-0.093	0.210
-247.005	-200.000	-0.071	0.421
-245.990	485.167	0.074	0.166
-244.976	41.679	0.130	0.116
-243.961	800.000	-0.028	-0.086
-242.946	800.000	-0.003	-0.010
-241.932	263.132	0.001	-0.002
-240.917	89.857	-0.104	-0.115
-239.903	-143.292	0.101	-0.010
-238.888	76.383	-0.242	-0.253
-237.873	13.600	0.204	0.156
-236.859	-200.000	-0.035	0.408
-235.844	143.093	-0.116	0.151
-234.830	-6.075	0.027	0.018
-233.815	-44.893	-0.456	-0.224
-232.800	-107.742	-0.235	-0.050
-231.786	-200.000	-0.020	-0.113
-230.771	309.560	0.174	-0.320
-229.757	360.367	-0.147	-0.290
-228.742	-154.666	-0.052	0.003
-227.727	-93.081	0.199	0.055
-226.713	443.786	-0.125	-0.269
-225.698	370.331	0.150	-0.300
-224.684	-63.488	-0.304	0.123
-223.669	9.908	-0.122	0.091
-222.655	18.834	0.275	0.217
-221.640	-57.409	0.330	0.143
-220.625	-200.000	-0.001	0.161
-219.611	-54.289	-0.037	0.016
-218.596	-30.345	-0.128	0.071
-217.582	5.378	0.220	0.160
-216.567	220.471	0.050	0.079
-215.552	-112.841	-0.272	-0.053
-214.538	-200.000	0.004	0.188
-213.523	-129.780	0.139	-0.019
-212.509	78.890	-0.279	0.294
-211.494	-109.194	-0.137	-0.029
-210.479	461.637	-0.161	-0.353
-209.465	48.369	0.277	-0.255
-208.450	15.805	-0.249	-0.193
-207.436	94.046	-0.360	-0.402
-206.421	175.681	-0.156	-0.223
-205.406	107.149	0.183	-0.214
-204.392	800.000	-0.017	0.054
-203.377	621.057	-0.046	-0.114
-202.363	-183.507	0.104	0.002
-201.348	-72.115	0.315	0.115
-200.333	-200.000	-0.006	-0.080
-199.319	227.979	0.113	0.181
-198.304	134.956	0.263	-0.336
-197.290	97.985	0.025	-0.028
-196.275	-200.000	0.022	0.186
-195.260	-80.403	-0.417	-0.137
-194.246	-139.493	-0.125	-0.013
-193.231	-5.267	0.244	0.165
-192.217	591.522	-0.065	0.157
-191.202	-37.653	0.140	-0.073
-190.187	252.991	-0.048	0.080
-189.173	-96.103	0.213	-0.056
-188.158	800.000	-0.028	-0.113
-187.144	-200.000	-0.078	-0.341
-186.129	214.928	0.076	-0.118
-185.114	68.364	-0.158	0.159
-184.100	341.099	-0.093	0.179
-183.085	-200.000	-0.032	0.186
-182.071	472.102	0.087	-0.192
-181.056	595.507	0.091	-0.221
-180.042	800.000	0.033	0.120
-179.027	716.787	0.082	0.215
-178.012	464.571	-0.174	-0.382
-176.998	-4.250	0.091	0.062
-175.983	164.858	-0.200	-0.277
-174.969	-21.570	0.265	0.159
-173.954	-120.230	-0.491	-0.082
-172.939	-200.000	0.014	-0.081
-171.925	716.130	0.114	-0.298
-170.910	47.502	-0.170	0.155
-169.896	-93.294	0.117	0.032
-168.881	-75.706	-0.296	-0.103
-167.866	-25.445	-0.189	0.110
-166.852	-136.278	0.128	0.015
-165.837	-88.721	0.131	0.038
-164.823	109.854	0.161	-0.190
-163.808	-58.556	0.355	-0.152
-162.793	800.000	-0.042	0.120
-161.779	280.603	-0.131	0.230
-160.764	158.906	0.062	0.084
-159.750	-200.000	-0.074	0.398
-158.735	-139.320	-0.136	0.014
-157.720	-4.096	0.130	0.089
-156.706	-22.996	-0.169	0.100
-155.691	-147.201	-0.376	-0.031
-154.677	20.101	-0.096	-0.076
-153.662	-46.189	0.216	-0.104
-152.647	-25.347	-0.193	0.112
-151.633	-174.184	0.063	-0.002
-150.618	-200.000	0.013	-0.065
-149.604	-3.361	0.279	0.191
-148.589	11.735	0.241	-0.182
-147.574	213.035	-0.068	-0.105
-146.560	-10.108	0.231	-0.151
-145.545	747.454	0.064	-0.170
-144.531	800.000	-0.141	0.413
-143.516	800.000	-0.074	-0.234
-142.502	516.929	-0.061	-0.141
-141.487	-0.577	-0.111	0.077
-140.472	-78.552	0.271	-0.091
-139.458	-114.097	-0.083	-0.016
-138.443	-200.000	0.042	0.247
-137.429	229.594	-0.127	-0.204
-136.414	-55.536	0.461	-0.203
-135.399	33.014	0.168	-0.143
-134.385	-200.000	0.507	-0.000
-133.370	175.170	0.067	0.095
-132.356	-200.000	-0.011	0.052
-131.341	-65.941	0.088	0.034
-130.326	12.789	0.374	-0.284
-129.312	800.000	-0.027	-0.102
-128.297	-18.247	-0.079	0.049
-127.283	-153.539	-0.098	0.007
-126.268	7.219	0.298	-0.218
-125.253	426.273	-0.178	-0.377
-124.239	-128.591	0.209	0.029
-123.224	-191.640	0.289	-0.003
-122.210	-87.441	-0.410	-0.122
-121.195	-200.000	-0.010	0.056
-120.180	-92.360	0.056	0.015
