DTS Sentinel unit serial number:	SN413079Multiplexer serial number:	ORYXHardware model number:	OX4-SRSoftware version number:	ORYX F/W v4.00 Oryx Data Collector v3.7.2.0data status	okinstallation	princeton_trtdifferential loss correction	single-endedforward channel	channel 4reverse channel	N/Adate	2019/09/14time	15:41:35forward acquisition time	60.00reverse acquisition time	0.00gamma	496.2192k internal	0.2291k external	0.2291temperature offset calibration	1.0138default loss term (dB/km)	0.3790temperature slope calibration	1.0000multiplexer offset coefficient	1.0000multiplexer slope coefficient	1.0000fibre end	0.00T internal ref (°C)	38.78T ext. ref 1 (°C)	5.13T ext. ref 2 (°C)	34.45length (m)	temperature (°C)	Stokes	anti-Stokes-747.200	-67.414	0.276	-0.111
-746.185	17.840	0.237	0.193
-745.171	432.486	0.154	-0.343
-744.156	800.000	-0.153	0.462
-743.142	-12.533	-0.176	-0.117
-742.127	113.543	-0.231	0.287
-741.112	78.671	0.097	-0.107
-740.098	-200.000	0.019	0.361
-739.083	-200.000	-0.011	-0.338
-738.069	72.871	0.106	-0.113
-737.054	33.869	-0.125	0.111
-736.039	11.826	0.250	-0.196
-735.025	-136.978	-0.024	0.003
-734.010	-72.602	-0.038	-0.014
-732.996	-24.551	-0.256	-0.156
-731.981	-79.468	-0.120	-0.042
-730.966	-82.877	0.183	0.060
-729.952	47.497	0.344	-0.328
-728.937	-55.081	-0.267	-0.123
-727.923	617.883	0.063	-0.163
-726.908	-105.127	-0.353	-0.082
-725.894	23.096	-0.288	0.242
-724.879	40.545	-0.147	-0.135
-723.864	-70.167	-0.196	-0.076
-722.850	668.679	0.115	0.304
-721.835	-34.145	-0.339	0.190
-720.821	245.140	0.074	-0.128
-719.806	138.233	-0.245	-0.328
-718.791	17.683	-0.279	0.227
-717.777	389.843	-0.105	0.223
-716.762	-40.914	0.115	0.061
-715.748	-200.000	0.001	-0.220
-714.733	-39.010	-0.200	-0.108
-713.718	24.649	-0.195	0.165
-712.704	-12.721	0.067	-0.045
-711.689	546.875	-0.076	-0.185
-710.675	800.000	-0.122	-0.360
-709.660	696.197	0.063	-0.170
-708.645	-200.000	-0.003	0.039
-707.631	-191.252	0.263	0.003
-706.616	-200.000	0.021	-0.176
-705.602	-116.769	-0.425	0.080
-704.587	-29.743	0.094	-0.055
-703.572	261.151	0.037	-0.065
-702.558	203.000	-0.152	0.239
-701.543	111.130	-0.099	-0.121
-700.529	-88.744	-0.269	-0.082
-699.514	129.943	0.107	-0.140
-698.499	188.597	-0.068	0.105
-697.485	134.036	-0.158	-0.210
-696.470	79.950	0.061	0.067
-695.456	-200.000	0.027	-0.204
-694.441	-187.045	-0.240	-0.003
-693.426	-62.607	0.124	-0.053
-692.412	144.680	-0.132	-0.180
-691.397	399.206	-0.056	-0.120
-690.383	-200.000	0.036	-0.248
-689.368	800.000	0.150	0.638
-688.354	-89.005	-0.090	0.027
-687.339	-161.214	-0.364	-0.019
-686.324	-69.809	0.213	-0.083
-685.310	-25.808	-0.181	-0.109
-684.295	39.771	-0.208	0.191
-683.281	-116.825	-0.190	0.036
-682.266	-39.321	-0.202	-0.108
-681.251	342.170	-0.140	-0.280
-680.237	800.000	-0.048	-0.136
-679.222	-200.000	0.109	-0.548
-678.208	2.259	-0.168	0.124
-677.193	-73.859	-0.240	0.089
-676.178	-140.432	-0.251	0.027
-675.164	-200.000	0.012	0.135
-674.149	-72.535	-0.168	-0.063
-673.135	800.000	-0.053	0.199
-672.120	-59.633	-0.151	-0.066
-671.105	-69.772	0.318	0.124
-670.091	-55.084	0.039	0.018
-669.076	-200.000	-0.011	0.358
-668.062	67.063	-0.103	0.107
-667.047	-38.591	0.153	0.082
-666.032	139.554	-0.165	-0.221
-665.018	320.409	0.106	-0.205
-664.003	-200.000	0.064	-0.311
-662.989	12.945	-0.162	-0.128
-661.974	-24.790	-0.171	-0.104
-660.959	-200.000	0.004	0.235
-659.945	607.637	0.095	0.242
-658.930	800.000	0.060	0.232
-657.916	99.874	0.089	-0.105
-656.901	-66.776	-0.148	-0.060
-655.886	459.671	0.043	0.098
-654.872	42.308	-0.249	-0.231
-653.857	640.385	-0.092	-0.239
-652.843	-123.069	0.252	0.041
-651.828	-39.030	-0.119	-0.064
-650.814	169.536	-0.192	-0.280
-649.799	143.560	-0.050	0.068
-648.784	38.399	0.097	0.088
-647.770	800.000	-0.065	-0.273
-646.755	458.758	-0.154	0.350
-645.741	-81.482	0.112	0.037
-644.726	38.696	0.189	0.172
-643.711	-85.497	-0.203	-0.065
-642.697	-52.025	-0.172	0.081
-641.682	318.408	0.217	-0.419
-640.668	-200.000	0.054	-0.644
-639.653	-114.209	0.384	0.076
-638.638	214.755	0.069	0.112
-637.624	106.564	-0.160	0.193
-636.609	13.351	0.303	0.239
-635.595	780.483	0.048	0.133
-634.580	-3.736	-0.411	0.291
-633.565	-131.397	-0.340	-0.046
-632.551	14.630	0.079	-0.063
-631.536	-136.073	0.271	0.032
-630.522	13.139	0.058	0.046
-629.507	20.888	-0.071	0.059
-628.492	-89.593	-0.045	-0.014
-627.478	-200.000	0.005	0.133
-626.463	-200.000	-0.029	-0.154
-625.449	92.178	0.142	-0.163
-624.434	708.349	0.054	0.145
-623.419	329.288	-0.063	0.124
-622.405	73.636	-0.158	-0.168
-621.390	-92.253	-0.181	0.052
-620.376	-102.238	-0.250	-0.061
-619.361	-52.513	0.067	-0.032
-618.346	-81.377	-0.267	0.090
-617.332	64.636	-0.016	0.017
-616.317	28.878	-0.090	0.078
-615.303	-200.000	0.018	-0.157
-614.288	481.308	0.171	-0.395
-613.273	24.320	0.189	0.159
-612.259	723.664	0.033	-0.089
-611.244	328.382	0.032	-0.063
-610.230	-74.080	-0.204	0.075
-609.215	-200.000	-0.000	-0.267
-608.201	-40.518	-0.218	-0.115
-607.186	-3.994	0.179	-0.127
-606.171	-200.000	-0.039	0.272
-605.157	28.792	0.038	0.033
-604.142	-9.874	-0.191	-0.129
-603.128	-9.381	0.022	-0.015
-602.113	-200.000	-0.034	0.412
-601.098	-200.000	-0.011	0.054
-600.084	-200.000	-0.001	0.040
-599.069	-73.897	-0.105	-0.039
-598.055	-168.557	0.079	0.003
-597.040	-74.071	0.169	0.062
-596.025	346.235	-0.173	0.346
-595.011	16.387	0.116	-0.093
-593.996	-26.195	0.322	-0.193
-592.982	-160.635	0.127	0.007
-591.967	433.132	0.240	-0.531
-590.952	-200.000	0.121	-0.539
-589.938	-200.000	0.022	0.141
-588.923	705.283	-0.056	-0.150
-587.909	-5.989	-0.181	0.126
-586.894	-0.698	0.087	0.063
-585.879	307.426	0.174	-0.329
-584.865	-200.000	-0.021	0.109
-583.850	-75.919	-0.228	-0.082
-582.836	-200.000	0.020	-0.156
-581.821	277.964	0.139	-0.251
-580.806	592.917	-0.044	-0.111
-579.792	51.107	-0.191	0.184
-578.777	124.732	0.151	0.193
-577.763	21.674	0.209	-0.173
-576.748	800.000	-0.150	-0.469
-575.733	-22.868	-0.155	0.095
-574.719	-72.867	-0.041	-0.015
-573.704	-148.710	-0.270	-0.022
-572.690	34.303	-0.163	0.145
-571.675	-110.340	0.306	0.065
-570.661	123.112	-0.026	-0.033
-569.646	129.291	0.305	0.395
-568.631	507.360	0.107	0.252
-567.617	-28.160	-0.109	-0.064
-566.602	800.000	-0.152	-0.500
-565.588	-113.998	0.201	0.040
-564.573	153.486	-0.097	0.135
-563.558	-87.464	0.212	0.065
-562.544	-155.975	0.259	-0.017
-561.529	45.195	-0.119	0.111
-560.515	-75.919	0.374	0.134
-559.500	-50.706	-0.075	-0.036
-558.485	-200.000	-0.030	-0.448
-557.471	647.428	-0.059	-0.154
-556.456	-34.611	0.255	0.142
-555.442	18.462	-0.199	-0.161
-554.427	-139.683	-0.153	-0.017
-553.412	-200.000	0.009	0.091
-552.398	251.836	-0.101	0.175
-551.383	383.442	-0.050	-0.105
-550.369	-129.742	-0.240	0.034
-549.354	-200.000	0.043	-0.399
-548.339	27.448	-0.243	-0.208
-547.325	-36.318	0.063	-0.035
-546.310	800.000	0.052	-0.228
-545.296	-4.265	0.270	-0.190
-544.281	800.000	-0.017	0.049
-543.266	-200.000	0.008	0.063
-542.252	-57.411	-0.030	0.013
-541.237	223.867	0.099	0.162
-540.223	-15.889	0.076	0.049
-539.208	-119.887	-0.270	0.047
-538.193	34.907	0.137	-0.122
-537.179	-100.990	-0.184	-0.046
-536.164	800.000	0.116	0.368
-535.150	120.065	-0.050	-0.063
-534.135	-70.671	-0.133	0.051
-533.121	800.000	0.068	0.248
-532.106	-22.002	0.187	0.115
-531.091	100.224	-0.278	-0.327
-530.077	-2.128	-0.391	0.279
-529.062	-54.541	0.329	0.151
-528.048	122.581	0.056	0.072
-527.033	-82.494	-0.172	-0.057
-526.018	-20.478	0.174	-0.109
-525.004	-17.580	-0.144	-0.092
-523.989	800.000	-0.088	0.317
-522.975	800.000	-0.054	0.221
-521.960	-14.221	0.041	-0.027
-520.945	-123.736	0.126	0.020
-519.931	-22.212	-0.332	-0.204
-518.916	628.207	0.084	-0.216
-517.902	-200.000	0.004	-0.178
-516.887	800.000	0.124	-0.503
-515.872	79.582	0.127	-0.138
-514.858	-75.616	0.057	0.021
-513.843	-71.124	0.068	0.026
-512.829	-69.736	0.178	0.069
-511.814	-30.397	-0.327	-0.188
-510.799	37.974	-0.099	0.089
-509.785	26.962	-0.108	-0.092
-508.770	-200.000	-0.016	0.292
-507.756	-96.320	0.108	-0.029
-506.741	-200.000	0.005	-0.361
-505.726	41.855	0.250	0.230
-504.712	376.134	-0.218	-0.450
-503.697	451.502	-0.083	-0.185
-502.683	-200.000	-0.006	-0.246
-501.668	-65.347	-0.234	-0.095
-500.653	29.326	0.256	0.220
-499.639	-200.000	-0.046	-0.371
-498.624	662.730	-0.108	-0.283
-497.610	-19.849	0.108	-0.068
-496.595	116.279	-0.086	0.107
-495.581	-94.396	0.041	-0.011
-494.566	-200.000	0.035	-0.180
-493.551	-177.424	0.085	0.002
-492.537	-50.341	0.008	-0.004
-491.522	760.051	-0.055	0.151
-490.508	-94.475	-0.385	0.106
-489.493	-94.501	-0.059	-0.016
-488.478	-87.509	-0.197	0.060
-487.464	150.226	-0.160	0.220
-486.449	191.300	-0.045	-0.069
-485.435	-63.733	-0.126	-0.052
-484.420	-75.945	0.188	0.068
-483.405	800.000	0.127	0.408
-482.391	285.262	0.166	-0.304
-481.376	-26.755	-0.077	-0.046
-480.362	220.788	-0.167	0.272
-479.347	-200.000	0.043	-0.260
-478.332	-85.233	-0.178	0.056
-477.318	-47.406	-0.163	0.080
-476.303	-200.000	0.030	-0.150
-475.289	96.177	0.232	-0.268
-474.274	800.000	-0.068	-0.240
-473.259	-200.000	0.013	-0.165
-472.245	-124.301	0.236	0.037
-471.230	-42.771	-0.061	0.031
-470.216	264.504	-0.210	-0.371
-469.201	44.386	0.167	-0.156
-468.186	-123.689	0.119	0.019
-467.172	-62.281	0.181	0.076
-466.157	275.864	-0.087	0.156
-465.143	90.164	0.183	-0.207
-464.128	-82.940	-0.203	-0.066
-463.113	-132.093	-0.181	-0.024
-462.099	80.034	0.213	0.232
-461.084	-75.614	-0.075	-0.027
-460.070	272.103	0.161	-0.287
-459.055	-42.152	0.188	-0.097
-458.040	-36.506	-0.432	0.235
-457.026	-115.697	-0.244	0.046
-456.011	-58.674	-0.104	0.045
-454.997	-111.746	0.202	-0.041
-453.982	800.000	0.063	0.214
-452.968	-113.787	0.125	0.025
-451.953	-25.528	0.207	0.124
-450.938	-103.385	-0.111	-0.026
-449.924	800.000	0.078	0.301
-448.909	524.199	0.063	-0.150
-447.895	81.621	0.207	0.227
-446.880	-200.000	-0.032	0.162
-445.865	800.000	0.085	0.281
-444.851	-85.795	-0.172	-0.054
-443.836	-161.444	0.428	-0.022
-442.822	-61.571	-0.208	0.088
-441.807	-43.537	0.178	-0.091
-440.792	800.000	-0.078	0.253
-439.778	-32.099	-0.118	0.067
-438.763	408.801	-0.072	0.155
-437.749	322.338	0.093	0.178
-436.734	-200.000	0.067	-0.324
-435.719	-200.000	0.012	-0.324
-434.705	-200.000	0.002	0.111
-433.690	-72.279	0.144	-0.054
-432.676	115.000	0.125	-0.154
-431.661	-171.866	-0.478	-0.016
-430.646	0.102	0.307	0.221
-429.632	-200.000	-0.051	-0.253
-428.617	363.459	-0.155	0.315
-427.603	85.700	-0.018	-0.020
-426.588	-134.285	-0.142	0.018
-425.573	800.000	-0.111	0.349
-424.559	145.157	-0.108	0.146
-423.544	-62.816	0.097	-0.041
-422.530	-200.000	0.001	0.257
-421.515	25.539	0.295	0.248
-420.500	-200.000	-0.016	-0.423
-419.486	-191.394	-0.370	0.004
-418.471	-111.675	-0.098	-0.020
-417.457	182.749	0.180	-0.268
-416.442	-200.000	0.016	-0.125
-415.428	373.137	-0.086	0.177
-414.413	254.273	0.067	0.115
-413.398	103.348	0.184	-0.218
-412.384	-200.000	0.039	-0.267
-411.369	55.560	0.129	0.127
-410.355	326.774	0.013	-0.025
-409.340	-200.000	-0.006	-0.207
-408.325	242.245	-0.082	-0.139
-407.311	800.000	-0.123	0.392
-406.296	-125.794	0.215	0.033
-405.282	800.000	-0.096	-0.394
-404.267	69.954	0.272	0.284
-403.252	-11.635	-0.100	0.066
-402.238	800.000	-0.072	-0.297
-401.223	11.873	-0.092	-0.071
-400.209	-200.000	0.012	-0.206
-399.194	421.628	0.041	0.089
-398.179	114.526	-0.064	0.078
-397.165	-127.757	0.412	-0.060
-396.150	800.000	0.079	-0.233
-395.136	339.901	-0.166	0.328
-394.121	-128.304	0.110	-0.016
-393.106	-200.000	0.007	0.128
-392.092	-25.317	-0.413	-0.247
-391.077	211.548	0.006	0.010
-390.063	65.399	-0.058	-0.059
-389.048	87.138	0.109	0.122
-388.033	-70.374	-0.194	0.074
-387.019	-87.957	0.067	0.020
-386.004	-142.840	-0.291	-0.029
-384.990	621.104	-0.029	0.073
-383.975	-148.221	-0.079	0.007
-382.960	11.528	-0.130	-0.100
-381.946	-92.469	0.122	-0.035
-380.931	-36.425	0.445	-0.242
-379.917	773.000	-0.116	-0.318
-378.902	114.194	-0.100	0.123
-377.888	-200.000	0.004	-0.124
-376.873	-200.000	0.023	0.254
-375.858	-200.000	-0.019	-0.153
-374.844	402.742	0.190	-0.403
-373.829	-160.130	0.365	-0.020
-372.815	147.690	-0.109	-0.148
-371.800	410.747	0.227	0.485
-370.785	800.000	0.032	-0.119
-369.771	395.334	-0.010	-0.021
-368.756	-81.487	-0.220	0.073
-367.742	-83.480	0.076	0.025
-366.727	-8.490	-0.027	0.018
-365.712	-200.000	0.007	0.178
-364.698	-176.727	0.430	0.011
-363.683	-200.000	0.023	-0.108
-362.669	-85.497	0.414	0.130
-361.654	1.275	-0.185	0.134
-360.639	-68.838	0.255	0.099
-359.625	15.344	-0.159	0.126
-358.610	12.242	0.107	0.083
-357.596	-149.179	-0.299	-0.024
-356.581	-200.000	0.020	0.316
-355.566	-200.000	-0.057	0.355
-354.552	25.531	0.078	-0.066
-353.537	231.733	-0.114	0.189
-352.523	-9.184	0.040	0.027
-351.508	410.556	-0.121	-0.258
-350.493	5.887	0.106	-0.079
-349.479	419.213	0.082	-0.178
-348.464	-200.000	-0.023	-0.118
-347.450	-73.559	-0.183	0.067
-346.435	800.000	-0.124	0.446
-345.420	-58.612	0.115	-0.050
-344.406	34.341	-0.100	0.088
-343.391	800.000	-0.057	-0.208
-342.377	-90.708	-0.181	-0.053
-341.362	-61.431	-0.336	0.142
-340.348	131.873	-0.132	0.172
-339.333	-41.741	0.184	0.095
-338.318	-24.700	-0.145	-0.087
-337.304	-152.225	-0.253	0.018
-336.289	-105.770	-0.155	-0.035
-335.275	215.520	0.342	0.547
-334.260	-200.000	0.004	-0.042
-333.245	126.906	-0.116	0.148
-332.231	-16.779	0.105	0.067
-331.216	200.475	-0.093	-0.144
-330.202	-162.507	0.171	-0.009
-329.187	-185.751	-0.356	0.005
-328.172	-200.000	0.022	-0.103
-327.158	-73.736	0.203	0.074
-326.143	800.000	0.031	-0.096
-325.129	92.364	0.185	-0.210
-324.114	-78.023	-0.072	0.025
-323.099	-157.198	-0.188	0.011
-322.085	-105.272	-0.189	-0.043
-321.070	-10.515	-0.094	-0.063
-320.056	-200.000	0.028	0.258
-319.041	-80.027	-0.086	-0.029
-318.026	164.840	-0.151	-0.215
-317.012	-142.311	0.112	-0.011
-315.997	800.000	0.015	-0.046
-314.983	-126.717	-0.101	-0.015
-313.968	-3.106	0.346	-0.243
-312.953	800.000	0.025	0.103
-311.939	-154.458	-0.041	-0.003
-310.924	741.431	-0.047	-0.127
-309.910	137.260	-0.232	0.305
-308.895	-147.871	0.214	0.018
-307.880	37.286	0.127	0.113
-306.866	-200.000	0.057	-0.301
-305.851	-153.531	0.140	0.010
-304.837	800.000	-0.100	0.301
-303.822	800.000	0.052	-0.157
-302.807	-179.281	0.374	0.008
-301.793	-131.374	-0.232	-0.031
-300.778	800.000	0.070	0.259
-299.764	800.000	0.036	-0.118
-298.749	316.837	0.028	-0.053
-297.735	-200.000	-0.014	0.066
-296.720	145.593	0.096	0.130
-295.705	-108.631	-0.285	0.062
-294.691	-41.734	-0.083	0.043
-293.676	82.345	-0.159	-0.173
-292.662	-86.518	-0.097	0.030
-291.647	800.000	-0.040	-0.143
-290.632	192.191	0.088	-0.134
-289.618	800.000	-0.091	-0.275
-288.603	623.675	0.105	0.265
-287.589	800.000	0.115	0.405
-286.574	-142.768	0.318	0.031
-285.559	-146.736	-0.262	-0.023
-284.545	-200.000	-0.004	0.223
-283.530	-181.256	0.279	-0.006
-282.516	89.296	-0.135	0.152
-281.501	193.835	-0.128	-0.195
-280.486	-8.523	-0.307	-0.207
-279.472	82.053	-0.071	-0.077
-278.457	-200.000	-0.024	-0.191
-277.443	-134.838	0.205	0.025
-276.428	-200.000	-0.022	0.459
-275.413	26.420	-0.061	0.051
-274.399	203.281	-0.158	0.245
-273.384	294.181	-0.146	0.268
-272.370	-200.000	-0.050	0.309
-271.355	-200.000	-0.030	-0.333
-270.340	-200.000	0.007	0.448
-269.326	800.000	0.134	0.417
-268.311	-82.195	0.123	-0.040
-267.297	277.403	0.003	0.006
-266.282	-200.000	0.360	0.001
-265.267	-200.000	-0.004	0.054
-264.253	-144.452	0.237	-0.022
-263.238	800.000	-0.068	0.224
-262.224	311.521	-0.053	0.100
-261.209	106.974	-0.110	-0.132
-260.195	800.000	0.073	0.273
-259.180	28.200	-0.259	0.220
-258.165	275.733	-0.102	-0.182
-257.151	-45.327	-0.187	-0.093
-256.136	51.524	0.142	0.135
-255.122	-200.000	0.017	-0.127
-254.107	800.000	0.058	0.186
-253.092	522.014	-0.063	0.150
-252.078	-200.000	0.041	0.305
-251.063	800.000	-0.080	0.246
-250.049	800.000	0.039	0.109
-249.034	-129.539	0.287	-0.040
-248.019	-48.394	0.047	-0.023
-247.005	-114.116	-0.191	0.037
-245.990	800.000	0.045	0.190
-244.976	-200.000	0.025	-0.286
-243.961	137.020	-0.177	-0.232
-242.946	287.077	0.055	-0.100
-241.932	135.188	0.134	0.174
-240.917	101.100	-0.033	0.039
-239.903	-71.491	-0.226	0.085
-238.888	-91.618	0.296	-0.085
-237.873	189.325	-0.028	-0.043
-236.859	10.903	-0.144	-0.111
-235.844	-49.716	0.059	-0.028
-234.830	249.290	-0.127	0.215
-233.815	67.647	0.203	0.208
-232.800	8.794	0.372	-0.281
-231.786	-200.000	-0.018	0.088
-230.771	8.810	-0.174	-0.132
-229.757	11.747	0.244	-0.188
-228.742	296.018	0.128	0.235
-227.727	800.000	0.085	0.243
-226.713	-5.477	0.144	-0.099
-225.698	800.000	-0.068	0.277
-224.684	-200.000	-0.036	-0.221
-223.669	-18.414	-0.129	-0.081
-222.655	-43.013	0.284	0.145
-221.640	-200.000	0.057	-0.268
-220.625	-54.967	0.282	0.128
-219.611	-65.264	-0.180	0.073
-218.596	-200.000	0.034	-0.181
-217.582	73.565	0.083	-0.087
-216.567	-18.992	-0.191	0.119
-215.552	-19.129	0.304	-0.189
-214.538	94.925	0.091	0.104
-213.523	-55.218	0.142	0.064
-212.509	186.870	-0.116	-0.173
-211.494	-200.000	-0.022	-0.233
-210.479	-200.000	-0.004	0.243
-209.465	-79.366	0.296	0.100
-208.450	-76.059	0.131	0.046
-207.436	-14.918	-0.235	-0.151
-206.421	4.124	0.237	0.174
-205.406	115.874	-0.155	0.190
-204.392	-200.000	-0.009	-0.322
-203.377	-185.432	0.152	-0.002
-202.363	234.192	-0.060	-0.099
-201.348	800.000	-0.031	-0.137
-200.333	389.098	-0.061	-0.126
-199.319	91.499	0.094	0.105
-198.304	-92.637	0.321	-0.090
-197.290	675.310	0.031	0.079
-196.275	91.158	-0.163	0.183
-195.260	-49.473	-0.354	-0.169
-194.246	800.000	-0.055	0.222
-193.231	-200.000	-0.006	-0.061
-192.217	-4.727	0.306	-0.212
-191.202	60.159	0.180	0.179
-190.187	-46.810	-0.232	-0.114
-189.173	-38.275	-0.220	-0.117
-188.158	-92.289	0.282	-0.080
-187.144	13.214	-0.094	-0.073
-186.129	-100.614	-0.093	0.023
-185.114	-26.940	0.144	-0.084
-184.100	800.000	-0.077	0.248
-183.085	-200.000	-0.037	-0.280
-182.071	-116.666	0.055	0.010
-181.056	800.000	0.004	0.012
-180.042	463.340	-0.170	0.380
-179.027	3.466	0.096	-0.070
-178.012	64.192	-0.279	0.281
-176.998	-89.081	0.128	-0.038
-175.983	-58.291	0.198	-0.086
-174.969	-79.338	0.166	0.056
-173.954	-165.901	-0.285	-0.012
-172.939	94.490	-0.030	0.034
-171.925	39.017	-0.173	-0.155
-170.910	-80.799	0.107	0.036
-169.896	-121.642	0.119	0.020
-168.881	60.709	0.075	-0.074
-167.866	185.340	-0.219	0.325
-166.852	61.508	-0.120	-0.120
-165.837	13.990	0.145	0.113
-164.823	800.000	0.039	0.124
-163.808	800.000	-0.151	-0.586
-162.793	-6.403	-0.120	0.082
-161.779	800.000	-0.038	0.144
-160.764	34.023	-0.248	-0.216
-159.750	-65.028	-0.291	-0.117
-158.735	39.173	-0.222	-0.198
-157.720	18.333	-0.011	0.008
-156.706	-40.399	0.085	-0.044
-155.691	-5.767	0.244	-0.167
-154.677	-134.390	-0.259	-0.032
-153.662	-89.279	0.316	-0.093
-152.647	529.787	-0.170	0.401
-151.633	180.380	-0.055	0.081
-150.618	349.585	-0.133	-0.263
-149.604	287.118	0.065	0.117
-148.589	584.792	-0.116	-0.285
-147.574	355.921	0.084	0.168
-146.560	-169.875	0.262	0.009
-145.545	-200.000	-0.020	0.090
-144.531	236.025	0.133	-0.220
-143.516	-33.897	0.262	0.144
-142.502	-200.000	0.014	-0.088
-141.487	800.000	0.072	0.247
-140.472	411.146	-0.142	0.302
-139.458	288.437	-0.054	-0.098
-138.443	203.314	-0.073	-0.113
-137.429	58.490	-0.073	0.071
-136.414	137.392	-0.265	-0.347
-135.399	112.220	0.066	0.080
-134.385	-182.627	-0.283	-0.005
-133.370	294.781	0.042	-0.077
-132.356	-14.145	-0.053	-0.034
-131.341	200.733	-0.049	-0.076
-130.326	-94.445	-0.257	-0.070
-129.312	-2.645	-0.143	-0.100
-128.297	-76.931	0.309	0.108
-127.283	140.288	0.113	-0.149
-126.268	32.310	0.146	-0.126
-125.253	-200.000	-0.039	0.222
-124.239	100.874	0.129	0.150
-123.224	554.600	0.137	0.329
-122.210	41.663	-0.114	0.103
-121.195	158.780	-0.136	-0.189
