DTS Sentinel unit serial number:	SN413079Multiplexer serial number:	ORYXHardware model number:	OX4-SRSoftware version number:	ORYX F/W v4.00 Oryx Data Collector v3.7.2.0data status	okinstallation	princeton_trtdifferential loss correction	single-endedforward channel	channel 4reverse channel	N/Adate	2019/09/19time	11:53:34forward acquisition time	60.00reverse acquisition time	0.00gamma	496.2192k internal	0.2326k external	0.2326temperature offset calibration	1.0015default loss term (dB/km)	0.3790temperature slope calibration	1.0000multiplexer offset coefficient	1.0000multiplexer slope coefficient	1.0000fibre end	0.00T internal ref (°C)	25.89T ext. ref 1 (°C)	0.82T ext. ref 2 (°C)	21.86length (m)	temperature (°C)	Stokes	anti-Stokes-747.200	-200.000	-0.024	0.204
-746.185	-200.000	0.037	0.504
-745.171	-50.139	0.314	0.150
-744.156	129.560	-0.018	0.024
-743.142	-115.401	-0.246	0.047
-742.127	-135.738	-0.226	0.027
-741.112	-200.000	-0.015	0.298
-740.098	-200.000	0.005	0.052
-739.083	-134.237	0.052	0.006
-738.069	-200.000	-0.046	0.265
-737.054	-200.000	-0.001	-0.374
-736.039	128.432	-0.184	0.237
-735.025	-159.656	0.185	0.010
-734.010	-118.557	-0.186	-0.033
-732.996	-159.012	0.246	0.014
-731.981	-161.420	0.055	0.003
-730.966	-200.000	-0.009	0.158
-729.952	-117.646	0.196	0.036
-728.937	-200.000	-0.059	-0.294
-727.923	-194.830	0.160	0.001
-726.908	-2.841	-0.226	-0.160
-725.894	-75.600	-0.230	-0.082
-724.879	116.490	-0.087	0.107
-723.864	228.395	0.150	-0.247
-722.850	-19.046	0.035	-0.022
-721.835	40.313	-0.193	0.175
-720.821	47.434	-0.232	0.218
-719.806	146.005	0.071	-0.096
-718.791	39.475	-0.224	-0.202
-717.777	800.000	0.069	-0.207
-716.762	-200.000	-0.020	0.091
-715.748	800.000	-0.108	0.315
-714.733	-59.824	0.049	-0.021
-713.718	-95.576	0.118	0.032
-712.704	113.573	0.109	-0.134
-711.689	800.000	-0.072	-0.237
-710.675	-4.234	0.264	-0.184
-709.660	-34.968	-0.180	-0.099
-708.645	800.000	0.051	0.206
-707.631	-97.425	-0.226	-0.059
-706.616	-5.255	-0.126	-0.087
-705.602	800.000	0.104	-0.323
-704.587	594.735	0.057	-0.142
-703.572	87.906	-0.121	-0.135
-702.558	542.905	-0.046	0.110
-701.543	800.000	-0.037	-0.139
-700.529	800.000	-0.075	0.260
-699.514	-200.000	0.040	-0.212
-698.499	259.356	0.077	0.133
-697.485	784.787	0.113	-0.313
-696.470	14.571	-0.218	-0.172
-695.456	800.000	-0.127	-0.445
-694.441	709.515	-0.117	-0.312
-693.426	-200.000	-0.017	-0.519
-692.412	-164.626	-0.229	-0.010
-691.397	374.705	-0.112	-0.230
-690.383	349.315	-0.092	0.182
-689.368	10.416	0.119	0.091
-688.354	-106.026	0.230	0.052
-687.339	800.000	-0.066	0.234
-686.324	-61.694	-0.228	0.096
-685.310	213.287	-0.101	0.161
-684.295	137.790	-0.084	0.111
-683.281	-84.247	0.275	-0.088
-682.266	-200.000	-0.025	-0.141
-681.251	129.870	0.062	-0.079
-680.237	-200.000	0.021	0.140
-679.222	-146.979	0.360	0.031
-678.208	163.427	0.183	-0.258
-677.193	-36.034	-0.163	0.089
-676.178	-179.986	-0.078	-0.002
-675.164	19.020	0.139	0.112
-674.149	-58.001	0.248	0.109
-673.135	-200.000	-0.025	-0.187
-672.120	2.567	0.075	0.054
-671.105	27.757	-0.162	-0.137
-670.091	-92.573	0.289	0.081
-669.076	134.837	0.317	0.415
-668.062	-71.719	-0.184	-0.069
-667.047	-126.459	0.262	0.039
-666.032	-200.000	-0.163	0.000
-665.018	-119.502	-0.115	0.020
-664.003	236.777	-0.093	-0.154
-662.989	102.871	0.144	0.169
-661.974	-78.756	-0.240	0.082
-660.959	401.219	0.177	-0.373
-659.945	141.291	-0.157	-0.209
-658.930	453.301	-0.082	0.182
-657.916	-200.000	0.006	-0.098
-656.901	-200.000	0.012	0.077
-655.886	44.794	-0.114	-0.105
-654.872	-47.251	-0.384	-0.188
-653.857	-200.000	-0.063	0.391
-652.843	25.653	-0.214	0.179
-651.828	58.104	-0.149	-0.147
-650.814	113.076	0.137	-0.167
-649.799	-200.000	-0.046	-0.221
-648.784	-186.612	-0.161	0.002
-647.770	-23.033	-0.199	0.121
-646.755	43.556	-0.154	0.142
-645.741	131.624	0.059	0.076
-644.726	699.462	0.026	0.069
-643.711	-200.000	-0.012	-0.211
-642.697	-200.000	-0.057	0.268
-641.682	17.026	0.159	-0.127
-640.668	52.713	-0.112	-0.107
-639.653	800.000	-0.026	-0.110
-638.638	-168.143	0.100	0.004
-637.624	298.514	0.036	0.066
-636.609	-184.513	0.178	-0.003
-635.595	800.000	-0.079	-0.287
-634.580	12.859	0.210	-0.163
-633.565	-200.000	-0.001	-0.261
-632.551	549.385	-0.052	-0.125
-631.536	-200.000	-0.011	0.068
-630.522	-128.524	0.271	-0.039
-629.507	800.000	0.139	0.390
-628.492	36.760	-0.107	-0.095
-627.478	314.613	0.037	0.069
-626.463	-114.470	-0.186	0.036
-625.449	199.189	0.038	-0.058
-624.434	-112.387	-0.357	-0.072
-623.419	-77.480	0.204	0.071
-622.405	189.848	-0.081	0.123
-621.390	335.486	0.105	0.203
-620.376	-182.623	-0.165	0.003
-619.361	160.109	-0.140	0.196
-618.346	-6.200	0.186	0.127
-617.332	800.000	-0.045	0.131
-616.317	230.021	-0.105	0.173
-615.303	-113.652	0.222	0.044
-614.288	-86.881	-0.156	0.048
-613.273	-40.894	0.020	0.010
-612.259	-74.339	0.419	-0.152
-611.244	-47.069	-0.045	0.022
-610.230	51.776	0.373	-0.356
-609.215	194.510	0.270	-0.411
-608.201	-200.000	0.040	0.299
-607.186	-200.000	-0.010	0.096
-606.171	-121.498	0.101	0.017
-605.157	-15.010	0.258	-0.166
-604.142	-80.303	-0.049	-0.016
-603.128	-36.604	0.100	0.054
-602.113	-60.566	-0.203	0.086
-601.098	152.644	-0.148	0.203
-600.084	-200.000	0.104	-0.463
-599.069	338.968	0.067	0.130
-598.055	-87.293	-0.317	-0.097
-597.040	83.755	0.258	-0.282
-596.025	8.354	-0.077	-0.058
-595.011	-200.000	-0.025	-0.236
-593.996	-82.104	-0.213	0.070
-592.982	-79.335	-0.372	-0.126
-591.967	-200.000	0.055	0.353
-590.952	800.000	0.056	0.223
-589.938	-44.037	-0.263	0.132
-588.923	-200.000	-0.012	-0.184
-587.909	-200.000	0.034	-0.369
-586.894	8.618	-0.005	0.004
-585.879	60.467	0.217	0.215
-584.865	-51.728	-0.255	0.119
-583.850	-18.611	0.147	0.092
-582.836	29.606	-0.198	0.169
-581.821	570.146	-0.038	-0.092
-580.806	71.751	-0.214	-0.223
-579.792	-200.000	-0.007	-0.096
-578.777	800.000	-0.061	-0.216
-577.763	645.683	-0.063	-0.160
-576.748	61.781	-0.111	-0.111
-575.733	168.366	0.202	-0.288
-574.719	-179.526	-0.360	-0.008
-573.704	19.431	0.227	-0.183
-572.690	-62.725	-0.181	0.075
-571.675	-200.000	0.011	-0.259
-570.661	305.763	-0.103	0.191
-569.646	11.257	0.228	0.175
-568.631	340.145	0.074	0.145
-567.617	800.000	-0.025	0.097
-566.602	264.468	0.096	-0.168
-565.588	-200.000	0.028	0.136
-564.573	-200.000	-0.001	0.118
-563.558	201.330	0.091	0.140
-562.544	286.216	-0.079	0.143
-561.529	-200.000	0.001	-0.162
-560.515	-128.862	0.095	0.013
-559.500	-98.808	0.100	-0.026
-558.485	-200.000	0.019	-0.100
-557.471	622.701	-0.078	-0.196
-556.456	156.212	-0.046	-0.064
-555.442	-200.000	0.070	-0.352
-554.427	800.000	-0.027	-0.091
-553.412	60.287	0.449	-0.445
-552.398	800.000	0.041	-0.129
-551.383	800.000	-0.047	0.145
-550.369	-200.000	-0.028	0.295
-549.354	17.838	-0.199	0.159
-548.339	-22.121	-0.106	-0.064
-547.325	-200.000	-0.030	0.193
-546.310	-7.372	0.244	0.165
-545.296	21.992	0.240	0.196
-544.281	-151.063	0.055	0.004
-543.266	-54.311	0.108	0.049
-542.252	79.490	-0.095	0.101
-541.237	234.151	-0.160	0.264
-540.223	800.000	-0.010	0.034
-539.208	258.481	-0.075	-0.129
-538.193	-57.397	-0.257	0.113
-537.179	437.377	0.041	-0.089
-536.164	-134.203	-0.096	0.012
-535.150	800.000	-0.093	0.384
-534.135	-85.590	0.235	0.073
-533.121	2.459	0.105	-0.076
-532.106	-41.851	0.070	0.036
-531.091	-32.782	-0.244	0.136
-530.077	800.000	-0.153	0.516
-529.062	-29.899	-0.420	-0.239
-528.048	-132.403	-0.051	0.007
-527.033	48.170	-0.088	-0.082
-526.018	800.000	0.012	-0.043
-525.004	164.260	0.082	-0.115
-523.989	295.844	-0.088	-0.160
-522.975	194.102	0.245	0.372
-521.960	-98.512	-0.252	-0.064
-520.945	-81.882	0.152	-0.050
-519.931	704.844	0.092	0.243
-518.916	-44.356	0.168	-0.084
-517.902	800.000	-0.007	-0.021
-516.887	-200.000	0.043	0.330
-515.872	-200.000	-0.062	-0.341
-514.858	-146.687	0.133	0.011
-513.843	-71.600	0.059	0.022
-512.829	800.000	-0.136	0.382
-511.814	-43.380	-0.305	-0.154
-510.799	178.331	0.165	-0.241
-509.785	-200.000	0.039	-0.172
-508.770	526.030	0.095	0.223
-507.756	282.033	-0.246	0.441
-506.741	321.414	0.106	0.202
-505.726	-86.536	-0.128	0.039
-504.712	-22.719	-0.057	0.035
-503.697	-200.000	0.013	0.294
-502.683	-55.622	-0.261	-0.117
-501.668	179.729	0.102	-0.150
-500.653	431.555	-0.128	-0.277
-499.639	-102.538	-0.146	0.035
-498.624	-200.000	0.005	-0.024
-497.610	-94.899	0.220	-0.059
-496.595	252.790	0.067	0.114
-495.581	-158.947	0.139	-0.008
-494.566	-34.536	-0.053	-0.029
-493.551	237.870	0.120	-0.199
-492.537	800.000	-0.062	-0.201
-491.522	398.209	0.178	-0.372
-490.508	239.677	-0.075	-0.125
-489.493	-200.000	0.005	-0.025
-488.478	194.759	0.130	0.198
-487.464	-108.175	-0.062	0.013
-486.449	19.097	-0.154	-0.124
-485.435	-200.000	0.022	0.124
-484.420	135.893	-0.109	0.142
-483.405	737.130	0.086	0.231
-482.391	13.857	0.077	0.060
-481.376	18.673	-0.217	0.173
-480.362	431.901	0.215	0.465
-479.347	41.559	-0.077	0.070
-478.332	-103.057	-0.088	0.021
-477.318	-87.083	-0.067	-0.020
-476.303	-74.452	0.166	-0.060
-475.289	6.802	-0.286	-0.212
-474.274	446.506	0.037	-0.082
-473.259	-116.110	-0.091	-0.017
-472.245	-79.743	-0.106	-0.036
-471.230	-9.182	-0.047	0.032
-470.216	-49.192	0.168	-0.080
-469.201	-85.228	-0.190	0.059
-468.186	3.134	-0.197	-0.143
-467.172	-91.157	0.172	-0.049
-466.157	-200.000	-0.027	-0.378
-465.143	-200.000	-0.013	-0.149
-464.128	-200.000	0.013	-0.476
-463.113	-120.189	-0.218	-0.037
-462.099	-200.000	0.032	0.310
-461.084	605.639	-0.052	0.129
-460.070	-46.661	-0.124	0.061
-459.055	49.374	0.142	-0.133
-458.040	-143.039	0.291	0.028
-457.026	800.000	-0.091	0.257
-456.011	334.529	-0.224	-0.433
-454.997	800.000	-0.058	-0.246
-453.982	-115.064	0.296	-0.056
-452.968	85.758	0.142	0.156
-451.953	166.139	-0.126	0.178
-450.938	-3.828	0.107	-0.074
-449.924	-54.060	-0.107	0.049
-448.909	800.000	0.084	0.276
-447.895	-144.241	0.193	0.018
-446.880	-83.715	-0.247	0.079
-445.865	172.106	0.187	0.268
-444.851	-200.000	0.027	0.198
-443.836	-30.535	0.297	-0.168
-442.822	135.350	0.200	-0.259
-441.807	-155.161	0.192	0.013
-440.792	225.253	0.101	-0.164
-439.778	34.720	0.235	0.205
-438.763	171.580	-0.132	-0.189
-437.749	800.000	-0.050	0.207
-436.734	-54.042	0.288	0.131
-435.719	-15.014	0.102	-0.065
-434.705	-40.636	-0.312	0.161
-433.690	444.931	0.040	0.088
-432.676	-7.876	-0.136	-0.092
-431.661	-38.585	-0.349	-0.184
-430.646	35.859	0.116	-0.102
-429.632	-10.837	-0.192	0.127
-428.617	-200.000	-0.017	0.114
-427.603	-27.326	-0.270	0.157
-426.588	-118.162	-0.367	-0.065
-425.573	-200.000	0.046	0.244
-424.559	-191.969	-0.111	-0.001
-423.544	-67.333	0.173	-0.068
-422.530	-20.449	0.191	-0.117
-421.515	630.963	-0.112	-0.283
-420.500	800.000	0.015	0.055
-419.486	-200.000	-0.001	-0.021
-418.471	-119.481	-0.198	-0.034
-417.457	-46.033	0.075	-0.037
-416.442	77.746	0.075	-0.080
-415.428	-200.000	0.015	-0.202
-414.413	-13.372	0.265	-0.171
-413.398	800.000	-0.048	-0.169
-412.384	48.714	-0.059	-0.055
-411.369	-200.000	-0.001	0.612
-410.355	157.818	-0.189	-0.260
-409.340	-87.913	0.061	-0.018
-408.325	-124.639	0.170	-0.026
-407.311	147.922	-0.237	0.318
-406.296	-200.000	0.042	-0.328
-405.282	-38.802	-0.182	0.096
-404.267	-119.862	0.091	0.016
-403.252	48.096	-0.150	0.140
-402.238	-190.323	0.214	0.002
-401.223	323.495	-0.086	-0.163
-400.209	125.912	0.267	0.336
-399.194	-126.738	-0.106	0.016
-398.179	-71.905	-0.275	-0.102
-397.165	-77.151	-0.021	0.007
-396.150	208.357	-0.088	0.137
-395.136	-66.949	0.067	-0.026
-394.121	-166.693	-0.199	-0.008
-393.106	-163.115	0.381	0.018
-392.092	89.158	0.186	0.206
-391.077	143.203	0.261	-0.346
-390.063	227.271	0.146	-0.236
-389.048	-200.000	-0.003	-0.095
-388.033	-6.494	-0.082	0.056
-387.019	245.549	0.045	-0.076
-386.004	27.403	0.047	-0.039
-384.990	45.460	-0.169	-0.155
-383.975	25.882	0.075	0.062
-382.960	51.993	-0.189	-0.179
-381.946	-200.000	0.051	-0.230
-380.931	59.229	0.148	-0.145
-379.917	-39.096	-0.332	-0.173
-378.902	-82.721	-0.209	-0.067
-377.888	-200.000	0.080	-0.402
-376.873	536.735	0.035	-0.082
-375.858	103.353	-0.099	0.115
-374.844	800.000	0.093	0.266
-373.829	179.169	0.059	0.086
-372.815	78.289	0.116	-0.124
-371.800	-64.804	-0.384	-0.154
-370.785	-200.000	0.052	0.354
-369.771	97.294	-0.151	0.173
-368.756	800.000	0.038	-0.105
-367.742	166.756	-0.172	0.243
-366.727	-200.000	0.037	0.290
-365.712	-18.563	-0.018	-0.011
-364.698	800.000	-0.026	0.103
-363.683	-96.465	0.383	0.100
-362.669	-84.776	-0.192	-0.060
-361.654	-170.958	-0.117	0.004
-360.639	-142.165	0.163	0.016
-359.625	800.000	-0.086	0.257
-358.610	-102.771	0.238	-0.056
-357.596	118.627	0.104	0.128
-356.581	-133.258	0.056	-0.007
-355.566	-144.022	-0.317	-0.030
-354.552	210.203	-0.108	-0.168
-353.537	-66.262	0.250	-0.099
-352.523	-200.000	-0.012	-0.148
-351.508	81.068	0.217	-0.233
-350.493	39.612	-0.218	-0.194
-349.479	780.916	0.054	0.147
-348.464	380.487	0.095	0.194
-347.450	237.265	-0.107	0.176
-346.435	800.000	-0.085	0.267
-345.420	-101.678	0.245	-0.059
-344.406	-25.624	0.105	-0.061
-343.391	19.778	-0.239	-0.191
-342.377	-56.325	0.109	-0.048
-341.362	-156.591	0.260	-0.016
-340.348	80.804	-0.345	-0.370
-339.333	493.723	0.168	0.382
-338.318	334.606	0.121	0.233
-337.304	-80.011	0.151	-0.050
-336.289	-200.000	-0.031	0.156
-335.275	180.757	-0.226	0.329
-334.260	-80.572	0.123	-0.041
-333.245	315.916	0.070	0.131
-332.231	-106.391	-0.022	0.005
-331.216	-126.356	0.323	-0.048
-330.202	0.836	-0.040	0.029
-329.187	755.913	0.057	0.154
-328.172	17.199	-0.100	-0.078
-327.158	-58.852	0.174	0.075
-326.143	65.191	-0.177	0.178
-325.129	84.522	-0.208	-0.226
-324.114	799.181	-0.079	-0.215
-323.099	800.000	-0.038	0.105
-322.085	16.960	-0.240	0.188
-321.070	178.022	0.214	0.310
-320.056	-135.703	0.214	-0.025
-319.041	245.807	0.067	-0.112
-318.026	-200.000	-0.004	-0.092
-317.012	-73.196	0.057	-0.021
-315.997	459.128	0.167	0.369
-314.983	-113.700	0.129	0.025
-313.968	-200.000	-0.042	-0.194
-312.953	46.682	0.147	0.136
-311.939	-146.565	0.235	0.020
-310.924	179.464	-0.100	0.145
-309.910	-200.000	-0.005	-0.432
-308.895	-86.583	0.188	-0.057
-307.880	-200.000	-0.016	-0.428
-306.866	457.265	-0.015	0.033
-305.851	-200.000	0.001	0.071
-304.837	-200.000	0.040	-0.335
-303.822	-87.293	0.256	0.077
-302.807	389.896	0.159	0.326
-301.793	261.463	-0.158	-0.271
-300.778	258.162	0.095	-0.162
-299.764	-30.748	0.180	-0.101
-298.749	-200.000	0.042	-0.220
-297.735	800.000	0.033	-0.124
-296.720	-119.676	-0.117	0.020
-295.705	-29.389	0.175	-0.099
-294.691	-159.298	-0.374	-0.021
-293.676	784.331	0.108	0.294
-292.662	218.576	-0.023	0.037
-291.647	-173.949	0.262	-0.008
-290.632	800.000	-0.138	0.441
-289.618	800.000	0.064	0.270
-288.603	-90.740	0.251	-0.072
-287.589	-200.000	-0.049	-0.280
-286.574	-21.432	0.304	-0.184
-285.559	800.000	-0.072	0.204
-284.545	-200.000	0.007	0.081
-283.530	3.564	0.317	-0.229
-282.516	-119.563	-0.156	-0.027
-281.501	-111.491	0.072	0.014
-280.486	-23.361	-0.287	-0.171
-279.472	800.000	-0.103	0.405
-278.457	48.721	0.143	0.133
-277.443	-51.604	0.093	0.043
-276.428	3.205	-0.086	0.062
-275.413	-16.705	-0.172	-0.108
-274.399	-97.880	0.120	0.031
-273.384	-80.739	0.172	-0.057
-272.370	-5.985	0.207	-0.140
-271.355	95.746	-0.075	0.085
-270.340	800.000	0.059	-0.229
-269.326	-157.027	0.188	-0.011
-268.311	-142.192	-0.275	-0.027
-267.297	280.921	-0.146	0.259
-266.282	-189.486	0.338	-0.004
-265.267	28.075	0.273	-0.228
-264.253	-200.000	-0.004	0.234
-263.238	50.636	0.192	0.180
-262.224	300.561	0.255	-0.467
-261.209	-104.883	-0.315	-0.072
-260.195	-200.000	-0.030	0.162
-259.180	-94.661	0.148	-0.040
-258.165	-200.000	0.000	0.186
-257.151	114.832	0.305	0.368
-256.136	515.117	0.052	-0.120
-255.122	66.612	-0.063	0.063
-254.107	6.236	0.074	-0.054
-253.092	-116.922	-0.082	-0.015
-252.078	-200.000	0.003	-0.085
-251.063	800.000	0.047	-0.176
-250.049	-200.000	0.010	-0.302
-249.034	800.000	0.027	-0.110
-248.019	-200.000	0.027	-0.195
-247.005	335.755	-0.014	0.028
-245.990	-49.789	0.190	-0.089
-244.976	352.460	-0.148	0.289
-243.961	285.230	0.080	-0.142
-242.946	-116.410	-0.481	-0.088
-241.932	48.882	0.204	0.189
-240.917	22.447	-0.130	0.105
-239.903	-85.637	-0.102	0.031
-238.888	-64.322	0.282	0.113
-237.873	-76.893	0.042	-0.015
-236.859	-63.532	-0.199	-0.081
-235.844	-91.452	0.213	0.060
-234.830	-117.511	-0.378	0.068
-233.815	-20.789	-0.315	0.191
-232.800	-85.336	0.253	0.078
-231.786	-98.705	0.165	0.041
-230.771	-136.189	0.186	0.022
-229.757	385.052	-0.210	0.428
-228.742	-166.194	-0.186	0.008
-227.727	-4.603	-0.218	-0.149
-226.713	70.357	-0.260	0.266
-225.698	97.292	-0.155	-0.176
-224.684	-90.865	-0.169	0.048
-223.669	46.595	-0.215	0.198
-222.655	-65.847	-0.212	0.084
-221.640	-156.466	0.186	-0.011
-220.625	-200.000	-0.054	0.369
-219.611	-77.335	0.158	-0.054
-218.596	-72.353	0.122	0.045
-217.582	-163.731	0.299	0.014
-216.567	-12.122	0.222	-0.144
-215.552	-200.000	0.016	-0.208
-214.538	-200.000	0.010	-0.044
-213.523	177.653	0.039	0.056
-212.509	569.854	0.023	0.056
-211.494	-76.667	-0.417	-0.144
-210.479	3.218	0.150	0.108
-209.465	-130.309	0.329	0.044
-208.450	61.213	-0.144	0.142
-207.436	344.966	-0.187	0.364
-206.421	-76.800	0.169	-0.058
-205.406	761.954	-0.008	0.022
-204.392	-68.819	0.217	-0.083
-203.377	-7.952	0.176	-0.117
-202.363	525.318	0.036	-0.084
-201.348	-56.770	0.288	-0.126
-200.333	-200.000	-0.240	0.001
-199.319	-200.000	0.028	0.225
-198.304	-27.629	-0.139	0.080
-197.290	-50.703	-0.254	0.118
-196.275	-200.000	-0.001	0.009
-195.260	237.460	0.090	0.147
-194.246	469.438	-0.106	0.236
-193.231	-34.719	0.271	0.146
-192.217	-13.989	-0.360	-0.230
-191.202	-200.000	-0.023	-0.262
-190.187	113.954	-0.080	-0.096
-189.173	-99.669	-0.229	0.057
-188.158	284.415	-0.196	-0.348
-187.144	149.942	0.223	-0.298
-186.129	-200.000	0.010	0.105
-185.114	-21.576	-0.348	0.209
-184.100	277.995	0.125	-0.219
-183.085	291.521	0.177	-0.318
-182.071	495.817	-0.073	-0.166
-181.056	59.515	0.232	0.225
-180.042	-67.494	-0.071	-0.027
-179.027	767.873	0.065	-0.174
-178.012	-136.233	0.298	0.034
-176.998	-200.000	-0.024	0.193
-175.983	-129.608	-0.272	0.037
-174.969	-112.434	-0.339	-0.067
-173.954	-32.884	0.108	-0.059
-172.939	55.165	-0.100	-0.096
-171.925	116.213	0.128	0.155
-170.910	-168.456	-0.240	-0.009
-169.896	362.311	-0.093	0.184
-168.881	-200.000	0.004	-0.324
-167.866	494.995	0.073	-0.165
-166.852	-146.419	0.257	-0.022
-165.837	-60.359	-0.193	0.081
-164.823	-200.000	-0.028	0.237
-163.808	-169.234	-0.290	0.011
-162.793	-66.786	0.112	-0.044
-161.779	-24.593	-0.164	-0.096
-160.764	306.152	0.094	-0.173
-159.750	-16.408	-0.182	0.114
-158.735	117.232	-0.257	0.311
-157.720	-13.978	0.204	-0.130
-156.706	800.000	0.075	-0.279
-155.691	400.764	0.102	-0.210
-154.677	-200.000	-0.025	-0.177
-153.662	-137.255	-0.312	-0.035
-152.647	-44.809	-0.336	0.165
-151.633	-62.240	-0.278	-0.114
-150.618	-200.000	0.051	-0.490
-149.604	-111.726	-0.158	-0.032
-148.589	-92.533	0.058	0.016
-147.574	-200.000	0.040	-0.197
-146.560	139.477	-0.124	-0.161
-145.545	203.492	0.112	0.171
-144.531	-200.000	-0.063	-0.359
-143.516	46.627	0.424	0.388
-142.502	-166.022	-0.288	0.012
-141.487	800.000	0.067	-0.276
-140.472	-200.000	-0.008	0.144
-139.458	-135.662	-0.388	-0.045
-138.443	800.000	-0.072	-0.225
-137.429	-120.652	0.073	-0.012
-136.414	-60.176	0.218	-0.092
-135.399	-2.298	0.211	0.146
-134.385	-132.444	0.517	-0.066
-133.370	278.663	-0.288	-0.505
-132.356	161.627	-0.148	0.205
-131.341	-79.297	-0.093	0.031
-130.326	-200.000	-0.077	-0.405
-129.312	-200.000	-0.059	-0.365
-128.297	-52.418	0.193	-0.088
-127.283	-148.699	0.368	0.029
-126.268	536.228	-0.067	0.155
-125.253	800.000	-0.044	0.142
-124.239	170.950	-0.210	-0.297
-123.224	-107.814	0.101	-0.022
-122.210	-44.274	0.304	0.150
