DTS Sentinel unit serial number:	SN413079Multiplexer serial number:	ORYXHardware model number:	OX4-SRSoftware version number:	ORYX F/W v4.00 Oryx Data Collector v3.7.2.0data status	okinstallation	princeton_trtdifferential loss correction	single-endedforward channel	channel 4reverse channel	N/Adate	2019/09/17time	16:53:35forward acquisition time	60.00reverse acquisition time	0.00gamma	496.2192k internal	0.2281k external	0.2281temperature offset calibration	0.9978default loss term (dB/km)	0.3790temperature slope calibration	1.0000multiplexer offset coefficient	1.0000multiplexer slope coefficient	1.0000fibre end	0.00T internal ref (°C)	42.33T ext. ref 1 (°C)	0.35T ext. ref 2 (°C)	38.60length (m)	temperature (°C)	Stokes	anti-Stokes-747.200	-112.214	0.085	0.018
-746.185	370.289	0.047	0.098
-745.171	-27.781	-0.175	-0.105
-744.156	102.270	-0.326	0.392
-743.142	82.338	-0.233	-0.261
-742.127	385.566	0.113	0.240
-741.112	800.000	0.065	-0.234
-740.098	118.409	-0.227	0.289
-739.083	-200.000	-0.008	-0.084
-738.069	800.000	0.077	0.228
-737.054	-200.000	0.001	-0.012
-736.039	201.155	-0.109	0.173
-735.025	-200.000	-0.006	0.163
-734.010	-94.107	0.254	-0.072
-732.996	47.292	-0.126	0.120
-731.981	-40.462	-0.286	0.153
-730.966	-107.801	0.104	-0.023
-729.952	-73.273	0.124	-0.047
-728.937	-3.120	-0.078	-0.056
-727.923	6.088	0.108	0.082
-726.908	215.546	-0.033	0.054
-725.894	423.710	-0.083	0.184
-724.879	-83.818	0.158	-0.052
-723.864	-200.000	-0.029	-0.418
-722.850	-187.151	-0.536	-0.008
-721.835	-200.000	-0.018	-0.524
-720.821	-108.069	-0.273	-0.061
-719.806	-188.843	-0.370	0.005
-718.791	-77.915	-0.218	0.077
-717.777	-90.856	0.177	-0.052
-716.762	-200.000	-0.052	0.264
-715.748	-200.000	0.020	-0.275
-714.733	-26.585	-0.147	-0.088
-713.718	-148.813	0.473	-0.039
-712.704	467.130	-0.068	-0.157
-711.689	-40.274	-0.340	-0.182
-710.675	-142.943	-0.100	0.010
-709.660	-64.292	0.090	0.038
-708.645	-200.000	-0.000	0.311
-707.631	-142.462	-0.287	0.029
-706.616	357.066	-0.162	-0.333
-705.602	351.636	-0.050	-0.102
-704.587	245.993	-0.143	-0.247
-703.572	-200.000	-0.041	0.454
-702.558	800.000	0.095	-0.273
-701.543	39.251	-0.143	-0.131
-700.529	120.348	0.068	0.086
-699.514	-86.442	-0.139	-0.044
-698.499	800.000	-0.021	0.083
-697.485	161.673	0.096	0.137
-696.470	800.000	-0.015	0.060
-695.456	390.196	-0.030	0.063
-694.441	800.000	0.025	-0.075
-693.426	800.000	0.078	-0.272
-692.412	71.263	-0.134	-0.143
-691.397	800.000	-0.086	0.328
-690.383	-4.562	-0.157	-0.111
-689.368	261.789	-0.079	-0.141
-688.354	-4.897	-0.154	0.109
-687.339	-200.000	0.005	-0.119
-686.324	-200.000	-0.083	-0.448
-685.310	462.826	-0.064	-0.146
-684.295	-200.000	-0.060	0.296
-683.281	445.394	-0.118	-0.265
-682.266	-70.694	-0.230	-0.089
-681.251	800.000	0.017	-0.077
-680.237	50.771	-0.299	-0.291
-679.222	177.675	-0.119	-0.178
-678.208	-14.050	-0.009	0.006
-677.193	-67.367	-0.263	0.106
-676.178	-200.000	-0.099	-0.478
-675.164	-200.000	-0.030	0.342
-674.149	13.217	-0.205	0.163
-673.135	800.000	0.092	0.290
-672.120	-200.000	-0.001	-0.042
-671.105	-3.659	-0.160	0.114
-670.091	-48.548	-0.141	-0.069
-669.076	430.153	0.073	-0.161
-668.062	-72.793	0.373	-0.141
-667.047	-88.900	-0.385	-0.117
-666.032	-0.010	-0.143	0.104
-665.018	-24.875	0.194	-0.118
-664.003	-65.436	-0.149	0.061
-662.989	611.988	-0.054	0.139
-661.974	-85.873	-0.146	-0.047
-660.959	366.578	-0.103	-0.213
-659.945	63.562	-0.118	0.121
-658.930	-200.000	-0.014	0.080
-657.916	82.899	0.156	0.174
-656.901	-103.570	-0.339	0.082
-655.886	348.509	0.157	0.317
-654.872	-200.000	0.082	-0.423
-653.857	36.747	-0.413	-0.374
-652.843	293.735	-0.102	-0.191
-651.828	13.456	-0.226	-0.180
-650.814	-78.274	-0.131	0.046
-649.799	160.821	-0.052	0.074
-648.784	270.100	0.128	0.230
-647.770	94.734	0.063	0.074
-646.755	393.491	-0.080	0.171
-645.741	-128.388	-0.129	0.019
-644.726	372.672	0.144	0.300
-643.711	-163.036	0.158	-0.008
-642.697	452.642	0.190	-0.430
-641.682	-200.000	-0.006	-0.045
-640.668	26.836	-0.324	0.278
-639.653	-128.091	0.259	0.038
-638.638	-99.439	-0.137	0.035
-637.624	-126.426	0.171	0.026
-636.609	584.446	0.092	0.232
-635.595	498.542	0.184	0.433
-634.580	-20.213	-0.133	-0.084
-633.565	176.752	0.142	-0.212
-632.551	5.739	-0.277	-0.209
-631.536	-104.672	-0.299	0.070
-630.522	85.915	0.152	-0.171
-629.507	605.563	-0.100	0.255
-628.492	800.000	0.043	0.150
-627.478	-200.000	-0.016	0.283
-626.463	59.837	0.206	0.208
-625.449	360.218	0.097	-0.199
-624.434	-89.963	-0.058	-0.017
-623.419	461.110	0.069	-0.158
-622.405	249.767	-0.060	0.104
-621.390	-46.201	-0.105	-0.053
-620.376	-37.694	-0.113	-0.062
-619.361	51.909	0.078	0.076
-618.346	298.583	0.083	-0.157
-617.332	103.534	0.037	-0.044
-616.317	10.507	-0.148	0.116
-615.303	-101.767	-0.057	0.014
-614.288	274.363	-0.065	0.117
-613.273	240.478	0.057	-0.097
-612.259	50.762	-0.245	0.238
-611.244	-165.309	0.258	0.012
-610.230	-73.574	-0.189	0.071
-609.215	-108.591	0.192	-0.042
-608.201	-200.000	-0.005	0.177
-607.186	288.764	0.078	-0.144
-606.171	800.000	0.052	0.168
-605.157	-200.000	0.026	-0.137
-604.142	182.285	0.103	-0.156
-603.128	800.000	-0.073	0.225
-602.113	-200.000	0.007	0.078
-601.098	335.736	-0.107	-0.213
-600.084	800.000	-0.090	0.360
-599.069	-200.000	-0.016	0.093
-598.055	119.545	-0.058	0.073
-597.040	-200.000	0.108	0.000
-596.025	133.694	0.234	-0.310
-595.011	-49.788	0.179	0.087
-593.996	-156.525	-0.314	-0.020
-592.982	221.538	0.184	0.302
-591.967	160.792	-0.102	0.146
-590.952	-123.004	-0.250	0.041
-589.938	-157.381	0.097	0.006
-588.923	-165.564	0.063	-0.003
-587.909	153.471	0.043	-0.060
-586.894	-40.472	-0.221	0.118
-585.879	-30.596	0.097	0.056
-584.865	-98.755	-0.031	0.008
-583.850	800.000	-0.028	-0.085
-582.836	800.000	0.094	0.288
-581.821	800.000	-0.102	-0.407
-580.806	-88.027	-0.191	0.059
-579.792	77.581	-0.225	0.245
-578.777	-200.000	0.027	-0.332
-577.763	214.040	0.141	-0.228
-576.748	-127.275	-0.132	0.020
-575.733	-94.709	-0.118	0.033
-574.719	370.531	-0.068	0.142
-573.704	-17.052	0.106	0.068
-572.690	800.000	-0.082	-0.268
-571.675	-200.000	0.058	0.382
-570.661	-47.687	-0.128	-0.064
-569.646	72.362	0.023	0.024
-568.631	629.092	-0.027	0.070
-567.617	-200.000	0.080	-0.489
-566.602	-61.080	-0.098	0.042
-565.588	555.358	0.065	0.159
-564.573	627.715	-0.127	0.329
-563.558	470.326	-0.085	-0.195
-562.544	81.046	0.247	0.272
-561.529	48.952	-0.052	0.050
-560.515	-18.568	-0.278	-0.177
-559.500	-170.951	-0.114	-0.004
-558.485	-200.000	-0.006	-0.142
-557.471	-200.000	-0.003	-0.056
-556.456	-99.365	-0.174	-0.045
-555.442	-132.345	0.280	0.037
-554.427	45.538	-0.198	-0.187
-553.412	151.105	-0.212	-0.295
-552.398	251.079	0.034	0.060
-551.383	257.447	0.140	0.245
-550.369	210.993	0.123	-0.197
-549.354	-41.628	0.122	-0.064
-548.339	-103.596	0.206	-0.049
-547.325	140.581	0.157	-0.212
-546.310	-200.000	-0.002	0.051
-545.296	-165.123	-0.129	0.006
-544.281	231.016	-0.100	-0.167
-543.266	34.446	-0.141	-0.126
-542.252	800.000	0.031	0.092
-541.237	345.752	-0.079	0.159
-540.223	-150.034	-0.314	0.025
-539.208	-71.862	-0.157	0.060
-538.193	-79.009	-0.194	0.067
-537.179	-143.570	0.061	-0.006
-536.164	56.930	0.238	0.236
-535.150	-200.000	-0.019	0.255
-534.135	-200.000	0.021	0.192
-533.121	439.782	-0.077	-0.173
-532.106	7.846	0.231	-0.177
-531.091	-115.539	-0.167	-0.032
-530.077	21.758	0.125	0.104
-529.062	-75.269	-0.177	0.065
-528.048	8.738	0.223	-0.172
-527.033	-200.000	-0.049	-0.254
-526.018	-200.000	0.017	-0.225
-525.004	44.898	0.263	-0.246
-523.989	72.380	-0.216	-0.230
-522.975	213.892	0.090	-0.146
-521.960	-120.606	-0.197	-0.034
-520.945	-89.596	-0.330	0.099
-519.931	800.000	-0.074	-0.218
-518.916	429.932	-0.130	-0.287
-517.902	800.000	-0.149	-0.433
-516.887	800.000	0.058	-0.171
-515.872	-200.000	-0.011	-0.343
-514.858	-200.000	-0.019	0.102
-513.843	-200.000	0.034	0.186
-512.829	-200.000	-0.183	0.000
-511.814	524.909	0.123	-0.295
-510.799	485.816	0.063	-0.145
-509.785	-6.054	-0.059	-0.041
-508.770	-151.835	-0.064	0.005
-507.756	-14.534	-0.201	0.132
-506.741	506.956	-0.115	-0.272
-505.726	80.794	-0.268	0.295
-504.712	-200.000	0.016	0.103
-503.697	627.794	-0.102	0.262
-502.683	774.314	-0.100	0.278
-501.668	-161.417	0.023	0.001
-500.653	-98.463	0.218	-0.057
-499.639	562.281	-0.043	-0.107
-498.624	-200.000	0.034	0.328
-497.610	-200.000	0.029	0.132
-496.595	-75.185	0.218	-0.079
-495.581	6.490	0.256	-0.194
-494.566	237.515	0.046	-0.078
-493.551	-200.000	-0.022	-0.270
-492.537	692.174	-0.140	0.375
-491.522	-114.850	0.109	0.021
-490.508	-72.389	0.333	-0.125
-489.493	513.535	0.036	-0.086
-488.478	-24.791	-0.407	0.246
-487.464	100.045	-0.189	-0.223
-486.449	-33.973	-0.236	-0.132
-485.435	-104.313	0.337	-0.080
-484.420	-146.702	-0.119	-0.010
-483.405	-24.106	-0.016	0.010
-482.391	800.000	0.079	0.248
-481.376	130.964	-0.078	0.102
-480.362	-95.144	0.028	0.008
-479.347	-95.478	0.415	-0.113
-478.332	-200.000	-0.042	0.381
-477.318	42.917	-0.249	0.231
-476.303	185.384	0.117	0.177
-475.289	-26.354	-0.165	-0.099
-474.274	3.029	-0.053	-0.040
-473.259	-200.000	-0.040	0.475
-472.245	-200.000	-0.002	0.049
-471.230	506.653	-0.046	-0.108
-470.216	735.728	0.041	-0.112
-469.201	50.588	0.079	-0.076
-468.186	-46.647	-0.214	0.107
-467.172	190.494	0.016	-0.025
-466.157	-41.118	0.121	-0.064
-465.143	-115.150	0.175	0.034
-464.128	128.710	0.042	-0.054
-463.113	31.441	-0.195	-0.170
-462.099	-200.000	0.002	-0.221
-461.084	-124.038	0.226	0.036
-460.070	173.276	0.167	0.245
-459.055	53.489	-0.097	0.095
-458.040	388.358	-0.112	0.235
-457.026	-129.740	-0.267	0.037
-456.011	79.709	-0.236	0.258
-454.997	253.043	-0.068	-0.117
-453.982	-153.612	-0.385	0.027
-452.968	-52.812	-0.120	0.056
-451.953	-200.000	-0.039	-0.349
-450.938	20.273	0.241	-0.198
-449.924	555.098	-0.118	0.288
-448.909	-50.745	-0.244	0.117
-447.895	84.194	-0.087	-0.096
-446.880	-200.000	-0.004	0.370
-445.865	185.136	-0.188	0.283
-444.851	159.950	0.173	-0.246
-443.836	557.358	0.180	-0.440
-442.822	15.204	-0.348	-0.277
-441.807	48.277	-0.208	0.197
-440.792	-0.183	0.026	0.019
-439.778	103.109	0.412	-0.491
-438.763	331.460	-0.036	-0.071
-437.749	92.389	0.283	0.324
-436.734	-84.809	0.211	-0.068
-435.719	800.000	-0.094	-0.276
-434.705	699.910	-0.131	0.349
-433.690	22.404	0.046	0.038
-432.676	-10.921	0.100	-0.067
-431.661	-91.984	0.447	-0.129
-430.646	190.127	0.198	-0.301
-429.632	-130.128	0.090	-0.012
-428.617	800.000	-0.059	-0.172
-427.603	141.170	-0.047	0.063
-426.588	-200.000	0.040	-0.319
-425.573	-51.236	-0.266	-0.126
-424.559	-200.000	0.027	-0.210
-423.544	-148.340	0.196	0.016
-422.530	-200.000	0.171	-0.000
-421.515	198.530	0.039	-0.061
-420.500	800.000	0.076	-0.252
-419.486	-127.109	0.321	0.048
-418.471	185.531	0.056	0.085
-417.457	-3.544	0.041	0.029
-416.442	-5.519	-0.033	0.023
-415.428	422.591	-0.135	-0.295
-414.413	228.530	-0.084	0.139
-413.398	313.099	0.083	0.158
-412.384	79.552	0.056	0.061
-411.369	-132.125	-0.220	-0.029
-410.355	133.877	0.047	0.062
-409.340	-38.376	0.515	0.277
-408.325	-200.000	0.060	0.413
-407.311	-76.939	0.030	-0.011
-406.296	-110.510	-0.159	0.034
-405.282	-200.000	-0.003	-0.092
-404.267	212.979	-0.084	-0.134
-403.252	128.048	-0.146	-0.189
-402.238	-98.551	0.225	-0.058
-401.223	481.673	0.130	-0.300
-400.209	344.715	0.093	0.184
-399.194	228.117	-0.168	-0.278
-398.179	-200.000	-0.006	-0.233
-397.165	56.057	0.039	0.039
-396.150	69.788	0.281	-0.293
-395.136	-53.791	-0.408	-0.189
-394.121	800.000	0.075	0.234
-393.106	-23.610	-0.162	-0.099
-392.092	-200.000	-0.009	-0.039
-391.077	53.941	0.267	0.260
-390.063	-152.238	-0.226	-0.017
-389.048	275.146	0.090	0.163
-388.033	-176.031	0.145	0.004
-387.019	-51.003	0.142	-0.068
-386.004	-90.030	-0.172	0.051
-384.990	215.853	0.059	-0.094
-383.975	-130.247	-0.041	0.006
-382.960	-20.780	0.206	-0.128
-381.946	790.142	-0.094	-0.263
-380.931	-141.644	0.258	-0.026
-379.917	94.315	0.149	-0.171
-378.902	156.412	0.124	-0.174
-377.888	-154.157	0.209	-0.014
-376.873	-200.000	0.041	-0.325
-375.858	-200.000	0.033	0.210
-374.844	-53.163	-0.346	0.161
-373.829	-73.956	-0.263	-0.097
-372.815	-181.523	0.321	-0.006
-371.800	9.785	-0.083	-0.064
-370.785	-49.450	0.118	-0.057
-369.771	-46.962	0.095	-0.047
-368.756	-40.872	0.213	-0.112
-367.742	-107.735	-0.080	0.018
-366.727	-136.428	0.261	-0.031
-365.712	45.816	0.042	-0.040
-364.698	-58.459	-0.035	-0.015
-363.683	-168.303	-0.130	0.005
-362.669	-16.030	-0.105	-0.068
-361.654	-136.084	0.138	-0.016
-360.639	-101.671	-0.262	0.064
-359.625	84.433	0.168	0.186
-358.610	29.545	0.215	0.186
-357.596	55.507	-0.027	-0.026
-356.581	-139.838	-0.335	-0.036
-355.566	568.227	-0.053	-0.130
-354.552	-22.004	-0.178	0.109
-353.537	800.000	0.046	0.136
-352.523	284.756	0.118	0.215
-351.508	541.001	0.103	0.248
-350.493	800.000	0.081	0.284
-349.479	-200.000	-0.032	0.212
-348.464	-200.000	0.012	0.158
-347.450	80.627	0.131	0.143
-346.435	171.686	-0.236	-0.343
-345.420	-55.138	0.346	-0.158
-344.406	94.501	0.241	-0.277
-343.391	80.728	0.071	-0.078
-342.377	21.643	-0.307	-0.253
-341.362	65.074	0.143	-0.146
-340.348	-115.904	0.282	-0.053
-339.333	-200.000	-0.023	-0.349
-338.318	-200.000	0.006	-0.105
-337.304	239.087	0.200	0.336
-336.289	-44.855	0.229	-0.116
-335.275	203.374	0.026	0.041
-334.260	-31.198	-0.137	-0.078
-333.245	-139.801	-0.136	0.015
-332.231	-200.000	0.000	0.009
-331.216	-15.074	0.147	0.095
-330.202	11.493	0.150	0.116
-329.187	118.961	-0.260	0.325
-328.172	-97.597	0.055	-0.014
-327.158	-88.553	0.120	-0.036
-326.143	-200.000	-0.008	-0.186
-325.129	-37.422	-0.165	0.089
-324.114	-15.349	0.032	0.021
-323.099	29.691	-0.186	0.160
-322.085	-159.825	0.245	-0.014
-321.070	430.027	0.090	-0.196
-320.056	23.523	0.306	0.254
-319.041	-76.158	0.258	-0.092
-318.026	798.973	-0.081	0.226
-317.012	-200.000	0.008	0.368
-315.997	-200.000	0.022	0.112
-314.983	-53.063	0.087	0.040
-313.968	92.251	-0.220	0.251
-312.953	-39.388	0.475	0.252
-311.939	-63.454	0.423	-0.176
-310.924	-132.302	-0.351	0.046
-309.910	-23.507	-0.368	0.223
-308.895	800.000	-0.067	-0.226
-307.880	-22.148	0.112	0.069
-306.866	-55.822	-0.242	-0.109
-305.851	800.000	-0.085	0.239
-304.837	-98.478	-0.167	-0.043
-303.822	177.295	0.065	-0.095
-302.807	-98.100	0.227	-0.059
-301.793	-172.951	0.361	0.011
-300.778	0.460	0.210	-0.151
-299.764	-90.958	-0.211	-0.061
-298.749	129.071	0.341	0.440
-297.735	26.884	0.091	-0.077
-296.720	-43.993	-0.068	-0.034
-295.705	800.000	0.083	0.310
-294.691	49.387	-0.095	-0.090
-293.676	238.915	0.049	0.082
-292.662	111.510	-0.104	0.126
-291.647	138.506	0.165	0.219
-290.632	-33.266	0.199	-0.111
-289.618	419.949	0.135	0.291
-288.603	-82.989	-0.159	0.052
-287.589	-200.000	-0.064	-0.303
-286.574	800.000	0.051	0.166
-285.559	-4.884	0.282	-0.196
-284.545	143.892	0.134	-0.180
-283.530	158.666	0.231	-0.324
-282.516	288.996	0.093	-0.170
-281.501	-32.645	0.178	-0.100
-280.486	379.166	0.217	0.448
-279.472	-200.000	0.014	-0.247
-278.457	61.488	0.100	-0.101
-277.443	-200.000	-0.022	-0.131
-276.428	800.000	-0.156	0.502
-275.413	-64.713	-0.052	-0.021
-274.399	184.379	-0.057	0.085
-273.384	-118.477	-0.354	-0.063
-272.370	63.018	0.148	-0.150
-271.355	-52.463	0.361	-0.168
-270.340	800.000	-0.067	0.190
-269.326	800.000	0.088	0.272
-268.311	344.711	-0.122	0.241
-267.297	388.329	0.092	-0.192
-266.282	3.479	0.179	-0.132
-265.267	43.930	-0.105	0.097
-264.253	319.560	-0.205	0.393
-263.238	-200.000	0.014	-0.084
-262.224	529.991	-0.120	-0.286
-261.209	-130.830	-0.201	-0.027
-260.195	-47.115	-0.391	-0.192
-259.180	800.000	0.022	0.061
-258.165	-87.396	-0.360	-0.110
-257.151	-55.748	0.148	0.067
-256.136	-154.528	-0.227	0.015
-255.122	-200.000	0.034	-0.206
-254.107	-136.726	-0.119	0.014
-253.092	-94.485	-0.244	0.067
-252.078	-200.000	0.015	-0.177
-251.063	-2.799	0.120	-0.085
-250.049	18.883	-0.340	-0.275
-249.034	192.485	0.146	0.222
-248.019	462.332	0.143	0.323
-247.005	-17.256	-0.227	-0.144
-245.990	-200.000	-0.053	-0.253
-244.976	-93.063	-0.359	-0.101
-243.961	28.261	0.164	-0.140
-242.946	10.235	0.020	0.015
-241.932	-155.785	-0.234	-0.015
-240.917	-53.879	-0.184	0.085
-239.903	495.682	-0.145	0.335
-238.888	247.537	0.055	0.094
-237.873	-87.112	-0.320	-0.098
-236.859	217.183	-0.170	0.272
-235.844	-108.039	-0.075	-0.016
-234.830	-69.561	0.340	-0.131
-233.815	-27.859	-0.339	-0.198
-232.800	-200.000	-0.030	0.217
-231.786	800.000	-0.031	-0.103
-230.771	139.565	0.146	-0.194
-229.757	307.983	-0.095	-0.179
-228.742	457.546	-0.057	0.129
-227.727	78.846	0.196	-0.212
-226.713	58.434	-0.099	0.098
-225.698	57.469	-0.277	0.273
-224.684	800.000	0.017	-0.052
-223.669	-15.107	0.069	0.045
-222.655	250.315	-0.174	0.297
-221.640	800.000	0.034	-0.142
-220.625	36.609	-0.150	-0.134
-219.611	509.369	-0.073	-0.172
-218.596	800.000	-0.103	-0.313
-217.582	800.000	-0.063	0.198
-216.567	570.566	0.097	-0.237
-215.552	800.000	-0.043	0.164
-214.538	41.656	0.132	-0.120
-213.523	-138.607	0.190	-0.021
-212.509	25.422	-0.017	-0.014
-211.494	250.144	0.174	0.297
-210.479	-126.091	0.092	-0.014
-209.465	-98.568	0.160	0.041
-208.450	-200.000	0.022	0.268
-207.436	800.000	0.056	0.202
-206.421	-143.677	0.206	-0.020
-205.406	628.051	-0.074	0.188
-204.392	-200.000	0.007	0.101
-203.377	-200.000	0.003	-0.282
-202.363	-200.000	0.017	0.138
-201.348	800.000	0.019	-0.076
-200.333	-100.619	0.194	0.048
-199.319	-61.213	-0.078	-0.033
-198.304	-200.000	-0.011	-0.112
-197.290	-37.289	-0.236	0.127
-196.275	171.365	0.178	-0.257
-195.260	-35.540	-0.160	-0.087
-194.246	-200.000	0.026	0.375
-193.231	69.135	0.098	-0.101
-192.217	-200.000	-0.027	-0.251
-191.202	37.582	-0.172	0.154
-190.187	800.000	-0.101	0.379
-189.173	123.619	-0.270	0.341
-188.158	171.451	-0.170	0.245
-187.144	-200.000	0.029	-0.192
-186.129	800.000	0.063	-0.280
-185.114	-84.109	0.280	0.090
-184.100	800.000	-0.015	0.059
-183.085	337.048	0.167	-0.326
-182.071	-131.733	-0.222	-0.029
-181.056	150.007	-0.078	-0.106
-180.042	-45.641	-0.271	-0.135
-179.027	313.088	-0.033	0.062
-178.012	16.890	-0.090	0.072
-176.998	605.001	0.057	0.143
-175.983	141.885	0.159	-0.212
-174.969	-200.000	-0.001	-0.011
-173.954	800.000	-0.053	-0.155
-172.939	167.880	-0.115	-0.165
-171.925	87.338	-0.079	-0.088
-170.910	80.193	-0.073	-0.079
-169.896	-37.991	-0.201	-0.108
-168.881	800.000	0.061	-0.201
-167.866	-63.199	-0.180	-0.075
-166.852	-114.796	0.299	0.057
-165.837	159.028	-0.014	-0.020
-164.823	-76.898	0.215	0.076
-163.808	-200.000	0.030	0.274
-162.793	12.573	0.315	0.244
-161.779	-84.331	-0.335	0.106
-160.764	-55.336	-0.178	-0.080
-159.750	90.682	-0.159	0.179
-158.735	-156.811	0.204	0.013
-157.720	-200.000	-0.033	-0.158
-156.706	-89.669	0.116	-0.034
-155.691	-37.577	0.058	-0.031
-154.677	-200.000	-0.034	0.191
-153.662	35.933	-0.097	0.085
-152.647	201.816	0.059	-0.092
-151.633	-125.198	0.241	0.037
-150.618	-64.679	-0.143	0.058
-149.604	90.012	-0.133	-0.149
-148.589	112.803	-0.114	-0.139
-147.574	77.980	0.063	-0.068
-146.560	-200.000	-0.047	0.295
-145.545	447.576	-0.033	0.073
-144.531	-200.000	-0.022	0.135
-143.516	-131.674	0.138	-0.018
-142.502	-5.601	-0.236	0.163
-141.487	-127.978	-0.281	-0.041
-140.472	800.000	0.084	-0.255
-139.458	-200.000	-0.022	0.192
-138.443	-200.000	-0.054	0.284
-137.429	22.695	0.109	0.089
-136.414	48.425	-0.121	-0.114
-135.399	-153.315	0.274	0.019
-134.385	-136.899	-0.317	-0.037
-133.370	-200.000	0.026	0.115
-132.356	-200.000	-0.252	-0.001
-131.341	103.729	0.014	-0.017
-130.326	-135.362	-0.229	-0.028
-129.312	-131.711	-0.182	-0.024
-128.297	-200.000	0.007	-0.094
-127.283	-183.760	-0.232	-0.004
-126.268	406.938	-0.103	-0.219
-125.253	-100.748	-0.094	-0.023
-124.239	169.522	0.132	0.189
-123.224	86.410	0.200	0.222
-122.210	107.621	0.133	0.159
