DTS Sentinel unit serial number:	SN413079Multiplexer serial number:	ORYXHardware model number:	OX4-SRSoftware version number:	ORYX F/W v4.00 Oryx Data Collector v3.7.2.0data status	okinstallation	princeton_trtdifferential loss correction	single-endedforward channel	channel 4reverse channel	N/Adate	2019/09/13time	12:25:35forward acquisition time	60.00reverse acquisition time	0.00gamma	496.2192k internal	0.2297k external	0.2297temperature offset calibration	1.0215default loss term (dB/km)	0.3790temperature slope calibration	1.0000multiplexer offset coefficient	1.0000multiplexer slope coefficient	1.0000fibre end	0.00T internal ref (°C)	34.27T ext. ref 1 (°C)	4.63T ext. ref 2 (°C)	31.88length (m)	temperature (°C)	Stokes	anti-Stokes-747.200	-200.000	0.008	0.078
-746.185	35.049	-0.163	0.146
-745.171	-22.397	0.308	0.190
-744.156	-200.000	-0.033	0.217
-743.142	-64.413	0.092	0.038
-742.127	-83.135	-0.248	0.082
-741.112	6.726	-0.064	0.048
-740.098	80.151	-0.342	0.376
-739.083	-191.446	-0.231	-0.002
-738.069	-113.976	-0.216	0.043
-737.054	148.694	0.157	-0.216
-736.039	201.247	0.149	-0.234
-735.025	-200.000	-0.007	-0.245
-734.010	466.738	-0.200	-0.457
-732.996	-7.454	-0.224	-0.155
-731.981	55.975	-0.244	0.241
-730.966	800.000	-0.057	-0.192
-729.952	700.755	-0.088	0.236
-728.937	-61.085	-0.117	-0.050
-727.923	292.049	0.083	0.154
-726.908	-49.825	0.139	-0.067
-725.894	-200.000	-0.033	-0.238
-724.879	-154.312	0.119	0.008
-723.864	-74.690	0.238	0.087
-722.850	-42.778	-0.180	0.094
-721.835	-200.000	-0.023	0.364
-720.821	-78.917	-0.101	-0.035
-719.806	-200.000	0.016	-0.428
-718.791	-200.000	-0.029	0.235
-717.777	-153.894	-0.344	0.024
-716.762	-186.481	-0.367	-0.005
-715.748	14.380	-0.178	0.142
-714.733	800.000	-0.067	0.230
-713.718	-94.715	0.179	0.050
-712.704	-200.000	0.027	0.253
-711.689	-36.056	0.116	-0.064
-710.675	-200.000	0.001	0.023
-709.660	-60.877	0.070	-0.030
-708.645	682.494	0.157	0.416
-707.631	133.371	0.118	0.155
-706.616	-31.831	-0.122	-0.070
-705.602	271.325	0.101	-0.182
-704.587	-22.760	0.158	-0.097
-703.572	-102.207	-0.102	-0.025
-702.558	287.577	-0.010	-0.018
-701.543	227.214	-0.035	0.058
-700.529	800.000	0.157	-0.496
-699.514	157.232	-0.065	-0.092
-698.499	800.000	0.094	-0.319
-697.485	-200.000	-0.006	-0.444
-696.470	-200.000	-0.026	-0.445
-695.456	395.784	-0.131	0.279
-694.441	-72.141	0.215	-0.081
-693.426	-150.911	-0.221	0.017
-692.412	-163.326	-0.244	-0.012
-691.397	50.618	0.194	0.187
-690.383	237.773	-0.116	0.196
-689.368	-104.485	-0.376	0.089
-688.354	-56.482	-0.152	-0.069
-687.339	42.071	0.076	0.070
-686.324	-136.566	0.054	-0.006
-685.310	-200.000	-0.070	-0.355
-684.295	-167.449	-0.229	-0.009
-683.281	-123.401	0.086	-0.014
-682.266	90.072	0.161	0.183
-681.251	-174.308	-0.150	0.004
-680.237	587.024	0.076	0.190
-679.222	164.363	-0.193	-0.277
-678.208	800.000	-0.059	0.261
-677.193	0.849	0.165	-0.121
-676.178	-128.745	0.152	-0.022
-675.164	116.580	0.150	0.188
-674.149	-200.000	-0.000	0.176
-673.135	239.934	0.121	0.205
-672.120	800.000	-0.056	0.188
-671.105	56.430	-0.009	-0.009
-670.091	328.381	-0.146	0.285
-669.076	-50.963	-0.202	-0.097
-668.062	-200.000	0.011	0.165
-667.047	800.000	0.061	-0.189
-666.032	-65.916	-0.046	-0.019
-665.018	25.741	0.235	0.199
-664.003	-200.000	0.003	0.050
-662.989	7.995	0.168	0.128
-661.974	-0.966	0.084	-0.061
-660.959	281.665	-0.157	-0.286
-659.945	173.364	-0.069	0.102
-658.930	-199.526	0.284	-0.001
-657.916	334.274	-0.053	0.104
-656.901	715.279	0.005	0.013
-655.886	-130.470	-0.301	0.042
-654.872	638.321	-0.134	-0.347
-653.857	-200.000	0.028	0.198
-652.843	-200.000	-0.041	-0.381
-651.828	-200.000	0.005	0.141
-650.814	187.153	-0.096	-0.145
-649.799	-168.017	0.347	-0.014
-648.784	-34.607	-0.248	0.138
-647.770	502.808	-0.050	0.118
-646.755	-71.723	-0.201	0.076
-645.741	113.424	-0.088	0.108
-644.726	-142.508	0.298	0.030
-643.711	151.457	-0.156	0.216
-642.697	-200.000	-0.092	0.438
-641.682	-24.851	-0.111	-0.067
-640.668	-131.858	-0.217	0.029
-639.653	220.310	0.137	-0.223
-638.638	-166.602	-0.213	0.009
-637.624	180.436	-0.154	0.230
-636.609	-38.897	-0.133	0.071
-635.595	-200.000	0.023	0.307
-634.580	-200.000	0.016	0.190
-633.565	31.137	0.191	0.167
-632.551	-57.191	-0.133	0.060
-631.536	332.136	-0.157	-0.308
-630.522	-79.823	0.130	-0.044
-629.507	54.949	0.071	0.070
-628.492	168.697	-0.129	0.186
-627.478	800.000	-0.110	-0.358
-626.463	800.000	-0.072	-0.247
-625.449	-162.236	-0.260	-0.013
-624.434	-42.485	-0.133	-0.069
-623.419	374.706	-0.171	-0.354
-622.405	-89.127	-0.237	-0.071
-621.390	-63.599	0.300	0.125
-620.376	85.050	0.189	0.210
-619.361	93.992	-0.233	0.268
-618.346	174.477	-0.129	-0.190
-617.332	308.188	0.134	-0.254
-616.317	-160.631	0.367	0.020
-615.303	-200.000	0.025	-0.148
-614.288	148.401	0.198	-0.272
-613.273	-82.082	-0.150	-0.050
-612.259	172.076	-0.143	0.209
-611.244	580.448	-0.098	-0.245
-610.230	10.624	0.131	0.101
-609.215	-61.759	0.518	-0.220
-608.201	97.619	0.044	-0.051
-607.186	-200.000	-0.003	0.044
-606.171	-200.000	0.012	-0.132
-605.157	-148.265	0.190	-0.016
-604.142	-200.000	0.018	-0.151
-603.128	-164.276	0.279	0.013
-602.113	131.900	-0.089	0.116
-601.098	-200.000	0.100	-0.460
-600.084	459.117	-0.067	0.150
-599.069	-38.598	0.299	0.161
-598.055	25.953	-0.117	0.099
-597.040	-65.570	-0.183	0.075
-596.025	19.568	-0.273	0.223
-595.011	-115.051	0.262	-0.051
-593.996	334.243	-0.156	0.307
-592.982	800.000	-0.078	-0.313
-591.967	-200.000	-0.031	-0.261
-590.952	-136.826	0.086	-0.010
-589.938	-194.003	-0.107	-0.001
-588.923	-153.806	-0.356	-0.025
-587.909	-200.000	0.005	-0.086
-586.894	-162.645	-0.330	0.016
-585.879	-6.582	-0.190	-0.132
-584.865	195.835	-0.150	-0.231
-583.850	80.722	0.085	-0.093
-582.836	-0.417	-0.279	0.201
-581.821	47.860	-0.124	-0.117
-580.806	263.227	0.089	-0.157
-579.792	-49.058	-0.123	0.060
-578.777	81.934	-0.154	0.169
-577.763	800.000	-0.018	-0.062
-576.748	-132.324	-0.162	0.021
-575.733	47.378	0.106	-0.101
-574.719	-67.454	-0.242	0.097
-573.704	50.893	0.173	-0.166
-572.690	126.368	-0.146	0.187
-571.675	92.210	0.265	0.303
-570.661	84.770	-0.060	0.066
-569.646	800.000	-0.016	-0.063
-568.631	-200.000	-0.043	-0.211
-567.617	-40.420	-0.345	-0.182
-566.602	233.532	-0.017	-0.028
-565.588	390.353	-0.126	-0.264
-564.573	800.000	0.064	-0.275
-563.558	8.585	-0.098	0.075
-562.544	-139.045	0.208	0.023
-561.529	-68.200	-0.176	-0.070
-560.515	301.299	0.157	-0.294
-559.500	-8.717	-0.212	0.144
-558.485	192.785	-0.189	0.289
-557.471	10.075	0.210	0.162
-556.456	-21.836	0.278	0.171
-555.442	-200.000	0.031	-0.316
-554.427	-73.272	0.235	0.087
-553.412	-93.823	-0.099	-0.028
-552.398	58.227	0.085	-0.084
-551.383	-72.052	0.202	0.076
-550.369	-74.748	0.423	0.154
-549.354	421.969	0.076	0.165
-548.339	770.262	0.084	0.231
-547.325	330.653	0.082	-0.161
-546.310	800.000	0.059	-0.187
-545.296	800.000	-0.066	0.257
-544.281	30.644	-0.142	0.123
-543.266	-85.827	-0.290	-0.091
-542.252	-200.000	0.092	-0.475
-541.237	604.548	-0.049	-0.123
-540.223	524.394	0.034	-0.081
-539.208	-200.000	0.009	-0.204
-538.193	-114.941	0.266	-0.051
-537.179	156.591	0.128	0.180
-536.164	332.095	0.048	-0.093
-535.150	-34.189	0.300	0.167
-534.135	-190.518	0.231	-0.003
-533.121	-200.000	-0.016	-0.249
-532.106	252.717	-0.063	-0.109
-531.091	-76.980	-0.300	-0.106
-530.077	-19.064	0.044	-0.028
-529.062	-125.556	0.171	-0.026
-528.048	34.463	0.047	-0.042
-527.033	34.365	-0.097	0.085
-526.018	375.209	0.078	0.160
-525.004	-92.925	-0.208	-0.059
-523.989	-172.011	-0.194	-0.006
-522.975	800.000	-0.080	-0.244
-521.960	-132.381	-0.069	-0.009
-520.945	-200.000	-0.005	-0.075
-519.931	-200.000	0.009	-0.140
-518.916	141.205	0.234	-0.313
-517.902	-100.147	-0.152	-0.038
-516.887	511.145	0.054	0.127
-515.872	-10.108	0.150	0.101
-514.858	-200.000	0.049	-0.229
-513.843	7.481	-0.249	-0.189
-512.829	-106.298	0.196	-0.044
-511.814	-90.735	-0.148	0.043
-510.799	-72.953	0.233	0.087
-509.785	800.000	-0.096	0.296
-508.770	800.000	0.083	-0.363
-507.756	-101.564	0.008	0.002
-506.741	64.992	0.132	0.135
-505.726	267.309	0.065	-0.115
-504.712	-157.165	-0.272	0.017
-503.697	-82.159	-0.402	-0.133
-502.683	86.879	0.183	0.204
-501.668	544.327	-0.020	0.048
-500.653	-50.002	-0.218	0.105
-499.639	-15.630	-0.238	0.154
-498.624	188.760	-0.079	0.120
-497.610	-47.476	-0.188	-0.093
-496.595	800.000	0.091	-0.265
-495.581	-200.000	-0.013	-0.422
-494.566	-125.421	0.391	0.060
-493.551	-58.138	-0.170	0.075
-492.537	53.130	0.072	0.070
-491.522	-68.667	-0.127	0.050
-490.508	-34.015	-0.243	0.135
-489.493	-42.115	0.187	-0.097
-488.478	-31.090	-0.102	-0.058
-487.464	-200.000	0.045	0.312
-486.449	72.980	-0.143	-0.151
-485.435	-43.376	-0.139	-0.071
-484.420	-96.281	-0.211	0.057
-483.405	-200.000	-0.020	-0.110
-482.391	468.007	0.063	0.142
-481.376	800.000	-0.044	0.172
-480.362	-200.000	-0.029	-0.172
-479.347	-200.000	0.009	0.104
-478.332	-200.000	0.003	-0.126
-477.318	-14.603	0.151	0.098
-476.303	77.740	-0.103	-0.111
-475.289	-107.883	-0.527	-0.116
-474.274	-200.000	-0.008	0.081
-473.259	-200.000	0.022	-0.165
-472.245	127.206	0.207	0.266
-471.230	-11.606	-0.293	0.195
-470.216	149.732	0.083	0.114
-469.201	415.297	0.183	0.395
-468.186	-200.000	0.058	0.360
-467.172	800.000	-0.073	-0.264
-466.157	800.000	0.047	-0.166
-465.143	-200.000	-0.018	0.085
-464.128	-16.293	-0.017	0.011
-463.113	36.882	0.088	0.079
-462.099	-73.372	-0.102	0.038
-461.084	-45.490	-0.451	-0.226
-460.070	-200.000	-0.001	-0.100
-459.055	115.371	0.228	-0.282
-458.040	-19.644	0.071	0.044
-457.026	800.000	0.110	0.405
-456.011	-72.562	0.083	0.031
-454.997	-33.054	0.164	-0.092
-453.982	-200.000	-0.019	-0.162
-452.968	-105.930	-0.037	0.008
-451.953	800.000	-0.011	-0.044
-450.938	-145.304	0.117	-0.011
-449.924	-101.209	-0.145	-0.036
-448.909	-157.530	0.243	-0.015
-447.895	-200.000	0.034	-0.287
-446.880	772.843	-0.012	0.034
-445.865	-118.279	0.225	0.040
-444.851	-200.000	-0.008	0.114
-443.836	73.408	-0.256	-0.270
-442.822	-55.227	0.161	0.073
-441.807	203.825	-0.158	0.248
-440.792	-31.986	-0.208	0.118
-439.778	-70.349	-0.127	-0.049
-438.763	-70.902	-0.346	-0.131
-437.749	184.009	0.182	0.271
-436.734	-19.316	-0.188	-0.117
-435.719	-26.539	0.306	0.181
-434.705	-87.436	-0.337	-0.103
-433.690	-64.488	-0.260	0.107
-432.676	-76.652	0.156	-0.055
-431.661	-71.032	-0.187	-0.071
-430.646	-8.067	-0.406	0.276
-429.632	-103.388	0.213	0.051
-428.617	800.000	0.004	0.015
-427.603	800.000	-0.024	0.102
-426.588	-122.767	0.051	-0.008
-425.573	-34.213	0.426	0.236
-424.559	-99.916	-0.424	0.107
-423.544	-99.431	0.345	-0.088
-422.530	321.755	0.105	-0.202
-421.515	-18.564	-0.274	0.173
-420.500	-121.768	-0.253	0.042
-419.486	-73.358	-0.325	-0.120
-418.471	494.690	0.083	0.191
-417.457	-200.000	0.014	-0.409
-416.442	-200.000	0.020	-0.177
-415.428	-118.294	-0.119	-0.021
-414.413	-31.924	-0.033	0.019
-413.398	800.000	0.058	0.169
-412.384	192.594	-0.065	-0.098
-411.369	194.105	-0.117	-0.179
-410.355	-31.010	-0.336	0.191
-409.340	44.050	0.266	0.246
-408.325	152.303	0.107	0.147
-407.311	-84.574	-0.201	0.064
-406.296	-32.214	-0.162	0.091
-405.282	-107.090	-0.225	-0.050
-404.267	-7.310	0.056	0.038
-403.252	800.000	0.092	-0.318
-402.238	-12.267	0.205	0.135
-401.223	800.000	0.023	0.065
-400.209	101.601	0.298	0.350
-399.194	24.126	0.158	0.132
-398.179	800.000	-0.034	0.120
-397.165	-109.544	-0.297	-0.063
-396.150	-26.297	0.050	0.029
-395.136	244.001	-0.097	-0.164
-394.121	-81.835	-0.320	-0.106
-393.106	141.162	-0.187	0.249
-392.092	-200.000	-0.005	-0.263
-391.077	-9.885	-0.075	0.050
-390.063	-110.878	0.200	-0.041
-389.048	-94.019	-0.153	-0.042
-388.033	-40.764	0.046	-0.024
-387.019	800.000	-0.071	-0.214
-386.004	-71.265	-0.105	0.040
-384.990	-200.000	0.018	0.274
-383.975	23.619	-0.293	0.243
-382.960	198.782	0.138	0.213
-381.946	-200.000	0.010	-0.084
-380.931	800.000	0.061	0.225
-379.917	-162.210	0.192	-0.010
-378.902	-200.000	-0.004	0.140
-377.888	-67.723	-0.130	-0.051
-376.873	-104.066	-0.163	-0.038
-375.858	800.000	-0.021	0.076
-374.844	8.784	0.187	-0.142
-373.829	800.000	-0.102	0.342
-372.815	-21.820	-0.149	-0.092
-371.800	746.082	0.152	0.411
-370.785	-11.501	0.336	-0.223
-369.771	710.888	-0.045	-0.121
-368.756	800.000	-0.088	-0.278
-367.742	25.457	0.131	0.109
-366.727	27.744	0.303	-0.257
-365.712	-200.000	0.022	0.178
-364.698	33.056	0.142	-0.124
-363.683	41.779	-0.112	0.102
-362.669	-200.000	0.003	0.122
-361.654	322.510	0.079	0.151
-360.639	119.547	-0.092	-0.114
-359.625	431.652	-0.065	-0.143
-358.610	-58.568	0.085	-0.037
-357.596	-200.000	-0.010	-0.397
-356.581	-199.666	0.228	0.001
-355.566	-66.104	-0.132	0.053
-354.552	-47.870	-0.154	0.075
-353.537	128.772	0.220	-0.282
-352.523	-148.432	-0.288	-0.024
-351.508	16.858	0.134	0.106
-350.493	-200.000	-0.062	-0.412
-349.479	-200.000	-0.027	0.154
-348.464	15.826	-0.265	-0.210
-347.450	-77.492	0.450	0.157
-346.435	48.116	0.122	-0.115
-345.420	597.188	0.030	-0.074
-344.406	61.799	-0.043	-0.043
-343.391	282.758	0.059	-0.107
-342.377	800.000	0.029	0.126
-341.362	-22.427	-0.127	-0.078
-340.348	105.523	-0.148	0.175
-339.333	268.022	-0.042	-0.075
-338.318	-56.660	-0.130	-0.058
-337.304	-60.103	0.304	0.130
-336.289	424.548	0.089	0.192
-335.275	107.285	-0.112	0.134
-334.260	-162.092	0.129	0.007
-333.245	-181.076	-0.236	-0.005
-332.231	-200.000	0.001	0.228
-331.216	-200.000	-0.015	0.196
-330.202	-200.000	0.018	-0.384
-329.187	548.121	0.074	-0.178
-328.172	-35.410	-0.105	0.057
-327.158	-200.000	-0.026	-0.220
-326.143	-153.251	-0.372	-0.026
-325.129	-121.166	0.175	-0.029
-324.114	-101.179	0.401	-0.099
-323.099	800.000	0.105	0.364
-322.085	58.475	0.265	0.261
-321.070	32.958	-0.039	0.034
-320.056	-200.000	0.009	0.149
-319.041	800.000	0.020	-0.081
-318.026	-125.469	0.229	0.035
-317.012	-21.984	-0.088	-0.054
-315.997	-29.853	0.188	0.107
-314.983	-74.620	-0.137	0.049
-313.968	-66.655	-0.013	-0.005
-312.953	-200.000	-0.005	0.265
-311.939	611.917	0.027	0.069
-310.924	-55.893	0.186	-0.083
-309.910	800.000	-0.064	0.213
-308.895	-53.394	-0.551	0.253
-307.880	-118.925	0.348	-0.061
-306.866	485.165	-0.054	-0.122
-305.851	-200.000	0.034	-0.181
-304.837	-30.877	0.165	0.094
-303.822	514.981	-0.150	0.351
-302.807	179.461	0.061	0.090
-301.793	581.793	-0.029	-0.073
-300.778	-157.444	-0.147	0.009
-299.764	-116.068	-0.402	0.075
-298.749	121.521	0.213	-0.266
-297.735	112.396	0.193	-0.234
-296.720	-17.962	0.055	0.034
-295.705	-125.034	0.220	-0.034
-294.691	16.716	0.208	-0.165
-293.676	800.000	0.053	0.228
-292.662	115.132	0.251	0.307
-291.647	409.436	0.089	-0.190
-290.632	-132.298	0.336	0.044
-289.618	800.000	0.023	-0.092
-288.603	-168.952	-0.249	-0.009
-287.589	-200.000	-0.094	-0.000
-286.574	800.000	0.066	-0.200
-285.559	476.900	-0.111	0.251
-284.545	354.165	0.051	0.102
-283.530	-53.497	0.131	-0.060
-282.516	-105.411	0.168	0.038
-281.501	-81.755	-0.098	0.032
-280.486	-200.000	-0.010	0.166
-279.472	41.521	0.045	-0.041
-278.457	-13.513	0.193	0.126
-277.443	800.000	0.094	0.280
-276.428	-108.978	0.142	-0.030
-275.413	800.000	0.056	0.205
-274.399	-10.004	0.171	-0.114
-273.384	174.422	-0.177	0.257
-272.370	-84.971	0.067	-0.021
-271.355	-200.000	-0.013	0.153
-270.340	-50.428	0.113	0.054
-269.326	392.718	0.132	0.274
-268.311	-200.000	0.022	0.100
-267.297	-94.160	-0.340	-0.093
-266.282	-66.377	0.074	0.029
-265.267	304.844	0.069	0.129
-264.253	1.473	0.235	0.170
-263.238	800.000	-0.020	-0.076
-262.224	16.285	-0.347	0.274
-261.209	-169.537	-0.231	0.008
-260.195	89.440	0.272	-0.304
-259.180	-62.595	0.217	0.090
-258.165	22.012	-0.129	0.106
-257.151	146.599	-0.073	0.098
-256.136	-141.117	0.023	-0.002
-255.122	800.000	0.058	0.221
-254.107	-51.464	-0.112	0.053
-253.092	-77.034	-0.357	-0.125
-252.078	526.401	0.121	-0.285
-251.063	127.484	-0.033	-0.043
-250.049	-109.100	0.227	0.048
-249.034	-48.953	0.057	0.027
-248.019	-200.000	-0.010	-0.129
-247.005	-43.895	0.240	0.121
-245.990	-31.714	-0.149	0.084
-244.976	-82.226	0.060	0.020
-243.961	-168.207	0.199	-0.008
-242.946	-164.711	-0.141	0.006
-241.932	-200.000	-0.069	-0.479
-240.917	-58.753	0.037	-0.016
-239.903	-100.548	-0.379	-0.094
-238.888	-145.281	0.195	0.018
-237.873	346.166	0.073	-0.144
-236.859	31.148	-0.120	0.103
-235.844	0.174	-0.218	-0.156
-234.830	-72.327	-0.208	-0.077
-233.815	-200.000	-0.042	-0.251
-232.800	800.000	-0.012	0.033
-231.786	-146.438	-0.053	0.005
-230.771	28.525	-0.128	-0.109
-229.757	74.361	0.101	0.106
-228.742	117.499	0.286	0.352
-227.727	-17.241	-0.054	-0.034
-226.713	-200.000	-0.010	-0.413
-225.698	-114.553	-0.178	0.034
-224.684	58.003	-0.065	0.064
-223.669	-135.682	-0.341	-0.040
-222.655	800.000	-0.076	-0.223
-221.640	-95.485	-0.297	-0.080
-220.625	-142.626	0.292	0.029
-219.611	-200.000	-0.017	0.290
-218.596	173.040	0.037	-0.053
-217.582	-22.103	-0.332	0.202
-216.567	-83.071	0.102	-0.033
-215.552	-123.561	0.113	-0.018
-214.538	800.000	0.100	-0.348
-213.523	800.000	-0.107	0.347
-212.509	-61.720	0.346	-0.145
-211.494	8.391	0.227	-0.171
-210.479	-200.000	-0.030	-0.324
-209.465	-108.901	-0.383	-0.082
-208.450	508.990	-0.033	-0.077
-207.436	-33.517	0.322	0.178
-206.421	33.754	0.081	-0.071
-205.406	-144.064	0.261	-0.024
-204.392	60.978	-0.050	-0.050
-203.377	78.198	-0.203	-0.216
-202.363	-19.242	0.147	-0.092
-201.348	98.726	-0.034	0.040
-200.333	800.000	-0.077	0.331
-199.319	-109.706	0.260	0.055
-198.304	-89.569	-0.213	-0.062
-197.290	679.071	0.067	-0.174
-196.275	145.400	-0.038	0.051
-195.260	-151.373	0.139	0.010
-194.246	-51.965	-0.198	-0.092
-193.231	-8.579	0.112	0.075
-192.217	-39.299	0.346	-0.181
-191.202	98.250	0.071	0.082
-190.187	-8.693	0.164	0.110
-189.173	-152.731	0.012	0.001
-188.158	-94.205	0.150	-0.041
-187.144	273.000	-0.090	-0.159
-186.129	342.528	0.082	0.161
-185.114	29.977	-0.119	0.102
-184.100	726.384	-0.061	-0.163
-183.085	203.592	0.027	-0.042
-182.071	41.763	0.239	-0.216
-181.056	73.642	0.065	-0.068
-180.042	160.635	0.105	0.146
-179.027	-200.000	-0.001	0.013
-178.012	2.609	-0.221	-0.160
-176.998	445.507	-0.107	-0.234
-175.983	800.000	0.050	0.139
-174.969	-95.026	0.244	-0.066
-173.954	81.426	0.237	0.256
-172.939	-18.968	0.226	0.140
-171.925	-121.559	0.373	0.062
-170.910	800.000	-0.085	-0.239
-169.896	-124.191	-0.340	-0.053
-168.881	-200.000	-0.069	0.302
-167.866	-33.232	0.292	-0.161
-166.852	-88.757	0.287	0.085
-165.837	-19.764	-0.169	-0.104
-164.823	388.314	-0.062	-0.128
-163.808	-200.000	0.034	0.278
-162.793	-145.112	0.479	-0.043
-161.779	-200.000	-0.015	0.104
-160.764	-200.000	0.092	-0.444
-159.750	-51.822	-0.098	-0.045
-158.735	-33.016	0.284	0.157
-157.720	-170.877	0.412	0.014
-156.706	-61.367	0.144	0.061
-155.691	-177.412	-0.259	0.006
-154.677	-117.560	-0.312	0.056
-153.662	-64.623	0.281	-0.114
-152.647	-16.928	0.129	0.081
-151.633	-63.939	-0.182	-0.074
-150.618	242.474	-0.096	-0.161
-149.604	-185.844	0.258	0.004
-148.589	480.978	0.141	-0.319
-147.574	722.996	0.120	0.320
-146.560	-17.389	-0.097	0.061
-145.545	-200.000	-0.006	-0.053
-144.531	800.000	-0.038	0.160
-143.516	329.297	-0.243	0.467
-142.502	-200.000	-0.000	-0.130
-141.487	-35.042	0.150	0.081
-140.472	-62.606	0.574	0.238
-139.458	8.730	0.063	0.047
-138.443	800.000	-0.114	-0.347
-137.429	-200.000	-0.005	0.199
-136.414	3.273	-0.327	0.237
-135.399	-17.055	-0.320	-0.201
-134.385	322.736	-0.057	0.109
-133.370	800.000	0.096	0.398
-132.356	61.377	-0.311	0.308
-131.341	79.455	-0.167	0.178
-130.326	-200.000	0.006	0.198
-129.312	-200.000	-0.000	0.280
-128.297	-60.757	0.363	0.153
-127.283	63.570	0.172	-0.173
-126.268	62.432	0.091	-0.091
-125.253	-200.000	0.043	-0.192
-124.239	22.243	-0.133	0.109
-123.224	-200.000	-0.003	-0.090
-122.210	-137.677	0.134	-0.015
