DTS Sentinel unit serial number:	SN413079Multiplexer serial number:	ORYXHardware model number:	OX4-SRSoftware version number:	ORYX F/W v4.00 Oryx Data Collector v3.7.2.0data status	okinstallation	princeton_trtdifferential loss correction	single-endedforward channel	channel 4reverse channel	N/Adate	2019/09/13time	20:25:34forward acquisition time	60.00reverse acquisition time	0.00gamma	496.2192k internal	0.2318k external	0.2318temperature offset calibration	1.0129default loss term (dB/km)	0.3790temperature slope calibration	1.0000multiplexer offset coefficient	1.0000multiplexer slope coefficient	1.0000fibre end	0.00T internal ref (°C)	29.19T ext. ref 1 (°C)	3.15T ext. ref 2 (°C)	23.63length (m)	temperature (°C)	Stokes	anti-Stokes-747.200	-200.000	-0.024	0.134
-746.185	399.594	0.071	-0.151
-745.171	280.349	0.141	-0.255
-744.156	-72.030	0.119	-0.045
-743.142	7.696	0.250	0.189
-742.127	-200.000	-0.054	-0.242
-741.112	800.000	0.082	-0.282
-740.098	-86.466	-0.547	0.170
-739.083	-114.848	0.242	0.047
-738.069	714.619	0.073	0.195
-737.054	318.934	-0.069	0.133
-736.039	4.036	-0.121	-0.089
-735.025	-93.911	-0.124	0.034
-734.010	800.000	-0.029	0.089
-732.996	231.308	0.126	-0.210
-731.981	-128.395	-0.194	-0.028
-730.966	-29.679	0.168	-0.097
-729.952	42.434	0.110	-0.102
-728.937	-44.663	-0.223	-0.113
-727.923	-139.108	-0.377	-0.041
-726.908	97.530	0.100	-0.116
-725.894	-29.810	-0.223	-0.129
-724.879	-200.000	0.020	-0.156
-723.864	102.716	0.296	-0.350
-722.850	234.428	-0.135	0.225
-721.835	800.000	-0.093	-0.289
-720.821	246.437	-0.010	-0.017
-719.806	-200.000	-0.040	-0.355
-718.791	631.282	0.023	0.059
-717.777	-64.200	-0.201	0.083
-716.762	129.822	0.206	0.267
-715.748	-200.000	-0.013	-0.313
-714.733	-104.827	-0.578	0.134
-713.718	-200.000	0.036	0.338
-712.704	-11.570	-0.237	-0.157
-711.689	27.400	-0.281	-0.239
-710.675	-29.706	-0.072	0.041
-709.660	-63.766	0.230	0.095
-708.645	-132.817	0.322	0.042
-707.631	-200.000	-0.020	-0.243
-706.616	265.866	0.181	0.320
-705.602	-162.382	0.049	-0.002
-704.587	-164.557	-0.338	-0.015
-703.572	228.999	0.083	0.137
-702.558	-136.065	0.082	-0.010
-701.543	-200.000	0.016	0.171
-700.529	-135.486	-0.121	-0.015
-699.514	-148.479	0.392	0.032
-698.499	477.625	0.024	-0.055
-697.485	71.360	-0.020	0.021
-696.470	-142.283	0.213	-0.021
-695.456	-65.279	-0.019	-0.008
-694.441	75.127	0.192	-0.204
-693.426	429.578	-0.077	-0.167
-692.412	107.390	-0.223	-0.268
-691.397	-58.450	-0.061	-0.027
-690.383	280.288	0.055	0.099
-689.368	-57.898	-0.049	0.022
-688.354	800.000	0.045	-0.190
-687.339	797.768	0.036	-0.101
-686.324	-107.623	0.365	-0.081
-685.310	-35.845	-0.086	-0.047
-684.295	-179.641	-0.274	-0.006
-683.281	-200.000	0.006	-0.158
-682.266	-200.000	0.030	-0.218
-681.251	47.788	-0.234	-0.221
-680.237	168.109	0.130	0.186
-679.222	50.321	-0.131	-0.125
-678.208	-200.000	0.010	0.269
-677.193	-104.805	0.128	0.030
-676.178	218.962	0.209	-0.337
-675.164	56.952	-0.179	-0.176
-674.149	-172.891	-0.159	-0.005
-673.135	160.628	-0.192	-0.271
-672.120	-87.328	-0.260	0.080
-671.105	-47.784	-0.204	0.100
-670.091	519.297	0.136	0.322
-669.076	-31.426	-0.035	0.020
-668.062	290.545	-0.113	0.206
-667.047	25.058	0.383	-0.320
-666.032	303.919	-0.117	-0.218
-665.018	180.505	0.039	0.058
-664.003	64.056	0.156	0.158
-662.989	-25.328	-0.022	0.013
-661.974	-88.248	0.226	-0.068
-660.959	509.542	-0.107	0.251
-659.945	-120.852	-0.295	-0.050
-658.930	-63.665	0.126	0.052
-657.916	85.395	0.151	0.167
-656.901	89.833	0.049	0.055
-655.886	-200.000	0.019	-0.289
-654.872	800.000	-0.037	0.112
-653.857	-21.327	-0.220	0.136
-652.843	-72.904	-0.079	0.029
-651.828	-42.794	-0.203	-0.104
-650.814	-83.849	-0.508	-0.163
-649.799	368.925	0.063	0.129
-648.784	324.769	-0.068	0.131
-647.770	-131.758	0.150	0.020
-646.755	-200.000	-0.007	0.259
-645.741	800.000	0.130	0.525
-644.726	35.291	-0.171	-0.151
-643.711	-200.000	-0.065	-0.345
-642.697	-33.266	-0.160	-0.089
-641.682	-82.141	-0.131	0.043
-640.668	-81.053	0.055	-0.018
-639.653	70.069	-0.158	-0.164
-638.638	183.869	-0.216	-0.321
-637.624	30.189	-0.461	0.396
-636.609	-106.500	0.209	0.047
-635.595	342.556	-0.127	0.250
-634.580	-200.000	0.015	0.080
-633.565	68.509	-0.143	-0.147
-632.551	-117.411	-0.116	0.021
-631.536	125.173	-0.221	-0.281
-630.522	-16.053	-0.361	0.231
-629.507	56.397	-0.203	0.199
-628.492	-89.072	0.212	-0.063
-627.478	-200.000	-0.033	0.150
-626.463	800.000	0.089	-0.255
-625.449	-56.625	0.546	-0.244
-624.434	26.431	-0.051	-0.043
-623.419	-47.021	-0.185	-0.091
-622.405	459.012	0.101	-0.226
-621.390	-193.076	0.158	-0.001
-620.376	29.283	-0.137	0.117
-619.361	208.499	-0.081	-0.127
-618.346	800.000	0.058	-0.238
-617.332	-113.117	-0.182	0.036
-616.317	415.404	0.136	-0.291
-615.303	-99.513	-0.235	-0.060
-614.288	98.515	-0.094	-0.109
-613.273	-37.676	0.215	-0.115
-612.259	-11.660	-0.188	-0.124
-611.244	34.302	0.186	-0.163
-610.230	203.631	-0.182	-0.283
-609.215	31.636	-0.281	0.243
-608.201	69.841	0.168	-0.175
-607.186	-200.000	0.040	-0.197
-606.171	-99.656	-0.102	0.026
-605.157	-124.167	-0.320	-0.050
-604.142	-147.482	-0.285	-0.024
-603.128	50.362	-0.073	-0.069
-602.113	-62.875	0.047	-0.020
-601.098	-51.375	-0.158	-0.074
-600.084	40.475	-0.085	-0.077
-599.069	800.000	0.061	-0.255
-598.055	430.450	0.064	0.140
-597.040	668.972	0.158	0.410
-596.025	163.207	0.094	0.133
-595.011	-122.542	-0.145	0.024
-593.996	-100.168	0.088	-0.022
-592.982	92.290	-0.021	0.024
-591.967	254.780	0.148	-0.255
-590.952	23.585	0.160	-0.132
-589.938	800.000	0.011	-0.045
-588.923	-5.678	-0.205	-0.141
-587.909	-200.000	0.023	0.256
-586.894	-200.000	-0.034	-0.164
-585.879	17.197	-0.248	-0.198
-584.865	340.671	0.111	0.217
-583.850	388.451	-0.090	-0.186
-582.836	48.289	-0.189	0.178
-581.821	472.561	-0.048	-0.108
-580.806	4.814	0.159	-0.118
-579.792	90.507	0.019	0.022
-578.777	-61.072	-0.362	-0.154
-577.763	-71.188	0.246	-0.093
-576.748	6.098	0.097	0.072
-575.733	695.613	0.074	-0.195
-574.719	23.372	-0.363	-0.300
-573.704	764.480	0.059	0.162
-572.690	-200.000	0.055	-0.375
-571.675	800.000	0.063	-0.196
-570.661	292.973	0.197	0.361
-569.646	69.187	-0.239	-0.247
-568.631	800.000	-0.138	-0.600
-567.617	-148.287	-0.375	-0.031
-566.602	219.028	0.191	0.307
-565.588	-54.110	0.246	-0.112
-564.573	-9.663	0.222	-0.149
-563.558	-200.000	0.056	0.262
-562.544	-51.356	-0.408	0.192
-561.529	344.535	-0.130	-0.257
-560.515	-200.000	0.051	0.373
-559.500	158.060	-0.216	0.301
-558.485	169.852	-0.012	-0.017
-557.471	151.404	0.190	-0.260
-556.456	-73.772	0.085	-0.031
-555.442	64.477	-0.054	0.054
-554.427	411.479	-0.059	0.126
-553.412	429.280	-0.083	0.181
-552.398	-89.796	-0.211	0.062
-551.383	-85.904	-0.118	-0.037
-550.369	-141.289	0.266	-0.027
-549.354	148.424	0.173	-0.235
-548.339	-130.391	-0.219	-0.030
-547.325	800.000	-0.035	-0.108
-546.310	800.000	-0.102	-0.350
-545.296	-154.716	-0.050	0.003
-544.281	-116.632	-0.270	-0.050
-543.266	800.000	0.114	0.333
-542.252	-200.000	-0.005	0.072
-541.237	-67.701	-0.123	-0.049
-540.223	201.185	-0.052	-0.080
-539.208	317.024	-0.105	0.200
-538.193	800.000	0.012	0.043
-537.179	-74.627	0.161	-0.058
-536.164	800.000	0.043	-0.158
-535.150	-112.100	-0.096	-0.019
-534.135	-200.000	0.032	-0.337
-533.121	-36.249	0.223	-0.121
-532.106	800.000	-0.062	-0.254
-531.091	-6.471	0.181	-0.124
-530.077	-200.000	0.057	-0.285
-529.062	36.936	-0.270	-0.240
-528.048	-182.059	0.145	-0.003
-527.033	237.015	-0.079	0.131
-526.018	-200.000	0.010	-0.265
-525.004	22.131	0.201	-0.165
-523.989	-75.747	-0.477	-0.170
-522.975	624.499	-0.057	-0.145
-521.960	130.726	0.073	0.094
-520.945	-83.598	-0.049	0.016
-519.931	-35.299	-0.334	0.182
-518.916	-65.067	0.406	-0.165
-517.902	197.180	0.066	-0.100
-516.887	29.619	-0.333	-0.284
-515.872	155.300	-0.078	0.108
-514.858	36.780	-0.211	0.187
-513.843	-148.331	-0.010	-0.001
-512.829	260.364	0.058	0.101
-511.814	-21.696	0.106	-0.065
-510.799	397.918	-0.085	-0.179
-509.785	-148.961	0.111	0.009
-508.770	-48.291	-0.417	-0.202
-507.756	128.533	0.178	-0.228
-506.741	-200.000	-0.022	0.097
-505.726	-24.674	-0.077	-0.046
-504.712	800.000	0.027	0.091
-503.697	-200.000	0.038	-0.259
-502.683	-168.461	-0.369	0.014
-501.668	-200.000	-0.045	-0.254
-500.653	58.098	0.188	-0.185
-499.639	281.481	-0.112	-0.201
-498.624	-45.695	-0.174	0.086
-497.610	-111.895	0.147	-0.030
-496.595	106.616	0.049	-0.058
-495.581	-90.339	-0.098	0.029
-494.566	-2.090	0.105	0.074
-493.551	229.963	-0.069	-0.113
-492.537	172.057	-0.076	0.110
-491.522	-20.537	0.218	0.134
-490.508	-81.984	-0.228	-0.075
-489.493	495.188	-0.136	0.314
-488.478	800.000	0.038	-0.147
-487.464	-44.712	-0.227	-0.114
-486.449	100.632	-0.078	-0.091
-485.435	116.806	0.354	0.436
-484.420	-31.609	-0.218	-0.123
-483.405	189.418	0.162	0.243
-482.391	58.379	0.116	0.114
-481.376	800.000	0.013	0.036
-480.362	-122.795	-0.140	-0.023
-479.347	69.995	0.136	-0.140
-478.332	447.234	0.021	-0.047
-477.318	-170.329	-0.234	0.008
-476.303	-76.375	-0.336	0.119
-475.289	111.822	-0.232	-0.281
-474.274	-58.143	-0.256	-0.112
-473.259	399.008	-0.127	0.267
-472.245	-145.481	-0.434	-0.039
-471.230	-50.195	0.181	0.086
-470.216	-106.376	0.138	-0.031
-469.201	-100.634	0.091	0.023
-468.186	-17.685	0.180	0.113
-467.172	61.428	-0.096	-0.095
-466.157	294.059	0.184	-0.336
-465.143	199.820	-0.065	-0.100
-464.128	-32.425	0.169	-0.094
-463.113	-33.502	-0.161	0.089
-462.099	-200.000	-0.005	-0.099
-461.084	-200.000	0.026	0.401
-460.070	-90.710	-0.122	0.035
-459.055	148.249	-0.323	-0.437
-458.040	-0.051	-0.235	-0.168
-457.026	-30.815	0.052	0.029
-456.011	38.918	0.058	-0.052
-454.997	-200.000	-0.018	-0.522
-453.982	-200.000	-0.014	-0.287
-452.968	800.000	0.101	-0.302
-451.953	511.497	0.105	0.246
-450.938	22.624	-0.084	0.068
-449.924	-95.893	-0.095	0.025
-448.909	127.040	-0.062	-0.078
-447.895	-75.283	-0.207	-0.074
-446.880	-69.374	0.238	-0.091
-445.865	-76.076	-0.254	-0.090
-444.851	-30.702	0.303	-0.171
-443.836	-42.005	0.090	-0.046
-442.822	42.770	0.132	-0.120
-441.807	-200.000	0.070	0.518
-440.792	265.880	-0.106	-0.185
-439.778	-39.729	0.232	0.121
-438.763	-200.000	-0.001	-0.036
-437.749	-87.201	-0.282	-0.086
-436.734	337.011	-0.095	0.184
-435.719	800.000	0.122	-0.449
-434.705	57.694	-0.147	0.144
-433.690	-40.298	0.077	-0.040
-432.676	-73.517	-0.158	0.058
-431.661	-200.000	0.116	0.000
-430.646	-200.000	0.009	0.241
-429.632	-200.000	-0.003	-0.099
-428.617	139.659	-0.074	-0.097
-427.603	172.628	0.279	-0.402
-426.588	-11.088	-0.181	0.119
-425.573	-200.000	-0.013	0.113
-424.559	97.450	0.055	-0.063
-423.544	800.000	0.132	0.460
-422.530	-51.273	-0.352	0.165
-421.515	-200.000	0.057	-0.323
-420.500	495.613	0.065	0.149
-419.486	130.069	-0.141	0.180
-418.471	-139.906	-0.311	-0.033
-417.457	-172.985	-0.026	-0.001
-416.442	153.835	-0.214	0.293
-415.428	-64.854	0.196	0.079
-414.413	39.917	-0.094	0.084
-413.398	315.779	-0.170	0.320
-412.384	-61.449	0.212	-0.089
-411.369	363.318	-0.109	0.218
-410.355	-37.107	0.362	-0.194
-409.340	-60.326	0.251	0.107
-408.325	182.874	-0.126	0.185
-407.311	202.815	0.125	0.193
-406.296	95.819	-0.255	0.291
-405.282	419.190	-0.068	-0.146
-404.267	-139.507	-0.151	-0.016
-403.252	70.438	-0.157	0.162
-402.238	-12.339	0.174	-0.114
-401.223	18.872	-0.305	0.244
-400.209	400.628	0.204	-0.428
-399.194	455.841	0.055	0.121
-398.179	-123.408	-0.277	-0.044
-397.165	800.000	0.123	0.437
-396.150	195.638	0.180	-0.274
-395.136	-77.092	0.145	0.050
-394.121	-31.359	-0.305	0.171
-393.106	37.982	-0.153	0.135
-392.092	378.172	0.071	0.145
-391.077	-134.798	-0.202	-0.025
-390.063	-200.000	0.040	-0.220
-389.048	-200.000	0.093	0.409
-388.033	449.714	-0.076	0.168
-387.019	-89.009	-0.192	0.057
-386.004	-168.234	-0.152	-0.006
-384.990	-200.000	-0.015	0.121
-383.975	28.536	0.279	0.236
-382.960	-62.543	0.095	-0.039
-381.946	-111.862	-0.275	-0.056
-380.931	515.130	0.070	0.163
-379.917	204.358	0.070	0.108
-378.902	-111.159	-0.159	-0.033
-377.888	-60.527	-0.275	-0.117
-376.873	-79.959	-0.101	0.034
-375.858	39.740	0.164	-0.147
-374.844	132.598	0.113	-0.146
-373.829	-52.714	0.301	-0.139
-372.815	225.902	0.068	0.109
-371.800	-53.391	-0.271	-0.124
-370.785	168.922	0.118	-0.168
-369.771	39.308	0.207	-0.184
-368.756	174.692	0.169	-0.243
-367.742	-135.157	0.121	-0.014
-366.727	-50.648	0.430	-0.202
-365.712	144.203	-0.163	0.217
-364.698	278.374	-0.141	0.250
-363.683	169.472	-0.178	0.254
-362.669	800.000	-0.105	0.290
-361.654	-56.797	-0.249	0.110
-360.639	-173.036	-0.036	0.001
-359.625	-200.000	0.040	0.203
-358.610	-54.907	0.165	0.074
-357.596	-139.404	0.132	0.014
-356.581	-21.830	-0.056	-0.034
-355.566	800.000	-0.055	0.174
-354.552	-200.000	0.013	0.255
-353.537	-200.000	-0.026	0.132
-352.523	-139.696	0.301	-0.032
-351.508	198.052	-0.056	-0.086
-350.493	-200.000	0.001	-0.392
-349.479	-116.363	-0.101	0.019
-348.464	-90.573	-0.276	0.080
-347.450	-200.000	-0.028	-0.141
-346.435	143.000	0.163	0.216
-345.420	-107.068	0.233	0.051
-344.406	29.201	-0.219	0.185
-343.391	156.060	0.224	-0.308
-342.377	193.649	-0.046	-0.069
-341.362	60.222	0.165	0.163
-340.348	-146.244	0.082	-0.007
-339.333	-200.000	0.024	0.257
-338.318	-152.355	-0.288	0.021
-337.304	342.093	-0.021	-0.040
-336.289	-52.156	0.357	-0.165
-335.275	141.219	-0.110	0.144
-334.260	-200.000	-0.005	0.164
-333.245	-200.000	0.025	0.159
-332.231	800.000	0.019	-0.070
-331.216	101.380	0.053	0.061
-330.202	-44.131	0.092	-0.046
-329.187	-25.779	0.151	0.089
-328.172	800.000	-0.076	-0.259
-327.158	-107.082	0.072	-0.016
-326.143	-13.548	0.128	-0.083
-325.129	-200.000	-0.006	0.090
-324.114	219.148	0.250	0.399
-323.099	14.524	0.245	0.190
-322.085	-200.000	-0.001	-0.035
-321.070	800.000	0.018	0.063
-320.056	-99.262	0.284	-0.071
-319.041	182.398	-0.131	0.193
-318.026	800.000	0.079	0.305
-317.012	-163.212	0.312	-0.015
-315.997	-73.814	-0.067	-0.024
-314.983	-150.948	-0.125	-0.009
-313.968	380.352	0.020	-0.040
-312.953	-84.841	0.144	-0.045
-311.939	234.051	-0.167	0.275
-310.924	107.833	-0.135	0.160
-309.910	-66.319	0.679	0.269
-308.895	84.889	0.132	0.144
-307.880	798.012	-0.074	0.202
-306.866	576.161	0.140	0.340
-305.851	-200.000	-0.016	-0.162
-304.837	800.000	-0.080	-0.310
-303.822	717.751	0.038	-0.100
-302.807	-13.694	-0.120	0.077
-301.793	30.697	-0.138	0.118
-300.778	-200.000	-0.026	-0.232
-299.764	-200.000	-0.000	0.112
-298.749	-200.000	-0.038	-0.248
-297.735	800.000	0.064	-0.225
-296.720	108.230	0.149	-0.177
-295.705	218.019	0.156	-0.247
-294.691	432.193	-0.140	-0.302
-293.676	-121.280	0.254	-0.042
-292.662	532.499	-0.075	-0.177
-291.647	800.000	0.076	-0.226
-290.632	-200.000	0.069	0.328
-289.618	517.106	-0.114	0.265
-288.603	-109.477	-0.077	-0.016
-287.589	-125.905	0.148	0.022
-286.574	91.412	0.166	-0.185
-285.559	239.832	0.100	-0.165
-284.545	80.993	0.105	0.113
-283.530	-10.865	0.169	-0.111
-282.516	-51.745	0.146	0.068
-281.501	98.424	0.074	-0.084
-280.486	46.814	0.196	-0.181
-279.472	-200.000	-0.020	0.167
-278.457	188.462	-0.049	-0.073
-277.443	725.756	-0.055	-0.145
-276.428	-38.383	0.120	0.063
-275.413	510.256	0.089	0.206
-274.399	800.000	-0.116	0.396
-273.384	457.281	0.089	0.196
-272.370	320.087	0.034	0.064
-271.355	402.796	0.062	0.129
-270.340	11.260	0.307	0.234
-269.326	271.705	0.091	0.160
-268.311	-200.000	0.010	-0.449
-267.297	800.000	0.064	0.225
-266.282	107.922	0.064	0.075
-265.267	168.772	-0.088	-0.125
-264.253	-114.964	-0.156	0.030
-263.238	-11.874	0.103	0.067
-262.224	-144.630	0.203	-0.019
-261.209	46.980	-0.230	0.213
-260.195	-75.887	0.141	0.050
-259.180	-122.864	0.204	-0.033
-258.165	-107.680	-0.129	0.028
-257.151	-109.312	-0.105	-0.022
-256.136	23.106	0.170	0.139
-255.122	322.492	0.095	0.180
-254.107	-113.603	0.236	0.046
-253.092	-56.521	0.037	0.016
-252.078	-22.124	0.081	0.049
-251.063	-31.919	0.401	0.223
-250.049	-158.276	-0.183	0.011
-249.034	-106.745	-0.244	0.054
-248.019	800.000	0.059	0.240
-247.005	541.218	0.131	-0.310
-245.990	-139.016	0.214	-0.023
-244.976	322.811	0.088	-0.167
-243.961	-123.217	-0.082	0.013
-242.946	176.745	0.042	0.061
-241.932	-57.523	-0.221	0.096
-240.917	-54.649	0.310	0.139
-239.903	704.921	-0.041	0.108
-238.888	800.000	0.059	0.200
-237.873	243.784	0.154	0.256
-236.859	-139.282	-0.233	0.025
-235.844	-144.199	0.282	-0.026
-234.830	-175.155	-0.229	-0.006
-233.815	41.935	-0.156	0.140
-232.800	62.499	0.212	0.210
-231.786	-121.835	-0.180	0.029
-230.771	128.442	0.099	0.125
-229.757	163.951	0.206	-0.288
-228.742	-87.196	-0.288	-0.087
-227.727	46.946	0.073	-0.067
-226.713	-20.980	-0.082	0.050
-225.698	-200.000	-0.047	-0.221
-224.684	4.915	-0.129	-0.094
-223.669	160.921	0.083	-0.116
-222.655	-148.598	-0.239	0.019
-221.640	347.218	-0.221	0.431
-220.625	6.109	-0.030	-0.022
-219.611	229.527	0.118	-0.191
-218.596	15.662	0.063	0.049
-217.582	-119.787	0.558	0.095
-216.567	66.140	0.079	-0.079
-215.552	-34.045	-0.194	-0.106
-214.538	-98.416	-0.203	0.052
-213.523	-72.208	-0.327	0.120
-212.509	800.000	0.052	-0.219
-211.494	-153.695	0.231	0.016
-210.479	321.529	0.099	-0.187
-209.465	800.000	-0.057	-0.169
-208.450	-12.376	0.278	0.180
-207.436	93.810	0.109	-0.123
-206.421	-33.901	0.028	0.015
-205.406	-69.604	0.207	-0.079
-204.392	-85.139	0.286	0.089
-203.377	-136.699	-0.330	-0.038
-202.363	133.143	0.177	0.227
-201.348	-12.025	0.161	-0.104
-200.333	410.293	0.058	0.122
-199.319	-200.000	0.039	-0.171
-198.304	269.232	0.049	-0.085
-197.290	800.000	0.074	0.271
-196.275	-54.958	-0.108	-0.048
-195.260	135.803	-0.244	0.314
-194.246	-200.000	-0.050	0.286
-193.231	-50.598	-0.169	0.079
-192.217	-200.000	0.077	0.382
-191.202	-200.000	-0.069	0.376
-190.187	800.000	-0.043	-0.131
-189.173	-24.503	0.483	-0.285
-188.158	-108.265	-0.145	0.031
-187.144	67.229	0.307	0.310
-186.129	-200.000	0.001	-0.193
-185.114	-80.576	0.148	0.049
-184.100	-120.225	0.018	-0.003
-183.085	88.001	0.078	-0.086
-182.071	181.452	-0.198	-0.288
-181.056	-155.187	0.439	-0.028
-180.042	800.000	0.054	-0.205
-179.027	-47.094	-0.342	-0.165
-178.012	-74.597	-0.245	-0.087
-176.998	92.991	0.069	-0.077
-175.983	800.000	0.046	0.148
-174.969	20.738	-0.226	-0.181
-173.954	800.000	0.038	0.157
-172.939	293.373	-0.051	0.092
-171.925	-200.000	0.045	-0.237
-170.910	-38.893	0.198	-0.103
-169.896	-94.267	-0.138	0.037
-168.881	-120.697	-0.124	0.021
-167.866	12.918	-0.165	-0.126
-166.852	-200.000	-0.065	0.290
-165.837	-200.000	-0.031	0.468
-164.823	-159.540	0.282	0.015
-163.808	-69.888	-0.166	-0.063
-162.793	-112.883	0.345	-0.068
-161.779	154.412	-0.116	0.158
-160.764	51.394	0.094	0.088
-159.750	269.731	0.072	-0.124
-158.735	442.775	-0.049	-0.107
-157.720	-110.164	0.196	-0.040
-156.706	-123.062	0.562	0.089
-155.691	338.510	0.133	0.256
-154.677	-200.000	0.034	0.352
-153.662	340.618	0.083	-0.160
-152.647	94.411	-0.106	0.119
-151.633	800.000	0.087	-0.291
-150.618	-89.984	-0.165	0.047
-149.604	-200.000	0.010	0.304
-148.589	800.000	0.111	0.367
-147.574	800.000	0.033	-0.115
-146.560	187.577	0.120	0.176
-145.545	-127.079	-0.288	-0.042
-144.531	73.159	-0.171	0.177
-143.516	800.000	-0.093	0.340
-142.502	283.205	-0.159	0.283
-141.487	-120.836	-0.302	-0.050
-140.472	103.546	-0.124	0.144
-139.458	18.507	-0.128	0.101
-138.443	-76.982	0.038	-0.013
-137.429	-12.381	-0.242	-0.156
-136.414	-200.000	0.056	-0.266
-135.399	370.282	-0.181	-0.362
-134.385	-78.645	0.131	0.044
-133.370	-200.000	-0.026	0.193
-132.356	-31.175	-0.153	0.085
-131.341	221.401	-0.143	-0.227
-130.326	-158.024	0.327	0.019
-129.312	-106.443	0.127	-0.028
-128.297	322.641	-0.044	-0.084
-127.283	45.075	0.180	0.163
-126.268	696.256	-0.078	0.203
-125.253	16.117	-0.371	-0.289
-124.239	26.922	0.143	-0.119
-123.224	800.000	-0.088	-0.357
-122.210	-20.187	0.216	-0.132
