DTS Sentinel unit serial number:	SN413079Multiplexer serial number:	ORYXHardware model number:	OX4-SRSoftware version number:	ORYX F/W v4.00 Oryx Data Collector v3.7.2.0data status	okinstallation	princeton_trtdifferential loss correction	single-endedforward channel	channel 4reverse channel	N/Adate	2019/09/14time	00:45:35forward acquisition time	60.00reverse acquisition time	0.00gamma	496.2192k internal	0.2324k external	0.2324temperature offset calibration	1.0130default loss term (dB/km)	0.3790temperature slope calibration	1.0000multiplexer offset coefficient	1.0000multiplexer slope coefficient	1.0000fibre end	0.00T internal ref (°C)	26.42T ext. ref 1 (°C)	3.17T ext. ref 2 (°C)	21.09length (m)	temperature (°C)	Stokes	anti-Stokes-747.200	181.049	0.306	0.454
-746.185	-18.392	-0.198	0.125
-745.171	-140.675	-0.273	0.028
-744.156	-163.165	-0.343	0.017
-743.142	-159.187	-0.151	-0.009
-742.127	-49.240	-0.218	0.105
-741.112	-99.289	-0.278	0.071
-740.098	-200.000	-0.018	0.362
-739.083	-200.000	-0.019	0.297
-738.069	41.380	-0.308	0.281
-737.054	800.000	0.055	0.197
-736.039	94.898	-0.153	0.176
-735.025	-41.958	-0.231	0.119
-734.010	-64.674	-0.520	0.213
-732.996	168.030	-0.142	-0.204
-731.981	-116.596	-0.070	0.013
-730.966	-200.000	0.010	-0.294
-729.952	239.129	-0.209	-0.350
-728.937	172.817	-0.102	0.149
-727.923	516.209	-0.190	-0.447
-726.908	-87.685	-0.300	-0.091
-725.894	340.864	0.151	-0.298
-724.879	-200.000	0.003	-0.476
-723.864	96.833	0.175	-0.202
-722.850	800.000	0.101	-0.320
-721.835	-136.578	-0.530	-0.062
-720.821	-200.000	-0.041	-0.212
-719.806	-200.000	0.034	-0.251
-718.791	800.000	0.100	0.300
-717.777	11.933	-0.318	-0.247
-716.762	9.714	-0.207	0.158
-715.748	732.975	-0.084	0.227
-714.733	356.380	-0.038	-0.076
-713.718	278.130	0.068	-0.122
-712.704	212.188	-0.096	-0.153
-711.689	17.834	0.225	-0.181
-710.675	-118.337	-0.231	-0.041
-709.660	1.981	-0.268	0.195
-708.645	-14.355	-0.183	0.119
-707.631	-16.602	0.162	0.103
-706.616	15.228	-0.192	-0.152
-705.602	-68.075	-0.124	-0.049
-704.587	-14.696	-0.156	0.101
-703.572	-9.721	-0.233	0.156
-702.558	800.000	0.040	-0.119
-701.543	-74.411	-0.158	0.058
-700.529	75.989	0.086	-0.092
-699.514	98.475	-0.223	-0.259
-698.499	800.000	-0.033	-0.123
-697.485	-26.327	0.102	-0.061
-696.470	-200.000	-0.015	0.504
-695.456	269.135	0.134	-0.237
-694.441	-106.178	-0.226	0.051
-693.426	-177.333	0.157	0.004
-692.412	662.913	-0.152	0.394
-691.397	-200.000	0.001	-0.168
-690.383	207.002	-0.085	-0.134
-689.368	-21.987	0.195	-0.119
-688.354	-126.603	0.023	-0.003
-687.339	26.367	0.157	0.133
-686.324	-148.222	0.426	-0.035
-685.310	-115.159	0.184	0.035
-684.295	-151.981	-0.141	0.010
-683.281	-33.630	-0.245	0.136
-682.266	-200.000	0.019	-0.248
-681.251	-152.432	-0.495	-0.036
-680.237	757.953	0.196	0.534
-679.222	-36.135	-0.022	0.012
-678.208	149.830	-0.082	0.112
-677.193	160.831	-0.033	0.046
-676.178	800.000	-0.108	0.330
-675.164	-200.000	0.063	-0.480
-674.149	82.255	-0.235	0.257
-673.135	-72.010	0.065	-0.024
-672.120	-200.000	0.023	0.385
-671.105	-200.000	0.048	0.360
-670.091	-1.923	-0.201	0.142
-669.076	22.891	-0.119	-0.098
-668.062	-1.611	-0.183	0.130
-667.047	-105.029	-0.318	0.073
-666.032	142.121	-0.146	0.195
-665.018	-200.000	-0.039	-0.245
-664.003	197.222	0.046	-0.071
-662.989	-200.000	0.044	-0.268
-661.974	-82.211	-0.002	0.001
-660.959	-134.505	-0.186	-0.023
-659.945	800.000	-0.020	-0.066
-658.930	-31.910	-0.036	0.020
-657.916	-107.794	0.055	0.012
-656.901	-200.000	0.009	0.057
-655.886	-42.905	0.003	0.002
-654.872	-179.821	0.053	-0.001
-653.857	62.683	0.188	-0.189
-652.843	-15.375	0.190	-0.122
-651.828	8.684	-0.226	0.171
-650.814	800.000	-0.008	0.033
-649.799	800.000	-0.031	-0.119
-648.784	353.428	-0.125	0.249
-647.770	-6.674	-0.034	0.024
-646.755	800.000	0.083	0.253
-645.741	-75.031	-0.527	-0.190
-644.726	-29.455	0.281	-0.161
-643.711	-200.000	0.020	-0.097
-642.697	92.836	0.228	-0.259
-641.682	-200.000	0.008	-0.151
-640.668	90.367	-0.231	-0.260
-639.653	-36.095	-0.061	-0.033
-638.638	-163.282	0.372	-0.018
-637.624	439.717	0.119	-0.260
-636.609	117.074	-0.032	-0.040
-635.595	-86.537	-0.224	0.069
-634.580	69.955	0.337	0.349
-633.565	-86.427	0.018	-0.005
-632.551	-200.000	-0.024	-0.256
-631.536	-44.008	-0.172	0.087
-630.522	-87.385	-0.087	-0.026
-629.507	-200.000	0.055	-0.328
-628.492	26.943	0.071	0.059
-627.478	-200.000	0.024	0.243
-626.463	-200.000	-0.018	-0.107
-625.449	-92.141	0.334	0.095
-624.434	-200.000	0.003	-0.061
-623.419	34.139	-0.102	-0.089
-622.405	-7.448	0.172	-0.117
-621.390	-144.589	0.109	0.010
-620.376	31.196	0.158	-0.137
-619.361	-200.000	0.003	0.050
-618.346	12.538	-0.329	-0.255
-617.332	122.565	0.161	0.202
-616.317	-82.814	-0.162	-0.052
-615.303	800.000	-0.102	-0.319
-614.288	38.279	0.164	-0.146
-613.273	-80.283	-0.291	0.098
-612.259	-65.250	-0.172	-0.069
-611.244	-149.945	-0.285	-0.022
-610.230	-124.923	0.105	0.016
-609.215	-110.170	0.064	0.013
-608.201	57.215	0.186	-0.182
-607.186	-200.000	0.036	-0.330
-606.171	13.342	0.205	0.159
-605.157	-65.665	0.331	-0.133
-604.142	800.000	-0.164	0.484
-603.128	-111.114	-0.187	-0.039
-602.113	-107.748	0.228	0.050
-601.098	617.438	-0.100	0.251
-600.084	-68.401	-0.073	0.028
-599.069	-94.297	-0.029	0.008
-598.055	126.217	0.067	0.085
-597.040	-31.841	-0.453	-0.255
-596.025	-151.481	0.249	0.019
-595.011	37.734	-0.338	0.302
-593.996	134.426	0.086	-0.112
-592.982	-120.368	-0.106	0.018
-591.967	8.772	0.102	0.077
-590.952	800.000	0.074	-0.324
-589.938	-8.390	0.259	0.175
-588.923	-200.000	0.062	0.376
-587.909	-77.428	0.246	0.086
-586.894	-200.000	0.029	0.000
-585.879	-71.553	-0.367	-0.138
-584.865	-200.000	-0.022	-0.145
-583.850	-200.000	-0.035	0.212
-582.836	100.172	-0.128	-0.148
-581.821	-91.410	0.242	0.069
-580.806	-16.134	-0.289	0.184
-579.792	800.000	-0.128	0.377
-578.777	-57.108	0.195	0.086
-577.763	-127.300	-0.171	0.025
-576.748	-200.000	-0.003	-0.101
-575.733	479.629	0.045	-0.103
-574.719	-200.000	0.029	0.230
-573.704	-79.165	0.251	0.086
-572.690	-70.758	-0.179	-0.068
-571.675	-200.000	0.037	-0.258
-570.661	-200.000	0.028	0.179
-569.646	12.033	-0.022	0.017
-568.631	-9.871	0.094	0.063
-567.617	-33.397	0.188	-0.104
-566.602	-54.381	0.311	0.141
-565.588	-200.000	0.017	-0.092
-564.573	-20.912	0.410	0.252
-563.558	800.000	0.151	-0.464
-562.544	229.267	-0.045	-0.073
-561.529	267.511	-0.042	0.073
-560.515	608.577	0.045	0.112
-559.500	-200.000	0.080	-0.359
-558.485	-200.000	0.019	0.166
-557.471	-200.000	0.029	-0.156
-556.456	-148.257	0.239	0.020
-555.442	-200.000	-0.021	-0.398
-554.427	770.333	0.036	-0.097
-553.412	-20.768	0.213	-0.131
-552.398	108.025	-0.217	0.259
-551.383	412.754	-0.194	0.414
-550.369	-200.000	-0.010	0.121
-549.354	10.719	-0.282	0.216
-548.339	-33.937	-0.162	-0.089
-547.325	-38.181	0.167	-0.089
-546.310	-129.388	0.231	-0.032
-545.296	107.138	0.140	-0.166
-544.281	800.000	0.073	-0.209
-543.266	-146.174	-0.246	0.022
-542.252	-200.000	0.022	-0.209
-541.237	-106.719	0.405	0.090
-540.223	-95.729	-0.423	0.113
-539.208	-200.000	0.002	-0.135
-538.193	-50.694	0.096	-0.045
-537.179	-11.265	-0.125	0.083
-536.164	37.685	-0.118	-0.105
-535.150	-200.000	0.039	-0.286
-534.135	20.814	0.160	0.130
-533.121	-200.000	0.002	-0.026
-532.106	-10.803	-0.106	0.070
-531.091	573.071	-0.064	0.156
-530.077	38.761	0.218	-0.195
-529.062	-200.000	0.029	0.298
-528.048	800.000	-0.144	0.466
-527.033	-26.337	0.366	0.215
-526.018	-5.403	-0.329	0.226
-525.004	69.384	0.074	0.077
-523.989	60.901	0.156	0.155
-522.975	428.225	-0.127	0.275
-521.960	141.229	-0.086	0.114
-520.945	0.020	0.125	0.089
-519.931	141.017	0.206	-0.273
-518.916	-21.580	-0.141	-0.086
-517.902	-200.000	0.029	-0.377
-516.887	-200.000	-0.041	-0.250
-515.872	217.384	0.032	-0.051
-514.858	-200.000	0.004	-0.351
-513.843	-101.822	-0.405	-0.098
-512.829	800.000	0.088	-0.296
-511.814	800.000	-0.031	0.133
-510.799	-200.000	-0.000	-0.135
-509.785	-49.648	-0.254	-0.121
-508.770	-200.000	0.023	0.275
-507.756	-83.353	0.203	0.065
-506.741	-15.298	-0.159	0.101
-505.726	143.955	-0.084	-0.112
-504.712	-200.000	0.037	0.508
-503.697	-20.753	0.148	0.091
-502.683	-25.715	0.145	-0.085
-501.668	142.494	0.149	-0.198
-500.653	800.000	0.045	0.180
-499.639	-118.971	-0.288	0.051
-498.624	-1.123	0.288	-0.204
-497.610	-200.000	0.009	-0.218
-496.595	-78.321	-0.167	0.057
-495.581	800.000	0.052	-0.149
-494.566	-200.000	-0.002	-0.044
-493.551	-92.486	0.221	-0.062
-492.537	136.469	-0.049	-0.064
-491.522	150.513	0.143	-0.194
-490.508	-94.019	-0.241	0.066
-489.493	-144.466	-0.096	0.009
-488.478	-53.461	-0.135	-0.062
-487.464	-53.217	0.076	0.035
-486.449	-15.707	0.109	-0.070
-485.435	-46.248	0.147	-0.072
-484.420	-200.000	-0.102	0.482
-483.405	800.000	0.088	0.310
-482.391	-200.000	0.003	0.149
-481.376	121.204	-0.079	-0.099
-480.362	8.334	-0.202	-0.152
-479.347	-200.000	-0.027	0.156
-478.332	52.370	0.177	0.169
-477.318	-200.000	0.002	0.047
-476.303	362.044	-0.115	-0.230
-475.289	28.262	-0.174	-0.147
-474.274	-30.932	0.079	0.045
-473.259	-13.105	0.072	-0.047
-472.245	-93.097	0.171	0.048
-471.230	-200.000	0.023	0.123
-470.216	-200.000	0.046	-0.251
-469.201	-56.652	0.336	0.148
-468.186	237.879	-0.021	0.035
-467.172	-200.000	-0.014	0.357
-466.157	-147.002	-0.375	-0.032
-465.143	60.474	-0.136	-0.134
-464.128	-200.000	-0.048	-0.253
-463.113	-200.000	-0.049	0.456
-462.099	763.732	-0.099	0.268
-461.084	-39.357	0.244	-0.128
-460.070	500.341	-0.037	0.085
-459.055	470.437	-0.067	-0.151
-458.040	-168.593	-0.428	-0.016
-457.026	150.494	0.138	-0.187
-456.011	-115.167	0.079	0.015
-454.997	151.761	0.155	0.211
-453.982	-155.740	0.347	-0.022
-452.968	-75.838	0.443	-0.157
-451.953	-108.414	-0.383	0.082
-450.938	-151.279	-0.356	-0.027
-449.924	800.000	-0.143	-0.411
-448.909	-200.000	-0.008	-0.050
-447.895	-47.394	0.110	0.053
-446.880	67.188	-0.056	-0.057
-445.865	800.000	-0.048	0.155
-444.851	77.921	-0.113	-0.120
-443.836	-200.000	0.000	-0.147
-442.822	18.369	0.045	-0.036
-441.807	-103.949	0.170	0.040
-440.792	24.707	-0.289	-0.239
-439.778	215.304	-0.136	-0.215
-438.763	-57.807	0.113	0.050
-437.749	233.825	-0.136	0.223
-436.734	135.422	0.160	0.207
-435.719	800.000	-0.009	0.037
-434.705	230.240	0.180	0.293
-433.690	65.262	-0.061	0.062
-432.676	716.688	0.030	0.079
-431.661	800.000	0.024	-0.099
-430.646	-172.236	-0.167	0.005
-429.632	149.665	-0.229	0.310
-428.617	-127.399	-0.290	-0.042
-427.603	265.671	0.145	0.251
-426.588	38.745	0.141	-0.126
-425.573	155.419	-0.105	-0.144
-424.559	-107.571	-0.204	0.044
-423.544	-157.506	0.296	0.018
-422.530	12.528	-0.082	0.063
-421.515	-200.000	0.027	-0.188
-420.500	202.760	-0.105	0.161
-419.486	407.208	0.137	-0.289
-418.471	-200.000	0.006	0.086
-417.457	48.723	-0.158	0.147
-416.442	-24.363	-0.327	0.194
-415.428	120.952	0.026	-0.032
-414.413	258.460	0.054	0.093
-413.398	-49.775	0.184	0.087
-412.384	-162.534	0.217	-0.011
-411.369	-200.000	0.015	0.122
-410.355	-200.000	0.012	-0.078
-409.340	79.508	0.138	0.147
-408.325	800.000	-0.089	-0.294
-407.311	-130.448	-0.401	-0.054
-406.296	-73.648	0.310	-0.112
-405.282	0.778	-0.209	0.149
-404.267	45.770	-0.173	0.159
-403.252	-93.853	0.400	-0.110
-402.238	-47.122	0.306	0.149
-401.223	179.904	-0.203	0.297
-400.209	-68.831	-0.058	-0.022
-399.194	-98.024	0.077	-0.020
-398.179	45.211	-0.135	0.124
-397.165	167.328	0.090	0.128
-396.150	-144.445	0.037	0.003
-395.136	-85.997	-0.362	0.112
-394.121	31.006	0.176	0.150
-393.106	-200.000	-0.027	0.138
-392.092	-87.410	-0.058	0.017
-391.077	582.765	-0.088	-0.215
-390.063	60.680	0.029	0.028
-389.048	25.852	-0.184	-0.152
-388.033	800.000	0.062	-0.258
-387.019	31.121	-0.082	-0.070
-386.004	-23.782	-0.038	0.023
-384.990	11.959	-0.043	0.033
-383.975	353.152	-0.063	0.124
-382.960	-140.519	0.268	0.028
-381.946	97.493	0.081	-0.093
-380.931	-106.587	-0.275	-0.061
-379.917	209.533	0.049	0.076
-378.902	586.035	0.084	-0.205
-377.888	692.329	-0.112	-0.292
-376.873	-200.000	-0.017	-0.273
-375.858	-200.000	-0.029	0.263
-374.844	62.826	0.129	0.128
-373.829	154.476	-0.295	-0.402
-372.815	-200.000	-0.008	0.099
-371.800	-153.912	-0.223	0.015
-370.785	800.000	0.040	0.135
-369.771	-84.741	0.255	-0.080
-368.756	-200.000	0.034	-0.181
-367.742	534.552	0.038	0.089
-366.727	-85.648	0.153	0.047
-365.712	-44.422	0.192	0.096
-364.698	-200.000	0.032	0.180
-363.683	233.781	-0.133	0.217
-362.669	800.000	0.030	0.127
-361.654	81.531	-0.197	-0.212
-360.639	-142.144	-0.169	0.017
-359.625	271.458	0.067	-0.118
-358.610	-200.000	-0.020	0.093
-357.596	184.610	-0.124	-0.183
-356.581	-139.862	-0.520	0.055
-355.566	-200.000	0.043	-0.342
-354.552	-183.403	-0.272	-0.005
-353.537	215.949	-0.079	-0.125
-352.523	-103.239	0.152	0.036
-351.508	-200.000	-0.001	0.060
-350.493	-109.513	0.222	-0.047
-349.479	-100.713	-0.121	0.030
-348.464	-25.021	0.162	0.095
-347.450	540.748	-0.158	0.373
-346.435	-18.106	-0.081	0.050
-345.420	127.263	0.199	-0.251
-344.406	-21.052	-0.222	0.135
-343.391	-200.000	0.025	-0.155
-342.377	-200.000	-0.115	0.000
-341.362	-18.752	0.415	0.257
-340.348	16.700	-0.239	0.188
-339.333	800.000	-0.055	-0.179
-338.318	-200.000	-0.026	-0.248
-337.304	-57.836	0.237	-0.103
-336.289	-200.000	0.009	0.246
-335.275	-97.638	0.157	-0.040
-334.260	-89.229	0.273	0.080
-333.245	-87.661	-0.181	-0.054
-332.231	164.210	0.192	-0.269
-331.216	-159.531	-0.057	0.003
-330.202	35.718	-0.113	-0.099
-329.187	-66.531	0.221	-0.087
-328.172	-200.000	-0.009	0.108
-327.158	17.216	-0.179	0.141
-326.143	800.000	-0.044	-0.139
-325.129	-125.874	0.228	-0.034
-324.114	221.265	0.145	0.232
-323.099	84.729	0.191	0.207
-322.085	-71.596	0.133	-0.049
-321.070	-200.000	0.078	0.410
-320.056	800.000	0.076	-0.264
-319.041	-53.210	0.085	-0.039
-318.026	800.000	0.041	0.122
-317.012	-27.454	0.087	0.050
-315.997	-84.290	0.393	0.124
-314.983	-200.000	-0.212	0.000
-313.968	19.071	-0.374	-0.297
-312.953	-68.521	0.254	0.098
-311.939	143.222	0.082	0.109
-310.924	369.484	0.059	-0.119
-309.910	-9.342	0.350	0.232
-308.895	-200.000	0.011	0.363
-307.880	-110.939	0.083	-0.017
-306.866	800.000	0.071	0.198
-305.851	-93.333	0.237	0.065
-304.837	136.963	-0.186	0.241
-303.822	-200.000	-0.032	0.223
-302.807	-8.669	0.137	0.091
-301.793	-120.094	-0.312	0.053
-300.778	140.064	0.115	0.150
-299.764	-200.000	0.034	0.239
-298.749	231.139	-0.019	-0.031
-297.735	-122.245	-0.290	-0.047
-296.720	-56.599	-0.396	-0.174
-295.705	-41.835	-0.091	-0.046
-294.691	43.602	0.081	-0.074
-293.676	-16.775	0.333	-0.209
-292.662	449.454	-0.058	0.127
-291.647	-200.000	0.014	-0.174
-290.632	-65.669	-0.220	0.087
-289.618	69.044	0.198	-0.201
-288.603	233.820	0.092	0.150
-287.589	122.868	-0.174	0.216
-286.574	-182.524	-0.317	-0.006
-285.559	48.530	0.108	0.101
-284.545	-200.000	0.025	-0.232
-283.530	-146.967	-0.256	-0.022
-282.516	194.040	-0.116	-0.175
-281.501	-200.000	-0.028	0.290
-280.486	800.000	-0.065	0.222
-279.472	672.549	-0.056	0.143
-278.457	-200.000	-0.014	0.425
-277.443	-100.624	0.318	-0.078
-276.428	-103.748	0.134	-0.031
-275.413	-62.114	-0.094	-0.039
-274.399	34.461	-0.102	0.088
-273.384	-31.114	-0.434	-0.242
-272.370	245.787	-0.089	-0.148
-271.355	-64.199	0.075	0.030
-270.340	800.000	0.146	-0.488
-269.326	44.385	0.050	-0.046
-268.311	-200.000	-0.000	-0.034
-267.297	-177.271	-0.406	0.010
-266.282	800.000	0.032	-0.108
-265.267	181.742	-0.033	0.049
-264.253	-200.000	-0.021	0.112
-263.238	204.056	0.157	0.240
-262.224	-65.161	-0.072	0.029
-261.209	308.877	0.074	0.138
-260.195	74.465	0.188	0.196
-259.180	40.936	0.038	0.034
-258.165	-200.000	-0.088	0.383
-257.151	-152.159	0.281	0.020
-256.136	-64.015	0.097	0.039
-255.122	-63.932	-0.131	0.053
-254.107	470.281	-0.127	-0.284
-253.092	60.483	-0.103	0.101
-252.078	-169.441	0.155	-0.006
-251.063	247.070	-0.136	-0.228
-250.049	-110.392	-0.145	0.030
-249.034	-99.852	0.129	-0.032
-248.019	-44.174	0.240	0.119
-247.005	302.955	-0.072	-0.132
-245.990	227.517	0.178	0.287
-244.976	109.271	0.259	0.307
-243.961	43.882	-0.115	-0.104
-242.946	-18.601	-0.150	-0.093
-241.932	800.000	-0.027	-0.077
-240.917	-31.778	-0.358	0.199
-239.903	158.782	-0.198	-0.273
-238.888	355.408	0.104	-0.206
-237.873	-39.175	0.231	0.120
-236.859	-23.717	-0.192	-0.114
-235.844	87.812	0.192	-0.211
-234.830	47.125	-0.182	-0.167
-233.815	72.438	0.195	0.201
-232.800	132.642	0.138	0.176
-231.786	-40.865	-0.097	0.050
-230.771	178.738	0.119	-0.172
-229.757	800.000	-0.018	0.066
-228.742	-62.383	-0.370	-0.152
-227.727	613.265	-0.025	-0.062
-226.713	-104.382	0.211	0.048
-225.698	800.000	-0.117	-0.319
-224.684	-200.000	0.010	-0.261
-223.669	-194.704	0.039	0.000
-222.655	220.635	-0.085	-0.135
-221.640	-200.000	0.013	0.110
-220.625	139.559	-0.119	0.156
-219.611	252.142	0.092	0.156
-218.596	57.830	0.146	0.141
-217.582	-200.000	0.055	-0.276
-216.567	201.985	-0.255	0.389
-215.552	-78.641	-0.135	-0.045
-214.538	-68.125	-0.122	0.047
-213.523	-200.000	-0.013	-0.322
-212.509	800.000	0.020	0.058
-211.494	-17.220	0.205	0.128
-210.479	-200.000	0.050	-0.293
-209.465	-19.425	-0.282	0.173
-208.450	-200.000	-0.098	-0.432
-207.436	-46.438	0.427	0.207
-206.421	-98.006	0.085	0.022
-205.406	800.000	0.136	-0.396
-204.392	800.000	-0.082	-0.298
-203.377	-39.420	0.197	0.102
-202.363	-63.641	0.257	0.104
-201.348	509.970	-0.074	0.171
-200.333	-106.538	-0.130	-0.029
-199.319	-91.766	-0.113	0.032
-198.304	777.061	-0.037	0.100
-197.290	800.000	-0.025	-0.069
-196.275	309.124	-0.026	-0.048
-195.260	-74.922	0.341	-0.121
-194.246	-130.221	0.126	-0.017
-193.231	89.335	-0.096	-0.106
-192.217	13.915	0.221	0.170
-191.202	-20.284	0.046	-0.028
-190.187	656.415	0.077	-0.195
-189.173	-200.000	0.026	0.141
-188.158	-62.223	0.148	-0.061
-187.144	-124.778	-0.207	0.032
-186.129	-127.299	0.337	-0.049
-185.114	-144.263	-0.140	0.013
-184.100	41.789	-0.229	0.205
-183.085	74.202	0.398	-0.413
-182.071	527.776	-0.068	-0.158
-181.056	89.608	-0.155	-0.171
-180.042	52.631	0.145	-0.137
-179.027	174.185	-0.273	0.389
-178.012	-200.000	-0.011	-0.047
-176.998	424.690	0.013	-0.027
-175.983	121.628	-0.259	-0.319
-174.969	144.614	-0.083	0.110
-173.954	-200.000	-0.042	0.244
-172.939	-200.000	-0.025	-0.184
-171.925	-57.221	-0.206	0.090
-170.910	-200.000	-0.022	0.154
-169.896	-39.201	-0.250	-0.130
-168.881	-200.000	-0.014	-0.071
-167.866	121.545	-0.404	-0.497
-166.852	-97.731	0.334	0.085
-165.837	-200.000	0.037	-0.271
-164.823	-125.011	-0.046	-0.007
-163.808	66.810	0.330	0.332
-162.793	-170.881	-0.259	0.009
-161.779	800.000	-0.017	0.073
-160.764	69.045	-0.122	-0.124
-159.750	-200.000	0.034	0.310
-158.735	-32.662	0.388	-0.213
-157.720	252.850	0.033	0.055
-156.706	138.788	-0.108	-0.140
-155.691	-136.492	-0.048	-0.005
-154.677	-118.108	-0.233	0.041
-153.662	-15.208	-0.121	-0.076
-152.647	100.811	0.242	-0.277
-151.633	43.929	-0.079	0.072
-150.618	134.490	0.124	0.158
-149.604	-38.644	-0.052	-0.027
-148.589	-200.000	-0.096	0.430
-147.574	88.423	0.169	0.186
-146.560	-200.000	-0.052	-0.335
-145.545	469.819	0.042	0.093
-144.531	800.000	-0.067	0.234
-143.516	-57.367	-0.217	-0.094
-142.502	-121.913	-0.015	-0.003
-141.487	128.427	-0.066	-0.083
-140.472	49.166	-0.176	0.163
-139.458	-9.562	0.114	-0.075
-138.443	-167.924	-0.188	0.007
-137.429	-21.877	0.224	-0.134
-136.414	105.208	-0.092	0.107
-135.399	-200.000	0.050	-0.258
-134.385	415.262	-0.057	0.119
-133.370	800.000	-0.051	0.185
-132.356	-200.000	-0.056	-0.333
-131.341	-71.938	-0.203	0.074
-130.326	77.620	-0.077	-0.081
-129.312	-112.492	-0.259	0.051
-128.297	-187.972	0.500	-0.006
-127.283	800.000	-0.109	0.375
-126.268	-200.000	0.292	0.000
-125.253	322.299	0.083	-0.157
-124.239	-200.000	0.086	0.376
-123.224	217.484	0.073	0.114
-122.210	-136.412	-0.110	-0.013
