DTS Sentinel unit serial number:	SN413079Multiplexer serial number:	ORYXHardware model number:	OX4-SRSoftware version number:	ORYX F/W v4.00 Oryx Data Collector v3.7.2.0data status	okinstallation	princeton_trtdifferential loss correction	single-endedforward channel	channel 4reverse channel	N/Adate	2019/09/18time	10:17:35forward acquisition time	60.00reverse acquisition time	0.00gamma	496.2192k internal	0.2317k external	0.2317temperature offset calibration	0.9985default loss term (dB/km)	0.3790temperature slope calibration	1.0000multiplexer offset coefficient	1.0000multiplexer slope coefficient	1.0000fibre end	0.00T internal ref (°C)	27.97T ext. ref 1 (°C)	0.33T ext. ref 2 (°C)	24.33length (m)	temperature (°C)	Stokes	anti-Stokes-747.200	-58.217	0.265	-0.117
-746.185	-61.692	-0.285	0.121
-745.171	41.900	0.051	-0.047
-744.156	-200.000	0.079	0.352
-743.142	667.024	-0.066	0.173
-742.127	800.000	-0.062	-0.205
-741.112	278.107	0.178	-0.320
-740.098	48.036	-0.079	-0.075
-739.083	132.962	0.214	0.280
-738.069	-200.000	-0.026	0.306
-737.054	12.721	-0.241	0.188
-736.039	3.473	0.063	-0.046
-735.025	21.834	-0.205	-0.169
-734.010	-90.473	-0.108	-0.032
-732.996	-79.596	0.365	-0.125
-731.981	-200.000	-0.007	0.313
-730.966	800.000	-0.033	-0.139
-729.952	102.834	-0.224	-0.265
-728.937	-40.643	-0.314	-0.165
-727.923	-87.129	0.085	-0.026
-726.908	-95.894	-0.219	-0.059
-725.894	-148.895	-0.080	-0.007
-724.879	-101.675	0.294	0.072
-723.864	-200.000	-0.022	-0.306
-722.850	75.572	-0.324	-0.346
-721.835	-200.000	0.015	-0.145
-720.821	140.016	-0.133	-0.177
-719.806	-146.706	-0.072	0.006
-718.791	-200.000	-0.062	-0.297
-717.777	44.172	-0.253	0.234
-716.762	-0.172	-0.209	-0.150
-715.748	-138.582	-0.224	0.025
-714.733	-200.000	0.021	-0.685
-713.718	-146.580	-0.296	-0.026
-712.704	-71.302	-0.307	0.116
-711.689	99.688	0.186	0.218
-710.675	-52.437	0.233	0.109
-709.660	386.288	-0.117	0.244
-708.645	800.000	-0.071	-0.224
-707.631	-200.000	-0.011	-0.116
-706.616	800.000	0.096	-0.281
-705.602	-156.720	-0.194	0.012
-704.587	-73.839	0.134	-0.049
-703.572	-16.399	-0.143	-0.092
-702.558	249.908	-0.115	0.198
-701.543	332.799	-0.151	0.294
-700.529	-119.659	0.143	0.025
-699.514	-60.798	-0.259	0.111
-698.499	-49.910	-0.337	-0.161
-697.485	-11.056	-0.226	0.151
-696.470	106.866	0.296	-0.355
-695.456	281.347	-0.227	0.411
-694.441	-91.005	0.220	-0.064
-693.426	109.301	0.306	-0.371
-692.412	-63.935	0.101	0.042
-691.397	240.693	0.232	-0.390
-690.383	197.018	-0.170	-0.262
-689.368	-124.904	-0.324	0.051
-688.354	26.703	-0.080	0.068
-687.339	-125.187	-0.241	0.037
-686.324	-100.585	-0.302	-0.075
-685.310	364.195	-0.149	0.303
-684.295	164.767	-0.061	-0.087
-683.281	800.000	-0.022	-0.084
-682.266	-25.252	0.107	-0.064
-681.251	800.000	0.036	-0.103
-680.237	800.000	0.066	0.209
-679.222	-7.531	-0.105	0.072
-678.208	229.311	0.138	-0.227
-677.193	-108.129	0.154	0.034
-676.178	41.066	-0.293	-0.267
-675.164	-117.310	-0.048	0.009
-674.149	-66.988	0.196	-0.078
-673.135	-4.039	0.259	-0.181
-672.120	-200.000	-0.049	-0.370
-671.105	-69.272	-0.219	-0.085
-670.091	570.713	-0.116	-0.284
-669.076	-58.381	0.192	-0.084
-668.062	-9.330	-0.087	-0.059
-667.047	-39.368	-0.044	-0.023
-666.032	-200.000	0.020	-0.124
-665.018	636.197	-0.023	0.060
-664.003	82.322	0.086	-0.094
-662.989	65.075	0.111	0.113
-661.974	13.832	-0.054	0.043
-660.959	-90.020	0.076	-0.022
-659.945	-52.925	0.076	0.035
-658.930	-148.083	-0.059	-0.005
-657.916	-200.000	0.019	0.259
-656.901	73.090	-0.058	-0.061
-655.886	134.290	-0.120	0.157
-654.872	48.040	-0.153	-0.144
-653.857	800.000	-0.034	-0.113
-652.843	-25.937	-0.316	-0.188
-651.828	-200.000	-0.011	0.139
-650.814	-200.000	-0.017	-0.171
-649.799	417.400	0.102	-0.219
-648.784	-29.143	-0.249	-0.144
-647.770	-74.966	-0.076	-0.028
-646.755	59.036	-0.258	-0.256
-645.741	5.268	-0.014	-0.011
-644.726	38.619	0.143	-0.129
-643.711	47.141	-0.198	0.186
-642.697	87.438	-0.184	0.205
-641.682	3.473	0.224	-0.165
-640.668	209.332	-0.197	-0.311
-639.653	53.305	0.106	0.102
-638.638	-177.237	-0.117	0.003
-637.624	98.199	0.253	-0.294
-636.609	152.313	-0.174	-0.239
-635.595	17.998	-0.197	0.158
-634.580	-60.299	-0.245	-0.105
-633.565	800.000	0.039	0.160
-632.551	-200.000	-0.009	0.063
-631.536	161.726	-0.102	-0.144
-630.522	-55.070	0.187	0.085
-629.507	-200.000	0.007	-0.109
-628.492	-25.132	0.101	0.060
-627.478	-172.668	-0.192	0.006
-626.463	-26.785	-0.165	0.097
-625.449	800.000	-0.138	-0.450
-624.434	-200.000	-0.009	-0.158
-623.419	172.266	-0.100	-0.145
-622.405	-200.000	0.017	-0.270
-621.390	-200.000	0.010	-0.183
-620.376	800.000	-0.062	-0.260
-619.361	237.162	-0.144	0.240
-618.346	-82.324	0.043	0.014
-617.332	17.728	-0.145	0.116
-616.317	-22.573	-0.114	-0.070
-615.303	-200.000	-0.056	-0.328
-614.288	-50.232	0.273	0.130
-613.273	181.845	-0.048	0.071
-612.259	729.482	0.112	0.302
-611.244	-86.914	0.233	-0.072
-610.230	-81.641	0.222	0.073
-609.215	782.146	0.045	-0.125
-608.201	19.189	-0.191	-0.155
-607.186	42.327	-0.137	0.125
-606.171	-73.175	-0.477	-0.176
-605.157	-37.784	-0.191	-0.102
-604.142	-200.000	-0.032	0.318
-603.128	-161.278	-0.184	0.010
-602.113	-200.000	0.004	-0.067
-601.098	-185.187	-0.132	0.002
-600.084	70.176	0.005	-0.005
-599.069	-200.000	-0.006	0.254
-598.055	-123.098	0.259	0.042
-597.040	334.745	0.106	-0.207
-596.025	251.785	0.267	-0.457
-595.011	643.114	0.082	-0.210
-593.996	-79.007	0.199	0.068
-592.982	127.303	0.323	-0.413
-591.967	-2.922	0.114	-0.080
-590.952	-70.927	0.199	-0.075
-589.938	-41.341	-0.195	0.101
-588.923	335.437	-0.057	0.112
-587.909	39.841	-0.315	-0.284
-586.894	504.536	-0.041	-0.095
-585.879	-200.000	0.030	-0.265
-584.865	-200.000	-0.021	-0.163
-583.850	161.381	0.084	-0.118
-582.836	-200.000	-0.047	0.242
-581.821	-125.443	-0.176	-0.027
-580.806	-2.160	0.194	0.137
-579.792	106.127	0.063	0.075
-578.777	-200.000	-0.004	-0.185
-577.763	800.000	-0.028	-0.113
-576.748	-75.579	0.147	-0.053
-575.733	-105.502	-0.317	0.072
-574.719	191.782	-0.166	0.252
-573.704	0.973	0.322	-0.232
-572.690	58.848	0.207	0.205
-571.675	-98.057	-0.207	-0.054
-570.661	64.093	-0.193	-0.195
-569.646	800.000	0.060	0.214
-568.631	-65.458	-0.198	0.080
-567.617	281.167	-0.099	0.177
-566.602	81.083	0.163	0.177
-565.588	-200.000	0.020	-0.106
-564.573	-200.000	0.065	0.344
-563.558	3.066	-0.254	-0.186
-562.544	239.422	-0.084	-0.140
-561.529	-144.865	-0.130	0.012
-560.515	26.687	0.132	-0.111
-559.500	-101.036	0.208	-0.051
-558.485	585.721	-0.062	0.152
-557.471	-154.795	-0.255	-0.017
-556.456	800.000	0.079	-0.277
-555.442	-1.420	-0.157	-0.112
-554.427	33.507	0.046	0.040
-553.412	800.000	-0.072	0.276
-552.398	800.000	0.064	-0.195
-551.383	758.977	-0.100	-0.272
-550.369	483.316	0.114	-0.259
-549.354	800.000	0.037	0.160
-548.339	800.000	0.080	0.274
-547.325	-159.322	-0.192	0.011
-546.310	-200.000	-0.008	0.203
-545.296	2.214	-0.211	0.153
-544.281	-200.000	-0.017	0.207
-543.266	-47.718	-0.232	0.113
-542.252	491.309	-0.106	-0.244
-541.237	800.000	0.080	0.295
-540.223	-2.482	-0.182	-0.128
-539.208	-107.271	0.112	-0.025
-538.193	-112.249	-0.280	-0.056
-537.179	-200.000	-0.023	-0.211
-536.164	-200.000	-0.013	-0.301
-535.150	-140.471	0.161	0.017
-534.135	-200.000	-0.065	-0.359
-533.121	-51.973	-0.179	-0.083
-532.106	-151.512	-0.181	-0.014
-531.091	-124.786	-0.029	0.005
-530.077	-200.000	-0.016	0.080
-529.062	140.859	0.159	0.210
-528.048	189.968	-0.125	0.188
-527.033	-31.192	-0.174	-0.099
-526.018	-43.927	-0.158	-0.080
-525.004	700.472	0.023	-0.061
-523.989	-200.000	0.014	-0.268
-522.975	-200.000	-0.017	-0.220
-521.960	-200.000	-0.002	0.124
-520.945	138.518	-0.116	0.153
-519.931	185.000	-0.135	-0.201
-518.916	-189.135	0.078	-0.001
-517.902	505.023	-0.039	-0.090
-516.887	71.958	0.046	0.048
-515.872	314.659	0.104	0.197
-514.858	194.916	-0.048	-0.073
-513.843	-43.967	0.121	-0.061
-512.829	131.249	-0.075	0.096
-511.814	-138.332	-0.304	0.034
-510.799	162.175	0.200	0.281
-509.785	-200.000	0.009	0.080
-508.770	311.216	-0.124	0.233
-507.756	35.818	-0.092	0.081
-506.741	478.980	-0.050	-0.113
-505.726	120.605	0.106	0.132
-504.712	268.498	0.095	-0.167
-503.697	174.309	0.024	0.035
-502.683	778.331	-0.131	0.360
-501.668	129.920	0.105	-0.134
-500.653	17.219	-0.162	-0.129
-499.639	800.000	0.062	-0.212
-498.624	48.724	0.042	-0.039
-497.610	51.025	-0.183	-0.174
-496.595	416.655	0.060	0.128
-495.581	-200.000	-0.023	0.261
-494.566	-200.000	0.100	0.502
-493.551	-180.600	-0.310	-0.006
-492.537	800.000	0.060	0.222
-491.522	613.978	-0.101	-0.255
-490.508	12.074	0.133	0.103
-489.493	-139.596	-0.328	0.035
-488.478	-20.937	0.106	-0.065
-487.464	800.000	0.025	-0.079
-486.449	-128.521	-0.136	-0.019
-485.435	-200.000	-0.007	-0.035
-484.420	-71.753	-0.164	-0.061
-483.405	-105.762	0.204	0.046
-482.391	-80.365	-0.353	-0.118
-481.376	-200.000	-0.052	0.468
-480.362	-10.550	-0.094	-0.062
-479.347	54.249	-0.257	-0.248
-478.332	-129.462	0.315	0.044
-477.318	800.000	-0.012	0.048
-476.303	204.088	0.096	0.149
-475.289	-110.879	-0.155	0.032
-474.274	-128.475	-0.246	0.035
-473.259	161.779	0.087	-0.121
-472.245	-161.452	0.021	-0.001
-471.230	-200.000	0.010	-0.176
-470.216	267.152	-0.134	0.235
-469.201	-28.453	-0.222	0.129
-468.186	145.102	-0.156	0.209
-467.172	-200.000	-0.028	-0.157
-466.157	-61.320	0.295	-0.125
-465.143	279.908	0.154	-0.276
-464.128	800.000	0.090	-0.336
-463.113	206.712	0.151	-0.235
-462.099	-200.000	-0.016	-0.187
-461.084	-200.000	-0.026	0.207
-460.070	-57.736	-0.134	-0.059
-459.055	103.177	0.315	0.370
-458.040	45.516	-0.132	0.122
-457.026	-63.164	0.190	-0.078
-456.011	343.166	-0.153	-0.301
-454.997	800.000	0.114	0.332
-453.982	-3.323	0.126	-0.088
-452.968	30.934	0.198	0.170
-451.953	128.662	-0.289	0.369
-450.938	800.000	-0.132	-0.425
-449.924	-112.879	0.187	-0.037
-448.909	-200.000	0.017	-0.131
-447.895	-18.036	-0.073	-0.046
-446.880	-65.707	0.107	-0.043
-445.865	-31.561	0.234	-0.132
-444.851	-200.000	-0.065	0.339
-443.836	-200.000	-0.003	-0.121
-442.822	34.480	0.162	0.142
-441.807	-33.167	-0.133	-0.074
-440.792	-29.323	0.571	0.327
-439.778	800.000	-0.115	-0.423
-438.763	-200.000	0.011	-0.316
-437.749	-67.243	-0.232	0.091
-436.734	-70.879	0.132	0.050
-435.719	171.023	0.072	0.103
-434.705	-67.220	-0.206	-0.081
-433.690	-171.181	0.100	0.003
-432.676	409.715	-0.045	0.095
-431.661	-181.911	0.049	-0.001
-430.646	-49.156	0.330	0.158
-429.632	-200.000	-0.003	-0.194
-428.617	-200.000	-0.016	0.264
-427.603	172.609	0.032	-0.047
-426.588	-185.210	-0.421	-0.007
-425.573	-48.009	-0.177	0.086
-424.559	357.409	-0.077	0.154
-423.544	800.000	0.056	-0.163
-422.530	-115.979	-0.249	-0.046
-421.515	-200.000	0.028	-0.139
-420.500	-7.044	0.141	-0.096
-419.486	-158.086	0.186	0.011
-418.471	-147.724	0.395	-0.033
-417.457	-101.791	0.240	-0.058
-416.442	170.703	-0.117	0.168
-415.428	30.352	0.165	0.140
-414.413	-200.000	0.027	-0.136
-413.398	-84.111	-0.153	0.048
-412.384	-123.238	0.217	0.035
-411.369	105.816	-0.299	0.353
-410.355	-55.972	-0.302	0.134
-409.340	-137.463	-0.048	0.005
-408.325	800.000	-0.051	-0.161
-407.311	-42.880	0.264	-0.134
-406.296	-102.186	-0.455	0.109
-405.282	-200.000	-0.007	0.084
-404.267	-75.323	0.135	0.048
-403.252	800.000	-0.072	-0.208
-402.238	-0.751	0.218	0.155
-401.223	-200.000	-0.019	-0.471
-400.209	-73.693	-0.188	-0.068
-399.194	-67.136	-0.112	0.044
-398.179	-157.549	-0.327	0.020
-397.165	14.094	-0.064	0.050
-396.150	237.525	-0.028	0.046
-395.136	242.631	-0.153	0.256
-394.121	800.000	-0.061	-0.204
-393.106	800.000	0.101	0.397
-392.092	66.869	0.132	0.134
-391.077	-6.336	0.068	0.046
-390.063	-20.746	-0.318	-0.194
-389.048	-200.000	0.051	-0.265
-388.033	-90.575	0.479	0.138
-387.019	-50.632	-0.126	0.059
-386.004	-48.444	-0.173	0.083
-384.990	-128.695	0.343	0.048
-383.975	587.798	-0.100	0.246
-382.960	-200.000	-0.037	0.163
-381.946	-113.233	-0.146	-0.029
-380.931	-200.000	0.030	0.169
-379.917	745.431	0.095	0.254
-378.902	603.611	-0.102	0.252
-377.888	-200.000	0.019	-0.088
-376.873	800.000	-0.005	-0.014
-375.858	-1.051	0.285	-0.201
-374.844	800.000	-0.066	0.198
-373.829	-61.397	-0.102	0.043
-372.815	800.000	-0.025	-0.098
-371.800	-36.754	0.184	0.098
-370.785	-115.492	-0.256	0.048
-369.771	20.665	-0.275	-0.222
-368.756	800.000	0.070	-0.209
-367.742	251.370	-0.063	0.107
-366.727	-200.000	-0.028	0.230
-365.712	-200.000	-0.031	0.290
-364.698	-200.000	0.063	0.431
-363.683	800.000	0.030	-0.115
-362.669	118.740	0.224	-0.276
-361.654	117.852	0.220	0.270
-360.639	74.932	0.164	0.172
-359.625	-2.118	-0.102	0.072
-358.610	137.888	0.135	-0.177
-357.596	800.000	0.072	0.248
-356.581	371.036	0.183	0.370
-355.566	-200.000	-0.048	0.332
-354.552	-95.138	0.499	0.134
-353.537	-80.692	-0.316	0.105
-352.523	-200.000	0.009	-0.216
-351.508	-23.650	0.185	-0.111
-350.493	-200.000	-0.039	-0.240
-349.479	-167.192	-0.253	-0.010
-348.464	800.000	-0.049	0.178
-347.450	-200.000	-0.012	-0.192
-346.435	-200.000	0.009	-0.247
-345.420	133.453	0.124	-0.160
-344.406	736.490	0.059	0.158
-343.391	800.000	0.087	0.244
-342.377	-200.000	-0.015	0.288
-341.362	66.034	0.200	0.202
-340.348	32.042	0.156	-0.134
-339.333	-116.760	0.259	-0.047
-338.318	-172.906	0.423	-0.013
-337.304	640.749	0.059	-0.149
-336.289	-200.000	0.005	-0.204
-335.275	-30.918	-0.254	-0.143
-334.260	-200.000	0.015	-0.084
-333.245	-82.352	0.255	0.083
-332.231	-61.004	0.413	0.174
-331.216	-126.387	-0.487	-0.072
-330.202	-69.084	0.227	0.087
-329.187	48.119	-0.052	-0.048
-328.172	-200.000	-0.040	0.290
-327.158	37.068	-0.312	-0.275
-326.143	800.000	-0.036	0.101
-325.129	10.398	-0.038	-0.029
-324.114	-200.000	0.017	-0.263
-323.099	-200.000	0.040	-0.174
-322.085	98.436	0.171	0.197
-321.070	68.509	0.085	-0.087
-320.056	23.021	0.164	-0.134
-319.041	-200.000	0.033	-0.174
-318.026	-200.000	-0.005	-0.283
-317.012	1.552	-0.324	-0.232
-315.997	-23.711	0.131	0.078
-314.983	-22.072	0.142	0.086
-313.968	-2.642	-0.267	-0.186
-312.953	-151.016	-0.125	-0.009
-311.939	-115.820	0.190	-0.035
-310.924	86.007	-0.115	0.126
-309.910	415.760	0.185	0.393
-308.895	166.420	-0.215	0.303
-307.880	-176.219	-0.078	0.002
-306.866	-3.633	0.155	0.107
-305.851	-37.573	-0.088	0.047
-304.837	-175.714	-0.210	0.006
-303.822	-55.205	0.180	0.080
-302.807	800.000	-0.033	-0.116
-301.793	97.149	-0.152	-0.174
-300.778	-130.980	0.093	-0.012
-299.764	-11.776	0.113	-0.074
-298.749	-108.991	-0.114	0.024
-297.735	-51.421	-0.187	-0.087
-296.720	-25.230	0.045	-0.027
-295.705	-54.887	0.358	-0.161
-294.691	800.000	0.036	0.108
-293.676	51.000	0.128	0.121
-292.662	-81.769	0.347	0.113
-291.647	-143.549	-0.162	0.015
-290.632	-90.651	-0.161	0.046
-289.618	707.988	-0.105	-0.277
-288.603	800.000	0.063	0.178
-287.589	-8.843	-0.022	-0.015
-286.574	800.000	0.004	0.016
-285.559	-122.392	0.126	-0.020
-284.545	100.209	0.157	0.182
-283.530	800.000	-0.077	0.270
-282.516	-25.169	-0.130	0.076
-281.501	800.000	0.060	-0.256
-280.486	209.402	0.093	0.145
-279.472	411.152	0.169	0.356
-278.457	1.615	0.091	0.065
-277.443	8.154	-0.184	0.137
-276.428	129.795	0.119	-0.152
-275.413	-200.000	-0.011	-0.084
-274.399	-95.062	-0.208	0.056
-273.384	2.589	0.190	0.137
-272.370	-63.125	0.284	0.116
-271.355	93.149	-0.003	-0.003
-270.340	355.159	0.077	0.153
-269.326	-121.010	-0.086	-0.014
-268.311	72.945	-0.206	0.214
-267.297	285.199	0.170	-0.305
-266.282	-39.201	-0.057	0.030
-265.267	-200.000	0.007	0.144
-264.253	93.167	0.103	0.116
-263.238	-97.189	0.269	0.070
-262.224	33.888	0.159	-0.137
-261.209	330.817	-0.119	0.228
-260.195	-18.270	0.193	-0.120
-259.180	-10.614	-0.221	-0.145
-258.165	24.666	-0.119	0.098
-257.151	-100.492	0.087	-0.021
-256.136	49.146	0.233	-0.218
-255.122	108.425	-0.290	0.344
-254.107	-5.308	0.171	0.117
-253.092	-138.134	-0.129	0.014
-252.078	54.413	0.147	-0.140
-251.063	290.378	-0.023	-0.042
-250.049	-200.000	-0.023	-0.378
-249.034	23.152	0.297	-0.242
-248.019	-200.000	0.003	0.062
-247.005	-29.430	-0.083	0.047
-245.990	-115.445	0.428	-0.080
-244.976	608.069	-0.085	0.211
-243.961	449.432	-0.078	0.170
-242.946	74.533	0.058	-0.061
-241.932	-146.710	-0.264	-0.023
-240.917	-153.473	-0.337	-0.023
-239.903	-160.926	-0.176	0.009
-238.888	-9.427	0.397	0.263
-237.873	0.860	0.097	0.069
-236.859	-19.830	-0.165	-0.101
-235.844	-24.592	0.011	0.007
-234.830	800.000	0.106	-0.368
-233.815	22.282	0.159	-0.129
-232.800	5.903	0.262	0.193
-231.786	-114.469	0.147	0.028
-230.771	247.202	-0.155	-0.259
-229.757	800.000	-0.095	0.281
-228.742	0.546	0.095	-0.067
-227.727	-200.000	-0.032	-0.221
-226.713	-16.499	0.171	-0.108
-225.698	-200.000	-0.024	0.324
-224.684	-119.117	-0.119	0.021
-223.669	-152.502	0.159	-0.011
-222.655	-152.330	-0.235	-0.017
-221.640	-71.407	0.216	-0.080
-220.625	-200.000	-0.098	-0.487
-219.611	800.000	-0.152	0.460
-218.596	-200.000	0.064	0.278
-217.582	170.981	0.126	0.179
-216.567	-200.000	0.071	-0.377
-215.552	-41.636	-0.275	-0.140
-214.538	-68.079	0.093	0.036
-213.523	465.521	0.178	0.396
-212.509	271.168	-0.068	-0.119
-211.494	-107.184	0.216	0.047
-210.479	-200.000	-0.001	0.196
-209.465	-200.000	0.002	-0.172
-208.450	-200.000	-0.011	0.187
-207.436	-82.388	-0.201	0.065
-206.421	-88.850	-0.328	-0.096
-205.406	-113.009	0.135	0.026
-204.392	800.000	0.103	-0.291
-203.377	300.488	-0.052	-0.095
-202.363	-168.526	0.206	0.008
-201.348	-200.000	0.016	-0.236
-200.333	-122.109	0.393	0.064
-199.319	99.863	0.009	-0.010
-198.304	504.669	0.174	-0.399
-197.290	800.000	-0.089	-0.339
-196.275	-200.000	0.009	0.442
-195.260	458.393	-0.054	-0.119
-194.246	800.000	0.039	0.132
-193.231	-48.309	0.139	-0.066
-192.217	-77.315	0.323	-0.111
-191.202	-146.759	0.282	-0.024
-190.187	-171.639	-0.332	-0.011
-189.173	-200.000	-0.044	-0.237
-188.158	-185.115	-0.170	0.003
-187.144	-148.009	-0.155	-0.013
-186.129	-52.741	0.406	0.186
-185.114	-144.177	-0.162	0.015
-184.100	-200.000	-0.034	-0.339
-183.085	-23.050	-0.156	0.093
-182.071	-102.975	0.155	-0.037
-181.056	17.679	0.157	-0.124
-180.042	-49.152	-0.348	0.165
-179.027	-200.000	0.012	0.278
-178.012	800.000	0.068	0.201
-176.998	-77.500	0.377	-0.130
-175.983	-200.000	-0.018	-0.112
-174.969	35.694	0.344	-0.300
-173.954	81.937	-0.183	-0.196
-172.939	14.613	0.132	-0.102
-171.925	604.778	-0.049	0.121
-170.910	-79.261	-0.118	-0.040
-169.896	-126.899	0.224	0.033
-168.881	85.617	0.083	0.090
-167.866	7.967	-0.457	0.340
-166.852	675.988	0.134	-0.346
-165.837	-56.916	0.222	0.097
-164.823	-28.867	0.126	0.072
-163.808	800.000	0.050	-0.188
-162.793	-74.403	-0.119	-0.043
-161.779	800.000	-0.148	0.432
-160.764	198.292	-0.194	0.293
-159.750	-33.962	0.157	-0.086
-158.735	78.630	-0.120	0.127
-157.720	50.526	-0.190	0.178
-156.706	142.403	-0.129	0.170
-155.691	-200.000	-0.023	-0.123
-154.677	-120.033	0.045	0.008
-153.662	197.248	0.137	-0.207
-152.647	-139.102	0.144	-0.015
-151.633	800.000	-0.138	0.412
-150.618	-24.297	0.181	-0.107
-149.604	-48.095	-0.196	-0.093
-148.589	89.949	-0.017	0.019
-147.574	5.799	0.206	0.151
-146.560	-200.000	0.048	-0.275
-145.545	-186.705	-0.195	-0.003
-144.531	50.108	0.058	0.054
-143.516	99.362	-0.137	0.157
-142.502	800.000	0.066	0.184
-141.487	-200.000	0.004	-0.107
-140.472	-0.327	-0.238	0.167
-139.458	-141.832	-0.100	0.010
-138.443	-121.420	0.385	-0.063
-137.429	304.204	0.059	0.109
-136.414	800.000	0.022	0.089
-135.399	-200.000	0.000	0.145
-134.385	-10.761	0.162	-0.106
-133.370	12.698	-0.143	-0.109
-132.356	61.793	0.190	-0.187
-131.341	-127.659	-0.303	0.043
-130.326	-120.577	0.186	0.031
-129.312	-139.932	0.327	-0.034
-128.297	379.020	-0.096	-0.195
-127.283	-200.000	0.008	-0.134
-126.268	-112.963	-0.056	-0.011
-125.253	28.231	0.185	-0.154
-124.239	-41.206	-0.243	0.124
-123.224	-3.577	-0.168	0.115
-122.210	-38.783	-0.138	-0.072
