DTS Sentinel unit serial number:	SN413079Multiplexer serial number:	ORYXHardware model number:	OX4-SRSoftware version number:	ORYX F/W v4.00 Oryx Data Collector v3.7.2.0data status	okinstallation	princeton_trtdifferential loss correction	single-endedforward channel	channel 4reverse channel	N/Adate	2019/09/14time	18:25:35forward acquisition time	60.00reverse acquisition time	0.00gamma	496.2192k internal	0.2298k external	0.2298temperature offset calibration	1.0109default loss term (dB/km)	0.3790temperature slope calibration	1.0000multiplexer offset coefficient	1.0000multiplexer slope coefficient	1.0000fibre end	0.00T internal ref (°C)	36.75T ext. ref 1 (°C)	4.93T ext. ref 2 (°C)	30.57length (m)	temperature (°C)	Stokes	anti-Stokes-747.200	36.547	-0.203	0.183
-746.185	-25.467	-0.062	0.037
-745.171	698.372	-0.032	-0.087
-744.156	65.977	0.161	0.167
-743.142	42.418	-0.071	0.066
-742.127	159.976	-0.248	-0.352
-741.112	142.716	0.134	-0.182
-740.098	252.555	0.034	-0.060
-739.083	144.739	0.140	-0.192
-738.069	-200.000	0.037	0.275
-737.054	76.896	0.129	0.140
-736.039	-200.000	-0.010	-0.063
-735.025	800.000	0.080	-0.255
-734.010	-200.000	-0.007	-0.082
-732.996	538.230	0.032	0.078
-731.981	-140.230	-0.145	-0.016
-730.966	338.803	0.089	-0.177
-729.952	-200.000	-0.001	0.242
-728.937	-80.095	0.286	-0.098
-727.923	800.000	-0.086	-0.248
-726.908	328.221	0.181	0.354
-725.894	-54.503	-0.124	-0.057
-724.879	-95.946	0.166	0.045
-723.864	119.732	-0.047	0.059
-722.850	-154.664	-0.248	-0.017
-721.835	10.385	0.152	-0.118
-720.821	87.738	0.108	-0.122
-719.806	-68.657	-0.034	0.014
-718.791	47.575	0.169	-0.161
-717.777	-81.990	0.277	-0.092
-716.762	-131.853	0.091	0.012
-715.748	508.562	-0.019	0.044
-714.733	67.684	0.072	-0.075
-713.718	-100.416	0.232	-0.059
-712.704	-200.000	0.028	0.308
-711.689	-110.678	0.140	0.029
-710.675	-48.174	-0.289	0.142
-709.660	91.645	-0.058	0.067
-708.645	-164.693	-0.221	0.010
-707.631	-90.013	-0.132	0.039
-706.616	-101.912	0.295	0.073
-705.602	36.923	0.078	0.070
-704.587	-145.486	-0.298	0.027
-703.572	-200.000	-0.042	0.262
-702.558	-200.000	0.038	0.240
-701.543	180.848	-0.065	0.097
-700.529	-200.000	-0.042	-0.349
-699.514	-102.858	-0.159	0.039
-698.499	800.000	0.023	0.082
-697.485	286.446	0.063	0.117
-696.470	188.240	-0.140	-0.213
-695.456	800.000	0.029	-0.121
-694.441	800.000	0.046	0.180
-693.426	-2.103	0.403	-0.288
-692.412	410.776	0.055	-0.118
-691.397	84.548	0.108	-0.121
-690.383	-0.173	0.142	-0.103
-689.368	-83.691	-0.459	0.149
-688.354	9.183	0.202	-0.156
-687.339	-200.000	-0.005	0.146
-686.324	-54.589	0.047	0.022
-685.310	-133.669	-0.476	0.061
-684.295	-86.089	-0.156	-0.049
-683.281	525.217	0.085	0.203
-682.266	-200.000	-0.013	-0.198
-681.251	197.854	0.026	-0.041
-680.237	-39.999	-0.309	0.164
-679.222	2.901	-0.094	0.070
-678.208	155.388	-0.151	-0.212
-677.193	409.417	0.144	-0.311
-676.178	-64.397	0.293	-0.121
-675.164	347.595	0.147	0.295
-674.149	266.886	0.041	-0.073
-673.135	35.607	-0.307	0.274
-672.120	-58.531	-0.148	-0.065
-671.105	-76.099	-0.294	0.106
-670.091	-95.536	0.362	-0.099
-669.076	22.012	0.146	-0.121
-668.062	460.199	0.067	-0.153
-667.047	-102.753	-0.253	-0.061
-666.032	341.548	-0.207	-0.412
-665.018	133.404	-0.109	-0.143
-664.003	373.359	0.109	-0.226
-662.989	135.024	0.160	0.212
-661.974	-19.624	-0.267	0.168
-660.959	800.000	-0.084	-0.267
-659.945	-42.790	-0.329	-0.170
-658.930	32.170	-0.219	0.192
-657.916	7.204	0.129	-0.098
-656.901	-48.313	-0.175	-0.086
-655.886	250.035	-0.298	-0.514
-654.872	629.310	0.174	-0.447
-653.857	777.783	0.081	-0.224
-652.843	453.067	0.070	0.157
-651.828	800.000	-0.097	0.426
-650.814	-200.000	0.023	-0.240
-649.799	313.290	-0.069	0.132
-648.784	-14.407	-0.188	0.123
-647.770	0.537	-0.311	-0.226
-646.755	-130.108	0.267	-0.037
-645.741	-49.900	-0.286	-0.138
-644.726	159.813	-0.155	-0.219
-643.711	-200.000	-0.005	-0.116
-642.697	229.037	-0.137	0.227
-641.682	68.342	-0.329	-0.343
-640.668	-161.978	-0.132	-0.007
-639.653	-93.796	-0.269	-0.075
-638.638	200.584	0.064	-0.100
-637.624	-116.183	-0.199	0.038
-636.609	-200.000	0.004	0.198
-635.595	-142.072	-0.045	0.005
-634.580	-97.901	0.174	-0.046
-633.565	573.049	0.036	-0.089
-632.551	233.893	-0.167	0.280
-631.536	-200.000	-0.015	-0.273
-630.522	161.269	0.092	0.131
-629.507	1.515	-0.075	-0.055
-628.492	-200.000	-0.026	-0.460
-627.478	244.348	0.094	-0.160
-626.463	75.868	0.184	-0.197
-625.449	-112.739	-0.271	-0.055
-624.434	-126.182	0.251	0.038
-623.419	800.000	0.038	-0.166
-622.405	-200.000	0.041	-0.308
-621.390	180.893	-0.113	-0.168
-620.376	-84.214	0.268	-0.086
-619.361	195.870	0.145	-0.225
-618.346	-106.853	0.225	-0.051
-617.332	-127.110	-0.338	0.050
-616.317	-157.310	-0.302	-0.019
-615.303	-79.660	-0.170	-0.058
-614.288	91.211	-0.198	0.226
-613.273	-200.000	0.024	-0.353
-612.259	24.831	0.039	-0.033
-611.244	-200.000	-0.025	0.214
-610.230	-200.000	0.033	0.212
-609.215	-30.998	-0.099	-0.057
-608.201	-182.865	-0.080	-0.001
-607.186	-62.340	-0.181	-0.077
-606.171	157.803	-0.093	-0.130
-605.157	-105.192	-0.282	0.065
-604.142	800.000	0.051	0.175
-603.128	764.806	0.113	-0.311
-602.113	-23.513	0.252	-0.153
-601.098	191.142	0.136	-0.208
-600.084	-141.015	-0.242	-0.025
-599.069	-200.000	0.057	-0.279
-598.055	-200.000	-0.001	0.176
-597.040	7.872	0.286	0.217
-596.025	23.394	0.239	-0.200
-595.011	800.000	0.034	-0.127
-593.996	-92.672	-0.204	-0.058
-592.982	-200.000	0.041	0.203
-591.967	5.856	0.145	-0.109
-590.952	26.546	0.155	-0.132
-589.938	257.259	-0.123	0.215
-588.923	-101.658	0.152	-0.037
-587.909	50.632	0.036	0.035
-586.894	-57.216	0.086	0.038
-585.879	-200.000	0.021	-0.133
-584.865	117.556	-0.118	0.148
-583.850	33.972	0.365	0.322
-582.836	378.875	-0.046	0.096
-581.821	-200.000	-0.018	-0.345
-580.806	-59.905	0.273	0.118
-579.792	102.687	0.146	0.174
-578.777	113.234	0.027	0.033
-577.763	-10.355	-0.044	-0.030
-576.748	800.000	0.084	-0.293
-575.733	-200.000	0.022	0.231
-574.719	800.000	0.020	-0.067
-573.704	-119.491	-0.194	0.034
-572.690	-55.156	-0.313	-0.143
-571.675	20.985	0.082	0.068
-570.661	-200.000	-0.007	-0.101
-569.646	56.688	-0.284	-0.280
-568.631	-126.827	0.205	-0.031
-567.617	159.375	-0.145	-0.205
-566.602	-114.683	0.084	-0.016
-565.588	800.000	-0.036	0.118
-564.573	800.000	-0.094	0.290
-563.558	-127.052	0.118	-0.017
-562.544	-34.948	-0.156	0.086
-561.529	152.780	-0.105	-0.146
-560.515	-200.000	-0.011	-0.361
-559.500	-25.956	0.200	0.120
-558.485	800.000	-0.055	0.240
-557.471	-3.628	-0.286	-0.202
-556.456	-200.000	0.007	0.127
-555.442	98.537	0.098	-0.114
-554.427	-39.247	-0.181	0.096
-553.412	768.094	-0.080	0.222
-552.398	38.471	-0.149	-0.135
-551.383	-67.650	0.259	0.103
-550.369	-43.391	-0.117	-0.060
-549.354	651.168	-0.012	0.030
-548.339	113.851	0.105	-0.130
-547.325	-61.599	0.088	-0.037
-546.310	-200.000	-0.085	0.481
-545.296	-24.838	0.270	0.162
-544.281	-200.000	-0.043	0.213
-543.266	-119.360	0.262	0.046
-542.252	397.988	0.061	0.128
-541.237	-200.000	-0.015	-0.137
-540.223	315.428	0.131	0.250
-539.208	-53.792	-0.042	-0.019
-538.193	-109.002	0.303	-0.065
-537.179	-200.000	-0.038	0.172
-536.164	-61.240	-0.250	-0.107
-535.150	484.696	0.093	0.215
-534.135	-200.000	0.027	-0.267
-533.121	-200.000	0.016	-0.095
-532.106	-158.523	-0.134	0.008
-531.091	-153.258	-0.103	0.007
-530.077	218.845	-0.099	-0.160
-529.062	284.708	0.061	0.112
-528.048	31.105	-0.148	-0.128
-527.033	-86.274	-0.380	-0.119
-526.018	249.015	-0.151	-0.259
-525.004	479.913	0.074	-0.169
-523.989	263.899	0.194	-0.341
-522.975	-11.681	0.248	0.165
-521.960	-58.037	0.181	-0.080
-520.945	-64.866	-0.025	0.010
-519.931	53.932	0.166	-0.161
-518.916	-200.000	-0.014	-0.319
-517.902	59.848	-0.176	0.176
-516.887	735.702	-0.083	0.225
-515.872	-46.464	0.107	0.053
-514.858	17.469	-0.337	-0.271
-513.843	-24.354	0.221	0.133
-512.829	32.200	0.053	0.046
-511.814	-200.000	-0.017	0.079
-510.799	-129.210	0.170	0.024
-509.785	800.000	-0.136	-0.472
-508.770	295.758	-0.089	-0.165
-507.756	-43.321	-0.283	-0.145
-506.741	-200.000	0.002	0.431
-505.726	-200.000	0.007	0.404
-504.712	-200.000	-0.011	-0.056
-503.697	-62.304	0.125	0.053
-502.683	8.390	-0.165	-0.125
-501.668	800.000	-0.015	-0.043
-500.653	248.246	-0.041	0.070
-499.639	152.257	-0.126	-0.174
-498.624	-99.711	-0.348	-0.088
-497.610	-200.000	-0.009	0.253
-496.595	-116.401	0.117	-0.022
-495.581	-20.050	-0.323	0.202
-494.566	-200.000	0.026	0.398
-493.551	-129.171	-0.139	0.020
-492.537	-143.613	-0.213	-0.020
-491.522	73.380	0.217	-0.229
-490.508	-97.754	-0.061	-0.016
-489.493	-200.000	0.023	-0.138
-488.478	32.426	-0.149	0.130
-487.464	-61.975	-0.141	0.060
-486.449	92.093	0.178	0.202
-485.435	149.654	-0.214	-0.293
-484.420	-102.965	-0.083	-0.020
-483.405	-62.465	0.151	0.063
-482.391	-5.348	0.158	-0.110
-481.376	-200.000	-0.018	0.097
-480.362	-200.000	-0.002	-0.148
-479.347	281.673	-0.110	-0.198
-478.332	312.895	-0.075	-0.142
-477.318	-155.014	-0.093	-0.006
-476.303	-200.000	0.034	0.226
-475.289	-200.000	-0.007	-0.093
-474.274	-56.977	0.251	0.112
-473.259	40.045	-0.081	-0.074
-472.245	-74.887	-0.206	-0.075
-471.230	222.076	-0.148	-0.241
-470.216	-200.000	-0.015	-0.091
-469.201	27.161	-0.280	0.237
-468.186	117.608	-0.135	0.167
-467.172	38.456	-0.122	-0.110
-466.157	97.099	0.058	0.068
-465.143	-81.323	0.252	-0.084
-464.128	114.807	0.237	-0.292
-463.113	-200.000	0.010	-0.301
-462.099	24.052	-0.085	0.071
-461.084	-68.888	0.095	0.037
-460.070	139.785	-0.084	0.111
-459.055	-84.585	-0.135	0.043
-458.040	800.000	0.162	-0.465
-457.026	-200.000	-0.013	-0.256
-456.011	46.349	-0.035	-0.033
-454.997	-101.275	0.155	0.038
-453.982	-7.460	0.065	-0.044
-452.968	-66.261	0.251	0.101
-451.953	-111.926	0.269	0.055
-450.938	67.831	-0.237	-0.244
-449.924	132.309	0.150	-0.195
-448.909	99.396	0.055	0.064
-447.895	602.384	0.045	-0.113
-446.880	-29.078	0.355	0.205
-445.865	800.000	-0.048	0.144
-444.851	800.000	0.034	0.147
-443.836	-43.056	-0.377	-0.193
-442.822	105.319	-0.066	-0.078
-441.807	800.000	0.045	-0.165
-440.792	-180.503	-0.047	0.001
-439.778	-72.767	-0.464	0.172
-438.763	-126.234	-0.041	0.006
-437.749	-94.834	0.236	0.065
-436.734	-133.077	0.064	-0.008
-435.719	204.189	0.095	0.148
-434.705	78.959	-0.141	0.153
-433.690	-41.109	-0.159	0.083
-432.676	-48.070	-0.117	-0.057
-431.661	156.798	-0.107	-0.150
-430.646	132.935	0.238	0.310
-429.632	103.439	0.109	-0.128
-428.617	116.270	0.134	-0.166
-427.603	163.757	0.175	0.248
-426.588	374.505	0.040	0.082
-425.573	52.870	-0.202	0.195
-424.559	292.550	0.153	0.281
-423.544	43.697	0.347	-0.320
-422.530	87.060	0.105	0.117
-421.515	-25.684	-0.237	0.141
-420.500	7.085	0.155	0.117
-419.486	-109.127	-0.343	-0.073
-418.471	-133.105	0.206	-0.026
-417.457	-200.000	-0.019	-0.092
-416.442	-37.323	0.346	0.186
-415.428	-55.797	-0.126	0.057
-414.413	-21.099	-0.283	0.174
-413.398	800.000	0.017	0.059
-412.384	-200.000	0.038	0.229
-411.369	-8.004	0.057	-0.038
-410.355	38.048	-0.215	-0.193
-409.340	-200.000	-0.004	-0.088
-408.325	125.754	-0.166	-0.212
-407.311	49.591	-0.189	-0.179
-406.296	11.511	0.189	-0.146
-405.282	-39.842	0.269	-0.141
-404.267	-73.378	0.267	0.098
-403.252	800.000	-0.050	0.200
-402.238	-32.656	0.199	-0.112
-401.223	-152.181	0.225	-0.016
-400.209	-107.487	-0.025	0.005
-399.194	150.967	0.176	0.242
-398.179	-85.846	-0.375	0.117
-397.165	48.226	-0.203	-0.191
-396.150	10.234	-0.040	-0.030
-395.136	-20.530	-0.259	0.160
-394.121	-20.229	0.146	0.091
-393.106	379.999	-0.084	0.173
-392.092	-9.485	-0.266	-0.178
-391.077	295.906	0.125	-0.230
-390.063	-54.590	0.394	-0.180
-389.048	800.000	0.047	0.189
-388.033	-97.499	-0.143	-0.037
-387.019	86.254	-0.230	-0.255
-386.004	27.238	-0.150	-0.127
-384.990	-28.086	-0.241	-0.140
-383.975	-56.163	-0.373	0.167
-382.960	35.992	0.049	0.043
-381.946	-200.000	-0.004	-0.260
-380.931	-200.000	-0.035	0.179
-379.917	18.380	-0.223	-0.180
-378.902	327.528	-0.159	0.307
-377.888	-64.791	0.207	-0.084
-376.873	-7.667	0.136	0.092
-375.858	-31.800	0.206	-0.116
-374.844	12.753	0.166	-0.129
-373.829	-92.438	-0.127	0.036
-372.815	-200.000	0.031	0.226
-371.800	-101.626	0.171	-0.042
-370.785	165.694	-0.034	-0.049
-369.771	-95.096	0.116	-0.032
-368.756	-64.559	0.040	0.016
-367.742	141.137	-0.105	-0.140
-366.727	36.565	0.126	-0.112
-365.712	-200.000	-0.028	0.328
-364.698	-200.000	0.029	0.300
-363.683	354.917	-0.160	-0.320
-362.669	-30.464	0.074	0.042
-361.654	800.000	-0.066	0.195
-360.639	-200.000	0.055	-0.264
-359.625	38.875	0.282	0.253
-358.610	84.207	-0.133	-0.146
-357.596	-200.000	0.001	-0.252
-356.581	-200.000	-0.024	0.162
-355.566	281.338	-0.098	0.177
-354.552	103.243	0.192	0.227
-353.537	-23.890	-0.099	0.059
-352.523	-192.139	-0.135	-0.001
-351.508	800.000	-0.079	0.318
-350.493	-74.705	0.118	0.043
-349.479	17.615	0.058	0.046
-348.464	-200.000	-0.011	-0.074
-347.450	36.017	0.041	-0.036
-346.435	-79.538	-0.353	-0.120
-345.420	-29.837	0.346	0.198
-344.406	346.020	0.165	-0.325
-343.391	-94.704	-0.198	0.054
-342.377	-200.000	0.030	-0.149
-341.362	-43.397	0.129	-0.066
-340.348	-9.771	0.157	-0.105
-339.333	800.000	0.068	-0.236
-338.318	-130.833	0.201	-0.027
-337.304	139.774	-0.123	-0.162
-336.289	800.000	0.038	-0.127
-335.275	-122.706	0.060	-0.010
-334.260	8.107	0.187	0.141
-333.245	333.994	-0.056	0.108
-332.231	-164.043	0.114	-0.005
-331.216	-150.583	0.262	0.020
-330.202	-112.917	-0.214	-0.043
-329.187	-200.000	-0.045	-0.333
-328.172	7.829	-0.247	0.186
-327.158	733.007	0.043	0.116
-326.143	-200.000	0.023	-0.126
-325.129	5.985	-0.135	-0.101
-324.114	-0.722	0.256	0.182
-323.099	86.800	0.150	0.166
-322.085	-95.945	-0.549	-0.147
-321.070	-172.005	0.189	-0.006
-320.056	-162.797	-0.197	0.010
-319.041	-74.888	-0.267	-0.096
-318.026	542.434	-0.133	-0.319
-317.012	-86.820	0.132	-0.040
-315.997	270.852	-0.057	0.100
-314.983	20.185	-0.182	0.148
-313.968	590.558	-0.049	-0.121
-312.953	-58.420	0.099	-0.043
-311.939	-55.802	0.122	0.054
-310.924	800.000	0.145	0.424
-309.910	800.000	0.009	-0.036
-308.895	800.000	0.048	0.205
-307.880	538.352	-0.094	0.224
-306.866	365.848	-0.072	0.146
-305.851	89.227	-0.158	-0.177
-304.837	197.520	0.100	0.153
-303.822	-200.000	0.069	-0.334
-302.807	-153.009	0.377	-0.027
-301.793	800.000	-0.057	0.228
-300.778	524.053	0.033	0.077
-299.764	-105.206	0.106	-0.024
-298.749	-92.113	0.329	0.093
-297.735	-200.000	0.035	-0.211
-296.720	26.966	-0.109	0.091
-295.705	20.344	0.384	0.311
-294.691	-94.726	0.037	-0.010
-293.676	217.275	0.116	-0.186
-292.662	121.118	0.190	0.237
-291.647	744.821	0.056	-0.150
-290.632	-99.211	-0.321	-0.081
-289.618	609.245	0.134	0.337
-288.603	800.000	0.060	0.216
-287.589	-102.642	0.228	0.055
-286.574	-200.000	-0.016	0.216
-285.559	-159.318	-0.289	0.016
-284.545	-134.242	-0.104	0.013
-283.530	404.616	0.092	-0.195
-282.516	77.596	0.042	-0.045
-281.501	168.040	0.101	0.144
-280.486	354.253	0.068	-0.135
-279.472	269.957	0.165	0.290
-278.457	-89.866	0.187	0.055
-277.443	-29.501	0.081	0.046
-276.428	-65.311	0.068	0.028
-275.413	-200.000	0.028	-0.174
-274.399	12.154	0.115	-0.089
-273.384	400.917	0.074	0.156
-272.370	35.649	-0.124	0.109
-271.355	60.157	-0.334	0.331
-270.340	-106.639	0.225	-0.050
-269.326	22.783	-0.180	0.148
-268.311	68.420	-0.291	0.299
-267.297	-200.000	-0.028	0.298
-266.282	17.013	0.209	0.166
-265.267	18.880	0.121	-0.097
-264.253	27.928	0.159	0.134
-263.238	272.320	0.148	-0.261
-262.224	-112.926	0.194	0.039
-261.209	-24.482	0.051	-0.031
-260.195	-91.413	-0.195	0.056
-259.180	-63.319	0.370	-0.153
-258.165	-88.744	0.127	-0.038
-257.151	218.760	-0.174	-0.278
-256.136	-200.000	-0.050	-0.257
-255.122	-10.046	-0.206	-0.137
-254.107	-134.490	-0.313	-0.038
-253.092	800.000	0.153	-0.487
-252.078	-21.621	0.466	0.284
-251.063	800.000	0.026	0.111
-250.049	-200.000	-0.011	0.150
-249.034	800.000	-0.089	-0.383
-248.019	11.048	0.073	-0.056
-247.005	-59.178	-0.104	-0.045
-245.990	-200.000	-0.024	0.116
-244.976	261.908	-0.101	0.175
-243.961	798.814	0.140	-0.385
-242.946	-101.380	-0.094	0.023
-241.932	-200.000	0.014	-0.158
-240.917	290.924	-0.165	-0.300
-239.903	-11.240	-0.122	0.081
-238.888	470.707	-0.006	0.013
-237.873	-200.000	-0.012	0.253
-236.859	-14.918	0.180	-0.115
-235.844	-68.796	0.096	-0.037
-234.830	747.550	0.039	-0.104
-233.815	-200.000	0.008	0.089
-232.800	186.463	0.112	-0.167
-231.786	31.383	-0.176	-0.151
-230.771	-45.815	0.095	0.047
-229.757	66.164	0.148	0.150
-228.742	800.000	-0.083	0.358
-227.727	205.174	0.102	0.158
-226.713	10.502	-0.193	-0.147
-225.698	-44.994	0.085	-0.043
-224.684	-16.555	0.378	-0.240
-223.669	102.453	-0.051	0.060
-222.655	-200.000	0.000	0.211
-221.640	-200.000	-0.011	0.171
-220.625	-93.018	0.102	-0.028
-219.611	105.819	-0.122	0.145
-218.596	-60.833	-0.302	-0.128
-217.582	7.128	0.245	-0.183
-216.567	27.168	0.266	0.223
-215.552	-61.021	-0.064	-0.027
-214.538	-95.523	0.217	0.058
-213.523	13.141	-0.190	-0.147
-212.509	-200.000	0.021	-0.207
-211.494	-23.903	0.159	-0.095
-210.479	-200.000	0.048	0.328
-209.465	-200.000	0.000	0.116
-208.450	60.709	0.059	0.059
-207.436	-1.815	0.203	0.143
-206.421	-200.000	0.032	0.256
-205.406	117.474	-0.211	0.259
-204.392	-33.826	-0.232	0.128
-203.377	81.866	-0.034	0.037
-202.363	800.000	0.029	0.111
-201.348	-42.116	-0.302	0.154
-200.333	55.096	-0.133	0.128
-199.319	67.332	-0.149	-0.152
-198.304	-35.602	-0.216	-0.117
-197.290	-200.000	0.016	0.089
-196.275	-3.382	-0.227	-0.158
-195.260	-200.000	-0.011	-0.051
-194.246	-7.186	0.291	0.197
-193.231	62.172	-0.054	0.054
-192.217	128.450	-0.124	0.158
-191.202	-84.413	0.175	0.055
-190.187	-13.846	-0.115	-0.074
-189.173	-78.291	0.081	0.028
-188.158	-88.263	0.157	-0.047
-187.144	-113.549	-0.146	-0.029
-186.129	134.322	0.301	0.390
-185.114	21.797	0.235	0.191
-184.100	-175.946	-0.217	-0.006
-183.085	155.648	-0.104	0.143
-182.071	21.166	0.049	0.040
-181.056	298.642	-0.110	-0.201
-180.042	-200.000	0.012	0.223
-179.027	-200.000	-0.065	0.422
-178.012	483.816	-0.056	0.128
-176.998	-15.047	0.158	0.101
-175.983	-95.391	0.181	-0.049
-174.969	8.341	0.189	0.142
-173.954	-55.912	-0.153	-0.068
-172.939	800.000	0.126	0.362
-171.925	593.741	-0.130	0.320
-170.910	-200.000	-0.007	-0.351
-169.896	800.000	-0.039	0.128
-168.881	-200.000	0.021	-0.243
-167.866	-69.507	-0.176	-0.067
-166.852	-200.000	0.003	0.275
-165.837	800.000	-0.076	-0.216
-164.823	-200.000	0.045	0.337
-163.808	785.686	0.098	0.267
-162.793	187.909	0.055	0.081
-161.779	-200.000	0.059	0.331
-160.764	356.050	0.121	-0.241
-159.750	-200.000	0.011	-0.189
-158.735	264.952	0.068	0.118
-157.720	-200.000	0.015	-0.072
-156.706	-200.000	-0.013	-0.106
-155.691	363.893	-0.147	-0.294
-154.677	358.655	-0.230	-0.458
-153.662	160.506	0.153	-0.213
-152.647	800.000	0.024	0.100
-151.633	97.765	0.012	-0.014
-150.618	800.000	0.025	-0.107
-149.604	240.511	0.135	0.224
-148.589	-200.000	-0.107	0.494
-147.574	-35.859	0.283	-0.153
-146.560	338.391	-0.114	-0.221
-145.545	94.222	-0.056	-0.063
-144.531	53.300	0.176	-0.168
-143.516	220.179	-0.126	0.202
-142.502	-162.393	0.206	0.010
-141.487	-2.376	0.130	-0.091
-140.472	236.002	0.071	-0.117
-139.458	-148.207	0.233	0.019
-138.443	388.823	0.033	0.069
-137.429	-173.502	0.228	0.007
-136.414	444.789	-0.080	0.176
-135.399	-200.000	0.012	-0.100
-134.385	-32.719	0.166	-0.092
-133.370	-200.000	0.024	0.273
-132.356	-74.275	-0.314	-0.113
-131.341	208.279	-0.164	-0.255
-130.326	-150.786	0.128	-0.010
-129.312	117.114	0.228	-0.279
-128.297	-19.561	0.209	-0.129
-127.283	-200.000	-0.040	-0.206
-126.268	85.111	0.093	-0.102
-125.253	88.941	0.065	-0.072
-124.239	633.975	0.097	-0.245
-123.224	-73.543	-0.050	0.018
-122.210	151.613	-0.175	0.238
-121.195	39.820	-0.007	-0.007
-120.180	-108.685	0.153	0.033
