DTS Sentinel unit serial number:	SN413079Multiplexer serial number:	ORYXHardware model number:	OX4-SRSoftware version number:	ORYX F/W v4.00 Oryx Data Collector v3.7.2.0data status	okinstallation	princeton_trtdifferential loss correction	single-endedforward channel	channel 4reverse channel	N/Adate	2019/09/12time	21:29:35forward acquisition time	60.00reverse acquisition time	0.00gamma	496.2192k internal	0.2314k external	0.2314temperature offset calibration	1.0169default loss term (dB/km)	0.3790temperature slope calibration	1.0000multiplexer offset coefficient	1.0000multiplexer slope coefficient	1.0000fibre end	0.00T internal ref (°C)	30.44T ext. ref 1 (°C)	3.65T ext. ref 2 (°C)	25.07length (m)	temperature (°C)	Stokes	anti-Stokes-747.200	740.585	0.111	0.303
-746.185	79.093	-0.240	0.260
-745.171	281.220	-0.016	0.029
-744.156	-38.620	0.364	-0.195
-743.142	116.632	0.129	-0.160
-742.127	197.135	-0.128	-0.199
-741.112	800.000	0.066	-0.252
-740.098	242.104	-0.123	0.209
-739.083	-128.784	0.295	-0.042
-738.069	-10.342	0.099	-0.066
-737.054	47.584	0.095	0.090
-736.039	800.000	0.036	0.155
-735.025	-200.000	-0.017	0.217
-734.010	-113.081	-0.358	0.072
-732.996	53.451	-0.240	0.234
-731.981	-153.133	-0.204	-0.014
-730.966	8.333	0.052	0.039
-729.952	-151.158	-0.251	-0.019
-728.937	800.000	0.059	-0.178
-727.923	-90.810	-0.193	-0.056
-726.908	154.352	-0.181	-0.251
-725.894	800.000	0.073	-0.243
-724.879	-50.302	-0.178	-0.085
-723.864	-132.802	-0.059	0.008
-722.850	639.909	-0.131	0.339
-721.835	-142.995	-0.049	0.005
-720.821	186.159	0.134	-0.202
-719.806	-121.623	-0.476	-0.080
-718.791	165.292	-0.248	-0.355
-717.777	-26.039	0.222	-0.132
-716.762	4.568	-0.131	-0.097
-715.748	-200.000	-0.032	0.233
-714.733	-200.000	-0.042	-0.337
-713.718	-99.122	-0.341	0.088
-712.704	-124.302	-0.238	-0.038
-711.689	46.553	0.193	0.182
-710.675	-89.505	-0.245	0.073
-709.660	-58.678	-0.193	0.085
-708.645	52.608	-0.094	-0.091
-707.631	46.565	0.117	0.110
-706.616	55.974	0.118	0.116
-705.602	147.488	-0.116	-0.159
-704.587	49.844	-0.133	-0.127
-703.572	224.050	0.183	0.299
-702.558	-31.054	0.028	0.016
-701.543	-22.937	0.161	-0.098
-700.529	41.415	0.143	-0.131
-699.514	31.080	0.172	0.150
-698.499	800.000	-0.056	-0.205
-697.485	-152.022	-0.158	-0.012
-696.470	-200.000	-0.028	-0.315
-695.456	-44.312	0.448	0.227
-694.441	-125.010	-0.182	0.028
-693.426	33.832	0.245	-0.216
-692.412	-117.162	-0.114	0.021
-691.397	800.000	-0.030	-0.129
-690.383	-200.000	0.028	-0.419
-689.368	-63.452	-0.040	-0.017
-688.354	-71.105	-0.389	0.148
-687.339	431.186	-0.154	-0.338
-686.324	-200.000	-0.010	-0.405
-685.310	142.442	0.235	-0.316
-684.295	-47.219	-0.122	-0.060
-683.281	257.381	-0.189	0.329
-682.266	26.963	-0.041	-0.035
-681.251	-52.170	-0.226	-0.106
-680.237	381.299	-0.023	-0.048
-679.222	146.839	-0.130	0.177
-678.208	-97.071	0.149	0.040
-677.193	-70.534	-0.236	-0.090
-676.178	22.595	0.227	-0.188
-675.164	-77.056	-0.135	0.047
-674.149	-75.094	0.263	0.095
-673.135	-200.000	0.022	-0.183
-672.120	142.844	-0.158	0.213
-671.105	-153.488	-0.293	0.021
-670.091	-55.668	0.341	-0.154
-669.076	-12.832	-0.236	0.155
-668.062	-200.000	-0.020	0.142
-667.047	26.689	-0.045	-0.038
-666.032	-200.000	0.025	-0.161
-665.018	800.000	0.043	-0.124
-664.003	32.042	-0.296	-0.258
-662.989	-180.854	-0.265	-0.005
-661.974	-3.611	-0.251	-0.176
-660.959	-8.376	-0.170	0.115
-659.945	19.121	0.245	-0.198
-658.930	130.958	0.081	-0.105
-657.916	77.891	-0.147	0.158
-656.901	254.362	-0.095	0.165
-655.886	800.000	-0.068	-0.222
-654.872	-92.046	-0.252	-0.072
-653.857	77.820	0.095	0.102
-652.843	-80.857	0.205	-0.069
-651.828	-93.359	0.018	0.005
-650.814	-200.000	0.011	-0.087
-649.799	33.434	0.166	-0.146
-648.784	-200.000	0.072	0.393
-647.770	-129.643	-0.453	0.063
-646.755	-37.687	0.465	-0.250
-645.741	-113.483	-0.621	-0.123
-644.726	-200.000	-0.008	-0.215
-643.711	-77.134	-0.283	-0.100
-642.697	-96.785	-0.101	-0.027
-641.682	67.054	-0.230	-0.236
-640.668	-142.608	-0.240	0.024
-639.653	17.233	0.181	0.145
-638.638	-200.000	-0.008	-0.094
-637.624	-27.464	0.075	0.044
-636.609	800.000	0.087	0.270
-635.595	-30.216	-0.126	0.072
-634.580	800.000	0.035	0.109
-633.565	800.000	0.122	-0.375
-632.551	99.280	0.079	0.092
-631.536	-141.023	-0.114	0.012
-630.522	-107.682	-0.065	0.014
-629.507	312.109	-0.076	-0.144
-628.492	-57.454	-0.055	0.025
-627.478	334.641	0.119	-0.232
-626.463	354.050	0.092	-0.185
-625.449	-200.000	-0.027	-0.412
-624.434	157.355	-0.093	-0.130
-623.419	-150.987	0.371	0.028
-622.405	107.587	-0.197	-0.237
-621.390	-200.000	0.014	0.199
-620.376	800.000	0.104	-0.313
-619.361	800.000	-0.043	0.124
-618.346	-53.231	-0.317	0.147
-617.332	-14.844	-0.315	-0.204
-616.317	-195.421	-0.171	-0.001
-615.303	63.066	-0.134	0.136
-614.288	30.327	0.182	0.156
-613.273	-200.000	-0.044	-0.221
-612.259	-200.000	0.001	-0.237
-611.244	-200.000	0.008	-0.059
-610.230	-81.170	-0.055	0.018
-609.215	-155.027	-0.030	-0.002
-608.201	13.702	-0.120	0.094
-607.186	445.650	0.117	0.259
-606.171	417.850	0.049	-0.105
-605.157	-141.834	0.329	-0.033
-604.142	-9.148	-0.068	0.046
-603.128	21.456	-0.151	0.124
-602.113	-200.000	-0.025	-0.166
-601.098	-5.866	-0.108	0.075
-600.084	117.563	-0.306	0.379
-599.069	92.423	0.043	0.049
-598.055	-15.448	0.109	-0.070
-597.040	-177.627	-0.480	-0.012
-596.025	-200.000	-0.020	0.376
-595.011	800.000	0.047	0.167
-593.996	-200.000	0.031	-0.338
-592.982	-200.000	0.055	-0.281
-591.967	87.108	0.058	0.065
-590.952	-200.000	-0.027	-0.154
-589.938	-200.000	0.013	0.060
-588.923	-57.803	0.238	-0.105
-587.909	-174.942	-0.170	0.005
-586.894	114.410	-0.267	-0.328
-585.879	311.288	-0.264	0.499
-584.865	-139.687	0.049	0.005
-583.850	-9.062	0.266	0.179
-582.836	220.927	0.102	-0.164
-581.821	-63.434	-0.147	-0.061
-580.806	-200.000	-0.024	-0.257
-579.792	-200.000	0.080	-0.369
-578.777	-88.644	-0.261	-0.078
-577.763	-108.599	0.124	-0.027
-576.748	58.708	-0.211	-0.209
-575.733	-88.983	-0.248	0.074
-574.719	282.799	0.137	-0.247
-573.704	-60.084	-0.213	-0.092
-572.690	-63.504	-0.298	0.123
-571.675	-57.226	0.111	0.049
-570.661	92.895	-0.180	0.205
-569.646	34.671	-0.262	-0.230
-568.631	34.440	-0.103	-0.090
-567.617	-115.442	-0.315	-0.060
-566.602	-40.270	-0.038	0.020
-565.588	-74.878	0.137	0.050
-564.573	320.943	0.177	0.338
-563.558	-176.907	-0.282	0.007
-562.544	308.210	0.166	0.312
-561.529	-200.000	0.034	0.189
-560.515	-16.663	-0.191	0.122
-559.500	121.529	-0.224	-0.282
-558.485	-200.000	0.047	0.220
-557.471	800.000	-0.051	-0.192
-556.456	-95.619	0.212	-0.057
-555.442	207.366	-0.074	0.116
-554.427	-82.140	0.046	0.015
-553.412	-139.909	0.254	0.027
-552.398	29.523	0.208	0.178
-551.383	525.371	0.078	-0.186
-550.369	800.000	-0.104	-0.371
-549.354	70.229	0.217	0.226
-548.339	34.797	0.290	-0.255
-547.325	-200.000	-0.011	-0.382
-546.310	-88.986	-0.369	-0.110
-545.296	130.218	-0.190	0.245
-544.281	14.243	-0.109	-0.086
-543.266	-43.627	0.377	-0.191
-542.252	59.515	0.308	0.305
-541.237	111.144	0.093	0.112
-540.223	19.663	-0.058	-0.047
-539.208	-4.638	0.208	0.144
-538.193	-80.832	-0.066	-0.022
-537.179	693.073	-0.077	0.203
-536.164	274.857	-0.021	0.037
-535.150	-200.000	0.019	-0.281
-534.135	-200.000	0.082	-0.395
-533.121	-37.332	-0.313	0.168
-532.106	166.402	0.153	0.218
-531.091	122.842	0.200	0.252
-530.077	-200.000	0.052	0.235
-529.062	203.681	0.274	0.426
-528.048	-34.719	-0.161	0.089
-527.033	-51.656	-0.310	0.145
-526.018	392.743	-0.161	-0.337
-525.004	-200.000	0.031	-0.257
-523.989	256.724	0.105	-0.181
-522.975	25.991	0.097	0.081
-521.960	-167.045	-0.429	0.018
-520.945	800.000	-0.027	0.093
-519.931	800.000	0.170	-0.489
-518.916	-32.914	0.115	0.064
-517.902	65.089	0.133	0.135
-516.887	-28.683	-0.214	0.124
-515.872	-154.949	-0.220	-0.015
-514.858	-37.563	0.132	0.071
-513.843	87.272	-0.156	-0.173
-512.829	-112.636	-0.441	0.088
-511.814	-200.000	-0.023	0.145
-510.799	66.937	0.145	-0.148
-509.785	-180.586	-0.256	0.005
-508.770	109.804	0.074	0.089
-507.756	773.839	0.110	0.301
-506.741	445.623	-0.077	0.169
-505.726	-13.690	0.130	0.085
-504.712	230.587	-0.119	0.195
-503.697	28.402	0.237	0.201
-502.683	800.000	0.067	-0.289
-501.668	-84.423	0.279	-0.089
-500.653	800.000	0.061	-0.172
-499.639	-143.245	0.149	0.014
-498.624	-200.000	-0.002	-0.276
-497.610	800.000	0.075	-0.251
-496.595	-198.862	-0.091	0.001
-495.581	800.000	0.020	0.078
-494.566	318.076	-0.143	0.272
-493.551	-200.000	0.001	-0.234
-492.537	-3.408	0.213	0.149
-491.522	-152.350	0.300	-0.022
-490.508	-154.698	0.346	-0.023
-489.493	625.653	-0.028	0.070
-488.478	-107.606	-0.135	0.030
-487.464	-200.000	0.023	0.131
-486.449	800.000	0.012	0.041
-485.435	34.461	-0.077	0.068
-484.420	-29.248	-0.081	-0.047
-483.405	-127.089	0.012	-0.002
-482.391	-14.116	-0.163	0.106
-481.376	-9.578	-0.087	-0.058
-480.362	26.340	-0.145	0.122
-479.347	800.000	-0.019	0.073
-478.332	-69.188	-0.195	0.075
-477.318	-129.855	0.050	0.007
-476.303	444.617	0.050	0.109
-475.289	186.967	0.135	-0.202
-474.274	-112.860	0.311	-0.062
-473.259	122.387	-0.183	0.229
-472.245	-6.511	-0.121	-0.083
-471.230	-108.396	0.264	-0.057
-470.216	0.420	0.123	-0.088
-469.201	-177.165	-0.103	-0.003
-468.186	89.612	-0.088	-0.098
-467.172	-122.873	0.402	0.065
-466.157	800.000	-0.069	0.265
-465.143	-130.234	-0.102	-0.014
-464.128	221.156	0.219	-0.352
-463.113	434.113	-0.039	-0.085
-462.099	692.422	0.053	0.141
-461.084	-173.001	0.238	0.007
-460.070	-79.626	-0.180	0.061
-459.055	406.812	0.195	-0.413
-458.040	-154.827	0.479	0.032
-457.026	437.884	-0.134	0.293
-456.011	-200.000	0.039	-0.243
-454.997	728.775	-0.062	-0.166
-453.982	-200.000	0.031	-0.144
-452.968	400.782	0.128	0.269
-451.953	-136.161	-0.085	-0.010
-450.938	104.617	-0.108	-0.128
-449.924	114.406	0.185	-0.226
-448.909	747.061	0.079	0.214
-447.895	238.104	0.121	0.201
-446.880	577.075	0.114	-0.279
-445.865	241.101	0.113	-0.189
-444.851	181.013	-0.160	0.236
-443.836	260.346	0.065	-0.113
-442.822	-93.372	0.640	0.178
-441.807	-126.903	-0.285	-0.042
-440.792	471.450	-0.184	-0.416
-439.778	-16.824	-0.197	0.125
-438.763	-200.000	-0.023	-0.159
-437.749	111.839	-0.082	0.099
-436.734	47.659	-0.292	0.273
-435.719	-92.079	0.336	-0.095
-434.705	-58.326	-0.115	0.050
-433.690	73.785	-0.123	-0.129
-432.676	-23.480	0.252	-0.152
-431.661	254.893	0.126	-0.216
-430.646	-120.053	0.263	-0.045
-429.632	-53.322	-0.208	0.095
-428.617	-200.000	-0.030	-0.428
-427.603	165.711	0.141	-0.199
-426.588	-200.000	0.009	0.153
-425.573	-151.928	0.155	-0.011
-424.559	14.680	-0.077	-0.060
-423.544	-200.000	0.024	-0.150
-422.530	-64.818	-0.119	-0.048
-421.515	-102.585	-0.279	-0.067
-420.500	165.406	0.065	0.092
-419.486	-6.069	-0.055	-0.037
-418.471	-136.697	-0.092	-0.011
-417.457	-20.876	0.241	0.148
-416.442	-106.621	-0.065	-0.015
-415.428	1.316	-0.361	0.259
-414.413	-39.890	0.295	-0.154
-413.398	12.493	-0.120	-0.093
-412.384	-49.899	0.113	-0.054
-411.369	800.000	0.042	0.147
-410.355	-84.980	-0.307	0.096
-409.340	50.343	0.321	0.304
-408.325	108.686	-0.158	-0.189
-407.311	-124.204	-0.106	0.017
-406.296	-163.397	-0.284	-0.014
-405.282	103.710	-0.024	0.028
-404.267	145.647	-0.150	0.201
-403.252	-31.417	0.339	-0.191
-402.238	242.698	0.082	0.138
-401.223	-200.000	0.007	0.050
-400.209	56.100	-0.239	0.232
-399.194	624.681	-0.078	-0.198
-398.179	-49.811	-0.197	0.093
-397.165	800.000	0.035	0.125
-396.150	-200.000	0.076	-0.516
-395.136	-161.175	0.089	0.005
-394.121	-103.050	0.468	0.111
-393.106	-200.000	-0.011	-0.263
-392.092	-200.000	0.025	0.169
-391.077	176.728	-0.033	-0.048
-390.063	609.010	-0.056	-0.139
-389.048	-16.780	0.161	-0.102
-388.033	-200.000	0.023	0.296
-387.019	800.000	-0.095	0.301
-386.004	-108.437	0.206	0.044
-384.990	-93.591	0.256	0.071
-383.975	348.319	-0.104	-0.206
-382.960	-69.446	-0.141	-0.054
-381.946	-148.750	-0.219	0.018
-380.931	800.000	-0.063	0.267
-379.917	-200.000	-0.016	-0.272
-378.902	562.520	0.034	-0.081
-377.888	220.636	-0.070	-0.113
-376.873	-200.000	0.005	-0.049
-375.858	316.803	0.035	-0.066
-374.844	-41.302	-0.136	0.070
-373.829	-19.637	0.057	-0.035
-372.815	-200.000	-0.015	0.249
-371.800	-165.925	-0.179	0.008
-370.785	411.315	0.102	-0.216
-369.771	-200.000	-0.107	0.528
-368.756	-113.721	0.403	0.078
-367.742	258.593	0.024	0.042
-366.727	151.677	-0.230	0.313
-365.712	193.558	-0.086	0.130
-364.698	-29.597	-0.036	-0.020
-363.683	800.000	-0.056	0.182
-362.669	124.240	-0.260	0.326
-361.654	237.891	0.085	-0.141
-360.639	-75.951	-0.396	0.140
-359.625	-200.000	0.028	-0.133
-358.610	75.442	0.164	-0.173
-357.596	-39.697	-0.435	0.227
-356.581	61.925	-0.086	0.086
-355.566	-104.952	-0.360	-0.082
-354.552	-200.000	-0.047	0.305
-353.537	119.480	0.079	0.098
-352.523	-68.315	0.151	0.059
-351.508	-200.000	0.006	-0.250
-350.493	-80.375	0.110	0.037
-349.479	155.780	0.161	0.221
-348.464	-200.000	0.014	0.137
-347.450	49.279	0.098	-0.092
-346.435	603.589	-0.062	-0.153
-345.420	-140.564	0.037	0.004
-344.406	800.000	0.049	-0.200
-343.391	800.000	0.026	-0.109
-342.377	-151.772	-0.494	0.036
-341.362	-114.039	-0.066	0.013
-340.348	-105.546	0.245	-0.055
-339.333	-164.564	0.204	-0.009
-338.318	-55.859	-0.151	-0.067
-337.304	-23.806	0.122	-0.073
-336.289	-200.000	0.006	0.222
-335.275	-134.856	0.011	0.001
-334.260	-158.920	0.401	0.023
-333.245	6.331	-0.313	-0.232
-332.231	276.555	0.083	0.147
-331.216	800.000	0.063	0.253
-330.202	-65.723	0.149	0.060
-329.187	800.000	-0.089	0.249
-328.172	-13.040	0.131	0.085
-327.158	-107.613	-0.151	-0.033
-326.143	-71.741	0.276	0.103
-325.129	-200.000	-0.005	0.115
-324.114	-2.526	0.264	0.185
-323.099	353.632	-0.051	0.100
-322.085	20.552	-0.301	0.242
-321.070	-200.000	0.019	0.159
-320.056	236.253	0.064	0.106
-319.041	425.352	-0.130	-0.278
-318.026	800.000	0.023	0.084
-317.012	-70.536	-0.069	-0.026
-315.997	-116.530	0.357	-0.066
-314.983	577.195	-0.083	0.202
-313.968	-200.000	0.019	-0.094
-312.953	800.000	-0.053	0.201
-311.939	-200.000	-0.023	-0.400
-310.924	-133.924	0.351	0.043
-309.910	-69.193	-0.308	-0.118
-308.895	153.459	0.033	0.045
-307.880	-107.389	0.104	0.023
-306.866	186.590	0.176	-0.261
-305.851	2.670	-0.165	-0.119
-304.837	-200.000	0.347	-0.001
-303.822	-48.917	-0.104	0.050
-302.807	-98.160	-0.351	-0.090
-301.793	-200.000	-0.018	-0.259
-300.778	646.229	-0.020	0.051
-299.764	-75.411	0.182	-0.065
-298.749	315.346	0.116	0.218
-297.735	-112.436	0.032	0.006
-296.720	-18.548	0.150	0.093
-295.705	-23.678	-0.103	-0.061
-294.691	-93.249	0.241	0.067
-293.676	800.000	-0.080	0.313
-292.662	44.763	0.081	-0.074
-291.647	297.194	-0.037	-0.068
-290.632	-103.205	0.289	-0.068
-289.618	292.273	0.198	-0.359
-288.603	29.070	0.087	-0.074
-287.589	664.475	-0.140	-0.359
-286.574	-200.000	0.017	0.301
-285.559	524.301	-0.149	-0.349
-284.545	3.114	0.094	-0.068
-283.530	-36.134	0.127	0.069
-282.516	-200.000	0.001	-0.102
-281.501	800.000	0.053	0.181
-280.486	-200.000	-0.094	0.434
-279.472	39.105	0.424	0.378
-278.457	93.248	-0.161	-0.181
-277.443	-126.827	-0.135	0.020
-276.428	-61.525	0.230	0.096
-275.413	-56.634	0.209	-0.092
-274.399	800.000	0.066	-0.188
-273.384	-200.000	-0.006	0.101
-272.370	-45.917	-0.235	0.115
-271.355	684.830	0.091	-0.238
-270.340	-200.000	-0.051	0.226
-269.326	118.329	-0.233	-0.287
-268.311	-200.000	0.017	0.113
-267.297	-2.015	0.198	0.139
-266.282	-149.596	0.124	0.010
-265.267	-200.000	0.061	0.366
-264.253	262.940	0.188	0.325
-263.238	-54.592	0.361	0.162
-262.224	-15.031	-0.042	-0.027
-261.209	88.989	0.050	0.056
-260.195	-200.000	0.011	-0.081
-259.180	-129.346	0.149	0.021
-258.165	800.000	-0.033	0.137
-257.151	-200.000	0.000	-0.016
-256.136	-79.273	-0.412	-0.139
-255.122	-88.398	-0.093	-0.028
-254.107	259.793	-0.069	-0.119
-253.092	-96.727	0.065	-0.017
-252.078	-107.804	-0.401	-0.087
-251.063	-32.228	0.065	0.036
-250.049	-200.000	0.050	0.245
-249.034	800.000	0.042	0.151
-248.019	-137.490	-0.479	-0.054
-247.005	217.481	0.040	0.064
-245.990	162.949	-0.086	0.120
-244.976	31.457	-0.168	0.143
-243.961	-200.000	0.079	-0.451
-242.946	-8.260	-0.170	0.114
-241.932	630.417	0.142	0.357
-240.917	251.188	-0.143	-0.242
-239.903	-149.635	-0.394	-0.031
-238.888	-58.246	-0.050	-0.021
-237.873	97.966	0.213	0.244
-236.859	800.000	0.033	-0.108
-235.844	-67.873	-0.254	0.099
-234.830	172.834	-0.080	0.114
-233.815	13.363	-0.151	-0.116
-232.800	263.595	-0.224	-0.386
-231.786	-131.428	0.096	-0.013
-230.771	124.598	0.082	-0.103
-229.757	330.002	-0.110	0.210
-228.742	800.000	-0.129	-0.390
-227.727	-155.897	0.310	-0.020
-226.713	-200.000	0.057	-0.570
-225.698	64.124	0.236	-0.236
-224.684	800.000	0.072	-0.275
-223.669	-31.536	-0.298	-0.166
-222.655	-44.164	-0.070	0.035
-221.640	-151.740	0.108	-0.008
-220.625	60.291	-0.117	-0.115
-219.611	51.936	-0.022	-0.021
-218.596	-9.944	-0.173	0.115
-217.582	-200.000	-0.068	-0.389
-216.567	-170.056	-0.094	0.003
-215.552	-129.951	-0.103	-0.014
-214.538	800.000	0.021	0.083
-213.523	-200.000	-0.059	-0.274
-212.509	-31.249	0.095	0.053
-211.494	124.776	0.055	-0.069
-210.479	357.046	0.243	-0.480
-209.465	-39.313	-0.148	0.077
-208.450	800.000	0.015	-0.061
-207.436	800.000	0.114	0.354
-206.421	30.747	-0.206	0.175
-205.406	-132.831	0.373	0.047
-204.392	3.555	-0.101	-0.073
-203.377	-41.150	0.184	0.094
-202.363	800.000	0.068	0.193
-201.348	49.688	0.397	-0.371
-200.333	175.140	-0.078	0.113
-199.319	-148.095	0.064	0.005
-198.304	-200.000	0.015	0.142
-197.290	78.780	0.226	0.240
-196.275	-200.000	0.025	-0.112
-195.260	-58.931	0.216	-0.093
-194.246	-200.000	-0.308	-0.001
-193.231	-32.844	0.243	0.134
-192.217	-134.862	0.061	-0.007
-191.202	-200.000	-0.027	0.285
-190.187	-200.000	0.016	-0.194
-189.173	-17.972	0.060	-0.037
-188.158	56.071	0.226	0.218
-187.144	31.514	0.106	0.090
-186.129	-92.895	-0.459	-0.127
-185.114	-200.000	-0.071	0.359
-184.100	8.197	0.171	0.127
-183.085	-200.000	-0.007	-0.205
-182.071	61.851	-0.169	-0.167
-181.056	228.331	0.122	0.197
-180.042	-200.000	-0.028	-0.247
-179.027	61.313	0.128	-0.127
-178.012	-200.000	0.002	-0.159
-176.998	-30.986	-0.140	0.078
-175.983	-150.507	-0.102	0.008
-174.969	-29.340	0.111	-0.063
-173.954	-108.167	0.281	0.060
-172.939	-24.415	0.216	0.127
-171.925	-180.717	-0.244	0.005
-170.910	-155.815	0.060	0.004
-169.896	-49.489	0.392	-0.185
-168.881	406.167	-0.172	0.360
-167.866	-21.047	0.111	0.067
-166.852	103.524	-0.207	0.241
-165.837	40.735	-0.117	0.105
-164.823	-200.000	-0.007	0.093
-163.808	-200.000	-0.072	0.379
-162.793	213.865	0.121	-0.189
-161.779	-200.000	-0.007	0.064
-160.764	122.427	0.180	0.223
-159.750	376.755	0.074	0.149
-158.735	205.650	-0.110	0.169
-157.720	-200.000	-0.059	-0.337
-156.706	604.104	-0.038	-0.095
-155.691	-40.484	0.048	-0.025
-154.677	-153.962	0.229	-0.015
-153.662	-200.000	-0.003	0.053
-152.647	-200.000	0.033	-0.257
-151.633	-200.000	0.002	0.084
-150.618	800.000	0.093	-0.311
-149.604	-18.947	0.079	0.049
-148.589	-113.704	0.249	0.048
-147.574	91.861	0.077	-0.086
-146.560	70.046	-0.260	-0.266
-145.545	-72.234	-0.250	0.092
-144.531	66.667	0.096	0.097
-143.516	-158.224	0.145	-0.008
-142.502	-62.870	0.459	0.188
-141.487	-200.000	-0.041	0.261
-140.472	711.480	0.145	0.380
-139.458	381.391	0.072	-0.146
-138.443	800.000	0.036	-0.132
-137.429	98.543	0.092	0.105
-136.414	83.992	0.145	-0.157
-135.399	-98.246	0.270	-0.069
-134.385	-149.744	0.305	-0.024
-133.370	-18.197	-0.156	0.097
-132.356	-200.000	0.004	0.248
-131.341	165.448	0.144	-0.202
-130.326	119.203	-0.082	0.101
-129.312	-38.560	0.250	0.131
-128.297	-24.239	0.185	-0.109
-127.283	135.312	-0.053	0.068
-126.268	-147.227	0.043	0.004
-125.253	-200.000	0.012	0.143
-124.239	800.000	0.138	0.433
-123.224	-51.106	0.196	0.091
-122.210	-113.413	0.336	-0.065
-121.195	-200.000	0.073	0.325
