DTS Sentinel unit serial number:	SN413079Multiplexer serial number:	ORYXHardware model number:	OX4-SRSoftware version number:	ORYX F/W v4.00 Oryx Data Collector v3.7.2.0data status	okinstallation	princeton_trtdifferential loss correction	single-endedforward channel	channel 4reverse channel	N/Adate	2019/09/18time	13:09:34forward acquisition time	60.00reverse acquisition time	0.00gamma	496.2192k internal	0.2303k external	0.2303temperature offset calibration	0.9991default loss term (dB/km)	0.3790temperature slope calibration	1.0000multiplexer offset coefficient	1.0000multiplexer slope coefficient	1.0000fibre end	0.00T internal ref (°C)	33.80T ext. ref 1 (°C)	0.58T ext. ref 2 (°C)	31.64length (m)	temperature (°C)	Stokes	anti-Stokes-747.200	25.102	0.234	0.198
-746.185	161.164	0.172	0.245
-745.171	19.301	0.162	-0.132
-744.156	-82.248	0.170	0.056
-743.142	42.715	0.186	0.173
-742.127	276.860	-0.174	0.315
-741.112	12.783	0.317	-0.249
-740.098	701.515	0.068	0.183
-739.083	-154.617	0.099	0.007
-738.069	-200.000	-0.020	0.296
-737.054	-185.862	-0.100	0.002
-736.039	78.930	-0.170	-0.186
-735.025	-120.365	-0.077	-0.013
-734.010	-100.101	-0.240	0.061
-732.996	81.001	-0.144	-0.158
-731.981	1.265	0.187	-0.137
-730.966	-24.315	0.198	-0.120
-729.952	-200.000	-0.001	-0.275
-728.937	373.124	-0.138	0.286
-727.923	800.000	0.076	-0.246
-726.908	570.197	0.132	-0.328
-725.894	800.000	0.147	0.536
-724.879	-110.268	0.270	0.057
-723.864	-45.586	-0.189	-0.095
-722.850	67.798	-0.143	0.149
-721.835	-200.000	0.037	-0.167
-720.821	800.000	0.062	-0.227
-719.806	433.870	-0.129	-0.285
-718.791	800.000	-0.114	0.348
-717.777	-121.880	0.540	0.091
-716.762	214.822	0.098	0.158
-715.748	-190.685	-0.472	0.005
-714.733	-37.761	0.092	-0.050
-713.718	-33.975	0.193	0.108
-712.704	112.383	-0.038	-0.047
-711.689	-12.627	-0.272	-0.180
-710.675	117.018	-0.066	-0.082
-709.660	262.691	0.021	-0.037
-708.645	-185.635	-0.108	0.002
-707.631	-200.000	-0.060	0.457
-706.616	-77.216	-0.058	-0.021
-705.602	-119.141	0.048	-0.009
-704.587	-200.000	-0.028	-0.147
-703.572	28.132	-0.204	0.175
-702.558	800.000	-0.119	0.375
-701.543	-101.221	0.306	-0.076
-700.529	-75.595	0.159	-0.057
-699.514	-93.056	0.226	0.064
-698.499	335.122	-0.060	0.118
-697.485	-200.000	-0.047	-0.277
-696.470	87.195	-0.167	0.188
-695.456	-200.000	-0.044	-0.496
-694.441	259.004	0.123	0.216
-693.426	397.100	0.043	0.092
-692.412	800.000	-0.142	-0.427
-691.397	292.268	-0.179	-0.331
-690.383	524.502	-0.022	-0.052
-689.368	-36.108	0.223	-0.123
-688.354	-28.860	-0.075	0.044
-687.339	300.976	-0.039	0.073
-686.324	800.000	0.089	0.264
-685.310	165.894	0.102	-0.146
-684.295	44.794	0.219	0.205
-683.281	800.000	0.035	0.154
-682.266	-102.745	0.159	-0.038
-681.251	59.230	0.073	-0.073
-680.237	800.000	-0.076	0.326
-679.222	-190.330	0.112	-0.001
-678.208	800.000	-0.067	-0.283
-677.193	-127.454	-0.493	-0.073
-676.178	-200.000	-0.031	0.177
-675.164	-160.058	0.176	0.010
-674.149	-120.029	-0.073	0.013
-673.135	56.906	-0.340	0.337
-672.120	-200.000	-0.009	-0.247
-671.105	218.756	0.144	-0.233
-670.091	91.068	0.104	0.119
-669.076	42.973	-0.301	-0.278
-668.062	-200.000	-0.002	0.040
-667.047	603.553	-0.010	0.026
-666.032	-62.444	0.210	-0.089
-665.018	-48.400	-0.193	-0.094
-664.003	-60.416	0.099	0.043
-662.989	-90.667	0.105	-0.031
-661.974	-183.634	0.271	-0.005
-660.959	-200.000	-0.071	0.409
-659.945	20.062	0.042	-0.034
-658.930	-189.436	0.193	-0.002
-657.916	-17.876	0.245	-0.156
-656.901	-27.769	0.319	-0.188
-655.886	-96.660	-0.265	-0.071
-654.872	-200.000	0.008	-0.241
-653.857	-23.095	-0.286	0.175
-652.843	139.601	0.165	0.220
-651.828	-200.000	0.014	-0.079
-650.814	-85.890	0.203	0.064
-649.799	-200.000	0.006	-0.042
-648.784	-140.961	-0.180	0.019
-647.770	-112.737	0.141	0.028
-646.755	-18.115	-0.077	-0.049
-645.741	-200.000	0.068	-0.302
-644.726	-48.848	-0.288	0.140
-643.711	-150.856	-0.104	-0.008
-642.697	-71.766	-0.177	-0.067
-641.682	-119.385	0.469	0.083
-640.668	157.875	-0.175	-0.246
-639.653	-99.591	0.078	-0.020
-638.638	192.025	-0.175	0.268
-637.624	800.000	0.067	-0.265
-636.609	242.887	-0.107	0.181
-635.595	-75.888	-0.220	-0.079
-634.580	-78.843	0.124	-0.043
-633.565	-51.316	-0.221	0.105
-632.551	635.182	0.035	-0.091
-631.536	-109.632	0.352	0.075
-630.522	800.000	-0.046	-0.146
-629.507	282.488	0.205	-0.374
-628.492	800.000	0.056	0.242
-627.478	-90.322	-0.165	-0.048
-626.463	-187.785	0.262	-0.003
-625.449	287.554	-0.190	-0.349
-624.434	-38.871	-0.115	0.061
-623.419	133.932	0.152	0.200
-622.405	166.176	-0.155	0.223
-621.390	174.227	0.067	-0.098
-620.376	7.252	-0.245	0.185
-619.361	67.356	-0.280	-0.289
-618.346	266.139	0.076	-0.134
-617.332	-200.000	-0.024	0.179
-616.317	456.729	0.048	-0.108
-615.303	-95.949	-0.340	-0.092
-614.288	-170.015	-0.240	0.009
-613.273	800.000	0.036	0.161
-612.259	-91.622	-0.362	-0.104
-611.244	692.187	-0.129	-0.344
-610.230	1.028	-0.111	0.081
-609.215	-43.260	0.159	-0.082
-608.201	339.675	-0.008	-0.016
-607.186	3.034	-0.125	0.092
-606.171	-162.806	0.401	0.020
-605.157	-43.621	-0.346	0.177
-604.142	-46.971	0.120	-0.060
-603.128	-68.618	-0.166	0.065
-602.113	800.000	0.097	0.354
-601.098	800.000	0.086	-0.337
-600.084	26.795	-0.061	-0.052
-599.069	-20.755	0.087	0.054
-598.055	184.183	0.124	-0.187
-597.040	-118.083	0.283	-0.051
-596.025	465.628	0.087	0.197
-595.011	800.000	-0.060	-0.180
-593.996	28.758	-0.175	0.150
-592.982	-101.667	-0.192	0.047
-591.967	-7.309	-0.282	-0.193
-590.952	366.890	0.098	-0.200
-589.938	800.000	0.113	-0.387
-588.923	-170.427	0.294	0.010
-587.909	-64.255	0.156	0.064
-586.894	-8.927	-0.313	-0.212
-585.879	86.923	-0.082	0.092
-584.865	8.388	0.287	-0.218
-583.850	505.763	-0.081	0.190
-582.836	228.708	-0.101	-0.166
-581.821	800.000	0.061	0.245
-580.806	112.359	-0.100	0.122
-579.792	-142.866	-0.565	-0.056
-578.777	40.254	0.338	0.308
-577.763	-157.980	-0.228	0.014
-576.748	78.915	0.063	0.068
-575.733	-14.231	-0.139	0.091
-574.719	-200.000	-0.025	0.230
-573.704	123.933	0.064	-0.082
-572.690	-94.712	-0.373	0.103
-571.675	247.860	0.140	-0.240
-570.661	376.013	0.094	-0.194
-569.646	331.898	0.031	-0.060
-568.631	73.011	0.059	-0.062
-567.617	635.245	0.057	0.146
-566.602	-200.000	-0.019	-0.235
-565.588	-124.085	-0.159	0.025
-564.573	246.475	-0.179	-0.305
-563.558	-61.062	0.378	0.162
-562.544	79.905	-0.077	0.084
-561.529	-42.174	-0.140	0.072
-560.515	116.609	0.165	0.205
-559.500	111.016	0.100	-0.122
-558.485	-200.000	-0.001	-0.110
-557.471	110.817	-0.080	0.097
-556.456	-200.000	-0.008	0.125
-555.442	800.000	0.084	-0.258
-554.427	150.686	-0.064	-0.088
-553.412	800.000	-0.052	-0.202
-552.398	103.256	-0.223	0.265
-551.383	800.000	0.013	-0.038
-550.369	-106.011	0.288	0.065
-549.354	-200.000	-0.036	0.350
-548.339	800.000	0.113	-0.371
-547.325	-200.000	0.029	-0.142
-546.310	514.174	0.109	0.257
-545.296	800.000	0.051	-0.204
-544.281	-143.641	0.397	-0.038
-543.266	396.237	-0.080	-0.169
-542.252	-147.418	-0.121	-0.010
-541.237	354.988	-0.057	0.115
-540.223	-53.945	0.392	0.181
-539.208	-14.829	-0.268	0.174
-538.193	27.889	0.184	-0.157
-537.179	-200.000	0.047	-0.280
-536.164	110.211	0.154	0.186
-535.150	-200.000	0.057	0.315
-534.135	120.953	-0.286	-0.359
-533.121	-171.529	0.604	0.020
-532.106	-36.914	-0.159	0.086
-531.091	-10.507	-0.263	-0.176
-530.077	-98.860	-0.075	0.019
-529.062	343.014	-0.173	-0.343
-528.048	-106.980	-0.470	-0.105
-527.033	82.347	-0.250	-0.274
-526.018	251.245	-0.088	0.152
-525.004	26.703	0.200	-0.169
-523.989	-200.000	-0.002	-0.118
-522.975	57.734	0.190	-0.188
-521.960	494.637	-0.086	-0.198
-520.945	-88.457	0.146	0.044
-519.931	-200.000	0.028	0.166
-518.916	800.000	0.134	0.452
-517.902	-152.793	0.240	-0.017
-516.887	-103.894	-0.191	-0.045
-515.872	284.855	-0.063	-0.114
-514.858	-200.000	0.042	-0.348
-513.843	473.987	0.109	0.249
-512.829	153.514	0.059	0.082
-511.814	-200.000	0.008	0.322
-510.799	-38.201	0.255	0.137
-509.785	46.849	0.151	0.141
-508.770	-184.117	-0.110	-0.002
-507.756	-90.373	-0.189	0.055
-506.741	-7.481	0.119	0.081
-505.726	800.000	-0.087	0.243
-504.712	152.385	-0.115	-0.159
-503.697	29.094	-0.202	0.173
-502.683	161.140	-0.044	0.063
-501.668	33.201	0.173	-0.151
-500.653	-43.589	0.161	-0.082
-499.639	789.360	0.157	0.435
-498.624	253.639	-0.114	-0.197
-497.610	-31.789	0.212	-0.120
-496.595	31.258	-0.066	-0.057
-495.581	800.000	-0.127	-0.463
-494.566	100.987	0.222	-0.260
-493.551	-2.812	0.054	-0.038
-492.537	800.000	-0.075	-0.217
-491.522	10.151	0.163	-0.125
-490.508	-200.000	0.036	-0.189
-489.493	-200.000	-0.007	0.196
-488.478	-62.608	0.209	-0.087
-487.464	-112.178	0.197	-0.040
-486.449	-200.000	0.008	-0.098
-485.435	228.890	0.129	0.212
-484.420	50.109	0.060	0.057
-483.405	800.000	-0.096	-0.266
-482.391	58.301	-0.203	-0.201
-481.376	408.332	0.057	0.122
-480.362	800.000	0.033	-0.126
-479.347	68.436	-0.106	-0.109
-478.332	80.415	-0.086	-0.093
-477.318	331.736	-0.124	-0.241
-476.303	800.000	0.056	-0.172
-475.289	98.028	0.116	-0.135
-474.274	-73.907	-0.075	-0.027
-473.259	-8.797	0.243	0.165
-472.245	9.059	0.231	-0.176
-471.230	-86.224	0.131	0.041
-470.216	800.000	-0.084	-0.235
-469.201	0.242	-0.261	-0.188
-468.186	686.116	-0.018	0.047
-467.172	-200.000	-0.000	-0.157
-466.157	1.339	-0.012	0.009
-465.143	-23.454	0.228	-0.138
-464.128	2.351	0.486	-0.355
-463.113	-58.565	0.116	0.051
-462.099	-200.000	0.078	0.421
-461.084	62.941	-0.171	-0.173
-460.070	800.000	-0.047	-0.165
-459.055	183.529	0.114	-0.169
-458.040	60.216	-0.093	0.092
-457.026	-152.752	0.100	0.007
-456.011	-200.000	-0.003	-0.232
-454.997	32.980	-0.267	-0.233
-453.982	-200.000	-0.033	-0.213
-452.968	800.000	-0.089	-0.261
-451.953	800.000	0.052	-0.215
-450.938	325.718	0.173	-0.334
-449.924	-67.295	-0.190	0.075
-448.909	777.236	0.088	-0.243
-447.895	-200.000	-0.013	-0.196
-446.880	-170.304	0.112	-0.004
-445.865	-97.994	0.285	-0.074
-444.851	107.821	-0.033	-0.039
-443.836	27.565	-0.387	0.327
-442.822	-200.000	-0.019	-0.287
-441.807	530.102	0.106	0.253
-440.792	-200.000	0.015	-0.136
-439.778	57.277	0.055	0.055
-438.763	-74.764	-0.137	0.050
-437.749	-118.026	-0.122	0.022
-436.734	-200.000	-0.037	0.428
-435.719	-0.059	0.224	0.160
-434.705	28.764	-0.370	0.315
-433.690	137.467	-0.383	-0.504
-432.676	-68.556	0.455	0.177
-431.661	237.582	0.068	0.113
-430.646	39.108	0.088	-0.079
-429.632	15.913	-0.100	-0.079
-428.617	-200.000	-0.001	-0.468
-427.603	201.085	-0.042	0.065
-426.588	43.648	-0.209	0.192
-425.573	-128.554	-0.248	0.035
-424.559	-127.676	-0.494	-0.072
-423.544	-62.745	0.407	0.170
-422.530	800.000	-0.109	0.355
-421.515	-22.694	-0.111	0.067
-420.500	-133.773	0.497	-0.062
-419.486	-137.747	-0.245	0.028
-418.471	-200.000	0.053	0.311
-417.457	-130.055	-0.242	-0.033
-416.442	-138.408	0.279	0.031
-415.428	-200.000	0.000	0.413
-414.413	12.971	0.079	0.062
-413.398	196.063	-0.082	0.125
-412.384	-84.883	-0.345	-0.109
-411.369	-39.731	0.190	0.100
-410.355	-200.000	-0.011	0.149
-409.340	-148.991	-0.538	0.044
-408.325	76.607	0.103	0.110
-407.311	-200.000	0.033	-0.180
-406.296	-200.000	-0.002	0.045
-405.282	-200.000	-0.028	-0.400
-404.267	474.211	-0.085	-0.193
-403.252	-125.981	0.124	-0.019
-402.238	51.296	-0.179	-0.171
-401.223	-32.250	0.277	0.155
-400.209	-146.708	-0.330	-0.029
-399.194	375.544	0.019	-0.038
-398.179	46.771	-0.101	-0.094
-397.165	800.000	0.142	0.492
-396.150	552.961	0.098	0.236
-395.136	-200.000	-0.005	0.218
-394.121	547.148	-0.087	-0.210
-393.106	800.000	0.069	0.273
-392.092	-128.257	-0.405	0.058
-391.077	-8.266	0.183	0.123
-390.063	-200.000	-0.009	0.222
-389.048	148.330	0.305	-0.413
-388.033	658.844	-0.114	0.295
-387.019	-200.000	0.003	0.139
-386.004	-200.000	-0.004	0.181
-384.990	-40.350	-0.077	-0.040
-383.975	-119.603	-0.222	0.039
-382.960	-115.553	0.293	0.055
-381.946	54.468	0.220	0.213
-380.931	319.685	0.111	0.211
-379.917	-43.246	0.190	0.097
-378.902	352.861	0.103	0.204
-377.888	-200.000	-0.029	-0.276
-376.873	215.048	-0.113	0.180
-375.858	143.182	0.099	0.132
-374.844	-70.204	-0.108	0.041
-373.829	164.422	-0.123	-0.174
-372.815	-100.160	0.086	-0.022
-371.800	-131.371	0.273	0.036
-370.785	-191.160	0.209	0.002
-369.771	224.926	-0.108	0.175
-368.756	-200.000	0.005	0.121
-367.742	160.847	0.056	-0.079
-366.727	5.609	0.209	0.155
-365.712	-53.894	-0.074	-0.034
-364.698	-42.900	-0.345	-0.176
-363.683	159.259	-0.099	-0.139
-362.669	-200.000	0.005	0.258
-361.654	800.000	-0.036	0.111
-360.639	-43.905	-0.185	-0.093
-359.625	-94.253	-0.230	0.063
-358.610	-200.000	-0.040	-0.250
-357.596	-57.783	-0.141	0.062
-356.581	149.053	-0.233	0.316
-355.566	-52.012	-0.190	0.089
-354.552	-114.507	-0.068	0.013
-353.537	-200.000	0.082	-0.440
-352.523	-117.824	-0.242	-0.044
-351.508	55.679	-0.308	-0.299
-350.493	181.673	0.173	0.256
-349.479	-139.017	0.213	-0.023
-348.464	-159.324	0.273	0.015
-347.450	-124.066	-0.310	-0.049
-346.435	-3.877	0.189	-0.131
-345.420	-102.478	0.036	-0.009
-344.406	170.395	0.173	-0.249
-343.391	-200.000	0.030	0.219
-342.377	-200.000	0.012	-0.236
-341.362	226.019	0.107	0.173
-340.348	-200.000	-0.034	0.256
-339.333	321.970	-0.131	0.250
-338.318	800.000	-0.085	-0.298
-337.304	130.341	-0.094	-0.121
-336.289	-200.000	0.021	-0.133
-335.275	800.000	0.070	0.255
-334.260	-162.494	0.079	-0.004
-333.245	-110.434	-0.150	0.031
-332.231	-26.913	0.179	0.105
-331.216	731.847	0.039	-0.105
-330.202	800.000	0.018	0.077
-329.187	-200.000	-0.020	0.172
-328.172	-114.908	0.027	0.005
-327.158	442.789	0.038	-0.084
-326.143	122.685	-0.156	-0.196
-325.129	-73.873	0.194	-0.071
-324.114	-58.595	-0.095	-0.041
-323.099	-99.823	-0.116	-0.029
-322.085	-130.411	-0.155	0.021
-321.070	-104.755	0.187	0.043
-320.056	39.667	-0.028	-0.026
-319.041	352.104	0.089	0.177
-318.026	573.757	-0.024	-0.059
-317.012	406.163	0.078	0.165
-315.997	-39.198	0.343	0.181
-314.983	-24.464	-0.186	0.111
-313.968	-110.218	-0.304	-0.064
-312.953	558.418	-0.116	0.281
-311.939	165.324	-0.125	0.177
-310.924	758.811	0.104	0.282
-309.910	800.000	0.082	0.237
-308.895	-106.682	0.349	-0.078
-307.880	-149.826	0.235	0.018
-306.866	-82.108	0.049	0.016
-305.851	23.036	-0.093	0.076
-304.837	-200.000	-0.004	0.090
-303.822	182.267	-0.170	0.251
-302.807	-200.000	0.026	0.209
-301.793	546.016	0.109	-0.261
-300.778	25.855	0.125	0.105
-299.764	98.311	0.008	-0.009
-298.749	-26.426	0.097	0.057
-297.735	-200.000	-0.049	-0.241
-296.720	-79.172	-0.159	0.054
-295.705	-119.802	0.270	-0.046
-294.691	79.328	0.158	-0.169
-293.676	-64.912	-0.145	0.059
-292.662	43.704	-0.061	0.056
-291.647	-114.469	-0.219	0.042
-290.632	49.397	-0.142	0.133
-289.618	48.170	0.175	0.164
-288.603	408.249	0.085	-0.179
-287.589	477.033	0.122	-0.276
-286.574	582.684	-0.032	0.079
-285.559	-200.000	0.033	0.324
-284.545	416.510	0.072	0.153
-283.530	238.590	-0.138	0.229
-282.516	-114.605	0.111	-0.021
-281.501	800.000	0.013	0.042
-280.486	696.311	-0.109	-0.286
-279.472	-200.000	0.010	0.061
-278.457	129.828	-0.112	0.143
-277.443	-78.442	0.159	-0.054
-276.428	21.609	0.095	0.077
-275.413	800.000	-0.031	-0.103
-274.399	-169.819	-0.277	0.010
-273.384	-156.276	0.304	0.019
-272.370	-19.713	-0.210	0.130
-271.355	-71.209	0.139	-0.052
-270.340	800.000	0.118	-0.327
-269.326	21.326	-0.089	0.072
-268.311	800.000	0.088	0.383
-267.297	800.000	-0.040	0.128
-266.282	-156.695	0.108	-0.007
-265.267	17.357	-0.205	-0.162
-264.253	-10.189	0.179	0.119
-263.238	-114.441	0.224	0.043
-262.224	-18.480	-0.409	-0.255
-261.209	-103.521	-0.294	-0.069
-260.195	-200.000	0.002	0.087
-259.180	-200.000	-0.001	0.129
-258.165	133.504	0.133	0.172
-257.151	10.895	0.209	-0.160
-256.136	-107.657	0.203	0.044
-255.122	495.281	-0.075	-0.172
-254.107	13.370	0.049	0.038
-253.092	-104.142	0.210	0.049
-252.078	800.000	0.083	-0.329
-251.063	-117.763	-0.175	-0.031
-250.049	-145.593	0.202	-0.018
-249.034	104.653	-0.255	0.300
-248.019	-82.764	-0.103	0.033
-247.005	359.107	-0.061	0.122
-245.990	111.390	-0.132	0.159
-244.976	-200.000	-0.081	-0.413
-243.961	-123.443	-0.229	-0.036
-242.946	-200.000	0.047	0.296
-241.932	81.670	0.017	0.018
-240.917	800.000	-0.063	-0.214
-239.903	800.000	0.069	-0.249
-238.888	242.340	0.022	0.037
-237.873	800.000	0.056	-0.238
-236.859	-36.129	-0.264	0.143
-235.844	-188.459	0.295	-0.004
-234.830	800.000	-0.096	-0.311
-233.815	353.838	-0.155	0.306
-232.800	-82.455	0.259	0.084
-231.786	-33.126	-0.304	0.168
-230.771	-72.654	0.274	-0.101
-229.757	-56.338	0.211	-0.094
-228.742	800.000	0.082	0.358
-227.727	77.340	-0.287	-0.305
-226.713	-103.305	-0.043	0.010
-225.698	-13.054	-0.238	0.154
-224.684	-200.000	-0.009	0.066
-223.669	21.172	-0.150	-0.122
-222.655	-200.000	-0.030	0.353
-221.640	800.000	0.039	0.112
-220.625	-30.639	0.079	-0.045
-219.611	800.000	0.028	-0.120
-218.596	-27.938	0.231	-0.133
-217.582	-130.659	-0.286	-0.038
-216.567	113.867	-0.117	-0.142
-215.552	41.411	0.144	-0.130
-214.538	-100.308	0.236	0.058
-213.523	-16.218	0.333	-0.211
-212.509	-16.103	-0.204	-0.129
-211.494	800.000	0.047	0.177
-210.479	-200.000	0.007	-0.081
-209.465	-26.119	0.081	-0.048
-208.450	-200.000	-0.013	0.279
-207.436	50.205	-0.115	0.108
-206.421	-200.000	-0.024	-0.124
-205.406	800.000	0.103	0.366
-204.392	-50.533	-0.135	-0.064
-203.377	0.752	-0.376	0.269
-202.363	258.781	0.053	0.091
-201.348	102.252	-0.188	-0.220
-200.333	-200.000	-0.012	-0.227
-199.319	91.062	0.050	0.056
-198.304	800.000	-0.075	0.289
-197.290	146.939	-0.199	0.267
-196.275	-110.954	-0.149	0.030
-195.260	49.960	0.097	0.091
-194.246	-27.998	-0.243	0.140
-193.231	800.000	0.037	0.127
-192.217	-74.935	0.171	-0.061
-191.202	800.000	-0.097	0.284
-190.187	-124.156	0.137	0.021
-189.173	132.368	-0.150	0.193
-188.158	71.290	0.162	-0.168
-187.144	359.006	0.119	-0.237
-186.129	-200.000	0.021	0.169
-185.114	-200.000	0.036	0.196
-184.100	-46.186	0.180	0.088
-183.085	78.511	0.079	-0.085
-182.071	800.000	0.056	0.194
-181.056	151.548	0.245	-0.333
-180.042	-10.953	0.011	-0.007
-179.027	-200.000	0.027	0.134
-178.012	113.474	0.248	0.300
-176.998	-68.612	0.292	0.113
-175.983	-62.495	0.353	-0.146
-174.969	800.000	0.045	0.162
-173.954	76.087	-0.128	0.135
-172.939	-176.493	0.099	0.003
-171.925	-195.738	-0.112	-0.001
-170.910	-69.857	-0.104	-0.040
-169.896	651.859	-0.105	-0.268
-168.881	115.833	0.088	0.108
-167.866	-200.000	0.004	0.192
-166.852	-104.984	0.292	0.067
-165.837	-91.238	0.189	0.054
-164.823	-64.790	0.357	-0.144
-163.808	800.000	-0.063	0.241
-162.793	26.477	-0.105	-0.087
-161.779	152.035	0.252	-0.343
-160.764	127.426	-0.105	0.132
-159.750	-134.920	-0.221	-0.027
-158.735	800.000	0.035	-0.125
-157.720	141.749	0.018	-0.024
-156.706	-200.000	0.007	-0.431
-155.691	6.709	-0.271	-0.201
-154.677	800.000	-0.030	0.118
-153.662	5.541	0.059	-0.044
-152.647	217.669	-0.065	-0.104
-151.633	-200.000	0.011	-0.133
-150.618	-200.000	-0.053	-0.260
-149.604	800.000	0.030	-0.113
-148.589	77.872	-0.069	0.073
-147.574	-139.765	-0.377	0.040
-146.560	129.667	0.088	0.112
-145.545	178.714	0.188	0.273
-144.531	704.253	-0.082	0.215
-143.516	-61.110	-0.102	-0.043
-142.502	-104.741	-0.298	-0.068
-141.487	-95.800	0.263	0.070
-140.472	-149.171	-0.232	-0.019
-139.458	-167.832	-0.188	0.007
-138.443	51.575	-0.163	0.154
-137.429	800.000	0.119	0.427
-136.414	715.852	0.104	0.274
-135.399	-200.000	-0.047	-0.215
-134.385	-70.458	-0.160	-0.060
-133.370	-200.000	0.011	0.152
-132.356	-200.000	0.090	0.409
-131.341	800.000	-0.067	0.190
-130.326	222.384	-0.194	0.311
-129.312	800.000	-0.145	-0.416
-128.297	170.096	0.208	0.296
-127.283	-67.676	-0.210	0.082
-126.268	98.551	-0.043	0.049
-125.253	-200.000	-0.010	0.106
-124.239	-28.190	0.125	0.072
-123.224	-149.221	0.078	0.006
-122.210	604.716	0.089	-0.221
-121.195	-66.481	-0.460	0.182
