DTS Sentinel unit serial number:	SN413079Multiplexer serial number:	ORYXHardware model number:	OX4-SRSoftware version number:	ORYX F/W v4.00 Oryx Data Collector v3.7.2.0data status	okinstallation	princeton_trtdifferential loss correction	single-endedforward channel	channel 4reverse channel	N/Adate	2019/09/16time	14:01:34forward acquisition time	60.00reverse acquisition time	0.00gamma	496.2192k internal	0.2285k external	0.2285temperature offset calibration	0.9938default loss term (dB/km)	0.3790temperature slope calibration	1.0000multiplexer offset coefficient	1.0000multiplexer slope coefficient	1.0000fibre end	0.00T internal ref (°C)	42.37T ext. ref 1 (°C)	14.03T ext. ref 2 (°C)	37.40length (m)	temperature (°C)	Stokes	anti-Stokes-747.200	25.031	-0.052	-0.044
-746.185	101.535	-0.186	-0.223
-745.171	94.212	-0.075	-0.088
-744.156	-109.289	0.172	-0.037
-743.142	-85.166	0.214	0.069
-742.127	18.578	0.204	0.168
-741.112	230.289	-0.014	0.024
-740.098	-83.216	-0.154	-0.051
-739.083	-61.130	-0.097	0.042
-738.069	-30.547	-0.212	0.123
-737.054	-101.485	-0.118	0.029
-736.039	274.242	-0.069	-0.126
-735.025	163.810	0.036	0.053
-734.010	-68.398	-0.218	0.087
-732.996	800.000	-0.015	-0.045
-731.981	800.000	-0.011	-0.040
-730.966	92.683	-0.156	-0.181
-729.952	-17.923	0.201	-0.129
-728.937	-200.000	0.035	-0.201
-727.923	-69.540	0.205	-0.081
-726.908	-200.000	-0.009	-0.140
-725.894	-153.948	-0.200	-0.014
-724.879	323.459	-0.043	-0.085
-723.864	-93.247	0.236	0.067
-722.850	-98.044	-0.152	-0.040
-721.835	800.000	0.045	-0.183
-720.821	-158.616	-0.272	0.016
-719.806	-73.788	0.174	-0.065
-718.791	39.036	-0.252	-0.231
-717.777	162.094	-0.075	-0.108
-716.762	151.160	-0.204	-0.284
-715.748	800.000	-0.075	0.220
-714.733	-200.000	-0.004	0.109
-713.718	698.071	-0.083	-0.225
-712.704	8.927	0.215	-0.166
-711.689	-67.052	-0.332	-0.134
-710.675	-115.687	0.188	0.036
-709.660	154.554	-0.123	0.174
-708.645	-72.354	0.218	-0.083
-707.631	-200.000	0.013	0.166
-706.616	-119.435	-0.233	0.042
-705.602	-174.019	-0.146	-0.004
-704.587	25.218	0.070	0.059
-703.572	-163.307	0.213	0.010
-702.558	-200.000	-0.005	-0.107
-701.543	-59.564	-0.188	-0.083
-700.529	-146.607	0.319	-0.028
-699.514	-43.460	0.144	0.075
-698.499	-29.376	-0.242	0.142
-697.485	-24.241	-0.190	-0.116
-696.470	372.733	0.010	-0.021
-695.456	-65.035	-0.116	-0.048
-694.441	106.830	-0.139	0.169
-693.426	169.494	0.152	0.223
-692.412	-125.687	-0.267	-0.041
-691.397	20.277	0.240	0.199
-690.383	-83.718	0.030	-0.010
-689.368	182.923	-0.151	0.228
-688.354	800.000	-0.047	0.187
-687.339	-90.664	0.266	0.079
-686.324	-200.000	-0.001	-0.367
-685.310	-122.449	-0.385	-0.064
-684.295	27.948	-0.164	-0.142
-683.281	-200.000	0.046	0.300
-682.266	-77.393	-0.216	-0.077
-681.251	800.000	-0.011	-0.035
-680.237	-200.000	0.000	0.246
-679.222	-200.000	-0.052	0.353
-678.208	-36.271	0.133	-0.073
-677.193	279.336	-0.086	-0.156
-676.178	-200.000	-0.030	-0.278
-675.164	-71.738	-0.116	-0.044
-674.149	57.923	-0.336	-0.337
-673.135	-200.000	0.032	-0.447
-672.120	-200.000	-0.002	0.276
-671.105	-122.684	-0.336	-0.056
-670.091	73.921	0.105	-0.113
-669.076	219.971	0.208	0.341
-668.062	45.689	0.153	0.145
-667.047	-135.916	-0.307	-0.037
-666.032	-200.000	0.002	0.030
-665.018	-167.830	-0.178	0.007
-664.003	-63.651	-0.252	0.106
-662.989	525.245	-0.032	0.077
-661.974	800.000	-0.044	0.145
-660.959	674.401	-0.065	-0.173
-659.945	44.124	0.086	-0.081
-658.930	433.704	-0.061	-0.136
-657.916	-1.990	0.053	0.038
-656.901	-133.890	0.789	0.100
-655.886	-200.000	-0.004	-0.258
-654.872	-117.442	-0.024	0.004
-653.857	-200.000	0.038	-0.245
-652.843	-200.000	-0.043	0.202
-651.828	800.000	0.015	-0.061
-650.814	-133.658	0.229	-0.029
-649.799	80.365	0.202	-0.223
-648.784	117.365	-0.121	-0.153
-647.770	322.494	-0.148	-0.288
-646.755	-84.359	-0.209	0.068
-645.741	-24.958	-0.159	-0.097
-644.726	24.221	-0.181	0.153
-643.711	-90.589	0.291	-0.086
-642.697	455.100	-0.061	-0.139
-641.682	-78.658	0.306	-0.107
-640.668	-72.830	0.436	0.164
-639.653	68.813	0.114	-0.119
-638.638	-130.278	-0.208	-0.029
-637.624	103.108	-0.156	-0.186
-636.609	800.000	-0.064	0.184
-635.595	-200.000	0.039	0.293
-634.580	-78.396	-0.269	0.094
-633.565	178.170	0.055	-0.082
-632.551	-120.514	-0.214	-0.037
-631.536	-14.194	-0.174	0.115
-630.522	72.589	-0.199	-0.213
-629.507	23.851	-0.150	-0.127
-628.492	-88.162	0.213	-0.065
-627.478	1.435	0.229	0.168
-626.463	-78.368	0.135	0.047
-625.449	-47.081	-0.143	0.071
-624.434	-128.347	-0.065	0.009
-623.419	-200.000	-0.002	-0.110
-622.405	800.000	0.081	-0.284
-621.390	-102.967	-0.087	0.021
-620.376	220.946	0.177	-0.289
-619.361	5.460	-0.163	0.123
-618.346	-200.000	-0.009	-0.128
-617.332	0.124	-0.332	-0.242
-616.317	585.223	0.067	0.169
-615.303	-128.939	-0.124	-0.018
-614.288	-127.771	-0.135	0.020
-613.273	50.802	0.049	-0.048
-612.259	-66.800	0.059	0.024
-611.244	-8.158	0.299	0.205
-610.230	11.279	0.223	0.174
-609.215	800.000	-0.036	0.157
-608.201	56.073	-0.101	-0.100
-607.186	75.002	0.045	0.049
-606.171	145.098	-0.076	0.104
-605.157	-100.022	0.076	0.019
-604.142	309.267	0.089	-0.170
-603.128	92.919	-0.074	-0.086
-602.113	-32.641	0.212	0.120
-601.098	-86.981	0.134	-0.042
-600.084	-24.387	-0.164	-0.100
-599.069	-200.000	0.004	-0.104
-598.055	122.730	-0.094	-0.120
-597.040	-200.000	0.001	0.065
-596.025	800.000	-0.048	-0.202
-595.011	-123.924	0.331	-0.053
-593.996	55.186	0.066	0.066
-592.982	-152.896	0.243	0.018
-591.967	-112.262	-0.052	0.011
-590.952	344.305	-0.022	0.043
-589.938	637.032	-0.104	0.270
-588.923	136.338	0.102	-0.135
-587.909	-200.000	-0.026	-0.202
-586.894	-134.271	-0.429	-0.054
-585.879	58.398	-0.171	-0.172
-584.865	79.708	0.267	-0.293
-583.850	588.708	0.054	0.136
-582.836	-141.483	-0.236	-0.024
-581.821	-62.277	-0.114	-0.048
-580.806	-129.116	0.238	0.034
-579.792	-30.116	0.078	0.045
-578.777	520.204	0.148	-0.355
-577.763	44.899	0.257	-0.241
-576.748	-200.000	0.012	0.054
-575.733	-200.000	0.118	0.546
-574.719	274.162	0.190	0.343
-573.704	-96.549	0.262	-0.071
-572.690	-184.050	0.126	-0.002
-571.675	-200.000	0.054	-0.247
-570.661	-15.929	0.427	-0.277
-569.646	303.327	-0.168	0.318
-568.631	-111.871	-0.310	0.064
-567.617	684.930	0.075	0.199
-566.602	-11.568	0.164	0.110
-565.588	800.000	-0.049	0.196
-564.573	479.335	-0.074	0.170
-563.558	-138.611	-0.027	-0.003
-562.544	490.890	-0.094	-0.220
-561.529	16.627	0.054	-0.044
-560.515	800.000	0.052	-0.151
-559.500	115.542	0.193	-0.240
-558.485	204.783	0.075	0.119
-557.471	18.669	-0.112	-0.092
-556.456	-200.000	0.023	-0.333
-555.442	-126.372	0.122	-0.018
-554.427	209.382	0.095	-0.152
-553.412	-200.000	0.034	0.294
-552.398	-176.147	-0.124	0.003
-551.383	-99.253	-0.342	-0.088
-550.369	800.000	0.040	0.120
-549.354	-81.394	0.075	-0.025
-548.339	-23.429	0.112	-0.069
-547.325	47.446	0.106	0.100
-546.310	-173.857	-0.086	0.003
-545.296	-200.000	-0.033	-0.309
-544.281	-134.006	-0.311	0.039
-543.266	94.540	-0.182	0.211
-542.252	81.506	0.113	0.124
-541.237	-137.271	0.360	0.042
-540.223	800.000	-0.048	0.213
-539.208	476.621	-0.034	0.078
-538.193	633.565	0.123	0.319
-537.179	-109.161	0.037	-0.008
-536.164	800.000	-0.038	-0.127
-535.150	664.555	-0.092	-0.241
-534.135	-99.872	0.248	0.063
-533.121	159.138	-0.088	0.125
-532.106	-16.503	-0.231	0.149
-531.091	-77.334	0.136	0.048
-530.077	-35.697	0.271	-0.149
-529.062	33.617	-0.115	0.102
-528.048	800.000	-0.053	-0.160
-527.033	-90.632	0.052	0.015
-526.018	-164.585	0.172	-0.008
-525.004	-188.593	-0.148	-0.002
-523.989	-25.607	-0.319	-0.192
-522.975	586.357	0.059	0.149
-521.960	34.556	-0.257	0.228
-520.945	631.281	0.166	-0.427
-519.931	-200.000	0.031	-0.338
-518.916	-200.000	0.000	-0.019
-517.902	-90.540	0.025	0.007
-516.887	639.062	0.011	-0.029
-515.872	123.801	0.073	0.094
-514.858	-37.272	-0.236	-0.128
-513.843	23.184	0.081	0.068
-512.829	-21.442	-0.124	-0.077
-511.814	4.387	-0.191	-0.143
-510.799	-200.000	-0.014	-0.491
-509.785	-200.000	0.023	0.177
-508.770	780.278	0.093	-0.259
-507.756	-144.114	0.052	0.005
-506.741	-82.495	-0.070	0.023
-505.726	-15.325	-0.202	0.132
-504.712	459.698	-0.033	-0.075
-503.697	-200.000	-0.018	0.116
-502.683	43.420	0.140	-0.130
-501.668	95.309	0.198	0.229
-500.653	21.860	0.057	0.047
-499.639	-15.709	0.203	0.132
-498.624	35.968	-0.141	-0.126
-497.610	-157.033	-0.202	-0.013
-496.595	109.719	-0.082	-0.100
-495.581	-167.497	0.304	0.012
-494.566	15.967	0.303	0.243
-493.551	-145.590	-0.100	-0.009
-492.537	-200.000	-0.257	-0.001
-491.522	211.606	-0.055	0.088
-490.508	-54.957	0.111	0.051
-489.493	197.721	0.194	-0.301
-488.478	-53.672	-0.168	0.078
-487.464	-200.000	-0.061	0.318
-486.449	-103.073	0.040	0.010
-485.435	-200.000	0.034	-0.156
-484.420	382.354	0.177	-0.369
-483.405	-79.384	0.225	-0.077
-482.391	390.592	0.138	0.290
-481.376	-38.934	-0.146	-0.078
-480.362	-32.019	-0.145	0.082
-479.347	220.483	-0.154	-0.251
-478.332	800.000	0.134	0.556
-477.318	-4.025	-0.366	0.258
-476.303	-140.079	-0.174	0.019
-475.289	264.788	0.050	-0.088
-474.274	-141.494	0.137	-0.014
-473.259	-120.336	-0.276	-0.048
-472.245	69.411	0.118	-0.123
-471.230	304.157	-0.248	-0.467
-470.216	-9.048	-0.040	-0.027
-469.201	-200.000	0.069	-0.325
-468.186	12.655	-0.166	-0.130
-467.172	-200.000	-0.061	-0.362
-466.157	-25.106	-0.301	-0.181
-465.143	-200.000	-0.068	0.382
-464.128	187.645	-0.122	0.185
-463.113	-121.380	-0.229	0.039
-462.099	-111.816	-0.245	0.050
-461.084	102.461	-0.256	0.304
-460.070	457.864	-0.165	0.372
-459.055	-136.416	-0.309	0.037
-458.040	-67.853	-0.352	-0.140
-457.026	-200.000	0.028	0.190
-456.011	800.000	-0.060	0.200
-454.997	-15.151	0.210	0.137
-453.982	-200.000	0.014	-0.185
-452.968	800.000	0.036	-0.142
-451.953	-87.312	-0.221	-0.068
-450.938	-200.000	-0.008	0.228
-449.924	-50.281	-0.283	0.136
-448.909	-108.752	-0.189	0.041
-447.895	-200.000	0.037	0.207
-446.880	133.291	-0.174	0.229
-445.865	-200.000	0.006	0.041
-444.851	-63.175	-0.492	0.206
-443.836	800.000	-0.008	-0.028
-442.822	800.000	0.084	0.258
-441.807	-200.000	0.027	0.508
-440.792	-35.601	0.484	0.267
-439.778	-5.933	-0.080	-0.056
-438.763	-135.795	-0.133	-0.016
-437.749	136.073	0.029	-0.038
-436.734	234.742	-0.104	-0.174
-435.719	-71.003	0.077	-0.029
-434.705	168.350	-0.025	-0.036
-433.690	-48.598	-0.128	-0.062
-432.676	-100.595	-0.175	-0.044
-431.661	163.066	0.284	-0.405
-430.646	-25.230	0.225	-0.135
-429.632	-111.733	0.112	0.023
-428.617	-200.000	-0.100	0.553
-427.603	101.716	0.024	-0.028
-426.588	-35.581	-0.368	-0.202
-425.573	255.728	0.081	0.140
-424.559	-77.496	0.296	0.104
-423.544	-200.000	0.024	-0.358
-422.530	76.438	-0.329	-0.353
-421.515	563.404	-0.028	0.070
-420.500	-160.954	0.307	-0.016
-419.486	-200.000	0.050	-0.230
-418.471	-200.000	-0.001	-0.022
-417.457	-68.935	-0.202	-0.079
-416.442	-45.457	-0.139	-0.070
-415.428	-130.204	0.139	-0.019
-414.413	264.629	-0.201	-0.355
-413.398	161.569	0.176	-0.250
-412.384	-200.000	0.009	-0.053
-411.369	800.000	0.087	0.255
-410.355	-117.529	-0.186	0.034
-409.340	-200.000	0.003	-0.104
-408.325	179.645	-0.068	-0.101
-407.311	-85.239	0.096	-0.030
-406.296	143.589	0.279	0.377
-405.282	-39.817	-0.082	-0.044
-404.267	226.795	0.172	0.283
-403.252	800.000	0.076	0.238
-402.238	800.000	0.066	0.220
-401.223	29.322	-0.232	0.200
-400.209	-65.849	-0.352	-0.143
-399.194	85.165	-0.142	0.158
-398.179	-36.894	-0.165	-0.090
-397.165	-125.458	-0.136	-0.021
-396.150	97.318	0.067	0.077
-395.136	669.962	-0.026	0.069
-394.121	6.788	0.230	-0.174
-393.106	-187.938	0.185	0.002
-392.092	-200.000	0.001	0.080
-391.077	800.000	0.039	-0.124
-390.063	-78.730	0.161	0.056
-389.048	-200.000	-0.017	0.107
-388.033	181.432	0.036	0.053
-387.019	-100.723	-0.339	-0.085
-386.004	-14.843	0.576	0.374
-384.990	20.207	0.313	-0.256
-383.975	-110.279	-0.295	-0.062
-382.960	-16.172	0.180	0.116
-381.946	-133.416	-0.244	-0.031
-380.931	800.000	0.063	-0.207
-379.917	124.888	0.049	0.063
-378.902	-200.000	-0.007	-0.438
-377.888	-135.077	-0.041	0.005
-376.873	-49.816	-0.163	-0.078
-375.858	125.542	-0.080	0.102
-374.844	-82.843	0.241	-0.079
-373.829	25.000	0.359	0.301
-372.815	-57.266	0.255	0.113
-371.800	-200.000	0.026	0.293
-370.785	-196.447	0.159	0.001
-369.771	-50.069	0.098	-0.047
-368.756	20.805	-0.155	0.127
-367.742	-130.859	0.224	0.030
-366.727	4.196	-0.315	0.233
-365.712	-82.338	-0.208	0.068
-364.698	-95.261	0.038	0.010
-363.683	154.869	-0.157	-0.218
-362.669	139.748	-0.035	-0.047
-361.654	128.862	-0.174	0.225
-360.639	49.089	0.184	0.175
-359.625	135.017	0.104	-0.137
-358.610	-17.967	-0.110	-0.070
-357.596	800.000	-0.048	-0.146
-356.581	79.365	0.275	-0.298
-355.566	-200.000	0.019	-0.158
-354.552	-200.000	-0.028	0.141
-353.537	-26.859	0.279	0.165
-352.523	-166.419	-0.540	0.023
-351.508	-200.000	0.006	-0.116
-350.493	800.000	0.052	0.192
-349.479	-21.334	0.072	-0.045
-348.464	-200.000	-0.048	0.237
-347.450	459.077	-0.053	-0.118
-346.435	60.760	0.072	0.072
-345.420	49.020	-0.170	0.161
-344.406	71.598	0.220	0.231
-343.391	51.204	0.083	-0.079
-342.377	169.886	0.092	-0.133
-341.362	190.337	0.280	0.425
-340.348	-200.000	0.020	0.319
-339.333	384.069	-0.057	-0.119
-338.318	75.635	0.057	0.061
-337.304	58.537	-0.092	-0.091
-336.289	419.512	-0.119	0.258
-335.275	800.000	0.068	-0.213
-334.260	71.365	0.132	-0.139
-333.245	91.674	0.042	-0.047
-332.231	-48.360	0.161	0.078
-331.216	-31.745	-0.094	0.053
-330.202	-103.965	0.227	0.053
-329.187	800.000	0.059	0.199
-328.172	52.507	0.140	-0.135
-327.158	-91.722	-0.181	-0.052
-326.143	100.170	-0.054	-0.064
-325.129	-200.000	-0.031	0.243
-324.114	-60.285	-0.081	0.035
-323.099	73.386	-0.133	0.140
-322.085	-51.979	-0.154	0.073
-321.070	231.715	0.116	0.193
-320.056	800.000	-0.119	-0.375
-319.041	113.765	0.140	0.172
-318.026	72.411	0.305	0.321
-317.012	-200.000	-0.016	-0.109
-315.997	-200.000	-0.036	-0.172
-314.983	-21.494	-0.219	0.135
-313.968	620.485	0.097	-0.246
-312.953	-63.807	0.006	-0.003
-311.939	487.464	-0.141	0.325
-310.924	340.761	0.185	0.364
-309.910	-140.119	0.347	-0.037
-308.895	800.000	0.111	-0.331
-307.880	82.033	0.176	-0.192
-306.866	44.038	-0.020	-0.018
-305.851	32.421	-0.097	-0.085
-304.837	800.000	0.024	0.095
-303.822	14.189	0.186	-0.146
-302.807	800.000	-0.040	-0.150
-301.793	-26.803	-0.148	-0.087
-300.778	682.113	-0.041	-0.107
-299.764	510.622	0.013	0.030
-298.749	-112.589	0.262	-0.053
-297.735	-200.000	-0.011	-0.053
-296.720	800.000	0.073	0.213
-295.705	-57.837	-0.124	0.055
-294.691	-200.000	0.003	-0.082
-293.676	-22.234	0.104	-0.064
-292.662	155.467	-0.056	-0.078
-291.647	-14.678	-0.157	-0.102
-290.632	-102.134	0.232	-0.056
-289.618	-113.862	-0.134	0.026
-288.603	-143.089	-0.209	-0.020
-287.589	-128.953	-0.142	0.020
-286.574	800.000	0.058	-0.167
-285.559	24.224	-0.154	0.128
-284.545	232.471	0.181	-0.299
-283.530	800.000	-0.072	-0.200
-282.516	195.828	0.134	-0.206
-281.501	-68.598	0.180	-0.070
-280.486	32.473	0.272	0.237
-279.472	-10.481	0.174	0.116
-278.457	673.480	0.030	-0.079
-277.443	558.760	0.100	-0.242
-276.428	800.000	-0.071	0.210
-275.413	-25.168	0.102	-0.061
-274.399	-70.623	-0.276	-0.105
-273.384	-200.000	0.067	-0.315
-272.370	-72.768	0.324	-0.120
-271.355	-200.000	-0.009	-0.117
-270.340	800.000	-0.129	-0.377
-269.326	-113.547	-0.348	0.069
-268.311	387.403	-0.097	0.201
-267.297	17.239	0.081	-0.065
-266.282	-48.630	-0.573	-0.277
-265.267	-45.340	0.191	-0.096
-264.253	-48.972	0.292	0.141
-263.238	-200.000	-0.023	-0.245
-262.224	1.198	-0.136	0.098
-261.209	800.000	0.100	0.330
-260.195	707.147	-0.045	0.119
-259.180	51.889	0.259	-0.248
-258.165	323.254	0.100	0.191
-257.151	-83.888	0.131	-0.042
-256.136	59.978	0.208	0.207
-255.122	-54.914	-0.209	0.095
-254.107	-32.135	0.218	-0.123
-253.092	33.619	0.152	0.133
-252.078	5.419	0.168	-0.125
-251.063	774.736	0.067	0.184
-250.049	114.864	-0.221	0.271
-249.034	206.129	-0.187	0.294
-248.019	583.726	-0.121	0.300
-247.005	-115.998	-0.371	0.070
-245.990	-60.555	0.048	-0.021
-244.976	-165.964	0.195	-0.008
-243.961	-46.513	0.103	0.051
-242.946	70.832	-0.010	-0.011
-241.932	137.155	-0.022	-0.030
-240.917	64.266	-0.063	0.064
-239.903	6.712	0.221	0.165
-238.888	585.762	-0.050	-0.124
-237.873	800.000	0.077	0.313
-236.859	-200.000	0.087	0.430
-235.844	-131.714	0.151	0.020
-234.830	67.502	-0.097	-0.100
-233.815	-149.115	0.019	-0.002
-232.800	360.725	0.082	0.166
-231.786	-200.000	0.006	-0.360
-230.771	28.564	-0.156	0.133
-229.757	800.000	-0.038	0.153
-228.742	-57.573	0.197	-0.087
-227.727	-83.255	-0.064	0.021
-226.713	-200.000	0.053	0.259
-225.698	-200.000	-0.004	0.041
-224.684	-116.483	0.219	-0.041
-223.669	800.000	-0.056	-0.201
-222.655	-32.942	-0.134	0.075
-221.640	-200.000	0.025	-0.171
-220.625	800.000	0.121	0.364
-219.611	337.145	0.138	-0.269
-218.596	800.000	-0.031	0.125
-217.582	800.000	-0.055	-0.181
-216.567	-200.000	0.003	0.266
-215.552	-129.100	-0.415	-0.058
-214.538	157.998	0.113	-0.157
-213.523	-200.000	-0.053	-0.345
-212.509	-67.542	-0.342	-0.135
-211.494	-114.324	-0.156	0.030
-210.479	-99.408	-0.224	0.057
-209.465	-200.000	0.012	0.291
-208.450	-200.000	-0.015	0.129
-207.436	425.060	0.078	-0.169
-206.421	-140.488	0.100	-0.010
-205.406	709.855	-0.158	0.419
-204.392	52.043	0.163	-0.156
-203.377	-55.587	-0.129	-0.058
-202.363	800.000	-0.094	-0.327
-201.348	673.116	0.077	-0.201
-200.333	6.282	0.171	0.127
-199.319	128.355	-0.054	-0.069
-198.304	70.511	0.035	-0.036
-197.290	225.477	-0.127	-0.207
-196.275	482.984	-0.138	-0.316
-195.260	-131.073	0.283	0.038
-194.246	-96.756	0.248	-0.065
-193.231	-62.449	-0.178	-0.074
-192.217	800.000	0.021	0.070
-191.202	-69.249	0.322	0.124
-190.187	-139.015	-0.255	0.028
-189.173	97.999	0.204	-0.236
-188.158	-200.000	-0.002	0.062
-187.144	-15.594	-0.096	0.061
-186.129	35.469	0.094	-0.082
-185.114	228.311	-0.169	0.276
-184.100	581.895	0.037	-0.092
-183.085	800.000	0.115	-0.320
-182.071	658.811	-0.116	-0.299
-181.056	-108.254	0.134	-0.029
-180.042	83.300	0.106	0.116
-179.027	-89.822	-0.157	-0.046
-178.012	51.644	-0.188	0.179
-176.998	-132.434	-0.266	0.034
-175.983	-200.000	-0.028	-0.138
-174.969	141.066	-0.052	-0.068
-173.954	-200.000	0.001	0.045
-172.939	-200.000	0.056	-0.251
-171.925	800.000	0.125	-0.394
-170.910	43.900	-0.262	0.241
-169.896	162.696	0.341	0.481
-168.881	-200.000	0.016	-0.104
-167.866	272.683	0.062	-0.111
-166.852	800.000	0.051	-0.159
-165.837	20.336	-0.168	-0.137
-164.823	-1.295	-0.121	0.086
-163.808	-45.578	-0.561	0.279
-162.793	37.616	-0.069	0.062
-161.779	-200.000	0.030	0.138
-160.764	-12.388	-0.170	0.112
-159.750	115.311	0.066	-0.081
-158.735	92.869	0.246	-0.279
-157.720	449.423	0.108	0.239
-156.706	687.677	0.049	0.130
-155.691	-80.361	0.151	-0.051
-154.677	-200.000	-0.020	0.106
-153.662	800.000	0.099	-0.296
-152.647	-42.858	0.167	-0.085
-151.633	-200.000	0.049	0.413
-150.618	180.803	0.185	0.273
-149.604	40.445	-0.193	-0.174
-148.589	58.606	-0.177	0.174
-147.574	-118.950	0.469	0.082
-146.560	-36.772	-0.370	0.199
-145.545	800.000	0.107	0.391
-144.531	-200.000	0.014	0.175
-143.516	-15.636	0.296	0.189
-142.502	-103.942	0.397	-0.093
-141.487	158.711	0.025	-0.035
-140.472	587.389	0.088	-0.218
-139.458	-9.581	0.161	-0.108
-138.443	225.915	0.160	-0.259
-137.429	800.000	0.059	0.255
-136.414	-38.457	-0.079	0.042
-135.399	229.559	0.061	0.100
-134.385	-18.817	-0.045	-0.028
-133.370	-122.946	0.306	0.049
-132.356	-109.114	0.313	0.067
-131.341	800.000	-0.028	-0.095
-130.326	-53.600	-0.224	-0.103
-129.312	49.405	0.132	-0.124
-128.297	-4.621	-0.210	0.145
-127.283	-4.310	-0.205	0.142
-126.268	-55.051	0.259	0.117
-125.253	-107.471	-0.212	-0.046
-124.239	-121.345	-0.277	-0.046
-123.224	264.399	-0.128	-0.223
-122.210	-200.000	0.061	-0.422
-121.195	-11.491	0.102	-0.067
