DTS Sentinel unit serial number:	SN413079Multiplexer serial number:	ORYXHardware model number:	OX4-SRSoftware version number:	ORYX F/W v4.00 Oryx Data Collector v3.7.2.0data status	okinstallation	princeton_trtdifferential loss correction	single-endedforward channel	channel 4reverse channel	N/Adate	2019/09/14time	06:33:35forward acquisition time	60.00reverse acquisition time	0.00gamma	496.2192k internal	0.2323k external	0.2323temperature offset calibration	1.0139default loss term (dB/km)	0.3790temperature slope calibration	1.0000multiplexer offset coefficient	1.0000multiplexer slope coefficient	1.0000fibre end	0.00T internal ref (°C)	26.41T ext. ref 1 (°C)	3.41T ext. ref 2 (°C)	20.37length (m)	temperature (°C)	Stokes	anti-Stokes-747.200	122.151	-0.076	-0.096
-746.185	-64.783	-0.101	-0.041
-745.171	0.754	0.264	0.191
-744.156	160.997	0.089	0.126
-743.142	-194.039	-0.374	0.003
-742.127	-171.096	-0.322	0.011
-741.112	-56.095	0.198	-0.089
-740.098	-132.948	-0.266	0.034
-739.083	178.816	0.052	0.077
-738.069	-200.000	0.056	0.258
-737.054	-186.578	0.092	-0.001
-736.039	-47.891	0.252	-0.123
-735.025	-138.623	-0.068	-0.008
-734.010	-71.049	-0.132	0.050
-732.996	14.273	-0.318	-0.250
-731.981	7.094	-0.058	-0.043
-730.966	68.649	-0.227	-0.235
-729.952	151.437	-0.105	-0.144
-728.937	-200.000	-0.217	0.000
-727.923	800.000	0.045	-0.132
-726.908	-32.068	0.283	0.160
-725.894	438.309	-0.121	-0.266
-724.879	211.060	-0.076	0.121
-723.864	514.164	-0.113	0.265
-722.850	-200.000	0.002	0.213
-721.835	-57.111	-0.222	-0.099
-720.821	-130.625	-0.230	0.031
-719.806	-110.605	-0.207	-0.043
-718.791	-17.092	0.577	0.368
-717.777	-200.000	-0.071	-0.342
-716.762	520.156	-0.084	-0.199
-715.748	15.609	0.100	0.079
-714.733	167.300	-0.163	-0.233
-713.718	77.275	-0.145	-0.155
-712.704	800.000	0.067	0.264
-711.689	-200.000	-0.068	-0.355
-710.675	-200.000	0.031	-0.147
-709.660	-50.325	0.119	0.057
-708.645	-53.127	0.237	0.110
-707.631	10.892	-0.311	-0.239
-706.616	-180.076	-0.382	0.008
-705.602	-127.477	-0.072	-0.011
-704.587	-200.000	-0.001	-0.140
-703.572	489.617	-0.041	-0.096
-702.558	-66.398	-0.117	-0.047
-701.543	-200.000	-0.006	-0.204
-700.529	-157.080	0.135	0.008
-699.514	-37.411	-0.192	0.103
-698.499	498.911	0.080	0.185
-697.485	2.646	-0.041	-0.030
-696.470	75.207	-0.087	0.092
-695.456	-155.322	0.153	0.010
-694.441	800.000	0.087	-0.374
-693.426	20.633	0.042	-0.035
-692.412	-144.627	0.081	-0.008
-691.397	-27.686	-0.422	-0.247
-690.383	-17.838	-0.033	-0.021
-689.368	-200.000	0.049	-0.269
-688.354	-117.894	0.326	-0.059
-687.339	-79.269	-0.401	0.137
-686.324	800.000	0.069	0.260
-685.310	35.038	-0.119	-0.105
-684.295	195.861	0.195	0.300
-683.281	-43.154	0.170	-0.087
-682.266	6.455	-0.235	-0.176
-681.251	-165.866	0.152	0.007
-680.237	-7.784	-0.408	-0.278
-679.222	-11.692	-0.263	0.174
-678.208	-97.789	0.269	0.070
-677.193	-200.000	-0.040	-0.273
-676.178	38.258	-0.108	0.097
-675.164	-13.697	0.100	-0.065
-674.149	-200.000	0.301	0.001
-673.135	-118.629	-0.190	0.034
-672.120	0.206	0.113	-0.081
-671.105	-200.000	0.033	-0.314
-670.091	131.212	-0.089	0.115
-669.076	-151.895	0.220	-0.016
-668.062	-200.000	-0.012	0.088
-667.047	-24.665	0.272	-0.163
-666.032	-161.913	0.346	0.018
-665.018	-16.711	0.197	-0.126
-664.003	188.925	0.109	-0.164
-662.989	-85.768	0.389	0.121
-661.974	520.892	0.122	-0.287
-660.959	28.018	-0.323	0.275
-659.945	-200.000	0.021	0.266
-658.930	-200.000	-0.085	-0.386
-657.916	-103.232	-0.194	0.046
-656.901	675.978	-0.169	-0.442
-655.886	409.464	-0.119	0.253
-654.872	-20.867	-0.064	0.039
-653.857	-200.000	-0.043	0.292
-652.843	-8.824	-0.167	0.113
-651.828	-41.153	-0.420	-0.218
-650.814	409.851	-0.066	0.141
-649.799	-110.667	0.371	-0.077
-648.784	-66.215	0.202	0.081
-647.770	-115.507	0.379	-0.072
-646.755	794.396	-0.046	-0.129
-645.741	6.705	0.113	-0.085
-644.726	800.000	-0.073	0.253
-643.711	690.803	0.072	-0.189
-642.697	143.186	-0.105	0.140
-641.682	47.731	0.288	0.270
-640.668	800.000	0.064	-0.226
-639.653	103.417	0.192	-0.227
-638.638	-113.529	0.124	0.024
-637.624	-56.892	-0.328	0.146
-636.609	754.446	0.114	0.309
-635.595	-200.000	0.010	-0.182
-634.580	526.956	-0.111	0.262
-633.565	-3.599	-0.064	-0.045
-632.551	678.784	-0.026	-0.067
-631.536	136.955	-0.112	-0.147
-630.522	-18.421	0.136	0.086
-629.507	29.525	0.058	0.050
-628.492	96.724	0.127	0.146
-627.478	-200.000	0.036	0.326
-626.463	-51.944	0.214	-0.100
-625.449	800.000	0.052	-0.225
-624.434	-83.300	0.297	0.096
-623.419	800.000	-0.066	-0.265
-622.405	-117.303	-0.095	0.017
-621.390	330.367	-0.091	-0.176
-620.376	-46.695	-0.358	-0.176
-619.361	-135.137	0.081	0.010
-618.346	-28.738	-0.077	-0.045
-617.332	398.033	-0.180	0.379
-616.317	-157.324	-0.206	0.013
-615.303	-73.735	-0.114	-0.042
-614.288	36.969	0.093	0.083
-613.273	-200.000	0.019	0.221
-612.259	142.742	-0.119	-0.159
-611.244	29.824	0.076	0.065
-610.230	-200.000	0.069	-0.437
-609.215	-200.000	0.080	0.371
-608.201	110.946	0.196	-0.237
-607.186	-83.787	-0.159	0.051
-606.171	-19.751	0.167	0.104
-605.157	8.708	0.117	-0.088
-604.142	-200.000	0.010	-0.218
-603.128	-200.000	-0.007	-0.066
-602.113	-107.291	0.117	-0.026
-601.098	800.000	-0.028	-0.114
-600.084	-89.780	-0.046	-0.014
-599.069	266.881	0.044	-0.077
-598.055	-110.996	-0.413	-0.085
-597.040	377.828	-0.105	-0.215
-596.025	-28.928	-0.371	-0.214
-595.011	-108.834	0.235	-0.051
-593.996	385.671	-0.107	-0.221
-592.982	-155.749	0.235	-0.015
-591.967	-67.136	-0.063	-0.025
-590.952	292.379	0.123	0.224
-589.938	-128.469	0.362	-0.052
-588.923	-52.972	0.368	0.170
-587.909	152.195	0.080	0.109
-586.894	-24.744	-0.161	-0.096
-585.879	191.166	-0.127	0.192
-584.865	279.700	0.236	-0.423
-583.850	12.711	0.080	-0.062
-582.836	257.121	-0.089	-0.154
-581.821	-187.094	-0.230	0.003
-580.806	0.837	-0.493	-0.354
-579.792	800.000	0.140	-0.411
-578.777	-200.000	-0.000	0.018
-577.763	583.495	0.149	-0.368
-576.748	-200.000	-0.057	-0.410
-575.733	29.899	0.254	-0.217
-574.719	26.421	0.107	0.090
-573.704	800.000	-0.108	-0.340
-572.690	-126.265	0.132	0.020
-571.675	142.781	-0.183	-0.244
-570.661	-56.667	0.110	0.049
-569.646	-80.882	-0.407	-0.135
-568.631	800.000	-0.017	0.054
-567.617	431.326	0.091	-0.197
-566.602	-163.637	-0.263	-0.012
-565.588	51.999	-0.067	0.064
-564.573	269.501	0.117	-0.206
-563.558	800.000	-0.017	-0.052
-562.544	74.990	0.045	-0.048
-561.529	721.992	0.099	-0.264
-560.515	-200.000	0.015	0.166
-559.500	147.626	0.203	-0.274
-558.485	-109.931	0.172	0.036
-557.471	-200.000	0.002	0.278
-556.456	-29.935	0.073	0.042
-555.442	-200.000	-0.048	-0.234
-554.427	800.000	-0.095	0.337
-553.412	89.844	-0.252	0.282
-552.398	10.058	0.250	-0.191
-551.383	-7.622	0.203	0.138
-550.369	800.000	-0.107	-0.356
-549.354	-200.000	-0.029	0.139
-548.339	28.780	0.322	0.274
-547.325	77.146	0.198	0.211
-546.310	-27.408	-0.271	-0.158
-545.296	-101.724	-0.203	0.049
-544.281	28.246	-0.174	-0.147
-543.266	467.665	-0.066	-0.149
-542.252	686.906	-0.071	-0.186
-541.237	5.987	0.167	-0.124
-540.223	-49.170	-0.219	0.105
-539.208	800.000	-0.146	0.434
-538.193	-48.150	0.103	0.050
-537.179	-200.000	-0.004	-0.095
-536.164	-200.000	0.015	-0.163
-535.150	35.002	-0.048	-0.042
-534.135	-113.693	-0.133	-0.026
-533.121	-31.851	-0.131	-0.074
-532.106	313.295	-0.129	0.242
-531.091	245.884	0.154	0.260
-530.077	-116.998	-0.118	0.022
-529.062	111.268	-0.100	-0.120
-528.048	-200.000	0.027	0.207
-527.033	7.982	0.043	-0.032
-526.018	47.156	0.174	-0.162
-525.004	67.624	0.170	-0.174
-523.989	-77.372	0.134	0.047
-522.975	-200.000	0.003	0.060
-521.960	171.543	-0.113	-0.163
-520.945	800.000	0.069	0.297
-519.931	67.166	0.044	-0.045
-518.916	96.837	-0.326	0.374
-517.902	119.020	-0.259	0.321
-516.887	-56.587	0.259	0.115
-515.872	80.152	-0.120	0.129
-514.858	-200.000	0.018	0.318
-513.843	-69.284	-0.061	-0.024
-512.829	-35.282	0.040	-0.022
-511.814	-44.007	0.113	0.057
-510.799	69.385	0.084	0.087
-509.785	-172.242	0.120	-0.004
-508.770	-200.000	0.037	-0.313
-507.756	-80.522	0.239	-0.080
-506.741	-154.679	-0.407	-0.027
-505.726	164.492	0.053	0.075
-504.712	-11.022	0.159	0.105
-503.697	175.445	-0.162	0.235
-502.683	-200.000	-0.010	-0.213
-501.668	172.000	-0.204	-0.293
-500.653	-56.880	-0.122	0.054
-499.639	34.561	-0.264	-0.230
-498.624	800.000	0.051	-0.168
-497.610	-176.633	0.150	-0.004
-496.595	11.417	-0.390	0.299
-495.581	-200.000	-0.030	0.280
-494.566	-68.365	-0.109	-0.042
-493.551	-44.328	-0.206	0.103
-492.537	-73.898	0.166	-0.060
-491.522	-87.134	-0.101	-0.031
-490.508	-195.089	0.144	0.001
-489.493	-16.626	0.227	-0.143
-488.478	362.621	0.134	0.269
-487.464	42.596	-0.180	0.164
-486.449	-142.173	0.412	0.041
-485.435	26.309	0.119	0.099
-484.420	-200.000	0.060	0.418
-483.405	-36.716	0.073	0.039
-482.391	99.378	0.262	0.303
-481.376	233.262	0.075	0.123
-480.362	58.791	-0.085	0.084
-479.347	-88.345	-0.377	-0.112
-478.332	-200.000	-0.003	-0.088
-477.318	800.000	-0.113	-0.344
-476.303	-63.523	0.215	-0.088
-475.289	304.309	-0.060	-0.111
-474.274	-119.471	-0.198	-0.034
-473.259	-200.000	0.004	-0.027
-472.245	56.223	0.387	-0.375
-471.230	800.000	0.020	-0.068
-470.216	-200.000	-0.003	0.211
-469.201	365.809	-0.093	0.187
-468.186	108.171	0.112	0.134
-467.172	800.000	-0.055	0.161
-466.157	-139.678	-0.144	0.015
-465.143	800.000	-0.043	-0.190
-464.128	-56.573	-0.334	-0.148
-463.113	-8.918	-0.140	-0.093
-462.099	-51.381	0.157	0.073
-461.084	224.291	0.116	-0.187
-460.070	57.017	0.034	0.033
-459.055	104.801	-0.185	0.217
-458.040	800.000	0.110	0.390
-457.026	-114.479	-0.184	0.035
-456.011	800.000	0.043	-0.152
-454.997	-74.814	0.203	0.073
-453.982	791.127	-0.111	-0.303
-452.968	-67.503	0.249	-0.097
-451.953	-200.000	0.030	0.297
-450.938	-200.000	0.016	-0.148
-449.924	223.052	0.074	0.119
-448.909	108.183	0.132	-0.158
-447.895	81.986	-0.218	0.235
-446.880	19.541	-0.207	0.166
-445.865	494.440	0.015	-0.035
-444.851	-200.000	-0.028	-0.214
-443.836	164.234	-0.054	-0.075
-442.822	-177.138	-0.411	0.010
-441.807	800.000	0.059	-0.214
-440.792	706.895	0.019	-0.051
-439.778	-200.000	-0.073	0.449
-438.763	-200.000	0.101	0.466
-437.749	800.000	0.051	-0.169
-436.734	-106.670	-0.365	-0.081
-435.719	416.327	0.171	0.364
-434.705	-82.662	-0.215	-0.070
-433.690	-200.000	0.027	0.300
-432.676	-89.120	-0.380	0.112
-431.661	-200.000	0.001	0.130
-430.646	133.807	0.056	-0.072
-429.632	-83.241	-0.084	-0.027
-428.617	-161.192	0.191	-0.010
-427.603	111.783	-0.171	-0.205
-426.588	-84.067	-0.368	0.117
-425.573	190.621	-0.090	0.134
-424.559	-83.750	-0.078	0.025
-423.544	-16.715	0.062	0.039
-422.530	-17.569	0.154	-0.097
-421.515	193.720	-0.173	-0.261
-420.500	800.000	-0.063	-0.226
-419.486	50.312	0.041	-0.038
-418.471	-29.133	0.200	-0.115
-417.457	800.000	-0.076	-0.267
-416.442	42.189	-0.241	-0.218
-415.428	191.498	-0.045	0.067
-414.413	276.861	-0.134	0.238
-413.398	-200.000	-0.024	-0.104
-412.384	285.948	-0.098	-0.177
-411.369	545.188	0.103	-0.245
-410.355	10.818	-0.399	-0.304
-409.340	207.911	0.303	-0.472
-408.325	328.340	0.040	0.077
-407.311	-200.000	0.011	-0.055
-406.296	-13.356	0.330	-0.213
-405.282	-200.000	0.014	-0.096
-404.267	800.000	-0.023	-0.090
-403.252	-96.158	0.399	-0.106
-402.238	-37.178	-0.281	0.150
-401.223	-54.784	-0.431	0.194
-400.209	-173.259	-0.317	-0.010
-399.194	-73.648	-0.237	-0.086
-398.179	-42.201	0.076	0.039
-397.165	-57.963	0.199	-0.087
-396.150	64.252	0.067	0.067
-395.136	-200.000	0.042	-0.194
-394.121	279.000	0.039	0.069
-393.106	102.030	-0.092	-0.107
-392.092	-158.074	0.116	-0.007
-391.077	107.724	-0.166	0.196
-390.063	800.000	0.136	-0.546
-389.048	227.717	0.054	-0.087
-388.033	322.701	-0.027	0.051
-387.019	-34.390	-0.017	-0.009
-386.004	526.539	0.095	-0.222
-384.990	800.000	0.007	-0.032
-383.975	219.090	0.170	0.270
-382.960	58.103	-0.177	0.172
-381.946	-169.938	0.204	0.007
-380.931	800.000	0.037	-0.130
-379.917	8.366	-0.287	-0.215
-378.902	-94.186	-0.274	0.075
-377.888	800.000	-0.091	0.382
-376.873	-160.217	0.477	0.026
-375.858	-43.214	-0.091	0.046
-374.844	-55.053	-0.285	0.128
-373.829	800.000	-0.077	0.251
-372.815	381.755	-0.174	0.356
-371.800	305.589	0.065	-0.120
-370.785	-45.788	-0.183	-0.090
-369.771	-131.781	-0.069	-0.009
-368.756	-151.262	0.144	0.011
-367.742	-88.506	0.065	0.019
-366.727	800.000	0.065	0.205
-365.712	84.526	0.172	-0.187
-364.698	2.164	-0.090	-0.065
-363.683	69.273	0.184	-0.188
-362.669	12.845	-0.140	0.108
-361.654	800.000	-0.096	-0.339
-360.639	-200.000	0.008	-0.103
-359.625	35.000	0.093	-0.081
-358.610	-200.000	0.058	0.280
-357.596	99.161	0.109	-0.126
-356.581	-137.150	-0.168	-0.019
-355.566	-200.000	-0.041	0.446
-354.552	-44.664	-0.237	-0.118
-353.537	-131.765	-0.111	-0.015
-352.523	-200.000	-0.091	0.554
-351.508	337.349	-0.181	0.349
-350.493	-27.851	-0.070	0.040
-349.479	117.723	0.022	0.027
-348.464	103.325	-0.209	-0.243
-347.450	359.047	-0.136	0.270
-346.435	-114.101	0.157	0.030
-345.420	43.352	0.189	-0.172
-344.406	-145.541	-0.056	-0.005
-343.391	-66.182	-0.054	-0.021
-342.377	-73.990	-0.191	0.069
-341.362	318.643	-0.041	0.078
-340.348	-48.209	0.617	0.296
-339.333	368.288	-0.037	-0.075
-338.318	800.000	-0.107	-0.398
-337.304	583.988	0.054	-0.132
-336.289	-86.696	0.105	-0.032
-335.275	-50.609	-0.149	-0.070
-334.260	79.214	-0.072	0.077
-333.245	168.310	0.073	0.104
-332.231	-200.000	0.056	0.323
-331.216	-46.716	-0.073	0.035
-330.202	-200.000	-0.055	-0.308
-329.187	296.806	0.030	-0.054
-328.172	402.220	0.080	-0.168
-327.158	-29.570	0.020	-0.011
-326.143	-87.321	0.116	0.035
-325.129	-150.475	0.210	-0.016
-324.114	15.917	0.231	0.181
-323.099	484.320	-0.054	0.123
-322.085	23.977	0.117	0.096
-321.070	800.000	0.022	-0.061
-320.056	-130.688	0.275	-0.037
-319.041	-35.720	0.279	-0.150
-318.026	-100.615	-0.282	0.069
-317.012	-200.000	-0.003	-0.186
-315.997	50.924	-0.144	0.136
-314.983	216.347	0.125	0.197
-313.968	-92.248	0.214	-0.060
-312.953	549.728	0.040	-0.096
-311.939	189.143	-0.116	-0.172
-310.924	-200.000	-0.001	-0.096
-309.910	-123.504	0.279	-0.044
-308.895	278.957	-0.086	0.152
-307.880	-153.453	-0.180	-0.012
-306.866	-28.374	0.124	0.071
-305.851	84.870	-0.152	0.165
-304.837	139.282	0.044	-0.057
-303.822	240.184	0.109	-0.180
-302.807	497.839	0.047	-0.106
-301.793	53.113	0.081	0.077
-300.778	-44.072	0.320	0.159
-299.764	148.068	-0.179	-0.240
-298.749	150.722	0.036	0.049
-297.735	163.061	-0.239	0.334
-296.720	-56.212	0.040	0.018
-295.705	127.492	0.046	-0.058
-294.691	85.293	0.080	0.088
-293.676	779.943	0.063	0.170
-292.662	-46.798	-0.069	-0.033
-291.647	800.000	-0.031	-0.093
-290.632	157.590	0.095	0.130
-289.618	243.736	-0.065	0.109
-288.603	78.542	-0.075	-0.080
-287.589	-135.640	-0.230	-0.027
-286.574	273.100	-0.129	0.226
-285.559	800.000	0.075	-0.210
-284.545	-153.473	0.414	-0.028
-283.530	800.000	-0.025	-0.093
-282.516	-34.039	0.350	-0.191
-281.501	225.174	-0.173	0.277
-280.486	-173.167	-0.142	0.004
-279.472	-147.439	0.121	0.010
-278.457	-132.901	-0.261	0.033
-277.443	20.842	0.141	0.113
-276.428	54.201	-0.146	0.140
-275.413	-71.889	0.142	0.052
-274.399	136.969	0.083	0.108
-273.384	182.402	0.031	-0.045
-272.370	-151.514	-0.272	0.020
-271.355	618.160	-0.073	0.181
-270.340	-103.554	0.356	-0.083
-269.326	-21.200	-0.211	0.128
-268.311	94.312	0.259	0.291
-267.297	-18.073	0.094	-0.058
-266.282	-16.185	-0.091	0.058
-265.267	800.000	-0.033	0.139
-264.253	-129.777	0.235	0.032
-263.238	-104.753	-0.182	0.042
-262.224	-200.000	0.023	-0.185
-261.209	-200.000	0.019	-0.124
-260.195	8.876	-0.369	0.276
-259.180	-197.544	-0.300	0.002
-258.165	46.809	0.052	0.048
-257.151	297.278	0.144	-0.261
-256.136	-200.000	0.048	0.451
-255.122	327.379	-0.090	0.171
-254.107	-167.000	0.220	0.009
-253.092	85.663	-0.193	0.210
-252.078	800.000	-0.083	-0.244
-251.063	-114.500	0.270	-0.051
-250.049	158.365	-0.171	0.235
-249.034	800.000	0.092	-0.379
-248.019	28.616	-0.218	-0.183
-247.005	170.971	0.065	-0.092
-245.990	-183.109	-0.313	0.005
-244.976	504.169	0.165	0.379
-243.961	800.000	-0.016	0.050
-242.946	-96.579	0.183	-0.048
-241.932	-200.000	0.052	0.499
-240.917	207.250	-0.113	0.175
-239.903	-192.508	0.079	-0.001
-238.888	206.864	0.062	-0.096
-237.873	800.000	-0.092	-0.306
-236.859	-200.000	-0.026	-0.257
-235.844	102.095	0.046	-0.053
-234.830	-145.702	0.244	-0.022
-233.815	69.542	0.200	0.204
-232.800	183.419	-0.119	-0.175
-231.786	17.431	-0.105	-0.083
-230.771	279.777	-0.149	-0.264
-229.757	530.694	0.051	0.118
-228.742	800.000	-0.041	-0.120
-227.727	-123.941	-0.442	0.069
-226.713	-162.352	-0.092	-0.005
-225.698	285.200	0.243	0.433
-224.684	194.910	-0.120	-0.181
-223.669	-200.000	-0.015	0.071
-222.655	186.479	-0.099	0.146
-221.640	142.916	0.099	0.130
-220.625	20.125	-0.082	0.065
-219.611	31.725	-0.220	-0.187
-218.596	-170.273	0.483	-0.017
-217.582	-101.569	-0.131	0.032
-216.567	-110.963	-0.172	0.035
-215.552	162.051	0.173	0.240
-214.538	-75.264	-0.295	-0.104
-213.523	103.841	-0.063	-0.073
-212.509	800.000	0.145	0.437
-211.494	289.222	0.122	0.218
-210.479	-11.796	0.056	-0.036
-209.465	-200.000	0.060	-0.429
-208.450	-200.000	-0.009	0.195
-207.436	-124.184	0.396	0.061
-206.421	53.455	0.126	-0.119
-205.406	409.197	0.083	0.174
-204.392	480.818	0.120	-0.270
-203.377	599.954	0.155	-0.381
-202.363	-99.062	-0.147	0.037
-201.348	-30.666	-0.243	0.136
-200.333	372.397	-0.073	0.147
-199.319	-54.309	0.162	-0.072
-198.304	-200.000	0.001	0.094
-197.290	800.000	-0.033	-0.117
-196.275	272.162	-0.160	-0.279
-195.260	-51.367	-0.111	-0.051
-194.246	-66.128	0.014	0.005
-193.231	-127.031	0.064	0.009
-192.217	-20.524	-0.132	-0.080
-191.202	-32.542	-0.248	-0.137
-190.187	800.000	0.057	0.196
-189.173	-200.000	0.183	0.000
-188.158	-118.205	-0.368	-0.065
-187.144	129.658	0.224	0.283
-186.129	38.278	0.187	-0.165
-185.114	-62.629	-0.089	-0.037
-184.100	48.204	0.160	0.148
-183.085	-200.000	0.031	-0.218
-182.071	-171.848	0.173	-0.006
-181.056	16.233	-0.251	0.195
-180.042	116.546	0.151	-0.183
-179.027	-70.923	0.234	0.087
-178.012	-118.514	0.320	0.056
-176.998	-112.219	-0.132	0.026
-175.983	-127.702	0.117	0.017
-174.969	-200.000	0.073	0.325
-173.954	722.053	0.050	0.132
-172.939	122.753	0.165	-0.204
-171.925	-167.198	-0.209	0.008
-170.910	-200.000	0.008	-0.053
-169.896	-48.502	0.278	-0.132
-168.881	161.385	0.074	-0.103
-167.866	-82.053	0.039	-0.013
-166.852	800.000	-0.069	0.200
-165.837	386.070	-0.106	0.216
-164.823	148.067	-0.129	0.172
-163.808	800.000	0.024	0.068
-162.793	287.535	-0.086	-0.154
-161.779	24.695	0.294	-0.240
-160.764	800.000	-0.017	-0.070
-159.750	366.832	-0.121	-0.242
-158.735	48.934	-0.132	-0.122
-157.720	321.017	-0.088	-0.165
-156.706	800.000	0.017	-0.061
-155.691	-80.128	-0.072	-0.024
-154.677	82.920	0.163	0.175
-153.662	13.908	-0.136	0.104
-152.647	51.787	0.215	0.202
-151.633	800.000	0.059	0.180
-150.618	-139.045	0.248	0.027
-149.604	200.578	0.120	-0.182
-148.589	-122.447	0.275	-0.044
-147.574	9.316	-0.324	0.242
-146.560	-12.795	-0.222	0.142
-145.545	800.000	0.128	0.411
-144.531	-167.893	0.409	-0.016
-143.516	380.877	0.090	0.183
-142.502	800.000	-0.035	0.100
-141.487	164.850	0.175	-0.244
-140.472	-200.000	0.009	-0.139
-139.458	-200.000	0.069	0.304
-138.443	-18.771	0.326	-0.200
-137.429	119.617	0.096	0.117
-136.414	-106.389	-0.035	0.008
-135.399	36.978	0.252	-0.220
-134.385	-200.000	-0.079	-0.374
-133.370	65.455	0.200	-0.200
-132.356	-144.924	-0.230	0.021
-131.341	538.092	0.069	-0.161
-130.326	-200.000	0.006	-0.081
-129.312	800.000	-0.070	0.204
-128.297	-200.000	0.018	-0.209
-127.283	-144.624	0.102	-0.009
-126.268	294.527	0.065	0.118
-125.253	-45.907	-0.257	0.125
-124.239	-62.583	0.258	-0.106
-123.224	800.000	-0.089	-0.257
-122.210	272.010	0.077	0.133
-121.195	800.000	0.067	-0.251
