DTS Sentinel unit serial number:	SN413079Multiplexer serial number:	ORYXHardware model number:	OX4-SRSoftware version number:	ORYX F/W v4.00 Oryx Data Collector v3.7.2.0data status	okinstallation	princeton_trtdifferential loss correction	single-endedforward channel	channel 4reverse channel	N/Adate	2019/09/19time	13:33:34forward acquisition time	60.00reverse acquisition time	0.00gamma	496.2192k internal	0.2311k external	0.2311temperature offset calibration	1.0017default loss term (dB/km)	0.3790temperature slope calibration	1.0000multiplexer offset coefficient	1.0000multiplexer slope coefficient	1.0000fibre end	0.00T internal ref (°C)	30.12T ext. ref 1 (°C)	0.98T ext. ref 2 (°C)	27.05length (m)	temperature (°C)	Stokes	anti-Stokes-747.200	-200.000	0.034	0.297
-746.185	-147.736	0.038	-0.003
-745.171	-136.082	0.323	0.038
-744.156	27.561	0.210	-0.179
-743.142	-1.739	0.218	0.156
-742.127	800.000	0.014	-0.053
-741.112	-200.000	-0.047	0.239
-740.098	800.000	-0.070	0.232
-739.083	-40.777	-0.296	-0.156
-738.069	1.043	0.172	0.125
-737.054	-71.464	0.315	-0.120
-736.039	62.426	0.075	0.076
-735.025	-58.204	0.372	0.164
-734.010	-200.000	-0.007	-0.207
-732.996	-99.836	0.308	-0.078
-731.981	-134.367	-0.148	-0.018
-730.966	-27.320	-0.215	-0.127
-729.952	5.189	0.195	-0.146
-728.937	46.883	0.094	0.089
-727.923	130.987	0.213	0.277
-726.908	-200.000	-0.009	-0.313
-725.894	800.000	-0.064	-0.262
-724.879	800.000	0.054	0.195
-723.864	14.056	-0.139	0.110
-722.850	-30.194	-0.348	-0.201
-721.835	-200.000	0.021	-0.180
-720.821	-144.365	-0.236	0.022
-719.806	676.191	-0.076	-0.201
-718.791	-32.659	0.111	-0.062
-717.777	-64.335	-0.109	0.045
-716.762	-136.470	-0.118	-0.014
-715.748	422.797	-0.022	-0.048
-714.733	754.103	0.079	0.215
-713.718	83.082	0.152	-0.167
-712.704	443.768	0.040	-0.088
-711.689	-98.428	-0.164	0.043
-710.675	71.598	-0.076	-0.080
-709.660	86.379	0.176	-0.197
-708.645	-114.810	0.128	0.025
-707.631	-121.621	-0.250	0.042
-706.616	-200.000	0.009	-0.363
-705.602	-146.184	-0.112	0.010
-704.587	108.761	0.160	-0.193
-703.572	-200.000	0.062	-0.383
-702.558	-150.348	0.264	-0.021
-701.543	-153.854	0.137	-0.009
-700.529	-200.000	0.005	-0.054
-699.514	-90.319	0.383	0.113
-698.499	-126.332	-0.293	0.044
-697.485	-200.000	0.042	-0.296
-696.470	-80.348	0.316	0.107
-695.456	160.196	-0.127	0.179
-694.441	-77.240	0.369	-0.130
-693.426	9.008	-0.176	0.135
-692.412	432.082	-0.064	0.142
-691.397	-200.000	0.000	0.211
-690.383	-122.996	0.078	-0.013
-689.368	-200.000	0.000	0.186
-688.354	-101.954	-0.168	0.041
-687.339	-200.000	-0.009	0.180
-686.324	800.000	0.088	0.342
-685.310	-64.287	-0.289	-0.119
-684.295	287.178	-0.109	-0.200
-683.281	-200.000	0.014	-0.197
-682.266	202.481	-0.068	-0.107
-681.251	79.269	0.103	-0.112
-680.237	-15.474	-0.065	0.042
-679.222	65.834	-0.333	-0.342
-678.208	39.474	0.073	-0.066
-677.193	800.000	0.091	-0.361
-676.178	-124.973	0.527	0.082
-675.164	172.842	0.210	0.306
-674.149	205.976	-0.083	-0.130
-673.135	420.765	0.102	-0.222
-672.120	-150.720	-0.445	0.034
-671.105	6.990	-0.016	0.012
-670.091	-152.747	0.276	-0.020
-669.076	346.192	0.075	-0.150
-668.062	-28.161	0.106	-0.062
-667.047	800.000	-0.013	-0.037
-666.032	-9.475	-0.443	-0.299
-665.018	539.035	-0.111	-0.267
-664.003	-72.153	-0.126	0.047
-662.989	-64.952	-0.255	-0.104
-661.974	98.496	0.118	-0.137
-660.959	-19.790	-0.223	0.140
-659.945	-200.000	-0.038	-0.289
-658.930	-140.665	0.061	0.006
-657.916	-200.000	-0.089	0.406
-656.901	13.500	0.054	-0.043
-655.886	39.608	-0.223	-0.202
-654.872	-64.088	0.116	0.048
-653.857	150.466	-0.041	-0.056
-652.843	-78.150	-0.210	-0.073
-651.828	401.956	0.056	0.119
-650.814	-68.653	0.288	-0.113
-649.799	9.374	-0.106	0.081
-648.784	83.663	0.269	-0.296
-647.770	-85.242	-0.231	-0.073
-646.755	298.111	0.211	-0.392
-645.741	-164.282	0.362	0.017
-644.726	-200.000	-0.037	-0.259
-643.711	-200.000	0.030	-0.435
-642.697	153.186	0.032	0.044
-641.682	-132.298	-0.164	-0.021
-640.668	-200.000	0.019	0.166
-639.653	800.000	-0.060	-0.207
-638.638	28.341	0.135	0.116
-637.624	354.878	0.062	0.125
-636.609	157.006	0.098	-0.137
-635.595	61.788	0.162	-0.163
-634.580	-135.890	0.057	-0.007
-633.565	-96.169	-0.024	-0.006
-632.551	800.000	0.061	0.192
-631.536	118.254	-0.174	-0.216
-630.522	-200.000	-0.037	-0.237
-629.507	-51.974	-0.071	0.033
-628.492	48.749	0.160	0.151
-627.478	422.061	0.204	0.443
-626.463	90.484	-0.363	0.410
-625.449	-95.109	-0.048	0.013
-624.434	208.149	-0.088	-0.139
-623.419	24.855	0.090	0.075
-622.405	-47.507	-0.157	0.077
-621.390	304.629	0.034	-0.063
-620.376	86.190	0.064	-0.071
-619.361	101.443	-0.199	0.235
-618.346	-89.890	0.197	0.058
-617.332	-142.789	-0.248	0.024
-616.317	-200.000	-0.005	0.117
-615.303	-200.000	-0.054	0.293
-614.288	-74.246	-0.059	0.022
-613.273	-200.000	0.005	-0.279
-612.259	-200.000	-0.176	0.000
-611.244	35.566	0.304	-0.269
-610.230	-108.173	0.348	0.076
-609.215	800.000	-0.146	-0.410
-608.201	-67.273	-0.056	-0.022
-607.186	-63.002	-0.147	-0.061
-606.171	15.958	0.367	0.292
-605.157	-9.211	-0.225	0.152
-604.142	145.872	-0.130	0.176
-603.128	189.345	0.034	0.052
-602.113	-143.602	0.164	-0.016
-601.098	530.471	-0.086	0.205
-600.084	-200.000	0.005	0.061
-599.069	-82.845	0.466	0.152
-598.055	800.000	0.076	-0.289
-597.040	93.688	0.197	0.226
-596.025	-102.585	0.385	0.093
-595.011	26.032	0.072	-0.061
-593.996	-200.000	0.063	-0.352
-592.982	-97.860	-0.154	0.040
-591.967	135.634	0.126	0.165
-590.952	-66.608	0.016	0.006
-589.938	-44.340	-0.396	-0.200
-588.923	145.374	0.151	-0.204
-587.909	637.825	0.095	-0.243
-586.894	254.190	0.044	-0.076
-585.879	-57.758	0.189	0.083
-584.865	153.750	-0.084	0.117
-583.850	-200.000	-0.024	-0.115
-582.836	-58.136	0.378	-0.166
-581.821	601.614	0.065	0.163
-580.806	-70.864	-0.032	-0.012
-579.792	83.510	-0.185	0.203
-578.777	-81.487	0.138	-0.046
-577.763	-200.000	0.049	0.372
-576.748	91.025	0.135	0.153
-575.733	249.282	0.053	-0.091
-574.719	-59.472	0.219	-0.095
-573.704	-120.768	0.219	-0.037
-572.690	-152.856	0.229	0.016
-571.675	361.009	-0.110	0.223
-570.661	-200.000	-0.009	-0.065
-569.646	-78.792	-0.249	0.086
-568.631	-200.000	-0.015	0.161
-567.617	-13.043	-0.261	0.171
-566.602	394.480	-0.022	-0.046
-565.588	513.646	0.053	-0.125
-564.573	4.188	0.193	0.143
-563.558	-200.000	-0.013	-0.094
-562.544	-93.983	-0.364	-0.101
-561.529	145.428	0.113	-0.152
-560.515	51.785	-0.207	0.198
-559.500	205.137	0.100	0.157
-558.485	-18.445	0.255	-0.161
-557.471	-200.000	-0.060	0.287
-556.456	-71.450	-0.141	0.053
-555.442	182.840	0.146	-0.217
-554.427	-200.000	-0.017	-0.225
-553.412	41.591	-0.093	-0.085
-552.398	800.000	-0.018	-0.052
-551.383	-73.064	0.214	0.079
-550.369	223.749	-0.121	-0.196
-549.354	-34.752	0.078	0.043
-548.339	-81.779	0.230	0.076
-547.325	163.600	-0.134	-0.190
-546.310	-150.679	-0.116	0.009
-545.296	800.000	-0.066	0.256
-544.281	-78.639	-0.069	0.024
-543.266	800.000	-0.101	-0.320
-542.252	-40.031	0.020	0.011
-541.237	264.521	-0.082	0.143
-540.223	-145.733	-0.481	0.043
-539.208	800.000	-0.038	-0.141
-538.193	800.000	0.014	-0.049
-537.179	130.911	0.149	-0.192
-536.164	-26.385	0.165	0.098
-535.150	-28.799	-0.239	0.139
-534.135	76.466	0.105	-0.112
-533.121	-200.000	0.061	0.326
-532.106	-78.824	-0.196	0.067
-531.091	-138.921	-0.595	0.065
-530.077	-61.887	-0.105	-0.044
-529.062	303.444	-0.043	0.080
-528.048	87.507	0.164	-0.183
-527.033	32.968	0.131	-0.115
-526.018	-74.556	-0.258	-0.093
-525.004	65.766	-0.039	-0.040
-523.989	800.000	-0.097	-0.342
-522.975	367.021	-0.165	-0.335
-521.960	800.000	-0.034	0.125
-520.945	-200.000	-0.035	-0.284
-519.931	61.177	0.314	0.313
-518.916	-24.154	0.317	0.191
-517.902	-86.013	-0.179	-0.056
-516.887	-56.678	0.031	-0.014
-515.872	587.574	0.083	-0.206
-514.858	-75.153	0.222	-0.080
-513.843	-55.291	-0.100	-0.045
-512.829	-143.259	0.251	-0.024
-511.814	317.014	0.028	0.054
-510.799	22.480	0.266	-0.218
-509.785	-40.798	-0.168	0.087
-508.770	195.655	0.090	0.137
-507.756	-63.795	-0.133	0.055
-506.741	206.326	0.155	-0.242
-505.726	-45.331	0.151	-0.075
-504.712	-200.000	0.012	0.232
-503.697	-153.948	0.336	0.023
-502.683	-200.000	0.013	0.126
-501.668	800.000	-0.057	0.184
-500.653	-200.000	-0.225	0.000
-499.639	88.193	0.134	-0.149
-498.624	-44.421	0.257	-0.129
-497.610	800.000	-0.062	0.224
-496.595	-15.089	-0.467	0.301
-495.581	-200.000	-0.046	-0.248
-494.566	-112.904	0.178	0.035
-493.551	45.310	0.052	0.048
-492.537	-200.000	0.011	-0.101
-491.522	43.824	-0.235	0.216
-490.508	-47.195	0.234	0.115
-489.493	116.141	-0.094	0.116
-488.478	800.000	-0.083	0.238
-487.464	566.471	-0.102	-0.249
-486.449	800.000	-0.148	0.429
-485.435	-200.000	0.042	0.299
-484.420	327.799	-0.097	0.187
-483.405	18.327	0.139	-0.111
-482.391	-5.246	0.069	-0.048
-481.376	-38.940	-0.209	0.111
-480.362	115.377	-0.200	-0.245
-479.347	-171.826	-0.159	0.005
-478.332	29.675	0.155	-0.133
-477.318	-65.366	-0.015	0.006
-476.303	202.005	0.160	-0.248
-475.289	-200.000	0.008	0.131
-474.274	-91.894	-0.230	-0.065
-473.259	-72.499	-0.089	0.033
-472.245	472.128	0.067	0.151
-471.230	65.770	0.111	-0.113
-470.216	-92.751	0.182	0.051
-469.201	238.586	-0.052	-0.086
-468.186	35.640	0.261	-0.230
-467.172	387.600	0.031	-0.064
-466.157	-155.070	-0.300	0.020
-465.143	-200.000	0.088	-0.000
-464.128	59.845	0.123	0.122
-463.113	478.492	0.171	-0.390
-462.099	800.000	0.176	-0.515
-461.084	-30.620	0.063	0.036
-460.070	357.765	-0.118	-0.237
-459.055	-52.304	-0.308	0.143
-458.040	800.000	0.039	-0.122
-457.026	800.000	0.032	0.112
-456.011	-126.573	-0.074	-0.011
-454.997	-200.000	-0.032	0.170
-453.982	-156.010	0.173	0.011
-452.968	-19.503	0.085	-0.053
-451.953	-82.924	-0.079	-0.025
-450.938	-59.974	-0.326	-0.140
-449.924	-200.000	0.047	-0.622
-448.909	-53.471	0.406	-0.187
-447.895	99.127	0.032	0.038
-446.880	13.292	0.266	-0.207
-445.865	-9.574	-0.360	-0.241
-444.851	-136.872	-0.498	0.057
-443.836	-200.000	0.017	0.172
-442.822	191.444	-0.064	-0.096
-441.807	-123.472	-0.250	-0.040
-440.792	183.744	-0.058	-0.086
-439.778	-200.000	-0.385	0.002
-438.763	408.205	-0.118	-0.251
-437.749	138.654	0.201	0.264
-436.734	47.076	0.110	-0.103
-435.719	-86.735	-0.253	0.078
-434.705	-64.292	0.237	-0.097
-433.690	800.000	0.115	-0.325
-432.676	-95.726	0.303	0.081
-431.661	65.009	0.259	-0.263
-430.646	68.542	0.172	0.176
-429.632	63.769	-0.134	0.135
-428.617	-18.293	-0.147	-0.092
-427.603	-200.000	0.005	0.222
-426.588	228.180	-0.213	-0.348
-425.573	800.000	0.044	0.170
-424.559	-200.000	-0.009	0.196
-423.544	-200.000	-0.048	0.306
-422.530	-66.058	-0.084	-0.033
-421.515	-3.632	-0.178	0.124
-420.500	-27.843	-0.231	-0.134
-419.486	-200.000	-0.010	0.070
-418.471	165.314	0.096	0.137
-417.457	31.913	0.239	-0.207
-416.442	-60.229	0.068	0.029
-415.428	-85.630	-0.352	-0.110
-414.413	-200.000	-0.037	0.407
-413.398	-60.629	0.272	0.116
-412.384	-170.256	-0.236	0.008
-411.369	-200.000	0.048	-0.304
-410.355	-200.000	-0.060	-0.462
-409.340	800.000	0.081	-0.270
-408.325	-134.024	-0.190	-0.024
-407.311	234.232	-0.088	0.146
-406.296	476.089	0.082	-0.184
-405.282	63.363	0.242	-0.244
-404.267	45.539	0.183	0.169
-403.252	-130.561	-0.133	-0.018
-402.238	-97.819	0.177	-0.046
-401.223	-135.266	-0.098	0.012
-400.209	-2.773	0.169	0.118
-399.194	13.897	-0.232	0.181
-398.179	-200.000	-0.054	0.309
-397.165	96.599	-0.107	-0.123
-396.150	-200.000	-0.060	-0.298
-395.136	-111.528	-0.175	0.036
-394.121	63.450	-0.156	0.157
-393.106	-200.000	0.020	0.283
-392.092	147.491	0.096	-0.129
-391.077	-82.367	0.151	-0.049
-390.063	581.644	0.095	0.234
-389.048	-40.818	-0.224	-0.116
-388.033	-200.000	0.017	-0.243
-387.019	220.445	-0.121	-0.194
-386.004	-200.000	0.000	0.121
-384.990	-16.838	-0.140	-0.088
-383.975	45.441	0.109	-0.100
-382.960	-53.497	0.307	-0.141
-381.946	-98.753	-0.187	0.048
-380.931	709.918	0.044	-0.117
-379.917	346.559	0.051	0.101
-378.902	415.744	-0.057	0.121
-377.888	364.283	-0.118	0.237
-376.873	-200.000	-0.033	-0.144
-375.858	-134.579	-0.196	0.024
-374.844	800.000	-0.084	-0.234
-373.829	-200.000	-0.000	0.132
-372.815	239.528	-0.090	-0.150
-371.800	44.971	-0.130	0.120
-370.785	187.833	-0.054	0.080
-369.771	-0.096	-0.278	0.198
-368.756	256.153	-0.102	0.175
-367.742	368.367	0.189	0.382
-366.727	-200.000	0.030	-0.220
-365.712	-36.254	-0.150	-0.081
-364.698	800.000	0.034	-0.141
-363.683	287.143	0.033	-0.060
-362.669	122.744	0.224	0.281
-361.654	-159.698	0.065	0.004
-360.639	-200.000	-0.039	0.191
-359.625	800.000	0.067	-0.250
-358.610	-163.860	0.212	-0.010
-357.596	-15.072	-0.241	0.154
-356.581	-200.000	0.012	-0.128
-355.566	170.878	0.226	-0.324
-354.552	780.388	-0.118	-0.322
-353.537	-67.287	0.254	0.100
-352.523	5.387	0.197	0.146
-351.508	245.854	0.044	0.074
-350.493	-200.000	0.064	-0.388
-349.479	6.150	0.139	0.103
-348.464	-200.000	-0.005	0.064
-347.450	-0.610	-0.024	-0.017
-346.435	-114.203	0.018	-0.004
-345.420	-200.000	0.034	0.400
-344.406	-137.277	0.290	0.033
-343.391	-140.547	-0.332	0.034
-342.377	24.904	0.061	-0.051
-341.362	236.975	0.107	0.177
-340.348	77.078	-0.181	-0.192
-339.333	-135.885	-0.175	0.021
-338.318	-155.754	-0.016	-0.001
-337.304	250.527	-0.257	0.437
-336.289	504.229	0.111	0.258
-335.275	8.928	-0.067	-0.051
-334.260	53.130	0.031	0.030
-333.245	-148.472	0.168	-0.014
-332.231	-200.000	0.036	-0.437
-331.216	93.042	0.018	-0.020
-330.202	-200.000	0.021	0.190
-329.187	420.385	0.082	0.175
-328.172	-200.000	0.060	0.294
-327.158	17.600	0.359	-0.285
-326.143	37.864	-0.162	-0.144
-325.129	-139.120	0.179	0.019
-324.114	7.844	-0.173	0.130
-323.099	45.877	-0.138	0.128
-322.085	-200.000	-0.021	0.164
-321.070	288.312	0.137	0.248
-320.056	102.437	-0.178	0.208
-319.041	23.327	-0.057	-0.047
-318.026	800.000	0.060	-0.232
-317.012	-3.383	-0.073	0.050
-315.997	-23.909	-0.341	-0.204
-314.983	126.364	0.109	0.137
-313.968	507.203	-0.130	0.301
-312.953	-26.730	-0.215	-0.126
-311.939	-200.000	-0.011	-0.089
-310.924	-64.656	0.390	-0.158
-309.910	-109.910	0.279	0.058
-308.895	63.801	0.315	0.316
-307.880	-200.000	-0.013	0.298
-306.866	-122.003	0.045	-0.007
-305.851	-117.872	0.132	0.024
-304.837	-200.000	0.011	0.407
-303.822	-139.704	-0.467	0.050
-302.807	-200.000	0.024	-0.340
-301.793	-48.264	0.316	0.152
-300.778	99.284	0.023	0.026
-299.764	-124.430	0.078	-0.012
-298.749	57.179	0.319	-0.310
-297.735	129.401	-0.093	-0.118
-296.720	-133.222	-0.125	-0.016
-295.705	314.169	0.057	-0.107
-294.691	-161.217	-0.444	0.023
-293.676	516.668	-0.049	-0.113
-292.662	-103.423	-0.246	0.058
-291.647	-44.477	-0.136	-0.068
-290.632	-200.000	-0.017	0.223
-289.618	-26.816	0.426	0.248
-288.603	-110.631	0.235	-0.048
-287.589	6.372	0.295	0.219
-286.574	-200.000	-0.060	-0.454
-285.559	-200.000	-0.054	-0.323
-284.545	-37.687	0.194	0.103
-283.530	574.851	0.049	0.120
-282.516	47.258	0.112	0.104
-281.501	66.828	-0.096	0.097
-280.486	-91.351	-0.401	0.114
-279.472	-85.431	0.500	0.155
-278.457	-200.000	-0.002	0.091
-277.443	105.911	0.211	-0.249
-276.428	-92.719	-0.201	-0.056
-275.413	443.043	-0.152	0.333
-274.399	154.044	-0.266	0.364
-273.384	-118.538	-0.204	0.036
-272.370	-89.755	0.142	-0.041
-271.355	-72.453	0.052	0.019
-270.340	-28.060	-0.329	-0.190
-269.326	155.825	0.170	-0.234
-268.311	-200.000	-0.019	-0.371
-267.297	-35.765	-0.134	-0.073
-266.282	-66.775	-0.185	0.073
-265.267	-144.623	-0.211	-0.019
-264.253	-200.000	0.069	0.373
-263.238	36.595	-0.034	-0.030
-262.224	-70.788	0.293	0.110
-261.209	65.779	0.044	0.044
-260.195	-153.672	0.307	-0.021
-259.180	437.979	0.094	0.205
-258.165	1.245	-0.292	-0.209
-257.151	598.357	0.195	0.481
-256.136	85.885	0.157	-0.172
-255.122	2.477	-0.319	-0.230
-254.107	-200.000	-0.048	-0.337
-253.092	52.183	-0.048	0.046
-252.078	-33.355	-0.012	-0.006
-251.063	35.987	-0.149	0.131
-250.049	-200.000	-0.033	0.189
-249.034	-200.000	0.014	0.436
-248.019	-35.907	-0.098	-0.053
-247.005	623.320	-0.081	-0.204
-245.990	52.025	0.091	-0.086
-244.976	-103.135	0.158	0.037
-243.961	-103.970	-0.063	-0.015
-242.946	14.389	-0.230	-0.179
-241.932	-97.329	0.332	-0.086
-240.917	140.490	-0.089	0.117
-239.903	-84.397	-0.095	0.030
-238.888	118.959	0.116	0.143
-237.873	800.000	0.093	-0.295
-236.859	-200.000	0.020	-0.277
-235.844	-101.362	-0.079	0.019
-234.830	98.745	0.085	0.097
-233.815	139.182	-0.087	-0.114
-232.800	-65.526	0.545	-0.218
-231.786	-3.400	0.199	0.138
-230.771	48.858	-0.218	-0.204
-229.757	27.793	0.156	-0.131
-228.742	-200.000	-0.020	-0.197
-227.727	-125.551	-0.213	0.032
-226.713	27.876	0.089	0.075
-225.698	467.470	-0.115	-0.256
-224.684	-58.048	-0.298	0.129
-223.669	14.799	0.195	-0.152
-222.655	-68.725	-0.159	-0.061
-221.640	-124.817	0.106	0.016
-220.625	-200.000	-0.002	0.033
-219.611	-140.710	0.350	-0.036
-218.596	-142.599	-0.055	0.005
-217.582	-149.080	-0.234	-0.019
-216.567	128.481	-0.120	-0.152
-215.552	-101.594	-0.165	0.040
-214.538	-1.427	-0.273	0.192
-213.523	-49.382	-0.098	-0.046
-212.509	-94.166	0.134	-0.037
-211.494	-169.054	0.235	-0.009
-210.479	-112.804	-0.160	0.031
-209.465	-56.128	0.056	0.025
-208.450	-86.804	0.169	-0.051
-207.436	5.327	-0.093	-0.068
-206.421	-66.591	0.248	-0.098
-205.406	184.034	-0.015	0.023
-204.392	217.766	-0.068	-0.108
-203.377	800.000	0.036	0.108
-202.363	-200.000	-0.007	0.063
-201.348	-81.032	-0.123	0.041
-200.333	-19.320	0.148	-0.091
-199.319	-13.307	-0.086	-0.055
-198.304	-200.000	0.037	-0.180
-197.290	-72.711	0.140	0.051
-196.275	800.000	0.081	0.269
-195.260	-200.000	0.022	0.392
-194.246	800.000	-0.072	-0.225
-193.231	12.588	0.229	-0.176
-192.217	-100.045	-0.123	0.031
-191.202	-66.905	-0.241	-0.095
-190.187	-146.066	0.374	0.033
-189.173	47.111	0.044	0.040
-188.158	528.292	-0.077	0.181
-187.144	-15.918	0.020	-0.012
-186.129	-125.903	-0.280	0.042
-185.114	33.695	0.169	0.146
-184.100	-7.627	-0.419	-0.281
-183.085	92.841	0.199	-0.224
-182.071	28.077	-0.110	0.092
-181.056	90.316	-0.109	0.122
-180.042	-177.667	0.023	-0.001
-179.027	-44.707	-0.185	-0.092
-178.012	800.000	-0.067	0.200
-176.998	-168.583	-0.105	-0.004
-175.983	337.726	-0.124	0.240
-174.969	37.392	-0.182	0.160
-173.954	227.744	0.196	0.317
-172.939	31.649	-0.215	0.184
-171.925	-41.536	-0.220	-0.112
-170.910	-91.878	0.165	-0.047
-169.896	800.000	0.037	-0.112
-168.881	-134.145	-0.294	-0.036
-167.866	220.006	-0.108	0.171
-166.852	269.371	-0.124	-0.217
-165.837	-27.674	-0.090	-0.052
-164.823	-59.658	-0.163	-0.069
-163.808	146.270	-0.030	0.040
-162.793	1.128	0.455	0.324
-161.779	-200.000	-0.013	0.474
-160.764	157.485	0.203	0.279
-159.750	800.000	-0.071	0.254
-158.735	132.069	0.062	0.080
-157.720	800.000	-0.011	0.039
-156.706	88.402	0.134	-0.148
-155.691	800.000	0.088	-0.247
-154.677	-200.000	0.009	-0.114
-153.662	66.353	-0.127	0.128
-152.647	10.522	0.075	-0.056
-151.633	558.455	-0.027	0.064
-150.618	-140.488	0.408	-0.042
-149.604	800.000	-0.030	0.116
-148.589	-35.840	0.076	-0.041
-147.574	-156.012	0.180	0.011
-146.560	-113.501	0.327	-0.063
-145.545	234.465	-0.148	-0.241
-144.531	44.307	-0.051	-0.046
-143.516	-97.565	-0.290	-0.075
-142.502	460.319	0.026	0.057
-141.487	-200.000	0.003	-0.225
-140.472	-70.548	0.023	0.008
-139.458	-200.000	0.003	-0.016
-138.443	259.603	-0.023	-0.040
-137.429	-20.477	0.179	-0.109
-136.414	-23.382	0.440	-0.262
-135.399	88.684	0.137	-0.151
-134.385	-38.448	0.116	-0.061
-133.370	800.000	0.019	-0.074
-132.356	254.479	0.134	0.227
-131.341	-27.224	0.119	-0.069
-130.326	-5.422	-0.218	-0.148
-129.312	-6.028	0.308	-0.209
-128.297	-152.107	0.388	0.028
-127.283	81.622	-0.147	-0.157
-126.268	800.000	0.024	0.086
-125.253	-44.853	0.219	0.108
-124.239	-200.000	-0.064	0.308
-123.224	-97.473	0.021	0.006
-122.210	-197.175	0.323	-0.002
-121.195	-52.685	0.318	-0.145
-120.180	-66.948	-0.300	0.117
