DTS Sentinel unit serial number:	SN413079Multiplexer serial number:	ORYXHardware model number:	OX4-SRSoftware version number:	ORYX F/W v4.00 Oryx Data Collector v3.7.2.0data status	okinstallation	princeton_trtdifferential loss correction	single-endedforward channel	channel 4reverse channel	N/Adate	2019/09/13time	14:17:35forward acquisition time	60.00reverse acquisition time	0.00gamma	496.2192k internal	0.2296k external	0.2296temperature offset calibration	1.0212default loss term (dB/km)	0.3790temperature slope calibration	1.0000multiplexer offset coefficient	1.0000multiplexer slope coefficient	1.0000fibre end	0.00T internal ref (°C)	35.27T ext. ref 1 (°C)	4.62T ext. ref 2 (°C)	31.54length (m)	temperature (°C)	Stokes	anti-Stokes-747.200	800.000	0.052	-0.218
-746.185	-37.127	-0.263	0.144
-745.171	-200.000	-0.016	0.084
-744.156	-122.599	0.238	-0.040
-743.142	-9.627	0.206	0.140
-742.127	-50.008	-0.032	0.015
-741.112	-19.928	0.269	-0.170
-740.098	-63.138	0.321	0.135
-739.083	-85.551	-0.287	-0.091
-738.069	-58.976	-0.246	0.109
-737.054	238.621	-0.169	-0.287
-736.039	218.867	-0.211	-0.344
-735.025	-119.850	0.154	-0.027
-734.010	-82.811	-0.259	-0.085
-732.996	-76.844	0.290	0.104
-731.981	-57.081	-0.061	0.027
-730.966	-38.447	-0.111	-0.060
-729.952	-200.000	0.008	-0.081
-728.937	118.785	-0.199	-0.251
-727.923	-28.402	0.126	-0.074
-726.908	104.490	-0.272	0.327
-725.894	39.224	0.151	0.138
-724.879	60.310	-0.062	0.063
-723.864	-77.273	0.148	0.053
-722.850	-150.306	0.126	0.010
-721.835	-98.494	-0.169	0.044
-720.821	323.176	-0.043	0.083
-719.806	-100.898	-0.228	0.057
-718.791	-41.386	-0.205	0.108
-717.777	-200.000	0.030	-0.307
-716.762	-51.228	0.198	-0.095
-715.748	58.369	-0.199	-0.199
-714.733	-176.769	-0.234	0.006
-713.718	-200.000	-0.031	-0.162
-712.704	50.458	0.095	-0.092
-711.689	-149.761	-0.291	0.023
-710.675	180.400	0.175	-0.262
-709.660	800.000	0.030	-0.096
-708.645	-200.000	-0.034	0.256
-707.631	124.384	-0.040	0.052
-706.616	-96.512	-0.332	-0.090
-705.602	800.000	0.051	-0.174
-704.587	56.405	-0.198	-0.197
-703.572	-61.878	0.183	-0.078
-702.558	-48.642	0.185	0.091
-701.543	-80.917	-0.122	-0.041
-700.529	156.896	0.066	0.094
-699.514	-36.738	-0.175	0.096
-698.499	87.527	0.234	-0.264
-697.485	-200.000	0.009	-0.230
-696.470	-102.959	-0.244	-0.059
-695.456	100.036	0.142	0.168
-694.441	128.943	0.071	-0.092
-693.426	112.513	0.065	0.081
-692.412	426.580	-0.067	-0.148
-691.397	129.872	-0.087	0.114
-690.383	2.917	0.161	-0.119
-689.368	800.000	-0.071	-0.207
-688.354	17.047	0.113	0.091
-687.339	-31.317	0.293	0.168
-686.324	372.312	-0.103	0.214
-685.310	-200.000	-0.004	0.299
-684.295	-136.921	-0.084	0.010
-683.281	800.000	-0.071	0.240
-682.266	800.000	-0.007	0.028
-681.251	-118.831	-0.215	-0.039
-680.237	800.000	-0.053	-0.222
-679.222	272.860	-0.013	-0.023
-678.208	800.000	-0.096	-0.281
-677.193	92.824	0.229	-0.263
-676.178	-157.882	0.271	0.016
-675.164	-62.384	-0.252	-0.107
-674.149	-101.862	-0.455	0.112
-673.135	429.125	0.092	0.202
-672.120	-176.568	0.067	-0.002
-671.105	19.555	-0.101	0.083
-670.091	-50.336	-0.288	-0.139
-669.076	-200.000	0.003	-0.209
-668.062	273.394	0.097	0.175
-667.047	121.993	-0.221	-0.281
-666.032	677.323	-0.129	-0.341
-665.018	-159.713	-0.197	-0.011
-664.003	-94.756	0.110	0.031
-662.989	634.411	-0.227	0.585
-661.974	800.000	0.060	-0.186
-660.959	134.506	-0.073	0.097
-659.945	-93.050	-0.225	0.064
-658.930	-200.000	-0.019	-0.092
-657.916	-151.142	-0.208	0.016
-656.901	-21.650	0.187	0.116
-655.886	-200.000	-0.024	-0.283
-654.872	124.579	0.109	-0.140
-653.857	96.152	-0.180	-0.209
-652.843	25.564	0.584	0.495
-651.828	-37.224	-0.150	0.082
-650.814	-28.347	0.181	-0.106
-649.799	-200.000	-0.011	-0.048
-648.784	-193.082	-0.421	-0.004
-647.770	341.469	-0.122	0.243
-646.755	345.397	0.033	-0.067
-645.741	-164.434	-0.271	0.013
-644.726	347.944	-0.047	0.093
-643.711	-107.459	-0.214	-0.048
-642.697	207.174	-0.023	0.036
-641.682	-79.236	-0.226	-0.078
-640.668	-200.000	0.044	0.200
-639.653	-160.068	-0.217	-0.012
-638.638	-161.425	0.145	0.008
-637.624	333.142	-0.106	-0.208
-636.609	-135.902	-0.200	0.024
-635.595	51.438	0.260	-0.251
-634.580	-37.546	-0.202	-0.110
-633.565	315.517	-0.047	-0.090
-632.551	-162.297	0.227	-0.012
-631.536	102.872	-0.284	-0.339
-630.522	-23.607	0.073	0.045
-629.507	-105.420	0.293	-0.068
-628.492	800.000	-0.089	-0.288
-627.478	-91.172	0.114	0.033
-626.463	-120.207	0.024	-0.004
-625.449	-133.905	-0.126	0.016
-624.434	39.087	0.204	-0.185
-623.419	800.000	-0.113	0.390
-622.405	800.000	-0.076	0.235
-621.390	800.000	-0.050	-0.206
-620.376	-57.855	0.114	0.051
-619.361	-200.000	0.049	-0.560
-618.346	-190.771	0.127	0.001
-617.332	113.474	0.195	0.241
-616.317	-149.890	0.216	-0.017
-615.303	2.077	-0.120	0.088
-614.288	-200.000	0.008	-0.131
-613.273	1.687	-0.218	-0.159
-612.259	-11.291	-0.205	0.137
-611.244	61.313	0.168	0.170
-610.230	77.568	-0.255	-0.276
-609.215	-48.900	-0.167	0.081
-608.201	80.790	0.302	-0.331
-607.186	578.769	-0.071	-0.176
-606.171	-9.689	-0.142	0.096
-605.157	62.158	0.115	0.116
-604.142	346.677	0.020	-0.040
-603.128	267.875	-0.100	0.178
-602.113	-200.000	0.022	0.202
-601.098	11.991	-0.262	0.205
-600.084	70.730	0.293	0.308
-599.069	-42.807	0.039	-0.020
-598.055	196.271	0.075	0.116
-597.040	-200.000	0.020	-0.169
-596.025	-200.000	0.014	-0.097
-595.011	-127.184	0.224	-0.033
-593.996	-164.932	0.078	-0.004
-592.982	-4.530	-0.058	-0.041
-591.967	-107.538	0.519	0.116
-590.952	-33.746	-0.085	-0.048
-589.938	63.025	-0.178	-0.181
-588.923	110.088	0.264	-0.322
-587.909	-200.000	-0.024	0.157
-586.894	800.000	0.038	-0.163
-585.879	-34.708	0.333	0.185
-584.865	-149.820	-0.154	-0.012
-583.850	-82.604	0.100	-0.033
-582.836	-200.000	-0.001	0.009
-581.821	-73.847	0.023	-0.008
-580.806	116.237	0.082	0.103
-579.792	557.822	-0.113	0.277
-578.777	43.146	0.188	0.175
-577.763	27.066	0.102	0.087
-576.748	-15.140	0.241	-0.157
-575.733	-200.000	-0.019	-0.115
-574.719	116.375	-0.131	-0.163
-573.704	-16.597	-0.416	0.267
-572.690	449.937	-0.104	-0.234
-571.675	-110.710	0.428	-0.090
-570.661	25.088	-0.073	-0.062
-569.646	-100.412	-0.093	0.023
-568.631	800.000	0.120	0.344
-567.617	-126.813	0.029	-0.004
-566.602	-51.393	-0.058	-0.027
-565.588	39.862	-0.092	-0.084
-564.573	-42.496	-0.277	0.143
-563.558	-70.470	0.187	-0.072
-562.544	76.519	-0.028	-0.030
-561.529	-89.574	0.139	-0.041
-560.515	148.650	0.128	-0.176
-559.500	583.040	0.107	0.266
-558.485	-200.000	0.069	0.330
-557.471	-6.770	0.063	0.043
-556.456	-200.000	-0.063	0.366
-555.442	-200.000	-0.001	0.214
-554.427	253.787	0.085	-0.147
-553.412	-200.000	0.065	-0.372
-552.398	-40.555	0.387	-0.204
-551.383	-141.082	-0.307	0.032
-550.369	-200.000	0.025	-0.383
-549.354	-200.000	-0.010	-0.179
-548.339	-200.000	0.018	0.090
-547.325	-25.394	0.243	-0.146
-546.310	-42.906	-0.231	0.119
-545.296	-163.020	0.414	0.020
-544.281	-48.357	-0.084	-0.041
-543.266	113.798	-0.037	0.046
-542.252	-106.325	0.217	-0.049
-541.237	-50.795	-0.249	-0.119
-540.223	49.309	0.179	-0.171
-539.208	-86.988	0.364	0.113
-538.193	-200.000	-0.003	0.069
-537.179	11.436	0.257	0.200
-536.164	482.244	0.164	-0.377
-535.150	-132.913	-0.156	-0.020
-534.135	467.693	0.156	-0.355
-533.121	324.609	0.120	0.232
-532.106	11.865	0.122	0.095
-531.091	327.331	-0.069	-0.135
-530.077	-200.000	-0.032	-0.309
-529.062	432.587	-0.150	-0.330
-528.048	-200.000	-0.008	-0.097
-527.033	-17.542	0.064	0.041
-526.018	-200.000	0.024	-0.237
-525.004	800.000	0.122	-0.378
-523.989	-5.574	-0.233	-0.162
-522.975	75.975	-0.173	-0.186
-521.960	-40.770	-0.073	0.038
-520.945	389.470	0.037	-0.078
-519.931	115.525	0.057	0.071
-518.916	800.000	-0.074	0.239
-517.902	-6.907	-0.143	0.098
-516.887	-200.000	0.001	0.230
-515.872	-200.000	-0.034	0.377
-514.858	-45.741	-0.055	-0.027
-513.843	5.688	0.185	0.138
-512.829	61.725	-0.215	0.217
-511.814	800.000	-0.073	0.225
-510.799	89.423	-0.170	0.192
-509.785	800.000	-0.065	-0.250
-508.770	-200.000	0.020	-0.156
-507.756	599.942	0.088	0.222
-506.741	128.205	0.085	-0.110
-505.726	496.269	0.099	-0.230
-504.712	800.000	-0.172	-0.493
-503.697	-137.647	-0.392	-0.045
-502.683	-193.924	0.355	0.003
-501.668	-200.000	-0.043	0.319
-500.653	765.625	0.076	0.210
-499.639	15.022	-0.128	0.101
-498.624	154.771	-0.084	-0.117
-497.610	-200.000	0.017	-0.138
-496.595	220.896	0.145	-0.235
-495.581	-200.000	-0.031	-0.336
-494.566	800.000	-0.023	-0.079
-493.551	800.000	0.057	-0.165
-492.537	-91.863	-0.126	-0.036
-491.522	-31.604	0.331	-0.188
-490.508	252.918	-0.143	-0.247
-489.493	-2.903	0.153	-0.108
-488.478	-55.254	-0.369	0.168
-487.464	240.963	0.037	-0.062
-486.449	-47.018	-0.094	0.047
-485.435	-86.687	-0.207	-0.064
-484.420	347.291	-0.121	-0.242
-483.405	-200.000	-0.043	-0.304
-482.391	-163.152	-0.200	-0.010
-481.376	-78.059	0.201	0.070
-480.362	391.430	-0.079	-0.166
-479.347	-80.499	0.196	-0.066
-478.332	416.005	0.079	-0.171
-477.318	619.739	-0.208	-0.529
-476.303	-59.039	-0.272	0.119
-475.289	-200.000	0.023	0.182
-474.274	-98.568	-0.327	-0.084
-473.259	-24.398	0.265	0.160
-472.245	19.976	-0.173	-0.141
-471.230	-138.468	0.236	-0.026
-470.216	-1.806	0.101	-0.072
-469.201	-200.000	-0.034	0.191
-468.186	211.760	0.125	-0.198
-467.172	139.905	0.263	0.350
-466.157	522.883	-0.070	-0.166
-465.143	145.864	-0.083	-0.113
-464.128	394.207	-0.034	0.071
-463.113	-200.000	-0.010	0.199
-462.099	475.982	-0.100	0.229
-461.084	-42.161	0.234	0.121
-460.070	800.000	-0.054	0.167
-459.055	85.252	-0.321	0.356
-458.040	-200.000	0.003	-0.063
-457.026	800.000	0.067	-0.277
-456.011	-81.549	-0.121	-0.040
-454.997	403.151	-0.051	-0.109
-453.982	604.238	0.124	0.311
-452.968	-200.000	-0.016	0.091
-451.953	56.407	-0.102	-0.101
-450.938	-47.706	0.090	0.044
-449.924	-200.000	0.034	0.235
-448.909	-200.000	-0.008	-0.097
-447.895	-48.974	0.043	-0.021
-446.880	276.522	-0.133	0.239
-445.865	-78.407	-0.086	0.030
-444.851	11.197	-0.166	-0.129
-443.836	-61.050	-0.101	0.043
-442.822	-200.000	0.012	0.160
-441.807	-111.005	-0.139	-0.029
-440.792	-155.007	-0.302	0.020
-439.778	-74.550	0.147	-0.053
-438.763	-84.730	0.195	-0.062
-437.749	3.089	-0.091	-0.067
-436.734	-200.000	-0.026	0.132
-435.719	-39.560	-0.045	0.024
-434.705	-200.000	0.006	-0.100
-433.690	37.251	0.140	0.125
-432.676	-25.796	0.150	-0.089
-431.661	-78.554	0.133	-0.046
-430.646	-181.949	-0.232	0.004
-429.632	-51.012	-0.143	0.068
-428.617	-200.000	-0.023	0.122
-427.603	-200.000	-0.038	0.169
-426.588	33.361	0.355	-0.311
-425.573	-101.987	-0.088	0.021
-424.559	-147.234	0.145	0.012
-423.544	339.638	-0.046	0.090
-422.530	602.069	-0.100	-0.250
-421.515	-200.000	-0.010	0.122
-420.500	-133.379	0.058	0.007
-419.486	-62.406	-0.028	0.012
-418.471	21.123	0.114	-0.093
-417.457	800.000	-0.136	0.381
-416.442	-200.000	-0.030	-0.192
-415.428	-200.000	0.014	-0.345
-414.413	800.000	-0.093	0.290
-413.398	800.000	-0.095	0.281
-412.384	-122.278	0.184	-0.030
-411.369	-129.510	0.043	0.006
-410.355	-63.571	-0.310	0.129
-409.340	205.750	0.054	-0.085
-408.325	-137.510	-0.127	-0.015
-407.311	267.779	-0.190	-0.336
-406.296	-86.839	0.155	-0.048
-405.282	349.119	0.127	-0.253
-404.267	-200.000	0.015	-0.180
-403.252	-200.000	0.077	0.382
-402.238	159.821	0.133	0.187
-401.223	800.000	0.109	-0.335
-400.209	-162.923	-0.224	0.011
-399.194	-151.827	-0.084	-0.006
-398.179	422.257	-0.090	-0.194
-397.165	-78.692	0.317	-0.109
-396.150	-82.045	0.138	-0.045
-395.136	414.408	-0.065	-0.140
-394.121	441.251	-0.109	-0.241
-393.106	-9.869	0.311	0.208
-392.092	-59.662	0.116	-0.050
-391.077	-200.000	-0.033	-0.175
-390.063	113.616	0.126	-0.154
-389.048	800.000	0.104	-0.319
-388.033	-44.453	-0.260	-0.131
-387.019	-200.000	-0.000	-0.019
-386.004	105.397	0.279	0.332
-384.990	-200.000	-0.024	0.225
-383.975	-53.678	0.105	-0.048
-382.960	-156.721	-0.127	0.008
-381.946	19.374	0.073	0.059
-380.931	-139.011	0.217	-0.024
-379.917	-155.274	-0.382	-0.025
-378.902	-200.000	-0.043	-0.364
-377.888	-200.000	0.057	-0.322
-376.873	-168.122	-0.220	0.009
-375.858	299.558	0.112	0.207
-374.844	-143.157	-0.251	0.024
-373.829	800.000	-0.097	0.326
-372.815	288.506	-0.121	0.221
-371.800	-6.269	0.015	-0.010
-370.785	191.410	-0.235	-0.356
-369.771	-50.579	-0.185	-0.088
-368.756	-116.759	0.162	-0.030
-367.742	800.000	0.045	-0.165
-366.727	-174.381	-0.134	0.004
-365.712	-59.075	0.196	0.085
-364.698	-154.466	-0.299	0.020
-363.683	-140.433	0.140	0.015
-362.669	-47.194	-0.084	-0.041
-361.654	800.000	-0.030	0.098
-360.639	-69.508	0.243	0.094
-359.625	161.437	0.111	-0.157
-358.610	-101.171	-0.099	-0.024
-357.596	96.455	0.233	0.268
-356.581	288.655	-0.092	0.168
-355.566	4.176	-0.134	-0.099
-354.552	-135.210	0.180	-0.022
-353.537	-200.000	0.024	0.134
-352.523	800.000	-0.003	-0.012
-351.508	-200.000	-0.060	0.361
-350.493	-200.000	0.009	-0.149
-349.479	610.528	0.079	0.199
-348.464	-113.199	-0.278	-0.055
-347.450	231.602	-0.107	-0.176
-346.435	-114.194	0.345	0.067
-345.420	603.333	0.040	-0.099
-344.406	800.000	-0.028	0.119
-343.391	590.622	0.124	0.307
-342.377	425.840	0.117	0.254
-341.362	-5.417	-0.292	-0.202
-340.348	266.883	0.090	-0.159
-339.333	-108.229	-0.314	0.068
-338.318	-171.067	-0.190	-0.006
-337.304	236.903	0.011	0.018
-336.289	610.200	-0.075	-0.188
-335.275	94.983	0.090	0.103
-334.260	540.617	-0.123	0.296
-333.245	-94.283	-0.309	-0.085
-332.231	43.042	0.145	-0.133
-331.216	-37.268	0.406	0.218
-330.202	8.960	0.153	-0.116
-329.187	150.694	0.109	-0.149
-328.172	153.174	-0.170	-0.234
-327.158	-48.958	0.098	0.047
-326.143	-169.207	0.139	-0.005
-325.129	-200.000	0.050	0.264
-324.114	-200.000	-0.003	-0.086
-323.099	-149.509	-0.091	-0.007
-322.085	-114.513	0.126	-0.024
-321.070	199.598	-0.138	-0.212
-320.056	-108.916	0.314	0.067
-319.041	78.003	-0.027	-0.029
-318.026	71.820	-0.048	-0.051
-317.012	-12.160	-0.121	-0.079
-315.997	30.206	0.066	-0.056
-314.983	-200.000	-0.002	-0.048
-313.968	-200.000	0.060	0.413
-312.953	800.000	-0.118	0.332
-311.939	-64.400	-0.181	0.074
-310.924	158.868	0.130	0.182
-309.910	-200.000	-0.014	0.418
-308.895	-98.463	0.194	0.050
-307.880	800.000	-0.028	-0.095
-306.866	-162.720	0.199	0.010
-305.851	-124.774	0.229	-0.036
-304.837	467.112	0.144	-0.324
-303.822	-40.603	-0.237	0.124
-302.807	-104.220	0.342	-0.080
-301.793	514.305	0.087	-0.203
-300.778	107.172	-0.185	0.220
-299.764	-122.758	-0.199	-0.032
-298.749	110.617	0.112	-0.135
-297.735	-200.000	-0.003	0.251
-296.720	-56.090	0.179	0.080
-295.705	-80.298	0.174	-0.059
-294.691	8.193	0.276	-0.208
-293.676	800.000	-0.119	-0.410
-292.662	-200.000	-0.042	0.227
-291.647	-49.658	-0.155	0.074
-290.632	300.679	-0.115	-0.214
-289.618	55.392	0.068	-0.066
-288.603	-25.998	0.326	-0.193
-287.589	-59.078	-0.200	0.087
-286.574	-86.819	-0.617	0.189
-285.559	800.000	-0.107	0.425
-284.545	14.318	-0.265	0.208
-283.530	322.570	-0.194	-0.372
-282.516	122.776	-0.169	0.213
-281.501	-200.000	0.018	0.165
-280.486	7.010	0.180	-0.135
-279.472	11.539	0.102	-0.078
-278.457	-200.000	0.273	-0.000
-277.443	-93.791	0.234	0.065
-276.428	-121.968	-0.156	-0.026
-275.413	607.642	-0.100	0.251
-274.399	-200.000	0.098	0.436
-273.384	-200.000	0.013	0.353
-272.370	-33.978	-0.348	0.192
-271.355	-200.000	-0.013	-0.143
-270.340	537.903	-0.077	0.184
-269.326	-124.244	0.055	0.009
-268.311	26.459	0.156	0.131
-267.297	-105.078	-0.280	0.064
-266.282	105.479	0.121	0.143
-265.267	154.135	-0.095	0.131
-264.253	-200.000	0.009	-0.350
-263.238	-119.963	0.235	-0.040
-262.224	-200.000	0.001	-0.053
-261.209	-200.000	-0.099	0.534
-260.195	-63.912	-0.218	-0.089
-259.180	-82.281	0.168	-0.055
-258.165	-80.424	0.130	-0.043
-257.151	-152.997	0.262	-0.018
-256.136	-200.000	0.013	0.189
-255.122	335.966	0.103	-0.200
-254.107	230.070	-0.116	-0.191
-253.092	551.629	-0.090	-0.216
-252.078	-113.677	-0.265	0.052
-251.063	-163.814	0.143	0.007
-250.049	-127.333	0.233	0.034
-249.034	800.000	0.085	0.238
-248.019	-200.000	0.094	-0.449
-247.005	46.047	-0.185	0.171
-245.990	40.510	0.218	-0.197
-244.976	278.703	-0.052	-0.092
-243.961	123.608	-0.157	0.197
-242.946	516.062	0.141	0.330
-241.932	800.000	-0.042	-0.123
-240.917	-135.288	-0.289	0.035
-239.903	108.652	0.013	0.015
-238.888	-16.878	-0.182	-0.115
-237.873	-200.000	0.019	-0.344
-236.859	-200.000	-0.011	0.164
-235.844	0.033	0.079	-0.056
-234.830	118.082	-0.230	-0.284
-233.815	-21.411	-0.048	-0.029
-232.800	800.000	-0.050	-0.144
-231.786	-36.512	-0.106	-0.057
-230.771	-28.158	0.169	0.098
-229.757	209.585	0.022	-0.035
-228.742	800.000	0.057	0.212
-227.727	-114.198	0.219	-0.042
-226.713	-200.000	-0.008	0.062
-225.698	121.651	-0.101	-0.126
-224.684	7.241	-0.069	0.051
-223.669	31.493	-0.121	0.104
-222.655	-200.000	-0.038	-0.204
-221.640	-130.194	-0.461	0.063
-220.625	4.128	-0.156	0.114
-219.611	-169.212	0.256	0.009
-218.596	-62.292	0.203	0.085
-217.582	-135.340	-0.376	0.045
-216.567	800.000	-0.102	0.403
-215.552	-100.466	0.060	-0.015
-214.538	76.663	0.266	-0.283
-213.523	-85.916	-0.135	0.042
-212.509	-200.000	-0.054	-0.347
-211.494	-200.000	-0.002	0.033
-210.479	-14.428	-0.222	-0.143
-209.465	-17.885	0.152	-0.095
-208.450	-200.000	-0.066	-0.375
-207.436	118.945	0.263	0.326
-206.421	414.984	0.122	0.260
-205.406	-8.569	0.262	0.176
-204.392	-115.675	-0.217	0.041
-203.377	-82.193	-0.242	0.079
-202.363	94.961	-0.064	-0.073
-201.348	103.998	-0.064	-0.075
-200.333	4.242	0.066	-0.048
-199.319	-96.780	-0.244	0.064
-198.304	-59.196	-0.205	-0.088
-197.290	190.447	0.052	-0.079
-196.275	-135.951	-0.101	0.012
-195.260	-145.972	-0.229	0.020
-194.246	-200.000	0.325	0.000
-193.231	520.812	0.035	-0.083
-192.217	38.725	-0.110	-0.098
-191.202	781.249	-0.143	0.392
-190.187	-200.000	0.051	0.239
-189.173	59.041	0.386	0.380
-188.158	-200.000	0.010	0.184
-187.144	-131.544	0.072	-0.009
-186.129	47.893	0.118	0.110
-185.114	169.437	0.057	-0.082
-184.100	-38.914	0.296	0.156
-183.085	-200.000	-0.011	-0.140
-182.071	800.000	-0.028	0.083
-181.056	-200.000	0.008	-0.126
-180.042	221.781	0.049	0.079
-179.027	-200.000	0.015	0.293
-178.012	800.000	0.072	-0.272
-176.998	383.696	-0.030	0.062
-175.983	-80.817	0.142	0.047
-174.969	-54.719	-0.246	0.111
-173.954	674.381	-0.011	0.028
-172.939	221.842	-0.160	0.257
-171.925	-200.000	0.042	-0.192
-170.910	386.533	-0.022	0.046
-169.896	-149.923	-0.121	-0.009
-168.881	800.000	-0.100	0.376
-167.866	100.836	0.053	0.062
-166.852	-30.472	0.324	0.184
-165.837	-153.711	0.170	-0.012
-164.823	331.924	0.108	0.208
-163.808	-200.000	-0.007	-0.047
-162.793	-200.000	-0.016	0.197
-161.779	30.734	0.164	0.141
-160.764	228.092	0.214	0.347
-159.750	-183.685	0.154	-0.003
-158.735	-79.149	-0.233	-0.079
-157.720	575.308	0.082	-0.199
-156.706	-200.000	0.046	-0.370
-155.691	-65.598	-0.177	0.071
-154.677	-86.660	0.203	0.062
-153.662	61.882	0.062	-0.062
-152.647	-137.465	-0.371	-0.042
-151.633	-55.147	0.205	-0.092
-150.618	800.000	-0.097	0.366
-149.604	103.088	0.022	0.026
-148.589	-200.000	0.001	0.076
-147.574	-200.000	-0.005	0.081
-146.560	-200.000	-0.038	0.391
-145.545	2.397	-0.176	-0.127
-144.531	-71.923	0.102	-0.038
-143.516	800.000	-0.016	-0.045
-142.502	178.051	0.200	-0.291
-141.487	6.771	0.094	0.070
-140.472	167.236	-0.084	0.119
-139.458	54.347	0.064	0.061
-138.443	268.210	0.060	-0.105
-137.429	85.482	-0.176	0.193
-136.414	-200.000	-0.014	-0.207
-135.399	-14.778	0.249	0.160
-134.385	-84.168	-0.087	0.027
-133.370	-17.827	-0.197	-0.123
-132.356	-69.217	0.278	0.107
-131.341	770.196	0.040	-0.110
-130.326	-83.331	-0.350	0.112
-129.312	569.272	0.048	-0.116
-128.297	26.349	0.172	-0.144
-127.283	-200.000	0.033	0.276
-126.268	655.270	-0.137	-0.351
-125.253	-200.000	0.009	-0.434
-124.239	-11.010	0.230	-0.151
-123.224	800.000	-0.005	-0.021
