DTS Sentinel unit serial number:	SN413079Multiplexer serial number:	ORYXHardware model number:	OX4-SRSoftware version number:	ORYX F/W v4.00 Oryx Data Collector v3.7.2.0data status	okinstallation	princeton_trtdifferential loss correction	single-endedforward channel	channel 4reverse channel	N/Adate	2019/09/18time	15:37:34forward acquisition time	60.00reverse acquisition time	0.00gamma	496.2192k internal	0.2297k external	0.2297temperature offset calibration	1.0011default loss term (dB/km)	0.3790temperature slope calibration	1.0000multiplexer offset coefficient	1.0000multiplexer slope coefficient	1.0000fibre end	0.00T internal ref (°C)	36.36T ext. ref 1 (°C)	0.78T ext. ref 2 (°C)	30.67length (m)	temperature (°C)	Stokes	anti-Stokes-747.200	-200.000	0.043	0.216
-746.185	66.897	-0.221	-0.230
-745.171	88.713	0.352	0.400
-744.156	-200.000	-0.034	0.490
-743.142	-200.000	-0.027	-0.198
-742.127	-200.000	-0.015	0.136
-741.112	197.231	-0.121	-0.189
-740.098	800.000	-0.076	0.293
-739.083	-61.165	0.430	-0.185
-738.069	-200.000	0.025	0.201
-737.054	-75.407	0.095	-0.034
-736.039	146.290	0.120	-0.165
-735.025	-111.803	0.464	-0.096
-734.010	793.659	0.138	-0.387
-732.996	-200.000	-0.005	0.090
-731.981	-200.000	0.035	0.195
-730.966	34.588	-0.123	-0.110
-729.952	-200.000	-0.032	0.185
-728.937	-127.142	-0.376	-0.056
-727.923	-200.000	-0.039	0.244
-726.908	111.209	0.138	0.169
-725.894	450.266	-0.140	0.315
-724.879	-90.113	-0.157	-0.047
-723.864	-22.928	0.115	-0.071
-722.850	-4.038	0.162	-0.115
-721.835	-140.708	-0.319	-0.034
-720.821	142.411	0.168	0.227
-719.806	-46.757	0.080	0.040
-718.791	-128.877	0.306	-0.044
-717.777	429.166	0.052	0.115
-716.762	358.885	0.070	-0.144
-715.748	-172.132	0.107	-0.004
-714.733	-23.285	-0.121	-0.075
-713.718	-200.000	0.026	0.378
-712.704	-200.000	0.009	-0.074
-711.689	-55.984	0.118	-0.054
-710.675	-84.660	0.117	0.038
-709.660	-172.015	0.324	0.011
-708.645	-45.397	-0.154	0.078
-707.631	-200.000	-0.047	0.231
-706.616	244.729	-0.053	0.090
-705.602	-5.113	-0.216	0.152
-704.587	-200.000	0.019	-0.190
-703.572	119.842	0.165	0.208
-702.558	-49.771	0.072	-0.035
-701.543	-200.000	0.038	0.204
-700.529	179.154	0.210	-0.313
-699.514	-34.925	-0.220	-0.122
-698.499	300.136	-0.171	0.322
-697.485	-69.574	0.138	0.054
-696.470	82.993	-0.153	0.170
-695.456	-39.289	0.157	0.084
-694.441	130.055	-0.125	0.163
-693.426	-87.676	0.206	0.064
-692.412	257.143	-0.127	0.222
-691.397	-70.944	-0.186	0.071
-690.383	-88.511	-0.189	-0.057
-689.368	800.000	0.050	0.141
-688.354	-200.000	0.012	0.305
-687.339	-200.000	0.060	0.341
-686.324	61.433	-0.028	0.029
-685.310	-119.444	0.191	-0.034
-684.295	-107.005	0.252	0.057
-683.281	-79.123	0.440	0.152
-682.266	137.547	0.218	-0.290
-681.251	99.777	-0.111	0.131
-680.237	-36.590	0.201	-0.110
-679.222	800.000	0.074	-0.209
-678.208	-36.260	-0.111	-0.061
-677.193	276.841	-0.179	-0.325
-676.178	800.000	0.039	-0.142
-675.164	-200.000	-0.023	-0.120
-674.149	-163.917	0.058	-0.003
-673.135	800.000	-0.014	0.048
-672.120	-61.004	0.155	0.067
-671.105	-200.000	-0.017	-0.097
-670.091	355.047	0.032	-0.065
-669.076	-146.288	0.092	0.008
-668.062	600.372	-0.029	0.074
-667.047	-27.376	0.291	-0.173
-666.032	800.000	-0.065	0.265
-665.018	4.010	-0.108	-0.081
-664.003	90.032	0.010	0.012
-662.989	-200.000	-0.051	-0.319
-661.974	-200.000	-0.061	-0.363
-660.959	-26.245	0.288	0.172
-659.945	41.786	0.122	-0.113
-658.930	800.000	0.011	-0.035
-657.916	86.952	-0.203	-0.229
-656.901	-5.239	0.242	-0.169
-655.886	377.153	0.033	-0.068
-654.872	187.701	-0.080	-0.121
-653.857	800.000	0.042	-0.139
-652.843	-20.108	0.044	-0.028
-651.828	147.429	-0.134	-0.184
-650.814	-107.028	0.192	-0.043
-649.799	36.448	-0.128	0.115
-648.784	800.000	-0.059	-0.203
-647.770	-7.529	-0.024	0.017
-646.755	-140.780	0.219	0.023
-645.741	-92.771	0.185	-0.053
-644.726	-200.000	-0.021	-0.111
-643.711	510.373	-0.080	0.190
-642.697	-200.000	-0.020	0.309
-641.682	-39.264	0.128	0.068
-640.668	-135.148	-0.176	0.022
-639.653	62.410	-0.145	-0.147
-638.638	-97.334	-0.239	-0.063
-637.624	800.000	-0.081	0.255
-636.609	-200.000	0.019	0.098
-635.595	-99.384	0.071	0.018
-634.580	-169.494	0.310	-0.012
-633.565	-15.986	-0.069	0.045
-632.551	24.821	0.167	-0.141
-631.536	-98.749	0.054	0.014
-630.522	-200.000	0.000	-0.118
-629.507	-35.588	-0.376	0.207
-628.492	-146.677	-0.210	-0.018
-627.478	255.589	0.088	0.153
-626.463	-140.840	-0.318	-0.033
-625.449	109.518	0.182	-0.222
-624.434	147.677	-0.239	-0.327
-623.419	624.181	0.167	-0.428
-622.405	-135.648	0.157	0.019
-621.390	-93.098	0.076	-0.022
-620.376	-22.579	-0.153	0.094
-619.361	800.000	-0.095	-0.355
-618.346	52.940	0.109	-0.106
-617.332	6.419	-0.077	-0.058
-616.317	-53.904	-0.158	-0.073
-615.303	-152.112	-0.383	0.028
-614.288	800.000	-0.047	0.136
-613.273	83.586	-0.203	-0.225
-612.259	175.024	-0.159	-0.233
-611.244	602.958	-0.100	0.251
-610.230	460.134	-0.114	0.257
-609.215	-26.058	0.234	0.140
-608.201	-200.000	-0.045	0.303
-607.186	-107.589	0.217	-0.048
-606.171	-103.596	-0.300	-0.071
-605.157	-53.895	-0.038	0.018
-604.142	78.108	-0.104	0.112
-603.128	-200.000	0.010	0.295
-602.113	800.000	-0.051	-0.196
-601.098	70.485	-0.294	-0.309
-600.084	427.632	-0.123	-0.269
-599.069	-163.937	-0.074	0.003
-598.055	-125.691	0.095	0.015
-597.040	613.619	-0.017	-0.044
-596.025	-81.061	-0.133	-0.045
-595.011	-118.280	-0.115	0.021
-593.996	-200.000	0.070	-0.326
-592.982	-140.855	0.066	0.007
-591.967	-151.773	-0.111	-0.008
-590.952	-29.948	0.241	-0.139
-589.938	-200.000	-0.021	0.296
-588.923	130.607	-0.130	-0.169
-587.909	-24.518	0.315	0.191
-586.894	14.799	-0.180	0.143
-585.879	-107.275	0.167	-0.037
-584.865	83.153	-0.115	0.127
-583.850	-200.000	-0.044	0.200
-582.836	45.452	0.093	-0.087
-581.821	87.476	0.198	-0.222
-580.806	-137.107	-0.136	-0.016
-579.792	-200.000	0.002	-0.250
-578.777	-82.867	-0.390	-0.128
-577.763	-200.000	0.026	0.167
-576.748	-200.000	-0.005	0.231
-575.733	-200.000	0.036	0.203
-574.719	-29.043	0.101	0.059
-573.704	310.372	-0.143	-0.272
-572.690	736.395	-0.071	-0.193
-571.675	195.300	-0.292	0.450
-570.661	579.222	0.197	0.488
-569.646	-111.337	-0.454	0.094
-568.631	-153.096	0.253	-0.018
-567.617	-200.000	0.023	0.106
-566.602	26.381	-0.155	-0.131
-565.588	-172.051	0.141	0.005
-564.573	-200.000	-0.000	0.075
-563.558	40.426	-0.120	-0.109
-562.544	-200.000	0.010	-0.069
-561.529	-200.000	-0.024	0.124
-560.515	800.000	-0.033	0.098
-559.500	-103.655	-0.204	-0.048
-558.485	800.000	-0.046	-0.166
-557.471	114.262	-0.247	0.304
-556.456	47.870	0.077	0.073
-555.442	-200.000	0.001	0.197
-554.427	-176.851	-0.188	0.005
-553.412	-200.000	-0.058	-0.376
-552.398	-42.927	0.137	0.071
-551.383	-200.000	0.023	0.212
-550.369	565.339	-0.052	0.129
-549.354	800.000	-0.075	0.251
-548.339	-62.978	0.150	0.063
-547.325	137.825	0.226	0.301
-546.310	32.381	-0.192	0.168
-545.296	29.438	0.118	-0.102
-544.281	-78.798	-0.268	0.093
-543.266	-84.590	0.051	0.016
-542.252	206.974	0.123	-0.194
-541.237	54.086	-0.137	0.134
-540.223	321.018	0.111	0.214
-539.208	-65.890	0.229	-0.093
-538.193	-23.918	-0.292	-0.177
-537.179	-195.085	0.283	-0.002
-536.164	49.775	-0.278	0.265
-535.150	231.214	0.006	0.010
-534.135	-126.276	-0.074	0.011
-533.121	141.629	-0.081	-0.108
-532.106	-200.000	0.031	-0.271
-531.091	-88.707	0.185	0.056
-530.077	48.691	-0.128	-0.122
-529.062	-112.799	-0.405	-0.081
-528.048	-37.521	-0.179	-0.097
-527.033	105.981	0.149	0.178
-526.018	136.252	0.086	0.114
-525.004	-33.742	0.289	-0.161
-523.989	95.762	0.246	-0.284
-522.975	-93.539	0.259	-0.072
-521.960	166.838	-0.056	-0.080
-520.945	33.313	-0.097	0.085
-519.931	-123.782	-0.152	0.024
-518.916	-10.792	0.074	-0.050
-517.902	-200.000	-0.038	0.176
-516.887	-154.231	-0.137	0.009
-515.872	-28.556	0.260	-0.152
-514.858	455.539	0.046	-0.104
-513.843	416.978	0.023	-0.049
-512.829	407.516	0.092	-0.197
-511.814	309.161	-0.096	0.182
-510.799	-118.055	-0.097	-0.017
-509.785	-138.994	0.057	-0.006
-508.770	41.839	-0.197	0.181
-507.756	102.185	-0.077	-0.091
-506.741	248.979	-0.181	0.310
-505.726	800.000	-0.055	0.154
-504.712	-146.264	0.089	0.008
-503.697	50.676	-0.135	-0.129
-502.683	259.847	0.127	0.222
-501.668	31.601	0.372	0.323
-500.653	436.507	-0.121	-0.267
-499.639	-88.584	-0.282	0.085
-498.624	702.612	0.060	0.161
-497.610	-100.207	0.151	0.038
-496.595	-113.159	-0.243	-0.048
-495.581	-31.884	0.200	0.113
-494.566	201.351	0.189	0.294
-493.551	26.584	0.053	-0.045
-492.537	142.141	0.097	0.131
-491.522	-200.000	0.022	-0.152
-490.508	-200.000	0.031	-0.151
-489.493	287.097	-0.183	0.334
-488.478	-84.537	-0.103	-0.033
-487.464	370.060	-0.048	0.098
-486.449	-180.643	-0.174	0.004
-485.435	-170.769	-0.348	0.012
-484.420	159.577	0.079	-0.112
-483.405	-111.648	0.234	-0.048
-482.391	-88.143	0.023	-0.007
-481.376	-34.605	0.237	-0.131
-480.362	53.810	0.222	-0.216
-479.347	-144.143	0.173	-0.016
-478.332	-200.000	0.016	-0.091
-477.318	82.115	-0.191	0.210
-476.303	-43.222	-0.251	-0.129
-475.289	-66.073	-0.364	0.147
-474.274	450.293	0.117	0.260
-473.259	800.000	0.063	-0.180
-472.245	-73.200	-0.176	-0.065
-471.230	-68.922	-0.046	-0.018
-470.216	800.000	-0.039	0.120
-469.201	-200.000	-0.046	-0.329
-468.186	-142.981	-0.239	-0.023
-467.172	-33.855	-0.123	0.069
-466.157	168.657	0.285	0.410
-465.143	7.633	0.109	-0.083
-464.128	-200.000	0.033	0.196
-463.113	129.816	0.151	0.195
-462.099	-2.179	0.208	-0.148
-461.084	-54.647	-0.410	0.187
-460.070	788.635	0.067	-0.185
-459.055	-69.664	-0.125	-0.048
-458.040	143.400	-0.081	0.108
-457.026	-47.276	-0.218	0.107
-456.011	-97.457	-0.226	-0.059
-454.997	278.414	-0.029	0.053
-453.982	349.712	0.074	-0.147
-452.968	69.121	-0.165	-0.172
-451.953	256.904	0.175	0.303
-450.938	257.018	0.113	0.196
-449.924	540.640	-0.042	0.100
-448.909	12.613	-0.099	0.077
-447.895	109.154	0.091	-0.110
-446.880	224.087	-0.091	-0.149
-445.865	-14.060	-0.015	-0.010
-444.851	-42.552	-0.151	0.078
-443.836	-48.201	0.084	0.041
-442.822	130.461	-0.064	-0.083
-441.807	481.886	-0.066	-0.151
-440.792	-76.056	0.258	0.092
-439.778	595.109	-0.071	0.176
-438.763	-181.101	0.320	0.006
-437.749	-122.821	-0.190	-0.031
-436.734	-6.416	0.246	0.169
-435.719	615.426	-0.006	0.015
-434.705	-81.752	0.286	0.095
-433.690	-200.000	0.067	0.349
-432.676	298.703	-0.045	-0.083
-431.661	-138.269	-0.342	0.038
-430.646	338.345	-0.026	0.052
-429.632	-200.000	0.018	-0.163
-428.617	-30.087	-0.046	-0.026
-427.603	42.044	0.218	0.199
-426.588	666.076	-0.047	-0.122
-425.573	-200.000	0.057	-0.328
-424.559	-200.000	0.035	-0.328
-423.544	800.000	-0.131	-0.385
-422.530	552.905	0.116	-0.280
-421.515	66.686	0.088	-0.091
-420.500	-200.000	0.087	-0.447
-419.486	-23.716	0.257	-0.155
-418.471	800.000	-0.021	-0.086
-417.457	-176.681	-0.401	-0.010
-416.442	-129.942	-0.024	0.003
-415.428	45.164	-0.085	0.079
-414.413	706.148	-0.103	0.275
-413.398	16.003	0.299	-0.238
-412.384	-13.194	-0.208	-0.136
-411.369	-142.533	0.192	-0.019
-410.355	-119.639	-0.230	0.040
-409.340	167.391	0.169	-0.242
-408.325	-200.000	0.043	-0.433
-407.311	-137.574	0.301	-0.034
-406.296	-44.988	-0.202	-0.101
-405.282	-200.000	0.009	-0.059
-404.267	-200.000	-0.031	0.232
-403.252	-200.000	0.016	0.070
-402.238	-44.576	0.079	-0.040
-401.223	-45.751	0.066	-0.033
-400.209	-112.655	0.128	-0.026
-399.194	-113.114	0.187	0.037
-398.179	165.315	-0.087	-0.123
-397.165	60.912	0.154	-0.154
-396.150	-88.359	0.214	-0.064
-395.136	-62.828	-0.173	0.072
-394.121	-100.634	0.055	0.014
-393.106	-41.830	0.188	-0.097
-392.092	34.881	-0.271	-0.239
-391.077	63.303	0.262	-0.264
-390.063	-102.181	-0.125	-0.030
-389.048	-90.350	-0.113	-0.033
-388.033	219.182	0.111	0.179
-387.019	422.250	0.051	-0.110
-386.004	-133.213	-0.181	0.023
-384.990	431.504	-0.101	0.221
-383.975	5.745	0.280	0.209
-382.960	57.323	0.091	-0.090
-381.946	-84.084	-0.271	0.087
-380.931	23.343	0.304	0.252
-379.917	-59.060	-0.023	-0.010
-378.902	-200.000	-0.046	-0.402
-377.888	140.920	-0.173	-0.230
-376.873	715.980	-0.112	-0.300
-375.858	119.720	0.130	0.163
-374.844	-200.000	-0.053	0.325
-373.829	446.267	0.168	0.372
-372.815	-61.658	-0.245	0.104
-371.800	-4.193	-0.058	0.040
-370.785	-125.262	-0.190	0.029
-369.771	-80.734	-0.181	-0.060
-368.756	-110.822	0.169	0.035
-367.742	125.461	0.113	0.144
-366.727	37.143	0.158	0.141
-365.712	-200.000	0.011	-0.140
-364.698	50.273	-0.085	-0.081
-363.683	407.248	0.015	0.031
-362.669	-177.320	-0.165	-0.004
-361.654	404.577	-0.104	-0.221
-360.639	-200.000	-0.012	0.055
-359.625	170.047	0.134	-0.192
-358.610	-6.076	0.261	-0.180
-357.596	-112.179	-0.439	-0.089
-356.581	-200.000	-0.022	0.126
-355.566	-67.709	0.197	0.078
-354.552	-200.000	0.046	-0.340
-353.537	-155.253	0.237	-0.015
-352.523	98.155	-0.225	0.260
-351.508	-200.000	0.000	-0.092
-350.493	-33.558	0.251	0.139
-349.479	124.580	-0.203	0.257
-348.464	22.425	-0.075	0.061
-347.450	800.000	0.026	-0.084
-346.435	80.948	0.230	0.250
-345.420	-27.698	0.251	-0.147
-344.406	-112.523	-0.456	0.092
-343.391	-200.000	0.019	-0.268
-342.377	-200.000	0.059	0.450
-341.362	37.936	-0.178	0.159
-340.348	190.466	0.128	0.193
-339.333	52.763	0.146	0.141
-338.318	-72.611	0.420	0.156
-337.304	-125.659	0.193	-0.029
-336.289	103.662	0.136	0.160
-335.275	-95.129	0.306	0.083
-334.260	-135.297	-0.302	-0.036
-333.245	-94.903	0.159	-0.043
-332.231	-90.737	-0.164	0.048
-331.216	132.762	0.166	-0.215
-330.202	28.958	-0.249	-0.212
-329.187	5.669	-0.071	0.053
-328.172	-200.000	-0.021	-0.094
-327.158	164.321	0.035	-0.050
-326.143	800.000	-0.090	0.279
-325.129	12.480	0.103	0.080
-324.114	81.393	-0.125	0.136
-323.099	188.945	-0.035	-0.053
-322.085	-149.386	0.384	-0.031
-321.070	-80.999	-0.281	0.094
-320.056	-200.000	-0.011	-0.172
-319.041	526.871	0.021	0.050
-318.026	-34.062	0.088	0.049
-317.012	-7.252	0.085	-0.058
-315.997	-75.839	0.289	-0.103
-314.983	-164.621	-0.135	-0.006
-313.968	333.845	0.081	0.157
-312.953	10.462	0.106	-0.081
-311.939	800.000	-0.027	0.097
-310.924	8.104	0.089	0.067
-309.910	800.000	0.064	-0.278
-308.895	800.000	0.038	0.162
-307.880	800.000	-0.021	0.084
-306.866	129.299	-0.171	-0.219
-305.851	-110.460	-0.070	-0.015
-304.837	63.404	0.074	0.075
-303.822	82.499	-0.123	0.134
-302.807	-84.239	-0.307	-0.098
-301.793	582.712	-0.141	-0.347
-300.778	-18.298	-0.242	-0.152
-299.764	77.969	0.170	-0.182
-298.749	242.088	-0.162	0.272
-297.735	-200.000	0.016	-0.091
-296.720	-200.000	-0.076	0.370
-295.705	800.000	0.031	0.100
-294.691	800.000	-0.034	-0.118
-293.676	-80.432	-0.323	-0.108
-292.662	-200.000	-0.001	0.173
-291.647	95.247	-0.058	0.067
-290.632	16.743	-0.246	0.196
-289.618	249.441	-0.242	0.412
-288.603	38.058	0.239	-0.214
-287.589	-54.817	0.352	0.159
-286.574	383.008	-0.125	-0.258
-285.559	-37.943	0.113	0.060
-284.545	800.000	-0.071	-0.236
-283.530	-54.170	0.191	-0.087
-282.516	800.000	0.062	0.205
-281.501	38.789	0.168	-0.151
-280.486	800.000	-0.054	0.200
-279.472	174.170	-0.168	0.244
-278.457	-200.000	-0.026	0.194
-277.443	199.634	-0.145	-0.222
-276.428	-200.000	-0.022	-0.122
-275.413	0.769	-0.142	-0.102
-274.399	130.846	0.255	-0.328
-273.384	-16.924	-0.363	-0.230
-272.370	112.421	-0.065	0.079
-271.355	-149.087	0.202	-0.016
-270.340	275.398	0.080	0.142
-269.326	289.601	0.057	-0.104
-268.311	-123.853	0.257	0.041
-267.297	262.410	0.088	0.153
-266.282	-200.000	-0.019	0.250
-265.267	-41.547	-0.195	-0.100
-264.253	-2.465	0.508	-0.357
-263.238	-101.769	0.504	-0.122
-262.224	-46.921	0.167	0.082
-261.209	227.020	-0.053	-0.086
-260.195	155.469	-0.137	0.189
-259.180	800.000	-0.026	0.084
-258.165	3.192	0.200	-0.145
-257.151	-93.784	-0.334	0.092
-256.136	-200.000	0.000	0.022
-255.122	90.584	0.096	0.108
-254.107	101.634	-0.067	-0.079
-253.092	800.000	-0.037	0.108
-252.078	85.437	-0.202	-0.222
-251.063	-183.100	0.232	-0.004
-250.049	-5.873	0.332	0.227
-249.034	83.774	0.137	0.150
-248.019	235.362	0.137	0.227
-247.005	-182.134	-0.215	0.004
-245.990	800.000	-0.032	0.117
-244.976	141.079	-0.188	-0.249
-243.961	410.171	-0.137	-0.291
-242.946	-128.227	-0.539	0.077
-241.932	-200.000	0.024	0.174
-240.917	22.095	0.218	0.178
-239.903	260.378	-0.063	0.108
-238.888	-80.248	0.492	0.165
-237.873	-28.082	0.197	-0.114
-236.859	800.000	0.069	-0.201
-235.844	232.954	0.096	-0.158
-234.830	-180.406	0.212	-0.004
-233.815	-178.692	-0.313	-0.007
-232.800	12.295	-0.134	-0.103
-231.786	800.000	-0.106	-0.414
-230.771	-200.000	-0.001	-0.410
-229.757	170.859	0.093	-0.133
-228.742	-128.387	0.135	0.019
-227.727	-118.870	0.207	0.036
-226.713	-127.744	0.202	-0.029
-225.698	-102.302	-0.235	0.056
-224.684	-149.868	-0.287	-0.023
-223.669	137.163	0.100	0.131
-222.655	-64.699	0.345	-0.140
-221.640	-16.098	-0.247	-0.157
-220.625	-50.237	0.166	-0.079
-219.611	-200.000	0.007	0.348
-218.596	800.000	0.044	0.183
-217.582	-87.190	0.150	0.045
-216.567	-14.809	0.197	0.126
-215.552	48.149	0.059	0.055
-214.538	-200.000	0.020	-0.191
-213.523	-8.483	0.146	0.098
-212.509	-200.000	-0.032	0.277
-211.494	481.132	-0.096	0.218
-210.479	-19.046	-0.322	-0.201
-209.465	-200.000	0.011	0.080
-208.450	119.185	-0.215	-0.266
-207.436	-72.183	0.167	-0.062
-206.421	-35.521	-0.093	0.050
-205.406	130.801	-0.063	-0.081
-204.392	800.000	-0.057	-0.231
-203.377	-117.266	0.222	0.040
-202.363	-200.000	0.024	0.279
-201.348	-53.571	-0.121	-0.056
-200.333	281.169	0.151	0.270
-199.319	693.483	0.169	0.442
-198.304	150.449	-0.016	-0.021
-197.290	800.000	0.055	-0.181
-196.275	-53.352	0.198	0.091
-195.260	-200.000	0.026	-0.245
-194.246	800.000	0.181	-0.540
-193.231	-20.804	0.054	0.033
-192.217	-106.412	0.299	0.067
-191.202	16.612	-0.145	0.115
-190.187	800.000	0.059	-0.229
-189.173	130.016	0.168	0.215
-188.158	-200.000	-0.031	0.319
-187.144	9.160	0.109	-0.082
-186.129	-200.000	-0.056	-0.248
-185.114	106.323	-0.145	-0.172
-184.100	-200.000	0.216	0.001
-183.085	-81.152	0.297	0.098
-182.071	800.000	0.024	-0.093
-181.056	13.909	0.157	-0.122
-180.042	480.692	0.152	-0.344
-179.027	-200.000	-0.005	-0.106
-178.012	62.890	-0.083	-0.083
-176.998	467.786	-0.135	-0.303
-175.983	-46.759	-0.257	-0.126
-174.969	683.958	0.055	-0.144
-173.954	-115.486	-0.100	-0.019
-172.939	282.856	0.138	-0.247
-171.925	-36.477	-0.159	-0.085
-170.910	204.466	0.305	0.473
-169.896	-150.496	0.111	0.008
-168.881	20.742	-0.235	-0.190
-167.866	135.119	-0.248	0.322
-166.852	183.879	0.085	0.126
-165.837	566.785	0.104	-0.252
-164.823	-76.632	0.233	0.082
-163.808	800.000	0.142	0.400
-162.793	279.720	0.216	-0.385
-161.779	800.000	0.054	-0.202
-160.764	-200.000	-0.024	0.144
-159.750	-12.493	-0.484	-0.315
-158.735	645.931	0.035	0.088
-157.720	-123.847	-0.327	-0.052
-156.706	-200.000	0.012	-0.138
-155.691	800.000	0.153	0.500
-154.677	32.911	0.314	0.272
-153.662	-81.301	0.160	0.053
-152.647	-190.881	-0.036	0.000
-151.633	-97.560	-0.254	0.066
-150.618	800.000	-0.065	-0.261
-149.604	58.200	-0.051	0.050
-148.589	-132.471	0.118	0.015
-147.574	-200.000	-0.044	-0.246
-146.560	70.737	-0.120	-0.124
-145.545	127.258	-0.104	0.132
-144.531	-200.000	0.041	0.322
-143.516	-9.084	0.099	-0.066
-142.502	-45.441	-0.068	-0.034
-141.487	8.663	0.416	0.312
-140.472	157.484	0.175	-0.242
-139.458	-122.791	-0.349	-0.056
-138.443	-103.916	0.058	0.014
-137.429	64.443	-0.192	0.193
-136.414	800.000	0.042	-0.171
-135.399	-200.000	0.033	0.196
-134.385	-200.000	-0.028	-0.246
-133.370	108.176	-0.032	0.039
-132.356	145.477	-0.312	-0.417
-131.341	210.574	-0.144	0.226
-130.326	378.577	0.145	-0.295
-129.312	18.710	0.146	-0.117
-128.297	-200.000	0.059	-0.264
-127.283	-31.656	-0.236	0.132
-126.268	238.585	-0.090	0.148
-125.253	-200.000	-0.065	0.315
-124.239	404.975	0.068	0.143
-123.224	511.811	-0.124	0.287
-122.210	107.496	0.186	-0.221
-121.195	-62.951	0.263	0.108
