DTS Sentinel unit serial number:	SN413079Multiplexer serial number:	ORYXHardware model number:	OX4-SRSoftware version number:	ORYX F/W v4.00 Oryx Data Collector v3.7.2.0data status	okinstallation	princeton_trtdifferential loss correction	single-endedforward channel	channel 4reverse channel	N/Adate	2019/09/16time	23:21:35forward acquisition time	60.00reverse acquisition time	0.00gamma	496.2192k internal	0.2314k external	0.2314temperature offset calibration	0.9975default loss term (dB/km)	0.3790temperature slope calibration	1.0000multiplexer offset coefficient	1.0000multiplexer slope coefficient	1.0000fibre end	0.00T internal ref (°C)	30.00T ext. ref 1 (°C)	0.09T ext. ref 2 (°C)	23.66length (m)	temperature (°C)	Stokes	anti-Stokes-747.200	23.923	0.174	-0.145
-746.185	-76.953	0.194	-0.069
-745.171	-170.676	0.508	0.018
-744.156	386.602	-0.253	0.529
-743.142	286.721	-0.238	-0.436
-742.127	202.574	-0.086	0.135
-741.112	-200.000	-0.021	-0.114
-740.098	-200.000	-0.099	0.483
-739.083	268.789	-0.120	0.213
-738.069	-200.000	-0.050	0.367
-737.054	-200.000	0.028	0.150
-736.039	-152.032	-0.366	-0.027
-735.025	35.693	-0.062	0.056
-734.010	-134.834	-0.315	-0.039
-732.996	-200.000	0.015	-0.357
-731.981	-200.000	0.024	0.340
-730.966	-93.773	0.230	0.064
-729.952	-99.963	-0.242	-0.061
-728.937	323.583	0.024	0.047
-727.923	382.663	0.164	-0.342
-726.908	-200.000	0.018	-0.086
-725.894	-111.959	-0.244	0.050
-724.879	-61.632	-0.243	0.103
-723.864	-110.254	-0.164	-0.035
-722.850	-136.158	0.337	-0.040
-721.835	-21.146	0.098	-0.061
-720.821	148.504	-0.085	-0.116
-719.806	-200.000	-0.011	0.247
-718.791	346.138	-0.108	-0.214
-717.777	101.481	0.082	-0.097
-716.762	109.026	0.150	0.181
-715.748	-200.000	0.009	-0.049
-714.733	-17.761	-0.317	-0.202
-713.718	345.685	-0.061	0.121
-712.704	-34.565	0.096	-0.053
-711.689	141.336	-0.095	0.128
-710.675	-127.199	0.174	0.026
-709.660	-200.000	0.061	0.302
-708.645	-139.005	-0.049	-0.005
-707.631	-70.538	-0.439	0.168
-706.616	-24.276	0.177	0.107
-705.602	-200.000	0.041	0.346
-704.587	46.437	0.219	0.205
-703.572	-101.953	0.114	0.028
-702.558	-46.237	0.361	-0.180
-701.543	-39.319	-0.049	-0.026
-700.529	-78.556	-0.290	0.100
-699.514	800.000	0.027	0.112
-698.499	-96.711	-0.102	0.027
-697.485	-35.441	-0.220	-0.121
-696.470	299.489	0.257	-0.478
-695.456	90.264	-0.084	0.096
-694.441	-30.985	-0.188	-0.108
-693.426	-110.528	-0.454	-0.095
-692.412	426.612	-0.125	-0.273
-691.397	66.909	0.187	0.193
-690.383	-146.808	-0.156	-0.014
-689.368	24.356	-0.260	-0.218
-688.354	-99.757	-0.130	0.033
-687.339	203.962	-0.184	-0.288
-686.324	106.324	0.140	0.168
-685.310	-10.090	-0.149	-0.100
-684.295	130.649	0.142	0.185
-683.281	-200.000	-0.009	0.121
-682.266	800.000	-0.037	-0.159
-681.251	-171.688	-0.023	0.001
-680.237	60.567	-0.165	-0.166
-679.222	-81.623	-0.192	0.064
-678.208	6.871	0.235	-0.177
-677.193	800.000	-0.067	-0.256
-676.178	10.080	0.101	-0.078
-675.164	800.000	-0.073	-0.245
-674.149	463.135	-0.035	-0.079
-673.135	108.645	-0.175	-0.211
-672.120	77.897	0.206	0.222
-671.105	-200.000	-0.003	0.110
-670.091	13.669	-0.391	-0.307
-669.076	-99.141	0.106	-0.027
-668.062	-64.395	-0.388	0.160
-667.047	-25.666	-0.169	0.101
-666.032	451.297	0.166	-0.371
-665.018	152.366	-0.150	0.207
-664.003	-17.778	-0.273	0.173
-662.989	-35.464	-0.174	-0.095
-661.974	-79.849	-0.045	0.015
-660.959	-71.913	-0.184	0.069
-659.945	-125.960	-0.161	-0.024
-658.930	11.181	-0.202	-0.156
-657.916	-89.025	-0.407	0.122
-656.901	180.924	0.281	0.418
-655.886	7.666	-0.223	-0.169
-654.872	-87.825	-0.325	0.099
-653.857	-152.412	-0.059	0.004
-652.843	19.117	0.098	0.079
-651.828	-134.789	0.271	0.033
-650.814	303.175	-0.184	-0.344
-649.799	-200.000	0.042	-0.191
-648.784	-105.634	-0.220	0.050
-647.770	-114.685	0.101	0.019
-646.755	446.826	-0.066	0.146
-645.741	-200.000	-0.004	0.184
-644.726	-113.090	0.174	0.035
-643.711	-103.814	0.217	-0.051
-642.697	33.052	0.217	0.190
-641.682	29.280	0.178	0.153
-640.668	-146.845	-0.375	-0.033
-639.653	-200.000	-0.021	0.154
-638.638	800.000	0.071	-0.221
-637.624	-200.000	-0.095	-0.494
-636.609	232.104	-0.106	-0.175
-635.595	170.097	0.065	0.094
-634.580	-57.493	-0.478	-0.212
-633.565	800.000	-0.104	-0.354
-632.551	-119.869	-0.299	-0.052
-631.536	0.684	-0.277	-0.200
-630.522	800.000	0.019	0.063
-629.507	-22.512	-0.027	-0.017
-628.492	800.000	0.080	-0.246
-627.478	800.000	0.024	-0.088
-626.463	224.441	0.039	-0.064
-625.449	217.813	0.036	-0.058
-624.434	155.872	-0.094	0.131
-623.419	350.482	0.092	0.184
-622.405	273.322	-0.099	0.177
-621.390	-110.744	-0.183	0.038
-620.376	224.928	0.059	0.097
-619.361	73.446	0.124	-0.131
-618.346	-197.000	-0.163	0.001
-617.332	193.584	-0.197	0.301
-616.317	-113.211	-0.222	0.044
-615.303	-130.535	-0.501	0.068
-614.288	-169.303	0.231	-0.009
-613.273	-69.625	0.097	-0.037
-612.259	-200.000	0.007	-0.123
-611.244	800.000	-0.059	-0.242
-610.230	800.000	0.080	0.251
-609.215	-149.541	0.097	-0.008
-608.201	-30.911	0.159	-0.091
-607.186	360.700	0.143	-0.290
-606.171	-95.437	0.214	0.058
-605.157	-50.011	-0.129	-0.061
-604.142	156.039	0.090	0.125
-603.128	116.808	-0.037	0.046
-602.113	-52.437	0.076	0.036
-601.098	15.897	-0.150	0.119
-600.084	-200.000	-0.022	0.237
-599.069	-71.426	0.404	0.152
-598.055	14.745	0.128	-0.101
-597.040	94.853	0.212	0.243
-596.025	800.000	-0.061	0.219
-595.011	800.000	-0.073	0.231
-593.996	-164.594	-0.267	0.012
-592.982	-34.563	-0.288	-0.159
-591.967	-100.648	0.252	-0.063
-590.952	237.036	-0.047	-0.079
-589.938	-46.461	0.330	0.163
-588.923	-145.199	-0.331	0.030
-587.909	728.452	-0.066	-0.177
-586.894	163.560	0.107	-0.151
-585.879	800.000	0.064	-0.250
-584.865	152.383	-0.144	0.198
-583.850	102.100	0.173	0.203
-582.836	-200.000	-0.049	-0.382
-581.821	-12.903	0.261	0.171
-580.806	96.143	0.211	-0.243
-579.792	800.000	-0.043	0.171
-578.777	648.847	-0.012	0.032
-577.763	-200.000	-0.024	0.167
-576.748	-109.366	0.190	-0.041
-575.733	18.407	-0.213	0.171
-574.719	-200.000	-0.018	0.098
-573.704	800.000	-0.042	0.152
-572.690	-23.817	-0.114	-0.069
-571.675	800.000	0.119	-0.464
-570.661	800.000	-0.086	0.312
-569.646	-200.000	0.037	0.252
-568.631	109.685	-0.252	0.304
-567.617	716.360	0.051	-0.135
-566.602	-183.092	0.100	-0.002
-565.588	-200.000	-0.040	-0.256
-564.573	4.451	0.041	-0.030
-563.558	247.041	0.094	0.160
-562.544	-200.000	0.004	0.307
-561.529	-200.000	-0.021	0.638
-560.515	205.907	0.220	0.344
-559.500	-168.781	-0.331	-0.013
-558.485	49.185	0.146	0.138
-557.471	-123.610	-0.128	0.021
-556.456	-120.221	-0.213	-0.037
-555.442	-71.094	-0.119	-0.045
-554.427	-45.659	0.446	0.222
-553.412	170.499	-0.065	-0.093
-552.398	7.044	0.256	0.192
-551.383	-52.258	-0.181	0.084
-550.369	22.128	-0.169	-0.138
-549.354	-200.000	0.008	-0.254
-548.339	116.798	0.081	0.100
-547.325	-0.661	0.235	-0.168
-546.310	86.524	0.053	-0.059
-545.296	-123.233	0.295	-0.047
-544.281	-88.617	0.146	0.044
-543.266	-200.000	-0.021	0.215
-542.252	-200.000	-0.051	0.232
-541.237	366.443	-0.199	-0.404
-540.223	488.817	-0.065	0.149
-539.208	-15.649	-0.222	-0.142
-538.193	684.056	-0.103	-0.270
-537.179	-5.544	0.144	-0.099
-536.164	-97.346	-0.146	-0.038
-535.150	-78.976	0.166	0.057
-534.135	383.762	0.244	0.504
-533.121	308.775	0.122	0.230
-532.106	-17.476	-0.392	0.248
-531.091	-200.000	-0.107	0.480
-530.077	38.949	0.054	0.049
-529.062	-200.000	0.046	-0.217
-528.048	800.000	-0.140	-0.456
-527.033	-200.000	-0.007	-0.062
-526.018	-200.000	0.022	0.230
-525.004	404.622	-0.124	-0.263
-523.989	-95.899	-0.291	-0.078
-522.975	-200.000	0.055	0.433
-521.960	-53.037	-0.110	-0.051
-520.945	-138.832	0.147	0.016
-519.931	-69.196	0.194	-0.075
-518.916	285.221	-0.067	-0.121
-517.902	47.293	0.169	-0.158
-516.887	24.816	-0.232	-0.193
-515.872	-130.196	0.370	-0.051
-514.858	308.390	-0.160	0.300
-513.843	-7.476	0.248	0.168
-512.829	-25.871	-0.371	-0.219
-511.814	-64.433	0.267	0.109
-510.799	-98.819	0.059	0.015
-509.785	117.054	-0.141	0.174
-508.770	-143.208	-0.077	0.007
-507.756	175.453	0.090	-0.130
-506.741	800.000	0.069	-0.199
-505.726	260.015	-0.094	0.164
-504.712	28.917	-0.175	0.149
-503.697	-1.143	0.336	0.238
-502.683	-84.992	0.425	0.134
-501.668	-161.573	-0.190	-0.010
-500.653	152.160	0.264	0.362
-499.639	271.467	0.142	-0.251
-498.624	-200.000	0.024	-0.178
-497.610	-12.669	-0.113	-0.074
-496.595	-115.071	-0.161	-0.031
-495.581	-38.938	-0.085	-0.045
-494.566	-200.000	0.027	-0.259
-493.551	213.233	-0.210	-0.333
-492.537	-200.000	-0.010	0.085
-491.522	-42.963	-0.243	-0.124
-490.508	-122.460	0.270	-0.044
-489.493	202.607	-0.147	0.228
-488.478	9.516	-0.049	0.037
-487.464	-91.760	0.122	-0.035
-486.449	292.788	-0.084	0.154
-485.435	70.781	0.152	-0.158
-484.420	-126.432	-0.376	0.056
-483.405	-110.282	0.505	0.106
-482.391	470.865	-0.105	0.236
-481.376	109.125	0.107	-0.129
-480.362	376.877	0.107	0.218
-479.347	295.334	0.040	0.073
-478.332	-14.398	-0.210	-0.136
-477.318	800.000	-0.066	0.273
-476.303	-111.373	0.269	0.055
-475.289	-42.058	-0.232	-0.119
-474.274	438.533	0.023	-0.050
-473.259	-60.754	-0.190	-0.081
-472.245	-126.296	0.163	0.024
-471.230	739.120	-0.100	0.270
-470.216	-81.400	0.211	0.070
-469.201	-16.153	-0.144	-0.092
-468.186	-46.378	0.339	-0.167
-467.172	800.000	0.048	0.135
-466.157	-145.643	0.267	0.024
-465.143	-200.000	0.001	0.015
-464.128	-21.386	0.247	-0.151
-463.113	335.798	0.016	0.031
-462.099	-20.251	-0.265	-0.164
-461.084	188.222	-0.064	-0.095
-460.070	21.346	-0.158	0.129
-459.055	110.628	-0.185	0.224
-458.040	-74.785	-0.295	0.106
-457.026	-200.000	0.028	-0.356
-456.011	-27.901	0.184	-0.107
-454.997	-126.422	-0.182	-0.027
-453.982	148.842	0.118	0.159
-452.968	10.062	0.268	0.204
-451.953	-200.000	-0.080	-0.402
-450.938	-77.233	0.284	-0.099
-449.924	7.796	0.175	0.131
-448.909	-147.509	-0.197	-0.017
-447.895	-3.791	0.084	0.059
-446.880	-200.000	0.014	-0.156
-445.865	-200.000	-0.022	-0.274
-444.851	800.000	0.113	-0.433
-443.836	49.233	-0.205	0.193
-442.822	-88.669	0.077	0.023
-441.807	121.034	0.046	-0.058
-440.792	800.000	0.110	0.337
-439.778	-115.965	0.249	-0.047
-438.763	374.088	-0.109	0.223
-437.749	6.910	-0.101	-0.075
-436.734	298.536	-0.094	0.174
-435.719	116.013	-0.204	-0.251
-434.705	-77.591	-0.119	0.041
-433.690	-200.000	-0.015	0.154
-432.676	110.997	-0.098	0.118
-431.661	-200.000	0.004	0.175
-430.646	59.680	0.124	0.123
-429.632	393.417	-0.037	0.077
-428.617	-99.410	0.261	0.066
-427.603	-175.887	-0.184	0.005
-426.588	-28.502	0.267	0.154
-425.573	-200.000	-0.019	0.272
-424.559	113.287	0.220	0.268
-423.544	144.250	0.069	0.092
-422.530	-200.000	0.066	-0.414
-421.515	193.340	-0.065	-0.098
-420.500	-21.877	-0.108	-0.066
-419.486	-2.080	-0.235	0.165
-418.471	5.298	0.156	-0.115
-417.457	8.429	0.228	-0.171
-416.442	-19.916	-0.231	0.143
-415.428	370.773	0.061	-0.124
-414.413	-200.000	0.001	0.063
-413.398	-166.146	0.420	0.018
-412.384	-200.000	0.062	0.320
-411.369	-74.914	0.396	0.142
-410.355	37.751	0.101	0.090
-409.340	85.067	-0.136	0.149
-408.325	800.000	-0.020	-0.062
-407.311	-146.367	-0.053	0.005
-406.296	-30.705	-0.295	-0.167
-405.282	-110.123	0.220	0.046
-404.267	-158.736	-0.422	-0.024
-403.252	-24.815	0.285	-0.170
-402.238	37.132	0.228	0.202
-401.223	-53.077	-0.251	0.115
-400.209	228.334	0.077	0.125
-399.194	87.271	0.136	-0.150
-398.179	17.120	-0.121	-0.096
-397.165	-60.677	-0.327	0.139
-396.150	58.891	0.053	0.052
-395.136	-54.008	-0.259	0.118
-394.121	294.584	0.109	-0.199
-393.106	800.000	-0.068	-0.229
-392.092	-103.676	-0.255	-0.060
-391.077	-1.580	0.258	0.182
-390.063	800.000	-0.004	0.014
-389.048	-73.134	-0.205	0.075
-388.033	-87.653	0.154	-0.046
-387.019	-16.172	0.293	0.186
-386.004	-40.043	0.248	0.129
-384.990	-100.761	-0.187	-0.046
-383.975	-114.361	-0.358	-0.069
-382.960	-15.955	-0.073	0.046
-381.946	-200.000	-0.023	-0.223
-380.931	33.423	0.092	0.080
-379.917	77.806	0.308	0.328
-378.902	800.000	-0.122	-0.362
-377.888	-15.836	-0.254	-0.162
-376.873	-200.000	0.070	-0.367
-375.858	26.961	0.294	-0.247
-374.844	396.227	0.072	-0.151
-373.829	-101.826	0.230	-0.056
-372.815	-200.000	-0.015	0.214
-371.800	-200.000	0.022	-0.117
-370.785	-200.000	0.007	-0.131
-369.771	-90.415	0.294	0.085
-368.756	179.222	0.260	0.380
-367.742	-93.083	-0.267	-0.074
-366.727	-200.000	-0.050	-0.225
-365.712	39.715	-0.174	-0.156
-364.698	-200.000	-0.006	-0.248
-363.683	-134.257	-0.134	0.016
-362.669	-28.004	0.115	0.067
-361.654	800.000	0.025	0.089
-360.639	312.536	-0.225	-0.422
-359.625	399.261	0.053	0.111
-358.610	-38.241	-0.110	-0.058
-357.596	-104.252	-0.167	-0.039
-356.581	800.000	0.055	0.190
-355.566	141.961	-0.070	0.092
-354.552	482.037	0.141	-0.320
-353.537	8.521	-0.179	-0.135
-352.523	-65.993	-0.303	-0.121
-351.508	127.000	0.328	0.415
-350.493	378.399	0.061	0.124
-349.479	-45.432	-0.088	-0.044
-348.464	-200.000	0.020	-0.171
-347.450	-4.409	0.156	0.107
-346.435	41.063	-0.015	0.014
-345.420	-200.000	0.040	-0.220
-344.406	-14.390	-0.218	0.140
-343.391	-92.739	-0.186	0.052
-342.377	-19.949	0.109	0.067
-341.362	98.985	-0.134	0.155
-340.348	-29.994	0.184	0.105
-339.333	37.259	-0.110	-0.097
-338.318	281.796	-0.073	0.130
-337.304	86.644	-0.107	0.118
-336.289	-52.104	0.096	0.044
-335.275	354.235	-0.060	0.118
-334.260	26.721	-0.365	0.305
-333.245	-63.996	0.210	-0.086
-332.231	382.076	0.088	0.179
-331.216	-52.626	-0.159	0.073
-330.202	-19.324	-0.364	0.225
-329.187	-3.371	-0.125	0.087
-328.172	255.375	-0.150	-0.256
-327.158	179.694	0.081	-0.119
-326.143	133.027	-0.081	0.104
-325.129	800.000	0.073	-0.271
-324.114	-200.000	0.006	0.169
-323.099	555.500	-0.040	0.096
-322.085	-59.516	0.183	-0.078
-321.070	63.915	-0.238	-0.238
-320.056	429.500	0.125	-0.270
-319.041	-18.143	-0.388	0.242
-318.026	29.016	-0.075	-0.064
-317.012	16.140	0.139	-0.110
-315.997	324.678	-0.110	-0.209
-314.983	55.026	0.213	0.205
-313.968	800.000	0.060	-0.237
-312.953	-200.000	0.016	-0.170
-311.939	-200.000	-0.078	0.370
-310.924	-176.995	0.267	-0.007
-309.910	-147.727	-0.048	-0.004
-308.895	-41.951	-0.244	-0.125
-307.880	-200.000	0.056	-0.297
-306.866	-122.262	0.053	0.009
-305.851	-89.583	-0.376	0.110
-304.837	800.000	0.054	0.176
-303.822	-200.000	0.040	0.215
-302.807	769.376	0.113	0.307
-301.793	138.571	0.156	0.204
-300.778	184.162	-0.183	-0.270
-299.764	454.763	-0.029	-0.064
-298.749	-85.624	0.255	-0.079
-297.735	-200.000	-0.019	-0.182
-296.720	-200.000	0.022	0.278
-295.705	-74.089	0.170	-0.061
-294.691	303.156	0.045	-0.083
-293.676	800.000	0.068	-0.236
-292.662	-200.000	0.066	-0.368
-291.647	-105.104	-0.306	0.070
-290.632	31.954	-0.257	0.220
-289.618	-108.855	0.365	0.078
-288.603	-200.000	0.004	0.071
-287.589	310.306	-0.130	0.243
-286.574	-200.000	0.012	-0.174
-285.559	-83.954	0.145	-0.046
-284.545	-200.000	-0.007	-0.160
-283.530	114.547	0.075	0.091
-282.516	369.783	-0.144	-0.290
-281.501	-126.822	-0.114	-0.017
-280.486	171.680	0.318	-0.455
-279.472	-200.000	-0.027	-0.243
-278.457	-200.000	-0.043	-0.208
-277.443	58.687	-0.163	-0.159
-276.428	-57.034	0.091	0.040
-275.413	-163.844	-0.246	0.011
-274.399	252.457	0.173	0.293
-273.384	-74.674	0.315	0.113
-272.370	-200.000	-0.025	0.243
-271.355	-170.149	0.441	-0.016
-270.340	-200.000	-0.446	0.001
-269.326	-2.656	-0.190	-0.133
-268.311	-58.760	0.132	-0.057
-267.297	-38.950	0.305	-0.160
-266.282	800.000	0.082	-0.252
-265.267	-101.484	-0.231	-0.056
-264.253	432.925	-0.166	-0.359
-263.238	-200.000	0.007	-0.241
-262.224	42.820	0.183	-0.166
-261.209	64.253	-0.189	0.189
-260.195	800.000	0.007	0.028
-259.180	-200.000	-0.014	-0.155
-258.165	55.305	-0.177	-0.170
-257.151	75.086	-0.059	0.061
-256.136	-21.562	-0.273	0.166
-255.122	800.000	0.069	-0.293
-254.107	195.461	-0.141	-0.213
-253.092	-189.423	0.309	0.004
-252.078	30.821	0.065	-0.055
-251.063	-87.007	-0.128	0.039
-250.049	-21.080	0.244	-0.149
-249.034	-116.108	0.189	0.035
-248.019	-200.000	-0.007	-0.046
-247.005	45.555	-0.293	-0.269
-245.990	800.000	0.091	-0.389
-244.976	65.099	0.200	0.201
-243.961	-23.404	-0.103	0.061
-242.946	417.423	0.016	-0.033
-241.932	151.003	-0.166	0.224
-240.917	-4.563	0.176	0.121
-239.903	80.844	-0.216	-0.231
-238.888	-19.482	-0.239	-0.147
-237.873	-59.383	0.283	0.121
-236.859	-200.000	0.024	-0.145
-235.844	-200.000	0.007	0.064
-234.830	-19.382	-0.151	0.093
-233.815	-12.963	0.126	0.081
-232.800	32.364	0.120	-0.103
-231.786	174.661	0.036	0.051
-230.771	16.244	-0.264	0.207
-229.757	-200.000	-0.032	0.401
-228.742	-200.000	-0.003	0.143
-227.727	-111.068	-0.397	-0.081
-226.713	800.000	0.057	-0.210
-225.698	800.000	-0.149	-0.438
-224.684	-115.742	-0.281	-0.052
-223.669	-40.979	0.143	0.073
-222.655	-200.000	-0.039	-0.222
-221.640	800.000	-0.103	0.408
-220.625	283.454	-0.129	-0.230
-219.611	-56.446	0.103	-0.045
-218.596	79.304	0.458	-0.488
-217.582	21.737	0.057	0.046
-216.567	178.048	-0.138	0.200
-215.552	-148.702	0.397	0.032
-214.538	-40.041	0.257	0.133
-213.523	611.723	-0.050	-0.125
-212.509	-105.441	0.065	0.015
-211.494	71.964	-0.049	0.051
-210.479	32.149	0.266	-0.228
-209.465	226.606	0.041	-0.067
-208.450	198.790	-0.060	-0.091
-207.436	-200.000	0.024	-0.377
-206.421	42.695	-0.157	-0.142
-205.406	660.187	-0.062	0.158
-204.392	113.908	-0.028	-0.034
-203.377	30.246	0.186	0.157
-202.363	-162.748	0.293	-0.014
-201.348	-200.000	0.055	-0.296
-200.333	-81.226	-0.129	-0.042
-199.319	37.667	0.236	0.208
-198.304	-125.546	0.327	-0.049
-197.290	-1.453	-0.157	-0.110
-196.275	800.000	-0.094	-0.318
-195.260	80.606	0.056	-0.060
-194.246	-193.221	-0.257	0.002
-193.231	368.530	-0.114	0.228
-192.217	-33.799	0.163	-0.089
-191.202	2.377	-0.069	-0.050
-190.187	800.000	-0.027	-0.104
-189.173	443.069	-0.057	0.124
-188.158	177.726	-0.059	-0.085
-187.144	-73.458	0.142	0.052
-186.129	-91.896	0.214	0.060
-185.114	-58.393	0.132	0.057
-184.100	-90.722	-0.248	-0.071
-183.085	309.176	0.050	-0.092
-182.071	50.829	0.321	0.301
-181.056	74.249	0.096	-0.100
-180.042	-181.579	0.286	0.006
-179.027	-33.718	0.199	0.109
-178.012	29.095	-0.177	0.149
-176.998	5.317	-0.143	0.105
-175.983	52.385	-0.077	0.073
-174.969	-39.279	-0.101	-0.053
-173.954	-182.103	-0.113	0.002
-172.939	800.000	-0.090	-0.252
-171.925	-40.558	-0.247	0.127
-170.910	-14.504	0.118	-0.075
-169.896	-112.488	0.039	-0.008
-168.881	-148.374	-0.292	0.024
-167.866	265.912	-0.023	0.039
-166.852	90.517	-0.127	0.141
-165.837	161.352	-0.154	-0.213
-164.823	64.957	-0.326	-0.327
-163.808	85.583	0.187	0.204
-162.793	-22.576	0.038	-0.023
-161.779	-119.804	0.158	-0.027
-160.764	381.179	-0.091	-0.186
-159.750	-140.753	-0.125	0.013
-158.735	800.000	0.033	-0.125
-157.720	-200.000	-0.080	0.572
-156.706	-200.000	-0.026	0.369
-155.691	-159.549	-0.064	-0.004
-154.677	-112.232	0.415	0.083
-153.662	-200.000	-0.079	0.485
-152.647	352.487	-0.087	0.170
-151.633	800.000	-0.008	0.033
-150.618	-121.567	0.313	0.052
-149.604	-29.721	0.128	0.072
-148.589	-0.863	0.180	-0.127
-147.574	-200.000	0.011	0.117
-146.560	-117.906	-0.291	0.052
-145.545	800.000	0.102	0.322
-144.531	-17.636	-0.141	0.088
-143.516	183.644	0.067	0.098
-142.502	-73.897	-0.262	-0.094
-141.487	-31.593	-0.075	-0.042
-140.472	343.022	0.168	0.326
-139.458	138.471	0.004	-0.006
-138.443	-144.772	0.287	-0.026
-137.429	151.972	-0.068	-0.091
-136.414	43.293	-0.136	-0.123
-135.399	333.173	-0.187	0.359
-134.385	250.712	-0.095	-0.160
-133.370	73.273	0.113	-0.117
-132.356	304.959	0.138	0.253
-131.341	370.039	0.031	-0.062
-130.326	714.920	-0.123	-0.323
-129.312	160.074	0.094	-0.130
-128.297	-108.402	-0.294	0.063
-127.283	253.294	-0.065	0.109
-126.268	-200.000	0.088	-0.469
-125.253	-200.000	-0.021	0.388
-124.239	-106.861	-0.252	-0.055
-123.224	-120.219	0.234	0.040
-122.210	-200.000	-0.018	0.317
-121.195	-56.425	-0.063	-0.028
