DTS Sentinel unit serial number:	SN413079Multiplexer serial number:	ORYXHardware model number:	OX4-SRSoftware version number:	ORYX F/W v4.00 Oryx Data Collector v3.7.2.0data status	okinstallation	princeton_trtdifferential loss correction	single-endedforward channel	channel 4reverse channel	N/Adate	2019/09/18time	20:05:34forward acquisition time	60.00reverse acquisition time	0.00gamma	496.2192k internal	0.2319k external	0.2319temperature offset calibration	1.0035default loss term (dB/km)	0.3790temperature slope calibration	1.0000multiplexer offset coefficient	1.0000multiplexer slope coefficient	1.0000fibre end	0.00T internal ref (°C)	29.98T ext. ref 1 (°C)	0.98T ext. ref 2 (°C)	20.58length (m)	temperature (°C)	Stokes	anti-Stokes-747.200	-30.565	0.119	0.068
-746.185	-155.727	-0.357	-0.023
-745.171	-145.356	-0.215	0.020
-744.156	-200.000	-0.079	0.423
-743.142	800.000	0.108	-0.330
-742.127	122.198	0.142	0.179
-741.112	262.547	0.215	0.378
-740.098	-88.864	-0.221	0.066
-739.083	800.000	0.088	0.342
-738.069	-200.000	0.000	0.387
-737.054	-200.000	0.173	-0.000
-736.039	111.325	-0.125	-0.152
-735.025	-200.000	-0.021	0.147
-734.010	-120.380	-0.308	0.053
-732.996	137.660	-0.153	-0.203
-731.981	239.443	0.109	-0.183
-730.966	-200.000	0.045	-0.254
-729.952	-109.925	0.213	0.045
-728.937	-159.579	0.218	0.012
-727.923	-125.737	-0.114	0.018
-726.908	11.182	-0.212	0.164
-725.894	-49.239	0.024	0.012
-724.879	800.000	-0.083	0.236
-723.864	36.169	0.130	0.115
-722.850	227.954	-0.155	0.254
-721.835	800.000	0.068	0.271
-720.821	183.500	-0.123	-0.183
-719.806	-122.685	0.228	-0.037
-718.791	800.000	0.078	0.255
-717.777	800.000	-0.115	-0.345
-716.762	-102.068	0.210	0.051
-715.748	800.000	-0.149	0.570
-714.733	-79.337	0.166	0.057
-713.718	372.640	0.076	-0.156
-712.704	58.057	0.251	-0.249
-711.689	-54.965	0.090	-0.041
-710.675	197.701	0.170	0.263
-709.660	-159.494	-0.288	0.016
-708.645	-200.000	0.011	-0.132
-707.631	-200.000	0.027	-0.226
-706.616	-55.914	-0.175	0.079
-705.602	800.000	0.048	0.169
-704.587	280.074	-0.160	-0.288
-703.572	-3.517	-0.207	-0.146
-702.558	-76.570	0.155	0.055
-701.543	782.782	-0.073	0.203
-700.529	-91.870	-0.172	-0.049
-699.514	-155.063	0.121	-0.008
-698.499	222.708	0.111	0.180
-697.485	192.869	-0.041	0.063
-696.470	-76.478	-0.116	0.041
-695.456	751.614	-0.075	-0.204
-694.441	74.504	0.158	-0.167
-693.426	161.072	-0.073	-0.104
-692.412	55.633	0.111	-0.108
-691.397	-200.000	0.032	0.238
-690.383	-17.291	-0.125	-0.079
-689.368	-33.518	-0.365	0.204
-688.354	-181.374	-0.154	0.003
-687.339	-15.290	-0.252	-0.162
-686.324	-34.790	-0.307	0.170
-685.310	52.461	-0.091	-0.088
-684.295	119.519	0.175	-0.219
-683.281	800.000	0.088	-0.279
-682.266	130.593	0.149	-0.193
-681.251	-200.000	-0.016	0.264
-680.237	-200.000	0.050	0.351
-679.222	15.677	-0.155	-0.123
-678.208	183.546	0.123	-0.184
-677.193	33.873	0.293	-0.258
-676.178	-105.129	-0.511	0.118
-675.164	57.880	0.067	0.066
-674.149	-95.446	0.150	0.041
-673.135	61.427	0.064	0.064
-672.120	-200.000	-0.013	-0.380
-671.105	630.177	0.052	0.133
-670.091	-124.997	-0.204	0.032
-669.076	-138.933	-0.329	0.036
-668.062	-72.869	0.140	0.052
-667.047	55.106	-0.096	-0.094
-666.032	-195.197	-0.262	-0.002
-665.018	-170.259	0.051	0.002
-664.003	15.579	-0.583	-0.462
-662.989	-107.695	-0.078	0.017
-661.974	12.935	-0.364	0.284
-660.959	800.000	-0.110	0.338
-659.945	348.309	-0.128	-0.254
-658.930	-200.000	-0.031	0.315
-657.916	-200.000	0.004	0.319
-656.901	20.196	0.131	0.107
-655.886	216.497	-0.077	0.123
-654.872	361.478	-0.025	0.050
-653.857	263.331	0.185	-0.324
-652.843	800.000	0.079	-0.327
-651.828	232.114	-0.159	-0.263
-650.814	727.357	0.061	-0.165
-649.799	-28.831	-0.150	0.087
-648.784	-133.447	-0.249	-0.032
-647.770	154.523	0.173	-0.240
-646.755	-135.383	0.089	0.011
-645.741	157.911	0.122	-0.171
-644.726	121.178	0.159	-0.200
-643.711	800.000	0.042	-0.154
-642.697	-200.000	0.012	-0.179
-641.682	-11.905	-0.278	-0.184
-640.668	-108.200	-0.221	0.048
-639.653	-38.212	0.022	0.012
-638.638	-200.000	-0.016	-0.105
-637.624	775.468	0.153	-0.420
-636.609	-121.499	-0.292	-0.049
-635.595	-200.000	0.016	0.129
-634.580	-200.000	-0.013	-0.147
-633.565	-200.000	0.047	0.358
-632.551	-25.801	0.285	0.169
-631.536	-78.139	-0.109	-0.038
-630.522	-109.502	0.109	0.023
-629.507	-145.167	-0.669	0.061
-628.492	207.875	-0.080	-0.126
-627.478	-68.402	-0.149	-0.058
-626.463	725.720	-0.159	-0.426
-625.449	-200.000	0.001	-0.150
-624.434	-200.000	-0.007	0.328
-623.419	-200.000	0.001	0.023
-622.405	651.154	-0.122	-0.314
-621.390	-70.926	0.139	0.053
-620.376	113.428	-0.128	0.156
-619.361	-75.139	0.198	0.071
-618.346	439.293	-0.098	0.216
-617.332	-200.000	0.002	-0.448
-616.317	-1.280	-0.092	-0.065
-615.303	333.794	-0.067	-0.131
-614.288	244.097	0.114	0.193
-613.273	3.459	-0.094	-0.069
-612.259	-50.235	0.177	-0.084
-611.244	-92.413	-0.163	-0.046
-610.230	29.737	-0.083	0.071
-609.215	11.889	-0.083	-0.064
-608.201	200.436	-0.137	-0.212
-607.186	-181.137	0.270	0.005
-606.171	800.000	-0.089	-0.299
-605.157	220.644	-0.090	-0.145
-604.142	-96.448	0.174	0.046
-603.128	686.209	-0.168	0.440
-602.113	-200.000	-0.017	-0.334
-601.098	6.956	-0.045	0.034
-600.084	-169.607	-0.381	-0.014
-599.069	-200.000	-0.375	0.001
-598.055	-22.151	-0.200	-0.122
-597.040	215.786	0.139	-0.221
-596.025	-200.000	-0.004	0.176
-595.011	-119.877	-0.346	-0.060
-593.996	-4.903	-0.190	0.132
-592.982	-200.000	0.023	0.170
-591.967	-105.262	-0.253	-0.058
-590.952	-104.374	0.348	-0.081
-589.938	800.000	0.034	0.130
-588.923	-120.912	0.440	-0.074
-587.909	538.906	-0.010	0.023
-586.894	-154.590	-0.063	-0.004
-585.879	559.787	-0.120	-0.290
-584.865	-200.000	0.004	-0.097
-583.850	67.038	-0.161	-0.165
-582.836	-120.837	-0.081	0.014
-581.821	-119.325	0.275	-0.048
-580.806	168.380	-0.069	-0.099
-579.792	77.729	0.126	-0.135
-578.777	-115.501	-0.193	0.037
-577.763	99.845	-0.108	-0.126
-576.748	591.764	0.048	0.119
-575.733	-57.274	-0.159	0.070
-574.719	101.565	0.485	-0.568
-573.704	128.664	0.106	-0.135
-572.690	-74.623	0.078	-0.028
-571.675	-7.457	0.290	0.197
-570.661	-130.014	0.234	-0.032
-569.646	112.067	-0.137	0.166
-568.631	-200.000	0.303	-0.001
-567.617	78.642	0.116	-0.125
-566.602	-200.000	-0.014	0.170
-565.588	340.013	-0.146	0.285
-564.573	53.868	-0.221	0.213
-563.558	-101.235	0.018	-0.004
-562.544	49.989	0.293	0.278
-561.529	-10.610	-0.337	-0.224
-560.515	41.332	0.242	-0.220
-559.500	9.507	0.271	-0.206
-558.485	400.962	-0.136	0.287
-557.471	83.871	0.252	0.276
-556.456	-200.000	0.020	0.309
-555.442	-60.915	0.038	-0.016
-554.427	-16.594	-0.418	0.266
-553.412	-2.581	0.067	-0.047
-552.398	144.452	0.091	-0.122
-551.383	-200.000	0.028	0.330
-550.369	-46.806	0.296	-0.146
-549.354	-86.958	-0.238	0.073
-548.339	-200.000	-0.001	-0.019
-547.325	354.331	-0.078	-0.156
-546.310	-200.000	0.002	-0.083
-545.296	164.289	0.065	0.092
-544.281	-200.000	0.020	-0.170
-543.266	6.951	0.220	-0.165
-542.252	-200.000	0.009	-0.213
-541.237	-127.503	0.230	-0.033
-540.223	79.889	0.237	-0.256
-539.208	-113.438	0.229	0.045
-538.193	800.000	0.033	0.142
-537.179	335.501	-0.073	0.141
-536.164	-122.782	0.179	0.029
-535.150	-95.410	-0.097	0.026
-534.135	800.000	-0.159	-0.465
-533.121	-26.125	0.276	0.163
-532.106	152.545	0.162	-0.222
-531.091	11.689	-0.221	0.170
-530.077	-158.664	0.223	0.013
-529.062	-129.629	0.330	-0.046
-528.048	43.606	0.195	-0.179
-527.033	370.732	-0.098	-0.198
-526.018	374.618	0.109	-0.223
-525.004	499.811	0.016	0.038
-523.989	152.374	0.197	-0.270
-522.975	-115.470	-0.379	-0.072
-521.960	487.364	0.065	-0.148
-520.945	-63.033	0.160	-0.066
-519.931	-70.400	-0.336	-0.128
-518.916	218.718	0.085	0.137
-517.902	800.000	-0.063	-0.175
-516.887	-14.357	0.272	-0.176
-515.872	-200.000	0.001	-0.134
-514.858	-72.405	-0.410	0.152
-513.843	445.580	-0.052	0.115
-512.829	-200.000	0.009	0.226
-511.814	44.321	0.120	0.110
-510.799	-86.963	0.242	0.074
-509.785	29.583	-0.149	0.127
-508.770	800.000	-0.038	0.163
-507.756	-76.647	-0.263	-0.093
-506.741	3.224	0.130	-0.095
-505.726	536.395	0.042	0.099
-504.712	30.715	0.191	-0.164
-503.697	-118.476	0.312	0.055
-502.683	-200.000	-0.020	0.333
-501.668	-4.719	-0.341	0.236
-500.653	-31.894	0.288	-0.162
-499.639	-82.798	-0.330	-0.107
-498.624	800.000	0.032	-0.104
-497.610	-47.803	-0.159	0.077
-496.595	-200.000	0.022	-0.243
-495.581	594.342	-0.064	-0.158
-494.566	24.109	0.110	-0.091
-493.551	-86.906	-0.429	0.131
-492.537	581.710	-0.083	-0.204
-491.522	167.047	-0.297	-0.422
-490.508	516.908	-0.109	-0.255
-489.493	-12.961	-0.142	0.093
-488.478	-200.000	0.059	0.259
-487.464	-200.000	-0.024	-0.254
-486.449	-69.924	-0.262	0.100
-485.435	-107.274	-0.216	-0.048
-484.420	800.000	-0.063	0.272
-483.405	-73.438	-0.341	-0.125
-482.391	228.477	0.133	-0.217
-481.376	-149.977	-0.088	0.007
-480.362	-19.234	0.188	-0.117
-479.347	-79.826	-0.099	-0.033
-478.332	311.870	-0.020	-0.038
-477.318	640.597	0.105	0.267
-476.303	-14.389	0.058	-0.037
-475.289	37.782	0.167	-0.148
-474.274	120.241	-0.089	-0.111
-473.259	140.815	0.083	0.110
-472.245	73.993	-0.105	-0.110
-471.230	195.739	-0.212	0.323
-470.216	275.695	-0.125	-0.223
-469.201	-135.018	0.560	-0.068
-468.186	-20.429	0.153	-0.094
-467.172	163.878	0.215	0.303
-466.157	370.138	-0.039	-0.080
-465.143	-200.000	-0.007	0.133
-464.128	-200.000	0.007	-0.204
-463.113	-200.000	-0.012	-0.104
-462.099	135.117	-0.171	0.222
-461.084	-200.000	0.045	0.304
-460.070	-200.000	-0.022	0.237
-459.055	-30.522	0.104	-0.059
-458.040	256.362	-0.214	0.368
-457.026	768.696	-0.082	0.224
-456.011	-133.907	0.038	-0.005
-454.997	-200.000	-0.006	-0.263
-453.982	-113.310	0.228	-0.045
-452.968	-8.178	-0.411	0.277
-451.953	-154.484	0.288	0.019
-450.938	-200.000	0.024	0.136
-449.924	109.266	0.042	-0.051
-448.909	800.000	-0.021	-0.083
-447.895	-5.872	-0.063	0.043
-446.880	-200.000	0.002	0.100
-445.865	800.000	0.099	0.296
-444.851	-56.249	0.169	-0.075
-443.836	-109.505	-0.503	0.106
-442.822	-25.349	-0.258	-0.153
-441.807	-62.103	0.168	0.070
-440.792	-50.920	0.454	0.213
-439.778	-200.000	-0.030	0.273
-438.763	-200.000	-0.010	0.271
-437.749	800.000	0.119	-0.358
-436.734	-136.453	-0.173	-0.020
-435.719	-200.000	-0.087	0.408
-434.705	-111.108	-0.349	0.072
-433.690	-148.923	0.182	0.015
-432.676	-51.377	-0.164	0.077
-431.661	-95.672	0.047	-0.012
-430.646	214.307	-0.105	0.166
-429.632	-102.395	-0.116	0.028
-428.617	-25.757	0.287	0.169
-427.603	390.952	0.257	0.534
-426.588	601.474	0.048	-0.120
-425.573	178.321	0.049	-0.072
-424.559	800.000	0.048	0.207
-423.544	65.572	-0.239	0.242
-422.530	-32.608	-0.171	0.095
-421.515	-97.321	0.228	0.059
-420.500	4.713	-0.302	0.222
-419.486	-107.723	0.197	0.043
-418.471	800.000	0.065	-0.279
-417.457	713.164	-0.088	0.233
-416.442	-20.769	0.158	-0.097
-415.428	-200.000	-0.047	0.327
-414.413	308.255	-0.168	0.313
-413.398	-93.080	0.280	0.078
-412.384	-81.036	0.239	0.079
-411.369	-200.000	-0.028	0.283
-410.355	37.785	-0.131	0.116
-409.340	175.476	-0.208	0.301
-408.325	-114.647	0.255	0.049
-407.311	185.070	-0.354	0.525
-406.296	150.724	0.078	-0.105
-405.282	-200.000	0.013	-0.129
-404.267	387.223	0.210	0.433
-403.252	-200.000	0.006	-0.181
-402.238	346.973	-0.156	0.307
-401.223	617.323	-0.033	-0.082
-400.209	68.573	0.135	0.138
-399.194	-173.366	0.177	0.005
-398.179	800.000	0.124	-0.389
-397.165	-200.000	-0.004	-0.226
-396.150	-129.040	0.307	0.043
-395.136	119.456	0.137	-0.169
-394.121	-44.140	-0.162	0.081
-393.106	8.756	0.006	-0.005
-392.092	-70.625	-0.098	-0.037
-391.077	-200.000	-0.022	0.100
-390.063	-139.920	0.110	0.012
-389.048	800.000	-0.039	0.150
-388.033	-8.174	-0.157	-0.106
-387.019	-118.708	-0.167	0.029
-386.004	266.351	0.072	0.125
-384.990	-200.000	-0.018	0.266
-383.975	248.905	0.111	0.187
-382.960	-200.000	0.024	0.288
-381.946	22.195	-0.156	0.127
-380.931	95.869	0.048	-0.055
-379.917	771.089	0.023	0.061
-378.902	-14.334	0.196	-0.126
-377.888	452.033	0.167	0.369
-376.873	64.437	-0.293	-0.294
-375.858	31.874	0.206	-0.177
-374.844	145.151	-0.114	0.153
-373.829	-200.000	0.000	-0.245
-372.815	800.000	0.071	-0.207
-371.800	-144.037	-0.169	-0.016
-370.785	179.089	0.180	-0.263
-369.771	170.679	0.198	-0.283
-368.756	-200.000	0.012	0.253
-367.742	669.284	0.056	-0.145
-366.727	92.800	-0.180	-0.203
-365.712	-69.791	-0.173	0.066
-364.698	-200.000	0.018	-0.114
-363.683	-103.186	0.166	-0.039
-362.669	-200.000	0.005	0.105
-361.654	-200.000	-0.005	0.064
-360.639	29.113	-0.068	0.058
-359.625	232.244	-0.174	0.285
-358.610	-36.263	0.198	0.107
-357.596	371.189	-0.200	-0.404
-356.581	800.000	-0.008	-0.024
-355.566	-153.146	0.113	-0.008
-354.552	800.000	-0.018	0.071
-353.537	-101.541	0.283	-0.069
-352.523	-26.602	-0.271	-0.158
-351.508	-25.126	-0.055	0.032
-350.493	100.697	-0.127	0.147
-349.479	800.000	0.121	-0.355
-348.464	1.760	-0.051	-0.037
-347.450	186.801	0.058	-0.087
-346.435	800.000	0.110	0.316
-345.420	-44.915	-0.205	-0.102
-344.406	189.049	0.012	-0.019
-343.391	101.748	-0.054	0.062
-342.377	-200.000	0.012	0.123
-341.362	-42.755	-0.231	0.117
-340.348	67.174	0.262	-0.266
-339.333	240.262	0.091	0.151
-338.318	-100.353	0.175	0.043
-337.304	-4.385	0.108	0.075
-336.289	196.484	-0.137	-0.208
-335.275	279.038	-0.072	0.128
-334.260	210.760	0.152	-0.238
-333.245	98.035	-0.121	0.139
-332.231	-126.640	-0.034	0.005
-331.216	-49.274	0.084	-0.040
-330.202	-74.732	-0.195	-0.070
-329.187	300.225	-0.014	0.026
-328.172	9.790	0.214	0.162
-327.158	155.451	0.145	0.198
-326.143	-66.261	-0.348	0.138
-325.129	194.031	-0.044	0.067
-324.114	633.960	0.045	-0.113
-323.099	-200.000	-0.036	0.253
-322.085	-132.036	0.034	-0.004
-321.070	-60.197	-0.133	0.056
-320.056	-47.046	-0.138	-0.067
-319.041	-63.503	-0.348	-0.142
-318.026	-200.000	-0.015	0.295
-317.012	40.555	0.155	0.139
-315.997	-122.093	0.291	-0.047
-314.983	800.000	0.049	-0.170
-313.968	362.931	-0.034	0.067
-312.953	-142.807	-0.504	-0.049
-311.939	-167.330	0.337	0.014
-310.924	-200.000	-0.008	-0.120
-309.910	-127.859	-0.160	-0.023
-308.895	675.918	0.036	0.094
-307.880	70.844	0.205	0.211
-306.866	-45.111	-0.124	0.061
-305.851	800.000	-0.054	-0.231
-304.837	27.181	0.213	-0.178
-303.822	-30.127	-0.059	0.033
-302.807	-62.505	-0.167	0.069
-301.793	-37.954	-0.178	0.094
-300.778	237.099	-0.213	-0.351
-299.764	238.285	-0.085	-0.141
-298.749	250.601	0.117	0.198
-297.735	-200.000	0.010	0.314
-296.720	-200.000	0.080	-0.448
-295.705	-79.231	0.139	0.047
-294.691	136.777	-0.068	-0.089
-293.676	33.369	-0.228	-0.196
-292.662	-46.966	-0.305	-0.148
-291.647	414.439	-0.175	-0.370
-290.632	800.000	-0.020	-0.070
-289.618	-200.000	0.013	-0.297
-288.603	196.344	-0.189	-0.287
-287.589	-168.263	-0.112	-0.004
-286.574	-200.000	0.016	0.095
-285.559	175.808	0.230	-0.331
-284.545	107.119	-0.030	0.035
-283.530	800.000	-0.051	0.194
-282.516	25.333	-0.300	0.248
-281.501	-93.397	-0.171	-0.047
-280.486	11.349	-0.041	-0.031
-279.472	108.905	0.151	-0.179
-278.457	-102.958	-0.064	-0.015
-277.443	-62.995	0.232	0.095
-276.428	-200.000	-0.022	0.095
-275.413	-42.724	-0.346	-0.175
-274.399	-27.302	0.203	-0.117
-273.384	-59.743	0.085	0.036
-272.370	633.037	-0.126	-0.318
-271.355	-26.929	-0.124	-0.072
-270.340	800.000	-0.043	0.176
-269.326	-200.000	0.057	0.298
-268.311	-7.879	-0.234	-0.157
-267.297	111.691	0.232	-0.279
-266.282	24.192	-0.075	-0.061
-265.267	70.291	0.317	0.326
-264.253	-190.799	-0.049	-0.001
-263.238	-26.790	-0.192	-0.111
-262.224	281.455	-0.061	0.108
-261.209	-200.000	0.025	0.369
-260.195	-44.149	0.416	-0.207
-259.180	-97.995	0.186	0.048
-258.165	106.001	0.151	0.178
-257.151	-200.000	0.009	-0.095
-256.136	-200.000	0.008	0.060
-255.122	-72.338	-0.190	0.070
-254.107	-200.000	-0.059	-0.305
-253.092	-63.567	0.328	-0.134
-252.078	498.447	0.097	-0.223
-251.063	79.197	0.028	-0.030
-250.049	-38.813	-0.459	0.240
-249.034	800.000	-0.057	-0.213
-248.019	313.084	0.163	-0.304
-247.005	-108.085	-0.171	-0.037
-245.990	263.095	0.084	0.145
-244.976	456.104	-0.047	-0.103
-243.961	84.644	0.263	-0.285
-242.946	104.787	-0.130	0.152
-241.932	800.000	-0.030	0.086
-240.917	-103.893	0.225	-0.052
-239.903	-115.977	-0.089	-0.016
-238.888	-86.600	0.403	-0.123
-237.873	9.020	0.178	-0.134
-236.859	800.000	0.038	0.140
-235.844	-200.000	0.028	0.401
-234.830	-48.540	0.150	0.072
-233.815	-72.483	-0.039	0.014
-232.800	-163.111	-0.403	-0.019
-231.786	150.156	-0.140	-0.188
-230.771	366.139	0.079	0.158
-229.757	-200.000	0.006	0.489
-228.742	80.059	0.077	0.082
-227.727	103.858	0.312	-0.364
-226.713	185.575	-0.212	-0.313
-225.698	-200.000	-0.001	-0.297
-224.684	-121.593	-0.318	-0.052
-223.669	-42.191	0.198	-0.101
-222.655	19.729	-0.254	0.203
-221.640	348.966	-0.172	0.337
-220.625	-200.000	0.015	-0.267
-219.611	28.522	0.321	-0.269
-218.596	-200.000	0.005	0.089
-217.582	177.458	0.098	0.142
-216.567	-20.473	0.360	0.219
-215.552	72.810	-0.066	0.068
-214.538	-145.263	0.027	0.002
-213.523	196.626	0.145	-0.218
-212.509	-29.151	-0.096	-0.055
-211.494	-80.285	0.103	0.034
-210.479	88.665	-0.109	-0.120
-209.465	-200.000	-0.040	0.275
-208.450	117.769	0.165	0.202
-207.436	-27.959	-0.041	-0.023
-206.421	-110.124	-0.269	-0.056
-205.406	-71.150	0.356	0.133
-204.392	-126.562	0.112	0.016
-203.377	-135.392	0.310	0.037
-202.363	439.410	-0.119	-0.258
-201.348	38.009	-0.083	-0.073
-200.333	800.000	-0.084	-0.251
-199.319	800.000	-0.076	-0.236
-198.304	-141.099	-0.159	-0.016
-197.290	-200.000	0.047	-0.339
-196.275	174.902	-0.069	-0.099
-195.260	-151.715	0.087	0.006
-194.246	4.506	-0.074	-0.054
-193.231	441.110	0.034	-0.073
-192.217	-61.883	0.108	-0.045
-191.202	290.247	0.149	0.268
-190.187	-200.000	0.019	0.087
-189.173	-99.447	-0.294	0.073
-188.158	137.640	0.132	0.172
-187.144	-102.146	0.128	0.030
-186.129	800.000	-0.024	0.076
-185.114	68.755	0.043	-0.043
-184.100	178.248	-0.140	-0.202
-183.085	112.906	0.251	0.301
-182.071	-81.785	0.068	0.022
-181.056	-143.844	0.405	-0.038
-180.042	800.000	0.064	0.178
-179.027	-200.000	0.067	0.420
-178.012	-125.020	-0.020	-0.003
-176.998	-200.000	-0.027	0.153
-175.983	51.095	-0.053	0.050
-174.969	-200.000	-0.027	0.208
-173.954	-200.000	-0.013	-0.295
-172.939	119.255	-0.131	0.161
-171.925	-67.814	0.309	0.120
-170.910	-47.827	0.053	-0.026
-169.896	-200.000	0.005	0.083
-168.881	-200.000	-0.012	0.354
-167.866	238.144	0.104	0.170
-166.852	-52.055	0.083	0.038
-165.837	230.629	-0.141	-0.229
-164.823	-73.655	-0.187	-0.068
-163.808	314.936	-0.148	-0.275
-162.793	322.643	0.137	-0.259
-161.779	800.000	0.073	-0.213
-160.764	-200.000	0.037	0.284
-159.750	800.000	-0.108	0.321
-158.735	-9.931	0.072	0.047
-157.720	39.689	-0.086	-0.076
-156.706	137.420	0.102	0.132
-155.691	106.601	0.292	0.342
-154.677	4.817	-0.317	0.230
-153.662	364.873	-0.056	-0.111
-152.647	-80.523	-0.124	0.041
-151.633	197.729	0.241	-0.364
-150.618	122.018	0.099	0.122
-149.604	-123.592	-0.245	0.038
-148.589	-61.105	0.267	-0.112
-147.574	81.728	-0.063	0.068
-146.560	127.049	-0.082	0.102
-145.545	4.219	0.063	0.046
-144.531	0.643	0.192	-0.136
-143.516	-85.111	-0.278	0.086
-142.502	-200.000	-0.018	0.142
-141.487	-93.613	-0.100	-0.027
-140.472	90.010	-0.176	0.194
-139.458	209.047	0.057	0.088
-138.443	-90.297	0.375	-0.108
-137.429	35.786	-0.151	0.132
-136.414	755.015	0.079	0.212
-135.399	304.867	-0.170	0.311
-134.385	-59.825	0.200	-0.084
-133.370	16.339	-0.027	0.021
-132.356	0.765	0.081	-0.057
-131.341	-73.238	0.155	0.056
-130.326	-67.772	0.136	-0.052
-129.312	-200.000	0.025	-0.302
-128.297	-90.001	0.355	-0.102
-127.283	44.879	0.107	0.097
-126.268	-200.000	-0.007	-0.082
-125.253	-200.000	-0.215	-0.001
-124.239	326.655	0.055	-0.104
-123.224	-200.000	-0.067	0.290
-122.210	-117.848	0.118	0.021
-121.195	-101.093	0.188	-0.045
