DTS Sentinel unit serial number:	SN413079Multiplexer serial number:	ORYXHardware model number:	OX4-SRSoftware version number:	ORYX F/W v4.00 Oryx Data Collector v3.7.2.0data status	okinstallation	princeton_trtdifferential loss correction	single-endedforward channel	channel 4reverse channel	N/Adate	2019/09/15time	00:53:35forward acquisition time	60.00reverse acquisition time	0.00gamma	496.2192k internal	0.2307k external	0.2307temperature offset calibration	1.0041default loss term (dB/km)	0.3790temperature slope calibration	1.0000multiplexer offset coefficient	1.0000multiplexer slope coefficient	1.0000fibre end	0.00T internal ref (°C)	32.05T ext. ref 1 (°C)	4.56T ext. ref 2 (°C)	26.95length (m)	temperature (°C)	Stokes	anti-Stokes-747.200	-121.628	-0.100	0.017
-746.185	-200.000	-0.039	0.239
-745.171	-140.935	0.382	0.040
-744.156	-28.273	0.219	0.128
-743.142	23.715	-0.163	0.136
-742.127	168.008	-0.134	-0.194
-741.112	-141.275	-0.197	-0.020
-740.098	-200.000	-0.017	-0.221
-739.083	586.397	0.126	0.316
-738.069	-200.000	-0.019	0.575
-737.054	-98.341	-0.147	-0.038
-736.039	800.000	0.108	-0.392
-735.025	-54.587	0.178	-0.082
-734.010	299.874	0.070	0.131
-732.996	443.308	0.082	0.182
-731.981	800.000	0.085	-0.322
-730.966	-23.464	-0.112	0.068
-729.952	800.000	0.090	-0.319
-728.937	-9.188	-0.072	0.049
-727.923	490.290	0.049	0.114
-726.908	143.821	0.092	0.125
-725.894	-167.367	-0.288	-0.012
-724.879	-200.000	0.006	-0.165
-723.864	-55.779	-0.321	0.146
-722.850	-140.511	-0.287	0.030
-721.835	-56.682	-0.187	0.084
-720.821	-30.110	-0.109	-0.063
-719.806	-200.000	-0.046	0.275
-718.791	-35.515	0.111	0.061
-717.777	28.716	-0.175	0.150
-716.762	-34.313	-0.034	-0.019
-715.748	280.981	-0.215	-0.391
-714.733	-133.455	-0.047	-0.006
-713.718	-200.000	-0.017	-0.196
-712.704	384.482	-0.098	-0.206
-711.689	626.759	-0.161	0.412
-710.675	-180.191	-0.372	-0.008
-709.660	-144.903	0.376	-0.035
-708.645	-26.875	-0.192	-0.114
-707.631	-200.000	0.020	0.265
-706.616	-200.000	0.119	0.601
-705.602	132.618	-0.097	0.127
-704.587	207.801	0.172	-0.272
-703.572	-27.035	-0.069	0.041
-702.558	-200.000	0.011	0.099
-701.543	229.165	-0.134	0.222
-700.529	-36.629	-0.137	-0.075
-699.514	119.094	0.085	-0.106
-698.499	-111.861	-0.245	0.050
-697.485	-102.421	-0.182	0.044
-696.470	-38.528	-0.164	-0.088
-695.456	-200.000	0.003	0.161
-694.441	-67.508	0.208	-0.083
-693.426	-182.692	-0.204	-0.004
-692.412	410.581	-0.202	0.435
-691.397	-52.046	-0.103	-0.048
-690.383	257.190	-0.052	0.090
-689.368	296.072	-0.098	-0.183
-688.354	-87.795	-0.230	-0.070
-687.339	-200.000	-0.201	0.001
-686.324	61.782	-0.072	-0.072
-685.310	144.799	-0.223	-0.302
-684.295	-0.846	0.209	0.150
-683.281	417.815	-0.061	0.132
-682.266	148.173	-0.136	0.186
-681.251	-112.230	0.140	0.028
-680.237	102.036	0.061	-0.072
-679.222	800.000	0.107	-0.329
-678.208	-130.233	-0.136	0.019
-677.193	-109.862	-0.185	0.039
-676.178	85.565	0.103	-0.115
-675.164	-200.000	0.052	-0.341
-674.149	-64.401	0.119	0.049
-673.135	7.011	-0.095	-0.072
-672.120	-74.529	0.210	0.077
-671.105	-37.453	-0.197	-0.106
-670.091	674.357	-0.100	0.262
-669.076	6.000	-0.060	0.045
-668.062	229.231	0.077	-0.128
-667.047	-109.260	-0.226	-0.049
-666.032	-200.000	0.016	0.145
-665.018	19.465	-0.195	0.159
-664.003	46.293	0.252	-0.237
-662.989	30.766	-0.147	-0.128
-661.974	-149.690	0.397	-0.032
-660.959	62.074	-0.207	-0.209
-659.945	-200.000	-0.050	-0.276
-658.930	-200.000	-0.009	-0.218
-657.916	305.552	0.113	-0.212
-656.901	-60.637	-0.198	-0.085
-655.886	-17.034	0.110	-0.070
-654.872	-5.041	0.094	-0.065
-653.857	712.744	-0.100	0.269
-652.843	-200.000	-0.001	0.107
-651.828	-200.000	0.041	-0.277
-650.814	-65.869	-0.360	-0.146
-649.799	163.259	0.067	0.095
-648.784	30.478	0.223	0.194
-647.770	-66.291	-0.365	-0.147
-646.755	-200.000	0.036	-0.243
-645.741	-35.297	0.261	-0.144
-644.726	-29.212	0.150	0.087
-643.711	528.768	0.087	0.207
-642.697	-85.609	-0.543	0.171
-641.682	800.000	0.057	0.162
-640.668	-200.000	0.015	0.076
-639.653	3.304	0.130	-0.096
-638.638	-108.888	0.268	0.058
-637.624	-135.858	-0.182	0.022
-636.609	136.864	-0.081	-0.108
-635.595	67.642	-0.076	0.079
-634.580	-102.347	-0.180	0.044
-633.565	-200.000	0.038	0.182
-632.551	-35.484	-0.246	-0.135
-631.536	345.513	-0.175	0.348
-630.522	84.818	0.085	-0.094
-629.507	370.056	-0.100	0.204
-628.492	-200.000	0.017	0.126
-627.478	-173.331	0.122	0.004
-626.463	-200.000	-0.007	-0.166
-625.449	-72.494	-0.339	0.127
-624.434	800.000	-0.046	-0.150
-623.419	152.069	-0.052	-0.072
-622.405	-94.074	0.290	-0.080
-621.390	-200.000	0.047	0.240
-620.376	-200.000	0.017	0.109
-619.361	-200.000	0.013	0.080
-618.346	86.634	0.191	-0.213
-617.332	75.560	0.171	0.183
-616.317	-200.000	0.008	0.183
-615.303	181.553	-0.179	-0.266
-614.288	122.927	-0.177	0.224
-613.273	-80.881	-0.162	0.054
-612.259	24.421	0.154	0.129
-611.244	-200.000	0.072	-0.331
-610.230	66.061	-0.219	-0.224
-609.215	800.000	0.140	-0.498
-608.201	76.753	-0.245	-0.263
-607.186	-200.000	0.018	0.085
-606.171	483.701	0.094	0.217
-605.157	338.810	0.035	-0.069
-604.142	-134.047	0.111	0.014
-603.128	263.941	-0.026	-0.046
-602.113	-200.000	0.016	-0.269
-601.098	-200.000	0.024	0.216
-600.084	-192.293	0.211	0.002
-599.069	-180.164	-0.288	0.006
-598.055	47.860	0.200	-0.189
-597.040	-56.501	0.102	0.046
-596.025	-94.957	-0.205	0.056
-595.011	-162.773	0.290	-0.014
-593.996	223.172	0.143	0.233
-592.982	-200.000	-0.007	0.155
-591.967	-19.087	-0.179	-0.113
-590.952	-78.437	-0.312	-0.108
-589.938	577.843	0.106	0.262
-588.923	-108.198	-0.116	0.025
-587.909	-56.601	0.169	-0.076
-586.894	234.288	-0.040	0.066
-585.879	141.817	0.036	0.048
-584.865	800.000	0.123	0.490
-583.850	-104.727	-0.059	0.014
-582.836	-43.399	0.214	-0.109
-581.821	40.388	0.139	0.127
-580.806	800.000	0.105	-0.307
-579.792	-28.000	0.246	0.144
-578.777	107.296	-0.096	0.115
-577.763	73.725	0.202	0.214
-576.748	22.386	0.174	-0.144
-575.733	-45.081	0.266	-0.134
-574.719	-175.183	-0.088	-0.002
-573.704	-200.000	0.015	0.271
-572.690	-48.142	-0.190	-0.093
-571.675	-196.896	-0.284	0.002
-570.661	117.648	0.029	-0.037
-569.646	17.966	0.054	0.043
-568.631	66.104	0.089	0.091
-567.617	-102.548	0.130	-0.031
-566.602	-166.357	-0.235	0.010
-565.588	-143.797	0.232	0.022
-564.573	800.000	-0.046	0.191
-563.558	34.184	-0.167	0.147
-562.544	-111.937	-0.272	0.055
-561.529	-163.669	-0.071	0.003
-560.515	68.382	-0.128	-0.133
-559.500	-6.781	-0.241	0.165
-558.485	369.765	-0.112	-0.228
-557.471	-135.754	0.218	-0.026
-556.456	12.283	0.134	-0.104
-555.442	800.000	0.121	0.395
-554.427	-98.921	0.176	0.045
-553.412	270.936	0.132	-0.235
-552.398	-34.233	-0.129	0.071
-551.383	-200.000	-0.003	-0.080
-550.369	-145.152	-0.200	-0.018
-549.354	-200.000	0.009	0.060
-548.339	-120.306	-0.208	-0.036
-547.325	-131.472	0.373	-0.050
-546.310	279.315	-0.134	-0.242
-545.296	-110.854	0.268	0.056
-544.281	-137.065	-0.233	0.027
-543.266	251.267	-0.182	-0.312
-542.252	156.011	0.226	-0.315
-541.237	-200.000	-0.006	-0.283
-540.223	-97.368	-0.292	-0.077
-539.208	-129.838	0.278	-0.039
-538.193	800.000	0.059	0.167
-537.179	-73.045	0.144	-0.053
-536.164	800.000	-0.129	-0.406
-535.150	-54.690	0.141	-0.064
-534.135	-200.000	0.004	0.021
-533.121	78.566	0.199	-0.215
-532.106	281.407	0.083	-0.149
-531.091	439.972	-0.086	-0.189
-530.077	114.621	0.050	-0.061
-529.062	101.566	-0.168	0.197
-528.048	2.250	0.201	0.146
-527.033	-151.733	0.129	0.010
-526.018	-46.320	0.407	-0.202
-525.004	536.937	-0.074	-0.178
-523.989	-50.160	-0.157	-0.075
-522.975	38.577	0.096	-0.086
-521.960	173.599	-0.052	0.076
-520.945	-10.662	0.267	-0.178
-519.931	152.124	-0.055	-0.076
-518.916	98.646	0.152	-0.177
-517.902	-200.000	-0.016	0.160
-516.887	16.888	-0.108	0.086
-515.872	440.536	-0.127	0.280
-514.858	60.514	-0.127	0.127
-513.843	44.574	0.160	-0.148
-512.829	256.894	0.088	-0.153
-511.814	-159.322	0.137	0.008
-510.799	-155.999	0.226	-0.014
-509.785	356.931	0.117	-0.235
-508.770	-30.117	0.118	0.068
-507.756	374.269	0.104	-0.212
-506.741	-55.403	-0.185	0.084
-505.726	-200.000	-0.019	0.097
-504.712	49.295	-0.120	0.114
-503.697	-200.000	-0.010	-0.153
-502.683	12.226	-0.118	-0.091
-501.668	-200.000	-0.081	0.362
-500.653	-44.390	-0.125	-0.063
-499.639	128.291	-0.100	-0.128
-498.624	723.352	0.057	-0.152
-497.610	305.483	-0.067	0.125
-496.595	16.331	0.076	0.060
-495.581	459.118	-0.168	0.377
-494.566	-44.385	-0.111	-0.056
-493.551	57.077	0.145	-0.143
-492.537	-39.787	0.088	-0.046
-491.522	800.000	-0.037	0.132
-490.508	-49.569	0.213	-0.102
-489.493	-200.000	0.020	-0.374
-488.478	-200.000	-0.005	0.151
-487.464	-181.325	0.219	0.004
-486.449	800.000	-0.059	-0.169
-485.435	-49.158	0.258	-0.124
-484.420	-136.029	-0.183	-0.022
-483.405	-72.990	-0.209	0.077
-482.391	-74.582	-0.180	-0.065
-481.376	-92.123	-0.428	-0.122
-480.362	800.000	-0.179	-0.502
-479.347	559.973	0.131	0.318
-478.332	-18.186	-0.252	0.159
-477.318	51.952	-0.334	-0.320
-476.303	20.391	-0.153	-0.125
-475.289	86.674	-0.172	0.191
-474.274	-200.000	0.001	0.325
-473.259	-75.292	-0.355	-0.127
-472.245	-7.426	-0.076	-0.052
-471.230	-158.067	-0.227	0.013
-470.216	-200.000	-0.011	-0.088
-469.201	-200.000	0.015	-0.085
-468.186	-47.545	0.248	-0.121
-467.172	55.970	-0.260	0.254
-466.157	-200.000	-0.014	-0.123
-465.143	-186.655	-0.244	0.003
-464.128	59.065	-0.286	-0.283
-463.113	-65.821	-0.376	-0.151
-462.099	194.742	-0.255	0.389
-461.084	796.116	0.063	0.175
-460.070	76.827	0.255	0.272
-459.055	-200.000	0.001	-0.298
-458.040	-45.060	0.167	0.084
-457.026	93.663	0.114	-0.130
-456.011	-76.849	0.211	0.074
-454.997	-200.000	-0.037	-0.342
-453.982	100.113	-0.159	0.185
-452.968	110.548	-0.087	-0.106
-451.953	-121.172	-0.229	-0.039
-450.938	17.282	-0.173	0.138
-449.924	-66.183	0.074	-0.030
-448.909	258.756	-0.141	-0.245
-447.895	-111.201	0.256	-0.053
-446.880	365.798	0.118	0.240
-445.865	-200.000	0.018	0.101
-444.851	-200.000	-0.053	-0.392
-443.836	-6.127	0.073	0.050
-442.822	800.000	0.089	0.352
-441.807	-200.000	0.036	0.301
-440.792	-136.653	-0.150	0.017
-439.778	307.999	0.027	0.050
-438.763	-200.000	0.027	-0.206
-437.749	-200.000	0.006	-0.239
-436.734	-87.115	-0.101	0.031
-435.719	3.509	-0.139	0.102
-434.705	-70.659	-0.116	0.044
-433.690	-200.000	-0.001	-0.052
-432.676	-95.704	0.450	-0.121
-431.661	800.000	-0.077	0.215
-430.646	-116.647	-0.155	0.029
-429.632	39.518	-0.110	-0.099
-428.617	800.000	-0.063	-0.243
-427.603	-200.000	-0.030	-0.162
-426.588	-39.316	-0.237	-0.125
-425.573	203.850	0.032	0.049
-424.559	-200.000	0.024	-0.152
-423.544	-68.686	-0.323	0.125
-422.530	-153.374	0.238	0.017
-421.515	738.998	-0.134	0.362
-420.500	-200.000	-0.009	0.346
-419.486	-200.000	0.001	-0.075
-418.471	-156.922	0.338	0.021
-417.457	-3.926	-0.133	0.093
-416.442	-41.500	-0.149	0.077
-415.428	-100.567	-0.189	0.047
-414.413	550.596	0.095	-0.229
-413.398	51.755	-0.207	0.197
-412.384	-115.116	-0.211	-0.040
-411.369	87.984	0.063	0.070
-410.355	-142.369	0.169	-0.017
-409.340	161.486	-0.093	0.131
-408.325	24.494	-0.119	-0.099
-407.311	233.680	0.054	-0.090
-406.296	-6.173	0.279	-0.191
-405.282	-131.835	-0.195	0.026
-404.267	757.573	0.049	0.133
-403.252	-63.085	0.223	0.092
-402.238	-59.324	0.207	0.089
-401.223	4.095	0.121	-0.089
-400.209	800.000	0.095	-0.353
-399.194	-79.856	0.308	0.104
-398.179	-200.000	-0.027	-0.167
-397.165	34.725	0.037	-0.032
-396.150	800.000	-0.104	-0.304
-395.136	8.071	0.205	-0.155
-394.121	-122.697	0.146	0.024
-393.106	-53.473	-0.316	0.145
-392.092	-133.223	-0.158	-0.020
-391.077	-123.138	-0.175	-0.028
-390.063	-114.431	-0.088	-0.017
-389.048	188.969	-0.030	-0.046
-388.033	43.318	-0.238	-0.218
-387.019	-71.401	-0.111	0.042
-386.004	26.182	0.130	-0.109
-384.990	-27.747	-0.133	-0.077
-383.975	168.314	0.158	-0.225
-382.960	142.829	0.045	0.059
-381.946	-106.876	0.169	0.038
-380.931	-138.244	-0.321	-0.036
-379.917	133.010	0.074	-0.095
-378.902	800.000	0.038	0.143
-377.888	283.327	0.028	-0.050
-376.873	-200.000	0.075	0.420
-375.858	-9.120	0.143	0.096
-374.844	-200.000	-0.045	-0.306
-373.829	-124.780	0.283	0.044
-372.815	800.000	0.069	0.226
-371.800	-200.000	-0.006	0.055
-370.785	-89.162	0.161	-0.048
-369.771	800.000	-0.016	0.043
-368.756	-200.000	-0.012	-0.249
-367.742	-85.407	-0.232	-0.073
-366.727	-200.000	-0.009	-0.196
-365.712	800.000	-0.072	0.233
-364.698	-11.156	0.269	0.178
-363.683	-153.373	-0.322	0.022
-362.669	393.872	0.095	-0.197
-361.654	800.000	0.112	0.463
-360.639	-126.528	0.078	0.012
-359.625	-46.149	-0.064	0.032
-358.610	189.164	0.060	0.090
-357.596	-56.097	0.273	-0.122
-356.581	-100.621	-0.312	0.077
-355.566	800.000	0.070	-0.202
-354.552	799.445	0.060	-0.167
-353.537	-200.000	0.020	0.194
-352.523	9.854	-0.162	-0.123
-351.508	-87.382	0.115	-0.035
-350.493	160.623	-0.104	0.146
-349.479	60.213	-0.110	0.109
-348.464	61.445	-0.240	-0.239
-347.450	139.390	0.200	0.263
-346.435	211.978	-0.109	-0.172
-345.420	588.198	0.027	0.066
-344.406	33.085	-0.248	0.216
-343.391	-96.500	0.393	-0.104
-342.377	-90.046	0.094	-0.027
-341.362	-23.065	0.064	0.039
-340.348	-55.840	0.381	0.170
-339.333	800.000	0.025	0.090
-338.318	-140.398	-0.099	0.010
-337.304	20.181	-0.195	0.157
-336.289	-200.000	0.024	0.225
-335.275	-68.380	0.274	0.106
-334.260	-1.586	-0.326	-0.230
-333.245	-0.862	0.154	-0.109
-332.231	800.000	0.067	-0.291
-331.216	800.000	0.067	0.222
-330.202	48.012	0.110	0.103
-329.187	167.153	0.131	-0.186
-328.172	23.287	0.262	-0.215
-327.158	-15.300	0.270	0.173
-326.143	-58.430	-0.095	-0.041
-325.129	-116.034	0.375	0.070
-324.114	-150.376	0.300	0.023
-323.099	-84.017	-0.268	0.085
-322.085	-15.992	0.503	0.320
-321.070	187.296	-0.139	-0.207
-320.056	-4.276	-0.035	0.025
-319.041	-200.000	0.018	-0.142
-318.026	-200.000	0.018	-0.227
-317.012	43.786	-0.179	-0.164
-315.997	269.217	0.146	0.257
-314.983	-168.601	-0.266	0.010
-313.968	800.000	-0.059	-0.171
-312.953	-22.796	0.179	-0.108
-311.939	712.267	-0.059	0.158
-310.924	157.829	-0.093	0.129
-309.910	-200.000	0.002	0.022
-308.895	-200.000	0.016	-0.192
-307.880	-200.000	0.063	-0.449
-306.866	318.218	-0.207	0.392
-305.851	20.678	0.061	0.049
-304.837	-54.060	-0.335	-0.152
-303.822	800.000	0.077	-0.217
-302.807	18.897	0.162	0.130
-301.793	-200.000	-0.000	0.293
-300.778	51.156	-0.255	0.242
-299.764	669.883	-0.067	-0.173
-298.749	648.216	0.116	-0.295
-297.735	-2.785	-0.333	-0.233
-296.720	-200.000	-0.041	0.300
-295.705	219.467	0.080	0.127
-294.691	-72.333	-0.439	0.163
-293.676	-123.843	-0.073	-0.011
-292.662	107.849	-0.128	-0.152
-291.647	585.094	0.077	-0.190
-290.632	-200.000	-0.077	0.577
-289.618	-103.320	-0.212	-0.050
-288.603	-128.956	-0.142	0.020
-287.589	374.111	0.086	0.175
-286.574	-143.128	0.064	0.006
-285.559	157.715	-0.103	-0.143
-284.545	-62.495	-0.093	-0.038
-283.530	800.000	-0.052	0.175
-282.516	-200.000	0.027	-0.255
-281.501	49.105	-0.182	0.170
-280.486	-200.000	-0.018	-0.087
-279.472	800.000	0.012	0.033
-278.457	-80.060	0.206	-0.069
-277.443	-139.677	-0.130	-0.014
-276.428	-200.000	-0.013	-0.124
-275.413	724.736	0.018	0.049
-274.399	-200.000	-0.011	0.053
-273.384	-200.000	-0.039	-0.222
-272.370	-190.949	-0.119	0.001
-271.355	294.753	0.116	-0.211
-270.340	-74.349	0.151	0.054
-269.326	-94.120	0.089	-0.024
-268.311	-200.000	0.011	0.128
-267.297	19.768	-0.096	0.077
-266.282	800.000	-0.078	0.248
-265.267	67.045	0.181	-0.184
-264.253	104.599	-0.284	-0.333
-263.238	800.000	0.042	0.126
-262.224	234.022	0.169	0.279
-261.209	294.068	0.129	-0.235
-260.195	-200.000	-0.003	-0.115
-259.180	170.800	0.127	-0.181
-258.165	-200.000	0.047	0.260
-257.151	-77.526	0.268	0.093
-256.136	444.127	0.042	-0.093
-255.122	56.933	0.161	-0.157
-254.107	452.425	-0.120	-0.264
-253.092	-154.773	-0.207	-0.014
-252.078	-134.315	0.125	0.015
-251.063	78.260	-0.143	0.152
-250.049	-152.716	0.126	0.009
-249.034	800.000	0.070	-0.231
-248.019	85.011	-0.144	-0.158
-247.005	800.000	0.025	-0.092
-245.990	548.507	-0.180	0.430
-244.976	800.000	0.073	0.239
-243.961	-60.121	-0.142	0.060
-242.946	-8.134	-0.071	-0.048
-241.932	800.000	0.044	0.186
-240.917	87.231	-0.266	-0.293
-239.903	-27.790	0.098	-0.056
-238.888	18.902	-0.075	0.060
-237.873	-48.115	0.212	0.102
-236.859	30.567	-0.152	-0.129
-235.844	800.000	-0.111	0.323
-234.830	-108.832	-0.142	0.030
-233.815	-165.566	-0.211	-0.009
-232.800	-133.710	-0.149	0.018
-231.786	611.597	-0.062	0.154
-230.771	-127.112	-0.278	-0.041
-229.757	-88.754	-0.200	-0.059
-228.742	-135.711	-0.205	-0.024
-227.727	178.156	0.059	0.086
-226.713	800.000	-0.065	-0.220
-225.698	-86.822	0.321	-0.098
-224.684	291.070	-0.272	0.493
-223.669	-74.563	0.486	0.174
-222.655	62.225	0.136	-0.135
-221.640	31.819	0.130	0.112
-220.625	-116.264	-0.185	-0.034
-219.611	-199.727	0.186	0.001
-218.596	244.040	0.121	0.203
-217.582	-27.743	0.412	-0.238
-216.567	-200.000	0.031	-0.221
-215.552	148.443	0.165	0.222
-214.538	63.387	-0.098	0.098
-213.523	52.086	0.361	0.342
-212.509	175.512	0.115	-0.167
-211.494	-200.000	0.024	0.320
-210.479	133.447	-0.076	-0.098
-209.465	209.135	0.080	-0.124
-208.450	154.532	0.152	0.209
-207.436	24.622	0.041	0.033
-206.421	-200.000	0.023	0.209
-205.406	-62.625	0.122	0.050
-204.392	193.865	0.208	0.313
-203.377	9.613	-0.056	0.042
-202.363	-200.000	-0.025	-0.263
-201.348	-128.860	0.229	-0.032
-200.333	-87.515	0.243	0.073
-199.319	-12.742	-0.114	-0.074
-198.304	-180.864	-0.314	0.006
-197.290	714.736	0.110	0.290
-196.275	293.180	0.188	0.341
-195.260	-144.786	-0.196	-0.018
-194.246	-64.838	0.241	-0.097
-193.231	-97.802	0.252	0.065
-192.217	-109.175	-0.279	0.059
-191.202	-97.846	-0.031	-0.008
-190.187	-200.000	-0.037	-0.321
-189.173	100.728	-0.154	-0.178
-188.158	-97.863	-0.044	0.011
-187.144	259.850	-0.084	-0.144
-186.129	399.079	0.048	-0.100
-185.114	474.162	-0.088	0.196
-184.100	46.433	-0.172	0.159
-183.085	-98.750	-0.066	-0.017
-182.071	-200.000	0.005	0.141
-181.056	153.186	0.217	0.295
-180.042	235.903	-0.068	0.112
-179.027	-200.000	-0.083	-0.474
-178.012	-200.000	-0.020	0.097
-176.998	268.063	0.110	-0.191
-175.983	-200.000	-0.030	-0.239
-174.969	-200.000	0.060	-0.366
-173.954	-149.383	-0.218	-0.017
-172.939	-74.906	-0.201	-0.072
-171.925	-200.000	0.064	0.300
-170.910	-200.000	0.018	0.285
-169.896	-80.568	0.343	-0.114
-168.881	117.942	0.296	-0.363
-167.866	800.000	-0.144	0.429
-166.852	-200.000	-0.003	0.259
-165.837	-74.258	0.118	0.042
-164.823	129.502	-0.028	0.036
-163.808	-29.765	-0.183	-0.104
-162.793	-65.909	0.240	-0.096
-161.779	-144.880	-0.072	-0.007
-160.764	-111.083	-0.237	-0.048
-159.750	-24.935	-0.248	0.146
-158.735	800.000	0.022	-0.088
-157.720	800.000	0.065	-0.262
-156.706	-69.289	0.283	0.108
-155.691	800.000	0.037	0.115
-154.677	-62.257	0.128	-0.053
-153.662	-118.940	0.265	0.046
-152.647	-162.281	0.259	-0.013
-151.633	127.399	-0.092	0.115
-150.618	583.179	-0.111	-0.271
-149.604	30.635	-0.061	-0.052
-148.589	800.000	-0.092	0.360
-147.574	800.000	-0.025	-0.100
-146.560	-200.000	-0.006	-0.344
-145.545	79.658	0.159	0.169
-144.531	800.000	-0.015	-0.060
-143.516	-70.139	0.305	-0.115
-142.502	-11.334	0.330	0.216
-141.487	-200.000	-0.000	-0.108
-140.472	800.000	-0.024	-0.096
-139.458	-48.189	0.183	-0.088
-138.443	-0.977	0.078	0.055
-137.429	113.874	0.032	-0.039
-136.414	-200.000	0.017	-0.240
-135.399	-85.566	0.058	-0.018
-134.385	800.000	0.047	0.192
-133.370	-102.797	-0.208	-0.049
-132.356	54.967	0.112	0.107
-131.341	86.792	0.133	0.146
-130.326	-123.894	0.121	-0.019
-129.312	252.770	0.067	-0.113
-128.297	-200.000	-0.013	0.106
-127.283	-120.260	-0.160	-0.027
-126.268	-200.000	-0.002	-0.077
-125.253	758.251	-0.125	0.335
-124.239	-200.000	0.013	0.121
-123.224	190.603	-0.225	-0.335
-122.210	-200.000	0.043	-0.202
