DTS Sentinel unit serial number:	SN413079Multiplexer serial number:	ORYXHardware model number:	OX4-SRSoftware version number:	ORYX F/W v4.00 Oryx Data Collector v3.7.2.0data status	okinstallation	princeton_trtdifferential loss correction	single-endedforward channel	channel 4reverse channel	N/Adate	2019/09/17time	09:41:35forward acquisition time	60.00reverse acquisition time	0.00gamma	496.2192k internal	0.2311k external	0.2311temperature offset calibration	0.9977default loss term (dB/km)	0.3790temperature slope calibration	1.0000multiplexer offset coefficient	1.0000multiplexer slope coefficient	1.0000fibre end	0.00T internal ref (°C)	29.25T ext. ref 1 (°C)	0.15T ext. ref 2 (°C)	25.40length (m)	temperature (°C)	Stokes	anti-Stokes-747.200	38.426	-0.240	-0.217
-746.185	-200.000	0.026	0.245
-745.171	-88.393	0.236	0.072
-744.156	-200.000	-0.001	0.370
-743.142	-200.000	0.002	0.466
-742.127	143.298	-0.197	0.266
-741.112	123.420	-0.236	0.300
-740.098	766.269	0.114	0.316
-739.083	-200.000	0.002	0.024
-738.069	160.773	-0.098	-0.139
-737.054	113.683	-0.045	-0.056
-736.039	-102.774	0.015	0.004
-735.025	79.171	0.235	0.255
-734.010	800.000	0.033	-0.120
-732.996	-138.577	0.201	-0.022
-731.981	800.000	-0.031	0.099
-730.966	40.210	-0.239	0.218
-729.952	-141.488	-0.227	-0.023
-728.937	800.000	0.023	-0.077
-727.923	800.000	-0.028	-0.089
-726.908	-57.715	-0.227	0.101
-725.894	-63.144	-0.170	-0.071
-724.879	-36.936	-0.217	0.118
-723.864	-37.542	-0.148	-0.080
-722.850	-20.180	-0.207	-0.129
-721.835	-200.000	-0.016	-0.097
-720.821	-200.000	0.034	0.208
-719.806	-104.473	0.397	-0.093
-718.791	-123.592	-0.180	0.029
-717.777	191.936	-0.037	-0.057
-716.762	-149.486	-0.195	-0.016
-715.748	-200.000	-0.003	0.198
-714.733	-70.454	0.314	0.121
-713.718	800.000	0.094	-0.318
-712.704	-48.427	-0.100	0.049
-711.689	159.589	-0.003	-0.004
-710.675	-98.466	0.128	0.033
-709.660	-27.817	-0.167	-0.098
-708.645	-200.000	0.038	0.182
-707.631	-97.387	-0.111	0.029
-706.616	135.911	-0.150	-0.199
-705.602	10.532	-0.090	0.070
-704.587	800.000	0.085	-0.285
-703.572	-200.000	0.000	-0.055
-702.558	65.356	-0.118	-0.121
-701.543	800.000	0.115	-0.412
-700.529	-16.929	-0.314	0.201
-699.514	-73.622	0.206	-0.076
-698.499	-200.000	-0.007	-0.071
-697.485	64.568	0.163	-0.167
-696.470	-33.629	-0.162	0.090
-695.456	-200.000	-0.012	-0.155
-694.441	100.685	0.238	0.280
-693.426	8.462	0.128	-0.098
-692.412	379.620	-0.130	-0.270
-691.397	406.082	-0.046	-0.099
-690.383	361.581	-0.097	-0.197
-689.368	-25.213	-0.362	0.217
-688.354	-139.215	-0.336	0.037
-687.339	-95.741	0.275	0.075
-686.324	-116.115	0.095	0.018
-685.310	800.000	-0.117	0.343
-684.295	-200.000	-0.049	0.306
-683.281	51.910	-0.122	-0.118
-682.266	2.342	-0.228	0.167
-681.251	94.994	0.049	-0.057
-680.237	-200.000	-0.025	0.122
-679.222	691.708	0.033	0.089
-678.208	101.458	0.165	0.195
-677.193	468.613	-0.052	0.117
-676.178	-87.224	-0.328	0.101
-675.164	-106.855	0.183	-0.041
-674.149	-114.788	-0.197	0.038
-673.135	85.634	0.319	-0.354
-672.120	564.644	-0.053	0.130
-671.105	-200.000	-0.045	-0.282
-670.091	177.174	0.278	0.410
-669.076	-141.883	0.094	0.009
-668.062	97.749	-0.125	0.145
-667.047	165.784	-0.134	0.192
-666.032	800.000	-0.047	-0.146
-665.018	150.019	-0.147	-0.202
-664.003	800.000	0.054	0.231
-662.989	-11.323	0.115	0.076
-661.974	-101.871	0.274	-0.067
-660.959	800.000	-0.029	0.096
-659.945	216.164	0.129	0.207
-658.930	-200.000	0.021	0.326
-657.916	108.313	0.044	-0.053
-656.901	-153.475	-0.361	-0.025
-655.886	-56.062	-0.086	-0.039
-654.872	800.000	0.089	-0.376
-653.857	800.000	0.059	-0.207
-652.843	-200.000	0.061	-0.415
-651.828	-200.000	0.003	-0.100
-650.814	95.118	-0.162	-0.186
-649.799	-133.746	-0.194	0.025
-648.784	130.356	0.236	-0.305
-647.770	800.000	0.034	0.119
-646.755	-200.000	0.039	0.218
-645.741	-200.000	-0.005	-0.313
-644.726	-200.000	0.004	0.087
-643.711	-2.418	0.168	-0.119
-642.697	370.315	0.025	0.051
-641.682	800.000	-0.039	0.132
-640.668	-180.158	-0.445	-0.009
-639.653	-177.282	-0.263	0.007
-638.638	68.849	-0.263	0.273
-637.624	-121.660	-0.392	0.066
-636.609	-85.263	0.299	0.094
-635.595	800.000	-0.064	-0.190
-634.580	-120.580	-0.215	0.037
-633.565	176.709	0.116	-0.170
-632.551	800.000	-0.137	0.385
-631.536	-125.281	-0.431	-0.067
-630.522	-159.147	-0.385	0.022
-629.507	-64.497	-0.321	-0.132
-628.492	-200.000	0.004	0.133
-627.478	196.484	-0.227	0.349
-626.463	-200.000	-0.028	0.182
-625.449	281.912	-0.043	0.078
-624.434	-200.000	0.040	-0.242
-623.419	-81.241	0.222	0.074
-622.405	-163.473	0.071	-0.003
-621.390	47.210	-0.339	-0.318
-620.376	-200.000	0.007	0.067
-619.361	363.353	-0.006	-0.013
-618.346	-200.000	-0.013	-0.430
-617.332	268.196	-0.088	0.156
-616.317	-87.182	0.059	-0.018
-615.303	-36.961	-0.209	-0.113
-614.288	-2.450	0.033	0.023
-613.273	-200.000	0.460	-0.001
-612.259	54.675	0.275	0.268
-611.244	-41.643	-0.154	0.080
-610.230	393.516	0.108	-0.227
-609.215	552.615	0.065	-0.158
-608.201	-83.314	-0.306	-0.099
-607.186	-8.178	-0.225	-0.153
-606.171	-143.111	-0.236	-0.023
-605.157	-137.726	-0.416	0.047
-604.142	267.685	-0.141	0.249
-603.128	-37.754	0.209	0.113
-602.113	-171.419	0.264	0.009
-601.098	256.230	0.141	-0.243
-600.084	-17.981	0.259	-0.164
-599.069	-86.017	0.169	0.053
-598.055	-153.291	0.328	0.023
-597.040	-136.424	0.443	-0.052
-596.025	800.000	0.019	0.070
-595.011	-200.000	0.008	0.396
-593.996	63.852	-0.162	0.164
-592.982	-200.000	0.009	0.186
-591.967	-32.927	0.215	-0.120
-590.952	261.541	0.171	0.299
-589.938	-200.000	-0.000	0.165
-588.923	-116.246	-0.048	0.009
-587.909	49.600	0.123	-0.117
-586.894	351.043	-0.183	-0.364
-585.879	439.483	0.090	-0.198
-584.865	35.939	0.093	-0.083
-583.850	-147.358	-0.326	0.028
-582.836	800.000	0.179	0.512
-581.821	-136.228	0.225	0.027
-580.806	127.308	-0.176	-0.225
-579.792	139.968	-0.029	0.038
-578.777	800.000	-0.106	-0.298
-577.763	-200.000	0.001	0.191
-576.748	800.000	-0.062	0.208
-575.733	29.432	-0.142	-0.121
-574.719	81.409	-0.212	0.231
-573.704	-200.000	0.001	-0.122
-572.690	-200.000	0.004	0.084
-571.675	28.271	0.124	0.106
-570.661	-51.581	0.318	0.149
-569.646	93.991	-0.298	0.341
-568.631	-52.426	0.265	-0.124
-567.617	-23.318	0.140	0.085
-566.602	49.615	0.146	0.139
-565.588	152.949	0.082	-0.113
-564.573	-106.467	0.290	0.065
-563.558	8.171	-0.094	-0.071
-562.544	98.337	-0.168	-0.195
-561.529	800.000	0.027	-0.100
-560.515	-200.000	0.016	-0.232
-559.500	-83.853	0.170	0.055
-558.485	126.510	-0.061	0.077
-557.471	235.593	-0.095	-0.158
-556.456	-101.562	0.419	-0.103
-555.442	1.202	0.143	0.103
-554.427	-200.000	0.002	-0.166
-553.412	-200.000	0.048	-0.237
-552.398	-9.700	-0.171	0.115
-551.383	-52.491	-0.235	-0.110
-550.369	50.205	-0.236	0.224
-549.354	234.960	0.101	-0.168
-548.339	339.339	0.213	-0.417
-547.325	-20.821	-0.182	0.113
-546.310	569.934	0.049	-0.120
-545.296	480.956	-0.056	-0.127
-544.281	171.922	-0.177	0.256
-543.266	-200.000	0.015	-0.110
-542.252	-197.761	-0.227	0.001
-541.237	-129.046	-0.143	0.020
-540.223	-87.176	-0.386	0.118
-539.208	-79.938	0.116	0.039
-538.193	696.766	0.039	0.104
-537.179	31.594	0.230	-0.199
-536.164	-116.571	-0.313	-0.058
-535.150	-10.899	0.174	0.115
-534.135	-200.000	-0.011	-0.309
-533.121	75.080	0.284	-0.301
-532.106	800.000	0.065	0.190
-531.091	-93.556	0.443	-0.123
-530.077	-179.282	-0.270	-0.006
-529.062	-127.096	0.313	0.046
-528.048	-1.587	-0.167	0.119
-527.033	-125.350	0.129	0.020
-526.018	265.487	-0.047	0.083
-525.004	-178.453	-0.063	0.001
-523.989	228.791	0.089	-0.146
-522.975	-200.000	-0.010	-0.367
-521.960	53.201	-0.141	0.136
-520.945	189.504	0.121	-0.182
-519.931	44.535	-0.064	0.059
-518.916	-160.440	0.181	0.010
-517.902	246.724	-0.088	-0.149
-516.887	-86.841	0.166	0.051
-515.872	-52.293	0.215	0.100
-514.858	-200.000	0.003	-0.184
-513.843	-200.000	0.023	0.124
-512.829	495.358	0.138	-0.320
-511.814	-200.000	0.012	-0.176
-510.799	-110.684	-0.127	-0.026
-509.785	800.000	-0.139	-0.431
-508.770	-56.872	0.088	-0.039
-507.756	32.263	-0.209	-0.181
-506.741	-200.000	0.045	0.213
-505.726	-200.000	0.009	0.259
-504.712	-116.550	-0.108	-0.020
-503.697	95.460	0.225	-0.258
-502.683	-200.000	0.014	-0.249
-501.668	478.643	0.109	-0.247
-500.653	-61.247	-0.105	-0.045
-499.639	5.061	0.285	0.211
-498.624	-176.741	0.237	-0.006
-497.610	44.924	0.119	-0.110
-496.595	-55.719	-0.051	0.023
-495.581	-200.000	0.002	-0.060
-494.566	-55.111	-0.426	-0.193
-493.551	127.117	-0.072	-0.091
-492.537	40.082	0.113	-0.102
-491.522	458.553	0.142	0.318
-490.508	88.498	-0.100	0.111
-489.493	163.342	-0.118	0.167
-488.478	-200.000	0.028	-0.233
-487.464	121.221	-0.197	0.246
-486.449	-200.000	0.015	0.091
-485.435	-200.000	-0.040	-0.255
-484.420	2.664	0.165	-0.120
-483.405	0.537	0.102	0.073
-482.391	-70.290	-0.042	0.016
-481.376	392.519	-0.105	0.219
-480.362	58.899	-0.127	0.126
-479.347	584.513	0.025	0.062
-478.332	-50.700	0.267	0.126
-477.318	-48.750	0.242	-0.116
-476.303	-152.617	-0.231	0.017
-475.289	-200.000	0.005	-0.315
-474.274	-128.488	0.207	0.029
-473.259	434.914	-0.154	0.337
-472.245	-169.078	-0.159	0.006
-471.230	-93.271	-0.030	0.009
-470.216	-200.000	-0.045	0.417
-469.201	32.549	-0.128	0.111
-468.186	0.377	-0.216	0.155
-467.172	-74.730	-0.263	0.095
-466.157	-200.000	0.096	0.442
-465.143	119.009	0.114	0.141
-464.128	393.384	0.131	-0.274
-463.113	364.318	-0.053	0.106
-462.099	800.000	-0.034	0.129
-461.084	-110.439	-0.046	0.010
-460.070	-91.032	0.374	0.108
-459.055	-123.865	0.344	-0.054
-458.040	633.440	-0.140	-0.355
-457.026	-200.000	0.055	-0.345
-456.011	-150.493	0.223	-0.017
-454.997	800.000	0.069	-0.251
-453.982	-87.742	-0.186	-0.056
-452.968	16.247	-0.080	-0.063
-451.953	-61.167	-0.290	0.123
-450.938	800.000	-0.030	-0.084
-449.924	-151.183	-0.069	-0.005
-448.909	-144.866	-0.102	0.009
-447.895	61.034	0.232	-0.231
-446.880	-200.000	0.021	0.123
-445.865	-200.000	-0.048	-0.314
-444.851	218.045	0.176	-0.282
-443.836	-127.586	-0.121	-0.018
-442.822	-61.210	-0.265	-0.112
-441.807	183.317	-0.234	-0.347
-440.792	-183.504	-0.108	-0.002
-439.778	-200.000	0.089	0.428
-438.763	632.802	-0.066	-0.168
-437.749	-200.000	-0.019	0.110
-436.734	250.767	-0.138	-0.236
-435.719	800.000	-0.046	0.185
-434.705	18.061	0.083	0.067
-433.690	-125.369	-0.246	0.038
-432.676	800.000	0.063	0.263
-431.661	-200.000	-0.009	-0.225
-430.646	62.488	0.302	-0.302
-429.632	800.000	-0.096	-0.321
-428.617	-110.467	-0.141	0.029
-427.603	-87.209	0.144	0.044
-426.588	-114.212	-0.269	-0.052
-425.573	-138.078	0.021	0.002
-424.559	-78.116	-0.184	-0.064
-423.544	202.452	-0.104	0.161
-422.530	-61.590	-0.088	0.037
-421.515	-18.707	0.312	0.195
-420.500	20.031	0.179	-0.145
-419.486	-200.000	-0.011	-0.347
-418.471	-200.000	0.015	-0.461
-417.457	127.918	0.321	-0.410
-416.442	-67.489	0.210	0.083
-415.428	36.536	0.284	-0.251
-414.413	800.000	-0.027	0.076
-413.398	-91.850	0.166	-0.047
-412.384	531.280	-0.042	0.099
-411.369	273.243	-0.044	0.078
-410.355	36.018	0.246	0.217
-409.340	574.919	0.071	0.173
-408.325	-105.729	-0.168	-0.038
-407.311	53.797	0.053	0.051
-406.296	-200.000	0.037	0.183
-405.282	-200.000	-0.023	0.186
-404.267	142.122	-0.072	-0.095
-403.252	-200.000	0.093	0.424
-402.238	-48.003	-0.163	-0.079
-401.223	13.429	0.282	0.219
-400.209	-123.829	-0.478	-0.076
-399.194	-147.604	0.100	-0.008
-398.179	-154.616	-0.212	0.014
-397.165	442.477	0.052	-0.113
-396.150	165.630	-0.204	0.289
-395.136	-200.000	0.018	-0.229
-394.121	-66.733	0.204	0.081
-393.106	-190.083	0.199	-0.002
-392.092	62.275	-0.061	0.061
-391.077	-200.000	-0.041	-0.332
-390.063	558.839	-0.026	-0.062
-389.048	109.363	-0.311	-0.373
-388.033	-145.853	0.194	-0.017
-387.019	800.000	-0.047	0.137
-386.004	-28.817	0.312	0.179
-384.990	257.849	0.154	-0.265
-383.975	-200.000	-0.023	0.298
-382.960	354.633	0.081	-0.162
-381.946	800.000	-0.121	0.376
-380.931	-120.891	0.199	-0.034
-379.917	-84.064	0.431	0.137
-378.902	-96.024	-0.182	0.048
-377.888	-64.988	0.121	0.049
-376.873	-86.122	-0.246	-0.076
-375.858	-19.477	-0.161	-0.100
-374.844	-200.000	-0.003	0.177
-373.829	-120.434	0.264	-0.045
-372.815	21.606	-0.178	0.145
-371.800	12.153	-0.116	0.089
-370.785	-53.165	-0.189	0.087
-369.771	800.000	-0.033	-0.134
-368.756	16.963	-0.128	-0.102
-367.742	-200.000	0.020	-0.362
-366.727	84.831	-0.118	0.130
-365.712	487.538	-0.067	0.152
-364.698	800.000	-0.040	0.150
-363.683	12.142	0.162	-0.125
-362.669	-64.320	-0.150	0.061
-361.654	-59.952	0.180	0.077
-360.639	-14.601	0.172	-0.110
-359.625	8.152	-0.070	0.052
-358.610	331.813	0.096	0.185
-357.596	123.345	-0.105	-0.131
-356.581	124.000	0.070	-0.088
-355.566	171.687	-0.127	0.183
-354.552	800.000	-0.078	0.299
-353.537	-15.445	0.283	0.180
-352.523	-160.114	-0.191	0.010
-351.508	172.497	0.057	-0.082
-350.493	-83.564	0.172	-0.055
-349.479	789.630	0.041	0.111
-348.464	800.000	0.194	0.543
-347.450	-200.000	0.010	0.305
-346.435	-200.000	0.027	-0.271
-345.420	-200.000	-0.004	0.067
-344.406	-20.395	0.369	0.227
-343.391	-125.100	0.065	0.010
-342.377	50.434	0.076	0.072
-341.362	130.936	-0.143	0.183
-340.348	41.065	0.068	0.061
-339.333	245.545	-0.080	-0.135
-338.318	97.132	0.180	0.206
-337.304	166.264	-0.145	-0.205
-336.289	-200.000	0.030	-0.222
-335.275	-35.645	-0.175	-0.095
-334.260	-200.000	0.019	0.484
-333.245	327.499	0.090	0.173
-332.231	91.416	0.116	-0.130
-331.216	777.752	-0.043	0.118
-330.202	752.804	0.050	0.134
-329.187	-200.000	-0.026	-0.159
-328.172	-200.000	-0.032	0.430
-327.158	15.814	-0.139	0.109
-326.143	-200.000	0.022	-0.240
-325.129	-174.450	0.219	0.006
-324.114	-157.091	-0.492	0.030
-323.099	604.881	0.124	-0.308
-322.085	276.602	-0.107	0.190
-321.070	-39.327	-0.172	-0.090
-320.056	222.570	-0.139	0.223
-319.041	117.997	0.149	0.183
-318.026	367.825	0.178	0.358
-317.012	113.058	-0.095	0.115
-315.997	273.312	-0.179	-0.316
-314.983	-140.893	-0.229	0.023
-313.968	-5.534	-0.142	0.097
-312.953	136.640	-0.053	-0.069
-311.939	-118.008	0.143	0.025
-310.924	62.060	-0.010	0.010
-309.910	-78.276	-0.129	0.044
-308.895	-69.990	0.263	-0.100
-307.880	-107.094	-0.185	0.041
-306.866	-200.000	0.023	0.347
-305.851	-4.544	0.158	-0.109
-304.837	158.401	0.076	-0.105
-303.822	432.814	-0.178	0.386
-302.807	-115.442	-0.058	-0.011
-301.793	61.796	-0.174	0.173
-300.778	-136.211	-0.075	-0.009
-299.764	-91.125	-0.361	0.103
-298.749	800.000	-0.047	-0.194
-297.735	-139.949	0.024	-0.003
-296.720	800.000	0.059	-0.200
-295.705	538.982	-0.087	-0.206
-294.691	-39.592	0.405	-0.212
-293.676	666.295	0.061	-0.156
-292.662	-31.240	-0.155	0.087
-291.647	-114.051	-0.132	-0.025
-290.632	-200.000	0.054	-0.255
-289.618	6.404	-0.115	-0.085
-288.603	800.000	-0.053	-0.223
-287.589	-66.983	-0.168	0.066
-286.574	131.958	-0.090	0.115
-285.559	424.667	0.141	-0.302
-284.545	2.864	-0.210	-0.152
-283.530	-200.000	-0.034	-0.169
-282.516	-200.000	-0.018	0.107
-281.501	-200.000	-0.064	-0.319
-280.486	-153.951	0.153	0.010
-279.472	-124.406	0.069	-0.011
-278.457	221.170	0.053	-0.084
-277.443	800.000	0.087	0.286
-276.428	37.931	-0.269	0.239
-275.413	-25.562	0.088	0.052
-274.399	-102.362	0.197	-0.047
-273.384	-200.000	-0.055	0.245
-272.370	800.000	-0.053	0.208
-271.355	-200.000	-0.002	-0.110
-270.340	-56.566	0.180	0.079
-269.326	435.696	0.133	0.289
-268.311	800.000	0.088	0.259
-267.297	800.000	0.129	0.381
-266.282	-72.887	0.154	-0.056
-265.267	-103.571	-0.554	0.130
-264.253	127.279	-0.045	-0.057
-263.238	-72.283	-0.387	-0.143
-262.224	206.564	0.123	0.190
-261.209	328.722	-0.103	-0.197
-260.195	27.156	0.189	-0.158
-259.180	-200.000	0.027	-0.316
-258.165	499.778	-0.055	0.125
-257.151	-200.000	0.003	-0.016
-256.136	-82.718	0.263	0.085
-255.122	-18.319	0.222	0.138
-254.107	298.598	-0.131	0.240
-253.092	68.775	0.091	-0.093
-252.078	463.245	0.156	0.347
-251.063	445.497	0.197	0.430
-250.049	-92.145	0.376	0.106
-249.034	-113.119	0.126	0.025
-248.019	-92.790	-0.413	0.115
-247.005	-63.526	0.301	-0.123
-245.990	287.476	-0.129	0.232
-244.976	-154.982	-0.249	0.016
-243.961	-180.770	-0.078	-0.002
-242.946	-46.932	0.296	-0.144
-241.932	-79.145	0.442	-0.149
-240.917	-200.000	-0.065	0.529
-239.903	-111.915	-0.216	-0.043
-238.888	-3.952	-0.315	-0.217
-237.873	290.535	0.124	-0.225
-236.859	-135.829	-0.214	-0.025
-235.844	-200.000	-0.013	0.292
-234.830	-66.669	-0.077	-0.031
-233.815	-86.066	-0.083	0.025
-232.800	-200.000	-0.008	0.240
-231.786	136.110	0.266	-0.345
-230.771	252.102	0.105	-0.178
-229.757	190.869	-0.175	0.261
-228.742	2.434	0.157	-0.113
-227.727	-147.723	0.058	-0.005
-226.713	800.000	-0.012	0.045
-225.698	108.542	-0.046	-0.054
-224.684	15.171	-0.226	-0.176
-223.669	-122.147	0.157	-0.026
-222.655	51.269	0.081	-0.076
-221.640	137.033	0.063	0.082
-220.625	-200.000	-0.100	-0.436
-219.611	255.459	0.246	-0.418
-218.596	233.030	-0.248	-0.406
-217.582	-51.037	0.257	-0.120
-216.567	800.000	0.038	-0.155
-215.552	126.563	-0.196	0.247
-214.538	112.679	0.227	0.274
-213.523	-200.000	0.002	-0.073
-212.509	-51.371	-0.331	-0.154
-211.494	36.500	-0.136	-0.120
-210.479	-89.468	0.068	0.020
-209.465	40.792	-0.159	-0.143
-208.450	408.359	-0.130	0.273
-207.436	-51.351	0.206	0.096
-206.421	-200.000	-0.005	-0.149
-205.406	-25.269	0.295	-0.173
-204.392	120.349	0.256	-0.316
-203.377	282.192	0.203	-0.362
-202.363	-200.000	0.029	0.158
-201.348	-66.079	0.073	0.029
-200.333	-200.000	-0.033	0.308
-199.319	-48.510	-0.091	0.044
-198.304	107.921	0.137	0.163
-197.290	-200.000	0.050	-0.274
-196.275	317.690	-0.124	-0.234
-195.260	-88.747	0.187	-0.055
-194.246	-1.395	-0.100	-0.070
-193.231	-200.000	0.006	0.259
-192.217	-67.094	0.134	0.053
-191.202	-200.000	-0.173	0.001
-190.187	-195.581	0.082	0.001
-189.173	-174.551	-0.432	-0.012
-188.158	-9.783	0.183	0.121
-187.144	-14.026	0.251	-0.161
-186.129	220.836	-0.136	-0.216
-185.114	-130.443	-0.227	-0.030
-184.100	-86.270	-0.324	-0.099
-183.085	193.465	0.046	-0.069
-182.071	-9.126	-0.410	-0.272
-181.056	-134.117	-0.036	-0.004
-180.042	-111.573	-0.094	-0.019
-179.027	-164.324	0.354	-0.016
-178.012	-89.988	0.242	-0.070
-176.998	-168.177	0.290	0.011
-175.983	14.422	0.217	0.168
-174.969	1.783	0.213	-0.152
-173.954	800.000	-0.029	-0.084
-172.939	-200.000	-0.062	0.337
-171.925	-63.687	-0.149	0.060
-170.910	-14.453	-0.153	-0.098
-169.896	186.396	-0.077	0.113
-168.881	358.738	-0.076	-0.150
-167.866	78.640	-0.052	-0.055
-166.852	-149.550	-0.239	-0.019
-165.837	354.617	0.139	0.274
-164.823	-50.269	0.146	0.068
-163.808	133.643	-0.044	0.057
-162.793	81.544	0.114	-0.123
-161.779	-7.370	-0.027	-0.018
-160.764	59.678	-0.100	0.098
-159.750	-200.000	0.013	-0.127
-158.735	-175.816	-0.153	0.004
-157.720	-200.000	0.111	0.565
-156.706	-147.304	0.423	0.036
-155.691	-99.501	-0.342	0.085
-154.677	176.399	0.169	0.244
-153.662	-34.540	-0.222	-0.121
-152.647	-56.022	-0.223	0.098
-151.633	219.466	0.229	-0.363
-150.618	365.959	0.038	0.076
-149.604	800.000	-0.157	0.510
-148.589	76.537	0.114	-0.120
-147.574	800.000	0.005	-0.015
-146.560	-102.638	-0.422	-0.100
-145.545	36.560	-0.105	-0.092
-144.531	-200.000	-0.006	-0.253
-143.516	19.858	0.210	0.167
-142.502	-93.922	0.334	0.091
-141.487	636.891	-0.042	-0.106
-140.472	800.000	-0.113	0.357
-139.458	-164.390	-0.232	-0.011
-138.443	-74.765	0.162	-0.058
-137.429	82.755	0.162	0.175
-136.414	-24.897	-0.079	-0.047
-135.399	-200.000	0.008	0.148
-134.385	-200.000	-0.020	0.101
-133.370	96.666	0.039	-0.044
-132.356	103.630	0.330	0.384
-131.341	41.028	0.348	0.311
-130.326	-101.232	0.103	-0.025
-129.312	-200.000	0.006	-0.331
-128.297	-25.924	-0.176	-0.103
-127.283	274.660	-0.039	-0.069
-126.268	109.736	-0.140	0.167
-125.253	59.837	-0.112	-0.110
-124.239	134.408	-0.103	-0.132
-123.224	603.152	-0.094	0.232
-122.210	50.858	0.128	0.120
