DTS Sentinel unit serial number:	SN413079Multiplexer serial number:	ORYXHardware model number:	OX4-SRSoftware version number:	ORYX F/W v4.00 Oryx Data Collector v3.7.2.0data status	okinstallation	princeton_trtdifferential loss correction	single-endedforward channel	channel 4reverse channel	N/Adate	2019/09/10time	16:43:11forward acquisition time	60.00reverse acquisition time	0.00gamma	496.2192k internal	0.2297k external	0.2297temperature offset calibration	0.9937default loss term (dB/km)	0.3790temperature slope calibration	1.0000multiplexer offset coefficient	1.0000multiplexer slope coefficient	1.0000fibre end	0.00T internal ref (°C)	37.77T ext. ref 1 (°C)	-0.31T ext. ref 2 (°C)	30.43length (m)	temperature (°C)	Stokes	anti-Stokes-747.200	-200.000	-0.009	-0.064
-746.185	-200.000	-0.026	-0.269
-745.171	-69.003	-0.168	0.066
-744.156	-200.000	0.004	0.170
-743.142	-200.000	0.015	-0.206
-742.127	553.739	0.084	-0.206
-741.112	144.476	0.095	-0.130
-740.098	-200.000	-0.026	0.316
-739.083	-63.245	0.419	0.176
-738.069	263.359	-0.026	0.046
-737.054	-19.135	-0.096	-0.061
-736.039	-127.753	-0.363	0.054
-735.025	80.524	0.226	-0.248
-734.010	-18.759	0.082	0.052
-732.996	221.987	0.082	-0.134
-731.981	100.926	0.054	-0.064
-730.966	-4.666	-0.131	-0.093
-729.952	-120.984	-0.209	-0.036
-728.937	-187.673	-0.492	-0.007
-727.923	455.488	0.041	0.094
-726.908	-73.419	-0.311	-0.116
-725.894	-32.261	0.088	-0.050
-724.879	-200.000	0.033	-0.233
-723.864	-187.091	-0.127	0.002
-722.850	-200.000	-0.002	0.082
-721.835	-85.863	0.107	-0.034
-720.821	-200.000	-0.014	-0.109
-719.806	-200.000	0.069	0.417
-718.791	800.000	-0.024	-0.093
-717.777	800.000	-0.019	-0.065
-716.762	-72.715	0.004	0.002
-715.748	59.913	0.035	-0.035
-714.733	-200.000	-0.011	-0.112
-713.718	554.379	0.089	-0.218
-712.704	275.978	0.197	-0.357
-711.689	-140.747	0.118	0.012
-710.675	-161.121	0.144	-0.008
-709.660	420.079	-0.020	0.043
-708.645	28.260	-0.051	-0.044
-707.631	68.614	0.035	0.036
-706.616	-37.914	-0.196	0.106
-705.602	-67.682	0.197	-0.079
-704.587	-120.160	0.062	0.011
-703.572	85.113	0.147	-0.165
-702.558	-200.000	0.004	-0.021
-701.543	-86.679	-0.058	-0.018
-700.529	-200.000	-0.014	0.263
-699.514	47.743	0.105	-0.100
-698.499	84.653	0.127	0.142
-697.485	74.196	-0.110	0.117
-696.470	-54.894	0.038	0.018
-695.456	290.913	0.173	0.321
-694.441	18.948	-0.381	0.311
-693.426	-183.874	0.060	-0.001
-692.412	-200.000	-0.030	-0.253
-691.397	-114.287	0.214	-0.042
-690.383	-97.436	-0.235	0.062
-689.368	-62.336	-0.295	-0.125
-688.354	800.000	0.070	0.269
-687.339	-65.707	0.148	-0.061
-686.324	61.148	-0.247	-0.250
-685.310	124.682	0.173	0.222
-684.295	157.330	0.081	0.114
-683.281	-29.404	0.258	0.150
-682.266	-67.428	-0.218	-0.087
-681.251	-45.942	0.215	0.108
-680.237	639.365	-0.047	0.122
-679.222	-144.984	0.182	0.017
-678.208	381.748	0.083	-0.173
-677.193	187.060	-0.130	0.197
-676.178	-58.836	-0.093	-0.041
-675.164	-200.000	0.026	0.229
-674.149	-200.000	0.036	0.436
-673.135	25.344	-0.279	0.236
-672.120	-68.549	-0.458	-0.181
-671.105	-78.730	-0.177	-0.061
-670.091	172.396	0.138	0.203
-669.076	165.054	0.009	0.013
-668.062	38.145	-0.075	0.068
-667.047	-64.013	0.201	-0.084
-666.032	-200.000	0.044	-0.263
-665.018	513.505	0.149	-0.353
-664.003	79.546	0.050	-0.055
-662.989	-117.009	-0.071	-0.013
-661.974	-200.000	-0.035	0.332
-660.959	-159.561	-0.239	0.013
-659.945	-19.390	-0.184	-0.116
-658.930	800.000	-0.118	-0.359
-657.916	46.977	-0.214	-0.202
-656.901	800.000	-0.028	-0.122
-655.886	198.460	-0.088	0.137
-654.872	800.000	0.055	0.199
-653.857	190.629	-0.087	0.134
-652.843	800.000	-0.084	0.331
-651.828	-200.000	0.007	-0.558
-650.814	77.607	-0.144	0.156
-649.799	5.749	0.074	-0.056
-648.784	-48.260	0.124	0.061
-647.770	486.108	-0.119	0.277
-646.755	40.012	-0.197	0.180
-645.741	-200.000	-0.015	0.195
-644.726	-200.000	0.026	-0.255
-643.711	34.238	0.195	0.173
-642.697	800.000	0.102	0.308
-641.682	-70.518	0.204	0.079
-640.668	-106.949	0.185	-0.042
-639.653	190.396	-0.128	-0.196
-638.638	1.361	-0.320	0.234
-637.624	181.984	0.350	0.524
-636.609	800.000	-0.026	0.115
-635.595	-7.656	-0.171	0.117
-634.580	-200.000	0.014	0.113
-633.565	-183.279	-0.363	-0.006
-632.551	-29.986	0.104	-0.060
-631.536	800.000	0.025	-0.095
-630.522	-200.000	-0.005	0.202
-629.507	161.400	-0.140	-0.198
-628.492	800.000	-0.078	-0.267
-627.478	186.926	0.084	0.127
-626.463	-200.000	-0.022	-0.217
-625.449	-89.075	-0.266	-0.080
-624.434	109.335	0.050	-0.061
-623.419	-181.113	-0.027	-0.001
-622.405	-92.790	-0.460	-0.131
-621.390	-200.000	0.013	-0.264
-620.376	-200.000	0.023	-0.346
-619.361	377.517	0.135	-0.281
-618.346	-200.000	-0.086	-0.425
-617.332	670.592	-0.085	0.224
-616.317	133.738	-0.094	-0.124
-615.303	-17.575	0.086	0.055
-614.288	488.793	0.061	0.142
-613.273	-200.000	0.013	0.141
-612.259	283.612	-0.077	0.140
-611.244	-0.289	0.247	-0.179
-610.230	476.951	0.057	-0.131
-609.215	-118.192	0.155	-0.028
-608.201	-80.527	-0.327	-0.111
-607.186	-200.000	-0.021	0.142
-606.171	-70.384	0.057	0.022
-605.157	-164.863	0.561	0.026
-604.142	42.444	-0.144	-0.133
-603.128	400.062	0.124	0.264
-602.113	9.763	0.319	-0.246
-601.098	289.906	0.016	0.029
-600.084	-200.000	-0.011	0.220
-599.069	-51.250	-0.227	0.108
-598.055	-200.000	-0.015	0.307
-597.040	350.469	0.061	0.123
-596.025	-176.164	0.234	-0.006
-595.011	-200.000	0.007	-0.265
-593.996	-133.299	0.079	-0.010
-592.982	189.388	-0.174	0.264
-591.967	-40.057	-0.016	-0.008
-590.952	-73.772	-0.377	-0.139
-589.938	763.333	0.089	-0.246
-588.923	-77.583	0.133	-0.047
-587.909	-200.000	-0.004	0.189
-586.894	241.738	0.022	-0.038
-585.879	-48.967	0.185	-0.090
-584.865	202.681	0.045	0.071
-583.850	-200.000	-0.031	-0.263
-582.836	-44.815	-0.382	-0.193
-581.821	-200.000	-0.001	0.119
-580.806	121.863	0.148	0.188
-579.792	-200.000	0.010	0.058
-578.777	383.406	0.097	-0.202
-577.763	-192.164	0.183	0.002
-576.748	-112.373	-0.212	-0.043
-575.733	-123.018	0.240	0.039
-574.719	687.132	-0.084	0.223
-573.704	-21.977	-0.134	-0.082
-572.690	-200.000	-0.049	-0.239
-571.675	18.571	0.276	-0.224
-570.661	-85.899	-0.035	0.011
-569.646	-200.000	0.016	0.254
-568.631	-124.032	-0.074	0.012
-567.617	-32.674	-0.133	0.075
-566.602	25.194	-0.154	0.130
-565.588	-200.000	-0.019	0.270
-564.573	800.000	0.107	-0.322
-563.558	-3.701	-0.157	-0.110
-562.544	232.771	-0.163	0.271
-561.529	800.000	0.097	0.370
-560.515	87.160	0.128	-0.143
-559.500	123.182	0.123	-0.157
-558.485	-3.277	-0.228	-0.161
-557.471	-61.172	-0.275	0.118
-556.456	55.932	0.101	0.099
-555.442	394.934	0.104	0.219
-554.427	95.400	-0.090	0.104
-553.412	800.000	0.029	0.117
-552.398	-138.218	0.429	-0.048
-551.383	95.992	0.109	-0.126
-550.369	291.398	0.157	-0.289
-549.354	-135.826	0.346	-0.041
-548.339	556.949	0.087	0.212
-547.325	67.061	-0.276	0.285
-546.310	-76.333	0.137	-0.049
-545.296	29.161	-0.164	0.141
-544.281	30.918	-0.241	0.210
-543.266	-151.047	0.091	-0.007
-542.252	-172.976	-0.115	0.004
-541.237	432.974	-0.111	-0.245
-540.223	-200.000	0.038	0.204
-539.208	800.000	-0.025	0.111
-538.193	-71.878	0.256	0.097
-537.179	-185.922	-0.227	-0.003
-536.164	395.452	-0.126	-0.267
-535.150	70.764	0.288	-0.302
-534.135	-200.000	-0.022	-0.182
-533.121	30.536	-0.161	0.139
-532.106	-170.602	-0.120	0.004
-531.091	197.251	-0.297	0.458
-530.077	122.749	0.168	-0.213
-529.062	-58.390	-0.077	0.034
-528.048	-53.188	0.239	0.111
-527.033	25.957	-0.271	-0.229
-526.018	70.647	-0.105	0.110
-525.004	220.043	-0.106	-0.173
-523.989	-189.811	0.326	0.004
-522.975	90.252	0.162	-0.183
-521.960	197.836	0.117	0.181
-520.945	213.933	0.089	-0.143
-519.931	353.011	0.255	-0.512
-518.916	-200.000	0.008	0.152
-517.902	-200.000	0.006	0.091
-516.887	291.426	-0.240	0.442
-515.872	44.072	-0.050	0.046
-514.858	85.712	-0.054	0.060
-513.843	-78.878	-0.152	-0.052
-512.829	40.419	-0.225	-0.205
-511.814	193.878	0.157	0.240
-510.799	52.739	0.274	-0.265
-509.785	800.000	0.097	-0.298
-508.770	-200.000	-0.026	0.217
-507.756	-200.000	0.061	0.351
-506.741	-67.878	-0.156	-0.062
-505.726	134.140	0.163	0.214
-504.712	-88.859	0.169	0.051
-503.697	800.000	0.073	0.265
-502.683	-46.401	-0.142	-0.071
-501.668	184.582	0.020	-0.029
-500.653	-179.024	-0.176	-0.004
-499.639	52.114	-0.386	0.372
-498.624	-200.000	0.051	-0.231
-497.610	-102.008	0.254	-0.062
-496.595	98.745	-0.049	0.057
-495.581	15.757	-0.201	-0.160
-494.566	-126.316	-0.261	-0.039
-493.551	800.000	-0.081	-0.260
-492.537	104.287	0.103	-0.122
-491.522	-22.795	-0.174	0.106
-490.508	-200.000	-0.029	0.171
-489.493	262.298	-0.064	-0.113
-488.478	-200.000	-0.023	-0.283
-487.464	59.576	-0.153	-0.153
-486.449	-92.966	0.221	0.062
-485.435	58.905	0.148	-0.147
-484.420	-200.000	-0.286	0.001
-483.405	228.268	-0.093	-0.154
-482.391	-145.685	0.074	0.007
-481.376	307.175	0.190	0.358
-480.362	-97.350	-0.006	-0.002
-479.347	330.065	-0.110	-0.215
-478.332	-29.437	0.013	0.008
-477.318	235.661	0.035	0.059
-476.303	-175.210	0.441	-0.012
-475.289	-200.000	-0.060	0.308
-474.274	-78.397	0.161	0.056
-473.259	275.153	0.150	-0.269
-472.245	-88.852	0.068	0.020
-471.230	-35.285	0.237	0.130
-470.216	-119.351	-0.131	-0.023
-469.201	-103.599	0.262	0.062
-468.186	-135.604	-0.240	0.029
-467.172	-168.113	0.299	0.012
-466.157	-18.935	0.138	-0.087
-465.143	256.089	0.086	0.148
-464.128	93.539	-0.191	-0.218
-463.113	150.600	0.127	-0.175
-462.099	151.274	0.130	-0.178
-461.084	-10.665	0.202	0.135
-460.070	200.061	0.123	0.190
-459.055	800.000	-0.045	-0.182
-458.040	-68.825	0.174	0.068
-457.026	-200.000	0.032	-0.213
-456.011	38.097	0.101	-0.091
-454.997	-185.151	-0.119	-0.002
-453.982	-62.540	-0.182	-0.076
-452.968	-200.000	0.015	-0.195
-451.953	-93.747	-0.459	-0.128
-450.938	-60.783	0.049	0.021
-449.924	-200.000	-0.006	0.030
-448.909	-119.497	0.183	0.032
-447.895	791.941	-0.053	-0.148
-446.880	-200.000	-0.076	0.493
-445.865	-200.000	-0.196	0.000
-444.851	-200.000	-0.035	-0.172
-443.836	-60.191	0.224	-0.096
-442.822	-200.000	0.019	-0.099
-441.807	-188.990	0.183	-0.002
-440.792	-200.000	0.054	-0.267
-439.778	-61.462	-0.141	0.060
-438.763	-132.058	0.092	0.012
-437.749	-27.592	-0.149	-0.087
-436.734	141.941	0.064	-0.085
-435.719	-38.315	-0.213	-0.114
-434.705	-200.000	0.030	0.233
-433.690	22.616	0.053	-0.044
-432.676	20.778	-0.019	-0.016
-431.661	75.291	-0.146	-0.155
-430.646	800.000	-0.110	-0.386
-429.632	-200.000	0.007	0.040
-428.617	-200.000	-0.019	-0.127
-427.603	-143.972	0.172	0.016
-426.588	-200.000	0.035	-0.158
-425.573	21.587	-0.059	-0.049
-424.559	372.945	-0.107	-0.220
-423.544	-107.325	-0.025	0.005
-422.530	-57.464	0.345	0.153
-421.515	-200.000	-0.029	-0.173
-420.500	-95.677	0.318	0.086
-419.486	117.731	0.133	-0.165
-418.471	-200.000	-0.029	0.155
-417.457	518.275	-0.117	-0.276
-416.442	-29.495	-0.223	-0.128
-415.428	-64.469	-0.047	-0.019
-414.413	-152.351	0.128	-0.009
-413.398	325.776	0.116	0.224
-412.384	264.779	0.129	0.226
-411.369	-60.730	0.232	-0.099
-410.355	-30.627	-0.190	-0.109
-409.340	-61.476	-0.151	0.064
-408.325	-114.138	-0.147	-0.029
-407.311	-200.000	-0.000	-0.137
-406.296	-200.000	0.051	-0.321
-405.282	-138.904	0.145	0.016
-404.267	-61.395	0.189	-0.080
-403.252	-14.155	0.207	-0.135
-402.238	-200.000	0.036	0.187
-401.223	-78.521	0.135	-0.047
-400.209	-42.330	-0.216	0.111
-399.194	800.000	-0.055	0.243
-398.179	-200.000	0.016	0.098
-397.165	-77.675	0.009	0.003
-396.150	205.201	-0.274	0.429
-395.136	-135.174	0.129	0.016
-394.121	-200.000	-0.024	0.269
-393.106	-31.807	-0.185	0.105
-392.092	-26.256	-0.061	-0.036
-391.077	-80.771	-0.190	-0.064
-390.063	-90.492	0.251	-0.073
-389.048	-65.500	0.160	-0.065
-388.033	-79.091	-0.304	0.104
-387.019	623.255	0.093	0.237
-386.004	156.219	-0.097	-0.134
-384.990	-38.214	-0.110	0.059
-383.975	-52.327	-0.123	0.058
-382.960	-140.403	0.117	0.012
-381.946	30.995	0.248	-0.214
-380.931	800.000	0.062	0.250
-379.917	-91.661	-0.114	-0.033
-378.902	2.523	-0.203	-0.148
-377.888	469.291	0.076	-0.172
-376.873	113.257	0.215	0.262
-375.858	162.205	0.109	0.154
-374.844	30.299	-0.185	-0.159
-373.829	640.965	-0.157	-0.401
-372.815	-108.184	0.224	-0.049
-371.800	-200.000	-0.013	0.252
-370.785	26.959	0.247	0.208
-369.771	-29.787	0.123	0.071
-368.756	-72.490	-0.142	-0.053
-367.742	800.000	0.103	-0.424
-366.727	-200.000	0.025	0.323
-365.712	-59.805	-0.274	-0.118
-364.698	-7.373	0.236	0.161
-363.683	-91.957	0.165	0.047
-362.669	42.900	0.257	0.236
-361.654	-11.689	-0.163	-0.107
-360.639	596.141	0.034	0.084
-359.625	800.000	0.071	0.201
-358.610	-200.000	0.003	-0.014
-357.596	-200.000	0.029	-0.583
-356.581	-86.959	-0.190	-0.058
-355.566	42.537	0.195	0.178
-354.552	172.716	0.135	0.195
-353.537	800.000	0.098	0.332
-352.523	-20.000	-0.274	-0.170
-351.508	-7.235	-0.239	-0.163
-350.493	337.170	-0.084	-0.164
-349.479	257.964	0.044	0.076
-348.464	62.331	0.286	-0.288
-347.450	-40.324	0.162	0.085
-346.435	-48.822	-0.109	-0.053
-345.420	-46.292	-0.292	0.144
-344.406	800.000	0.074	-0.326
-343.391	350.044	-0.089	0.177
-342.377	45.117	-0.103	0.095
-341.362	-129.861	-0.184	-0.025
-340.348	-200.000	-0.005	0.069
-339.333	-114.142	0.265	-0.052
-338.318	-200.000	-0.038	0.351
-337.304	-6.861	-0.222	-0.152
-336.289	69.302	-0.131	0.135
-335.275	118.208	-0.124	0.154
-334.260	-200.000	0.000	-0.032
-333.245	-103.488	-0.150	-0.035
-332.231	241.302	0.095	0.160
-331.216	-53.738	-0.297	0.136
-330.202	44.322	0.217	0.200
-329.187	800.000	0.075	-0.219
-328.172	-200.000	0.212	0.000
-327.158	-65.479	-0.094	0.038
-326.143	-24.669	-0.311	-0.186
-325.129	135.898	0.091	-0.119
-324.114	-87.127	0.182	-0.056
-323.099	250.004	-0.123	0.209
-322.085	800.000	-0.075	0.218
-321.070	-79.256	-0.038	0.013
-320.056	410.644	0.080	-0.171
-319.041	769.205	0.089	0.243
-318.026	-80.473	0.336	0.112
-317.012	-62.578	-0.320	0.133
-315.997	-200.000	-0.050	0.228
-314.983	-126.436	-0.165	0.025
-313.968	24.063	-0.286	0.237
-312.953	-200.000	0.013	0.086
-311.939	7.925	-0.142	0.107
-310.924	-61.270	0.115	0.049
-309.910	-200.000	-0.043	-0.200
-308.895	741.920	0.102	0.275
-307.880	105.909	-0.063	0.075
-306.866	800.000	-0.099	0.320
-305.851	-94.105	-0.140	0.038
-304.837	800.000	0.041	-0.151
-303.822	252.919	-0.118	0.201
-302.807	-162.933	-0.163	-0.008
-301.793	94.795	0.123	-0.141
-300.778	27.516	0.217	-0.183
-299.764	-111.082	0.247	-0.051
-298.749	-55.702	0.229	0.103
-297.735	-105.999	-0.211	-0.048
-296.720	379.858	0.067	-0.137
-295.705	-200.000	0.006	0.109
-294.691	-20.028	0.119	-0.074
-293.676	-122.172	-0.074	0.012
-292.662	-200.000	-0.017	0.371
-291.647	-62.981	-0.361	0.150
-290.632	12.388	0.039	0.030
-289.618	80.663	-0.051	-0.055
-288.603	-113.693	-0.251	-0.049
-287.589	-200.000	0.065	0.339
-286.574	175.206	-0.059	0.085
-285.559	-200.000	-0.052	-0.359
-284.545	276.614	-0.181	-0.323
-283.530	-147.805	-0.140	-0.012
-282.516	116.228	0.060	-0.073
-281.501	14.905	0.290	0.228
-280.486	800.000	0.022	-0.088
-279.472	31.014	0.261	0.224
-278.457	800.000	-0.110	0.350
-277.443	800.000	0.049	0.192
-276.428	42.301	-0.063	-0.058
-275.413	-200.000	-0.005	0.174
-274.399	-20.156	0.225	0.139
-273.384	167.548	0.035	-0.050
-272.370	43.211	0.065	0.060
-271.355	-64.737	-0.068	0.028
-270.340	-99.090	-0.188	0.048
-269.326	-200.000	-0.011	0.326
-268.311	-153.138	0.131	0.009
-267.297	-62.139	-0.176	0.074
-266.282	-114.504	-0.142	-0.027
-265.267	-94.395	0.081	0.022
-264.253	-200.000	-0.009	0.215
-263.238	23.775	-0.073	0.060
-262.224	41.444	-0.252	-0.229
-261.209	-200.000	-0.339	-0.002
-260.195	22.194	0.057	-0.047
-259.180	35.503	0.274	0.241
-258.165	-200.000	0.026	-0.256
-257.151	-75.851	0.243	-0.086
-256.136	-0.197	-0.306	-0.218
-255.122	163.752	-0.201	-0.284
-254.107	167.735	0.190	0.271
-253.092	99.875	-0.225	-0.261
-252.078	319.595	0.145	-0.276
-251.063	110.712	0.176	0.212
-250.049	-156.373	-0.051	0.003
-249.034	800.000	-0.050	-0.173
-248.019	-200.000	-0.029	0.180
-247.005	-160.036	-0.285	0.016
-245.990	-52.288	-0.288	-0.134
-244.976	-115.976	-0.094	0.018
-243.961	192.683	0.119	0.179
-242.946	116.852	-0.051	0.063
-241.932	200.027	0.085	0.131
-240.917	-36.429	-0.136	-0.073
-239.903	409.801	0.104	-0.221
-238.888	123.462	-0.218	0.274
-237.873	-164.118	-0.344	0.016
-236.859	-200.000	0.008	-0.064
-235.844	-73.783	0.303	-0.110
-234.830	-200.000	0.015	-0.127
-233.815	-200.000	0.013	0.187
-232.800	63.491	0.090	0.090
-231.786	-8.624	-0.081	-0.054
-230.771	-8.975	0.231	-0.155
-229.757	243.226	-0.151	-0.254
-228.742	-200.000	0.016	-0.176
-227.727	11.016	0.187	-0.143
-226.713	12.050	-0.387	0.298
-225.698	-103.670	0.181	-0.043
-224.684	-200.000	0.014	0.202
-223.669	128.155	0.118	0.150
-222.655	-138.786	0.459	-0.050
-221.640	18.862	-0.157	0.126
-220.625	800.000	0.078	-0.340
-219.611	-169.438	-0.273	0.010
-218.596	-33.411	-0.205	0.113
-217.582	-114.376	-0.336	-0.065
-216.567	-29.934	0.208	-0.118
-215.552	101.016	0.075	0.087
-214.538	-200.000	-0.057	0.341
-213.523	-200.000	-0.002	0.018
-212.509	-120.185	0.073	0.012
-211.494	800.000	-0.098	-0.343
-210.479	101.000	0.195	-0.227
-209.465	-200.000	0.029	0.217
-208.450	-71.168	0.238	-0.089
-207.436	-122.057	0.176	0.029
-206.421	172.832	-0.201	-0.290
-205.406	29.018	-0.022	-0.019
-204.392	-107.505	0.167	0.037
-203.377	64.580	0.177	0.178
-202.363	-200.000	0.091	-0.435
-201.348	782.271	-0.032	0.087
-200.333	-164.081	-0.218	0.010
-199.319	800.000	-0.058	0.168
-198.304	-200.000	-0.023	-0.369
-197.290	-51.791	0.069	-0.032
-196.275	32.839	-0.081	0.070
-195.260	-130.085	-0.127	0.017
-194.246	142.822	-0.057	0.076
-193.231	-140.699	0.280	0.029
-192.217	-30.214	0.294	0.167
-191.202	-93.248	-0.336	-0.093
-190.187	-200.000	-0.027	-0.435
-189.173	-93.200	0.145	0.040
-188.158	-153.460	-0.139	-0.010
-187.144	-13.458	0.111	0.072
-186.129	162.382	0.119	0.167
-185.114	-146.284	0.370	0.032
-184.100	-132.610	-0.180	-0.023
-183.085	-61.822	-0.295	0.123
-182.071	-161.580	0.124	-0.006
-181.056	-200.000	0.051	-0.335
-180.042	-198.722	0.187	-0.001
-179.027	201.687	-0.035	-0.054
-178.012	-200.000	-0.031	-0.182
-176.998	800.000	0.056	-0.243
-175.983	41.070	0.187	0.169
-174.969	-180.161	-0.101	0.002
-173.954	324.517	-0.233	-0.445
-172.939	-93.629	-0.093	-0.026
-171.925	86.866	0.251	0.276
-170.910	335.471	-0.081	0.157
-169.896	-200.000	0.079	0.406
-168.881	178.056	-0.204	-0.297
-167.866	-83.502	-0.079	-0.025
-166.852	-102.967	-0.253	-0.060
-165.837	96.588	0.164	-0.188
-164.823	-200.000	-0.029	-0.192
-163.808	-15.456	0.097	0.062
-162.793	800.000	-0.026	-0.077
-161.779	-117.591	0.130	-0.023
-160.764	-200.000	0.024	-0.375
-159.750	-49.391	-0.018	-0.009
-158.735	-100.976	-0.225	0.055
-157.720	-53.442	-0.216	-0.099
-156.706	37.772	0.110	0.098
-155.691	800.000	-0.050	-0.171
-154.677	-144.960	0.307	0.028
-153.662	-200.000	-0.003	0.053
-152.647	13.878	-0.166	-0.129
-151.633	-100.434	0.293	-0.072
-150.618	93.814	0.286	0.324
-149.604	-90.004	0.536	0.156
-148.589	-200.000	0.038	0.239
-147.574	224.986	0.046	-0.074
-146.560	-26.037	0.247	0.145
-145.545	-15.709	-0.205	0.131
-144.531	108.840	0.303	0.361
-143.516	64.271	-0.170	-0.171
-142.502	800.000	-0.080	-0.267
-141.487	-9.800	-0.193	0.128
-140.472	57.366	0.212	0.207
-139.458	-155.905	0.334	0.021
-138.443	-146.364	-0.112	-0.010
-137.429	-116.068	0.137	0.025
-136.414	-77.496	-0.279	0.097
-135.399	-200.000	0.004	0.144
-134.385	-70.302	0.043	0.016
-133.370	-124.749	0.208	-0.032
-132.356	208.793	-0.081	0.126
-131.341	-174.128	0.097	0.003
-130.326	-200.000	0.039	0.187
-129.312	-200.000	-0.041	0.320
-128.297	220.367	0.113	-0.180
-127.283	57.409	-0.180	0.175
-126.268	-34.357	0.204	-0.111
-125.253	455.448	-0.035	0.078
-124.239	-26.280	-0.205	0.120
-123.224	-69.156	-0.462	0.177
-122.210	170.541	-0.113	0.162
