DTS Sentinel unit serial number:	SN413079Multiplexer serial number:	ORYXHardware model number:	OX4-SRSoftware version number:	ORYX F/W v4.00 Oryx Data Collector v3.7.2.0data status	okinstallation	princeton_trtdifferential loss correction	single-endedforward channel	channel 4reverse channel	N/Adate	2019/09/15time	10:45:35forward acquisition time	60.00reverse acquisition time	0.00gamma	496.2192k internal	0.2299k external	0.2299temperature offset calibration	1.0015default loss term (dB/km)	0.3790temperature slope calibration	1.0000multiplexer offset coefficient	1.0000multiplexer slope coefficient	1.0000fibre end	0.00T internal ref (°C)	34.25T ext. ref 1 (°C)	5.02T ext. ref 2 (°C)	29.60length (m)	temperature (°C)	Stokes	anti-Stokes-747.200	144.780	0.169	0.231
-746.185	363.415	0.112	0.230
-745.171	-77.176	-0.394	-0.140
-744.156	103.447	-0.094	0.112
-743.142	-89.740	-0.115	-0.034
-742.127	-170.028	-0.340	-0.012
-741.112	161.638	0.099	0.141
-740.098	221.928	0.058	0.096
-739.083	195.747	-0.115	-0.178
-738.069	121.081	0.237	0.300
-737.054	126.149	-0.120	-0.155
-736.039	21.314	-0.192	0.159
-735.025	-18.534	0.199	0.127
-734.010	-13.671	-0.089	0.059
-732.996	800.000	0.098	-0.351
-731.981	-200.000	-0.012	-0.250
-730.966	-200.000	-0.000	-0.039
-729.952	-200.000	-0.005	-0.056
-728.937	144.329	0.156	0.212
-727.923	-116.188	0.070	0.013
-726.908	105.226	0.120	-0.145
-725.894	-200.000	0.048	-0.354
-724.879	-61.522	-0.312	-0.134
-723.864	480.232	0.029	0.068
-722.850	146.106	0.042	-0.058
-721.835	-76.605	0.021	-0.007
-720.821	-200.000	0.022	0.266
-719.806	-200.000	-0.030	-0.176
-718.791	-38.881	0.338	-0.181
-717.777	17.398	-0.217	0.176
-716.762	139.916	-0.121	0.163
-715.748	83.773	0.058	0.064
-714.733	-62.015	-0.322	0.137
-713.718	-200.000	0.052	-0.267
-712.704	-150.956	-0.043	0.003
-711.689	100.145	-0.294	0.347
-710.675	-52.965	0.209	-0.098
-709.660	-6.895	0.248	-0.172
-708.645	-200.000	0.042	-0.230
-707.631	-200.000	0.004	-0.086
-706.616	53.695	0.243	0.238
-705.602	-200.000	-0.023	-0.327
-704.587	-200.000	0.019	-0.490
-703.572	800.000	0.025	0.088
-702.558	-200.000	-0.009	-0.123
-701.543	-92.353	-0.281	-0.081
-700.529	-200.000	-0.069	0.325
-699.514	-200.000	-0.006	0.038
-698.499	-90.186	0.228	-0.068
-697.485	-27.274	0.189	0.112
-696.470	-45.102	0.200	0.101
-695.456	278.088	0.089	0.161
-694.441	47.618	-0.133	0.127
-693.426	-145.524	-0.550	-0.050
-692.412	480.374	-0.197	-0.454
-691.397	73.886	-0.326	-0.348
-690.383	-123.675	-0.052	-0.008
-689.368	-200.000	-0.031	-0.366
-688.354	-150.284	-0.370	0.029
-687.339	-64.851	-0.334	-0.137
-686.324	-61.369	0.218	0.093
-685.310	-58.305	0.125	-0.055
-684.295	21.644	0.287	-0.238
-683.281	-123.350	-0.116	0.019
-682.266	86.271	-0.178	0.200
-681.251	-25.381	-0.374	0.225
-680.237	-200.000	-0.031	0.145
-679.222	-200.000	-0.002	-0.412
-678.208	3.875	-0.215	0.160
-677.193	800.000	-0.087	0.284
-676.178	-48.487	-0.055	0.027
-675.164	-76.879	-0.191	-0.068
-674.149	-27.890	-0.187	-0.110
-673.135	800.000	0.093	-0.288
-672.120	-200.000	-0.029	-0.260
-671.105	-55.713	-0.093	-0.042
-670.091	-72.733	-0.252	-0.094
-669.076	662.373	-0.112	-0.295
-668.062	-159.722	0.215	0.012
-667.047	67.545	0.070	-0.073
-666.032	800.000	-0.148	-0.627
-665.018	-127.854	0.305	0.045
-664.003	-9.490	-0.133	0.090
-662.989	-60.960	-0.283	-0.122
-661.974	-33.582	-0.105	-0.059
-660.959	-117.027	-0.502	-0.093
-659.945	480.191	-0.143	-0.329
-658.930	800.000	-0.043	0.146
-657.916	70.051	0.085	0.089
-656.901	-108.769	-0.299	-0.065
-655.886	-74.315	0.248	0.091
-654.872	-147.732	-0.114	0.010
-653.857	80.498	0.243	0.266
-652.843	-184.481	-0.399	0.007
-651.828	61.158	0.027	-0.028
-650.814	179.118	-0.210	-0.313
-649.799	-60.026	-0.022	0.010
-648.784	4.886	-0.152	-0.114
-647.770	-144.637	-0.397	0.037
-646.755	-200.000	-0.013	-0.277
-645.741	800.000	-0.022	0.065
-644.726	800.000	0.082	-0.263
-643.711	-10.989	0.117	-0.079
-642.697	35.713	-0.215	-0.192
-641.682	228.483	0.191	0.316
-640.668	-77.570	-0.092	-0.033
-639.653	623.303	0.033	-0.085
-638.638	-3.948	-0.080	0.056
-637.624	-111.122	-0.350	0.073
-636.609	499.745	0.113	0.265
-635.595	167.866	-0.088	-0.128
-634.580	-96.853	0.285	0.076
-633.565	-84.223	0.096	-0.031
-632.551	800.000	0.052	-0.157
-631.536	624.793	-0.115	0.294
-630.522	356.213	-0.028	-0.056
-629.507	-124.173	-0.189	0.030
-628.492	-77.998	0.248	-0.087
-627.478	-153.930	-0.245	-0.017
-626.463	-200.000	0.040	-0.184
-625.449	800.000	0.115	-0.421
-624.434	-5.636	0.068	0.047
-623.419	9.038	0.107	0.082
-622.405	724.296	-0.110	0.297
-621.390	81.212	0.152	0.167
-620.376	-200.000	0.000	0.153
-619.361	495.603	0.220	-0.513
-618.346	800.000	-0.055	-0.159
-617.332	90.309	0.109	-0.124
-616.317	186.312	-0.188	-0.284
-615.303	-18.154	-0.280	-0.178
-614.288	-132.810	-0.267	-0.035
-613.273	800.000	0.038	-0.136
-612.259	-200.000	0.047	-0.297
-611.244	-200.000	0.015	-0.194
-610.230	41.593	0.203	0.187
-609.215	39.661	-0.097	-0.088
-608.201	103.724	0.156	0.186
-607.186	75.271	-0.164	0.176
-606.171	129.919	0.068	-0.088
-605.157	-9.331	0.119	-0.081
-604.142	-200.000	0.025	0.146
-603.128	37.912	-0.057	-0.051
-602.113	-140.812	0.406	0.042
-601.098	-149.519	0.123	-0.010
-600.084	41.019	-0.114	-0.105
-599.069	-114.051	-0.248	-0.049
-598.055	-36.847	-0.013	0.007
-597.040	-28.578	0.052	-0.030
-596.025	-149.906	-0.149	0.012
-595.011	53.157	0.283	-0.275
-593.996	-200.000	0.015	0.189
-592.982	112.084	-0.249	-0.305
-591.967	637.429	-0.099	-0.256
-590.952	-95.451	-0.075	-0.021
-589.938	-29.459	-0.356	-0.207
-588.923	800.000	0.042	0.165
-587.909	800.000	-0.025	-0.080
-586.894	31.858	-0.228	-0.199
-585.879	-42.960	0.232	0.119
-584.865	-200.000	-0.022	0.126
-583.850	800.000	-0.049	0.210
-582.836	-61.054	-0.048	-0.021
-581.821	-200.000	-0.031	0.185
-580.806	299.052	0.147	0.275
-579.792	800.000	0.076	0.305
-578.777	502.169	-0.063	-0.147
-577.763	-200.000	-0.046	0.211
-576.748	-149.637	-0.337	-0.027
-575.733	-200.000	-0.016	-0.249
-574.719	-140.410	0.261	0.028
-573.704	-113.567	-0.338	0.067
-572.690	-87.540	-0.229	-0.070
-571.675	800.000	-0.041	-0.153
-570.661	-93.918	0.230	-0.064
-569.646	-68.418	0.148	-0.058
-568.631	-116.307	-0.221	0.041
-567.617	-6.701	0.168	-0.116
-566.602	-134.804	0.255	0.031
-565.588	-10.113	0.066	0.044
-564.573	-200.000	0.020	0.221
-563.558	-20.579	-0.386	-0.240
-562.544	234.649	-0.125	-0.209
-561.529	-68.465	0.248	-0.098
-560.515	-200.000	0.055	-0.330
-559.500	-200.000	0.008	-0.172
-558.485	60.947	-0.033	0.033
-557.471	31.248	-0.071	0.062
-556.456	-140.383	-0.604	-0.064
-555.442	-18.322	0.156	-0.099
-554.427	39.213	-0.182	0.165
-553.412	103.014	0.181	0.214
-552.398	782.439	-0.101	-0.281
-551.383	-27.575	-0.376	-0.222
-550.369	-74.201	-0.263	0.096
-549.354	-63.089	-0.226	0.095
-548.339	-30.720	-0.137	0.079
-547.325	800.000	-0.041	-0.158
-546.310	-177.273	0.169	-0.004
-545.296	-200.000	0.020	0.214
-544.281	-5.442	-0.093	-0.065
-543.266	44.844	-0.199	-0.186
-542.252	-61.280	-0.230	-0.098
-541.237	-200.000	-0.017	0.138
-540.223	-17.356	0.327	0.208
-539.208	89.707	0.039	-0.044
-538.193	-200.000	0.004	0.205
-537.179	-113.206	-0.345	-0.069
-536.164	-14.782	0.102	-0.066
-535.150	63.662	0.086	0.088
-534.135	-117.632	-0.395	-0.072
-533.121	800.000	-0.061	-0.198
-532.106	228.006	-0.064	0.106
-531.091	275.960	0.156	0.280
-530.077	-67.915	0.094	-0.037
-529.062	-44.584	0.373	0.189
-528.048	-54.227	-0.134	-0.061
-527.033	-200.000	-0.035	-0.202
-526.018	201.670	-0.067	0.104
-525.004	-49.963	-0.429	-0.206
-523.989	-20.523	-0.124	0.077
-522.975	-99.036	-0.059	0.015
-521.960	-31.018	0.274	0.157
-520.945	-94.495	0.059	-0.016
-519.931	518.552	-0.024	0.056
-518.916	800.000	-0.070	-0.283
-517.902	-200.000	0.035	0.160
-516.887	-149.592	-0.092	-0.007
-515.872	324.580	0.136	-0.262
-514.858	-200.000	0.045	0.214
-513.843	-153.580	-0.120	-0.008
-512.829	187.376	-0.085	-0.128
-511.814	-25.281	0.037	0.022
-510.799	152.845	0.142	-0.197
-509.785	125.311	0.015	0.019
-508.770	-64.567	-0.268	0.110
-507.756	-38.917	0.106	-0.056
-506.741	140.341	0.170	-0.227
-505.726	-173.477	-0.314	-0.010
-504.712	230.793	-0.199	0.329
-503.697	148.656	-0.040	0.054
-502.683	-89.306	-0.439	0.131
-501.668	70.422	-0.090	0.094
-500.653	187.805	0.195	-0.295
-499.639	-95.533	-0.112	-0.030
-498.624	800.000	-0.015	0.050
-497.610	-200.000	-0.045	-0.250
-496.595	-44.619	-0.460	-0.232
-495.581	12.368	-0.134	-0.104
-494.566	-124.650	-0.158	0.025
-493.551	43.338	-0.178	-0.165
-492.537	-40.224	-0.139	-0.073
-491.522	-200.000	-0.025	0.121
-490.508	592.488	0.033	0.082
-489.493	-31.138	0.075	0.043
-488.478	321.799	0.087	-0.168
-487.464	-200.000	0.006	0.190
-486.449	-36.251	-0.150	0.082
-485.435	800.000	0.035	0.139
-484.420	-200.000	-0.018	0.105
-483.405	24.774	0.116	-0.097
-482.391	-15.966	-0.305	0.196
-481.376	-200.000	-0.086	0.384
-480.362	61.274	0.180	-0.181
-479.347	-55.020	0.104	0.047
-478.332	-0.479	0.177	0.127
-477.318	-45.979	-0.070	-0.035
-476.303	800.000	0.076	0.327
-475.289	240.109	0.012	-0.020
-474.274	188.097	-0.217	0.327
-473.259	-93.893	-0.254	-0.071
-472.245	-120.068	0.145	0.025
-471.230	-89.192	-0.192	-0.057
-470.216	-200.000	0.220	0.000
-469.201	418.448	-0.137	0.296
-468.186	800.000	-0.053	-0.201
-467.172	-102.697	0.391	-0.094
-466.157	-81.774	0.188	0.062
-465.143	150.540	-0.156	0.214
-464.128	-52.190	0.226	0.106
-463.113	18.608	0.085	-0.068
-462.099	251.961	-0.170	-0.293
-461.084	-200.000	0.048	-0.365
-460.070	-89.992	0.090	-0.026
-459.055	-67.858	0.254	-0.100
-458.040	-165.141	-0.064	-0.003
-457.026	241.905	0.076	-0.129
-456.011	800.000	-0.044	-0.124
-454.997	646.357	-0.069	-0.179
-453.982	800.000	0.049	0.151
-452.968	19.925	-0.046	-0.038
-451.953	188.900	0.127	-0.192
-450.938	490.733	0.068	0.157
-449.924	55.099	0.132	0.129
-448.909	-200.000	-0.030	-0.229
-447.895	40.032	0.110	0.100
-446.880	-115.040	-0.102	-0.020
-445.865	-200.000	0.030	-0.153
-444.851	591.661	-0.193	0.481
-443.836	537.814	-0.137	-0.329
-442.822	-33.735	0.125	0.070
-441.807	800.000	-0.074	-0.220
-440.792	-200.000	-0.002	0.172
-439.778	-200.000	-0.003	-0.069
-438.763	-138.020	0.002	-0.000
-437.749	-200.000	-0.012	0.137
-436.734	576.980	0.098	0.240
-435.719	-88.398	-0.303	-0.091
-434.705	-98.685	-0.175	0.045
-433.690	-200.000	-0.070	-0.341
-432.676	583.546	-0.114	0.283
-431.661	-135.585	0.260	0.031
-430.646	-133.759	0.112	0.014
-429.632	-3.710	-0.199	-0.139
-428.617	-200.000	0.017	0.101
-427.603	-41.651	-0.246	0.127
-426.588	367.586	0.050	-0.101
-425.573	-77.335	0.335	-0.117
-424.559	-108.622	-0.187	-0.040
-423.544	-24.540	-0.144	-0.086
-422.530	800.000	0.045	-0.130
-421.515	212.466	0.076	0.120
-420.500	-200.000	0.023	-0.205
-419.486	-200.000	0.040	0.223
-418.471	384.388	0.087	0.181
-417.457	-99.216	-0.538	0.137
-416.442	-106.667	-0.496	0.111
-415.428	-200.000	0.005	0.171
-414.413	-18.440	0.209	0.132
-413.398	-200.000	0.096	-0.435
-412.384	20.367	0.123	-0.100
-411.369	-114.291	0.213	-0.041
-410.355	-124.548	-0.149	0.023
-409.340	-143.892	0.193	-0.018
-408.325	406.913	0.186	0.395
-407.311	206.431	0.135	-0.211
-406.296	-11.673	-0.417	-0.276
-405.282	416.878	-0.088	0.188
-404.267	-113.901	0.178	0.035
-403.252	-109.100	-0.185	-0.040
-402.238	190.593	0.159	-0.241
-401.223	45.669	-0.197	-0.184
-400.209	151.165	-0.143	0.196
-399.194	-200.000	-0.063	-0.310
-398.179	-89.386	0.073	-0.022
-397.165	-44.760	-0.194	0.097
-396.150	489.627	-0.173	-0.399
-395.136	-108.175	-0.111	0.024
-394.121	92.267	-0.093	0.105
-393.106	-200.000	-0.017	-0.182
-392.092	-12.677	0.037	-0.024
-391.077	93.207	0.261	-0.297
-390.063	146.588	0.052	0.070
-389.048	-119.772	0.055	0.010
-388.033	-200.000	-0.025	-0.187
-387.019	144.282	0.043	0.058
-386.004	-32.824	-0.114	0.064
-384.990	-200.000	0.011	-0.164
-383.975	1.489	0.045	-0.033
-382.960	-200.000	0.042	-0.351
-381.946	-200.000	-0.043	0.271
-380.931	-114.278	-0.288	0.056
-379.917	-58.211	0.148	-0.065
-378.902	-119.463	-0.485	-0.085
-377.888	-173.064	0.501	-0.016
-376.873	311.778	0.112	0.212
-375.858	-49.215	-0.332	0.160
-374.844	177.787	0.274	0.402
-373.829	126.796	0.200	-0.255
-372.815	-44.493	-0.187	-0.094
-371.800	-173.765	-0.160	0.005
-370.785	749.077	0.069	0.188
-369.771	-96.365	0.226	0.060
-368.756	411.346	0.049	-0.105
-367.742	800.000	0.052	-0.145
-366.727	393.687	0.123	0.257
-365.712	-66.724	0.280	-0.111
-364.698	-103.524	-0.111	0.026
-363.683	-148.672	0.079	-0.006
-362.669	-149.214	0.169	0.014
-361.654	-67.564	0.169	0.067
-360.639	-200.000	-0.021	0.153
-359.625	14.939	-0.140	0.110
-358.610	-105.542	0.145	0.033
-357.596	-48.567	0.360	-0.174
-356.581	191.210	-0.145	0.219
-355.566	-181.245	0.293	0.006
-354.552	-88.150	0.263	0.079
-353.537	-57.461	0.043	0.019
-352.523	-200.000	-0.040	-0.185
-351.508	-29.863	0.171	0.098
-350.493	632.615	0.100	-0.254
-349.479	-48.179	-0.467	-0.227
-348.464	319.544	-0.190	-0.363
-347.450	800.000	-0.113	0.360
-346.435	800.000	0.064	0.245
-345.420	177.873	-0.128	-0.187
-344.406	240.353	0.153	0.256
-343.391	248.678	-0.160	-0.273
-342.377	603.236	0.058	0.144
-341.362	-68.421	-0.023	0.009
-340.348	43.223	0.141	-0.129
-339.333	72.823	-0.150	-0.158
-338.318	-200.000	0.017	0.255
-337.304	-97.669	-0.246	-0.064
-336.289	78.265	0.095	-0.102
-335.275	-55.934	0.334	-0.150
-334.260	-200.000	0.028	0.305
-333.245	48.313	0.057	-0.054
-332.231	-89.448	-0.340	0.100
-331.216	-200.000	-0.009	-0.055
-330.202	-136.876	0.416	-0.048
-329.187	-90.897	0.597	-0.172
-328.172	-200.000	0.074	0.373
-327.158	100.400	0.154	0.179
-326.143	-200.000	-0.008	-0.121
-325.129	181.933	-0.141	-0.209
-324.114	-108.890	0.219	0.047
-323.099	-33.873	0.133	0.073
-322.085	411.709	0.153	0.326
-321.070	-200.000	-0.003	-0.074
-320.056	15.502	0.210	0.166
-319.041	-150.870	0.205	0.016
-318.026	800.000	0.086	-0.246
-317.012	-200.000	0.052	-0.383
-315.997	-27.442	-0.208	0.122
-314.983	54.907	-0.099	0.096
-313.968	-200.000	-0.011	0.105
-312.953	-52.271	0.270	-0.126
-311.939	800.000	0.055	0.169
-310.924	-200.000	-0.061	-0.335
-309.910	57.642	0.097	-0.095
-308.895	-200.000	0.015	-0.224
-307.880	-126.202	-0.146	-0.022
-306.866	-109.713	-0.330	0.070
-305.851	126.766	-0.126	0.160
-304.837	164.014	0.137	0.194
-303.822	757.870	-0.076	-0.207
-302.807	574.593	-0.067	-0.165
-301.793	-107.502	0.047	-0.010
-300.778	-108.349	0.056	0.012
-299.764	155.170	-0.038	-0.052
-298.749	53.740	-0.054	-0.052
-297.735	156.389	-0.206	0.285
-296.720	-85.027	-0.065	0.021
-295.705	11.551	0.211	-0.162
-294.691	215.688	-0.161	0.256
-293.676	-87.272	0.123	0.038
-292.662	-33.224	0.197	-0.110
-291.647	-200.000	0.028	0.422
-290.632	259.766	-0.134	-0.232
-289.618	800.000	-0.025	0.076
-288.603	-80.793	0.245	0.081
-287.589	-37.222	-0.240	0.129
-286.574	-200.000	0.017	-0.330
-285.559	-200.000	-0.002	0.113
-284.545	-63.245	0.527	-0.218
-283.530	-156.972	-0.364	-0.022
-282.516	-138.694	0.305	0.033
-281.501	210.235	0.157	-0.247
-280.486	-168.223	0.464	0.018
-279.472	-74.926	0.255	0.092
-278.457	320.238	-0.104	0.197
-277.443	150.429	0.093	-0.126
-276.428	615.717	0.039	0.098
-275.413	-200.000	-0.055	-0.307
-274.399	242.456	-0.073	-0.122
-273.384	-28.398	0.205	-0.118
-272.370	-161.997	0.121	0.006
-271.355	-200.000	-0.020	0.169
-270.340	-111.036	0.315	0.065
-269.326	800.000	-0.038	-0.164
-268.311	577.479	-0.107	0.262
-267.297	640.156	-0.060	-0.153
-266.282	476.286	0.098	0.221
-265.267	800.000	0.084	0.273
-264.253	-200.000	0.042	-0.237
-263.238	8.742	-0.326	-0.246
-262.224	-45.654	-0.187	0.093
-261.209	377.266	0.044	0.089
-260.195	800.000	-0.042	0.139
-259.180	-200.000	-0.039	-0.364
-258.165	543.264	0.084	-0.201
-257.151	-26.329	-0.329	-0.193
-256.136	258.039	0.016	0.028
-255.122	163.343	0.088	-0.124
-254.107	-61.752	-0.058	-0.024
-253.092	-200.000	-0.000	-0.130
-252.078	-200.000	0.033	0.425
-251.063	-183.931	-0.118	-0.002
-250.049	-43.945	-0.205	-0.103
-249.034	-161.495	0.298	-0.015
-248.019	443.801	0.011	-0.025
-247.005	81.100	-0.071	0.077
-245.990	10.551	0.113	0.086
-244.976	-4.013	0.268	0.186
-243.961	131.162	-0.157	0.201
-242.946	-83.980	0.123	-0.039
-241.932	9.873	-0.134	-0.102
-240.917	-140.167	0.125	0.013
-239.903	94.310	-0.022	0.025
-238.888	54.170	0.300	0.289
-237.873	48.304	0.075	-0.070
-236.859	235.524	0.135	0.224
-235.844	342.756	0.157	-0.308
-234.830	800.000	0.108	-0.322
-233.815	-133.568	-0.145	-0.018
-232.800	241.302	-0.170	0.284
-231.786	297.124	0.063	-0.116
-230.771	142.016	0.251	0.333
-229.757	-200.000	0.076	0.431
-228.742	-48.421	-0.327	0.158
-227.727	81.254	0.195	-0.211
-226.713	47.514	-0.152	0.142
-225.698	800.000	0.042	0.149
-224.684	-200.000	-0.074	0.323
-223.669	800.000	0.044	0.153
-222.655	4.649	0.131	0.096
-221.640	800.000	0.020	0.070
-220.625	140.668	-0.099	0.131
-219.611	800.000	0.042	-0.156
-218.596	-114.324	0.031	-0.006
-217.582	-200.000	-0.014	0.114
-216.567	-160.782	0.200	-0.011
-215.552	-51.999	0.199	0.092
-214.538	-200.000	0.019	0.288
-213.523	-132.031	0.383	0.050
-212.509	-122.686	0.117	0.019
-211.494	-170.300	-0.332	-0.012
-210.479	35.010	0.083	-0.072
-209.465	-111.690	0.301	-0.061
-208.450	111.546	0.096	0.115
-207.436	-52.639	0.186	0.086
-206.421	261.307	0.059	-0.101
-205.406	103.530	0.098	0.115
-204.392	-200.000	-0.036	0.240
-203.377	-200.000	-0.013	0.130
-202.363	487.300	-0.038	-0.088
-201.348	424.807	-0.078	-0.168
-200.333	-200.000	-0.011	0.183
-199.319	336.946	-0.215	-0.416
-198.304	-142.303	0.217	0.021
-197.290	-200.000	-0.024	0.445
-196.275	-16.316	0.080	-0.050
-195.260	-115.276	-0.353	-0.067
-194.246	655.267	-0.018	-0.047
-193.231	28.345	-0.117	0.098
-192.217	-200.000	0.001	-0.034
-191.202	-63.437	0.226	0.093
-190.187	110.182	0.076	0.092
-189.173	208.771	-0.136	0.213
-188.158	171.882	-0.106	0.151
-187.144	-15.555	-0.191	0.122
-186.129	204.916	-0.102	-0.157
-185.114	136.062	0.143	0.187
-184.100	-200.000	-0.020	0.118
-183.085	12.147	0.023	-0.017
-182.071	197.807	0.109	0.166
-181.056	-200.000	-0.009	0.096
-180.042	-99.753	0.135	0.034
-179.027	648.287	0.154	0.393
-178.012	70.812	-0.064	-0.066
-176.998	800.000	0.029	0.097
-175.983	442.938	-0.094	-0.205
-174.969	-105.251	-0.154	0.035
-173.954	-200.000	-0.006	-0.176
-172.939	-100.084	0.068	0.017
-171.925	-200.000	-0.041	-0.284
-170.910	443.878	0.216	0.472
-169.896	20.787	0.292	-0.236
-168.881	-0.164	-0.149	-0.106
-167.866	-126.666	-0.053	-0.008
-166.852	-94.224	-0.137	0.037
-165.837	648.164	-0.064	0.163
-164.823	545.785	0.062	-0.149
-163.808	46.865	0.160	0.148
-162.793	27.223	-0.306	0.256
-161.779	800.000	0.049	0.152
-160.764	768.170	0.084	-0.228
-159.750	185.284	0.046	0.067
-158.735	-189.180	0.504	0.006
-157.720	144.152	0.100	0.133
-156.706	-200.000	-0.011	0.326
-155.691	-200.000	-0.015	-0.326
-154.677	-200.000	0.021	-0.103
-153.662	-16.564	-0.067	0.042
-152.647	-81.203	-0.177	-0.058
-151.633	-200.000	-0.011	-0.102
-150.618	9.109	-0.108	-0.081
-149.604	126.749	-0.088	0.111
-148.589	800.000	-0.022	-0.094
-147.574	800.000	-0.115	0.366
-146.560	-54.180	0.409	0.185
-145.545	358.294	-0.087	0.174
-144.531	-200.000	0.016	-0.073
-143.516	253.525	0.080	-0.137
-142.502	306.444	-0.092	0.171
-141.487	-200.000	-0.019	-0.095
-140.472	165.662	0.085	-0.119
-139.458	71.399	0.118	0.123
-138.443	-185.535	0.287	0.004
-137.429	454.403	-0.033	0.073
-136.414	-75.024	-0.067	0.024
-135.399	-200.000	-0.016	-0.217
-134.385	-132.555	0.132	-0.017
-133.370	-124.421	0.118	-0.018
-132.356	-200.000	-0.016	-0.377
-131.341	467.821	0.090	-0.201
-130.326	45.868	-0.180	-0.166
-129.312	103.599	0.179	-0.209
-128.297	282.653	-0.074	-0.133
-127.283	-9.017	0.061	-0.041
-126.268	-37.589	-0.104	0.055
-125.253	55.786	-0.118	0.114
-124.239	-80.326	-0.132	0.044
-123.224	39.299	0.185	0.165
-122.210	-102.909	-0.051	-0.012
