DTS Sentinel unit serial number:	SN413079Multiplexer serial number:	ORYXHardware model number:	OX4-SRSoftware version number:	ORYX F/W v4.00 Oryx Data Collector v3.7.2.0data status	okinstallation	princeton_trtdifferential loss correction	single-endedforward channel	channel 4reverse channel	N/Adate	2019/09/16time	22:45:35forward acquisition time	60.00reverse acquisition time	0.00gamma	496.2192k internal	0.2313k external	0.2313temperature offset calibration	0.9974default loss term (dB/km)	0.3790temperature slope calibration	1.0000multiplexer offset coefficient	1.0000multiplexer slope coefficient	1.0000fibre end	0.00T internal ref (°C)	30.56T ext. ref 1 (°C)	0.08T ext. ref 2 (°C)	24.21length (m)	temperature (°C)	Stokes	anti-Stokes-747.200	138.232	0.176	-0.235
-746.185	151.016	0.106	0.146
-745.171	-10.469	-0.168	0.113
-744.156	-61.894	-0.141	-0.060
-743.142	559.035	-0.055	-0.135
-742.127	219.708	0.140	0.227
-741.112	-56.928	-0.317	0.142
-740.098	-91.849	0.128	0.037
-739.083	105.689	-0.300	-0.359
-738.069	42.131	0.050	0.046
-737.054	48.750	0.095	-0.091
-736.039	800.000	-0.047	-0.139
-735.025	800.000	0.060	0.193
-734.010	-70.590	-0.219	0.084
-732.996	800.000	0.043	-0.127
-731.981	70.183	0.065	0.068
-730.966	37.970	-0.221	-0.200
-729.952	338.889	0.135	-0.267
-728.937	17.072	0.185	-0.149
-727.923	33.054	-0.219	-0.192
-726.908	-175.146	-0.185	0.005
-725.894	-37.091	0.387	-0.210
-724.879	800.000	0.072	-0.234
-723.864	-46.935	-0.277	0.137
-722.850	-94.613	-0.196	0.054
-721.835	-117.880	0.260	-0.047
-720.821	-129.926	0.150	-0.021
-719.806	52.798	-0.101	-0.098
-718.791	-200.000	-0.051	-0.243
-717.777	-110.102	0.231	0.049
-716.762	54.576	-0.110	-0.107
-715.748	460.096	0.082	-0.185
-714.733	800.000	0.105	0.437
-713.718	-141.068	-0.370	-0.038
-712.704	41.480	0.254	-0.233
-711.689	800.000	-0.145	-0.547
-710.675	72.726	0.079	-0.084
-709.660	-118.017	-0.081	-0.015
-708.645	-200.000	0.070	-0.409
-707.631	-43.617	-0.352	-0.180
-706.616	-6.027	-0.392	-0.271
-705.602	67.197	-0.113	-0.117
-704.587	-200.000	-0.026	-0.405
-703.572	800.000	0.043	0.147
-702.558	-113.589	-0.263	0.052
-701.543	-200.000	0.018	0.109
-700.529	-200.000	0.011	-0.126
-699.514	466.314	-0.047	-0.106
-698.499	800.000	-0.033	-0.098
-697.485	-200.000	-0.073	0.363
-696.470	176.085	-0.017	-0.025
-695.456	-77.061	-0.355	0.125
-694.441	-118.945	0.188	-0.033
-693.426	-78.376	-0.344	0.119
-692.412	254.840	0.107	0.186
-691.397	50.141	-0.113	0.108
-690.383	13.550	0.118	0.093
-689.368	143.429	-0.053	0.071
-688.354	-7.677	0.108	0.074
-687.339	-29.694	0.102	-0.059
-686.324	132.505	-0.120	-0.156
-685.310	-27.704	0.269	0.158
-684.295	186.035	-0.065	-0.098
-683.281	165.158	0.092	-0.131
-682.266	43.966	-0.093	0.086
-681.251	-57.434	0.198	-0.088
-680.237	118.215	0.130	0.162
-679.222	-11.656	-0.144	-0.096
-678.208	-200.000	0.016	-0.497
-677.193	-19.948	-0.064	0.040
-676.178	355.391	0.023	-0.046
-675.164	-58.008	-0.070	0.031
-674.149	99.987	-0.125	0.146
-673.135	-200.000	0.052	0.334
-672.120	250.208	0.087	-0.150
-671.105	-200.000	0.009	0.186
-670.091	-200.000	0.008	-0.140
-669.076	-92.978	-0.141	-0.040
-668.062	-47.915	-0.402	0.197
-667.047	-36.040	0.117	-0.064
-666.032	-47.783	-0.261	-0.128
-665.018	98.921	-0.185	-0.216
-664.003	58.096	0.225	0.223
-662.989	516.067	0.043	-0.101
-661.974	445.955	-0.043	0.095
-660.959	800.000	0.018	-0.055
-659.945	349.785	0.193	-0.385
-658.930	560.228	-0.096	-0.234
-657.916	22.270	0.126	-0.104
-656.901	58.069	0.150	-0.148
-655.886	-66.980	0.045	0.018
-654.872	-200.000	0.012	-0.419
-653.857	167.032	0.025	0.035
-652.843	-50.067	-0.189	0.091
-651.828	-200.000	0.019	-0.156
-650.814	131.467	-0.068	-0.088
-649.799	-115.130	0.343	-0.066
-648.784	-19.027	0.309	0.194
-647.770	-26.876	-0.167	-0.098
-646.755	-186.577	-0.086	-0.001
-645.741	-119.702	0.172	0.030
-644.726	-73.547	-0.067	-0.025
-643.711	-54.310	-0.177	-0.081
-642.697	-21.273	-0.172	-0.106
-641.682	-200.000	0.042	-0.261
-640.668	297.833	-0.106	-0.197
-639.653	261.342	-0.038	0.067
-638.638	-46.457	-0.317	-0.157
-637.624	-129.316	0.269	-0.038
-636.609	-96.129	0.313	0.084
-635.595	655.344	0.054	0.141
-634.580	-43.240	-0.087	-0.044
-633.565	-200.000	-0.011	-0.415
-632.551	800.000	-0.094	-0.398
-631.536	-73.795	0.285	-0.105
-630.522	204.184	0.210	-0.329
-629.507	-4.611	0.365	-0.254
-628.492	-200.000	-0.033	0.230
-627.478	54.575	0.075	-0.073
-626.463	-68.350	-0.238	-0.093
-625.449	-182.099	0.234	0.004
-624.434	-152.593	-0.291	-0.021
-623.419	-76.925	0.237	-0.083
-622.405	28.477	-0.111	0.095
-621.390	141.552	0.193	0.257
-620.376	174.873	0.060	-0.088
-619.361	-105.825	0.258	0.059
-618.346	225.562	-0.158	0.258
-617.332	583.664	0.064	0.158
-616.317	1.918	-0.090	-0.066
-615.303	-200.000	0.008	-0.226
-614.288	-26.387	-0.182	0.108
-613.273	3.314	-0.402	-0.295
-612.259	-48.896	0.221	-0.107
-611.244	800.000	-0.055	-0.185
-610.230	800.000	0.043	-0.170
-609.215	-47.221	-0.242	0.119
-608.201	-110.957	-0.085	0.018
-607.186	-90.489	-0.200	0.058
-606.171	-94.268	0.094	-0.026
-605.157	49.432	0.214	-0.203
-604.142	55.923	-0.159	-0.156
-603.128	-111.890	0.265	-0.054
-602.113	147.978	-0.110	-0.150
-601.098	800.000	-0.028	0.109
-600.084	191.859	-0.185	-0.282
-599.069	755.985	-0.043	-0.116
-598.055	127.076	-0.152	0.195
-597.040	27.336	0.145	0.122
-596.025	-74.564	0.140	-0.051
-595.011	31.059	-0.192	0.166
-593.996	-80.430	-0.278	0.094
-592.982	-131.995	0.067	0.009
-591.967	-200.000	-0.037	0.230
-590.952	86.070	-0.143	-0.159
-589.938	36.175	0.055	-0.048
-588.923	82.383	-0.094	0.103
-587.909	52.148	0.254	-0.244
-586.894	69.779	0.162	-0.168
-585.879	800.000	-0.086	0.284
-584.865	800.000	0.033	0.131
-583.850	-191.365	0.315	0.003
-582.836	-200.000	-0.014	-0.467
-581.821	-200.000	-0.014	-0.114
-580.806	-35.750	-0.190	-0.104
-579.792	800.000	-0.079	-0.282
-578.777	-145.504	-0.212	-0.019
-577.763	-200.000	-0.018	0.207
-576.748	-199.312	0.137	0.001
-575.733	391.170	-0.105	0.219
-574.719	34.030	-0.120	-0.106
-573.704	-12.263	0.086	0.057
-572.690	-8.049	-0.186	-0.126
-571.675	514.672	0.109	-0.256
-570.661	-110.448	0.141	0.030
-569.646	-200.000	-0.009	-0.202
-568.631	-200.000	-0.002	0.232
-567.617	800.000	-0.023	0.084
-566.602	-177.296	-0.185	-0.005
-565.588	-13.013	0.109	0.072
-564.573	800.000	0.049	-0.153
-563.558	214.393	-0.115	-0.184
-562.544	2.291	0.051	0.037
-561.529	-59.757	0.141	0.061
-560.515	-30.736	0.034	-0.019
-559.500	-200.000	0.076	-0.365
-558.485	800.000	-0.014	-0.048
-557.471	794.616	-0.122	-0.338
-556.456	119.403	0.117	0.145
-555.442	-145.333	-0.273	-0.025
-554.427	-61.668	-0.122	0.051
-553.412	137.026	0.126	0.166
-552.398	194.622	0.122	0.187
-551.383	224.099	-0.092	-0.150
-550.369	303.041	0.015	-0.029
-549.354	-42.818	-0.058	0.030
-548.339	8.646	-0.109	0.083
-547.325	144.612	0.032	-0.043
-546.310	4.181	0.046	-0.034
-545.296	-200.000	0.008	0.063
-544.281	-100.235	0.081	0.020
-543.266	-110.047	0.088	-0.019
-542.252	240.300	-0.128	-0.215
-541.237	161.389	-0.044	0.062
-540.223	198.316	0.176	0.272
-539.208	-136.415	0.244	-0.029
-538.193	-200.000	-0.044	0.222
-537.179	114.667	-0.099	0.122
-536.164	-14.097	0.404	0.262
-535.150	22.974	-0.158	0.130
-534.135	-29.841	-0.153	-0.087
-533.121	-200.000	0.068	-0.495
-532.106	600.315	-0.164	-0.410
-531.091	800.000	-0.088	0.268
-530.077	-62.459	0.115	-0.048
-529.062	68.157	-0.071	0.073
-528.048	-20.876	0.262	0.161
-527.033	800.000	0.077	-0.223
-526.018	23.452	0.186	-0.154
-525.004	800.000	-0.043	0.147
-523.989	142.219	-0.158	0.210
-522.975	-171.551	0.344	-0.011
-521.960	-13.669	-0.167	-0.109
-520.945	54.884	0.290	0.281
-519.931	-86.609	-0.072	0.022
-518.916	-200.000	-0.055	0.537
-517.902	-53.533	-0.130	0.060
-516.887	211.222	-0.088	0.139
-515.872	-200.000	-0.019	-0.324
-514.858	800.000	-0.031	-0.123
-513.843	-54.562	0.073	-0.033
-512.829	-3.503	-0.112	-0.078
-511.814	800.000	0.063	0.244
-510.799	-60.653	0.287	0.122
-509.785	-61.585	-0.156	-0.066
-508.770	12.694	0.091	0.071
-507.756	800.000	0.024	-0.095
-506.741	98.150	-0.158	0.183
-505.726	23.427	-0.272	0.225
-504.712	-117.235	0.109	0.020
-503.697	-169.086	-0.024	0.001
-502.683	-1.889	-0.171	-0.121
-501.668	-70.074	-0.202	-0.077
-500.653	483.826	-0.104	-0.237
-499.639	-131.778	0.220	-0.029
-498.624	33.536	0.194	0.170
-497.610	-89.312	-0.257	-0.076
-496.595	30.612	0.248	-0.213
-495.581	-82.476	-0.194	0.063
-494.566	-158.441	-0.206	0.012
-493.551	800.000	0.074	-0.214
-492.537	800.000	0.145	-0.459
-491.522	-200.000	0.030	-0.168
-490.508	-9.353	-0.121	-0.081
-489.493	193.431	-0.199	0.303
-488.478	-61.932	0.137	-0.058
-487.464	799.326	0.080	0.221
-486.449	-31.450	-0.233	-0.132
-485.435	-200.000	-0.006	0.176
-484.420	-200.000	-0.035	-0.216
-483.405	268.424	0.183	0.323
-482.391	-95.771	0.402	0.108
-481.376	-33.618	-0.215	-0.119
-480.362	-67.721	0.151	-0.059
-479.347	-91.989	0.108	-0.031
-478.332	157.945	0.207	0.289
-477.318	800.000	0.045	0.190
-476.303	-200.000	0.053	-0.238
-475.289	15.530	-0.207	-0.163
-474.274	22.873	0.335	-0.275
-473.259	800.000	0.022	-0.084
-472.245	800.000	0.052	0.183
-471.230	-23.582	0.194	0.117
-470.216	-200.000	0.033	0.222
-469.201	151.410	0.159	-0.217
-468.186	-200.000	0.069	0.356
-467.172	-186.685	-0.209	0.003
-466.157	-114.305	0.088	0.017
-465.143	-200.000	0.018	-0.085
-464.128	279.816	0.078	0.141
-463.113	301.204	-0.165	-0.305
-462.099	800.000	0.121	-0.367
-461.084	-98.961	0.211	-0.054
-460.070	49.417	0.062	0.059
-459.055	-89.906	-0.104	-0.031
-458.040	800.000	0.006	0.022
-457.026	-137.579	-0.093	0.011
-456.011	-78.521	0.112	-0.038
-454.997	-142.652	-0.085	0.008
-453.982	53.639	-0.216	0.208
-452.968	800.000	0.026	0.097
-451.953	106.920	0.176	0.209
-450.938	-200.000	-0.019	-0.171
-449.924	-116.912	-0.290	-0.053
-448.909	-200.000	0.003	0.257
-447.895	248.324	0.065	-0.111
-446.880	-200.000	-0.030	-0.346
-445.865	450.736	-0.095	-0.210
-444.851	-64.025	0.172	-0.070
-443.836	-200.000	0.002	-0.177
-442.822	-200.000	0.044	-0.210
-441.807	128.181	0.179	-0.228
-440.792	800.000	0.023	0.091
-439.778	235.197	0.128	0.212
-438.763	-200.000	0.057	-0.383
-437.749	-39.034	0.131	0.069
-436.734	-74.567	-0.344	-0.124
-435.719	58.549	-0.075	-0.074
-434.705	-64.025	0.332	-0.136
-433.690	442.747	-0.033	0.073
-432.676	13.019	-0.118	-0.092
-431.661	-103.881	-0.087	-0.020
-430.646	-140.090	-0.357	-0.038
-429.632	272.921	-0.145	-0.256
-428.617	306.693	-0.147	-0.275
-427.603	-66.949	-0.092	-0.037
-426.588	1.402	-0.333	0.240
-425.573	122.765	0.095	-0.119
-424.559	-127.332	-0.189	-0.028
-423.544	53.316	-0.071	-0.068
-422.530	-33.163	-0.349	-0.194
-421.515	121.956	0.128	-0.160
-420.500	-10.368	-0.219	0.146
-419.486	-112.813	-0.228	-0.045
-418.471	800.000	0.086	-0.368
-417.457	-1.280	-0.292	0.207
-416.442	53.430	0.199	0.191
-415.428	-113.112	0.131	-0.026
-414.413	-12.305	0.212	-0.139
-413.398	-200.000	0.016	0.275
-412.384	-16.042	-0.337	-0.215
-411.369	389.188	0.070	-0.144
-410.355	182.549	-0.109	-0.161
-409.340	-200.000	-0.074	0.366
-408.325	800.000	-0.107	0.441
-407.311	-30.359	-0.133	0.076
-406.296	-193.636	-0.192	-0.002
-405.282	49.190	0.033	-0.031
-404.267	282.539	-0.114	0.204
-403.252	89.043	0.204	-0.227
-402.238	197.900	-0.054	-0.082
-401.223	-23.171	-0.077	0.046
-400.209	18.875	0.217	-0.174
-399.194	7.490	0.221	0.166
-398.179	-149.825	0.225	-0.018
-397.165	639.833	-0.125	0.318
-396.150	-161.657	0.159	0.008
-395.136	-200.000	0.071	-0.408
-394.121	-97.002	0.182	0.048
-393.106	-50.122	0.079	0.037
-392.092	-200.000	0.014	0.102
-391.077	800.000	-0.038	0.123
-390.063	69.806	0.117	-0.120
-389.048	103.464	-0.245	0.287
-388.033	132.287	0.023	-0.030
-387.019	-64.493	0.197	0.080
-386.004	33.969	-0.139	-0.121
-384.990	800.000	-0.004	0.014
-383.975	-42.046	0.115	0.059
-382.960	4.217	0.117	-0.086
-381.946	202.443	-0.085	0.131
-380.931	-200.000	-0.015	-0.120
-379.917	36.425	-0.312	0.275
-378.902	-74.885	-0.261	-0.094
-377.888	43.145	0.282	-0.257
-376.873	-200.000	-0.005	0.172
-375.858	331.100	-0.081	0.156
-374.844	-125.283	0.595	0.091
-373.829	-200.000	-0.005	-0.114
-372.815	800.000	0.140	0.399
-371.800	-62.840	-0.071	0.029
-370.785	-112.390	0.267	0.053
-369.771	-72.361	-0.435	0.161
-368.756	-77.718	0.124	0.043
-367.742	102.531	-0.169	0.198
-366.727	65.376	0.134	-0.135
-365.712	-103.685	0.127	0.030
-364.698	-131.476	-0.521	-0.069
-363.683	-200.000	0.208	0.000
-362.669	-77.635	0.364	0.126
-361.654	354.642	0.024	0.047
-360.639	-115.342	-0.248	0.047
-359.625	-200.000	-0.065	0.593
-358.610	800.000	-0.059	-0.213
-357.596	-96.232	0.103	0.027
-356.581	-89.218	-0.185	-0.054
-355.566	-102.987	-0.264	0.062
-354.552	800.000	0.090	-0.256
-353.537	-2.465	-0.211	0.148
-352.523	-88.993	-0.164	0.048
-351.508	800.000	-0.052	-0.145
-350.493	186.993	0.145	0.216
-349.479	96.377	-0.282	0.322
-348.464	-31.928	0.233	-0.130
-347.450	210.007	0.065	-0.102
-346.435	31.451	-0.142	-0.122
-345.420	-189.594	-0.065	-0.001
-344.406	-200.000	-0.027	0.171
-343.391	42.645	-0.128	-0.116
-342.377	25.436	-0.256	-0.213
-341.362	45.484	-0.222	-0.205
-340.348	-200.000	0.040	-0.184
-339.333	-48.864	0.255	-0.122
-338.318	-31.803	0.293	-0.164
-337.304	-200.000	0.029	0.290
-336.289	374.427	0.172	-0.349
-335.275	-116.123	0.240	-0.045
-334.260	800.000	-0.064	0.207
-333.245	-40.444	-0.341	0.177
-332.231	-7.769	-0.162	0.109
-331.216	-200.000	0.005	0.203
-330.202	325.705	0.123	-0.236
-329.187	28.698	0.092	0.078
-328.172	-68.175	0.185	0.072
-327.158	44.947	-0.059	0.054
-326.143	54.961	0.305	-0.294
-325.129	-14.031	0.121	0.078
-324.114	221.409	0.149	0.239
-323.099	13.674	-0.266	-0.206
-322.085	11.144	0.128	0.097
-321.070	397.116	0.012	-0.025
-320.056	278.451	-0.050	0.088
-319.041	-200.000	-0.001	-0.124
-318.026	672.243	-0.033	-0.085
-317.012	800.000	-0.043	-0.140
-315.997	-63.160	0.442	-0.182
-314.983	11.257	0.214	-0.163
-313.968	246.569	-0.172	0.289
-312.953	0.748	0.064	-0.046
-311.939	462.150	-0.063	-0.141
-310.924	-68.405	-0.157	0.061
-309.910	-200.000	0.042	0.413
-308.895	-200.000	-0.017	-0.101
-307.880	-192.785	-0.217	-0.002
-306.866	145.897	-0.062	0.082
-305.851	-200.000	0.026	-0.362
-304.837	-200.000	-0.065	0.341
-303.822	800.000	0.032	0.126
-302.807	49.582	0.060	0.056
-301.793	394.492	0.057	-0.118
-300.778	-200.000	0.016	-0.113
-299.764	-200.000	0.009	0.157
-298.749	117.922	-0.073	-0.089
-297.735	-200.000	-0.037	0.363
-296.720	55.223	-0.165	0.159
-295.705	-200.000	-0.007	0.290
-294.691	201.304	0.233	0.357
-293.676	-200.000	0.017	-0.323
-292.662	-49.378	0.087	0.041
-291.647	477.211	-0.096	0.217
-290.632	361.085	-0.157	0.314
-289.618	-1.373	-0.215	-0.151
-288.603	658.996	0.057	0.147
-287.589	-168.084	-0.294	0.011
-286.574	-123.229	0.279	0.045
-285.559	-99.518	0.115	0.029
-284.545	40.196	-0.020	-0.018
-283.530	-57.728	0.130	-0.057
-282.516	-200.000	0.002	-0.279
-281.501	13.216	-0.179	-0.138
-280.486	244.254	-0.019	-0.032
-279.472	-169.457	0.044	0.002
-278.457	232.972	0.203	0.332
-277.443	800.000	0.040	-0.144
-276.428	-12.132	0.137	-0.089
-275.413	45.388	-0.108	0.099
-274.399	46.246	0.385	-0.355
-273.384	122.089	-0.137	-0.170
-272.370	-200.000	0.080	-0.414
-271.355	-72.899	0.216	0.079
-270.340	-147.420	0.326	0.027
-269.326	-156.220	-0.433	0.027
-268.311	31.282	-0.198	0.169
-267.297	58.226	-0.038	-0.037
-266.282	-79.154	0.346	-0.117
-265.267	-121.209	0.217	0.036
-264.253	233.363	0.036	-0.060
-263.238	-98.919	-0.453	0.115
-262.224	800.000	-0.069	0.272
-261.209	54.369	-0.117	0.112
-260.195	-106.100	0.244	0.055
-259.180	40.205	0.042	0.038
-258.165	-200.000	-0.082	0.426
-257.151	-200.000	0.025	0.390
-256.136	-136.901	-0.118	-0.014
-255.122	41.777	-0.153	-0.138
-254.107	40.738	-0.299	-0.268
-253.092	-17.725	-0.183	0.114
-252.078	105.014	-0.194	0.227
-251.063	218.039	-0.062	0.098
-250.049	-96.433	0.115	0.030
-249.034	10.923	-0.313	-0.238
-248.019	-142.803	-0.239	0.023
-247.005	-1.825	-0.126	-0.088
-245.990	185.214	0.130	0.192
-244.976	76.266	0.224	0.236
-243.961	-52.267	-0.346	0.160
-242.946	-14.230	0.425	-0.272
-241.932	-20.456	-0.169	-0.103
-240.917	616.721	0.022	-0.054
-239.903	203.806	0.086	-0.132
-238.888	251.690	0.067	0.114
-237.873	-91.033	0.359	-0.103
-236.859	133.072	0.038	-0.049
-235.844	-175.642	0.442	0.012
-234.830	339.057	0.162	0.314
-233.815	399.508	0.050	0.103
-232.800	800.000	-0.034	-0.145
-231.786	-68.660	0.320	0.123
-230.771	331.636	0.138	0.265
-229.757	-200.000	0.009	0.117
-228.742	-68.071	-0.401	0.155
-227.727	-74.056	-0.140	-0.050
-226.713	-200.000	0.001	0.208
-225.698	-112.808	0.150	-0.030
-224.684	166.026	0.034	0.048
-223.669	27.398	-0.296	-0.247
-222.655	439.788	-0.006	0.012
-221.640	91.560	-0.187	-0.208
-220.625	-63.270	0.251	-0.103
-219.611	-25.679	-0.250	-0.146
-218.596	359.029	-0.211	0.419
-217.582	43.335	0.110	-0.100
-216.567	-200.000	-0.029	0.252
-215.552	410.147	0.108	0.227
-214.538	800.000	-0.019	0.061
-213.523	-42.442	0.336	-0.170
-212.509	368.220	-0.080	-0.161
-211.494	-200.000	0.008	0.205
-210.479	11.512	-0.118	0.090
-209.465	-135.403	-0.185	-0.022
-208.450	377.900	0.090	-0.182
-207.436	800.000	-0.076	0.323
-206.421	125.035	0.192	0.240
-205.406	557.937	0.059	0.142
-204.392	-20.921	0.297	0.181
-203.377	57.568	-0.107	0.104
-202.363	-131.190	0.207	-0.027
-201.348	-17.541	0.175	0.109
-200.333	800.000	-0.122	-0.374
-199.319	5.817	0.204	-0.150
-198.304	-155.707	-0.380	0.024
-197.290	217.450	0.075	0.119
-196.275	95.731	-0.136	-0.154
-195.260	-18.978	-0.103	0.064
-194.246	201.922	0.101	0.155
-193.231	5.654	-0.281	-0.206
-192.217	-200.000	-0.032	0.419
-191.202	-97.519	0.186	0.048
-190.187	72.624	0.033	-0.034
-189.173	800.000	0.047	-0.157
-188.158	-34.420	-0.076	0.041
-187.144	-161.231	0.313	0.016
-186.129	195.977	-0.091	0.137
-185.114	277.068	-0.047	0.082
-184.100	342.507	0.201	0.391
-183.085	-200.000	0.049	0.254
-182.071	-200.000	-0.097	0.000
-181.056	482.194	-0.060	-0.136
-180.042	337.591	0.072	-0.139
-179.027	327.492	-0.038	0.072
-178.012	-200.000	-0.048	-0.222
-176.998	288.279	-0.166	0.299
-175.983	-31.980	-0.285	0.158
-174.969	303.749	-0.056	-0.103
-173.954	-4.284	0.311	0.214
-172.939	580.262	0.223	0.542
-171.925	70.576	-0.166	-0.170
-170.910	-136.187	-0.124	0.014
-169.896	144.313	-0.124	-0.164
-168.881	-200.000	0.017	0.377
-167.866	-135.035	-0.170	0.020
-166.852	796.771	0.120	0.327
-165.837	623.431	-0.045	0.111
-164.823	-200.000	0.028	-0.298
-163.808	-200.000	0.001	-0.177
-162.793	400.089	-0.044	-0.091
-161.779	187.517	0.120	-0.178
-160.764	-200.000	0.003	0.224
-159.750	24.599	0.266	-0.218
-158.735	800.000	-0.091	-0.287
-157.720	47.226	-0.278	0.257
-156.706	108.059	0.183	-0.216
-155.691	-34.433	-0.182	-0.099
-154.677	-99.200	-0.021	0.005
-153.662	-200.000	-0.045	-0.338
-152.647	-200.000	0.038	-0.386
-151.633	-117.692	-0.099	-0.018
-150.618	-183.470	-0.226	-0.004
-149.604	-200.000	-0.067	0.347
-148.589	-200.000	-0.057	-0.278
-147.574	141.031	-0.053	0.070
-146.560	371.508	-0.102	0.205
-145.545	-81.849	0.108	-0.035
-144.531	-200.000	0.008	-0.040
-143.516	249.629	0.049	0.082
-142.502	-200.000	0.032	0.166
-141.487	-38.242	0.107	0.056
-140.472	269.236	-0.187	-0.324
-139.458	-200.000	0.036	0.393
-138.443	-192.016	0.327	-0.003
-137.429	-44.230	0.175	0.087
-136.414	-12.677	-0.285	-0.184
-135.399	800.000	-0.048	-0.135
-134.385	759.749	0.060	-0.161
-133.370	-75.166	0.358	-0.127
-132.356	-200.000	0.082	-0.366
-131.341	-109.763	-0.336	-0.070
-130.326	-58.096	-0.130	0.056
-129.312	-61.688	0.059	0.024
-128.297	-44.895	-0.103	-0.051
-127.283	-200.000	-0.033	-0.150
-126.268	-200.000	-0.060	-0.427
-125.253	514.407	0.075	0.174
-124.239	78.437	-0.227	-0.240
-123.224	102.580	0.027	0.031
-122.210	4.025	-0.103	0.075
-121.195	-9.029	-0.183	-0.121
