DTS Sentinel unit serial number:	SN413079Multiplexer serial number:	ORYXHardware model number:	OX4-SRSoftware version number:	ORYX F/W v4.00 Oryx Data Collector v3.7.2.0data status	okinstallation	princeton_trtdifferential loss correction	single-endedforward channel	channel 4reverse channel	N/Adate	2019/09/14time	02:53:34forward acquisition time	60.00reverse acquisition time	0.00gamma	496.2192k internal	0.2322k external	0.2322temperature offset calibration	1.0131default loss term (dB/km)	0.3790temperature slope calibration	1.0000multiplexer offset coefficient	1.0000multiplexer slope coefficient	1.0000fibre end	0.00T internal ref (°C)	26.56T ext. ref 1 (°C)	3.23T ext. ref 2 (°C)	21.62length (m)	temperature (°C)	Stokes	anti-Stokes-747.200	-139.556	-0.259	0.028
-746.185	-143.019	0.105	-0.010
-745.171	316.782	0.154	-0.294
-744.156	209.992	-0.039	-0.061
-743.142	-200.000	0.008	0.057
-742.127	-200.000	0.007	0.409
-741.112	614.176	-0.037	0.095
-740.098	318.768	0.172	0.328
-739.083	-64.669	0.121	0.049
-738.069	-78.340	-0.257	0.089
-737.054	800.000	-0.038	-0.150
-736.039	509.793	-0.117	0.274
-735.025	-20.831	0.227	0.141
-734.010	-31.310	-0.169	0.096
-732.996	309.299	-0.072	-0.135
-731.981	-104.116	-0.197	0.046
-730.966	169.905	-0.025	0.036
-729.952	-15.908	-0.055	0.036
-728.937	-8.986	-0.258	-0.175
-727.923	30.352	0.209	0.180
-726.908	-104.935	0.281	-0.065
-725.894	-5.653	0.023	-0.016
-724.879	-35.620	-0.395	0.217
-723.864	-31.726	0.206	0.117
-722.850	178.508	-0.123	0.182
-721.835	59.670	0.076	0.075
-720.821	215.910	-0.104	-0.167
-719.806	800.000	0.051	-0.160
-718.791	-118.982	0.071	-0.012
-717.777	-127.163	0.033	-0.005
-716.762	190.962	-0.095	0.145
-715.748	331.312	0.076	0.148
-714.733	-48.840	-0.159	-0.077
-713.718	800.000	0.055	0.201
-712.704	-200.000	-0.011	-0.160
-711.689	-44.951	0.156	-0.079
-710.675	137.853	0.203	0.268
-709.660	-69.223	0.294	0.114
-708.645	-81.255	0.230	0.076
-707.631	-200.000	0.002	-0.010
-706.616	-36.985	-0.187	0.101
-705.602	-7.755	0.135	-0.092
-704.587	-127.662	-0.379	-0.055
-703.572	8.943	-0.167	0.127
-702.558	-68.279	-0.127	0.050
-701.543	-170.180	-0.222	-0.008
-700.529	53.800	-0.222	0.215
-699.514	-123.624	-0.499	-0.080
-698.499	-156.901	-0.353	-0.022
-697.485	-45.541	0.094	-0.047
-696.470	252.388	-0.085	0.146
-695.456	-17.856	0.143	0.090
-694.441	-200.000	-0.001	-0.238
-693.426	-111.270	0.212	0.044
-692.412	-27.655	0.289	0.169
-691.397	-95.750	0.093	0.025
-690.383	-129.075	0.089	0.013
-689.368	130.728	-0.120	0.155
-688.354	-63.798	-0.103	-0.043
-687.339	-200.000	-0.005	0.074
-686.324	-127.921	-0.253	-0.037
-685.310	-3.379	0.336	0.235
-684.295	800.000	-0.034	-0.123
-683.281	-2.693	0.276	-0.195
-682.266	376.902	-0.138	0.284
-681.251	70.424	-0.257	-0.268
-680.237	-98.511	-0.372	0.096
-679.222	800.000	0.105	0.302
-678.208	-58.425	0.154	-0.068
-677.193	800.000	-0.039	-0.129
-676.178	-114.359	-0.103	0.020
-675.164	367.370	-0.125	-0.255
-674.149	-158.327	-0.151	0.009
-673.135	-154.305	0.307	0.021
-672.120	24.903	0.342	-0.286
-671.105	346.165	0.099	0.196
-670.091	495.257	-0.037	-0.085
-669.076	111.645	-0.102	-0.124
-668.062	-114.326	0.075	0.015
-667.047	5.130	0.041	0.030
-666.032	-200.000	0.069	-0.338
-665.018	-22.331	0.224	-0.137
-664.003	77.898	0.190	-0.204
-662.989	-200.000	-0.189	0.000
-661.974	-200.000	-0.027	0.537
-660.959	-103.400	0.238	0.057
-659.945	-80.834	-0.215	-0.072
-658.930	-36.070	-0.096	0.052
-657.916	18.910	-0.212	0.171
-656.901	64.042	-0.192	0.195
-655.886	35.187	-0.293	-0.258
-654.872	-68.045	0.345	0.135
-653.857	-125.323	0.101	-0.015
-652.843	-123.504	0.222	-0.035
-651.828	800.000	0.155	-0.459
-650.814	261.891	-0.093	-0.162
-649.799	-200.000	-0.009	-0.121
-648.784	23.112	0.204	0.168
-647.770	138.891	-0.087	0.115
-646.755	4.126	0.413	0.304
-645.741	105.456	0.124	-0.148
-644.726	80.593	0.082	-0.089
-643.711	340.485	-0.082	0.161
-642.697	230.452	-0.111	-0.183
-641.682	-105.781	0.144	-0.033
-640.668	-200.000	0.023	-0.107
-639.653	-97.891	-0.072	-0.019
-638.638	201.736	0.051	-0.079
-637.624	-44.290	0.202	-0.102
-636.609	-200.000	-0.037	-0.380
-635.595	54.024	-0.147	-0.142
-634.580	-184.865	-0.209	0.003
-633.565	-131.968	0.165	-0.022
-632.551	-200.000	0.020	-0.355
-631.536	-85.957	-0.342	-0.106
-630.522	-45.597	0.261	-0.130
-629.507	-80.267	0.348	0.117
-628.492	161.805	0.118	0.166
-627.478	-105.259	-0.061	-0.014
-626.463	113.708	-0.082	-0.100
-625.449	18.989	0.127	-0.103
-624.434	-41.695	0.061	0.031
-623.419	-18.355	-0.195	0.123
-622.405	-107.516	-0.365	-0.080
-621.390	-25.079	-0.335	0.200
-620.376	-200.000	0.037	-0.327
-619.361	122.745	0.066	0.083
-618.346	-43.070	0.103	0.053
-617.332	187.624	0.037	-0.056
-616.317	39.507	-0.091	-0.082
-615.303	-33.994	0.229	0.126
-614.288	490.522	0.061	-0.140
-613.273	-29.383	-0.064	-0.037
-612.259	143.228	-0.118	-0.158
-611.244	95.427	-0.235	0.269
-610.230	7.797	0.287	-0.216
-609.215	57.538	-0.275	-0.270
-608.201	162.865	-0.110	0.155
-607.186	-46.059	0.130	0.064
-606.171	-113.729	-0.274	0.054
-605.157	71.660	0.080	0.083
-604.142	-140.750	-0.409	-0.042
-603.128	68.472	-0.247	0.255
-602.113	40.554	-0.051	0.046
-601.098	11.703	-0.223	-0.172
-600.084	-108.953	-0.352	-0.075
-599.069	-200.000	0.041	-0.418
-598.055	-200.000	0.052	-0.291
-597.040	-39.821	-0.092	0.048
-596.025	15.775	-0.197	-0.156
-595.011	481.395	0.067	-0.153
-593.996	-54.310	-0.294	-0.134
-592.982	248.191	0.145	0.247
-591.967	800.000	-0.046	0.191
-590.952	215.082	0.146	0.232
-589.938	-126.113	-0.329	-0.050
-588.923	186.145	0.165	0.247
-587.909	227.432	-0.257	0.419
-586.894	-169.927	0.226	0.008
-585.879	-200.000	-0.039	0.257
-584.865	-97.028	-0.289	0.076
-583.850	-44.261	-0.061	-0.031
-582.836	322.317	0.098	0.187
-581.821	-72.872	-0.299	-0.110
-580.806	-97.479	-0.249	0.065
-579.792	-98.299	-0.193	0.050
-578.777	-117.225	-0.105	0.019
-577.763	-19.677	0.117	0.073
-576.748	84.149	0.152	0.166
-575.733	-95.878	0.077	0.021
-574.719	-109.717	-0.089	-0.019
-573.704	-98.868	-0.159	-0.041
-572.690	0.223	-0.129	-0.092
-571.675	42.609	-0.066	0.060
-570.661	-200.000	-0.002	0.037
-569.646	114.423	0.216	-0.263
-568.631	226.088	0.042	-0.069
-567.617	-54.386	0.241	-0.110
-566.602	-104.678	-0.173	-0.040
-565.588	337.822	-0.185	-0.360
-564.573	-130.890	0.096	0.013
-563.558	74.192	0.147	0.155
-562.544	800.000	0.046	0.153
-561.529	-200.000	0.036	0.417
-560.515	800.000	-0.044	0.151
-559.500	800.000	0.029	0.101
-558.485	136.422	0.124	-0.162
-557.471	-200.000	-0.034	0.151
-556.456	142.025	-0.026	-0.034
-555.442	82.730	0.069	-0.075
-554.427	-55.153	0.131	0.059
-553.412	32.248	-0.205	0.178
-552.398	-151.020	-0.363	-0.027
-551.383	111.067	0.108	-0.130
-550.369	205.222	0.101	-0.157
-549.354	-80.862	0.078	0.026
-548.339	-93.522	-0.200	-0.055
-547.325	575.542	0.082	-0.200
-546.310	-200.000	-0.001	-0.253
-545.296	35.401	-0.217	-0.191
-544.281	-164.442	0.192	-0.009
-543.266	41.372	0.051	0.046
-542.252	-64.789	0.112	-0.046
-541.237	-75.241	-0.144	-0.051
-540.223	-200.000	-0.002	0.028
-539.208	-200.000	0.004	-0.182
-538.193	-75.822	-0.176	-0.063
-537.179	0.042	0.175	0.125
-536.164	582.824	-0.142	-0.349
-535.150	-39.263	-0.215	0.113
-534.135	-62.084	0.309	-0.129
-533.121	800.000	-0.035	0.126
-532.106	-99.022	-0.310	0.079
-531.091	496.954	0.042	0.097
-530.077	1.925	-0.379	0.274
-529.062	-200.000	0.025	-0.157
-528.048	92.005	0.051	0.057
-527.033	23.100	-0.185	-0.152
-526.018	283.061	-0.037	0.066
-525.004	15.957	0.230	0.182
-523.989	-56.089	-0.281	0.125
-522.975	-200.000	-0.059	0.298
-521.960	-97.030	0.759	-0.199
-520.945	198.938	-0.126	0.194
-519.931	-48.478	-0.063	-0.031
-518.916	-60.603	0.535	-0.227
-517.902	183.773	-0.101	0.150
-516.887	-200.000	-0.025	0.128
-515.872	-200.000	-0.001	0.106
-514.858	10.570	0.060	0.045
-513.843	-118.765	0.099	0.017
-512.829	421.052	0.116	0.248
-511.814	221.932	0.115	-0.186
-510.799	800.000	0.094	-0.284
-509.785	-200.000	0.000	-0.138
-508.770	800.000	0.180	0.563
-507.756	89.614	-0.239	-0.267
-506.741	-200.000	0.000	0.121
-505.726	-200.000	-0.023	-0.127
-504.712	95.371	-0.213	-0.243
-503.697	-200.000	-0.019	0.238
-502.683	40.112	-0.157	0.141
-501.668	-168.318	-0.108	-0.004
-500.653	298.989	-0.026	-0.048
-499.639	-69.716	-0.244	0.093
-498.624	800.000	-0.091	0.263
-497.610	-154.349	0.352	0.024
-496.595	26.673	0.113	0.095
-495.581	297.885	0.189	0.348
-494.566	-200.000	0.037	-0.462
-493.551	-117.490	-0.198	-0.036
-492.537	106.789	-0.206	0.245
-491.522	-200.000	-0.072	0.505
-490.508	-27.447	0.223	0.130
-489.493	78.855	0.194	-0.208
-488.478	-200.000	-0.011	0.482
-487.464	342.319	0.060	0.117
-486.449	57.753	-0.100	-0.098
-485.435	97.885	-0.056	-0.064
-484.420	800.000	-0.131	-0.428
-483.405	644.817	0.044	0.114
-482.391	-99.050	-0.131	0.033
-481.376	91.391	0.141	-0.158
-480.362	465.259	0.022	-0.050
-479.347	-36.080	-0.171	-0.092
-478.332	800.000	-0.065	0.229
-477.318	-200.000	0.044	-0.459
-476.303	29.834	0.219	-0.186
-475.289	46.997	0.038	-0.035
-474.274	-129.722	0.334	-0.046
-473.259	-200.000	0.018	0.202
-472.245	427.932	0.111	-0.239
-471.230	-200.000	0.008	0.297
-470.216	-41.088	0.135	-0.069
-469.201	177.374	0.143	-0.208
-468.186	-21.377	0.212	-0.129
-467.172	-113.812	0.172	0.033
-466.157	-89.180	0.408	-0.120
-465.143	-34.386	-0.173	-0.095
-464.128	-85.682	0.174	-0.054
-463.113	-95.388	-0.369	-0.099
-462.099	-99.947	-0.097	-0.024
-461.084	-154.072	-0.046	-0.003
-460.070	127.228	0.126	0.160
-459.055	800.000	0.058	0.223
-458.040	-117.977	0.158	0.028
-457.026	-95.183	-0.290	-0.078
-456.011	-10.952	0.212	0.140
-454.997	-200.000	-0.013	-0.100
-453.982	-143.376	-0.387	0.037
-452.968	75.192	-0.047	0.050
-451.953	3.670	0.275	0.200
-450.938	22.989	0.175	-0.144
-449.924	61.129	-0.049	-0.049
-448.909	471.983	0.109	-0.245
-447.895	-17.227	-0.154	-0.097
-446.880	-27.181	-0.158	0.092
-445.865	800.000	0.072	0.294
-444.851	-200.000	-0.031	0.371
-443.836	233.612	-0.137	0.226
-442.822	-67.795	-0.245	-0.096
-441.807	155.907	0.141	0.194
-440.792	-79.679	0.567	0.191
-439.778	-200.000	0.020	-0.193
-438.763	-115.066	-0.059	0.011
-437.749	90.069	-0.124	0.138
-436.734	-200.000	0.011	0.248
-435.719	230.098	0.087	0.142
-434.705	-200.000	0.001	0.082
-433.690	1.493	0.042	0.030
-432.676	-200.000	-0.019	-0.192
-431.661	631.841	0.134	0.338
-430.646	290.538	0.142	0.258
-429.632	103.030	-0.248	-0.290
-428.617	-2.692	-0.055	0.038
-427.603	-56.648	0.194	0.086
-426.588	-200.000	0.032	-0.142
-425.573	324.577	-0.118	-0.225
-424.559	-147.147	0.267	-0.023
-423.544	-126.256	0.042	-0.006
-422.530	-110.237	-0.163	-0.034
-421.515	-23.556	-0.228	0.137
-420.500	44.743	-0.059	-0.054
-419.486	216.526	-0.108	-0.172
-418.471	-123.142	0.112	-0.018
-417.457	44.094	-0.041	-0.038
-416.442	116.961	0.052	0.064
-415.428	75.095	-0.155	-0.163
-414.413	-144.006	-0.192	-0.018
-413.398	211.483	0.203	-0.318
-412.384	-200.000	-0.024	-0.233
-411.369	195.025	-0.099	0.149
-410.355	104.169	0.179	0.210
-409.340	75.493	-0.108	-0.114
-408.325	-200.000	0.014	-0.117
-407.311	13.305	-0.252	-0.195
-406.296	-43.430	-0.193	-0.097
-405.282	800.000	0.042	-0.143
-404.267	-194.554	0.192	-0.002
-403.252	-112.886	0.259	0.051
-402.238	-32.678	-0.174	-0.097
-401.223	251.391	0.182	0.309
-400.209	0.368	0.057	0.041
-399.194	46.529	0.097	0.090
-398.179	114.578	0.067	0.081
-397.165	-67.213	-0.245	-0.096
-396.150	-111.172	0.235	0.048
-395.136	-80.486	0.244	0.081
-394.121	70.202	0.087	-0.090
-393.106	49.962	0.089	-0.084
-392.092	165.310	0.138	0.194
-391.077	95.695	0.096	-0.109
-390.063	-200.000	0.049	-0.245
-389.048	800.000	-0.069	0.221
-388.033	-28.540	0.154	-0.089
-387.019	-17.155	-0.192	-0.120
-386.004	-120.444	0.096	-0.016
-384.990	309.668	-0.189	-0.352
-383.975	293.570	-0.088	0.160
-382.960	-11.371	-0.331	-0.217
-381.946	-32.822	-0.167	0.092
-380.931	-1.426	0.030	-0.021
-379.917	306.101	0.047	0.087
-378.902	227.707	-0.196	0.317
-377.888	800.000	-0.068	-0.191
-376.873	86.427	-0.088	-0.097
-375.858	-200.000	0.027	0.529
-374.844	-200.000	0.007	-0.119
-373.829	-200.000	-0.037	-0.248
-372.815	-200.000	-0.010	0.162
-371.800	-37.164	0.173	0.092
-370.785	800.000	0.029	-0.095
-369.771	800.000	0.019	0.056
-368.756	411.079	-0.024	-0.050
-367.742	-200.000	0.054	0.294
-366.727	183.302	0.094	-0.138
-365.712	-86.463	-0.427	-0.130
-364.698	238.891	0.086	0.143
-363.683	-200.000	-0.032	-0.374
-362.669	800.000	-0.081	0.240
-361.654	-82.615	-0.110	-0.035
-360.639	-200.000	0.012	-0.061
-359.625	-200.000	0.018	-0.097
-358.610	-200.000	-0.040	-0.220
-357.596	800.000	0.040	0.118
-356.581	800.000	-0.101	0.282
-355.566	32.791	0.235	-0.202
-354.552	-116.305	-0.058	-0.011
-353.537	800.000	0.061	-0.214
-352.523	-79.823	-0.113	-0.038
-351.508	-200.000	0.011	0.124
-350.493	19.810	0.123	0.099
-349.479	38.878	-0.368	0.327
-348.464	32.832	-0.096	0.082
-347.450	800.000	0.069	-0.279
-346.435	201.597	-0.143	-0.219
-345.420	-200.000	0.045	0.452
-344.406	700.202	-0.136	0.356
-343.391	345.104	0.108	0.211
-342.377	-200.000	0.028	0.377
-341.362	-29.307	0.172	-0.098
-340.348	213.482	0.034	-0.053
-339.333	43.605	-0.133	0.121
-338.318	-27.860	-0.023	-0.013
-337.304	209.141	-0.176	0.273
-336.289	-58.154	0.227	-0.098
-335.275	29.436	-0.245	-0.207
-334.260	-176.468	-0.204	-0.005
-333.245	263.061	-0.035	0.060
-332.231	255.244	-0.180	0.306
-331.216	200.317	0.083	-0.126
-330.202	800.000	0.025	-0.093
-329.187	-136.197	-0.225	-0.026
-328.172	-200.000	0.037	0.188
-327.158	43.128	-0.039	-0.036
-326.143	-105.217	-0.089	-0.020
-325.129	-56.434	-0.254	-0.112
-324.114	-200.000	-0.006	-0.112
-323.099	-61.468	0.154	-0.065
-322.085	62.059	0.258	0.256
-321.070	-200.000	0.018	-0.119
-320.056	-200.000	-0.007	-0.277
-319.041	200.338	0.048	-0.074
-318.026	-75.808	-0.292	0.103
-317.012	440.476	0.062	0.134
-315.997	-55.649	0.327	0.145
-314.983	310.841	-0.116	-0.215
-313.968	-85.139	-0.328	0.102
-312.953	0.794	0.097	-0.069
-311.939	76.618	-0.240	0.253
-310.924	-57.932	-0.277	0.120
-309.910	-200.000	-0.049	0.259
-308.895	-147.403	0.148	0.012
-307.880	-153.162	-0.178	-0.012
-306.866	-200.000	-0.005	0.149
-305.851	65.680	0.096	0.097
-304.837	-28.241	0.409	0.235
-303.822	800.000	-0.069	-0.245
-302.807	-115.272	-0.125	-0.023
-301.793	-150.151	0.218	-0.017
-300.778	38.582	0.052	0.046
-299.764	109.172	0.135	-0.161
-298.749	25.720	-0.086	0.071
-297.735	-19.092	-0.436	-0.269
-296.720	26.522	-0.090	0.075
-295.705	-152.562	-0.072	-0.005
-294.691	156.174	0.094	-0.129
-293.676	-159.803	0.050	0.003
-292.662	-200.000	-0.009	-0.160
-291.647	-200.000	0.072	-0.372
-290.632	141.030	0.020	-0.027
-289.618	800.000	-0.082	-0.246
-288.603	197.246	0.069	-0.105
-287.589	61.221	0.220	0.217
-286.574	-50.373	0.252	-0.118
-285.559	-86.547	-0.078	0.024
-284.545	83.998	-0.146	-0.158
-283.530	800.000	0.046	-0.192
-282.516	800.000	-0.058	0.224
-281.501	-60.576	0.201	-0.085
-280.486	43.060	0.248	-0.224
-279.472	279.757	0.084	0.149
-278.457	-200.000	0.008	0.136
-277.443	800.000	0.035	-0.129
-276.428	800.000	0.052	-0.218
-275.413	-28.536	-0.142	0.081
-274.399	-91.381	-0.205	-0.058
-273.384	-200.000	0.014	-0.116
-272.370	-86.959	-0.122	-0.037
-271.355	73.908	-0.220	0.229
-270.340	59.974	0.104	0.102
-269.326	346.917	0.119	0.233
-268.311	-101.435	0.166	0.040
-267.297	582.371	0.044	-0.106
-266.282	175.566	0.187	-0.269
-265.267	800.000	-0.051	-0.141
-264.253	114.904	-0.101	0.122
-263.238	-200.000	0.017	-0.419
-262.224	270.919	0.118	-0.207
-261.209	-27.850	0.168	-0.097
-260.195	-200.000	-0.004	0.127
-259.180	-89.925	0.171	0.050
-258.165	37.666	0.031	-0.027
-257.151	-32.629	0.172	0.095
-256.136	342.760	-0.042	0.082
-255.122	388.677	0.112	0.230
-254.107	-148.915	-0.093	-0.007
-253.092	-18.192	0.251	0.156
-252.078	197.839	-0.191	0.290
-251.063	-65.972	0.089	0.035
-250.049	584.146	0.016	-0.038
-249.034	151.498	0.129	0.174
-248.019	14.798	-0.056	-0.043
-247.005	-18.421	-0.254	0.157
-245.990	-171.571	0.362	-0.012
-244.976	647.277	-0.096	0.242
-243.961	9.972	-0.108	0.081
-242.946	26.416	0.214	-0.177
-241.932	-200.000	-0.033	-0.148
-240.917	339.000	0.048	0.093
-239.903	356.759	0.114	-0.224
-238.888	-97.824	-0.065	-0.017
-237.873	301.795	-0.147	-0.268
-236.859	-200.000	-0.004	-0.132
-235.844	-147.939	-0.257	-0.021
-234.830	-73.846	-0.123	-0.044
-233.815	-73.152	-0.058	-0.021
-232.800	800.000	-0.058	0.168
-231.786	-200.000	0.083	0.401
-230.771	-151.809	0.542	-0.039
-229.757	-69.188	0.174	-0.066
-228.742	139.375	-0.322	0.419
-227.727	-14.613	-0.265	0.168
-226.713	-54.719	0.247	-0.111
-225.698	493.185	-0.096	0.217
-224.684	-107.660	0.313	-0.068
-223.669	208.705	0.154	-0.239
-222.655	30.089	-0.095	0.080
-221.640	426.199	0.078	0.165
-220.625	149.482	0.173	-0.232
-219.611	-141.468	0.132	-0.013
-218.596	-2.789	-0.209	0.144
-217.582	158.928	-0.033	-0.046
-216.567	-91.941	-0.169	-0.047
-215.552	-200.000	-0.013	-0.104
-214.538	-183.537	-0.204	-0.003
-213.523	-200.000	0.009	0.047
-212.509	657.819	-0.045	-0.114
-211.494	-62.080	0.102	0.042
-210.479	20.019	0.336	-0.268
-209.465	-164.663	-0.172	0.008
-208.450	-54.155	0.172	0.077
-207.436	-106.458	0.145	0.032
-206.421	800.000	0.046	-0.153
-205.406	-81.747	0.237	-0.077
-204.392	-176.240	0.031	-0.001
-203.377	66.163	0.080	-0.080
-202.363	382.887	0.084	0.170
-201.348	-21.792	0.316	-0.190
-200.333	-200.000	-0.016	0.297
-199.319	-200.000	0.000	0.351
-198.304	800.000	0.060	0.197
-197.290	-147.078	-0.037	-0.003
-196.275	-52.143	-0.299	0.137
-195.260	-186.063	-0.176	-0.003
-194.246	-104.915	0.221	-0.050
-193.231	582.630	0.126	-0.305
-192.217	2.037	-0.111	-0.079
-191.202	-121.482	0.156	-0.026
-190.187	761.272	0.071	-0.191
-189.173	420.526	0.087	-0.184
-188.158	-54.373	0.282	-0.126
-187.144	-200.000	-0.002	0.064
-186.129	-102.112	0.135	-0.032
-185.114	-6.210	-0.179	0.121
-184.100	-155.008	0.435	-0.028
-183.085	170.834	0.076	0.107
-182.071	92.819	-0.210	0.235
-181.056	192.225	0.062	-0.093
-180.042	390.199	0.112	-0.229
-179.027	-178.294	0.142	-0.003
-178.012	287.207	-0.091	-0.163
-176.998	71.840	-0.116	-0.119
-175.983	46.236	-0.276	0.253
-174.969	2.314	-0.203	-0.145
-173.954	800.000	-0.092	-0.390
-172.939	259.431	-0.114	0.194
-171.925	-168.821	-0.046	0.002
-170.910	-94.484	-0.215	0.058
-169.896	228.343	-0.155	0.250
-168.881	-136.691	0.135	-0.015
-167.866	-200.000	-0.029	-0.284
-166.852	-109.019	-0.193	-0.041
-165.837	328.158	0.044	-0.084
-164.823	-6.582	0.088	-0.059
-163.808	-66.047	0.109	0.043
-162.793	-116.892	-0.100	0.018
-161.779	-11.360	0.525	-0.341
-160.764	-130.037	-0.197	0.027
-159.750	-3.708	-0.175	0.120
-158.735	-10.447	0.149	-0.098
-157.720	-60.214	-0.199	0.084
-156.706	-144.344	0.360	-0.033
-155.691	-200.000	0.011	0.081
-154.677	-108.268	-0.317	0.068
-153.662	-118.028	0.229	-0.040
-152.647	-33.975	0.277	-0.150
-151.633	-170.045	-0.171	-0.006
-150.618	-116.529	-0.176	0.032
-149.604	29.385	0.175	0.147
-148.589	-180.253	-0.123	-0.003
-147.574	-82.394	0.333	0.107
-146.560	-63.641	-0.229	0.093
-145.545	-39.200	0.094	0.049
-144.531	-134.623	-0.061	0.007
-143.516	-200.000	-0.007	-0.188
-142.502	-0.942	-0.115	0.080
-141.487	800.000	-0.061	-0.260
-140.472	-6.260	0.103	0.069
-139.458	84.019	-0.338	0.364
-138.443	-20.279	0.143	-0.087
-137.429	300.188	0.174	-0.317
-136.414	517.138	0.145	-0.334
-135.399	706.466	-0.121	0.316
-134.385	-200.000	0.061	0.288
-133.370	123.773	-0.051	-0.063
-132.356	-86.523	0.443	-0.134
-131.341	-14.446	-0.048	0.030
-130.326	49.552	0.160	0.149
-129.312	775.345	-0.096	0.258
-128.297	47.790	0.241	-0.221
-127.283	-99.144	-0.174	-0.043
-126.268	-12.379	0.081	-0.052
-125.253	-111.127	0.234	0.047
-124.239	800.000	-0.098	0.311
-123.224	-158.061	0.226	-0.013
-122.210	-200.000	-0.005	-0.227
-121.195	235.235	0.162	-0.264
