DTS Sentinel unit serial number:	SN413079Multiplexer serial number:	ORYXHardware model number:	OX4-SRSoftware version number:	ORYX F/W v4.00 Oryx Data Collector v3.7.2.0data status	okinstallation	princeton_trtdifferential loss correction	single-endedforward channel	channel 4reverse channel	N/Adate	2019/09/12time	02:27:10forward acquisition time	60.00reverse acquisition time	0.00gamma	496.2192k internal	0.2309k external	0.2309temperature offset calibration	1.0090default loss term (dB/km)	0.3790temperature slope calibration	1.0000multiplexer offset coefficient	1.0000multiplexer slope coefficient	1.0000fibre end	0.00T internal ref (°C)	32.50T ext. ref 1 (°C)	2.08T ext. ref 2 (°C)	27.11length (m)	temperature (°C)	Stokes	anti-Stokes-747.200	-108.872	0.049	-0.011
-746.185	2.145	-0.426	0.312
-745.171	547.501	0.037	-0.090
-744.156	123.453	-0.016	-0.020
-743.142	207.089	0.044	-0.070
-742.127	-17.528	0.234	-0.150
-741.112	770.651	0.068	0.188
-740.098	-51.078	-0.181	0.086
-739.083	-81.805	-0.166	0.055
-738.069	800.000	0.066	0.205
-737.054	-178.879	-0.214	-0.005
-736.039	72.113	-0.201	-0.212
-735.025	-200.000	0.003	0.047
-734.010	360.754	0.123	0.249
-732.996	29.806	-0.213	-0.184
-731.981	-137.583	-0.076	0.009
-730.966	-142.485	0.253	-0.025
-729.952	229.167	-0.077	-0.128
-728.937	-200.000	0.004	-0.040
-727.923	800.000	-0.075	0.283
-726.908	-154.106	-0.214	-0.015
-725.894	24.052	-0.105	-0.088
-724.879	-200.000	-0.034	-0.192
-723.864	-32.071	0.363	-0.206
-722.850	6.887	0.129	0.097
-721.835	177.835	-0.047	-0.069
-720.821	-200.000	0.019	-0.221
-719.806	-63.633	-0.201	0.084
-718.791	-200.000	0.013	-0.071
-717.777	-43.580	0.102	-0.052
-716.762	-200.000	-0.002	0.098
-715.748	-94.788	0.194	-0.054
-714.733	-94.025	0.079	0.022
-713.718	-55.018	0.120	-0.055
-712.704	-200.000	-0.003	-0.323
-711.689	44.039	-0.077	-0.072
-710.675	-22.672	0.156	0.095
-709.660	100.871	-0.171	0.202
-708.645	-200.000	-0.002	-0.074
-707.631	-188.903	0.337	-0.004
-706.616	-75.616	0.365	0.131
-705.602	360.828	0.107	0.218
-704.587	-81.953	0.060	-0.020
-703.572	-33.728	0.212	0.118
-702.558	-200.000	0.017	0.101
-701.543	-110.634	0.218	0.046
-700.529	-155.478	0.220	-0.014
-699.514	-54.757	-0.127	-0.058
-698.499	9.719	-0.170	0.131
-697.485	-200.000	0.044	-0.196
-696.470	-94.737	-0.195	-0.054
-695.456	800.000	0.051	0.184
-694.441	115.573	0.101	0.126
-693.426	-33.277	-0.124	0.070
-692.412	800.000	0.046	0.140
-691.397	-200.000	-0.010	-0.082
-690.383	-15.155	-0.328	-0.213
-689.368	-34.997	0.064	-0.035
-688.354	638.778	0.074	-0.189
-687.339	-140.353	-0.211	0.022
-686.324	-200.000	-0.047	-0.300
-685.310	-95.502	0.230	-0.062
-684.295	-121.033	-0.276	-0.047
-683.281	800.000	0.040	-0.163
-682.266	-4.969	-0.175	-0.122
-681.251	-200.000	0.019	-0.147
-680.237	-129.051	-0.235	-0.033
-679.222	-141.145	-0.266	-0.028
-678.208	-39.273	-0.170	0.090
-677.193	477.298	0.219	-0.502
-676.178	-85.040	-0.415	-0.132
-675.164	-183.277	-0.075	-0.001
-674.149	-200.000	0.029	0.151
-673.135	426.361	0.058	-0.127
-672.120	109.793	0.158	-0.192
-671.105	6.106	0.121	-0.091
-670.091	-2.770	0.111	-0.078
-669.076	800.000	-0.084	0.265
-668.062	111.122	-0.123	-0.150
-667.047	116.108	-0.034	-0.042
-666.032	539.991	-0.052	0.126
-665.018	-150.654	0.161	-0.012
-664.003	357.076	0.131	0.264
-662.989	109.513	-0.119	0.144
-661.974	418.120	0.121	-0.262
-660.959	-20.579	0.290	-0.180
-659.945	-10.601	-0.190	-0.127
-658.930	-144.757	0.394	-0.037
-657.916	-200.000	0.038	0.392
-656.901	800.000	-0.027	0.102
-655.886	-103.023	-0.134	0.032
-654.872	800.000	-0.047	-0.208
-653.857	587.837	-0.018	-0.045
-652.843	-138.948	-0.147	-0.016
-651.828	245.730	-0.112	-0.191
-650.814	-161.782	0.196	0.010
-649.799	-200.000	-0.081	0.465
-648.784	-188.023	0.284	0.004
-647.770	-62.771	-0.178	0.075
-646.755	170.380	0.016	-0.024
-645.741	800.000	0.085	0.309
-644.726	-200.000	-0.010	0.230
-643.711	-200.000	-0.069	0.429
-642.697	-200.000	-0.006	0.118
-641.682	-200.000	0.065	0.327
-640.668	-69.282	0.260	-0.101
-639.653	-159.996	-0.485	0.027
-638.638	-200.000	0.020	-0.147
-637.624	-35.494	0.102	-0.056
-636.609	-144.375	0.246	-0.023
-635.595	-67.655	0.346	0.137
-634.580	-81.872	0.209	0.069
-633.565	800.000	0.071	-0.257
-632.551	-37.113	-0.129	-0.070
-631.536	-46.045	0.309	-0.154
-630.522	427.717	-0.117	-0.256
-629.507	-200.000	-0.009	-0.079
-628.492	-164.108	0.431	-0.020
-627.478	800.000	-0.062	0.204
-626.463	496.675	0.091	0.211
-625.449	-150.955	-0.088	-0.007
-624.434	-158.163	0.298	0.018
-623.419	100.182	-0.107	-0.126
-622.405	-144.314	-0.216	0.020
-621.390	-87.835	-0.237	0.072
-620.376	-83.056	0.061	-0.020
-619.361	-42.970	-0.185	-0.095
-618.346	-88.092	0.126	-0.038
-617.332	-30.948	0.222	0.127
-616.317	-200.000	-0.061	-0.314
-615.303	79.309	-0.282	-0.306
-614.288	-200.000	0.078	0.593
-613.273	-131.075	0.078	0.010
-612.259	41.308	0.104	-0.095
-611.244	-61.962	-0.139	0.059
-610.230	-200.000	0.073	0.353
-609.215	723.294	0.026	0.070
-608.201	-200.000	-0.008	0.086
-607.186	73.278	-0.141	-0.149
-606.171	-200.000	0.019	-0.201
-605.157	-26.134	0.228	0.135
-604.142	335.352	-0.076	-0.148
-603.128	26.171	-0.149	-0.125
-602.113	-200.000	0.005	-0.032
-601.098	-1.729	-0.088	-0.063
-600.084	-200.000	-0.008	-0.155
-599.069	-58.136	-0.150	0.066
-598.055	-200.000	-0.010	-0.176
-597.040	339.328	-0.056	-0.110
-596.025	-92.478	-0.304	0.086
-595.011	-200.000	0.026	0.208
-593.996	-150.454	-0.193	-0.015
-592.982	612.685	0.087	0.219
-591.967	96.691	-0.118	0.136
-590.952	-137.269	-0.275	-0.032
-589.938	-200.000	-0.008	0.037
-588.923	28.198	0.067	0.057
-587.909	351.835	-0.136	0.272
-586.894	-200.000	-0.012	0.311
-585.879	193.419	0.212	0.323
-584.865	-42.183	0.237	0.123
-583.850	253.476	0.195	0.337
-582.836	-130.387	-0.021	0.003
-581.821	136.167	-0.162	-0.213
-580.806	-80.837	0.064	0.021
-579.792	-200.000	0.015	-0.174
-578.777	-200.000	-0.004	-0.098
-577.763	339.542	-0.028	0.055
-576.748	6.638	0.220	-0.165
-575.733	-26.739	0.144	-0.085
-574.719	-50.852	0.108	-0.051
-573.704	-156.394	0.089	-0.006
-572.690	-200.000	0.018	0.129
-571.675	-97.898	0.069	0.018
-570.661	-87.292	-0.135	-0.041
-569.646	67.749	-0.111	0.115
-568.631	-49.202	-0.197	-0.095
-567.617	-152.788	-0.306	-0.022
-566.602	56.575	-0.163	0.160
-565.588	37.296	-0.029	0.026
-564.573	235.948	0.106	-0.177
-563.558	32.646	0.180	0.157
-562.544	-23.087	0.155	-0.094
-561.529	800.000	-0.049	0.143
-560.515	-200.000	0.018	-0.129
-559.500	-137.270	-0.166	0.019
-558.485	-90.136	0.102	-0.030
-557.471	49.217	-0.218	-0.207
-556.456	749.093	-0.130	-0.355
-555.442	217.428	-0.158	-0.253
-554.427	-33.022	-0.210	-0.117
-553.412	-153.448	-0.148	0.010
-552.398	309.123	0.136	0.256
-551.383	-14.904	-0.127	-0.082
-550.369	-91.835	0.148	-0.042
-549.354	-200.000	-0.027	-0.143
-548.339	-124.482	-0.269	-0.042
-547.325	-20.888	0.286	0.177
-546.310	800.000	-0.049	0.166
-545.296	-200.000	-0.002	0.075
-544.281	-26.596	0.143	-0.085
-543.266	196.764	0.165	-0.253
-542.252	-73.838	0.120	-0.044
-541.237	504.128	-0.084	-0.197
-540.223	-200.000	0.064	-0.377
-539.208	-200.000	0.006	0.042
-538.193	-200.000	-0.055	0.353
-537.179	-69.861	-0.145	-0.056
-536.164	660.703	-0.103	-0.267
-535.150	37.155	0.128	-0.115
-534.135	-200.000	0.003	-0.332
-533.121	-200.000	0.019	-0.173
-532.106	397.313	0.051	-0.107
-531.091	535.834	-0.051	-0.122
-530.077	-200.000	-0.004	0.050
-529.062	-105.586	-0.066	-0.015
-528.048	192.478	-0.052	-0.079
-527.033	-77.206	-0.197	-0.069
-526.018	800.000	-0.088	0.248
-525.004	110.218	0.215	-0.261
-523.989	-200.000	-0.041	-0.311
-522.975	30.297	0.118	-0.102
-521.960	-200.000	-0.014	-0.176
-520.945	-100.769	0.084	0.021
-519.931	1.989	-0.098	-0.071
-518.916	-200.000	0.160	-0.000
-517.902	304.415	-0.095	-0.177
-516.887	-100.179	-0.122	0.031
-515.872	-200.000	-0.000	-0.255
-514.858	-37.365	-0.323	0.174
-513.843	-200.000	0.033	0.235
-512.829	613.064	-0.098	-0.247
-511.814	-182.693	0.217	0.004
-510.799	-162.596	-0.350	0.017
-509.785	-200.000	-0.024	-0.389
-508.770	44.455	0.034	-0.032
-507.756	54.187	-0.159	-0.154
-506.741	-44.006	0.238	-0.120
-505.726	-200.000	-0.047	0.273
-504.712	160.731	0.068	-0.096
-503.697	70.841	-0.113	-0.118
-502.683	208.659	-0.058	-0.092
-501.668	-68.803	0.171	-0.066
-500.653	-200.000	-0.015	-0.170
-499.639	800.000	0.081	-0.257
-498.624	62.565	-0.147	-0.148
-497.610	169.745	0.064	0.091
-496.595	457.303	-0.051	0.114
-495.581	154.327	0.148	-0.204
-494.566	272.247	-0.103	0.182
-493.551	800.000	-0.045	0.195
-492.537	51.302	0.057	0.055
-491.522	28.543	-0.265	-0.226
-490.508	-67.366	0.132	-0.052
-489.493	120.430	-0.022	0.027
-488.478	-47.436	-0.329	0.161
-487.464	800.000	-0.026	0.107
-486.449	800.000	-0.015	-0.045
-485.435	676.802	-0.087	0.227
-484.420	-94.283	0.175	-0.048
-483.405	-200.000	0.001	-0.050
-482.391	-200.000	0.031	0.351
-481.376	96.891	-0.162	-0.186
-480.362	67.814	0.109	-0.112
-479.347	-87.434	0.228	-0.069
-478.332	119.479	-0.111	0.138
-477.318	800.000	0.023	0.099
-476.303	257.719	-0.097	0.167
-475.289	202.787	-0.145	-0.225
-474.274	379.048	-0.025	0.052
-473.259	800.000	0.028	-0.097
-472.245	77.741	0.311	0.333
-471.230	7.946	-0.219	0.165
-470.216	-117.312	-0.341	-0.062
-469.201	201.035	0.181	0.281
-468.186	55.788	0.140	0.137
-467.172	180.405	0.079	-0.116
-466.157	240.131	-0.215	0.360
-465.143	-73.702	-0.098	0.036
-464.128	759.854	-0.128	0.348
-463.113	200.317	0.057	0.088
-462.099	-200.000	-0.018	-0.079
-461.084	800.000	0.076	0.258
-460.070	-76.136	-0.316	0.112
-459.055	403.406	0.046	-0.097
-458.040	57.874	0.118	-0.116
-457.026	-15.457	0.047	-0.030
-456.011	-85.284	-0.114	0.036
-454.997	277.238	0.191	0.341
-453.982	-200.000	-0.018	-0.183
-452.968	-34.123	0.301	0.166
-451.953	-200.000	0.046	-0.221
-450.938	83.737	0.156	-0.171
-449.924	-161.703	0.309	0.016
-448.909	198.198	0.119	-0.182
-447.895	14.331	-0.258	0.202
-446.880	800.000	0.036	0.113
-445.865	722.622	-0.052	-0.139
-444.851	-52.341	0.157	-0.073
-443.836	800.000	0.058	-0.193
-442.822	-184.830	-0.146	0.002
-441.807	-54.670	0.110	-0.050
-440.792	168.997	0.049	-0.070
-439.778	-67.091	-0.177	-0.070
-438.763	-200.000	-0.002	0.327
-437.749	-40.128	-0.137	-0.072
-436.734	-200.000	0.013	0.263
-435.719	-200.000	0.008	-0.106
-434.705	94.268	-0.028	0.032
-433.690	57.838	0.135	-0.133
-432.676	-200.000	-0.003	0.059
-431.661	-67.772	0.420	-0.165
-430.646	35.710	-0.169	-0.149
-429.632	-138.268	-0.093	0.010
-428.617	143.881	-0.142	-0.190
-427.603	-32.877	0.263	-0.146
-426.588	-200.000	-0.071	-0.337
-425.573	-200.000	0.066	0.341
-424.559	-95.341	0.092	0.025
-423.544	-200.000	0.005	-0.427
-422.530	17.659	-0.195	0.156
-421.515	588.018	-0.117	0.288
-420.500	161.912	-0.256	0.360
-419.486	-200.000	0.009	-0.095
-418.471	-24.650	-0.085	0.051
-417.457	3.886	-0.387	0.283
-416.442	241.301	0.162	-0.272
-415.428	-200.000	0.004	0.100
-414.413	-200.000	-0.021	0.109
-413.398	-46.998	0.169	-0.083
-412.384	-81.523	-0.473	0.156
-411.369	12.420	-0.123	0.095
-410.355	47.781	-0.210	-0.197
-409.340	-200.000	-0.115	-0.650
-408.325	287.649	-0.119	-0.216
-407.311	473.278	-0.108	-0.244
-406.296	196.192	0.011	-0.016
-405.282	-66.493	-0.136	-0.054
-404.267	-155.702	-0.109	-0.007
-403.252	478.013	-0.067	-0.153
-402.238	-200.000	0.037	0.176
-401.223	-200.000	-0.029	0.171
-400.209	800.000	-0.004	0.017
-399.194	-51.275	0.035	-0.016
-398.179	532.768	0.086	0.203
-397.165	-158.742	-0.181	0.010
-396.150	-46.632	-0.204	-0.100
-395.136	800.000	-0.042	-0.157
-394.121	224.228	-0.098	-0.159
-393.106	676.680	-0.121	0.314
-392.092	-44.170	-0.091	0.046
-391.077	-57.529	0.242	-0.106
-390.063	800.000	0.058	-0.171
-389.048	387.160	0.057	0.118
-388.033	-200.000	-0.051	-0.255
-387.019	-46.035	-0.054	0.027
-386.004	-94.985	-0.222	-0.060
-384.990	303.942	-0.095	-0.176
-383.975	288.008	0.094	-0.170
-382.960	19.937	-0.117	-0.094
-381.946	492.427	0.141	0.323
-380.931	-176.560	-0.075	0.002
-379.917	-57.897	-0.191	0.084
-378.902	-39.661	0.293	-0.153
-377.888	591.680	0.147	0.362
-376.873	-106.718	-0.423	-0.094
-375.858	-200.000	0.010	0.104
-374.844	267.756	0.047	0.083
-373.829	-200.000	-0.010	0.258
-372.815	-44.498	0.144	0.072
-371.800	800.000	-0.038	0.145
-370.785	78.170	0.075	0.080
-369.771	646.206	0.017	-0.043
-368.756	274.854	-0.151	-0.268
-367.742	136.240	0.219	-0.286
-366.727	-16.878	0.141	0.089
-365.712	517.319	0.047	-0.110
-364.698	-118.859	0.162	-0.028
-363.683	36.820	-0.175	0.155
-362.669	247.918	0.085	-0.144
-361.654	-200.000	0.101	-0.448
-360.639	800.000	0.011	0.039
-359.625	-173.804	-0.101	-0.003
-358.610	-8.551	0.217	0.146
-357.596	-44.294	0.177	0.089
-356.581	-13.916	0.255	-0.165
-355.566	-111.025	0.090	-0.019
-354.552	-200.000	-0.004	0.224
-353.537	800.000	0.135	0.448
-352.523	-62.176	0.088	0.037
-351.508	63.565	0.157	-0.158
-350.493	800.000	0.100	-0.439
-349.479	24.154	-0.306	-0.253
-348.464	-106.921	-0.286	0.063
-347.450	-200.000	0.013	-0.185
-346.435	-200.000	0.017	0.115
-345.420	-101.687	0.398	-0.097
-344.406	-45.406	0.136	0.067
-343.391	-69.371	0.162	0.062
-342.377	-131.722	0.353	0.046
-341.362	538.044	0.130	-0.310
-340.348	165.126	0.191	-0.270
-339.333	-200.000	0.019	-0.295
-338.318	-32.548	-0.192	0.107
-337.304	400.538	0.114	0.239
-336.289	-134.240	0.388	0.048
-335.275	-126.356	0.245	-0.037
-334.260	-35.177	-0.068	0.037
-333.245	-200.000	0.026	0.234
-332.231	800.000	-0.023	-0.094
-331.216	-200.000	-0.052	0.262
-330.202	800.000	-0.039	-0.125
-329.187	22.988	0.205	0.168
-328.172	-102.535	0.072	-0.017
-327.158	360.922	0.029	-0.058
-326.143	206.168	-0.064	0.099
-325.129	103.246	0.208	-0.244
-324.114	-94.584	-0.183	-0.050
-323.099	-43.652	0.205	-0.104
-322.085	132.532	-0.174	-0.225
-321.070	61.713	-0.051	-0.051
-320.056	520.680	0.156	-0.364
-319.041	-119.131	-0.360	-0.063
-318.026	800.000	-0.095	0.268
-317.012	230.237	0.090	-0.148
-315.997	449.644	-0.159	-0.350
-314.983	-200.000	-0.019	0.103
-313.968	-84.756	0.265	0.083
-312.953	-34.640	0.097	-0.053
-311.939	219.336	-0.076	-0.121
-310.924	-200.000	0.036	-0.386
-309.910	2.539	0.083	0.060
-308.895	228.863	-0.192	0.313
-307.880	-72.051	-0.209	0.078
-306.866	369.955	0.035	-0.072
-305.851	-99.104	0.165	0.042
-304.837	478.163	-0.091	-0.206
-303.822	-200.000	0.011	0.069
-302.807	-200.000	0.023	-0.257
-301.793	271.617	-0.123	0.216
-300.778	-34.898	0.146	0.079
-299.764	-200.000	0.023	0.199
-298.749	800.000	0.048	0.193
-297.735	-200.000	0.002	0.045
-296.720	-166.872	0.339	0.014
-295.705	-73.512	-0.290	-0.106
-294.691	-11.522	0.234	-0.154
-293.676	-22.898	0.193	0.116
-292.662	-52.563	0.213	0.098
-291.647	21.147	-0.153	-0.124
-290.632	481.431	-0.079	0.179
-289.618	800.000	0.048	0.200
-288.603	-24.464	-0.155	0.092
-287.589	-45.150	0.252	-0.125
-286.574	183.245	0.124	0.182
-285.559	70.285	0.099	-0.102
-284.545	79.763	-0.217	0.232
-283.530	-155.483	0.113	0.007
-282.516	-200.000	0.041	0.213
-281.501	75.872	-0.323	-0.341
-280.486	-145.661	0.147	0.013
-279.472	27.923	0.351	-0.295
-278.457	78.811	-0.307	-0.327
-277.443	-8.420	-0.210	0.141
-276.428	-157.770	-0.096	-0.006
-275.413	275.671	0.129	0.229
-274.399	-200.000	-0.026	-0.138
-273.384	-15.808	0.156	0.099
-272.370	-105.854	0.155	0.035
-271.355	-200.000	0.017	0.155
-270.340	202.772	-0.069	-0.106
-269.326	-200.000	-0.018	-0.260
-268.311	-200.000	-0.012	0.373
-267.297	800.000	-0.050	-0.155
-266.282	-32.271	0.159	-0.088
-265.267	-200.000	-0.002	-0.084
-264.253	-163.145	0.425	0.020
-263.238	-39.946	0.302	-0.157
-262.224	-87.279	-0.154	0.047
-261.209	-146.830	0.135	-0.012
-260.195	-64.462	0.131	-0.053
-259.180	161.984	0.065	-0.091
-258.165	800.000	0.049	-0.141
-257.151	260.663	0.201	0.347
-256.136	67.926	0.312	0.318
-255.122	60.378	-0.201	-0.199
-254.107	-200.000	0.048	0.241
-253.092	371.562	0.146	-0.296
-252.078	-200.000	0.019	-0.472
-251.063	120.161	0.148	-0.183
-250.049	-200.000	0.032	-0.273
-249.034	150.252	-0.163	-0.221
-248.019	-176.238	-0.680	0.018
-247.005	800.000	0.056	0.200
-245.990	-9.067	0.185	0.123
-244.976	12.481	-0.194	-0.149
-243.961	-73.672	-0.127	-0.046
-242.946	47.090	0.147	0.136
-241.932	191.350	-0.142	-0.214
-240.917	-22.586	0.299	0.180
-239.903	2.020	0.118	0.085
-238.888	206.088	0.133	0.205
-237.873	-27.090	0.167	0.097
-236.859	-48.569	-0.308	-0.147
-235.844	-147.805	0.344	-0.029
-234.830	114.693	-0.136	-0.165
-233.815	132.966	-0.188	-0.242
-232.800	171.283	-0.213	0.305
-231.786	-27.367	-0.268	0.155
-230.771	-200.000	0.120	0.570
-229.757	263.086	-0.106	0.184
-228.742	-14.201	0.206	0.132
-227.727	-200.000	0.014	-0.248
-226.713	322.594	0.207	-0.393
-225.698	-7.318	-0.139	0.093
-224.684	71.955	0.290	0.300
-223.669	-200.000	-0.006	-0.066
-222.655	-140.888	-0.171	0.017
-221.640	284.785	-0.079	-0.142
-220.625	-200.000	0.007	0.161
-219.611	800.000	0.033	0.139
-218.596	800.000	-0.041	0.171
-217.582	-56.328	0.394	-0.174
-216.567	-200.000	-0.053	-0.319
-215.552	460.464	-0.147	-0.326
-214.538	-86.134	-0.236	-0.072
-213.523	-51.616	-0.177	0.082
-212.509	-200.000	0.010	0.186
-211.494	167.046	-0.147	0.208
-210.479	61.360	-0.021	0.020
-209.465	86.947	0.226	0.249
-208.450	66.134	-0.190	0.192
-207.436	-200.000	-0.046	0.266
-206.421	477.319	0.077	0.172
-205.406	-182.158	-0.391	-0.007
-204.392	473.036	-0.127	0.285
-203.377	463.343	0.088	0.196
-202.363	-7.800	-0.209	0.141
-201.348	125.753	0.375	0.471
-200.333	-200.000	0.006	0.055
-199.319	-200.000	-0.004	0.150
-198.304	-156.202	0.054	-0.003
-197.290	-200.000	-0.031	0.261
-196.275	172.425	0.101	0.144
-195.260	-63.088	-0.154	-0.063
-194.246	-92.150	0.279	-0.078
-193.231	-200.000	-0.022	-0.110
-192.217	-72.852	0.085	0.031
-191.202	114.987	-0.107	-0.130
-190.187	-35.132	0.217	0.117
-189.173	227.401	0.051	0.083
-188.158	-100.451	-0.235	0.058
-187.144	-3.452	-0.226	-0.156
-186.129	2.067	-0.143	-0.103
-185.114	-38.550	-0.201	-0.106
-184.100	4.730	0.081	0.059
-183.085	-51.549	0.268	-0.124
-182.071	-154.802	-0.246	0.016
-181.056	84.046	0.129	-0.140
-180.042	-66.125	-0.055	0.022
-179.027	-109.475	-0.304	0.064
-178.012	-200.000	-0.015	0.092
-176.998	-200.000	-0.051	-0.333
-175.983	91.922	-0.041	-0.046
-174.969	12.020	0.152	-0.116
-173.954	105.422	-0.263	-0.309
-172.939	-57.888	-0.196	-0.085
-171.925	800.000	0.093	0.271
-170.910	-0.873	-0.050	0.035
-169.896	15.319	0.194	-0.151
-168.881	-200.000	-0.005	0.097
-167.866	-71.131	-0.375	-0.140
-166.852	-200.000	0.027	0.139
-165.837	183.330	0.205	0.301
-164.823	-200.000	0.046	0.265
-163.808	-70.256	-0.127	0.048
-162.793	25.312	0.373	0.308
-161.779	800.000	0.055	0.201
-160.764	-70.283	-0.154	-0.058
-159.750	-59.475	-0.133	0.057
-158.735	-177.954	-0.227	-0.005
-157.720	660.942	-0.048	0.123
-156.706	-98.675	0.166	0.042
-155.691	-4.264	-0.215	0.148
-154.677	-76.606	0.324	0.113
-153.662	16.898	-0.062	-0.049
-152.647	251.428	-0.108	-0.182
-151.633	-200.000	-0.025	0.000
-150.618	44.035	-0.038	0.035
-149.604	380.919	0.029	0.059
-148.589	-8.862	-0.176	-0.117
-147.574	-68.526	-0.311	0.120
-146.560	-93.059	0.277	-0.077
-145.545	-94.745	0.246	0.066
-144.531	610.596	-0.214	0.530
-143.516	-12.780	0.194	-0.125
-142.502	-13.511	0.284	0.182
-141.487	-122.631	-0.088	0.014
-140.472	62.383	0.154	-0.152
-139.458	800.000	0.041	-0.122
-138.443	800.000	-0.123	0.346
-137.429	330.805	-0.341	0.652
-136.414	53.447	0.134	0.128
-135.399	5.801	-0.104	-0.077
-134.385	61.701	-0.277	0.273
-133.370	87.059	-0.138	-0.151
-132.356	298.899	0.242	0.442
-131.341	800.000	-0.059	-0.184
-130.326	-22.630	-0.169	0.101
-129.312	79.186	-0.200	0.212
-128.297	-53.315	-0.248	0.113
-127.283	-69.776	-0.215	0.081
-126.268	145.855	0.236	-0.313
-125.253	-47.838	0.099	-0.048
-124.239	-81.393	0.146	0.048
-123.224	-200.000	-0.008	0.293
-122.210	-200.000	-0.015	0.313
