DTS Sentinel unit serial number:	SN413079Multiplexer serial number:	ORYXHardware model number:	OX4-SRSoftware version number:	ORYX F/W v4.00 Oryx Data Collector v3.7.2.0data status	okinstallation	princeton_trtdifferential loss correction	single-endedforward channel	channel 4reverse channel	N/Adate	2019/09/14time	19:25:35forward acquisition time	60.00reverse acquisition time	0.00gamma	496.2192k internal	0.2303k external	0.2303temperature offset calibration	1.0102default loss term (dB/km)	0.3790temperature slope calibration	1.0000multiplexer offset coefficient	1.0000multiplexer slope coefficient	1.0000fibre end	0.00T internal ref (°C)	34.87T ext. ref 1 (°C)	4.87T ext. ref 2 (°C)	29.01length (m)	temperature (°C)	Stokes	anti-Stokes-747.200	800.000	0.048	0.155
-746.185	-122.795	-0.066	-0.011
-745.171	-200.000	0.000	0.198
-744.156	-200.000	0.029	0.266
-743.142	224.645	-0.048	0.079
-742.127	-200.000	-0.011	-0.109
-741.112	-101.945	-0.226	-0.056
-740.098	800.000	0.069	0.282
-739.083	50.209	0.303	-0.291
-738.069	-200.000	-0.002	0.086
-737.054	-72.615	-0.270	0.101
-736.039	-152.038	-0.271	0.020
-735.025	-124.664	0.278	0.044
-734.010	81.609	-0.043	-0.047
-732.996	488.637	-0.127	-0.296
-731.981	-173.138	0.021	-0.001
-730.966	800.000	0.051	-0.156
-729.952	800.000	-0.119	-0.340
-728.937	-16.954	-0.282	-0.181
-727.923	307.538	-0.174	-0.330
-726.908	-200.000	-0.014	0.268
-725.894	-60.004	-0.131	-0.057
-724.879	30.347	-0.009	0.008
-723.864	355.775	-0.183	0.371
-722.850	-132.511	-0.167	0.022
-721.835	224.720	-0.075	-0.124
-720.821	390.497	-0.061	0.130
-719.806	573.648	-0.169	0.420
-718.791	53.109	-0.296	0.288
-717.777	-20.896	-0.161	0.101
-716.762	-200.000	-0.008	0.077
-715.748	-26.130	-0.398	0.238
-714.733	96.170	0.037	-0.044
-713.718	41.340	0.116	0.107
-712.704	-19.798	0.109	0.068
-711.689	800.000	-0.051	-0.189
-710.675	-98.614	0.149	-0.039
-709.660	14.953	-0.107	-0.086
-708.645	-152.464	-0.123	-0.009
-707.631	-200.000	0.032	0.180
-706.616	-30.676	0.035	0.020
-705.602	100.742	0.134	0.159
-704.587	-35.402	0.161	-0.089
-703.572	-200.000	0.023	-0.250
-702.558	73.185	-0.198	0.211
-701.543	57.975	0.083	-0.083
-700.529	800.000	-0.079	-0.247
-699.514	-66.667	0.093	0.037
-698.499	-105.508	-0.352	0.081
-697.485	330.371	0.181	-0.354
-696.470	-97.873	-0.309	-0.081
-695.456	-162.451	0.037	-0.002
-694.441	16.995	-0.085	0.068
-693.426	-200.000	0.008	-0.057
-692.412	18.417	0.161	-0.131
-691.397	-18.738	-0.059	0.037
-690.383	-92.909	-0.330	-0.094
-689.368	379.858	-0.132	0.276
-688.354	405.513	0.038	-0.081
-687.339	32.692	-0.228	-0.200
-686.324	29.054	-0.129	-0.111
-685.310	46.989	0.066	0.062
-684.295	-200.000	-0.006	0.144
-683.281	-79.937	-0.328	0.112
-682.266	-6.936	0.241	-0.167
-681.251	-107.043	-0.086	0.019
-680.237	800.000	0.091	0.268
-679.222	128.950	-0.106	0.137
-678.208	314.867	-0.100	0.192
-677.193	93.451	-0.226	-0.259
-676.178	16.754	0.181	-0.146
-675.164	-110.674	0.143	0.030
-674.149	-200.000	-0.047	0.268
-673.135	800.000	0.033	-0.092
-672.120	5.604	0.078	-0.059
-671.105	800.000	-0.141	0.406
-670.091	105.635	-0.054	-0.065
-669.076	53.167	0.110	0.107
-668.062	-150.584	0.194	-0.015
-667.047	-35.017	-0.114	-0.063
-666.032	-126.033	0.136	-0.021
-665.018	-59.232	0.242	0.106
-664.003	-108.216	0.287	0.063
-662.989	-200.000	0.035	-0.372
-661.974	27.309	0.209	-0.178
-660.959	33.980	0.217	-0.192
-659.945	155.580	-0.088	0.123
-658.930	-45.041	-0.426	0.215
-657.916	325.630	-0.110	0.214
-656.901	-200.000	-0.022	-0.188
-655.886	147.299	0.106	0.145
-654.872	720.093	-0.089	-0.240
-653.857	-141.874	0.202	0.021
-652.843	214.005	-0.221	0.355
-651.828	-103.423	-0.228	0.054
-650.814	-37.372	-0.055	0.030
-649.799	-63.518	0.259	0.108
-648.784	331.629	0.105	0.206
-647.770	265.078	0.171	0.302
-646.755	-140.267	0.270	-0.029
-645.741	800.000	0.159	-0.469
-644.726	439.299	-0.050	-0.111
-643.711	-200.000	0.001	-0.205
-642.697	-68.762	0.132	-0.052
-641.682	800.000	-0.039	-0.116
-640.668	-200.000	-0.036	-0.163
-639.653	-69.687	0.184	0.071
-638.638	-70.147	-0.078	0.030
-637.624	-200.000	0.021	-0.263
-636.609	800.000	-0.039	-0.150
-635.595	587.613	0.124	-0.310
-634.580	-22.320	0.102	0.062
-633.565	-200.000	0.042	0.199
-632.551	173.453	-0.085	0.124
-631.536	418.569	0.093	-0.202
-630.522	-200.000	0.010	-0.057
-629.507	7.189	0.288	-0.218
-628.492	-13.491	-0.077	0.050
-627.478	-105.185	0.123	0.029
-626.463	-200.000	-0.059	-0.370
-625.449	333.132	-0.128	-0.251
-624.434	-137.995	-0.112	0.013
-623.419	-162.962	-0.125	0.006
-622.405	-33.443	0.132	-0.074
-621.390	329.566	-0.059	-0.115
-620.376	-70.224	-0.301	-0.116
-619.361	-45.633	-0.249	-0.125
-618.346	-84.009	0.185	-0.060
-617.332	141.190	0.027	-0.037
-616.317	-128.193	-0.593	-0.086
-615.303	-20.220	-0.247	-0.155
-614.288	-124.594	-0.689	-0.108
-613.273	236.719	0.140	0.234
-612.259	31.135	-0.057	0.050
-611.244	155.787	0.014	-0.020
-610.230	-200.000	0.005	0.095
-609.215	141.247	0.115	-0.155
-608.201	-200.000	-0.028	-0.127
-607.186	83.543	0.097	0.107
-606.171	503.898	0.118	0.275
-605.157	205.200	-0.154	0.242
-604.142	-200.000	0.008	0.123
-603.128	-23.082	-0.274	0.167
-602.113	-80.522	0.426	-0.144
-601.098	75.218	0.231	-0.247
-600.084	-2.389	-0.260	-0.184
-599.069	-131.181	-0.367	-0.049
-598.055	-23.706	-0.129	-0.078
-597.040	-117.407	0.284	0.052
-596.025	-134.575	-0.008	0.001
-595.011	-180.075	-0.128	0.003
-593.996	-134.891	-0.188	0.023
-592.982	-40.076	0.074	0.039
-591.967	412.189	0.136	0.293
-590.952	-13.476	0.068	0.045
-589.938	18.697	-0.333	-0.270
-588.923	387.975	-0.149	-0.313
-587.909	-100.464	-0.295	0.074
-586.894	487.753	0.057	-0.131
-585.879	-102.801	0.444	0.107
-584.865	800.000	0.017	0.052
-583.850	-200.000	-0.004	-0.125
-582.836	582.230	0.016	0.040
-581.821	-40.537	-0.093	-0.049
-580.806	-131.934	-0.132	-0.017
-579.792	-13.151	-0.335	-0.220
-578.777	-200.000	-0.016	0.089
-577.763	-175.955	-0.035	-0.001
-576.748	-200.000	0.007	0.331
-575.733	-154.176	-0.140	0.010
-574.719	157.823	0.181	-0.254
-573.704	-168.411	-0.025	0.001
-572.690	116.913	-0.041	-0.051
-571.675	267.221	0.131	0.233
-570.661	270.123	-0.115	-0.204
-569.646	403.106	-0.101	-0.214
-568.631	-200.000	-0.018	-0.171
-567.617	-158.438	-0.117	-0.007
-566.602	-145.112	-0.388	0.036
-565.588	-197.926	-0.182	-0.001
-564.573	-163.507	0.236	-0.011
-563.558	-137.081	0.248	-0.029
-562.544	800.000	0.146	-0.473
-561.529	105.112	0.162	0.194
-560.515	474.588	-0.156	0.355
-559.500	-200.000	0.049	0.000
-558.485	-200.000	-0.003	0.235
-557.471	65.922	0.086	0.088
-556.456	314.887	0.075	0.144
-555.442	12.750	-0.161	0.126
-554.427	77.829	-0.149	-0.160
-553.412	-122.544	0.148	0.024
-552.398	-158.800	0.258	-0.015
-551.383	-63.099	-0.183	0.076
-550.369	138.791	-0.011	-0.015
-549.354	462.075	0.068	-0.153
-548.339	173.428	-0.187	-0.273
-547.325	782.410	-0.017	-0.046
-546.310	800.000	-0.035	0.129
-545.296	-200.000	-0.049	-0.319
-544.281	-154.848	-0.161	0.011
-543.266	-93.909	-0.349	0.097
-542.252	62.316	0.137	-0.138
-541.237	800.000	0.056	0.242
-540.223	-7.361	-0.142	-0.097
-539.208	561.419	-0.155	-0.379
-538.193	-20.150	-0.140	-0.087
-537.179	-152.138	-0.227	-0.017
-536.164	4.424	-0.276	0.205
-535.150	90.556	0.128	0.145
-534.135	204.854	-0.113	0.177
-533.121	-38.367	-0.130	0.069
-532.106	-200.000	0.015	0.414
-531.091	800.000	0.012	-0.038
-530.077	369.705	0.058	-0.119
-529.062	-135.523	0.115	-0.014
-528.048	25.276	-0.079	0.066
-527.033	-149.777	0.124	-0.010
-526.018	-1.512	-0.122	0.087
-525.004	-200.000	0.009	0.122
-523.989	344.050	0.077	0.152
-522.975	-200.000	-0.035	0.282
-521.960	204.422	0.228	0.356
-520.945	-53.345	-0.224	-0.104
-519.931	40.579	-0.109	0.099
-518.916	-200.000	0.029	0.332
-517.902	64.511	-0.083	0.084
-516.887	-200.000	0.015	-0.088
-515.872	102.681	-0.155	0.183
-514.858	-200.000	0.022	-0.392
-513.843	190.853	-0.057	-0.087
-512.829	-42.798	0.040	-0.020
-511.814	800.000	0.056	-0.163
-510.799	800.000	0.105	0.347
-509.785	699.401	-0.047	0.125
-508.770	54.739	-0.110	0.107
-507.756	-140.466	-0.153	0.016
-506.741	-161.873	-0.167	0.009
-505.726	179.191	-0.141	-0.208
-504.712	3.023	-0.042	-0.030
-503.697	-200.000	-0.023	0.252
-502.683	486.868	0.135	-0.310
-501.668	707.922	-0.089	0.239
-500.653	-99.166	0.416	0.106
-499.639	95.781	-0.194	0.224
-498.624	-167.321	-0.348	-0.014
-497.610	-179.050	0.232	0.005
-496.595	-66.319	0.186	-0.074
-495.581	175.379	0.049	-0.071
-494.566	632.796	0.025	0.064
-493.551	-136.725	0.054	-0.006
-492.537	179.831	0.122	0.180
-491.522	-55.985	0.179	-0.081
-490.508	133.186	0.219	0.285
-489.493	-10.243	0.072	-0.048
-488.478	-66.211	0.197	-0.079
-487.464	35.811	-0.190	-0.168
-486.449	-110.410	-0.104	-0.022
-485.435	352.139	-0.068	0.136
-484.420	105.504	0.024	-0.029
-483.405	-100.771	0.075	0.019
-482.391	71.656	-0.153	-0.161
-481.376	-200.000	0.014	-0.271
-480.362	-94.837	-0.069	0.019
-479.347	-118.283	0.087	0.016
-478.332	-61.153	-0.091	0.039
-477.318	-200.000	0.072	-0.351
-476.303	800.000	0.017	-0.065
-475.289	3.095	-0.252	0.185
-474.274	-150.531	-0.147	-0.011
-473.259	800.000	0.102	0.374
-472.245	800.000	-0.073	0.288
-471.230	-200.000	-0.019	-0.104
-470.216	-76.025	-0.191	0.068
-469.201	98.336	-0.110	-0.128
-468.186	-34.226	0.113	0.062
-467.172	-71.983	0.184	-0.069
-466.157	-24.938	-0.214	-0.128
-465.143	607.081	0.103	0.259
-464.128	-200.000	-0.025	0.233
-463.113	70.937	0.048	-0.050
-462.099	245.904	0.094	0.159
-461.084	120.401	-0.059	-0.074
-460.070	126.434	0.061	0.077
-459.055	-32.807	0.037	0.021
-458.040	800.000	0.110	0.315
-457.026	-200.000	0.014	0.239
-456.011	354.884	0.146	-0.293
-454.997	507.376	0.044	-0.103
-453.982	314.352	-0.050	0.094
-452.968	-1.364	-0.348	-0.247
-451.953	-70.546	-0.094	-0.036
-450.938	-42.607	0.184	-0.094
-449.924	244.355	-0.072	0.122
-448.909	33.420	-0.227	-0.198
-447.895	-10.811	0.189	-0.126
-446.880	5.689	0.026	0.019
-445.865	-200.000	0.008	0.144
-444.851	-200.000	-0.022	-0.294
-443.836	-200.000	0.014	-0.174
-442.822	-21.322	0.113	-0.069
-441.807	-200.000	0.011	-0.098
-440.792	-99.074	0.117	-0.030
-439.778	-200.000	-0.017	0.123
-438.763	-200.000	-0.012	0.182
-437.749	395.955	0.083	-0.175
-436.734	-200.000	-0.009	0.160
-435.719	800.000	-0.031	0.132
-434.705	-200.000	0.011	-0.141
-433.690	272.439	0.029	0.052
-432.676	-13.995	-0.041	0.026
-431.661	177.678	-0.061	-0.090
-430.646	-90.858	0.122	0.036
-429.632	400.027	0.238	-0.502
-428.617	-20.704	-0.070	0.043
-427.603	578.965	0.084	-0.207
-426.588	-200.000	0.021	0.222
-425.573	-143.052	0.286	-0.028
-424.559	-200.000	0.001	-0.220
-423.544	67.075	0.168	-0.172
-422.530	-82.851	0.075	-0.024
-421.515	227.786	0.120	-0.197
-420.500	-200.000	-0.027	-0.238
-419.486	357.574	0.042	0.084
-418.471	-92.460	-0.165	0.047
-417.457	-67.075	-0.228	-0.090
-416.442	652.014	-0.153	-0.395
-415.428	-159.282	0.164	0.009
-414.413	173.618	0.124	-0.180
-413.398	-200.000	0.050	-0.368
-412.384	800.000	-0.033	0.140
-411.369	392.299	0.054	0.113
-410.355	-133.437	-0.255	-0.032
-409.340	358.104	-0.188	-0.378
-408.325	-138.217	-0.231	-0.026
-407.311	22.129	0.162	0.133
-406.296	301.910	-0.250	0.465
-405.282	800.000	0.066	0.203
-404.267	-97.281	0.213	-0.056
-403.252	774.792	0.062	-0.169
-402.238	269.724	0.056	0.100
-401.223	174.988	0.182	-0.265
-400.209	792.679	-0.093	0.257
-399.194	294.503	0.052	-0.096
-398.179	67.472	0.104	0.107
-397.165	-29.039	-0.170	0.098
-396.150	145.270	0.073	-0.098
-395.136	414.327	0.022	0.048
-394.121	-99.734	-0.445	0.112
-393.106	-158.232	-0.274	-0.016
-392.092	8.617	-0.124	0.094
-391.077	-134.978	-0.266	0.032
-390.063	-4.237	0.261	-0.181
-389.048	-109.953	-0.065	0.014
-388.033	-200.000	0.014	0.270
-387.019	152.659	-0.146	-0.201
-386.004	-159.988	-0.161	0.009
-384.990	-118.354	0.334	-0.060
-383.975	-168.293	-0.067	-0.003
-382.960	-173.267	0.220	-0.007
-381.946	489.601	0.099	0.227
-380.931	-92.661	0.557	-0.157
-379.917	567.066	0.083	-0.202
-378.902	-65.101	-0.085	-0.035
-377.888	-88.110	-0.268	-0.081
-376.873	320.767	-0.145	0.276
-375.858	-94.899	-0.352	0.096
-374.844	8.034	0.288	0.217
-373.829	101.322	-0.169	0.198
-372.815	-200.000	-0.069	-0.346
-371.800	22.634	0.149	-0.122
-370.785	111.502	0.101	0.122
-369.771	800.000	0.063	-0.227
-368.756	-160.247	-0.296	-0.016
-367.742	-96.555	-0.464	-0.123
-366.727	-10.736	-0.282	0.187
-365.712	-200.000	-0.003	-0.043
-364.698	-138.391	-0.076	0.008
-363.683	800.000	0.030	0.094
-362.669	526.604	0.073	0.172
-361.654	-200.000	0.036	-0.368
-360.639	485.725	0.037	0.085
-359.625	27.954	0.216	0.182
-358.610	-200.000	0.019	-0.275
-357.596	-84.006	-0.210	0.067
-356.581	-76.924	0.044	-0.015
-355.566	437.788	-0.125	0.274
-354.552	800.000	-0.046	0.152
-353.537	-200.000	-0.010	-0.212
-352.523	-39.696	-0.092	-0.048
-351.508	-108.636	-0.323	-0.070
-350.493	-123.130	0.112	-0.018
-349.479	155.549	-0.026	-0.035
-348.464	-2.568	-0.258	-0.181
-347.450	102.069	0.082	0.097
-346.435	-129.330	0.293	-0.041
-345.420	-8.892	0.036	-0.024
-344.406	-200.000	0.004	-0.036
-343.391	800.000	0.021	-0.070
-342.377	-93.541	0.244	-0.068
-341.362	-115.780	0.216	-0.041
-340.348	109.210	0.081	-0.097
-339.333	-190.342	-0.263	0.003
-338.318	108.991	-0.032	0.039
-337.304	-29.903	0.288	0.164
-336.289	7.604	-0.213	0.160
-335.275	6.957	-0.176	-0.132
-334.260	-10.033	-0.075	0.050
-333.245	-200.000	0.021	-0.334
-332.231	-82.261	0.264	0.086
-331.216	800.000	0.056	-0.226
-330.202	-9.252	0.147	-0.098
-329.187	-138.794	-0.257	0.028
-328.172	-200.000	0.002	0.194
-327.158	-179.662	0.337	-0.007
-326.143	800.000	-0.114	0.334
-325.129	-161.694	0.233	-0.012
-324.114	-99.390	0.346	0.087
-323.099	411.278	-0.033	0.070
-322.085	84.160	-0.105	-0.115
-321.070	-173.578	-0.338	0.010
-320.056	-52.940	-0.099	0.046
-319.041	598.898	0.028	0.069
-318.026	331.121	-0.077	-0.149
-317.012	48.133	0.131	0.123
-315.997	314.350	-0.117	0.220
-314.983	-153.048	0.314	0.022
-313.968	-76.805	-0.307	-0.108
-312.953	-200.000	0.083	-0.399
-311.939	-41.509	-0.203	-0.105
-310.924	-200.000	0.011	0.066
-309.910	610.853	-0.100	0.249
-308.895	-167.539	0.362	0.014
-307.880	-38.481	-0.112	-0.059
-306.866	558.165	-0.089	-0.215
-305.851	800.000	0.067	0.262
-304.837	322.979	-0.228	0.436
-303.822	60.185	0.184	0.182
-302.807	-200.000	-0.002	0.199
-301.793	800.000	0.100	0.360
-300.778	40.045	-0.189	0.170
-299.764	4.730	0.092	-0.067
-298.749	-200.000	0.029	-0.350
-297.735	15.057	0.116	0.091
-296.720	344.449	-0.180	0.354
-295.705	-200.000	0.022	0.168
-294.691	260.423	0.080	-0.138
-293.676	-29.456	0.036	-0.021
-292.662	435.396	0.045	0.098
-291.647	282.800	0.104	-0.187
-290.632	61.983	0.109	-0.108
-289.618	-164.474	0.125	-0.006
-288.603	229.137	-0.096	0.156
-287.589	230.169	0.209	0.342
-286.574	-58.401	-0.119	-0.052
-285.559	-94.210	-0.158	-0.043
-284.545	-48.623	0.090	0.044
-283.530	-37.829	-0.142	-0.076
-282.516	220.911	-0.154	0.248
-281.501	61.970	-0.285	0.284
-280.486	275.410	0.144	-0.255
-279.472	-14.727	-0.143	-0.092
-278.457	545.486	0.039	-0.093
-277.443	55.592	0.163	-0.158
-276.428	105.937	-0.056	0.066
-275.413	-37.886	0.290	0.154
-274.399	102.352	0.030	0.035
-273.384	-74.006	-0.221	-0.080
-272.370	162.696	-0.161	-0.226
-271.355	418.530	0.054	-0.116
-270.340	784.246	0.145	0.397
-269.326	-67.660	0.543	-0.213
-268.311	-33.181	0.163	0.090
-267.297	50.618	0.139	-0.131
-266.282	121.798	0.236	-0.294
-265.267	138.033	-0.086	0.113
-264.253	-200.000	-0.017	-0.126
-263.238	-200.000	0.040	-0.425
-262.224	800.000	0.030	0.103
-261.209	170.125	0.187	0.268
-260.195	-200.000	0.033	0.252
-259.180	-137.706	0.183	-0.021
-258.165	148.284	-0.153	0.206
-257.151	800.000	0.044	-0.132
-256.136	328.300	0.051	-0.099
-255.122	38.356	-0.103	0.092
-254.107	-99.281	0.125	-0.032
-253.092	54.194	-0.091	-0.088
-252.078	-200.000	-0.003	0.065
-251.063	-6.611	-0.315	0.214
-250.049	163.468	0.201	0.282
-249.034	58.977	-0.073	0.072
-248.019	-200.000	0.020	-0.119
-247.005	-134.939	0.247	-0.030
-245.990	-79.757	0.308	0.104
-244.976	-108.567	-0.286	0.061
-243.961	800.000	-0.059	0.209
-242.946	-94.824	0.198	0.054
-241.932	23.823	-0.064	0.053
-240.917	-139.939	0.227	-0.024
-239.903	109.958	0.079	-0.095
-238.888	-114.915	-0.085	0.016
-237.873	156.725	0.143	0.198
-236.859	-200.000	-0.055	0.298
-235.844	-138.653	-0.214	-0.023
-234.830	333.794	-0.030	0.058
-233.815	-2.230	0.368	0.258
-232.800	-186.172	0.330	-0.005
-231.786	800.000	0.054	0.181
-230.771	-25.377	0.138	-0.081
-229.757	-72.470	0.251	-0.093
-228.742	-200.000	-0.037	0.167
-227.727	755.446	0.041	-0.111
-226.713	-42.222	-0.020	-0.010
-225.698	-139.496	-0.228	0.024
-224.684	800.000	-0.023	-0.065
-223.669	-30.905	0.323	0.182
-222.655	76.965	0.027	0.028
-221.640	184.192	-0.156	-0.231
-220.625	-124.372	-0.180	0.028
-219.611	120.612	0.092	-0.114
-218.596	-145.541	0.337	0.030
-217.582	-20.780	0.117	-0.072
-216.567	661.008	-0.101	-0.260
-215.552	306.508	-0.139	0.258
-214.538	800.000	-0.062	0.242
-213.523	-18.001	0.214	-0.133
-212.509	283.427	-0.091	-0.162
-211.494	255.663	0.126	-0.216
-210.479	-5.289	0.329	0.226
-209.465	-54.990	-0.142	0.064
-208.450	40.576	0.131	0.117
-207.436	53.688	-0.256	-0.245
-206.421	-163.939	0.116	-0.005
-205.406	-14.707	0.078	0.050
-204.392	-79.593	0.371	-0.125
-203.377	-56.035	-0.164	0.073
-202.363	91.783	-0.193	-0.216
-201.348	-200.000	0.029	0.180
-200.333	0.387	0.182	-0.130
-199.319	120.487	0.109	-0.136
-198.304	800.000	0.017	0.050
-197.290	-200.000	0.031	0.144
-196.275	800.000	0.054	0.151
-195.260	-113.150	-0.147	-0.029
-194.246	162.692	-0.208	-0.291
-193.231	-77.529	0.325	-0.112
-192.217	124.339	0.154	-0.192
-191.202	332.555	0.088	-0.168
-190.187	-87.173	-0.323	-0.098
-189.173	-200.000	0.029	0.257
-188.158	-80.628	-0.154	-0.051
-187.144	-96.984	0.285	0.074
-186.129	60.504	0.208	0.205
-185.114	466.528	-0.024	0.053
-184.100	304.673	-0.189	-0.349
-183.085	-68.539	0.158	-0.061
-182.071	-200.000	-0.014	-0.156
-181.056	56.105	-0.241	-0.233
-180.042	210.785	-0.033	-0.052
-179.027	-44.464	0.322	0.160
-178.012	247.655	-0.128	0.215
-176.998	22.526	-0.122	-0.099
-175.983	-200.000	-0.021	0.120
-174.969	-170.044	-0.295	-0.010
-173.954	155.497	0.119	-0.163
-172.939	-158.280	0.180	-0.010
-171.925	-103.915	0.115	-0.027
-170.910	-40.953	0.211	-0.109
-169.896	-11.906	-0.299	-0.195
-168.881	12.063	-0.133	0.102
-167.866	664.694	-0.028	-0.073
-166.852	6.860	-0.076	-0.056
-165.837	265.597	0.051	0.088
-164.823	-191.041	0.222	0.002
-163.808	257.497	0.139	0.238
-162.793	37.259	-0.167	-0.148
-161.779	-83.754	-0.286	-0.091
-160.764	800.000	0.027	0.086
-159.750	-200.000	0.014	0.344
-158.735	800.000	-0.097	0.323
-157.720	800.000	0.029	0.099
-156.706	89.944	-0.043	0.048
-155.691	230.909	-0.110	-0.180
-154.677	-91.815	0.303	0.086
-153.662	-200.000	0.000	0.493
-152.647	800.000	-0.024	-0.102
-151.633	-132.402	-0.117	-0.015
-150.618	-200.000	0.040	-0.198
-149.604	-200.000	-0.056	-0.453
-148.589	-5.901	-0.358	-0.244
-147.574	-200.000	-0.008	-0.330
-146.560	800.000	-0.107	0.427
-145.545	491.832	-0.073	-0.166
-144.531	111.462	0.243	0.291
-143.516	-65.473	-0.234	-0.093
-142.502	309.622	0.155	-0.289
-141.487	2.060	-0.063	-0.045
-140.472	800.000	0.027	-0.098
-139.458	-200.000	0.031	-0.272
-138.443	2.006	-0.158	-0.113
-137.429	181.237	0.103	0.151
-136.414	15.794	0.125	0.098
-135.399	800.000	-0.058	0.232
-134.385	800.000	-0.041	-0.134
-133.370	554.630	-0.089	0.213
-132.356	744.293	0.075	0.200
-131.341	-200.000	0.038	-0.489
-130.326	-27.570	0.088	0.051
-129.312	-29.420	-0.030	0.017
-128.297	-200.000	0.005	0.194
-127.283	800.000	-0.014	0.041
-126.268	71.948	0.242	0.250
-125.253	113.436	0.213	-0.257
-124.239	800.000	0.073	-0.243
-123.224	51.498	-0.227	0.214
-122.210	-136.978	-0.241	0.027
-121.195	30.015	0.181	-0.154
