DTS Sentinel unit serial number:	SN413079Multiplexer serial number:	ORYXHardware model number:	OX4-SRSoftware version number:	ORYX F/W v4.00 Oryx Data Collector v3.7.2.0data status	okinstallation	princeton_trtdifferential loss correction	single-endedforward channel	channel 4reverse channel	N/Adate	2019/09/17time	09:09:35forward acquisition time	60.00reverse acquisition time	0.00gamma	496.2192k internal	0.2315k external	0.2315temperature offset calibration	0.9975default loss term (dB/km)	0.3790temperature slope calibration	1.0000multiplexer offset coefficient	1.0000multiplexer slope coefficient	1.0000fibre end	0.00T internal ref (°C)	28.30T ext. ref 1 (°C)	0.14T ext. ref 2 (°C)	25.16length (m)	temperature (°C)	Stokes	anti-Stokes-747.200	-200.000	0.048	-0.533
-746.185	-39.881	-0.314	0.166
-745.171	220.740	0.163	0.265
-744.156	585.319	0.138	0.343
-743.142	-200.000	0.038	-0.286
-742.127	225.362	-0.198	0.325
-741.112	154.982	-0.157	0.219
-740.098	-200.000	0.014	-0.132
-739.083	-200.000	0.012	0.075
-738.069	-77.383	0.036	-0.013
-737.054	531.999	-0.052	0.125
-736.039	-17.742	-0.150	0.096
-735.025	5.104	0.344	0.257
-734.010	-33.227	-0.051	-0.029
-732.996	800.000	-0.110	-0.327
-731.981	-15.107	0.180	0.117
-730.966	-96.601	-0.162	0.043
-729.952	-200.000	-0.032	-0.207
-728.937	182.075	-0.126	-0.188
-727.923	96.236	-0.272	-0.315
-726.908	-22.512	-0.216	-0.132
-725.894	-39.238	0.040	-0.021
-724.879	-200.000	0.056	0.264
-723.864	51.707	-0.149	-0.144
-722.850	-92.031	-0.168	-0.048
-721.835	-12.317	-0.146	0.097
-720.821	-55.062	0.171	-0.078
-719.806	-200.000	-0.003	0.141
-718.791	-200.000	-0.037	0.215
-717.777	298.151	-0.022	-0.041
-716.762	-28.712	-0.290	-0.169
-715.748	-200.000	-0.014	0.140
-714.733	-97.532	-0.394	-0.104
-713.718	-108.319	-0.233	-0.051
-712.704	-10.662	-0.108	0.072
-711.689	31.169	0.109	0.095
-710.675	88.527	0.199	0.224
-709.660	411.928	-0.095	-0.204
-708.645	800.000	-0.029	-0.124
-707.631	-84.536	-0.421	-0.134
-706.616	-200.000	-0.006	-0.150
-705.602	-55.961	-0.431	-0.194
-704.587	800.000	-0.082	0.338
-703.572	-200.000	0.121	-0.620
-702.558	-91.241	-0.292	-0.085
-701.543	-129.433	0.203	0.029
-700.529	-81.789	-0.095	-0.031
-699.514	-46.294	0.236	0.117
-698.499	-200.000	-0.071	-0.484
-697.485	-163.713	-0.388	0.018
-696.470	62.427	-0.204	0.207
-695.456	-80.554	-0.278	-0.094
-694.441	800.000	-0.059	-0.202
-693.426	-200.000	0.034	0.176
-692.412	-200.000	0.030	-0.255
-691.397	33.730	0.117	-0.103
-690.383	109.341	0.188	-0.228
-689.368	-46.407	-0.070	0.035
-688.354	172.804	-0.072	-0.105
-687.339	-118.948	-0.291	0.052
-686.324	772.778	-0.106	-0.291
-685.310	-111.460	0.265	0.055
-684.295	-200.000	0.073	-0.342
-683.281	-70.253	-0.136	-0.052
-682.266	149.552	-0.107	0.146
-681.251	-77.059	0.351	0.124
-680.237	-163.759	-0.260	0.012
-679.222	36.677	0.143	-0.127
-678.208	800.000	0.122	0.434
-677.193	-200.000	0.014	-0.170
-676.178	-0.502	0.219	-0.157
-675.164	18.752	-0.224	-0.181
-674.149	-76.059	0.307	0.109
-673.135	75.721	0.083	-0.088
-672.120	-29.637	-0.130	0.075
-671.105	222.402	-0.226	-0.368
-670.091	55.036	0.032	-0.031
-669.076	94.504	-0.033	-0.038
-668.062	-25.237	0.084	-0.050
-667.047	800.000	0.067	-0.206
-666.032	800.000	-0.026	-0.105
-665.018	27.615	-0.061	-0.052
-664.003	-116.655	-0.132	0.025
-662.989	800.000	0.064	-0.244
-661.974	135.705	-0.168	-0.221
-660.959	-24.541	-0.245	-0.147
-659.945	648.695	-0.075	-0.194
-658.930	7.488	-0.479	-0.362
-657.916	219.793	-0.178	0.288
-656.901	594.651	-0.054	-0.134
-655.886	38.228	-0.280	-0.252
-654.872	-200.000	-0.009	-0.131
-653.857	25.470	0.034	-0.029
-652.843	-28.503	0.084	-0.049
-651.828	419.823	0.069	0.148
-650.814	-200.000	-0.003	0.154
-649.799	-40.823	-0.352	0.184
-648.784	-49.964	0.185	-0.089
-647.770	-143.240	0.293	-0.028
-646.755	435.246	-0.060	-0.131
-645.741	-200.000	-0.005	0.096
-644.726	-106.155	-0.138	-0.031
-643.711	262.092	-0.110	0.193
-642.697	277.304	-0.071	0.128
-641.682	-28.464	-0.148	-0.086
-640.668	-64.508	-0.173	0.071
-639.653	9.872	-0.052	-0.040
-638.638	185.885	0.014	-0.021
-637.624	-200.000	0.069	0.354
-636.609	-89.618	-0.243	-0.072
-635.595	-88.396	-0.151	-0.045
-634.580	-18.375	0.270	0.170
-633.565	-55.493	-0.095	-0.043
-632.551	185.775	-0.144	0.216
-631.536	285.104	-0.107	0.195
-630.522	-102.926	0.260	0.062
-629.507	266.907	0.156	0.274
-628.492	-72.077	-0.080	-0.030
-627.478	-43.302	-0.337	-0.172
-626.463	-108.607	0.413	0.089
-625.449	-108.031	0.253	-0.055
-624.434	79.156	0.184	0.199
-623.419	-176.444	0.190	0.005
-622.405	-200.000	0.000	0.041
-621.390	-133.299	-0.110	0.014
-620.376	178.081	-0.176	0.259
-619.361	-70.838	-0.334	-0.127
-618.346	-200.000	0.004	-0.229
-617.332	-200.000	-0.005	0.075
-616.317	-200.000	0.023	0.242
-615.303	-21.011	0.060	-0.037
-614.288	-108.983	-0.078	0.017
-613.273	-168.725	-0.119	-0.005
-612.259	-71.326	0.110	0.042
-611.244	-57.370	0.249	-0.110
-610.230	-135.382	0.297	-0.036
-609.215	76.541	0.082	-0.087
-608.201	-200.000	-0.029	-0.414
-607.186	44.629	0.352	-0.326
-606.171	-68.027	-0.358	0.141
-605.157	115.577	-0.067	-0.082
-604.142	28.498	0.177	0.151
-603.128	800.000	0.027	-0.100
-602.113	-61.946	-0.175	-0.074
-601.098	-101.951	-0.282	0.069
-600.084	122.725	-0.151	0.190
-599.069	-76.987	-0.144	0.051
-598.055	-200.000	-0.096	-0.000
-597.040	728.874	0.071	0.192
-596.025	-65.055	0.234	0.095
-595.011	64.904	0.068	-0.069
-593.996	-162.864	0.216	-0.011
-592.982	-76.112	-0.270	-0.096
-591.967	-200.000	-0.030	-0.247
-590.952	-155.983	0.235	0.015
-589.938	-47.304	0.154	-0.075
-588.923	32.793	-0.410	-0.357
-587.909	800.000	-0.117	-0.441
-586.894	800.000	-0.078	0.281
-585.879	-40.480	-0.165	-0.086
-584.865	-151.314	0.093	0.007
-583.850	-107.717	0.399	-0.088
-582.836	-100.239	0.115	-0.029
-581.821	-33.425	0.330	0.184
-580.806	-107.293	0.151	-0.033
-579.792	190.462	-0.086	0.131
-578.777	405.389	-0.066	-0.140
-577.763	335.941	0.021	0.040
-576.748	187.917	-0.146	-0.219
-575.733	-45.920	0.191	0.095
-574.719	-121.295	0.107	-0.018
-573.704	-200.000	-0.035	-0.288
-572.690	-10.165	0.209	-0.140
-571.675	328.721	-0.052	0.101
-570.661	-200.000	-0.012	-0.096
-569.646	-32.776	0.321	0.180
-568.631	-200.000	-0.018	-0.131
-567.617	-200.000	0.003	-0.236
-566.602	800.000	-0.037	-0.156
-565.588	203.445	-0.080	0.124
-564.573	-200.000	-0.000	0.004
-563.558	-174.020	-0.134	0.004
-562.544	322.727	-0.034	-0.065
-561.529	73.221	0.099	-0.104
-560.515	-161.257	0.180	-0.009
-559.500	-200.000	-0.049	0.233
-558.485	-200.000	0.010	-0.291
-557.471	-87.947	-0.271	-0.082
-556.456	126.231	0.188	-0.239
-555.442	-200.000	0.051	-0.278
-554.427	-125.468	-0.312	-0.048
-553.412	116.243	0.057	0.071
-552.398	479.521	-0.066	-0.151
-551.383	147.481	-0.178	-0.241
-550.369	11.132	0.292	0.224
-549.354	800.000	-0.019	-0.068
-548.339	7.048	0.174	-0.131
-547.325	800.000	-0.127	0.421
-546.310	-81.781	-0.433	0.143
-545.296	-76.773	-0.324	-0.114
-544.281	-44.566	0.200	0.101
-543.266	-71.945	-0.123	-0.046
-542.252	102.507	-0.110	0.129
-541.237	86.226	-0.105	0.116
-540.223	166.935	0.124	0.177
-539.208	-155.415	0.163	-0.011
-538.193	623.051	-0.064	-0.163
-537.179	343.424	0.188	0.370
-536.164	-76.358	-0.156	0.055
-535.150	54.515	0.218	-0.212
-534.135	-200.000	-0.010	-0.121
-533.121	-188.629	0.103	0.001
-532.106	134.734	-0.062	-0.081
-531.091	800.000	-0.056	0.168
-530.077	114.191	-0.185	-0.226
-529.062	-89.898	-0.179	0.052
-528.048	-3.013	-0.145	-0.102
-527.033	116.397	-0.036	-0.044
-526.018	181.262	-0.183	0.270
-525.004	-141.373	-0.309	-0.031
-523.989	-200.000	0.058	0.285
-522.975	26.821	0.160	-0.135
-521.960	11.873	-0.108	-0.083
-520.945	-200.000	0.039	-0.202
-519.931	-200.000	0.038	-0.310
-518.916	-41.120	-0.201	-0.104
-517.902	-41.314	-0.292	0.151
-516.887	-67.863	0.035	0.014
-515.872	-110.981	-0.459	0.095
-514.858	800.000	-0.077	-0.233
-513.843	-200.000	0.052	-0.294
-512.829	72.844	-0.162	0.170
-511.814	-18.566	0.326	0.204
-510.799	-129.794	0.146	-0.020
-509.785	-200.000	-0.060	-0.268
-508.770	800.000	-0.042	-0.136
-507.756	-200.000	-0.006	0.135
-506.741	8.383	0.141	0.106
-505.726	800.000	-0.026	-0.088
-504.712	-127.184	0.027	-0.004
-503.697	187.803	-0.205	-0.307
-502.683	-200.000	-0.150	0.000
-501.668	-70.642	0.319	0.121
-500.653	16.349	-0.121	0.096
-499.639	199.614	-0.127	0.195
-498.624	-200.000	0.007	0.177
-497.610	-70.523	0.188	-0.071
-496.595	80.373	0.186	0.201
-495.581	259.476	0.078	-0.135
-494.566	-8.216	0.170	-0.115
-493.551	156.525	-0.188	-0.261
-492.537	-33.441	-0.200	0.111
-491.522	-108.160	-0.063	0.014
-490.508	-26.179	0.146	0.086
-489.493	-70.493	-0.237	-0.090
-488.478	-95.232	0.252	0.068
-487.464	246.165	-0.208	-0.352
-486.449	110.941	0.183	-0.220
-485.435	32.036	0.123	-0.106
-484.420	-151.849	-0.283	-0.021
-483.405	144.477	-0.084	-0.113
-482.391	-200.000	-0.016	0.255
-481.376	141.455	-0.182	0.242
-480.362	-62.065	-0.322	-0.135
-479.347	211.205	0.185	-0.291
-478.332	-85.616	0.325	-0.101
-477.318	101.182	0.135	0.158
-476.303	425.601	0.091	0.197
-475.289	143.815	-0.130	-0.174
-474.274	-26.833	0.103	0.060
-473.259	-200.000	-0.098	0.554
-472.245	30.471	0.294	0.252
-471.230	251.404	-0.154	-0.263
-470.216	-200.000	-0.025	-0.223
-469.201	142.495	-0.238	0.317
-468.186	-39.624	-0.307	-0.161
-467.172	-34.651	0.382	-0.209
-466.157	800.000	-0.013	-0.044
-465.143	800.000	0.151	-0.497
-464.128	9.623	-0.125	-0.095
-463.113	207.044	0.190	0.297
-462.099	-152.902	0.139	-0.010
-461.084	800.000	0.044	0.137
-460.070	217.359	0.052	-0.083
-459.055	71.864	-0.121	-0.126
-458.040	220.365	-0.116	-0.186
-457.026	-47.687	-0.173	0.084
-456.011	196.043	0.069	-0.105
-454.997	214.412	0.131	-0.208
-453.982	-36.240	-0.076	-0.041
-452.968	13.046	0.023	0.018
-451.953	-27.102	0.144	0.084
-450.938	117.373	0.055	0.068
-449.924	-200.000	0.050	-0.372
-448.909	-200.000	-0.022	0.116
-447.895	8.597	-0.134	0.101
-446.880	75.312	0.044	0.046
-445.865	503.162	0.055	0.127
-444.851	314.621	-0.084	-0.158
-443.836	800.000	0.132	-0.440
-442.822	48.075	-0.190	-0.178
-441.807	80.911	0.151	-0.163
-440.792	-98.177	0.014	-0.003
-439.778	137.298	-0.147	0.192
-438.763	-150.019	0.130	-0.010
-437.749	800.000	0.015	0.057
-436.734	-34.751	-0.179	0.098
-435.719	-134.021	0.272	0.034
-434.705	-66.417	0.089	0.035
-433.690	800.000	-0.050	-0.182
-432.676	-200.000	-0.009	0.046
-431.661	307.705	0.037	0.070
-430.646	-90.196	-0.097	0.028
-429.632	-200.000	-0.060	-0.306
-428.617	-70.635	0.375	0.142
-427.603	800.000	-0.117	0.420
-426.588	800.000	-0.095	0.396
-425.573	100.450	-0.240	0.279
-424.559	-32.675	0.105	-0.058
-423.544	-15.113	0.160	0.102
-422.530	15.231	-0.133	-0.105
-421.515	-140.203	-0.023	0.002
-420.500	800.000	0.014	-0.041
-419.486	-135.878	-0.057	-0.007
-418.471	131.041	0.157	0.202
-417.457	-84.476	0.277	-0.088
-416.442	-200.000	0.056	-0.259
-415.428	-108.664	-0.143	0.031
-414.413	317.252	-0.105	0.199
-413.398	3.378	-0.287	-0.209
-412.384	319.086	-0.164	-0.312
-411.369	-92.747	-0.214	0.060
-410.355	800.000	-0.024	-0.105
-409.340	-200.000	-0.019	0.187
-408.325	-29.890	0.308	0.175
-407.311	-133.853	-0.124	0.015
-406.296	800.000	-0.111	0.347
-405.282	-200.000	-0.005	0.148
-404.267	177.658	0.009	0.014
-403.252	18.125	0.038	0.030
-402.238	800.000	0.016	0.062
-401.223	-200.000	0.014	-0.447
-400.209	-200.000	-0.050	-0.397
-399.194	29.320	-0.162	-0.138
-398.179	-79.102	0.509	0.173
-397.165	-200.000	-0.002	-0.058
-396.150	800.000	-0.044	0.148
-395.136	-200.000	0.028	0.310
-394.121	-87.389	0.192	-0.058
-393.106	-116.153	0.428	0.079
-392.092	-169.442	-0.448	-0.016
-391.077	-159.420	-0.065	0.004
-390.063	-34.574	0.171	-0.093
-389.048	89.656	0.172	-0.192
-388.033	-200.000	0.028	-0.199
-387.019	-168.009	-0.325	0.013
-386.004	415.527	0.055	0.116
-384.990	-37.813	0.058	0.031
-383.975	-200.000	0.019	0.183
-382.960	-27.666	-0.240	-0.139
-381.946	377.501	0.142	-0.290
-380.931	-125.582	0.370	0.056
-379.917	-95.356	-0.361	-0.097
-378.902	183.438	0.225	0.332
-377.888	800.000	-0.125	0.363
-376.873	540.704	-0.145	-0.346
-375.858	-25.690	-0.203	-0.120
-374.844	-176.533	0.107	0.003
-373.829	3.663	0.080	-0.058
-372.815	617.496	-0.081	-0.203
-371.800	203.422	-0.015	0.023
-370.785	29.191	0.074	-0.063
-369.771	81.741	0.201	0.217
-368.756	-12.971	-0.090	0.059
-367.742	-200.000	0.011	-0.110
-366.727	-133.693	0.189	0.024
-365.712	-200.000	-0.013	0.093
-364.698	195.511	-0.160	0.243
-363.683	-103.889	0.069	-0.016
-362.669	328.114	-0.127	-0.243
-361.654	-22.297	-0.233	-0.141
-360.639	-43.484	0.227	0.114
-359.625	14.811	0.098	0.077
-358.610	800.000	-0.025	0.083
-357.596	-53.215	-0.113	-0.052
-356.581	51.360	-0.250	-0.237
-355.566	26.497	0.114	-0.095
-354.552	455.186	-0.181	-0.400
-353.537	-8.449	-0.226	-0.152
-352.523	-71.675	0.354	0.132
-351.508	-200.000	-0.098	-0.524
-350.493	225.923	-0.137	-0.222
-349.479	-128.937	-0.423	0.059
-348.464	-200.000	0.014	0.148
-347.450	76.615	0.037	0.040
-346.435	13.399	-0.339	0.262
-345.420	6.850	0.146	0.108
-344.406	-62.149	-0.193	0.080
-343.391	8.200	-0.074	-0.056
-342.377	440.730	0.064	-0.140
-341.362	437.149	-0.160	0.347
-340.348	-142.203	-0.127	0.013
-339.333	-104.559	0.094	0.022
-338.318	383.862	0.073	-0.149
-337.304	-200.000	0.003	0.078
-336.289	-163.803	-0.341	-0.016
-335.275	-161.970	-0.281	-0.014
-334.260	84.603	0.231	0.253
-333.245	126.241	0.042	-0.053
-332.231	-200.000	0.028	-0.166
-331.216	-15.508	-0.314	0.200
-330.202	198.294	-0.074	0.113
-329.187	-96.356	-0.185	-0.049
-328.172	-33.679	0.290	0.159
-327.158	-200.000	0.064	0.383
-326.143	-200.000	-0.027	0.316
-325.129	-48.315	-0.161	-0.077
-324.114	44.342	0.023	-0.021
-323.099	-64.210	-0.059	-0.024
-322.085	219.680	-0.164	-0.262
-321.070	-167.460	0.139	0.006
-320.056	-81.350	-0.210	-0.069
-319.041	72.228	-0.125	0.130
-318.026	205.947	-0.149	0.231
-317.012	-0.931	0.210	-0.148
-315.997	41.484	0.254	0.229
-314.983	-111.442	0.172	0.035
-313.968	-112.105	0.181	0.036
-312.953	-57.373	0.156	0.068
-311.939	53.502	-0.147	0.140
-310.924	-35.459	-0.077	-0.042
-309.910	10.763	0.168	-0.128
-308.895	21.866	-0.128	0.104
-307.880	-79.681	-0.332	-0.111
-306.866	177.898	0.127	-0.184
-305.851	-159.777	-0.274	-0.015
-304.837	-66.818	0.382	0.151
-303.822	50.569	-0.123	0.116
-302.807	-200.000	0.041	-0.251
-301.793	-200.000	0.019	0.171
-300.778	-200.000	0.030	0.159
-299.764	175.372	-0.079	0.113
-298.749	40.271	0.258	0.231
-297.735	-200.000	-0.018	0.161
-296.720	-146.077	0.095	0.008
-295.705	64.120	-0.171	0.171
-294.691	-200.000	0.045	0.321
-293.676	265.636	0.132	-0.229
-292.662	-155.668	0.268	-0.017
-291.647	35.319	-0.041	0.036
-290.632	-44.049	0.062	0.031
-289.618	23.415	-0.176	-0.144
-288.603	29.417	0.133	0.113
-287.589	-200.000	0.012	-0.266
-286.574	-200.000	-0.023	-0.112
-285.559	-200.000	-0.018	-0.229
-284.545	261.399	0.096	-0.166
-283.530	800.000	0.034	-0.103
-282.516	-200.000	-0.040	-0.216
-281.501	800.000	0.117	-0.331
-280.486	-3.345	0.243	0.168
-279.472	515.924	0.101	0.234
-278.457	135.195	0.064	0.083
-277.443	122.710	-0.061	0.076
-276.428	-76.667	-0.091	-0.032
-275.413	7.756	-0.269	-0.200
-274.399	336.862	0.126	0.243
-273.384	-156.025	0.385	0.024
-272.370	190.151	0.132	0.198
-271.355	622.651	-0.038	-0.096
-270.340	800.000	0.036	0.124
-269.326	738.431	0.008	0.020
-268.311	93.108	0.171	0.192
-267.297	477.459	0.108	-0.243
-266.282	-159.433	-0.145	0.008
-265.267	129.836	-0.288	0.366
-264.253	800.000	-0.095	0.359
-263.238	-125.314	0.046	0.007
-262.224	109.107	0.371	-0.441
-261.209	125.102	0.237	-0.298
-260.195	-50.644	0.150	0.070
-259.180	-63.230	0.206	0.084
-258.165	-51.936	0.055	0.025
-257.151	262.407	0.005	0.009
-256.136	-170.990	0.392	-0.013
-255.122	-48.378	0.151	-0.072
-254.107	-87.592	-0.300	0.090
-253.092	140.887	-0.122	0.160
-252.078	206.979	-0.103	0.160
-251.063	-180.798	-0.318	-0.006
-250.049	-88.774	-0.099	-0.029
-249.034	-29.261	0.244	0.139
-248.019	-4.322	-0.213	-0.146
-247.005	-140.366	-0.320	0.033
-245.990	-85.693	0.097	0.030
-244.976	670.393	-0.128	-0.328
-243.961	-71.246	0.150	-0.056
-242.946	-200.000	0.306	-0.000
-241.932	-2.894	0.168	-0.116
-240.917	5.256	0.239	-0.175
-239.903	-200.000	0.007	0.096
-238.888	-3.737	-0.156	-0.108
-237.873	114.180	-0.119	0.144
-236.859	-149.233	-0.290	-0.023
-235.844	-200.000	-0.001	0.076
-234.830	-99.360	0.484	-0.121
-233.815	-99.779	-0.083	-0.021
-232.800	800.000	0.191	0.554
-231.786	440.517	0.127	-0.276
-230.771	6.528	-0.262	-0.193
-229.757	-99.502	0.060	-0.015
-228.742	165.227	-0.119	0.167
-227.727	800.000	0.074	-0.214
-226.713	4.630	-0.250	-0.182
-225.698	-130.728	-0.390	0.052
-224.684	800.000	-0.116	-0.355
-223.669	8.397	-0.083	-0.062
-222.655	-80.318	-0.146	-0.049
-221.640	24.445	0.095	-0.078
-220.625	800.000	0.108	0.306
-219.611	-200.000	-0.041	0.232
-218.596	800.000	0.119	-0.420
-217.582	217.273	-0.031	0.049
-216.567	-200.000	0.088	0.462
-215.552	-138.455	-0.240	-0.026
-214.538	37.942	0.125	0.110
-213.523	634.067	-0.061	-0.152
-212.509	-142.013	-0.119	0.012
-211.494	-155.138	-0.108	0.007
-210.479	-70.341	-0.258	-0.097
-209.465	365.731	0.043	0.086
-208.450	509.999	0.114	-0.264
-207.436	153.930	-0.047	0.064
-206.421	-189.274	-0.286	0.003
-205.406	56.854	0.236	0.228
-204.392	-172.732	0.231	-0.007
-203.377	-41.948	-0.335	0.170
-202.363	-29.114	-0.169	0.096
-201.348	-9.337	0.152	0.101
-200.333	55.530	-0.023	-0.022
-199.319	115.368	-0.038	-0.046
-198.304	-17.351	0.170	-0.106
-197.290	800.000	-0.031	-0.123
-196.275	-100.128	-0.349	0.086
-195.260	-136.962	0.300	0.034
-194.246	-78.097	-0.304	0.104
-193.231	98.317	-0.205	-0.234
-192.217	58.185	-0.110	0.107
-191.202	800.000	0.038	0.147
-190.187	101.261	0.215	0.248
-189.173	498.556	-0.040	0.092
-188.158	-173.687	-0.043	0.001
-187.144	-200.000	-0.011	0.121
-186.129	-48.464	0.166	-0.079
-185.114	-200.000	0.041	-0.206
-184.100	-157.364	0.259	-0.015
-183.085	-116.234	-0.274	0.050
-182.071	416.546	-0.150	0.317
-181.056	-127.694	0.403	-0.058
-180.042	-155.205	-0.088	-0.006
-179.027	164.715	0.187	-0.262
-178.012	-46.155	0.218	0.106
-176.998	-200.000	0.067	0.318
-175.983	-87.227	0.428	0.129
-174.969	423.332	0.079	0.168
-173.954	592.995	-0.056	0.137
-172.939	-115.310	0.255	-0.048
-171.925	-15.942	0.078	-0.049
-170.910	8.059	0.183	-0.136
-169.896	142.704	-0.211	-0.277
-168.881	249.312	0.109	-0.184
-167.866	-62.725	0.147	-0.060
-166.852	707.121	0.067	0.175
-165.837	294.763	-0.063	0.115
-164.823	50.460	-0.072	-0.067
-163.808	-142.901	0.250	-0.024
-162.793	-200.000	0.002	-0.056
-161.779	-200.000	0.024	-0.154
-160.764	-131.708	0.116	-0.015
-159.750	-170.670	0.144	-0.005
-158.735	-69.407	-0.136	0.051
-157.720	120.075	0.130	0.160
-156.706	800.000	0.072	0.223
-155.691	179.714	0.150	-0.218
-154.677	22.814	-0.230	0.187
-153.662	-200.000	0.050	0.426
-152.647	-19.590	0.297	0.182
-151.633	-200.000	0.019	0.124
-150.618	-47.578	-0.402	-0.193
-149.604	-73.324	0.471	-0.171
-148.589	800.000	0.051	0.206
-147.574	-60.013	-0.235	-0.099
-146.560	89.006	0.059	0.065
-145.545	-142.494	0.123	-0.012
-144.531	72.949	0.087	-0.089
-143.516	-82.557	0.402	-0.129
-142.502	-6.123	0.218	-0.147
-141.487	-19.647	0.127	-0.078
-140.472	-25.652	0.214	0.125
-139.458	257.648	0.143	-0.243
-138.443	137.037	0.104	-0.135
-137.429	100.911	0.083	0.095
-136.414	229.258	-0.053	-0.086
-135.399	35.733	0.337	-0.293
-134.385	-1.718	-0.042	0.029
-133.370	68.254	0.287	0.291
-132.356	800.000	-0.095	0.322
-131.341	-200.000	0.000	0.101
-130.326	-200.000	0.057	-0.304
-129.312	39.686	-0.129	-0.114
-128.297	25.302	0.255	-0.210
-127.283	-77.800	0.126	-0.043
-126.268	-44.715	-0.256	0.126
-125.253	800.000	-0.089	-0.269
-124.239	-117.606	-0.441	-0.079
-123.224	-177.413	-0.240	-0.006
-122.210	150.596	-0.178	0.239
