DTS Sentinel unit serial number:	SN413079Multiplexer serial number:	ORYXHardware model number:	OX4-SRSoftware version number:	ORYX F/W v4.00 Oryx Data Collector v3.7.2.0data status	okinstallation	princeton_trtdifferential loss correction	single-endedforward channel	channel 4reverse channel	N/Adate	2019/09/18time	00:49:35forward acquisition time	60.00reverse acquisition time	0.00gamma	496.2192k internal	0.2334k external	0.2334temperature offset calibration	0.9998default loss term (dB/km)	0.3790temperature slope calibration	1.0000multiplexer offset coefficient	1.0000multiplexer slope coefficient	1.0000fibre end	0.00T internal ref (°C)	23.37T ext. ref 1 (°C)	0.16T ext. ref 2 (°C)	17.05length (m)	temperature (°C)	Stokes	anti-Stokes-747.200	113.607	-0.262	0.320
-746.185	169.957	-0.132	0.189
-745.171	126.359	0.196	-0.250
-744.156	111.135	-0.066	0.080
-743.142	800.000	-0.055	-0.187
-742.127	-144.297	0.190	-0.018
-741.112	-85.469	0.153	-0.048
-740.098	67.240	-0.293	0.300
-739.083	-108.396	0.275	0.060
-738.069	14.990	-0.113	0.089
-737.054	-46.166	-0.124	-0.061
-736.039	-187.589	-0.287	-0.004
-735.025	131.060	0.178	-0.230
-734.010	-30.179	0.097	0.056
-732.996	104.268	-0.103	0.122
-731.981	124.713	-0.214	-0.270
-730.966	-200.000	-0.004	0.180
-729.952	-108.697	0.202	-0.043
-728.937	-159.040	-0.082	0.005
-727.923	193.954	-0.014	0.021
-726.908	176.769	0.224	0.327
-725.894	43.801	-0.200	-0.184
-724.879	-108.011	0.256	-0.056
-723.864	669.534	0.064	0.167
-722.850	0.826	-0.328	0.236
-721.835	21.500	0.236	-0.193
-720.821	-200.000	-0.037	0.166
-719.806	800.000	0.085	-0.306
-718.791	-13.300	-0.214	-0.140
-717.777	14.447	-0.064	-0.051
-716.762	-129.310	-0.276	0.039
-715.748	-200.000	-0.015	-0.158
-714.733	206.009	-0.128	-0.200
-713.718	-92.193	-0.328	0.093
-712.704	-200.000	0.028	0.294
-711.689	-74.339	-0.529	0.192
-710.675	-62.807	-0.070	0.029
-709.660	-49.708	-0.178	0.085
-708.645	-200.000	-0.001	0.151
-707.631	-200.000	-0.015	-0.169
-706.616	-200.000	0.010	0.057
-705.602	-114.209	0.403	0.078
-704.587	443.940	-0.125	0.275
-703.572	123.737	0.097	0.122
-702.558	-75.874	-0.243	-0.086
-701.543	-200.000	-0.016	-0.134
-700.529	-87.021	0.141	-0.043
-699.514	-200.000	-0.017	0.289
-698.499	800.000	0.027	0.101
-697.485	-35.302	0.190	-0.104
-696.470	117.582	-0.141	-0.174
-695.456	-200.000	0.011	0.148
-694.441	51.750	-0.135	-0.129
-693.426	-56.581	-0.192	0.085
-692.412	-80.678	0.300	-0.100
-691.397	-200.000	-0.045	-0.335
-690.383	-154.420	0.124	0.008
-689.368	800.000	0.079	0.228
-688.354	800.000	-0.086	0.240
-687.339	800.000	-0.024	0.097
-686.324	-29.089	0.252	-0.145
-685.310	-200.000	0.015	0.446
-684.295	54.468	-0.130	-0.125
-683.281	216.492	-0.058	-0.092
-682.266	-91.403	-0.424	0.121
-681.251	527.361	-0.089	0.210
-680.237	145.429	-0.080	0.107
-679.222	-191.332	-0.250	0.003
-678.208	800.000	-0.110	0.310
-677.193	-200.000	0.011	0.179
-676.178	38.494	-0.276	-0.247
-675.164	-200.000	-0.003	-0.019
-674.149	-21.286	-0.226	-0.138
-673.135	-200.000	0.010	0.062
-672.120	-200.000	0.025	-0.327
-671.105	24.167	0.232	0.192
-670.091	-48.947	-0.149	-0.072
-669.076	800.000	0.082	0.279
-668.062	-128.119	0.477	0.068
-667.047	-145.273	-0.124	-0.011
-666.032	-5.398	0.249	0.171
-665.018	800.000	0.104	0.341
-664.003	800.000	0.019	-0.075
-662.989	44.847	0.125	-0.115
-661.974	188.605	-0.093	-0.140
-660.959	31.687	-0.054	0.047
-659.945	54.981	-0.080	-0.078
-658.930	-200.000	0.024	-0.224
-657.916	135.280	0.118	0.154
-656.901	-26.661	-0.124	0.073
-655.886	296.716	0.112	-0.206
-654.872	-200.000	0.043	-0.209
-653.857	119.013	-0.229	0.284
-652.843	-109.278	-0.400	-0.085
-651.828	11.753	0.107	0.082
-650.814	310.094	-0.165	-0.309
-649.799	77.517	-0.202	0.216
-648.784	-200.000	0.011	0.092
-647.770	-52.145	0.366	-0.170
-646.755	515.071	-0.016	-0.037
-645.741	14.187	0.220	0.172
-644.726	-0.607	-0.141	-0.100
-643.711	64.618	0.090	-0.091
-642.697	94.737	-0.127	0.144
-641.682	128.707	0.096	-0.123
-640.668	-131.999	-0.246	0.032
-639.653	800.000	0.043	-0.178
-638.638	251.392	0.290	-0.493
-637.624	-120.925	0.090	-0.015
-636.609	74.734	0.142	0.149
-635.595	-66.991	0.055	0.022
-634.580	45.968	-0.247	0.228
-633.565	434.429	-0.084	-0.183
-632.551	-56.666	-0.179	0.079
-631.536	137.978	0.044	0.058
-630.522	-90.117	0.134	0.039
-629.507	28.723	-0.120	-0.102
-628.492	20.082	0.145	0.117
-627.478	-200.000	0.015	-0.158
-626.463	-145.022	-0.178	0.016
-625.449	-200.000	0.010	-0.046
-624.434	167.348	-0.069	-0.098
-623.419	-200.000	0.061	-0.388
-622.405	-187.767	-0.093	0.001
-621.390	-155.553	-0.231	0.015
-620.376	228.382	0.089	-0.145
-619.361	-200.000	-0.278	-0.001
-618.346	-200.000	0.003	-0.294
-617.332	9.687	0.156	0.118
-616.317	800.000	-0.048	-0.141
-615.303	-70.929	-0.265	0.100
-614.288	218.933	0.264	-0.422
-613.273	-169.765	0.157	0.006
-612.259	-91.817	-0.167	0.047
-611.244	196.536	-0.101	0.154
-610.230	140.912	-0.119	0.157
-609.215	11.810	-0.121	0.093
-608.201	-135.790	-0.248	-0.029
-607.186	103.022	-0.088	-0.103
-606.171	-200.000	-0.046	0.213
-605.157	-200.000	-0.064	0.323
-604.142	173.155	-0.106	-0.152
-603.128	-200.000	0.037	0.224
-602.113	-200.000	-0.003	0.157
-601.098	138.597	-0.199	0.261
-600.084	-152.546	-0.257	-0.018
-599.069	275.981	-0.161	-0.286
-598.055	153.609	0.095	-0.130
-597.040	419.079	0.062	0.132
-596.025	800.000	0.060	0.222
-595.011	-200.000	0.001	0.312
-593.996	-200.000	-0.002	-0.423
-592.982	24.625	-0.068	-0.056
-591.967	-200.000	-0.017	0.308
-590.952	79.485	-0.140	0.150
-589.938	800.000	-0.023	-0.078
-588.923	203.507	-0.081	-0.125
-587.909	-200.000	-0.002	-0.272
-586.894	-105.749	0.178	-0.040
-585.879	800.000	0.156	-0.464
-584.865	-115.657	-0.075	-0.014
-583.850	38.600	-0.025	-0.022
-582.836	53.805	-0.174	-0.167
-581.821	56.378	-0.120	0.117
-580.806	-108.424	-0.122	0.026
-579.792	66.813	0.151	0.154
-578.777	-114.923	-0.093	-0.018
-577.763	112.037	-0.182	0.219
-576.748	276.368	0.077	-0.136
-575.733	754.559	0.077	-0.208
-574.719	-105.572	-0.268	0.061
-573.704	-1.639	0.386	-0.272
-572.690	-120.089	-0.040	-0.007
-571.675	-200.000	-0.020	-0.373
-570.661	-200.000	-0.021	-0.188
-569.646	-86.197	0.315	-0.097
-568.631	-15.294	-0.164	-0.105
-567.617	-116.103	0.244	0.045
-566.602	-200.000	-0.014	0.130
-565.588	339.115	-0.160	0.311
-564.573	443.437	0.052	-0.114
-563.558	35.110	-0.102	0.089
-562.544	14.358	0.180	0.141
-561.529	279.884	0.106	-0.188
-560.515	95.876	-0.032	-0.037
-559.500	93.464	0.239	0.270
-558.485	-17.090	-0.289	-0.182
-557.471	-200.000	0.049	0.429
-556.456	179.850	0.139	0.203
-555.442	-200.000	-0.043	0.538
-554.427	-99.992	-0.250	0.062
-553.412	-180.980	-0.227	-0.005
-552.398	364.425	0.041	-0.083
-551.383	-200.000	0.030	0.143
-550.369	296.461	-0.131	0.240
-549.354	-54.239	-0.326	-0.148
-548.339	577.928	-0.059	-0.143
-547.325	-107.517	0.073	-0.016
-546.310	-92.766	0.164	-0.046
-545.296	-88.641	-0.207	-0.061
-544.281	24.562	-0.161	-0.133
-543.266	1.268	-0.211	0.151
-542.252	800.000	-0.040	0.170
-541.237	231.492	0.130	0.212
-540.223	-160.532	-0.080	-0.004
-539.208	-86.685	-0.053	0.016
-538.193	101.040	-0.119	0.138
-537.179	-0.228	-0.060	0.043
-536.164	-72.625	0.342	0.126
-535.150	-13.189	0.123	-0.079
-534.135	-101.591	0.260	0.063
-533.121	-128.936	-0.264	0.037
-532.106	-198.619	-0.124	-0.001
-531.091	-77.670	-0.074	-0.025
-530.077	38.339	-0.083	-0.074
-529.062	20.376	-0.037	0.030
-528.048	-200.000	0.000	-0.024
-527.033	190.540	0.071	0.106
-526.018	800.000	0.059	-0.165
-525.004	-97.395	-0.249	-0.064
-523.989	-35.412	0.222	-0.120
-522.975	800.000	-0.015	0.051
-521.960	449.349	-0.101	0.223
-520.945	-102.279	0.132	-0.032
-519.931	-122.738	0.120	-0.019
-518.916	-88.700	0.257	0.076
-517.902	655.114	0.054	0.139
-516.887	-113.104	-0.361	0.071
-515.872	194.792	-0.124	-0.188
-514.858	-130.768	-0.487	0.065
-513.843	-85.917	-0.366	0.113
-512.829	195.010	-0.215	0.326
-511.814	-200.000	0.016	-0.096
-510.799	193.840	-0.108	-0.163
-509.785	-43.572	-0.239	0.120
-508.770	-94.794	0.174	-0.047
-507.756	-200.000	-0.000	0.194
-506.741	392.160	-0.092	0.191
-505.726	-200.000	-0.003	-0.181
-504.712	450.631	0.147	-0.323
-503.697	30.461	-0.061	0.052
-502.683	-119.404	-0.181	0.031
-501.668	800.000	0.100	-0.284
-500.653	-200.000	-0.014	-0.127
-499.639	316.742	0.059	-0.110
-498.624	197.047	0.168	-0.256
-497.610	26.912	0.185	-0.154
-496.595	21.747	0.206	-0.167
-495.581	-76.774	-0.187	0.065
-494.566	264.200	-0.144	-0.249
-493.551	378.243	0.118	0.239
-492.537	-124.793	0.152	0.023
-491.522	-39.084	-0.159	0.083
-490.508	50.798	0.182	-0.172
-489.493	800.000	-0.076	-0.221
-488.478	-18.340	-0.220	-0.137
-487.464	-27.516	0.207	0.120
-486.449	-200.000	0.042	-0.207
-485.435	38.165	-0.130	-0.115
-484.420	27.209	0.135	0.113
-483.405	-39.414	-0.107	0.056
-482.391	770.395	0.110	0.298
-481.376	291.827	-0.030	-0.055
-480.362	-146.373	0.254	0.022
-479.347	-113.129	-0.239	-0.047
-478.332	-31.144	-0.021	0.012
-477.318	-0.302	-0.176	0.125
-476.303	-114.824	-0.241	-0.046
-475.289	106.747	0.147	0.173
-474.274	800.000	0.043	0.142
-473.259	-81.414	-0.260	-0.085
-472.245	5.616	0.104	-0.077
-471.230	107.056	-0.135	0.159
-470.216	-200.000	0.054	-0.308
-469.201	714.021	-0.048	0.126
-468.186	-200.000	-0.013	0.089
-467.172	-148.980	-0.365	0.029
-466.157	-86.751	-0.256	-0.078
-465.143	-60.793	-0.123	0.052
-464.128	-56.642	-0.452	-0.199
-463.113	800.000	0.098	-0.280
-462.099	-200.000	0.002	-0.018
-461.084	-200.000	0.004	0.055
-460.070	572.732	0.170	0.413
-459.055	-31.531	0.189	0.106
-458.040	35.618	-0.182	0.159
-457.026	98.995	-0.231	-0.265
-456.011	440.470	0.093	-0.202
-454.997	-200.000	0.024	-0.152
-453.982	54.228	0.141	-0.135
-452.968	-30.939	0.345	-0.194
-451.953	-86.721	-0.250	0.076
-450.938	-47.622	-0.309	0.149
-449.924	-200.000	-0.005	-0.127
-448.909	27.182	-0.225	-0.188
-447.895	263.352	-0.088	-0.153
-446.880	300.469	-0.030	0.056
-445.865	670.544	-0.029	-0.074
-444.851	582.066	-0.075	-0.182
-443.836	-91.071	-0.292	-0.083
-442.822	-200.000	-0.054	0.284
-441.807	-93.336	0.131	0.036
-440.792	-168.258	0.138	-0.005
-439.778	625.099	-0.106	0.267
-438.763	113.093	-0.029	0.035
-437.749	53.310	-0.233	0.222
-436.734	-200.000	0.022	0.412
-435.719	-4.411	0.208	0.143
-434.705	-200.000	-0.050	-0.264
-433.690	-200.000	0.207	-0.000
-432.676	-99.540	0.205	-0.051
-431.661	-30.649	-0.098	0.055
-430.646	-200.000	-0.059	-0.368
-429.632	163.464	-0.037	0.052
-428.617	183.467	0.087	-0.128
-427.603	15.559	0.081	0.063
-426.588	800.000	-0.046	0.194
-425.573	-4.401	0.087	-0.060
-424.559	19.442	-0.046	0.037
-423.544	49.144	0.242	-0.225
-422.530	-200.000	-0.001	-0.164
-421.515	316.478	0.036	-0.068
-420.500	-200.000	-0.014	0.195
-419.486	-200.000	0.052	0.424
-418.471	800.000	-0.075	0.227
-417.457	-133.491	0.280	-0.035
-416.442	424.040	-0.123	0.262
-415.428	66.705	0.085	-0.086
-414.413	-78.349	0.363	0.124
-413.398	-200.000	0.050	-0.305
-412.384	800.000	0.081	0.331
-411.369	-200.000	-0.100	0.502
-410.355	-53.190	0.187	0.085
-409.340	-200.000	0.032	-0.210
-408.325	-115.353	-0.020	-0.004
-407.311	800.000	0.097	-0.340
-406.296	-31.622	0.202	0.113
-405.282	384.314	0.047	0.097
-404.267	272.016	0.085	-0.148
-403.252	800.000	0.035	0.130
-402.238	-200.000	0.047	0.231
-401.223	312.895	0.122	0.227
-400.209	800.000	0.060	0.205
-399.194	-200.000	0.027	0.205
-398.179	502.838	0.023	0.052
-397.165	-118.129	-0.283	0.050
-396.150	0.218	0.339	-0.240
-395.136	-157.843	0.388	-0.023
-394.121	-138.640	-0.065	-0.007
-393.106	-133.546	0.471	0.058
-392.092	-93.425	0.194	-0.053
-391.077	19.580	0.302	0.241
-390.063	-144.925	-0.179	0.016
-389.048	-200.000	0.003	-0.168
-388.033	81.839	-0.263	-0.283
-387.019	79.388	0.099	0.105
-386.004	792.588	0.091	0.249
-384.990	236.967	0.132	0.217
-383.975	93.683	0.221	-0.248
-382.960	684.878	-0.071	0.183
-381.946	54.558	0.121	0.116
-380.931	65.020	-0.398	-0.398
-379.917	-189.021	0.439	0.005
-378.902	-200.000	0.003	-0.188
-377.888	-70.039	0.196	-0.074
-376.873	-2.044	-0.425	0.296
-375.858	79.486	0.085	-0.090
-374.844	800.000	-0.044	-0.146
-373.829	104.346	0.110	-0.128
-372.815	-200.000	0.033	0.367
-371.800	-149.633	0.321	0.025
-370.785	-200.000	0.074	-0.407
-369.771	-200.000	-0.030	0.142
-368.756	-83.302	0.034	0.011
-367.742	320.424	-0.084	0.158
-366.727	-146.005	0.149	0.013
-365.712	-56.855	0.204	-0.089
-364.698	20.042	-0.111	-0.088
-363.683	-167.458	0.147	0.006
-362.669	-106.892	-0.265	0.058
-361.654	-90.726	0.122	0.035
-360.639	-114.672	0.224	-0.042
-359.625	-200.000	0.037	0.209
-358.610	-19.324	0.274	-0.168
-357.596	13.398	0.140	-0.107
-356.581	-104.786	0.113	-0.026
-355.566	-200.000	0.019	0.164
-354.552	0.006	0.072	-0.051
-353.537	520.100	-0.029	0.068
-352.523	-75.531	-0.225	0.079
-351.508	-124.995	0.070	-0.011
-350.493	800.000	0.066	-0.211
-349.479	-138.618	-0.087	-0.009
-348.464	-200.000	-0.041	0.258
-347.450	-200.000	-0.049	-0.309
-346.435	-16.880	-0.250	0.156
-345.420	-200.000	-0.007	-0.032
-344.406	100.602	-0.044	-0.050
-343.391	-9.212	-0.219	-0.145
-342.377	117.979	0.066	0.081
-341.362	380.414	-0.035	0.071
-340.348	93.415	-0.041	0.046
-339.333	-145.435	-0.079	0.007
-338.318	-83.527	0.422	-0.134
-337.304	17.858	-0.074	0.058
-336.289	-12.692	-0.099	-0.064
-335.275	-4.122	-0.161	-0.110
-334.260	800.000	-0.103	0.408
-333.245	247.503	-0.098	0.164
-332.231	-79.150	0.224	-0.075
-331.216	-200.000	-0.035	0.177
-330.202	-152.845	0.105	-0.007
-329.187	-124.528	-0.192	0.030
-328.172	-200.000	-0.343	-0.001
-327.158	-13.127	0.179	0.115
-326.143	-15.107	0.093	0.059
-325.129	-71.028	-0.188	-0.070
-324.114	-20.141	0.054	-0.033
-323.099	-103.241	-0.447	0.104
-322.085	-67.238	0.292	-0.114
-321.070	-200.000	0.075	0.328
-320.056	39.467	0.142	0.125
-319.041	-129.457	0.249	-0.034
-318.026	-163.169	-0.097	0.005
-317.012	-21.740	-0.112	-0.067
-315.997	800.000	0.058	0.201
-314.983	125.913	-0.196	0.245
-313.968	356.156	-0.047	-0.092
-312.953	28.083	-0.150	-0.125
-311.939	253.617	0.104	-0.175
-310.924	95.931	-0.131	0.148
-309.910	-113.187	-0.084	-0.016
-308.895	-200.000	0.001	-0.408
-307.880	-94.839	-0.191	-0.051
-306.866	-112.875	0.301	0.059
-305.851	-200.000	-0.052	0.464
-304.837	-200.000	0.008	0.256
-303.822	-200.000	-0.002	-0.119
-302.807	47.026	-0.204	-0.188
-301.793	800.000	0.088	-0.276
-300.778	520.098	-0.077	-0.179
-299.764	33.772	-0.099	0.085
-298.749	-73.877	-0.259	0.093
-297.735	-97.850	0.203	0.052
-296.720	689.417	0.156	-0.403
-295.705	800.000	-0.029	-0.116
-294.691	-200.000	0.018	-0.167
-293.676	800.000	0.017	0.055
-292.662	-200.000	0.029	0.309
-291.647	800.000	0.174	-0.540
-290.632	-200.000	-0.059	-0.350
-289.618	483.350	0.138	0.310
-288.603	96.881	-0.162	0.184
-287.589	29.746	0.235	0.197
-286.574	-62.534	0.486	-0.199
-285.559	800.000	0.036	0.151
-284.545	112.277	-0.159	0.190
-283.530	561.373	0.103	-0.246
-282.516	800.000	-0.055	0.164
-281.501	-67.772	-0.036	-0.014
-280.486	-200.000	0.000	0.233
-279.472	-13.254	-0.087	-0.056
-278.457	800.000	-0.055	-0.161
-277.443	-82.756	-0.158	0.050
-276.428	800.000	-0.066	0.276
-275.413	-74.555	-0.411	0.146
-274.399	-200.000	-0.001	-0.346
-273.384	-62.808	0.139	-0.057
-272.370	243.384	-0.122	-0.202
-271.355	3.935	-0.167	0.121
-270.340	8.435	0.335	0.248
-269.326	-200.000	-0.001	0.380
-268.311	-119.413	-0.291	-0.050
-267.297	-98.274	0.287	-0.073
-266.282	342.970	-0.187	-0.361
-265.267	242.556	0.316	-0.522
-264.253	135.290	-0.155	-0.199
-263.238	-79.834	-0.038	0.012
-262.224	100.836	-0.041	0.046
-261.209	8.133	-0.116	-0.086
-260.195	-200.000	-0.004	0.066
-259.180	-42.104	-0.172	0.087
-258.165	83.054	0.064	0.069
-257.151	-200.000	0.074	0.513
-256.136	800.000	-0.080	-0.230
-255.122	-200.000	-0.005	-0.073
-254.107	-83.305	0.067	-0.021
-253.092	182.375	0.120	-0.175
-252.078	-117.049	0.175	-0.031
-251.063	-182.837	-0.278	0.005
-250.049	-17.446	0.129	-0.080
-249.034	-122.469	-0.148	-0.024
-248.019	63.674	0.217	0.215
-247.005	349.100	-0.156	-0.304
-245.990	34.552	0.387	0.333
-244.976	65.782	0.150	0.150
-243.961	-41.850	0.333	-0.168
-242.946	800.000	-0.072	-0.300
-241.932	743.265	-0.070	-0.184
-240.917	-24.242	0.170	0.100
-239.903	114.797	0.157	0.189
-238.888	-39.592	-0.300	0.155
-237.873	-52.836	0.395	-0.179
-236.859	-79.760	-0.204	0.068
-235.844	68.308	-0.147	-0.148
-234.830	800.000	0.059	-0.161
-233.815	-105.501	0.258	0.058
-232.800	47.811	0.286	-0.263
-231.786	379.008	-0.111	0.224
-230.771	-42.640	0.210	0.105
-229.757	-200.000	0.009	0.095
-228.742	215.779	-0.125	-0.196
-227.727	-118.226	-0.154	0.027
-226.713	-200.000	0.022	0.190
-225.698	-133.515	-0.098	0.012
-224.684	-55.395	-0.190	0.084
-223.669	-33.700	-0.163	-0.089
-222.655	173.324	0.222	0.316
-221.640	790.363	-0.167	0.452
-220.625	399.326	-0.195	-0.402
-219.611	15.071	0.245	-0.189
-218.596	-43.898	0.220	0.109
-217.582	-138.695	0.303	0.033
-216.567	147.173	0.254	-0.336
-215.552	-91.910	-0.216	-0.060
-214.538	-75.491	-0.206	-0.072
-213.523	56.789	0.134	-0.128
-212.509	800.000	-0.143	-0.421
-211.494	273.275	-0.035	-0.060
-210.479	-41.950	0.090	0.046
-209.465	-73.983	0.344	-0.123
-208.450	800.000	0.053	-0.210
-207.436	-200.000	0.005	-0.124
-206.421	800.000	0.063	0.222
-205.406	407.272	-0.083	0.173
-204.392	-74.683	0.215	0.076
-203.377	-37.581	-0.082	0.043
-202.363	307.986	0.080	-0.147
-201.348	122.440	-0.210	0.258
-200.333	-40.817	-0.186	0.095
-199.319	182.346	0.102	-0.148
-198.304	87.459	0.355	0.387
-197.290	-105.871	0.234	-0.052
-196.275	-15.058	-0.082	0.052
-195.260	-144.578	-0.345	0.031
-194.246	130.790	-0.274	0.346
-193.231	-200.000	-0.027	0.129
-192.217	-40.833	0.131	0.067
-191.202	800.000	0.032	-0.131
-190.187	-200.000	0.003	-0.064
-189.173	-136.717	-0.206	0.023
-188.158	-47.472	0.172	0.082
-187.144	65.045	0.361	0.359
-186.129	-200.000	0.063	-0.303
-185.114	439.403	-0.034	-0.074
-184.100	114.031	0.147	0.175
-183.085	156.585	-0.087	-0.118
-182.071	-200.000	-0.026	-0.315
-181.056	2.536	-0.180	-0.128
-180.042	-29.784	-0.276	0.155
-179.027	-58.197	0.407	0.174
-178.012	701.848	-0.043	-0.112
-176.998	800.000	-0.085	0.275
-175.983	-125.659	-0.088	-0.013
-174.969	43.092	-0.058	-0.052
-173.954	800.000	-0.103	-0.323
-172.939	-200.000	0.025	0.119
-171.925	106.444	0.302	0.352
-170.910	110.962	0.183	-0.216
-169.896	482.386	-0.067	0.150
-168.881	277.903	0.072	-0.126
-167.866	374.594	0.116	-0.233
-166.852	301.805	0.095	-0.172
-165.837	800.000	-0.062	0.174
-164.823	-136.380	0.364	-0.042
-163.808	-17.408	0.106	-0.066
-162.793	-108.999	-0.160	0.034
-161.779	-70.447	-0.228	0.085
-160.764	-186.543	0.046	0.001
-159.750	246.911	0.095	-0.158
-158.735	530.330	-0.163	-0.378
-157.720	218.519	0.056	0.088
-156.706	-73.541	0.228	-0.082
-155.691	0.312	-0.133	-0.093
-154.677	-42.998	0.244	-0.121
-153.662	43.218	-0.195	0.175
-152.647	490.421	-0.065	-0.146
-151.633	-129.427	-0.091	0.012
-150.618	52.988	0.354	0.332
-149.604	37.388	0.240	0.209
-148.589	90.030	0.280	-0.307
-147.574	-58.378	-0.131	-0.056
-146.560	-200.000	-0.051	0.279
-145.545	800.000	0.016	0.053
-144.531	-200.000	0.062	0.435
-143.516	-200.000	0.003	-0.114
-142.502	481.153	-0.200	0.446
-141.487	-124.976	0.412	0.062
-140.472	667.894	-0.083	0.211
-139.458	217.333	0.161	-0.252
-138.443	-115.871	-0.189	-0.035
-137.429	-200.000	0.001	0.221
-136.414	-147.818	0.098	0.008
-135.399	17.835	0.133	-0.104
-134.385	59.245	-0.159	0.154
-133.370	-119.770	-0.112	0.019
-132.356	-94.757	-0.240	0.064
-131.341	-176.475	0.104	-0.003
-130.326	-10.014	-0.032	-0.021
-129.312	-159.329	0.285	-0.016
-128.297	-152.322	-0.193	0.014
-127.283	800.000	-0.172	-0.511
-126.268	-77.378	0.125	0.043
-125.253	80.053	0.224	0.236
-124.239	366.295	0.092	0.182
-123.224	-58.679	-0.415	-0.177
-122.210	-192.676	0.268	0.002
