DTS Sentinel unit serial number:	SN413079Multiplexer serial number:	ORYXHardware model number:	OX4-SRSoftware version number:	ORYX F/W v4.00 Oryx Data Collector v3.7.2.0data status	okinstallation	princeton_trtdifferential loss correction	single-endedforward channel	channel 4reverse channel	N/Adate	2019/09/13time	10:57:35forward acquisition time	60.00reverse acquisition time	0.00gamma	496.2192k internal	0.2305k external	0.2305temperature offset calibration	1.0192default loss term (dB/km)	0.3790temperature slope calibration	1.0000multiplexer offset coefficient	1.0000multiplexer slope coefficient	1.0000fibre end	0.00T internal ref (°C)	31.81T ext. ref 1 (°C)	4.62T ext. ref 2 (°C)	28.33length (m)	temperature (°C)	Stokes	anti-Stokes-747.200	4.572	-0.221	0.165
-746.185	559.470	-0.146	0.358
-745.171	-6.770	0.363	0.251
-744.156	800.000	-0.094	0.359
-743.142	-200.000	-0.026	0.169
-742.127	-0.490	0.139	-0.100
-741.112	-200.000	0.098	-0.455
-740.098	-68.466	0.258	0.102
-739.083	-66.973	-0.238	-0.096
-738.069	-200.000	-0.050	0.440
-737.054	-3.593	0.148	-0.105
-736.039	182.748	-0.103	0.154
-735.025	19.242	0.240	-0.196
-734.010	25.372	0.230	-0.194
-732.996	-39.595	-0.275	-0.146
-731.981	15.870	0.113	0.090
-730.966	61.914	-0.160	0.162
-729.952	-142.352	0.056	-0.006
-728.937	666.648	-0.175	-0.460
-727.923	800.000	-0.060	-0.252
-726.908	-200.000	-0.056	-0.452
-725.894	471.057	-0.116	-0.265
-724.879	800.000	-0.098	-0.299
-723.864	-68.516	-0.259	0.102
-722.850	322.275	-0.087	-0.168
-721.835	71.880	-0.107	0.113
-720.821	-18.747	0.121	-0.076
-719.806	-200.000	-0.007	0.065
-718.791	158.824	-0.073	-0.103
-717.777	-60.556	-0.228	-0.098
-716.762	-111.726	-0.174	-0.036
-715.748	36.842	-0.031	-0.028
-714.733	-42.404	0.249	0.129
-713.718	260.346	0.085	-0.149
-712.704	800.000	-0.071	0.293
-711.689	235.300	-0.110	-0.185
-710.675	800.000	-0.072	0.285
-709.660	-200.000	0.066	-0.333
-708.645	-200.000	-0.023	-0.132
-707.631	21.117	-0.200	0.165
-706.616	-17.212	-0.110	0.070
-705.602	-90.272	-0.277	-0.082
-704.587	338.538	-0.082	0.162
-703.572	418.298	-0.023	0.051
-702.558	403.707	0.210	-0.450
-701.543	-66.340	0.115	0.046
-700.529	13.583	0.140	0.111
-699.514	800.000	0.034	0.116
-698.499	800.000	0.055	0.198
-697.485	494.343	-0.111	0.258
-696.470	-200.000	0.030	0.229
-695.456	395.648	0.103	-0.219
-694.441	756.396	0.281	-0.773
-693.426	-112.856	-0.234	-0.047
-692.412	-63.438	-0.298	0.124
-691.397	259.571	-0.039	0.068
-690.383	-51.474	0.191	-0.091
-689.368	-49.659	-0.153	-0.074
-688.354	-104.210	-0.280	0.066
-687.339	50.889	-0.230	-0.222
-686.324	-82.628	0.175	-0.057
-685.310	286.573	0.026	-0.048
-684.295	-200.000	0.009	0.088
-683.281	-121.787	-0.377	-0.063
-682.266	115.116	-0.020	-0.025
-681.251	434.729	-0.074	-0.164
-680.237	-57.982	0.070	-0.031
-679.222	46.896	-0.244	-0.231
-678.208	-113.898	-0.190	-0.038
-677.193	-114.401	-0.504	0.098
-676.178	-157.807	0.139	-0.008
-675.164	-0.585	-0.131	-0.094
-674.149	252.618	-0.203	-0.351
-673.135	688.921	-0.135	-0.359
-672.120	800.000	0.053	0.230
-671.105	-8.676	-0.234	-0.160
-670.091	-126.260	-0.301	0.046
-669.076	61.395	0.364	-0.368
-668.062	-99.237	0.383	0.098
-667.047	-148.598	0.265	0.022
-666.032	93.724	-0.093	-0.107
-665.018	-200.000	-0.013	0.081
-664.003	800.000	-0.077	-0.269
-662.989	-200.000	0.010	0.138
-661.974	615.768	-0.112	-0.284
-660.959	619.817	-0.092	-0.236
-659.945	-45.629	-0.200	0.100
-658.930	-65.148	-0.240	0.098
-657.916	5.498	0.289	-0.216
-656.901	-58.582	0.344	0.152
-655.886	128.142	-0.094	0.121
-654.872	87.830	0.090	0.101
-653.857	191.478	-0.062	0.095
-652.843	152.553	-0.163	0.226
-651.828	800.000	-0.100	-0.282
-650.814	575.322	0.038	-0.095
-649.799	101.892	-0.133	0.157
-648.784	87.398	-0.195	0.219
-647.770	186.109	-0.043	-0.065
-646.755	-164.702	0.253	0.012
-645.741	255.127	-0.220	0.382
-644.726	13.106	-0.298	-0.234
-643.711	-143.243	0.205	0.020
-642.697	-104.936	-0.324	-0.075
-641.682	380.665	-0.034	-0.070
-640.668	-72.314	-0.200	-0.075
-639.653	-200.000	0.048	-0.292
-638.638	800.000	-0.056	0.197
-637.624	35.749	-0.207	0.184
-636.609	284.318	0.016	0.029
-635.595	562.872	-0.069	-0.169
-634.580	186.368	0.029	0.044
-633.565	800.000	0.056	0.208
-632.551	695.115	-0.096	0.255
-631.536	-136.841	0.250	-0.029
-630.522	192.942	0.149	-0.228
-629.507	-26.527	0.142	0.084
-628.492	-200.000	-0.030	0.272
-627.478	-31.680	0.308	0.175
-626.463	-29.404	-0.285	-0.165
-625.449	-200.000	-0.007	-0.243
-624.434	60.241	0.088	-0.088
-623.419	-43.947	-0.174	-0.089
-622.405	-153.770	-0.354	-0.025
-621.390	-200.000	-0.077	0.530
-620.376	278.158	-0.112	0.202
-619.361	410.179	-0.162	0.349
-618.346	-190.702	-0.084	0.001
-617.332	-137.452	-0.180	-0.021
-616.317	-23.075	0.203	-0.124
-615.303	-67.388	0.068	0.027
-614.288	800.000	-0.121	0.382
-613.273	-5.363	-0.124	-0.087
-612.259	357.195	-0.024	-0.048
-611.244	2.859	-0.182	-0.134
-610.230	-200.000	0.004	-0.181
-609.215	-96.710	0.284	0.076
-608.201	800.000	-0.152	-0.428
-607.186	800.000	-0.119	0.355
-606.171	-78.303	-0.276	-0.096
-605.157	-91.765	-0.254	-0.073
-604.142	16.500	-0.271	-0.216
-603.128	-30.603	-0.205	-0.118
-602.113	169.663	-0.128	0.186
-601.098	-39.079	-0.133	-0.071
-600.084	23.252	0.130	-0.108
-599.069	184.705	-0.137	-0.206
-598.055	-200.000	-0.025	-0.254
-597.040	39.904	0.192	-0.174
-596.025	-200.000	0.010	0.133
-595.011	365.402	-0.043	-0.087
-593.996	-1.177	0.218	0.156
-592.982	-54.634	-0.164	0.075
-591.967	-72.672	0.166	0.062
-590.952	-65.236	-0.170	-0.069
-589.938	-167.907	-0.280	-0.011
-588.923	-182.340	-0.137	-0.003
-587.909	17.031	-0.034	0.027
-586.894	-39.121	-0.268	0.143
-585.879	-33.460	-0.239	0.134
-584.865	-133.174	-0.214	0.027
-583.850	5.725	-0.067	0.050
-582.836	-127.302	-0.110	0.016
-581.821	-17.611	0.311	-0.198
-580.806	-161.012	-0.160	-0.009
-579.792	-200.000	0.022	-0.231
-578.777	-141.128	0.146	-0.015
-577.763	481.835	-0.177	-0.405
-576.748	-200.000	0.020	-0.092
-575.733	-154.223	-0.044	0.003
-574.719	-137.894	0.338	-0.038
-573.704	-2.906	0.169	0.120
-572.690	165.845	0.058	0.082
-571.675	-200.000	-0.007	0.105
-570.661	-113.069	0.104	-0.021
-569.646	-122.041	-0.554	0.092
-568.631	-200.000	-0.014	0.279
-567.617	-200.000	-0.006	0.127
-566.602	364.960	0.058	0.119
-565.588	-137.011	0.281	0.032
-564.573	-138.838	0.159	-0.018
-563.558	800.000	-0.062	-0.217
-562.544	-200.000	-0.034	0.168
-561.529	-200.000	0.026	-0.307
-560.515	-200.000	-0.014	-0.224
-559.500	-200.000	-0.007	0.130
-558.485	800.000	0.012	0.038
-557.471	633.231	0.129	0.330
-556.456	-200.000	-0.038	0.264
-555.442	-27.254	0.094	-0.055
-554.427	800.000	-0.086	-0.259
-553.412	-160.317	-0.185	-0.010
-552.398	-68.441	-0.177	-0.069
-551.383	-85.355	0.147	-0.046
-550.369	-101.787	-0.406	-0.099
-549.354	-18.775	0.132	0.083
-548.339	-76.745	-0.514	0.182
-547.325	122.862	0.071	0.090
-546.310	567.892	0.007	0.018
-545.296	-200.000	0.001	-0.339
-544.281	-89.234	-0.163	-0.049
-543.266	61.118	-0.193	0.193
-542.252	438.336	0.040	-0.088
-541.237	507.377	-0.050	-0.118
-540.223	-200.000	0.020	0.159
-539.208	22.444	0.262	-0.216
-538.193	800.000	-0.070	0.244
-537.179	-200.000	-0.043	0.455
-536.164	251.317	-0.166	0.286
-535.150	-132.644	0.356	0.046
-534.135	-0.503	0.081	0.058
-533.121	800.000	0.082	0.265
-532.106	273.000	0.239	-0.426
-531.091	-66.683	-0.082	0.033
-530.077	-160.903	0.143	-0.008
-529.062	-89.413	0.075	-0.022
-528.048	-200.000	-0.063	-0.376
-527.033	800.000	-0.084	0.303
-526.018	-138.455	-0.110	-0.012
-525.004	-142.758	0.271	-0.027
-523.989	137.144	0.144	0.190
-522.975	244.457	-0.196	-0.332
-521.960	-200.000	0.006	-0.118
-520.945	-98.279	-0.113	-0.029
-519.931	-138.817	-0.424	0.047
-518.916	800.000	0.037	-0.152
-517.902	-200.000	-0.002	-0.113
-516.887	167.103	-0.187	0.268
-515.872	73.269	-0.053	-0.056
-514.858	-92.644	-0.327	0.093
-513.843	800.000	0.051	0.223
-512.829	-134.934	0.048	0.006
-511.814	-12.072	0.229	0.151
-510.799	364.917	-0.055	0.111
-509.785	358.620	0.057	-0.114
-508.770	-101.271	0.295	-0.073
-507.756	800.000	-0.107	-0.345
-506.741	-200.000	0.041	0.217
-505.726	-132.904	0.145	-0.019
-504.712	64.384	-0.173	-0.176
-503.697	800.000	0.041	0.167
-502.683	143.532	0.129	-0.173
-501.668	800.000	0.058	-0.246
-500.653	-75.591	-0.338	-0.121
-499.639	-58.286	-0.160	-0.070
-498.624	800.000	0.043	0.133
-497.610	-84.465	-0.207	-0.066
-496.595	28.450	0.124	0.106
-495.581	-9.695	0.163	-0.110
-494.566	23.603	-0.219	0.182
-493.551	-139.333	0.399	0.043
-492.537	-200.000	-0.104	-0.473
-491.522	-75.129	-0.121	0.044
-490.508	48.199	-0.149	-0.141
-489.493	-38.541	-0.110	0.059
-488.478	472.573	0.103	0.234
-487.464	-18.751	0.489	-0.307
-486.449	554.095	0.080	-0.194
-485.435	800.000	0.106	0.342
-484.420	39.666	-0.070	-0.063
-483.405	800.000	0.063	0.217
-482.391	423.536	-0.055	0.119
-481.376	-58.606	0.195	0.085
-480.362	342.817	-0.037	-0.073
-479.347	-17.244	0.239	-0.152
-478.332	-200.000	-0.038	0.203
-477.318	-200.000	0.010	-0.446
-476.303	301.080	0.077	0.144
-475.289	20.273	0.094	-0.076
-474.274	533.889	-0.138	-0.329
-473.259	-4.139	0.131	0.091
-472.245	-63.870	-0.119	-0.049
-471.230	-86.264	-0.443	0.138
-470.216	10.583	-0.133	-0.102
-469.201	-27.325	0.326	-0.191
-468.186	-32.009	-0.143	0.081
-467.172	-200.000	-0.018	-0.151
-466.157	-77.539	-0.241	0.084
-465.143	-39.614	0.089	-0.047
-464.128	25.830	-0.114	-0.095
-463.113	-52.302	0.181	0.085
-462.099	800.000	-0.067	-0.232
-461.084	162.712	0.242	-0.342
-460.070	-200.000	-0.018	-0.172
-459.055	207.305	-0.064	-0.101
-458.040	418.941	0.048	-0.103
-457.026	-110.826	0.130	-0.027
-456.011	-200.000	-0.003	-0.323
-454.997	22.957	-0.136	0.112
-453.982	184.236	0.089	0.133
-452.968	26.572	0.212	0.179
-451.953	-200.000	0.023	-0.231
-450.938	239.051	-0.049	-0.083
-449.924	-200.000	0.038	-0.419
-448.909	-75.419	0.308	0.110
-447.895	-200.000	-0.024	-0.259
-446.880	-200.000	-0.027	0.126
-445.865	18.463	0.212	-0.170
-444.851	167.619	-0.132	-0.188
-443.836	12.582	-0.256	-0.198
-442.822	58.105	0.143	-0.141
-441.807	-140.945	-0.195	-0.020
-440.792	41.293	-0.103	0.094
-439.778	-158.676	-0.144	0.008
-438.763	169.280	-0.154	-0.221
-437.749	438.932	0.035	0.076
-436.734	-28.122	0.090	-0.053
-435.719	100.572	0.223	-0.261
-434.705	-138.620	0.235	0.026
-433.690	596.400	0.110	-0.274
-432.676	-81.756	-0.331	-0.109
-431.661	-140.803	0.516	0.054
-430.646	-200.000	-0.006	0.345
-429.632	128.934	-0.319	0.409
-428.617	156.173	-0.112	-0.156
-427.603	40.974	-0.208	0.188
-426.588	-133.810	-0.022	0.003
-425.573	-52.900	0.155	0.072
-424.559	280.645	0.136	-0.245
-423.544	20.778	0.194	0.158
-422.530	-52.669	0.067	-0.031
-421.515	800.000	0.031	0.131
-420.500	-183.556	-0.312	-0.005
-419.486	280.131	-0.076	0.137
-418.471	10.795	0.239	-0.184
-417.457	-47.468	0.083	-0.041
-416.442	-122.351	0.216	0.035
-415.428	-92.916	0.102	0.028
-414.413	-55.433	0.291	0.131
-413.398	-200.000	-0.013	-0.060
-412.384	182.858	0.060	0.089
-411.369	-125.276	-0.268	-0.041
-410.355	-84.517	0.142	0.045
-409.340	800.000	0.037	0.104
-408.325	-150.140	0.366	0.029
-407.311	-15.796	-0.142	0.091
-406.296	-10.748	-0.044	-0.029
-405.282	-161.594	0.204	-0.011
-404.267	483.887	0.149	-0.341
-403.252	743.351	0.072	0.194
-402.238	-200.000	0.001	0.067
-401.223	239.339	-0.124	0.208
-400.209	531.943	0.062	0.147
-399.194	800.000	0.004	0.013
-398.179	139.848	-0.305	-0.403
-397.165	800.000	0.036	0.116
-396.150	-186.375	0.099	0.001
-395.136	-54.170	0.258	-0.118
-394.121	-9.674	0.092	-0.061
-393.106	-48.583	0.387	-0.187
-392.092	-200.000	-0.006	-0.072
-391.077	-38.237	-0.138	0.074
-390.063	800.000	-0.051	0.210
-389.048	-33.282	0.290	-0.161
-388.033	-67.439	0.080	0.032
-387.019	712.793	0.041	-0.109
-386.004	-40.521	0.165	0.086
-384.990	-7.935	-0.117	-0.079
-383.975	-91.316	0.182	-0.052
-382.960	-200.000	0.004	-0.357
-381.946	291.108	-0.038	0.069
-380.931	-44.941	-0.099	0.049
-379.917	136.714	0.153	-0.200
-378.902	63.890	-0.163	-0.164
-377.888	28.792	-0.128	-0.109
-376.873	151.020	-0.062	-0.084
-375.858	-5.765	-0.381	-0.262
-374.844	138.209	0.179	0.235
-373.829	11.623	0.136	0.105
-372.815	-200.000	-0.030	-0.222
-371.800	311.269	0.052	0.098
-370.785	-200.000	-0.011	-0.098
-369.771	63.909	-0.101	-0.102
-368.756	800.000	0.094	0.264
-367.742	116.751	0.246	-0.303
-366.727	118.818	0.236	0.293
-365.712	-154.318	0.403	-0.027
-364.698	63.781	0.029	0.029
-363.683	185.083	-0.162	-0.241
-362.669	-72.881	-0.207	-0.076
-361.654	659.213	0.050	-0.128
-360.639	474.773	-0.049	-0.110
-359.625	-49.656	0.338	-0.161
-358.610	-200.000	-0.011	0.135
-357.596	13.406	0.082	0.064
-356.581	198.591	-0.096	-0.148
-355.566	65.891	-0.051	-0.052
-354.552	-17.374	0.103	0.065
-353.537	-105.657	-0.357	0.081
-352.523	164.291	0.266	0.375
-351.508	164.644	0.233	0.329
-350.493	-114.399	0.100	-0.019
-349.479	75.681	0.050	-0.053
-348.464	-91.759	-0.273	-0.078
-347.450	-145.140	-0.090	-0.008
-346.435	225.108	-0.026	0.042
-345.420	3.755	0.125	0.091
-344.406	-97.619	-0.303	-0.079
-343.391	-200.000	-0.002	-0.056
-342.377	-77.947	-0.307	0.106
-341.362	45.114	0.433	0.400
-340.348	597.993	-0.076	0.190
-339.333	-116.913	0.171	-0.031
-338.318	-116.869	0.170	-0.031
-337.304	30.658	-0.051	0.044
-336.289	-199.085	0.085	0.000
-335.275	295.861	-0.214	-0.393
-334.260	-17.484	-0.111	-0.070
-333.245	32.633	0.116	-0.101
-332.231	324.586	0.234	-0.447
-331.216	287.721	-0.075	0.137
-330.202	169.475	-0.303	0.434
-329.187	-80.924	0.330	0.110
-328.172	-32.520	0.304	-0.170
-327.158	36.432	0.091	0.081
-326.143	41.715	-0.156	-0.142
-325.129	-200.000	-0.003	0.045
-324.114	-200.000	-0.050	0.290
-323.099	-26.522	0.198	0.116
-322.085	36.865	-0.068	0.060
-321.070	-127.692	-0.158	-0.023
-320.056	388.442	0.020	-0.041
-319.041	-38.273	0.301	-0.160
-318.026	-200.000	-0.047	0.359
-317.012	131.018	0.232	0.298
-315.997	65.571	-0.281	0.285
-314.983	491.847	-0.072	-0.166
-313.968	247.147	-0.055	-0.093
-312.953	212.146	-0.213	0.335
-311.939	38.298	0.079	-0.070
-310.924	-45.560	-0.366	-0.181
-309.910	26.857	0.259	-0.217
-308.895	-181.235	0.429	-0.009
-307.880	800.000	0.038	0.107
-306.866	-35.649	-0.162	0.088
-305.851	174.376	-0.127	-0.184
-304.837	25.638	-0.064	-0.053
-303.822	-150.590	0.287	0.022
-302.807	-200.000	-0.031	0.282
-301.793	168.523	0.017	0.024
-300.778	-200.000	-0.008	0.202
-299.764	455.336	0.083	-0.183
-298.749	305.694	0.033	-0.062
-297.735	-50.485	-0.228	0.108
-296.720	-29.580	-0.107	-0.061
-295.705	800.000	0.101	0.328
-294.691	-135.182	-0.118	0.014
-293.676	800.000	0.063	-0.208
-292.662	-200.000	0.026	-0.189
-291.647	-200.000	0.058	0.455
-290.632	-128.604	0.158	0.022
-289.618	106.034	0.138	0.164
-288.603	84.414	-0.107	0.118
-287.589	-200.000	0.039	0.231
-286.574	500.773	-0.075	-0.174
-285.559	-200.000	-0.083	-0.382
-284.545	86.417	0.202	0.223
-283.530	-200.000	-0.016	-0.116
-282.516	-125.602	0.272	-0.041
-281.501	152.796	0.069	0.094
-280.486	118.049	0.210	0.259
-279.472	-133.609	0.194	-0.024
-278.457	77.365	-0.154	-0.164
-277.443	724.192	-0.035	0.094
-276.428	421.100	0.034	0.073
-275.413	236.890	-0.046	0.076
-274.399	-64.496	0.218	-0.089
-273.384	-153.418	0.190	0.013
-272.370	292.098	-0.244	0.444
-271.355	672.974	0.062	0.160
-270.340	-34.647	0.080	-0.044
-269.326	-118.158	-0.136	0.024
-268.311	-200.000	-0.026	0.131
-267.297	208.206	0.138	0.215
-266.282	-103.121	0.331	0.078
-265.267	321.057	0.115	0.218
-264.253	-5.614	0.139	-0.095
-263.238	461.331	0.089	0.197
-262.224	-200.000	-0.288	0.001
-261.209	-100.886	0.367	-0.090
-260.195	-181.780	-0.661	-0.013
-259.180	-35.941	0.025	0.014
-258.165	191.419	0.071	-0.107
-257.151	22.674	-0.234	0.192
-256.136	461.609	-0.148	0.329
-255.122	-200.000	-0.012	0.119
-254.107	-6.962	0.255	0.173
-253.092	-81.897	0.315	-0.103
-252.078	161.837	-0.177	-0.248
-251.063	19.263	0.125	0.100
-250.049	-200.000	0.056	0.391
-249.034	227.944	0.115	0.187
-248.019	-117.538	-0.168	0.030
-247.005	47.820	0.268	-0.250
-245.990	800.000	-0.028	0.117
-244.976	345.068	0.165	-0.324
-243.961	-84.806	-0.230	0.072
-242.946	-31.483	0.284	-0.159
-241.932	215.214	-0.126	-0.200
-240.917	800.000	-0.129	-0.407
-239.903	-86.935	-0.240	-0.073
-238.888	46.405	0.173	-0.160
-237.873	-17.750	-0.242	0.152
-236.859	371.838	-0.088	0.178
-235.844	307.195	0.021	-0.040
-234.830	-120.327	0.489	-0.083
-233.815	-42.293	0.112	-0.057
-232.800	-57.596	0.130	-0.057
-231.786	410.915	-0.097	0.205
-230.771	-29.709	-0.054	-0.031
-229.757	169.152	0.105	-0.150
-228.742	603.265	0.065	-0.163
-227.727	-130.281	0.032	0.004
-226.713	668.625	0.058	0.149
-225.698	390.472	0.051	0.106
-224.684	582.329	0.040	0.099
-223.669	172.484	0.158	0.227
-222.655	-105.560	-0.140	-0.032
-221.640	-73.575	0.147	-0.053
-220.625	191.850	-0.164	0.247
-219.611	-172.653	-0.111	-0.003
-218.596	-200.000	0.019	-0.134
-217.582	800.000	-0.018	-0.061
-216.567	-200.000	0.004	-0.082
-215.552	-135.444	-0.109	-0.013
-214.538	-12.119	0.178	0.116
-213.523	230.728	0.260	-0.424
-212.509	-200.000	-0.024	-0.342
-211.494	163.549	-0.150	-0.210
-210.479	393.805	0.035	0.073
-209.465	3.937	0.086	0.063
-208.450	-69.936	-0.260	-0.099
-207.436	-97.707	-0.481	-0.124
-206.421	-145.257	0.241	-0.022
-205.406	48.552	-0.094	0.088
-204.392	800.000	-0.088	-0.376
-203.377	800.000	-0.086	0.273
-202.363	-48.240	-0.145	-0.070
-201.348	7.331	-0.188	-0.140
-200.333	-125.377	0.424	-0.064
-199.319	263.939	-0.129	0.223
-198.304	-0.127	-0.044	-0.031
-197.290	-12.720	0.152	0.099
-196.275	146.082	0.253	0.338
-195.260	800.000	-0.075	0.295
-194.246	7.754	-0.384	0.286
-193.231	-200.000	0.055	-0.405
-192.217	-121.456	0.109	-0.018
-191.202	-200.000	-0.049	-0.437
-190.187	58.015	-0.104	0.102
-189.173	800.000	-0.072	0.264
-188.158	-64.846	-0.270	-0.109
-187.144	-43.618	0.562	0.282
-186.129	166.572	0.176	0.248
-185.114	-149.571	0.195	0.015
-184.100	-168.081	-0.084	-0.003
-183.085	-34.696	-0.321	-0.175
-182.071	-102.971	0.222	-0.052
-181.056	156.196	-0.173	-0.237
-180.042	377.050	-0.111	0.225
-179.027	120.528	-0.127	-0.157
-178.012	189.044	0.121	0.180
-176.998	193.188	-0.145	0.218
-175.983	-140.488	0.130	0.014
-174.969	99.713	0.050	-0.057
-173.954	-16.241	0.319	0.202
-172.939	98.797	-0.200	-0.230
-171.925	-200.000	0.007	0.037
-170.910	124.295	0.018	0.023
-169.896	-200.000	-0.014	-0.104
-168.881	-84.604	-0.149	0.047
-167.866	-55.347	-0.275	0.123
-166.852	-104.730	-0.181	-0.041
-165.837	287.034	0.117	-0.211
-164.823	-80.135	-0.287	-0.096
-163.808	-69.832	0.146	0.056
-162.793	104.907	-0.296	-0.347
-161.779	-186.918	-0.216	0.003
-160.764	257.872	-0.217	0.372
-159.750	-200.000	-0.008	-0.277
-158.735	-31.396	-0.075	0.042
-157.720	39.580	-0.139	0.124
-156.706	2.546	0.296	0.213
-155.691	-71.827	-0.211	-0.078
-154.677	34.118	-0.052	0.045
-153.662	188.616	0.098	0.145
-152.647	-123.770	0.368	-0.058
-151.633	183.522	-0.067	0.099
-150.618	-54.785	-0.196	0.088
-149.604	-200.000	0.017	-0.235
-148.589	15.301	-0.180	-0.140
-147.574	-134.999	0.488	0.059
-146.560	800.000	-0.099	-0.398
-145.545	458.134	-0.116	0.257
-144.531	89.207	0.117	-0.130
-143.516	-51.749	0.264	-0.122
-142.502	563.435	-0.065	0.156
-141.487	-200.000	0.001	0.032
-140.472	38.951	0.247	0.219
-139.458	199.531	-0.074	-0.113
-138.443	45.244	-0.275	-0.252
-137.429	499.065	-0.104	0.238
-136.414	-196.021	0.161	0.001
-135.399	345.349	0.166	0.324
-134.385	-61.744	0.218	-0.091
-133.370	-115.503	-0.155	0.029
-132.356	4.200	0.154	0.112
-131.341	-44.449	0.095	0.047
-130.326	12.650	0.284	-0.218
-129.312	-128.660	0.373	0.052
-128.297	383.193	-0.191	-0.390
-127.283	111.004	0.094	0.112
-126.268	-106.476	-0.387	-0.086
-125.253	4.200	-0.130	0.094
-124.239	214.565	0.056	0.089
-123.224	-109.436	-0.487	0.102
-122.210	-191.706	0.353	-0.003
-121.195	-161.209	-0.276	0.014
