DTS Sentinel unit serial number:	SN413079Multiplexer serial number:	ORYXHardware model number:	OX4-SRSoftware version number:	ORYX F/W v4.00 Oryx Data Collector v3.7.2.0data status	okinstallation	princeton_trtdifferential loss correction	single-endedforward channel	channel 4reverse channel	N/Adate	2019/09/11time	21:23:10forward acquisition time	60.00reverse acquisition time	0.00gamma	496.2192k internal	0.2305k external	0.2305temperature offset calibration	1.0063default loss term (dB/km)	0.3790temperature slope calibration	1.0000multiplexer offset coefficient	1.0000multiplexer slope coefficient	1.0000fibre end	0.00T internal ref (°C)	36.16T ext. ref 1 (°C)	1.60T ext. ref 2 (°C)	30.05length (m)	temperature (°C)	Stokes	anti-Stokes-747.200	-29.946	0.217	-0.126
-746.185	368.922	0.160	0.330
-745.171	80.248	0.100	0.109
-744.156	-119.222	-0.399	0.071
-743.142	-115.580	0.251	0.048
-742.127	23.265	0.147	0.123
-741.112	-164.485	-0.078	-0.004
-740.098	-45.168	-0.054	0.027
-739.083	-83.938	-0.424	-0.137
-738.069	248.304	-0.129	0.223
-737.054	33.181	0.160	-0.141
-736.039	-94.809	-0.245	0.068
-735.025	-200.000	0.028	-0.165
-734.010	-59.174	0.293	-0.129
-732.996	-129.603	-0.302	-0.042
-731.981	6.826	-0.355	0.269
-730.966	43.893	0.146	0.136
-729.952	800.000	-0.030	-0.130
-728.937	-67.329	-0.136	0.054
-727.923	-25.683	0.105	0.063
-726.908	24.807	-0.253	-0.213
-725.894	409.625	-0.135	-0.292
-724.879	-54.550	-0.257	0.118
-723.864	-200.000	-0.032	0.233
-722.850	800.000	-0.119	-0.357
-721.835	2.477	0.150	-0.110
-720.821	-129.429	-0.271	0.038
-719.806	200.946	-0.112	-0.175
-718.791	-40.612	-0.197	0.104
-717.777	203.435	0.076	0.120
-716.762	-200.000	0.024	0.202
-715.748	800.000	0.080	0.241
-714.733	-140.349	0.301	-0.032
-713.718	-64.230	-0.252	-0.104
-712.704	518.600	0.042	-0.100
-711.689	-138.848	-0.174	-0.019
-710.675	142.355	-0.049	0.066
-709.660	-200.000	-0.004	0.108
-708.645	-24.846	0.088	0.053
-707.631	249.254	-0.144	-0.247
-706.616	-200.000	0.021	-0.180
-705.602	-11.991	0.136	0.091
-704.587	128.288	-0.050	-0.065
-703.572	-30.632	-0.169	-0.097
-702.558	-200.000	-0.007	0.093
-701.543	95.640	-0.131	-0.152
-700.529	347.920	-0.160	0.321
-699.514	-200.000	-0.005	0.115
-698.499	800.000	-0.068	-0.253
-697.485	-200.000	-0.029	-0.213
-696.470	-10.340	-0.095	-0.064
-695.456	-200.000	0.020	-0.096
-694.441	-200.000	-0.029	-0.135
-693.426	-200.000	0.007	0.056
-692.412	-74.997	-0.156	-0.057
-691.397	-79.875	-0.357	-0.122
-690.383	-200.000	-0.006	-0.247
-689.368	434.768	-0.059	-0.131
-688.354	118.345	0.108	-0.136
-687.339	-137.358	-0.490	-0.056
-686.324	-60.201	0.178	-0.077
-685.310	-200.000	-0.004	0.030
-684.295	-200.000	0.008	-0.250
-683.281	-200.000	0.047	-0.316
-682.266	-200.000	0.040	-0.643
-681.251	85.297	-0.104	-0.116
-680.237	-39.192	0.216	0.115
-679.222	800.000	0.057	-0.184
-678.208	-101.252	-0.214	0.053
-677.193	76.162	-0.103	-0.111
-676.178	-200.000	-0.269	-0.001
-675.164	-163.687	-0.279	-0.013
-674.149	800.000	0.062	0.231
-673.135	750.368	-0.023	0.063
-672.120	67.055	0.004	0.004
-671.105	536.492	-0.077	0.186
-670.091	-0.990	0.175	0.126
-669.076	351.901	-0.148	0.298
-668.062	-127.587	-0.182	0.027
-667.047	231.037	0.200	0.332
-666.032	24.071	0.187	0.156
-665.018	-161.828	0.397	0.020
-664.003	-145.127	-0.194	0.018
-662.989	405.784	0.123	-0.264
-661.974	43.827	-0.250	-0.233
-660.959	-200.000	-0.047	-0.236
-659.945	-135.682	-0.383	-0.046
-658.930	-133.454	-0.406	-0.052
-657.916	-171.871	0.096	0.003
-656.901	-200.000	-0.017	0.097
-655.886	307.588	0.044	-0.084
-654.872	-140.319	-0.189	0.020
-653.857	244.994	-0.241	0.411
-652.843	-127.153	-0.300	0.044
-651.828	-200.000	-0.039	0.395
-650.814	30.687	0.044	0.038
-649.799	-52.286	0.232	0.109
-648.784	318.604	0.083	-0.159
-647.770	-0.759	-0.041	-0.029
-646.755	175.376	-0.113	0.167
-645.741	333.148	0.112	0.220
-644.726	-49.402	0.166	0.080
-643.711	232.256	-0.051	0.085
-642.697	100.263	-0.136	0.160
-641.682	-53.549	0.221	0.103
-640.668	800.000	-0.029	0.113
-639.653	-200.000	0.023	0.145
-638.638	-80.507	-0.422	0.143
-637.624	144.611	-0.214	-0.290
-636.609	-200.000	0.051	-0.306
-635.595	-61.629	-0.289	0.123
-634.580	196.471	-0.097	0.150
-633.565	-200.000	0.007	-0.038
-632.551	-200.000	0.038	-0.248
-631.536	-63.026	-0.273	0.114
-630.522	800.000	-0.030	-0.099
-629.507	-200.000	-0.008	-0.337
-628.492	-200.000	-0.044	0.288
-627.478	800.000	0.093	0.364
-626.463	-200.000	-0.011	-0.077
-625.449	509.487	0.078	-0.183
-624.434	800.000	0.095	-0.306
-623.419	94.398	-0.132	-0.152
-622.405	164.576	0.148	0.212
-621.390	-17.215	-0.215	-0.137
-620.376	-42.305	-0.211	-0.109
-619.361	318.587	0.156	0.299
-618.346	-25.675	-0.214	-0.128
-617.332	-133.171	-0.171	0.022
-616.317	43.351	0.202	0.187
-615.303	-54.023	-0.466	0.215
-614.288	186.833	-0.112	-0.170
-613.273	-29.558	0.083	-0.048
-612.259	-155.398	0.122	0.008
-611.244	-18.754	-0.133	-0.084
-610.230	183.976	0.138	-0.207
-609.215	-163.066	0.280	0.014
-608.201	-200.000	0.004	0.189
-607.186	226.268	0.167	0.274
-606.171	-14.093	0.262	-0.171
-605.157	-110.300	0.133	0.028
-604.142	800.000	0.039	-0.149
-603.128	46.150	0.197	0.185
-602.113	87.558	-0.046	0.051
-601.098	-115.677	0.364	-0.069
-600.084	-200.000	0.016	0.221
-599.069	54.886	-0.270	0.263
-598.055	-18.684	0.385	-0.243
-597.040	-200.000	-0.020	-0.109
-596.025	-151.876	0.142	0.011
-595.011	-47.833	0.229	-0.112
-593.996	-200.000	-0.018	-0.280
-592.982	-194.180	0.224	0.002
-591.967	345.880	-0.065	-0.129
-590.952	-54.044	0.057	0.026
-589.938	800.000	0.079	0.243
-588.923	441.570	-0.131	-0.290
-587.909	84.664	-0.367	-0.406
-586.894	-47.109	-0.174	-0.086
-585.879	257.186	-0.108	-0.188
-584.865	21.287	-0.179	-0.147
-583.850	122.116	0.236	0.298
-582.836	721.576	0.077	-0.208
-581.821	505.067	0.145	0.339
-580.806	-52.743	0.094	-0.044
-579.792	-14.043	0.203	0.132
-578.777	-68.602	-0.104	0.041
-577.763	-117.631	-0.573	0.105
-576.748	-19.197	0.388	0.243
-575.733	38.182	0.046	-0.041
-574.719	359.486	0.124	-0.251
-573.704	800.000	-0.049	0.170
-572.690	-123.325	-0.234	-0.038
-571.675	359.780	0.065	-0.131
-570.661	718.991	-0.081	-0.218
-569.646	-34.733	-0.208	-0.115
-568.631	-26.062	0.178	0.106
-567.617	12.636	0.231	0.180
-566.602	-200.000	-0.016	-0.351
-565.588	800.000	-0.062	-0.200
-564.573	-86.565	-0.240	0.074
-563.558	76.703	0.125	0.134
-562.544	39.167	0.136	0.123
-561.529	722.326	-0.057	0.154
-560.515	-119.463	-0.078	-0.014
-559.500	-200.000	0.011	0.148
-558.485	-200.000	-0.011	0.074
-557.471	-14.195	-0.054	0.035
-556.456	422.726	-0.219	0.475
-555.442	322.450	-0.052	0.101
-554.427	-81.382	-0.425	0.142
-553.412	386.175	0.159	-0.332
-552.398	-200.000	-0.003	-0.310
-551.383	800.000	-0.113	-0.318
-550.369	-79.822	-0.077	0.026
-549.354	-113.183	-0.353	-0.070
-548.339	231.094	-0.090	-0.148
-547.325	-52.002	-0.386	0.181
-546.310	51.178	-0.060	-0.058
-545.296	-135.603	0.320	0.038
-544.281	231.399	0.207	0.342
-543.266	-200.000	0.008	0.209
-542.252	-52.038	0.028	0.013
-541.237	427.276	0.046	-0.099
-540.223	800.000	-0.056	0.212
-539.208	-134.848	-0.100	-0.012
-538.193	-97.279	-0.130	-0.034
-537.179	230.812	-0.160	-0.265
-536.164	-118.313	-0.258	-0.046
-535.150	-22.728	0.350	-0.214
-534.135	-99.803	0.089	-0.023
-533.121	487.955	-0.081	0.186
-532.106	197.993	-0.116	0.179
-531.091	92.548	0.079	-0.090
-530.077	-200.000	-0.045	-0.278
-529.062	772.012	-0.024	-0.065
-528.048	-42.409	-0.048	0.025
-527.033	-11.451	0.293	-0.194
-526.018	800.000	-0.014	0.045
-525.004	717.967	0.090	-0.242
-523.989	136.868	-0.069	-0.091
-522.975	188.998	-0.165	-0.249
-521.960	-90.543	0.221	0.065
-520.945	180.150	-0.118	-0.175
-519.931	-108.957	0.186	-0.040
-518.916	71.860	0.105	-0.110
-517.902	-200.000	0.032	-0.631
-516.887	197.858	0.044	-0.068
-515.872	-51.035	0.152	-0.072
-514.858	26.895	-0.236	-0.200
-513.843	-126.484	0.443	0.066
-512.829	-133.253	-0.084	0.011
-511.814	19.600	0.139	-0.113
-510.799	-108.239	0.164	-0.036
-509.785	-200.000	0.028	-0.647
-508.770	111.273	-0.134	-0.162
-507.756	-76.063	-0.278	0.099
-506.741	612.244	0.127	0.320
-505.726	4.868	-0.119	-0.088
-504.712	64.354	0.218	-0.222
-503.697	413.344	0.075	0.162
-502.683	-200.000	0.000	-0.164
-501.668	7.477	-0.175	-0.132
-500.653	482.565	-0.093	0.214
-499.639	1.498	0.119	-0.086
-498.624	-200.000	0.016	-0.190
-497.610	-200.000	0.007	0.222
-496.595	116.651	0.086	0.106
-495.581	127.584	0.141	0.181
-494.566	82.729	-0.067	0.074
-493.551	-43.726	0.279	0.142
-492.537	456.439	-0.148	-0.332
-491.522	766.503	-0.072	-0.196
-490.508	-67.935	0.280	-0.110
-489.493	-72.620	0.229	-0.085
-488.478	-65.461	0.361	0.146
-487.464	-45.803	-0.212	0.105
-486.449	-146.034	0.097	0.009
-485.435	-4.312	0.262	0.183
-484.420	-139.270	-0.521	-0.056
-483.405	-19.550	-0.130	0.081
-482.391	-200.000	0.033	0.148
-481.376	-91.089	-0.293	-0.085
-480.362	142.080	0.017	0.023
-479.347	-176.685	-0.118	0.003
-478.332	-200.000	0.022	0.133
-477.318	-9.960	0.355	0.238
-476.303	-13.182	0.109	-0.071
-475.289	-6.642	-0.179	-0.123
-474.274	44.688	0.111	-0.102
-473.259	103.495	-0.179	-0.211
-472.245	-68.761	-0.171	0.066
-471.230	-114.792	-0.023	-0.004
-470.216	-200.000	0.017	0.193
-469.201	36.781	-0.407	0.362
-468.186	-31.136	-0.116	0.066
-467.172	-159.155	-0.098	-0.006
-466.157	-79.391	-0.399	0.136
-465.143	83.974	-0.078	-0.085
-464.128	24.757	-0.271	0.226
-463.113	-73.642	0.246	-0.090
-462.099	-63.686	0.206	-0.085
-461.084	172.136	-0.110	0.159
-460.070	-162.230	-0.030	0.001
-459.055	-61.322	0.088	0.037
-458.040	-200.000	0.033	0.343
-457.026	-87.567	-0.305	0.093
-456.011	6.395	0.250	-0.187
-454.997	-200.000	0.038	-0.420
-453.982	198.813	-0.149	-0.230
-452.968	-49.956	0.106	-0.051
-451.953	398.624	-0.211	0.444
-450.938	137.363	-0.241	-0.317
-449.924	800.000	-0.014	-0.045
-448.909	-123.681	0.083	0.013
-447.895	-91.868	0.261	0.074
-446.880	800.000	-0.032	-0.105
-445.865	-200.000	-0.003	-0.240
-444.851	-8.786	-0.185	-0.125
-443.836	60.089	-0.051	-0.051
-442.822	45.898	-0.179	-0.167
-441.807	629.003	0.184	-0.467
-440.792	344.478	0.265	-0.523
-439.778	-168.661	0.182	-0.007
-438.763	-200.000	-0.005	0.222
-437.749	307.921	-0.070	0.132
-436.734	-200.000	-0.066	-0.368
-435.719	-200.000	0.022	-0.104
-434.705	-47.701	-0.171	0.083
-433.690	47.432	0.137	0.128
-432.676	216.084	0.052	0.083
-431.661	-200.000	0.044	0.351
-430.646	76.828	-0.161	0.172
-429.632	-88.478	-0.213	-0.064
-428.617	-200.000	0.025	0.149
-427.603	-116.660	0.091	0.017
-426.588	-5.146	-0.087	0.060
-425.573	-123.082	0.209	0.034
-424.559	103.063	-0.148	-0.174
-423.544	-6.235	-0.258	-0.177
-422.530	-200.000	-0.062	0.286
-421.515	36.713	0.137	0.122
-420.500	215.779	-0.205	-0.328
-419.486	102.934	0.053	0.062
-418.471	-126.920	0.130	0.019
-417.457	328.559	-0.040	-0.078
-416.442	-200.000	-0.019	0.220
-415.428	-88.443	-0.167	0.050
-414.413	-3.952	0.184	-0.128
-413.398	-75.197	0.297	-0.107
-412.384	105.757	-0.088	0.105
-411.369	-105.535	0.084	0.019
-410.355	0.745	0.205	0.147
-409.340	-200.000	-0.051	-0.229
-408.325	-18.688	0.279	0.175
-407.311	161.350	0.147	-0.207
-406.296	123.054	-0.117	-0.148
-405.282	482.027	0.091	-0.207
-404.267	495.404	-0.052	-0.121
-403.252	-200.000	-0.049	-0.348
-402.238	21.210	0.070	0.057
-401.223	-200.000	0.019	0.302
-400.209	720.342	0.043	0.115
-399.194	-137.767	-0.126	0.014
-398.179	-200.000	0.003	0.035
-397.165	800.000	0.043	0.174
-396.150	140.229	-0.107	0.142
-395.136	-129.745	0.094	0.013
-394.121	186.330	0.239	-0.358
-393.106	-200.000	-0.028	-0.122
-392.092	-111.487	0.262	0.054
-391.077	-124.561	-0.111	-0.017
-390.063	105.623	0.124	0.147
-389.048	30.306	-0.317	-0.271
-388.033	-49.334	-0.203	-0.097
-387.019	-10.401	0.326	0.217
-386.004	79.833	0.061	-0.065
-384.990	344.035	-0.036	0.071
-383.975	661.672	-0.030	0.078
-382.960	-97.911	0.277	-0.072
-381.946	170.397	-0.212	0.305
-380.931	140.472	-0.062	-0.082
-379.917	550.366	0.057	0.137
-378.902	270.025	0.169	0.298
-377.888	-57.906	-0.242	0.106
-376.873	-114.079	0.024	0.005
-375.858	53.253	0.229	0.220
-374.844	112.655	0.169	0.205
-373.829	64.933	-0.185	-0.187
-372.815	-200.000	0.009	-0.500
-371.800	-120.788	0.195	-0.033
-370.785	-103.698	0.370	-0.087
-369.771	-41.257	-0.188	-0.097
-368.756	-200.000	0.003	0.395
-367.742	-98.027	0.130	0.034
-366.727	-79.986	-0.122	0.041
-365.712	104.027	-0.119	-0.140
-364.698	-200.000	0.051	0.274
-363.683	-200.000	0.014	0.484
-362.669	-55.564	-0.189	0.085
-361.654	-118.689	-0.166	-0.029
-360.639	265.483	-0.110	0.193
-359.625	504.432	0.083	0.194
-358.610	1.664	-0.303	-0.219
-357.596	-118.403	-0.175	-0.031
-356.581	-200.000	0.014	0.125
-355.566	-147.320	-0.337	0.029
-354.552	34.208	-0.133	0.116
-353.537	800.000	0.134	0.577
-352.523	-151.617	-0.419	0.031
-351.508	1.055	0.272	-0.195
-350.493	-140.357	0.256	-0.027
-349.479	158.268	-0.113	-0.157
-348.464	170.560	0.146	-0.210
-347.450	408.889	0.085	0.180
-346.435	-158.001	-0.138	-0.008
-345.420	43.301	-0.016	-0.014
-344.406	-82.961	0.096	0.031
-343.391	-131.637	-0.154	0.020
-342.377	-146.244	0.052	0.005
-341.362	-200.000	-0.022	-0.308
-340.348	-200.000	0.058	-0.400
-339.333	800.000	0.060	0.189
-338.318	-98.797	-0.206	0.053
-337.304	79.747	-0.280	0.301
-336.289	-124.643	0.219	-0.034
-335.275	-77.447	0.190	0.066
-334.260	-37.944	0.129	0.069
-333.245	-200.000	0.043	-0.333
-332.231	53.176	-0.330	-0.317
-331.216	-96.780	-0.172	-0.045
-330.202	-15.691	0.287	-0.183
-329.187	-200.000	0.007	0.205
-328.172	-152.752	0.092	0.007
-327.158	-37.456	0.141	0.075
-326.143	290.069	0.216	0.392
-325.129	800.000	-0.061	0.253
-324.114	-167.995	-0.318	0.012
-323.099	-31.640	0.297	0.167
-322.085	-113.651	0.171	-0.033
-321.070	-151.676	0.105	0.008
-320.056	116.425	-0.191	0.234
-319.041	-180.050	0.366	-0.008
-318.026	-138.725	-0.306	-0.033
-317.012	364.388	-0.061	0.123
-315.997	-42.000	0.083	0.043
-314.983	-200.000	0.019	-0.425
-313.968	800.000	-0.053	0.156
-312.953	-37.898	-0.228	-0.121
-311.939	800.000	0.020	-0.063
-310.924	245.695	0.064	0.108
-309.910	-34.282	0.240	0.132
-308.895	-200.000	0.028	0.167
-307.880	-200.000	0.047	0.300
-306.866	-125.659	-0.298	-0.045
-305.851	-104.635	0.395	0.091
-304.837	-155.861	0.278	-0.018
-303.822	95.229	-0.222	-0.253
-302.807	-121.777	-0.355	-0.059
-301.793	-200.000	0.033	-0.199
-300.778	92.273	0.182	-0.205
-299.764	51.195	-0.146	-0.138
-298.749	800.000	-0.096	0.286
-297.735	-83.864	-0.164	-0.052
-296.720	92.987	0.088	-0.099
-295.705	-155.146	-0.077	0.005
-294.691	-200.000	0.026	-0.291
-293.676	-15.469	0.104	0.067
-292.662	371.777	-0.232	-0.470
-291.647	-151.453	-0.367	-0.027
-290.632	86.191	-0.128	-0.140
-289.618	-80.077	-0.331	-0.111
-288.603	-143.055	-0.369	0.036
-287.589	268.973	-0.134	-0.236
-286.574	151.098	0.234	0.318
-285.559	51.787	-0.063	0.060
-284.545	-114.880	0.112	-0.021
-283.530	19.653	-0.129	-0.104
-282.516	-19.438	-0.297	-0.184
-281.501	800.000	0.066	-0.268
-280.486	-200.000	-0.052	-0.329
-279.472	250.662	0.044	0.074
-278.457	-22.473	0.368	0.223
-277.443	800.000	-0.090	-0.280
-276.428	-103.137	0.294	0.070
-275.413	145.844	-0.291	-0.390
-274.399	800.000	0.136	-0.456
-273.384	29.447	-0.153	0.130
-272.370	372.296	0.077	0.157
-271.355	-200.000	0.023	0.116
-270.340	-125.592	0.311	-0.047
-269.326	800.000	-0.058	0.192
-268.311	193.999	0.086	0.131
-267.297	-37.456	-0.137	0.073
-266.282	-200.000	0.053	0.406
-265.267	42.378	0.258	-0.235
-264.253	-16.650	0.263	0.166
-263.238	-137.547	0.224	-0.025
-262.224	-200.000	0.014	0.334
-261.209	113.307	0.154	-0.186
-260.195	-144.163	0.277	0.026
-259.180	-76.380	-0.090	-0.032
-258.165	-200.000	0.021	-0.181
-257.151	-200.000	-0.006	0.065
-256.136	137.552	-0.274	-0.358
-255.122	-149.549	-0.259	-0.020
-254.107	151.698	-0.139	-0.190
-253.092	-179.897	0.256	-0.005
-252.078	-171.804	0.297	0.010
-251.063	562.170	0.026	-0.062
-250.049	105.904	0.225	0.266
-249.034	-200.000	-0.029	0.000
-248.019	-34.068	0.198	0.109
-247.005	-167.937	0.224	0.009
-245.990	-69.184	0.123	-0.047
-244.976	-54.002	-0.289	-0.131
-243.961	68.218	0.174	-0.178
-242.946	-116.259	0.172	0.032
-241.932	142.681	0.137	0.182
-240.917	92.623	-0.246	0.277
-239.903	-88.689	-0.153	0.045
-238.888	-8.426	-0.299	0.200
-237.873	800.000	0.049	0.139
-236.859	-134.394	-0.170	-0.021
-235.844	-8.680	0.109	0.073
-234.830	-67.990	-0.203	0.079
-233.815	-140.530	-0.411	0.043
-232.800	-200.000	-0.075	0.466
-231.786	-200.000	0.024	0.192
-230.771	-105.435	0.250	0.057
-229.757	-68.870	0.262	-0.101
-228.742	-200.000	-0.024	0.121
-227.727	-84.577	0.137	0.043
-226.713	10.869	0.299	-0.228
-225.698	156.792	-0.114	-0.157
-224.684	-40.735	0.186	-0.096
-223.669	120.156	0.194	0.239
-222.655	-82.306	0.178	0.058
-221.640	-200.000	-0.004	0.179
-220.625	-155.288	-0.055	0.004
-219.611	-103.088	0.087	0.021
-218.596	-22.032	0.340	0.206
-217.582	242.423	-0.137	-0.228
-216.567	-112.189	0.099	-0.020
-215.552	388.537	0.064	-0.132
-214.538	800.000	0.042	-0.135
-213.523	-39.039	-0.159	-0.083
-212.509	-46.157	-0.039	0.019
-211.494	131.436	0.099	-0.127
-210.479	291.848	0.182	0.330
-209.465	270.994	-0.090	-0.157
-208.450	-28.717	0.165	0.095
-207.436	-152.714	-0.112	0.008
-206.421	-200.000	0.017	0.160
-205.406	71.756	0.186	0.192
-204.392	-115.273	0.295	-0.056
-203.377	-35.845	-0.084	-0.045
-202.363	-67.534	0.215	-0.084
-201.348	-200.000	-0.037	-0.184
-200.333	-200.000	-0.007	0.109
-199.319	800.000	0.087	0.277
-198.304	-38.220	0.180	0.095
-197.290	201.096	0.115	0.176
-196.275	-5.597	-0.126	-0.086
-195.260	-85.081	0.250	-0.078
-194.246	316.561	0.050	0.094
-193.231	-200.000	-0.018	-0.133
-192.217	332.766	0.219	-0.422
-191.202	28.759	-0.182	-0.153
-190.187	-116.303	0.308	-0.057
-189.173	-200.000	-0.015	0.215
-188.158	-44.894	-0.194	0.096
-187.144	505.594	-0.064	-0.147
-186.129	152.099	0.084	-0.114
-185.114	28.854	-0.123	0.104
-184.100	357.607	0.133	0.265
-183.085	800.000	-0.030	0.088
-182.071	-94.793	0.104	0.028
-181.056	7.994	-0.119	-0.089
-180.042	800.000	-0.140	0.443
-179.027	337.375	0.129	-0.250
-178.012	1.034	-0.221	0.158
-176.998	-107.917	-0.265	-0.057
-175.983	-0.537	-0.123	-0.087
-174.969	666.637	-0.045	-0.116
-173.954	0.767	-0.152	-0.108
-172.939	195.544	0.095	0.143
-171.925	313.243	-0.111	-0.208
-170.910	-124.178	0.096	0.015
-169.896	-133.827	-0.193	0.024
-168.881	-143.885	-0.249	-0.023
-167.866	73.851	0.147	0.153
-166.852	-96.199	-0.197	-0.052
-165.837	43.965	-0.122	0.112
-164.823	155.585	-0.049	0.068
-163.808	-200.000	0.013	0.255
-162.793	-200.000	0.057	-0.250
-161.779	-127.758	0.015	-0.002
-160.764	-199.617	0.073	0.000
-159.750	-169.061	-0.324	0.012
-158.735	-200.000	-0.003	-0.208
-157.720	800.000	0.148	0.407
-156.706	-3.668	-0.199	0.137
-155.691	-200.000	0.007	0.358
-154.677	-200.000	-0.023	0.202
-153.662	458.263	-0.155	0.342
-152.647	-38.521	0.166	0.087
-151.633	-10.027	-0.313	-0.207
-150.618	-7.979	-0.392	-0.263
-149.604	213.928	-0.188	-0.295
-148.589	461.331	0.109	-0.241
-147.574	-135.403	-0.292	0.035
-146.560	693.760	-0.065	0.170
-145.545	242.689	-0.140	0.232
-144.531	-30.387	-0.085	-0.048
-143.516	172.651	0.142	-0.204
-142.502	34.771	-0.203	0.176
-141.487	-166.195	-0.246	-0.010
-140.472	51.347	0.336	-0.317
-139.458	292.826	-0.075	-0.136
-138.443	5.231	0.350	0.257
-137.429	121.138	-0.116	0.144
-136.414	-115.511	0.126	0.023
-135.399	-123.420	-0.185	-0.029
-134.385	-148.186	0.106	0.009
-133.370	800.000	0.034	0.139
-132.356	-70.848	-0.232	-0.087
-131.341	-47.924	-0.278	0.134
-130.326	-200.000	-0.242	-0.001
-129.312	800.000	0.009	0.029
-128.297	-200.000	-0.056	0.285
-127.283	800.000	0.041	0.140
-126.268	661.409	-0.066	0.168
-125.253	800.000	-0.123	0.404
-124.239	-200.000	0.116	0.527
-123.224	158.103	-0.075	0.103
-122.210	-145.772	0.133	0.012
