DTS Sentinel unit serial number:	SN413079Multiplexer serial number:	ORYXHardware model number:	OX4-SRSoftware version number:	ORYX F/W v4.00 Oryx Data Collector v3.7.2.0data status	okinstallation	princeton_trtdifferential loss correction	single-endedforward channel	channel 4reverse channel	N/Adate	2019/09/12time	11:51:11forward acquisition time	60.00reverse acquisition time	0.00gamma	496.2192k internal	0.2290k external	0.2290temperature offset calibration	1.0075default loss term (dB/km)	0.3790temperature slope calibration	1.0000multiplexer offset coefficient	1.0000multiplexer slope coefficient	1.0000fibre end	0.00T internal ref (°C)	40.02T ext. ref 1 (°C)	2.01T ext. ref 2 (°C)	37.53length (m)	temperature (°C)	Stokes	anti-Stokes-747.200	74.967	0.066	-0.071
-746.185	-200.000	0.046	0.242
-745.171	-24.052	0.246	0.151
-744.156	800.000	0.079	0.292
-743.142	-70.613	-0.288	0.111
-742.127	139.987	0.224	0.302
-741.112	-200.000	-0.041	0.486
-740.098	-200.000	-0.009	0.563
-739.083	26.082	0.101	0.086
-738.069	-65.069	-0.177	0.073
-737.054	800.000	-0.039	0.148
-736.039	-200.000	-0.022	-0.258
-735.025	-102.165	0.383	0.094
-734.010	-200.000	-0.009	-0.115
-732.996	12.546	0.078	0.061
-731.981	-14.664	-0.135	0.089
-730.966	114.451	-0.237	0.295
-729.952	-80.915	-0.215	0.073
-728.937	-75.712	0.487	-0.177
-727.923	-200.000	-0.050	-0.335
-726.908	173.864	-0.113	-0.167
-725.894	145.471	0.026	-0.035
-724.879	-147.163	-0.088	0.008
-723.864	172.192	-0.244	-0.360
-722.850	78.738	0.014	0.015
-721.835	-78.316	0.047	-0.016
-720.821	-200.000	0.020	-0.156
-719.806	-200.000	-0.018	-0.180
-718.791	-75.674	-0.239	0.087
-717.777	57.673	0.163	-0.163
-716.762	-79.383	-0.530	0.184
-715.748	-200.000	0.009	0.119
-714.733	-134.005	-0.205	0.026
-713.718	-200.000	-0.025	-0.261
-712.704	315.790	-0.116	-0.223
-711.689	-200.000	-0.009	-0.087
-710.675	160.256	-0.067	0.096
-709.660	-104.060	0.373	0.089
-708.645	-44.783	-0.309	-0.157
-707.631	515.393	0.067	-0.160
-706.616	-200.000	0.018	-0.193
-705.602	-200.000	-0.002	0.253
-704.587	-44.249	0.172	0.088
-703.572	-200.000	0.018	0.333
-702.558	-0.530	-0.181	-0.131
-701.543	-189.589	-0.404	-0.005
-700.529	-86.134	-0.091	-0.029
-699.514	-117.060	0.140	-0.026
-698.499	-18.084	0.217	0.139
-697.485	-85.773	0.299	-0.095
-696.470	-67.821	-0.553	0.221
-695.456	-47.946	-0.046	-0.023
-694.441	800.000	0.053	0.185
-693.426	-31.738	-0.283	-0.162
-692.412	-170.232	0.332	0.012
-691.397	-88.790	-0.253	0.077
-690.383	444.760	-0.040	0.091
-689.368	719.479	-0.082	0.223
-688.354	548.417	0.161	0.393
-687.339	-3.174	-0.065	-0.046
-686.324	183.673	-0.157	0.237
-685.310	0.239	-0.276	0.201
-684.295	-64.344	-0.058	-0.024
-683.281	1.430	-0.190	-0.140
-682.266	302.932	0.162	-0.307
-681.251	800.000	0.021	0.065
-680.237	-181.813	-0.181	0.004
-679.222	27.232	0.118	0.101
-678.208	37.259	-0.212	0.192
-677.193	800.000	-0.082	-0.264
-676.178	55.654	-0.322	-0.319
-675.164	754.635	0.079	-0.219
-674.149	-15.599	-0.154	-0.101
-673.135	243.985	-0.164	0.281
-672.120	63.776	-0.101	-0.104
-671.105	32.308	-0.091	0.080
-670.091	108.075	0.140	-0.170
-669.076	-64.096	-0.400	-0.167
-668.062	-200.000	-0.025	0.206
-667.047	-192.068	0.349	-0.003
-666.032	-200.000	0.001	-0.119
-665.018	64.542	0.114	-0.117
-664.003	-13.181	0.132	-0.087
-662.989	-90.899	0.024	-0.007
-661.974	347.496	0.078	0.158
-660.959	800.000	-0.091	0.338
-659.945	-89.649	-0.142	0.043
-658.930	422.920	-0.089	0.195
-657.916	-200.000	-0.008	0.095
-656.901	21.633	-0.147	-0.122
-655.886	-170.558	0.179	0.006
-654.872	-200.000	0.006	-0.152
-653.857	-110.220	0.171	-0.036
-652.843	-200.000	0.016	-0.133
-651.828	-200.000	0.038	-0.220
-650.814	-200.000	0.023	-0.148
-649.799	-200.000	-0.027	-0.440
-648.784	-200.000	-0.008	0.136
-647.770	800.000	-0.110	-0.463
-646.755	-23.575	-0.163	-0.100
-645.741	800.000	0.094	-0.306
-644.726	800.000	0.031	-0.093
-643.711	226.813	0.184	0.305
-642.697	-3.339	-0.107	0.076
-641.682	-200.000	0.015	0.207
-640.668	12.287	0.168	0.132
-639.653	-80.908	-0.124	0.042
-638.638	-200.000	-0.064	-0.403
-637.624	-114.616	0.067	0.013
-636.609	13.217	-0.296	0.234
-635.595	-53.475	0.200	0.093
-634.580	-200.000	0.003	0.400
-633.565	-45.575	-0.084	0.042
-632.551	37.944	-0.225	-0.204
-631.536	-102.497	-0.090	0.022
-630.522	176.071	0.033	0.049
-629.507	-134.768	-0.111	0.014
-628.492	131.885	-0.121	-0.159
-627.478	-200.000	-0.040	-0.202
-626.463	368.082	-0.090	-0.186
-625.449	-151.925	-0.124	-0.009
-624.434	-68.449	-0.151	0.060
-623.419	-200.000	-0.058	-0.311
-622.405	-200.000	-0.004	0.301
-621.390	458.845	-0.145	0.328
-620.376	-200.000	-0.005	0.267
-619.361	-69.615	0.407	0.159
-618.346	134.153	0.158	-0.208
-617.332	-200.000	0.013	0.297
-616.317	-200.000	0.006	-0.061
-615.303	-5.247	0.056	-0.039
-614.288	-148.643	-0.393	0.033
-613.273	800.000	-0.074	0.210
-612.259	200.474	0.122	0.191
-611.244	41.540	-0.188	0.174
-610.230	65.477	-0.152	0.157
-609.215	-156.096	-0.258	-0.017
-608.201	64.986	0.283	-0.291
-607.186	-37.074	-0.287	-0.157
-606.171	-200.000	-0.044	0.215
-605.157	424.678	-0.043	-0.094
-604.142	-200.000	0.001	0.023
-603.128	203.444	-0.025	-0.040
-602.113	14.042	0.223	0.177
-601.098	-13.043	-0.244	0.162
-600.084	-200.000	-0.084	-0.434
-599.069	-15.575	-0.260	-0.169
-598.055	-152.923	0.404	-0.029
-597.040	-200.000	-0.016	-0.097
-596.025	-200.000	-0.008	0.158
-595.011	145.443	0.082	-0.112
-593.996	-200.000	-0.043	0.293
-592.982	-25.510	-0.218	0.131
-591.967	146.088	-0.139	0.189
-590.952	-122.493	0.154	0.025
-589.938	267.683	-0.222	0.396
-588.923	-80.173	-0.062	0.021
-587.909	-60.803	0.119	0.051
-586.894	109.962	0.127	-0.155
-585.879	-108.603	-0.341	0.075
-584.865	800.000	-0.081	0.293
-583.850	-200.000	0.046	0.246
-582.836	800.000	-0.090	0.363
-581.821	33.803	-0.231	-0.205
-580.806	800.000	-0.033	-0.123
-579.792	-59.278	-0.313	0.137
-578.777	-154.420	0.065	-0.004
-577.763	554.021	-0.106	-0.259
-576.748	84.338	0.046	0.051
-575.733	-59.534	-0.143	-0.062
-574.719	800.000	-0.027	-0.092
-573.704	63.029	0.122	-0.124
-572.690	96.027	0.074	-0.086
-571.675	196.281	0.105	-0.163
-570.661	287.969	0.101	-0.185
-569.646	800.000	0.103	0.380
-568.631	-200.000	0.033	-0.169
-567.617	310.110	0.163	-0.311
-566.602	-68.832	0.120	-0.047
-565.588	-151.514	-0.356	-0.027
-564.573	-73.055	0.249	0.093
-563.558	-66.114	-0.037	0.015
-562.544	-111.715	-0.084	-0.017
-561.529	-120.015	0.273	0.048
-560.515	144.184	0.232	0.315
-559.500	-46.063	-0.170	-0.085
-558.485	39.349	-0.073	0.067
-557.471	800.000	-0.100	-0.283
-556.456	443.938	0.076	-0.170
-555.442	46.297	-0.020	0.019
-554.427	-200.000	-0.017	-0.094
-553.412	-106.547	-0.183	0.041
-552.398	-82.072	0.220	0.073
-551.383	-200.000	0.004	0.178
-550.369	116.881	-0.091	-0.114
-549.354	272.973	0.158	0.283
-548.339	362.111	-0.055	-0.113
-547.325	-30.002	0.084	0.049
-546.310	-200.000	-0.010	-0.136
-545.296	-200.000	-0.024	0.259
-544.281	121.761	-0.108	0.137
-543.266	800.000	-0.055	0.155
-542.252	-68.145	-0.396	0.157
-541.237	-200.000	0.036	-0.196
-540.223	36.932	-0.091	0.082
-539.208	-148.216	0.189	-0.016
-538.193	-110.808	0.170	0.036
-537.179	-200.000	-0.027	0.187
-536.164	-178.045	-0.240	-0.006
-535.150	-200.000	-0.028	0.270
-534.135	244.675	0.109	-0.187
-533.121	-35.239	0.102	0.057
-532.106	-112.577	-0.241	-0.049
-531.091	800.000	-0.025	-0.091
-530.077	800.000	0.028	-0.113
-529.062	79.903	-0.248	-0.271
-528.048	136.107	-0.073	0.097
-527.033	-200.000	0.008	-0.040
-526.018	800.000	-0.033	0.094
-525.004	800.000	-0.122	-0.414
-523.989	312.087	-0.081	-0.154
-522.975	-75.712	0.353	0.127
-521.960	-10.069	-0.166	0.112
-520.945	-200.000	0.000	-0.139
-519.931	-200.000	-0.079	0.388
-518.916	-68.841	0.183	-0.072
-517.902	-59.795	-0.269	-0.117
-516.887	-24.827	-0.085	-0.051
-515.872	294.326	0.133	-0.247
-514.858	191.391	-0.046	0.071
-513.843	688.860	0.013	-0.035
-512.829	651.449	0.128	0.333
-511.814	-52.131	0.221	0.104
-510.799	276.971	-0.080	0.144
-509.785	167.737	-0.233	-0.336
-508.770	-118.945	-0.267	0.048
-507.756	-158.063	0.115	-0.007
-506.741	27.610	-0.045	-0.039
-505.726	800.000	0.021	0.076
-504.712	-200.000	-0.089	0.567
-503.697	-23.616	-0.241	-0.147
-502.683	249.452	0.060	-0.103
-501.668	47.973	-0.086	-0.082
-500.653	800.000	0.078	-0.319
-499.639	-80.527	0.166	-0.056
-498.624	53.433	0.276	-0.268
-497.610	-180.145	-0.146	-0.003
-496.595	415.901	-0.159	-0.343
-495.581	123.665	0.143	0.182
-494.566	800.000	0.084	-0.245
-493.551	-200.000	0.018	-0.122
-492.537	445.364	0.121	-0.270
-491.522	102.343	0.123	-0.146
-490.508	103.406	0.135	0.160
-489.493	27.138	0.111	-0.094
-488.478	-184.712	-0.166	-0.003
-487.464	-53.650	-0.138	0.064
-486.449	-200.000	0.020	0.160
-485.435	59.975	0.246	-0.247
-484.420	-70.538	0.337	-0.129
-483.405	-200.000	0.009	0.252
-482.391	414.101	0.026	0.056
-481.376	89.259	-0.110	0.125
-480.362	266.031	-0.048	-0.084
-479.347	15.571	0.009	-0.007
-478.332	-135.298	-0.108	0.013
-477.318	-200.000	-0.020	0.264
-476.303	-183.154	0.159	-0.003
-475.289	-63.255	-0.213	-0.089
-474.274	673.930	-0.057	-0.150
-473.259	-136.346	-0.143	-0.017
-472.245	-57.969	-0.213	-0.094
-471.230	0.692	-0.159	-0.115
-470.216	-129.221	0.210	-0.030
-469.201	-94.254	-0.086	-0.024
-468.186	117.029	-0.030	-0.037
-467.172	-194.951	-0.112	0.001
-466.157	800.000	0.101	-0.293
-465.143	-9.008	-0.119	0.081
-464.128	-86.390	0.109	-0.034
-463.113	-200.000	-0.014	-0.177
-462.099	-200.000	-0.000	-0.203
-461.084	201.060	-0.189	-0.295
-460.070	-90.558	-0.139	0.041
-459.055	71.011	0.203	-0.213
-458.040	150.905	0.176	0.243
-457.026	19.909	-0.242	-0.198
-456.011	-200.000	-0.013	-0.307
-454.997	-124.509	-0.408	0.064
-453.982	-200.000	0.039	0.261
-452.968	800.000	0.023	-0.074
-451.953	-200.000	-0.031	-0.165
-450.938	196.725	-0.141	-0.218
-449.924	-82.499	0.223	-0.073
-448.909	-200.000	0.035	0.241
-447.895	-12.802	0.223	0.147
-446.880	353.129	0.181	0.364
-445.865	3.866	-0.040	-0.030
-444.851	17.004	0.127	0.102
-443.836	-200.000	-0.002	-0.136
-442.822	-91.060	-0.427	-0.124
-441.807	109.202	-0.098	-0.118
-440.792	-90.883	0.101	0.029
-439.778	533.275	-0.056	-0.134
-438.763	22.114	-0.136	0.112
-437.749	-118.351	-0.093	0.017
-436.734	56.203	0.139	-0.136
-435.719	-145.221	-0.589	-0.054
-434.705	-200.000	0.043	0.206
-433.690	-183.788	0.338	-0.006
-432.676	-106.433	0.284	-0.064
-431.661	140.606	0.210	-0.280
-430.646	-200.000	0.063	0.305
-429.632	54.957	0.125	-0.123
-428.617	-164.444	-0.228	-0.011
-427.603	518.553	-0.066	-0.156
-426.588	-157.640	0.324	-0.020
-425.573	-77.231	0.063	0.022
-424.559	-17.748	-0.213	0.135
-423.544	655.637	0.082	-0.214
-422.530	277.053	0.175	-0.315
-421.515	360.828	-0.082	0.167
-420.500	-3.642	-0.087	-0.061
-419.486	-147.087	-0.064	-0.006
-418.471	-166.403	-0.179	-0.008
-417.457	-97.699	-0.209	0.055
-416.442	50.234	0.189	-0.180
-415.428	-72.779	-0.377	-0.140
-414.413	-200.000	-0.002	-0.054
-413.398	-116.094	0.161	-0.030
-412.384	-165.141	-0.143	-0.006
-411.369	91.220	-0.218	-0.247
-410.355	-89.907	0.486	0.144
-409.340	233.595	0.073	-0.121
-408.325	-80.411	0.134	-0.045
-407.311	145.587	-0.075	0.102
-406.296	51.627	-0.149	-0.144
-405.282	-80.648	0.256	0.086
-404.267	77.239	0.066	-0.071
-403.252	-19.811	0.255	0.159
-402.238	-200.000	0.004	0.124
-401.223	-86.829	-0.149	0.046
-400.209	317.341	0.077	0.147
-399.194	-41.728	0.125	-0.065
-398.179	-87.561	0.097	-0.030
-397.165	214.130	0.089	0.142
-396.150	800.000	0.032	-0.142
-395.136	-22.208	0.054	-0.033
-394.121	-153.869	0.229	0.016
-393.106	224.195	-0.174	0.285
-392.092	-37.264	0.338	-0.183
-391.077	-121.137	0.092	-0.016
-390.063	29.038	0.173	0.148
-389.048	-54.539	-0.028	-0.013
-388.033	99.305	0.157	-0.184
-387.019	-4.249	-0.129	-0.090
-386.004	94.461	0.103	-0.118
-384.990	-33.862	0.222	0.124
-383.975	-55.386	0.315	0.143
-382.960	-63.700	0.324	-0.134
-381.946	-69.515	-0.298	0.115
-380.931	302.706	0.207	-0.386
-379.917	-168.162	-0.279	0.011
-378.902	8.849	0.243	-0.185
-377.888	-123.650	0.103	-0.016
-376.873	26.342	0.069	0.058
-375.858	-76.883	-0.253	-0.089
-374.844	28.009	-0.168	-0.143
-373.829	146.565	0.022	0.029
-372.815	-200.000	0.055	0.361
-371.800	-75.574	-0.149	0.054
-370.785	249.222	-0.097	0.165
-369.771	-200.000	-0.012	0.249
-368.756	-78.996	-0.171	-0.059
-367.742	-200.000	0.030	-0.374
-366.727	66.288	0.080	-0.082
-365.712	-200.000	0.026	-0.328
-364.698	259.800	-0.161	0.280
-363.683	49.736	-0.134	0.128
-362.669	27.641	-0.122	0.104
-361.654	4.464	-0.276	0.205
-360.639	-163.655	-0.211	0.010
-359.625	77.545	0.082	-0.088
-358.610	175.309	-0.156	0.228
-357.596	-77.090	0.183	0.064
-356.581	-37.923	0.450	0.241
-355.566	-43.498	0.119	-0.061
-354.552	-3.710	0.215	0.151
-353.537	167.148	-0.087	-0.124
-352.523	-28.886	0.245	0.142
-351.508	-132.746	0.366	-0.047
-350.493	-200.000	0.048	-0.296
-349.479	-92.521	-0.235	0.067
-348.464	372.816	-0.095	-0.194
-347.450	361.737	0.119	-0.240
-346.435	-168.078	0.450	-0.018
-345.420	-200.000	0.015	0.079
-344.406	435.032	0.033	0.072
-343.391	-9.137	-0.081	-0.055
-342.377	-122.851	0.122	-0.020
-341.362	152.490	-0.151	0.208
-340.348	800.000	-0.050	-0.206
-339.333	33.811	0.088	-0.077
-338.318	91.683	-0.392	-0.444
-337.304	-200.000	0.006	-0.294
-336.289	54.777	-0.029	-0.029
-335.275	206.230	0.093	-0.146
-334.260	728.034	0.105	0.282
-333.245	-90.523	0.079	-0.023
-332.231	-58.904	0.139	0.061
-331.216	393.049	-0.023	-0.048
-330.202	500.866	0.026	0.060
-329.187	121.974	-0.166	0.209
-328.172	55.944	0.189	-0.184
-327.158	52.198	0.170	-0.163
-326.143	168.408	-0.130	0.186
-325.129	800.000	0.022	0.090
-324.114	800.000	0.048	0.154
-323.099	122.004	0.067	0.084
-322.085	-200.000	-0.028	0.366
-321.070	47.048	-0.207	0.194
-320.056	-200.000	-0.023	0.165
-319.041	-200.000	0.058	0.316
-318.026	-200.000	0.049	-0.222
-317.012	-40.218	-0.131	-0.069
-315.997	-200.000	-0.010	0.062
-314.983	-30.859	-0.319	-0.182
-313.968	-200.000	-0.013	0.117
-312.953	-94.163	0.148	0.041
-311.939	111.626	0.045	-0.054
-310.924	348.327	0.137	-0.271
-309.910	-200.000	0.034	0.250
-308.895	76.603	0.194	0.207
-307.880	291.909	0.111	0.203
-306.866	-110.847	0.380	-0.079
-305.851	-200.000	-0.019	-0.173
-304.837	-200.000	-0.007	0.203
-303.822	-68.779	0.351	0.137
-302.807	46.297	0.073	0.068
-301.793	435.567	0.009	0.019
-300.778	800.000	-0.090	-0.263
-299.764	289.626	-0.109	-0.198
-298.749	-98.591	-0.017	-0.004
-297.735	-200.000	-0.044	-0.205
-296.720	-200.000	-0.042	0.262
-295.705	10.090	0.085	-0.065
-294.691	-27.364	0.229	-0.134
-293.676	-17.680	0.041	-0.026
-292.662	416.870	-0.058	0.124
-291.647	-14.664	-0.143	0.092
-290.632	-46.821	0.049	0.024
-289.618	-56.805	0.154	-0.068
-288.603	83.986	-0.146	0.161
-287.589	-94.281	0.214	-0.059
-286.574	-129.858	0.114	-0.016
-285.559	144.926	-0.163	-0.220
-284.545	-125.768	0.277	-0.042
-283.530	800.000	-0.007	0.020
-282.516	800.000	-0.034	-0.145
-281.501	-168.523	-0.163	-0.006
-280.486	-39.521	-0.416	0.219
-279.472	101.942	-0.063	0.074
-278.457	-200.000	0.041	0.477
-277.443	800.000	0.031	0.108
-276.428	56.298	0.308	0.301
-275.413	800.000	0.046	-0.202
-274.399	10.534	0.256	-0.196
-273.384	-63.328	-0.269	-0.112
-272.370	35.687	-0.309	-0.273
-271.355	59.092	-0.211	0.209
-270.340	-24.546	-0.137	0.082
-269.326	-91.020	-0.246	0.071
-268.311	800.000	0.041	0.143
-267.297	652.041	-0.075	0.193
-266.282	-200.000	-0.022	0.374
-265.267	-83.024	0.407	-0.132
-264.253	541.798	-0.121	-0.290
-263.238	84.926	-0.104	0.114
-262.224	142.961	-0.199	-0.266
-261.209	-108.627	0.322	0.070
-260.195	-97.275	0.291	-0.076
-259.180	32.530	-0.123	0.107
-258.165	251.908	0.094	-0.161
-257.151	-107.334	0.143	0.032
-256.136	241.871	-0.057	-0.095
-255.122	-200.000	0.024	0.332
-254.107	46.938	0.088	0.082
-253.092	-200.000	0.000	-0.160
-252.078	-200.000	0.028	0.165
-251.063	79.157	-0.126	0.136
-250.049	-120.332	-0.340	-0.058
-249.034	-154.662	-0.244	-0.016
-248.019	592.157	0.076	-0.189
-247.005	95.272	-0.028	-0.032
-245.990	-162.947	-0.133	0.007
-244.976	-137.242	0.192	-0.022
-243.961	-44.335	-0.196	0.098
-242.946	-136.168	0.188	-0.022
-241.932	-106.892	-0.097	0.021
-240.917	13.163	-0.274	-0.213
-239.903	-133.332	0.111	0.014
-238.888	612.794	-0.059	0.148
-237.873	-74.512	0.442	0.160
-236.859	318.463	-0.173	-0.329
-235.844	-142.458	-0.216	0.021
-234.830	-200.000	0.008	-0.113
-233.815	37.005	0.091	-0.081
-232.800	-200.000	-0.051	0.237
-231.786	110.707	-0.157	0.190
-230.771	9.778	0.252	0.192
-229.757	-13.546	0.167	-0.109
-228.742	-134.526	0.118	0.015
-227.727	16.965	-0.177	-0.141
-226.713	33.232	-0.096	0.084
-225.698	-51.099	0.205	-0.096
-224.684	-164.771	0.211	-0.010
-223.669	-35.052	0.229	-0.126
-222.655	7.311	-0.129	-0.097
-221.640	-200.000	-0.004	-0.156
-220.625	-81.131	-0.035	0.012
-219.611	-67.822	-0.356	0.139
-218.596	-51.339	-0.429	-0.201
-217.582	-163.341	0.201	0.010
-216.567	-126.106	0.288	0.043
-215.552	35.863	0.197	0.174
-214.538	138.215	-0.036	-0.048
-213.523	-200.000	-0.044	-0.256
-212.509	-47.731	-0.115	0.056
-211.494	-200.000	-0.053	0.267
-210.479	-52.241	-0.192	-0.089
-209.465	-75.191	0.316	0.113
-208.450	-83.314	-0.379	-0.122
-207.436	-200.000	-0.005	0.062
-206.421	154.156	-0.179	0.246
-205.406	-25.855	-0.166	-0.098
-204.392	156.954	-0.073	-0.101
-203.377	-200.000	0.094	0.000
-202.363	439.308	0.186	-0.407
-201.348	561.177	-0.058	-0.141
-200.333	211.238	0.073	-0.114
-199.319	-200.000	0.015	0.072
-198.304	-56.618	-0.221	-0.098
-197.290	-142.746	0.200	0.020
-196.275	-200.000	-0.025	0.160
-195.260	-57.698	-0.011	-0.005
-194.246	-119.524	0.248	-0.043
-193.231	279.126	0.132	0.236
-192.217	297.369	0.124	0.228
-191.202	69.927	-0.022	-0.022
-190.187	-200.000	0.014	0.168
-189.173	-200.000	0.000	0.205
-188.158	800.000	0.040	0.162
-187.144	22.389	0.179	-0.146
-186.129	75.195	-0.123	0.130
-185.114	66.099	-0.103	-0.105
-184.100	-63.976	0.126	-0.052
-183.085	74.171	0.136	0.143
-182.071	31.382	0.082	-0.071
-181.056	112.470	-0.091	0.111
-180.042	232.785	0.108	-0.178
-179.027	-5.230	0.344	0.237
-178.012	196.089	0.218	0.332
-176.998	36.413	-0.272	-0.240
-175.983	25.003	0.060	-0.050
-174.969	-118.242	0.132	0.024
-173.954	681.479	-0.064	-0.167
-172.939	-3.866	0.045	0.031
-171.925	-200.000	-0.011	-0.072
-170.910	-181.448	-0.211	0.004
-169.896	-110.098	-0.081	-0.017
-168.881	160.016	-0.191	0.267
-167.866	-23.681	-0.316	-0.190
-166.852	-51.530	-0.285	0.133
-165.837	13.711	0.188	0.146
-164.823	295.382	-0.131	0.240
-163.808	596.205	0.065	-0.162
-162.793	99.217	0.161	-0.187
-161.779	-200.000	-0.007	0.382
-160.764	800.000	-0.038	0.128
-159.750	190.333	-0.086	-0.129
-158.735	73.464	0.310	0.325
-157.720	-7.014	-0.162	-0.110
-156.706	11.665	0.354	-0.272
-155.691	-137.271	-0.073	-0.008
-154.677	800.000	0.053	0.180
-153.662	66.641	0.181	0.184
-152.647	-25.472	0.173	-0.102
-151.633	800.000	0.044	-0.120
-150.618	-26.655	-0.039	0.023
-149.604	-200.000	0.004	0.069
-148.589	-115.450	-0.201	-0.038
-147.574	328.497	0.190	-0.366
-146.560	349.593	-0.102	-0.203
-145.545	-27.054	-0.253	-0.148
-144.531	-23.606	0.383	0.230
-143.516	800.000	0.035	-0.108
-142.502	286.697	0.014	-0.026
-141.487	800.000	0.112	-0.340
-140.472	154.168	-0.099	-0.136
-139.458	-2.692	0.191	0.134
-138.443	-200.000	0.012	0.105
-137.429	63.180	-0.076	0.076
-136.414	-115.752	-0.163	-0.031
-135.399	-90.640	0.234	-0.068
-134.385	-43.559	0.321	0.162
-133.370	215.113	0.149	-0.237
-132.356	208.432	-0.337	0.527
-131.341	-117.895	-0.311	-0.056
-130.326	283.852	-0.118	0.212
-129.312	25.438	0.183	-0.152
-128.297	-194.454	-0.280	-0.002
-127.283	-4.430	0.109	0.076
-126.268	-200.000	-0.054	0.241
-125.253	254.917	0.021	-0.036
-124.239	526.581	-0.097	0.227
-123.224	223.166	0.244	0.394
-122.210	273.369	-0.132	0.233
