DTS Sentinel unit serial number:	SN413079Multiplexer serial number:	ORYXHardware model number:	OX4-SRSoftware version number:	ORYX F/W v4.00 Oryx Data Collector v3.7.2.0data status	okinstallation	princeton_trtdifferential loss correction	single-endedforward channel	channel 4reverse channel	N/Adate	2019/09/17time	22:33:34forward acquisition time	60.00reverse acquisition time	0.00gamma	496.2192k internal	0.2330k external	0.2330temperature offset calibration	0.9998default loss term (dB/km)	0.3790temperature slope calibration	1.0000multiplexer offset coefficient	1.0000multiplexer slope coefficient	1.0000fibre end	0.00T internal ref (°C)	25.25T ext. ref 1 (°C)	0.17T ext. ref 2 (°C)	18.60length (m)	temperature (°C)	Stokes	anti-Stokes-747.200	-59.220	0.089	-0.039
-746.185	-200.000	-0.044	0.388
-745.171	-130.623	-0.424	0.058
-744.156	29.166	0.113	-0.097
-743.142	782.592	-0.082	-0.226
-742.127	-127.451	0.069	0.010
-741.112	-112.885	-0.356	-0.071
-740.098	240.712	-0.101	0.170
-739.083	-2.018	-0.117	-0.083
-738.069	-39.467	-0.265	0.140
-737.054	60.710	-0.051	0.051
-736.039	800.000	-0.058	-0.166
-735.025	800.000	0.038	-0.112
-734.010	-117.713	-0.451	0.082
-732.996	-107.572	-0.298	0.066
-731.981	-10.794	-0.184	-0.122
-730.966	-5.416	0.108	-0.074
-729.952	580.348	0.067	-0.166
-728.937	-48.328	-0.206	-0.100
-727.923	-200.000	-0.045	0.278
-726.908	146.266	0.065	-0.088
-725.894	-42.458	-0.197	0.101
-724.879	-77.980	0.071	0.025
-723.864	-102.477	0.398	-0.096
-722.850	181.929	0.137	-0.203
-721.835	112.134	-0.282	-0.343
-720.821	-118.034	-0.326	0.059
-719.806	403.705	-0.195	-0.413
-718.791	-152.138	0.276	-0.020
-717.777	800.000	0.018	0.077
-716.762	-53.660	0.384	-0.177
-715.748	800.000	-0.051	-0.205
-714.733	-159.979	-0.234	-0.013
-713.718	-200.000	0.014	0.210
-712.704	-98.496	0.137	0.035
-711.689	-26.319	0.268	-0.158
-710.675	-5.688	0.058	0.040
-709.660	59.146	-0.235	0.233
-708.645	3.441	-0.031	-0.023
-707.631	156.630	0.034	-0.047
-706.616	720.337	0.053	-0.142
-705.602	-173.438	-0.195	0.006
-704.587	-20.843	0.322	-0.199
-703.572	127.696	0.184	0.235
-702.558	246.428	-0.029	-0.049
-701.543	513.151	-0.095	0.222
-700.529	800.000	0.034	0.104
-699.514	-200.000	-0.031	0.159
-698.499	-166.643	-0.223	-0.009
-697.485	648.338	0.102	0.261
-696.470	20.162	-0.156	-0.127
-695.456	-200.000	0.002	0.099
-694.441	128.036	-0.177	-0.226
-693.426	-200.000	-0.024	0.538
-692.412	-200.000	-0.022	-0.325
-691.397	-200.000	-0.017	-0.098
-690.383	-24.902	-0.225	0.134
-689.368	-74.757	-0.126	0.046
-688.354	-200.000	-0.020	-0.126
-687.339	-6.710	-0.217	-0.149
-686.324	128.326	0.062	-0.079
-685.310	-43.050	-0.171	0.087
-684.295	-200.000	-0.003	0.181
-683.281	-200.000	-0.057	0.257
-682.266	2.990	0.096	-0.070
-681.251	99.296	0.113	-0.131
-680.237	50.734	-0.154	0.146
-679.222	-200.000	0.058	-0.260
-678.208	-75.835	-0.091	-0.032
-677.193	512.175	0.071	-0.166
-676.178	217.308	-0.195	-0.313
-675.164	-26.020	-0.046	0.027
-674.149	800.000	-0.088	0.378
-673.135	-200.000	0.010	0.134
-672.120	-3.818	0.077	0.054
-671.105	-198.602	-0.155	0.001
-670.091	-200.000	0.011	-0.183
-669.076	171.610	-0.123	0.178
-668.062	800.000	-0.069	-0.244
-667.047	-43.443	0.264	0.134
-666.032	-200.000	-0.023	-0.370
-665.018	20.814	-0.242	0.197
-664.003	800.000	0.057	-0.234
-662.989	561.992	0.143	-0.348
-661.974	-200.000	-0.060	0.000
-660.959	263.683	-0.137	-0.239
-659.945	106.207	0.136	-0.162
-658.930	-83.225	-0.079	0.025
-657.916	-40.449	-0.072	-0.037
-656.901	66.118	-0.200	-0.203
-655.886	-17.990	0.381	-0.240
-654.872	-200.000	-0.047	-0.211
-653.857	-31.318	-0.249	-0.141
-652.843	-156.277	-0.153	0.010
-651.828	800.000	-0.029	-0.086
-650.814	48.623	-0.200	0.188
-649.799	228.944	0.248	-0.406
-648.784	-200.000	-0.007	0.310
-647.770	120.290	0.103	0.128
-646.755	-94.222	0.172	0.047
-645.741	-37.879	0.092	-0.049
-644.726	-137.615	-0.209	-0.024
-643.711	-159.046	-0.310	-0.018
-642.697	-200.000	-0.003	0.130
-641.682	-9.798	0.236	0.157
-640.668	-200.000	0.053	0.236
-639.653	-32.704	-0.205	-0.115
-638.638	15.840	0.160	0.127
-637.624	-172.136	-0.100	-0.003
-636.609	350.473	-0.043	-0.084
-635.595	1.446	0.274	-0.198
-634.580	-32.125	-0.153	0.086
-633.565	-51.634	-0.191	-0.089
-632.551	175.248	0.072	-0.105
-631.536	-200.000	-0.011	0.090
-630.522	-116.853	0.072	-0.013
-629.507	366.807	-0.150	0.304
-628.492	-200.000	0.033	-0.149
-627.478	-104.224	-0.185	-0.043
-626.463	-200.000	0.007	0.242
-625.449	-34.833	0.302	-0.165
-624.434	193.453	-0.168	-0.255
-623.419	-55.218	-0.299	-0.135
-622.405	47.260	-0.258	0.241
-621.390	-200.000	0.027	-0.149
-620.376	-167.230	0.157	-0.006
-619.361	28.573	0.208	0.177
-618.346	134.512	-0.132	0.171
-617.332	-149.819	-0.207	-0.016
-616.317	36.225	-0.171	0.151
-615.303	-125.746	0.171	0.026
-614.288	-39.585	-0.314	-0.165
-613.273	-128.514	0.209	0.030
-612.259	-14.464	0.072	-0.046
-611.244	-199.286	-0.312	0.002
-610.230	-200.000	0.022	0.299
-609.215	800.000	-0.076	-0.213
-608.201	-107.869	0.266	0.058
-607.186	133.783	0.173	0.224
-606.171	-56.363	-0.195	0.087
-605.157	-27.333	0.063	-0.037
-604.142	6.058	-0.109	0.081
-603.128	-172.724	-0.129	0.004
-602.113	54.702	-0.266	0.257
-601.098	-129.023	-0.112	0.016
-600.084	800.000	-0.055	0.210
-599.069	360.336	0.064	0.128
-598.055	46.145	0.141	-0.131
-597.040	71.879	-0.169	0.176
-596.025	771.111	0.071	0.193
-595.011	85.343	-0.015	-0.016
-593.996	98.519	0.115	-0.133
-592.982	-200.000	-0.031	0.136
-591.967	151.824	0.137	0.187
-590.952	-45.762	-0.214	-0.106
-589.938	-200.000	-0.003	-0.136
-588.923	291.492	-0.194	0.353
-587.909	122.033	-0.211	0.264
-586.894	-12.354	0.216	0.141
-585.879	800.000	0.054	-0.182
-584.865	-3.768	-0.182	-0.127
-583.850	-200.000	0.281	0.001
-582.836	142.531	0.270	0.359
-581.821	-42.750	0.091	0.046
-580.806	24.169	-0.189	0.156
-579.792	622.752	-0.097	0.245
-578.777	800.000	0.056	-0.202
-577.763	800.000	0.010	-0.037
-576.748	402.539	0.176	0.371
-575.733	-52.827	0.091	-0.042
-574.719	800.000	-0.038	0.148
-573.704	-150.275	-0.336	-0.026
-572.690	-1.459	0.193	-0.136
-571.675	-103.011	-0.347	-0.082
-570.661	-169.558	0.235	-0.009
-569.646	124.722	-0.215	-0.271
-568.631	-77.660	-0.221	-0.076
-567.617	43.556	-0.073	-0.067
-566.602	25.406	-0.143	-0.119
-565.588	-161.828	0.190	-0.010
-564.573	73.034	-0.080	0.083
-563.558	-200.000	0.385	-0.002
-562.544	372.106	0.056	-0.114
-561.529	485.427	-0.157	0.359
-560.515	78.055	0.223	0.238
-559.500	-81.809	-0.272	-0.089
-558.485	57.874	-0.049	-0.048
-557.471	10.933	0.380	0.290
-556.456	-137.679	-0.121	-0.014
-555.442	203.069	0.118	0.182
-554.427	-148.799	0.318	-0.026
-553.412	2.875	0.143	-0.103
-552.398	-96.282	-0.333	-0.088
-551.383	103.272	-0.027	0.031
-550.369	61.830	-0.125	0.124
-549.354	-108.376	0.196	0.042
-548.339	110.903	-0.158	-0.190
-547.325	211.172	0.199	0.313
-546.310	16.942	-0.261	0.206
-545.296	-200.000	-0.000	0.239
-544.281	-200.000	0.009	-0.090
-543.266	-143.553	-0.362	-0.034
-542.252	-200.000	-0.024	-0.284
-541.237	67.062	0.090	-0.092
-540.223	-162.755	-0.404	0.020
-539.208	-105.015	-0.244	0.056
-538.193	800.000	0.084	0.280
-537.179	463.913	0.088	0.196
-536.164	251.456	0.029	0.049
-535.150	-96.322	-0.182	-0.048
-534.135	-48.393	0.246	-0.118
-533.121	160.113	0.193	0.268
-532.106	80.046	-0.108	-0.116
-531.091	175.989	-0.088	-0.128
-530.077	71.272	-0.041	-0.042
-529.062	-29.080	-0.138	0.079
-528.048	18.457	-0.248	0.198
-527.033	800.000	0.106	-0.334
-526.018	41.084	-0.144	-0.130
-525.004	800.000	0.024	-0.103
-523.989	-86.727	0.209	-0.064
-522.975	800.000	-0.003	-0.011
-521.960	-122.944	0.340	-0.055
-520.945	41.566	0.096	-0.086
-519.931	-100.174	0.296	0.073
-518.916	1.807	-0.137	-0.099
-517.902	-7.582	-0.179	-0.121
-516.887	-200.000	-0.005	0.079
-515.872	-131.885	-0.009	-0.001
-514.858	-67.440	0.196	0.077
-513.843	-84.494	0.105	-0.033
-512.829	10.063	-0.091	-0.069
-511.814	800.000	-0.063	-0.246
-510.799	-30.460	0.309	-0.175
-509.785	248.750	-0.071	-0.119
-508.770	255.394	0.095	0.162
-507.756	332.995	0.164	-0.316
-506.741	53.783	-0.376	-0.361
-505.726	-200.000	0.028	-0.149
-504.712	371.296	0.043	-0.088
-503.697	-64.091	0.044	0.018
-502.683	-200.000	-0.029	-0.253
-501.668	800.000	-0.088	0.300
-500.653	-200.000	-0.040	0.208
-499.639	800.000	-0.018	-0.072
-498.624	68.566	-0.097	-0.099
-497.610	-200.000	0.078	-0.418
-496.595	196.741	-0.093	-0.141
-495.581	73.050	-0.056	-0.058
-494.566	-200.000	0.028	-0.156
-493.551	-29.715	-0.180	-0.102
-492.537	-88.180	0.223	-0.067
-491.522	798.128	0.108	-0.297
-490.508	395.022	0.148	-0.308
-489.493	-77.106	-0.186	0.065
-488.478	30.175	-0.066	0.056
-487.464	-200.000	0.013	0.148
-486.449	90.921	0.191	-0.214
-485.435	425.029	0.034	0.072
-484.420	-58.347	-0.207	-0.090
-483.405	150.391	0.160	-0.216
-482.391	183.857	-0.061	-0.090
-481.376	-164.560	-0.027	0.001
-480.362	577.804	0.106	-0.258
-479.347	800.000	0.064	-0.218
-478.332	433.752	-0.140	0.303
-477.318	-200.000	0.005	0.278
-476.303	-200.000	0.095	-0.466
-475.289	345.664	-0.064	-0.125
-474.274	57.944	0.170	0.166
-473.259	-200.000	0.003	-0.263
-472.245	328.597	-0.172	-0.330
-471.230	-144.102	0.326	0.030
-470.216	262.911	-0.190	0.330
-469.201	163.796	-0.128	-0.180
-468.186	-200.000	-0.032	-0.149
-467.172	-200.000	0.059	-0.268
-466.157	328.024	0.127	0.242
-465.143	-22.701	0.236	0.142
-464.128	-87.433	-0.192	-0.058
-463.113	-80.936	0.183	-0.060
-462.099	-97.458	-0.215	-0.056
-461.084	650.529	-0.069	0.176
-460.070	-200.000	0.082	-0.407
-459.055	800.000	0.087	-0.272
-458.040	-144.802	0.394	0.036
-457.026	-69.281	-0.577	0.221
-456.011	-96.904	0.058	0.015
-454.997	250.518	0.136	-0.229
-453.982	167.239	-0.136	0.192
-452.968	-175.603	-0.397	0.011
-451.953	-200.000	0.019	0.133
-450.938	117.500	0.150	-0.184
-449.924	22.181	0.226	0.184
-448.909	50.944	-0.251	0.237
-447.895	39.843	-0.128	0.115
-446.880	-87.264	-0.236	0.071
-445.865	496.363	0.182	-0.417
-444.851	-200.000	0.060	0.457
-443.836	117.633	-0.111	0.136
-442.822	37.403	0.126	0.111
-441.807	143.435	-0.265	0.351
-440.792	-70.068	-0.230	-0.087
-439.778	105.228	0.209	-0.246
-438.763	800.000	-0.092	0.356
-437.749	-60.758	0.155	0.065
-436.734	-125.303	-0.150	-0.023
-435.719	-50.436	0.159	-0.075
-434.705	92.242	-0.046	-0.052
-433.690	249.436	-0.136	-0.230
-432.676	13.770	-0.234	0.181
-431.661	-200.000	0.019	0.243
-430.646	39.462	-0.128	0.114
-429.632	71.234	-0.164	-0.169
-428.617	3.054	-0.423	0.306
-427.603	-200.000	0.007	0.290
-426.588	-69.356	0.268	0.102
-425.573	217.585	-0.192	-0.304
-424.559	-17.592	-0.212	-0.133
-423.544	800.000	0.085	-0.255
-422.530	517.997	0.097	0.227
-421.515	-200.000	-0.024	-0.112
-420.500	35.631	-0.137	-0.120
-419.486	800.000	0.017	0.067
-418.471	35.780	0.109	0.096
-417.457	60.324	0.065	0.064
-416.442	-37.368	0.323	0.172
-415.428	-119.808	0.041	0.007
-414.413	-134.883	0.330	-0.040
-413.398	271.015	0.111	-0.194
-412.384	-172.672	-0.101	0.003
-411.369	-8.763	-0.314	-0.209
-410.355	-200.000	-0.060	0.417
-409.340	147.588	-0.163	0.218
-408.325	-27.552	0.081	0.047
-407.311	-155.705	0.281	0.018
-406.296	-170.529	-0.128	-0.004
-405.282	439.884	-0.042	0.092
-404.267	-113.460	0.063	0.012
-403.252	800.000	-0.034	-0.128
-402.238	-172.537	-0.216	-0.007
-401.223	-33.463	-0.142	-0.078
-400.209	-95.561	-0.307	0.082
-399.194	-89.301	-0.185	-0.054
-398.179	-22.978	-0.189	-0.113
-397.165	-152.935	-0.209	0.015
-396.150	180.580	0.079	-0.115
-395.136	730.835	0.083	-0.219
-394.121	42.506	0.132	0.120
-393.106	-13.993	0.123	-0.079
-392.092	800.000	-0.044	0.132
-391.077	-78.481	-0.292	-0.099
-390.063	-83.423	-0.113	0.036
-389.048	1.845	-0.122	0.087
-388.033	191.930	0.096	-0.143
-387.019	-143.209	-0.323	-0.031
-386.004	-200.000	-0.041	0.354
-384.990	-112.950	-0.087	0.017
-383.975	219.268	-0.067	0.106
-382.960	-170.495	0.112	-0.004
-381.946	-51.814	0.205	-0.095
-380.931	44.863	-0.072	0.066
-379.917	251.049	0.058	-0.097
-378.902	800.000	0.173	-0.619
-377.888	-200.000	-0.015	-0.395
-376.873	-148.501	-0.190	0.015
-375.858	-38.400	0.160	-0.084
-374.844	800.000	-0.098	-0.320
-373.829	144.770	0.117	-0.155
-372.815	41.420	-0.096	0.086
-371.800	-63.015	0.103	0.042
-370.785	8.555	-0.204	0.152
-369.771	-200.000	0.003	0.047
-368.756	75.082	0.039	0.040
-367.742	168.391	0.039	-0.055
-366.727	-30.597	0.248	0.139
-365.712	160.478	-0.075	-0.104
-364.698	-21.377	-0.038	-0.023
-363.683	472.123	0.054	-0.121
-362.669	-141.510	-0.191	0.019
-361.654	419.647	0.236	0.501
-360.639	-200.000	0.018	0.161
-359.625	-200.000	0.025	-0.135
-358.610	-200.000	0.034	0.229
-357.596	-200.000	-0.017	-0.172
-356.581	289.980	0.025	0.046
-355.566	433.587	0.087	-0.188
-354.552	83.666	0.049	-0.053
-353.537	14.947	0.216	-0.167
-352.523	93.498	0.103	-0.115
-351.508	-62.405	0.251	0.103
-350.493	-106.567	0.284	0.063
-349.479	-135.883	-0.109	0.013
-348.464	800.000	-0.033	0.137
-347.450	800.000	-0.031	0.100
-346.435	-142.047	0.159	-0.016
-345.420	-13.627	-0.097	-0.062
-344.406	800.000	-0.059	0.195
-343.391	13.571	0.174	-0.134
-342.377	144.864	0.129	-0.171
-341.362	-4.683	0.055	-0.037
-340.348	800.000	-0.034	-0.112
-339.333	800.000	0.021	0.091
-338.318	-136.963	0.181	0.021
-337.304	552.750	0.074	-0.175
-336.289	309.467	-0.084	-0.155
-335.275	800.000	0.129	0.467
-334.260	106.109	-0.149	-0.174
-333.245	74.830	0.223	0.232
-332.231	-146.402	-0.353	-0.031
-331.216	-200.000	-0.022	-0.172
-330.202	-191.756	0.029	0.000
-329.187	563.104	0.022	0.053
-328.172	374.283	0.153	0.309
-327.158	-200.000	0.019	-0.262
-326.143	28.525	-0.227	0.190
-325.129	-35.302	-0.077	0.042
-324.114	-63.670	-0.131	0.053
-323.099	-118.667	0.331	-0.058
-322.085	-107.641	-0.341	0.074
-321.070	144.269	-0.144	0.191
-320.056	-200.000	-0.004	0.322
-319.041	-52.679	-0.241	-0.110
-318.026	-182.083	-0.047	0.001
-317.012	223.424	-0.258	-0.413
-315.997	473.239	-0.114	-0.255
-314.983	-200.000	-0.034	-0.312
-313.968	61.067	0.036	0.035
-312.953	-200.000	0.032	0.170
-311.939	-120.547	0.031	0.005
-310.924	-20.768	0.007	-0.004
-309.910	-200.000	-0.010	-0.093
-308.895	-200.000	0.071	0.323
-307.880	651.593	-0.057	-0.145
-306.866	341.672	-0.048	-0.093
-305.851	-19.243	-0.198	-0.121
-304.837	-33.763	0.245	-0.134
-303.822	-89.366	-0.219	0.064
-302.807	287.588	0.134	0.240
-301.793	-87.054	-0.268	0.081
-300.778	-6.849	-0.269	-0.181
-299.764	613.456	0.041	0.101
-298.749	-124.677	0.219	0.034
-297.735	-173.626	0.115	0.003
-296.720	-35.574	0.097	0.052
-295.705	330.047	0.048	0.092
-294.691	700.346	0.034	-0.089
-293.676	-56.911	0.291	-0.127
-292.662	423.151	0.114	-0.242
-291.647	800.000	-0.071	-0.251
-290.632	44.700	-0.153	0.139
-289.618	-70.379	0.070	-0.026
-288.603	-200.000	0.000	-0.062
-287.589	800.000	0.011	-0.032
-286.574	285.282	0.079	0.141
-285.559	30.514	0.009	-0.007
-284.545	-27.718	-0.164	-0.094
-283.530	-174.163	-0.113	0.003
-282.516	-77.803	0.220	-0.075
-281.501	-104.075	0.267	0.062
-280.486	-6.308	0.068	-0.046
-279.472	-32.277	0.251	0.139
-278.457	-200.000	-0.015	0.192
-277.443	800.000	-0.036	-0.105
-276.428	-40.436	0.169	0.087
-275.413	-200.000	-0.012	0.236
-274.399	-11.469	-0.110	0.072
-273.384	34.836	-0.157	0.136
-272.370	693.907	0.118	0.307
-271.355	-76.173	0.294	-0.103
-270.340	-103.626	-0.248	-0.057
-269.326	-103.982	0.088	0.020
-268.311	177.123	-0.127	-0.183
-267.297	290.666	-0.155	-0.278
-266.282	-70.869	-0.025	0.009
-265.267	800.000	0.033	-0.098
-264.253	41.656	0.161	0.144
-263.238	-49.670	0.243	-0.114
-262.224	-133.957	0.441	0.054
-261.209	59.603	-0.275	0.268
-260.195	-22.529	0.250	-0.150
-259.180	-200.000	0.023	0.168
-258.165	327.831	-0.163	-0.308
-257.151	253.590	-0.071	-0.120
-256.136	800.000	0.069	0.259
-255.122	367.981	-0.043	0.086
-254.107	-94.400	-0.272	0.073
-253.092	-200.000	-0.003	-0.030
-252.078	158.022	0.084	0.115
-251.063	245.361	0.137	0.228
-250.049	295.640	0.074	0.133
-249.034	50.026	0.229	0.214
-248.019	99.261	0.068	0.078
-247.005	-51.847	-0.072	0.033
-245.990	-147.240	0.095	-0.008
-244.976	-88.153	0.083	-0.025
-243.961	800.000	0.019	0.071
-242.946	800.000	-0.094	0.321
-241.932	18.262	0.048	-0.038
-240.917	-200.000	-0.041	-0.205
-239.903	-200.000	0.063	0.373
-238.888	-200.000	0.025	0.559
-237.873	57.200	0.278	0.268
-236.859	141.834	0.109	-0.143
-235.844	-122.785	-0.290	0.046
-234.830	-148.424	0.289	0.023
-233.815	-127.145	0.345	-0.050
-232.800	800.000	-0.069	-0.288
-231.786	32.198	0.140	-0.119
-230.771	800.000	0.107	0.375
-229.757	171.384	0.084	0.119
-228.742	-200.000	0.019	-0.097
-227.727	58.483	-0.041	0.040
-226.713	-200.000	0.033	0.185
-225.698	-107.291	0.097	0.021
-224.684	177.631	0.125	0.179
-223.669	-89.495	-0.304	-0.088
-222.655	800.000	0.062	-0.241
-221.640	-200.000	-0.044	-0.222
-220.625	-200.000	-0.033	0.284
-219.611	200.157	-0.052	0.079
-218.596	28.840	-0.130	-0.109
-217.582	1.352	-0.165	-0.117
-216.567	271.923	-0.057	-0.100
-215.552	-35.798	-0.062	-0.033
-214.538	43.087	-0.130	-0.117
-213.523	-133.983	-0.203	0.025
-212.509	-117.268	-0.262	-0.047
-211.494	-200.000	-0.014	-0.213
-210.479	-80.431	-0.175	-0.058
-209.465	-57.976	-0.156	-0.067
-208.450	800.000	0.098	-0.317
-207.436	-200.000	-0.019	0.194
-206.421	27.511	0.284	-0.236
-205.406	-59.652	0.150	0.064
-204.392	41.070	0.206	-0.183
-203.377	800.000	0.105	0.451
-202.363	800.000	-0.071	-0.256
-201.348	-200.000	0.065	0.284
-200.333	162.447	-0.127	0.176
-199.319	-43.381	-0.202	0.101
-198.304	31.691	0.089	-0.075
-197.290	-160.044	-0.336	-0.018
-196.275	-84.187	0.168	-0.053
-195.260	-200.000	0.013	-0.064
-194.246	-127.785	-0.576	0.082
-193.231	42.602	0.064	-0.057
-192.217	9.882	0.330	-0.247
-191.202	-200.000	0.062	-0.298
-190.187	219.795	0.133	-0.210
-189.173	-200.000	-0.006	-0.272
-188.158	4.161	0.200	-0.144
-187.144	259.184	-0.055	0.094
-186.129	43.543	-0.085	-0.077
-185.114	-56.569	0.200	-0.087
-184.100	-200.000	-0.010	-0.109
-183.085	333.037	0.107	-0.204
-182.071	182.103	0.105	0.153
-181.056	800.000	0.036	0.124
-180.042	30.025	0.157	-0.131
-179.027	-200.000	0.040	-0.361
-178.012	668.828	0.092	-0.233
-176.998	329.298	-0.066	-0.124
-175.983	-200.000	0.020	0.089
-174.969	74.238	-0.228	-0.236
-173.954	-117.325	0.131	0.023
-172.939	64.248	0.137	0.136
-171.925	-87.471	-0.121	0.036
-170.910	52.107	-0.209	0.196
-169.896	70.220	0.147	0.150
-168.881	330.111	-0.046	0.088
-167.866	-55.995	0.234	0.103
-166.852	-166.972	0.093	0.004
-165.837	-111.866	0.157	-0.031
-164.823	-106.098	0.170	0.038
-163.808	100.543	0.126	0.144
-162.793	-87.826	-0.224	-0.067
-161.779	800.000	0.042	0.132
-160.764	-115.139	0.137	-0.026
-159.750	164.791	-0.114	-0.158
-158.735	106.608	-0.156	-0.182
-157.720	-149.303	0.244	-0.019
-156.706	-99.207	0.129	0.032
-155.691	113.219	0.126	0.151
-154.677	-200.000	-0.041	-0.365
-153.662	17.699	0.197	0.154
-152.647	-200.000	0.025	0.186
-151.633	602.405	-0.054	0.132
-150.618	12.396	-0.251	0.191
-149.604	-200.000	-0.100	0.479
-148.589	0.489	-0.237	-0.166
-147.574	-75.028	-0.109	0.039
-146.560	-130.393	0.134	-0.018
-145.545	-46.485	0.285	0.138
-144.531	-200.000	-0.011	0.211
-143.516	-200.000	0.170	0.000
-142.502	-200.000	0.020	0.281
-141.487	-88.896	0.130	-0.038
-140.472	-19.083	-0.198	0.121
-139.458	-14.336	0.044	-0.028
-138.443	-50.664	-0.211	0.098
-137.429	142.657	-0.084	-0.110
-136.414	454.453	-0.033	0.073
-135.399	-200.000	-0.027	0.316
-134.385	-200.000	-0.020	0.094
-133.370	520.809	0.195	0.450
-132.356	165.463	0.122	0.169
-131.341	24.200	0.259	0.211
-130.326	-59.593	-0.162	0.068
-129.312	398.553	-0.103	-0.211
-128.297	-200.000	0.008	0.306
-127.283	39.058	0.266	0.234
-126.268	30.730	-0.083	-0.070
-125.253	-63.377	0.331	0.134
-124.239	180.946	0.187	0.270
-123.224	-200.000	-0.048	-0.219
-122.210	-200.000	0.020	-0.101
-121.195	151.724	-0.221	0.296
