DTS Sentinel unit serial number:	SN413079Multiplexer serial number:	ORYXHardware model number:	OX4-SRSoftware version number:	ORYX F/W v4.00 Oryx Data Collector v3.7.2.0data status	okinstallation	princeton_trtdifferential loss correction	single-endedforward channel	channel 4reverse channel	N/Adate	2019/09/12time	10:39:11forward acquisition time	60.00reverse acquisition time	0.00gamma	496.2192k internal	0.2294k external	0.2294temperature offset calibration	1.0063default loss term (dB/km)	0.3790temperature slope calibration	1.0000multiplexer offset coefficient	1.0000multiplexer slope coefficient	1.0000fibre end	0.00T internal ref (°C)	37.44T ext. ref 1 (°C)	1.88T ext. ref 2 (°C)	35.81length (m)	temperature (°C)	Stokes	anti-Stokes-747.200	55.665	0.336	0.333
-746.185	-11.460	0.147	0.099
-745.171	-49.929	0.322	0.156
-744.156	-50.548	-0.359	0.173
-743.142	-200.000	0.037	0.245
-742.127	732.029	-0.099	0.272
-741.112	-200.000	0.017	-0.175
-740.098	-150.615	0.175	-0.014
-739.083	-200.000	-0.032	0.345
-738.069	-200.000	0.014	0.389
-737.054	-23.757	-0.021	0.013
-736.039	800.000	-0.064	-0.192
-735.025	302.271	-0.118	-0.224
-734.010	-200.000	-0.006	-0.202
-732.996	32.761	-0.127	-0.113
-731.981	96.377	0.096	-0.113
-730.966	-53.570	-0.068	-0.032
-729.952	185.524	0.102	-0.155
-728.937	-37.580	-0.218	-0.119
-727.923	-200.000	0.026	0.231
-726.908	425.619	0.057	-0.124
-725.894	6.968	-0.125	-0.096
-724.879	800.000	0.041	0.150
-723.864	102.569	-0.186	-0.222
-722.850	26.571	0.323	-0.276
-721.835	-23.210	0.112	-0.069
-720.821	-124.052	-0.243	-0.039
-719.806	-162.521	-0.553	-0.028
-718.791	-200.000	0.040	0.345
-717.777	-200.000	0.005	-0.120
-716.762	172.820	-0.169	0.249
-715.748	165.105	-0.118	-0.170
-714.733	-170.314	0.238	0.009
-713.718	6.789	0.276	-0.210
-712.704	-102.822	-0.556	-0.135
-711.689	-25.902	-0.089	-0.053
-710.675	-200.000	0.003	-0.146
-709.660	800.000	-0.087	0.259
-708.645	-26.540	0.222	-0.133
-707.631	96.908	-0.066	0.077
-706.616	-200.000	-0.011	-0.271
-705.602	72.793	0.083	-0.089
-704.587	-7.311	-0.266	0.184
-703.572	36.375	0.070	0.063
-702.558	126.915	0.099	0.128
-701.543	-15.783	-0.148	0.096
-700.529	-2.428	-0.126	0.090
-699.514	292.690	-0.079	0.146
-698.499	536.529	0.022	0.053
-697.485	-163.319	0.261	0.013
-696.470	800.000	0.030	0.114
-695.456	-200.000	0.000	0.076
-694.441	-200.000	0.012	0.121
-693.426	-159.297	-0.228	0.013
-692.412	-86.817	-0.243	0.076
-691.397	-59.093	0.425	-0.187
-690.383	23.288	0.248	0.208
-689.368	-20.511	0.195	-0.122
-688.354	-200.000	0.035	-0.177
-687.339	205.889	-0.176	0.279
-686.324	-134.316	0.464	-0.058
-685.310	238.886	0.073	-0.124
-684.295	83.093	0.216	0.239
-683.281	87.800	0.062	-0.071
-682.266	133.382	0.175	-0.231
-681.251	-200.000	0.094	0.462
-680.237	6.027	-0.062	-0.047
-679.222	149.208	0.170	0.234
-678.208	99.551	-0.148	0.175
-677.193	-122.017	0.125	-0.021
-676.178	-200.000	-0.004	0.091
-675.164	-200.000	-0.051	0.336
-674.149	-139.369	-0.343	-0.038
-673.135	-0.964	0.156	-0.113
-672.120	-150.413	-0.180	-0.014
-671.105	-200.000	-0.014	-0.255
-670.091	-200.000	0.073	-0.338
-669.076	-49.222	0.153	0.075
-668.062	119.524	-0.151	0.190
-667.047	186.557	-0.053	-0.081
-666.032	291.770	-0.092	0.171
-665.018	-200.000	0.007	0.301
-664.003	41.783	-0.284	-0.262
-662.989	-128.551	0.200	0.029
-661.974	315.056	0.096	0.185
-660.959	-200.000	0.037	-0.278
-659.945	58.346	0.273	0.273
-658.930	-108.938	0.186	0.040
-657.916	800.000	-0.057	0.161
-656.901	-113.956	-0.127	0.025
-655.886	133.652	0.118	-0.155
-654.872	800.000	-0.176	0.536
-653.857	-200.000	-0.011	-0.187
-652.843	291.929	-0.142	0.264
-651.828	116.647	-0.077	0.096
-650.814	-189.746	-0.304	0.004
-649.799	-115.705	0.570	-0.109
-648.784	-114.324	-0.228	0.045
-647.770	-84.432	-0.238	0.077
-646.755	767.433	-0.128	-0.354
-645.741	-71.715	0.129	-0.049
-644.726	-31.571	-0.222	-0.127
-643.711	-2.858	-0.094	0.067
-642.697	-121.707	0.253	0.043
-641.682	85.192	0.034	0.038
-640.668	-76.570	-0.081	-0.029
-639.653	-44.285	-0.242	-0.123
-638.638	-200.000	0.000	0.122
-637.624	-93.332	0.250	0.071
-636.609	104.606	0.226	0.271
-635.595	-30.419	0.092	0.053
-634.580	170.373	0.136	-0.199
-633.565	-15.367	0.259	0.169
-632.551	-200.000	0.019	0.248
-631.536	-200.000	-0.002	-0.104
-630.522	159.551	0.156	-0.221
-629.507	101.093	-0.279	-0.331
-628.492	-200.000	0.030	0.165
-627.478	-124.394	-0.146	0.023
-626.463	-200.000	-0.072	0.356
-625.449	-85.708	0.266	0.084
-624.434	-200.000	0.041	0.277
-623.419	800.000	-0.011	0.036
-622.405	-22.901	-0.321	0.197
-621.390	-188.591	-0.278	0.004
-620.376	-120.397	0.148	0.026
-619.361	144.594	-0.165	0.224
-618.346	-200.000	0.026	-0.205
-617.332	125.105	-0.157	-0.202
-616.317	-90.316	-0.225	-0.066
-615.303	800.000	-0.100	0.352
-614.288	69.001	-0.207	-0.216
-613.273	-200.000	0.019	0.135
-612.259	-21.840	0.156	-0.097
-611.244	-25.226	-0.574	-0.346
-610.230	-200.000	0.012	0.160
-609.215	274.242	-0.073	0.132
-608.201	-97.990	0.189	-0.050
-607.186	-171.722	-0.122	0.004
-606.171	-200.000	0.054	-0.264
-605.157	-20.795	-0.170	-0.106
-604.142	800.000	0.120	-0.361
-603.128	-167.775	-0.072	-0.003
-602.113	-31.987	0.078	0.044
-601.098	-111.149	0.049	-0.010
-600.084	-200.000	0.034	0.210
-599.069	-152.228	0.362	0.027
-598.055	-21.235	0.095	0.059
-597.040	-200.000	-0.053	0.264
-596.025	-121.461	-0.225	-0.038
-595.011	-75.903	0.224	-0.081
-593.996	122.360	0.070	0.089
-592.982	-26.067	0.082	0.049
-591.967	-75.226	-0.334	0.121
-590.952	-39.396	0.253	0.135
-589.938	-74.900	-0.115	-0.042
-588.923	-111.945	0.204	0.042
-587.909	-11.103	0.081	-0.055
-586.894	11.533	-0.020	-0.015
-585.879	-77.062	0.080	-0.028
-584.865	800.000	-0.112	-0.393
-583.850	301.493	0.060	-0.112
-582.836	-200.000	-0.004	-0.062
-581.821	-74.245	-0.143	0.053
-580.806	157.651	-0.151	0.212
-579.792	-125.482	0.240	-0.037
-578.777	211.229	0.096	-0.153
-577.763	-146.813	-0.224	-0.020
-576.748	56.960	-0.064	-0.064
-575.733	442.692	-0.083	-0.185
-574.719	-137.336	-0.150	0.017
-573.704	800.000	0.054	0.215
-572.690	-57.574	0.305	-0.136
-571.675	21.094	-0.109	-0.089
-570.661	-153.688	0.336	0.024
-569.646	142.886	-0.068	0.092
-568.631	138.394	-0.140	0.186
-567.617	775.760	-0.090	0.251
-566.602	449.893	-0.112	-0.250
-565.588	-124.364	-0.135	0.021
-564.573	800.000	-0.061	0.186
-563.558	-154.080	0.377	-0.026
-562.544	234.144	-0.155	0.260
-561.529	170.719	-0.062	0.090
-560.515	266.916	0.154	0.274
-559.500	43.026	-0.186	0.173
-558.485	-114.393	-0.086	0.017
-557.471	209.578	-0.083	0.132
-556.456	27.651	0.247	-0.211
-555.442	-200.000	0.009	-0.199
-554.427	-51.418	0.320	0.152
-553.412	-200.000	-0.046	-0.211
-552.398	-28.000	0.328	-0.193
-551.383	-136.716	0.235	0.028
-550.369	407.185	0.102	0.218
-549.354	-37.129	0.093	-0.050
-548.339	-60.867	0.292	0.125
-547.325	55.528	-0.192	-0.189
-546.310	-119.095	0.119	-0.021
-545.296	-35.671	0.154	0.085
-544.281	-114.645	0.316	0.061
-543.266	-200.000	-0.005	-0.035
-542.252	670.851	0.060	0.158
-541.237	417.848	-0.107	-0.233
-540.223	388.705	-0.048	0.100
-539.208	-200.000	0.024	-0.209
-538.193	120.160	-0.107	0.134
-537.179	-200.000	-0.003	0.105
-536.164	-200.000	0.019	-0.132
-535.150	-200.000	0.001	0.037
-534.135	-153.022	-0.113	0.008
-533.121	-6.485	-0.269	-0.186
-532.106	6.355	-0.238	-0.179
-531.091	-200.000	0.030	0.332
-530.077	-77.206	0.257	-0.091
-529.062	134.723	-0.127	0.167
-528.048	-104.424	-0.208	-0.049
-527.033	181.168	-0.130	0.194
-526.018	-143.074	0.058	0.006
-525.004	-62.611	0.233	0.098
-523.989	45.710	0.257	-0.240
-522.975	-87.990	-0.100	0.031
-521.960	-15.620	0.270	-0.175
-520.945	179.326	-0.237	0.352
-519.931	13.947	-0.393	-0.310
-518.916	800.000	-0.033	-0.130
-517.902	800.000	0.097	0.428
-516.887	129.167	0.014	0.018
-515.872	-170.338	0.110	-0.004
-514.858	800.000	0.053	0.171
-513.843	8.425	-0.114	-0.087
-512.829	115.956	0.045	0.056
-511.814	103.897	-0.204	-0.243
-510.799	43.032	0.224	0.207
-509.785	800.000	0.085	0.286
-508.770	-174.954	-0.245	0.007
-507.756	417.244	-0.150	0.324
-506.741	101.132	0.227	0.267
-505.726	158.981	-0.257	0.362
-504.712	29.882	-0.132	0.114
-503.697	-200.000	-0.009	0.186
-502.683	769.351	0.089	0.246
-501.668	-134.470	0.185	0.023
-500.653	-126.849	0.234	0.035
-499.639	-78.663	-0.269	0.093
-498.624	188.300	0.132	0.199
-497.610	-69.495	-0.203	0.079
-496.595	66.876	-0.177	-0.183
-495.581	-200.000	-0.009	-0.284
-494.566	140.079	0.140	0.188
-493.551	-151.492	0.285	-0.021
-492.537	-110.788	-0.398	0.083
-491.522	-2.057	0.245	0.175
-490.508	-28.851	-0.070	0.040
-489.493	-64.835	-0.230	-0.094
-488.478	63.518	-0.271	-0.276
-487.464	-200.000	0.068	-0.305
-486.449	213.625	0.075	-0.120
-485.435	45.965	0.119	0.111
-484.420	-71.541	-0.063	-0.024
-483.405	335.217	0.133	0.260
-482.391	88.545	0.104	0.117
-481.376	545.599	0.080	0.194
-480.362	-151.971	0.150	0.011
-479.347	177.382	-0.074	0.109
-478.332	156.635	0.084	-0.118
-477.318	115.234	-0.196	0.242
-476.303	63.600	-0.224	0.228
-475.289	-168.191	0.364	-0.014
-474.274	-55.432	-0.210	-0.095
-473.259	180.073	0.220	-0.326
-472.245	128.455	0.228	-0.294
-471.230	-54.194	-0.193	-0.089
-470.216	-122.579	-0.567	-0.093
-469.201	-13.319	-0.221	-0.145
-468.186	-200.000	0.013	-0.251
-467.172	192.195	0.094	-0.143
-466.157	-178.761	-0.405	-0.009
-465.143	-28.994	0.206	-0.120
-464.128	-200.000	0.008	-0.082
-463.113	-10.974	-0.225	-0.151
-462.099	-127.730	-0.047	0.007
-461.084	380.273	-0.095	0.197
-460.070	-162.807	0.228	0.011
-459.055	-30.904	0.163	-0.093
-458.040	82.653	0.075	-0.083
-457.026	189.446	-0.124	0.187
-456.011	-200.000	-0.007	-0.154
-454.997	800.000	-0.022	-0.084
-453.982	103.220	0.299	0.354
-452.968	-49.682	0.090	0.043
-451.953	-200.000	0.017	-0.082
-450.938	-188.924	0.223	-0.003
-449.924	-200.000	0.015	0.195
-448.909	-200.000	0.029	0.156
-447.895	-140.558	0.109	0.011
-446.880	-200.000	0.007	-0.159
-445.865	162.161	-0.076	0.108
-444.851	800.000	-0.054	-0.159
-443.836	-52.440	0.023	-0.011
-442.822	5.260	0.153	-0.114
-441.807	-53.646	-0.051	0.023
-440.792	14.240	-0.192	-0.151
-439.778	302.738	-0.067	-0.125
-438.763	40.253	0.148	0.134
-437.749	-14.219	-0.137	0.089
-436.734	-156.446	-0.335	0.021
-435.719	-200.000	0.041	0.255
-434.705	-45.525	0.154	0.077
-433.690	-111.388	-0.160	0.033
-432.676	800.000	-0.083	0.271
-431.661	800.000	0.079	0.350
-430.646	16.996	0.218	-0.174
-429.632	-104.716	0.453	0.105
-428.617	-200.000	-0.008	-0.324
-427.603	48.848	0.204	-0.194
-426.588	31.123	0.146	-0.127
-425.573	-200.000	0.011	-0.166
-424.559	-87.383	-0.097	-0.030
-423.544	800.000	0.028	0.117
-422.530	618.462	-0.042	-0.106
-421.515	-200.000	-0.007	-0.075
-420.500	-138.241	-0.115	-0.013
-419.486	-14.493	0.133	0.086
-418.471	-200.000	-0.024	0.277
-417.457	-8.798	-0.186	-0.126
-416.442	-200.000	0.038	-0.217
-415.428	-25.200	-0.384	0.229
-414.413	-200.000	-0.013	-0.168
-413.398	423.780	-0.036	-0.078
-412.384	800.000	-0.097	0.271
-411.369	689.903	0.036	0.095
-410.355	-83.664	-0.211	0.068
-409.340	-53.573	-0.196	-0.090
-408.325	-77.120	-0.288	-0.101
-407.311	-12.026	-0.083	-0.055
-406.296	-200.000	0.056	-0.331
-405.282	8.331	-0.277	0.210
-404.267	54.595	0.082	-0.079
-403.252	-178.244	-0.449	0.011
-402.238	-129.611	0.097	0.014
-401.223	41.519	-0.267	-0.243
-400.209	100.974	-0.248	-0.291
-399.194	-78.929	0.459	0.158
-398.179	-200.000	0.045	0.284
-397.165	-200.000	0.039	-0.314
-396.150	33.056	-0.042	-0.036
-395.136	497.216	0.092	-0.213
-394.121	800.000	-0.088	-0.327
-393.106	-200.000	-0.029	0.160
-392.092	37.401	-0.212	0.189
-391.077	800.000	-0.070	0.273
-390.063	213.093	-0.079	0.125
-389.048	69.329	0.255	-0.265
-388.033	-22.071	-0.031	0.019
-387.019	118.076	0.039	0.049
-386.004	212.165	-0.035	-0.055
-384.990	-131.044	0.033	-0.004
-383.975	32.557	-0.176	-0.153
-382.960	800.000	-0.073	0.205
-381.946	98.414	0.101	-0.117
-380.931	-200.000	0.017	0.171
-379.917	800.000	-0.071	0.282
-378.902	-98.970	-0.119	0.030
-377.888	-137.610	-0.338	0.038
-376.873	-200.000	-0.024	0.147
-375.858	180.520	0.098	-0.145
-374.844	187.462	-0.252	0.379
-373.829	-193.785	0.168	0.001
-372.815	579.069	0.025	0.062
-371.800	-106.984	-0.272	-0.061
-370.785	14.114	-0.154	-0.121
-369.771	353.459	-0.032	-0.065
-368.756	-133.374	-0.417	0.053
-367.742	93.869	0.075	-0.086
-366.727	-42.984	-0.069	-0.035
-365.712	42.888	0.200	-0.183
-364.698	763.993	0.103	0.281
-363.683	-34.697	-0.208	-0.115
-362.669	94.997	0.035	-0.040
-361.654	-153.743	-0.483	0.033
-360.639	104.136	-0.127	-0.151
-359.625	-155.742	-0.291	-0.019
-358.610	146.515	-0.212	-0.287
-357.596	-200.000	0.008	0.042
-356.581	-200.000	0.005	-0.076
-355.566	-200.000	0.002	0.314
-354.552	-63.342	0.256	0.106
-353.537	-8.103	0.401	0.272
-352.523	-200.000	0.034	-0.191
-351.508	-121.060	0.254	0.043
-350.493	-145.044	0.311	-0.028
-349.479	-106.666	-0.255	-0.057
-348.464	-200.000	0.086	-0.405
-347.450	-200.000	0.036	0.186
-346.435	-45.112	0.233	-0.116
-345.420	108.816	-0.071	-0.085
-344.406	-200.000	-0.032	0.219
-343.391	-200.000	-0.001	-0.029
-342.377	-146.890	0.437	-0.038
-341.362	474.675	-0.148	0.336
-340.348	219.340	-0.068	0.110
-339.333	226.426	-0.078	-0.127
-338.318	280.105	0.031	0.055
-337.304	505.808	0.071	0.165
-336.289	195.987	-0.079	0.121
-335.275	-200.000	-0.264	-0.000
-334.260	-200.000	-0.014	0.124
-333.245	333.697	-0.010	0.020
-332.231	16.597	-0.119	-0.095
-331.216	800.000	-0.065	-0.222
-330.202	-200.000	0.053	-0.561
-329.187	-200.000	0.030	-0.142
-328.172	-200.000	-0.014	0.224
-327.158	-69.199	-0.350	-0.135
-326.143	-102.923	0.210	0.050
-325.129	8.646	0.094	0.071
-324.114	-115.134	-0.216	0.041
-323.099	-23.030	0.125	-0.076
-322.085	-200.000	0.170	-0.000
-321.070	800.000	0.076	0.292
-320.056	401.966	-0.206	0.435
-319.041	-200.000	-0.022	-0.189
-318.026	117.036	-0.133	-0.164
-317.012	-83.198	0.148	-0.048
-315.997	20.417	-0.261	0.212
-314.983	19.077	-0.197	-0.159
-313.968	800.000	0.065	0.270
-312.953	22.518	0.106	-0.087
-311.939	26.465	0.219	-0.184
-310.924	-150.250	-0.293	0.023
-309.910	58.418	0.177	0.175
-308.895	649.090	0.057	-0.146
-307.880	173.769	0.046	-0.067
-306.866	457.858	0.191	-0.427
-305.851	-13.677	0.108	-0.070
-304.837	-168.787	0.056	-0.002
-303.822	667.472	-0.009	0.025
-302.807	111.839	-0.046	0.056
-301.793	225.030	0.097	-0.157
-300.778	800.000	0.113	-0.397
-299.764	772.635	-0.042	-0.114
-298.749	157.699	0.071	-0.099
-297.735	621.040	0.049	-0.123
-296.720	-70.965	-0.184	-0.070
-295.705	-152.525	-0.046	-0.003
-294.691	-59.347	0.293	0.127
-293.676	-8.784	0.285	-0.192
-292.662	50.172	0.098	-0.093
-291.647	-200.000	-0.037	-0.295
-290.632	800.000	-0.052	0.163
-289.618	-200.000	-0.029	-0.228
-288.603	-56.810	0.273	0.121
-287.589	192.015	0.135	-0.205
-286.574	479.743	-0.043	-0.099
-285.559	197.588	-0.064	0.098
-284.545	-200.000	0.068	0.402
-283.530	800.000	-0.043	0.163
-282.516	-200.000	-0.013	-0.098
-281.501	800.000	-0.068	-0.192
-280.486	-32.388	-0.123	-0.069
-279.472	160.823	0.245	0.344
-278.457	-200.000	-0.038	0.442
-277.443	-138.778	-0.235	0.026
-276.428	-200.000	-0.074	-0.374
-275.413	70.770	-0.215	0.223
-274.399	224.758	-0.096	0.157
-273.384	-200.000	0.010	-0.396
-272.370	-200.000	0.040	-0.194
-271.355	-72.221	-0.104	0.039
-270.340	253.720	0.092	0.158
-269.326	-18.642	0.251	0.157
-268.311	800.000	0.015	-0.060
-267.297	800.000	-0.043	-0.159
-266.282	-105.323	0.054	0.012
-265.267	30.818	0.126	-0.108
-264.253	-117.258	0.250	0.046
-263.238	68.614	0.362	-0.373
-262.224	-200.000	0.033	-0.429
-261.209	-200.000	-0.008	-0.127
-260.195	179.439	0.114	0.167
-259.180	150.438	-0.112	0.153
-258.165	-171.782	0.110	-0.004
-257.151	-109.257	-0.516	0.110
-256.136	125.048	0.108	-0.137
-255.122	-86.879	0.142	-0.043
-254.107	-76.042	0.115	0.041
-253.092	-200.000	-0.024	0.156
-252.078	-84.294	0.173	-0.055
-251.063	86.914	-0.138	-0.153
-250.049	30.583	-0.240	-0.206
-249.034	-95.454	0.141	0.038
-248.019	70.374	-0.138	0.143
-247.005	-85.784	0.397	0.123
-245.990	-200.000	-0.021	0.296
-244.976	288.885	0.184	0.334
-243.961	89.111	0.059	0.066
-242.946	-200.000	0.023	-0.288
-241.932	-125.842	-0.100	-0.015
-240.917	461.819	-0.077	-0.172
-239.903	-113.961	-0.139	0.027
-238.888	-91.682	0.197	0.056
-237.873	31.965	0.065	-0.056
-236.859	-50.768	0.246	-0.116
-235.844	214.777	0.012	-0.020
-234.830	282.422	0.136	-0.245
-233.815	-93.366	0.190	0.053
-232.800	451.668	0.083	-0.185
-231.786	61.444	0.077	0.077
-230.771	356.914	0.113	0.226
-229.757	15.165	0.209	0.164
-228.742	105.728	0.318	-0.377
-227.727	-80.185	-0.470	0.158
-226.713	-133.559	0.197	0.025
-225.698	192.095	-0.087	0.131
-224.684	-47.512	-0.088	-0.043
-223.669	-200.000	0.010	-0.048
-222.655	-200.000	0.013	-0.108
-221.640	98.786	0.061	0.071
-220.625	800.000	0.059	-0.259
-219.611	-117.569	-0.241	0.044
-218.596	-200.000	0.046	-0.244
-217.582	-84.746	0.197	0.062
-216.567	-41.094	-0.251	-0.130
-215.552	15.081	0.115	-0.090
-214.538	-133.553	-0.074	0.009
-213.523	186.910	0.101	-0.151
-212.509	35.510	0.024	0.021
-211.494	-98.764	-0.252	-0.064
-210.479	7.826	0.164	0.123
-209.465	238.512	0.132	0.219
-208.450	-108.252	-0.038	-0.008
-207.436	350.573	0.113	0.224
-206.421	-45.102	-0.336	0.168
-205.406	48.641	0.023	0.022
-204.392	211.038	0.072	0.113
-203.377	800.000	0.091	0.287
-202.363	-151.502	0.361	0.027
-201.348	-96.910	0.235	0.062
-200.333	32.837	-0.209	-0.181
-199.319	613.977	0.027	0.067
-198.304	-11.220	0.020	-0.014
-197.290	-200.000	0.001	-0.160
-196.275	-200.000	0.116	-0.599
-195.260	-130.795	-0.108	0.014
-194.246	-200.000	-0.034	0.165
-193.231	-200.000	-0.064	-0.288
-192.217	315.040	0.114	0.215
-191.202	110.223	0.199	0.240
-190.187	-29.270	-0.046	-0.026
-189.173	145.425	0.102	0.136
-188.158	-146.534	0.228	0.020
-187.144	800.000	0.078	-0.230
-186.129	-58.623	0.320	0.139
-185.114	7.567	0.106	-0.079
-184.100	732.172	0.214	0.571
-183.085	-81.039	0.141	-0.047
-182.071	-60.933	0.164	-0.070
-181.056	-140.567	-0.120	-0.013
-180.042	-62.787	-0.174	-0.072
-179.027	484.065	0.011	0.024
-178.012	-200.000	0.012	0.264
-176.998	-200.000	0.057	-0.304
-175.983	266.239	-0.096	-0.168
-174.969	3.027	0.084	-0.061
-173.954	52.789	-0.078	0.074
-172.939	138.475	-0.058	-0.076
-171.925	-200.000	0.044	-0.393
-170.910	-20.975	-0.241	-0.148
-169.896	-82.151	-0.253	0.083
-168.881	250.847	-0.015	-0.025
-167.866	-81.616	-0.064	-0.021
-166.852	-200.000	0.002	-0.076
-165.837	-119.081	-0.436	-0.076
-164.823	-15.527	-0.260	-0.166
-163.808	-56.157	0.291	-0.129
-162.793	124.736	0.078	-0.098
-161.779	-151.683	0.137	-0.010
-160.764	7.372	-0.204	0.153
-159.750	800.000	-0.005	-0.015
-158.735	-200.000	-0.074	0.473
-157.720	800.000	-0.030	0.105
-156.706	800.000	-0.063	0.215
-155.691	-7.410	-0.241	-0.163
-154.677	160.599	-0.179	0.249
-153.662	800.000	0.051	-0.144
-152.647	-200.000	0.032	-0.244
-151.633	450.667	-0.079	0.174
-150.618	93.988	-0.114	0.129
-149.604	69.728	-0.189	0.195
-148.589	672.979	0.089	0.231
-147.574	-200.000	-0.073	-0.332
-146.560	-158.632	0.172	0.010
-145.545	503.382	0.051	0.118
-144.531	-3.236	0.041	-0.029
-143.516	75.407	0.104	-0.110
-142.502	-35.928	0.071	-0.038
-141.487	103.011	-0.257	0.301
-140.472	139.085	0.107	0.140
-139.458	583.723	0.108	0.264
-138.443	113.772	-0.096	0.116
-137.429	-200.000	-0.034	0.252
-136.414	148.639	-0.100	0.135
-135.399	-144.609	-0.053	-0.005
-134.385	-200.000	0.024	0.193
-133.370	-26.702	0.341	0.199
-132.356	-200.000	-0.044	-0.227
-131.341	-91.885	-0.438	-0.124
-130.326	186.471	0.132	0.196
-129.312	12.458	-0.272	-0.210
-128.297	-138.426	-0.161	0.018
-127.283	-145.810	-0.345	0.031
-126.268	800.000	-0.032	0.100
-125.253	-200.000	-0.007	0.229
-124.239	150.071	0.074	-0.100
-123.224	-107.279	0.105	-0.023
-122.210	-120.270	0.123	-0.021
