DTS Sentinel unit serial number:	SN413079Multiplexer serial number:	ORYXHardware model number:	OX4-SRSoftware version number:	ORYX F/W v4.00 Oryx Data Collector v3.7.2.0data status	okinstallation	princeton_trtdifferential loss correction	single-endedforward channel	channel 4reverse channel	N/Adate	2019/09/13time	13:33:35forward acquisition time	60.00reverse acquisition time	0.00gamma	496.2192k internal	0.2297k external	0.2297temperature offset calibration	1.0213default loss term (dB/km)	0.3790temperature slope calibration	1.0000multiplexer offset coefficient	1.0000multiplexer slope coefficient	1.0000fibre end	0.00T internal ref (°C)	35.06T ext. ref 1 (°C)	4.57T ext. ref 2 (°C)	31.17length (m)	temperature (°C)	Stokes	anti-Stokes-747.200	-156.623	-0.226	0.014
-746.185	522.669	-0.076	0.182
-745.171	249.705	0.039	0.068
-744.156	-49.494	0.251	0.122
-743.142	800.000	0.088	-0.268
-742.127	800.000	-0.058	0.179
-741.112	800.000	-0.040	-0.148
-740.098	40.673	0.139	0.128
-739.083	-150.014	0.053	0.004
-738.069	-200.000	0.063	0.308
-737.054	327.467	-0.211	0.414
-736.039	800.000	-0.066	-0.258
-735.025	33.954	0.086	0.076
-734.010	-92.087	-0.353	0.102
-732.996	-24.402	0.110	0.067
-731.981	800.000	0.081	0.251
-730.966	-200.000	0.002	-0.312
-729.952	-200.000	-0.007	0.046
-728.937	-96.033	-0.206	0.056
-727.923	800.000	-0.050	0.207
-726.908	800.000	-0.092	-0.284
-725.894	79.722	-0.243	-0.266
-724.879	-122.147	-0.033	-0.005
-723.864	162.738	0.181	-0.259
-722.850	337.294	0.131	-0.259
-721.835	137.620	-0.301	-0.402
-720.821	-22.004	0.113	0.070
-719.806	-59.839	0.175	-0.077
-718.791	800.000	0.036	0.117
-717.777	-39.264	-0.240	-0.128
-716.762	-116.060	-0.280	-0.053
-715.748	-200.000	-0.002	-0.009
-714.733	155.543	-0.092	0.130
-713.718	-200.000	-0.021	0.300
-712.704	-33.920	0.230	0.129
-711.689	-200.000	-0.018	-0.085
-710.675	-200.000	0.077	-0.380
-709.660	102.019	-0.195	-0.232
-708.645	154.474	0.101	-0.141
-707.631	166.541	-0.177	0.256
-706.616	-200.000	0.015	-0.279
-705.602	-200.000	-0.004	-0.062
-704.587	-200.000	0.003	-0.174
-703.572	800.000	-0.097	-0.334
-702.558	-140.438	0.156	-0.017
-701.543	43.606	0.141	-0.132
-700.529	-46.959	-0.163	0.081
-699.514	800.000	-0.043	-0.139
-698.499	366.062	0.083	0.171
-697.485	-92.178	-0.147	-0.042
-696.470	37.905	-0.305	-0.277
-695.456	196.102	0.165	-0.256
-694.441	-45.296	0.133	-0.067
-693.426	51.055	0.098	-0.095
-692.412	-200.000	-0.028	-0.225
-691.397	5.006	-0.086	-0.064
-690.383	13.819	-0.070	0.056
-689.368	-52.314	0.204	-0.097
-688.354	619.034	-0.096	-0.246
-687.339	-140.867	0.156	-0.016
-686.324	-45.977	0.337	0.169
-685.310	8.295	0.202	-0.154
-684.295	-126.008	0.171	-0.026
-683.281	300.773	0.142	-0.267
-682.266	251.496	0.104	-0.180
-681.251	218.035	0.177	0.287
-680.237	256.483	-0.060	-0.105
-679.222	-186.042	0.344	0.005
-678.208	-54.778	-0.280	-0.129
-677.193	503.595	-0.153	-0.359
-676.178	-200.000	-0.001	-0.227
-675.164	-200.000	0.004	-0.106
-674.149	223.185	-0.099	-0.163
-673.135	91.284	0.167	-0.191
-672.120	800.000	-0.043	-0.141
-671.105	-126.589	-0.443	-0.067
-670.091	38.754	0.274	-0.250
-669.076	800.000	-0.020	-0.085
-668.062	91.527	-0.253	-0.289
-667.047	-165.546	-0.073	0.003
-666.032	-7.116	0.069	0.048
-665.018	531.891	0.192	-0.463
-664.003	800.000	-0.076	-0.229
-662.989	-169.844	0.070	-0.003
-661.974	26.543	0.081	-0.069
-660.959	800.000	-0.024	-0.084
-659.945	800.000	-0.121	-0.437
-658.930	-53.515	0.325	0.152
-657.916	204.522	0.162	0.255
-656.901	-141.101	0.337	0.035
-655.886	750.954	-0.122	0.335
-654.872	-18.188	0.396	0.252
-653.857	-200.000	0.063	-0.284
-652.843	-200.000	0.001	-0.033
-651.828	305.274	0.168	-0.318
-650.814	-8.480	-0.334	-0.229
-649.799	-200.000	-0.042	-0.298
-648.784	-119.082	0.090	-0.016
-647.770	768.410	-0.078	0.216
-646.755	-94.260	-0.404	-0.112
-645.741	-111.823	0.201	-0.041
-644.726	216.852	0.148	-0.240
-643.711	-53.668	0.302	-0.140
-642.697	-200.000	-0.001	-0.113
-641.682	-200.000	0.025	-0.155
-640.668	2.278	0.199	0.146
-639.653	-91.992	0.233	-0.067
-638.638	557.932	-0.066	0.163
-637.624	-21.710	-0.023	-0.014
-636.609	-200.000	-0.018	0.176
-635.595	-23.071	0.167	0.102
-634.580	111.649	-0.104	0.127
-633.565	-96.631	0.374	-0.100
-632.551	92.871	0.160	0.184
-631.536	-75.640	-0.156	0.056
-630.522	-200.000	0.097	-0.634
-629.507	63.025	-0.127	0.130
-628.492	800.000	-0.080	-0.286
-627.478	129.131	0.164	0.213
-626.463	262.083	-0.109	0.192
-625.449	353.547	0.212	0.429
-624.434	-200.000	0.075	0.341
-623.419	-200.000	0.040	-0.222
-622.405	800.000	0.061	-0.220
-621.390	519.386	-0.035	-0.084
-620.376	-70.666	0.134	0.052
-619.361	45.840	-0.224	0.210
-618.346	-132.717	-0.265	-0.034
-617.332	733.008	0.102	-0.276
-616.317	-68.784	0.116	-0.046
-615.303	374.955	0.192	-0.397
-614.288	266.493	0.178	-0.316
-613.273	139.440	-0.225	0.301
-612.259	-21.910	-0.115	0.071
-611.244	-43.801	-0.159	0.081
-610.230	-200.000	0.041	0.228
-609.215	-200.000	-0.021	-0.104
-608.201	94.695	-0.128	0.148
-607.186	-80.542	-0.191	0.065
-606.171	-121.725	-0.308	-0.052
-605.157	15.243	-0.289	-0.230
-604.142	133.878	-0.277	-0.364
-603.128	-145.715	0.297	-0.027
-602.113	-15.227	0.313	0.204
-601.098	-200.000	-0.010	0.190
-600.084	-148.270	-0.294	0.025
-599.069	98.234	0.068	-0.080
-598.055	4.530	-0.349	-0.260
-597.040	-37.364	-0.299	0.162
-596.025	-200.000	0.009	0.135
-595.011	-116.180	-0.130	0.025
-593.996	120.567	-0.199	-0.251
-592.982	180.382	-0.141	-0.210
-591.967	-85.859	-0.057	0.018
-590.952	-24.379	0.134	-0.081
-589.938	-191.913	0.176	0.002
-588.923	62.367	0.132	-0.134
-587.909	-27.121	-0.040	0.024
-586.894	-200.000	-0.009	-0.097
-585.879	121.559	-0.109	-0.138
-584.865	-91.238	0.312	-0.091
-583.850	36.600	-0.123	0.110
-582.836	-86.108	-0.170	0.053
-581.821	-192.453	-0.176	-0.002
-580.806	-166.343	-0.522	0.022
-579.792	198.308	-0.067	0.103
-578.777	-200.000	0.026	-0.202
-577.763	-200.000	0.019	0.217
-576.748	-100.546	0.264	-0.066
-575.733	-200.000	0.037	0.239
-574.719	-200.000	-0.010	0.069
-573.704	-3.965	-0.268	0.188
-572.690	323.146	0.110	0.213
-571.675	106.195	-0.259	-0.311
-570.661	-118.164	-0.252	0.046
-569.646	-85.360	0.171	-0.054
-568.631	-77.002	0.248	-0.088
-567.617	193.097	0.159	-0.244
-566.602	-200.000	0.048	-0.288
-565.588	800.000	0.070	0.246
-564.573	-40.674	0.247	0.130
-563.558	51.982	0.035	-0.033
-562.544	800.000	-0.139	-0.409
-561.529	-22.800	-0.193	-0.118
-560.515	472.834	-0.011	-0.025
-559.500	10.687	0.031	-0.024
-558.485	-154.914	-0.403	-0.027
-557.471	-79.431	0.102	0.035
-556.456	69.772	0.168	-0.175
-555.442	456.685	-0.122	-0.274
-554.427	-200.000	-0.023	0.408
-553.412	-37.370	-0.217	-0.118
-552.398	128.889	0.014	0.018
-551.383	-200.000	-0.042	0.208
-550.369	-24.216	-0.285	0.172
-549.354	80.330	0.153	-0.167
-548.339	800.000	-0.024	-0.071
-547.325	-88.852	0.090	0.027
-546.310	-24.219	0.013	-0.008
-545.296	15.346	-0.149	0.118
-544.281	-70.583	-0.445	-0.171
-543.266	-3.268	-0.301	-0.213
-542.252	14.966	0.326	0.258
-541.237	-200.000	-0.005	0.076
-540.223	-200.000	0.029	0.339
-539.208	639.418	0.067	-0.173
-538.193	-155.381	-0.058	-0.004
-537.179	606.264	-0.060	-0.152
-536.164	-14.882	-0.125	-0.081
-535.150	-124.414	-0.083	0.013
-534.135	-145.219	-0.131	0.012
-533.121	40.106	0.034	0.031
-532.106	-98.025	-0.160	0.042
-531.091	67.793	-0.146	0.151
-530.077	236.756	0.092	-0.154
-529.062	-22.184	-0.186	0.115
-528.048	-80.327	0.232	0.079
-527.033	-125.264	0.081	-0.013
-526.018	-7.536	-0.128	-0.088
-525.004	-117.141	-0.199	0.037
-523.989	61.691	0.231	0.233
-522.975	-200.000	0.023	0.160
-521.960	-200.000	-0.035	0.172
-520.945	-200.000	0.002	-0.281
-519.931	-81.872	-0.273	-0.090
-518.916	256.764	0.102	-0.177
-517.902	-60.295	-0.253	-0.109
-516.887	-119.335	-0.535	-0.094
-515.872	-54.035	0.187	-0.086
-514.858	0.469	0.135	-0.097
-513.843	-200.000	0.000	-0.024
-512.829	415.203	-0.027	0.057
-511.814	-10.013	-0.127	-0.086
-510.799	-96.580	0.405	-0.108
-509.785	-173.123	0.333	-0.010
-508.770	608.478	-0.101	-0.255
-507.756	-200.000	0.010	0.176
-506.741	800.000	0.075	-0.237
-505.726	-98.660	-0.144	-0.037
-504.712	-22.122	0.471	0.289
-503.697	74.195	0.113	0.120
-502.683	117.439	0.214	-0.267
-501.668	800.000	-0.110	0.389
-500.653	-6.759	0.131	-0.090
-499.639	-200.000	-0.047	0.243
-498.624	655.195	0.038	0.098
-497.610	362.073	0.056	0.115
-496.595	-69.541	-0.081	0.031
-495.581	-139.986	-0.049	0.005
-494.566	-61.654	0.327	0.139
-493.551	325.886	0.182	0.353
-492.537	-32.989	-0.058	0.032
-491.522	-67.463	0.014	-0.005
-490.508	-128.217	0.079	0.011
-489.493	491.417	-0.081	0.189
-488.478	35.774	0.226	-0.201
-487.464	-127.013	0.203	0.030
-486.449	-37.522	0.112	-0.060
-485.435	-200.000	0.075	-0.456
-484.420	-200.000	-0.019	-0.349
-483.405	-149.747	-0.109	0.009
-482.391	113.981	-0.073	-0.089
-481.376	-21.588	-0.124	0.076
-480.362	-5.375	-0.350	-0.243
-479.347	-191.397	0.366	0.004
-478.332	96.683	0.095	-0.110
-477.318	-17.400	-0.234	0.149
-476.303	11.278	0.320	-0.247
-475.289	240.547	-0.053	-0.089
-474.274	-188.594	0.466	-0.006
-473.259	59.914	-0.194	0.194
-472.245	50.602	-0.266	0.254
-471.230	800.000	0.023	0.090
-470.216	-200.000	0.023	0.245
-469.201	-200.000	-0.026	0.256
-468.186	215.922	-0.068	0.109
-467.172	-69.849	-0.156	-0.060
-466.157	-72.443	0.228	0.085
-465.143	800.000	-0.020	-0.066
-464.128	-84.231	0.107	-0.034
-463.113	-50.670	0.117	-0.056
-462.099	800.000	0.029	0.097
-461.084	69.829	-0.177	0.184
-460.070	-200.000	0.049	0.234
-459.055	241.223	-0.070	-0.118
-458.040	-93.145	-0.085	-0.024
-457.026	71.671	-0.152	0.159
-456.011	800.000	-0.034	-0.106
-454.997	-200.000	0.006	-0.086
-453.982	-200.000	-0.008	-0.214
-452.968	-51.551	-0.146	0.069
-451.953	160.928	-0.131	-0.185
-450.938	-25.291	0.303	0.181
-449.924	290.052	0.080	0.146
-448.909	120.429	0.125	0.157
-447.895	-49.311	0.396	0.191
-446.880	-200.000	0.019	0.208
-445.865	574.820	-0.105	-0.258
-444.851	516.281	-0.097	0.228
-443.836	-200.000	0.008	0.105
-442.822	185.155	0.155	0.232
-441.807	66.680	-0.164	0.168
-440.792	-3.521	-0.288	0.202
-439.778	-200.000	-0.076	-0.417
-438.763	-22.177	-0.117	-0.072
-437.749	-129.934	0.329	0.046
-436.734	45.681	-0.249	-0.232
-435.719	64.293	-0.059	-0.060
-434.705	-200.000	-0.145	0.000
-433.690	-79.300	0.104	0.035
-432.676	55.417	0.087	-0.085
-431.661	-47.539	-0.169	0.083
-430.646	800.000	-0.036	-0.135
-429.632	800.000	-0.091	-0.287
-428.617	404.575	-0.026	0.056
-427.603	-81.471	-0.142	0.047
-426.588	29.372	-0.242	-0.208
-425.573	-55.153	-0.021	0.010
-424.559	127.364	-0.233	0.298
-423.544	800.000	0.045	-0.184
-422.530	-200.000	0.003	0.239
-421.515	242.551	0.163	0.275
-420.500	800.000	0.015	-0.063
-419.486	197.698	-0.201	0.310
-418.471	-120.035	-0.083	0.014
-417.457	-107.137	-0.362	0.081
-416.442	2.449	0.073	0.053
-415.428	84.270	0.012	0.014
-414.413	51.974	0.068	0.065
-413.398	-200.000	-0.040	-0.195
-412.384	-128.960	-0.299	0.042
-411.369	287.166	0.072	0.130
-410.355	56.132	-0.055	-0.054
-409.340	477.882	0.027	-0.062
-408.325	196.874	-0.072	0.111
-407.311	800.000	0.011	-0.044
-406.296	-165.587	-0.077	-0.003
-405.282	-200.000	-0.006	0.480
-404.267	-89.691	0.190	0.056
-403.252	-200.000	-0.025	0.217
-402.238	-200.000	-0.049	-0.232
-401.223	484.437	-0.104	-0.239
-400.209	464.807	-0.146	-0.330
-399.194	-200.000	0.016	0.181
-398.179	800.000	-0.121	-0.408
-397.165	-136.342	-0.015	0.002
-396.150	173.055	-0.261	-0.379
-395.136	50.942	-0.074	-0.071
-394.121	156.618	0.284	-0.395
-393.106	-35.837	0.304	-0.166
-392.092	-67.475	-0.141	-0.056
-391.077	-42.949	-0.181	-0.093
-390.063	78.670	-0.000	-0.000
-389.048	-138.851	0.323	0.035
-388.033	-200.000	-0.030	-0.134
-387.019	279.249	-0.108	0.195
-386.004	146.691	-0.173	-0.234
-384.990	-47.438	-0.046	0.023
-383.975	-200.000	-0.009	0.193
-382.960	-88.966	0.078	-0.023
-381.946	-40.100	0.296	-0.155
-380.931	702.296	-0.140	-0.370
-379.917	103.401	-0.180	0.212
-378.902	-200.000	-0.016	-0.249
-377.888	800.000	0.097	-0.303
-376.873	-200.000	0.052	-0.255
-375.858	40.898	0.063	-0.057
-374.844	-136.583	0.164	0.019
-373.829	40.830	0.259	-0.235
-372.815	-59.590	-0.059	-0.026
-371.800	-146.595	0.302	-0.026
-370.785	-91.406	-0.128	-0.037
-369.771	88.053	0.167	-0.186
-368.756	-118.079	0.224	0.040
-367.742	-54.860	-0.224	0.102
-366.727	-1.414	0.042	0.030
-365.712	-31.510	-0.217	-0.123
-364.698	87.522	0.096	0.107
-363.683	-5.469	-0.123	-0.085
-362.669	-154.574	0.369	0.025
-361.654	-87.749	-0.145	0.044
-360.639	512.148	0.067	-0.158
-359.625	-44.249	-0.031	-0.016
-358.610	-125.971	0.101	-0.015
-357.596	800.000	-0.036	0.144
-356.581	-16.613	0.227	0.145
-355.566	-120.349	0.252	-0.043
-354.552	299.658	0.072	-0.134
-353.537	-200.000	0.007	0.360
-352.523	-200.000	-0.009	0.362
-351.508	800.000	0.043	0.136
-350.493	26.097	-0.184	0.155
-349.479	34.423	-0.164	-0.144
-348.464	276.710	0.108	-0.192
-347.450	-61.981	-0.156	0.066
-346.435	57.217	-0.088	0.086
-345.420	-200.000	-0.039	-0.260
-344.406	-58.226	-0.194	0.085
-343.391	-200.000	-0.003	-0.204
-342.377	555.760	0.121	0.292
-341.362	50.782	-0.215	0.205
-340.348	138.454	0.111	0.146
-339.333	-160.488	0.205	0.011
-338.318	-200.000	-0.002	-0.126
-337.304	246.857	0.114	-0.193
-336.289	240.089	0.146	0.244
-335.275	-118.902	0.123	-0.022
-334.260	-95.799	-0.273	-0.073
-333.245	-185.766	-0.214	-0.003
-332.231	-200.000	0.030	-0.455
-331.216	-17.343	-0.189	0.119
-330.202	115.916	0.161	0.198
-329.187	64.452	0.265	0.269
-328.172	-29.201	-0.203	-0.117
-327.158	-150.650	-0.313	-0.024
-326.143	658.785	0.115	-0.297
-325.129	-63.308	0.262	-0.108
-324.114	-2.826	0.259	0.182
-323.099	-80.583	-0.159	0.053
-322.085	68.679	-0.079	-0.081
-321.070	25.479	-0.177	0.148
-320.056	111.221	0.074	0.089
-319.041	-81.405	0.013	0.004
-318.026	160.315	-0.071	-0.100
-317.012	-38.052	-0.154	-0.082
-315.997	-46.733	0.216	0.106
-314.983	-126.258	0.359	-0.054
-313.968	34.742	-0.146	0.129
-312.953	437.188	-0.095	-0.208
-311.939	-56.131	-0.162	-0.072
-310.924	-200.000	0.018	-0.141
-309.910	219.008	0.212	0.341
-308.895	800.000	-0.004	0.012
-307.880	119.755	-0.127	-0.158
-306.866	12.794	0.068	0.053
-305.851	-200.000	0.038	0.361
-304.837	-200.000	-0.020	-0.200
-303.822	-200.000	-0.012	0.280
-302.807	1.782	-0.102	-0.074
-301.793	74.346	-0.066	-0.070
-300.778	7.475	-0.080	-0.060
-299.764	112.253	-0.094	0.114
-298.749	-127.621	0.435	-0.063
-297.735	-116.159	0.161	0.030
-296.720	-200.000	0.029	-0.202
-295.705	-57.538	-0.299	-0.132
-294.691	-200.000	-0.017	0.173
-293.676	20.568	-0.299	0.243
-292.662	15.942	-0.444	0.351
-291.647	-73.222	0.278	0.102
-290.632	159.164	0.122	0.170
-289.618	-30.660	0.256	0.146
-288.603	-9.347	0.150	0.101
-287.589	800.000	-0.090	-0.288
-286.574	128.460	-0.133	-0.170
-285.559	74.407	0.332	-0.351
-284.545	36.665	-0.153	0.135
-283.530	16.559	-0.319	0.253
-282.516	293.980	-0.078	-0.143
-281.501	-144.260	-0.190	0.018
-280.486	10.834	-0.071	-0.054
-279.472	657.389	-0.103	0.266
-278.457	641.436	0.072	-0.184
-277.443	-47.255	-0.250	0.122
-276.428	-153.435	-0.139	0.010
-275.413	85.857	0.236	-0.260
-274.399	-102.419	0.264	0.063
-273.384	-44.560	-0.310	0.156
-272.370	-200.000	-0.041	0.226
-271.355	-170.240	-0.253	-0.009
-270.340	82.969	0.093	0.101
-269.326	800.000	0.063	0.224
-268.311	110.981	0.143	-0.172
-267.297	-1.083	0.130	-0.092
-266.282	-200.000	0.037	0.267
-265.267	426.298	0.057	0.124
-264.253	272.971	-0.157	-0.278
-263.238	800.000	0.010	0.044
-262.224	544.299	0.049	0.117
-261.209	800.000	0.108	-0.400
-260.195	-129.522	-0.168	-0.023
-259.180	21.390	0.153	-0.125
-258.165	95.017	0.147	-0.167
-257.151	-96.719	0.245	0.065
-256.136	744.907	0.057	-0.154
-255.122	-137.893	0.297	-0.033
-254.107	-65.300	0.196	0.079
-253.092	1.886	-0.115	-0.083
-252.078	-200.000	-0.058	-0.339
-251.063	-178.245	-0.332	0.008
-250.049	-95.696	-0.253	0.068
-249.034	184.070	0.118	-0.175
-248.019	70.853	-0.119	-0.124
-247.005	-200.000	0.025	-0.317
-245.990	800.000	-0.096	0.301
-244.976	-78.095	0.211	0.073
-243.961	68.070	0.140	0.144
-242.946	-64.925	-0.131	0.053
-241.932	-83.242	0.366	-0.118
-240.917	30.768	0.262	0.225
-239.903	-76.625	0.265	0.093
-238.888	354.496	-0.076	0.151
-237.873	800.000	0.023	0.066
-236.859	-95.700	0.287	0.077
-235.844	133.732	-0.033	0.043
-234.830	408.753	0.077	0.164
-233.815	-162.115	-0.404	-0.020
-232.800	744.596	0.119	0.320
-231.786	-200.000	-0.010	0.206
-230.771	-200.000	0.087	0.858
-229.757	800.000	0.173	-0.480
-228.742	-68.196	-0.215	-0.084
-227.727	255.032	-0.158	0.271
-226.713	800.000	0.026	-0.072
-225.698	-68.291	-0.231	-0.090
-224.684	93.180	0.034	-0.038
-223.669	-64.489	0.216	-0.088
-222.655	6.969	0.134	0.100
-221.640	15.104	0.055	-0.043
-220.625	-77.802	-0.171	-0.059
-219.611	-200.000	0.066	-0.323
-218.596	-200.000	-0.039	0.178
-217.582	-186.530	0.153	-0.002
-216.567	-121.506	0.278	-0.046
-215.552	-131.129	0.273	0.036
-214.538	265.948	0.219	-0.382
-213.523	-29.593	-0.154	0.088
-212.509	-102.299	0.216	0.052
-211.494	160.277	0.135	0.189
-210.479	413.699	0.069	-0.147
-209.465	-200.000	-0.029	0.279
-208.450	800.000	0.073	-0.308
-207.436	147.516	0.085	0.114
-206.421	157.360	-0.113	-0.156
-205.406	-200.000	-0.043	0.315
-204.392	-96.758	-0.074	0.020
-203.377	47.210	0.240	0.223
-202.363	-119.456	-0.113	0.020
-201.348	-14.753	-0.202	0.130
-200.333	800.000	0.061	0.196
-199.319	-47.040	0.387	0.189
-198.304	165.705	0.149	-0.211
-197.290	373.765	-0.065	0.133
-196.275	451.152	-0.111	0.244
-195.260	116.403	0.162	0.198
-194.246	53.287	0.095	-0.091
-193.231	-200.000	-0.004	0.147
-192.217	370.025	-0.187	-0.379
-191.202	75.693	0.220	-0.232
-190.187	-85.197	-0.159	-0.050
-189.173	-200.000	0.016	-0.129
-188.158	800.000	0.030	0.086
-187.144	753.595	0.128	-0.347
-186.129	119.892	0.269	-0.333
-185.114	-200.000	-0.007	0.076
-184.100	-200.000	-0.072	0.453
-183.085	54.897	0.304	0.293
-182.071	87.966	-0.150	0.166
-181.056	-200.000	-0.045	0.214
-180.042	-93.038	-0.163	-0.045
-179.027	-71.721	0.268	-0.100
-178.012	189.230	0.052	0.077
-176.998	-200.000	0.051	0.346
-175.983	-200.000	-0.032	0.504
-174.969	214.409	0.042	-0.066
-173.954	324.349	0.073	0.140
-172.939	-60.120	-0.154	-0.066
-171.925	800.000	0.061	0.227
-170.910	-99.734	0.210	0.053
-169.896	85.002	-0.175	0.191
-168.881	-41.162	0.461	-0.238
-167.866	-114.429	-0.210	-0.040
-166.852	143.518	-0.140	0.186
-165.837	593.731	-0.054	0.132
-164.823	759.191	0.070	-0.189
-163.808	572.523	-0.180	-0.437
-162.793	253.467	0.175	-0.299
-161.779	347.834	-0.052	-0.102
-160.764	35.780	-0.107	-0.094
-159.750	-198.642	-0.310	0.002
-158.735	-200.000	0.011	-0.066
-157.720	-136.389	-0.220	-0.026
-156.706	-200.000	-0.020	-0.263
-155.691	-127.247	-0.094	0.014
-154.677	-11.825	-0.169	-0.110
-153.662	106.319	0.180	0.213
-152.647	257.691	0.104	-0.179
-151.633	-200.000	0.047	-0.222
-150.618	429.763	0.126	-0.272
-149.604	-59.762	-0.230	0.098
-148.589	194.856	0.062	0.093
-147.574	15.571	0.148	-0.116
-146.560	-16.282	-0.341	0.216
-145.545	448.582	0.054	-0.120
-144.531	-118.113	0.290	0.052
-143.516	-20.524	0.224	0.138
-142.502	247.820	0.054	-0.091
-141.487	71.394	0.363	-0.376
-140.472	800.000	-0.081	0.279
-139.458	60.544	-0.194	-0.191
-138.443	53.072	-0.200	-0.191
-137.429	-200.000	-0.020	0.092
-136.414	-130.178	0.239	0.033
-135.399	800.000	0.033	0.132
-134.385	-110.952	-0.118	-0.024
-133.370	800.000	-0.101	-0.298
-132.356	299.095	-0.049	-0.090
-131.341	-200.000	-0.019	0.084
-130.326	-157.952	0.112	0.007
-129.312	-27.956	-0.038	0.022
-128.297	-132.669	0.298	-0.038
-127.283	-160.892	0.213	-0.011
-126.268	-200.000	0.004	0.199
-125.253	-61.746	-0.166	-0.069
-124.239	-114.917	-0.150	0.028
-123.224	73.710	-0.112	0.117
-122.210	-2.109	0.359	-0.251
-121.195	37.433	-0.104	0.092
