DTS Sentinel unit serial number:	SN413079Multiplexer serial number:	ORYXHardware model number:	OX4-SRSoftware version number:	ORYX F/W v4.00 Oryx Data Collector v3.7.2.0data status	okinstallation	princeton_trtdifferential loss correction	single-endedforward channel	channel 4reverse channel	N/Adate	2019/09/10time	21:47:11forward acquisition time	60.00reverse acquisition time	0.00gamma	496.2192k internal	0.2314k external	0.2314temperature offset calibration	0.9949default loss term (dB/km)	0.3790temperature slope calibration	1.0000multiplexer offset coefficient	1.0000multiplexer slope coefficient	1.0000fibre end	0.00T internal ref (°C)	30.87T ext. ref 1 (°C)	-0.32T ext. ref 2 (°C)	24.05length (m)	temperature (°C)	Stokes	anti-Stokes-747.200	-96.831	-0.182	0.049
-746.185	-98.168	-0.327	-0.085
-745.171	114.366	0.121	0.149
-744.156	-134.721	0.222	0.027
-743.142	96.223	0.164	0.190
-742.127	77.834	0.207	0.224
-741.112	53.474	0.161	0.156
-740.098	-105.316	-0.319	-0.074
-739.083	-132.641	0.103	0.013
-738.069	120.072	0.180	-0.227
-737.054	-117.165	0.476	0.088
-736.039	-200.000	-0.026	-0.467
-735.025	-15.018	-0.237	0.154
-734.010	-122.734	0.139	0.023
-732.996	125.950	-0.215	-0.276
-731.981	597.035	0.099	-0.248
-730.966	50.612	-0.158	0.152
-729.952	319.129	-0.159	-0.305
-728.937	-17.873	-0.108	-0.068
-727.923	544.316	-0.056	0.135
-726.908	126.437	-0.168	0.215
-725.894	-200.000	0.047	-0.351
-724.879	800.000	0.109	-0.472
-723.864	378.119	-0.106	-0.219
-722.850	50.521	0.166	-0.159
-721.835	750.092	0.004	-0.012
-720.821	30.409	-0.229	-0.198
-719.806	545.822	-0.097	-0.235
-718.791	-75.520	-0.089	-0.032
-717.777	63.748	0.139	0.142
-716.762	215.884	-0.125	-0.201
-715.748	145.442	-0.112	0.152
-714.733	-200.000	0.016	0.263
-713.718	-107.499	-0.296	-0.066
-712.704	-28.376	-0.245	-0.143
-711.689	-52.569	0.197	-0.092
-710.675	41.416	0.012	-0.011
-709.660	-81.413	0.269	0.090
-708.645	-200.000	0.067	-0.354
-707.631	-89.187	-0.054	0.016
-706.616	-200.000	-0.016	-0.226
-705.602	-200.000	0.026	-0.148
-704.587	235.714	-0.140	-0.235
-703.572	800.000	-0.031	-0.119
-702.558	-54.073	0.288	0.133
-701.543	-200.000	-0.025	0.207
-700.529	800.000	-0.037	-0.128
-699.514	30.134	-0.067	0.058
-698.499	-100.818	-0.464	-0.116
-697.485	-161.235	0.187	-0.010
-696.470	-200.000	0.027	-0.138
-695.456	-200.000	0.013	-0.137
-694.441	-200.000	0.030	-0.176
-693.426	285.288	0.155	0.283
-692.412	197.705	-0.081	0.126
-691.397	-200.000	0.023	0.210
-690.383	-46.430	-0.345	-0.171
-689.368	75.672	0.062	-0.067
-688.354	37.334	-0.181	-0.163
-687.339	800.000	0.063	-0.240
-686.324	-45.709	-0.256	0.128
-685.310	136.100	-0.214	-0.282
-684.295	-105.158	0.118	-0.027
-683.281	-151.530	-0.082	-0.006
-682.266	168.709	-0.156	0.225
-681.251	-131.422	-0.274	-0.037
-680.237	-119.911	-0.232	-0.040
-679.222	-200.000	0.002	0.067
-678.208	-200.000	-0.058	-0.400
-677.193	391.102	-0.129	0.272
-676.178	-116.541	0.241	0.045
-675.164	-200.000	0.006	-0.182
-674.149	-16.041	0.239	-0.154
-673.135	-55.690	0.213	0.096
-672.120	85.273	-0.283	0.314
-671.105	-67.787	-0.284	0.112
-670.091	-200.000	-0.059	0.267
-669.076	800.000	-0.052	0.172
-668.062	-200.000	0.002	0.333
-667.047	530.709	-0.192	-0.459
-666.032	-68.817	0.066	0.026
-665.018	-200.000	-0.074	0.452
-664.003	-48.723	-0.465	0.226
-662.989	517.967	0.051	-0.120
-661.974	-41.276	-0.083	0.043
-660.959	447.065	-0.122	-0.272
-659.945	-92.978	0.195	0.055
-658.930	-126.057	0.196	-0.030
-657.916	-200.000	0.018	-0.170
-656.901	-23.684	0.317	-0.192
-655.886	236.355	-0.204	-0.341
-654.872	265.697	-0.253	-0.445
-653.857	-27.796	-0.189	-0.111
-652.843	561.122	0.086	-0.209
-651.828	-108.813	-0.213	-0.046
-650.814	-200.000	0.048	0.304
-649.799	-30.986	0.111	-0.064
-648.784	-99.159	0.117	0.030
-647.770	-200.000	0.006	-0.263
-646.755	-10.530	0.231	-0.155
-645.741	-88.358	-0.480	0.145
-644.726	-200.000	0.017	-0.141
-643.711	-28.112	-0.156	0.091
-642.697	260.883	0.127	0.222
-641.682	-67.320	-0.048	0.019
-640.668	-133.815	-0.138	0.017
-639.653	49.927	0.094	0.089
-638.638	-45.906	-0.040	-0.020
-637.624	-92.015	0.171	0.049
-636.609	-19.743	-0.198	0.124
-635.595	-109.371	0.184	-0.039
-634.580	800.000	0.088	-0.287
-633.565	530.359	0.043	0.102
-632.551	-200.000	-0.015	-0.443
-631.536	800.000	0.042	-0.151
-630.522	-76.430	0.315	-0.112
-629.507	107.892	0.186	-0.224
-628.492	122.894	-0.075	0.095
-627.478	-64.029	0.043	-0.018
-626.463	-200.000	0.066	0.393
-625.449	-73.770	0.011	0.004
-624.434	115.107	-0.072	-0.089
-623.419	-172.283	0.268	0.009
-622.405	256.688	-0.108	-0.187
-621.390	-200.000	0.037	-0.238
-620.376	-112.609	0.216	0.043
-619.361	-131.635	-0.026	0.003
-618.346	-56.700	0.044	0.020
-617.332	351.024	-0.161	0.321
-616.317	-86.873	0.324	-0.100
-615.303	-200.000	-0.039	0.244
-614.288	174.352	0.121	-0.177
-613.273	-111.274	-0.149	-0.031
-612.259	90.118	0.196	0.221
-611.244	-106.741	-0.346	0.078
-610.230	-60.871	0.212	-0.090
-609.215	91.792	-0.163	0.185
-608.201	-75.216	0.097	-0.035
-607.186	28.762	0.134	0.115
-606.171	-18.520	0.237	0.149
-605.157	-116.545	0.286	0.053
-604.142	74.493	0.170	-0.181
-603.128	6.178	-0.224	0.168
-602.113	154.095	0.124	-0.172
-601.098	800.000	-0.135	0.431
-600.084	-200.000	-0.018	0.091
-599.069	2.033	0.007	0.005
-598.055	-146.355	-0.204	-0.018
-597.040	-154.671	-0.280	-0.019
-596.025	-32.898	0.097	0.054
-595.011	502.633	-0.086	-0.200
-593.996	-8.019	-0.199	-0.135
-592.982	-144.896	0.070	0.006
-591.967	-200.000	-0.053	-0.553
-590.952	177.148	-0.150	-0.219
-589.938	704.463	0.073	-0.194
-588.923	800.000	-0.061	0.228
-587.909	-118.127	-0.217	-0.039
-586.894	-109.576	-0.366	-0.078
-585.879	-91.414	-0.169	0.049
-584.865	-0.125	0.062	-0.045
-583.850	236.982	-0.068	-0.114
-582.836	-13.909	-0.087	0.056
-581.821	-44.691	0.175	0.088
-580.806	73.672	-0.131	0.138
-579.792	-200.000	0.012	-0.249
-578.777	272.555	0.108	-0.193
-577.763	-61.648	-0.432	0.183
-576.748	-164.462	-0.121	0.006
-575.733	-200.000	0.013	-0.141
-574.719	35.169	-0.188	-0.166
-573.704	800.000	-0.054	0.175
-572.690	-148.793	0.349	0.029
-571.675	62.355	0.054	-0.054
-570.661	-180.435	0.308	0.006
-569.646	265.830	0.072	-0.126
-568.631	257.948	0.050	-0.087
-567.617	-200.000	-0.011	-0.270
-566.602	536.172	0.174	0.417
-565.588	-172.958	0.146	0.005
-564.573	-37.137	0.128	0.069
-563.558	-129.444	-0.074	-0.010
-562.544	-200.000	0.030	0.155
-561.529	-63.087	0.306	-0.127
-560.515	-50.145	0.186	0.089
-559.500	80.610	-0.131	-0.142
-558.485	73.305	-0.172	-0.181
-557.471	196.845	-0.069	-0.106
-556.456	72.740	-0.210	-0.220
-555.442	72.791	0.098	0.103
-554.427	85.722	-0.176	-0.195
-553.412	-50.508	-0.251	-0.119
-552.398	800.000	-0.108	-0.306
-551.383	-112.924	-0.296	-0.059
-550.369	-43.797	0.198	-0.100
-549.354	-200.000	-0.047	0.220
-548.339	-91.516	0.078	0.022
-547.325	43.677	0.092	-0.084
-546.310	577.201	0.062	0.153
-545.296	-55.705	0.155	0.070
-544.281	800.000	0.067	0.249
-543.266	-35.939	-0.227	-0.124
-542.252	-67.387	-0.146	-0.058
-541.237	-8.664	-0.229	0.155
-540.223	-200.000	-0.024	0.222
-539.208	-200.000	0.009	-0.043
-538.193	-35.700	-0.143	-0.078
-537.179	173.492	-0.104	0.151
-536.164	98.110	0.134	0.155
-535.150	243.369	0.083	-0.140
-534.135	800.000	-0.110	0.331
-533.121	800.000	-0.054	0.165
-532.106	2.620	-0.286	-0.208
-531.091	800.000	-0.045	-0.184
-530.077	118.721	-0.175	-0.217
-529.062	222.476	0.090	0.146
-528.048	-200.000	-0.028	0.158
-527.033	-56.371	0.094	-0.042
-526.018	-16.401	0.182	0.116
-525.004	497.005	-0.092	0.212
-523.989	800.000	-0.063	0.208
-522.975	-51.373	-0.109	0.051
-521.960	-200.000	0.049	0.382
-520.945	-116.981	-0.117	-0.022
-519.931	106.632	0.105	0.125
-518.916	202.635	-0.197	0.306
-517.902	109.205	0.177	-0.213
-516.887	-200.000	-0.047	0.311
-515.872	-117.768	-0.236	-0.043
-514.858	-7.747	0.427	-0.290
-513.843	-28.646	-0.259	-0.150
-512.829	-141.338	-0.195	-0.020
-511.814	147.441	-0.085	-0.114
-510.799	35.259	-0.176	-0.155
-509.785	-135.810	0.069	0.008
-508.770	-200.000	-0.053	-0.413
-507.756	32.213	-0.298	-0.258
-506.741	574.969	0.006	0.014
-505.726	-200.000	0.016	-0.164
-504.712	76.306	-0.123	-0.130
-503.697	275.889	0.097	0.172
-502.683	800.000	-0.093	-0.284
-501.668	135.922	0.062	-0.081
-500.653	16.401	-0.107	0.085
-499.639	-40.505	-0.215	-0.112
-498.624	-142.214	-0.139	-0.014
-497.610	-200.000	0.016	-0.271
-496.595	193.115	-0.192	-0.292
-495.581	260.157	-0.049	-0.085
-494.566	-200.000	-0.027	-0.182
-493.551	30.918	-0.144	0.124
-492.537	-61.444	-0.397	-0.168
-491.522	-59.006	0.337	-0.146
-490.508	-200.000	-0.005	-0.113
-489.493	-87.770	-0.146	0.044
-488.478	800.000	0.062	-0.246
-487.464	-61.839	-0.071	0.030
-486.449	-55.840	0.298	0.134
-485.435	-200.000	0.025	0.373
-484.420	91.484	-0.086	0.097
-483.405	198.011	-0.199	0.305
-482.391	-135.780	0.006	0.001
-481.376	120.320	0.160	-0.200
-480.362	40.264	0.299	0.270
-479.347	-100.380	0.297	-0.074
-478.332	310.184	0.108	-0.204
-477.318	-185.578	-0.053	0.001
-476.303	-126.813	0.184	-0.027
-475.289	-92.227	0.246	-0.070
-474.274	577.737	0.048	-0.118
-473.259	73.779	-0.213	0.224
-472.245	-200.000	-0.012	-0.158
-471.230	-75.352	0.231	0.083
-470.216	467.979	-0.026	-0.059
-469.201	-62.236	-0.281	-0.117
-468.186	211.057	0.074	0.117
-467.172	800.000	-0.200	0.610
-466.157	-16.954	-0.239	-0.152
-465.143	89.495	-0.070	0.078
-464.128	49.068	-0.059	-0.056
-463.113	308.079	0.094	0.176
-462.099	-116.129	0.252	0.047
-461.084	189.946	0.087	-0.130
-460.070	-88.897	-0.546	0.162
-459.055	-200.000	-0.003	-0.171
-458.040	-75.370	0.075	0.027
-457.026	319.344	-0.141	-0.268
-456.011	175.352	-0.104	-0.151
-454.997	122.678	0.179	-0.225
-453.982	-200.000	-0.017	0.143
-452.968	-157.440	0.262	-0.016
-451.953	800.000	-0.036	0.129
-450.938	348.777	-0.184	-0.364
-449.924	-200.000	-0.038	-0.320
-448.909	-163.966	0.078	-0.004
-447.895	-200.000	0.042	-0.294
-446.880	-13.856	0.047	0.031
-445.865	276.902	-0.154	-0.275
-444.851	5.437	0.209	-0.155
-443.836	657.376	0.077	-0.199
-442.822	-106.223	0.077	0.017
-441.807	800.000	0.084	0.265
-440.792	-127.926	-0.394	-0.057
-439.778	-108.861	-0.273	-0.058
-438.763	-139.928	0.223	0.024
-437.749	-118.681	0.088	0.016
-436.734	75.814	-0.036	-0.038
-435.719	48.202	0.152	0.143
-434.705	175.278	-0.099	-0.143
-433.690	27.256	-0.197	0.166
-432.676	50.283	0.058	-0.055
-431.661	-62.085	0.081	0.034
-430.646	59.725	0.116	0.115
-429.632	238.940	-0.086	0.143
-428.617	800.000	0.107	-0.312
-427.603	-39.222	0.243	0.128
-426.588	-86.523	0.062	-0.019
-425.573	-27.544	0.168	-0.098
-424.559	77.502	-0.247	-0.263
-423.544	-82.398	0.436	-0.142
-422.530	-58.629	-0.229	-0.100
-421.515	6.244	0.063	0.046
-420.500	-77.616	-0.209	-0.072
-419.486	-200.000	-0.035	-0.175
-418.471	-133.704	-0.051	0.006
-417.457	-200.000	0.191	0.001
-416.442	-200.000	-0.058	-0.351
-415.428	-12.734	0.281	-0.184
-414.413	-178.146	0.209	0.005
-413.398	-2.845	0.056	-0.039
-412.384	-48.482	-0.132	0.063
-411.369	372.529	0.146	-0.296
-410.355	-200.000	-0.022	-0.292
-409.340	-58.427	0.100	-0.043
-408.325	6.639	-0.061	-0.045
-407.311	-126.430	0.132	-0.020
-406.296	-118.959	0.281	-0.049
-405.282	-200.000	-0.002	0.025
-404.267	-200.000	0.036	0.290
-403.252	-159.249	0.159	-0.009
-402.238	-7.433	-0.314	-0.213
-401.223	451.875	0.028	0.062
-400.209	437.255	-0.153	-0.333
-399.194	800.000	-0.151	-0.518
-398.179	-84.983	0.285	-0.089
-397.165	54.764	0.028	0.027
-396.150	-200.000	-0.040	-0.244
-395.136	253.833	-0.156	-0.266
-394.121	450.211	-0.118	-0.261
-393.106	-10.574	0.179	-0.118
-392.092	153.115	-0.028	0.039
-391.077	-70.886	0.105	0.040
-390.063	-200.000	-0.021	0.214
-389.048	150.222	-0.159	-0.216
-388.033	-145.775	-0.269	0.024
-387.019	-73.655	-0.416	-0.152
-386.004	-200.000	0.005	0.122
-384.990	-91.322	0.247	-0.071
-383.975	800.000	0.072	0.293
-382.960	800.000	-0.114	0.484
-381.946	-200.000	0.012	0.118
-380.931	-11.495	-0.154	0.101
-379.917	-200.000	0.010	-0.280
-378.902	-106.024	-0.351	0.079
-377.888	-74.262	-0.345	0.125
-376.873	-200.000	0.060	0.410
-375.858	668.147	0.117	-0.302
-374.844	-78.143	-0.112	0.038
-373.829	800.000	-0.023	-0.072
-372.815	66.565	0.188	0.191
-371.800	-60.364	0.447	-0.190
-370.785	150.412	0.073	0.099
-369.771	-200.000	0.005	-0.489
-368.756	-54.310	0.208	-0.094
-367.742	-200.000	0.017	-0.191
-366.727	39.893	-0.159	-0.142
-365.712	281.469	-0.078	-0.140
-364.698	-129.004	0.266	-0.037
-363.683	-52.091	0.218	0.101
-362.669	-200.000	-0.040	0.352
-361.654	-200.000	0.003	0.083
-360.639	-18.094	0.180	0.113
-359.625	342.849	-0.067	0.132
-358.610	226.650	0.105	-0.171
-357.596	-200.000	-0.043	-0.294
-356.581	196.594	-0.235	0.357
-355.566	434.925	0.111	-0.240
-354.552	-200.000	-0.003	-0.377
-353.537	-89.050	0.284	0.084
-352.523	-68.168	-0.127	-0.049
-351.508	58.380	0.064	-0.063
-350.493	203.805	0.178	0.275
-349.479	-16.021	0.136	0.086
-348.464	-62.623	-0.349	0.145
-347.450	-100.607	0.128	0.032
-346.435	-200.000	0.064	0.365
-345.420	-84.540	-0.248	-0.078
-344.406	41.249	-0.074	0.067
-343.391	-200.000	-0.019	-0.172
-342.377	-200.000	-0.011	-0.117
-341.362	-62.516	-0.332	0.138
-340.348	-10.043	-0.216	-0.143
-339.333	187.515	-0.130	0.193
-338.318	-144.921	0.180	0.016
-337.304	624.907	0.047	-0.118
-336.289	25.090	0.122	-0.101
-335.275	-200.000	0.029	0.129
-334.260	-200.000	-0.010	-0.177
-333.245	373.280	0.095	-0.192
-332.231	68.151	0.120	0.123
-331.216	-41.976	0.079	-0.040
-330.202	81.088	-0.163	-0.176
-329.187	-101.130	-0.267	-0.065
-328.172	59.874	-0.052	-0.051
-327.158	-30.762	-0.047	-0.027
-326.143	-41.251	-0.118	0.061
-325.129	505.331	-0.048	0.110
-324.114	-140.410	-0.377	0.039
-323.099	649.715	-0.062	0.159
-322.085	62.450	0.039	-0.039
-321.070	419.579	0.032	0.069
-320.056	-44.783	0.191	-0.095
-319.041	-139.106	-0.144	-0.016
-318.026	-53.709	0.287	0.131
-317.012	-131.865	0.154	-0.020
-315.997	-200.000	0.002	0.165
-314.983	800.000	-0.046	-0.171
-313.968	-52.530	-0.147	-0.068
-312.953	294.945	0.149	0.272
-311.939	-200.000	-0.053	0.295
-310.924	-200.000	-0.018	0.195
-309.910	-200.000	-0.002	0.113
-308.895	538.088	0.066	-0.156
-307.880	-76.552	0.032	0.011
-306.866	639.829	-0.137	0.347
-305.851	-200.000	-0.001	0.144
-304.837	209.075	0.117	0.182
-303.822	-8.994	0.106	-0.071
-302.807	44.213	0.159	0.146
-301.793	-115.887	-0.383	-0.071
-300.778	-139.209	0.291	-0.031
-299.764	-129.502	0.241	0.033
-298.749	-200.000	0.007	-0.252
-297.735	-105.921	-0.233	0.052
-296.720	-200.000	0.054	0.266
-295.705	800.000	0.099	0.383
-294.691	-63.817	0.174	0.071
-293.676	-173.279	-0.179	0.005
-292.662	14.515	0.165	-0.128
-291.647	-200.000	-0.004	0.248
-290.632	800.000	-0.059	-0.235
-289.618	800.000	-0.097	-0.269
-288.603	3.474	-0.336	-0.243
-287.589	800.000	0.007	0.025
-286.574	-87.130	0.082	0.025
-285.559	-115.299	0.237	-0.045
-284.545	800.000	-0.037	0.111
-283.530	176.134	-0.182	-0.263
-282.516	-200.000	0.010	0.322
-281.501	-95.113	0.227	0.061
-280.486	800.000	0.067	-0.217
-279.472	-98.904	0.211	0.053
-278.457	-75.870	-0.015	0.005
-277.443	43.935	-0.039	0.035
-276.428	-200.000	-0.023	0.183
-275.413	-200.000	-0.006	0.051
-274.399	-158.336	-0.196	-0.011
-273.384	188.925	-0.038	-0.057
-272.370	75.066	-0.122	-0.128
-271.355	-97.261	0.279	0.072
-270.340	-50.253	0.059	-0.028
-269.326	-16.446	-0.301	-0.190
-268.311	-93.119	0.310	-0.086
-267.297	800.000	-0.126	0.395
-266.282	141.455	0.079	-0.104
-265.267	-55.395	-0.284	-0.127
-264.253	62.904	-0.103	0.103
-263.238	-27.076	-0.101	0.059
-262.224	-100.551	-0.326	-0.080
-261.209	-135.776	-0.275	-0.032
-260.195	186.210	0.180	0.267
-259.180	377.827	0.038	-0.076
-258.165	-13.404	-0.057	-0.037
-257.151	-110.198	-0.320	0.066
-256.136	-200.000	0.041	0.188
-255.122	-8.212	-0.245	0.164
-254.107	-97.554	0.104	0.027
-253.092	43.114	-0.135	-0.122
-252.078	56.291	-0.061	0.059
-251.063	-4.666	0.207	0.142
-250.049	394.405	-0.132	-0.273
-249.034	13.722	-0.228	0.176
-248.019	-67.000	0.099	0.039
-247.005	187.032	-0.178	0.264
-245.990	-200.000	0.007	-0.087
-244.976	308.275	-0.162	0.300
-243.961	-9.422	0.148	0.098
-242.946	-200.000	-0.010	0.264
-241.932	-200.000	0.026	-0.183
-240.917	293.371	0.147	-0.267
-239.903	47.259	-0.326	-0.302
-238.888	17.487	0.186	0.147
-237.873	122.615	0.265	-0.330
-236.859	253.052	-0.046	0.077
-235.844	187.422	0.137	0.203
-234.830	-100.699	0.300	-0.074
-233.815	622.948	0.057	-0.142
-232.800	-200.000	0.082	0.451
-231.786	-93.840	0.382	-0.105
-230.771	171.765	-0.171	0.245
-229.757	626.538	-0.051	-0.127
-228.742	766.670	0.073	0.196
-227.727	26.081	-0.032	0.027
-226.713	800.000	0.014	0.041
-225.698	89.499	0.252	0.280
-224.684	210.727	0.076	0.118
-223.669	224.539	-0.131	0.210
-222.655	639.567	-0.037	-0.095
-221.640	-14.661	0.193	0.123
-220.625	750.182	0.090	0.242
-219.611	36.705	0.078	0.068
-218.596	-51.218	0.247	0.115
-217.582	-40.526	0.163	0.084
-216.567	-200.000	-0.002	0.027
-215.552	800.000	0.049	0.143
-214.538	-82.930	-0.246	-0.079
-213.523	209.977	0.141	0.220
-212.509	96.271	-0.352	-0.400
-211.494	-52.305	-0.201	0.092
-210.479	118.856	0.152	0.186
-209.465	77.034	0.247	-0.261
-208.450	422.789	-0.099	0.212
-207.436	800.000	0.125	0.360
-206.421	-59.155	-0.103	0.044
-205.406	-92.576	-0.375	0.104
-204.392	12.139	-0.281	0.214
-203.377	5.471	0.223	-0.164
-202.363	114.090	0.048	0.058
-201.348	-107.555	0.313	0.068
-200.333	-170.441	-0.127	0.004
-199.319	800.000	0.032	-0.091
-198.304	-200.000	0.003	-0.156
-197.290	-1.721	0.133	-0.093
-196.275	800.000	-0.020	-0.056
-195.260	353.540	-0.070	0.138
-194.246	733.510	-0.026	-0.069
-193.231	31.573	-0.191	0.163
-192.217	15.872	0.184	-0.144
-191.202	-75.346	0.183	0.065
-190.187	-8.254	-0.037	0.025
-189.173	312.351	-0.112	0.209
-188.158	-22.374	0.282	0.170
-187.144	-126.213	0.191	0.028
-186.129	-55.933	0.145	-0.064
-185.114	-20.993	-0.077	-0.046
-184.100	-5.999	0.133	0.091
-183.085	-200.000	0.006	0.075
-182.071	247.629	0.136	-0.228
-181.056	800.000	-0.059	0.192
-180.042	-78.776	0.246	0.083
-179.027	164.411	-0.049	-0.068
-178.012	-2.190	-0.087	0.061
-176.998	6.145	-0.091	-0.067
-175.983	234.893	0.037	-0.060
-174.969	1.584	-0.172	0.123
-173.954	-200.000	0.045	0.274
-172.939	-123.806	-0.157	-0.025
-171.925	-74.743	0.315	0.112
-170.910	800.000	-0.103	0.329
-169.896	244.351	0.109	0.181
-168.881	68.666	0.233	0.237
-167.866	22.161	0.237	-0.192
-166.852	-200.000	-0.003	-0.030
-165.837	87.002	0.212	-0.232
-164.823	-126.326	0.217	-0.032
-163.808	-60.782	-0.044	-0.019
-162.793	-115.955	0.265	0.049
-161.779	138.977	-0.239	0.312
-160.764	101.609	0.015	0.017
-159.750	-96.134	-0.490	0.129
-158.735	570.247	-0.072	0.174
-157.720	-77.859	0.281	0.096
-156.706	93.152	0.105	0.117
-155.691	800.000	-0.139	0.418
-154.677	-108.823	-0.370	0.078
-153.662	217.341	0.217	-0.343
-152.647	75.817	-0.054	-0.057
-151.633	-49.499	0.265	0.125
-150.618	678.460	-0.061	-0.158
-149.604	-67.126	0.323	-0.126
-148.589	-65.320	0.046	-0.018
-147.574	-6.511	-0.409	0.276
-146.560	-195.828	-0.176	0.001
-145.545	-200.000	0.036	0.298
-144.531	-59.028	0.277	0.118
-143.516	73.761	-0.110	0.114
-142.502	658.904	-0.108	-0.275
-141.487	-170.885	0.120	-0.004
-140.472	-63.775	-0.172	0.070
-139.458	266.886	-0.123	-0.213
-138.443	800.000	0.086	-0.269
-137.429	-200.000	-0.003	-0.100
-136.414	-68.815	-0.321	0.123
-135.399	205.821	0.082	-0.126
-134.385	27.698	-0.095	0.079
-133.370	-200.000	0.059	-0.398
-132.356	-137.731	-0.266	-0.030
-131.341	-32.069	0.114	-0.063
-130.326	-77.287	-0.185	0.064
-129.312	-80.497	0.125	-0.041
-128.297	91.448	-0.042	0.047
-127.283	-100.810	0.177	0.043
-126.268	-143.439	0.137	-0.013
-125.253	-87.329	0.294	0.088
-124.239	-118.046	-0.280	-0.049
-123.224	800.000	0.021	-0.062
-122.210	118.263	0.052	-0.063
-121.195	-8.639	-0.257	0.171
