DTS Sentinel unit serial number:	SN413079Multiplexer serial number:	ORYXHardware model number:	OX4-SRSoftware version number:	ORYX F/W v4.00 Oryx Data Collector v3.7.2.0data status	okinstallation	princeton_trtdifferential loss correction	single-endedforward channel	channel 4reverse channel	N/Adate	2019/09/16time	02:41:35forward acquisition time	60.00reverse acquisition time	0.00gamma	496.2192k internal	0.2320k external	0.2320temperature offset calibration	0.9974default loss term (dB/km)	0.3790temperature slope calibration	1.0000multiplexer offset coefficient	1.0000multiplexer slope coefficient	1.0000fibre end	0.00T internal ref (°C)	27.72T ext. ref 1 (°C)	10.35T ext. ref 2 (°C)	22.43length (m)	temperature (°C)	Stokes	anti-Stokes-747.200	-74.486	0.134	0.049
-746.185	530.809	-0.079	0.188
-745.171	-200.000	0.071	-0.404
-744.156	173.190	-0.204	0.297
-743.142	80.046	0.154	-0.167
-742.127	-103.430	-0.215	0.051
-741.112	-200.000	0.034	-0.235
-740.098	-200.000	-0.009	0.079
-739.083	205.958	0.052	0.082
-738.069	-116.822	-0.385	-0.071
-737.054	-128.460	-0.088	-0.013
-736.039	-88.383	0.202	-0.061
-735.025	800.000	-0.033	-0.145
-734.010	-53.985	-0.113	-0.052
-732.996	336.242	-0.032	0.063
-731.981	-200.000	-0.044	-0.289
-730.966	-54.446	-0.094	0.043
-729.952	-200.000	-0.032	0.144
-728.937	125.994	-0.080	0.102
-727.923	38.102	-0.148	0.133
-726.908	-200.000	0.045	0.491
-725.894	-124.242	-0.123	0.019
-724.879	-123.418	-0.133	0.021
-723.864	800.000	-0.060	-0.199
-722.850	426.626	0.085	0.185
-721.835	448.330	-0.159	0.354
-720.821	-126.661	0.333	-0.050
-719.806	70.800	-0.060	0.062
-718.791	-79.963	-0.132	-0.045
-717.777	54.961	-0.160	0.156
-716.762	161.539	-0.025	0.036
-715.748	569.891	0.076	0.186
-714.733	419.067	-0.047	-0.102
-713.718	800.000	-0.024	0.072
-712.704	-59.624	0.200	-0.087
-711.689	-97.013	0.253	-0.067
-710.675	-123.550	-0.177	-0.028
-709.660	15.902	0.252	-0.200
-708.645	-68.108	0.179	0.070
-707.631	35.657	0.189	-0.168
-706.616	69.550	-0.236	-0.245
-705.602	-43.055	-0.510	0.261
-704.587	24.205	0.131	0.109
-703.572	800.000	0.117	0.435
-702.558	-200.000	-0.154	0.000
-701.543	45.212	0.172	0.160
-700.529	800.000	0.191	0.579
-699.514	518.555	-0.074	0.175
-698.499	-200.000	0.008	0.040
-697.485	51.885	-0.190	-0.182
-696.470	103.563	0.036	0.043
-695.456	173.398	-0.061	-0.088
-694.441	6.160	0.118	0.088
-693.426	-120.881	0.251	0.043
-692.412	-91.624	-0.134	0.039
-691.397	-200.000	-0.027	-0.422
-690.383	-114.016	-0.202	0.040
-689.368	51.053	0.080	-0.077
-688.354	-200.000	-0.070	-0.379
-687.339	-118.575	-0.349	-0.062
-686.324	-200.000	0.032	0.472
-685.310	51.007	-0.032	-0.030
-684.295	112.464	-0.091	-0.111
-683.281	78.000	-0.175	0.188
-682.266	-64.851	-0.233	0.095
-681.251	-94.139	0.203	0.056
-680.237	-16.969	0.224	0.143
-679.222	164.734	-0.152	0.216
-678.208	-49.723	0.048	0.023
-677.193	799.469	-0.075	0.209
-676.178	289.254	0.119	-0.217
-675.164	37.433	-0.075	0.067
-674.149	4.901	0.158	0.117
-673.135	800.000	0.101	-0.428
-672.120	-146.992	0.126	-0.011
-671.105	54.581	-0.145	0.141
-670.091	162.176	-0.145	0.205
-669.076	-148.818	-0.088	-0.007
-668.062	-50.782	0.122	-0.058
-667.047	441.046	-0.036	-0.079
-666.032	-200.000	0.035	0.182
-665.018	800.000	0.036	0.110
-664.003	-97.095	-0.441	0.116
-662.989	-128.681	0.106	0.015
-661.974	-200.000	0.015	0.403
-660.959	-156.884	-0.155	-0.010
-659.945	159.277	0.145	-0.203
-658.930	2.316	0.210	0.153
-657.916	120.594	-0.191	-0.239
-656.901	724.039	0.117	0.315
-655.886	105.976	-0.173	-0.206
-654.872	87.415	-0.118	0.132
-653.857	-29.006	-0.239	0.138
-652.843	5.901	-0.219	-0.164
-651.828	-11.265	0.232	-0.154
-650.814	173.568	0.110	-0.159
-649.799	-141.184	-0.072	-0.007
-648.784	-171.549	0.185	-0.006
-647.770	-3.551	-0.283	0.198
-646.755	40.518	-0.139	-0.127
-645.741	-176.077	-0.105	0.003
-644.726	-51.030	0.115	0.054
-643.711	-63.453	0.324	0.134
-642.697	729.090	0.029	-0.079
-641.682	251.786	-0.187	-0.321
-640.668	50.189	0.111	0.105
-639.653	-200.000	-0.011	-0.272
-638.638	81.646	-0.155	0.169
-637.624	-76.142	-0.223	-0.079
-636.609	249.034	-0.056	0.096
-635.595	123.365	0.090	0.114
-634.580	800.000	-0.100	-0.322
-633.565	-47.495	-0.238	-0.116
-632.551	47.137	0.090	-0.084
-631.536	800.000	0.050	-0.158
-630.522	53.732	-0.162	0.157
-629.507	-73.265	0.100	0.037
-628.492	-134.720	0.245	-0.030
-627.478	-64.921	-0.108	-0.044
-626.463	-15.898	-0.336	-0.215
-625.449	-139.304	0.183	0.020
-624.434	-54.184	-0.217	0.099
-623.419	-116.367	-0.185	0.034
-622.405	-200.000	-0.012	0.086
-621.390	-200.000	0.004	-0.122
-620.376	-91.763	0.163	-0.046
-619.361	-67.622	-0.166	0.066
-618.346	-89.468	0.194	0.057
-617.332	800.000	0.004	-0.017
-616.317	34.801	-0.072	0.064
-615.303	-170.306	0.093	-0.003
-614.288	665.391	0.057	-0.148
-613.273	758.093	-0.113	0.307
-612.259	-200.000	0.048	-0.291
-611.244	-31.739	0.296	0.167
-610.230	-200.000	-0.071	-0.378
-609.215	-200.000	-0.020	-0.171
-608.201	122.875	0.115	0.145
-607.186	411.250	-0.116	-0.248
-606.171	-23.365	-0.094	0.057
-605.157	-119.591	0.025	0.004
-604.142	353.632	-0.021	0.043
-603.128	-114.191	-0.120	0.023
-602.113	-98.785	-0.186	-0.048
-601.098	-56.917	-0.104	-0.046
-600.084	-65.805	-0.376	0.151
-599.069	-23.254	-0.128	0.078
-598.055	-200.000	-0.056	0.400
-597.040	221.800	-0.023	-0.037
-596.025	-31.328	-0.249	-0.141
-595.011	-144.050	-0.088	0.008
-593.996	167.252	0.170	-0.243
-592.982	649.565	-0.107	-0.275
-591.967	-151.003	-0.273	-0.021
-590.952	-200.000	0.046	-0.222
-589.938	-126.775	-0.131	-0.020
-588.923	-5.989	-0.034	0.023
-587.909	-200.000	0.028	0.579
-586.894	-6.700	0.096	0.066
-585.879	-152.807	-0.207	-0.015
-584.865	266.687	0.185	-0.325
-583.850	105.383	-0.062	-0.073
-582.836	-62.838	0.218	0.091
-581.821	20.739	0.282	0.229
-580.806	-72.343	0.155	-0.058
-579.792	-125.767	-0.378	0.057
-578.777	800.000	-0.037	0.134
-577.763	44.822	-0.214	-0.198
-576.748	-118.808	0.331	-0.058
-575.733	563.701	0.131	-0.320
-574.719	-115.064	0.324	-0.062
-573.704	-200.000	-0.033	-0.155
-572.690	-89.551	-0.096	-0.028
-571.675	223.200	0.207	0.336
-570.661	661.435	-0.080	-0.206
-569.646	-99.812	0.326	0.082
-568.631	30.255	-0.095	0.081
-567.617	222.060	-0.192	-0.310
-566.602	549.934	0.075	-0.182
-565.588	40.598	0.287	-0.259
-564.573	-200.000	0.007	0.146
-563.558	103.445	0.286	0.337
-562.544	130.344	-0.048	0.062
-561.529	101.458	0.200	-0.234
-560.515	-93.143	0.252	-0.070
-559.500	-132.013	-0.320	0.042
-558.485	129.322	-0.176	-0.225
-557.471	90.600	0.129	0.145
-556.456	740.682	-0.076	0.205
-555.442	-115.213	-0.245	-0.046
-554.427	-11.035	-0.138	-0.091
-553.412	-123.509	-0.073	0.012
-552.398	-16.242	-0.382	-0.243
-551.383	575.452	-0.103	0.251
-550.369	-8.271	0.196	0.132
-549.354	-79.541	0.438	-0.148
-548.339	125.669	-0.125	-0.158
-547.325	61.635	0.241	-0.241
-546.310	12.094	-0.193	-0.149
-545.296	-36.941	-0.119	0.064
-544.281	373.765	-0.078	0.159
-543.266	-102.506	0.116	-0.028
-542.252	-31.825	0.066	0.037
-541.237	166.177	0.167	0.238
-540.223	-35.290	-0.049	0.027
-539.208	578.285	0.119	0.293
-538.193	-200.000	-0.030	0.435
-537.179	201.624	0.092	-0.142
-536.164	184.289	-0.073	-0.109
-535.150	-200.000	-0.002	-0.296
-534.135	93.261	0.102	-0.116
-533.121	-33.374	0.198	-0.110
-532.106	386.537	0.071	0.147
-531.091	87.365	-0.085	-0.094
-530.077	-119.617	0.269	-0.047
-529.062	-143.022	0.164	0.016
-528.048	-57.411	0.143	-0.063
-527.033	800.000	0.149	-0.422
-526.018	-65.044	-0.067	0.027
-525.004	-63.022	-0.488	0.202
-523.989	-32.377	0.158	-0.089
-522.975	76.597	0.112	-0.119
-521.960	463.667	-0.098	-0.219
-520.945	70.169	-0.118	-0.122
-519.931	-75.580	-0.327	0.117
-518.916	-200.000	-0.058	-0.388
-517.902	-54.168	0.112	0.051
-516.887	378.874	0.028	-0.057
-515.872	419.902	-0.070	-0.151
-514.858	136.635	-0.115	0.150
-513.843	51.242	-0.228	0.217
-512.829	-200.000	-0.059	0.361
-511.814	10.622	0.251	0.192
-510.799	-45.181	0.306	-0.152
-509.785	-19.835	0.193	0.120
-508.770	84.927	-0.086	-0.094
-507.756	29.408	-0.302	0.257
-506.741	610.061	0.014	0.034
-505.726	800.000	0.068	-0.288
-504.712	79.163	0.088	-0.095
-503.697	-200.000	0.003	0.119
-502.683	413.224	-0.085	-0.182
-501.668	60.580	-0.053	-0.052
-500.653	800.000	-0.091	0.359
-499.639	800.000	0.020	0.079
-498.624	8.869	0.038	-0.029
-497.610	86.270	0.242	-0.267
-496.595	-200.000	-0.017	-0.207
-495.581	742.604	0.088	0.238
-494.566	528.933	0.168	-0.398
-493.551	-200.000	0.013	0.299
-492.537	-78.721	0.245	-0.084
-491.522	-200.000	-0.029	-0.184
-490.508	18.459	-0.083	0.066
-489.493	-67.471	0.220	-0.087
-488.478	-4.886	0.228	0.157
-487.464	338.959	-0.028	0.054
-486.449	-200.000	-0.026	0.211
-485.435	-200.000	0.039	0.188
-484.420	800.000	-0.099	-0.332
-483.405	-68.567	-0.291	-0.113
-482.391	-15.693	-0.178	-0.114
-481.376	-87.067	0.132	0.040
-480.362	20.473	-0.222	0.180
-479.347	108.271	-0.117	0.139
-478.332	163.022	0.177	0.248
-477.318	-132.242	0.118	-0.015
-476.303	-200.000	-0.025	0.159
-475.289	-108.514	-0.358	0.077
-474.274	-200.000	-0.057	0.358
-473.259	90.590	-0.062	-0.069
-472.245	-29.918	0.133	0.076
-471.230	9.490	-0.115	-0.087
-470.216	800.000	0.063	-0.211
-469.201	23.023	-0.324	-0.266
-468.186	757.840	0.115	0.311
-467.172	10.790	0.114	-0.087
-466.157	-22.052	-0.302	0.184
-465.143	-117.110	0.184	0.033
-464.128	-200.000	0.013	-0.099
-463.113	-85.581	-0.452	0.141
-462.099	-127.694	0.180	0.026
-461.084	109.308	-0.262	0.314
-460.070	800.000	0.138	0.540
-459.055	-84.900	-0.050	0.016
-458.040	800.000	-0.090	-0.266
-457.026	-133.082	0.117	-0.015
-456.011	-51.836	0.094	-0.044
-454.997	-81.196	-0.029	0.010
-453.982	44.587	0.156	-0.143
-452.968	-86.734	0.245	0.075
-451.953	-200.000	0.013	-0.147
-450.938	-200.000	0.008	0.073
-449.924	-76.940	-0.100	-0.035
-448.909	-42.947	-0.310	-0.157
-447.895	2.890	0.286	-0.207
-446.880	-70.623	-0.123	0.047
-445.865	189.249	-0.201	-0.302
-444.851	-38.106	0.075	-0.040
-443.836	-101.043	0.129	-0.032
-442.822	79.390	0.190	0.204
-441.807	-82.275	0.049	0.016
-440.792	-200.000	-0.069	-0.625
-439.778	-63.224	-0.220	-0.091
-438.763	35.504	-0.242	-0.212
-437.749	301.586	-0.130	0.239
-436.734	630.705	0.125	-0.315
-435.719	800.000	-0.035	-0.146
-434.705	-126.981	-0.329	-0.048
-433.690	29.201	0.246	-0.209
-432.676	18.490	0.096	-0.077
-431.661	-9.434	-0.191	-0.128
-430.646	22.292	0.356	-0.291
-429.632	-97.962	-0.178	0.046
-428.617	-200.000	-0.012	0.076
-427.603	-34.590	-0.309	-0.169
-426.588	129.393	-0.158	-0.202
-425.573	-5.434	-0.145	0.099
-424.559	-85.612	0.292	0.091
-423.544	209.855	-0.039	-0.061
-422.530	-33.966	0.059	0.033
-421.515	261.273	0.200	0.346
-420.500	-71.921	0.206	-0.076
-419.486	-110.135	0.292	0.061
-418.471	800.000	0.107	0.351
-417.457	240.771	-0.028	0.046
-416.442	187.197	0.040	0.060
-415.428	-13.713	0.027	-0.017
-414.413	-17.836	0.248	0.155
-413.398	-56.006	-0.123	-0.055
-412.384	-200.000	0.054	-0.368
-411.369	38.328	0.201	0.179
-410.355	176.918	-0.044	0.064
-409.340	-200.000	-0.007	0.455
-408.325	115.348	0.146	-0.179
-407.311	-66.033	-0.304	-0.121
-406.296	662.080	-0.024	-0.061
-405.282	142.792	-0.092	0.123
-404.267	123.788	-0.153	-0.192
-403.252	-34.977	-0.285	-0.155
-402.238	-119.694	-0.208	-0.036
-401.223	800.000	-0.204	0.593
-400.209	800.000	-0.112	-0.340
-399.194	-133.085	0.141	-0.018
-398.179	348.307	-0.125	-0.245
-397.165	-41.007	-0.093	-0.048
-396.150	-200.000	0.064	0.418
-395.136	-16.403	0.076	-0.048
-394.121	-6.662	-0.197	-0.134
-393.106	309.763	-0.130	0.243
-392.092	800.000	-0.164	-0.506
-391.077	-200.000	0.002	-0.094
-390.063	-19.683	0.133	-0.082
-389.048	673.475	0.053	0.136
-388.033	-78.357	-0.360	0.123
-387.019	330.443	-0.045	0.087
-386.004	-81.120	-0.382	-0.126
-384.990	335.148	-0.132	0.255
-383.975	-175.128	0.363	0.010
-382.960	326.434	0.139	-0.266
-381.946	-200.000	0.020	0.309
-380.931	92.662	0.166	0.187
-379.917	-15.497	0.116	-0.074
-378.902	118.581	-0.061	0.076
-377.888	195.146	-0.116	-0.176
-376.873	-112.453	-0.174	0.035
-375.858	25.545	-0.317	-0.263
-374.844	-122.275	0.098	-0.016
-373.829	-184.435	-0.185	-0.003
-372.815	-12.845	-0.192	0.125
-371.800	-34.372	-0.092	0.050
-370.785	271.974	0.038	0.067
-369.771	-31.431	0.174	0.097
-368.756	-77.456	0.338	0.117
-367.742	-145.178	0.042	0.004
-366.727	221.170	-0.132	-0.211
-365.712	-118.169	0.211	-0.038
-364.698	82.230	-0.182	0.196
-363.683	556.121	-0.024	-0.058
-362.669	-100.023	0.269	0.067
-361.654	418.908	-0.130	0.277
-360.639	123.408	0.251	0.313
-359.625	623.233	0.100	0.251
-358.610	35.102	0.183	-0.160
-357.596	243.666	-0.107	-0.179
-356.581	-23.919	0.164	-0.098
-355.566	4.235	-0.152	0.111
-354.552	1.461	0.092	0.066
-353.537	800.000	0.091	0.371
-352.523	-92.854	-0.380	-0.106
-351.508	800.000	0.066	-0.275
-350.493	-122.967	-0.322	0.052
-349.479	41.595	0.113	0.102
-348.464	-200.000	-0.004	-0.106
-347.450	-200.000	-0.023	-0.105
-346.435	219.875	0.008	0.013
-345.420	-200.000	0.004	-0.282
-344.406	258.537	0.048	0.082
-343.391	134.943	0.046	-0.060
-342.377	-114.094	-0.157	0.030
-341.362	180.124	-0.078	0.113
-340.348	142.691	-0.213	0.281
-339.333	800.000	0.068	0.253
-338.318	-82.529	0.259	-0.084
-337.304	-200.000	-0.030	-0.158
-336.289	800.000	0.023	0.079
-335.275	315.174	-0.132	0.247
-334.260	-31.321	0.268	-0.150
-333.245	-151.390	-0.192	0.014
-332.231	21.498	-0.167	-0.135
-331.216	29.421	0.076	-0.065
-330.202	-181.349	-0.217	-0.004
-329.187	-56.555	-0.168	0.074
-328.172	98.893	0.126	-0.145
-327.158	27.027	-0.180	0.150
-326.143	-200.000	-0.011	0.081
-325.129	113.919	-0.148	0.179
-324.114	-77.971	-0.285	0.098
-323.099	-157.828	-0.042	0.002
-322.085	-82.693	-0.194	0.062
-321.070	-63.672	0.125	0.051
-320.056	525.243	-0.100	-0.235
-319.041	-50.049	0.261	0.123
-318.026	157.835	0.053	-0.073
-317.012	-11.340	0.311	0.204
-315.997	-169.441	0.422	-0.015
-314.983	-36.562	-0.233	0.124
-313.968	-116.646	0.325	-0.059
-312.953	111.454	-0.244	0.292
-311.939	-200.000	-0.008	0.365
-310.924	85.302	-0.037	0.040
-309.910	-95.567	-0.551	0.147
-308.895	459.731	-0.122	0.269
-307.880	-40.617	0.293	-0.151
-306.866	-141.316	0.246	0.025
-305.851	-31.819	-0.288	-0.161
-304.837	229.071	0.103	-0.167
-303.822	-101.091	0.122	-0.030
-302.807	-51.127	0.203	0.095
-301.793	11.653	-0.094	-0.072
-300.778	161.201	0.151	0.210
-299.764	800.000	0.014	0.058
-298.749	-42.655	0.177	-0.090
-297.735	8.992	-0.109	-0.082
-296.720	800.000	0.088	0.243
-295.705	800.000	0.060	-0.245
-294.691	800.000	0.051	-0.140
-293.676	202.116	0.065	-0.099
-292.662	222.907	0.125	-0.200
-291.647	18.479	-0.138	-0.110
-290.632	309.261	0.161	-0.298
-289.618	-67.609	-0.424	0.165
-288.603	44.721	0.153	0.140
-287.589	92.103	-0.071	0.079
-286.574	21.075	-0.194	0.156
-285.559	133.106	0.195	0.250
-284.545	303.712	0.139	0.256
-283.530	-200.000	0.021	0.270
-282.516	-67.750	0.222	0.086
-281.501	53.009	0.227	-0.216
-280.486	3.968	-0.105	-0.076
-279.472	18.305	-0.231	0.183
-278.457	376.095	0.207	0.420
-277.443	575.877	-0.036	0.088
-276.428	772.015	-0.078	-0.210
-275.413	52.847	-0.100	-0.095
-274.399	800.000	0.079	0.339
-273.384	-57.560	0.259	-0.113
-272.370	420.744	-0.104	0.222
-271.355	-120.733	0.192	-0.032
-270.340	232.201	0.158	-0.258
-269.326	17.707	-0.298	-0.235
-268.311	-200.000	-0.031	-0.404
-267.297	43.252	-0.381	-0.345
-266.282	229.980	0.089	0.145
-265.267	-200.000	0.009	-0.056
-264.253	7.583	0.159	-0.118
-263.238	-0.197	-0.091	-0.064
-262.224	504.165	0.078	-0.179
-261.209	800.000	-0.045	0.136
-260.195	3.293	-0.359	-0.260
-259.180	-66.378	-0.159	0.063
-258.165	800.000	0.169	0.499
-257.151	800.000	-0.005	-0.020
-256.136	77.955	-0.076	0.081
-255.122	800.000	0.082	0.242
-254.107	51.756	-0.107	-0.101
-253.092	-155.133	0.287	-0.019
-252.078	763.044	0.025	0.067
-251.063	-200.000	-0.016	-0.131
-250.049	42.623	0.121	-0.110
-249.034	248.159	0.157	0.264
-248.019	-20.311	0.118	-0.072
-247.005	-99.547	0.174	0.043
-245.990	-22.910	0.054	-0.032
-244.976	-30.781	-0.147	0.083
-243.961	11.494	0.138	-0.105
-242.946	-19.189	0.188	-0.116
-241.932	800.000	-0.078	-0.290
-240.917	-200.000	0.002	0.141
-239.903	502.042	0.090	0.207
-238.888	68.440	-0.160	0.163
-237.873	51.706	-0.180	0.169
-236.859	-200.000	-0.031	0.382
-235.844	-16.167	0.266	0.167
-234.830	800.000	-0.087	-0.353
-233.815	695.130	0.042	0.108
-232.800	-156.257	-0.168	-0.010
-231.786	37.606	0.151	0.133
-230.771	102.620	0.132	-0.153
-229.757	-109.313	-0.057	-0.012
-228.742	-200.000	0.050	-0.248
-227.727	-83.727	-0.213	0.067
-226.713	800.000	0.096	-0.348
-225.698	238.657	0.108	0.178
-224.684	133.269	0.110	-0.141
-223.669	9.291	-0.179	-0.134
-222.655	-81.409	0.133	0.043
-221.640	-128.290	-0.094	-0.013
-220.625	-200.000	-0.008	-0.048
-219.611	292.348	-0.136	-0.245
-218.596	-132.418	0.033	0.004
-217.582	-200.000	0.025	0.119
-216.567	-114.474	-0.219	0.042
-215.552	-88.043	0.045	-0.014
-214.538	21.096	-0.221	-0.177
-213.523	800.000	0.033	0.115
-212.509	106.169	-0.337	-0.395
-211.494	-200.000	-0.017	0.095
-210.479	28.564	0.034	0.028
-209.465	-24.112	0.093	-0.055
-208.450	-106.846	0.379	-0.083
-207.436	-103.562	-0.128	-0.030
-206.421	305.097	-0.242	0.445
-205.406	-85.062	0.414	0.128
-204.392	-94.425	0.323	-0.087
-203.377	-76.760	-0.171	0.059
-202.363	-30.521	0.491	-0.275
-201.348	-184.748	-0.204	0.003
-200.333	-200.000	-0.005	-0.117
-199.319	-64.933	-0.040	-0.016
-198.304	-200.000	-0.022	-0.517
-197.290	-89.789	-0.245	0.071
-196.275	800.000	0.014	-0.055
-195.260	255.569	0.107	-0.182
-194.246	-200.000	0.453	-0.001
-193.231	-200.000	-0.007	-0.045
-192.217	232.336	0.026	0.042
-191.202	424.628	0.108	-0.231
-190.187	-85.545	-0.178	0.055
-189.173	72.381	0.118	0.122
-188.158	180.699	0.193	0.280
-187.144	368.337	0.111	0.223
-186.129	-114.737	0.106	0.020
-185.114	-155.318	0.205	0.013
-184.100	-36.007	-0.428	0.229
-183.085	800.000	0.043	-0.163
-182.071	-89.229	0.230	-0.067
-181.056	-185.557	0.318	-0.005
-180.042	282.792	-0.049	-0.087
-179.027	-124.238	-0.065	-0.010
-178.012	203.820	0.115	-0.176
-176.998	1.858	-0.222	-0.158
-175.983	-159.415	0.080	-0.004
-174.969	-64.742	0.278	-0.112
-173.954	-200.000	0.047	-0.207
-172.939	518.046	-0.102	0.236
-171.925	10.211	0.103	0.078
-170.910	-91.561	0.095	0.027
-169.896	800.000	0.083	-0.241
-168.881	-153.823	-0.235	-0.016
-167.866	-200.000	-0.032	0.273
-166.852	800.000	-0.057	-0.243
-165.837	67.351	-0.199	0.200
-164.823	-200.000	0.018	0.125
-163.808	98.151	-0.280	0.318
-162.793	218.961	-0.079	0.125
-161.779	441.992	0.078	-0.168
-160.764	-200.000	-0.057	0.290
-159.750	6.139	0.148	0.109
-158.735	294.552	0.081	-0.146
-157.720	-200.000	0.012	0.268
-156.706	-161.120	0.151	0.008
-155.691	84.891	0.126	0.136
-154.677	-138.941	0.133	-0.014
-153.662	59.925	0.164	0.160
-152.647	-200.000	0.082	0.392
-151.633	-19.382	0.111	-0.068
-150.618	-46.607	-0.158	-0.076
-149.604	-200.000	-0.032	-0.157
-148.589	-200.000	0.007	0.148
-147.574	-84.570	-0.276	0.086
-146.560	-45.239	-0.067	0.033
-145.545	316.348	0.092	0.171
-144.531	-57.014	0.123	-0.053
-143.516	-62.425	-0.144	0.059
-142.502	-46.180	-0.189	0.092
-141.487	-24.222	0.098	-0.058
-140.472	-57.565	0.424	0.184
-139.458	-152.692	0.355	0.025
-138.443	-200.000	0.023	0.116
-137.429	-173.018	0.230	0.007
-136.414	800.000	-0.039	-0.114
-135.399	-40.978	0.026	0.013
-134.385	800.000	-0.120	0.354
-133.370	193.607	0.151	0.226
-132.356	-81.035	-0.274	-0.090
-131.341	800.000	-0.067	-0.270
-130.326	-48.239	-0.304	0.145
-129.312	-200.000	-0.063	0.439
-128.297	-200.000	-0.007	0.294
-127.283	69.165	-0.187	-0.190
-126.268	-7.373	0.137	-0.091
-125.253	175.792	-0.067	-0.096
-124.239	-135.271	-0.204	0.024
-123.224	332.688	-0.081	0.155
-122.210	396.049	0.188	0.388
-121.195	68.174	0.235	0.237
-120.180	-200.000	0.008	-0.234
