DTS Sentinel unit serial number:	SN413079Multiplexer serial number:	ORYXHardware model number:	OX4-SRSoftware version number:	ORYX F/W v4.00 Oryx Data Collector v3.7.2.0data status	okinstallation	princeton_trtdifferential loss correction	single-endedforward channel	channel 4reverse channel	N/Adate	2019/09/12time	19:31:18forward acquisition time	15.00reverse acquisition time	0.00gamma	496.2192k internal	0.2310k external	0.2310temperature offset calibration	1.0146default loss term (dB/km)	0.3790temperature slope calibration	1.0000multiplexer offset coefficient	1.0000multiplexer slope coefficient	1.0000fibre end	0.00T internal ref (°C)	32.25T ext. ref 1 (°C)	3.26T ext. ref 2 (°C)	26.82length (m)	temperature (°C)	Stokes	anti-Stokes-747.200	-97.033	-0.821	-0.218
-746.185	-125.220	0.585	0.091
-745.171	-85.331	-0.130	-0.041
-744.156	-200.000	0.018	-0.325
-743.142	800.000	0.335	-1.002
-742.127	-73.612	0.167	0.062
-741.112	232.103	0.257	0.429
-740.098	486.860	0.353	0.819
-739.083	-200.000	-0.006	0.403
-738.069	46.052	0.226	-0.213
-737.054	280.003	-0.260	0.471
-736.039	130.574	-0.262	-0.342
-735.025	13.806	-0.496	-0.391
-734.010	-95.420	1.219	-0.332
-732.996	-200.000	0.110	-0.704
-731.981	-29.518	0.109	-0.063
-730.966	-30.914	-0.812	0.466
-729.952	390.484	-0.327	-0.688
-728.937	332.167	-0.331	0.648
-727.923	-200.000	-0.046	0.824
-726.908	-166.368	1.097	0.047
-725.894	190.359	-0.675	-1.029
-724.879	-143.290	-0.871	0.085
-723.864	-36.506	0.318	0.174
-722.850	-121.191	-0.615	-0.104
-721.835	-7.317	-0.627	-0.431
-720.821	-70.378	-0.575	-0.221
-719.806	800.000	-0.118	-0.470
-718.791	-79.900	0.418	0.143
-717.777	-98.924	0.240	-0.062
-716.762	13.178	-0.559	-0.440
-715.748	-96.158	-0.288	0.078
-714.733	-200.000	-0.098	-0.452
-713.718	-200.000	0.017	-0.363
-712.704	144.617	-0.468	-0.634
-711.689	-126.844	0.492	-0.074
-710.675	-72.487	0.532	-0.199
-709.660	122.215	0.279	-0.354
-708.645	332.504	-0.078	-0.153
-707.631	-86.670	-0.608	-0.189
-706.616	139.124	-0.521	-0.695
-705.602	-93.191	0.320	0.090
-704.587	94.852	0.067	-0.077
-703.572	800.000	-0.043	0.180
-702.558	-126.389	-0.381	0.058
-701.543	163.903	0.007	-0.010
-700.529	31.895	-0.318	-0.277
-699.514	-32.220	-0.638	-0.362
-698.499	-49.495	0.846	-0.409
-697.485	78.552	-0.087	0.094
-696.470	-200.000	-0.067	0.590
-695.456	-74.791	-0.461	0.168
-694.441	192.609	0.251	-0.384
-693.426	-113.922	0.296	-0.058
-692.412	-146.762	-0.608	-0.053
-691.397	59.711	-0.325	0.325
-690.383	262.391	0.452	0.795
-689.368	37.146	0.216	0.193
-688.354	40.474	0.331	-0.302
-687.339	800.000	-0.179	0.735
-686.324	24.357	-0.294	0.246
-685.310	299.745	-0.120	-0.225
-684.295	-153.420	-0.451	0.032
-683.281	-20.608	-0.366	0.228
-682.266	454.971	0.139	0.312
-681.251	499.769	-0.277	-0.647
-680.237	226.500	-0.766	-1.260
-679.222	-90.285	-0.683	-0.201
-678.208	-11.695	-0.093	0.062
-677.193	369.324	0.199	0.409
-676.178	-82.749	0.812	0.266
-675.164	-148.549	0.476	0.039
-674.149	107.347	-0.094	-0.114
-673.135	-43.508	-0.600	0.307
-672.120	119.300	-0.306	-0.383
-671.105	730.761	0.104	-0.283
-670.091	-40.952	-0.552	-0.289
-669.076	-60.622	-0.027	0.011
-668.062	800.000	-0.220	0.969
-667.047	46.866	-0.585	-0.551
-666.032	-200.000	-0.001	0.030
-665.018	67.063	-0.516	0.532
-664.003	72.769	0.251	-0.265
-662.989	163.599	0.319	-0.455
-661.974	-56.215	0.243	0.109
-660.959	211.128	-0.353	-0.562
-659.945	-49.634	-0.096	0.046
-658.930	-200.000	0.034	0.444
-657.916	-71.495	0.366	0.138
-656.901	-56.489	-0.923	-0.414
-655.886	127.650	0.256	0.329
-654.872	800.000	0.102	-0.360
-653.857	-108.317	-0.308	-0.067
-652.843	148.280	0.658	-0.898
-651.828	433.541	0.082	-0.179
-650.814	-0.700	0.182	-0.131
-649.799	-183.800	1.059	0.018
-648.784	61.183	-0.564	0.567
-647.770	800.000	0.215	0.758
-646.755	-64.724	-0.366	0.150
-645.741	-200.000	0.092	-0.599
-644.726	67.415	0.345	-0.357
-643.711	-53.780	-0.260	0.120
-642.697	131.818	0.280	0.364
-641.682	-161.856	-0.418	-0.021
-640.668	-102.801	-0.739	0.178
-639.653	-92.442	-0.203	0.058
-638.638	67.190	-0.588	-0.606
-637.624	13.685	-0.258	-0.203
-636.609	160.351	-0.318	0.448
-635.595	-18.965	-0.472	0.297
-634.580	800.000	0.390	1.096
-633.565	-105.674	-0.177	0.040
-632.551	-200.000	0.018	-0.185
-631.536	30.607	-0.369	0.319
-630.522	-54.375	-0.698	-0.320
-629.507	800.000	-0.115	0.411
-628.492	573.782	-0.133	0.329
-627.478	27.195	0.176	-0.149
-626.463	-111.017	-0.558	-0.116
-625.449	-48.617	0.842	-0.409
-624.434	-89.194	-0.079	-0.023
-623.419	-37.719	-0.212	-0.114
-622.405	3.981	0.397	-0.293
-621.390	44.047	0.194	-0.180
-620.376	327.407	0.127	-0.245
-619.361	148.822	0.494	0.676
-618.346	-110.166	0.739	0.156
-617.332	80.236	-0.549	0.597
-616.317	129.399	0.570	0.736
-615.303	-102.195	0.639	-0.155
-614.288	159.178	-0.435	-0.612
-613.273	538.648	-0.068	-0.163
-612.259	800.000	-0.409	1.207
-611.244	-31.066	0.892	-0.508
-610.230	-53.347	1.034	0.479
-609.215	126.686	-0.086	-0.110
-608.201	-19.823	0.525	0.328
-607.186	289.233	-0.396	-0.726
-606.171	-40.818	-0.643	-0.336
-605.157	-200.000	-0.028	0.953
-604.142	135.936	-0.903	-1.188
-603.128	102.604	-0.218	-0.257
-602.113	187.228	-0.150	-0.225
-601.098	-146.762	-0.883	-0.077
-600.084	-66.883	-0.346	0.138
-599.069	-40.546	1.623	-0.850
-598.055	211.154	-0.301	-0.478
-597.040	1.019	0.788	0.570
-596.025	75.013	-0.380	-0.405
-595.011	-200.000	-0.009	0.494
-593.996	800.000	0.109	-0.384
-592.982	355.935	0.224	-0.451
-591.967	-122.869	-0.555	0.090
-590.952	800.000	0.118	-0.518
-589.938	-200.000	-0.132	-0.941
-588.923	800.000	-0.193	0.581
-587.909	13.946	-0.378	-0.297
-586.894	-6.279	0.398	0.275
-585.879	215.008	-0.280	-0.448
-584.865	-107.977	-0.296	-0.065
-583.850	-157.069	-0.719	-0.044
-582.836	207.709	-0.243	0.382
-581.821	-78.040	-0.381	0.132
-580.806	399.744	0.176	0.373
-579.792	800.000	0.245	-0.872
-578.777	-30.812	0.205	0.117
-577.763	389.337	0.396	0.828
-576.748	87.776	0.370	0.413
-575.733	-25.445	-0.587	-0.350
-574.719	296.027	-0.471	-0.871
-573.704	66.681	-0.983	-1.009
-572.690	6.685	-0.089	0.067
-571.675	-82.659	-0.561	0.183
-570.661	-200.000	-0.055	-0.329
-569.646	372.444	-0.104	-0.214
-568.631	-200.000	-0.058	-0.435
-567.617	800.000	0.144	-0.556
-566.602	-200.000	-0.057	0.451
-565.588	160.127	-0.250	-0.351
-564.573	212.216	-0.195	0.310
-563.558	54.784	-0.350	-0.341
-562.544	-200.000	0.050	0.264
-561.529	-177.961	-0.730	-0.018
-560.515	-44.018	0.541	-0.274
-559.500	-200.000	0.070	0.395
-558.485	-165.203	0.151	-0.007
-557.471	-200.000	-0.051	0.570
-556.456	628.924	-0.093	0.237
-555.442	-43.159	-0.147	0.075
-554.427	-13.366	0.469	0.306
-553.412	22.830	0.443	-0.366
-552.398	-52.972	0.454	-0.210
-551.383	448.074	-0.236	-0.524
-550.369	-200.000	0.070	-0.406
-549.354	800.000	-0.072	-0.247
-548.339	-200.000	0.021	0.208
-547.325	-109.641	-0.291	0.062
-546.310	-168.510	-0.495	0.019
-545.296	171.887	0.474	-0.687
-544.281	13.609	-0.418	0.327
-543.266	1.157	-0.419	-0.303
-542.252	-180.422	0.721	-0.015
-541.237	-37.726	-0.090	0.049
-540.223	-103.894	0.777	-0.183
-539.208	30.829	0.277	-0.239
-538.193	605.018	-0.178	0.447
-537.179	-112.687	0.653	-0.131
-536.164	-89.676	1.077	0.318
-535.150	17.091	-0.470	-0.376
-534.135	800.000	-0.076	-0.325
-533.121	94.877	-0.827	-0.948
-532.106	-71.587	-0.426	0.160
-531.091	181.975	0.397	0.589
-530.077	25.229	-0.882	0.738
-529.062	-7.013	0.143	0.097
-528.048	83.349	0.279	0.306
-527.033	760.263	-0.178	0.486
-526.018	770.000	-0.153	0.420
-525.004	1.176	-0.525	0.379
-523.989	254.448	0.305	-0.525
-522.975	-200.000	-0.015	0.233
-521.960	228.172	0.068	0.112
-520.945	178.417	-0.094	0.138
-519.931	-51.023	-0.491	-0.232
-518.916	-146.523	0.640	-0.056
-517.902	-19.630	0.449	0.280
-516.887	-69.544	0.685	-0.264
-515.872	-57.944	-0.087	0.038
-514.858	-15.419	-0.206	0.132
-513.843	-200.000	0.124	0.837
-512.829	102.956	0.532	0.627
-511.814	136.209	0.098	0.129
-510.799	-116.416	0.512	0.095
-509.785	63.398	0.188	0.190
-508.770	-135.043	0.777	-0.094
-507.756	101.365	0.569	-0.666
-506.741	64.222	-0.165	-0.167
-505.726	-5.445	0.362	-0.250
-504.712	-29.158	0.283	0.163
-503.697	-57.452	-0.451	0.199
-502.683	126.317	-0.234	0.297
-501.668	442.851	-0.064	-0.140
-500.653	-6.339	0.663	0.455
-499.639	-23.723	-0.572	0.345
-498.624	-27.813	-0.026	0.015
-497.610	-62.401	-0.414	-0.173
-496.595	20.399	-0.470	-0.382
-495.581	-200.000	0.022	-0.207
-494.566	-59.705	-0.724	0.312
-493.551	446.187	-0.096	0.213
-492.537	29.049	0.224	0.191
-491.522	-200.000	0.019	-0.264
-490.508	14.686	0.536	0.421
-489.493	181.463	-0.543	0.803
-488.478	440.030	-0.115	0.253
-487.464	-156.688	-0.169	0.011
-486.449	-200.000	0.002	0.140
-485.435	-200.000	0.051	-0.460
-484.420	30.038	0.614	0.526
-483.405	-35.297	0.667	-0.365
-482.391	-4.745	0.152	0.106
-481.376	8.322	-0.445	0.336
-480.362	-200.000	-0.035	-0.420
-479.347	24.951	0.555	0.463
-478.332	800.000	-0.124	-0.384
-477.318	-53.303	-0.444	-0.204
-476.303	800.000	-0.107	-0.427
-475.289	-51.288	0.372	-0.175
-474.274	800.000	-0.066	-0.217
-473.259	800.000	-0.160	0.468
-472.245	-93.721	-0.080	-0.022
-471.230	800.000	-0.215	-0.765
-470.216	-200.000	-0.176	0.795
-469.201	-138.207	-0.481	-0.054
-468.186	-150.022	0.265	0.021
-467.172	-41.889	-0.258	0.133
-466.157	-133.367	-0.236	0.030
-465.143	-200.000	-0.042	-0.191
-464.128	-200.000	-0.018	0.521
-463.113	54.367	-0.415	-0.401
-462.099	-101.828	0.127	0.031
-461.084	97.468	-0.380	0.439
-460.070	-66.707	-0.289	-0.115
-459.055	-96.531	-0.427	0.113
-458.040	800.000	-0.138	-0.478
-457.026	32.442	0.203	0.176
-456.011	-177.368	0.459	0.011
-454.997	-118.387	-0.360	-0.064
-453.982	211.457	0.125	-0.198
-452.968	-200.000	0.018	-0.663
-451.953	-3.040	0.318	-0.222
-450.938	75.820	0.241	-0.256
-449.924	-200.000	-0.072	0.618
-448.909	2.594	0.354	-0.258
-447.895	-20.926	-0.106	0.065
-446.880	-80.290	-0.462	0.155
-445.865	65.416	0.517	0.525
-444.851	-100.820	0.795	-0.196
-443.836	-200.000	-0.068	0.825
-442.822	-26.943	-0.236	0.138
-441.807	269.411	0.379	-0.668
-440.792	-23.509	-0.404	0.243
-439.778	-200.000	0.079	0.651
-438.763	-36.296	-0.371	0.201
-437.749	-78.684	-0.521	-0.178
-436.734	356.815	0.377	0.754
-435.719	250.621	-0.132	-0.225
-434.705	695.099	0.019	-0.051
-433.690	-200.000	-0.049	-0.372
-432.676	800.000	-0.086	-0.259
-431.661	783.114	0.473	1.301
-430.646	-40.665	-0.370	0.192
-429.632	-0.116	-0.358	0.256
-428.617	-104.464	-0.128	0.030
-427.603	-111.563	-0.755	0.154
-426.588	-200.000	-0.024	-0.311
-425.573	219.519	-0.359	0.577
-424.559	800.000	0.157	0.633
-423.544	-200.000	0.132	0.664
-422.530	736.735	-0.124	-0.334
-421.515	-189.139	0.661	0.008
-420.500	-145.725	-1.507	0.135
-419.486	-200.000	0.055	0.624
-418.471	139.127	0.367	0.484
-417.457	-200.000	0.037	0.946
-416.442	156.400	0.268	-0.370
-415.428	48.269	0.207	0.194
-414.413	800.000	0.420	-1.208
-413.398	535.601	0.141	0.334
-412.384	189.423	0.324	0.486
-411.369	-10.765	0.248	0.164
-410.355	42.314	0.141	-0.129
-409.340	356.984	0.276	0.551
-408.325	23.605	-0.513	-0.423
-407.311	-129.073	-0.792	0.111
-406.296	62.832	0.283	-0.283
-405.282	26.196	0.669	0.560
-404.267	-200.000	-0.047	-0.354
-403.252	-58.373	0.580	-0.253
-402.238	319.707	0.108	-0.205
-401.223	90.394	0.438	0.491
-400.209	-89.647	-0.618	0.182
-399.194	9.120	0.536	-0.406
-398.179	-50.292	-0.188	-0.089
-397.165	178.816	0.344	-0.503
-396.150	81.497	0.722	-0.782
-395.136	-49.152	0.302	0.145
-394.121	800.000	0.207	-0.800
-393.106	208.799	-0.626	-0.982
-392.092	344.986	0.052	-0.103
-391.077	30.386	-0.162	-0.139
-390.063	141.020	0.164	-0.217
-389.048	640.621	-0.050	-0.127
-388.033	-133.611	-0.580	0.073
-387.019	557.417	0.050	-0.120
-386.004	542.552	-0.080	-0.191
-384.990	-178.448	0.153	0.004
-383.975	140.957	0.060	0.079
-382.960	-94.391	0.266	0.073
-381.946	-200.000	0.057	0.473
-380.931	-200.000	-0.056	-0.691
-379.917	141.208	0.273	-0.362
-378.902	800.000	0.081	0.249
-377.888	633.134	-0.102	0.258
-376.873	-49.090	0.164	-0.079
-375.858	43.074	-0.070	-0.064
-374.844	28.367	0.650	-0.550
-373.829	-138.488	-0.407	-0.045
-372.815	97.691	-1.028	1.183
-371.800	51.006	-0.156	-0.148
-370.785	-200.000	0.172	0.760
-369.771	-200.000	-0.005	0.666
-368.756	-200.000	-0.001	-0.367
-367.742	-88.125	0.170	0.051
-366.727	-141.327	0.593	-0.060
-365.712	800.000	0.061	-0.218
-364.698	-200.000	-0.001	0.754
-363.683	78.995	0.229	-0.246
-362.669	189.184	-0.397	0.596
-361.654	184.777	-0.362	0.537
-360.639	-200.000	0.007	-0.292
-359.625	-122.187	0.502	-0.082
-358.610	-55.270	-0.669	0.301
-357.596	-122.507	0.464	-0.075
-356.581	79.488	-0.423	0.454
-355.566	15.076	0.219	-0.172
-354.552	551.057	0.232	0.556
-353.537	16.752	-0.346	-0.274
-352.523	-200.000	-0.282	-0.000
-351.508	74.343	0.223	-0.235
-350.493	262.679	-0.114	-0.197
-349.479	-26.779	-0.333	-0.195
-348.464	-111.355	1.317	-0.269
-347.450	-24.588	-0.894	0.532
-346.435	181.984	-0.156	-0.230
-345.420	-200.000	-0.054	0.882
-344.406	-200.000	-0.017	-0.307
-343.391	800.000	-0.362	-1.044
-342.377	-143.358	-0.250	-0.024
-341.362	126.058	1.049	-1.326
-340.348	-200.000	-0.195	-1.121
-339.333	-159.165	0.704	0.040
-338.318	-28.005	0.527	-0.305
-337.304	-200.000	-0.072	-0.483
-336.289	-200.000	-0.037	0.197
-335.275	-94.908	-0.298	-0.081
-334.260	-200.000	-0.066	0.897
-333.245	63.762	0.055	-0.056
-332.231	-105.782	-0.251	-0.057
-331.216	-68.271	0.123	0.048
-330.202	-200.000	-0.079	1.150
-329.187	168.177	0.262	0.373
-328.172	800.000	0.069	0.197
-327.158	343.711	0.224	0.440
-326.143	27.164	-0.139	0.117
-325.129	87.221	0.697	0.770
-324.114	-66.731	-0.300	-0.119
-323.099	296.384	-0.166	-0.305
-322.085	800.000	-0.138	0.501
-321.070	-35.387	-0.895	0.486
-320.056	800.000	-0.122	0.522
-319.041	800.000	-0.088	0.276
-318.026	-200.000	0.017	0.195
-317.012	251.880	-0.134	0.228
-315.997	-42.375	-0.117	0.060
-314.983	45.743	0.446	-0.412
-313.968	800.000	-0.078	-0.245
-312.953	-200.000	0.049	-0.342
-311.939	267.472	0.217	0.379
-310.924	-200.000	-0.080	0.452
-309.910	-200.000	-0.027	-0.306
-308.895	88.265	0.561	0.622
-307.880	201.424	-0.313	-0.481
-306.866	-200.000	-0.162	0.996
-305.851	-0.360	0.294	0.209
-304.837	-2.023	0.040	0.028
-303.822	44.584	0.616	0.566
-302.807	7.554	0.493	0.368
-301.793	450.572	-0.272	0.599
-300.778	594.598	-0.046	-0.112
-299.764	15.415	-0.863	-0.676
-298.749	144.066	-0.340	0.453
-297.735	-82.428	1.122	-0.364
-296.720	122.117	-0.214	-0.267
-295.705	55.547	0.287	-0.278
-294.691	196.548	0.265	-0.403
-293.676	-200.000	-0.023	-0.357
-292.662	-92.813	-0.761	-0.212
-291.647	800.000	0.344	-0.961
-290.632	-112.948	-0.404	0.080
-289.618	-71.214	-0.599	0.224
-288.603	-38.502	-0.557	-0.294
-287.589	193.328	0.553	0.835
-286.574	-200.000	0.014	0.218
-285.559	40.769	0.392	0.353
-284.545	-22.731	0.267	0.161
-283.530	205.212	-0.191	0.295
-282.516	424.591	-0.151	-0.325
-281.501	-17.404	-0.483	0.303
-280.486	-200.000	-0.032	0.411
-279.472	-170.477	-0.416	0.014
-278.457	395.175	-0.143	0.298
-277.443	-200.000	-0.143	-0.922
-276.428	294.090	-0.263	-0.479
-275.413	439.824	-0.127	-0.277
-274.399	501.271	0.154	-0.355
-273.384	-200.000	0.043	0.246
-272.370	800.000	0.091	-0.253
-271.355	-200.000	0.121	0.559
-270.340	-52.356	-1.051	0.485
-269.326	44.547	0.330	-0.303
-268.311	130.776	0.107	0.137
-267.297	330.047	0.161	0.310
-266.282	-121.278	-0.397	0.066
-265.267	-105.344	0.204	0.046
-264.253	235.445	0.101	0.167
-263.238	-200.000	-0.151	-1.401
-262.224	130.964	0.336	0.429
-261.209	800.000	-0.067	-0.203
-260.195	407.876	-0.076	-0.159
-259.180	800.000	0.155	-0.577
-258.165	45.884	0.363	0.334
-257.151	107.382	-0.915	-1.085
-256.136	58.322	0.098	0.096
-255.122	99.123	-0.180	0.207
-254.107	-174.089	0.438	-0.013
-253.092	-73.654	0.451	0.164
-252.078	-200.000	-0.015	0.078
-251.063	-64.110	0.352	-0.143
-250.049	-34.819	-0.679	0.370
-249.034	292.422	-0.224	-0.406
-248.019	275.059	-0.258	0.456
-247.005	-198.520	0.218	0.001
-245.990	-120.223	-0.716	-0.122
-244.976	-90.320	-1.651	0.477
-243.961	-200.000	-0.007	-0.230
-242.946	35.857	0.160	0.141
-241.932	800.000	-0.130	0.477
-240.917	-39.334	0.859	-0.449
-239.903	-33.221	0.393	0.217
-238.888	-74.374	-0.405	0.146
-237.873	-200.000	-0.023	0.269
-236.859	-64.209	-0.579	-0.235
-235.844	800.000	0.087	0.276
-234.830	-200.000	0.016	-0.444
-233.815	-86.767	0.405	0.123
-232.800	800.000	-0.205	-0.691
-231.786	-56.696	0.782	0.344
-230.771	-200.000	0.012	-0.480
-229.757	131.918	0.338	0.433
-228.742	27.641	0.475	-0.398
-227.727	24.750	0.171	0.141
-226.713	-14.055	-0.662	0.425
-225.698	-200.000	-0.088	-0.977
-224.684	-200.000	0.010	-0.233
-223.669	800.000	-0.211	-0.662
-222.655	-200.000	0.106	-0.489
-221.640	73.911	-0.455	-0.475
-220.625	-200.000	-0.002	0.260
-219.611	203.551	0.292	-0.450
-218.596	30.763	-0.224	-0.190
-217.582	95.061	-0.376	0.425
-216.567	-200.000	-0.157	0.717
-215.552	240.858	-0.194	-0.323
-214.538	-200.000	-0.070	-0.475
-213.523	-200.000	-0.026	0.244
-212.509	-65.897	0.293	0.116
-211.494	42.632	-0.361	-0.327
-210.479	800.000	0.228	-0.814
-209.465	-6.586	-0.773	0.523
-208.450	417.844	-0.091	0.193
-207.436	12.135	1.200	0.918
-206.421	109.399	0.309	0.368
-205.406	355.969	0.271	0.536
-204.392	-22.906	0.274	-0.164
-203.377	54.484	0.305	-0.292
-202.363	-139.044	0.980	0.106
-201.348	257.621	0.438	-0.749
-200.333	-69.852	0.452	-0.172
-199.319	559.144	-0.202	-0.485
-198.304	-200.000	0.011	0.572
-197.290	-140.160	-0.569	0.059
-196.275	-200.000	0.010	0.131
-195.260	-66.521	-0.474	0.187
-194.246	540.355	-0.088	0.209
-193.231	576.789	-0.401	-0.974
-192.217	290.658	0.638	-1.152
-191.202	-200.000	-0.016	-0.618
-190.187	6.207	-0.313	0.230
-189.173	36.848	0.266	0.233
-188.158	76.713	0.289	-0.305
-187.144	-95.911	-0.574	-0.152
-186.129	-186.483	0.353	0.005
-185.114	800.000	-0.048	0.134
-184.100	-137.403	0.099	-0.011
-183.085	-200.000	-0.169	0.833
-182.071	-200.000	0.110	-0.527
-181.056	800.000	-0.172	-0.608
-180.042	-110.785	-0.443	-0.091
-179.027	142.592	-0.380	-0.502
-178.012	160.019	0.270	-0.374
-176.998	-149.822	0.378	-0.029
-175.983	329.191	0.229	-0.437
-174.969	132.441	0.167	0.214
-173.954	-14.413	0.197	-0.126
-172.939	107.448	0.097	-0.114
-171.925	129.040	-0.339	0.429
-170.910	-87.623	-0.337	-0.101
-169.896	214.458	-0.232	0.365
-168.881	194.826	0.271	-0.408
-167.866	95.648	0.174	-0.197
-166.852	-56.004	0.120	-0.053
-165.837	774.719	0.157	0.424
-164.823	91.306	0.469	0.523
-163.808	-54.699	0.552	-0.248
-162.793	-200.000	-0.023	-0.583
-161.779	35.699	0.550	-0.480
-160.764	-107.993	0.314	-0.068
-159.750	449.814	-0.132	0.288
-158.735	47.225	-0.399	-0.368
-157.720	-59.256	0.770	0.329
-156.706	242.342	0.247	-0.411
-155.691	-12.138	0.411	-0.267
-154.677	-47.524	0.441	-0.213
-153.662	583.774	0.049	0.119
-152.647	-200.000	0.014	-0.411
-151.633	-112.354	-0.172	0.034
-150.618	278.425	0.464	0.820
-149.604	-92.568	0.403	-0.112
-148.589	-156.292	0.757	0.047
-147.574	-200.000	0.068	0.515
-146.560	-105.220	1.043	0.236
-145.545	13.060	0.204	0.156
-144.531	583.012	-0.062	-0.151
-143.516	57.417	0.371	-0.359
-142.502	-200.000	-0.036	-0.168
-141.487	-64.705	-1.023	0.411
-140.472	11.744	-0.202	0.154
-139.458	95.142	0.384	0.434
-138.443	61.372	-0.401	-0.395
-137.429	-157.441	-0.448	-0.027
-136.414	-200.000	0.075	0.394
-135.399	467.347	-0.237	0.528
-134.385	320.538	0.351	-0.660
-133.370	-200.000	0.026	0.430
-132.356	-148.747	0.881	0.071
-131.341	-103.212	-0.310	-0.073
-130.326	260.739	-0.170	-0.292
-129.312	-200.000	0.060	-0.580
-128.297	-200.000	-0.296	-0.000
-127.283	800.000	0.110	-0.325
-126.268	-94.952	-0.298	0.080
-125.253	-65.069	-0.649	0.260
-124.239	173.481	-0.133	0.190
-123.224	800.000	0.212	0.666
-122.210	-200.000	-0.101	-0.477
-121.195	-200.000	0.011	0.336
