DTS Sentinel unit serial number:	SN413079Multiplexer serial number:	ORYXHardware model number:	OX4-SRSoftware version number:	ORYX F/W v4.00 Oryx Data Collector v3.7.2.0data status	okinstallation	princeton_trtdifferential loss correction	single-endedforward channel	channel 4reverse channel	N/Adate	2019/09/12time	15:27:11forward acquisition time	60.00reverse acquisition time	0.00gamma	496.2192k internal	0.2289k external	0.2289temperature offset calibration	1.0097default loss term (dB/km)	0.3790temperature slope calibration	1.0000multiplexer offset coefficient	1.0000multiplexer slope coefficient	1.0000fibre end	0.00T internal ref (°C)	40.69T ext. ref 1 (°C)	2.43T ext. ref 2 (°C)	34.28length (m)	temperature (°C)	Stokes	anti-Stokes-747.200	637.725	-0.054	0.141
-746.185	-200.000	-0.030	0.162
-745.171	-200.000	-0.004	-0.190
-744.156	217.000	-0.148	0.241
-743.142	-18.703	-0.282	-0.180
-742.127	233.727	-0.096	0.162
-741.112	800.000	-0.126	-0.403
-740.098	-200.000	0.011	0.307
-739.083	45.580	-0.070	0.067
-738.069	501.841	0.087	0.205
-737.054	-200.000	0.030	0.162
-736.039	49.795	-0.062	-0.060
-735.025	-96.946	0.182	0.049
-734.010	-2.020	0.033	-0.024
-732.996	800.000	-0.027	-0.077
-731.981	800.000	-0.049	-0.161
-730.966	57.245	-0.162	-0.162
-729.952	-200.000	0.012	-0.230
-728.937	-42.304	0.282	-0.148
-727.923	425.882	0.278	-0.614
-726.908	-36.180	0.354	-0.196
-725.894	412.125	-0.054	-0.116
-724.879	380.273	0.039	-0.082
-723.864	800.000	0.056	0.177
-722.850	-148.656	0.195	0.016
-721.835	-200.000	-0.067	-0.348
-720.821	-71.055	-0.279	-0.108
-719.806	61.416	-0.178	0.181
-718.791	220.209	-0.111	-0.182
-717.777	-15.662	-0.162	-0.106
-716.762	-28.606	0.103	-0.061
-715.748	-122.111	0.192	0.032
-714.733	-142.139	-0.164	0.017
-713.718	800.000	0.078	0.237
-712.704	-80.081	-0.248	-0.085
-711.689	-21.871	-0.119	-0.074
-710.675	-200.000	-0.019	0.211
-709.660	-16.791	0.411	-0.266
-708.645	531.068	0.046	-0.111
-707.631	563.406	-0.028	0.069
-706.616	-25.613	-0.152	-0.092
-705.602	-31.338	0.074	0.043
-704.587	515.568	-0.085	0.204
-703.572	235.738	0.160	0.271
-702.558	-53.842	0.118	0.055
-701.543	-200.000	0.015	0.247
-700.529	800.000	-0.049	0.200
-699.514	800.000	0.039	-0.152
-698.499	152.284	-0.098	0.137
-697.485	588.842	-0.034	-0.086
-696.470	74.001	0.324	-0.347
-695.456	-11.540	0.152	-0.102
-694.441	-30.132	-0.057	0.033
-693.426	-124.345	-0.180	0.029
-692.412	368.510	0.174	0.359
-691.397	-98.855	-0.048	0.012
-690.383	800.000	0.081	0.349
-689.368	-139.871	-0.461	-0.050
-688.354	-198.737	0.403	0.002
-687.339	567.578	-0.055	0.136
-686.324	733.653	-0.018	-0.049
-685.310	131.905	-0.249	-0.327
-684.295	-200.000	0.006	-0.059
-683.281	-37.644	-0.084	0.046
-682.266	-93.332	0.257	-0.073
-681.251	288.271	-0.041	-0.077
-680.237	-121.987	0.434	0.073
-679.222	-200.000	-0.007	-0.143
-678.208	-49.052	-0.213	-0.104
-677.193	-200.000	0.057	-0.488
-676.178	-20.368	-0.138	-0.087
-675.164	-79.847	-0.459	-0.158
-674.149	150.363	0.094	0.131
-673.135	-200.000	-0.020	-0.377
-672.120	10.264	0.201	-0.156
-671.105	-200.000	0.032	0.320
-670.091	-154.075	-0.204	-0.014
-669.076	323.458	-0.194	-0.379
-668.062	-123.410	0.179	0.029
-667.047	-200.000	0.046	-0.304
-666.032	-32.739	0.183	0.104
-665.018	81.731	-0.068	-0.075
-664.003	505.683	0.034	-0.080
-662.989	529.420	-0.089	-0.215
-661.974	-119.089	-0.112	-0.020
-660.959	-13.202	0.167	0.111
-659.945	-45.021	-0.167	0.085
-658.930	800.000	0.107	-0.357
-657.916	-86.304	-0.228	-0.072
-656.901	121.030	0.047	0.059
-655.886	6.676	0.172	-0.131
-654.872	94.118	0.011	-0.013
-653.857	-63.464	-0.266	-0.112
-652.843	-67.158	0.415	-0.167
-651.828	48.739	-0.184	-0.176
-650.814	800.000	-0.089	-0.393
-649.799	-200.000	-0.010	0.099
-648.784	-191.662	-0.162	0.002
-647.770	-136.812	-0.173	0.020
-646.755	-102.415	-0.544	0.133
-645.741	-45.625	0.294	-0.149
-644.726	-80.467	0.123	-0.042
-643.711	-132.094	0.424	-0.056
-642.697	-48.974	-0.131	-0.064
-641.682	-200.000	-0.022	0.156
-640.668	-33.196	0.106	-0.060
-639.653	-129.371	0.232	-0.033
-638.638	50.709	-0.129	0.124
-637.624	800.000	0.063	-0.195
-636.609	132.930	0.162	-0.214
-635.595	-61.338	0.249	-0.107
-634.580	10.633	0.347	-0.270
-633.565	783.900	0.114	-0.318
-632.551	72.666	-0.125	-0.133
-631.536	800.000	0.048	0.197
-630.522	-127.109	0.088	-0.013
-629.507	104.224	-0.101	-0.121
-628.492	-200.000	-0.037	0.175
-627.478	-28.576	-0.176	0.103
-626.463	93.477	0.183	0.211
-625.449	-163.312	-0.135	-0.007
-624.434	252.750	-0.048	-0.084
-623.419	693.330	0.114	-0.305
-622.405	-200.000	0.025	0.113
-621.390	-39.644	0.193	-0.103
-620.376	83.064	0.119	-0.132
-619.361	800.000	-0.078	0.343
-618.346	-200.000	0.036	-0.200
-617.332	-26.311	-0.241	0.144
-616.317	25.449	-0.094	-0.080
-615.303	-83.145	-0.059	-0.019
-614.288	-200.000	-0.044	0.207
-613.273	-50.322	0.251	0.121
-612.259	191.713	-0.084	0.129
-611.244	-200.000	0.033	-0.351
-610.230	581.304	-0.079	-0.197
-609.215	-200.000	0.034	0.234
-608.201	-74.986	-0.296	0.108
-607.186	134.370	0.053	0.070
-606.171	-72.895	0.234	0.088
-605.157	-66.753	-0.274	0.111
-604.142	47.113	-0.306	0.290
-603.128	800.000	0.028	-0.095
-602.113	-36.461	-0.139	0.076
-601.098	341.310	0.015	0.030
-600.084	112.737	0.225	-0.278
-599.069	126.619	0.197	-0.254
-598.055	-94.165	-0.448	-0.125
-597.040	-200.000	-0.009	0.146
-596.025	-200.000	-0.062	0.347
-595.011	117.444	0.243	-0.304
-593.996	251.398	0.068	0.118
-592.982	397.773	-0.176	0.375
-591.967	-120.507	-0.236	0.041
-590.952	-152.185	0.372	-0.027
-589.938	314.483	0.037	-0.072
-588.923	-200.000	0.002	-0.114
-587.909	15.801	-0.235	-0.188
-586.894	-174.962	0.179	0.005
-585.879	-114.626	0.127	-0.025
-584.865	-200.000	0.041	-0.192
-583.850	131.380	0.159	0.209
-582.836	-200.000	0.033	0.239
-581.821	800.000	0.090	0.260
-580.806	-195.250	-0.069	-0.001
-579.792	-146.886	-0.194	-0.017
-578.777	109.599	0.081	-0.099
-577.763	-200.000	-0.046	0.230
-576.748	11.017	-0.092	-0.072
-575.733	-95.041	0.226	0.062
-574.719	53.654	0.161	-0.157
-573.704	-14.816	-0.170	0.111
-572.690	138.005	0.087	-0.117
-571.675	106.170	-0.120	0.145
-570.661	793.438	0.114	0.320
-569.646	-68.802	0.272	-0.107
-568.631	57.736	-0.215	0.214
-567.617	55.018	-0.028	0.028
-566.602	119.008	-0.144	0.182
-565.588	27.546	0.022	-0.019
-564.573	82.347	0.157	0.173
-563.558	-105.763	0.143	-0.033
-562.544	175.856	0.100	-0.148
-561.529	35.091	0.333	-0.297
-560.515	800.000	0.079	0.286
-559.500	-200.000	-0.012	0.081
-558.485	680.006	-0.074	-0.196
-557.471	-200.000	0.000	-0.020
-556.456	-161.137	-0.144	0.008
-555.442	377.218	0.108	-0.225
-554.427	160.437	-0.247	-0.350
-553.412	-138.379	-0.137	0.015
-552.398	-79.103	-0.064	-0.022
-551.383	118.796	-0.082	0.103
-550.369	-200.000	0.068	-0.386
-549.354	-44.725	0.148	0.075
-548.339	-200.000	-0.009	-0.188
-547.325	-61.950	0.336	0.143
-546.310	800.000	-0.106	0.355
-545.296	-29.625	0.116	0.067
-544.281	-200.000	-0.028	0.426
-543.266	540.149	0.061	-0.147
-542.252	-200.000	-0.001	-0.191
-541.237	-200.000	-0.004	0.086
-540.223	245.256	-0.138	0.236
-539.208	-147.696	-0.313	0.027
-538.193	-145.627	-0.211	-0.019
-537.179	57.844	-0.067	-0.066
-536.164	800.000	0.060	0.185
-535.150	169.050	-0.101	-0.147
-534.135	8.075	-0.383	-0.292
-533.121	-63.396	0.095	-0.040
-532.106	-97.856	-0.197	-0.052
-531.091	-34.830	-0.143	-0.079
-530.077	241.580	0.133	0.226
-529.062	-56.850	0.195	0.087
-528.048	-200.000	0.021	-0.219
-527.033	-200.000	-0.018	0.158
-526.018	800.000	0.028	0.105
-525.004	-115.501	-0.224	0.043
-523.989	3.954	-0.158	-0.117
-522.975	-86.787	-0.129	-0.040
-521.960	-135.684	0.388	-0.047
-520.945	18.735	0.086	-0.070
-519.931	800.000	0.123	-0.433
-518.916	-200.000	-0.017	-0.086
-517.902	-124.806	0.138	0.022
-516.887	-200.000	0.043	-0.493
-515.872	-134.748	-0.295	0.036
-514.858	-200.000	0.007	0.100
-513.843	-200.000	-0.005	-0.048
-512.829	-132.635	0.151	-0.020
-511.814	800.000	-0.047	-0.179
-510.799	-200.000	-0.010	0.329
-509.785	-136.409	0.028	0.003
-508.770	-167.890	-0.405	-0.016
-507.756	-150.136	-0.148	0.012
-506.741	-76.930	0.203	0.072
-505.726	-118.168	-0.168	0.030
-504.712	218.607	-0.217	-0.353
-503.697	358.680	0.105	-0.213
-502.683	51.068	0.235	-0.226
-501.668	135.870	0.051	0.067
-500.653	-200.000	0.027	-0.198
-499.639	-200.000	-0.168	0.000
-498.624	63.652	0.109	0.112
-497.610	119.896	-0.034	-0.043
-496.595	800.000	-0.058	-0.218
-495.581	49.662	-0.170	-0.163
-494.566	70.843	-0.295	-0.310
-493.551	350.361	0.159	0.319
-492.537	-59.775	-0.282	0.123
-491.522	692.242	0.063	0.168
-490.508	-16.132	0.300	0.193
-489.493	-200.000	-0.008	0.049
-488.478	-91.456	-0.207	0.060
-487.464	800.000	-0.060	0.239
-486.449	713.056	0.052	-0.141
-485.435	4.333	-0.114	0.084
-484.420	189.635	-0.224	-0.341
-483.405	800.000	-0.058	0.189
-482.391	388.015	-0.073	-0.152
-481.376	-166.512	0.219	-0.009
-480.362	126.689	0.150	-0.193
-479.347	-53.325	0.210	-0.098
-478.332	166.859	0.125	0.180
-477.318	216.196	0.016	-0.025
-476.303	101.722	0.076	0.090
-475.289	-200.000	-0.038	0.421
-474.274	-71.653	-0.271	0.103
-473.259	800.000	0.068	0.210
-472.245	-103.695	-0.143	-0.034
-471.230	60.087	0.087	-0.087
-470.216	224.710	-0.055	-0.090
-469.201	-163.624	0.156	0.007
-468.186	800.000	-0.062	0.200
-467.172	800.000	-0.100	-0.342
-466.157	62.902	0.164	0.166
-465.143	-133.810	-0.060	0.008
-464.128	800.000	0.118	0.464
-463.113	131.208	-0.175	-0.228
-462.099	23.883	0.080	0.067
-461.084	115.132	-0.086	-0.106
-460.070	106.102	-0.199	-0.239
-459.055	-37.174	0.176	0.096
-458.040	-62.939	0.035	0.015
-457.026	27.596	0.122	-0.104
-456.011	-200.000	0.020	-0.213
-454.997	-200.000	0.012	-0.273
-453.982	-41.077	-0.151	-0.079
-452.968	800.000	-0.015	-0.045
-451.953	-200.000	-0.004	-0.028
-450.938	3.229	0.088	-0.065
-449.924	267.087	0.117	-0.208
-448.909	196.073	0.170	0.263
-447.895	800.000	-0.044	0.133
-446.880	-164.617	0.157	0.007
-445.865	80.741	0.053	-0.058
-444.851	145.454	-0.174	0.236
-443.836	54.307	-0.080	-0.078
-442.822	-200.000	0.005	0.238
-441.807	800.000	-0.075	-0.315
-440.792	-72.641	-0.158	0.059
-439.778	336.682	0.155	0.304
-438.763	34.570	-0.143	0.127
-437.749	350.087	-0.040	-0.081
-436.734	-16.212	-0.277	-0.178
-435.719	57.620	0.230	0.228
-434.705	179.956	0.175	-0.260
-433.690	-125.870	-0.048	0.007
-432.676	176.805	0.017	-0.026
-431.661	6.738	0.101	-0.076
-430.646	31.238	-0.341	-0.296
-429.632	17.683	0.179	-0.144
-428.617	49.448	-0.236	0.225
-427.603	123.126	0.169	0.214
-426.588	800.000	0.029	-0.085
-425.573	-164.087	0.187	0.009
-424.559	-125.935	-0.198	0.030
-423.544	204.073	0.072	0.113
-422.530	89.448	-0.216	-0.244
-421.515	598.017	-0.097	0.244
-420.500	714.776	-0.040	-0.108
-419.486	-200.000	-0.041	-0.257
-418.471	-75.713	-0.204	-0.073
-417.457	77.999	0.070	-0.075
-416.442	-160.975	0.199	0.011
-415.428	-8.627	0.198	0.134
-414.413	-14.748	0.181	-0.117
-413.398	-15.756	0.194	0.125
-412.384	51.415	-0.165	-0.158
-411.369	505.127	0.138	-0.324
-410.355	104.061	0.193	-0.230
-409.340	28.595	-0.114	0.098
-408.325	-200.000	0.004	-0.059
-407.311	309.248	-0.199	-0.376
-406.296	-115.231	-0.312	0.060
-405.282	127.486	-0.107	-0.138
-404.267	-120.784	0.164	0.028
-403.252	-107.318	0.268	-0.060
-402.238	438.233	-0.167	0.368
-401.223	-200.000	0.033	0.349
-400.209	-17.604	-0.129	-0.082
-399.194	64.087	0.190	-0.193
-398.179	237.837	-0.157	-0.263
-397.165	183.974	-0.074	0.111
-396.150	-183.553	-0.115	-0.002
-395.136	315.306	0.161	-0.306
-394.121	125.947	-0.097	-0.125
-393.106	212.725	0.053	-0.084
-392.092	-96.364	0.130	0.035
-391.077	-117.085	0.252	0.046
-390.063	184.059	-0.068	-0.102
-389.048	-69.676	-0.505	0.195
-388.033	-200.000	0.023	-0.132
-387.019	-12.021	0.253	-0.167
-386.004	-100.633	-0.281	-0.070
-384.990	41.341	-0.061	-0.056
-383.975	-200.000	-0.018	0.161
-382.960	-25.106	0.431	0.258
-381.946	268.209	-0.054	0.095
-380.931	-12.013	0.264	0.175
-379.917	-196.201	-0.138	-0.001
-378.902	-144.494	-0.386	-0.036
-377.888	185.649	0.168	-0.253
-376.873	-200.000	-0.019	-0.429
-375.858	312.243	0.028	-0.054
-374.844	-200.000	0.030	0.165
-373.829	-155.821	0.502	-0.032
-372.815	163.271	0.246	0.349
-371.800	47.355	0.233	0.220
-370.785	-4.370	-0.182	0.127
-369.771	-15.842	0.165	0.106
-368.756	136.585	0.201	-0.265
-367.742	-60.664	-0.269	0.115
-366.727	196.183	-0.066	0.102
-365.712	-84.647	-0.217	0.069
-364.698	-106.708	0.140	0.031
-363.683	103.025	-0.012	0.014
-362.669	-200.000	-0.029	-0.432
-361.654	-12.048	-0.202	0.133
-360.639	-104.434	0.136	-0.032
-359.625	127.710	-0.080	0.103
-358.610	594.387	-0.105	-0.262
-357.596	-200.000	-0.002	-0.085
-356.581	5.341	-0.094	0.070
-355.566	716.919	-0.048	0.128
-354.552	185.572	0.018	0.026
-353.537	205.209	0.204	0.319
-352.523	-81.967	-0.208	0.068
-351.508	-200.000	0.018	0.111
-350.493	255.755	0.135	-0.234
-349.479	-71.259	-0.082	0.031
-348.464	-200.000	-0.054	-0.353
-347.450	17.770	-0.091	0.073
-346.435	-29.041	-0.342	0.198
-345.420	-148.930	-0.338	-0.027
-344.406	485.728	-0.071	-0.163
-343.391	-200.000	-0.025	0.207
-342.377	212.247	-0.248	0.395
-341.362	800.000	0.123	-0.435
-340.348	-182.456	-0.326	-0.006
-339.333	12.163	-0.220	0.171
-338.318	206.753	-0.134	0.211
-337.304	-200.000	-0.080	0.368
-336.289	104.820	-0.166	0.197
-335.275	-71.776	0.298	-0.112
-334.260	-179.914	-0.172	0.004
-333.245	84.990	0.078	0.086
-332.231	108.802	0.141	0.170
-331.216	-169.735	0.214	-0.008
-330.202	-200.000	-0.009	0.121
-329.187	-200.000	-0.070	0.316
-328.172	800.000	-0.012	0.048
-327.158	-110.619	-0.129	0.027
-326.143	800.000	0.122	-0.367
-325.129	-200.000	-0.069	-0.353
-324.114	85.002	0.224	-0.247
-323.099	8.662	-0.260	0.198
-322.085	-129.461	-0.107	-0.015
-321.070	-200.000	-0.019	-0.133
-320.056	800.000	0.074	0.214
-319.041	492.863	-0.125	0.289
-318.026	-77.678	0.112	-0.039
-317.012	-5.767	0.186	-0.128
-315.997	62.053	-0.230	0.231
-314.983	28.637	0.133	0.113
-313.968	-143.604	-0.277	-0.027
-312.953	109.895	0.134	-0.162
-311.939	-200.000	0.010	-0.383
-310.924	-200.000	0.049	-0.282
-309.910	-67.962	-0.222	0.087
-308.895	27.393	-0.426	0.361
-307.880	7.586	-0.229	-0.173
-306.866	-200.000	0.004	-0.178
-305.851	-200.000	0.050	0.419
-304.837	-146.008	0.172	0.015
-303.822	-200.000	-0.024	0.115
-302.807	-108.398	0.268	0.058
-301.793	800.000	0.031	0.130
-300.778	332.192	0.131	0.254
-299.764	-76.725	-0.197	0.069
-298.749	157.786	0.115	0.161
-297.735	-186.135	0.111	0.002
-296.720	-70.434	-0.166	-0.064
-295.705	800.000	-0.107	0.301
-294.691	800.000	0.130	-0.496
-293.676	27.895	-0.290	-0.246
-292.662	-53.083	-0.229	-0.106
-291.647	-43.217	0.086	0.044
-290.632	-28.017	0.362	-0.211
-289.618	-82.934	-0.362	0.118
-288.603	182.326	-0.114	-0.170
-287.589	-121.609	-0.233	-0.039
-286.574	66.069	-0.066	0.067
-285.559	-91.359	-0.281	0.081
-284.545	-154.545	-0.074	-0.005
-283.530	433.639	0.075	0.165
-282.516	-141.549	0.142	0.014
-281.501	136.818	0.226	-0.297
-280.486	-144.250	0.058	-0.005
-279.472	-200.000	-0.069	0.408
-278.457	-35.118	0.211	-0.116
-277.443	-200.000	-0.030	0.228
-276.428	-57.589	0.239	0.105
-275.413	35.187	0.403	-0.355
-274.399	784.784	-0.056	-0.154
-273.384	-141.468	0.146	0.015
-272.370	-63.239	0.162	0.067
-271.355	800.000	0.051	0.184
-270.340	44.867	-0.203	0.188
-269.326	540.429	0.091	0.219
-268.311	-200.000	-0.052	0.374
-267.297	-157.369	0.049	-0.003
-266.282	258.927	-0.060	-0.104
-265.267	32.769	-0.038	-0.033
-264.253	-42.227	-0.297	0.152
-263.238	277.469	-0.199	-0.357
-262.224	800.000	0.036	0.109
-261.209	-200.000	-0.014	-0.132
-260.195	79.161	-0.055	-0.059
-259.180	90.112	0.108	0.121
-258.165	800.000	0.053	0.199
-257.151	-123.025	-0.152	0.025
-256.136	-140.258	-0.122	-0.013
-255.122	-137.927	-0.212	-0.024
-254.107	14.104	-0.056	-0.044
-253.092	-28.400	0.147	0.086
-252.078	-200.000	0.024	0.304
-251.063	-10.673	0.122	-0.081
-250.049	-6.532	0.192	0.131
-249.034	-200.000	-0.008	0.067
-248.019	62.005	0.165	-0.165
-247.005	-75.711	0.058	0.021
-245.990	-200.000	-0.005	0.151
-244.976	-32.869	-0.200	-0.112
-243.961	249.417	0.066	-0.112
-242.946	-200.000	0.042	0.469
-241.932	-51.886	0.162	-0.076
-240.917	-200.000	-0.045	-0.343
-239.903	800.000	0.042	-0.149
-238.888	158.820	0.115	-0.161
-237.873	-73.068	-0.230	-0.085
-236.859	-17.952	0.075	-0.047
-235.844	-200.000	-0.058	-0.261
-234.830	589.222	0.074	0.183
-233.815	-31.202	0.202	-0.115
-232.800	-16.344	-0.184	0.117
-231.786	-200.000	-0.023	-0.109
-230.771	-133.983	-0.168	-0.021
-229.757	134.796	0.153	0.200
-228.742	-29.160	0.239	0.137
-227.727	-200.000	0.046	-0.344
-226.713	90.898	0.124	0.139
-225.698	-86.334	-0.177	-0.055
-224.684	-81.173	-0.116	-0.039
-223.669	215.600	-0.069	-0.110
-222.655	150.996	-0.100	-0.136
-221.640	-95.654	0.082	0.022
-220.625	-106.882	0.235	0.052
-219.611	-7.058	-0.267	-0.182
-218.596	-200.000	-0.003	0.150
-217.582	-90.805	0.352	0.102
-216.567	-85.647	0.512	-0.160
-215.552	-45.689	-0.254	0.126
-214.538	158.750	0.138	0.192
-213.523	-39.534	0.177	-0.093
-212.509	70.735	0.115	-0.119
-211.494	-200.000	-0.075	0.693
-210.479	-200.000	-0.056	0.395
-209.465	78.795	0.131	0.141
-208.450	-31.225	0.390	0.221
-207.436	800.000	-0.028	-0.118
-206.421	227.242	0.116	-0.189
-205.406	-131.690	0.146	-0.019
-204.392	-120.892	-0.087	0.015
-203.377	-90.015	0.385	0.113
-202.363	162.704	0.309	0.435
-201.348	-74.931	0.115	-0.041
-200.333	-200.000	-0.078	-0.443
-199.319	143.915	-0.122	0.164
-198.304	121.893	-0.137	0.171
-197.290	-74.340	0.057	0.021
-196.275	-65.633	0.203	0.082
-195.260	-200.000	0.003	0.026
-194.246	-200.000	0.002	0.163
-193.231	-200.000	0.034	-0.364
-192.217	-198.179	0.305	0.002
-191.202	-200.000	-0.006	-0.347
-190.187	-146.002	0.167	0.015
-189.173	-108.467	-0.070	-0.015
-188.158	-17.636	0.155	-0.098
-187.144	254.763	0.067	0.115
-186.129	-183.968	0.150	0.003
-185.114	141.120	-0.120	0.159
-184.100	17.482	-0.108	0.086
-183.085	-122.881	-0.242	-0.039
-182.071	154.260	-0.173	-0.237
-181.056	-114.543	0.454	-0.087
-180.042	-42.478	-0.131	-0.067
-179.027	107.618	-0.120	0.143
-178.012	-200.000	0.037	-0.213
-176.998	-137.947	0.205	-0.023
-175.983	230.823	0.088	-0.145
-174.969	-76.279	-0.185	0.065
-173.954	186.538	-0.153	-0.229
-172.939	-135.015	0.063	-0.008
-171.925	523.908	-0.051	-0.121
-170.910	-134.921	0.053	-0.006
-169.896	-58.435	-0.209	-0.091
-168.881	19.339	-0.269	-0.217
-167.866	-200.000	0.027	-0.222
-166.852	-148.791	-0.224	-0.018
-165.837	-200.000	-0.064	0.298
-164.823	-200.000	-0.053	0.299
-163.808	265.807	0.116	0.203
-162.793	83.914	0.187	-0.205
-161.779	-200.000	-0.388	-0.001
-160.764	-30.142	-0.303	0.173
-159.750	-113.162	0.155	0.031
-158.735	-97.667	0.291	0.076
-157.720	42.023	0.293	-0.267
-156.706	42.779	-0.307	-0.280
-155.691	96.988	0.006	-0.007
-154.677	-166.778	0.267	0.011
-153.662	-200.000	-0.000	0.126
-152.647	-200.000	-0.005	0.358
-151.633	-44.640	0.039	-0.019
-150.618	-200.000	-0.034	0.200
-149.604	-200.000	-0.018	-0.242
-148.589	43.019	-0.132	0.121
-147.574	-142.160	-0.409	-0.041
-146.560	27.659	-0.368	-0.310
-145.545	16.119	-0.374	-0.295
-144.531	-67.377	-0.526	0.207
-143.516	-45.316	-0.242	0.120
-142.502	-83.426	0.286	-0.092
-141.487	-64.326	0.135	-0.055
-140.472	-191.879	0.189	0.002
-139.458	-72.697	-0.244	0.090
-138.443	20.122	-0.298	-0.241
-137.429	-122.819	-0.421	0.068
-136.414	-200.000	-0.044	0.257
-135.399	-89.797	0.220	-0.064
-134.385	3.921	0.297	-0.217
-133.370	-96.655	-0.136	0.036
-132.356	503.553	0.139	-0.323
-131.341	274.963	0.187	-0.332
-130.326	-78.353	-0.326	0.112
-129.312	31.734	0.155	-0.133
-128.297	539.858	0.104	0.248
-127.283	47.443	0.221	0.206
-126.268	-88.285	-0.175	-0.052
-125.253	423.849	-0.061	-0.132
-124.239	-29.692	-0.210	0.120
-123.224	-145.790	-0.122	0.011
-122.210	21.555	0.212	-0.173
