DTS Sentinel unit serial number:	SN413079Multiplexer serial number:	ORYXHardware model number:	OX4-SRSoftware version number:	ORYX F/W v4.00 Oryx Data Collector v3.7.2.0data status	okinstallation	princeton_trtdifferential loss correction	single-endedforward channel	channel 4reverse channel	N/Adate	2019/09/13time	21:09:35forward acquisition time	60.00reverse acquisition time	0.00gamma	496.2192k internal	0.2319k external	0.2319temperature offset calibration	1.0137default loss term (dB/km)	0.3790temperature slope calibration	1.0000multiplexer offset coefficient	1.0000multiplexer slope coefficient	1.0000fibre end	0.00T internal ref (°C)	28.50T ext. ref 1 (°C)	3.20T ext. ref 2 (°C)	23.32length (m)	temperature (°C)	Stokes	anti-Stokes-747.200	-35.592	-0.147	0.081
-746.185	476.987	-0.130	0.298
-745.171	231.315	0.126	-0.209
-744.156	53.089	-0.058	-0.057
-743.142	-50.627	0.222	0.106
-742.127	471.029	0.070	0.160
-741.112	-109.483	-0.283	0.061
-740.098	-92.115	-0.274	0.078
-739.083	-69.425	-0.295	0.114
-738.069	800.000	-0.083	0.366
-737.054	675.348	0.052	0.137
-736.039	800.000	0.069	0.248
-735.025	-54.551	0.125	0.057
-734.010	-142.330	-0.245	0.024
-732.996	-200.000	0.025	0.113
-731.981	-160.961	-0.242	0.013
-730.966	36.480	-0.169	-0.151
-729.952	31.628	-0.362	-0.315
-728.937	-132.041	0.148	0.019
-727.923	-79.817	-0.321	-0.109
-726.908	154.327	-0.249	0.346
-725.894	-36.617	-0.149	-0.081
-724.879	-200.000	-0.008	-0.183
-723.864	-151.021	-0.148	-0.011
-722.850	-200.000	0.043	0.194
-721.835	-200.000	-0.030	0.355
-720.821	-15.536	-0.151	-0.097
-719.806	-134.018	-0.408	-0.051
-718.791	-138.135	-0.157	0.018
-717.777	-200.000	0.071	-0.430
-716.762	61.500	0.197	0.198
-715.748	800.000	-0.065	-0.265
-714.733	433.792	0.231	-0.508
-713.718	652.291	0.087	0.226
-712.704	51.993	-0.371	0.357
-711.689	-200.000	-0.012	-0.072
-710.675	265.112	-0.129	0.227
-709.660	-200.000	0.021	0.201
-708.645	363.936	0.163	-0.331
-707.631	86.204	-0.151	-0.168
-706.616	11.558	-0.121	-0.094
-705.602	89.829	-0.199	-0.224
-704.587	-194.489	0.167	0.001
-703.572	-200.000	0.015	-0.387
-702.558	-116.698	0.253	0.047
-701.543	187.827	-0.138	0.208
-700.529	31.553	-0.129	0.112
-699.514	104.634	-0.113	-0.134
-698.499	-78.142	-0.329	-0.114
-697.485	11.362	0.114	-0.088
-696.470	77.026	0.212	0.227
-695.456	634.411	-0.121	-0.310
-694.441	175.178	0.176	-0.258
-693.426	800.000	-0.041	0.146
-692.412	-200.000	0.020	0.149
-691.397	800.000	-0.049	0.173
-690.383	-200.000	-0.037	-0.273
-689.368	-35.476	-0.153	-0.084
-688.354	-200.000	-0.010	-0.489
-687.339	663.252	-0.028	-0.072
-686.324	-165.507	-0.421	0.019
-685.310	800.000	-0.077	-0.216
-684.295	-73.585	0.141	0.052
-683.281	373.310	-0.166	0.341
-682.266	800.000	-0.037	-0.145
-681.251	800.000	-0.089	-0.257
-680.237	-108.099	0.239	0.052
-679.222	113.415	-0.236	-0.289
-678.208	41.360	0.041	0.037
-677.193	70.497	0.118	-0.123
-676.178	67.773	-0.208	0.215
-675.164	-158.197	-0.427	-0.025
-674.149	800.000	0.059	-0.216
-673.135	-43.925	0.183	0.093
-672.120	121.914	0.031	-0.039
-671.105	-96.473	-0.246	-0.066
-670.091	-104.470	0.395	-0.092
-669.076	546.150	0.035	-0.085
-668.062	172.593	-0.063	-0.092
-667.047	216.498	-0.136	-0.218
-666.032	-190.353	-0.120	-0.001
-665.018	-200.000	0.036	-0.327
-664.003	-200.000	0.007	-0.450
-662.989	-200.000	-0.001	-0.108
-661.974	-71.623	-0.152	0.057
-660.959	269.696	0.012	0.021
-659.945	-108.014	0.196	0.043
-658.930	117.516	-0.132	0.164
-657.916	-100.515	-0.017	-0.004
-656.901	191.982	-0.086	0.131
-655.886	800.000	0.151	-0.422
-654.872	-200.000	0.007	-0.345
-653.857	-22.320	-0.185	0.113
-652.843	-200.000	0.026	0.180
-651.828	199.209	-0.204	-0.316
-650.814	186.011	0.115	-0.172
-649.799	-62.193	-0.375	-0.158
-648.784	7.559	0.124	-0.094
-647.770	118.733	0.125	0.156
-646.755	438.170	-0.057	0.125
-645.741	-196.701	-0.134	0.001
-644.726	-134.779	0.280	-0.034
-643.711	-80.666	-0.451	-0.151
-642.697	97.613	0.091	-0.106
-641.682	301.184	0.108	0.201
-640.668	-145.641	-0.276	0.025
-639.653	22.534	0.165	0.136
-638.638	-3.741	0.391	0.274
-637.624	-38.037	0.261	0.140
-636.609	754.733	0.076	-0.207
-635.595	10.223	0.352	-0.270
-634.580	-7.799	0.181	-0.123
-633.565	-81.762	-0.323	-0.107
-632.551	160.561	0.067	-0.095
-631.536	-37.604	0.032	-0.017
-630.522	-69.210	0.069	0.027
-629.507	601.269	-0.047	0.118
-628.492	-200.000	0.008	-0.183
-627.478	-49.769	-0.274	-0.131
-626.463	755.607	-0.064	-0.175
-625.449	-79.869	-0.082	-0.028
-624.434	-123.696	0.509	0.081
-623.419	-75.492	-0.178	0.064
-622.405	-144.625	0.089	-0.008
-621.390	190.621	-0.315	-0.476
-620.376	800.000	0.029	0.119
-619.361	800.000	0.128	-0.467
-618.346	-61.129	0.230	-0.098
-617.332	-61.926	0.195	-0.082
-616.317	-158.582	-0.113	-0.007
-615.303	-45.703	0.164	0.082
-614.288	47.001	0.171	0.160
-613.273	-33.121	0.109	0.061
-612.259	-133.777	-0.297	0.037
-611.244	-200.000	-0.008	-0.219
-610.230	176.091	0.049	-0.072
-609.215	-200.000	0.003	0.058
-608.201	44.232	-0.080	-0.074
-607.186	-161.370	-0.168	-0.009
-606.171	800.000	0.014	-0.058
-605.157	-200.000	-0.028	0.191
-604.142	81.050	0.171	0.186
-603.128	47.099	-0.275	-0.257
-602.113	771.117	-0.084	0.231
-601.098	-113.550	-0.283	0.056
-600.084	-200.000	-0.012	-0.139
-599.069	-200.000	-0.008	0.401
-598.055	-200.000	0.018	-0.256
-597.040	635.079	0.044	0.112
-596.025	122.358	-0.205	0.258
-595.011	13.093	-0.372	-0.289
-593.996	-66.609	0.211	0.084
-592.982	-200.000	-0.020	0.097
-591.967	-65.432	0.290	0.117
-590.952	-134.606	0.184	0.023
-589.938	52.265	-0.071	0.068
-588.923	321.067	0.047	-0.090
-587.909	-27.125	-0.205	0.120
-586.894	260.671	-0.063	0.110
-585.879	444.534	0.077	0.169
-584.865	-200.000	0.045	0.212
-583.850	-0.827	0.223	0.159
-582.836	327.764	0.071	-0.138
-581.821	-56.452	-0.163	-0.073
-580.806	109.118	0.064	0.077
-579.792	528.481	0.122	-0.289
-578.777	-68.357	0.223	-0.087
-577.763	-179.947	-0.117	0.003
-576.748	308.216	-0.159	-0.298
-575.733	-200.000	0.010	0.330
-574.719	800.000	0.061	0.228
-573.704	-24.922	-0.109	0.065
-572.690	243.499	0.136	-0.230
-571.675	-200.000	0.041	-0.398
-570.661	-56.170	0.239	-0.107
-569.646	79.893	0.051	-0.055
-568.631	-200.000	0.012	0.097
-567.617	-200.000	0.007	-0.243
-566.602	-42.554	-0.218	-0.112
-565.588	-16.678	0.043	-0.028
-564.573	-168.684	0.394	0.015
-563.558	45.400	-0.328	-0.304
-562.544	208.144	0.112	0.176
-561.529	42.402	0.258	-0.235
-560.515	-200.000	-0.049	-0.398
-559.500	800.000	0.062	0.272
-558.485	306.170	-0.123	-0.230
-557.471	-81.713	0.061	0.020
-556.456	423.985	0.040	-0.086
-555.442	20.237	-0.185	0.150
-554.427	-24.194	-0.110	0.066
-553.412	-75.243	0.089	-0.032
-552.398	800.000	0.019	-0.062
-551.383	-97.761	-0.404	0.105
-550.369	588.191	-0.079	0.195
-549.354	59.719	0.105	-0.104
-548.339	657.039	0.048	0.123
-547.325	-200.000	-0.044	0.215
-546.310	3.791	-0.152	-0.112
-545.296	-200.000	-0.039	-0.332
-544.281	27.685	-0.141	0.119
-543.266	150.496	-0.159	-0.216
-542.252	-89.325	0.327	0.097
-541.237	56.362	-0.148	-0.144
-540.223	792.209	-0.170	0.469
-539.208	565.639	0.106	0.257
-538.193	-156.561	0.138	-0.009
-537.179	-53.011	-0.136	0.063
-536.164	-200.000	0.009	-0.062
-535.150	-154.216	-0.129	0.009
-534.135	240.458	-0.019	0.031
-533.121	-200.000	0.010	-0.045
-532.106	-87.153	-0.088	-0.027
-531.091	200.996	-0.154	-0.237
-530.077	64.840	-0.340	0.344
-529.062	800.000	-0.048	0.175
-528.048	5.474	-0.091	-0.068
-527.033	-200.000	0.028	0.283
-526.018	-200.000	-0.003	0.299
-525.004	142.301	-0.168	0.224
-523.989	524.028	0.033	0.078
-522.975	9.398	0.157	0.119
-521.960	-100.126	-0.286	-0.071
-520.945	-36.499	0.092	0.050
-519.931	-63.727	0.281	-0.115
-518.916	-200.000	-0.004	0.386
-517.902	-74.328	0.162	-0.059
-516.887	709.798	0.108	-0.286
-515.872	-75.650	0.159	-0.057
-514.858	-73.424	0.307	-0.112
-513.843	800.000	0.207	-0.586
-512.829	-200.000	-0.008	-0.325
-511.814	412.662	0.111	0.237
-510.799	4.193	0.165	0.121
-509.785	-58.154	0.230	0.101
-508.770	-67.367	0.053	-0.021
-507.756	18.449	0.237	-0.190
-506.741	45.114	0.221	0.204
-505.726	132.555	0.107	0.138
-504.712	-200.000	-0.005	0.169
-503.697	790.901	0.059	0.162
-502.683	27.059	-0.114	-0.096
-501.668	383.898	-0.180	-0.371
-500.653	-200.000	-0.005	0.073
-499.639	-172.174	0.096	-0.003
-498.624	-200.000	0.011	-0.323
-497.610	131.261	-0.084	-0.108
-496.595	102.261	-0.100	0.117
-495.581	285.805	0.082	-0.147
-494.566	152.953	-0.072	0.098
-493.551	-151.423	-0.496	0.037
-492.537	-157.215	-0.386	-0.023
-491.522	108.754	-0.055	0.066
-490.508	71.542	-0.134	0.139
-489.493	800.000	0.057	-0.185
-488.478	55.081	-0.066	-0.064
-487.464	-93.300	-0.205	0.057
-486.449	295.911	-0.139	-0.255
-485.435	-18.752	-0.161	-0.101
-484.420	64.526	-0.008	0.008
-483.405	-200.000	-0.001	0.282
-482.391	-24.238	-0.292	0.175
-481.376	-20.855	-0.224	-0.137
-480.362	800.000	-0.044	-0.172
-479.347	12.506	-0.160	0.124
-478.332	-200.000	0.006	0.153
-477.318	-85.996	-0.187	-0.058
-476.303	599.773	-0.114	0.283
-475.289	-6.067	-0.244	0.167
-474.274	-31.956	-0.204	-0.114
-473.259	-160.814	-0.143	0.008
-472.245	-57.872	-0.236	-0.103
-471.230	-74.194	0.065	-0.023
-470.216	12.586	0.359	0.277
-469.201	-200.000	0.000	-0.088
-468.186	-200.000	0.015	0.438
-467.172	22.992	-0.148	0.122
-466.157	131.798	-0.227	-0.292
-465.143	-200.000	0.001	-0.117
-464.128	25.522	0.265	0.221
-463.113	-200.000	0.030	-0.306
-462.099	-56.863	-0.507	0.224
-461.084	-200.000	-0.011	0.077
-460.070	284.971	0.152	0.274
-459.055	-87.481	-0.065	-0.020
-458.040	-66.781	0.148	0.059
-457.026	1.879	0.050	-0.036
-456.011	23.906	-0.209	-0.172
-454.997	800.000	0.043	0.140
-453.982	54.829	-0.182	0.176
-452.968	800.000	-0.051	-0.195
-451.953	281.448	-0.163	-0.293
-450.938	506.951	0.067	0.156
-449.924	35.439	0.192	-0.169
-448.909	158.660	-0.106	0.148
-447.895	-102.928	-0.135	0.032
-446.880	261.288	0.151	0.261
-445.865	112.228	-0.166	-0.200
-444.851	325.373	0.098	-0.188
-443.836	29.707	0.350	0.298
-442.822	-200.000	0.042	0.211
-441.807	-58.047	0.379	0.165
-440.792	-56.732	-0.049	0.022
-439.778	-200.000	-0.008	0.134
-438.763	-200.000	0.003	0.027
-437.749	32.390	0.358	-0.309
-436.734	-167.306	0.188	0.008
-435.719	-109.387	-0.269	0.057
-434.705	-99.313	-0.213	-0.054
-433.690	-54.834	0.457	-0.206
-432.676	-18.997	-0.190	0.118
-431.661	203.105	-0.155	-0.239
-430.646	260.223	0.046	0.079
-429.632	-55.567	-0.241	-0.108
-428.617	-71.245	-0.185	0.070
-427.603	-116.740	0.004	-0.001
-426.588	-118.091	0.129	0.023
-425.573	-57.492	0.159	-0.070
-424.559	800.000	0.100	-0.295
-423.544	196.851	-0.031	-0.048
-422.530	-188.293	-0.175	-0.002
-421.515	583.306	-0.116	-0.284
-420.500	357.904	0.025	0.050
-419.486	88.498	0.045	-0.050
-418.471	11.514	0.231	-0.177
-417.457	45.483	-0.157	0.145
-416.442	316.346	-0.023	-0.044
-415.428	61.699	-0.247	-0.246
-414.413	-70.394	-0.095	0.036
-413.398	-29.802	0.367	-0.209
-412.384	-64.152	0.123	-0.050
-411.369	99.749	0.138	-0.159
-410.355	-200.000	-0.097	0.428
-409.340	-21.622	0.343	0.208
-408.325	8.805	-0.247	-0.186
-407.311	-68.487	0.297	0.115
-406.296	-200.000	-0.006	0.233
-405.282	27.968	-0.148	0.124
-404.267	41.076	0.193	-0.175
-403.252	-95.645	0.247	-0.066
-402.238	127.898	-0.161	-0.205
-401.223	-56.990	-0.097	0.043
-400.209	-25.503	-0.064	-0.038
-399.194	-111.506	0.088	0.018
-398.179	30.342	0.126	-0.107
-397.165	-83.622	0.280	-0.089
-396.150	-32.245	0.305	-0.170
-395.136	-137.710	-0.183	-0.020
-394.121	-200.000	-0.006	0.048
-393.106	-186.496	0.438	-0.006
-392.092	-200.000	0.061	-0.295
-391.077	17.277	-0.090	-0.071
-390.063	592.426	-0.090	-0.221
-389.048	295.239	-0.088	-0.160
-388.033	-57.366	0.227	-0.099
-387.019	-200.000	0.059	-0.289
-386.004	-17.222	-0.440	-0.277
-384.990	-65.255	-0.211	0.085
-383.975	800.000	-0.049	0.143
-382.960	106.389	0.071	-0.084
-381.946	419.646	0.021	0.044
-380.931	27.620	0.185	-0.156
-379.917	107.146	-0.270	0.321
-378.902	-200.000	0.020	0.229
-377.888	-153.067	-0.169	0.012
-376.873	10.936	0.109	0.083
-375.858	15.465	0.204	-0.160
-374.844	86.625	0.140	-0.154
-373.829	800.000	-0.082	-0.255
-372.815	-117.288	-0.179	0.032
-371.800	-156.957	-0.218	-0.013
-370.785	-87.329	0.066	-0.020
-369.771	-111.618	-0.338	0.068
-368.756	176.228	0.120	0.173
-367.742	-27.045	-0.101	0.059
-366.727	800.000	-0.048	-0.179
-365.712	-119.386	0.334	0.058
-364.698	-102.723	0.145	0.035
-363.683	-96.549	0.243	0.064
-362.669	-79.284	-0.149	0.050
-361.654	-38.160	-0.241	-0.127
-360.639	564.049	-0.028	0.067
-359.625	800.000	0.146	0.431
-358.610	-123.287	-0.116	0.019
-357.596	800.000	-0.058	-0.190
-356.581	520.896	0.172	-0.402
-355.566	-200.000	0.000	0.126
-354.552	-101.970	-0.279	-0.067
-353.537	173.168	-0.264	-0.379
-352.523	-55.471	-0.314	0.140
-351.508	-111.872	-0.107	-0.022
-350.493	-23.235	-0.129	0.078
-349.479	800.000	0.145	0.414
-348.464	-24.732	0.189	-0.112
-347.450	-200.000	0.034	-0.170
-346.435	95.341	0.251	0.285
-345.420	138.573	0.221	-0.289
-344.406	143.289	-0.103	0.136
-343.391	779.942	0.035	-0.094
-342.377	-200.000	0.018	0.213
-341.362	-200.000	-0.013	-0.076
-340.348	-9.700	0.083	0.055
-339.333	-142.989	-0.249	0.024
-338.318	-7.206	0.052	-0.035
-337.304	55.232	0.287	0.276
-336.289	-150.955	0.282	-0.021
-335.275	-200.000	-0.012	-0.059
-334.260	446.354	0.234	-0.512
-333.245	-85.031	0.309	-0.096
-332.231	311.709	-0.108	-0.202
-331.216	-200.000	-0.017	-0.256
-330.202	21.656	-0.082	-0.066
-329.187	-23.883	-0.202	0.120
-328.172	-82.109	-0.241	0.078
-327.158	-185.084	-0.305	0.005
-326.143	52.468	-0.156	-0.148
-325.129	-19.789	0.086	0.053
-324.114	-91.689	0.201	0.057
-323.099	188.489	0.176	-0.262
-322.085	-196.216	-0.044	-0.000
-321.070	45.574	-0.271	0.249
-320.056	-183.812	-0.378	-0.006
-319.041	224.261	-0.256	0.411
-318.026	-39.506	0.161	0.084
-317.012	407.781	-0.136	0.286
-315.997	15.503	-0.144	-0.113
-314.983	70.650	0.130	-0.134
-313.968	-200.000	-0.009	-0.145
-312.953	-200.000	-0.059	-0.267
-311.939	3.806	-0.273	-0.199
-310.924	-164.333	0.078	0.004
-309.910	-200.000	0.007	0.077
-308.895	35.784	0.169	0.148
-307.880	525.157	0.134	-0.315
-306.866	-200.000	-0.056	0.261
-305.851	-87.646	-0.156	0.047
-304.837	176.839	-0.148	0.214
-303.822	23.802	0.092	-0.075
-302.807	-200.000	-0.039	-0.200
-301.793	-39.194	0.239	-0.125
-300.778	-101.567	-0.219	-0.053
-299.764	-146.334	-0.399	-0.035
-298.749	-70.684	-0.045	-0.017
-297.735	293.334	0.101	0.183
-296.720	-200.000	0.013	0.131
-295.705	-76.522	-0.325	0.113
-294.691	-200.000	0.071	-0.384
-293.676	-200.000	0.031	-0.379
-292.662	68.866	0.020	-0.021
-291.647	-77.915	0.122	-0.042
-290.632	800.000	0.040	-0.137
-289.618	-74.297	0.257	0.092
-288.603	2.538	-0.149	-0.107
-287.589	-169.729	-0.190	0.007
-286.574	-200.000	0.013	-0.142
-285.559	26.914	-0.127	-0.105
-284.545	344.832	0.091	-0.177
-283.530	627.357	-0.101	-0.254
-282.516	-200.000	-0.003	-0.030
-281.501	128.545	0.030	0.038
-280.486	-70.042	0.177	-0.067
-279.472	-128.340	-0.210	0.030
-278.457	-37.788	-0.166	0.088
-277.443	-200.000	-0.058	-0.349
-276.428	-71.170	0.189	0.071
-275.413	-147.893	-0.154	0.013
-274.399	-64.574	-0.136	-0.055
-273.384	-200.000	-0.018	0.103
-272.370	-56.968	0.401	-0.176
-271.355	-13.549	-0.301	0.194
-270.340	162.255	0.133	-0.185
-269.326	-108.855	0.126	0.027
-268.311	-23.246	-0.086	0.051
-267.297	342.778	-0.095	-0.185
-266.282	-57.052	0.436	-0.191
-265.267	511.951	0.029	0.067
-264.253	183.380	-0.144	0.212
-263.238	115.124	0.098	-0.119
-262.224	38.111	-0.101	-0.089
-261.209	139.052	0.054	0.070
-260.195	-200.000	0.019	0.228
-259.180	-175.209	-0.098	-0.003
-258.165	127.670	0.138	0.175
-257.151	39.712	-0.267	0.238
-256.136	-200.000	0.027	-0.122
-255.122	-64.701	-0.101	0.040
-254.107	-89.243	0.046	0.014
-253.092	-25.008	0.171	0.101
-252.078	-200.000	0.032	-0.215
-251.063	-141.758	-0.101	-0.010
-250.049	-18.758	-0.399	-0.246
-249.034	246.238	-0.022	0.037
-248.019	62.748	0.176	0.175
-247.005	800.000	-0.042	-0.125
-245.990	-131.575	-0.285	0.037
-244.976	197.811	0.193	0.292
-243.961	-51.484	-0.221	0.102
-242.946	-191.561	-0.180	-0.002
-241.932	-3.076	0.304	0.210
-240.917	-115.637	-0.174	0.032
-239.903	11.342	0.222	0.169
-238.888	-200.000	-0.013	-0.103
-237.873	800.000	-0.071	0.276
-236.859	630.670	0.015	0.039
-235.844	591.641	-0.160	0.393
-234.830	-105.780	-0.275	-0.062
-233.815	95.954	0.068	-0.077
-232.800	800.000	-0.131	0.394
-231.786	-148.965	-0.072	0.006
-230.771	-102.054	0.327	0.078
-229.757	-93.155	-0.190	-0.052
-228.742	31.186	0.046	0.039
-227.727	1.514	0.210	-0.150
-226.713	-200.000	0.008	0.175
-225.698	-119.971	0.503	0.086
-224.684	-67.772	0.178	0.069
-223.669	-124.718	-0.205	0.031
-222.655	-72.221	0.252	0.093
-221.640	75.425	0.269	-0.282
-220.625	800.000	-0.022	-0.064
-219.611	18.245	0.126	0.100
-218.596	152.348	-0.074	-0.100
-217.582	-200.000	-0.001	-0.107
-216.567	800.000	-0.032	-0.137
-215.552	-18.960	0.181	-0.111
-214.538	626.301	0.020	-0.050
-213.523	-12.040	-0.215	-0.140
-212.509	-21.191	-0.309	-0.187
-211.494	308.644	0.138	0.255
-210.479	-95.306	0.296	-0.079
-209.465	0.654	-0.196	0.139
-208.450	-43.234	0.220	-0.110
-207.436	48.468	0.171	0.159
-206.421	-78.743	-0.142	-0.048
-205.406	-166.773	0.098	0.004
-204.392	309.719	0.062	0.114
-203.377	-200.000	-0.023	0.216
-202.363	-200.000	-0.015	0.094
-201.348	-117.070	0.258	-0.047
-200.333	-117.673	0.074	0.013
-199.319	127.792	0.072	0.090
-198.304	39.409	-0.182	0.161
-197.290	87.411	0.215	0.236
-196.275	-54.590	0.095	0.043
-195.260	-86.777	0.111	0.034
-194.246	-164.330	0.144	-0.007
-193.231	-24.138	0.144	-0.085
-192.217	-7.208	0.302	-0.203
-191.202	4.498	0.095	0.069
-190.187	-200.000	0.016	-0.101
-189.173	-54.237	0.203	-0.091
-188.158	62.668	-0.240	0.237
-187.144	-68.437	-0.232	0.089
-186.129	141.341	-0.027	0.036
-185.114	-200.000	0.003	0.233
-184.100	-80.115	-0.329	0.109
-183.085	-128.934	0.165	0.023
-182.071	264.501	-0.086	-0.148
-181.056	800.000	0.059	0.213
-180.042	-200.000	0.018	-0.098
-179.027	-44.836	-0.144	0.071
-178.012	234.069	-0.089	-0.146
-176.998	-200.000	0.043	0.283
-175.983	800.000	0.029	0.080
-174.969	-168.447	0.063	0.002
-173.954	45.371	0.170	0.155
-172.939	62.308	-0.178	0.176
-171.925	125.635	0.166	0.207
-170.910	9.556	-0.124	-0.093
-169.896	-200.000	-0.021	0.247
-168.881	-142.971	0.186	0.018
-167.866	-27.622	0.081	0.047
-166.852	-129.052	0.269	-0.037
-165.837	-200.000	0.015	0.075
-164.823	800.000	-0.112	0.398
-163.808	-11.971	0.154	0.100
-162.793	347.209	0.138	0.269
-161.779	257.954	0.123	0.210
-160.764	486.009	0.031	-0.070
-159.750	-200.000	0.007	0.291
-158.735	-200.000	0.057	-0.278
-157.720	-200.000	-0.030	0.207
-156.706	-200.000	0.010	-0.122
-155.691	45.645	-0.280	-0.256
-154.677	-77.493	0.239	-0.082
-153.662	-1.630	-0.160	0.111
-152.647	-132.511	0.262	0.033
-151.633	151.736	0.087	0.118
-150.618	800.000	-0.089	-0.327
-149.604	85.945	0.043	0.047
-148.589	-12.971	0.129	-0.083
-147.574	800.000	0.037	-0.149
-146.560	-41.680	-0.339	-0.172
-145.545	597.398	0.036	-0.088
-144.531	-99.438	-0.105	-0.026
-143.516	-200.000	0.020	-0.390
-142.502	552.870	-0.082	0.195
-141.487	-200.000	0.009	0.295
-140.472	239.968	0.157	0.258
-139.458	-89.996	-0.227	-0.066
-138.443	800.000	0.018	0.075
-137.429	512.364	0.104	0.238
-136.414	61.268	0.291	0.286
-135.399	28.182	0.195	0.163
-134.385	50.557	-0.022	0.021
-133.370	800.000	0.036	0.103
-132.356	-146.250	0.238	-0.021
-131.341	-170.251	0.379	0.013
-130.326	-200.000	-0.005	0.087
-129.312	800.000	0.054	0.196
-128.297	-200.000	0.014	0.429
-127.283	-200.000	0.021	-0.236
-126.268	-200.000	-0.020	-0.297
-125.253	-123.316	-0.207	0.033
-124.239	-200.000	-0.013	0.248
-123.224	-104.976	0.202	-0.046
-122.210	-76.882	-0.105	0.036
-121.195	800.000	-0.026	0.099
