DTS Sentinel unit serial number:	SN413079Multiplexer serial number:	ORYXHardware model number:	OX4-SRSoftware version number:	ORYX F/W v4.00 Oryx Data Collector v3.7.2.0data status	okinstallation	princeton_trtdifferential loss correction	single-endedforward channel	channel 4reverse channel	N/Adate	2019/09/13time	18:25:35forward acquisition time	60.00reverse acquisition time	0.00gamma	496.2192k internal	0.2304k external	0.2304temperature offset calibration	1.0189default loss term (dB/km)	0.3790temperature slope calibration	1.0000multiplexer offset coefficient	1.0000multiplexer slope coefficient	1.0000fibre end	0.00T internal ref (°C)	33.64T ext. ref 1 (°C)	4.30T ext. ref 2 (°C)	26.58length (m)	temperature (°C)	Stokes	anti-Stokes-747.200	-102.170	0.126	-0.031
-746.185	99.883	-0.244	0.288
-745.171	-121.628	0.225	0.038
-744.156	-117.381	-0.165	0.030
-743.142	-200.000	0.041	-0.254
-742.127	-3.186	0.320	0.227
-741.112	229.615	0.064	0.106
-740.098	518.466	0.023	-0.056
-739.083	392.591	0.089	-0.189
-738.069	307.284	-0.136	0.258
-737.054	-200.000	0.014	0.119
-736.039	-144.587	-0.198	-0.019
-735.025	800.000	0.099	0.316
-734.010	183.463	-0.194	-0.292
-732.996	-200.000	-0.059	-0.292
-731.981	322.660	-0.145	0.281
-730.966	-49.253	-0.137	-0.066
-729.952	132.387	-0.081	-0.107
-728.937	-63.227	0.122	-0.051
-727.923	-88.052	-0.339	-0.103
-726.908	635.624	-0.044	-0.113
-725.894	-200.000	-0.082	-0.402
-724.879	-167.190	-0.241	-0.010
-723.864	347.561	0.043	-0.086
-722.850	534.155	-0.073	-0.175
-721.835	-6.917	0.143	-0.099
-720.821	-200.000	-0.022	-0.413
-719.806	-126.072	-0.345	0.053
-718.791	-143.200	0.086	0.008
-717.777	-33.961	0.057	-0.032
-716.762	-64.214	0.059	0.024
-715.748	-24.206	-0.156	0.095
-714.733	578.994	0.025	-0.062
-713.718	-200.000	-0.008	-0.073
-712.704	-200.000	0.029	-0.388
-711.689	-110.983	-0.164	-0.034
-710.675	-200.000	0.061	-0.351
-709.660	-56.508	-0.097	0.044
-708.645	92.581	0.066	-0.076
-707.631	-0.391	0.147	-0.106
-706.616	-200.000	-0.008	0.299
-705.602	31.073	-0.386	0.337
-704.587	-15.806	0.078	0.051
-703.572	10.299	-0.119	0.092
-702.558	446.607	-0.042	0.095
-701.543	-34.988	-0.314	0.174
-700.529	65.632	-0.111	0.115
-699.514	-117.532	0.416	-0.076
-698.499	800.000	-0.051	-0.154
-697.485	-74.555	-0.112	0.041
-696.470	800.000	0.017	-0.071
-695.456	690.153	0.062	0.164
-694.441	458.811	0.059	-0.134
-693.426	-72.717	0.228	0.085
-692.412	78.527	-0.101	-0.109
-691.397	-200.000	-0.009	-0.186
-690.383	-80.189	-0.319	-0.109
-689.368	-116.611	-0.356	-0.067
-688.354	-11.573	-0.095	0.063
-687.339	-94.240	-0.116	0.032
-686.324	-108.901	0.100	0.022
-685.310	304.883	-0.092	-0.173
-684.295	-152.946	0.190	0.014
-683.281	-66.786	-0.145	-0.058
-682.266	141.539	-0.185	-0.249
-681.251	-109.402	0.294	0.063
-680.237	-31.322	0.143	0.082
-679.222	209.011	-0.153	-0.244
-678.208	-43.732	0.207	-0.106
-677.193	-46.621	0.153	0.076
-676.178	234.697	-0.202	0.339
-675.164	429.326	0.086	0.189
-674.149	-200.000	-0.018	-0.209
-673.135	91.772	0.194	0.222
-672.120	-103.063	0.247	0.059
-671.105	266.523	0.098	-0.173
-670.091	126.819	-0.166	-0.213
-669.076	-24.847	0.280	-0.169
-668.062	79.054	-0.216	0.235
-667.047	298.790	-0.127	0.238
-666.032	-200.000	-0.007	0.177
-665.018	167.245	0.026	-0.037
-664.003	169.577	0.120	-0.174
-662.989	-200.000	-0.043	0.271
-661.974	800.000	0.093	0.304
-660.959	800.000	-0.039	-0.128
-659.945	-112.461	0.497	0.101
-658.930	-157.543	-0.254	0.015
-657.916	-22.128	-0.047	0.029
-656.901	-200.000	0.002	0.117
-655.886	572.046	-0.102	0.253
-654.872	-25.514	-0.043	0.026
-653.857	67.168	-0.045	-0.046
-652.843	-90.545	0.287	-0.084
-651.828	-174.588	0.143	0.004
-650.814	13.431	-0.203	-0.159
-649.799	-200.000	0.029	-0.336
-648.784	-50.580	0.288	0.138
-647.770	-200.000	-0.037	0.297
-646.755	-200.000	-0.008	0.169
-645.741	-164.383	0.239	0.011
-644.726	-122.969	-0.042	-0.007
-643.711	159.255	0.072	0.102
-642.697	261.746	0.036	-0.063
-641.682	-18.033	0.120	0.076
-640.668	-100.915	-0.147	-0.037
-639.653	368.391	0.248	-0.509
-638.638	-200.000	-0.001	-0.014
-637.624	9.839	0.113	0.087
-636.609	309.748	-0.211	0.401
-635.595	135.207	0.068	-0.090
-634.580	-36.900	-0.069	0.038
-633.565	-33.653	-0.221	-0.124
-632.551	13.438	-0.162	-0.127
-631.536	82.460	-0.207	-0.228
-630.522	-200.000	-0.027	0.149
-629.507	-31.577	-0.110	-0.063
-628.492	297.473	-0.131	-0.243
-627.478	-200.000	0.023	0.145
-626.463	800.000	-0.071	-0.285
-625.449	777.341	-0.027	-0.075
-624.434	190.667	0.031	-0.047
-623.419	65.772	0.272	-0.279
-622.405	186.822	0.113	0.171
-621.390	800.000	-0.072	0.243
-620.376	22.013	0.092	-0.076
-619.361	44.362	-0.227	0.212
-618.346	-93.810	-0.119	0.033
-617.332	86.518	0.031	0.035
-616.317	384.349	0.023	-0.047
-615.303	25.332	0.294	-0.248
-614.288	143.111	-0.061	0.082
-613.273	-200.000	0.025	-0.401
-612.259	-117.239	-0.218	0.040
-611.244	80.092	-0.146	0.159
-610.230	-22.681	0.031	-0.019
-609.215	-77.923	0.467	0.163
-608.201	-117.962	0.228	0.041
-607.186	800.000	-0.062	-0.195
-606.171	800.000	-0.051	-0.213
-605.157	105.033	-0.195	-0.233
-604.142	-200.000	0.027	0.182
-603.128	-78.930	-0.111	-0.038
-602.113	631.074	0.124	-0.317
-601.098	-72.336	0.065	-0.024
-600.084	55.564	-0.034	0.034
-599.069	62.822	-0.184	0.187
-598.055	456.430	0.084	-0.189
-597.040	229.794	0.084	-0.139
-596.025	-170.882	-0.207	0.007
-595.011	-32.366	0.208	0.118
-593.996	104.357	-0.184	0.219
-592.982	-70.695	-0.175	-0.067
-591.967	-27.411	-0.165	-0.097
-590.952	-200.000	-0.050	-0.248
-589.938	120.590	0.138	-0.173
-588.923	-116.932	-0.167	0.031
-587.909	-200.000	0.014	-0.146
-586.894	800.000	0.092	0.314
-585.879	508.127	0.020	0.048
-584.865	154.816	-0.259	-0.361
-583.850	-149.863	0.430	-0.034
-582.836	-104.874	0.248	-0.058
-581.821	-93.039	-0.076	0.021
-580.806	-186.322	-0.192	0.003
-579.792	-200.000	0.033	-0.439
-578.777	-84.832	-0.162	-0.051
-577.763	-200.000	0.010	0.305
-576.748	310.497	-0.109	0.206
-575.733	-101.402	0.210	-0.052
-574.719	-135.705	-0.264	-0.032
-573.704	324.453	0.120	0.232
-572.690	-38.046	-0.295	-0.159
-571.675	479.270	0.122	0.279
-570.661	128.952	0.092	0.119
-569.646	494.806	-0.012	-0.029
-568.631	-43.539	0.246	-0.126
-567.617	35.677	0.094	-0.083
-566.602	-152.711	-0.175	0.013
-565.588	63.198	0.179	0.181
-564.573	195.592	-0.105	0.162
-563.558	800.000	0.052	0.212
-562.544	290.233	0.058	-0.107
-561.529	-200.000	-0.011	-0.184
-560.515	800.000	0.041	0.133
-559.500	417.381	0.172	-0.372
-558.485	-84.749	-0.278	0.088
-557.471	-24.739	-0.388	0.233
-556.456	-53.681	0.204	0.094
-555.442	-28.837	0.227	0.132
-554.427	223.989	-0.044	0.072
-553.412	128.119	0.077	-0.099
-552.398	108.161	-0.186	-0.224
-551.383	513.745	0.062	-0.145
-550.369	24.392	-0.149	-0.125
-549.354	800.000	-0.025	0.097
-548.339	-69.658	-0.233	-0.090
-547.325	-10.074	-0.076	-0.051
-546.310	-144.159	-0.226	0.021
-545.296	-200.000	-0.035	-0.255
-544.281	309.423	0.046	-0.087
-543.266	-200.000	0.027	-0.283
-542.252	-200.000	0.070	-0.000
-541.237	-200.000	0.039	0.349
-540.223	217.795	0.211	0.341
-539.208	-14.533	0.098	-0.063
-538.193	44.617	-0.236	-0.219
-537.179	-63.411	-0.093	-0.039
-536.164	-200.000	0.024	-0.323
-535.150	-42.223	-0.209	-0.108
-534.135	-200.000	0.001	-0.069
-533.121	2.285	0.119	0.087
-532.106	-151.744	-0.489	-0.036
-531.091	-85.341	0.402	-0.127
-530.077	-121.123	-0.204	0.035
-529.062	239.636	0.143	-0.241
-528.048	800.000	-0.109	-0.452
-527.033	-63.978	0.095	0.039
-526.018	276.029	-0.052	-0.094
-525.004	36.624	-0.153	-0.137
-523.989	800.000	0.047	-0.187
-522.975	179.231	0.075	-0.111
-521.960	800.000	0.033	0.142
-520.945	93.671	-0.370	0.423
-519.931	-19.250	0.085	-0.054
-518.916	48.399	0.150	-0.142
-517.902	-51.372	0.203	0.096
-516.887	65.633	-0.339	-0.346
-515.872	102.117	0.040	-0.047
-514.858	364.663	-0.075	0.151
-513.843	-79.561	-0.441	0.150
-512.829	219.604	0.239	0.385
-511.814	-49.907	-0.105	0.050
-510.799	-200.000	0.019	0.116
-509.785	564.543	-0.064	0.157
-508.770	-12.805	0.255	-0.168
-507.756	132.285	-0.055	0.071
-506.741	61.375	0.024	-0.024
-505.726	202.211	0.249	0.388
-504.712	800.000	0.035	-0.136
-503.697	-200.000	0.047	-0.280
-502.683	-91.756	-0.243	-0.070
-501.668	46.716	-0.096	0.090
-500.653	110.247	0.061	0.074
-499.639	-23.724	-0.395	0.238
-498.624	67.953	0.220	0.227
-497.610	-102.573	0.045	-0.011
-496.595	-75.464	0.343	0.123
-495.581	85.556	0.092	-0.102
-494.566	800.000	0.038	-0.139
-493.551	-115.656	0.269	0.051
-492.537	-151.271	-0.372	0.028
-491.522	9.877	0.268	-0.205
-490.508	-200.000	0.017	0.253
-489.493	-161.548	0.410	-0.021
-488.478	-21.047	-0.224	0.138
-487.464	4.321	-0.110	0.081
-486.449	-26.937	0.048	-0.028
-485.435	800.000	-0.039	-0.142
-484.420	-200.000	-0.012	0.075
-483.405	-125.785	-0.090	-0.014
-482.391	-13.174	0.069	-0.045
-481.376	-20.519	0.352	-0.218
-480.362	84.289	0.128	0.141
-479.347	265.583	-0.190	0.334
-478.332	87.883	-0.314	-0.350
-477.318	789.561	0.133	-0.368
-476.303	484.635	-0.098	0.224
-475.289	-200.000	-0.032	-0.398
-474.274	-98.038	0.182	0.047
-473.259	-123.722	-0.373	0.059
-472.245	159.856	-0.260	0.365
-471.230	-200.000	-0.002	-0.089
-470.216	191.042	-0.047	-0.071
-469.201	113.318	-0.102	-0.125
-468.186	-112.337	-0.336	-0.068
-467.172	62.140	0.147	-0.147
-466.157	67.464	-0.039	0.041
-465.143	278.168	-0.180	0.324
-464.128	-95.885	-0.103	0.028
-463.113	-118.731	-0.150	-0.027
-462.099	191.243	-0.108	0.164
-461.084	800.000	-0.131	0.423
-460.070	310.235	0.223	0.420
-459.055	-175.181	-0.086	-0.002
-458.040	800.000	0.065	-0.189
-457.026	-200.000	0.009	0.296
-456.011	261.927	-0.056	-0.099
-454.997	240.458	-0.135	0.226
-453.982	-158.100	0.187	0.011
-452.968	12.083	0.283	-0.219
-451.953	-60.632	-0.054	-0.023
-450.938	-126.516	-0.214	-0.032
-449.924	-200.000	0.003	0.037
-448.909	-200.000	-0.005	0.118
-447.895	-105.149	-0.375	0.086
-446.880	288.722	0.199	-0.363
-445.865	800.000	-0.010	0.039
-444.851	-144.671	0.057	0.005
-443.836	-200.000	0.010	-0.090
-442.822	800.000	0.021	-0.079
-441.807	395.446	0.094	0.197
-440.792	-15.654	-0.123	0.079
-439.778	446.553	-0.068	-0.151
-438.763	27.315	0.067	0.056
-437.749	-112.642	0.050	0.010
-436.734	-104.833	0.364	-0.084
-435.719	-200.000	-0.026	0.255
-434.705	-200.000	0.020	0.436
-433.690	-142.399	0.140	-0.014
-432.676	-95.585	0.168	0.045
-431.661	-200.000	0.033	-0.232
-430.646	-22.079	-0.266	-0.162
-429.632	-1.654	0.163	0.116
-428.617	294.283	-0.063	-0.115
-427.603	-113.909	-0.237	0.046
-426.588	-49.940	0.115	0.055
-425.573	800.000	-0.034	0.141
-424.559	-155.588	-0.380	-0.025
-423.544	-54.090	-0.217	-0.099
-422.530	350.612	-0.098	0.194
-421.515	-73.179	0.364	0.134
-420.500	800.000	0.061	0.199
-419.486	-46.325	-0.032	-0.016
-418.471	-142.859	-0.244	0.024
-417.457	-27.878	-0.109	-0.064
-416.442	108.669	0.043	-0.051
-415.428	-200.000	0.044	0.223
-414.413	800.000	0.065	0.208
-413.398	432.936	-0.031	-0.068
-412.384	-200.000	0.020	0.198
-411.369	44.622	-0.238	-0.220
-410.355	800.000	-0.085	-0.248
-409.340	570.794	0.094	0.230
-408.325	-176.960	-0.450	0.011
-407.311	270.080	0.224	-0.395
-406.296	153.508	0.203	0.280
-405.282	-101.865	0.036	0.009
-404.267	16.569	-0.088	-0.070
-403.252	-200.000	0.006	0.046
-402.238	-200.000	0.006	-0.078
-401.223	-97.108	0.292	-0.077
-400.209	-64.024	-0.083	0.034
-399.194	-44.297	-0.124	0.062
-398.179	800.000	0.050	0.217
-397.165	-41.816	0.327	0.168
-396.150	791.628	0.098	0.272
-395.136	-124.262	-0.206	0.032
-394.121	-200.000	0.038	-0.216
-393.106	-35.979	-0.177	0.096
-392.092	422.070	-0.059	0.126
-391.077	-79.357	-0.046	-0.016
-390.063	63.795	0.172	0.174
-389.048	78.936	-0.043	0.046
-388.033	41.117	0.212	0.192
-387.019	43.968	-0.202	0.185
-386.004	264.785	-0.104	-0.181
-384.990	-23.842	-0.071	-0.042
-383.975	592.893	-0.044	0.110
-382.960	-200.000	-0.001	0.070
-381.946	0.308	0.132	0.094
-380.931	800.000	-0.038	-0.124
-379.917	-55.160	0.131	0.059
-378.902	-170.341	-0.083	-0.003
-377.888	187.551	-0.031	-0.047
-376.873	-60.945	-0.167	0.071
-375.858	-131.912	-0.103	0.013
-374.844	-200.000	-0.035	-0.344
-373.829	-200.000	0.003	-0.268
-372.815	-74.611	0.214	-0.077
-371.800	-200.000	0.049	0.379
-370.785	-128.027	0.106	-0.015
-369.771	-34.237	0.299	-0.165
-368.756	-100.144	0.421	0.105
-367.742	-200.000	-0.013	0.142
-366.727	29.882	0.233	0.199
-365.712	-200.000	-0.030	-0.201
-364.698	-17.941	-0.126	-0.079
-363.683	-17.981	-0.256	-0.161
-362.669	158.087	0.069	-0.096
-361.654	-21.455	-0.111	-0.068
-360.639	-2.334	-0.211	0.149
-359.625	-200.000	0.002	-0.079
-358.610	800.000	-0.044	0.122
-357.596	401.335	-0.141	-0.297
-356.581	800.000	0.109	-0.410
-355.566	-200.000	0.004	0.186
-354.552	256.166	0.131	-0.226
-353.537	-29.784	0.194	0.111
-352.523	-124.036	0.236	-0.037
-351.508	-15.660	-0.200	0.128
-350.493	-200.000	-0.042	0.196
-349.479	-200.000	0.008	-0.121
-348.464	-200.000	0.012	0.062
-347.450	-135.330	0.133	0.016
-346.435	-200.000	-0.026	0.161
-345.420	800.000	-0.056	-0.215
-344.406	685.962	-0.061	0.160
-343.391	345.606	-0.169	0.334
-342.377	78.351	0.206	0.221
-341.362	-200.000	0.090	0.537
-340.348	-56.675	0.432	-0.192
-339.333	800.000	0.078	0.295
-338.318	-148.150	-0.112	-0.009
-337.304	-72.378	0.449	0.167
-336.289	-30.239	0.151	0.086
-335.275	-48.287	-0.252	0.122
-334.260	-200.000	0.001	-0.102
-333.245	800.000	-0.081	0.321
-332.231	800.000	-0.077	-0.222
-331.216	-27.164	0.153	0.089
-330.202	-200.000	-0.001	0.040
-329.187	-42.254	0.074	-0.038
-328.172	-16.925	-0.177	-0.112
-327.158	-53.865	0.045	-0.020
-326.143	-200.000	-0.025	0.235
-325.129	613.032	-0.208	-0.521
-324.114	-32.395	-0.014	-0.008
-323.099	-74.223	-0.214	-0.078
-322.085	-6.537	0.065	-0.044
-321.070	-32.256	-0.285	0.159
-320.056	178.386	0.122	0.178
-319.041	-121.618	0.180	-0.030
-318.026	246.681	-0.106	-0.180
-317.012	41.246	0.055	-0.050
-315.997	-187.623	0.239	0.003
-314.983	90.882	0.132	0.149
-313.968	-106.286	0.429	0.096
-312.953	394.398	0.061	0.126
-311.939	-140.853	0.438	-0.045
-310.924	300.044	0.031	-0.058
-309.910	14.355	-0.299	0.233
-308.895	-13.614	0.364	0.236
-307.880	-60.925	-0.197	-0.083
-306.866	636.195	-0.126	-0.320
-305.851	97.818	-0.329	-0.379
-304.837	800.000	0.081	-0.258
-303.822	-142.564	-0.114	0.011
-302.807	800.000	-0.024	-0.093
-301.793	-200.000	0.040	-0.214
-300.778	-81.222	0.175	-0.058
-299.764	-200.000	0.036	-0.270
-298.749	-194.285	-0.108	0.001
-297.735	179.477	0.093	0.136
-296.720	-167.082	-0.280	-0.011
-295.705	-116.820	-0.052	0.010
-294.691	24.374	0.167	-0.138
-293.676	-72.044	0.266	-0.099
-292.662	182.866	0.070	0.104
-291.647	6.746	0.192	0.143
-290.632	154.094	0.096	0.131
-289.618	-200.000	-0.053	0.462
-288.603	-90.174	-0.100	-0.029
-287.589	85.639	0.098	-0.107
-286.574	379.100	0.078	-0.160
-285.559	-60.700	-0.318	-0.135
-284.545	-43.043	0.056	0.029
-283.530	68.779	0.167	0.172
-282.516	-200.000	-0.034	-0.169
-281.501	-88.771	0.183	0.054
-280.486	428.820	-0.096	-0.208
-279.472	95.025	0.033	-0.037
-278.457	-200.000	-0.015	0.180
-277.443	441.025	-0.056	-0.123
-276.428	-200.000	0.048	-0.260
-275.413	663.050	0.069	-0.179
-274.399	18.046	0.330	-0.263
-273.384	-109.395	-0.467	0.099
-272.370	-57.076	0.151	0.066
-271.355	486.679	0.020	0.045
-270.340	101.992	-0.360	-0.420
-269.326	-200.000	-0.022	0.129
-268.311	-10.090	-0.069	0.046
-267.297	-50.256	-0.220	0.104
-266.282	-16.989	-0.157	0.099
-265.267	-170.805	-0.158	-0.005
-264.253	-138.865	-0.076	-0.008
-263.238	-200.000	0.001	-0.159
-262.224	800.000	0.023	-0.080
-261.209	-97.089	-0.480	0.125
-260.195	46.786	0.216	-0.200
-259.180	-19.251	-0.084	-0.052
-258.165	267.302	0.103	0.180
-257.151	-56.526	0.205	-0.091
-256.136	-108.888	-0.079	0.017
-255.122	239.144	-0.061	-0.101
-254.107	-175.682	0.231	0.006
-253.092	-200.000	-0.016	-0.073
-252.078	-51.088	0.320	-0.150
-251.063	800.000	-0.115	-0.367
-250.049	-29.180	-0.373	0.214
-249.034	-116.458	0.168	0.031
-248.019	800.000	0.075	-0.282
-247.005	275.552	0.104	-0.185
-245.990	-141.892	0.281	-0.028
-244.976	444.206	-0.093	0.204
-243.961	304.801	0.238	0.441
-242.946	245.230	0.097	0.163
-241.932	-200.000	-0.005	-0.062
-240.917	-152.516	-0.333	-0.024
-239.903	-64.287	0.129	-0.053
-238.888	-103.770	0.149	-0.035
-237.873	800.000	-0.101	0.338
-236.859	0.354	-0.254	0.181
-235.844	84.072	-0.124	-0.135
-234.830	-58.117	0.297	0.129
-233.815	800.000	0.109	0.444
-232.800	-42.884	-0.155	-0.079
-231.786	-200.000	0.070	0.309
-230.771	-4.998	-0.152	-0.104
-229.757	65.802	0.228	-0.230
-228.742	12.409	0.121	-0.093
-227.727	800.000	0.080	-0.268
-226.713	-200.000	-0.043	0.290
-225.698	-200.000	0.025	0.148
-224.684	-66.923	0.321	0.126
-223.669	-190.012	-0.200	-0.002
-222.655	-38.656	-0.071	-0.037
-221.640	-17.672	0.172	0.108
-220.625	301.325	-0.039	-0.071
-219.611	-146.405	-0.121	-0.011
-218.596	-84.402	-0.242	0.076
-217.582	99.672	0.105	0.121
-216.567	60.867	0.152	0.150
-215.552	-200.000	-0.006	-0.294
-214.538	212.039	-0.110	0.173
-213.523	800.000	-0.047	0.132
-212.509	185.405	0.151	0.224
-211.494	-41.767	0.091	0.047
-210.479	43.471	-0.172	0.157
-209.465	800.000	-0.072	-0.313
-208.450	-169.555	0.116	0.004
-207.436	-57.788	0.320	0.140
-206.421	342.902	-0.057	0.111
-205.406	-184.034	0.063	-0.001
-204.392	-26.479	-0.072	-0.042
-203.377	-80.703	0.139	-0.046
-202.363	-125.121	0.137	0.021
-201.348	-179.880	-0.381	0.008
-200.333	-200.000	-0.010	0.163
-199.319	-94.283	0.076	0.021
-198.304	-81.595	0.205	-0.067
-197.290	-58.229	-0.142	-0.062
-196.275	-140.792	0.365	0.038
-195.260	152.691	0.023	0.032
-194.246	26.586	0.068	-0.057
-193.231	180.401	0.055	0.081
-192.217	193.396	-0.098	-0.148
-191.202	5.078	-0.198	0.145
-190.187	-52.599	-0.234	-0.108
-189.173	227.011	-0.111	0.180
-188.158	59.772	0.292	-0.287
-187.144	13.964	0.311	-0.241
-186.129	-38.673	-0.218	-0.115
-185.114	29.411	0.252	-0.213
-184.100	-73.910	-0.237	0.086
-183.085	88.900	0.274	0.304
-182.071	-200.000	0.051	-0.227
-181.056	-200.000	0.017	0.156
-180.042	448.706	-0.036	0.080
-179.027	-200.000	0.010	-0.318
-178.012	-200.000	0.005	-0.225
-176.998	-200.000	0.028	0.252
-175.983	531.681	-0.034	-0.080
-174.969	-200.000	0.001	0.088
-173.954	-200.000	-0.030	0.130
-172.939	224.268	-0.200	0.321
-171.925	98.679	0.173	-0.199
-170.910	40.132	0.104	0.093
-169.896	-16.507	-0.108	-0.068
-168.881	-200.000	0.000	-0.080
-167.866	-131.771	-0.379	-0.049
-166.852	452.336	0.066	0.146
-165.837	-28.353	0.126	-0.073
-164.823	-200.000	0.017	-0.236
-163.808	-200.000	0.013	-0.206
-162.793	152.103	-0.126	-0.171
-161.779	44.621	-0.163	0.149
-160.764	44.960	0.232	0.212
-159.750	-53.898	-0.429	0.194
-158.735	-200.000	-0.065	-0.287
-157.720	51.395	0.184	0.174
-156.706	47.575	0.220	0.204
-155.691	-200.000	0.036	-0.280
-154.677	486.399	-0.060	-0.136
-153.662	638.463	-0.132	-0.334
-152.647	-30.915	-0.158	0.089
-151.633	-200.000	0.007	-0.119
-150.618	179.240	-0.072	0.105
-149.604	800.000	-0.059	-0.208
-148.589	180.006	0.092	-0.134
-147.574	-200.000	0.002	-0.326
-146.560	-200.000	0.068	0.351
-145.545	51.942	-0.074	0.070
-144.531	13.467	0.163	0.126
-143.516	58.568	0.213	0.208
-142.502	-67.837	-0.174	-0.067
-141.487	29.756	-0.477	0.404
-140.472	-184.920	0.235	0.004
-139.458	-157.783	-0.222	0.013
-138.443	0.056	-0.252	0.179
-137.429	800.000	0.043	-0.142
-136.414	-133.792	0.221	0.027
-135.399	221.076	0.138	0.221
-134.385	136.807	0.346	-0.450
-133.370	-137.972	0.089	0.010
-132.356	-180.459	-0.129	0.003
-131.341	-74.225	0.190	-0.068
-130.326	-97.452	-0.224	-0.058
-129.312	-133.394	0.207	0.026
-128.297	-80.346	0.233	0.077
-127.283	62.805	-0.173	0.172
-126.268	36.740	0.191	-0.168
-125.253	-50.861	-0.441	0.206
-124.239	-194.717	-0.211	-0.002
-123.224	-98.957	0.190	-0.048
-122.210	327.281	0.099	0.188
