DTS Sentinel unit serial number:	SN413079Multiplexer serial number:	ORYXHardware model number:	OX4-SRSoftware version number:	ORYX F/W v4.00 Oryx Data Collector v3.7.2.0data status	okinstallation	princeton_trtdifferential loss correction	single-endedforward channel	channel 4reverse channel	N/Adate	2019/09/17time	06:41:35forward acquisition time	60.00reverse acquisition time	0.00gamma	496.2192k internal	0.2318k external	0.2318temperature offset calibration	0.9982default loss term (dB/km)	0.3790temperature slope calibration	1.0000multiplexer offset coefficient	1.0000multiplexer slope coefficient	1.0000fibre end	0.00T internal ref (°C)	27.94T ext. ref 1 (°C)	0.12T ext. ref 2 (°C)	21.33length (m)	temperature (°C)	Stokes	anti-Stokes-747.200	800.000	0.060	-0.234
-746.185	-200.000	0.086	0.427
-745.171	-200.000	-0.017	0.217
-744.156	473.699	-0.155	0.353
-743.142	50.806	-0.093	-0.089
-742.127	-8.832	-0.232	-0.157
-741.112	-200.000	-0.007	-0.137
-740.098	250.470	-0.098	-0.169
-739.083	-8.845	-0.179	-0.122
-738.069	-200.000	0.011	0.448
-737.054	-200.000	0.039	0.350
-736.039	-164.698	-0.413	-0.019
-735.025	-200.000	-0.035	-0.285
-734.010	-139.821	0.203	-0.022
-732.996	-73.923	-0.379	-0.139
-731.981	-200.000	-0.006	-0.192
-730.966	613.329	-0.107	-0.271
-729.952	18.219	-0.093	-0.075
-728.937	-23.770	-0.215	-0.130
-727.923	800.000	0.081	0.259
-726.908	-53.538	-0.095	0.044
-725.894	145.029	-0.235	-0.318
-724.879	-180.559	-0.415	0.009
-723.864	63.643	0.068	-0.069
-722.850	138.323	0.109	0.145
-721.835	377.504	0.160	0.331
-720.821	-80.326	-0.288	0.097
-719.806	-96.607	0.201	-0.054
-718.791	-11.979	-0.170	0.112
-717.777	800.000	0.045	-0.160
-716.762	-128.416	-0.180	0.026
-715.748	-200.000	0.012	0.194
-714.733	-53.351	0.357	-0.165
-713.718	-72.179	0.071	0.027
-712.704	-94.860	-0.119	0.033
-711.689	28.611	-0.200	-0.171
-710.675	773.133	0.114	0.316
-709.660	147.118	-0.156	-0.212
-708.645	-200.000	0.014	0.086
-707.631	-47.363	0.106	-0.052
-706.616	-200.000	-0.057	-0.255
-705.602	-100.520	0.235	-0.059
-704.587	-43.782	0.320	-0.163
-703.572	-139.861	-0.206	0.022
-702.558	111.519	-0.225	-0.274
-701.543	800.000	-0.013	0.043
-700.529	800.000	0.103	-0.391
-699.514	318.954	-0.122	-0.234
-698.499	800.000	0.051	0.185
-697.485	-200.000	-0.025	0.125
-696.470	-104.714	-0.196	0.046
-695.456	7.913	0.135	0.102
-694.441	27.618	-0.117	0.099
-693.426	225.589	-0.156	0.256
-692.412	208.319	-0.062	0.098
-691.397	-111.315	-0.334	-0.069
-690.383	-200.000	0.241	-0.001
-689.368	800.000	-0.047	0.151
-688.354	800.000	-0.111	0.412
-687.339	89.856	-0.212	0.239
-686.324	-164.088	0.202	-0.009
-685.310	-111.160	0.394	-0.081
-684.295	-70.991	-0.176	-0.067
-683.281	-200.000	-0.038	-0.274
-682.266	800.000	-0.079	-0.307
-681.251	111.622	0.105	0.128
-680.237	453.005	-0.113	-0.252
-679.222	-164.862	-0.076	-0.003
-678.208	-33.627	-0.084	0.047
-677.193	-200.000	-0.007	0.055
-676.178	-200.000	0.009	-0.151
-675.164	96.475	0.201	-0.232
-674.149	61.194	-0.125	-0.125
-673.135	-72.459	-0.281	-0.105
-672.120	527.048	0.051	-0.122
-671.105	-92.353	0.388	-0.110
-670.091	208.668	-0.076	-0.120
-669.076	-200.000	0.035	0.408
-668.062	-30.612	-0.125	0.071
-667.047	-118.007	0.294	0.053
-666.032	433.039	-0.145	-0.318
-665.018	-44.573	0.117	0.059
-664.003	71.540	-0.033	0.035
-662.989	204.609	0.085	-0.133
-661.974	223.231	-0.057	0.092
-660.959	800.000	-0.031	-0.121
-659.945	144.595	0.083	-0.112
-658.930	18.181	0.166	0.133
-657.916	-23.072	-0.155	-0.094
-656.901	-50.037	-0.068	0.032
-655.886	-120.057	0.263	-0.045
-654.872	264.611	0.116	-0.203
-653.857	-36.471	0.429	-0.233
-652.843	-24.010	-0.031	-0.018
-651.828	800.000	-0.065	0.238
-650.814	85.495	0.130	-0.144
-649.799	-62.693	-0.290	-0.121
-648.784	-113.340	-0.196	-0.039
-647.770	-200.000	0.011	-0.225
-646.755	-200.000	-0.018	-0.154
-645.741	-156.904	0.205	0.013
-644.726	5.499	0.184	0.137
-643.711	210.130	-0.058	0.091
-642.697	-200.000	-0.020	-0.347
-641.682	800.000	0.046	0.199
-640.668	124.240	-0.113	0.143
-639.653	-78.688	0.235	-0.081
-638.638	-179.062	-0.217	-0.005
-637.624	-76.997	0.301	-0.106
-636.609	68.645	0.069	0.071
-635.595	-87.368	0.219	-0.067
-634.580	46.478	0.057	-0.053
-633.565	337.748	0.037	-0.072
-632.551	-75.244	-0.095	0.034
-631.536	595.500	-0.143	-0.357
-630.522	-200.000	-0.029	-0.376
-629.507	-80.512	0.113	0.038
-628.492	415.005	0.038	-0.082
-627.478	-107.264	-0.014	-0.003
-626.463	573.212	-0.010	-0.025
-625.449	2.448	-0.290	-0.211
-624.434	-95.081	0.038	-0.010
-623.419	-200.000	-0.016	-0.474
-622.405	89.296	-0.208	-0.233
-621.390	800.000	-0.062	0.239
-620.376	-200.000	-0.015	-0.074
-619.361	677.603	0.121	-0.316
-618.346	530.237	0.035	0.084
-617.332	327.194	-0.030	0.057
-616.317	92.158	-0.047	-0.053
-615.303	193.922	0.035	0.053
-614.288	94.032	-0.145	-0.166
-613.273	17.939	0.279	0.223
-612.259	-200.000	0.035	0.193
-611.244	442.788	0.040	-0.089
-610.230	108.640	0.122	-0.147
-609.215	68.108	-0.170	0.175
-608.201	51.960	0.187	0.179
-607.186	-125.634	-0.145	-0.022
-606.171	-56.803	-0.080	0.035
-605.157	137.409	0.103	-0.135
-604.142	-135.460	0.161	-0.019
-603.128	-151.942	-0.078	-0.006
-602.113	-125.103	0.105	0.016
-601.098	-49.367	-0.072	-0.035
-600.084	134.159	0.109	-0.142
-599.069	150.742	0.243	0.332
-598.055	-162.175	-0.129	0.007
-597.040	278.521	-0.132	0.237
-596.025	-7.256	-0.155	0.106
-595.011	638.948	-0.103	-0.263
-593.996	54.246	0.015	0.015
-592.982	302.655	-0.131	0.244
-591.967	658.630	-0.048	0.123
-590.952	-173.241	-0.177	-0.005
-589.938	-200.000	-0.035	-0.214
-588.923	800.000	-0.085	-0.311
-587.909	-93.939	0.464	-0.128
-586.894	-200.000	0.263	0.001
-585.879	-55.646	0.248	-0.111
-584.865	-93.989	-0.171	0.047
-583.850	-102.396	-0.170	0.041
-582.836	-51.313	0.215	0.101
-581.821	-200.000	0.001	0.199
-580.806	-79.730	-0.224	-0.076
-579.792	-111.081	0.127	-0.026
-578.777	29.234	-0.136	0.116
-577.763	-53.631	-0.151	-0.069
-576.748	-158.117	-0.091	0.005
-575.733	-65.544	-0.142	-0.057
-574.719	-200.000	-0.034	-0.278
-573.704	-111.148	-0.296	-0.061
-572.690	-29.806	-0.283	-0.162
-571.675	800.000	0.085	-0.350
-570.661	-200.000	0.004	-0.243
-569.646	-51.996	0.234	-0.109
-568.631	328.417	0.096	0.185
-567.617	-98.699	-0.197	-0.051
-566.602	414.696	-0.074	-0.159
-565.588	-200.000	0.001	-0.231
-564.573	113.561	-0.266	0.325
-563.558	556.973	0.130	0.316
-562.544	-200.000	0.013	0.556
-561.529	-12.309	-0.091	0.060
-560.515	21.174	-0.224	-0.183
-559.500	-7.464	0.198	0.135
-558.485	53.957	0.228	0.220
-557.471	-153.996	0.191	0.013
-556.456	19.473	-0.253	-0.204
-555.442	703.619	-0.106	-0.279
-554.427	-69.216	-0.154	0.059
-553.412	318.844	0.088	0.167
-552.398	-165.784	0.245	-0.011
-551.383	-200.000	0.005	0.156
-550.369	800.000	-0.086	0.262
-549.354	8.696	0.192	-0.146
-548.339	-42.714	0.254	-0.130
-547.325	-200.000	-0.030	0.184
-546.310	-187.115	-0.176	0.002
-545.296	83.951	0.191	-0.209
-544.281	53.758	0.203	0.195
-543.266	39.910	-0.146	0.132
-542.252	103.244	-0.397	0.467
-541.237	-200.000	-0.037	-0.308
-540.223	51.073	0.092	-0.087
-539.208	-200.000	-0.058	0.286
-538.193	304.509	-0.105	0.195
-537.179	-132.921	-0.148	0.019
-536.164	-45.251	0.146	-0.073
-535.150	181.398	-0.099	0.146
-534.135	-114.119	-0.116	0.022
-533.121	-200.000	-0.029	0.276
-532.106	-48.330	0.037	-0.018
-531.091	800.000	0.108	0.326
-530.077	-174.082	0.034	-0.001
-529.062	3.187	0.249	-0.181
-528.048	768.276	-0.031	-0.084
-527.033	-44.869	0.079	-0.040
-526.018	800.000	0.055	0.181
-525.004	-200.000	-0.033	0.363
-523.989	-68.532	-0.187	-0.073
-522.975	68.973	0.305	-0.314
-521.960	500.261	0.108	0.250
-520.945	188.846	0.093	-0.139
-519.931	-35.252	-0.289	0.158
-518.916	-66.344	0.210	-0.084
-517.902	-53.282	0.318	0.146
-516.887	90.809	-0.322	-0.362
-515.872	-200.000	-0.007	-0.283
-514.858	9.400	-0.175	-0.133
-513.843	-200.000	0.028	-0.266
-512.829	-30.255	0.259	-0.147
-511.814	161.679	-0.098	-0.138
-510.799	142.501	0.156	0.207
-509.785	-55.176	-0.143	0.065
-508.770	-72.717	-0.065	0.024
-507.756	-200.000	-0.055	-0.463
-506.741	137.084	-0.227	-0.297
-505.726	-200.000	-0.021	0.139
-504.712	78.519	-0.096	-0.103
-503.697	-200.000	0.033	0.250
-502.683	-27.116	0.356	-0.208
-501.668	787.469	-0.015	-0.041
-500.653	800.000	-0.033	-0.117
-499.639	-83.713	-0.433	0.138
-498.624	-12.610	0.191	0.125
-497.610	286.093	-0.074	-0.134
-496.595	-82.094	-0.028	-0.009
-495.581	-200.000	0.008	0.261
-494.566	705.348	-0.034	0.089
-493.551	43.805	-0.192	-0.176
-492.537	-173.241	0.436	0.013
-491.522	-67.231	-0.207	-0.081
-490.508	100.559	0.133	0.155
-489.493	108.807	-0.144	-0.173
-488.478	5.419	-0.115	-0.085
-487.464	-28.071	0.264	0.153
-486.449	-200.000	0.027	0.293
-485.435	-106.944	-0.130	0.029
-484.420	-10.820	0.243	-0.161
-483.405	-200.000	0.017	-0.148
-482.391	54.013	0.185	0.178
-481.376	170.156	-0.085	0.122
-480.362	-165.992	0.318	0.014
-479.347	198.444	-0.216	0.331
-478.332	269.652	-0.131	0.231
-477.318	88.910	-0.215	-0.240
-476.303	-48.058	-0.391	-0.189
-475.289	-200.000	0.011	-0.093
-474.274	800.000	-0.083	-0.308
-473.259	-94.719	0.160	-0.043
-472.245	-131.605	0.116	0.015
-471.230	-83.815	-0.179	0.057
-470.216	10.122	-0.135	-0.103
-469.201	97.608	0.137	0.158
-468.186	92.557	0.234	0.264
-467.172	203.953	0.181	0.281
-466.157	-61.676	-0.076	-0.032
-465.143	800.000	-0.087	-0.280
-464.128	144.172	-0.330	-0.440
-463.113	-200.000	0.004	-0.205
-462.099	-112.306	0.191	0.038
-461.084	200.178	-0.104	0.159
-460.070	-4.122	-0.044	-0.030
-459.055	-35.305	-0.295	-0.161
-458.040	169.058	0.107	-0.153
-457.026	19.452	0.311	0.250
-456.011	105.140	0.208	0.246
-454.997	219.394	-0.038	-0.060
-453.982	-200.000	-0.001	-0.161
-452.968	-13.594	0.208	0.135
-451.953	260.041	-0.155	0.268
-450.938	-18.302	-0.113	0.071
-449.924	-30.156	-0.401	0.228
-448.909	-126.332	0.209	-0.031
-447.895	-180.724	0.290	0.006
-446.880	-155.690	-0.415	-0.027
-445.865	127.788	-0.181	-0.230
-444.851	90.232	0.263	0.294
-443.836	144.602	-0.072	-0.096
-442.822	800.000	-0.099	-0.406
-441.807	14.070	0.119	0.093
-440.792	-200.000	0.007	0.327
-439.778	-200.000	0.015	-0.228
-438.763	507.948	-0.123	0.285
-437.749	213.745	0.164	0.259
-436.734	104.199	-0.028	0.032
-435.719	46.880	-0.260	0.241
-434.705	169.509	0.053	-0.076
-433.690	-67.289	0.235	-0.093
-432.676	13.243	0.033	-0.025
-431.661	441.364	-0.044	0.096
-430.646	502.665	0.110	-0.255
-429.632	-18.889	-0.156	-0.097
-428.617	231.372	-0.132	-0.217
-427.603	-17.276	-0.202	0.127
-426.588	4.738	0.089	0.065
-425.573	-146.056	-0.556	-0.049
-424.559	-42.837	-0.380	-0.193
-423.544	-139.547	0.279	0.030
-422.530	-33.225	-0.040	0.022
-421.515	-11.059	0.079	-0.052
-420.500	175.347	0.048	-0.070
-419.486	-33.624	-0.257	-0.142
-418.471	203.894	-0.225	0.348
-417.457	-55.060	-0.184	-0.083
-416.442	335.092	0.176	-0.341
-415.428	-73.918	-0.052	0.019
-414.413	151.863	0.119	0.162
-413.398	800.000	-0.018	0.056
-412.384	429.202	0.065	-0.141
-411.369	-200.000	0.007	-0.033
-410.355	-111.695	0.083	-0.017
-409.340	313.156	-0.140	-0.262
-408.325	800.000	-0.026	-0.099
-407.311	75.728	-0.084	-0.089
-406.296	276.451	0.083	-0.147
-405.282	-45.915	0.183	-0.090
-404.267	-141.777	-0.095	0.010
-403.252	-200.000	0.001	-0.243
-402.238	-86.410	-0.190	0.058
-401.223	362.020	-0.224	-0.449
-400.209	-41.749	-0.209	0.107
-399.194	199.580	-0.205	0.313
-398.179	-32.877	0.273	-0.151
-397.165	144.974	0.147	-0.196
-396.150	53.015	-0.212	-0.203
-395.136	83.827	-0.098	0.107
-394.121	-200.000	0.058	-0.271
-393.106	39.147	-0.102	-0.091
-392.092	-71.666	0.083	-0.031
-391.077	800.000	-0.080	0.228
-390.063	53.753	-0.139	-0.133
-389.048	142.586	0.196	-0.260
-388.033	800.000	-0.051	0.175
-387.019	-4.980	0.201	0.138
-386.004	-200.000	0.024	0.238
-384.990	-26.298	-0.244	-0.143
-383.975	376.123	0.028	0.056
-382.960	-159.461	0.338	0.019
-381.946	-92.053	0.160	0.045
-380.931	19.119	0.106	-0.085
-379.917	83.295	0.191	-0.207
-378.902	51.981	0.051	0.049
-377.888	-92.763	0.094	-0.026
-376.873	-164.586	-0.442	0.020
-375.858	-200.000	-0.001	0.115
-374.844	-200.000	-0.068	0.483
-373.829	-63.061	0.109	-0.045
-372.815	-95.559	0.164	-0.044
-371.800	781.017	0.022	-0.059
-370.785	-151.074	0.129	-0.010
-369.771	-97.512	0.238	-0.062
-368.756	580.904	-0.102	-0.248
-367.742	100.082	-0.060	-0.069
-366.727	-115.012	-0.438	-0.083
-365.712	102.202	-0.305	-0.355
-364.698	356.000	0.181	-0.359
-363.683	-200.000	0.068	0.320
-362.669	118.606	0.135	0.167
-361.654	231.983	0.212	-0.347
-360.639	139.790	0.183	0.240
-359.625	800.000	0.054	0.155
-358.610	480.994	-0.115	0.260
-357.596	-147.424	0.494	0.042
-356.581	800.000	-0.108	-0.300
-355.566	58.716	-0.066	0.064
-354.552	265.605	-0.149	-0.259
-353.537	-132.280	0.307	-0.040
-352.523	119.716	-0.252	-0.311
-351.508	131.033	0.298	-0.381
-350.493	-192.803	0.427	-0.004
-349.479	149.455	-0.075	0.102
-348.464	-200.000	-0.101	0.443
-347.450	-52.367	0.304	-0.140
-346.435	-117.884	0.177	0.032
-345.420	800.000	0.055	-0.202
-344.406	-104.538	0.341	0.079
-343.391	-43.308	-0.115	0.058
-342.377	481.709	0.054	-0.123
-341.362	12.180	-0.092	-0.071
-340.348	-29.538	0.244	0.139
-339.333	-7.345	0.308	-0.208
-338.318	713.396	-0.075	0.199
-337.304	-200.000	-0.012	0.128
-336.289	18.780	0.066	-0.052
-335.275	162.303	-0.187	-0.261
-334.260	800.000	0.011	0.033
-333.245	107.364	-0.147	0.174
-332.231	-119.236	-0.090	0.016
-331.216	161.205	0.090	0.125
-330.202	-152.673	0.124	-0.009
-329.187	-15.359	0.099	0.063
-328.172	155.961	0.033	-0.045
-327.158	42.230	-0.083	0.075
-326.143	239.905	-0.081	-0.135
-325.129	465.078	0.059	0.132
-324.114	-32.901	-0.113	-0.062
-323.099	-200.000	0.052	-0.240
-322.085	800.000	0.092	-0.273
-321.070	-23.856	0.226	-0.135
-320.056	-96.672	-0.109	-0.029
-319.041	-165.716	-0.219	-0.009
-318.026	133.652	0.136	0.175
-317.012	-3.647	0.260	0.180
-315.997	-200.000	0.001	0.226
-314.983	-151.844	-0.270	-0.020
-313.968	44.898	-0.330	0.302
-312.953	-116.140	0.217	0.040
-311.939	-200.000	0.034	0.346
-310.924	-200.000	0.072	0.346
-309.910	537.106	-0.052	-0.124
-308.895	107.457	0.143	-0.170
-307.880	-61.087	-0.201	0.084
-306.866	-102.095	0.352	-0.084
-305.851	800.000	0.036	-0.116
-304.837	800.000	0.097	0.293
-303.822	21.887	0.136	0.110
-302.807	-110.362	-0.007	-0.001
-301.793	-200.000	0.004	0.109
-300.778	-200.000	0.041	0.218
-299.764	59.268	0.086	-0.084
-298.749	-112.129	0.036	-0.007
-297.735	8.167	0.200	-0.149
-296.720	18.706	0.088	0.070
-295.705	225.540	-0.082	0.132
-294.691	27.237	0.078	0.065
-293.676	-80.778	0.281	0.093
-292.662	3.327	-0.083	-0.060
-291.647	44.719	-0.074	0.068
-290.632	-61.924	0.406	-0.169
-289.618	-20.730	-0.217	0.132
-288.603	-200.000	-0.007	-0.091
-287.589	-200.000	-0.102	0.500
-286.574	-156.112	0.323	-0.020
-285.559	-53.394	-0.291	-0.133
-284.545	-99.668	0.368	0.092
-283.530	800.000	0.061	-0.262
-282.516	-184.791	0.097	0.002
-281.501	29.017	-0.186	0.157
-280.486	-93.753	0.205	-0.056
-279.472	-77.003	0.147	-0.051
-278.457	125.448	-0.003	-0.004
-277.443	13.654	-0.008	-0.006
-276.428	800.000	0.084	0.243
-275.413	349.530	-0.050	0.099
-274.399	144.120	0.101	0.133
-273.384	-200.000	-0.064	0.324
-272.370	11.496	-0.180	-0.137
-271.355	-200.000	-0.021	0.383
-270.340	-99.528	-0.010	-0.003
-269.326	-90.996	0.405	0.116
-268.311	37.830	-0.086	-0.076
-267.297	-16.815	0.238	0.150
-266.282	-161.046	0.210	-0.011
-265.267	261.668	-0.071	-0.123
-264.253	-68.239	-0.035	-0.013
-263.238	-23.577	0.190	-0.113
-262.224	-36.689	-0.134	-0.071
-261.209	47.482	0.062	0.058
-260.195	-200.000	0.000	-0.380
-259.180	-7.686	0.050	0.034
-258.165	-62.707	-0.175	0.072
-257.151	800.000	-0.102	-0.325
-256.136	-120.712	-0.248	-0.042
-255.122	70.423	-0.057	0.058
-254.107	98.674	-0.207	-0.237
-253.092	-83.301	0.144	-0.046
-252.078	-128.987	0.274	-0.038
-251.063	586.461	-0.139	-0.339
-250.049	15.222	-0.206	0.160
-249.034	121.429	0.088	-0.109
-248.019	-72.242	0.455	0.167
-247.005	-50.574	-0.120	0.056
-245.990	-30.812	-0.043	-0.024
-244.976	121.290	0.232	-0.287
-243.961	37.197	-0.257	0.226
-242.946	575.400	-0.212	0.514
-241.932	-200.000	-0.021	0.193
-240.917	-200.000	0.007	0.409
-239.903	-184.061	-0.194	-0.003
-238.888	-187.319	-0.120	0.002
-237.873	511.653	0.219	-0.506
-236.859	123.894	-0.184	-0.230
-235.844	-44.415	-0.116	-0.057
-234.830	-26.651	0.180	0.104
-233.815	-200.000	-0.024	-0.209
-232.800	253.136	-0.106	-0.179
-231.786	242.169	0.121	0.202
-230.771	116.022	0.091	-0.111
-229.757	-200.000	0.003	0.038
-228.742	-8.158	0.204	0.136
-227.727	-92.576	0.175	0.049
-226.713	-61.036	-0.142	0.059
-225.698	213.560	0.044	0.068
-224.684	-44.863	0.146	0.072
-223.669	113.153	-0.089	-0.107
-222.655	-200.000	0.068	0.377
-221.640	70.787	-0.105	0.108
-220.625	375.644	-0.179	0.361
-219.611	307.490	0.118	0.219
-218.596	-106.344	0.116	-0.026
-217.582	-152.713	-0.079	-0.006
-216.567	45.792	-0.204	-0.187
-215.552	-200.000	0.033	0.171
-214.538	-5.525	-0.103	0.070
-213.523	-105.286	-0.102	0.023
-212.509	800.000	-0.041	0.175
-211.494	-200.000	-0.043	-0.207
-210.479	-9.900	0.274	-0.180
-209.465	-200.000	0.014	0.261
-208.450	-163.630	0.371	-0.017
-207.436	37.362	-0.032	-0.028
-206.421	-200.000	-0.033	-0.225
-205.406	800.000	-0.065	0.272
-204.392	-158.765	0.288	-0.016
-203.377	101.082	-0.205	0.236
-202.363	-54.947	-0.126	-0.056
-201.348	800.000	0.023	0.096
-200.333	-200.000	-0.015	0.287
-199.319	21.094	-0.108	-0.087
-198.304	-178.008	0.207	0.005
-197.290	800.000	-0.091	0.279
-196.275	-111.522	-0.180	-0.036
-195.260	-149.905	-0.338	-0.026
-194.246	-187.117	0.425	0.006
-193.231	144.237	-0.057	0.075
-192.217	-132.450	-0.296	-0.038
-191.202	-54.152	-0.192	-0.087
-190.187	-154.930	0.350	0.023
-189.173	800.000	-0.069	0.242
-188.158	-200.000	-0.325	-0.001
-187.144	318.787	0.182	-0.341
-186.129	-65.764	0.129	-0.051
-185.114	-66.397	0.294	-0.116
-184.100	334.131	-0.116	-0.222
-183.085	-200.000	-0.042	0.244
-182.071	376.626	-0.072	0.145
-181.056	-86.737	-0.210	-0.064
-180.042	94.082	-0.087	0.098
-179.027	-28.794	0.185	-0.106
-178.012	73.245	0.143	-0.148
-176.998	-47.679	-0.167	0.080
-175.983	312.782	-0.058	-0.107
-174.969	-77.211	0.263	-0.091
-173.954	-200.000	0.033	0.228
-172.939	-52.011	0.261	0.120
-171.925	800.000	0.098	0.290
-170.910	-200.000	0.007	0.215
-169.896	-26.788	-0.120	0.069
-168.881	-200.000	-0.018	-0.163
-167.866	-64.666	-0.277	0.111
-166.852	-54.381	-0.210	-0.094
-165.837	-200.000	-0.019	-0.182
-164.823	520.295	0.057	-0.132
-163.808	35.667	-0.207	0.180
-162.793	108.136	-0.096	0.113
-161.779	109.674	-0.080	0.095
-160.764	-200.000	-0.022	-0.115
-159.750	800.000	-0.017	-0.070
-158.735	47.378	-0.166	-0.153
-157.720	-27.742	-0.187	0.107
-156.706	800.000	-0.016	0.070
-155.691	-68.769	-0.177	-0.068
-154.677	-200.000	0.006	0.029
-153.662	-48.587	-0.303	-0.144
-152.647	563.227	-0.117	0.280
-151.633	-49.816	-0.254	0.119
-150.618	-200.000	0.019	-0.138
-149.604	644.872	-0.077	-0.194
-148.589	61.174	0.128	-0.126
-147.574	66.758	0.269	-0.270
-146.560	800.000	-0.118	-0.432
-145.545	-103.026	0.252	-0.059
-144.531	64.921	-0.096	0.096
-143.516	-134.165	0.473	-0.058
-142.502	-17.277	-0.116	-0.072
-141.487	-120.611	-0.083	0.014
-140.472	-112.182	-0.455	-0.090
-139.458	39.268	0.342	0.302
-138.443	110.532	-0.143	0.170
-137.429	-200.000	-0.038	-0.168
-136.414	289.233	-0.207	-0.372
-135.399	800.000	-0.032	-0.124
-134.385	-49.786	0.037	-0.017
-133.370	-153.825	0.289	0.020
-132.356	-175.455	-0.272	0.007
-131.341	46.310	-0.371	-0.340
-130.326	-99.828	0.441	0.109
-129.312	-200.000	-0.096	0.532
-128.297	129.652	-0.322	0.407
-127.283	30.190	0.168	-0.142
-126.268	800.000	0.040	0.159
-125.253	800.000	0.053	0.193
-124.239	-4.124	0.071	-0.049
-123.224	82.614	-0.192	-0.206
-122.210	-200.000	-0.057	0.265
