DTS Sentinel unit serial number:	SN413079Multiplexer serial number:	ORYXHardware model number:	OX4-SRSoftware version number:	ORYX F/W v4.00 Oryx Data Collector v3.7.2.0data status	okinstallation	princeton_trtdifferential loss correction	single-endedforward channel	channel 4reverse channel	N/Adate	2019/09/15time	05:13:35forward acquisition time	60.00reverse acquisition time	0.00gamma	496.2192k internal	0.2312k external	0.2312temperature offset calibration	1.0036default loss term (dB/km)	0.3790temperature slope calibration	1.0000multiplexer offset coefficient	1.0000multiplexer slope coefficient	1.0000fibre end	0.00T internal ref (°C)	30.62T ext. ref 1 (°C)	4.78T ext. ref 2 (°C)	25.37length (m)	temperature (°C)	Stokes	anti-Stokes-747.200	-135.435	-0.382	-0.046
-746.185	-123.564	0.224	-0.036
-745.171	-94.573	-0.249	0.069
-744.156	-133.940	-0.535	-0.067
-743.142	-126.381	0.260	-0.039
-742.127	352.993	0.219	0.440
-741.112	357.619	-0.043	0.088
-740.098	-200.000	-0.131	0.635
-739.083	800.000	-0.090	0.258
-738.069	-140.671	0.353	-0.037
-737.054	-69.031	-0.262	-0.102
-736.039	26.287	-0.514	-0.435
-735.025	-27.311	0.160	0.095
-734.010	9.382	0.191	0.146
-732.996	237.304	-0.096	-0.161
-731.981	-200.000	0.006	-0.206
-730.966	211.161	-0.238	-0.380
-729.952	125.007	-0.119	-0.153
-728.937	203.071	0.120	-0.189
-727.923	-200.000	-0.001	-0.221
-726.908	-200.000	-0.031	0.242
-725.894	242.883	-0.079	0.133
-724.879	800.000	0.019	-0.055
-723.864	-104.625	-0.131	-0.031
-722.850	800.000	-0.022	0.066
-721.835	-200.000	0.053	-0.303
-720.821	-200.000	0.018	-0.240
-719.806	97.174	0.124	0.144
-718.791	-74.265	0.165	-0.061
-717.777	368.617	0.135	-0.278
-716.762	102.620	-0.178	-0.211
-715.748	-41.912	0.324	0.168
-714.733	204.626	-0.207	-0.326
-713.718	-200.000	0.004	0.451
-712.704	-46.920	-0.268	0.133
-711.689	800.000	-0.065	0.194
-710.675	-21.623	0.045	0.028
-709.660	-200.000	0.029	-0.298
-708.645	800.000	0.097	0.281
-707.631	-165.624	-0.445	-0.020
-706.616	-96.979	-0.033	-0.009
-705.602	-200.000	0.043	-0.196
-704.587	-135.886	0.081	0.010
-703.572	317.032	-0.150	-0.287
-702.558	101.245	0.164	-0.194
-701.543	465.425	-0.135	0.307
-700.529	-101.483	-0.225	-0.056
-699.514	-200.000	-0.092	-0.468
-698.499	211.097	-0.129	-0.205
-697.485	-200.000	0.051	0.344
-696.470	-106.965	0.429	-0.096
-695.456	-25.891	0.134	0.080
-694.441	-172.914	0.179	-0.006
-693.426	394.987	-0.022	0.046
-692.412	50.932	0.133	-0.128
-691.397	-22.899	0.099	-0.060
-690.383	418.883	-0.097	0.211
-689.368	-14.110	-0.308	-0.201
-688.354	-104.533	-0.191	-0.045
-687.339	48.001	0.221	-0.209
-686.324	-40.816	-0.292	-0.153
-685.310	657.532	-0.088	0.230
-684.295	329.606	-0.104	0.202
-683.281	-116.968	-0.145	0.027
-682.266	146.467	-0.161	-0.219
-681.251	91.985	0.091	0.104
-680.237	-101.568	-0.130	-0.032
-679.222	800.000	0.048	-0.167
-678.208	-187.688	-0.033	-0.000
-677.193	560.666	0.092	0.225
-676.178	-20.162	-0.083	0.052
-675.164	800.000	-0.102	-0.400
-674.149	-153.745	-0.226	-0.016
-673.135	-155.450	-0.355	-0.023
-672.120	800.000	-0.124	0.470
-671.105	12.158	0.336	0.262
-670.091	-105.049	-0.163	-0.038
-669.076	337.406	-0.152	-0.298
-668.062	800.000	0.083	-0.272
-667.047	786.108	0.025	-0.068
-666.032	-200.000	-0.013	-0.349
-665.018	-152.522	0.225	0.016
-664.003	-57.455	0.181	0.080
-662.989	-87.246	0.125	-0.039
-661.974	-22.067	0.179	0.110
-660.959	-59.890	0.376	0.163
-659.945	66.199	0.016	0.017
-658.930	279.672	0.051	0.093
-657.916	474.717	-0.158	0.360
-656.901	800.000	0.028	-0.110
-655.886	120.116	0.203	-0.255
-654.872	-35.573	0.237	-0.130
-653.857	8.773	0.036	-0.027
-652.843	-200.000	-0.021	0.201
-651.828	-200.000	-0.039	-0.231
-650.814	-62.000	0.107	-0.045
-649.799	326.890	-0.126	-0.243
-648.784	800.000	0.042	0.151
-647.770	12.530	0.279	-0.217
-646.755	63.531	-0.071	-0.072
-645.741	42.948	0.188	-0.173
-644.726	-200.000	0.049	0.262
-643.711	578.912	-0.107	-0.265
-642.697	-200.000	-0.012	0.377
-641.682	800.000	-0.105	-0.425
-640.668	-153.010	0.042	0.003
-639.653	-154.700	0.133	0.009
-638.638	-14.841	-0.399	0.259
-637.624	800.000	-0.100	-0.318
-636.609	-98.573	-0.195	0.050
-635.595	-55.050	0.307	0.140
-634.580	118.047	-0.101	-0.126
-633.565	-153.998	0.265	-0.018
-632.551	-21.968	-0.401	-0.246
-631.536	-23.409	-0.187	-0.114
-630.522	562.578	-0.028	-0.068
-629.507	-16.940	0.250	0.160
-628.492	732.431	0.079	-0.213
-627.478	-107.837	0.133	0.029
-626.463	-25.834	0.201	-0.119
-625.449	-117.033	-0.134	-0.025
-624.434	176.762	0.107	0.158
-623.419	-28.242	0.293	-0.171
-622.405	-20.436	0.181	0.113
-621.390	47.974	-0.060	0.057
-620.376	-200.000	0.001	-0.051
-619.361	800.000	-0.086	0.263
-618.346	-200.000	-0.013	-0.240
-617.332	-73.254	-0.172	0.063
-616.317	-166.240	-0.118	-0.005
-615.303	800.000	0.053	0.189
-614.288	106.556	0.140	0.168
-613.273	120.295	0.108	-0.135
-612.259	800.000	-0.074	-0.321
-611.244	-33.539	-0.293	-0.164
-610.230	-200.000	-0.032	-0.389
-609.215	121.094	0.150	-0.189
-608.201	159.804	0.181	-0.254
-607.186	390.032	0.059	0.123
-606.171	-200.000	0.003	0.055
-605.157	663.597	0.023	-0.061
-604.142	800.000	0.011	0.040
-603.128	800.000	0.082	-0.276
-602.113	320.843	-0.048	0.092
-601.098	165.370	-0.027	0.038
-600.084	-51.830	0.387	0.182
-599.069	57.098	0.149	0.146
-598.055	-200.000	-0.013	0.060
-597.040	800.000	0.035	-0.143
-596.025	6.521	0.104	-0.078
-595.011	-109.172	0.162	0.035
-593.996	-17.254	-0.078	0.049
-592.982	800.000	0.046	-0.133
-591.967	-142.882	-0.262	-0.026
-590.952	443.595	-0.088	-0.194
-589.938	-16.864	0.093	0.059
-588.923	-141.258	-0.140	0.014
-587.909	-101.153	0.114	0.028
-586.894	14.023	-0.202	-0.159
-585.879	-148.286	-0.225	-0.019
-584.865	-166.823	0.318	-0.013
-583.850	-200.000	0.038	-0.361
-582.836	-33.392	-0.057	0.032
-581.821	185.130	0.089	-0.133
-580.806	383.858	0.154	-0.319
-579.792	-95.946	0.190	0.051
-578.777	-97.724	-0.040	-0.011
-577.763	-115.868	-0.264	0.050
-576.748	674.273	-0.031	0.081
-575.733	-200.000	0.002	-0.076
-574.719	-65.443	-0.296	0.120
-573.704	14.373	-0.245	-0.193
-572.690	-48.630	0.282	-0.137
-571.675	273.214	-0.093	-0.165
-570.661	800.000	-0.064	0.223
-569.646	143.780	0.014	0.019
-568.631	800.000	0.045	0.126
-567.617	766.436	-0.139	-0.381
-566.602	-118.434	-0.232	-0.042
-565.588	-66.579	0.257	-0.103
-564.573	800.000	0.093	-0.278
-563.558	-200.000	-0.035	-0.271
-562.544	-92.848	-0.161	-0.045
-561.529	-200.000	-0.005	0.323
-560.515	-180.886	-0.247	-0.005
-559.500	-2.258	-0.086	-0.061
-558.485	757.856	-0.103	-0.281
-557.471	194.133	-0.088	0.135
-556.456	229.232	-0.157	-0.259
-555.442	144.803	-0.121	-0.163
-554.427	312.036	-0.134	-0.252
-553.412	22.925	0.106	0.087
-552.398	-200.000	0.001	0.190
-551.383	800.000	0.053	-0.219
-550.369	80.111	0.126	-0.137
-549.354	22.093	0.189	0.155
-548.339	-200.000	-0.046	-0.380
-547.325	-57.287	0.288	0.128
-546.310	-58.334	0.209	0.092
-545.296	234.309	0.108	-0.179
-544.281	49.915	-0.106	0.100
-543.266	-200.000	0.043	0.303
-542.252	-79.352	0.177	0.060
-541.237	-33.233	0.127	-0.071
-540.223	511.750	-0.062	-0.145
-539.208	84.949	0.053	-0.058
-538.193	162.850	-0.161	-0.228
-537.179	20.831	0.273	-0.223
-536.164	-99.335	0.220	0.056
-535.150	-78.736	0.185	0.063
-534.135	-98.828	0.353	0.090
-533.121	57.852	0.078	0.077
-532.106	0.311	-0.178	-0.128
-531.091	279.827	-0.165	0.296
-530.077	-193.104	0.364	-0.003
-529.062	-133.648	-0.092	0.012
-528.048	276.475	0.208	0.372
-527.033	-200.000	-0.068	0.362
-526.018	-200.000	0.041	0.267
-525.004	108.874	-0.151	0.181
-523.989	-108.024	0.202	-0.044
-522.975	209.377	0.081	0.127
-521.960	340.218	0.172	0.338
-520.945	125.971	-0.125	-0.159
-519.931	-40.991	0.256	-0.133
-518.916	-200.000	-0.054	-0.581
-517.902	-10.898	-0.171	-0.114
-516.887	-72.641	0.148	-0.055
-515.872	33.906	-0.176	-0.154
-514.858	463.466	0.083	-0.186
-513.843	-130.374	0.127	0.017
-512.829	-200.000	-0.037	-0.261
-511.814	90.385	-0.104	-0.117
-510.799	181.368	-0.052	-0.077
-509.785	-81.845	0.147	-0.048
-508.770	-56.127	-0.141	0.063
-507.756	-161.454	0.106	0.005
-506.741	800.000	0.091	0.335
-505.726	688.797	0.089	0.235
-504.712	63.801	-0.178	0.180
-503.697	341.185	-0.040	0.079
-502.683	800.000	-0.117	0.344
-501.668	692.804	0.043	0.114
-500.653	60.132	-0.165	-0.164
-499.639	-198.279	0.051	-0.000
-498.624	-109.227	0.320	0.068
-497.610	259.088	0.134	0.232
-496.595	-200.000	-0.025	0.154
-495.581	47.720	-0.322	0.302
-494.566	-139.183	0.171	-0.019
-493.551	-95.694	-0.273	0.073
-492.537	194.262	-0.089	0.135
-491.522	-15.836	-0.256	0.164
-490.508	82.046	-0.078	-0.085
-489.493	-200.000	0.003	-0.062
-488.478	-25.460	-0.253	0.150
-487.464	-113.889	0.081	-0.016
-486.449	-118.197	-0.075	-0.013
-485.435	-30.032	0.189	0.108
-484.420	-90.249	0.130	0.038
-483.405	-200.000	0.004	-0.081
-482.391	-200.000	-0.037	0.193
-481.376	40.324	-0.128	0.115
-480.362	123.147	-0.176	0.222
-479.347	692.228	-0.092	-0.241
-478.332	684.278	-0.018	0.048
-477.318	-52.109	-0.184	-0.086
-476.303	-109.853	-0.396	0.083
-475.289	-147.344	0.172	0.015
-474.274	-130.734	-0.336	0.045
-473.259	-78.274	0.396	-0.137
-472.245	-200.000	0.003	0.081
-471.230	212.402	-0.075	-0.119
-470.216	-200.000	0.010	-0.188
-469.201	251.420	0.147	0.252
-468.186	195.874	-0.070	0.107
-467.172	-128.526	0.424	-0.060
-466.157	89.272	0.128	0.143
-465.143	-200.000	-0.026	0.392
-464.128	-65.917	-0.270	-0.108
-463.113	5.992	0.124	0.092
-462.099	-200.000	-0.013	-0.268
-461.084	-76.874	0.151	-0.053
-460.070	800.000	-0.043	0.167
-459.055	95.799	0.138	0.158
-458.040	203.778	0.090	0.140
-457.026	-80.031	0.177	0.059
-456.011	-56.326	-0.060	0.027
-454.997	50.681	0.301	-0.286
-453.982	-13.942	-0.139	-0.090
-452.968	-150.161	0.175	0.014
-451.953	800.000	-0.091	-0.302
-450.938	141.676	-0.178	0.237
-449.924	-146.669	0.254	-0.022
-448.909	211.677	-0.058	0.092
-447.895	-200.000	0.310	-0.001
-446.880	-111.819	0.124	-0.025
-445.865	-35.327	0.172	-0.094
-444.851	-200.000	0.062	-0.281
-443.836	-50.966	-0.175	0.083
-442.822	-176.497	0.126	0.003
-441.807	-200.000	0.006	-0.324
-440.792	800.000	0.068	-0.204
-439.778	242.929	0.102	-0.172
-438.763	360.651	-0.165	-0.332
-437.749	-200.000	0.001	-0.182
-436.734	-78.813	0.347	0.119
-435.719	331.082	-0.074	-0.144
-434.705	800.000	0.058	0.172
-433.690	-135.635	0.193	0.023
-432.676	285.850	-0.191	0.346
-431.661	-159.200	0.391	-0.022
-430.646	-200.000	0.023	0.147
-429.632	-50.372	-0.073	-0.035
-428.617	-108.018	0.224	-0.049
-427.603	305.720	-0.154	0.287
-426.588	-200.000	-0.050	-0.370
-425.573	-133.062	-0.186	-0.024
-424.559	20.319	-0.128	0.104
-423.544	49.064	0.111	0.105
-422.530	-133.008	0.227	0.029
-421.515	386.848	-0.153	0.316
-420.500	-154.915	0.236	0.016
-419.486	-90.903	0.105	0.030
-418.471	-200.000	-0.023	-0.279
-417.457	-143.440	0.437	-0.042
-416.442	-75.640	0.219	-0.078
-415.428	800.000	0.109	-0.323
-414.413	-200.000	-0.332	-0.001
-413.398	-200.000	-0.006	0.051
-412.384	459.233	0.063	-0.141
-411.369	-74.343	0.283	-0.102
-410.355	8.259	-0.322	-0.243
-409.340	568.668	-0.048	0.116
-408.325	512.659	0.046	-0.107
-407.311	-111.515	0.188	-0.038
-406.296	14.630	0.162	-0.127
-405.282	-120.508	0.137	0.023
-404.267	273.218	-0.243	0.430
-403.252	495.341	0.037	-0.086
-402.238	229.747	-0.119	-0.194
-401.223	-143.851	-0.199	-0.019
-400.209	-7.610	-0.373	-0.253
-399.194	-200.000	0.017	-0.142
-398.179	800.000	-0.036	0.102
-397.165	-129.162	-0.146	0.020
-396.150	328.353	-0.103	0.197
-395.136	-153.498	0.263	0.018
-394.121	47.639	-0.137	-0.127
-393.106	-109.120	0.136	-0.029
-392.092	-200.000	0.008	-0.130
-391.077	-22.374	0.086	0.052
-390.063	800.000	-0.030	-0.126
-389.048	-200.000	-0.032	0.265
-388.033	-200.000	-0.006	0.030
-387.019	-58.077	0.274	-0.120
-386.004	253.847	0.109	-0.186
-384.990	-119.582	-0.274	-0.047
-383.975	92.803	-0.106	-0.120
-382.960	-200.000	0.134	-0.000
-381.946	58.136	-0.090	0.088
-380.931	800.000	-0.030	-0.127
-379.917	800.000	-0.078	0.236
-378.902	-39.912	0.153	-0.080
-377.888	-200.000	0.024	-0.138
-376.873	17.692	0.126	-0.100
-375.858	100.640	-0.061	-0.071
-374.844	-36.213	0.188	-0.101
-373.829	-200.000	-0.038	0.220
-372.815	290.110	0.132	-0.239
-371.800	-153.426	-0.100	0.007
-370.785	-12.277	0.189	-0.124
-369.771	-146.637	0.162	-0.014
-368.756	-71.552	-0.125	0.047
-367.742	-29.558	-0.240	0.137
-366.727	-40.070	-0.260	0.135
-365.712	-88.765	-0.223	0.066
-364.698	21.121	-0.070	0.057
-363.683	-63.308	0.238	0.098
-362.669	170.325	0.109	0.157
-361.654	555.891	-0.067	0.161
-360.639	-146.421	0.187	0.016
-359.625	-200.000	-0.002	0.039
-358.610	800.000	-0.130	-0.476
-357.596	82.033	0.094	-0.102
-356.581	-125.450	0.131	0.020
-355.566	221.509	-0.185	-0.298
-354.552	-28.383	-0.092	-0.053
-353.537	-0.145	-0.177	-0.126
-352.523	356.305	-0.075	0.149
-351.508	-200.000	0.007	0.077
-350.493	10.491	-0.161	-0.122
-349.479	-139.765	0.219	0.023
-348.464	-109.573	-0.367	0.077
-347.450	-128.568	-0.044	0.006
-346.435	-200.000	-0.006	0.124
-345.420	-119.244	-0.145	-0.025
-344.406	800.000	0.015	0.063
-343.391	21.946	-0.239	-0.195
-342.377	127.652	0.151	0.192
-341.362	34.491	-0.146	0.127
-340.348	-129.476	-0.336	-0.047
-339.333	800.000	0.027	-0.112
-338.318	142.262	0.194	0.257
-337.304	-32.427	0.110	0.062
-336.289	-33.871	0.355	0.195
-335.275	-142.725	0.145	0.014
-334.260	26.320	-0.275	-0.229
-333.245	230.221	-0.146	-0.239
-332.231	-112.105	-0.130	-0.026
-331.216	-120.145	0.184	-0.031
-330.202	225.885	-0.160	-0.259
-329.187	-200.000	0.041	0.312
-328.172	13.051	-0.125	-0.096
-327.158	78.578	0.176	-0.188
-326.143	-139.771	-0.073	-0.008
-325.129	-112.582	-0.396	-0.079
-324.114	220.778	-0.148	0.236
-323.099	-131.344	-0.354	0.047
-322.085	800.000	0.077	0.271
-321.070	230.351	-0.119	0.194
-320.056	-200.000	-0.051	0.268
-319.041	-149.565	0.045	-0.004
-318.026	491.179	-0.037	0.084
-317.012	122.768	-0.097	0.121
-315.997	365.500	0.095	-0.191
-314.983	-200.000	-0.005	-0.097
-313.968	91.897	0.202	-0.227
-312.953	-200.000	0.022	0.405
-311.939	-200.000	0.049	0.503
-310.924	-85.707	-0.071	0.022
-309.910	725.565	-0.104	-0.278
-308.895	-150.605	-0.243	-0.019
-307.880	-67.531	0.132	0.052
-306.866	-200.000	-0.024	-0.320
-305.851	13.877	0.216	0.167
-304.837	-115.537	-0.387	0.073
-303.822	-7.801	-0.071	-0.048
-302.807	800.000	0.069	0.291
-301.793	-184.077	-0.232	0.004
-300.778	-43.054	-0.261	0.132
-299.764	-52.721	0.303	-0.139
-298.749	65.754	-0.254	-0.257
-297.735	-13.050	0.134	-0.087
-296.720	-200.000	0.002	0.194
-295.705	800.000	-0.084	-0.238
-294.691	184.528	0.112	0.166
-293.676	-83.842	-0.108	-0.034
-292.662	-143.654	0.236	-0.022
-291.647	50.997	0.046	-0.044
-290.632	-1.941	0.036	-0.025
-289.618	74.218	-0.105	0.110
-288.603	133.747	-0.185	0.239
-287.589	-119.854	-0.194	-0.033
-286.574	-24.320	0.158	-0.094
-285.559	227.561	0.144	-0.234
-284.545	47.340	-0.253	0.235
-283.530	104.262	-0.132	-0.155
-282.516	-107.159	0.290	0.064
-281.501	372.799	-0.059	-0.119
-280.486	-200.000	-0.035	-0.183
-279.472	300.762	0.078	0.144
-278.457	800.000	0.129	0.415
-277.443	18.984	-0.166	0.132
-276.428	-57.196	-0.239	-0.105
-275.413	4.594	0.142	-0.104
-274.399	545.742	-0.080	0.192
-273.384	-200.000	0.015	0.223
-272.370	595.621	0.061	-0.151
-271.355	64.422	-0.326	-0.327
-270.340	-200.000	0.064	-0.316
-269.326	-65.318	-0.420	0.168
-268.311	-20.132	0.183	-0.113
-267.297	-53.044	0.256	-0.117
-266.282	-79.553	-0.167	-0.056
-265.267	800.000	-0.085	0.263
-264.253	-99.662	0.245	0.061
-263.238	-4.053	0.208	0.143
-262.224	678.771	-0.119	-0.310
-261.209	520.745	0.087	0.203
-260.195	-200.000	-0.032	0.222
-259.180	800.000	0.088	-0.251
-258.165	800.000	0.074	-0.211
-257.151	-200.000	-0.011	0.062
-256.136	735.246	0.082	0.217
-255.122	-200.000	-0.069	-0.532
-254.107	-200.000	-0.030	0.227
-253.092	-200.000	-0.025	0.352
-252.078	-28.581	0.103	0.059
-251.063	-103.258	0.208	0.049
-250.049	800.000	-0.107	0.389
-249.034	-200.000	-0.016	0.351
-248.019	184.762	0.086	-0.126
-247.005	-200.000	0.003	0.033
-245.990	-141.809	0.113	-0.011
-244.976	800.000	0.071	-0.212
-243.961	-0.608	-0.195	0.138
-242.946	-63.592	-0.421	0.172
-241.932	-200.000	-0.015	-0.130
-240.917	-62.165	-0.298	0.124
-239.903	-2.277	-0.107	-0.075
-238.888	-200.000	-0.017	0.075
-237.873	-150.784	0.316	0.024
-236.859	-125.503	0.383	0.058
-235.844	-200.000	0.011	0.318
-234.830	6.879	-0.278	-0.206
-233.815	16.619	-0.123	-0.097
-232.800	108.136	-0.247	-0.293
-231.786	708.519	-0.164	0.431
-230.771	-200.000	0.046	-0.221
-229.757	-200.000	-0.007	0.085
-228.742	205.053	0.056	0.086
-227.727	-109.999	-0.288	0.060
-226.713	47.327	-0.109	-0.101
-225.698	108.797	-0.155	0.184
-224.684	-88.898	-0.222	-0.066
-223.669	-200.000	-0.003	0.019
-222.655	-7.340	0.186	0.125
-221.640	-46.034	0.097	0.048
-220.625	-200.000	0.019	0.178
-219.611	-81.913	-0.304	0.099
-218.596	-200.000	0.062	-0.321
-217.582	271.897	0.094	0.164
-216.567	235.722	0.120	0.197
-215.552	-200.000	0.023	0.121
-214.538	-139.907	0.380	0.040
-213.523	314.738	-0.125	-0.235
-212.509	-68.619	-0.199	0.077
-211.494	800.000	0.104	-0.343
-210.479	339.280	0.099	0.191
-209.465	-200.000	0.018	0.180
-208.450	-8.981	0.224	-0.149
-207.436	394.389	-0.135	-0.280
-206.421	116.181	0.190	0.231
-205.406	-12.028	0.130	-0.084
-204.392	-200.000	0.023	0.270
-203.377	-155.023	0.061	0.004
-202.363	-111.263	-0.153	-0.031
-201.348	664.028	0.081	0.208
-200.333	-130.794	-0.286	-0.038
-199.319	78.574	-0.091	-0.097
-198.304	89.059	0.148	-0.164
-197.290	-200.000	-0.005	-0.046
-196.275	75.586	0.060	-0.063
-195.260	-113.861	0.177	-0.034
-194.246	11.089	-0.137	-0.104
-193.231	84.921	-0.163	0.177
-192.217	-83.826	0.193	0.061
-191.202	-24.525	-0.149	0.088
-190.187	800.000	-0.054	-0.209
-189.173	-67.926	-0.238	-0.092
-188.158	2.467	-0.322	0.232
-187.144	451.446	-0.096	0.210
-186.129	-55.382	-0.133	0.059
-185.114	-200.000	0.023	0.300
-184.100	-35.752	0.221	0.119
-183.085	-109.770	-0.229	-0.048
-182.071	-55.566	-0.175	0.078
-181.056	-77.477	-0.250	0.086
-180.042	98.656	-0.190	0.218
-179.027	-200.000	0.018	0.134
-178.012	428.213	0.133	0.285
-176.998	-99.256	0.167	0.042
-175.983	-75.523	0.507	-0.179
-174.969	751.416	-0.018	0.049
-173.954	-41.035	0.278	-0.143
-172.939	-44.774	0.181	0.090
-171.925	-200.000	0.008	0.219
-170.910	800.000	-0.054	-0.189
-169.896	269.610	0.085	-0.149
-168.881	479.921	-0.016	0.036
-167.866	358.948	-0.127	0.252
-166.852	362.352	0.119	-0.238
-165.837	117.432	-0.107	0.131
-164.823	374.704	-0.094	0.190
-163.808	-44.065	0.137	-0.068
-162.793	140.872	-0.097	0.127
-161.779	317.774	-0.139	-0.262
-160.764	-50.172	0.418	0.196
-159.750	95.364	-0.151	-0.171
-158.735	18.920	-0.144	-0.115
-157.720	-200.000	0.045	0.210
-156.706	-24.318	0.081	0.048
-155.691	-86.062	-0.125	0.038
-154.677	800.000	0.079	-0.293
-153.662	116.489	0.101	-0.123
-152.647	768.689	0.103	0.279
-151.633	800.000	-0.088	0.306
-150.618	767.480	-0.136	-0.366
-149.604	33.082	0.246	-0.211
-148.589	103.272	-0.245	-0.284
-147.574	93.991	0.088	0.099
-146.560	-200.000	0.033	0.292
-145.545	-156.754	0.242	-0.015
-144.531	-175.777	0.151	0.004
-143.516	-61.747	-0.145	-0.060
-142.502	235.019	0.109	0.178
-141.487	800.000	-0.025	-0.110
-140.472	-200.000	0.018	-0.181
-139.458	800.000	0.084	-0.311
-138.443	82.428	-0.284	-0.306
-137.429	250.632	0.221	-0.373
-136.414	768.823	0.063	-0.169
-135.399	-39.466	-0.272	-0.141
-134.385	140.382	0.155	-0.203
-133.370	-107.780	0.012	0.003
-132.356	-77.442	0.177	0.061
-131.341	-52.980	-0.186	-0.085
-130.326	142.274	0.221	-0.290
-129.312	-179.201	-0.120	-0.003
-128.297	118.936	-0.190	-0.233
-127.283	-91.410	0.290	0.082
-126.268	385.514	-0.086	-0.176
-125.253	800.000	-0.089	0.283
-124.239	77.592	0.250	-0.264
-123.224	-92.897	0.079	-0.022
-122.210	-136.070	-0.380	0.044
