DTS Sentinel unit serial number:	SN413079Multiplexer serial number:	ORYXHardware model number:	OX4-SRSoftware version number:	ORYX F/W v4.00 Oryx Data Collector v3.7.2.0data status	okinstallation	princeton_trtdifferential loss correction	single-endedforward channel	channel 4reverse channel	N/Adate	2019/09/18time	18:09:35forward acquisition time	60.00reverse acquisition time	0.00gamma	496.2192k internal	0.2292k external	0.2292temperature offset calibration	1.0016default loss term (dB/km)	0.3790temperature slope calibration	1.0000multiplexer offset coefficient	1.0000multiplexer slope coefficient	1.0000fibre end	0.00T internal ref (°C)	39.19T ext. ref 1 (°C)	0.93T ext. ref 2 (°C)	32.13length (m)	temperature (°C)	Stokes	anti-Stokes-747.200	132.219	0.101	-0.134
-746.185	-79.951	0.269	0.093
-745.171	-57.776	0.044	0.020
-744.156	499.749	0.016	-0.038
-743.142	293.198	0.162	-0.303
-742.127	800.000	-0.038	0.142
-741.112	-68.509	0.149	0.059
-740.098	800.000	0.038	0.154
-739.083	-35.231	-0.195	0.109
-738.069	-200.000	-0.017	0.077
-737.054	-200.000	0.064	0.326
-736.039	-32.494	0.368	0.210
-735.025	800.000	0.035	0.104
-734.010	795.181	-0.048	-0.135
-732.996	189.666	0.079	-0.121
-731.981	344.423	-0.076	-0.152
-730.966	-200.000	0.023	0.190
-729.952	800.000	0.016	0.052
-728.937	67.821	-0.070	-0.073
-727.923	-200.000	0.028	0.153
-726.908	235.457	0.165	0.278
-725.894	402.220	-0.087	-0.187
-724.879	-181.241	-0.216	0.004
-723.864	800.000	0.066	0.240
-722.850	-39.538	-0.256	0.137
-721.835	7.969	-0.180	-0.138
-720.821	70.875	-0.429	-0.454
-719.806	-123.127	-0.193	0.032
-718.791	52.242	-0.198	-0.193
-717.777	-200.000	-0.045	-0.207
-716.762	259.210	0.111	0.195
-715.748	433.331	0.013	0.028
-714.733	-200.000	-0.001	-0.175
-713.718	-40.827	-0.030	-0.016
-712.704	-31.396	0.231	-0.133
-711.689	-154.593	-0.153	0.010
-710.675	-14.767	-0.187	0.123
-709.660	181.676	-0.119	-0.179
-708.645	-76.530	0.210	0.075
-707.631	800.000	-0.022	-0.076
-706.616	363.913	0.113	0.232
-705.602	-200.000	-0.010	-0.230
-704.587	-22.967	0.125	0.077
-703.572	595.836	0.058	-0.146
-702.558	232.421	-0.041	-0.068
-701.543	-62.774	0.346	0.147
-700.529	-6.152	-0.252	-0.176
-699.514	81.202	0.111	-0.122
-698.499	-151.495	0.238	0.018
-697.485	12.674	0.189	-0.149
-696.470	286.009	-0.137	-0.253
-695.456	-15.387	-0.183	-0.120
-694.441	-9.612	-0.192	0.131
-693.426	139.699	0.122	0.164
-692.412	-89.631	-0.348	0.104
-691.397	-70.983	-0.244	0.094
-690.383	190.517	0.020	0.030
-689.368	-160.814	0.353	0.019
-688.354	-151.699	-0.413	-0.031
-687.339	-200.000	0.014	0.099
-686.324	800.000	-0.072	-0.249
-685.310	-200.000	-0.001	-0.165
-684.295	-75.187	-0.133	0.048
-683.281	47.287	-0.082	0.078
-682.266	-200.000	0.000	-0.236
-681.251	-134.170	-0.148	-0.019
-680.237	-200.000	-0.010	-0.073
-679.222	-34.739	-0.030	-0.017
-678.208	800.000	0.112	-0.478
-677.193	-200.000	-0.014	-0.154
-676.178	-102.419	0.485	-0.119
-675.164	-50.886	-0.145	0.069
-674.149	-67.489	-0.187	-0.075
-673.135	-200.000	-0.007	0.041
-672.120	-200.000	0.068	0.335
-671.105	68.118	-0.286	0.298
-670.091	27.483	0.307	0.263
-669.076	188.081	0.149	0.227
-668.062	95.952	0.358	-0.417
-667.047	-0.272	-0.052	-0.038
-666.032	277.566	0.196	0.355
-665.018	170.940	0.146	-0.214
-664.003	284.308	0.095	0.174
-662.989	-163.032	-0.251	0.012
-661.974	537.232	-0.117	-0.283
-660.959	77.390	0.061	-0.066
-659.945	-39.756	0.308	-0.164
-658.930	800.000	0.048	-0.168
-657.916	-52.439	0.176	0.083
-656.901	483.043	-0.042	0.096
-655.886	-149.075	0.182	-0.015
-654.872	-200.000	0.002	-0.424
-653.857	-6.761	-0.114	-0.079
-652.843	57.151	0.251	0.250
-651.828	121.888	0.135	-0.172
-650.814	-66.256	-0.253	-0.103
-649.799	800.000	-0.087	0.286
-648.784	-39.351	-0.198	0.106
-647.770	-200.000	-0.046	-0.390
-646.755	-14.974	-0.152	-0.100
-645.741	-200.000	0.067	-0.335
-644.726	78.109	0.073	0.079
-643.711	198.491	0.146	0.227
-642.697	764.890	0.022	0.062
-641.682	-200.000	-0.077	-0.000
-640.668	-8.116	0.463	-0.318
-639.653	88.236	-0.099	0.112
-638.638	708.169	-0.058	0.155
-637.624	-45.143	0.190	-0.096
-636.609	-200.000	0.052	0.235
-635.595	304.124	0.072	0.136
-634.580	-200.000	-0.037	-0.276
-633.565	435.182	-0.068	-0.151
-632.551	-95.169	-0.058	-0.016
-631.536	-118.116	-0.495	-0.090
-630.522	800.000	0.045	-0.158
-629.507	355.042	0.117	-0.237
-628.492	800.000	0.029	-0.087
-627.478	768.733	0.041	0.114
-626.463	-63.541	0.048	-0.020
-625.449	220.313	0.057	0.093
-624.434	-150.331	0.250	0.020
-623.419	-200.000	-0.039	-0.197
-622.405	-200.000	-0.017	-0.144
-621.390	-200.000	0.028	-0.312
-620.376	-200.000	-0.014	-0.199
-619.361	254.725	0.087	0.152
-618.346	-144.440	-0.232	-0.022
-617.332	-200.000	0.086	-0.436
-616.317	-200.000	-0.018	-0.346
-615.303	55.710	0.116	-0.115
-614.288	-200.000	-0.039	0.285
-613.273	-38.564	-0.082	-0.044
-612.259	107.120	-0.124	0.150
-611.244	88.936	-0.225	-0.254
-610.230	-25.249	-0.205	0.124
-609.215	115.003	-0.200	0.248
-608.201	800.000	0.073	0.276
-607.186	135.287	0.236	0.313
-606.171	800.000	0.101	-0.350
-605.157	-121.173	-0.378	0.064
-604.142	-70.002	-0.055	0.021
-603.128	216.211	-0.117	-0.189
-602.113	-200.000	0.014	-0.470
-601.098	516.359	0.134	0.319
-600.084	-65.660	0.325	-0.133
-599.069	57.580	0.147	-0.146
-598.055	-168.867	0.149	0.006
-597.040	240.990	-0.083	-0.141
-596.025	284.077	0.139	-0.254
-595.011	88.497	0.174	0.196
-593.996	259.481	-0.223	0.391
-592.982	-200.000	-0.042	0.244
-591.967	-200.000	0.057	0.426
-590.952	-40.213	-0.100	-0.053
-589.938	194.651	-0.042	0.064
-588.923	800.000	-0.042	-0.144
-587.909	169.748	-0.045	-0.066
-586.894	-20.916	0.138	0.086
-585.879	-200.000	-0.031	-0.505
-584.865	-18.874	0.183	0.116
-583.850	-200.000	0.006	-0.076
-582.836	-21.551	0.124	0.077
-581.821	-200.000	0.003	0.165
-580.806	-38.905	-0.081	0.043
-579.792	800.000	0.026	-0.111
-578.777	-43.300	-0.180	-0.093
-577.763	-95.320	0.068	-0.018
-576.748	-36.187	0.347	0.190
-575.733	47.157	-0.179	-0.170
-574.719	113.190	0.212	-0.261
-573.704	60.105	0.034	-0.034
-572.690	206.700	-0.205	0.324
-571.675	-2.348	-0.038	0.027
-570.661	441.176	-0.054	0.120
-569.646	-69.276	0.091	-0.036
-568.631	-125.258	0.242	-0.038
-567.617	-59.532	-0.186	0.081
-566.602	314.647	0.137	-0.263
-565.588	800.000	-0.068	-0.226
-564.573	191.670	0.144	-0.220
-563.558	251.180	0.055	0.096
-562.544	-200.000	-0.043	0.243
-561.529	25.371	0.138	0.117
-560.515	-78.432	0.155	0.054
-559.500	-61.536	-0.133	-0.057
-558.485	-98.608	0.243	-0.063
-557.471	51.352	0.273	0.264
-556.456	-200.000	-0.012	-0.154
-555.442	-12.895	0.015	0.010
-554.427	521.319	-0.024	0.057
-553.412	23.831	-0.254	-0.213
-552.398	-40.004	-0.189	-0.100
-551.383	-43.376	-0.233	0.120
-550.369	746.840	0.103	0.282
-549.354	120.817	-0.326	0.412
-548.339	-142.484	0.053	0.005
-547.325	76.649	-0.146	-0.158
-546.310	286.030	-0.085	0.156
-545.296	326.702	0.064	-0.124
-544.281	524.445	-0.120	0.286
-543.266	-68.274	0.229	-0.090
-542.252	800.000	0.041	-0.128
-541.237	-48.565	0.244	0.119
-540.223	-200.000	-0.024	0.118
-539.208	800.000	-0.012	0.049
-538.193	451.209	0.138	0.310
-537.179	126.639	-0.164	-0.211
-536.164	690.982	0.054	-0.142
-535.150	800.000	0.047	0.183
-534.135	-200.000	-0.009	-0.047
-533.121	-91.712	0.219	0.063
-532.106	800.000	0.005	-0.014
-531.091	-96.283	-0.100	-0.027
-530.077	-170.505	-0.128	-0.005
-529.062	-116.782	-0.213	-0.040
-528.048	694.214	-0.055	0.146
-527.033	36.843	0.163	0.146
-526.018	743.246	0.066	-0.181
-525.004	-200.000	-0.007	-0.176
-523.989	-200.000	0.018	0.140
-522.975	-183.274	-0.197	-0.003
-521.960	800.000	0.045	0.181
-520.945	800.000	0.049	-0.180
-519.931	-200.000	0.027	-0.152
-518.916	-103.914	0.075	0.018
-517.902	178.946	-0.053	0.079
-516.887	-87.226	-0.281	0.087
-515.872	-200.000	-0.025	0.163
-514.858	-28.281	-0.270	-0.158
-513.843	-200.000	0.055	0.257
-512.829	-81.875	0.383	-0.127
-511.814	28.025	0.297	-0.254
-510.799	276.635	-0.083	0.149
-509.785	800.000	0.037	-0.120
-508.770	-82.384	0.294	0.097
-507.756	-80.939	0.188	-0.063
-506.741	54.559	-0.060	0.058
-505.726	-164.780	0.333	0.015
-504.712	21.153	-0.304	-0.250
-503.697	4.472	-0.192	0.143
-502.683	-82.940	0.559	0.183
-501.668	191.464	0.070	-0.107
-500.653	-11.738	-0.481	-0.320
-499.639	617.763	-0.096	-0.243
-498.624	61.151	0.250	-0.251
-497.610	-129.993	0.048	0.007
-496.595	-163.194	-0.309	0.015
-495.581	10.779	-0.150	-0.116
-494.566	-200.000	-0.030	-0.288
-493.551	-200.000	0.028	-0.242
-492.537	358.861	-0.033	-0.066
-491.522	-18.830	0.228	-0.144
-490.508	-200.000	0.052	-0.325
-489.493	-200.000	0.139	0.001
-488.478	253.501	-0.042	0.072
-487.464	-114.311	0.327	-0.064
-486.449	178.426	-0.066	-0.098
-485.435	132.366	0.192	-0.251
-484.420	800.000	-0.034	0.123
-483.405	800.000	-0.049	-0.159
-482.391	-122.395	0.204	-0.034
-481.376	-49.374	-0.261	0.126
-480.362	718.544	-0.146	-0.394
-479.347	528.823	-0.047	0.112
-478.332	-200.000	-0.026	0.234
-477.318	133.205	-0.154	-0.201
-476.303	-200.000	0.003	0.042
-475.289	-33.293	0.407	-0.228
-474.274	-200.000	0.009	0.041
-473.259	-140.773	0.109	-0.011
-472.245	86.120	-0.037	0.042
-471.230	-42.269	0.065	0.034
-470.216	305.541	0.089	0.167
-469.201	264.412	-0.103	-0.181
-468.186	-200.000	-0.003	-0.426
-467.172	58.503	0.056	-0.056
-466.157	-145.133	-0.378	0.035
-465.143	275.938	0.140	-0.251
-464.128	-99.057	0.345	0.088
-463.113	-200.000	-0.060	0.427
-462.099	517.810	-0.045	-0.107
-461.084	800.000	-0.138	0.588
-460.070	23.091	0.258	0.215
-459.055	-66.614	0.253	-0.102
-458.040	31.664	0.179	-0.156
-457.026	-121.497	-0.132	0.022
-456.011	609.917	0.117	-0.296
-454.997	-102.232	-0.309	0.075
-453.982	-200.000	0.084	0.429
-452.968	800.000	0.009	0.034
-451.953	800.000	-0.043	0.137
-450.938	-30.621	-0.199	0.114
-449.924	373.263	-0.154	0.316
-448.909	-97.287	-0.156	0.041
-447.895	270.112	-0.172	0.305
-446.880	684.954	0.021	-0.055
-445.865	18.714	-0.027	-0.022
-444.851	-47.056	-0.223	0.110
-443.836	-200.000	0.024	-0.371
-442.822	-198.464	0.116	0.001
-441.807	-55.508	0.187	0.085
-440.792	-82.518	-0.243	-0.080
-439.778	-68.813	0.192	-0.075
-438.763	54.124	0.166	-0.161
-437.749	-27.429	0.362	0.213
-436.734	-141.177	0.136	-0.014
-435.719	-109.908	-0.113	0.024
-434.705	-38.515	-0.290	0.155
-433.690	23.189	-0.119	0.099
-432.676	-200.000	0.009	0.083
-431.661	-99.700	0.196	0.050
-430.646	-50.586	0.066	-0.032
-429.632	43.073	-0.145	-0.134
-428.617	800.000	-0.043	0.174
-427.603	288.526	-0.088	-0.161
-426.588	274.693	-0.028	-0.050
-425.573	138.675	0.177	0.235
-424.559	53.634	-0.161	0.156
-423.544	-89.566	-0.092	0.027
-422.530	800.000	-0.081	0.358
-421.515	463.515	0.046	0.105
-420.500	542.189	0.190	0.457
-419.486	93.341	0.184	0.211
-418.471	79.271	0.117	0.127
-417.457	-200.000	0.032	0.302
-416.442	-161.901	-0.329	-0.017
-415.428	134.899	-0.064	-0.084
-414.413	-200.000	0.016	-0.119
-413.398	-75.237	-0.238	0.086
-412.384	-84.717	-0.185	0.059
-411.369	128.559	-0.057	-0.073
-410.355	36.693	0.163	-0.145
-409.340	285.150	0.169	-0.307
-408.325	-59.969	-0.270	0.117
-407.311	-200.000	0.001	-0.206
-406.296	-200.000	0.044	0.256
-405.282	127.159	0.083	0.106
-404.267	47.168	-0.123	-0.115
-403.252	800.000	-0.072	0.267
-402.238	110.316	0.202	-0.245
-401.223	-78.970	0.096	0.033
-400.209	6.028	-0.300	0.224
-399.194	-132.556	-0.272	-0.035
-398.179	-76.384	-0.179	-0.064
-397.165	800.000	0.028	-0.090
-396.150	-200.000	0.027	-0.137
-395.136	33.450	-0.259	-0.227
-394.121	-30.006	-0.042	0.024
-393.106	14.569	0.073	-0.058
-392.092	9.674	0.094	-0.072
-391.077	133.163	-0.055	-0.071
-390.063	747.502	0.036	0.097
-389.048	-142.014	-0.148	-0.015
-388.033	281.531	-0.112	-0.203
-387.019	169.997	-0.138	0.199
-386.004	-200.000	-0.054	-0.465
-384.990	-25.884	-0.133	0.079
-383.975	230.887	0.031	-0.051
-382.960	309.366	0.067	0.127
-381.946	-200.000	0.002	0.285
-380.931	-21.321	-0.313	0.193
-379.917	-171.666	0.167	0.006
-378.902	800.000	-0.118	0.396
-377.888	800.000	-0.056	0.173
-376.873	-200.000	-0.005	0.034
-375.858	69.852	-0.197	-0.205
-374.844	-102.998	-0.260	-0.062
-373.829	-82.179	-0.213	-0.070
-372.815	-55.776	0.089	-0.040
-371.800	800.000	0.024	0.073
-370.785	-144.378	0.347	0.033
-369.771	217.629	-0.251	0.403
-368.756	800.000	-0.019	-0.054
-367.742	-200.000	-0.010	-0.240
-366.727	-200.000	0.002	-0.108
-365.712	15.336	-0.030	-0.023
-364.698	219.533	-0.152	0.245
-363.683	-97.001	-0.155	-0.041
-362.669	-125.066	0.201	0.031
-361.654	800.000	-0.056	-0.192
-360.639	-4.286	0.100	0.069
-359.625	-200.000	0.014	-0.224
-358.610	-200.000	0.030	0.413
-357.596	343.356	-0.122	0.241
-356.581	595.482	-0.120	0.300
-355.566	-119.387	0.116	0.020
-354.552	-200.000	0.036	-0.287
-353.537	-200.000	0.009	-0.215
-352.523	800.000	-0.178	0.498
-351.508	-165.350	0.360	0.016
-350.493	-61.306	-0.028	-0.012
-349.479	426.932	0.165	-0.358
-348.464	-82.994	0.228	0.074
-347.450	-28.743	-0.165	-0.095
-346.435	-9.996	0.121	-0.081
-345.420	10.611	-0.245	-0.188
-344.406	-96.061	-0.207	-0.055
-343.391	-181.218	0.137	-0.003
-342.377	79.822	-0.087	-0.094
-341.362	-28.521	0.088	0.051
-340.348	-200.000	-0.016	0.076
-339.333	800.000	0.053	0.201
-338.318	-120.620	0.266	0.045
-337.304	-3.184	-0.213	-0.150
-336.289	-131.879	-0.202	-0.027
-335.275	43.339	0.320	0.294
-334.260	800.000	-0.078	0.247
-333.245	336.626	0.128	0.250
-332.231	-93.469	-0.313	0.087
-331.216	-108.524	-0.128	-0.028
-330.202	289.316	-0.075	-0.138
-329.187	800.000	0.047	-0.209
-328.172	-63.943	-0.119	-0.049
-327.158	-191.841	-0.218	-0.002
-326.143	431.668	0.155	0.337
-325.129	296.848	0.137	0.253
-324.114	-200.000	-0.036	0.255
-323.099	158.868	-0.061	0.085
-322.085	199.243	-0.296	-0.456
-321.070	-200.000	-0.032	-0.321
-320.056	148.880	0.209	0.284
-319.041	-34.011	0.124	0.069
-318.026	50.683	-0.078	-0.075
-317.012	-5.380	0.274	0.189
-315.997	788.387	0.114	-0.316
-314.983	0.362	0.187	-0.135
-313.968	-200.000	-0.014	0.112
-312.953	-200.000	-0.042	-0.304
-311.939	-189.948	-0.230	-0.003
-310.924	-200.000	-0.006	0.311
-309.910	-200.000	0.012	0.132
-308.895	219.137	-0.138	0.221
-307.880	-25.878	0.257	-0.152
-306.866	61.859	-0.097	0.097
-305.851	-3.994	0.150	0.104
-304.837	-120.425	0.326	-0.056
-303.822	-45.289	0.269	-0.134
-302.807	-125.780	0.040	-0.006
-301.793	-128.966	-0.199	0.028
-300.778	19.478	-0.137	0.111
-299.764	-143.414	-0.075	0.007
-298.749	-109.452	-0.163	-0.035
-297.735	-200.000	-0.043	-0.353
-296.720	95.913	0.145	-0.167
-295.705	89.344	0.038	-0.043
-294.691	-50.718	-0.181	0.086
-293.676	-200.000	0.043	0.239
-292.662	-137.374	-0.205	0.023
-291.647	127.680	-0.158	0.202
-290.632	292.219	-0.220	-0.402
-289.618	-164.420	-0.218	0.010
-288.603	-83.051	0.101	0.033
-287.589	-200.000	-0.012	0.054
-286.574	174.083	0.119	-0.173
-285.559	-153.938	0.332	0.023
-284.545	800.000	0.023	0.092
-283.530	-62.415	0.061	0.026
-282.516	-94.355	0.227	-0.062
-281.501	10.202	0.120	0.092
-280.486	-42.479	-0.162	0.083
-279.472	-114.851	-0.288	0.055
-278.457	-20.057	-0.378	0.234
-277.443	142.573	-0.082	0.109
-276.428	-149.701	-0.192	-0.015
-275.413	-200.000	-0.013	-0.096
-274.399	-200.000	0.001	-0.102
-273.384	-78.451	0.333	-0.115
-272.370	-169.941	0.407	0.015
-271.355	-67.805	-0.215	-0.084
-270.340	368.198	0.183	0.372
-269.326	-43.986	0.218	0.110
-268.311	800.000	-0.083	0.294
-267.297	59.165	0.119	0.118
-266.282	-108.188	-0.337	-0.073
-265.267	-102.403	-0.238	0.057
-264.253	800.000	-0.058	0.215
-263.238	-101.362	0.118	-0.029
-262.224	-84.027	-0.295	-0.094
-261.209	-62.273	0.257	-0.108
-260.195	77.476	-0.133	-0.142
-259.180	-200.000	-0.028	-0.514
-258.165	-200.000	-0.032	0.200
-257.151	-43.660	-0.099	0.050
-256.136	699.299	0.069	0.183
-255.122	-200.000	-0.017	0.126
-254.107	128.355	-0.088	0.112
-253.092	800.000	-0.071	0.284
-252.078	179.963	-0.122	0.179
-251.063	137.779	-0.050	0.066
-250.049	-162.065	0.145	-0.007
-249.034	-145.669	0.242	0.022
-248.019	-30.927	-0.145	0.082
-247.005	-66.579	-0.080	-0.032
-245.990	-133.831	0.359	-0.045
-244.976	78.940	0.220	-0.236
-243.961	800.000	-0.045	-0.168
-242.946	-107.079	-0.254	0.056
-241.932	-78.133	0.481	-0.166
-240.917	-30.215	-0.158	-0.090
-239.903	299.234	-0.105	0.193
-238.888	-77.519	0.035	-0.012
-237.873	-119.195	0.264	-0.046
-236.859	48.033	0.131	-0.123
-235.844	-16.512	0.345	0.219
-234.830	800.000	0.149	-0.574
-233.815	-117.563	0.139	-0.025
-232.800	-34.658	-0.326	0.179
-231.786	52.565	-0.199	0.191
-230.771	1.478	-0.210	-0.151
-229.757	-61.371	-0.109	-0.046
-228.742	245.831	0.060	-0.102
-227.727	-200.000	-0.036	-0.265
-226.713	80.191	0.122	-0.132
-225.698	206.964	-0.170	-0.266
-224.684	-111.753	0.179	-0.036
-223.669	359.883	-0.079	0.159
-222.655	324.585	0.264	0.506
-221.640	19.876	-0.088	0.071
-220.625	-84.523	-0.094	0.030
-219.611	-109.749	0.169	0.036
-218.596	-200.000	-0.002	0.193
-217.582	-81.123	0.226	-0.075
-216.567	-200.000	0.025	0.420
-215.552	178.230	0.074	-0.108
-214.538	-79.538	-0.093	0.031
-213.523	-91.321	0.202	-0.058
-212.509	-14.514	0.232	0.149
-211.494	-82.650	0.082	-0.027
-210.479	-200.000	-0.008	0.118
-209.465	305.068	0.084	0.156
-208.450	192.951	0.185	-0.281
-207.436	800.000	-0.096	-0.291
-206.421	92.633	-0.111	0.126
-205.406	800.000	-0.038	0.130
-204.392	144.370	0.119	0.159
-203.377	-154.165	-0.456	0.031
-202.363	-200.000	-0.011	-0.072
-201.348	228.291	0.063	0.102
-200.333	-76.078	-0.320	-0.113
-199.319	152.504	0.227	-0.311
-198.304	177.145	0.201	0.294
-197.290	-200.000	-0.021	-0.183
-196.275	123.333	0.090	0.113
-195.260	-200.000	0.037	0.208
-194.246	800.000	0.033	-0.126
-193.231	796.879	-0.060	-0.165
-192.217	72.602	-0.262	-0.274
-191.202	-200.000	0.005	-0.049
-190.187	-89.156	-0.250	-0.074
-189.173	345.653	-0.045	-0.088
-188.158	58.505	-0.146	-0.143
-187.144	800.000	0.040	-0.122
-186.129	-164.205	0.146	0.007
-185.114	193.180	0.045	0.068
-184.100	-200.000	0.009	0.279
-183.085	368.444	-0.150	0.303
-182.071	-200.000	0.013	-0.179
-181.056	-93.042	-0.078	-0.022
-180.042	9.566	-0.313	-0.237
-179.027	681.177	-0.064	-0.166
-178.012	-200.000	0.033	0.293
-176.998	-12.821	-0.117	-0.076
-175.983	-200.000	-0.023	-0.297
-174.969	186.659	-0.056	0.083
-173.954	-1.588	0.138	0.098
-172.939	124.145	0.031	-0.039
-171.925	-200.000	0.229	0.001
-170.910	800.000	-0.121	0.406
-169.896	-124.483	-0.235	0.037
-168.881	-47.470	0.114	-0.056
-167.866	-55.283	0.258	0.116
-166.852	-100.872	0.083	-0.021
-165.837	800.000	-0.099	-0.311
-164.823	116.143	0.342	-0.419
-163.808	46.021	0.407	-0.377
-162.793	6.871	0.179	-0.133
-161.779	102.368	0.119	-0.140
-160.764	213.013	-0.170	-0.268
-159.750	357.650	0.117	-0.233
-158.735	-200.000	0.007	0.159
-157.720	-130.322	0.247	0.034
-156.706	-75.627	-0.369	-0.131
-155.691	-67.011	-0.300	0.119
-154.677	69.319	-0.156	-0.160
-153.662	214.723	-0.118	0.187
-152.647	-200.000	0.039	0.204
-151.633	-115.574	0.370	-0.070
-150.618	122.565	0.070	0.088
-149.604	-102.996	0.145	-0.034
-148.589	-71.164	0.412	0.155
-147.574	-200.000	-0.048	0.263
-146.560	-200.000	-0.082	-0.400
-145.545	-200.000	-0.037	-0.601
-144.531	39.989	-0.405	-0.364
-143.516	800.000	-0.061	-0.181
-142.502	-79.888	0.159	0.053
-141.487	-40.564	-0.172	0.089
-140.472	-200.000	0.060	0.351
-139.458	-13.118	0.061	-0.040
-138.443	-200.000	0.013	-0.176
-137.429	-65.792	-0.142	0.057
-136.414	9.471	-0.050	0.038
-135.399	462.691	0.032	0.071
-134.385	-200.000	0.004	0.036
-133.370	305.092	0.184	-0.341
-132.356	-13.902	-0.072	-0.047
-131.341	-200.000	0.017	0.122
-130.326	-138.162	0.279	0.031
-129.312	-200.000	-0.032	-0.297
-128.297	341.906	-0.174	0.341
-127.283	105.917	-0.175	-0.207
-126.268	-133.076	0.244	-0.031
-125.253	-20.362	0.307	0.189
-124.239	142.108	-0.203	-0.269
-123.224	-200.000	0.008	0.184
-122.210	-200.000	0.017	-0.255
