DTS Sentinel unit serial number:	SN413079Multiplexer serial number:	ORYXHardware model number:	OX4-SRSoftware version number:	ORYX F/W v4.00 Oryx Data Collector v3.7.2.0data status	okinstallation	princeton_trtdifferential loss correction	single-endedforward channel	channel 4reverse channel	N/Adate	2019/09/16time	06:25:34forward acquisition time	60.00reverse acquisition time	0.00gamma	496.2192k internal	0.2320k external	0.2320temperature offset calibration	0.9984default loss term (dB/km)	0.3790temperature slope calibration	1.0000multiplexer offset coefficient	1.0000multiplexer slope coefficient	1.0000fibre end	0.00T internal ref (°C)	27.39T ext. ref 1 (°C)	11.35T ext. ref 2 (°C)	21.68length (m)	temperature (°C)	Stokes	anti-Stokes-747.200	297.244	0.206	-0.382
-746.185	-200.000	-0.027	0.241
-745.171	207.787	0.066	0.105
-744.156	-116.108	-0.314	0.059
-743.142	-110.404	-0.438	0.092
-742.127	-49.103	-0.583	0.282
-741.112	-5.682	0.307	0.213
-740.098	164.265	-0.345	0.492
-739.083	49.817	0.436	0.416
-738.069	-200.000	0.029	0.254
-737.054	213.671	-0.047	0.076
-736.039	-51.897	0.144	0.068
-735.025	252.545	0.061	0.104
-734.010	4.492	0.159	0.118
-732.996	-85.986	-0.363	-0.113
-731.981	10.736	-0.288	-0.222
-730.966	681.178	0.078	0.204
-729.952	-32.667	0.129	0.073
-728.937	-111.463	0.135	0.028
-727.923	-93.045	-0.290	0.082
-726.908	-63.279	-0.052	-0.022
-725.894	-41.894	-0.335	-0.174
-724.879	-53.262	-0.281	-0.130
-723.864	-133.563	0.194	0.025
-722.850	557.031	-0.035	0.084
-721.835	492.099	-0.040	0.092
-720.821	106.149	0.252	-0.301
-719.806	120.108	-0.082	0.103
-718.791	-118.990	-0.353	-0.062
-717.777	-200.000	-0.044	-0.397
-716.762	-200.000	-0.006	-0.077
-715.748	130.950	-0.151	-0.196
-714.733	-141.330	-0.222	-0.023
-713.718	-30.670	-0.150	-0.086
-712.704	-200.000	0.082	0.000
-711.689	96.236	-0.143	-0.165
-710.675	129.564	0.146	-0.188
-709.660	800.000	0.056	-0.187
-708.645	5.885	-0.262	-0.196
-707.631	-19.007	-0.246	-0.154
-706.616	800.000	-0.113	-0.387
-705.602	-112.461	-0.220	-0.044
-704.587	304.855	-0.096	-0.179
-703.572	516.886	-0.144	-0.339
-702.558	-5.216	0.186	0.129
-701.543	233.853	0.047	-0.078
-700.529	580.302	0.051	-0.126
-699.514	-200.000	0.012	0.164
-698.499	-183.286	0.382	0.007
-697.485	441.192	0.017	-0.037
-696.470	-93.535	-0.214	-0.060
-695.456	-9.984	-0.195	0.131
-694.441	3.622	-0.042	0.031
-693.426	-29.227	0.240	-0.139
-692.412	296.420	0.143	0.264
-691.397	266.450	0.086	-0.151
-690.383	-103.101	-0.363	-0.087
-689.368	800.000	0.098	-0.353
-688.354	7.009	-0.251	-0.189
-687.339	-31.827	-0.090	0.051
-686.324	-24.525	0.174	-0.105
-685.310	800.000	-0.093	-0.373
-684.295	114.030	0.117	-0.144
-683.281	333.393	-0.064	-0.124
-682.266	159.395	-0.204	-0.287
-681.251	95.649	-0.037	0.043
-680.237	800.000	-0.154	-0.503
-679.222	-200.000	0.085	-0.435
-678.208	800.000	-0.015	-0.063
-677.193	684.886	-0.086	0.226
-676.178	21.579	-0.177	0.145
-675.164	-41.297	0.161	0.084
-674.149	800.000	0.072	0.213
-673.135	-200.000	-0.004	-0.114
-672.120	51.920	-0.192	-0.184
-671.105	545.232	-0.036	0.088
-670.091	61.005	0.121	-0.121
-669.076	505.023	-0.102	0.237
-668.062	-20.887	-0.216	-0.133
-667.047	-38.519	0.136	-0.073
-666.032	157.405	-0.046	0.064
-665.018	-125.617	0.271	-0.041
-664.003	-200.000	0.030	-0.136
-662.989	-17.308	0.064	0.040
-661.974	365.171	-0.077	0.156
-660.959	223.764	-0.318	0.518
-659.945	-154.609	0.202	-0.014
-658.930	-112.927	0.365	-0.073
-657.916	800.000	-0.108	-0.358
-656.901	90.438	-0.130	-0.146
-655.886	-114.299	0.323	-0.063
-654.872	-148.223	-0.269	0.022
-653.857	-191.340	0.353	-0.004
-652.843	-30.937	0.063	-0.036
-651.828	-46.763	0.055	-0.027
-650.814	-200.000	0.014	0.195
-649.799	266.068	-0.059	0.103
-648.784	800.000	-0.095	0.420
-647.770	-19.318	0.224	-0.140
-646.755	-200.000	-0.014	0.091
-645.741	-125.328	0.131	0.020
-644.726	-53.590	0.101	0.047
-643.711	-108.048	-0.269	-0.059
-642.697	-68.118	0.289	-0.113
-641.682	-16.305	-0.325	0.208
-640.668	11.871	0.103	0.080
-639.653	-88.407	0.086	-0.026
-638.638	-21.508	0.110	-0.068
-637.624	-51.613	-0.376	-0.176
-636.609	800.000	0.090	-0.271
-635.595	-74.878	0.405	0.146
-634.580	800.000	0.032	-0.096
-633.565	800.000	0.063	-0.198
-632.551	-200.000	0.001	0.286
-631.536	-171.002	-0.487	0.017
-630.522	16.180	-0.035	-0.027
-629.507	800.000	-0.022	0.090
-628.492	-97.575	0.124	0.032
-627.478	-154.587	0.118	0.008
-626.463	-72.183	-0.144	0.054
-625.449	-108.612	-0.037	0.008
-624.434	-95.157	0.070	0.019
-623.419	792.843	0.042	0.115
-622.405	-200.000	-0.026	-0.292
-621.390	-103.270	0.126	0.030
-620.376	-23.937	0.436	-0.263
-619.361	74.644	-0.226	-0.239
-618.346	-188.595	0.132	-0.002
-617.332	67.599	-0.291	-0.299
-616.317	-78.888	-0.381	0.131
-615.303	-5.841	0.061	0.042
-614.288	-32.744	0.245	0.137
-613.273	48.005	-0.220	-0.207
-612.259	-36.833	0.120	-0.065
-611.244	-34.921	-0.095	0.052
-610.230	-92.211	0.109	0.031
-609.215	24.790	-0.128	0.106
-608.201	-200.000	-0.021	-0.190
-607.186	-131.450	-0.500	0.066
-606.171	-82.729	0.355	-0.116
-605.157	119.907	-0.152	0.190
-604.142	-200.000	-0.034	0.182
-603.128	-200.000	0.004	0.237
-602.113	112.187	-0.108	0.132
-601.098	-200.000	-0.028	-0.302
-600.084	-61.585	-0.292	-0.123
-599.069	-82.478	0.150	0.049
-598.055	-34.995	0.208	0.114
-597.040	247.969	-0.136	0.231
-596.025	800.000	0.066	0.270
-595.011	-46.936	0.270	-0.133
-593.996	-123.030	0.309	-0.050
-592.982	-200.000	0.089	0.503
-591.967	-144.900	-0.265	-0.024
-590.952	224.392	0.181	-0.293
-589.938	133.290	-0.124	0.161
-588.923	-133.470	0.223	0.028
-587.909	38.818	-0.109	-0.097
-586.894	-200.000	-0.013	-0.257
-585.879	-77.305	0.383	0.134
-584.865	-67.446	-0.181	-0.071
-583.850	-31.117	-0.205	-0.116
-582.836	125.572	-0.231	-0.293
-581.821	-38.577	-0.172	0.091
-580.806	-136.976	-0.315	-0.036
-579.792	-200.000	-0.022	0.103
-578.777	-140.125	0.242	0.026
-577.763	-111.221	0.095	0.020
-576.748	-200.000	0.024	0.201
-575.733	-18.274	0.103	-0.065
-574.719	162.816	-0.241	-0.340
-573.704	86.594	0.175	-0.194
-572.690	-182.396	-0.308	0.006
-571.675	269.969	-0.034	-0.060
-570.661	800.000	0.076	-0.317
-569.646	18.544	-0.115	0.092
-568.631	-200.000	0.017	-0.175
-567.617	160.289	-0.275	0.386
-566.602	31.252	-0.194	0.167
-565.588	100.211	0.316	-0.368
-564.573	12.346	0.111	-0.086
-563.558	-46.689	0.058	-0.029
-562.544	-96.125	-0.248	-0.066
-561.529	800.000	-0.104	0.290
-560.515	8.002	-0.173	0.130
-559.500	-200.000	-0.008	0.084
-558.485	112.525	-0.035	0.042
-557.471	-200.000	-0.022	-0.165
-556.456	-200.000	-0.107	0.508
-555.442	-96.426	0.060	0.016
-554.427	-119.418	0.402	0.070
-553.412	-16.505	-0.328	-0.209
-552.398	-84.992	-0.152	0.048
-551.383	239.246	0.120	0.200
-550.369	-34.195	-0.154	-0.085
-549.354	74.032	-0.130	0.137
-548.339	278.914	-0.131	0.234
-547.325	-140.309	-0.179	0.019
-546.310	45.697	-0.150	0.139
-545.296	213.546	-0.235	0.372
-544.281	152.110	0.078	-0.106
-543.266	-200.000	0.024	0.174
-542.252	16.461	0.214	-0.170
-541.237	-200.000	0.037	-0.308
-540.223	434.643	0.184	0.401
-539.208	-200.000	0.016	-0.253
-538.193	-43.859	0.162	0.082
-537.179	93.352	0.210	-0.239
-536.164	-200.000	-0.018	0.134
-535.150	116.594	0.211	0.260
-534.135	800.000	-0.049	0.169
-533.121	-200.000	0.018	-0.222
-532.106	-19.957	0.078	-0.049
-531.091	227.922	0.084	0.138
-530.077	88.600	-0.090	0.100
-529.062	-130.471	0.178	0.024
-528.048	70.540	0.135	0.140
-527.033	-148.139	0.234	-0.019
-526.018	148.157	-0.050	-0.068
-525.004	-41.851	-0.137	-0.071
-523.989	-200.000	-0.022	0.140
-522.975	-72.256	-0.289	-0.107
-521.960	-200.000	-0.019	-0.128
-520.945	152.098	0.099	-0.136
-519.931	800.000	-0.042	-0.156
-518.916	-89.404	0.061	0.018
-517.902	130.386	0.151	-0.193
-516.887	251.643	-0.098	0.166
-515.872	310.006	0.178	0.334
-514.858	-133.237	-0.282	0.036
-513.843	488.830	-0.082	-0.187
-512.829	18.546	0.250	-0.200
-511.814	302.679	-0.075	0.139
-510.799	46.745	-0.144	-0.134
-509.785	444.341	-0.042	-0.092
-508.770	59.346	0.280	-0.276
-507.756	-200.000	0.011	-0.097
-506.741	313.969	-0.022	-0.042
-505.726	-70.372	0.131	0.050
-504.712	-53.894	-0.211	0.096
-503.697	-159.483	0.273	0.015
-502.683	800.000	0.023	-0.068
-501.668	-167.920	-0.115	0.005
-500.653	-188.816	0.305	-0.004
-499.639	800.000	-0.061	0.230
-498.624	-153.992	-0.174	-0.012
-497.610	-200.000	-0.439	0.001
-496.595	119.877	0.014	-0.017
-495.581	800.000	-0.105	-0.292
-494.566	-156.411	0.105	-0.007
-493.551	292.256	0.169	-0.308
-492.537	-200.000	0.003	0.261
-491.522	-148.291	0.062	0.005
-490.508	31.784	-0.157	-0.135
-489.493	307.368	-0.036	0.067
-488.478	-54.224	-0.200	-0.091
-487.464	565.838	0.071	-0.171
-486.449	453.486	0.113	-0.251
-485.435	-92.225	-0.126	-0.036
-484.420	141.527	0.170	0.225
-483.405	18.512	0.239	0.191
-482.391	769.024	0.004	-0.010
-481.376	397.891	-0.036	0.075
-480.362	-200.000	0.049	-0.220
-479.347	41.629	0.104	-0.094
-478.332	-38.660	-0.126	-0.066
-477.318	-47.888	-0.309	0.150
-476.303	-98.399	0.146	0.037
-475.289	-98.810	0.225	0.057
-474.274	-200.000	0.033	-0.233
-473.259	-56.638	-0.144	0.064
-472.245	800.000	-0.034	0.102
-471.230	-11.286	0.042	-0.028
-470.216	-200.000	-0.022	0.431
-469.201	-200.000	-0.032	0.201
-468.186	-146.321	0.271	-0.024
-467.172	-200.000	-0.038	0.350
-466.157	78.357	0.101	-0.108
-465.143	96.498	-0.077	-0.088
-464.128	-200.000	-0.001	0.272
-463.113	185.089	-0.298	0.442
-462.099	-22.036	0.050	-0.030
-461.084	84.254	-0.157	0.171
-460.070	800.000	0.059	0.257
-459.055	800.000	0.027	-0.105
-458.040	-90.486	-0.335	-0.097
-457.026	61.807	-0.239	-0.238
-456.011	-120.652	0.128	-0.022
-454.997	118.823	0.100	0.124
-453.982	11.463	-0.169	0.129
-452.968	-123.404	-0.118	-0.019
-451.953	-60.529	0.321	0.136
-450.938	-200.000	-0.014	-0.108
-449.924	-157.805	-0.315	0.019
-448.909	-126.324	0.287	0.043
-447.895	-200.000	0.013	-0.127
-446.880	357.274	0.183	-0.365
-445.865	-82.138	-0.327	-0.106
-444.851	108.844	-0.227	-0.271
-443.836	-92.876	-0.268	-0.075
-442.822	200.303	0.023	-0.036
-441.807	-99.967	0.337	0.084
-440.792	-200.000	-0.034	0.156
-439.778	-200.000	0.048	-0.217
-438.763	240.486	0.024	-0.040
-437.749	-126.306	-0.177	-0.026
-436.734	-124.795	0.090	-0.014
-435.719	-131.788	-0.266	-0.035
-434.705	142.132	-0.242	-0.320
-433.690	-40.964	-0.156	0.080
-432.676	68.187	0.192	-0.196
-431.661	744.622	-0.048	-0.128
-430.646	-24.922	0.031	0.019
-429.632	356.997	-0.061	0.122
-428.617	31.765	0.051	0.044
-427.603	-200.000	0.024	0.260
-426.588	-15.233	0.219	0.140
-425.573	512.142	-0.088	0.206
-424.559	-51.812	0.104	-0.048
-423.544	319.510	-0.146	-0.276
-422.530	736.867	0.088	-0.236
-421.515	21.050	-0.080	-0.065
-420.500	-6.633	0.153	-0.104
-419.486	391.319	0.062	-0.129
-418.471	748.440	-0.020	0.054
-417.457	-127.892	0.412	0.059
-416.442	800.000	0.017	0.064
-415.428	-200.000	-0.018	0.210
-414.413	652.839	0.059	0.150
-413.398	-200.000	0.011	-0.098
-412.384	-200.000	-0.014	-0.226
-411.369	-32.202	0.299	-0.167
-410.355	-200.000	-0.046	-0.290
-409.340	-142.324	-0.128	-0.013
-408.325	297.032	-0.120	0.220
-407.311	706.637	-0.167	0.441
-406.296	-200.000	-0.024	0.289
-405.282	99.507	-0.131	0.151
-404.267	-187.102	-0.267	0.004
-403.252	-47.620	0.377	0.183
-402.238	-35.164	-0.339	-0.184
-401.223	-113.538	-0.409	-0.080
-400.209	800.000	0.036	-0.153
-399.194	-200.000	-0.002	-0.210
-398.179	620.869	0.096	0.242
-397.165	-58.055	-0.081	-0.035
-396.150	-200.000	-0.052	-0.358
-395.136	-200.000	0.037	0.260
-394.121	-69.374	0.225	-0.086
-393.106	-53.415	-0.127	-0.058
-392.092	74.624	-0.023	0.024
-391.077	-71.718	-0.322	-0.120
-390.063	-189.602	0.227	0.003
-389.048	5.049	-0.078	0.057
-388.033	-77.458	-0.228	0.079
-387.019	4.348	0.377	-0.275
-386.004	-200.000	0.013	0.157
-384.990	800.000	0.065	-0.243
-383.975	-200.000	0.013	-0.173
-382.960	-71.261	-0.085	-0.032
-381.946	72.976	0.231	0.241
-380.931	215.297	-0.070	0.111
-379.917	-77.400	0.115	0.040
-378.902	-4.340	-0.067	-0.046
-377.888	-200.000	0.009	-0.516
-376.873	-200.000	0.021	0.122
-375.858	347.993	-0.123	0.242
-374.844	102.580	-0.159	-0.185
-373.829	800.000	-0.145	-0.422
-372.815	800.000	0.025	-0.104
-371.800	-200.000	0.011	0.239
-370.785	-200.000	-0.020	0.342
-369.771	800.000	-0.135	0.431
-368.756	-198.765	0.138	-0.001
-367.742	800.000	0.048	-0.155
-366.727	573.556	0.201	0.488
-365.712	659.996	0.053	-0.136
-364.698	800.000	-0.107	-0.348
-363.683	44.322	0.337	0.308
-362.669	-200.000	0.011	-0.176
-361.654	129.390	0.097	-0.123
-360.639	404.916	0.160	0.336
-359.625	-200.000	0.044	0.230
-358.610	52.957	0.229	-0.218
-357.596	-200.000	-0.069	0.470
-356.581	800.000	-0.021	0.073
-355.566	-94.348	-0.188	-0.051
-354.552	-200.000	0.016	0.204
-353.537	-200.000	-0.013	0.135
-352.523	109.241	-0.086	-0.103
-351.508	-200.000	-0.033	0.319
-350.493	16.725	0.200	0.158
-349.479	249.542	-0.125	-0.211
-348.464	4.192	0.086	0.063
-347.450	145.780	0.247	0.330
-346.435	-121.371	-0.173	-0.029
-345.420	-166.018	0.253	0.011
-344.406	58.843	-0.063	-0.061
-343.391	234.051	-0.030	-0.049
-342.377	258.827	0.225	0.387
-341.362	-159.962	-0.064	0.004
-340.348	-115.311	-0.148	-0.028
-339.333	-124.430	-0.110	-0.017
-338.318	-61.747	0.290	-0.121
-337.304	657.151	-0.085	-0.217
-336.289	-163.942	0.128	-0.006
-335.275	3.794	0.188	0.136
-334.260	312.510	-0.244	0.457
-333.245	637.486	0.153	-0.388
-332.231	135.439	-0.102	0.131
-331.216	-172.338	0.148	0.005
-330.202	-93.066	-0.194	-0.054
-329.187	276.918	-0.042	-0.073
-328.172	-0.801	-0.290	-0.204
-327.158	800.000	-0.115	-0.425
-326.143	800.000	-0.037	-0.123
-325.129	-119.450	-0.353	0.061
-324.114	-112.413	-0.183	0.036
-323.099	-166.589	0.084	-0.003
-322.085	52.715	-0.118	0.112
-321.070	-200.000	-0.060	0.303
-320.056	11.031	-0.192	0.146
-319.041	246.338	0.225	0.378
-318.026	-200.000	-0.023	0.231
-317.012	356.919	0.068	0.135
-315.997	239.178	-0.026	0.043
-314.983	189.775	0.065	0.097
-313.968	237.283	0.035	-0.058
-312.953	-200.000	0.008	-0.085
-311.939	10.014	0.203	0.153
-310.924	-200.000	0.028	-0.287
-309.910	-18.384	-0.396	-0.246
-308.895	44.752	0.217	0.198
-307.880	-60.362	0.170	-0.072
-306.866	-200.000	0.000	0.668
-305.851	-128.266	0.151	-0.021
-304.837	-84.438	0.279	-0.088
-303.822	235.708	-0.052	0.086
-302.807	-44.429	-0.169	0.084
-301.793	-52.655	0.250	-0.115
-300.778	-121.989	-0.112	-0.018
-299.764	-200.000	-0.068	-0.326
-298.749	-139.175	-0.351	0.038
-297.735	79.685	0.096	-0.103
-296.720	-200.000	0.051	-0.366
-295.705	-107.638	-0.111	-0.024
-294.691	-176.969	-0.577	-0.014
-293.676	-87.717	-0.385	0.115
-292.662	152.595	0.049	-0.067
-291.647	-80.486	0.177	-0.059
-290.632	421.408	-0.087	-0.184
-289.618	-200.000	0.021	0.217
-288.603	-35.956	0.030	-0.016
-287.589	800.000	0.064	-0.276
-286.574	800.000	0.054	-0.154
-285.559	48.745	-0.187	0.174
-284.545	118.021	-0.170	-0.208
-283.530	115.193	-0.149	0.181
-282.516	-31.943	0.150	-0.084
-281.501	-89.031	0.257	0.075
-280.486	-16.902	-0.111	-0.070
-279.472	-134.167	-0.328	-0.040
-278.457	86.484	0.176	-0.193
-277.443	545.465	0.059	-0.140
-276.428	-66.131	-0.164	0.065
-275.413	129.792	0.068	0.086
-274.399	-200.000	0.006	-0.056
-273.384	47.667	-0.149	-0.138
-272.370	55.737	0.188	0.181
-271.355	24.972	0.151	0.124
-270.340	-96.714	-0.104	-0.027
-269.326	-200.000	0.234	0.001
-268.311	61.303	-0.146	0.144
-267.297	20.019	0.171	-0.137
-266.282	43.402	0.112	-0.102
-265.267	-200.000	0.024	-0.114
-264.253	-22.422	0.188	0.113
-263.238	-64.189	0.152	-0.061
-262.224	-200.000	0.057	0.294
-261.209	54.869	-0.078	-0.074
-260.195	-53.481	-0.216	0.098
-259.180	-38.563	-0.128	-0.067
-258.165	-54.750	0.305	-0.137
-257.151	-157.159	0.226	0.014
-256.136	-24.911	-0.144	0.085
-255.122	-200.000	-0.023	-0.304
-254.107	-49.318	0.196	-0.093
-253.092	800.000	0.020	0.071
-252.078	-90.249	-0.182	0.053
-251.063	46.055	0.166	-0.152
-250.049	104.664	0.098	0.115
-249.034	800.000	0.053	0.199
-248.019	-128.280	0.467	-0.066
-247.005	-141.222	-0.205	0.021
-245.990	-132.647	0.133	-0.017
-244.976	-100.426	0.095	-0.023
-243.961	284.415	0.133	0.237
-242.946	3.489	0.077	-0.055
-241.932	800.000	-0.075	0.296
-240.917	-99.046	-0.334	0.084
-239.903	-200.000	0.261	0.001
-238.888	23.304	-0.066	0.054
-237.873	-119.438	0.289	0.050
-236.859	800.000	-0.060	0.213
-235.844	-130.893	0.493	-0.065
-234.830	-117.360	-0.201	0.036
-233.815	-180.999	0.034	0.001
-232.800	-35.673	-0.225	0.121
-231.786	363.319	-0.079	0.156
-230.771	-79.551	-0.127	0.043
-229.757	112.144	-0.130	-0.156
-228.742	-81.765	-0.039	0.013
-227.727	1.046	0.328	-0.233
-226.713	-122.451	-0.360	-0.058
-225.698	800.000	0.048	-0.157
-224.684	800.000	0.179	-0.493
-223.669	-33.165	0.081	0.044
-222.655	800.000	0.074	0.231
-221.640	749.156	0.099	0.264
-220.625	8.050	0.082	0.061
-219.611	800.000	0.050	0.185
-218.596	-115.148	0.298	-0.056
-217.582	-2.607	0.171	0.118
-216.567	6.918	-0.191	-0.141
-215.552	579.929	0.026	-0.062
-214.538	-163.414	0.183	-0.009
-213.523	248.818	-0.055	-0.092
-212.509	38.136	-0.297	-0.262
-211.494	-60.593	-0.130	0.055
-210.479	30.541	-0.162	0.137
-209.465	-139.094	0.161	0.017
-208.450	142.960	0.163	0.215
-207.436	-38.356	-0.192	-0.101
-206.421	33.417	-0.254	0.218
-205.406	-200.000	-0.008	-0.065
-204.392	167.665	0.217	-0.305
-203.377	-48.733	-0.316	-0.150
-202.363	-200.000	0.029	-0.303
-201.348	776.109	0.077	0.209
-200.333	-2.013	-0.300	-0.209
-199.319	-84.617	0.382	0.119
-198.304	-132.373	0.529	-0.068
-197.290	-200.000	0.007	-0.403
-196.275	800.000	-0.133	-0.401
-195.260	376.294	-0.116	0.234
-194.246	94.032	-0.156	-0.175
-193.231	27.157	-0.221	-0.184
-192.217	96.277	0.193	0.218
-191.202	7.472	-0.061	-0.045
-190.187	230.366	0.135	-0.218
-189.173	800.000	0.090	-0.274
-188.158	554.475	-0.022	0.052
-187.144	160.150	0.130	-0.179
-186.129	800.000	0.098	-0.298
-185.114	-54.939	0.274	0.122
-184.100	209.219	-0.141	0.218
-183.085	-18.906	0.243	0.149
-182.071	308.365	0.023	0.042
-181.056	220.198	0.095	0.151
-180.042	-56.456	-0.202	0.089
-179.027	-150.186	-0.181	0.014
-178.012	166.107	-0.221	-0.310
-176.998	275.171	-0.096	0.168
-175.983	800.000	0.025	-0.078
-174.969	246.543	-0.138	-0.230
-173.954	653.268	0.053	-0.134
-172.939	-83.860	0.316	-0.100
-171.925	12.632	-0.067	0.051
-170.910	-200.000	0.031	-0.267
-169.896	-123.787	-0.063	-0.010
-168.881	703.908	-0.142	-0.371
-167.866	216.530	0.108	0.170
-166.852	800.000	0.054	0.205
-165.837	-200.000	-0.063	0.426
-164.823	644.588	0.195	-0.492
-163.808	787.405	0.137	0.373
-162.793	52.395	0.165	0.156
-161.779	-9.235	-0.049	0.032
-160.764	481.234	0.073	-0.164
-159.750	-102.810	0.108	-0.025
-158.735	-200.000	-0.027	-0.212
-157.720	-141.068	-0.162	0.016
-156.706	-68.938	-0.172	-0.066
-155.691	59.369	0.127	-0.123
-154.677	-100.119	-0.090	0.022
-153.662	-100.807	0.344	-0.084
-152.647	-10.892	-0.385	0.251
-151.633	-196.839	0.209	-0.001
-150.618	494.778	-0.152	-0.345
-149.604	800.000	0.053	0.145
-148.589	108.409	0.273	0.322
-147.574	-200.000	0.028	0.146
-146.560	59.233	0.289	-0.281
-145.545	-200.000	0.004	-0.239
-144.531	800.000	-0.020	0.071
-143.516	-200.000	-0.165	0.001
-142.502	-13.880	-0.129	-0.082
-141.487	119.681	0.142	-0.173
-140.472	-200.000	-0.026	0.119
-139.458	-44.727	0.171	-0.084
-138.443	38.509	-0.111	-0.098
-137.429	-64.974	-0.119	0.048
-136.414	-194.852	0.128	0.001
-135.399	-200.000	0.020	-0.229
-134.385	800.000	-0.027	-0.092
-133.370	253.228	0.076	-0.129
-132.356	-125.770	-0.025	-0.004
-131.341	-200.000	-0.088	0.423
-130.326	294.025	-0.073	-0.132
-129.312	410.886	-0.127	-0.267
-128.297	-21.778	0.221	-0.133
-127.283	57.746	0.114	-0.110
-126.268	-200.000	-0.065	-0.308
-125.253	-107.573	0.226	0.049
-124.239	161.535	0.042	0.058
-123.224	-200.000	0.016	0.342
-122.210	12.154	0.257	-0.195
