DTS Sentinel unit serial number:	SN413079Multiplexer serial number:	ORYXHardware model number:	OX4-SRSoftware version number:	ORYX F/W v4.00 Oryx Data Collector v3.7.2.0data status	okinstallation	princeton_trtdifferential loss correction	single-endedforward channel	channel 4reverse channel	N/Adate	2019/09/13time	17:13:35forward acquisition time	60.00reverse acquisition time	0.00gamma	496.2192k internal	0.2290k external	0.2290temperature offset calibration	1.0204default loss term (dB/km)	0.3790temperature slope calibration	1.0000multiplexer offset coefficient	1.0000multiplexer slope coefficient	1.0000fibre end	0.00T internal ref (°C)	35.56T ext. ref 1 (°C)	4.80T ext. ref 2 (°C)	34.84length (m)	temperature (°C)	Stokes	anti-Stokes-747.200	111.567	-0.201	0.248
-746.185	9.194	0.161	0.125
-745.171	-74.801	0.107	0.039
-744.156	16.317	-0.153	0.123
-743.142	-147.054	0.258	-0.023
-742.127	-200.000	-0.016	0.171
-741.112	-181.556	-0.422	0.008
-740.098	800.000	-0.034	-0.098
-739.083	-111.867	0.184	0.038
-738.069	800.000	0.114	0.424
-737.054	303.329	0.087	-0.165
-736.039	-200.000	-0.034	-0.410
-735.025	800.000	-0.039	0.115
-734.010	-79.673	-0.068	-0.024
-732.996	-200.000	0.066	-0.396
-731.981	136.477	-0.251	-0.336
-730.966	-160.519	-0.117	-0.006
-729.952	-78.161	0.147	0.052
-728.937	-200.000	0.009	-0.073
-727.923	533.319	-0.026	0.063
-726.908	800.000	0.032	-0.112
-725.894	-83.399	0.171	-0.056
-724.879	6.950	0.151	-0.115
-723.864	-96.380	-0.285	0.077
-722.850	-139.622	-0.180	0.020
-721.835	227.714	0.118	-0.196
-720.821	33.310	-0.209	-0.185
-719.806	637.550	-0.074	-0.192
-718.791	800.000	-0.058	-0.231
-717.777	-200.000	-0.005	-0.177
-716.762	-200.000	-0.034	-0.237
-715.748	654.722	-0.108	-0.284
-714.733	-41.892	0.194	0.102
-713.718	-200.000	0.198	0.000
-712.704	-66.559	0.255	0.104
-711.689	-200.000	-0.009	0.176
-710.675	800.000	-0.017	0.056
-709.660	-46.921	-0.196	0.098
-708.645	-92.105	0.184	0.053
-707.631	-77.631	-0.285	-0.101
-706.616	-200.000	0.022	-0.161
-705.602	-81.278	0.173	0.058
-704.587	-200.000	0.045	-0.214
-703.572	-91.006	0.232	-0.068
-702.558	31.883	0.256	0.225
-701.543	-22.333	-0.118	0.073
-700.529	279.703	0.112	-0.204
-699.514	654.493	-0.055	-0.144
-698.499	-200.000	0.005	-0.157
-697.485	-200.000	-0.035	0.332
-696.470	-200.000	0.008	0.131
-695.456	-200.000	0.020	-0.097
-694.441	-135.635	0.062	0.008
-693.426	170.245	-0.143	0.210
-692.412	-55.121	-0.130	-0.060
-691.397	-153.086	0.056	-0.004
-690.383	108.049	0.258	-0.314
-689.368	169.570	0.126	0.184
-688.354	-8.093	0.168	0.116
-687.339	-106.441	0.195	0.045
-686.324	-172.174	-0.444	-0.015
-685.310	-200.000	0.008	0.205
-684.295	715.525	0.103	0.279
-683.281	-200.000	-0.028	-0.223
-682.266	243.170	-0.114	-0.196
-681.251	-200.000	0.001	-0.113
-680.237	3.311	-0.030	-0.022
-679.222	416.070	0.166	0.362
-678.208	301.480	-0.193	-0.365
-677.193	38.659	0.113	0.103
-676.178	236.873	-0.164	0.277
-675.164	39.957	-0.206	0.189
-674.149	-191.834	-0.187	0.002
-673.135	53.870	0.158	-0.156
-672.120	800.000	-0.105	-0.311
-671.105	800.000	0.077	0.224
-670.091	-147.642	-0.448	-0.038
-669.076	253.086	0.112	-0.195
-668.062	-144.498	0.394	-0.037
-667.047	-200.000	0.004	-0.137
-666.032	-173.823	0.204	0.006
-665.018	-200.000	-0.016	-0.225
-664.003	800.000	-0.155	0.461
-662.989	-1.850	0.072	-0.052
-661.974	-200.000	0.044	-0.199
-660.959	-200.000	-0.099	-0.454
-659.945	800.000	-0.099	0.284
-658.930	-200.000	-0.098	-0.460
-657.916	589.194	-0.086	-0.217
-656.901	-200.000	0.009	0.161
-655.886	333.417	0.078	0.154
-654.872	-200.000	0.011	0.160
-653.857	541.982	-0.100	-0.244
-652.843	128.015	0.157	0.204
-651.828	-200.000	-0.022	0.199
-650.814	71.850	-0.239	0.253
-649.799	-200.000	0.045	-0.273
-648.784	27.908	0.105	0.090
-647.770	66.203	0.223	0.231
-646.755	-153.706	-0.327	-0.023
-645.741	89.949	-0.177	-0.202
-644.726	133.828	-0.066	-0.088
-643.711	780.294	0.035	-0.098
-642.697	800.000	0.048	0.192
-641.682	60.497	-0.185	0.187
-640.668	67.901	0.100	-0.104
-639.653	19.626	0.317	0.260
-638.638	-66.143	0.210	-0.085
-637.624	187.214	0.128	0.195
-636.609	9.010	-0.054	0.042
-635.595	80.626	-0.266	0.292
-634.580	-6.140	-0.203	-0.142
-633.565	-115.153	0.049	0.009
-632.551	-200.000	0.044	0.487
-631.536	61.355	-0.257	0.261
-630.522	-12.221	0.130	-0.087
-629.507	-24.006	0.407	-0.248
-628.492	-22.440	-0.168	0.104
-627.478	2.932	-0.195	-0.144
-626.463	-112.265	0.259	-0.053
-625.449	-43.192	-0.240	-0.124
-624.434	-200.000	-0.008	0.042
-623.419	-82.938	-0.222	0.073
-622.405	-58.570	-0.325	-0.144
-621.390	37.319	-0.259	-0.234
-620.376	128.058	-0.043	0.056
-619.361	53.040	0.072	-0.070
-618.346	-200.000	-0.006	-0.158
-617.332	6.417	-0.059	0.045
-616.317	253.213	-0.152	-0.265
-615.303	-200.000	-0.003	-0.525
-614.288	-49.607	0.137	0.066
-613.273	524.612	0.065	-0.157
-612.259	501.713	0.050	0.118
-611.244	-127.213	-0.096	-0.014
-610.230	353.844	-0.033	-0.067
-609.215	-29.419	0.127	-0.074
-608.201	-88.507	0.007	0.002
-607.186	-200.000	-0.020	0.115
-606.171	-40.135	0.023	0.012
-605.157	38.196	-0.123	-0.112
-604.142	620.750	0.097	-0.248
-603.128	-123.470	-0.066	0.011
-602.113	-33.945	0.171	-0.096
-601.098	30.143	-0.149	-0.130
-600.084	-200.000	-0.008	0.081
-599.069	751.888	0.116	0.319
-598.055	5.667	-0.179	-0.135
-597.040	-20.424	0.052	0.033
-596.025	-149.933	-0.174	0.014
-595.011	-95.323	-0.598	0.164
-593.996	800.000	0.063	-0.205
-592.982	-200.000	0.004	-0.304
-591.967	320.627	0.100	0.194
-590.952	-200.000	0.061	-0.283
-589.938	-24.909	0.311	-0.188
-588.923	368.409	-0.157	-0.322
-587.909	-72.792	0.148	0.056
-586.894	70.167	-0.124	0.130
-585.879	-46.635	-0.146	0.073
-584.865	-30.846	-0.293	-0.169
-583.850	-145.266	-0.293	-0.027
-582.836	93.274	0.210	0.242
-581.821	467.870	0.176	0.403
-580.806	-73.705	0.200	0.074
-579.792	129.244	0.122	0.158
-578.777	147.316	-0.240	0.329
-577.763	206.138	0.018	-0.028
-576.748	-116.732	-0.261	0.049
-575.733	-117.981	-0.226	0.041
-574.719	800.000	-0.086	-0.343
-573.704	-200.000	-0.007	0.154
-572.690	684.065	-0.102	-0.270
-571.675	302.695	-0.113	0.212
-570.661	-200.000	-0.037	0.216
-569.646	225.581	0.071	-0.118
-568.631	-36.969	-0.083	-0.045
-567.617	14.454	-0.279	0.221
-566.602	449.994	-0.095	-0.212
-565.588	335.262	0.054	0.106
-564.573	38.371	0.173	0.157
-563.558	-165.103	-0.299	0.014
-562.544	-116.593	-0.090	0.017
-561.529	-200.000	0.020	0.127
-560.515	-200.000	-0.034	0.246
-559.500	78.153	0.095	0.103
-558.485	-115.117	0.167	0.032
-557.471	800.000	0.079	0.247
-556.456	125.985	0.235	-0.302
-555.442	173.935	-0.120	-0.177
-554.427	800.000	0.115	-0.392
-553.412	-58.139	-0.451	-0.200
-552.398	-98.201	0.292	0.076
-551.383	-35.757	0.348	0.192
-550.369	686.678	-0.074	0.196
-549.354	-36.508	0.175	-0.096
-548.339	-200.000	0.011	-0.420
-547.325	88.586	0.022	0.025
-546.310	-125.955	0.521	0.080
-545.296	-33.451	-0.160	-0.090
-544.281	-77.548	-0.198	0.070
-543.266	-107.473	0.294	0.065
-542.252	-98.307	0.167	-0.044
-541.237	-53.039	-0.214	-0.100
-540.223	-171.372	0.190	0.006
-539.208	-200.000	0.006	-0.175
-538.193	-64.471	0.114	0.047
-537.179	11.573	-0.214	0.167
-536.164	-118.515	-0.086	0.016
-535.150	-70.864	-0.287	0.110
-534.135	-70.338	-0.179	-0.069
-533.121	11.935	-0.201	-0.157
-532.106	-200.000	-0.041	0.364
-531.091	190.428	-0.241	0.368
-530.077	122.462	-0.173	-0.220
-529.062	39.983	-0.309	0.282
-528.048	126.940	-0.093	0.120
-527.033	-33.249	-0.156	-0.088
-526.018	503.492	-0.121	-0.283
-525.004	103.391	0.191	0.228
-523.989	189.149	-0.157	0.238
-522.975	67.995	0.157	-0.163
-521.960	-71.970	0.203	-0.077
-520.945	-118.124	0.163	0.030
-519.931	-78.325	-0.219	0.076
-518.916	-44.774	0.232	0.117
-517.902	800.000	-0.059	0.197
-516.887	-111.475	-0.125	0.026
-515.872	800.000	-0.021	0.085
-514.858	800.000	0.067	0.215
-513.843	-152.191	0.054	0.004
-512.829	-89.796	0.120	-0.036
-511.814	120.114	0.148	-0.186
-510.799	-200.000	-0.038	0.367
-509.785	-200.000	0.116	-0.588
-508.770	3.919	-0.080	0.059
-507.756	14.849	0.290	-0.230
-506.741	509.957	-0.076	0.180
-505.726	-191.150	-0.335	0.004
-504.712	48.033	-0.246	-0.234
-503.697	75.663	-0.042	-0.045
-502.683	-200.000	-0.039	0.271
-501.668	163.272	-0.128	-0.183
-500.653	56.284	-0.119	-0.118
-499.639	-97.313	0.296	0.078
-498.624	-16.988	0.157	-0.101
-497.610	-50.452	0.226	-0.108
-496.595	208.370	0.085	-0.135
-495.581	224.667	0.063	0.103
-494.566	-11.291	-0.152	0.102
-493.551	-32.182	-0.139	0.079
-492.537	800.000	0.039	-0.129
-491.522	-140.375	-0.204	0.022
-490.508	26.800	0.192	-0.163
-489.493	15.323	-0.132	-0.105
-488.478	-68.867	0.211	-0.082
-487.464	-200.000	0.031	-0.140
-486.449	800.000	-0.052	-0.194
-485.435	800.000	-0.013	-0.059
-484.420	-141.698	-0.135	0.014
-483.405	156.547	-0.199	-0.278
-482.391	684.486	0.041	0.109
-481.376	-26.119	-0.224	0.134
-480.362	-200.000	0.045	0.442
-479.347	360.082	-0.050	-0.102
-478.332	120.967	0.242	0.305
-477.318	45.398	0.208	0.195
-476.303	-200.000	-0.021	-0.227
-475.289	219.514	0.202	0.328
-474.274	130.200	0.100	-0.130
-473.259	-162.293	-0.099	0.005
-472.245	340.384	0.232	-0.459
-471.230	15.144	0.272	-0.216
-470.216	-155.769	-0.037	0.002
-469.201	800.000	-0.068	-0.278
-468.186	-200.000	0.053	0.311
-467.172	-75.829	-0.156	0.056
-466.157	-49.402	-0.556	0.269
-465.143	280.077	0.130	0.235
-464.128	38.158	0.095	-0.085
-463.113	-72.775	0.608	0.227
-462.099	582.195	-0.088	0.218
-461.084	-82.503	0.123	0.040
-460.070	-95.406	0.262	0.071
-459.055	151.961	-0.076	-0.105
-458.040	-94.035	0.148	0.041
-457.026	399.270	0.027	0.057
-456.011	-118.853	-0.270	0.048
-454.997	27.808	0.155	-0.132
-453.982	472.927	0.149	0.339
-452.968	800.000	-0.044	0.182
-451.953	43.233	-0.195	0.181
-450.938	-108.302	-0.286	-0.062
-449.924	-21.232	-0.136	-0.084
-448.909	196.381	0.162	0.249
-447.895	800.000	0.099	0.393
-446.880	-200.000	-0.001	0.066
-445.865	45.810	-0.106	-0.099
-444.851	-68.951	0.277	-0.108
-443.836	-97.692	-0.101	-0.026
-442.822	-200.000	0.039	-0.248
-441.807	40.870	0.162	0.148
-440.792	-200.000	-0.019	-0.204
-439.778	800.000	-0.084	0.256
-438.763	-89.838	-0.185	0.055
-437.749	-130.638	0.099	-0.013
-436.734	-81.712	0.080	-0.026
-435.719	-21.964	-0.232	-0.143
-434.705	-123.738	0.314	-0.050
-433.690	-84.181	-0.267	0.086
-432.676	-6.261	0.180	-0.124
-431.661	-200.000	0.042	-0.210
-430.646	-200.000	-0.216	0.001
-429.632	17.661	-0.117	0.094
-428.617	250.929	-0.026	0.045
-427.603	193.976	-0.167	0.256
-426.588	-59.277	0.356	-0.155
-425.573	467.037	0.040	-0.090
-424.559	-92.341	-0.336	-0.096
-423.544	-200.000	-0.128	-0.647
-422.530	12.150	0.272	0.211
-421.515	-71.639	-0.155	0.058
-420.500	25.215	0.144	-0.121
-419.486	800.000	-0.080	-0.324
-418.471	27.454	0.193	0.164
-417.457	-20.603	-0.158	-0.098
-416.442	633.888	-0.005	0.013
-415.428	-73.724	0.160	0.059
-414.413	362.074	0.063	0.128
-413.398	-200.000	-0.020	-0.147
-412.384	-200.000	0.012	0.198
-411.369	-29.139	0.037	-0.022
-410.355	-114.468	-0.188	0.037
-409.340	760.479	0.025	0.067
-408.325	380.286	0.104	-0.215
-407.311	416.047	-0.080	-0.172
-406.296	433.291	0.024	-0.052
-405.282	-169.829	0.131	0.005
-404.267	-56.973	0.198	0.088
-403.252	11.164	-0.130	0.100
-402.238	-50.249	0.211	-0.101
-401.223	-200.000	-0.001	0.075
-400.209	-200.000	-0.048	-0.333
-399.194	70.262	-0.036	-0.037
-398.179	188.580	-0.075	0.113
-397.165	161.022	0.150	-0.212
-396.150	380.050	0.025	-0.051
-395.136	76.414	-0.100	0.107
-394.121	132.712	-0.029	0.037
-393.106	-64.408	0.455	-0.187
-392.092	-200.000	-0.012	-0.066
-391.077	2.314	0.298	0.218
-390.063	-4.955	0.025	-0.017
-389.048	-200.000	-0.467	0.001
-388.033	167.884	-0.071	0.101
-387.019	-47.544	0.285	-0.140
-386.004	51.919	-0.241	0.232
-384.990	-174.421	0.204	-0.006
-383.975	290.782	0.068	-0.124
-382.960	-66.605	-0.357	0.143
-381.946	201.665	0.032	-0.049
-380.931	-103.283	0.192	0.046
-379.917	-200.000	-0.038	0.287
-378.902	-10.925	-0.338	0.225
-377.888	121.495	0.224	0.282
-376.873	800.000	-0.130	0.387
-375.858	120.990	0.092	0.116
-374.844	221.887	-0.111	-0.181
-373.829	87.259	-0.085	0.095
-372.815	-107.559	0.281	-0.062
-371.800	45.260	0.279	0.259
-370.785	800.000	-0.072	-0.230
-369.771	-31.895	-0.118	-0.066
-368.756	-136.749	-0.190	0.022
-367.742	800.000	0.013	0.036
-366.727	-109.739	-0.283	0.060
-365.712	-7.278	-0.132	0.090
-364.698	-152.626	0.226	-0.016
-363.683	321.056	-0.140	0.269
-362.669	90.159	-0.151	-0.170
-361.654	-142.115	0.211	0.021
-360.639	-31.394	-0.189	0.107
-359.625	721.123	0.181	0.485
-358.610	168.783	0.106	-0.153
-357.596	-200.000	-0.024	-0.239
-356.581	-200.000	0.024	0.218
-355.566	800.000	0.026	0.116
-354.552	20.920	-0.105	0.086
-353.537	-139.857	0.383	0.041
-352.523	0.752	0.263	-0.190
-351.508	-120.247	0.103	-0.018
-350.493	800.000	-0.052	0.226
-349.479	-82.097	-0.210	-0.069
-348.464	-103.018	0.110	0.026
-347.450	-110.329	0.485	0.102
-346.435	-200.000	0.049	-0.343
-345.420	-63.297	-0.180	-0.075
-344.406	4.292	-0.127	-0.094
-343.391	78.667	-0.308	0.333
-342.377	468.776	0.113	-0.257
-341.362	-42.548	0.068	-0.035
-340.348	-20.884	-0.054	-0.033
-339.333	800.000	0.064	-0.277
-338.318	206.667	-0.128	0.202
-337.304	-148.706	-0.189	-0.015
-336.289	-13.846	0.105	-0.068
-335.275	447.306	0.142	0.315
-334.260	189.831	0.031	0.047
-333.245	160.538	0.041	-0.058
-332.231	238.210	0.085	0.142
-331.216	108.446	0.157	0.189
-330.202	-125.663	-0.248	0.038
-329.187	256.737	-0.120	0.208
-328.172	-200.000	-0.008	0.075
-327.158	-56.016	0.356	-0.160
-326.143	23.020	-0.057	-0.047
-325.129	212.645	-0.169	-0.268
-324.114	121.988	-0.357	-0.449
-323.099	-151.518	-0.203	-0.015
-322.085	-90.423	0.255	-0.075
-321.070	800.000	-0.043	-0.166
-320.056	-76.750	-0.188	-0.066
-319.041	-110.324	0.172	-0.036
-318.026	-42.735	-0.269	0.138
-317.012	-55.952	0.194	-0.087
-315.997	111.098	0.077	0.093
-314.983	344.671	-0.045	0.088
-313.968	-103.156	0.345	0.082
-312.953	-91.579	-0.295	0.085
-311.939	324.566	0.077	-0.148
-310.924	298.907	-0.053	0.098
-309.910	-134.931	0.290	-0.035
-308.895	119.356	-0.190	-0.237
-307.880	800.000	0.025	0.110
-306.866	275.184	0.131	-0.234
-305.851	-23.457	-0.003	0.002
-304.837	-200.000	-0.354	0.001
-303.822	-200.000	-0.027	0.273
-302.807	800.000	-0.016	0.045
-301.793	800.000	0.091	-0.348
-300.778	242.492	-0.051	0.086
-299.764	222.122	0.062	0.101
-298.749	541.581	0.104	-0.251
-297.735	144.980	0.281	-0.378
-296.720	-200.000	0.023	0.141
-295.705	800.000	0.087	-0.265
-294.691	-107.499	0.154	0.034
-293.676	452.940	0.085	0.189
-292.662	85.817	-0.093	0.103
-291.647	179.386	-0.143	-0.211
-290.632	-87.165	-0.164	0.050
-289.618	23.503	-0.063	0.052
-288.603	-88.962	-0.139	0.041
-287.589	77.285	0.247	0.264
-286.574	530.111	-0.074	0.176
-285.559	494.793	0.004	-0.009
-284.545	214.586	0.099	0.157
-283.530	379.116	0.080	-0.166
-282.516	192.167	0.119	-0.181
-281.501	-74.115	-0.269	-0.098
-280.486	6.386	0.292	-0.218
-279.472	-97.309	0.029	0.008
-278.457	30.274	0.135	0.116
-277.443	785.695	-0.040	-0.110
-276.428	59.671	-0.272	0.270
-275.413	470.694	-0.084	0.190
-274.399	150.184	0.230	0.314
-273.384	-200.000	-0.018	-0.260
-272.370	-200.000	-0.025	0.233
-271.355	375.025	-0.043	-0.088
-270.340	291.612	-0.064	-0.117
-269.326	29.199	0.148	-0.126
-268.311	-110.162	-0.366	-0.077
-267.297	-163.153	0.122	-0.006
-266.282	-92.119	-0.327	0.093
-265.267	-45.897	0.244	0.121
-264.253	29.602	-0.188	0.161
-263.238	-6.508	0.093	-0.063
-262.224	-48.986	-0.408	-0.196
-261.209	-93.276	0.434	-0.121
-260.195	800.000	-0.080	0.286
-259.180	-200.000	0.080	0.378
-258.165	268.160	-0.044	-0.078
-257.151	-200.000	-0.020	-0.105
-256.136	-200.000	0.034	0.172
-255.122	-123.315	0.129	-0.021
-254.107	-82.751	0.133	0.043
-253.092	89.658	-0.244	0.274
-252.078	-145.509	0.402	0.036
-251.063	-41.750	-0.186	-0.096
-250.049	-200.000	0.006	0.223
-249.034	800.000	-0.071	0.207
-248.019	-200.000	-0.068	0.425
-247.005	512.138	0.078	0.183
-245.990	-87.057	0.103	-0.031
-244.976	-94.213	-0.091	-0.025
-243.961	145.330	-0.139	-0.187
-242.946	-71.669	0.104	0.039
-241.932	-135.226	0.287	-0.035
-240.917	569.646	-0.063	-0.154
-239.903	240.430	-0.013	-0.022
-238.888	-200.000	-0.250	0.001
-237.873	-134.625	-0.219	0.027
-236.859	-77.682	-0.036	-0.013
-235.844	164.216	-0.190	-0.268
-234.830	-114.917	-0.212	-0.040
-233.815	-54.834	0.101	0.046
-232.800	9.839	0.249	-0.190
-231.786	31.620	-0.211	0.182
-230.771	800.000	0.038	-0.140
-229.757	-114.102	-0.282	0.055
-228.742	800.000	-0.088	-0.312
-227.727	15.769	-0.158	-0.125
-226.713	-174.754	-0.172	-0.005
-225.698	-73.346	0.183	-0.067
-224.684	38.321	-0.048	0.043
-223.669	-2.679	0.226	0.159
-222.655	502.804	-0.038	0.088
-221.640	-200.000	-0.017	0.095
-220.625	-200.000	0.086	-0.499
-219.611	242.968	0.095	-0.160
-218.596	800.000	-0.054	-0.157
-217.582	-59.581	0.446	-0.192
-216.567	800.000	-0.081	-0.278
-215.552	572.487	0.083	-0.202
-214.538	-66.884	-0.157	0.062
-213.523	-200.000	-0.085	0.381
-212.509	-43.889	0.039	0.020
-211.494	-75.896	-0.138	-0.049
-210.479	800.000	0.044	0.137
-209.465	13.976	-0.154	-0.120
-208.450	-200.000	-0.020	-0.398
-207.436	102.746	-0.002	-0.003
-206.421	-193.914	0.370	-0.003
-205.406	80.553	-0.219	0.236
-204.392	78.086	0.087	-0.094
-203.377	95.036	-0.118	0.135
-202.363	284.722	-0.122	-0.220
-201.348	-117.134	-0.389	0.071
-200.333	800.000	0.016	0.047
-199.319	-85.444	0.341	0.107
-198.304	21.513	-0.109	0.089
-197.290	100.326	0.176	-0.205
-196.275	134.239	0.194	0.252
-195.260	-128.036	-0.153	0.022
-194.246	-185.889	-0.260	0.004
-193.231	191.952	0.104	-0.158
-192.217	-200.000	-0.005	-0.170
-191.202	-164.041	0.107	0.005
-190.187	-178.242	0.088	-0.002
-189.173	97.818	0.089	-0.103
-188.158	-145.422	-0.475	0.043
-187.144	-200.000	0.031	0.223
-186.129	-105.226	0.291	0.067
-185.114	-111.038	0.393	-0.081
-184.100	32.393	0.042	-0.036
-183.085	-26.927	-0.471	-0.275
-182.071	-11.979	0.133	-0.087
-181.056	-43.100	0.057	0.029
-180.042	-35.157	0.178	-0.097
-179.027	-6.536	-0.141	-0.096
-178.012	-8.719	-0.121	0.082
-176.998	-200.000	0.006	0.099
-175.983	-170.467	0.335	0.012
-174.969	639.700	0.075	-0.192
-173.954	345.165	0.173	0.341
-172.939	800.000	0.043	0.147
-171.925	-149.950	0.383	0.030
-170.910	68.362	-0.207	0.212
-169.896	-200.000	0.006	0.085
-168.881	35.686	-0.260	-0.229
-167.866	-83.587	0.279	-0.089
-166.852	-50.330	0.387	-0.183
-165.837	103.389	0.079	-0.093
-164.823	-104.796	0.279	-0.064
-163.808	-112.406	0.227	-0.046
-162.793	-142.106	0.247	0.025
-161.779	129.077	-0.183	0.234
-160.764	-34.247	-0.157	-0.086
-159.750	-65.087	0.223	-0.090
-158.735	-200.000	-0.052	-0.256
-157.720	-90.606	0.222	-0.064
-156.706	136.805	-0.167	0.218
-155.691	-200.000	0.002	-0.175
-154.677	214.385	-0.090	0.142
-153.662	-89.924	-0.153	0.045
-152.647	-200.000	-0.049	-0.396
-151.633	20.242	0.130	-0.105
-150.618	79.036	0.178	-0.191
-149.604	-200.000	-0.083	0.471
-148.589	355.356	0.218	-0.433
-147.574	-111.487	0.298	0.061
-146.560	-124.308	-0.287	0.045
-145.545	97.369	-0.125	0.144
-144.531	-38.386	0.392	-0.208
-143.516	-200.000	-0.008	0.100
-142.502	119.722	-0.085	0.105
-141.487	-200.000	-0.014	0.188
-140.472	-200.000	-0.014	-0.138
-139.458	75.482	-0.314	0.332
-138.443	-58.332	-0.392	-0.171
-137.429	-38.803	0.141	-0.074
-136.414	-22.306	-0.149	-0.091
-135.399	-144.006	-0.104	-0.010
-134.385	-200.000	-0.011	-0.120
-133.370	800.000	-0.039	0.144
-132.356	32.849	0.110	-0.096
-131.341	-21.193	-0.310	-0.189
-130.326	-90.954	-0.198	-0.057
-129.312	-123.090	0.431	0.069
-128.297	-66.719	0.256	-0.101
-127.283	-143.917	-0.249	-0.023
-126.268	-47.758	-0.099	0.048
-125.253	330.988	0.072	-0.138
-124.239	-200.000	0.011	0.080
-123.224	-47.711	0.232	0.113
-122.210	-16.033	-0.150	0.096
-121.195	-81.317	-0.321	-0.106
