DTS Sentinel unit serial number:	SN413079Multiplexer serial number:	ORYXHardware model number:	OX4-SRSoftware version number:	ORYX F/W v4.00 Oryx Data Collector v3.7.2.0data status	okinstallation	princeton_trtdifferential loss correction	single-endedforward channel	channel 4reverse channel	N/Adate	2019/09/11time	22:35:11forward acquisition time	60.00reverse acquisition time	0.00gamma	496.2192k internal	0.2307k external	0.2307temperature offset calibration	1.0077default loss term (dB/km)	0.3790temperature slope calibration	1.0000multiplexer offset coefficient	1.0000multiplexer slope coefficient	1.0000fibre end	0.00T internal ref (°C)	35.00T ext. ref 1 (°C)	1.80T ext. ref 2 (°C)	28.71length (m)	temperature (°C)	Stokes	anti-Stokes-747.200	-18.204	-0.338	0.215
-746.185	289.351	0.069	0.128
-745.171	54.352	-0.075	-0.073
-744.156	44.340	-0.156	0.146
-743.142	-200.000	-0.007	0.262
-742.127	800.000	0.014	0.041
-741.112	-200.000	0.236	-0.001
-740.098	730.934	-0.128	0.348
-739.083	-200.000	-0.069	0.376
-738.069	-149.815	0.247	-0.020
-737.054	-200.000	0.039	0.217
-736.039	-200.000	0.061	-0.331
-735.025	800.000	-0.081	-0.355
-734.010	-110.130	0.200	-0.042
-732.996	-126.733	-0.135	-0.020
-731.981	-22.492	0.367	0.226
-730.966	220.205	-0.097	0.158
-729.952	-200.000	-0.286	-0.001
-728.937	-200.000	-0.041	-0.254
-727.923	-127.198	0.089	0.013
-726.908	-96.513	-0.290	-0.078
-725.894	63.111	-0.085	-0.087
-724.879	159.140	0.018	0.026
-723.864	-128.394	0.330	0.048
-722.850	294.712	-0.059	-0.110
-721.835	-41.720	-0.144	0.075
-720.821	35.717	-0.092	-0.082
-719.806	143.586	0.104	0.140
-718.791	800.000	0.095	-0.368
-717.777	124.691	0.110	-0.141
-716.762	800.000	-0.074	-0.209
-715.748	-99.565	-0.281	-0.072
-714.733	-198.557	0.175	-0.001
-713.718	658.717	-0.060	-0.157
-712.704	-20.325	0.162	0.101
-711.689	35.513	0.243	-0.217
-710.675	-79.560	-0.203	-0.069
-709.660	-44.573	-0.128	-0.065
-708.645	475.285	-0.168	-0.386
-707.631	762.230	-0.074	-0.204
-706.616	800.000	0.029	0.125
-705.602	210.231	0.090	0.144
-704.587	29.227	-0.231	0.199
-703.572	800.000	0.108	0.336
-702.558	-36.127	-0.257	0.141
-701.543	-122.769	-0.327	-0.054
-700.529	800.000	-0.035	0.115
-699.514	-200.000	0.038	-0.193
-698.499	440.260	-0.094	0.209
-697.485	-2.752	-0.312	-0.222
-696.470	326.651	-0.143	-0.279
-695.456	-200.000	0.008	-0.044
-694.441	-71.463	0.275	-0.104
-693.426	333.668	-0.168	-0.330
-692.412	-66.742	-0.096	0.039
-691.397	58.602	0.052	0.052
-690.383	45.260	-0.140	-0.131
-689.368	-179.036	-0.141	-0.003
-688.354	-90.126	-0.361	-0.107
-687.339	-59.158	0.356	0.156
-686.324	104.193	-0.165	-0.197
-685.310	116.416	0.039	0.049
-684.295	-200.000	-0.052	-0.254
-683.281	154.199	-0.135	-0.188
-682.266	-27.257	-0.347	-0.205
-681.251	800.000	0.061	-0.190
-680.237	-40.906	-0.262	-0.138
-679.222	153.055	0.150	0.208
-678.208	-78.855	-0.185	-0.064
-677.193	201.740	0.102	-0.160
-676.178	-200.000	-0.020	-0.095
-675.164	207.566	0.163	-0.258
-674.149	-167.318	0.150	0.006
-673.135	472.256	0.086	-0.196
-672.120	-182.634	-0.403	0.007
-671.105	168.956	0.021	0.030
-670.091	93.774	-0.165	-0.189
-669.076	43.311	-0.152	-0.141
-668.062	-200.000	-0.042	-0.511
-667.047	87.674	-0.052	0.058
-666.032	-84.936	-0.138	0.044
-665.018	800.000	0.087	-0.268
-664.003	-36.914	-0.269	-0.146
-662.989	800.000	-0.070	-0.247
-661.974	203.831	-0.097	0.152
-660.959	291.702	-0.042	-0.078
-659.945	-97.654	-0.226	0.059
-658.930	-99.195	0.355	-0.091
-657.916	800.000	0.164	-0.461
-656.901	68.358	-0.059	-0.061
-655.886	-93.675	0.308	0.086
-654.872	-19.440	-0.277	-0.174
-653.857	-91.412	-0.352	-0.102
-652.843	-108.995	-0.116	0.025
-651.828	-200.000	0.001	-0.176
-650.814	-200.000	0.031	0.281
-649.799	-126.925	-0.218	-0.032
-648.784	6.922	0.120	-0.090
-647.770	-109.925	0.230	0.049
-646.755	84.404	-0.128	-0.142
-645.741	800.000	-0.083	-0.237
-644.726	649.596	-0.045	-0.117
-643.711	156.826	-0.055	-0.078
-642.697	-133.923	0.093	0.012
-641.682	-11.975	0.319	0.212
-640.668	22.744	0.227	-0.188
-639.653	31.392	-0.266	0.231
-638.638	82.930	-0.055	0.061
-637.624	-92.994	0.095	0.027
-636.609	20.094	-0.117	0.095
-635.595	-132.394	0.218	0.028
-634.580	139.486	-0.093	0.125
-633.565	-200.000	0.007	-0.329
-632.551	68.805	-0.250	-0.259
-631.536	270.180	-0.026	0.047
-630.522	-200.000	-0.028	0.234
-629.507	-36.826	-0.119	-0.064
-628.492	800.000	-0.029	0.088
-627.478	-91.000	-0.069	-0.020
-626.463	-200.000	0.001	0.264
-625.449	-120.242	-0.312	0.054
-624.434	-200.000	0.004	-0.065
-623.419	-200.000	0.036	-0.190
-622.405	242.832	-0.071	0.120
-621.390	115.501	-0.192	0.238
-620.376	-73.944	0.257	-0.095
-619.361	157.178	-0.054	-0.076
-618.346	22.685	-0.264	0.219
-617.332	-143.164	0.082	-0.008
-616.317	-52.249	0.143	-0.067
-615.303	-110.327	0.032	-0.007
-614.288	800.000	0.025	-0.103
-613.273	-173.528	0.223	-0.007
-612.259	-200.000	-0.048	0.260
-611.244	166.180	0.146	0.209
-610.230	80.221	-0.159	0.173
-609.215	-200.000	0.008	0.101
-608.201	-136.282	0.103	-0.012
-607.186	-137.048	0.233	-0.027
-606.171	19.625	-0.171	-0.139
-605.157	17.731	0.214	0.172
-604.142	69.617	-0.079	-0.082
-603.128	52.267	0.025	-0.024
-602.113	123.797	-0.057	0.073
-601.098	471.185	-0.055	-0.126
-600.084	-97.863	-0.365	-0.095
-599.069	-200.000	-0.000	-0.010
-598.055	-70.303	0.113	-0.044
-597.040	484.580	-0.100	-0.229
-596.025	800.000	-0.030	-0.122
-595.011	-99.293	0.276	-0.070
-593.996	99.465	0.095	-0.111
-592.982	411.368	-0.160	-0.344
-591.967	-200.000	0.007	0.367
-590.952	-157.417	-0.327	0.020
-589.938	800.000	-0.050	-0.159
-588.923	72.168	-0.103	-0.109
-587.909	-68.876	-0.273	0.107
-586.894	-109.479	0.088	0.019
-585.879	-200.000	-0.027	0.155
-584.865	362.253	-0.068	0.138
-583.850	-89.470	0.088	-0.026
-582.836	172.862	0.026	-0.038
-581.821	-66.100	-0.098	-0.039
-580.806	158.303	-0.187	-0.262
-579.792	800.000	0.036	-0.106
-578.777	-92.986	0.286	-0.081
-577.763	-129.979	-0.247	-0.034
-576.748	-43.990	-0.108	0.055
-575.733	-124.765	0.170	0.027
-574.719	800.000	-0.070	-0.279
-573.704	-200.000	-0.018	-0.262
-572.690	642.303	-0.145	-0.373
-571.675	-200.000	0.002	0.041
-570.661	-76.672	0.228	-0.081
-569.646	-60.307	-0.361	0.155
-568.631	572.145	-0.105	-0.259
-567.617	142.340	-0.042	0.057
-566.602	800.000	0.029	0.082
-565.588	70.282	0.179	-0.187
-564.573	-200.000	-0.007	0.075
-563.558	-58.460	-0.387	0.170
-562.544	6.928	-0.105	-0.079
-561.529	-36.850	-0.378	-0.205
-560.515	-185.610	-0.196	0.003
-559.500	-28.186	0.325	0.190
-558.485	113.195	0.314	-0.384
-557.471	425.015	0.061	-0.132
-556.456	-31.690	0.208	-0.118
-555.442	-121.199	0.125	-0.021
-554.427	-200.000	-0.023	0.183
-553.412	-46.857	-0.103	0.051
-552.398	103.094	0.096	0.114
-551.383	-163.700	0.182	0.009
-550.369	-68.756	-0.106	0.042
-549.354	-41.930	-0.235	0.121
-548.339	800.000	0.017	-0.054
-547.325	-200.000	0.002	-0.240
-546.310	-15.595	-0.228	-0.147
-545.296	-200.000	-0.010	0.132
-544.281	-200.000	-0.014	0.306
-543.266	-200.000	0.011	-0.150
-542.252	-200.000	0.016	0.260
-541.237	115.601	0.264	-0.326
-540.223	-103.002	0.199	-0.048
-539.208	-113.350	-0.371	0.073
-538.193	-71.765	0.217	0.082
-537.179	800.000	0.086	0.371
-536.164	-200.000	-0.090	0.508
-535.150	-109.039	0.198	-0.043
-534.135	409.758	0.016	0.034
-533.121	89.562	-0.092	0.104
-532.106	-80.461	-0.178	-0.060
-531.091	-15.839	-0.199	0.128
-530.077	800.000	-0.087	0.288
-529.062	800.000	0.089	0.301
-528.048	140.170	0.081	-0.108
-527.033	-200.000	-0.433	-0.000
-526.018	220.382	0.042	-0.067
-525.004	9.854	-0.164	-0.126
-523.989	-103.654	0.207	0.049
-522.975	549.937	0.051	0.124
-521.960	-101.461	-0.179	-0.044
-520.945	706.896	0.091	0.242
-519.931	-84.077	0.207	-0.066
-518.916	800.000	-0.012	0.051
-517.902	-200.000	-0.005	-0.087
-516.887	-200.000	0.015	0.288
-515.872	-200.000	0.005	-0.073
-514.858	-148.286	-0.201	0.017
-513.843	-200.000	-0.017	0.125
-512.829	28.501	0.259	0.221
-511.814	800.000	0.036	0.106
-510.799	-63.453	-0.328	0.136
-509.785	-200.000	0.028	-0.134
-508.770	341.804	0.157	0.309
-507.756	-171.337	0.278	0.009
-506.741	64.066	-0.175	0.177
-505.726	1.788	-0.262	-0.190
-504.712	199.548	0.176	0.272
-503.697	79.009	0.163	0.176
-502.683	0.147	-0.338	0.243
-501.668	-73.854	0.183	-0.067
-500.653	-200.000	0.009	0.167
-499.639	-156.198	0.113	0.007
-498.624	129.051	-0.037	0.047
-497.610	369.576	0.157	-0.321
-496.595	-200.000	-0.098	-0.445
-495.581	145.867	0.166	-0.225
-494.566	400.103	-0.154	0.324
-493.551	-78.464	0.280	-0.097
-492.537	35.785	-0.171	0.151
-491.522	12.348	-0.115	-0.090
-490.508	-200.000	0.009	-0.075
-489.493	-38.049	0.200	-0.107
-488.478	-200.000	-0.013	-0.125
-487.464	30.297	-0.066	-0.057
-486.449	-200.000	-0.063	-0.279
-485.435	0.357	-0.154	-0.110
-484.420	197.927	-0.045	-0.069
-483.405	56.666	0.276	-0.270
-482.391	223.110	-0.102	-0.165
-481.376	-154.237	0.199	0.014
-480.362	62.323	0.118	0.119
-479.347	-141.780	-0.244	0.025
-478.332	-171.951	0.325	-0.011
-477.318	-7.988	-0.319	0.217
-476.303	-200.000	-0.019	-0.202
-475.289	-149.454	0.190	0.015
-474.274	-17.014	-0.206	0.131
-473.259	-27.641	-0.238	0.139
-472.245	-82.540	0.186	-0.061
-471.230	153.063	0.146	-0.201
-470.216	-73.779	-0.155	-0.057
-469.201	800.000	0.001	-0.004
-468.186	-200.000	0.008	0.289
-467.172	63.069	0.129	0.130
-466.157	-200.000	0.005	-0.043
-465.143	-87.953	-0.162	0.049
-464.128	-200.000	0.020	-0.157
-463.113	-200.000	-0.039	-0.176
-462.099	-90.827	0.410	-0.119
-461.084	-200.000	-0.004	0.224
-460.070	-200.000	0.038	0.348
-459.055	316.066	-0.077	0.147
-458.040	-200.000	-0.012	-0.074
-457.026	381.848	-0.150	-0.311
-456.011	-200.000	-0.014	-0.373
-454.997	125.085	-0.229	-0.290
-453.982	-127.287	0.160	0.023
-452.968	10.928	0.136	-0.104
-451.953	68.954	0.141	-0.146
-450.938	-7.976	-0.145	0.098
-449.924	-200.000	0.003	-0.017
-448.909	800.000	-0.012	0.048
-447.895	-28.397	-0.191	-0.111
-446.880	-200.000	-0.007	-0.142
-445.865	-200.000	-0.024	0.112
-444.851	-200.000	0.008	0.061
-443.836	92.682	0.070	0.080
-442.822	-105.804	-0.074	-0.017
-441.807	-200.000	-0.055	-0.415
-440.792	800.000	0.021	0.068
-439.778	-108.558	-0.285	-0.061
-438.763	-158.261	0.343	-0.020
-437.749	344.822	0.181	0.356
-436.734	-24.353	0.194	0.116
-435.719	1.372	0.296	0.214
-434.705	322.943	0.125	-0.239
-433.690	-97.808	-0.120	0.031
-432.676	-200.000	-0.083	0.430
-431.661	-200.000	0.015	0.085
-430.646	800.000	0.017	0.070
-429.632	-32.632	-0.089	-0.050
-428.617	168.292	-0.089	0.128
-427.603	285.202	0.051	0.093
-426.588	-200.000	-0.013	0.111
-425.573	236.282	0.064	0.107
-424.559	-28.534	-0.170	-0.098
-423.544	58.990	-0.200	-0.198
-422.530	-33.864	-0.042	-0.023
-421.515	27.299	0.079	0.067
-420.500	139.038	-0.194	-0.257
-419.486	6.210	-0.113	-0.084
-418.471	-72.036	-0.038	0.014
-417.457	-125.784	-0.341	0.052
-416.442	-108.459	-0.251	0.054
-415.428	-138.199	-0.132	-0.015
-414.413	-200.000	0.056	0.275
-413.398	22.176	0.136	-0.112
-412.384	-200.000	0.015	0.143
-411.369	-104.000	-0.110	0.026
-410.355	-25.876	0.037	0.022
-409.340	150.245	0.122	-0.166
-408.325	-200.000	0.028	-0.140
-407.311	30.627	-0.164	-0.141
-406.296	39.285	-0.180	-0.162
-405.282	563.812	-0.008	-0.020
-404.267	156.296	-0.134	-0.185
-403.252	133.025	0.076	0.098
-402.238	800.000	0.047	0.173
-401.223	31.568	0.115	-0.099
-400.209	64.097	-0.095	0.096
-399.194	495.013	-0.068	0.157
-398.179	-137.041	0.247	0.028
-397.165	5.860	0.182	0.135
-396.150	611.336	0.081	0.203
-395.136	472.292	-0.060	-0.134
-394.121	800.000	0.104	-0.351
-393.106	-67.815	0.056	0.022
-392.092	-200.000	-0.044	0.310
-391.077	-21.172	0.272	0.167
-390.063	102.472	-0.224	0.263
-389.048	-86.677	0.217	0.067
-388.033	-50.795	0.090	-0.042
-387.019	268.164	0.028	-0.050
-386.004	-171.059	0.151	-0.005
-384.990	52.727	-0.283	-0.271
-383.975	-1.612	-0.220	0.155
-382.960	800.000	-0.061	0.252
-381.946	-129.197	-0.273	0.038
-380.931	-116.493	0.203	-0.037
-379.917	-87.421	0.130	0.039
-378.902	37.390	-0.225	-0.200
-377.888	246.677	0.026	-0.044
-376.873	-6.163	-0.195	0.133
-375.858	-92.506	0.515	0.145
-374.844	6.390	0.144	0.108
-373.829	-149.907	0.236	-0.018
-372.815	-143.234	-0.364	0.035
-371.800	128.933	0.122	-0.155
-370.785	0.713	-0.238	0.170
-369.771	-162.457	0.492	-0.024
-368.756	52.441	0.052	0.050
-367.742	-200.000	0.010	0.174
-366.727	91.166	-0.035	-0.039
-365.712	771.011	-0.127	0.348
-364.698	-13.463	-0.069	0.045
-363.683	800.000	-0.037	0.149
-362.669	-200.000	-0.001	0.227
-361.654	800.000	-0.103	-0.341
-360.639	-73.586	-0.304	-0.111
-359.625	-124.838	-0.225	-0.035
-358.610	248.218	0.158	-0.268
-357.596	-153.893	-0.152	0.010
-356.581	-200.000	-0.035	0.242
-355.566	-200.000	0.021	0.273
-354.552	-200.000	0.009	0.197
-353.537	39.698	0.144	-0.130
-352.523	800.000	0.050	-0.183
-351.508	-59.838	-0.315	-0.135
-350.493	204.832	0.054	0.084
-349.479	-200.000	0.024	0.238
-348.464	81.260	-0.080	-0.087
-347.450	-46.961	-0.290	0.142
-346.435	-12.284	0.071	0.047
-345.420	74.708	-0.292	0.307
-344.406	-200.000	0.020	-0.251
-343.391	800.000	-0.074	-0.281
-342.377	-29.971	0.190	-0.108
-341.362	-200.000	-0.066	0.343
-340.348	-136.218	0.196	-0.023
-339.333	295.521	0.233	0.427
-338.318	-156.205	0.221	-0.014
-337.304	490.514	-0.147	-0.335
-336.289	-67.663	0.148	-0.058
-335.275	-89.221	0.188	-0.055
-334.260	-117.817	0.161	0.029
-333.245	800.000	-0.055	0.161
-332.231	164.284	0.111	0.156
-331.216	67.903	-0.306	0.313
-330.202	-28.085	0.276	-0.160
-329.187	-85.667	0.132	-0.041
-328.172	-200.000	-0.008	-0.224
-327.158	-200.000	-0.039	-0.184
-326.143	225.743	-0.186	-0.301
-325.129	-41.680	0.118	-0.060
-324.114	-200.000	-0.041	0.218
-323.099	443.226	0.143	0.314
-322.085	-200.000	-0.077	-0.402
-321.070	-78.742	0.142	0.048
-320.056	-7.617	0.071	0.048
-319.041	-76.339	0.184	0.065
-318.026	25.957	-0.128	0.107
-317.012	-30.562	0.251	0.142
-315.997	-129.713	0.314	-0.043
-314.983	-78.047	-0.224	-0.077
-313.968	82.370	0.191	-0.207
-312.953	-200.000	-0.020	-0.108
-311.939	371.468	-0.061	-0.124
-310.924	-110.742	0.267	-0.055
-309.910	26.621	-0.081	0.068
-308.895	-35.081	-0.306	-0.167
-307.880	464.039	0.049	0.110
-306.866	372.576	0.166	0.337
-305.851	62.906	-0.121	-0.121
-304.837	225.471	-0.243	-0.393
-303.822	-200.000	-0.013	-0.396
-302.807	60.200	0.051	-0.050
-301.793	-200.000	-0.022	-0.104
-300.778	800.000	-0.073	-0.239
-299.764	-54.948	0.403	0.182
-298.749	-12.702	0.035	0.023
-297.735	45.926	0.364	0.336
-296.720	482.697	-0.127	-0.288
-295.705	-200.000	0.522	-0.002
-294.691	179.348	0.146	-0.214
-293.676	175.031	0.054	-0.079
-292.662	45.263	-0.289	-0.266
-291.647	97.203	-0.053	-0.061
-290.632	-200.000	-0.035	0.161
-289.618	407.068	0.016	-0.033
-288.603	11.162	-0.079	0.061
-287.589	43.580	0.315	-0.288
-286.574	-12.986	0.275	0.178
-285.559	16.132	0.112	0.088
-284.545	-183.207	0.158	-0.003
-283.530	-63.917	0.198	0.081
-282.516	670.046	-0.069	-0.178
-281.501	26.149	-0.094	-0.079
-280.486	222.236	-0.112	-0.179
-279.472	45.940	-0.204	-0.188
-278.457	37.713	0.101	-0.089
-277.443	-200.000	-0.073	-0.333
-276.428	61.685	-0.060	-0.059
-275.413	800.000	0.086	-0.263
-274.399	100.362	-0.108	0.126
-273.384	-149.119	-0.156	0.012
-272.370	-200.000	0.042	0.240
-271.355	-200.000	-0.025	0.298
-270.340	-17.606	0.197	0.124
-269.326	90.840	0.123	-0.137
-268.311	50.963	-0.130	-0.123
-267.297	-147.669	0.418	0.035
-266.282	-200.000	0.004	-0.188
-265.267	69.599	0.329	-0.339
-264.253	800.000	-0.096	-0.317
-263.238	800.000	0.107	-0.297
-262.224	211.730	-0.043	-0.068
-261.209	-200.000	-0.030	0.342
-260.195	-127.525	-0.123	0.018
-259.180	28.525	0.180	0.152
-258.165	-28.848	0.265	-0.152
-257.151	-200.000	-0.006	-0.051
-256.136	-94.872	-0.351	0.095
-255.122	-200.000	-0.028	0.226
-254.107	-157.111	-0.113	0.007
-253.092	-129.542	-0.108	0.015
-252.078	-200.000	-0.025	-0.109
-251.063	243.661	0.139	0.232
-250.049	-30.023	0.329	0.187
-249.034	800.000	-0.178	-0.496
-248.019	-200.000	0.033	0.168
-247.005	-200.000	0.015	-0.091
-245.990	49.326	0.081	-0.076
-244.976	-70.935	0.377	0.142
-243.961	53.352	-0.144	0.138
-242.946	-200.000	0.581	0.002
-241.932	-200.000	-0.005	-0.052
-240.917	601.200	0.042	0.104
-239.903	320.668	0.166	0.314
-238.888	167.681	-0.121	0.171
-237.873	-69.480	-0.128	0.049
-236.859	-200.000	0.221	0.001
-235.844	258.923	-0.181	-0.311
-234.830	-97.898	-0.199	-0.051
-233.815	247.884	0.043	0.072
-232.800	200.389	0.165	-0.252
-231.786	-58.033	0.243	0.106
-230.771	-67.608	-0.223	-0.087
-229.757	425.695	-0.164	0.353
-228.742	129.227	-0.098	-0.125
-227.727	-128.180	0.200	0.028
-226.713	791.604	0.050	0.138
-225.698	60.395	0.210	0.207
-224.684	-120.348	0.089	-0.015
-223.669	63.282	0.121	-0.121
-222.655	120.916	-0.118	0.146
-221.640	-200.000	-0.004	-0.035
-220.625	-69.761	-0.406	-0.154
-219.611	-200.000	-0.067	-0.352
-218.596	-125.067	-0.401	-0.061
-217.582	-111.504	-0.178	0.036
-216.567	34.093	0.076	-0.066
-215.552	-10.857	-0.172	0.113
-214.538	536.170	0.083	-0.197
-213.523	-175.462	-0.165	0.004
-212.509	134.216	0.124	-0.160
-211.494	-74.657	-0.105	-0.038
-210.479	-200.000	0.028	-0.170
-209.465	-113.104	0.234	-0.046
-208.450	-200.000	0.043	0.200
-207.436	-85.771	-0.374	0.115
-206.421	800.000	0.030	0.110
-205.406	-126.129	-0.180	0.027
-204.392	60.057	0.127	-0.125
-203.377	-128.783	0.352	0.049
-202.363	589.506	-0.029	0.070
-201.348	-12.388	0.257	-0.167
-200.333	480.235	-0.111	-0.251
-199.319	-200.000	-0.014	-0.127
-198.304	-140.971	-0.042	-0.004
-197.290	38.897	-0.122	-0.109
-196.275	118.137	-0.085	0.105
-195.260	-115.156	0.236	-0.045
-194.246	-45.619	0.089	-0.044
-193.231	-131.864	-0.082	0.011
-192.217	800.000	0.110	0.343
-191.202	501.237	0.158	0.363
-190.187	800.000	0.039	-0.134
-189.173	-50.101	-0.293	-0.138
-188.158	800.000	0.056	0.208
-187.144	-61.844	-0.266	-0.111
-186.129	181.356	0.245	0.358
-185.114	351.037	0.062	0.123
-184.100	800.000	-0.055	-0.166
-183.085	-200.000	0.049	-0.460
-182.071	-200.000	-0.064	0.291
-181.056	-49.819	-0.188	-0.089
-180.042	-127.325	-0.081	0.012
-179.027	-129.958	0.112	0.015
-178.012	-10.861	-0.324	-0.213
-176.998	375.420	0.042	0.084
-175.983	184.379	0.121	-0.179
-174.969	316.076	-0.046	0.087
-173.954	-200.000	0.038	0.312
-172.939	-123.429	-0.128	0.020
-171.925	650.045	0.042	0.107
-170.910	72.637	0.270	-0.280
-169.896	-104.774	-0.183	-0.042
-168.881	16.808	0.256	0.202
-167.866	110.136	-0.119	-0.142
-166.852	-145.828	-0.219	-0.019
-165.837	-180.405	-0.378	-0.008
-164.823	-117.288	0.049	0.009
-163.808	64.733	-0.096	0.096
-162.793	371.970	-0.218	0.441
-161.779	122.337	-0.079	-0.098
-160.764	105.079	-0.280	0.328
-159.750	-183.822	0.200	-0.003
-158.735	-118.181	-0.242	-0.043
-157.720	-200.000	-0.020	-0.227
-156.706	-200.000	0.061	0.367
-155.691	76.186	-0.156	0.165
-154.677	-200.000	-0.023	-0.117
-153.662	-97.112	0.380	0.099
-152.647	-53.265	0.195	0.089
-151.633	71.730	-0.024	-0.025
-150.618	-43.246	-0.086	-0.043
-149.604	800.000	-0.109	-0.322
-148.589	130.089	0.067	0.086
-147.574	-200.000	-0.050	0.254
-146.560	800.000	-0.046	-0.171
-145.545	-152.610	0.065	0.005
-144.531	178.665	0.158	0.229
-143.516	308.216	0.029	-0.053
-142.502	-111.974	0.130	-0.026
-141.487	-65.152	0.238	-0.095
-140.472	122.718	-0.147	0.182
-139.458	134.631	-0.195	0.251
-138.443	692.938	0.128	-0.332
-137.429	122.631	-0.138	-0.171
-136.414	-17.114	0.146	0.091
-135.399	69.290	0.084	-0.086
-134.385	-118.746	-0.148	-0.026
-133.370	-74.953	-0.068	-0.024
-132.356	-176.395	-0.076	0.002
-131.341	476.358	0.115	-0.259
-130.326	800.000	0.039	0.111
-129.312	800.000	0.072	0.309
-128.297	21.956	0.048	0.039
-127.283	-40.626	-0.191	0.098
-126.268	-200.000	-0.021	0.207
-125.253	-200.000	0.007	-0.390
-124.239	31.953	0.115	-0.098
-123.224	68.999	0.220	-0.224
