DTS Sentinel unit serial number:	SN413079Multiplexer serial number:	ORYXHardware model number:	OX4-SRSoftware version number:	ORYX F/W v4.00 Oryx Data Collector v3.7.2.0data status	okinstallation	princeton_trtdifferential loss correction	single-endedforward channel	channel 4reverse channel	N/Adate	2019/09/13time	08:41:34forward acquisition time	60.00reverse acquisition time	0.00gamma	496.2192k internal	0.2316k external	0.2316temperature offset calibration	1.0196default loss term (dB/km)	0.3790temperature slope calibration	1.0000multiplexer offset coefficient	1.0000multiplexer slope coefficient	1.0000fibre end	0.00T internal ref (°C)	27.83T ext. ref 1 (°C)	4.30T ext. ref 2 (°C)	24.74length (m)	temperature (°C)	Stokes	anti-Stokes-747.200	285.252	0.030	-0.056
-746.185	800.000	-0.070	-0.196
-745.171	80.133	-0.217	0.237
-744.156	-40.404	-0.093	-0.049
-743.142	45.442	-0.185	-0.173
-742.127	-120.364	-0.154	0.027
-741.112	-110.538	0.322	-0.068
-740.098	-59.052	-0.353	0.154
-739.083	79.819	0.037	0.040
-738.069	-200.000	-0.066	-0.310
-737.054	69.510	0.148	-0.154
-736.039	-54.614	-0.087	-0.040
-735.025	-11.459	0.302	-0.201
-734.010	176.697	-0.231	-0.340
-732.996	800.000	-0.065	0.220
-731.981	275.117	-0.112	-0.200
-730.966	11.540	-0.262	0.203
-729.952	-112.114	-0.140	-0.028
-728.937	-200.000	-0.052	0.265
-727.923	-200.000	-0.019	-0.094
-726.908	303.111	-0.154	0.289
-725.894	15.965	0.230	0.183
-724.879	-200.000	-0.073	-0.324
-723.864	-68.972	0.274	-0.107
-722.850	800.000	-0.083	-0.236
-721.835	800.000	-0.132	-0.406
-720.821	192.324	0.057	-0.087
-719.806	3.065	-0.305	-0.225
-718.791	438.093	0.105	-0.232
-717.777	-140.270	-0.300	-0.032
-716.762	1.200	-0.320	0.232
-715.748	-33.685	0.046	0.026
-714.733	-200.000	-0.003	0.055
-713.718	-133.627	-0.278	-0.035
-712.704	84.927	0.074	0.082
-711.689	3.972	0.125	0.092
-710.675	249.270	0.094	0.161
-709.660	129.815	0.101	0.131
-708.645	-200.000	0.014	0.092
-707.631	32.334	0.225	-0.196
-706.616	-73.677	-0.223	-0.082
-705.602	70.507	0.234	0.245
-704.587	-200.000	0.029	-0.229
-703.572	-116.759	-0.132	0.025
-702.558	36.625	0.080	0.072
-701.543	92.419	-0.139	-0.158
-700.529	800.000	-0.066	-0.213
-699.514	127.798	-0.188	-0.241
-698.499	-69.275	-0.253	-0.098
-697.485	105.643	-0.033	0.039
-696.470	51.685	-0.092	0.088
-695.456	345.944	0.154	-0.307
-694.441	18.848	-0.122	-0.099
-693.426	-31.803	-0.112	-0.064
-692.412	-85.609	0.206	-0.065
-691.397	-91.114	0.237	-0.069
-690.383	143.706	0.053	-0.071
-689.368	283.660	0.113	0.206
-688.354	-200.000	0.047	-0.452
-687.339	-116.261	-0.288	-0.054
-686.324	-120.708	-0.389	0.067
-685.310	-142.252	0.357	-0.036
-684.295	-200.000	-0.000	-0.139
-683.281	-200.000	-0.030	-0.190
-682.266	-42.585	0.183	-0.094
-681.251	48.253	-0.105	0.100
-680.237	-148.024	0.282	0.024
-679.222	141.473	0.074	-0.099
-678.208	63.016	-0.114	-0.115
-677.193	-167.021	0.606	-0.025
-676.178	-84.081	-0.384	-0.123
-675.164	800.000	0.027	-0.092
-674.149	-200.000	0.008	0.109
-673.135	-146.720	0.182	0.016
-672.120	-200.000	0.013	0.068
-671.105	-137.207	-0.369	0.042
-670.091	-100.700	0.168	-0.042
-669.076	800.000	0.060	-0.248
-668.062	800.000	-0.104	0.311
-667.047	-37.924	-0.330	0.177
-666.032	240.033	0.193	-0.324
-665.018	-132.968	-0.185	0.024
-664.003	-200.000	-0.061	-0.330
-662.989	233.810	-0.201	-0.334
-661.974	-133.799	-0.221	-0.028
-660.959	57.992	0.110	0.108
-659.945	-125.017	0.330	-0.051
-658.930	800.000	0.134	-0.397
-657.916	-200.000	0.006	0.096
-656.901	315.541	0.068	-0.129
-655.886	-22.758	0.171	0.104
-654.872	139.606	0.162	-0.215
-653.857	-162.904	-0.206	-0.010
-652.843	800.000	-0.068	-0.264
-651.828	-200.000	-0.011	-0.050
-650.814	198.180	0.122	0.189
-649.799	225.090	-0.034	0.056
-648.784	107.478	0.224	-0.269
-647.770	309.910	0.110	-0.207
-646.755	272.172	-0.283	0.504
-645.741	-178.605	0.221	0.005
-644.726	33.662	-0.137	0.121
-643.711	153.977	0.058	0.080
-642.697	-10.583	0.200	-0.134
-641.682	-142.791	-0.277	0.027
-640.668	111.272	0.174	0.212
-639.653	295.581	-0.087	-0.160
-638.638	576.726	-0.065	-0.161
-637.624	-32.039	-0.197	0.111
-636.609	-200.000	0.005	-0.364
-635.595	92.362	0.152	-0.173
-634.580	57.356	-0.122	-0.120
-633.565	-200.000	0.031	-0.229
-632.551	-200.000	-0.032	-0.162
-631.536	68.420	-0.163	-0.168
-630.522	25.442	0.260	-0.218
-629.507	-192.765	-0.123	0.001
-628.492	800.000	-0.069	0.200
-627.478	-104.115	0.097	-0.023
-626.463	-17.771	-0.089	-0.056
-625.449	379.646	0.093	-0.191
-624.434	-63.405	0.229	0.095
-623.419	-99.695	0.067	0.017
-622.405	-200.000	-0.001	0.212
-621.390	-200.000	0.006	-0.220
-620.376	800.000	-0.180	-0.511
-619.361	-26.991	-0.080	-0.047
-618.346	-200.000	-0.020	0.207
-617.332	389.769	0.166	-0.347
-616.317	-140.321	-0.296	-0.031
-615.303	6.638	-0.221	-0.165
-614.288	-200.000	0.001	-0.119
-613.273	-200.000	-0.057	-0.407
-612.259	387.579	0.081	0.169
-611.244	-37.847	0.472	0.253
-610.230	-133.609	-0.188	-0.024
-609.215	-136.194	0.235	0.028
-608.201	-200.000	-0.052	0.264
-607.186	108.557	0.260	0.313
-606.171	-37.816	-0.153	-0.082
-605.157	20.607	-0.186	-0.152
-604.142	800.000	0.153	0.465
-603.128	-200.000	-0.028	-0.198
-602.113	-155.473	-0.383	0.025
-601.098	307.608	0.107	0.200
-600.084	-23.447	0.331	-0.200
-599.069	-34.692	0.137	0.075
-598.055	521.469	-0.075	0.178
-597.040	89.357	-0.296	-0.332
-596.025	134.270	0.183	0.239
-595.011	319.135	-0.218	-0.416
-593.996	342.777	-0.035	-0.069
-592.982	800.000	-0.035	-0.107
-591.967	-133.685	0.136	0.017
-590.952	-200.000	-0.014	0.079
-589.938	-82.194	0.294	-0.097
-588.923	-181.109	-0.285	0.006
-587.909	154.663	-0.110	-0.153
-586.894	321.427	-0.117	-0.224
-585.879	76.681	-0.092	0.098
-584.865	-200.000	0.047	0.273
-583.850	-128.998	-0.354	0.050
-582.836	-200.000	0.000	0.169
-581.821	190.050	-0.180	0.271
-580.806	427.611	0.017	0.036
-579.792	10.890	0.179	-0.137
-578.777	-200.000	0.011	0.149
-577.763	-0.735	-0.186	0.133
-576.748	800.000	0.071	0.293
-575.733	364.555	-0.085	-0.171
-574.719	-117.453	0.084	-0.015
-573.704	800.000	-0.019	0.066
-572.690	-109.519	0.277	0.059
-571.675	-200.000	-0.057	-0.286
-570.661	-63.777	0.130	0.054
-569.646	131.548	0.285	0.369
-568.631	75.653	0.097	0.103
-567.617	424.870	-0.081	0.175
-566.602	-200.000	-0.003	-0.027
-565.588	-200.000	0.065	0.363
-564.573	-35.829	0.277	-0.151
-563.558	-187.653	-0.252	-0.003
-562.544	-200.000	-0.044	-0.313
-561.529	-40.086	-0.058	-0.031
-560.515	-90.146	0.073	-0.021
-559.500	-95.379	0.065	-0.018
-558.485	-200.000	-0.073	0.453
-557.471	-122.598	-0.102	-0.017
-556.456	332.659	0.082	-0.159
-555.442	72.635	0.169	-0.177
-554.427	473.436	-0.079	-0.179
-553.412	5.419	0.078	0.058
-552.398	155.224	-0.034	0.047
-551.383	12.443	0.298	-0.231
-550.369	800.000	-0.085	-0.270
-549.354	-153.467	0.156	0.011
-548.339	800.000	-0.092	-0.282
-547.325	134.364	-0.141	0.184
-546.310	-78.812	-0.309	-0.106
-545.296	-200.000	0.011	-0.204
-544.281	-145.847	-0.278	-0.025
-543.266	-119.798	0.180	0.031
-542.252	-200.000	-0.021	0.343
-541.237	86.520	-0.097	-0.107
-540.223	-77.479	-0.131	-0.046
-539.208	-200.000	-0.029	-0.443
-538.193	40.185	0.166	-0.150
-537.179	-52.078	-0.189	0.088
-536.164	340.692	0.123	-0.242
-535.150	-147.763	-0.359	-0.030
-534.135	519.370	-0.081	0.191
-533.121	135.506	-0.121	0.159
-532.106	-200.000	0.084	0.430
-531.091	347.790	0.087	-0.172
-530.077	-125.710	-0.159	-0.024
-529.062	91.805	-0.094	-0.106
-528.048	-163.227	-0.229	-0.011
-527.033	627.248	0.042	0.107
-526.018	490.002	-0.010	-0.024
-525.004	-200.000	-0.023	0.261
-523.989	-50.187	0.118	0.056
-522.975	800.000	-0.060	0.206
-521.960	-113.422	-0.140	-0.028
-520.945	800.000	-0.066	-0.241
-519.931	19.484	-0.197	0.159
-518.916	800.000	-0.081	0.262
-517.902	12.216	0.223	0.173
-516.887	-200.000	0.013	-0.222
-515.872	800.000	-0.045	-0.179
-514.858	170.852	0.180	-0.259
-513.843	-200.000	0.023	0.125
-512.829	-165.331	0.237	-0.010
-511.814	415.367	-0.090	0.193
-510.799	205.447	-0.084	-0.132
-509.785	-91.533	-0.207	-0.059
-508.770	-110.069	0.070	-0.015
-507.756	800.000	-0.039	-0.170
-506.741	-139.948	-0.318	0.034
-505.726	-200.000	0.045	-0.238
-504.712	330.635	-0.059	-0.114
-503.697	-89.848	-0.255	-0.075
-502.683	-149.193	0.337	-0.027
-501.668	800.000	-0.092	-0.376
-500.653	-86.250	0.191	0.059
-499.639	541.394	-0.128	-0.306
-498.624	74.827	-0.072	-0.076
-497.610	800.000	-0.012	0.047
-496.595	-200.000	0.029	-0.200
-495.581	-200.000	-0.019	0.166
-494.566	542.803	-0.076	-0.183
-493.551	800.000	0.081	0.268
-492.537	-6.823	-0.356	-0.243
-491.522	239.997	0.136	0.228
-490.508	50.148	-0.072	0.068
-489.493	591.592	-0.160	0.396
-488.478	800.000	-0.029	-0.121
-487.464	-11.742	-0.124	0.081
-486.449	-200.000	0.003	-0.286
-485.435	-200.000	-0.018	0.220
-484.420	-40.541	0.212	-0.110
-483.405	164.937	-0.108	-0.153
-482.391	-47.002	0.164	0.080
-481.376	407.756	-0.090	0.191
-480.362	99.299	-0.120	-0.139
-479.347	-127.307	0.175	0.026
-478.332	-175.158	-0.039	0.001
-477.318	-16.342	-0.019	0.012
-476.303	-32.506	-0.190	-0.106
-475.289	12.628	-0.151	-0.117
-474.274	4.060	-0.260	0.191
-473.259	-52.455	-0.156	-0.072
-472.245	800.000	0.050	-0.180
-471.230	204.022	-0.190	0.296
-470.216	-48.604	-0.258	0.124
-469.201	-200.000	-0.107	-0.472
-468.186	-77.926	0.282	0.097
-467.172	410.987	0.135	0.287
-466.157	128.172	0.101	-0.129
-465.143	-200.000	-0.012	0.165
-464.128	-97.622	0.138	-0.036
-463.113	-111.863	0.081	0.016
-462.099	-200.000	0.006	-0.145
-461.084	-23.450	0.210	-0.126
-460.070	-200.000	-0.026	0.214
-459.055	-149.001	-0.249	0.020
-458.040	234.601	-0.106	-0.175
-457.026	-97.084	0.129	-0.034
-456.011	-200.000	-0.014	0.260
-454.997	-171.249	0.120	-0.004
-453.982	234.136	-0.136	-0.225
-452.968	-25.318	0.080	-0.047
-451.953	-73.787	0.321	-0.117
-450.938	-200.000	0.428	-0.001
-449.924	800.000	0.080	0.223
-448.909	-163.906	-0.245	-0.011
-447.895	414.680	-0.065	0.139
-446.880	79.245	-0.132	0.142
-445.865	-87.243	-0.049	0.015
-444.851	-97.147	0.121	0.032
-443.836	800.000	-0.063	0.218
-442.822	23.121	0.081	-0.066
-441.807	731.168	0.065	0.175
-440.792	-74.691	0.064	-0.023
-439.778	-89.918	0.325	0.095
-438.763	755.574	-0.085	-0.230
-437.749	-41.490	-0.320	0.165
-436.734	-86.447	0.123	0.038
-435.719	-89.596	0.229	-0.067
-434.705	23.213	0.026	-0.021
-433.690	37.169	0.190	-0.169
-432.676	27.116	0.135	0.113
-431.661	-23.566	0.250	-0.150
-430.646	-49.640	0.285	-0.136
-429.632	93.406	-0.039	0.045
-428.617	-190.329	0.320	0.004
-427.603	230.795	0.102	0.167
-426.588	800.000	-0.068	-0.227
-425.573	364.647	0.122	-0.245
-424.559	687.281	0.057	0.149
-423.544	61.047	-0.244	-0.242
-422.530	-92.661	-0.199	0.056
-421.515	190.452	0.222	0.333
-420.500	282.083	0.153	-0.275
-419.486	-84.295	0.059	-0.019
-418.471	-157.079	0.307	-0.019
-417.457	-200.000	0.025	-0.124
-416.442	-30.223	0.432	0.245
-415.428	-31.851	0.206	-0.116
-414.413	391.896	0.069	-0.143
-413.398	155.260	-0.026	0.036
-412.384	477.245	-0.117	0.264
-411.369	-155.572	-0.208	0.013
-410.355	-50.862	0.265	0.124
-409.340	-97.152	-0.100	0.026
-408.325	800.000	-0.068	0.240
-407.311	-200.000	-0.033	-0.232
-406.296	-16.657	-0.268	0.170
-405.282	-200.000	-0.051	0.444
-404.267	134.255	-0.073	-0.094
-403.252	-167.864	-0.360	0.014
-402.238	90.057	-0.147	0.164
-401.223	21.476	0.062	0.050
-400.209	-24.883	0.221	-0.131
-399.194	800.000	-0.062	0.269
-398.179	93.441	-0.218	-0.247
-397.165	-64.985	0.307	-0.124
-396.150	-105.047	0.080	0.018
-395.136	-37.625	0.453	-0.241
-394.121	-25.080	-0.200	0.118
-393.106	-6.394	0.182	-0.124
-392.092	800.000	0.028	0.099
-391.077	-200.000	0.021	0.160
-390.063	800.000	-0.056	0.184
-389.048	53.666	0.091	-0.087
-388.033	-122.984	0.215	0.034
-387.019	119.114	-0.097	0.119
-386.004	-200.000	-0.024	0.142
-384.990	-85.200	-0.176	0.055
-383.975	-200.000	0.023	-0.192
-382.960	464.630	-0.054	0.121
-381.946	-130.262	0.285	0.039
-380.931	-139.937	-0.252	0.027
-379.917	465.671	0.048	0.108
-378.902	-200.000	-0.016	0.244
-377.888	-197.361	-0.157	0.001
-376.873	92.878	0.090	-0.102
-375.858	533.937	-0.023	0.056
-374.844	233.423	-0.106	0.174
-373.829	121.024	0.198	0.246
-372.815	109.093	0.052	0.062
-371.800	48.241	0.091	-0.085
-370.785	-17.975	0.139	0.087
-369.771	-50.273	0.079	-0.037
-368.756	-200.000	0.003	0.071
-367.742	800.000	-0.036	-0.126
-366.727	381.206	-0.058	0.119
-365.712	-88.049	0.200	-0.060
-364.698	-200.000	0.033	-0.294
-363.683	-40.327	0.297	-0.154
-362.669	-45.549	0.059	-0.029
-361.654	-142.976	0.205	-0.020
-360.639	64.016	-0.101	-0.102
-359.625	108.279	-0.135	-0.160
-358.610	-23.088	0.164	0.098
-357.596	800.000	-0.064	0.217
-356.581	-132.598	-0.134	0.017
-355.566	41.504	-0.492	0.444
-354.552	234.686	0.136	0.224
-353.537	-116.857	-0.512	0.094
-352.523	-169.146	-0.287	-0.011
-351.508	60.853	-0.056	-0.055
-350.493	24.528	-0.101	-0.084
-349.479	-108.781	0.254	0.054
-348.464	-77.519	0.051	-0.018
-347.450	28.294	0.164	0.138
-346.435	-111.775	-0.124	0.025
-345.420	-177.448	0.202	-0.005
-344.406	-156.977	-0.217	0.013
-343.391	27.537	-0.302	0.254
-342.377	258.272	0.175	0.301
-341.362	682.193	0.128	-0.334
-340.348	-200.000	0.092	-0.477
-339.333	301.372	-0.119	-0.220
-338.318	74.890	0.028	0.030
-337.304	707.535	0.097	-0.256
-336.289	52.860	0.135	0.129
-335.275	-2.185	0.304	0.213
-334.260	-2.533	-0.352	0.246
-333.245	-200.000	0.024	-0.122
-332.231	105.398	-0.118	-0.139
-331.216	-96.000	-0.116	-0.031
-330.202	800.000	0.048	0.177
-329.187	800.000	0.039	0.152
-328.172	65.755	0.264	0.266
-327.158	157.705	-0.233	0.322
-326.143	29.448	0.153	-0.130
-325.129	-200.000	0.064	-0.398
-324.114	-200.000	-0.020	0.470
-323.099	66.795	0.133	-0.134
-322.085	-56.775	-0.230	-0.101
-321.070	-9.112	0.119	-0.080
-320.056	-200.000	-0.029	-0.356
-319.041	233.493	0.103	0.169
-318.026	-200.000	-0.016	0.176
-317.012	-45.657	-0.161	-0.080
-315.997	97.492	-0.113	0.130
-314.983	-71.245	-0.293	0.109
-313.968	-48.915	0.208	-0.099
-312.953	213.468	-0.130	0.205
-311.939	-105.340	0.168	0.038
-310.924	800.000	-0.118	-0.397
-309.910	-49.316	0.241	0.115
-308.895	-179.533	-0.145	-0.003
-307.880	686.876	-0.093	-0.242
-306.866	289.013	0.089	0.161
-305.851	528.047	0.147	0.346
-304.837	-71.944	-0.163	-0.061
-303.822	-44.906	-0.253	0.126
-302.807	-91.833	0.142	-0.040
-301.793	800.000	0.055	-0.200
-300.778	212.930	-0.068	0.106
-299.764	339.180	-0.061	-0.118
-298.749	-78.788	-0.340	0.115
-297.735	800.000	0.031	0.134
-296.720	-36.038	0.312	0.168
-295.705	420.566	0.061	-0.131
-294.691	755.806	-0.038	0.103
-293.676	343.315	-0.094	-0.183
-292.662	30.730	-0.051	0.043
-291.647	322.406	-0.042	0.080
-290.632	108.202	-0.251	0.298
-289.618	-200.000	-0.004	0.129
-288.603	151.901	-0.289	0.392
-287.589	800.000	0.022	0.064
-286.574	-200.000	0.033	-0.264
-285.559	-60.812	0.262	0.110
-284.545	-76.026	-0.260	0.091
-283.530	-149.608	0.150	-0.012
-282.516	640.490	0.081	0.205
-281.501	-4.524	-0.098	0.067
-280.486	117.140	-0.160	0.195
-279.472	66.686	-0.240	-0.243
-278.457	-136.196	0.231	-0.027
-277.443	800.000	-0.046	-0.132
-276.428	-2.187	0.222	0.155
-275.413	523.096	0.073	-0.172
-274.399	69.347	0.203	0.208
-273.384	8.352	0.030	0.022
-272.370	-91.814	-0.172	-0.049
-271.355	10.385	0.184	-0.139
-270.340	209.860	0.079	-0.124
-269.326	-81.233	0.143	0.047
-268.311	-74.705	0.241	0.086
-267.297	-35.005	-0.383	-0.207
-266.282	408.197	-0.050	0.106
-265.267	-83.636	0.040	0.013
-264.253	387.695	0.048	-0.099
-263.238	-200.000	-0.075	0.331
-262.224	-142.958	-0.327	-0.031
-261.209	-135.096	-0.078	-0.009
-260.195	-120.708	0.193	-0.032
-259.180	-15.014	-0.204	-0.130
-258.165	-95.065	-0.354	0.095
-257.151	165.036	-0.189	-0.266
-256.136	-200.000	-0.018	0.126
-255.122	-4.618	0.098	0.067
-254.107	698.512	0.057	-0.149
-253.092	-108.389	-0.222	0.048
-252.078	800.000	0.020	0.069
-251.063	-120.035	0.193	-0.033
-250.049	-59.744	-0.140	-0.060
-249.034	-21.368	0.115	0.070
-248.019	244.571	0.109	0.182
-247.005	402.891	-0.095	-0.199
-245.990	538.453	0.057	0.134
-244.976	-81.455	0.117	-0.038
-243.961	27.399	0.278	0.233
-242.946	-82.132	-0.111	0.036
-241.932	-200.000	0.048	-0.224
-240.917	-61.026	-0.091	0.038
-239.903	-73.027	0.089	-0.033
-238.888	435.330	-0.063	0.136
-237.873	104.514	0.032	-0.038
-236.859	-200.000	-0.069	-0.350
-235.844	-107.548	-0.139	-0.030
-234.830	-16.907	-0.100	-0.063
-233.815	-200.000	0.006	0.193
-232.800	-149.373	-0.055	0.004
-231.786	-200.000	0.033	-0.311
-230.771	-200.000	-0.065	-0.318
-229.757	20.495	-0.137	0.110
-228.742	593.167	0.081	0.199
-227.727	-0.025	0.257	0.182
-226.713	-200.000	-0.077	0.000
-225.698	-36.934	0.117	0.062
-224.684	-200.000	-0.013	0.183
-223.669	-108.331	0.169	-0.036
-222.655	677.039	-0.043	0.110
-221.640	-79.158	-0.331	-0.112
-220.625	800.000	-0.080	0.309
-219.611	-126.982	0.134	0.020
-218.596	-180.387	-0.370	-0.008
-217.582	156.611	0.112	-0.153
-216.567	800.000	-0.035	-0.124
-215.552	-200.000	-0.039	-0.241
-214.538	-154.101	0.344	0.023
-213.523	515.271	-0.034	-0.080
-212.509	16.808	-0.143	-0.112
-211.494	-103.123	-0.463	0.109
-210.479	367.840	-0.079	-0.158
-209.465	96.537	-0.161	-0.183
-208.450	-24.424	0.176	0.104
-207.436	800.000	-0.046	-0.136
-206.421	12.356	-0.085	-0.065
-205.406	9.474	0.151	-0.114
-204.392	238.894	0.183	0.302
-203.377	-41.549	-0.208	0.106
-202.363	411.227	0.111	-0.233
-201.348	35.594	-0.226	0.197
-200.333	-160.377	0.452	-0.024
-199.319	-3.513	0.083	-0.057
-198.304	-200.000	0.008	0.105
-197.290	-17.704	0.206	-0.128
-196.275	-158.589	-0.120	0.007
-195.260	31.660	0.155	-0.133
-194.246	34.572	0.132	0.114
-193.231	-139.034	0.158	-0.017
-192.217	-55.837	-0.392	0.173
-191.202	-200.000	0.002	0.024
-190.187	-111.898	0.043	-0.009
-189.173	-200.000	-0.016	-0.118
-188.158	95.089	0.125	-0.142
-187.144	800.000	-0.084	0.242
-186.129	800.000	-0.037	0.104
-185.114	-97.357	0.123	0.032
-184.100	-118.730	0.346	0.060
-183.085	143.570	0.138	-0.182
-182.071	-200.000	0.015	-0.083
-181.056	-200.000	-0.004	0.157
-180.042	800.000	0.063	-0.240
-179.027	189.471	0.146	-0.217
-178.012	-41.193	-0.310	0.159
-176.998	8.946	0.266	-0.199
-175.983	-136.039	-0.079	0.009
-174.969	287.930	-0.107	0.192
-173.954	-100.048	0.101	-0.025
-172.939	217.700	-0.086	-0.137
-171.925	-8.594	0.176	0.117
-170.910	-200.000	0.006	0.062
-169.896	-157.092	0.281	0.017
-168.881	19.468	0.113	-0.090
-167.866	-200.000	-0.061	0.379
-166.852	363.633	-0.101	-0.201
-165.837	28.179	0.168	0.140
-164.823	-96.474	-0.160	-0.042
-163.808	109.390	-0.296	-0.351
-162.793	448.876	-0.039	-0.085
-161.779	-98.141	-0.170	-0.043
-160.764	48.626	0.110	-0.102
-159.750	-200.000	-0.028	-0.222
-158.735	-56.926	0.339	0.148
-157.720	-123.057	0.166	0.026
-156.706	138.776	-0.131	-0.171
-155.691	-133.023	0.276	0.035
-154.677	132.227	-0.129	0.164
-153.662	14.598	0.157	-0.121
-152.647	-81.893	-0.190	-0.062
-151.633	-200.000	0.023	-0.171
-150.618	-103.266	0.361	0.084
-149.604	-171.285	0.243	0.008
-148.589	-200.000	0.017	0.160
-147.574	-200.000	-0.002	-0.117
-146.560	93.496	-0.091	-0.102
-145.545	-200.000	-0.058	-0.346
-144.531	-200.000	0.010	-0.466
-143.516	-200.000	-0.025	-0.111
-142.502	-80.677	0.358	0.118
-141.487	261.174	0.059	-0.101
-140.472	-175.770	-0.320	-0.008
-139.458	-3.636	-0.154	-0.106
-138.443	185.214	0.042	-0.062
-137.429	144.961	-0.065	-0.086
-136.414	-52.253	0.339	-0.155
-135.399	-185.313	-0.045	-0.001
-134.385	-13.873	0.282	0.180
-133.370	260.753	0.114	-0.195
-132.356	-200.000	-0.033	-0.171
-131.341	402.075	0.131	-0.272
-130.326	800.000	-0.036	-0.100
-129.312	-101.399	0.306	0.074
-128.297	-115.132	0.174	0.033
-127.283	297.932	-0.127	0.231
-126.268	328.570	0.162	-0.307
-125.253	-5.783	0.265	-0.179
-124.239	-175.421	-0.273	0.007
-123.224	184.093	0.175	-0.255
-122.210	-44.854	0.257	-0.127
