DTS Sentinel unit serial number:	SN413079Multiplexer serial number:	ORYXHardware model number:	OX4-SRSoftware version number:	ORYX F/W v4.00 Oryx Data Collector v3.7.2.0data status	okinstallation	princeton_trtdifferential loss correction	single-endedforward channel	channel 4reverse channel	N/Adate	2019/09/15time	00:45:35forward acquisition time	60.00reverse acquisition time	0.00gamma	496.2192k internal	0.2306k external	0.2306temperature offset calibration	1.0042default loss term (dB/km)	0.3790temperature slope calibration	1.0000multiplexer offset coefficient	1.0000multiplexer slope coefficient	1.0000fibre end	0.00T internal ref (°C)	32.06T ext. ref 1 (°C)	4.58T ext. ref 2 (°C)	27.04length (m)	temperature (°C)	Stokes	anti-Stokes-747.200	800.000	-0.094	0.332
-746.185	-148.446	-0.376	-0.031
-745.171	134.220	-0.141	-0.186
-744.156	-23.891	0.351	0.214
-743.142	6.577	-0.143	0.108
-742.127	405.559	0.166	0.356
-741.112	27.826	0.086	0.074
-740.098	113.560	-0.218	0.269
-739.083	8.088	-0.097	0.074
-738.069	-99.838	0.198	-0.050
-737.054	-48.109	-0.198	0.097
-736.039	-29.296	-0.306	-0.178
-735.025	112.515	0.056	0.069
-734.010	-200.000	-0.002	-0.330
-732.996	238.240	0.031	-0.053
-731.981	-112.396	0.053	0.011
-730.966	-90.498	0.297	0.087
-729.952	88.005	-0.123	0.139
-728.937	-200.000	-0.039	-0.187
-727.923	697.778	-0.104	0.279
-726.908	-200.000	0.028	0.163
-725.894	-42.488	-0.139	-0.072
-724.879	800.000	0.041	-0.141
-723.864	71.548	-0.146	0.154
-722.850	-95.523	-0.132	-0.036
-721.835	46.752	0.063	-0.059
-720.821	594.348	0.230	-0.579
-719.806	130.029	0.166	-0.216
-718.791	-63.325	-0.442	-0.185
-717.777	9.151	0.061	-0.047
-716.762	-200.000	0.073	-0.340
-715.748	800.000	-0.057	0.182
-714.733	-167.946	-0.201	0.008
-713.718	11.640	-0.275	-0.215
-712.704	541.336	-0.031	-0.075
-711.689	-200.000	-0.036	-0.334
-710.675	-120.665	-0.109	-0.019
-709.660	-191.642	-0.170	0.002
-708.645	354.300	-0.071	-0.143
-707.631	272.825	-0.122	0.219
-706.616	-200.000	-0.010	-0.121
-705.602	475.844	-0.092	-0.212
-704.587	-128.695	0.091	0.013
-703.572	779.532	0.044	0.121
-702.558	-136.839	0.231	0.027
-701.543	-99.626	0.071	0.018
-700.529	91.666	0.094	-0.107
-699.514	270.711	0.153	-0.273
-698.499	-200.000	0.052	0.343
-697.485	-105.148	-0.161	0.037
-696.470	285.063	0.098	-0.179
-695.456	-200.000	-0.030	-0.165
-694.441	217.952	-0.172	-0.278
-693.426	38.912	-0.181	-0.164
-692.412	-200.000	0.000	0.094
-691.397	-130.832	0.237	-0.032
-690.383	509.216	-0.112	-0.265
-689.368	50.473	-0.090	0.086
-688.354	-94.931	0.196	0.054
-687.339	147.380	0.086	0.117
-686.324	-157.301	0.048	-0.003
-685.310	-115.794	0.220	-0.042
-684.295	-118.621	-0.179	-0.032
-683.281	190.392	0.172	-0.262
-682.266	-19.915	0.344	-0.216
-681.251	-200.000	0.035	0.344
-680.237	-166.461	-0.132	-0.006
-679.222	441.704	0.125	0.278
-678.208	800.000	-0.072	-0.241
-677.193	-29.018	-0.130	0.076
-676.178	-200.000	-0.048	-0.237
-675.164	-47.700	-0.057	-0.028
-674.149	800.000	-0.062	-0.188
-673.135	540.370	-0.025	0.059
-672.120	124.404	0.099	0.126
-671.105	-108.381	0.355	0.078
-670.091	384.213	-0.133	-0.277
-669.076	-56.693	-0.443	0.199
-668.062	-100.106	-0.041	0.010
-667.047	-200.000	0.026	-0.139
-666.032	-66.967	0.352	-0.141
-665.018	800.000	-0.031	-0.093
-664.003	-200.000	-0.017	-0.204
-662.989	354.778	-0.109	-0.219
-661.974	-132.444	-0.284	0.037
-660.959	-135.740	0.250	0.030
-659.945	-108.479	-0.424	-0.093
-658.930	800.000	0.083	0.306
-657.916	181.583	0.115	0.171
-656.901	-18.866	-0.112	0.071
-655.886	84.043	0.282	-0.312
-654.872	-97.542	-0.106	-0.028
-653.857	-200.000	-0.018	0.113
-652.843	44.083	0.165	0.153
-651.828	-120.081	-0.348	-0.060
-650.814	143.419	-0.132	-0.178
-649.799	381.086	-0.046	-0.095
-648.784	127.729	0.347	0.447
-647.770	64.659	-0.326	-0.333
-646.755	-200.000	-0.029	-0.376
-645.741	688.818	0.089	0.235
-644.726	-121.027	0.268	-0.046
-643.711	623.632	0.056	0.144
-642.697	163.625	0.089	0.127
-641.682	-200.000	0.008	-0.142
-640.668	80.003	-0.154	-0.168
-639.653	-97.531	-0.130	-0.034
-638.638	-146.292	0.051	-0.005
-637.624	-200.000	0.009	-0.103
-636.609	-21.471	0.153	-0.095
-635.595	-22.359	0.153	0.094
-634.580	-200.000	-0.026	-0.203
-633.565	-118.242	-0.036	0.007
-632.551	241.260	0.057	0.096
-631.536	25.160	-0.022	0.018
-630.522	800.000	-0.026	0.096
-629.507	-200.000	-0.005	-0.120
-628.492	-187.617	-0.170	-0.002
-627.478	-118.104	-0.396	0.072
-626.463	732.219	0.126	-0.342
-625.449	-200.000	0.010	-0.165
-624.434	527.160	0.100	0.238
-623.419	-69.701	0.101	0.039
-622.405	-200.000	0.026	-0.208
-621.390	242.714	-0.133	0.225
-620.376	-200.000	0.060	0.535
-619.361	-62.548	-0.200	-0.084
-618.346	-200.000	0.032	-0.319
-617.332	443.545	0.085	-0.189
-616.317	196.951	0.035	-0.054
-615.303	291.521	0.036	0.067
-614.288	-57.244	0.223	-0.099
-613.273	-200.000	-0.011	0.254
-612.259	431.984	0.117	0.258
-611.244	-200.000	0.015	-0.130
-610.230	-200.000	0.030	-0.283
-609.215	113.400	-0.165	-0.202
-608.201	-77.215	-0.110	0.039
-607.186	301.036	0.111	-0.208
-606.171	8.632	-0.093	0.071
-605.157	-5.970	-0.260	0.180
-604.142	501.291	-0.090	-0.210
-603.128	216.133	-0.073	-0.117
-602.113	275.727	0.078	0.139
-601.098	-200.000	-0.036	-0.162
-600.084	104.808	-0.083	-0.099
-599.069	-165.710	-0.146	0.006
-598.055	11.337	0.062	-0.048
-597.040	800.000	-0.024	0.084
-596.025	3.436	0.171	0.126
-595.011	-200.000	-0.024	-0.122
-593.996	-180.585	0.117	-0.002
-592.982	620.818	0.053	-0.134
-591.967	-200.000	0.005	0.155
-590.952	-129.444	-0.219	-0.031
-589.938	-200.000	0.008	-0.045
-588.923	203.036	0.091	-0.142
-587.909	-200.000	-0.010	-0.106
-586.894	-97.051	-0.190	-0.050
-585.879	154.625	0.160	0.222
-584.865	235.571	0.131	-0.218
-583.850	-175.715	-0.525	-0.014
-582.836	800.000	0.037	-0.113
-581.821	107.507	-0.187	-0.225
-580.806	800.000	-0.014	0.048
-579.792	118.812	-0.132	0.165
-578.777	-9.621	-0.205	0.138
-577.763	800.000	-0.037	0.120
-576.748	126.441	-0.044	-0.057
-575.733	-85.084	0.254	-0.080
-574.719	-97.179	0.275	-0.072
-573.704	796.051	-0.101	0.280
-572.690	-91.723	0.271	0.078
-571.675	-79.981	0.269	-0.091
-570.661	-107.116	-0.046	-0.010
-569.646	-169.993	0.081	0.003
-568.631	-163.945	0.094	-0.004
-567.617	-200.000	-0.025	-0.109
-566.602	164.359	0.037	0.053
-565.588	-155.927	0.190	-0.012
-564.573	800.000	0.123	-0.410
-563.558	800.000	0.038	-0.163
-562.544	-200.000	-0.041	0.401
-561.529	-138.705	0.273	-0.030
-560.515	-62.575	0.360	-0.151
-559.500	387.194	-0.113	-0.237
-558.485	-91.537	-0.021	-0.006
-557.471	-47.872	-0.131	0.064
-556.456	800.000	-0.023	0.079
-555.442	-162.751	-0.305	0.015
-554.427	86.758	-0.065	0.073
-553.412	800.000	0.016	0.050
-552.398	448.635	-0.094	0.209
-551.383	-200.000	-0.000	0.148
-550.369	800.000	0.048	0.156
-549.354	371.289	0.072	0.148
-548.339	-0.388	-0.226	0.162
-547.325	800.000	0.026	-0.087
-546.310	111.649	-0.079	0.097
-545.296	21.393	-0.139	-0.114
-544.281	-167.573	-0.162	-0.007
-543.266	-73.514	0.023	-0.008
-542.252	-49.649	-0.013	0.006
-541.237	-0.640	0.212	0.152
-540.223	-200.000	0.067	0.493
-539.208	-99.964	-0.327	0.082
-538.193	-171.139	-0.192	0.007
-537.179	-63.383	0.278	0.116
-536.164	-200.000	-0.043	-0.368
-535.150	205.291	0.023	0.036
-534.135	137.455	-0.193	-0.255
-533.121	-127.887	-0.260	0.038
-532.106	-27.299	0.128	-0.075
-531.091	332.755	-0.133	0.260
-530.077	-103.089	0.563	0.134
-529.062	-80.786	-0.359	-0.120
-528.048	556.312	0.035	0.084
-527.033	-54.417	-0.297	0.136
-526.018	-40.086	0.277	0.146
-525.004	-63.796	-0.204	-0.084
-523.989	-154.020	0.216	-0.015
-522.975	559.715	-0.080	-0.194
-521.960	-200.000	-0.002	-0.180
-520.945	-200.000	-0.042	0.279
-519.931	23.955	-0.236	0.196
-518.916	297.178	0.046	-0.084
-517.902	-200.000	-0.003	0.166
-516.887	32.210	0.117	-0.102
-515.872	800.000	-0.030	-0.120
-514.858	790.648	0.055	0.152
-513.843	525.118	0.158	0.375
-512.829	71.709	0.110	-0.115
-511.814	656.842	0.073	-0.189
-510.799	-112.613	0.393	0.079
-509.785	-139.578	-0.197	-0.021
-508.770	64.267	-0.106	-0.107
-507.756	130.288	-0.092	-0.119
-506.741	-107.114	0.146	-0.032
-505.726	8.401	-0.237	-0.179
-504.712	-52.319	-0.201	-0.094
-503.697	800.000	0.067	0.204
-502.683	-98.535	0.141	-0.036
-501.668	390.428	-0.085	-0.178
-500.653	800.000	0.058	-0.197
-499.639	-200.000	0.042	0.354
-498.624	-76.076	0.326	-0.116
-497.610	547.464	-0.014	-0.035
-496.595	800.000	-0.062	0.252
-495.581	800.000	0.066	0.275
-494.566	-120.679	0.362	-0.062
-493.551	-200.000	-0.010	0.196
-492.537	-200.000	0.062	0.476
-491.522	-19.976	-0.028	0.018
-490.508	17.965	-0.277	-0.223
-489.493	-200.000	0.035	-0.214
-488.478	-191.414	0.053	0.001
-487.464	263.038	0.071	-0.124
-486.449	253.031	-0.070	-0.120
-485.435	0.056	-0.101	-0.072
-484.420	-142.036	-0.395	-0.040
-483.405	69.562	-0.033	-0.035
-482.391	-200.000	-0.050	0.256
-481.376	-24.016	-0.364	0.219
-480.362	-11.416	0.237	-0.157
-479.347	-76.368	-0.113	-0.040
-478.332	-148.617	0.062	-0.005
-477.318	-17.508	-0.163	0.103
-476.303	391.108	0.155	0.323
-475.289	260.417	-0.110	-0.192
-474.274	332.224	-0.066	-0.128
-473.259	575.240	0.131	0.321
-472.245	76.468	0.103	0.110
-471.230	-69.404	0.371	-0.143
-470.216	-200.000	0.003	-0.162
-469.201	800.000	0.091	-0.395
-468.186	105.826	0.067	-0.080
-467.172	-86.251	0.092	-0.029
-466.157	69.730	-0.091	0.094
-465.143	438.148	0.127	-0.278
-464.128	800.000	0.130	-0.390
-463.113	44.090	-0.080	-0.074
-462.099	-200.000	-0.032	0.201
-461.084	800.000	0.064	-0.261
-460.070	41.427	-0.258	-0.235
-459.055	-200.000	0.027	0.168
-458.040	185.902	0.064	0.096
-457.026	-200.000	-0.064	0.397
-456.011	-81.408	-0.218	0.072
-454.997	-78.578	-0.274	-0.094
-453.982	-45.623	0.281	0.140
-452.968	-4.785	-0.208	0.144
-451.953	145.170	-0.046	0.062
-450.938	-64.761	0.125	0.051
-449.924	305.830	0.006	0.012
-448.909	-200.000	0.036	-0.310
-447.895	-139.862	-0.118	0.013
-446.880	-95.557	0.187	-0.050
-445.865	800.000	-0.063	-0.252
-444.851	8.316	-0.090	0.068
-443.836	90.459	-0.243	-0.274
-442.822	198.643	-0.030	0.046
-441.807	180.834	-0.221	0.326
-440.792	-61.530	0.168	0.071
-439.778	199.477	-0.158	-0.244
-438.763	28.237	0.164	0.139
-437.749	146.027	0.159	0.214
-436.734	75.453	-0.198	-0.210
-435.719	138.628	-0.096	0.127
-434.705	225.012	0.055	0.089
-433.690	92.604	-0.267	0.302
-432.676	86.888	-0.053	-0.059
-431.661	-88.990	0.413	0.123
-430.646	557.079	-0.133	-0.321
-429.632	-39.261	-0.135	0.071
-428.617	22.709	0.048	-0.040
-427.603	76.081	0.163	-0.173
-426.588	493.885	-0.075	0.172
-425.573	101.372	-0.143	0.167
-424.559	-63.827	-0.170	-0.070
-423.544	-99.030	0.187	0.048
-422.530	83.058	-0.109	-0.119
-421.515	-35.529	-0.085	-0.046
-420.500	115.958	-0.121	-0.149
-419.486	-200.000	-0.043	-0.212
-418.471	-200.000	0.023	0.133
-417.457	-200.000	-0.008	0.209
-416.442	-200.000	0.057	0.331
-415.428	539.868	-0.084	0.200
-414.413	2.764	-0.124	0.090
-413.398	144.189	-0.187	0.250
-412.384	-31.823	0.291	0.164
-411.369	-69.640	-0.162	-0.062
-410.355	-141.271	0.307	-0.031
-409.340	3.757	0.226	-0.165
-408.325	-100.113	-0.269	0.067
-407.311	-66.365	-0.204	-0.082
-406.296	-200.000	-0.074	-0.355
-405.282	800.000	0.010	-0.028
-404.267	252.990	0.216	0.371
-403.252	-200.000	-0.181	0.000
-402.238	-54.501	-0.072	0.033
-401.223	-40.675	-0.076	-0.040
-400.209	25.334	-0.301	0.251
-399.194	224.388	0.129	0.209
-398.179	206.608	-0.031	-0.048
-397.165	-86.838	0.129	0.040
-396.150	163.770	-0.079	0.111
-395.136	530.455	0.083	-0.197
-394.121	220.889	-0.069	-0.112
-393.106	-200.000	0.032	0.562
-392.092	124.396	-0.081	-0.102
-391.077	800.000	0.089	-0.302
-390.063	57.395	-0.172	-0.169
-389.048	-45.425	-0.158	0.078
-388.033	-176.832	0.232	-0.006
-387.019	588.474	-0.044	0.108
-386.004	-200.000	-0.003	-0.151
-384.990	-150.610	0.150	-0.011
-383.975	77.605	0.194	0.207
-382.960	238.300	0.058	-0.096
-381.946	702.541	-0.038	0.099
-380.931	-51.467	0.187	-0.088
-379.917	614.362	0.036	-0.090
-378.902	-96.788	-0.447	-0.118
-377.888	800.000	0.080	0.244
-376.873	-194.336	-0.190	-0.002
-375.858	-200.000	0.003	0.099
-374.844	-200.000	0.040	-0.253
-373.829	4.528	0.153	-0.113
-372.815	-200.000	-0.042	0.376
-371.800	-5.132	0.112	-0.077
-370.785	800.000	-0.110	0.326
-369.771	6.770	-0.238	-0.178
-368.756	171.649	0.115	0.165
-367.742	-18.360	-0.291	-0.182
-366.727	95.029	-0.078	0.088
-365.712	-200.000	-0.007	-0.063
-364.698	-21.749	0.258	-0.158
-363.683	-52.983	-0.110	-0.051
-362.669	-43.431	-0.075	0.038
-361.654	-34.734	0.450	-0.247
-360.639	-115.008	0.358	-0.068
-359.625	800.000	-0.016	0.053
-358.610	-31.693	-0.047	0.026
-357.596	603.704	0.013	-0.032
-356.581	-107.919	-0.341	0.074
-355.566	-58.908	0.192	0.083
-354.552	-197.412	-0.127	-0.001
-353.537	4.088	-0.317	-0.233
-352.523	-200.000	0.051	-0.253
-351.508	-147.480	0.361	0.031
-350.493	131.258	-0.157	-0.202
-349.479	-200.000	0.021	0.163
-348.464	371.194	0.063	0.127
-347.450	-79.952	0.216	-0.073
-346.435	3.681	0.150	-0.110
-345.420	216.761	-0.056	-0.090
-344.406	133.972	-0.092	0.119
-343.391	-200.000	-0.033	-0.335
-342.377	-200.000	0.043	-0.206
-341.362	-123.223	-0.320	-0.051
-340.348	-139.400	0.316	0.034
-339.333	-110.185	0.138	-0.029
-338.318	188.482	0.205	-0.308
-337.304	-0.770	-0.108	-0.077
-336.289	-141.597	-0.298	0.030
-335.275	-188.777	0.098	0.001
-334.260	-138.218	-0.266	-0.030
-333.245	325.535	0.092	0.175
-332.231	11.066	0.103	-0.079
-331.216	-113.859	0.311	-0.061
-330.202	66.460	-0.127	0.129
-329.187	-142.112	0.060	0.006
-328.172	800.000	0.031	-0.108
-327.158	548.625	-0.017	0.041
-326.143	-200.000	0.000	0.194
-325.129	-17.106	0.029	0.018
-324.114	-200.000	0.009	-0.057
-323.099	-200.000	0.004	-0.099
-322.085	-40.913	0.106	0.055
-321.070	-36.487	0.097	-0.052
-320.056	179.873	-0.106	-0.156
-319.041	-200.000	0.005	0.101
-318.026	-113.352	0.192	-0.038
-317.012	-30.018	-0.259	-0.147
-315.997	800.000	-0.045	0.141
-314.983	-26.210	0.154	0.090
-313.968	77.457	-0.068	-0.072
-312.953	-7.684	0.175	-0.119
-311.939	147.789	0.267	-0.360
-310.924	107.509	0.233	-0.277
-309.910	47.321	-0.285	-0.265
-308.895	157.981	0.177	0.245
-307.880	207.811	0.158	0.246
-306.866	-200.000	-0.000	0.106
-305.851	-70.692	-0.271	0.102
-304.837	-4.608	-0.160	-0.110
-303.822	57.179	0.089	-0.086
-302.807	-159.134	-0.073	-0.004
-301.793	-200.000	-0.011	0.227
-300.778	237.151	-0.113	-0.187
-299.764	-200.000	0.160	-0.000
-298.749	800.000	-0.029	0.121
-297.735	-171.821	-0.351	-0.011
-296.720	215.568	0.055	0.087
-295.705	65.788	0.095	-0.096
-294.691	20.436	0.308	0.249
-293.676	335.452	-0.088	0.171
-292.662	-112.899	0.375	0.074
-291.647	-39.696	-0.171	0.089
-290.632	667.068	-0.039	0.100
-289.618	106.503	-0.052	-0.061
-288.603	800.000	0.148	0.450
-287.589	21.585	-0.142	-0.116
-286.574	-1.541	0.159	0.112
-285.559	103.180	-0.169	-0.197
-284.545	-200.000	-0.054	0.346
-283.530	49.256	-0.030	0.028
-282.516	-170.457	0.365	-0.013
-281.501	-200.000	0.019	0.125
-280.486	25.427	-0.191	0.159
-279.472	0.314	0.182	0.130
-278.457	210.674	0.164	0.257
-277.443	582.156	0.082	-0.202
-276.428	-90.223	0.230	0.067
-275.413	-3.884	0.152	-0.105
-274.399	4.946	-0.079	0.058
-273.384	800.000	-0.048	0.209
-272.370	-200.000	-0.001	0.233
-271.355	800.000	-0.079	-0.313
-270.340	800.000	-0.035	0.103
-269.326	59.889	0.312	0.308
-268.311	-103.435	-0.602	0.142
-267.297	121.108	0.100	-0.124
-266.282	39.621	0.142	-0.127
-265.267	137.714	0.171	-0.224
-264.253	-103.823	0.420	0.098
-263.238	-29.451	-0.202	0.115
-262.224	-200.000	0.030	-0.413
-261.209	-151.002	0.328	0.025
-260.195	12.251	0.154	-0.118
-259.180	411.588	0.055	-0.117
-258.165	113.919	-0.033	0.040
-257.151	742.142	-0.070	-0.188
-256.136	341.235	0.174	-0.339
-255.122	88.602	0.267	-0.296
-254.107	-106.173	-0.283	-0.063
-253.092	98.687	-0.047	0.054
-252.078	61.135	-0.156	-0.155
-251.063	90.739	-0.223	0.250
-250.049	-116.046	-0.254	-0.047
-249.034	-1.830	-0.164	0.115
-248.019	-32.843	-0.085	0.047
-247.005	-51.271	0.076	0.036
-245.990	360.002	-0.235	0.469
-244.976	-38.172	0.219	-0.116
-243.961	56.629	0.053	-0.051
-242.946	244.044	-0.115	-0.192
-241.932	-152.618	0.183	-0.013
-240.917	-72.858	0.144	-0.053
-239.903	22.803	0.147	0.120
-238.888	151.258	0.193	-0.263
-237.873	445.083	0.040	0.088
-236.859	-200.000	0.044	0.202
-235.844	-200.000	-0.012	-0.158
-234.830	-134.545	-0.350	0.043
-233.815	-200.000	-0.050	-0.315
-232.800	71.420	-0.203	0.210
-231.786	456.033	-0.045	-0.099
-230.771	112.590	-0.116	-0.141
-229.757	-139.597	0.156	-0.017
-228.742	190.566	-0.132	0.198
-227.727	581.448	-0.116	-0.285
-226.713	-158.628	-0.249	-0.014
-225.698	163.742	-0.194	-0.272
-224.684	-200.000	-0.011	0.079
-223.669	407.358	-0.216	0.455
-222.655	-19.295	-0.188	-0.116
-221.640	8.229	-0.166	-0.124
-220.625	-182.739	0.291	-0.005
-219.611	31.981	0.202	-0.173
-218.596	334.616	0.071	-0.138
-217.582	-94.697	-0.294	0.079
-216.567	-125.968	0.088	0.013
-215.552	-111.787	0.130	0.026
-214.538	-114.335	0.201	0.039
-213.523	-29.773	0.142	-0.080
-212.509	400.883	0.144	-0.302
-211.494	-6.251	-0.189	0.128
-210.479	-200.000	-0.318	0.000
-209.465	127.201	0.098	0.124
-208.450	7.813	-0.290	-0.216
-207.436	-60.681	-0.103	-0.043
-206.421	-68.658	0.019	0.007
-205.406	386.747	0.034	-0.070
-204.392	-41.771	0.095	0.048
-203.377	232.767	0.129	-0.211
-202.363	800.000	-0.041	-0.130
-201.348	-158.682	0.148	-0.008
-200.333	-59.552	0.086	-0.037
-199.319	-100.688	-0.335	-0.082
-198.304	248.426	0.139	0.234
-197.290	-138.199	0.469	-0.052
-196.275	341.679	-0.040	-0.077
-195.260	800.000	-0.150	0.425
-194.246	-200.000	-0.025	0.296
-193.231	800.000	0.156	-0.440
-192.217	-33.906	0.066	0.036
-191.202	-200.000	0.014	0.209
-190.187	800.000	0.071	0.274
-189.173	659.330	0.010	0.025
-188.158	6.389	-0.068	-0.050
-187.144	508.904	-0.051	0.117
-186.129	800.000	-0.080	-0.239
-185.114	-19.794	0.036	0.022
-184.100	-49.714	-0.263	-0.124
-183.085	203.529	0.178	0.274
-182.071	800.000	0.029	0.090
-181.056	-200.000	-0.021	-0.376
-180.042	-107.650	0.318	-0.069
-179.027	164.721	-0.092	-0.130
-178.012	800.000	-0.030	0.123
-176.998	369.319	0.034	-0.068
-175.983	-200.000	0.263	0.001
-174.969	20.634	-0.089	0.072
-173.954	-144.279	0.170	0.016
-172.939	-117.185	-0.313	0.057
-171.925	-31.730	-0.080	-0.045
-170.910	-200.000	0.023	0.167
-169.896	576.064	-0.083	0.202
-168.881	-200.000	-0.030	0.255
-167.866	69.033	0.211	-0.216
-166.852	-149.098	0.158	0.013
-165.837	-200.000	-0.240	-0.001
-164.823	-38.072	0.135	-0.071
-163.808	119.903	0.058	0.072
-162.793	82.328	-0.136	-0.147
-161.779	65.232	-0.220	0.221
-160.764	22.761	0.070	0.057
-159.750	-79.608	0.400	-0.134
-158.735	-152.161	-0.140	0.010
-157.720	-74.020	0.212	-0.076
-156.706	172.253	-0.137	-0.195
-155.691	82.260	-0.195	0.210
-154.677	532.652	-0.118	0.277
-153.662	-66.500	-0.048	0.019
-152.647	201.684	0.157	0.241
-151.633	800.000	-0.009	-0.031
-150.618	-200.000	0.048	0.325
-149.604	-168.321	0.173	0.007
-148.589	278.959	-0.101	0.179
-147.574	800.000	-0.048	0.168
-146.560	50.323	-0.276	0.259
-145.545	92.194	-0.073	0.082
-144.531	-184.677	0.456	0.007
-143.516	-128.973	-0.160	0.022
-142.502	-120.557	0.126	0.021
-141.487	-53.552	-0.103	-0.047
-140.472	-64.436	-0.463	-0.187
-139.458	-166.741	-0.193	-0.008
-138.443	-200.000	-0.197	-0.001
-137.429	-76.658	0.059	0.020
-136.414	42.777	0.155	0.140
-135.399	-36.427	-0.053	-0.028
-134.385	165.645	0.115	-0.162
-133.370	126.672	0.182	0.230
-132.356	63.710	0.029	-0.029
-131.341	66.209	0.291	-0.294
-130.326	-139.199	0.202	-0.022
-129.312	610.360	0.037	0.091
-128.297	-200.000	-0.025	0.244
-127.283	800.000	-0.094	0.317
-126.268	-139.688	-0.140	0.015
-125.253	-26.138	0.103	0.060
-124.239	-200.000	0.011	-0.360
-123.224	-200.000	0.032	-0.197
-122.210	43.704	-0.219	0.199
