DTS Sentinel unit serial number:	SN413079Multiplexer serial number:	ORYXHardware model number:	OX4-SRSoftware version number:	ORYX F/W v4.00 Oryx Data Collector v3.7.2.0data status	okinstallation	princeton_trtdifferential loss correction	single-endedforward channel	channel 4reverse channel	N/Adate	2019/09/16time	07:53:35forward acquisition time	60.00reverse acquisition time	0.00gamma	496.2192k internal	0.2316k external	0.2316temperature offset calibration	0.9980default loss term (dB/km)	0.3790temperature slope calibration	1.0000multiplexer offset coefficient	1.0000multiplexer slope coefficient	1.0000fibre end	0.00T internal ref (°C)	28.27T ext. ref 1 (°C)	11.73T ext. ref 2 (°C)	24.70length (m)	temperature (°C)	Stokes	anti-Stokes-747.200	-200.000	-0.007	0.114
-746.185	39.546	-0.353	0.320
-745.171	-200.000	-0.016	-0.171
-744.156	-81.400	0.193	0.065
-743.142	-149.605	0.267	0.021
-742.127	231.140	0.140	0.232
-741.112	-61.208	0.321	0.137
-740.098	-26.084	-0.058	-0.034
-739.083	800.000	0.034	0.099
-738.069	666.297	-0.185	0.483
-737.054	-110.313	0.136	0.029
-736.039	-30.315	-0.172	0.099
-735.025	18.253	0.271	0.219
-734.010	75.629	-0.175	-0.187
-732.996	149.579	-0.180	-0.246
-731.981	402.693	-0.160	0.341
-730.966	540.851	0.143	0.344
-729.952	219.819	-0.064	-0.103
-728.937	34.704	-0.195	-0.173
-727.923	193.499	0.343	0.525
-726.908	8.520	-0.233	-0.178
-725.894	-33.274	0.317	-0.178
-724.879	514.454	-0.049	-0.116
-723.864	-9.971	-0.155	-0.104
-722.850	52.322	-0.082	0.079
-721.835	5.497	-0.029	0.022
-720.821	67.562	0.079	-0.082
-719.806	542.163	0.113	-0.272
-718.791	-200.000	0.061	-0.424
-717.777	416.927	-0.091	0.197
-716.762	-121.649	-0.362	0.061
-715.748	26.240	-0.210	-0.177
-714.733	-70.038	-0.266	-0.103
-713.718	-57.029	-0.346	0.154
-712.704	800.000	-0.108	-0.394
-711.689	-8.937	-0.286	0.194
-710.675	-200.000	-0.053	-0.423
-709.660	-115.387	-0.134	-0.026
-708.645	-18.450	-0.120	0.076
-707.631	22.825	-0.238	0.197
-706.616	-117.749	-0.084	-0.015
-705.602	15.292	-0.210	-0.167
-704.587	-66.320	-0.231	-0.093
-703.572	800.000	0.033	0.121
-702.558	99.816	0.201	-0.235
-701.543	-200.000	-0.026	0.148
-700.529	-200.000	0.004	0.026
-699.514	-150.466	0.080	0.006
-698.499	349.980	-0.096	-0.192
-697.485	262.182	-0.161	-0.283
-696.470	120.155	-0.312	-0.392
-695.456	161.532	-0.020	-0.028
-694.441	203.454	0.216	-0.338
-693.426	-140.123	0.004	-0.000
-692.412	93.484	0.310	0.355
-691.397	133.820	0.153	-0.200
-690.383	-200.000	0.018	-0.142
-689.368	769.516	0.029	0.079
-688.354	-52.252	-0.453	-0.212
-687.339	-200.000	-0.007	-0.137
-686.324	-200.000	0.024	-0.228
-685.310	213.189	0.153	0.244
-684.295	-69.931	-0.313	0.121
-683.281	-200.000	0.011	0.161
-682.266	-56.393	-0.136	-0.061
-681.251	23.675	0.111	0.093
-680.237	49.449	-0.394	-0.374
-679.222	260.647	-0.074	0.130
-678.208	178.019	-0.106	-0.156
-677.193	123.367	0.217	-0.274
-676.178	-200.000	0.108	-0.575
-675.164	101.592	0.176	-0.208
-674.149	800.000	-0.073	-0.249
-673.135	722.365	0.032	0.086
-672.120	800.000	0.141	-0.425
-671.105	278.803	-0.058	-0.104
-670.091	-200.000	-0.116	0.000
-669.076	44.266	-0.049	-0.045
-668.062	-200.000	-0.083	-0.420
-667.047	147.820	0.007	0.009
-666.032	-92.065	0.132	-0.038
-665.018	-77.085	-0.187	0.066
-664.003	-11.715	0.269	-0.178
-662.989	-200.000	-0.016	0.577
-661.974	325.290	-0.230	-0.445
-660.959	-14.182	0.100	0.065
-659.945	-43.255	0.147	-0.075
-658.930	800.000	0.138	0.400
-657.916	-54.790	0.143	-0.065
-656.901	-27.064	0.235	0.138
-655.886	800.000	0.024	0.090
-654.872	25.499	-0.211	0.178
-653.857	800.000	0.010	-0.044
-652.843	-193.213	0.219	-0.002
-651.828	-200.000	0.070	-0.496
-650.814	-65.722	0.152	0.062
-649.799	-86.343	0.030	0.009
-648.784	311.012	0.046	-0.087
-647.770	-84.172	0.048	0.015
-646.755	718.267	0.051	0.136
-645.741	368.346	0.107	0.219
-644.726	-91.358	-0.508	-0.147
-643.711	-179.917	0.089	-0.002
-642.697	800.000	0.056	-0.245
-641.682	109.208	0.299	-0.362
-640.668	-82.162	-0.143	-0.047
-639.653	800.000	-0.059	-0.206
-638.638	-101.817	-0.340	-0.083
-637.624	625.092	0.092	-0.234
-636.609	53.619	-0.029	0.028
-635.595	-200.000	0.016	0.156
-634.580	70.553	-0.047	0.049
-633.565	41.235	-0.185	0.169
-632.551	-163.249	-0.202	0.010
-631.536	800.000	0.022	-0.066
-630.522	162.069	-0.203	-0.286
-629.507	606.545	0.064	0.161
-628.492	800.000	-0.026	0.092
-627.478	-200.000	-0.033	-0.184
-626.463	568.964	-0.128	0.313
-625.449	-91.061	-0.149	0.043
-624.434	226.730	-0.036	-0.058
-623.419	153.084	0.026	-0.036
-622.405	800.000	0.090	-0.324
-621.390	-166.465	0.193	-0.008
-620.376	-3.052	-0.093	0.065
-619.361	800.000	-0.031	-0.114
-618.346	-61.639	0.127	0.054
-617.332	200.047	-0.209	-0.324
-616.317	407.797	-0.119	-0.253
-615.303	-200.000	-0.023	-0.193
-614.288	8.590	0.130	-0.098
-613.273	-200.000	0.001	0.295
-612.259	-116.022	0.169	-0.032
-611.244	-200.000	-0.012	0.293
-610.230	-200.000	0.011	-0.146
-609.215	-148.396	0.212	0.018
-608.201	-44.446	-0.142	-0.071
-607.186	-4.248	-0.334	-0.233
-606.171	208.184	0.186	-0.293
-605.157	-53.595	-0.230	0.106
-604.142	-26.861	-0.356	-0.210
-603.128	-12.006	-0.214	-0.142
-602.113	-143.486	0.253	-0.024
-601.098	-61.887	-0.258	-0.109
-600.084	-200.000	-0.029	0.226
-599.069	43.444	0.196	0.181
-598.055	22.092	0.071	0.058
-597.040	-59.240	0.346	0.150
-596.025	140.846	0.069	0.091
-595.011	4.975	0.139	-0.103
-593.996	-37.740	-0.120	0.064
-592.982	56.847	-0.211	-0.207
-591.967	-24.734	0.129	-0.077
-590.952	594.109	-0.127	-0.317
-589.938	-200.000	0.052	-0.243
-588.923	1.664	0.208	0.151
-587.909	-28.804	-0.228	0.132
-586.894	155.091	0.154	0.213
-585.879	-12.975	0.155	0.101
-584.865	-200.000	-0.180	0.000
-583.850	-116.760	0.163	0.030
-582.836	338.457	0.121	0.238
-581.821	-174.267	-0.116	0.003
-580.806	182.319	0.132	0.196
-579.792	379.469	-0.079	-0.162
-578.777	5.160	0.166	0.123
-577.763	-12.439	-0.181	0.119
-576.748	-98.971	-0.234	-0.060
-575.733	-89.190	0.100	0.030
-574.719	-85.870	-0.073	-0.023
-573.704	-200.000	-0.007	-0.043
-572.690	-111.137	-0.030	0.006
-571.675	62.739	-0.140	-0.141
-570.661	175.575	0.138	0.201
-569.646	-200.000	0.025	0.282
-568.631	-59.243	-0.183	0.079
-567.617	-70.760	0.429	-0.163
-566.602	203.112	0.050	-0.077
-565.588	254.597	0.023	-0.039
-564.573	-86.970	0.214	-0.066
-563.558	-200.000	-0.036	0.214
-562.544	226.969	-0.102	-0.167
-561.529	47.354	0.032	-0.030
-560.515	11.647	-0.220	-0.170
-559.500	-156.329	-0.183	0.012
-558.485	59.381	0.214	-0.212
-557.471	800.000	0.134	0.398
-556.456	70.104	-0.043	-0.044
-555.442	-20.271	-0.117	0.072
-554.427	-126.788	0.188	-0.028
-553.412	800.000	0.003	0.009
-552.398	-139.296	-0.531	-0.057
-551.383	-90.655	0.076	0.022
-550.369	800.000	0.142	-0.430
-549.354	303.921	-0.035	0.066
-548.339	-161.981	0.222	-0.011
-547.325	-36.400	-0.262	-0.142
-546.310	-133.112	0.206	0.026
-545.296	-200.000	-0.270	0.000
-544.281	-132.426	-0.375	0.049
-543.266	-23.526	-0.076	-0.046
-542.252	49.855	0.247	0.234
-541.237	-4.783	-0.139	-0.096
-540.223	461.182	-0.048	-0.108
-539.208	800.000	-0.096	0.277
-538.193	-200.000	-0.005	0.111
-537.179	800.000	-0.094	-0.379
-536.164	-165.477	0.139	0.006
-535.150	15.380	0.227	0.179
-534.135	-5.509	-0.221	0.153
-533.121	800.000	0.065	-0.227
-532.106	-114.771	-0.165	-0.032
-531.091	50.917	-0.050	0.048
-530.077	-50.511	0.057	0.027
-529.062	281.380	-0.173	-0.311
-528.048	62.294	0.218	-0.219
-527.033	305.129	0.123	-0.229
-526.018	-92.489	-0.026	-0.007
-525.004	342.947	-0.130	-0.256
-523.989	734.105	0.053	0.144
-522.975	-162.815	0.267	-0.013
-521.960	-34.809	-0.340	-0.186
-520.945	800.000	0.088	0.295
-519.931	39.129	0.071	0.064
-518.916	-15.526	-0.116	-0.074
-517.902	23.616	0.054	0.045
-516.887	-200.000	-0.056	-0.320
-515.872	36.695	-0.100	0.088
-514.858	72.163	-0.103	0.108
-513.843	800.000	0.065	0.270
-512.829	-42.356	-0.237	0.121
-511.814	765.106	0.164	-0.447
-510.799	-29.890	-0.165	-0.094
-509.785	576.864	0.080	0.195
-508.770	132.560	-0.172	0.223
-507.756	-199.860	-0.177	0.001
-506.741	39.725	0.028	-0.025
-505.726	800.000	-0.057	0.238
-504.712	-122.964	-0.073	0.012
-503.697	737.711	0.034	-0.091
-502.683	383.149	0.078	0.162
-501.668	-31.541	0.325	-0.183
-500.653	-200.000	-0.003	-0.066
-499.639	-42.104	-0.251	0.129
-498.624	9.177	-0.144	0.109
-497.610	-115.034	0.076	-0.015
-496.595	46.628	-0.066	0.061
-495.581	497.551	0.072	-0.165
-494.566	-138.444	-0.194	-0.021
-493.551	65.515	0.067	0.068
-492.537	279.165	0.017	0.030
-491.522	-138.169	0.213	0.024
-490.508	-120.809	-0.304	-0.051
-489.493	-200.000	0.031	-0.291
-488.478	-77.848	-0.161	0.056
-487.464	-127.696	0.406	-0.059
-486.449	-104.667	-0.231	-0.053
-485.435	304.561	-0.095	-0.178
-484.420	534.348	0.181	0.431
-483.405	-26.732	-0.357	0.210
-482.391	67.281	-0.059	-0.060
-481.376	152.531	-0.079	-0.108
-480.362	-200.000	-0.044	-0.312
-479.347	247.713	0.091	0.154
-478.332	435.734	0.116	-0.252
-477.318	280.940	0.212	0.380
-476.303	428.170	-0.114	0.246
-475.289	44.442	-0.129	0.119
-474.274	-200.000	0.039	0.178
-473.259	181.921	-0.128	-0.189
-472.245	800.000	-0.071	0.266
-471.230	55.843	-0.100	0.097
-470.216	800.000	0.055	0.213
-469.201	90.432	0.240	-0.269
-468.186	219.248	-0.089	0.143
-467.172	800.000	0.039	0.115
-466.157	53.970	-0.158	-0.152
-465.143	20.526	0.179	0.145
-464.128	200.662	0.025	-0.039
-463.113	768.586	-0.107	0.292
-462.099	184.559	-0.077	0.114
-461.084	-138.496	-0.232	-0.026
-460.070	-100.789	-0.312	0.077
-459.055	49.030	-0.126	0.118
-458.040	799.176	0.096	-0.266
-457.026	130.963	-0.224	-0.288
-456.011	41.231	-0.157	-0.142
-454.997	507.040	0.070	0.163
-453.982	-200.000	-0.027	-0.186
-452.968	-6.263	-0.241	0.165
-451.953	-100.637	-0.060	-0.015
-450.938	-200.000	0.064	-0.309
-449.924	30.638	0.351	-0.301
-448.909	-184.383	-0.289	-0.005
-447.895	123.909	-0.164	-0.206
-446.880	311.257	0.080	-0.150
-445.865	154.000	0.071	-0.097
-444.851	800.000	-0.027	-0.092
-443.836	-200.000	-0.007	-0.150
-442.822	-88.203	0.205	0.062
-441.807	-34.145	-0.107	-0.059
-440.792	800.000	-0.061	0.191
-439.778	-91.833	0.157	-0.045
-438.763	796.600	0.023	0.064
-437.749	-13.057	0.239	0.156
-436.734	297.948	-0.068	0.124
-435.719	-44.958	-0.136	-0.068
-434.705	-155.222	-0.059	-0.004
-433.690	-152.297	-0.265	0.019
-432.676	-62.583	-0.111	0.046
-431.661	722.429	-0.028	0.074
-430.646	-200.000	0.177	-0.001
-429.632	449.989	-0.184	-0.405
-428.617	-200.000	0.033	0.387
-427.603	-200.000	0.024	-0.231
-426.588	340.953	-0.217	0.424
-425.573	325.655	-0.181	0.346
-424.559	-15.289	0.246	-0.157
-423.544	-25.076	-0.157	-0.093
-422.530	-29.940	-0.209	0.119
-421.515	-200.000	0.004	-0.124
-420.500	-200.000	-0.015	-0.334
-419.486	47.693	-0.403	-0.377
-418.471	-200.000	0.014	-0.147
-417.457	-136.646	0.479	-0.055
-416.442	-55.601	-0.174	-0.078
-415.428	119.729	0.169	-0.209
-414.413	-200.000	-0.222	0.000
-413.398	-80.856	-0.292	0.097
-412.384	-162.864	-0.244	0.012
-411.369	163.821	-0.107	0.151
-410.355	-177.158	0.137	0.003
-409.340	-48.979	-0.202	0.097
-408.325	14.371	0.094	0.074
-407.311	122.294	0.086	0.107
-406.296	-96.093	0.127	-0.034
-405.282	16.405	0.221	0.175
-404.267	15.519	0.124	-0.098
-403.252	24.539	0.157	0.130
-402.238	145.008	-0.026	-0.034
-401.223	50.670	0.287	0.271
-400.209	-140.709	0.055	0.006
-399.194	68.037	-0.024	0.025
-398.179	-97.917	-0.176	-0.045
-397.165	800.000	0.040	-0.144
-396.150	-32.680	0.173	0.096
-395.136	310.389	0.131	-0.244
-394.121	553.005	0.139	0.335
-393.106	77.911	-0.052	-0.056
-392.092	-33.637	0.176	-0.097
-391.077	-94.770	-0.095	0.026
-390.063	-200.000	-0.024	0.405
-389.048	-116.959	0.075	0.014
-388.033	-50.783	-0.099	0.046
-387.019	94.943	-0.039	-0.044
-386.004	-88.894	0.148	0.044
-384.990	-111.291	-0.210	-0.043
-383.975	-26.046	-0.124	0.073
-382.960	-130.275	-0.075	-0.010
-381.946	223.660	-0.030	0.048
-380.931	24.367	-0.005	-0.004
-379.917	-165.047	0.094	0.004
-378.902	-87.597	0.507	-0.153
-377.888	33.682	-0.186	-0.162
-376.873	-32.067	0.122	0.068
-375.858	49.043	-0.230	-0.215
-374.844	555.881	-0.090	-0.216
-373.829	-30.732	0.214	-0.121
-372.815	26.109	0.218	0.182
-371.800	-122.551	-0.324	0.053
-370.785	-96.160	0.177	-0.047
-369.771	204.118	-0.175	-0.270
-368.756	147.874	0.187	-0.252
-367.742	322.657	0.119	0.227
-366.727	-76.279	-0.202	0.071
-365.712	800.000	0.091	0.308
-364.698	231.382	0.116	0.190
-363.683	459.348	-0.136	0.302
-362.669	140.615	0.114	0.151
-361.654	-200.000	0.008	0.234
-360.639	-200.000	0.004	0.289
-359.625	162.529	-0.180	-0.251
-358.610	-29.729	-0.154	0.088
-357.596	-63.105	-0.162	-0.067
-356.581	-200.000	0.081	-0.409
-355.566	98.898	0.100	-0.115
-354.552	-99.326	-0.135	0.034
-353.537	379.315	-0.195	-0.397
-352.523	169.227	0.123	0.175
-351.508	14.112	0.129	-0.100
-350.493	800.000	-0.003	0.010
-349.479	-196.869	-0.340	-0.002
-348.464	-15.065	-0.105	0.067
-347.450	-83.513	0.186	0.059
-346.435	476.324	0.180	0.407
-345.420	391.379	0.135	-0.281
-344.406	117.362	-0.270	0.331
-343.391	51.216	-0.352	0.333
-342.377	-200.000	-0.025	0.244
-341.362	117.771	0.247	0.303
-340.348	800.000	-0.062	-0.213
-339.333	-200.000	-0.022	0.098
-338.318	-200.000	0.082	0.433
-337.304	83.091	-0.180	-0.195
-336.289	-168.193	-0.200	-0.008
-335.275	32.110	0.389	-0.335
-334.260	234.972	0.135	-0.223
-333.245	-2.904	0.268	0.187
-332.231	115.837	-0.140	-0.171
-331.216	-18.120	-0.142	0.088
-330.202	-44.618	-0.369	-0.184
-329.187	-200.000	0.039	0.321
-328.172	-200.000	-0.027	0.520
-327.158	188.887	-0.196	0.292
-326.143	-115.585	0.340	0.064
-325.129	-1.108	-0.151	-0.106
-324.114	-192.428	-0.283	0.003
-323.099	800.000	0.143	-0.399
-322.085	370.735	0.193	-0.389
-321.070	734.859	-0.066	-0.177
-320.056	-200.000	-0.010	-0.130
-319.041	-200.000	-0.024	0.143
-318.026	-59.738	-0.365	-0.156
-317.012	365.336	0.065	-0.131
-315.997	10.550	0.204	-0.155
-314.983	14.727	-0.105	0.081
-313.968	800.000	0.027	-0.082
-312.953	-25.146	0.060	0.035
-311.939	-133.639	0.126	0.016
-310.924	800.000	0.030	0.088
-309.910	-93.689	0.233	-0.064
-308.895	-200.000	0.017	-0.262
-307.880	-48.730	0.151	-0.072
-306.866	-62.398	0.288	-0.119
-305.851	32.613	-0.098	0.084
-304.837	800.000	0.069	-0.254
-303.822	380.822	-0.117	-0.239
-302.807	570.400	0.032	0.077
-301.793	-200.000	0.026	-0.163
-300.778	75.496	-0.090	-0.095
-299.764	114.809	-0.154	0.187
-298.749	212.058	-0.068	-0.106
-297.735	-73.209	0.424	0.155
-296.720	-200.000	-0.055	-0.246
-295.705	-45.299	-0.272	0.135
-294.691	-56.053	0.188	0.083
-293.676	-45.412	0.064	-0.031
-292.662	-11.507	-0.291	-0.190
-291.647	440.282	-0.157	0.342
-290.632	-200.000	0.018	0.394
-289.618	262.417	-0.196	0.338
-288.603	-107.737	-0.158	0.034
-287.589	-14.905	0.117	0.075
-286.574	73.321	-0.169	-0.176
-285.559	233.251	0.259	-0.425
-284.545	-200.000	0.011	0.266
-283.530	-200.000	0.019	0.097
-282.516	-123.144	0.474	-0.076
-281.501	-0.824	-0.053	0.038
-280.486	-64.376	0.076	0.031
-279.472	-22.381	0.393	-0.237
-278.457	27.675	0.007	0.006
-277.443	-192.725	0.182	-0.002
-276.428	800.000	0.097	0.317
-275.413	-152.312	0.244	0.017
-274.399	224.446	-0.046	0.074
-273.384	-50.841	0.274	-0.128
-272.370	455.862	-0.118	0.260
-271.355	-30.708	-0.388	0.218
-270.340	218.578	0.031	-0.049
-269.326	800.000	-0.078	-0.243
-268.311	533.532	-0.083	0.196
-267.297	322.349	-0.056	0.107
-266.282	162.768	0.105	-0.146
-265.267	755.076	0.046	0.123
-264.253	102.353	0.090	0.104
-263.238	34.933	-0.210	-0.183
-262.224	-200.000	0.006	0.174
-261.209	-200.000	-0.009	-0.094
-260.195	372.870	0.158	-0.320
-259.180	-36.000	0.043	-0.023
-258.165	800.000	0.056	-0.196
-257.151	230.662	-0.059	0.097
-256.136	800.000	-0.044	0.168
-255.122	-1.853	0.145	-0.102
-254.107	21.208	-0.111	0.090
-253.092	-200.000	-0.053	0.247
-252.078	-103.540	-0.388	-0.091
-251.063	2.280	0.224	0.161
-250.049	-80.987	-0.512	-0.169
-249.034	33.059	-0.144	-0.124
-248.019	800.000	0.077	0.222
-247.005	64.179	0.246	0.246
-245.990	-200.000	0.003	0.230
-244.976	-37.096	-0.203	0.108
-243.961	701.688	0.148	0.387
-242.946	-144.315	0.413	-0.038
-241.932	-174.876	-0.058	-0.002
-240.917	33.682	0.345	0.298
-239.903	-80.174	-0.365	-0.122
-238.888	-38.236	0.311	0.164
-237.873	-117.964	0.222	0.039
-236.859	-200.000	-0.001	-0.054
-235.844	187.543	-0.170	0.251
-234.830	-77.647	0.262	0.090
-233.815	-142.648	0.327	0.032
-232.800	-122.155	0.161	0.026
-231.786	800.000	0.076	-0.248
-230.771	-81.071	0.159	0.052
-229.757	81.616	0.170	-0.182
-228.742	-79.568	0.258	-0.087
-227.727	-62.094	0.387	0.161
-226.713	319.668	0.185	-0.349
-225.698	-148.665	0.040	-0.003
-224.684	56.335	-0.182	0.176
-223.669	375.242	0.127	-0.257
-222.655	131.526	0.031	0.040
-221.640	5.846	0.213	-0.156
-220.625	-200.000	-0.027	-0.139
-219.611	-103.295	0.141	-0.033
-218.596	277.766	-0.043	0.076
-217.582	-200.000	0.004	0.105
-216.567	722.043	-0.090	0.238
-215.552	434.217	-0.054	-0.117
-214.538	800.000	-0.011	0.044
-213.523	152.945	-0.167	0.226
-212.509	-16.222	-0.232	0.146
-211.494	-7.969	0.254	0.170
-210.479	138.730	0.039	-0.051
-209.465	-126.918	0.095	0.014
-208.450	-0.510	-0.074	0.052
-207.436	-74.471	0.114	-0.041
-206.421	-200.000	0.083	0.374
-205.406	-44.038	-0.222	0.110
-204.392	-200.000	0.007	0.033
-203.377	-109.499	-0.208	-0.044
-202.363	-200.000	0.002	-0.109
-201.348	75.524	-0.123	0.129
-200.333	-171.923	0.096	0.003
-199.319	800.000	0.060	-0.205
-198.304	-200.000	0.009	-0.208
-197.290	-76.420	0.077	-0.027
-196.275	-80.959	0.234	0.077
-195.260	-116.875	0.387	-0.070
-194.246	-33.431	-0.400	-0.219
-193.231	25.003	-0.073	0.060
-192.217	-200.000	0.020	0.227
-191.202	-200.000	0.048	-0.220
-190.187	-37.954	0.248	-0.131
-189.173	191.194	-0.231	-0.345
-188.158	-75.409	0.131	-0.046
-187.144	-200.000	0.059	0.272
-186.129	-6.969	-0.196	0.132
-185.114	262.372	-0.113	0.194
-184.100	-97.793	0.285	-0.073
-183.085	35.830	0.113	-0.099
-182.071	-200.000	-0.064	0.381
-181.056	134.257	0.204	-0.262
-180.042	-141.390	-0.186	0.019
-179.027	800.000	0.035	0.125
-178.012	-109.329	0.155	0.033
-176.998	-47.028	0.128	-0.062
-175.983	394.358	-0.053	-0.109
-174.969	-200.000	-0.005	-0.050
-173.954	45.091	0.252	0.230
-172.939	135.586	0.110	0.142
-171.925	-144.421	0.133	-0.012
-170.910	233.480	0.108	-0.176
-169.896	-73.780	0.225	-0.081
-168.881	-114.552	-0.249	-0.047
-167.866	423.860	-0.112	-0.239
-166.852	800.000	0.029	-0.122
-165.837	-39.707	0.090	0.047
-164.823	-65.270	-0.322	0.128
-163.808	-200.000	0.050	0.220
-162.793	610.389	0.079	-0.195
-161.779	800.000	0.103	-0.297
-160.764	-79.280	0.356	0.119
-159.750	-90.863	0.402	0.115
-158.735	-200.000	-0.040	-0.350
-157.720	-200.000	0.037	0.190
-156.706	-95.572	-0.487	-0.129
-155.691	47.754	-0.192	-0.177
-154.677	439.119	-0.143	0.308
-153.662	693.554	0.079	0.205
-152.647	53.541	0.268	-0.255
-151.633	27.868	0.098	-0.082
-150.618	-200.000	0.012	0.138
-149.604	-157.136	0.172	0.010
-148.589	-43.200	0.187	-0.094
-147.574	-120.706	0.356	0.060
-146.560	132.135	-0.066	-0.084
-145.545	246.566	0.086	0.144
-144.531	-1.715	0.124	-0.087
-143.516	321.665	-0.026	0.049
-142.502	-200.000	-0.041	-0.207
-141.487	216.706	-0.024	0.038
-140.472	57.032	-0.109	0.105
-139.458	800.000	0.041	0.131
-138.443	-200.000	0.022	0.158
-137.429	73.112	-0.107	0.111
-136.414	-122.121	-0.095	-0.015
-135.399	201.884	-0.099	0.150
-134.385	-99.095	-0.084	0.021
-133.370	-57.285	-0.183	0.080
-132.356	251.910	-0.036	-0.060
-131.341	-8.291	-0.223	0.149
-130.326	-35.735	0.373	-0.200
-129.312	800.000	0.186	-0.530
-128.297	-147.084	-0.202	-0.017
-127.283	-96.250	0.253	-0.066
-126.268	-200.000	0.057	-0.270
-125.253	-107.237	0.074	0.016
-124.239	-200.000	-0.068	0.328
-123.224	-29.407	-0.097	-0.055
-122.210	253.983	0.098	0.165
-121.195	655.025	-0.144	0.365
-120.180	355.263	0.143	-0.281
