DTS Sentinel unit serial number:	SN413079Multiplexer serial number:	ORYXHardware model number:	OX4-SRSoftware version number:	ORYX F/W v4.00 Oryx Data Collector v3.7.2.0data status	okinstallation	princeton_trtdifferential loss correction	single-endedforward channel	channel 4reverse channel	N/Adate	2019/09/16time	11:25:35forward acquisition time	60.00reverse acquisition time	0.00gamma	496.2192k internal	0.2296k external	0.2296temperature offset calibration	0.9952default loss term (dB/km)	0.3790temperature slope calibration	1.0000multiplexer offset coefficient	1.0000multiplexer slope coefficient	1.0000fibre end	0.00T internal ref (°C)	37.44T ext. ref 1 (°C)	12.91T ext. ref 2 (°C)	35.10length (m)	temperature (°C)	Stokes	anti-Stokes-747.200	15.196	0.200	-0.161
-746.185	-200.000	0.043	0.433
-745.171	-200.000	0.012	-0.065
-744.156	-25.090	-0.109	-0.066
-743.142	-47.471	0.156	-0.078
-742.127	800.000	-0.060	0.248
-741.112	-200.000	0.011	0.220
-740.098	-86.593	0.286	0.089
-739.083	349.326	-0.133	0.268
-738.069	393.112	-0.083	0.175
-737.054	298.355	-0.119	-0.224
-736.039	113.092	-0.203	0.251
-735.025	-77.316	0.079	0.028
-734.010	-147.214	0.162	0.014
-732.996	75.398	0.069	0.074
-731.981	800.000	0.089	-0.275
-730.966	-177.893	0.148	0.004
-729.952	-163.695	-0.563	0.027
-728.937	-158.563	-0.142	0.008
-727.923	-200.000	-0.001	-0.215
-726.908	800.000	-0.041	0.155
-725.894	800.000	0.013	0.041
-724.879	-42.892	0.092	-0.048
-723.864	310.540	0.115	-0.220
-722.850	278.101	-0.067	-0.121
-721.835	-65.097	0.257	0.106
-720.821	421.049	-0.032	0.069
-719.806	-141.678	-0.158	0.016
-718.791	-200.000	0.037	0.228
-717.777	-91.222	-0.108	-0.032
-716.762	240.328	-0.247	0.419
-715.748	81.484	-0.113	-0.125
-714.733	281.189	-0.105	-0.192
-713.718	-200.000	0.042	0.228
-712.704	-122.221	0.179	0.030
-711.689	-52.396	-0.209	-0.099
-710.675	-200.000	-0.018	-0.219
-709.660	800.000	-0.038	0.122
-708.645	-200.000	0.029	-0.195
-707.631	-147.919	-0.227	-0.019
-706.616	-53.378	-0.255	0.119
-705.602	800.000	-0.017	0.070
-704.587	225.976	-0.239	-0.396
-703.572	58.039	-0.239	0.239
-702.558	-15.932	-0.160	0.104
-701.543	-200.000	0.014	-0.109
-700.529	146.878	0.074	0.101
-699.514	-200.000	0.022	0.135
-698.499	354.596	0.075	0.152
-697.485	800.000	0.098	-0.286
-696.470	41.964	0.095	0.088
-695.456	-13.263	0.235	0.155
-694.441	-200.000	-0.002	0.164
-693.426	800.000	-0.031	0.112
-692.412	167.376	-0.096	-0.139
-691.397	-23.481	0.334	0.205
-690.383	112.829	0.090	-0.112
-689.368	800.000	0.014	-0.052
-688.354	72.734	-0.039	-0.042
-687.339	-14.549	-0.349	0.229
-686.324	267.390	0.074	0.132
-685.310	-58.654	-0.293	0.129
-684.295	-161.960	0.707	0.036
-683.281	142.364	0.075	0.102
-682.266	51.341	-0.152	-0.147
-681.251	20.884	0.246	-0.203
-680.237	-46.234	-0.246	-0.123
-679.222	-80.931	0.090	-0.030
-678.208	44.557	0.119	-0.111
-677.193	-139.326	-0.161	-0.018
-676.178	-79.471	-0.157	-0.054
-675.164	800.000	0.111	-0.331
-674.149	12.940	-0.130	0.102
-673.135	800.000	-0.034	0.113
-672.120	800.000	0.113	-0.391
-671.105	-54.010	-0.207	-0.096
-670.091	-53.031	-0.114	-0.053
-669.076	128.989	-0.140	0.182
-668.062	257.410	-0.079	-0.138
-667.047	-66.071	-0.062	0.025
-666.032	800.000	-0.069	0.196
-665.018	800.000	-0.072	-0.223
-664.003	800.000	-0.087	-0.340
-662.989	231.665	-0.191	-0.320
-661.974	375.179	0.159	-0.330
-660.959	-145.056	-0.179	-0.017
-659.945	800.000	0.015	-0.044
-658.930	166.063	-0.107	-0.154
-657.916	342.146	-0.126	0.250
-656.901	140.698	-0.078	0.104
-655.886	98.187	0.209	-0.245
-654.872	332.300	-0.060	-0.117
-653.857	350.725	-0.144	-0.290
-652.843	-26.999	0.176	0.105
-651.828	-47.735	-0.051	-0.025
-650.814	127.115	-0.382	-0.493
-649.799	201.673	0.084	-0.131
-648.784	141.222	-0.149	-0.201
-647.770	-111.571	0.021	-0.004
-646.755	162.390	0.203	0.290
-645.741	159.816	0.145	-0.205
-644.726	102.259	-0.163	0.194
-643.711	-36.359	-0.186	0.102
-642.697	800.000	-0.123	-0.402
-641.682	-79.024	-0.122	-0.042
-640.668	-200.000	-0.051	0.318
-639.653	-3.852	0.042	0.030
-638.638	-200.000	-0.009	-0.098
-637.624	-66.678	-0.219	-0.088
-636.609	-107.646	0.204	0.045
-635.595	111.568	0.074	-0.091
-634.580	-47.230	0.134	0.066
-633.565	80.093	-0.180	-0.197
-632.551	229.605	-0.150	-0.249
-631.536	-131.604	0.291	-0.039
-630.522	-65.405	-0.277	-0.113
-629.507	-200.000	-0.004	-0.088
-628.492	800.000	-0.081	0.277
-627.478	-73.536	-0.306	-0.114
-626.463	-200.000	0.019	0.253
-625.449	88.068	-0.189	0.213
-624.434	-73.846	0.196	0.072
-623.419	-110.317	-0.188	-0.040
-622.405	-106.633	0.171	0.039
-621.390	648.125	0.103	0.269
-620.376	-73.544	-0.152	-0.057
-619.361	177.176	0.059	-0.087
-618.346	-110.693	-0.163	0.034
-617.332	37.729	-0.106	0.096
-616.317	229.423	-0.081	-0.134
-615.303	720.627	0.043	-0.117
-614.288	320.953	0.058	-0.112
-613.273	-61.997	-0.170	-0.072
-612.259	48.376	-0.169	-0.161
-611.244	-28.612	0.225	-0.132
-610.230	213.275	-0.056	-0.089
-609.215	192.237	-0.083	-0.128
-608.201	125.840	-0.148	0.190
-607.186	-123.641	0.116	0.019
-606.171	-32.168	0.081	-0.046
-605.157	648.278	0.047	0.122
-604.142	-128.415	0.046	-0.007
-603.128	-145.026	-0.290	-0.027
-602.113	-45.559	-0.206	0.104
-601.098	16.290	-0.152	0.122
-600.084	800.000	-0.058	-0.201
-599.069	-200.000	0.022	-0.336
-598.055	800.000	0.127	-0.420
-597.040	-200.000	0.047	0.277
-596.025	-105.046	0.326	0.076
-595.011	131.166	-0.119	0.155
-593.996	449.148	-0.178	-0.399
-592.982	-104.291	0.218	0.051
-591.967	-200.000	0.002	0.123
-590.952	-162.270	0.171	0.009
-589.938	-200.000	-0.032	-0.197
-588.923	-200.000	-0.042	-0.259
-587.909	53.926	-0.197	-0.193
-586.894	172.605	-0.075	-0.110
-585.879	-106.193	-0.102	0.023
-584.865	-96.385	0.198	0.053
-583.850	-107.043	-0.247	0.055
-582.836	56.951	-0.071	-0.070
-581.821	431.189	-0.058	-0.127
-580.806	32.579	-0.190	0.166
-579.792	-5.379	0.314	-0.219
-578.777	-126.660	0.142	-0.021
-577.763	-81.257	0.356	-0.119
-576.748	-200.000	0.002	0.053
-575.733	-125.417	-0.167	-0.026
-574.719	-176.354	-0.065	-0.002
-573.704	-200.000	-0.019	-0.158
-572.690	-95.446	-0.091	0.025
-571.675	201.901	0.201	-0.315
-570.661	800.000	0.045	0.151
-569.646	198.791	-0.178	0.277
-568.631	37.239	-0.073	-0.066
-567.617	-41.891	0.167	0.087
-566.602	-3.329	-0.133	0.094
-565.588	800.000	0.056	-0.233
-564.573	52.314	-0.166	-0.161
-563.558	-74.827	0.082	-0.030
-562.544	18.655	0.252	0.205
-561.529	-71.347	-0.213	0.081
-560.515	-68.292	0.292	-0.115
-559.500	111.690	-0.137	0.167
-558.485	800.000	-0.038	-0.115
-557.471	30.474	0.076	-0.066
-556.456	-200.000	-0.002	-0.012
-555.442	20.606	-0.095	0.078
-554.427	-85.363	0.108	0.034
-553.412	-200.000	0.021	-0.125
-552.398	157.602	0.056	-0.078
-551.383	-23.636	0.093	-0.057
-550.369	800.000	0.080	-0.335
-549.354	800.000	0.104	0.432
-548.339	583.057	-0.029	0.073
-547.325	9.981	0.070	-0.054
-546.310	-200.000	-0.009	0.123
-545.296	800.000	0.069	0.212
-544.281	32.926	0.198	-0.174
-543.266	-200.000	-0.002	0.255
-542.252	228.000	0.092	-0.152
-541.237	485.135	-0.118	-0.271
-540.223	191.951	-0.224	0.343
-539.208	134.171	-0.153	-0.202
-538.193	-0.864	-0.133	-0.096
-537.179	25.251	0.105	0.089
-536.164	-63.683	-0.271	-0.113
-535.150	-200.000	0.003	-0.076
-534.135	83.305	0.030	-0.034
-533.121	-95.323	0.123	0.033
-532.106	800.000	0.049	0.172
-531.091	-172.092	-0.113	-0.004
-530.077	40.112	0.310	-0.283
-529.062	-200.000	0.011	0.110
-528.048	307.263	-0.136	-0.257
-527.033	391.063	0.092	0.194
-526.018	800.000	0.044	0.160
-525.004	-55.571	0.107	0.049
-523.989	158.471	-0.222	-0.312
-522.975	-41.931	0.020	0.011
-521.960	273.681	0.112	-0.200
-520.945	-200.000	-0.020	-0.185
-519.931	-151.423	0.360	-0.027
-518.916	-200.000	-0.009	-0.153
-517.902	424.137	0.145	-0.316
-516.887	-9.185	-0.165	0.112
-515.872	-165.236	-0.347	0.015
-514.858	602.518	-0.062	-0.156
-513.843	-161.583	-0.402	-0.021
-512.829	-200.000	0.069	0.420
-511.814	49.876	-0.157	-0.150
-510.799	31.643	0.110	0.096
-509.785	-144.268	0.122	-0.012
-508.770	-141.704	-0.011	0.001
-507.756	-126.038	-0.201	0.030
-506.741	202.113	-0.227	0.354
-505.726	-150.469	-0.202	-0.016
-504.712	-40.468	-0.289	-0.152
-503.697	800.000	-0.093	0.281
-502.683	-200.000	0.017	-0.177
-501.668	-69.054	-0.218	0.085
-500.653	9.368	-0.351	-0.269
-499.639	-61.946	-0.249	0.105
-498.624	-200.000	0.002	-0.146
-497.610	-200.000	-0.006	-0.315
-496.595	800.000	0.060	-0.230
-495.581	76.761	0.327	-0.351
-494.566	-200.000	0.026	-0.427
-493.551	-200.000	-0.004	-0.057
-492.537	636.878	0.072	0.185
-491.522	686.876	-0.108	-0.286
-490.508	128.974	-0.055	0.071
-489.493	96.672	-0.223	0.258
-488.478	-200.000	0.028	0.162
-487.464	-200.000	0.061	0.303
-486.449	-157.169	-0.273	-0.017
-485.435	800.000	-0.080	0.335
-484.420	-93.706	0.025	0.007
-483.405	191.130	0.132	0.201
-482.391	33.122	0.341	-0.299
-481.376	-121.953	0.630	-0.105
-480.362	-98.095	-0.016	-0.004
-479.347	-200.000	-0.027	0.335
-478.332	-200.000	-0.000	-0.113
-477.318	-46.985	-0.365	-0.180
-476.303	-76.349	0.167	0.060
-475.289	-16.393	0.186	0.119
-474.274	790.285	-0.074	0.207
-473.259	-41.791	-0.126	-0.065
-472.245	84.123	-0.171	0.189
-471.230	-127.123	-0.296	0.044
-470.216	-57.347	0.230	0.102
-469.201	-71.424	-0.104	0.039
-468.186	-136.947	-0.288	-0.033
-467.172	800.000	0.052	0.162
-466.157	-200.000	-0.009	-0.143
-465.143	-200.000	0.020	0.485
-464.128	800.000	-0.094	0.266
-463.113	-65.209	0.187	0.076
-462.099	-200.000	-0.074	0.484
-461.084	-114.586	-0.082	-0.016
-460.070	-76.449	-0.313	-0.111
-459.055	-152.492	0.407	0.029
-458.040	-159.787	-0.158	0.009
-457.026	-127.166	0.169	-0.025
-456.011	-20.767	-0.183	0.114
-454.997	-200.000	0.033	-0.169
-453.982	-91.666	0.233	0.067
-452.968	-86.113	-0.297	0.093
-451.953	-200.000	-0.004	0.217
-450.938	-66.332	-0.198	-0.079
-449.924	-64.292	0.352	-0.145
-448.909	-129.781	-0.394	0.055
-447.895	-200.000	0.029	0.316
-446.880	-88.107	0.329	-0.100
-445.865	-147.407	0.325	0.028
-444.851	-117.455	-0.185	0.034
-443.836	-200.000	0.035	-0.198
-442.822	-200.000	-0.024	0.115
-441.807	-11.437	0.127	-0.084
-440.792	-200.000	-0.019	-0.295
-439.778	-66.366	0.282	-0.113
-438.763	113.520	0.218	0.268
-437.749	494.522	-0.088	-0.205
-436.734	-129.587	0.299	-0.042
-435.719	18.192	0.155	0.125
-434.705	-1.873	0.172	-0.122
-433.690	-200.000	0.051	-0.250
-432.676	-200.000	-0.065	-0.380
-431.661	-103.102	-0.198	0.047
-430.646	800.000	-0.039	-0.138
-429.632	-200.000	-0.010	-0.066
-428.617	800.000	-0.078	0.320
-427.603	142.315	0.005	-0.007
-426.588	113.813	-0.067	0.083
-425.573	800.000	0.033	0.136
-424.559	-26.280	-0.446	0.264
-423.544	-70.133	0.083	-0.032
-422.530	695.036	0.015	0.039
-421.515	-131.302	0.192	-0.026
-420.500	206.612	0.090	-0.141
-419.486	54.598	-0.189	-0.184
-418.471	-200.000	-0.019	-0.140
-417.457	800.000	-0.053	0.209
-416.442	144.738	0.022	-0.029
-415.428	-40.441	-0.293	0.154
-414.413	-200.000	-0.023	-0.140
-413.398	800.000	0.012	-0.042
-412.384	-200.000	0.008	-0.164
-411.369	-128.442	-0.145	0.021
-410.355	16.284	0.097	-0.077
-409.340	445.083	0.127	-0.281
-408.325	-200.000	0.037	0.359
-407.311	97.583	0.205	-0.237
-406.296	-48.757	0.130	-0.063
-405.282	-200.000	0.058	-0.268
-404.267	-200.000	0.017	-0.540
-403.252	800.000	0.029	0.096
-402.238	189.631	0.153	-0.232
-401.223	-84.441	-0.239	-0.076
-400.209	389.576	0.150	0.313
-399.194	434.233	-0.056	0.123
-398.179	434.604	0.066	-0.145
-397.165	738.385	-0.093	0.251
-396.150	153.417	0.123	-0.169
-395.136	-164.532	0.158	-0.007
-394.121	86.203	-0.187	0.208
-393.106	-15.226	0.018	-0.012
-392.092	-55.705	-0.034	-0.015
-391.077	-200.000	-0.017	-0.118
-390.063	-1.967	0.344	0.243
-389.048	-98.086	0.161	0.042
-388.033	195.066	-0.141	0.216
-387.019	-47.715	0.077	0.037
-386.004	92.357	-0.082	0.093
-384.990	7.970	0.149	0.112
-383.975	-200.000	-0.007	-0.187
-382.960	-51.571	0.118	-0.056
-381.946	-99.365	-0.205	-0.052
-380.931	-200.000	-0.003	0.022
-379.917	-110.752	0.222	0.046
-378.902	-43.852	0.220	-0.112
-377.888	-66.899	0.157	-0.062
-376.873	9.993	-0.240	0.184
-375.858	-134.680	-0.263	0.032
-374.844	-187.323	-0.199	0.003
-373.829	800.000	-0.054	0.173
-372.815	-200.000	-0.013	0.131
-371.800	-200.000	-0.039	0.258
-370.785	800.000	0.123	0.443
-369.771	787.897	-0.041	-0.114
-368.756	-87.923	0.330	0.100
-367.742	112.344	0.160	-0.195
-366.727	217.842	0.131	0.210
-365.712	67.892	0.208	-0.214
-364.698	-200.000	0.017	-0.097
-363.683	-117.534	0.278	-0.051
-362.669	-36.818	-0.291	-0.157
-361.654	-50.691	0.205	-0.097
-360.639	1.456	-0.169	-0.123
-359.625	-36.819	0.467	-0.252
-358.610	389.081	-0.097	-0.202
-357.596	616.587	-0.123	0.309
-356.581	-156.872	-0.134	-0.008
-355.566	-91.807	-0.348	0.099
-354.552	-76.324	-0.134	0.047
-353.537	-32.346	0.066	0.037
-352.523	617.036	0.011	-0.027
-351.508	800.000	0.069	-0.217
-350.493	-200.000	-0.043	0.205
-349.479	-158.971	0.077	-0.004
-348.464	-200.000	0.010	0.328
-347.450	-200.000	-0.002	0.090
-346.435	390.834	0.099	-0.207
-345.420	606.717	-0.083	0.208
-344.406	-89.525	0.137	-0.041
-343.391	61.009	0.163	0.162
-342.377	533.593	0.116	0.277
-341.362	144.735	-0.167	-0.225
-340.348	235.754	-0.144	-0.239
-339.333	-200.000	0.015	-0.361
-338.318	-200.000	0.017	-0.266
-337.304	800.000	-0.116	0.378
-336.289	331.391	-0.016	0.030
-335.275	800.000	0.076	0.242
-334.260	-55.333	0.295	0.133
-333.245	-13.126	-0.210	0.137
-332.231	800.000	0.031	0.133
-331.216	576.109	-0.050	0.122
-330.202	313.110	0.088	-0.166
-329.187	-200.000	-0.035	-0.254
-328.172	141.707	-0.119	-0.159
-327.158	-200.000	-0.001	0.147
-326.143	-106.857	0.194	-0.043
-325.129	325.303	0.171	-0.329
-324.114	-3.978	0.211	-0.147
-323.099	-200.000	0.047	0.241
-322.085	-109.158	-0.188	0.040
-321.070	-53.962	0.077	-0.035
-320.056	-143.642	-0.182	-0.017
-319.041	97.272	-0.084	0.097
-318.026	-193.128	0.396	-0.004
-317.012	108.105	0.074	0.089
-315.997	-200.000	-0.002	-0.222
-314.983	-51.954	0.204	0.095
-313.968	-200.000	-0.009	0.200
-312.953	-197.164	0.055	0.000
-311.939	-200.000	0.280	-0.001
-310.924	-151.704	0.238	-0.018
-309.910	-45.552	0.160	-0.080
-308.895	800.000	-0.095	0.324
-307.880	102.865	-0.146	-0.172
-306.866	800.000	-0.017	0.049
-305.851	-200.000	0.031	0.343
-304.837	-122.303	-0.121	-0.020
-303.822	-200.000	-0.032	-0.273
-302.807	-200.000	-0.002	0.069
-301.793	254.712	0.079	-0.137
-300.778	361.339	0.090	0.182
-299.764	390.098	-0.163	-0.340
-298.749	-127.356	-0.164	-0.024
-297.735	-138.457	-0.191	0.021
-296.720	-167.027	-0.139	0.006
-295.705	370.812	-0.069	0.141
-294.691	800.000	-0.053	0.191
-293.676	-131.714	-0.143	0.019
-292.662	800.000	-0.154	-0.502
-291.647	255.456	0.104	0.179
-290.632	-200.000	0.002	-0.046
-289.618	-40.361	-0.220	0.115
-288.603	64.219	-0.289	-0.292
-287.589	394.142	-0.084	-0.176
-286.574	-99.025	-0.134	0.034
-285.559	541.718	-0.045	0.108
-284.545	-200.000	0.019	0.325
-283.530	551.104	-0.049	0.118
-282.516	-176.559	-0.107	-0.003
-281.501	-70.575	-0.197	0.075
-280.486	-117.354	-0.065	-0.012
-279.472	-200.000	0.021	0.223
-278.457	68.690	-0.252	-0.259
-277.443	727.787	-0.114	-0.306
-276.428	8.490	0.113	0.085
-275.413	-200.000	0.078	0.517
-274.399	46.220	0.185	0.172
-273.384	153.159	-0.152	0.208
-272.370	31.747	0.097	0.083
-271.355	-200.000	-0.079	0.536
-270.340	63.095	-0.088	0.089
-269.326	800.000	0.109	-0.398
-268.311	20.434	-0.311	-0.252
-267.297	49.896	0.225	-0.213
-266.282	800.000	-0.039	0.155
-265.267	82.758	0.248	0.271
-264.253	77.231	0.162	0.173
-263.238	800.000	0.047	0.170
-262.224	-200.000	-0.017	-0.088
-261.209	-62.685	-0.137	-0.057
-260.195	-25.247	0.274	0.163
-259.180	-121.653	0.078	0.013
-258.165	-117.376	0.116	0.021
-257.151	800.000	0.029	0.118
-256.136	21.531	-0.061	0.049
-255.122	-12.402	-0.264	0.173
-254.107	-200.000	0.086	0.459
-253.092	-38.819	-0.041	0.022
-252.078	163.090	0.137	-0.193
-251.063	800.000	0.105	0.394
-250.049	-11.652	-0.173	0.114
-249.034	-153.017	-0.074	0.005
-248.019	46.231	0.093	0.087
-247.005	-200.000	-0.007	-0.258
-245.990	190.580	0.130	-0.196
-244.976	-35.252	0.096	-0.052
-243.961	800.000	-0.041	0.148
-242.946	12.503	0.177	0.137
-241.932	-200.000	-0.004	0.219
-240.917	474.757	-0.045	-0.101
-239.903	156.917	0.108	-0.149
-238.888	-127.402	-0.315	-0.046
-237.873	-200.000	0.042	0.218
-236.859	244.532	0.112	0.188
-235.844	455.211	-0.091	-0.202
-234.830	51.051	-0.303	0.287
-233.815	-120.267	0.118	0.020
-232.800	48.723	0.140	-0.132
-231.786	227.335	-0.046	0.075
-230.771	-1.877	0.209	-0.147
-229.757	-107.140	-0.129	-0.028
-228.742	165.215	0.077	0.109
-227.727	800.000	-0.082	0.333
-226.713	800.000	-0.040	0.166
-225.698	-63.294	-0.334	0.138
-224.684	136.868	-0.104	-0.136
-223.669	117.410	-0.067	0.082
-222.655	-200.000	-0.001	-0.338
-221.640	-200.000	-0.045	-0.201
-220.625	-200.000	-0.045	0.225
-219.611	-147.513	0.296	0.025
-218.596	273.945	0.117	-0.207
-217.582	54.125	0.036	0.034
-216.567	-98.652	-0.242	-0.062
-215.552	504.642	0.158	-0.366
-214.538	650.176	0.069	0.177
-213.523	145.125	-0.249	0.334
-212.509	-99.485	-0.176	-0.044
-211.494	322.729	0.031	0.058
-210.479	528.580	-0.029	0.068
-209.465	-145.505	0.270	0.024
-208.450	-200.000	0.021	0.420
-207.436	-14.884	0.207	-0.133
-206.421	800.000	0.025	-0.069
-205.406	800.000	0.086	0.249
-204.392	566.613	0.034	-0.083
-203.377	-82.926	-0.233	-0.075
-202.363	220.912	0.070	0.112
-201.348	-200.000	0.020	-0.101
-200.333	-200.000	-0.050	0.287
-199.319	408.930	0.041	0.088
-198.304	180.816	-0.057	-0.083
-197.290	-43.483	0.455	-0.230
-196.275	37.632	-0.059	0.052
-195.260	342.846	-0.127	0.248
-194.246	61.274	0.069	0.069
-193.231	40.848	-0.203	-0.183
-192.217	-86.296	0.462	-0.142
-191.202	-200.000	-0.037	-0.195
-190.187	-200.000	0.009	0.242
-189.173	7.402	-0.135	-0.101
-188.158	-200.000	-0.023	-0.106
-187.144	800.000	0.096	-0.309
-186.129	-200.000	0.020	0.114
-185.114	-120.322	0.325	-0.055
-184.100	77.820	-0.294	-0.313
-183.085	434.002	-0.012	-0.025
-182.071	-118.054	-0.225	0.040
-181.056	582.053	0.085	-0.207
-180.042	-85.833	0.102	-0.032
-179.027	-48.764	-0.281	0.135
-178.012	-200.000	0.023	-0.217
-176.998	-87.384	-0.192	0.058
-175.983	143.210	0.162	-0.216
-174.969	-93.431	0.173	0.048
-173.954	-200.000	0.018	0.166
-172.939	-200.000	-0.016	-0.135
-171.925	-82.436	-0.203	0.066
-170.910	30.356	-0.110	0.094
-169.896	-11.162	0.423	-0.279
-168.881	-7.572	0.311	0.210
-167.866	385.970	-0.013	0.028
-166.852	-0.933	-0.264	0.187
-165.837	-200.000	0.040	-0.255
-164.823	-13.859	0.178	-0.115
-163.808	129.786	-0.144	-0.183
-162.793	602.215	-0.180	0.448
-161.779	-200.000	0.025	-0.144
-160.764	-147.676	0.151	0.013
-159.750	300.486	-0.064	-0.118
-158.735	-120.470	-0.197	0.033
-157.720	100.470	0.161	0.187
-156.706	355.454	0.214	-0.424
-155.691	-148.860	0.280	0.023
-154.677	-27.462	0.237	0.138
-153.662	-117.258	0.249	-0.045
-152.647	-200.000	0.062	-0.358
-151.633	18.047	-0.116	-0.092
-150.618	-38.843	0.433	0.228
-149.604	185.286	-0.102	0.150
-148.589	65.306	-0.109	-0.110
-147.574	-200.000	0.007	-0.065
-146.560	81.450	0.248	-0.268
-145.545	486.203	0.070	-0.160
-144.531	710.435	-0.072	-0.191
-143.516	170.444	-0.077	0.110
-142.502	4.267	-0.208	0.152
-141.487	800.000	-0.066	0.231
-140.472	276.953	0.211	0.374
-139.458	84.966	-0.092	-0.100
-138.443	-77.452	-0.288	0.100
-137.429	-76.172	-0.129	0.045
-136.414	-96.256	0.119	0.031
-135.399	216.542	0.141	0.224
-134.385	-155.460	-0.035	0.002
-133.370	22.620	-0.052	-0.042
-132.356	23.954	0.208	-0.171
-131.341	-200.000	0.093	0.420
-130.326	-200.000	0.001	-0.013
-129.312	-200.000	0.010	0.248
-128.297	64.919	0.218	-0.219
-127.283	-74.861	0.354	-0.127
-126.268	16.731	0.135	0.107
-125.253	-170.876	0.170	0.006
-124.239	-74.297	-0.375	0.135
-123.224	-98.798	-0.143	-0.036
-122.210	513.708	0.102	0.236
