DTS Sentinel unit serial number:	SN413079Multiplexer serial number:	ORYXHardware model number:	OX4-SRSoftware version number:	ORYX F/W v4.00 Oryx Data Collector v3.7.2.0data status	okinstallation	princeton_trtdifferential loss correction	single-endedforward channel	channel 4reverse channel	N/Adate	2019/09/14time	17:05:34forward acquisition time	60.00reverse acquisition time	0.00gamma	496.2192k internal	0.2293k external	0.2293temperature offset calibration	1.0119default loss term (dB/km)	0.3790temperature slope calibration	1.0000multiplexer offset coefficient	1.0000multiplexer slope coefficient	1.0000fibre end	0.00T internal ref (°C)	37.97T ext. ref 1 (°C)	5.01T ext. ref 2 (°C)	33.03length (m)	temperature (°C)	Stokes	anti-Stokes-747.200	-79.144	0.198	0.069
-746.185	-200.000	-0.011	0.315
-745.171	-89.344	0.552	-0.166
-744.156	-200.000	-0.011	0.268
-743.142	-84.997	-0.156	0.050
-742.127	-61.997	-0.147	0.063
-741.112	631.407	0.053	0.138
-740.098	-151.016	0.208	-0.016
-739.083	278.174	-0.051	-0.093
-738.069	171.805	0.183	0.268
-737.054	-29.066	0.016	-0.010
-736.039	62.370	-0.304	0.310
-735.025	549.942	0.122	-0.299
-734.010	800.000	-0.051	-0.159
-732.996	-7.553	-0.322	-0.223
-731.981	-24.881	-0.444	-0.269
-730.966	102.299	0.169	0.201
-729.952	37.938	0.166	0.151
-728.937	-105.906	-0.070	-0.016
-727.923	-200.000	0.008	-0.127
-726.908	-12.406	-0.363	0.243
-725.894	284.048	0.049	-0.090
-724.879	-66.446	-0.051	-0.021
-723.864	-200.000	0.018	-0.159
-722.850	-200.000	-0.036	-0.241
-721.835	-200.000	0.033	-0.282
-720.821	36.250	-0.217	-0.195
-719.806	-113.110	0.121	-0.024
-718.791	347.341	0.125	-0.252
-717.777	280.019	-0.065	0.118
-716.762	798.071	0.077	0.216
-715.748	-54.882	0.390	-0.180
-714.733	-132.733	-0.783	-0.102
-713.718	800.000	0.091	0.400
-712.704	-11.611	-0.184	-0.124
-711.689	207.780	-0.094	-0.150
-710.675	105.026	0.078	-0.094
-709.660	66.123	0.053	0.055
-708.645	-15.139	-0.114	0.074
-707.631	-94.983	-0.118	-0.033
-706.616	6.153	-0.179	-0.136
-705.602	-200.000	0.002	-0.172
-704.587	-48.146	0.142	-0.070
-703.572	-200.000	0.026	0.210
-702.558	-102.697	-0.464	0.113
-701.543	68.340	0.137	-0.143
-700.529	637.446	-0.110	-0.286
-699.514	-69.852	0.293	0.114
-698.499	48.885	-0.309	0.296
-697.485	23.236	-0.163	0.137
-696.470	-200.000	-0.003	0.172
-695.456	-28.074	-0.127	0.075
-694.441	321.721	-0.227	-0.441
-693.426	58.359	-0.160	-0.161
-692.412	800.000	-0.150	0.571
-691.397	-79.162	-0.566	0.196
-690.383	141.693	-0.118	0.160
-689.368	-200.000	-0.061	0.340
-688.354	-200.000	0.082	-0.479
-687.339	256.800	0.028	0.050
-686.324	-191.025	-0.127	-0.001
-685.310	-2.119	0.318	-0.228
-684.295	113.831	-0.283	-0.351
-683.281	-61.724	0.179	-0.077
-682.266	-147.300	-0.066	0.006
-681.251	-66.508	-0.426	-0.173
-680.237	-82.008	-0.171	0.057
-679.222	-200.000	-0.029	-0.428
-678.208	132.448	0.100	-0.132
-677.193	-22.000	0.232	-0.144
-676.178	-200.000	0.017	-0.094
-675.164	800.000	0.107	-0.414
-674.149	3.045	0.201	-0.149
-673.135	249.114	-0.171	-0.296
-672.120	-200.000	0.017	-0.099
-671.105	-200.000	0.037	0.174
-670.091	203.865	-0.091	0.143
-669.076	800.000	-0.075	-0.302
-668.062	6.787	-0.088	0.067
-667.047	-200.000	-0.020	-0.339
-666.032	-157.990	0.220	-0.013
-665.018	-189.406	0.266	-0.003
-664.003	800.000	0.084	-0.307
-662.989	-3.233	-0.072	-0.052
-661.974	-200.000	-0.044	-0.465
-660.959	-156.833	-0.259	0.016
-659.945	-65.078	0.359	-0.148
-658.930	153.463	-0.207	-0.289
-657.916	48.015	0.086	0.082
-656.901	-11.630	-0.107	0.072
-655.886	-147.875	0.129	0.011
-654.872	-64.163	0.296	0.123
-653.857	88.873	-0.054	0.061
-652.843	196.682	-0.041	0.064
-651.828	80.844	-0.150	-0.165
-650.814	171.887	0.093	-0.136
-649.799	-200.000	-0.047	0.340
-648.784	-31.572	0.143	-0.082
-647.770	48.613	0.206	-0.197
-646.755	-200.000	-0.030	-0.251
-645.741	-142.319	-0.199	0.020
-644.726	-120.531	0.174	0.030
-643.711	367.235	0.052	-0.106
-642.697	711.270	0.022	-0.059
-641.682	77.822	0.127	0.138
-640.668	547.442	-0.092	-0.225
-639.653	31.188	0.133	-0.117
-638.638	108.636	0.134	-0.164
-637.624	172.660	-0.087	-0.128
-636.609	-64.044	0.194	0.081
-635.595	-167.161	0.186	0.008
-634.580	95.970	-0.093	-0.108
-633.565	381.613	-0.069	0.144
-632.551	-50.945	-0.089	-0.043
-631.536	713.337	0.100	-0.271
-630.522	-124.771	-0.106	0.017
-629.507	577.679	-0.179	0.446
-628.492	-200.000	-0.002	0.110
-627.478	-91.203	0.491	-0.143
-626.463	339.172	-0.056	0.111
-625.449	290.850	-0.087	-0.161
-624.434	256.447	0.039	-0.068
-623.419	-53.096	-0.419	-0.196
-622.405	-200.000	0.007	0.115
-621.390	-54.453	-0.330	0.152
-620.376	68.142	-0.160	0.167
-619.361	-200.000	-0.002	0.137
-618.346	34.150	-0.169	0.150
-617.332	17.188	-0.144	0.116
-616.317	-75.929	-0.169	-0.061
-615.303	152.952	0.116	0.161
-614.288	-110.517	-0.165	-0.035
-613.273	-92.022	-0.269	0.078
-612.259	-135.574	-0.052	0.006
-611.244	-106.685	0.015	0.003
-610.230	115.909	-0.133	0.166
-609.215	-200.000	0.003	-0.176
-608.201	680.856	0.120	0.319
-607.186	-155.548	0.266	0.017
-606.171	-76.209	-0.238	-0.086
-605.157	329.833	0.102	-0.201
-604.142	-200.000	0.008	-0.305
-603.128	-200.000	0.016	-0.110
-602.113	213.155	0.108	0.174
-601.098	-87.670	-0.161	0.049
-600.084	195.557	-0.118	0.182
-599.069	-26.957	0.280	-0.166
-598.055	6.171	0.086	0.065
-597.040	57.678	-0.203	0.202
-596.025	-76.577	-0.172	0.062
-595.011	-57.276	0.146	-0.066
-593.996	21.392	-0.239	-0.198
-592.982	501.445	0.139	0.327
-591.967	121.405	0.203	-0.257
-590.952	99.446	-0.056	-0.066
-589.938	673.344	0.124	0.326
-588.923	-129.668	-0.504	0.071
-587.909	-97.325	-0.122	0.032
-586.894	69.856	0.125	-0.131
-585.879	-107.963	0.128	-0.028
-584.865	37.003	0.110	0.099
-583.850	-123.249	0.196	0.032
-582.836	-63.253	0.222	0.093
-581.821	25.686	0.207	0.175
-580.806	-66.993	0.184	0.074
-579.792	-95.701	-0.172	0.047
-578.777	-15.158	-0.083	0.054
-577.763	-39.435	-0.173	-0.092
-576.748	306.726	0.068	0.129
-575.733	-111.864	-0.231	0.048
-574.719	800.000	0.025	-0.079
-573.704	255.735	-0.099	-0.173
-572.690	96.353	-0.255	-0.297
-571.675	792.982	0.143	-0.400
-570.661	484.380	-0.109	-0.253
-569.646	5.404	0.110	-0.083
-568.631	-6.650	-0.048	0.033
-567.617	-22.376	-0.259	-0.160
-566.602	-195.184	-0.022	-0.000
-565.588	-200.000	0.004	0.494
-564.573	-200.000	-0.008	0.119
-563.558	-111.236	0.080	-0.017
-562.544	700.058	0.095	-0.255
-561.529	-106.254	0.105	0.024
-560.515	-9.217	-0.140	0.095
-559.500	-200.000	0.002	-0.073
-558.485	108.278	0.203	-0.246
-557.471	385.027	0.201	-0.421
-556.456	-166.074	0.373	0.016
-555.442	612.144	0.053	0.136
-554.427	162.112	-0.121	0.172
-553.412	113.812	-0.174	0.215
-552.398	-200.000	0.034	0.272
-551.383	481.949	-0.047	-0.108
-550.369	15.179	-0.225	-0.179
-549.354	-110.293	-0.186	0.039
-548.339	-125.529	0.114	-0.018
-547.325	-200.000	-0.001	0.134
-546.310	255.605	-0.070	0.122
-545.296	82.705	-0.264	0.291
-544.281	24.322	-0.204	0.171
-543.266	-200.000	0.003	0.082
-542.252	-90.423	-0.194	0.057
-541.237	149.086	-0.173	0.237
-540.223	-131.551	0.153	-0.020
-539.208	-33.167	0.320	0.180
-538.193	-22.857	-0.287	0.176
-537.179	-56.756	0.271	-0.122
-536.164	-56.034	-0.148	0.067
-535.150	134.779	-0.149	-0.197
-534.135	161.229	0.229	-0.325
-533.121	369.876	0.010	-0.021
-532.106	-52.910	0.357	-0.167
-531.091	-38.851	0.267	-0.143
-530.077	69.789	-0.083	0.087
-529.062	-44.778	-0.017	0.009
-528.048	-156.769	-0.045	-0.003
-527.033	49.760	-0.129	0.123
-526.018	-47.897	0.370	0.182
-525.004	-10.720	-0.068	-0.045
-523.989	-82.036	0.208	0.069
-522.975	-35.582	-0.167	0.092
-521.960	800.000	0.017	0.059
-520.945	-200.000	-0.027	0.140
-519.931	137.481	-0.121	0.161
-518.916	-200.000	-0.027	-0.144
-517.902	329.102	-0.082	-0.160
-516.887	101.556	-0.049	-0.058
-515.872	-125.189	-0.270	0.042
-514.858	-59.899	0.228	0.099
-513.843	-45.332	0.223	0.112
-512.829	-200.000	-0.004	0.107
-511.814	800.000	0.044	0.188
-510.799	-171.576	-0.209	-0.007
-509.785	-200.000	-0.045	-0.245
-508.770	-33.149	-0.357	0.201
-507.756	-56.651	0.112	0.050
-506.741	280.413	-0.054	0.097
-505.726	47.103	0.149	-0.140
-504.712	16.056	-0.185	0.148
-503.697	165.461	-0.229	-0.329
-502.683	-154.607	-0.370	-0.025
-501.668	107.175	0.131	-0.158
-500.653	800.000	-0.034	0.109
-499.639	-200.000	-0.052	-0.000
-498.624	-200.000	0.002	0.243
-497.610	-136.828	-0.222	0.026
-496.595	-80.891	-0.046	-0.015
-495.581	-200.000	0.015	-0.227
-494.566	171.831	0.161	-0.234
-493.551	-161.781	-0.319	0.016
-492.537	-200.000	0.017	0.278
-491.522	22.954	-0.285	-0.237
-490.508	198.685	-0.094	-0.146
-489.493	-42.256	0.136	-0.071
-488.478	-157.240	-0.436	0.027
-487.464	357.862	0.026	0.053
-486.449	256.836	0.113	-0.197
-485.435	188.817	0.208	-0.315
-484.420	593.382	0.094	-0.235
-483.405	-74.428	0.089	0.032
-482.391	-70.538	0.264	0.101
-481.376	-139.999	-0.233	-0.025
-480.362	156.586	0.142	-0.199
-479.347	-200.000	-0.034	0.355
-478.332	-200.000	0.025	0.344
-477.318	724.044	-0.025	0.066
-476.303	111.670	-0.095	0.117
-475.289	13.998	0.064	0.050
-474.274	-122.869	-0.142	0.023
-473.259	128.378	0.025	-0.032
-472.245	-14.056	-0.226	-0.147
-471.230	-102.999	-0.243	0.058
-470.216	-115.742	-0.122	-0.023
-469.201	-178.185	0.359	0.009
-468.186	150.623	0.113	0.156
-467.172	29.026	-0.244	0.210
-466.157	-60.173	-0.205	0.089
-465.143	-200.000	-0.028	0.241
-464.128	-104.919	-0.371	-0.086
-463.113	2.961	-0.253	0.186
-462.099	-200.000	0.053	0.383
-461.084	-46.025	-0.179	-0.089
-460.070	-96.626	0.221	-0.059
-459.055	-96.521	-0.135	-0.036
-458.040	-200.000	-0.004	0.285
-457.026	-200.000	0.058	-0.445
-456.011	8.121	-0.368	-0.279
-454.997	249.140	-0.192	-0.329
-453.982	85.928	0.122	0.136
-452.968	234.821	0.297	0.496
-451.953	-103.307	-0.103	0.025
-450.938	-25.879	0.395	0.235
-449.924	-73.080	-0.150	-0.056
-448.909	-183.134	0.181	0.003
-447.895	-99.520	0.200	-0.051
-446.880	39.811	-0.245	0.222
-445.865	-59.768	-0.167	-0.072
-444.851	333.449	0.056	-0.110
-443.836	-200.000	-0.010	0.106
-442.822	25.845	-0.179	0.151
-441.807	151.280	-0.252	0.347
-440.792	-200.000	0.043	-0.194
-439.778	198.348	0.025	-0.039
-438.763	507.878	-0.062	-0.146
-437.749	-200.000	-0.086	-0.427
-436.734	399.514	-0.010	0.021
-435.719	800.000	0.076	-0.338
-434.705	385.260	-0.103	-0.215
-433.690	-129.617	-0.194	-0.027
-432.676	-94.692	0.174	0.048
-431.661	-92.172	-0.115	0.033
-430.646	-48.043	0.249	0.122
-429.632	70.234	0.078	-0.081
-428.617	-154.429	0.252	-0.017
-427.603	-200.000	-0.007	0.138
-426.588	-59.704	-0.117	0.051
-425.573	800.000	0.109	-0.348
-424.559	-109.373	0.407	-0.087
-423.544	-200.000	0.048	-0.411
-422.530	-200.000	-0.010	0.128
-421.515	281.322	-0.189	0.343
-420.500	-32.169	0.266	-0.150
-419.486	103.243	-0.083	-0.098
-418.471	-71.761	0.078	-0.029
-417.457	390.760	-0.112	-0.235
-416.442	-4.712	0.047	0.032
-415.428	800.000	0.074	0.326
-414.413	-3.523	-0.135	0.095
-413.398	-74.166	0.463	0.169
-412.384	226.336	-0.189	0.310
-411.369	-200.000	-0.011	0.266
-410.355	138.443	-0.072	0.096
-409.340	508.277	-0.101	0.236
-408.325	680.036	-0.032	0.085
-407.311	385.881	0.054	-0.113
-406.296	-73.824	-0.136	0.050
-405.282	186.606	-0.181	-0.272
-404.267	800.000	-0.061	0.183
-403.252	93.716	0.159	-0.182
-402.238	-200.000	-0.025	0.234
-401.223	-32.533	0.177	0.100
-400.209	-94.418	-0.314	0.086
-399.194	-200.000	0.009	-0.083
-398.179	-111.656	-0.085	-0.017
-397.165	53.759	0.121	-0.117
-396.150	37.191	-0.185	0.165
-395.136	-140.938	-0.184	-0.019
-394.121	4.521	-0.147	-0.109
-393.106	800.000	-0.007	-0.023
-392.092	-200.000	-0.007	-0.324
-391.077	-200.000	0.026	-0.236
-390.063	800.000	-0.053	-0.165
-389.048	538.133	0.037	-0.089
-388.033	-23.294	0.214	0.130
-387.019	800.000	0.073	-0.219
-386.004	-200.000	-0.039	-0.248
-384.990	-34.529	0.338	-0.187
-383.975	-69.632	-0.079	-0.031
-382.960	800.000	0.040	-0.132
-381.946	417.477	-0.066	-0.142
-380.931	800.000	-0.051	-0.158
-379.917	126.705	0.083	-0.106
-378.902	-193.126	0.156	-0.001
-377.888	492.646	-0.059	0.137
-376.873	-67.415	-0.398	-0.158
-375.858	33.489	0.016	0.014
-374.844	74.780	-0.036	0.038
-373.829	-38.433	-0.124	-0.066
-372.815	-83.383	0.312	-0.101
-371.800	9.335	-0.311	0.237
-370.785	15.110	-0.182	0.144
-369.771	-67.298	0.239	-0.095
-368.756	-45.395	0.482	-0.241
-367.742	-200.000	0.007	0.031
-366.727	-19.866	0.121	0.075
-365.712	-81.442	0.478	0.159
-364.698	-110.171	0.358	-0.075
-363.683	-180.595	-0.201	-0.004
-362.669	74.036	-0.197	0.208
-361.654	-200.000	-0.028	-0.138
-360.639	-150.542	-0.126	0.010
-359.625	-68.893	-0.235	0.092
-358.610	468.232	0.062	0.141
-357.596	-75.454	-0.150	-0.054
-356.581	-61.484	0.350	0.148
-355.566	-96.222	-0.095	-0.026
-354.552	-200.000	-0.007	-0.045
-353.537	533.690	-0.042	0.099
-352.523	396.530	0.112	0.235
-351.508	786.080	-0.100	-0.277
-350.493	3.842	0.068	0.050
-349.479	-182.746	0.123	-0.002
-348.464	-135.531	0.018	-0.002
-347.450	201.361	0.092	0.143
-346.435	-26.821	0.189	0.111
-345.420	800.000	0.062	-0.233
-344.406	629.130	0.033	0.083
-343.391	-79.521	-0.452	0.154
-342.377	-60.866	0.171	0.073
-341.362	-125.232	0.118	-0.018
-340.348	-70.469	0.326	-0.124
-339.333	800.000	0.082	-0.347
-338.318	-115.860	0.277	-0.052
-337.304	-200.000	-0.025	0.153
-336.289	179.674	-0.124	0.183
-335.275	-162.410	-0.434	-0.022
-334.260	264.126	-0.079	0.139
-333.245	-37.753	-0.207	0.111
-332.231	-200.000	-0.017	0.193
-331.216	-127.414	-0.226	-0.033
-330.202	-126.613	-0.285	-0.043
-329.187	-141.797	-0.088	-0.009
-328.172	-111.492	0.606	0.124
-327.158	116.777	0.024	-0.030
-326.143	-29.986	0.082	0.047
-325.129	-23.054	0.063	-0.038
-324.114	162.794	0.134	-0.189
-323.099	27.486	0.128	0.108
-322.085	-200.000	0.002	-0.079
-321.070	31.170	-0.099	-0.085
-320.056	-131.484	0.357	0.047
-319.041	113.608	-0.128	-0.157
-318.026	35.155	-0.256	-0.226
-317.012	432.649	0.058	0.127
-315.997	395.506	0.028	-0.059
-314.983	-175.493	0.158	-0.004
-313.968	289.145	0.156	-0.285
-312.953	215.963	-0.085	-0.136
-311.939	800.000	0.111	-0.352
-310.924	-47.968	0.063	0.031
-309.910	-96.421	-0.420	-0.112
-308.895	-200.000	0.081	0.453
-307.880	52.024	-0.164	0.157
-306.866	-172.207	-0.239	-0.008
-305.851	-116.962	0.138	0.025
-304.837	126.541	0.232	-0.295
-303.822	800.000	-0.036	0.143
-302.807	-200.000	0.037	0.191
-301.793	-200.000	0.030	-0.270
-300.778	-200.000	0.069	-0.342
-299.764	-200.000	-0.033	0.327
-298.749	-34.773	0.285	-0.156
-297.735	47.882	0.143	0.135
-296.720	-120.772	-0.187	0.032
-295.705	-178.389	-0.269	0.006
-294.691	-68.496	0.140	0.055
-293.676	2.901	-0.256	-0.187
-292.662	193.906	0.055	0.084
-291.647	800.000	0.044	0.170
-290.632	8.437	-0.226	0.171
-289.618	9.684	0.194	-0.148
-288.603	800.000	0.046	-0.153
-287.589	77.466	-0.153	0.164
-286.574	-200.000	-0.003	0.064
-285.559	-196.489	-0.339	0.002
-284.545	-200.000	0.011	-0.058
-283.530	800.000	0.168	0.469
-282.516	795.414	0.045	0.126
-281.501	225.383	0.087	-0.142
-280.486	-117.302	-0.377	-0.069
-279.472	116.476	0.120	-0.147
-278.457	605.904	-0.087	-0.217
-277.443	-50.033	-0.189	0.090
-276.428	21.948	0.124	0.102
-275.413	-200.000	0.016	-0.191
-274.399	59.462	-0.150	-0.148
-273.384	96.799	0.145	-0.167
-272.370	630.178	-0.054	-0.138
-271.355	-200.000	-0.039	0.175
-270.340	-130.029	-0.484	0.067
-269.326	-39.273	0.159	0.084
-268.311	204.455	0.145	0.226
-267.297	-200.000	-0.002	0.139
-266.282	-96.918	-0.150	0.040
-265.267	-41.945	-0.180	-0.092
-264.253	-167.649	0.175	-0.007
-263.238	800.000	0.072	0.231
-262.224	642.113	0.118	0.301
-261.209	297.887	-0.033	0.061
-260.195	106.456	-0.199	-0.237
-259.180	82.111	0.289	-0.314
-258.165	-0.360	0.280	0.200
-257.151	49.214	-0.180	-0.170
-256.136	800.000	-0.030	-0.122
-255.122	44.280	-0.123	0.113
-254.107	-200.000	-0.076	-0.361
-253.092	554.008	0.159	-0.383
-252.078	530.854	-0.072	-0.171
-251.063	800.000	0.034	-0.110
-250.049	-200.000	-0.085	-0.400
-249.034	-200.000	-0.008	0.239
-248.019	494.832	-0.082	0.188
-247.005	225.149	-0.175	0.285
-245.990	-145.930	0.073	0.007
-244.976	800.000	0.154	-0.517
-243.961	743.671	0.070	0.189
-242.946	77.248	0.096	0.102
-241.932	800.000	-0.116	0.450
-240.917	-13.088	-0.167	0.109
-239.903	-44.341	0.222	0.111
-238.888	-67.917	0.296	-0.116
-237.873	37.342	-0.240	-0.214
-236.859	-200.000	0.033	0.235
-235.844	800.000	-0.046	-0.202
-234.830	-6.068	0.033	-0.023
-233.815	-200.000	-0.041	0.317
-232.800	731.218	0.070	0.189
-231.786	-195.506	0.586	-0.004
-230.771	74.350	0.125	0.131
-229.757	31.971	0.205	0.177
-228.742	-200.000	0.003	0.238
-227.727	-133.191	0.144	0.018
-226.713	198.693	-0.218	-0.334
-225.698	154.206	0.055	-0.076
-224.684	613.579	0.030	-0.075
-223.669	-46.224	0.080	0.040
-222.655	800.000	0.069	0.240
-221.640	-35.913	0.226	-0.122
-220.625	800.000	0.044	0.174
-219.611	64.005	0.052	0.053
-218.596	-85.654	0.183	-0.057
-217.582	-127.009	-0.202	-0.030
-216.567	800.000	0.011	-0.043
-215.552	-46.009	0.385	0.190
-214.538	10.179	0.099	0.075
-213.523	-56.424	-0.359	0.160
-212.509	-134.055	-0.199	-0.025
-211.494	96.794	0.028	0.032
-210.479	86.139	0.171	-0.188
-209.465	800.000	0.037	-0.129
-208.450	110.848	0.066	-0.080
-207.436	-94.785	0.215	-0.058
-206.421	138.830	0.134	-0.177
-205.406	40.440	0.039	-0.035
-204.392	-43.399	0.158	-0.080
-203.377	-200.000	0.005	0.160
-202.363	800.000	0.033	-0.113
-201.348	800.000	0.105	0.302
-200.333	15.713	0.056	0.044
-199.319	49.329	0.082	-0.077
-198.304	56.029	-0.182	-0.176
-197.290	247.624	0.034	0.057
-196.275	30.187	-0.155	-0.133
-195.260	186.311	-0.163	0.242
-194.246	-35.464	-0.279	0.152
-193.231	136.292	0.138	-0.180
-192.217	721.357	0.096	0.254
-191.202	-80.529	-0.048	-0.016
-190.187	-200.000	-0.005	-0.063
-189.173	224.044	0.191	-0.309
-188.158	60.455	-0.242	-0.240
-187.144	78.040	0.349	0.373
-186.129	371.027	-0.171	0.347
-185.114	542.253	0.100	-0.239
-184.100	73.146	0.226	0.237
-183.085	-143.484	0.276	0.026
-182.071	26.669	-0.213	0.178
-181.056	46.483	-0.179	0.166
-180.042	-35.899	0.267	0.144
-179.027	-200.000	0.024	-0.108
-178.012	204.807	0.125	-0.194
-176.998	-155.801	-0.068	-0.004
-175.983	56.693	0.228	0.222
-174.969	-49.712	-0.044	0.021
-173.954	-200.000	-0.053	-0.336
-172.939	41.447	0.130	-0.118
-171.925	-70.010	-0.265	-0.101
-170.910	-35.651	-0.060	-0.032
-169.896	-84.689	0.081	-0.026
-168.881	119.734	0.291	-0.360
-167.866	-162.359	-0.234	0.012
-166.852	198.352	-0.085	0.130
-165.837	-200.000	-0.018	0.126
-164.823	-52.672	0.319	-0.147
-163.808	139.537	0.153	0.201
-162.793	106.630	0.072	0.086
-161.779	-200.000	0.071	-0.333
-160.764	-200.000	0.037	-0.169
-159.750	796.461	-0.087	-0.240
-158.735	152.883	0.025	-0.035
-157.720	90.759	-0.246	0.275
-156.706	223.109	0.076	-0.122
-155.691	165.288	-0.063	-0.089
-154.677	-63.172	-0.076	-0.031
-153.662	-200.000	-0.010	-0.139
-152.647	-80.646	-0.214	-0.071
-151.633	-93.850	0.512	-0.141
-150.618	313.837	0.034	0.064
-149.604	-63.866	-0.282	0.116
-148.589	16.738	0.257	-0.203
-147.574	-19.968	-0.139	-0.086
-146.560	71.368	-0.167	-0.173
-145.545	-21.466	-0.133	-0.081
-144.531	-200.000	0.016	0.159
-143.516	698.292	-0.028	-0.074
-142.502	-9.126	0.319	0.214
-141.487	-43.091	0.096	-0.049
-140.472	746.148	-0.176	-0.473
-139.458	515.520	0.104	0.242
-138.443	-200.000	-0.010	-0.201
-137.429	39.432	-0.170	-0.152
-136.414	105.743	0.082	0.097
-135.399	-134.703	0.175	0.021
-134.385	474.256	0.121	-0.273
-133.370	17.117	0.293	0.232
-132.356	-134.393	0.267	0.033
-131.341	36.959	0.216	-0.191
-130.326	-70.765	0.145	0.055
-129.312	314.679	-0.064	0.120
-128.297	-148.223	0.279	-0.023
-127.283	93.387	0.193	-0.219
-126.268	537.199	-0.097	0.229
-125.253	-43.827	0.202	-0.101
-124.239	-148.154	0.215	0.018
-123.224	-37.106	0.065	-0.035
-122.210	49.234	0.138	0.130
-121.195	41.422	-0.229	0.207
