DTS Sentinel unit serial number:	SN413079Multiplexer serial number:	ORYXHardware model number:	OX4-SRSoftware version number:	ORYX F/W v4.00 Oryx Data Collector v3.7.2.0data status	okinstallation	princeton_trtdifferential loss correction	single-endedforward channel	channel 4reverse channel	N/Adate	2019/09/16time	11:45:35forward acquisition time	60.00reverse acquisition time	0.00gamma	496.2192k internal	0.2294k external	0.2294temperature offset calibration	0.9954default loss term (dB/km)	0.3790temperature slope calibration	1.0000multiplexer offset coefficient	1.0000multiplexer slope coefficient	1.0000fibre end	0.00T internal ref (°C)	38.14T ext. ref 1 (°C)	13.06T ext. ref 2 (°C)	35.43length (m)	temperature (°C)	Stokes	anti-Stokes-747.200	-70.848	-0.558	-0.215
-746.185	800.000	0.057	0.207
-745.171	476.519	0.081	0.187
-744.156	-42.043	-0.140	-0.073
-743.142	-113.064	0.163	-0.033
-742.127	-200.000	-0.064	0.348
-741.112	153.135	0.086	0.120
-740.098	-7.986	-0.163	-0.112
-739.083	215.970	-0.055	0.090
-738.069	-200.000	-0.035	0.331
-737.054	209.278	-0.150	-0.240
-736.039	64.597	-0.252	0.260
-735.025	-200.000	-0.007	0.116
-734.010	91.905	-0.079	-0.091
-732.996	76.330	0.076	0.082
-731.981	-200.000	-0.022	0.187
-730.966	-6.813	0.031	-0.021
-729.952	471.656	0.108	-0.249
-728.937	-34.970	0.107	0.060
-727.923	7.224	-0.241	-0.184
-726.908	-21.607	-0.243	0.151
-725.894	-13.267	-0.088	-0.058
-724.879	-200.000	0.011	0.160
-723.864	800.000	-0.084	0.324
-722.850	5.203	0.119	0.089
-721.835	-200.000	-0.020	0.204
-720.821	800.000	-0.063	-0.212
-719.806	-200.000	0.007	-0.373
-718.791	96.810	-0.300	-0.351
-717.777	-139.247	-0.182	-0.020
-716.762	-8.436	0.271	-0.186
-715.748	39.275	-0.152	-0.139
-714.733	-77.492	0.126	-0.045
-713.718	-99.620	0.022	-0.006
-712.704	-72.722	-0.172	-0.065
-711.689	-62.401	0.311	0.132
-710.675	172.012	0.138	0.202
-709.660	36.865	-0.148	-0.134
-708.645	-200.000	-0.008	-0.144
-707.631	-17.211	-0.208	0.134
-706.616	-200.000	0.043	0.296
-705.602	337.841	0.044	0.088
-704.587	46.804	-0.225	0.213
-703.572	800.000	-0.063	0.225
-702.558	-148.724	-0.134	0.011
-701.543	-175.622	-0.204	-0.006
-700.529	405.409	-0.041	-0.088
-699.514	286.093	-0.161	-0.296
-698.499	14.059	-0.169	0.134
-697.485	115.666	-0.126	0.158
-696.470	9.905	0.127	-0.098
-695.456	-200.000	0.045	0.208
-694.441	5.584	0.041	0.031
-693.426	-33.582	0.124	0.070
-692.412	800.000	0.065	0.212
-691.397	276.947	0.025	-0.045
-690.383	656.045	0.042	-0.110
-689.368	-6.664	0.198	-0.138
-688.354	-130.234	-0.350	-0.049
-687.339	271.049	-0.076	0.137
-686.324	-5.331	-0.219	0.153
-685.310	-13.127	0.126	-0.084
-684.295	800.000	0.092	0.407
-683.281	411.211	-0.044	-0.096
-682.266	-200.000	-0.075	-0.357
-681.251	800.000	-0.088	0.280
-680.237	227.828	0.113	-0.187
-679.222	36.226	-0.009	0.008
-678.208	-54.488	-0.374	0.173
-677.193	212.044	0.030	-0.047
-676.178	-200.000	-0.022	-0.170
-675.164	800.000	0.061	-0.213
-674.149	149.503	-0.209	0.289
-673.135	-1.029	-0.304	0.219
-672.120	68.128	0.139	0.145
-671.105	-35.160	-0.121	-0.067
-670.091	-131.553	0.104	-0.014
-669.076	-34.033	-0.025	0.014
-668.062	-85.332	-0.295	0.094
-667.047	-114.309	-0.057	0.011
-666.032	71.910	0.219	0.232
-665.018	-171.150	-0.090	-0.003
-664.003	-200.000	0.039	-0.190
-662.989	307.388	-0.112	-0.213
-661.974	14.562	-0.214	0.171
-660.959	-146.873	-0.270	-0.024
-659.945	-152.655	0.437	-0.032
-658.930	65.004	0.166	-0.171
-657.916	-200.000	0.051	0.268
-656.901	46.876	-0.146	-0.138
-655.886	419.971	-0.032	-0.069
-654.872	-200.000	-0.005	0.222
-653.857	104.654	0.183	-0.219
-652.843	-195.540	0.397	-0.003
-651.828	-87.806	-0.165	-0.051
-650.814	800.000	0.060	-0.239
-649.799	-200.000	0.016	0.109
-648.784	178.866	-0.052	0.077
-647.770	-200.000	0.003	0.208
-646.755	-200.000	-0.018	0.097
-645.741	34.262	0.254	-0.226
-644.726	-200.000	-0.005	0.205
-643.711	28.735	-0.235	0.203
-642.697	800.000	-0.042	-0.141
-641.682	53.190	-0.194	-0.189
-640.668	-147.180	-0.265	0.023
-639.653	-200.000	-0.041	0.247
-638.638	-108.687	0.113	-0.025
-637.624	-144.429	-0.132	-0.012
-636.609	55.385	-0.160	-0.157
-635.595	-107.247	-0.348	0.078
-634.580	477.972	-0.099	0.228
-633.565	660.448	0.147	0.385
-632.551	36.526	-0.115	0.104
-631.536	800.000	-0.018	0.069
-630.522	-28.270	-0.075	0.044
-629.507	446.800	-0.114	-0.254
-628.492	302.795	0.105	0.199
-627.478	-47.594	0.259	-0.128
-626.463	-90.197	-0.113	-0.033
-625.449	-200.000	0.006	-0.068
-624.434	-17.247	-0.123	0.079
-623.419	287.200	-0.087	0.159
-622.405	333.562	0.052	0.103
-621.390	56.765	-0.436	0.432
-620.376	-120.837	0.275	0.047
-619.361	-44.122	-0.270	0.138
-618.346	-200.000	-0.044	0.279
-617.332	-33.766	-0.233	-0.131
-616.317	121.390	0.067	0.085
-615.303	12.374	0.193	0.151
-614.288	228.375	-0.220	-0.364
-613.273	800.000	-0.030	0.108
-612.259	-91.573	0.198	0.057
-611.244	-88.987	0.306	0.092
-610.230	-74.678	-0.250	0.092
-609.215	-119.667	0.064	0.011
-608.201	5.812	-0.064	-0.048
-607.186	800.000	-0.015	-0.046
-606.171	-73.136	-0.222	-0.083
-605.157	-134.870	-0.283	0.035
-604.142	-51.450	-0.281	-0.134
-603.128	333.231	0.061	0.119
-602.113	-85.877	-0.093	0.029
-601.098	-200.000	0.011	0.265
-600.084	-200.000	-0.009	0.085
-599.069	190.609	0.124	0.190
-598.055	-143.325	0.295	-0.029
-597.040	11.081	-0.139	-0.108
-596.025	395.850	-0.111	-0.236
-595.011	-200.000	0.028	0.291
-593.996	-142.850	0.231	-0.023
-592.982	-133.606	-0.256	0.033
-591.967	-110.075	0.291	0.062
-590.952	-33.411	0.292	-0.164
-589.938	125.894	-0.059	-0.076
-588.923	152.717	-0.075	-0.104
-587.909	-96.074	-0.361	0.097
-586.894	800.000	-0.039	-0.166
-585.879	23.621	-0.301	-0.252
-584.865	-104.605	-0.237	0.055
-583.850	-200.000	0.019	0.144
-582.836	67.928	0.060	-0.062
-581.821	800.000	0.086	0.318
-580.806	-103.032	0.039	0.009
-579.792	-76.582	0.083	0.030
-578.777	429.089	-0.153	0.336
-577.763	-16.744	-0.150	-0.097
-576.748	31.828	0.184	-0.161
-575.733	-92.873	0.258	0.073
-574.719	-200.000	-0.002	0.324
-573.704	-152.288	0.142	-0.010
-572.690	800.000	-0.083	-0.369
-571.675	800.000	-0.055	0.164
-570.661	-20.108	0.150	0.094
-569.646	-9.239	0.121	-0.082
-568.631	-200.000	0.045	-0.300
-567.617	411.864	0.051	0.110
-566.602	-69.395	0.339	0.132
-565.588	22.080	0.055	-0.046
-564.573	-200.000	-0.027	-0.220
-563.558	-83.433	-0.085	0.028
-562.544	-55.074	0.087	-0.040
-561.529	-172.529	0.130	0.004
-560.515	247.305	0.214	-0.366
-559.500	313.728	0.028	-0.054
-558.485	-200.000	0.039	-0.272
-557.471	170.040	-0.059	-0.086
-556.456	699.096	0.112	0.299
-555.442	181.537	-0.052	-0.078
-554.427	-59.027	0.124	-0.054
-553.412	541.118	-0.091	-0.219
-552.398	69.643	0.159	-0.166
-551.383	-200.000	-0.036	-0.240
-550.369	-49.661	-0.108	-0.052
-549.354	166.968	0.086	0.123
-548.339	-90.412	0.398	0.117
-547.325	94.618	0.281	0.324
-546.310	800.000	0.064	0.228
-545.296	-126.907	0.486	-0.073
-544.281	108.291	-0.062	0.075
-543.266	800.000	0.056	0.216
-542.252	-96.911	0.155	0.041
-541.237	-200.000	-0.002	-0.168
-540.223	-200.000	-0.008	0.081
-539.208	97.927	-0.117	-0.137
-538.193	196.736	0.133	0.205
-537.179	800.000	0.035	-0.114
-536.164	282.782	-0.167	-0.304
-535.150	800.000	-0.024	-0.091
-534.135	-45.385	-0.218	-0.109
-533.121	-97.722	-0.260	0.068
-532.106	53.657	-0.077	0.075
-531.091	236.060	-0.125	0.210
-530.077	800.000	-0.094	-0.299
-529.062	-9.766	-0.122	-0.083
-528.048	800.000	0.033	-0.094
-527.033	-81.965	-0.157	-0.052
-526.018	-126.741	0.073	-0.011
-525.004	800.000	-0.051	0.157
-523.989	197.818	0.141	-0.218
-522.975	-96.091	0.393	-0.106
-521.960	280.939	-0.147	-0.267
-520.945	610.659	-0.010	-0.026
-519.931	-200.000	-0.001	0.047
-518.916	167.716	-0.286	-0.413
-517.902	-197.630	0.027	0.000
-516.887	89.594	-0.147	0.166
-515.872	-136.181	0.165	0.020
-514.858	800.000	0.021	-0.081
-513.843	587.514	-0.104	0.260
-512.829	223.319	-0.142	0.232
-511.814	35.269	-0.238	0.211
-510.799	-200.000	0.010	0.062
-509.785	-88.186	0.356	0.108
-508.770	-90.671	-0.283	0.083
-507.756	-125.540	-0.336	0.052
-506.741	356.989	0.179	-0.361
-505.726	-200.000	-0.021	0.181
-504.712	63.063	-0.062	-0.063
-503.697	24.250	-0.093	0.078
-502.683	-19.539	-0.193	0.121
-501.668	-200.000	0.046	-0.214
-500.653	287.325	0.084	0.153
-499.639	-33.043	-0.268	0.150
-498.624	-158.715	0.087	-0.005
-497.610	262.573	-0.065	0.114
-496.595	-98.205	-0.230	-0.060
-495.581	-22.416	0.093	-0.057
-494.566	244.408	0.190	-0.323
-493.551	-55.660	-0.208	0.094
-492.537	79.313	-0.179	0.194
-491.522	-200.000	0.326	-0.000
-490.508	25.443	-0.238	0.201
-489.493	-54.953	-0.107	0.049
-488.478	-106.311	-0.141	0.032
-487.464	-177.487	0.149	-0.004
-486.449	-200.000	0.041	-0.229
-485.435	-109.354	0.388	-0.083
-484.420	-98.446	-0.168	-0.044
-483.405	-149.494	-0.072	-0.006
-482.391	-128.081	0.448	0.065
-481.376	800.000	-0.033	0.141
-480.362	-97.257	-0.074	-0.020
-479.347	-200.000	0.019	0.210
-478.332	16.673	0.172	-0.137
-477.318	378.886	0.031	-0.064
-476.303	-200.000	0.020	0.095
-475.289	-67.979	0.163	0.064
-474.274	800.000	0.064	0.196
-473.259	-200.000	0.034	-0.282
-472.245	491.521	-0.039	0.090
-471.230	-200.000	-0.006	-0.172
-470.216	9.695	-0.091	0.070
-469.201	-11.164	0.121	-0.081
-468.186	290.151	-0.097	0.178
-467.172	-144.002	-0.056	0.005
-466.157	-145.661	0.292	0.026
-465.143	260.964	0.035	-0.061
-464.128	-125.702	-0.176	0.027
-463.113	-15.845	0.236	-0.152
-462.099	-200.000	-0.018	-0.156
-461.084	303.721	-0.021	0.039
-460.070	-43.040	-0.255	-0.131
-459.055	-86.490	-0.167	-0.052
-458.040	-81.558	-0.198	0.066
-457.026	800.000	-0.018	0.062
-456.011	550.422	0.055	0.134
-454.997	2.028	0.263	0.192
-453.982	340.901	0.158	-0.311
-452.968	-6.503	0.101	0.069
-451.953	85.379	0.275	0.306
-450.938	-200.000	-0.035	0.190
-449.924	136.703	0.228	0.301
-448.909	61.022	0.140	0.141
-447.895	800.000	-0.055	-0.163
-446.880	61.773	0.138	0.139
-445.865	268.860	0.082	-0.145
-444.851	31.332	-0.309	0.268
-443.836	-195.641	0.384	0.003
-442.822	61.272	0.183	0.183
-441.807	-200.000	-0.013	0.237
-440.792	-200.000	-0.391	0.001
-439.778	-172.732	0.352	0.011
-438.763	-122.994	0.171	-0.028
-437.749	796.068	-0.018	0.051
-436.734	231.991	0.054	0.089
-435.719	-164.249	0.176	0.008
-434.705	-6.581	0.334	-0.230
-433.690	-70.434	0.219	0.084
-432.676	355.623	0.043	0.087
-431.661	-91.350	0.219	0.063
-430.646	-200.000	0.048	0.365
-429.632	123.824	0.226	0.287
-428.617	-59.783	0.118	0.051
-427.603	-132.847	0.218	-0.028
-426.588	24.305	0.095	0.079
-425.573	-2.249	0.191	0.135
-424.559	-159.360	0.281	0.016
-423.544	-8.345	0.270	0.184
-422.530	295.842	-0.096	0.177
-421.515	-138.259	-0.497	-0.055
-420.500	235.267	-0.127	-0.212
-419.486	-147.612	0.388	-0.033
-418.471	-92.672	-0.154	0.043
-417.457	800.000	0.030	0.088
-416.442	-200.000	0.039	-0.296
-415.428	800.000	-0.135	-0.534
-414.413	-0.715	-0.183	-0.131
-413.398	800.000	0.072	-0.246
-412.384	-153.072	0.125	-0.009
-411.369	-117.817	-0.239	-0.043
-410.355	51.182	0.189	0.181
-409.340	195.930	-0.118	0.182
-408.325	19.776	0.245	0.199
-407.311	-200.000	-0.022	-0.121
-406.296	-134.247	-0.299	0.037
-405.282	464.422	0.084	0.190
-404.267	-200.000	0.016	-0.294
-403.252	2.903	-0.080	-0.059
-402.238	-38.696	0.168	-0.090
-401.223	248.103	0.223	0.380
-400.209	-200.000	-0.079	-0.441
-399.194	800.000	0.081	-0.306
-398.179	-8.030	0.076	-0.051
-397.165	278.523	0.162	-0.291
-396.150	-200.000	-0.016	0.097
-395.136	37.404	0.007	0.006
-394.121	-200.000	0.018	0.090
-393.106	-47.074	0.172	-0.085
-392.092	132.529	-0.074	-0.096
-391.077	0.344	0.191	0.137
-390.063	405.440	-0.146	-0.311
-389.048	18.318	-0.078	0.062
-388.033	373.334	0.175	-0.358
-387.019	-200.000	-0.037	-0.340
-386.004	417.221	-0.049	-0.106
-384.990	318.370	-0.006	-0.012
-383.975	49.804	0.111	-0.106
-382.960	281.279	0.214	0.386
-381.946	174.208	0.169	0.246
-380.931	-19.835	-0.264	0.164
-379.917	-135.368	-0.132	-0.016
-378.902	-144.832	0.183	0.017
-377.888	411.144	0.142	-0.304
-376.873	-49.868	-0.017	-0.008
-375.858	612.254	-0.100	-0.252
-374.844	343.555	-0.064	-0.127
-373.829	800.000	0.058	-0.169
-372.815	-200.000	-0.004	-0.136
-371.800	304.921	0.024	-0.046
-370.785	-200.000	0.028	0.243
-369.771	61.795	-0.205	-0.206
-368.756	-111.369	0.204	0.042
-367.742	800.000	-0.037	0.143
-366.727	-200.000	-0.022	0.238
-365.712	594.655	0.065	0.162
-364.698	170.443	0.173	-0.249
-363.683	-200.000	0.378	-0.001
-362.669	142.891	-0.240	-0.321
-361.654	-81.448	-0.124	-0.041
-360.639	-200.000	-0.003	0.292
-359.625	73.083	-0.078	-0.083
-358.610	-165.390	-0.198	-0.009
-357.596	-134.309	-0.120	0.015
-356.581	800.000	0.038	0.119
-355.566	-200.000	0.004	0.051
-354.552	-34.145	-0.054	0.030
-353.537	800.000	0.107	0.334
-352.523	3.117	0.366	0.268
-351.508	795.060	0.165	0.458
-350.493	-200.000	0.000	-0.153
-349.479	-12.711	0.028	0.018
-348.464	67.862	0.180	-0.186
-347.450	132.324	-0.280	-0.363
-346.435	-148.560	0.117	0.010
-345.420	-156.376	0.226	-0.014
-344.406	48.875	-0.193	0.182
-343.391	5.308	0.239	0.178
-342.377	443.923	-0.112	0.248
-341.362	149.555	0.080	-0.108
-340.348	230.577	0.223	-0.367
-339.333	-200.000	-0.035	-0.224
-338.318	76.878	0.100	0.106
-337.304	800.000	0.112	-0.380
-336.289	-56.002	-0.150	0.067
-335.275	-63.451	-0.237	-0.098
-334.260	-63.167	-0.147	-0.061
-333.245	-200.000	-0.008	-0.148
-332.231	107.158	0.132	-0.158
-331.216	-200.000	0.017	-0.355
-330.202	661.175	0.091	-0.235
-329.187	-138.491	0.208	0.023
-328.172	-200.000	-0.026	-0.116
-327.158	-200.000	0.055	0.264
-326.143	-159.767	-0.348	0.019
-325.129	-200.000	0.321	-0.001
-324.114	800.000	0.058	0.185
-323.099	124.280	0.116	-0.147
-322.085	-200.000	-0.017	-0.253
-321.070	-41.053	0.196	-0.102
-320.056	800.000	-0.019	-0.054
-319.041	-134.916	-0.160	-0.019
-318.026	15.721	-0.098	-0.078
-317.012	311.784	0.215	0.406
-315.997	-137.781	0.286	0.032
-314.983	-1.651	0.251	-0.178
-313.968	-28.583	0.189	-0.109
-312.953	42.209	-0.081	-0.074
-311.939	2.245	-0.166	-0.121
-310.924	800.000	0.002	-0.006
-309.910	294.589	-0.081	0.149
-308.895	93.832	-0.070	-0.080
-307.880	-200.000	0.014	-0.069
-306.866	569.808	-0.065	0.159
-305.851	161.795	0.147	0.208
-304.837	-181.817	-0.254	-0.005
-303.822	167.688	-0.082	-0.117
-302.807	-187.644	-0.191	0.003
-301.793	46.757	-0.250	0.233
-300.778	-158.351	-0.363	-0.021
-299.764	389.373	0.061	0.127
-298.749	230.386	0.040	-0.065
-297.735	-200.000	-0.098	-0.528
-296.720	632.285	0.038	0.096
-295.705	398.201	-0.037	0.077
-294.691	-200.000	-0.037	-0.301
-293.676	-36.458	-0.283	0.153
-292.662	-62.556	-0.088	0.037
-291.647	-153.526	0.408	-0.028
-290.632	107.576	0.159	-0.190
-289.618	-153.755	-0.080	0.005
-288.603	665.306	-0.172	-0.445
-287.589	-200.000	0.007	-0.135
-286.574	758.582	-0.043	0.117
-285.559	48.046	0.112	0.105
-284.545	-81.251	0.100	0.033
-283.530	175.669	0.158	0.230
-282.516	-89.473	0.059	0.018
-281.501	30.064	0.112	0.096
-280.486	-42.452	0.050	0.026
-279.472	-168.630	0.163	-0.006
-278.457	-73.488	-0.023	-0.009
-277.443	-133.545	0.039	-0.005
-276.428	-200.000	0.004	-0.027
-275.413	-200.000	-0.008	0.123
-274.399	169.905	-0.160	0.230
-273.384	-200.000	0.004	0.054
-272.370	-3.019	-0.274	0.192
-271.355	-65.987	0.200	0.080
-270.340	109.520	-0.103	0.124
-269.326	350.922	0.169	-0.336
-268.311	-200.000	-0.016	-0.222
-267.297	63.462	-0.153	0.154
-266.282	-200.000	-0.065	0.395
-265.267	48.994	-0.100	0.094
-264.253	87.156	-0.103	0.115
-263.238	-200.000	0.013	-0.235
-262.224	36.685	-0.181	0.161
-261.209	-200.000	-0.011	-0.117
-260.195	-106.209	0.070	-0.016
-259.180	-13.429	0.198	-0.129
-258.165	-165.259	-0.265	-0.012
-257.151	83.895	0.174	-0.191
-256.136	59.204	-0.049	-0.048
-255.122	-200.000	0.059	0.391
-254.107	-142.211	0.451	0.045
-253.092	371.143	0.055	-0.111
-252.078	510.577	-0.090	-0.210
-251.063	278.108	-0.180	0.321
-250.049	-200.000	-0.050	0.225
-249.034	-104.074	-0.205	-0.048
-248.019	-99.182	0.316	-0.080
-247.005	-64.822	-0.423	-0.172
-245.990	205.655	0.139	-0.216
-244.976	800.000	0.007	-0.024
-243.961	64.887	0.095	-0.096
-242.946	-47.094	-0.211	0.103
-241.932	-87.596	-0.328	-0.099
-240.917	-200.000	-0.020	-0.362
-239.903	800.000	0.057	0.238
-238.888	-74.294	0.133	-0.048
-237.873	-46.443	0.069	-0.034
-236.859	26.842	0.071	-0.059
-235.844	-112.666	0.140	-0.028
-234.830	187.368	-0.103	-0.155
-233.815	784.745	-0.087	0.240
-232.800	311.421	-0.118	-0.221
-231.786	800.000	0.143	0.452
-230.771	164.876	-0.129	0.182
-229.757	151.077	0.211	-0.287
-228.742	-200.000	-0.112	-0.508
-227.727	103.166	0.190	0.223
-226.713	214.596	-0.056	0.089
-225.698	-106.507	-0.104	0.023
-224.684	14.707	-0.181	-0.141
-223.669	455.624	-0.120	-0.266
-222.655	-41.129	0.030	-0.015
-221.640	-179.378	0.075	0.002
-220.625	-93.597	-0.111	0.031
-219.611	339.279	-0.142	0.277
-218.596	47.152	0.165	-0.154
-217.582	-105.329	-0.097	-0.022
-216.567	-122.502	-0.416	-0.068
-215.552	262.476	-0.058	0.101
-214.538	83.502	-0.243	0.265
-213.523	-21.521	-0.275	0.168
-212.509	80.578	-0.145	0.156
-211.494	-76.266	-0.363	-0.128
-210.479	84.748	0.155	0.170
-209.465	-101.661	0.415	0.101
-208.450	168.023	-0.097	0.138
-207.436	800.000	-0.050	0.215
-206.421	-200.000	0.026	0.184
-205.406	-200.000	0.076	-0.450
-204.392	165.269	-0.069	-0.098
-203.377	28.314	0.248	-0.210
-202.363	350.728	0.128	-0.254
-201.348	544.098	0.015	0.035
-200.333	-120.926	0.455	0.077
-199.319	-122.839	-0.211	-0.034
-198.304	-200.000	0.019	-0.384
-197.290	-69.098	-0.443	-0.171
-196.275	-106.354	0.036	-0.008
-195.260	-29.871	0.286	0.163
-194.246	133.022	0.147	0.189
-193.231	217.364	0.026	-0.042
-192.217	-200.000	0.050	-0.239
-191.202	800.000	0.012	0.043
-190.187	-10.872	-0.087	-0.057
-189.173	595.070	-0.073	-0.180
-188.158	-200.000	0.002	0.319
-187.144	518.132	0.060	0.141
-186.129	-200.000	-0.001	-0.088
-185.114	-45.218	-0.053	-0.027
-184.100	800.000	-0.015	-0.049
-183.085	-80.730	-0.157	0.052
-182.071	-143.321	-0.124	-0.012
-181.056	-111.768	0.414	0.084
-180.042	238.037	0.110	0.183
-179.027	89.201	-0.295	-0.328
-178.012	148.015	-0.213	0.288
-176.998	223.218	-0.094	-0.152
-175.983	188.080	-0.085	0.127
-174.969	-200.000	-0.004	-0.079
-173.954	154.235	-0.210	-0.288
-172.939	800.000	-0.086	-0.278
-171.925	119.458	-0.087	0.107
-170.910	-97.536	-0.152	-0.039
-169.896	76.430	0.062	-0.066
-168.881	800.000	-0.099	0.344
-167.866	233.340	0.043	0.072
-166.852	-75.661	-0.238	0.084
-165.837	266.342	0.090	-0.157
-164.823	-37.380	-0.089	-0.048
-163.808	-200.000	0.037	-0.204
-162.793	51.018	-0.209	0.198
-161.779	-101.744	-0.170	0.041
-160.764	547.779	-0.089	-0.213
-159.750	-200.000	0.017	-0.117
-158.735	800.000	0.019	0.081
-157.720	800.000	0.083	0.286
-156.706	800.000	0.064	0.228
-155.691	-61.982	-0.121	-0.051
-154.677	-173.630	-0.244	0.007
-153.662	-161.774	-0.257	-0.013
-152.647	45.430	-0.334	-0.308
-151.633	-2.616	-0.237	-0.166
-150.618	118.482	-0.038	0.046
-149.604	187.973	0.157	0.235
-148.589	-160.056	-0.128	0.007
-147.574	-200.000	-0.027	-0.182
-146.560	-80.152	0.050	0.017
-145.545	-37.638	-0.237	0.126
-144.531	-77.953	-0.159	-0.055
-143.516	-67.395	0.086	0.034
-142.502	76.322	-0.193	0.204
-141.487	-200.000	0.010	-0.115
-140.472	140.300	0.098	0.129
-139.458	800.000	-0.071	0.294
-138.443	-200.000	0.012	0.139
-137.429	-200.000	0.010	-0.044
-136.414	-200.000	0.023	0.193
-135.399	-166.960	0.163	-0.007
-134.385	123.124	-0.103	0.129
-133.370	258.612	-0.078	-0.135
-132.356	800.000	-0.031	-0.101
-131.341	110.898	0.064	0.077
-130.326	-130.864	0.195	-0.026
-129.312	-29.209	0.059	0.034
-128.297	-38.259	-0.233	-0.123
-127.283	420.649	0.077	-0.164
-126.268	374.733	0.057	-0.116
-125.253	55.871	-0.193	0.187
-124.239	39.660	0.077	-0.069
-123.224	77.356	-0.099	0.105
-122.210	173.811	-0.108	0.156
-121.195	-200.000	0.004	0.178
