DTS Sentinel unit serial number:	SN413079Multiplexer serial number:	ORYXHardware model number:	OX4-SRSoftware version number:	ORYX F/W v4.00 Oryx Data Collector v3.7.2.0data status	okinstallation	princeton_trtdifferential loss correction	single-endedforward channel	channel 4reverse channel	N/Adate	2019/09/16time	20:25:34forward acquisition time	60.00reverse acquisition time	0.00gamma	496.2192k internal	0.2311k external	0.2311temperature offset calibration	0.9965default loss term (dB/km)	0.3790temperature slope calibration	1.0000multiplexer offset coefficient	1.0000multiplexer slope coefficient	1.0000fibre end	0.00T internal ref (°C)	32.75T ext. ref 1 (°C)	0.08T ext. ref 2 (°C)	26.67length (m)	temperature (°C)	Stokes	anti-Stokes-747.200	246.681	-0.203	-0.348
-746.185	-84.885	-0.318	-0.101
-745.171	800.000	-0.072	-0.290
-744.156	-80.189	0.163	0.056
-743.142	338.928	0.090	-0.177
-742.127	-87.865	-0.250	-0.076
-741.112	-184.049	-0.211	0.004
-740.098	-33.411	-0.097	0.054
-739.083	-62.049	0.149	0.063
-738.069	800.000	-0.060	0.176
-737.054	126.129	-0.265	-0.340
-736.039	99.599	-0.231	-0.271
-735.025	-163.424	0.279	-0.013
-734.010	-104.683	-0.277	0.065
-732.996	-111.481	-0.276	0.057
-731.981	230.254	-0.066	-0.109
-730.966	-200.000	0.004	0.175
-729.952	644.354	-0.071	0.184
-728.937	-23.051	-0.218	-0.133
-727.923	146.231	-0.073	-0.100
-726.908	-29.300	-0.173	0.101
-725.894	4.682	0.216	0.161
-724.879	-200.000	0.007	0.042
-723.864	-151.946	-0.287	-0.021
-722.850	-134.257	-0.127	-0.016
-721.835	-200.000	-0.028	0.262
-720.821	206.043	0.036	-0.057
-719.806	79.148	-0.049	-0.053
-718.791	-17.694	-0.126	0.080
-717.777	-123.938	-0.144	0.023
-716.762	708.461	-0.097	0.259
-715.748	-200.000	0.061	0.646
-714.733	-112.550	0.221	-0.045
-713.718	246.433	-0.101	0.172
-712.704	436.286	0.023	0.051
-711.689	-16.495	0.258	-0.166
-710.675	116.779	0.023	0.028
-709.660	325.860	-0.072	0.140
-708.645	325.479	0.210	-0.408
-707.631	800.000	-0.021	-0.069
-706.616	-106.798	-0.208	0.047
-705.602	10.373	0.378	-0.292
-704.587	-36.768	-0.353	-0.192
-703.572	800.000	-0.031	-0.128
-702.558	-200.000	-0.009	0.583
-701.543	168.787	-0.142	0.204
-700.529	-134.408	0.234	-0.029
-699.514	-47.778	-0.259	-0.127
-698.499	675.268	0.116	-0.304
-697.485	49.201	0.067	0.064
-696.470	-45.692	0.201	-0.101
-695.456	-131.307	0.287	0.038
-694.441	-70.240	-0.263	-0.101
-693.426	-191.222	0.576	-0.006
-692.412	-139.301	0.450	-0.049
-691.397	49.177	0.063	0.060
-690.383	-195.808	-0.105	0.001
-689.368	800.000	0.030	-0.096
-688.354	-21.353	0.207	0.128
-687.339	-200.000	0.007	-0.235
-686.324	800.000	0.021	-0.085
-685.310	64.520	-0.119	0.121
-684.295	-136.215	-0.128	-0.015
-683.281	800.000	-0.016	-0.053
-682.266	-166.886	-0.311	0.013
-681.251	152.604	-0.167	0.231
-680.237	-9.673	0.287	-0.194
-679.222	273.716	0.112	0.201
-678.208	270.430	-0.144	-0.257
-677.193	203.121	0.086	0.135
-676.178	17.380	-0.249	0.200
-675.164	75.463	0.267	-0.285
-674.149	-109.001	0.044	-0.009
-673.135	239.864	-0.053	-0.089
-672.120	-130.948	-0.113	0.015
-671.105	800.000	0.084	0.352
-670.091	162.268	0.106	-0.150
-669.076	-200.000	-0.014	-0.102
-668.062	-26.438	0.100	-0.059
-667.047	65.828	-0.118	-0.121
-666.032	-163.043	-0.167	0.008
-665.018	508.801	-0.061	0.143
-664.003	72.835	-0.249	0.263
-662.989	800.000	-0.041	0.157
-661.974	-21.369	-0.166	0.102
-660.959	-51.514	-0.124	-0.059
-659.945	-184.396	0.061	-0.001
-658.930	-200.000	0.027	0.231
-657.916	-200.000	-0.027	0.259
-656.901	-6.640	-0.358	0.247
-655.886	-73.905	-0.149	-0.055
-654.872	-200.000	-0.051	-0.358
-653.857	309.828	-0.075	-0.142
-652.843	-113.702	-0.364	-0.072
-651.828	57.656	-0.243	-0.241
-650.814	76.210	-0.108	0.116
-649.799	186.512	0.069	-0.104
-648.784	282.638	0.156	0.284
-647.770	-100.667	0.241	0.060
-646.755	86.042	0.145	0.161
-645.741	28.006	-0.189	-0.161
-644.726	-200.000	0.008	-0.239
-643.711	80.791	-0.114	-0.125
-642.697	-84.933	-0.177	-0.056
-641.682	-45.191	0.233	0.117
-640.668	-45.427	0.063	0.031
-639.653	800.000	-0.095	-0.290
-638.638	20.016	-0.215	0.175
-637.624	-200.000	0.007	0.140
-636.609	-171.124	-0.336	-0.011
-635.595	-20.349	0.107	0.066
-634.580	-200.000	-0.027	-0.157
-633.565	489.849	-0.126	-0.291
-632.551	187.723	0.158	0.238
-631.536	352.377	0.070	0.141
-630.522	-171.243	-0.237	-0.008
-629.507	710.661	-0.110	-0.295
-628.492	-38.162	-0.174	0.093
-627.478	199.102	0.016	-0.024
-626.463	800.000	-0.049	-0.155
-625.449	-32.217	-0.388	-0.219
-624.434	-167.458	0.122	-0.005
-623.419	-133.131	-0.206	-0.026
-622.405	77.153	0.021	0.023
-621.390	-99.832	-0.234	-0.059
-620.376	-94.452	0.352	-0.097
-619.361	-123.981	-0.322	0.051
-618.346	-72.557	0.307	0.115
-617.332	-200.000	-0.001	0.404
-616.317	800.000	-0.116	-0.348
-615.303	800.000	-0.103	-0.406
-614.288	-200.000	0.052	-0.314
-613.273	-138.867	-0.259	0.028
-612.259	18.504	0.184	-0.148
-611.244	693.794	0.110	0.291
-610.230	297.932	-0.040	0.075
-609.215	48.186	-0.142	0.134
-608.201	741.071	-0.057	-0.156
-607.186	558.530	0.072	-0.177
-606.171	-200.000	0.035	-0.271
-605.157	111.433	-0.116	-0.142
-604.142	-112.944	-0.300	0.060
-603.128	253.148	0.139	-0.240
-602.113	800.000	0.086	-0.245
-601.098	206.522	0.161	0.252
-600.084	-200.000	0.059	-0.427
-599.069	800.000	0.045	-0.189
-598.055	-67.050	-0.285	0.113
-597.040	-78.535	0.212	-0.073
-596.025	300.285	-0.159	0.297
-595.011	-149.532	-0.291	-0.023
-593.996	697.436	0.025	-0.066
-592.982	243.279	-0.288	-0.486
-591.967	12.362	0.260	-0.202
-590.952	-131.826	-0.248	0.033
-589.938	-37.973	0.206	0.110
-588.923	-12.786	-0.190	0.125
-587.909	-57.862	-0.130	-0.057
-586.894	800.000	-0.079	-0.274
-585.879	740.689	0.079	0.215
-584.865	-78.919	-0.279	0.096
-583.850	2.371	0.316	-0.231
-582.836	-32.950	0.045	0.025
-581.821	800.000	-0.093	0.302
-580.806	-73.021	-0.259	-0.096
-579.792	54.252	0.074	-0.072
-578.777	245.054	0.014	-0.024
-577.763	454.580	0.023	0.051
-576.748	169.093	0.252	0.363
-575.733	249.804	-0.204	-0.348
-574.719	42.983	-0.120	0.110
-573.704	425.993	-0.104	0.227
-572.690	800.000	-0.097	-0.360
-571.675	-200.000	0.000	0.208
-570.661	-89.552	-0.065	-0.019
-569.646	-5.343	0.222	0.154
-568.631	-158.176	-0.129	0.008
-567.617	28.178	0.194	0.165
-566.602	32.187	-0.221	0.192
-565.588	-67.081	-0.137	-0.055
-564.573	-24.610	0.108	0.065
-563.558	88.193	-0.060	0.067
-562.544	10.274	0.072	-0.056
-561.529	44.750	0.251	0.233
-560.515	-200.000	0.046	-0.296
-559.500	510.830	0.075	-0.177
-558.485	-200.000	-0.007	0.066
-557.471	-200.000	0.075	-0.331
-556.456	-200.000	-0.015	0.228
-555.442	111.803	-0.060	0.073
-554.427	-200.000	-0.002	-0.240
-553.412	28.473	-0.083	0.071
-552.398	290.723	-0.095	-0.174
-551.383	-59.502	-0.398	-0.172
-550.369	-105.398	0.234	0.054
-549.354	62.783	0.318	0.320
-548.339	34.074	-0.140	-0.123
-547.325	7.129	-0.243	0.183
-546.310	45.303	-0.100	0.093
-545.296	93.186	0.063	-0.072
-544.281	-64.522	0.213	0.087
-543.266	231.811	-0.122	0.202
-542.252	28.566	-0.140	0.119
-541.237	-70.491	-0.178	0.068
-540.223	-144.788	0.390	0.036
-539.208	-200.000	-0.012	-0.158
-538.193	608.760	0.041	-0.104
-537.179	-129.966	-0.145	0.020
-536.164	-26.334	0.332	0.196
-535.150	60.469	-0.116	-0.116
-534.135	-23.791	0.037	-0.022
-533.121	283.167	0.176	0.318
-532.106	-112.995	0.125	0.025
-531.091	495.048	-0.141	0.325
-530.077	65.854	-0.193	-0.197
-529.062	-200.000	0.041	0.363
-528.048	-200.000	-0.049	0.302
-527.033	-17.014	-0.105	0.066
-526.018	-55.381	0.153	0.069
-525.004	38.457	-0.166	-0.149
-523.989	-85.635	0.243	0.076
-522.975	373.820	-0.126	-0.258
-521.960	-61.784	0.220	0.093
-520.945	-194.727	0.067	0.001
-519.931	446.588	-0.098	0.217
-518.916	-124.142	-0.170	-0.027
-517.902	-134.502	0.211	0.026
-516.887	800.000	-0.035	-0.141
-515.872	-50.227	-0.147	0.070
-514.858	66.519	0.197	-0.202
-513.843	-0.096	-0.058	-0.042
-512.829	183.502	-0.084	-0.125
-511.814	-150.251	0.307	0.024
-510.799	94.624	0.083	-0.095
-509.785	82.973	-0.107	0.117
-508.770	-7.456	0.082	0.056
-507.756	-0.056	-0.230	0.165
-506.741	-105.500	-0.316	-0.072
-505.726	-200.000	0.008	-0.203
-504.712	800.000	0.090	-0.321
-503.697	61.126	0.100	-0.100
-502.683	148.481	-0.079	-0.108
-501.668	-38.455	0.222	0.118
-500.653	502.488	-0.100	0.232
-499.639	800.000	-0.108	-0.471
-498.624	800.000	-0.020	-0.070
-497.610	-60.046	0.207	-0.089
-496.595	161.846	-0.210	-0.296
-495.581	-44.125	0.233	0.118
-494.566	-156.734	-0.283	0.018
-493.551	327.970	-0.026	0.049
-492.537	-200.000	-0.055	-0.409
-491.522	-40.806	-0.275	-0.143
-490.508	17.631	0.192	0.153
-489.493	-30.785	-0.261	0.149
-488.478	294.847	0.099	0.181
-487.464	159.454	-0.292	-0.409
-486.449	496.834	-0.075	-0.172
-485.435	-200.000	-0.015	0.222
-484.420	17.158	0.205	0.164
-483.405	-131.116	-0.115	-0.015
-482.391	-80.975	-0.352	0.117
-481.376	119.407	-0.090	-0.112
-480.362	120.805	-0.083	-0.104
-479.347	-81.301	-0.170	0.056
-478.332	71.943	-0.107	0.112
-477.318	-67.141	-0.350	-0.138
-476.303	520.336	0.072	-0.169
-475.289	-108.115	0.084	0.018
-474.274	195.651	0.101	0.154
-473.259	-131.137	0.078	0.010
-472.245	-40.962	0.150	0.078
-471.230	-200.000	-0.039	0.234
-470.216	734.353	-0.069	-0.185
-469.201	260.187	0.194	0.336
-468.186	16.068	-0.132	0.104
-467.172	-106.307	-0.188	-0.042
-466.157	157.959	0.088	0.123
-465.143	92.489	-0.159	0.180
-464.128	111.095	-0.187	-0.227
-463.113	-54.572	0.242	-0.110
-462.099	-90.092	0.250	0.073
-461.084	352.651	0.154	-0.306
-460.070	-43.445	-0.363	-0.184
-459.055	-107.176	-0.063	-0.014
-458.040	-167.617	-0.203	0.008
-457.026	219.064	0.056	0.089
-456.011	342.517	0.077	0.152
-454.997	800.000	0.091	0.323
-453.982	-67.746	-0.294	-0.116
-452.968	88.454	0.079	0.088
-451.953	-200.000	0.012	-0.088
-450.938	-200.000	-0.054	-0.309
-449.924	50.800	0.259	-0.246
-448.909	224.752	0.122	0.197
-447.895	-10.286	-0.229	-0.153
-446.880	181.877	0.082	0.122
-445.865	-40.360	0.095	-0.050
-444.851	522.003	0.062	0.147
-443.836	20.457	-0.414	0.336
-442.822	800.000	0.098	-0.405
-441.807	-52.794	-0.095	-0.044
-440.792	-69.657	0.207	0.079
-439.778	800.000	0.051	0.165
-438.763	-15.329	0.016	0.010
-437.749	-107.997	-0.197	-0.043
-436.734	-200.000	-0.016	0.239
-435.719	-68.258	-0.193	0.075
-434.705	49.288	-0.074	-0.069
-433.690	-200.000	-0.008	-0.354
-432.676	487.976	-0.147	-0.336
-431.661	-200.000	0.019	0.387
-430.646	8.884	-0.194	0.147
-429.632	135.463	-0.160	0.209
-428.617	45.179	0.087	0.081
-427.603	-200.000	0.038	0.169
-426.588	255.607	0.088	-0.151
-425.573	57.350	0.129	0.127
-424.559	73.518	-0.091	-0.096
-423.544	-180.343	-0.131	-0.003
-422.530	800.000	-0.078	-0.299
-421.515	-41.041	-0.221	0.115
-420.500	222.911	-0.076	-0.123
-419.486	97.751	0.156	0.180
-418.471	-17.251	0.183	-0.116
-417.457	6.290	0.039	-0.029
-416.442	-172.541	-0.132	0.004
-415.428	715.698	-0.153	0.406
-414.413	-188.619	0.225	-0.003
-413.398	115.188	-0.284	-0.348
-412.384	10.860	0.177	0.136
-411.369	6.391	0.185	0.138
-410.355	800.000	0.044	-0.130
-409.340	800.000	-0.052	-0.182
-408.325	107.163	0.178	0.212
-407.311	276.214	0.039	0.070
-406.296	-200.000	0.001	-0.093
-405.282	67.218	-0.135	-0.138
-404.267	-22.686	-0.216	0.130
-403.252	-200.000	0.007	0.351
-402.238	-53.522	-0.347	-0.159
-401.223	-113.460	-0.087	0.017
-400.209	-13.722	-0.289	0.187
-399.194	-56.352	-0.386	-0.172
-398.179	61.080	0.248	0.247
-397.165	15.428	0.145	-0.114
-396.150	434.929	0.065	-0.141
-395.136	-200.000	-0.050	-0.311
-394.121	-10.091	0.278	-0.185
-393.106	408.922	0.064	0.135
-392.092	573.329	-0.097	-0.237
-391.077	-26.730	0.094	0.055
-390.063	-114.827	0.064	-0.012
-389.048	106.338	-0.035	-0.042
-388.033	800.000	-0.160	0.552
-387.019	126.112	-0.094	0.119
-386.004	654.490	0.100	-0.256
-384.990	-9.392	0.122	-0.082
-383.975	-120.530	-0.125	-0.021
-382.960	157.185	0.179	0.247
-381.946	-114.297	0.084	0.016
-380.931	-200.000	0.009	0.211
-379.917	-89.978	0.149	0.043
-378.902	800.000	-0.109	0.334
-377.888	-34.046	0.134	-0.074
-376.873	3.206	0.050	0.037
-375.858	509.728	0.077	0.178
-374.844	-200.000	-0.032	-0.269
-373.829	232.975	0.129	0.212
-372.815	800.000	-0.064	-0.248
-371.800	-109.819	-0.499	0.105
-370.785	800.000	0.091	-0.276
-369.771	800.000	0.041	0.158
-368.756	-131.741	0.275	-0.036
-367.742	92.160	-0.305	0.344
-366.727	406.227	0.094	0.198
-365.712	-100.912	0.386	0.095
-364.698	-200.000	0.022	0.255
-363.683	-59.653	0.124	-0.053
-362.669	26.954	-0.135	0.113
-361.654	-140.693	0.370	-0.038
-360.639	84.715	0.082	0.090
-359.625	170.802	-0.221	-0.317
-358.610	290.497	-0.057	0.103
-357.596	62.294	-0.098	-0.098
-356.581	-142.597	0.269	-0.026
-355.566	22.981	-0.125	-0.103
-354.552	-90.379	0.324	-0.094
-353.537	-200.000	0.013	-0.413
-352.523	1.850	-0.086	0.062
-351.508	230.008	0.157	0.256
-350.493	800.000	-0.036	0.122
-349.479	54.836	0.053	0.051
-348.464	264.624	0.219	-0.382
-347.450	-19.732	0.381	-0.236
-346.435	71.029	0.081	0.084
-345.420	-200.000	-0.005	-0.202
-344.406	-200.000	0.008	-0.157
-343.391	232.382	-0.161	-0.264
-342.377	612.013	0.093	-0.232
-341.362	6.944	0.319	0.237
-340.348	54.235	0.257	0.247
-339.333	-200.000	-0.054	-0.358
-338.318	-200.000	-0.006	-0.210
-337.304	216.113	-0.124	0.197
-336.289	-26.720	0.130	0.076
-335.275	800.000	-0.033	-0.136
-334.260	89.878	0.072	0.081
-333.245	800.000	0.041	0.152
-332.231	-55.071	-0.314	0.141
-331.216	341.024	0.021	-0.040
-330.202	-200.000	-0.008	-0.055
-329.187	-121.093	0.230	0.039
-328.172	-200.000	-0.004	-0.117
-327.158	344.345	-0.117	0.229
-326.143	-2.745	0.152	0.106
-325.129	-137.357	-0.313	-0.035
-324.114	123.696	-0.217	0.272
-323.099	301.425	-0.124	0.229
-322.085	800.000	0.049	-0.188
-321.070	-200.000	0.028	0.217
-320.056	-111.634	-0.056	0.011
-319.041	-134.862	-0.316	-0.038
-318.026	800.000	0.075	-0.212
-317.012	-92.852	-0.181	0.050
-315.997	203.957	-0.044	-0.068
-314.983	800.000	-0.095	0.362
-313.968	-61.718	-0.330	-0.138
-312.953	255.384	0.032	-0.055
-311.939	800.000	0.012	-0.043
-310.924	-153.735	0.169	0.012
-309.910	54.302	-0.198	-0.191
-308.895	-76.010	0.247	-0.087
-307.880	-200.000	0.000	0.040
-306.866	800.000	0.106	0.308
-305.851	409.420	-0.057	-0.121
-304.837	368.513	0.173	0.349
-303.822	-174.394	0.147	0.004
-302.807	249.342	-0.058	-0.098
-301.793	34.506	0.080	0.070
-300.778	-118.007	0.176	0.031
-299.764	105.326	0.263	0.309
-298.749	-104.719	0.221	0.051
-297.735	-79.978	0.161	-0.054
-296.720	-57.694	-0.175	-0.077
-295.705	135.689	-0.097	-0.125
-294.691	-99.101	-0.252	-0.064
-293.676	35.400	0.198	-0.173
-292.662	256.077	0.164	-0.281
-291.647	237.595	-0.125	-0.206
-290.632	-83.582	0.223	-0.071
-289.618	534.304	0.036	-0.084
-288.603	-48.836	0.299	0.143
-287.589	-200.000	-0.048	-0.221
-286.574	-200.000	-0.008	-0.220
-285.559	108.473	0.282	-0.335
-284.545	-136.609	-0.083	-0.010
-283.530	-155.726	-0.036	0.002
-282.516	18.984	0.218	0.174
-281.501	-131.864	-0.142	-0.018
-280.486	21.950	-0.280	0.228
-279.472	-77.431	-0.308	-0.107
-278.457	-57.388	0.180	0.079
-277.443	-83.188	-0.162	0.052
-276.428	-109.461	0.219	0.046
-275.413	-200.000	0.038	-0.466
-274.399	-23.769	0.163	-0.097
-273.384	-7.191	-0.148	-0.100
-272.370	-48.368	0.146	-0.070
-271.355	131.243	0.062	-0.080
-270.340	95.118	0.169	-0.192
-269.326	-200.000	-0.024	-0.311
-268.311	83.906	0.080	0.087
-267.297	168.635	0.126	0.179
-266.282	-200.000	-0.003	-0.197
-265.267	113.590	0.170	0.206
-264.253	800.000	-0.028	0.092
-263.238	155.780	0.112	0.154
-262.224	215.107	0.155	-0.246
-261.209	-177.052	0.039	0.001
-260.195	-7.693	0.252	-0.169
-259.180	-104.905	0.236	-0.054
-258.165	347.175	-0.103	0.203
-257.151	-75.167	0.371	0.132
-256.136	-4.347	-0.236	-0.163
-255.122	-142.812	-0.190	-0.018
-254.107	-66.156	-0.092	0.036
-253.092	-69.914	-0.197	-0.075
-252.078	-118.468	-0.179	0.032
-251.063	-200.000	-0.010	-0.236
-250.049	411.002	0.054	-0.115
-249.034	-7.773	-0.209	-0.141
-248.019	-48.314	-0.036	0.018
-247.005	-61.987	-0.243	-0.101
-245.990	800.000	-0.027	-0.086
-244.976	800.000	0.015	0.057
-243.961	59.587	0.200	0.196
-242.946	-116.714	0.282	0.052
-241.932	14.468	0.197	-0.153
-240.917	-16.230	0.084	0.053
-239.903	800.000	-0.049	-0.152
-238.888	-62.650	0.260	0.107
-237.873	87.470	-0.092	0.101
-236.859	-200.000	0.005	-0.032
-235.844	77.218	-0.085	0.089
-234.830	-200.000	0.058	0.351
-233.815	-109.731	0.253	-0.053
-232.800	-18.304	-0.125	0.078
-231.786	124.532	-0.284	0.356
-230.771	-200.000	0.074	0.395
-229.757	8.449	-0.065	0.049
-228.742	422.691	-0.028	0.060
-227.727	-105.000	-0.546	-0.124
-226.713	-109.068	0.173	0.037
-225.698	445.413	-0.114	0.248
-224.684	229.843	0.082	0.133
-223.669	-200.000	-0.017	-0.156
-222.655	-116.854	0.140	-0.025
-221.640	-31.275	0.394	-0.221
-220.625	-200.000	0.121	0.600
-219.611	-200.000	-0.031	0.290
-218.596	199.025	-0.062	0.094
-217.582	-200.000	0.001	-0.066
-216.567	-23.061	0.296	0.177
-215.552	354.960	-0.068	-0.135
-214.538	-82.835	0.256	-0.082
-213.523	800.000	0.035	0.153
-212.509	45.588	0.081	0.074
-211.494	188.470	0.152	0.227
-210.479	60.064	-0.223	0.219
-209.465	313.930	-0.159	-0.297
-208.450	-57.879	0.179	0.078
-207.436	-200.000	0.025	0.315
-206.421	122.523	-0.140	-0.174
-205.406	-200.000	0.023	-0.306
-204.392	-200.000	0.034	-0.392
-203.377	-87.479	0.187	0.056
-202.363	88.595	0.056	-0.062
-201.348	-200.000	0.006	-0.074
-200.333	-143.783	0.058	0.005
-199.319	116.733	-0.148	0.180
-198.304	-50.123	0.350	0.164
-197.290	104.383	0.087	-0.102
-196.275	-169.668	0.295	0.011
-195.260	-80.312	-0.387	-0.128
-194.246	-14.417	-0.285	-0.182
-193.231	-75.821	-0.298	-0.105
-192.217	800.000	0.025	-0.107
-191.202	81.249	0.132	-0.141
-190.187	-153.297	-0.059	-0.004
-189.173	-200.000	-0.035	0.159
-188.158	-40.774	0.210	-0.108
-187.144	-131.743	-0.206	0.027
-186.129	-35.841	-0.236	-0.127
-185.114	392.193	-0.089	-0.184
-184.100	459.125	0.083	-0.183
-183.085	-200.000	-0.041	0.377
-182.071	33.177	0.055	-0.047
-181.056	-16.612	0.110	-0.069
-180.042	31.287	-0.151	-0.129
-179.027	-162.437	0.195	-0.010
-178.012	-200.000	0.030	0.383
-176.998	-200.000	-0.061	-0.291
-175.983	-66.450	0.091	0.036
-174.969	106.990	0.181	0.213
-173.954	-200.000	0.017	0.151
-172.939	284.879	0.036	-0.065
-171.925	52.087	0.174	-0.165
-170.910	7.707	0.082	-0.061
-169.896	40.843	0.282	0.252
-168.881	357.383	0.229	0.454
-167.866	-73.770	-0.184	0.066
-166.852	-200.000	0.024	0.398
-165.837	-139.748	-0.188	-0.020
-164.823	-113.551	0.166	0.032
-163.808	-200.000	0.055	0.408
-162.793	-68.716	0.072	-0.028
-161.779	-144.415	-0.323	0.030
-160.764	59.488	-0.151	-0.147
-159.750	800.000	0.045	0.127
-158.735	800.000	-0.032	0.091
-157.720	216.582	-0.089	-0.141
-156.706	-28.398	0.176	-0.101
-155.691	52.911	0.187	0.178
-154.677	-121.522	-0.144	-0.024
-153.662	-97.945	0.258	0.066
-152.647	-200.000	-0.014	0.226
-151.633	63.691	0.101	-0.100
-150.618	-200.000	0.001	0.092
-149.604	-200.000	0.018	0.340
-148.589	158.735	0.177	0.243
-147.574	-152.465	-0.122	0.009
-146.560	-135.441	0.052	0.006
-145.545	6.800	0.101	0.074
-144.531	-200.000	0.012	-0.253
-143.516	-18.836	-0.174	0.108
-142.502	21.928	0.185	-0.149
-141.487	-142.761	0.329	-0.032
-140.472	91.874	-0.121	-0.135
-139.458	149.864	-0.123	-0.165
-138.443	-63.301	0.256	0.105
-137.429	56.254	-0.057	0.055
-136.414	-133.231	0.132	0.016
-135.399	109.053	-0.184	-0.218
-134.385	-72.540	0.131	0.048
-133.370	-82.601	-0.198	-0.064
-132.356	5.023	0.067	0.049
-131.341	-200.000	-0.000	0.206
-130.326	-67.352	-0.200	0.078
-129.312	3.226	0.276	-0.199
-128.297	87.723	-0.094	0.103
-127.283	800.000	-0.094	0.335
-126.268	-143.898	-0.136	-0.013
-125.253	800.000	0.101	0.327
-124.239	-42.066	-0.181	0.092
-123.224	-96.700	-0.208	0.054
-122.210	44.308	-0.244	-0.222
-121.195	-200.000	0.005	0.029
-120.180	99.658	0.110	0.127
