DTS Sentinel unit serial number:	SN413079Multiplexer serial number:	ORYXHardware model number:	OX4-SRSoftware version number:	ORYX F/W v4.00 Oryx Data Collector v3.7.2.0data status	okinstallation	princeton_trtdifferential loss correction	single-endedforward channel	channel 4reverse channel	N/Adate	2019/09/12time	18:37:18forward acquisition time	15.00reverse acquisition time	0.00gamma	496.2192k internal	0.2307k external	0.2307temperature offset calibration	1.0131default loss term (dB/km)	0.3790temperature slope calibration	1.0000multiplexer offset coefficient	1.0000multiplexer slope coefficient	1.0000fibre end	0.00T internal ref (°C)	33.12T ext. ref 1 (°C)	2.96T ext. ref 2 (°C)	27.70length (m)	temperature (°C)	Stokes	anti-Stokes-747.200	-200.000	-0.037	-0.280
-746.185	687.738	-0.022	0.057
-745.171	672.047	0.103	0.271
-744.156	763.427	0.188	-0.519
-743.142	-146.109	0.657	0.059
-742.127	40.275	-0.620	0.568
-741.112	133.231	0.513	0.675
-740.098	239.502	0.544	0.920
-739.083	107.134	0.310	-0.374
-738.069	15.221	0.827	-0.659
-737.054	-114.780	0.781	-0.152
-736.039	-200.000	0.085	-0.492
-735.025	-200.000	0.019	0.402
-734.010	-200.000	0.016	-0.944
-732.996	-93.386	-0.445	0.125
-731.981	-43.170	0.111	-0.057
-730.966	-200.000	-0.058	-0.834
-729.952	492.571	0.087	0.202
-728.937	-38.740	0.259	-0.139
-727.923	-37.943	-0.313	-0.169
-726.908	72.239	0.551	-0.584
-725.894	-43.118	0.203	0.105
-724.879	800.000	-0.101	-0.285
-723.864	-5.840	-0.490	-0.341
-722.850	79.140	0.549	-0.598
-721.835	800.000	0.086	0.300
-720.821	-55.407	-0.761	-0.347
-719.806	721.005	0.183	0.495
-718.791	516.328	-0.157	0.374
-717.777	-200.000	-0.042	0.352
-716.762	-66.678	0.573	0.231
-715.748	67.112	0.370	0.384
-714.733	182.822	-0.141	0.212
-713.718	-200.000	0.082	-0.582
-712.704	730.814	0.226	-0.613
-711.689	106.041	-0.260	-0.313
-710.675	36.936	0.793	0.712
-709.660	-200.000	-0.081	-0.388
-708.645	-46.615	-0.715	-0.356
-707.631	38.278	0.149	-0.135
-706.616	137.659	0.083	0.111
-705.602	-200.000	0.024	-0.811
-704.587	-95.222	-0.280	-0.077
-703.572	100.515	-0.202	0.238
-702.558	187.513	-0.403	-0.611
-701.543	-200.000	0.033	-0.570
-700.529	-104.080	0.459	0.108
-699.514	-192.085	0.075	0.001
-698.499	-181.626	-0.487	-0.010
-697.485	182.543	-0.071	0.106
-696.470	-138.301	0.588	0.066
-695.456	-139.015	0.930	-0.102
-694.441	-3.905	0.037	-0.026
-693.426	597.072	0.133	0.335
-692.412	-24.188	0.327	0.198
-691.397	-53.478	-0.888	0.412
-690.383	94.411	-0.747	-0.862
-689.368	-200.000	0.067	-0.407
-688.354	-12.495	-0.702	0.465
-687.339	278.206	-0.373	0.674
-686.324	-14.553	-0.313	-0.204
-685.310	666.764	0.324	0.850
-684.295	-200.000	-0.026	-0.364
-683.281	800.000	-0.261	0.904
-682.266	-200.000	-0.063	-0.326
-681.251	-200.000	-0.017	0.235
-680.237	33.027	-0.718	-0.631
-679.222	256.298	-0.155	-0.270
-678.208	800.000	-0.093	0.323
-677.193	-38.969	0.201	0.107
-676.178	-82.775	-0.759	-0.249
-675.164	-200.000	-0.177	-0.914
-674.149	-44.747	-0.373	-0.189
-673.135	735.979	0.349	0.948
-672.120	134.819	-0.076	0.100
-671.105	157.243	0.157	0.220
-670.091	156.579	-0.181	-0.253
-669.076	-27.618	-0.664	0.391
-668.062	-200.000	-0.075	0.531
-667.047	13.351	0.342	0.269
-666.032	-152.484	-0.809	0.059
-665.018	198.024	-0.441	-0.683
-664.003	-32.720	0.743	-0.419
-662.989	-148.443	0.575	-0.048
-661.974	25.949	-0.442	-0.374
-660.959	-200.000	-0.147	-0.773
-659.945	-200.000	-0.028	0.176
-658.930	-200.000	-0.139	0.641
-657.916	-200.000	0.208	1.346
-656.901	62.309	0.408	0.413
-655.886	-154.870	-0.464	0.031
-654.872	-151.454	0.620	0.047
-653.857	317.113	-0.691	1.323
-652.843	401.609	0.249	-0.529
-651.828	12.686	-0.779	-0.610
-650.814	-200.000	0.008	0.829
-649.799	-132.332	0.100	-0.013
-648.784	-99.505	0.475	0.121
-647.770	61.187	-0.692	-0.697
-646.755	-53.242	-0.182	-0.085
-645.741	-109.680	0.468	0.100
-644.726	110.608	0.467	-0.569
-643.711	-133.012	-0.938	-0.121
-642.697	-200.000	0.117	0.748
-641.682	-187.479	-1.134	-0.015
-640.668	-35.423	0.375	0.206
-639.653	20.626	-0.452	0.371
-638.638	-60.406	0.360	0.155
-637.624	-162.710	-0.096	0.005
-636.609	-200.000	-0.067	-0.616
-635.595	-54.893	0.909	-0.415
-634.580	800.000	0.140	-0.568
-633.565	-81.599	-0.275	-0.091
-632.551	-71.676	0.430	0.162
-631.536	12.344	0.351	-0.274
-630.522	-200.000	-0.004	0.365
-629.507	800.000	-0.208	-0.821
-628.492	105.510	-0.329	0.393
-627.478	365.348	-0.359	0.731
-626.463	-129.306	0.507	-0.071
-625.449	-46.964	-0.456	-0.226
-624.434	-200.000	0.065	0.433
-623.419	60.211	0.480	-0.481
-622.405	-200.000	-0.113	0.766
-621.390	800.000	0.086	0.366
-620.376	-200.000	0.189	0.850
-619.361	-200.000	-0.038	-0.194
-618.346	297.797	0.342	-0.636
-617.332	224.399	0.386	-0.631
-616.317	-47.885	0.284	-0.139
-615.303	231.652	0.132	-0.219
-614.288	158.641	-0.187	-0.263
-613.273	468.186	0.095	-0.215
-612.259	-30.918	0.468	0.267
-611.244	407.460	-0.312	0.668
-610.230	-162.308	0.434	0.022
-609.215	113.594	0.383	-0.470
-608.201	64.879	0.148	-0.151
-607.186	97.843	0.299	0.348
-606.171	748.646	0.240	0.653
-605.157	521.820	-0.161	0.382
-604.142	113.451	-0.191	-0.234
-603.128	800.000	0.093	-0.294
-602.113	136.145	0.299	0.394
-601.098	-94.437	-0.624	0.172
-600.084	-200.000	-0.096	-0.766
-599.069	28.097	0.444	0.379
-598.055	-131.667	0.608	-0.081
-597.040	183.887	-0.385	-0.576
-596.025	27.932	0.742	-0.633
-595.011	-69.014	-0.187	-0.073
-593.996	324.951	-0.106	-0.205
-592.982	-200.000	0.001	0.236
-591.967	-80.387	-0.887	0.299
-590.952	800.000	-0.020	-0.078
-589.938	-50.482	-0.179	-0.086
-588.923	-60.507	0.619	-0.266
-587.909	58.455	-0.199	-0.197
-586.894	-107.311	0.271	-0.060
-585.879	-200.000	0.030	-1.218
-584.865	405.681	-0.144	-0.307
-583.850	800.000	-0.227	0.637
-582.836	-142.925	0.409	-0.040
-581.821	-31.179	-0.295	0.168
-580.806	800.000	-0.239	0.780
-579.792	-130.620	-0.026	0.004
-578.777	-130.579	-0.876	-0.119
-577.763	252.777	0.176	0.304
-576.748	-200.000	-0.016	0.079
-575.733	-200.000	-0.101	0.683
-574.719	50.176	0.226	0.216
-573.704	-102.857	-0.260	-0.062
-572.690	-164.700	-0.232	-0.011
-571.675	41.929	-0.503	-0.461
-570.661	161.045	0.495	-0.699
-569.646	14.615	-0.231	0.182
-568.631	-111.794	0.377	0.077
-567.617	-49.342	-0.170	0.082
-566.602	403.909	-0.561	-1.192
-565.588	-200.000	-0.008	-0.875
-564.573	357.715	0.237	-0.478
-563.558	20.570	0.530	0.433
-562.544	346.884	0.410	-0.814
-561.529	-164.424	-0.233	-0.011
-560.515	800.000	0.180	-0.791
-559.500	30.819	0.669	-0.578
-558.485	40.090	-0.143	0.130
-557.471	-65.878	-0.399	-0.161
-556.456	-191.546	0.208	0.002
-555.442	57.046	-0.451	-0.444
-554.427	251.278	-0.359	0.616
-553.412	-90.310	-0.320	-0.094
-552.398	800.000	-0.205	0.606
-551.383	-200.000	-0.127	0.629
-550.369	708.683	-0.112	0.299
-549.354	-140.668	1.010	0.106
-548.339	800.000	-0.120	0.374
-547.325	-129.820	-0.160	0.022
-546.310	-200.000	-0.151	-0.759
-545.296	5.319	0.656	-0.488
-544.281	308.145	0.227	0.427
-543.266	-146.756	0.365	-0.032
-542.252	133.599	-0.263	0.343
-541.237	14.358	0.439	0.346
-540.223	-41.797	-0.574	-0.297
-539.208	-64.510	0.474	-0.194
-538.193	177.344	-0.254	0.373
-537.179	66.492	-0.163	-0.167
-536.164	-60.334	-0.733	-0.315
-535.150	-34.736	-0.089	0.049
-534.135	-16.244	0.311	0.199
-533.121	-37.861	0.717	-0.385
-532.106	-200.000	0.006	0.130
-531.091	-38.516	0.358	-0.191
-530.077	-114.447	-0.638	0.124
-529.062	800.000	-0.156	0.477
-528.048	-43.906	-0.932	-0.473
-527.033	295.013	0.306	0.564
-526.018	105.833	-0.458	0.547
-525.004	398.494	-0.133	0.282
-523.989	-49.046	0.049	0.024
-522.975	800.000	0.230	-0.791
-521.960	-21.490	0.364	-0.224
-520.945	-106.529	-1.036	0.233
-519.931	-127.130	-0.281	0.041
-518.916	262.655	-0.168	-0.294
-517.902	-115.520	-0.632	0.120
-516.887	184.855	0.346	-0.517
-515.872	-200.000	-0.140	-0.709
-514.858	-148.390	-0.045	0.004
-513.843	320.598	0.296	-0.566
-512.829	195.927	0.237	-0.364
-511.814	53.897	-0.350	0.339
-510.799	11.342	0.229	0.177
-509.785	-200.000	-0.072	0.951
-508.770	278.347	-0.289	0.519
-507.756	193.465	-0.382	-0.582
-506.741	423.111	0.180	0.390
-505.726	-150.441	0.581	-0.045
-504.712	800.000	-0.050	0.178
-503.697	65.431	-0.176	0.180
-502.683	-199.032	-0.562	0.003
-501.668	85.899	-1.027	-1.138
-500.653	-27.466	-0.391	0.229
-499.639	235.679	0.149	0.248
-498.624	-119.099	-0.911	0.160
-497.610	42.916	0.476	0.437
-496.595	26.116	-0.693	-0.583
-495.581	-62.548	1.135	0.475
-494.566	-200.000	-0.177	0.819
-493.551	-10.513	0.245	-0.163
-492.537	112.056	0.407	-0.495
-491.522	-200.000	-0.057	-0.587
-490.508	112.300	-0.570	0.694
-489.493	79.058	0.129	0.139
-488.478	-44.714	0.767	-0.386
-487.464	-9.606	-0.284	-0.191
-486.449	-200.000	-0.143	-0.743
-485.435	45.180	-0.115	0.106
-484.420	31.693	0.473	-0.410
-483.405	-134.505	-0.136	0.017
-482.391	-154.648	-0.795	-0.053
-481.376	57.461	-0.246	-0.241
-480.362	-200.000	0.108	0.736
-479.347	800.000	0.131	0.369
-478.332	738.465	0.227	-0.614
-477.318	-123.119	0.979	0.158
-476.303	800.000	0.105	-0.334
-475.289	110.903	-0.315	-0.382
-474.274	-140.231	0.672	0.071
-473.259	33.579	0.221	-0.193
-472.245	652.373	-0.221	0.571
-471.230	37.269	0.706	0.629
-470.216	-200.000	0.005	-0.045
-469.201	-200.000	-0.074	0.834
-468.186	648.898	-0.179	0.460
-467.172	800.000	0.274	0.962
-466.157	-112.382	-0.623	0.125
-465.143	356.753	-0.268	-0.537
-464.128	350.207	0.220	0.438
-463.113	545.619	0.225	-0.541
-462.099	113.775	0.128	0.156
-461.084	-76.772	-0.377	0.133
-460.070	-128.492	-1.744	-0.249
-459.055	-129.754	-0.368	-0.051
-458.040	312.688	-0.275	0.520
-457.026	-134.728	-0.522	-0.064
-456.011	-83.157	0.438	0.142
-454.997	72.463	-0.480	0.503
-453.982	800.000	0.041	0.134
-452.968	800.000	0.129	0.432
-451.953	-200.000	-0.034	-0.550
-450.938	275.846	-0.261	0.466
-449.924	-73.383	0.706	0.259
-448.909	85.453	-0.425	0.469
-447.895	82.222	0.380	-0.414
-446.880	50.934	0.693	-0.660
-445.865	-110.525	-0.350	0.073
-444.851	-200.000	-0.022	0.309
-443.836	-59.650	-0.401	-0.173
-442.822	-158.079	1.338	-0.079
-441.807	33.380	0.434	0.378
-440.792	800.000	0.113	0.421
-439.778	180.741	0.088	0.130
-438.763	26.252	-0.575	-0.483
-437.749	-160.185	-0.800	-0.044
-436.734	748.769	0.168	0.455
-435.719	-162.489	0.908	0.045
-434.705	-193.571	-0.334	0.003
-433.690	46.495	0.323	0.301
-432.676	-200.000	0.009	-0.406
-431.661	-200.000	0.125	0.965
-430.646	-72.063	0.099	-0.037
-429.632	-200.000	-0.090	0.452
-428.617	-200.000	-0.073	0.911
-427.603	184.994	-0.129	-0.193
-426.588	-64.778	-0.709	-0.289
-425.573	-139.873	-0.151	0.016
-424.559	357.501	-0.324	0.649
-423.544	-69.947	-1.053	0.403
-422.530	-106.538	0.319	-0.071
-421.515	-200.000	-0.061	-0.605
-420.500	210.420	-0.394	-0.621
-419.486	14.235	0.248	0.194
-418.471	396.061	0.230	-0.482
-417.457	800.000	-0.014	0.056
-416.442	-139.777	-0.759	-0.081
-415.428	-200.000	0.033	0.380
-414.413	-200.000	-0.009	-0.877
-413.398	800.000	0.179	-0.568
-412.384	57.159	-0.372	0.364
-411.369	123.838	0.600	-0.756
-410.355	16.682	-0.275	0.219
-409.340	71.166	0.485	0.505
-408.325	271.963	0.341	0.603
-407.311	-0.736	-0.309	-0.220
-406.296	-175.954	0.430	-0.011
-405.282	-63.703	-0.800	-0.329
-404.267	337.885	0.031	-0.060
-403.252	-53.704	-1.069	-0.490
-402.238	34.282	-0.496	0.434
-401.223	140.878	0.446	-0.591
-400.209	-81.314	-0.442	0.146
-399.194	194.834	0.570	0.867
-398.179	274.151	0.367	0.652
-397.165	800.000	0.283	0.922
-396.150	-137.564	0.150	0.017
-395.136	-164.392	0.057	0.003
-394.121	-118.969	0.832	-0.146
-393.106	26.028	-0.588	-0.492
-392.092	277.770	-0.440	-0.787
-391.077	-200.000	-0.000	0.246
-390.063	-148.575	-0.618	0.051
-389.048	-200.000	0.017	0.350
-388.033	46.250	0.075	0.069
-387.019	800.000	0.373	1.127
-386.004	-102.186	-0.830	-0.200
-384.990	-152.249	0.506	0.037
-383.975	-169.259	-0.501	0.019
-382.960	717.965	-0.248	-0.660
-381.946	800.000	-0.229	-0.997
-380.931	-52.206	-1.087	-0.506
-379.917	-65.764	1.513	-0.607
-378.902	64.457	-0.457	-0.462
-377.888	-7.836	0.519	-0.351
-376.873	-135.380	-0.473	0.057
-375.858	-0.911	0.616	-0.437
-374.844	62.433	-0.236	0.236
-373.829	-138.201	-0.270	0.030
-372.815	-80.087	0.331	0.111
-371.800	-115.610	-0.577	0.109
-370.785	0.169	-0.317	-0.227
-369.771	-49.380	0.777	-0.372
-368.756	-200.000	0.038	-0.637
-367.742	447.843	0.414	-0.914
-366.727	20.118	-0.683	0.553
-365.712	-143.308	-0.303	-0.029
-364.698	81.513	-0.591	-0.640
-363.683	-200.000	-0.152	-0.914
-362.669	-125.632	0.263	0.040
-361.654	472.941	-0.143	-0.324
-360.639	-62.160	-0.522	-0.218
-359.625	-200.000	-0.005	-0.539
-358.610	-66.532	0.873	-0.347
-357.596	452.542	-0.024	0.054
-356.581	-200.000	0.165	-0.854
-355.566	501.295	-0.326	-0.755
-354.552	-200.000	0.036	-0.508
-353.537	-90.832	0.452	0.130
-352.523	260.084	-0.275	-0.476
-351.508	-11.522	-0.217	0.143
-350.493	642.311	-0.166	0.424
-349.479	-79.717	-0.781	-0.263
-348.464	-155.900	-0.333	0.021
-347.450	83.796	0.515	0.563
-346.435	713.256	-0.247	0.655
-345.420	118.826	0.181	0.224
-344.406	169.818	0.306	-0.438
-343.391	781.371	-0.256	0.701
-342.377	-170.473	-0.664	0.023
-341.362	-100.788	-0.083	0.020
-340.348	-109.572	-1.108	0.234
-339.333	504.198	-0.147	0.341
-338.318	704.466	0.159	0.419
-337.304	-117.456	-0.214	0.039
-336.289	-200.000	0.046	0.550
-335.275	-56.479	-0.599	0.266
-334.260	-200.000	-0.005	0.261
-333.245	-52.943	0.655	0.302
-332.231	-105.138	-0.780	-0.178
-331.216	-200.000	-0.188	-0.847
-330.202	202.957	0.126	-0.195
-329.187	-200.000	-0.018	0.117
-328.172	372.031	-0.267	-0.542
-327.158	291.538	0.434	-0.791
-326.143	14.061	-0.184	0.144
-325.129	-69.255	0.384	0.148
-324.114	-0.523	-0.083	0.059
-323.099	774.019	-0.027	-0.073
-322.085	-70.654	0.360	-0.136
-321.070	800.000	-0.102	-0.302
-320.056	-44.136	-0.157	-0.079
-319.041	29.843	0.095	0.081
-318.026	23.028	0.307	-0.252
-317.012	-145.121	0.855	-0.078
-315.997	444.615	0.299	0.657
-314.983	564.456	0.251	0.609
-313.968	168.412	-0.157	0.224
-312.953	800.000	0.220	0.779
-311.939	79.810	0.179	0.192
-310.924	-107.755	0.013	-0.003
-309.910	-106.918	0.371	0.082
-308.895	-28.975	0.671	-0.385
-307.880	11.153	0.056	0.043
-306.866	200.582	0.223	0.343
-305.851	195.848	0.103	-0.157
-304.837	-41.064	0.319	-0.165
-303.822	16.631	-0.196	0.155
-302.807	93.496	-0.564	-0.638
-301.793	-200.000	-0.047	0.391
-300.778	346.030	-0.358	-0.703
-299.764	-178.782	0.842	0.019
-298.749	800.000	-0.101	0.383
-297.735	-51.783	-0.677	-0.315
-296.720	-200.000	-0.051	0.364
-295.705	626.330	-0.078	-0.198
-294.691	92.050	-0.828	0.932
-293.676	-10.948	0.199	0.131
-292.662	431.655	0.156	-0.337
-291.647	-13.432	-0.763	-0.494
-290.632	145.376	0.306	-0.409
-289.618	-200.000	-0.018	0.437
-288.603	199.918	0.380	-0.583
-287.589	-173.592	-0.343	-0.010
-286.574	-182.350	0.427	-0.008
-285.559	662.532	0.218	0.561
-284.545	-93.100	-1.622	0.451
-283.530	-104.267	0.108	-0.025
-282.516	5.159	0.353	-0.260
-281.501	-89.700	0.578	-0.169
-280.486	-196.569	0.363	0.002
-279.472	176.482	-0.126	0.182
-278.457	800.000	0.210	0.655
-277.443	360.397	-0.078	-0.155
-276.428	-200.000	0.100	0.494
-275.413	599.840	-0.095	-0.234
-274.399	-147.181	-0.677	-0.058
-273.384	90.316	0.307	0.343
-272.370	800.000	0.129	-0.453
-271.355	-172.255	0.680	-0.022
-270.340	-200.000	0.058	0.599
-269.326	531.478	0.141	-0.333
-268.311	243.083	0.155	0.259
-267.297	-200.000	0.024	-0.476
-266.282	-16.206	0.579	-0.367
-265.267	-200.000	-0.051	-0.251
-264.253	538.159	0.263	-0.623
-263.238	-30.043	0.194	0.110
-262.224	65.707	-0.141	-0.143
-261.209	57.785	-0.857	0.837
-260.195	147.051	0.460	0.617
-259.180	-200.000	0.031	0.197
-258.165	-76.473	0.475	0.167
-257.151	-62.058	-0.139	-0.058
-256.136	30.334	0.116	-0.099
-255.122	-200.000	-0.040	-0.349
-254.107	402.559	-0.344	-0.722
-253.092	16.886	-0.171	0.135
-252.078	82.051	-0.381	0.412
-251.063	-49.253	0.558	-0.266
-250.049	64.222	-0.263	0.264
-249.034	800.000	-0.265	-1.051
-248.019	19.432	0.534	-0.428
-247.005	5.180	0.617	-0.453
-245.990	-200.000	0.011	0.104
-244.976	134.952	-0.732	0.949
-243.961	-42.278	0.796	0.405
-242.946	-200.000	0.043	0.403
-241.932	-178.927	0.882	0.020
-240.917	-99.189	-0.214	0.054
-239.903	230.140	-0.425	0.693
-238.888	-12.782	-0.445	-0.289
-237.873	238.537	-0.196	0.324
-236.859	-200.000	-0.250	1.158
-235.844	236.511	-0.400	0.660
-234.830	-137.358	0.519	0.059
-233.815	-102.005	1.204	-0.290
-232.800	-28.319	0.416	-0.239
-231.786	235.145	0.217	0.357
-230.771	159.270	-0.550	-0.763
-229.757	-30.975	-0.670	-0.377
-228.742	38.310	-0.509	-0.452
-227.727	-136.754	-0.565	-0.065
-226.713	529.732	-0.131	-0.309
-225.698	106.380	-0.063	-0.074
-224.684	800.000	0.187	0.773
-223.669	-58.206	-0.826	0.359
-222.655	-39.059	0.135	-0.071
-221.640	-1.846	0.479	0.336
-220.625	-200.000	-0.112	0.624
-219.611	800.000	-0.211	-0.687
-218.596	-122.707	0.675	-0.109
-217.582	-102.970	0.344	-0.081
-216.567	142.653	0.111	-0.148
-215.552	-133.191	0.529	-0.067
-214.538	-200.000	0.116	-0.542
-213.523	-200.000	0.040	0.296
-212.509	23.219	0.569	-0.465
-211.494	7.388	0.467	0.347
-210.479	101.436	-0.396	-0.459
-209.465	-54.183	-0.778	-0.352
-208.450	212.761	0.231	-0.363
-207.436	79.864	0.743	0.795
-206.421	-5.376	-0.360	-0.246
-205.406	73.957	-0.137	0.143
-204.392	13.077	0.639	0.492
-203.377	-200.000	-0.035	0.263
-202.363	16.436	0.712	0.560
-201.348	-89.236	0.820	0.241
-200.333	421.089	0.043	-0.092
-199.319	108.552	-0.380	0.452
-198.304	671.436	0.244	-0.630
-197.290	130.510	0.291	-0.371
-196.275	-153.170	0.186	-0.013
-195.260	-44.481	0.799	0.398
-194.246	-157.920	-0.468	0.028
-193.231	-88.710	-0.875	0.259
-192.217	193.840	-0.165	-0.249
-191.202	-70.186	0.831	-0.314
-190.187	178.904	0.239	0.348
-189.173	-200.000	0.023	0.381
-188.158	81.753	0.530	0.571
-187.144	-200.000	0.111	-0.651
-186.129	23.329	0.544	-0.445
-185.114	-200.000	-0.009	-0.888
-184.100	-70.773	0.569	-0.214
-183.085	800.000	0.186	0.721
-182.071	-126.521	0.968	0.143
-181.056	123.584	0.555	-0.692
-180.042	800.000	-0.217	0.603
-179.027	168.702	0.677	0.960
-178.012	-200.000	0.076	0.572
-176.998	19.221	-0.266	-0.212
-175.983	-6.366	-1.268	-0.860
-174.969	-200.000	-0.002	-0.204
-173.954	-73.669	-0.426	-0.154
-172.939	800.000	0.097	0.274
-171.925	168.406	0.365	-0.517
-170.910	456.377	-0.170	0.376
-169.896	-125.369	0.480	0.073
-168.881	274.837	-0.102	0.180
-167.866	-138.606	0.317	0.035
-166.852	-114.162	0.304	0.058
-165.837	-68.419	-0.807	0.312
-164.823	-149.102	0.573	-0.046
-163.808	495.771	0.361	-0.824
-162.793	-200.000	-0.053	0.249
-161.779	204.959	0.081	-0.125
-160.764	-200.000	-0.043	0.232
-159.750	-113.359	-0.396	0.077
-158.735	-200.000	-0.111	-0.579
-157.720	-128.386	-0.986	0.139
-156.706	800.000	0.377	1.082
-155.691	434.386	0.251	0.542
-154.677	-167.789	-0.882	-0.035
-153.662	800.000	0.131	0.452
-152.647	800.000	-0.314	0.996
-151.633	-66.263	0.490	0.194
-150.618	253.809	0.179	0.304
-149.604	-200.000	-0.072	-0.727
-148.589	521.615	0.152	0.354
-147.574	120.429	-0.442	0.545
-146.560	-119.548	-0.814	-0.140
-145.545	-200.000	0.040	0.197
-144.531	-97.269	0.537	0.139
-143.516	-200.000	0.118	-0.982
-142.502	-45.020	-0.202	0.100
-141.487	21.785	0.345	0.279
-140.472	81.699	0.136	-0.147
-139.458	16.052	0.373	-0.292
-138.443	217.151	0.132	-0.209
-137.429	-66.662	0.073	-0.029
-136.414	234.712	-0.123	0.201
-135.399	-200.000	-0.046	0.219
-134.385	-200.000	-0.009	0.586
-133.370	800.000	0.244	-0.875
-132.356	-45.772	-0.531	-0.261
-131.341	211.677	0.455	0.712
-130.326	16.928	0.670	-0.527
-129.312	-132.304	0.573	-0.074
-128.297	266.789	-0.137	-0.238
-127.283	70.385	0.615	0.631
-126.268	-181.031	0.386	-0.008
-125.253	-112.337	-0.401	-0.080
-124.239	239.004	0.492	-0.812
-123.224	800.000	0.046	-0.184
-122.210	22.802	0.441	0.358
-121.195	395.162	0.562	-1.163
