DTS Sentinel unit serial number:	SN413079Multiplexer serial number:	ORYXHardware model number:	OX4-SRSoftware version number:	ORYX F/W v4.00 Oryx Data Collector v3.7.2.0data status	okinstallation	princeton_trtdifferential loss correction	single-endedforward channel	channel 4reverse channel	N/Adate	2019/09/13time	05:53:34forward acquisition time	60.00reverse acquisition time	0.00gamma	496.2192k internal	0.2323k external	0.2323temperature offset calibration	1.0197default loss term (dB/km)	0.3790temperature slope calibration	1.0000multiplexer offset coefficient	1.0000multiplexer slope coefficient	1.0000fibre end	0.00T internal ref (°C)	26.17T ext. ref 1 (°C)	4.07T ext. ref 2 (°C)	20.95length (m)	temperature (°C)	Stokes	anti-Stokes-747.200	-142.984	0.238	-0.023
-746.185	-127.610	-0.038	-0.006
-745.171	19.793	0.153	-0.124
-744.156	-172.197	-0.211	-0.007
-743.142	53.670	-0.025	-0.024
-742.127	352.490	0.138	0.277
-741.112	30.351	-0.167	0.144
-740.098	233.551	-0.076	-0.126
-739.083	-96.985	-0.251	-0.066
-738.069	94.258	-0.105	-0.120
-737.054	-44.995	0.138	-0.069
-736.039	-179.217	-0.192	-0.004
-735.025	-120.440	-0.350	-0.060
-734.010	-200.000	-0.029	0.228
-732.996	447.994	0.138	-0.306
-731.981	-84.310	-0.291	-0.093
-730.966	68.341	0.222	0.229
-729.952	12.626	-0.285	-0.222
-728.937	-83.594	-0.254	0.082
-727.923	-200.000	0.037	0.385
-726.908	-109.691	-0.527	-0.112
-725.894	123.537	0.075	-0.095
-724.879	34.113	-0.361	0.317
-723.864	-136.452	-0.176	-0.021
-722.850	129.058	-0.178	0.229
-721.835	-74.107	-0.264	0.097
-720.821	-44.431	-0.315	-0.159
-719.806	-89.619	-0.141	-0.042
-718.791	-105.305	0.309	-0.071
-717.777	800.000	-0.084	0.261
-716.762	800.000	0.148	0.460
-715.748	-82.999	-0.250	-0.081
-714.733	29.799	-0.192	-0.165
-713.718	-200.000	-0.003	0.126
-712.704	4.502	-0.107	-0.079
-711.689	800.000	0.176	-0.533
-710.675	-116.064	-0.224	-0.042
-709.660	-41.425	0.184	0.096
-708.645	-200.000	0.007	-0.107
-707.631	276.995	0.029	0.052
-706.616	-89.824	0.145	-0.043
-705.602	-56.462	-0.399	0.178
-704.587	-6.631	0.023	-0.016
-703.572	-200.000	0.007	-0.314
-702.558	292.577	-0.092	0.169
-701.543	39.199	-0.152	-0.137
-700.529	800.000	-0.034	0.132
-699.514	-55.837	-0.262	0.118
-698.499	-178.299	0.156	0.004
-697.485	-102.534	0.077	0.019
-696.470	800.000	-0.120	-0.397
-695.456	63.520	0.129	-0.131
-694.441	282.659	0.134	0.241
-693.426	31.150	-0.135	-0.117
-692.412	-91.444	-0.239	-0.069
-691.397	-121.531	-0.228	0.038
-690.383	800.000	-0.048	-0.188
-689.368	-112.389	-0.104	0.021
-688.354	-200.000	0.014	0.282
-687.339	430.407	-0.078	-0.171
-686.324	800.000	-0.036	0.111
-685.310	-200.000	-0.033	-0.259
-684.295	-12.677	0.115	-0.075
-683.281	-122.704	-0.256	-0.042
-682.266	-4.431	0.263	0.183
-681.251	-200.000	0.002	0.253
-680.237	-25.334	0.203	0.121
-679.222	369.115	-0.056	-0.114
-678.208	-160.449	-0.233	0.013
-677.193	255.515	-0.304	0.524
-676.178	-200.000	-0.081	-0.364
-675.164	-47.135	0.154	0.076
-674.149	-41.761	-0.097	-0.050
-673.135	-200.000	0.075	-0.398
-672.120	441.635	-0.080	-0.177
-671.105	-136.449	-0.382	-0.045
-670.091	-82.393	0.252	-0.082
-669.076	-200.000	0.032	-0.212
-668.062	-91.242	0.139	0.040
-667.047	-180.867	-0.423	-0.009
-666.032	603.736	-0.057	0.143
-665.018	10.890	-0.106	-0.082
-664.003	75.032	-0.170	0.180
-662.989	-90.301	-0.074	-0.022
-661.974	78.057	-0.145	-0.155
-660.959	39.353	0.131	0.118
-659.945	649.503	-0.046	0.118
-658.930	286.920	-0.084	0.153
-657.916	61.052	-0.089	0.089
-656.901	-133.241	-0.305	-0.039
-655.886	-132.665	0.318	0.041
-654.872	-175.402	-0.139	0.004
-653.857	-20.972	-0.196	0.121
-652.843	-123.243	0.201	-0.032
-651.828	-200.000	-0.040	0.198
-650.814	225.497	0.094	0.153
-649.799	-59.608	0.248	-0.107
-648.784	-25.100	0.182	-0.109
-647.770	800.000	-0.092	0.344
-646.755	223.345	-0.075	0.121
-645.741	54.890	0.061	0.059
-644.726	79.352	0.164	0.177
-643.711	117.181	-0.198	-0.244
-642.697	-48.220	-0.104	-0.051
-641.682	-128.962	0.532	0.075
-640.668	117.772	-0.041	-0.050
-639.653	800.000	-0.157	-0.484
-638.638	167.008	0.191	0.273
-637.624	155.810	-0.188	0.261
-636.609	-200.000	0.018	-0.167
-635.595	-57.877	0.055	-0.024
-634.580	-200.000	0.007	-0.095
-633.565	800.000	-0.021	-0.071
-632.551	800.000	0.010	-0.031
-631.536	214.792	0.183	-0.292
-630.522	-76.676	-0.007	0.003
-629.507	15.779	0.240	-0.190
-628.492	34.061	-0.219	-0.192
-627.478	-146.589	-0.303	0.027
-626.463	337.646	0.086	0.169
-625.449	-116.686	-0.129	-0.024
-624.434	15.436	0.046	-0.036
-623.419	36.308	-0.193	0.171
-622.405	150.909	-0.110	0.151
-621.390	-119.243	0.046	0.008
-620.376	139.668	-0.015	-0.020
-619.361	187.887	0.056	0.084
-618.346	-200.000	0.020	-0.145
-617.332	737.653	-0.007	-0.018
-616.317	344.541	0.205	-0.403
-615.303	-14.836	-0.475	0.306
-614.288	-34.179	0.256	-0.141
-613.273	-200.000	-0.061	-0.453
-612.259	-44.710	-0.143	0.072
-611.244	497.172	0.117	-0.270
-610.230	-35.148	-0.244	-0.134
-609.215	124.088	-0.074	-0.093
-608.201	-200.000	0.358	-0.001
-607.186	676.463	0.029	0.075
-606.171	422.188	0.137	-0.295
-605.157	-67.839	0.117	0.046
-604.142	277.501	0.011	0.020
-603.128	2.978	0.141	0.103
-602.113	-6.688	-0.129	0.088
-601.098	-53.694	-0.157	-0.072
-600.084	-62.689	0.205	-0.086
-599.069	277.008	-0.042	-0.076
-598.055	214.956	-0.091	-0.145
-597.040	599.501	-0.139	0.345
-596.025	-200.000	0.088	0.563
-595.011	-200.000	-0.003	0.088
-593.996	34.283	0.292	0.256
-592.982	-200.000	-0.004	0.150
-591.967	168.329	0.193	0.276
-590.952	-117.532	-0.224	-0.041
-589.938	-49.743	0.191	-0.091
-588.923	222.171	-0.091	0.147
-587.909	-200.000	-0.026	-0.158
-586.894	90.625	0.143	-0.161
-585.879	-200.000	-0.073	0.332
-584.865	-166.980	-0.051	-0.002
-583.850	325.805	0.107	0.205
-582.836	-200.000	0.017	-0.233
-581.821	39.872	0.103	-0.093
-580.806	-106.311	0.233	-0.052
-579.792	-200.000	-0.041	-0.354
-578.777	-27.463	-0.370	-0.216
-577.763	84.124	-0.106	0.117
-576.748	800.000	-0.025	0.083
-575.733	16.450	-0.046	0.037
-574.719	-29.327	0.095	0.054
-573.704	-61.503	-0.279	-0.118
-572.690	590.335	0.039	0.096
-571.675	-19.128	-0.271	0.169
-570.661	290.692	0.105	-0.191
-569.646	-141.449	0.137	-0.014
-568.631	7.545	-0.205	-0.154
-567.617	-136.988	-0.131	0.015
-566.602	54.625	-0.141	0.137
-565.588	40.948	-0.204	-0.185
-564.573	-200.000	0.060	0.385
-563.558	-62.294	0.167	0.070
-562.544	-81.731	-0.187	0.061
-561.529	249.396	-0.241	-0.410
-560.515	211.433	-0.049	-0.077
-559.500	393.622	0.052	-0.110
-558.485	175.255	-0.168	0.244
-557.471	253.111	-0.082	-0.140
-556.456	-128.325	0.029	-0.004
-555.442	210.882	0.093	0.147
-554.427	800.000	0.042	-0.176
-553.412	158.008	0.048	-0.067
-552.398	66.608	-0.110	0.112
-551.383	766.501	-0.091	-0.247
-550.369	-63.965	-0.137	-0.056
-549.354	-70.725	0.303	-0.115
-548.339	-43.017	0.177	-0.090
-547.325	44.924	0.117	-0.108
-546.310	-106.143	-0.289	-0.065
-545.296	-41.590	-0.192	0.099
-544.281	-200.000	0.069	-0.365
-543.266	-200.000	0.004	-0.166
-542.252	258.301	-0.234	-0.403
-541.237	79.397	-0.048	0.051
-540.223	800.000	0.058	-0.254
-539.208	65.841	0.086	-0.087
-538.193	387.469	-0.156	-0.322
-537.179	-143.287	0.408	0.039
-536.164	-200.000	-0.057	0.323
-535.150	25.933	-0.168	-0.140
-534.135	-146.587	-0.279	0.024
-533.121	-69.129	0.243	0.094
-532.106	192.890	0.134	0.202
-531.091	-83.765	-0.402	-0.129
-530.077	39.104	0.153	0.137
-529.062	16.541	-0.179	-0.141
-528.048	101.807	-0.057	0.066
-527.033	130.377	-0.176	0.225
-526.018	-186.426	0.276	0.004
-525.004	65.925	-0.041	-0.042
-523.989	164.870	0.177	-0.250
-522.975	291.827	-0.066	-0.120
-521.960	397.739	-0.140	0.292
-520.945	-200.000	-0.051	-0.352
-519.931	-85.194	-0.213	-0.067
-518.916	-21.287	-0.260	-0.159
-517.902	640.308	0.121	0.307
-516.887	-83.972	-0.254	0.081
-515.872	165.676	0.036	-0.050
-514.858	-200.000	0.034	-0.292
-513.843	326.245	0.055	-0.105
-512.829	-33.213	-0.164	-0.091
-511.814	68.457	0.322	0.330
-510.799	-200.000	0.008	0.230
-509.785	94.443	-0.331	-0.376
-508.770	-73.063	0.173	0.064
-507.756	800.000	0.073	0.294
-506.741	-131.512	0.058	0.008
-505.726	34.972	-0.152	0.133
-504.712	245.929	0.239	-0.403
-503.697	-65.306	-0.036	0.014
-502.683	-154.400	0.184	-0.012
-501.668	-92.010	-0.268	-0.076
-500.653	145.016	-0.111	-0.148
-499.639	69.917	0.117	0.121
-498.624	178.619	-0.082	0.119
-497.610	90.294	0.240	0.268
-496.595	800.000	-0.082	0.238
-495.581	-36.731	-0.184	-0.099
-494.566	-95.858	0.052	-0.014
-493.551	40.614	0.105	0.094
-492.537	-200.000	0.018	0.205
-491.522	352.922	-0.079	0.156
-490.508	-200.000	-0.005	0.034
-489.493	4.365	-0.339	0.248
-488.478	-131.077	-0.207	-0.028
-487.464	524.017	0.095	-0.223
-486.449	-56.499	-0.161	-0.071
-485.435	-18.726	0.090	0.056
-484.420	-35.125	-0.105	-0.057
-483.405	-119.914	-0.507	-0.087
-482.391	-52.558	0.051	0.024
-481.376	-200.000	-0.070	0.341
-480.362	53.320	-0.162	0.155
-479.347	142.966	-0.134	0.178
-478.332	-113.053	-0.006	0.001
-477.318	203.686	0.060	-0.092
-476.303	-100.608	-0.166	0.041
-475.289	-18.118	0.091	0.057
-474.274	344.390	-0.093	0.182
-473.259	-119.219	-0.387	0.067
-472.245	800.000	-0.034	-0.133
-471.230	7.631	-0.180	-0.134
-470.216	11.324	0.121	-0.093
-469.201	-200.000	-0.069	-0.314
-468.186	-19.731	0.168	-0.103
-467.172	710.592	-0.046	-0.123
-466.157	-200.000	0.007	0.082
-465.143	-112.517	0.197	-0.039
-464.128	-200.000	0.031	0.226
-463.113	-47.221	0.128	0.063
-462.099	-22.486	0.115	-0.070
-461.084	-40.919	0.201	0.104
-460.070	800.000	0.110	-0.315
-459.055	-48.329	0.159	0.077
-458.040	29.973	-0.134	-0.114
-457.026	79.627	0.141	0.151
-456.011	38.612	-0.045	0.040
-454.997	149.869	0.084	0.114
-453.982	82.094	0.160	0.173
-452.968	-106.254	-0.214	-0.048
-451.953	800.000	-0.120	0.334
-450.938	-86.300	0.181	0.056
-449.924	89.843	-0.167	0.186
-448.909	-158.562	0.391	0.022
-447.895	-200.000	-0.027	-0.187
-446.880	228.890	-0.152	-0.248
-445.865	800.000	0.109	0.369
-444.851	-32.706	-0.110	-0.061
-443.836	-200.000	-0.027	0.227
-442.822	-8.051	0.163	0.110
-441.807	-13.303	0.132	0.086
-440.792	469.381	0.038	-0.085
-439.778	800.000	-0.069	0.287
-438.763	78.139	0.158	0.169
-437.749	-27.789	0.108	0.063
-436.734	46.713	0.196	0.181
-435.719	153.278	0.100	0.137
-434.705	279.471	-0.167	-0.297
-433.690	-200.000	0.073	-0.410
-432.676	-137.094	-0.045	-0.005
-431.661	320.384	-0.036	0.069
-430.646	-96.481	-0.327	0.086
-429.632	800.000	0.052	0.148
-428.617	28.451	-0.183	0.154
-427.603	800.000	0.072	0.243
-426.588	800.000	-0.039	0.112
-425.573	213.411	0.015	-0.024
-424.559	-127.036	0.071	-0.010
-423.544	800.000	-0.098	-0.353
-422.530	2.195	0.206	-0.149
-421.515	-142.180	-0.336	0.033
-420.500	-91.434	-0.177	-0.050
-419.486	-95.144	-0.054	0.015
-418.471	-85.004	0.196	0.061
-417.457	-200.000	-0.009	-0.044
-416.442	-88.670	-0.099	-0.029
-415.428	236.052	-0.205	0.338
-414.413	268.436	0.050	-0.087
-413.398	-101.423	-0.028	-0.007
-412.384	-200.000	0.013	0.269
-411.369	-17.781	0.095	-0.059
-410.355	135.831	-0.219	-0.285
-409.340	-127.527	0.188	0.027
-408.325	405.131	0.086	-0.181
-407.311	250.121	0.153	-0.260
-406.296	-75.593	0.158	0.056
-405.282	800.000	0.038	-0.142
-404.267	128.197	-0.083	0.105
-403.252	-63.678	-0.131	-0.054
-402.238	-19.868	0.101	0.062
-401.223	800.000	0.068	-0.216
-400.209	7.717	-0.130	0.097
-399.194	-129.293	0.314	-0.044
-398.179	125.062	-0.110	0.138
-397.165	-98.289	0.208	0.053
-396.150	800.000	0.146	-0.514
-395.136	62.648	-0.061	-0.061
-394.121	-180.569	-0.038	-0.001
-393.106	485.165	0.161	-0.366
-392.092	-33.217	0.369	-0.204
-391.077	-49.145	0.232	0.111
-390.063	-99.513	-0.202	-0.051
-389.048	119.076	0.190	0.234
-388.033	123.507	0.139	0.173
-387.019	-65.868	0.213	-0.085
-386.004	-100.890	0.090	-0.022
-384.990	-200.000	0.042	0.318
-383.975	-103.027	0.296	0.070
-382.960	-172.776	-0.157	0.005
-381.946	507.956	-0.066	-0.154
-380.931	-35.901	0.325	0.175
-379.917	359.140	-0.022	-0.044
-378.902	-200.000	0.023	-0.227
-377.888	-113.166	-0.181	0.036
-376.873	690.429	-0.123	0.319
-375.858	20.529	0.180	-0.145
-374.844	68.240	-0.298	0.304
-373.829	640.657	-0.109	0.277
-372.815	236.558	0.133	0.219
-371.800	194.968	-0.154	-0.233
-370.785	111.962	-0.231	-0.278
-369.771	-200.000	0.004	-0.156
-368.756	101.105	0.088	-0.102
-367.742	30.162	-0.142	0.121
-366.727	-31.866	0.163	0.091
-365.712	-46.704	-0.081	-0.039
-364.698	219.414	0.128	0.203
-363.683	800.000	-0.093	0.276
-362.669	-4.462	-0.226	0.156
-361.654	-26.990	0.156	-0.091
-360.639	-8.095	-0.317	-0.212
-359.625	314.972	0.076	0.143
-358.610	50.347	0.126	-0.119
-357.596	-112.799	-0.165	0.033
-356.581	182.381	-0.287	0.421
-355.566	95.795	-0.153	0.173
-354.552	-200.000	0.001	-0.040
-353.537	-175.923	0.197	-0.005
-352.523	25.841	-0.153	0.127
-351.508	-98.751	-0.224	-0.057
-350.493	-1.374	0.107	-0.075
-349.479	-98.531	-0.169	0.043
-348.464	-200.000	-0.011	0.218
-347.450	102.866	-0.120	-0.140
-346.435	71.307	-0.081	-0.084
-345.420	-40.473	-0.191	-0.099
-344.406	-90.112	-0.207	0.060
-343.391	-200.000	-0.011	-0.402
-342.377	800.000	0.009	0.040
-341.362	4.734	-0.064	-0.047
-340.348	541.092	-0.065	-0.154
-339.333	195.675	0.182	0.275
-338.318	41.961	0.161	-0.146
-337.304	83.687	0.130	-0.141
-336.289	71.267	0.153	-0.158
-335.275	-14.581	-0.300	0.192
-334.260	-16.047	0.295	0.186
-333.245	66.160	-0.126	0.127
-332.231	-75.221	0.026	0.009
-331.216	-103.347	-0.121	0.028
-330.202	26.817	-0.099	0.083
-329.187	498.427	0.081	-0.186
-328.172	-100.835	0.238	0.058
-327.158	800.000	-0.123	0.376
-326.143	346.460	0.147	0.287
-325.129	-153.470	-0.297	0.020
-324.114	255.427	0.083	-0.141
-323.099	-200.000	0.005	-0.100
-322.085	-200.000	0.007	-0.091
-321.070	-9.995	0.218	0.144
-320.056	-89.589	-0.242	0.071
-319.041	69.041	0.105	-0.107
-318.026	-166.446	0.314	-0.013
-317.012	98.704	0.121	-0.138
-315.997	551.986	0.031	-0.074
-314.983	59.696	0.102	0.100
-313.968	-200.000	-0.013	0.200
-312.953	-61.028	-0.331	0.139
-311.939	29.273	-0.409	0.345
-310.924	501.415	0.133	0.305
-309.910	93.940	0.389	0.438
-308.895	-200.000	-0.004	-0.097
-307.880	-29.253	0.082	0.046
-306.866	-46.714	0.299	0.145
-305.851	48.843	0.286	0.266
-304.837	92.556	0.202	-0.227
-303.822	-200.000	0.075	-0.437
-302.807	101.755	0.080	-0.092
-301.793	-82.023	0.284	0.092
-300.778	262.710	0.045	0.078
-299.764	-200.000	0.002	0.168
-298.749	54.301	0.162	0.155
-297.735	260.920	0.194	0.333
-296.720	-200.000	0.000	-0.156
-295.705	-200.000	-0.074	0.333
-294.691	98.933	-0.133	0.152
-293.676	97.965	0.177	0.202
-292.662	0.734	-0.043	0.030
-291.647	-132.575	-0.163	0.021
-290.632	160.309	-0.079	0.109
-289.618	607.718	-0.028	0.069
-288.603	-177.562	0.336	0.008
-287.589	525.655	-0.112	-0.262
-286.574	-98.343	0.030	0.008
-285.559	216.255	-0.215	-0.339
-284.545	209.390	-0.065	0.101
-283.530	-88.678	-0.099	-0.029
-282.516	800.000	0.034	-0.145
-281.501	-200.000	0.015	-0.378
-280.486	500.985	0.095	0.217
-279.472	-19.995	-0.111	0.068
-278.457	-200.000	-0.012	0.421
-277.443	654.855	-0.026	-0.067
-276.428	226.055	-0.171	0.275
-275.413	48.675	0.097	0.091
-274.399	-191.751	-0.239	0.002
-273.384	-200.000	-0.013	-0.059
-272.370	-200.000	0.031	-0.247
-271.355	189.957	-0.086	-0.128
-270.340	82.717	-0.216	0.233
-269.326	800.000	-0.045	-0.142
-268.311	171.854	0.154	-0.219
-267.297	-200.000	0.019	-0.263
-266.282	-110.490	0.201	-0.041
-265.267	-38.037	-0.252	0.132
-264.253	-28.769	0.136	0.078
-263.238	-63.094	-0.238	0.097
-262.224	184.021	-0.230	0.337
-261.209	44.645	-0.068	-0.062
-260.195	368.337	0.117	0.235
-259.180	-200.000	0.022	-0.101
-258.165	-169.683	-0.257	-0.009
-257.151	-200.000	-0.020	0.265
-256.136	-93.353	0.174	-0.048
-255.122	-69.456	-0.224	0.085
-254.107	800.000	-0.042	-0.163
-253.092	29.033	-0.045	-0.038
-252.078	333.029	0.226	0.432
-251.063	132.339	0.079	-0.101
-250.049	-5.011	0.082	-0.056
-249.034	211.317	0.126	0.197
-248.019	140.951	0.130	0.170
-247.005	-174.827	0.256	-0.007
-245.990	-112.586	-0.462	-0.091
-244.976	-200.000	0.013	0.178
-243.961	-36.352	0.109	-0.058
-242.946	278.470	0.117	-0.206
-241.932	223.629	0.099	-0.158
-240.917	478.026	0.152	0.340
-239.903	-114.974	0.281	0.053
-238.888	312.970	-0.070	-0.130
-237.873	486.439	0.027	0.062
-236.859	23.410	-0.361	-0.294
-235.844	-200.000	-0.005	0.087
-234.830	-200.000	0.023	-0.163
-233.815	9.488	0.330	-0.248
-232.800	-132.346	-0.609	-0.078
-231.786	341.746	0.110	-0.212
-230.771	-24.664	-0.119	0.070
-229.757	532.878	0.091	0.213
-228.742	102.639	0.101	-0.117
-227.727	80.320	0.213	-0.227
-226.713	-63.867	0.051	-0.020
-225.698	-200.000	-0.004	-0.057
-224.684	-100.716	0.120	0.029
-223.669	-175.013	0.235	0.006
-222.655	-200.000	0.021	-0.235
-221.640	-14.750	-0.090	0.057
-220.625	-60.484	0.089	0.037
-219.611	-200.000	0.008	0.106
-218.596	800.000	-0.034	0.094
-217.582	800.000	-0.068	0.222
-216.567	598.654	0.062	0.151
-215.552	-200.000	0.008	-0.222
-214.538	613.480	0.085	0.210
-213.523	-63.734	0.457	-0.185
-212.509	-200.000	0.003	-0.111
-211.494	-144.862	0.167	-0.015
-210.479	-200.000	0.000	0.004
-209.465	800.000	-0.147	0.536
-208.450	-55.079	-0.128	-0.057
-207.436	35.460	0.098	-0.085
-206.421	52.114	0.116	-0.109
-205.406	331.644	-0.050	-0.096
-204.392	-112.820	-0.335	0.066
-203.377	300.095	-0.082	-0.149
-202.363	800.000	-0.096	-0.347
-201.348	800.000	0.087	-0.241
-200.333	-13.016	0.290	-0.186
-199.319	800.000	0.029	0.118
-198.304	109.056	0.156	0.184
-197.290	-12.861	0.191	0.123
-196.275	-23.156	-0.162	0.096
-195.260	-200.000	0.011	0.217
-194.246	-78.460	-0.308	-0.104
-193.231	800.000	-0.075	-0.310
-192.217	800.000	-0.122	-0.466
-191.202	179.780	-0.077	-0.112
-190.187	-10.832	-0.069	0.045
-189.173	-200.000	-0.029	-0.173
-188.158	-133.768	-0.066	-0.008
-187.144	-45.928	-0.183	0.089
-186.129	-84.450	-0.292	0.091
-185.114	222.277	-0.023	0.037
-184.100	11.300	0.273	-0.207
-183.085	3.087	-0.246	0.177
-182.071	96.162	-0.045	-0.051
-181.056	659.814	0.066	-0.168
-180.042	-200.000	-0.045	-0.298
-179.027	800.000	0.033	-0.104
-178.012	800.000	0.073	0.222
-176.998	201.283	0.113	-0.173
-175.983	-63.347	-0.082	-0.033
-174.969	618.486	0.074	0.184
-173.954	702.222	0.117	0.304
-172.939	625.660	-0.146	-0.363
-171.925	-129.810	0.414	-0.056
-170.910	-68.699	0.163	-0.062
-169.896	202.979	-0.051	-0.078
-168.881	-200.000	-0.015	-0.346
-167.866	5.403	-0.183	-0.133
-166.852	18.810	0.281	-0.222
-165.837	601.793	0.036	0.090
-164.823	-40.590	0.219	-0.112
-163.808	-149.941	-0.141	-0.011
-162.793	59.867	0.175	0.171
-161.779	567.566	0.014	0.033
-160.764	609.442	-0.132	-0.324
-159.750	-52.948	0.228	-0.104
-158.735	237.531	-0.187	-0.307
-157.720	-200.000	-0.037	-0.170
-156.706	-21.331	0.087	0.053
-155.691	89.339	0.224	0.246
-154.677	521.653	0.088	0.205
-153.662	-200.000	-0.003	0.051
-152.647	-66.943	0.185	-0.072
-151.633	-149.576	-0.433	0.034
-150.618	460.243	-0.072	-0.157
-149.604	239.593	-0.105	0.173
-148.589	-93.054	-0.303	0.083
-147.574	107.176	-0.192	0.225
-146.560	-200.000	0.026	-0.252
-145.545	-27.814	-0.166	-0.095
-144.531	-55.397	-0.129	0.057
-143.516	111.705	-0.043	0.051
-142.502	-117.580	0.421	0.075
-141.487	283.611	0.111	-0.198
-140.472	125.852	-0.101	-0.125
-139.458	-120.651	0.177	-0.030
-138.443	251.357	0.069	-0.116
-137.429	-69.533	0.194	-0.073
-136.414	669.798	0.058	0.148
-135.399	424.869	-0.084	-0.179
-134.385	800.000	-0.040	-0.130
-133.370	-200.000	-0.026	0.158
-132.356	-200.000	-0.050	-0.238
-131.341	-53.804	0.265	-0.119
-130.326	-82.220	-0.104	-0.034
-129.312	-200.000	-0.007	0.081
-128.297	-200.000	-0.028	-0.320
-127.283	-120.186	0.110	0.019
-126.268	693.245	0.098	-0.254
-125.253	-162.194	0.120	0.006
-124.239	418.508	-0.090	-0.190
-123.224	-200.000	-0.035	-0.165
-122.210	103.108	0.139	-0.161
-121.195	112.776	0.134	0.160
