DTS Sentinel unit serial number:	SN413079Multiplexer serial number:	ORYXHardware model number:	OX4-SRSoftware version number:	ORYX F/W v4.00 Oryx Data Collector v3.7.2.0data status	okinstallation	princeton_trtdifferential loss correction	single-endedforward channel	channel 4reverse channel	N/Adate	2019/09/14time	16:37:35forward acquisition time	60.00reverse acquisition time	0.00gamma	496.2192k internal	0.2293k external	0.2293temperature offset calibration	1.0125default loss term (dB/km)	0.3790temperature slope calibration	1.0000multiplexer offset coefficient	1.0000multiplexer slope coefficient	1.0000fibre end	0.00T internal ref (°C)	38.00T ext. ref 1 (°C)	5.04T ext. ref 2 (°C)	33.78length (m)	temperature (°C)	Stokes	anti-Stokes-747.200	57.085	0.101	-0.101
-746.185	-100.044	0.261	0.067
-745.171	-78.928	-0.112	-0.039
-744.156	207.307	0.088	0.140
-743.142	-150.454	-0.066	0.005
-742.127	-132.686	0.217	0.028
-741.112	-200.000	-0.008	0.062
-740.098	53.837	-0.133	0.130
-739.083	-200.000	-0.008	-0.128
-738.069	800.000	0.071	0.253
-737.054	209.819	-0.275	-0.441
-736.039	-13.730	-0.214	-0.141
-735.025	-7.981	0.371	0.256
-734.010	-57.840	-0.269	-0.120
-732.996	-115.880	-0.251	0.048
-731.981	-141.912	-0.305	-0.031
-730.966	-89.290	-0.141	0.042
-729.952	70.226	0.189	-0.199
-728.937	676.686	0.055	-0.146
-727.923	-49.123	-0.199	-0.097
-726.908	55.016	0.102	-0.100
-725.894	-200.000	0.069	0.344
-724.879	-72.445	0.203	-0.077
-723.864	-200.000	0.053	-0.382
-722.850	56.273	0.227	-0.226
-721.835	-112.150	-0.113	-0.023
-720.821	-6.561	-0.268	-0.186
-719.806	-112.491	-0.460	0.094
-718.791	4.207	-0.253	-0.189
-717.777	-65.727	-0.358	-0.146
-716.762	-20.918	-0.097	0.060
-715.748	-200.000	0.023	-0.436
-714.733	65.126	0.124	0.128
-713.718	0.976	-0.231	-0.169
-712.704	17.575	-0.327	0.266
-711.689	800.000	0.095	-0.281
-710.675	139.846	-0.161	-0.216
-709.660	-84.495	-0.033	0.011
-708.645	-5.294	-0.233	0.163
-707.631	-146.394	-0.210	-0.019
-706.616	368.440	0.126	-0.261
-705.602	306.579	-0.123	0.234
-704.587	-200.000	0.032	0.252
-703.572	-132.396	-0.120	-0.016
-702.558	-96.609	0.119	0.032
-701.543	800.000	-0.037	0.116
-700.529	-42.968	-0.396	-0.205
-699.514	-131.690	0.151	-0.020
-698.499	456.688	-0.085	-0.193
-697.485	-200.000	-0.004	-0.053
-696.470	238.760	0.152	0.259
-695.456	-69.678	0.204	0.080
-694.441	-200.000	-0.030	-0.205
-693.426	232.131	-0.144	0.242
-692.412	-69.725	-0.034	0.013
-691.397	152.100	-0.079	-0.109
-690.383	202.310	0.191	-0.301
-689.368	-46.297	-0.045	0.023
-688.354	-88.081	-0.510	0.156
-687.339	800.000	0.055	-0.216
-686.324	184.018	0.106	-0.160
-685.310	294.404	0.076	-0.141
-684.295	286.825	-0.202	-0.372
-683.281	800.000	0.041	-0.143
-682.266	-43.722	0.032	0.017
-681.251	-64.322	-0.079	0.033
-680.237	59.762	0.030	-0.031
-679.222	-200.000	0.024	0.269
-678.208	-200.000	-0.002	-0.036
-677.193	29.349	-0.193	0.168
-676.178	-70.743	0.252	-0.097
-675.164	-4.765	-0.042	-0.030
-674.149	172.369	-0.235	-0.344
-673.135	-149.727	-0.402	0.032
-672.120	-3.195	0.059	-0.042
-671.105	800.000	0.025	-0.096
-670.091	207.003	0.068	0.108
-669.076	-30.367	-0.141	0.082
-668.062	100.353	0.129	-0.152
-667.047	-23.959	-0.162	-0.099
-666.032	23.530	-0.120	0.101
-665.018	800.000	0.021	-0.072
-664.003	40.631	0.149	-0.137
-662.989	-109.785	0.128	-0.027
-661.974	-91.246	-0.162	0.047
-660.959	348.618	0.125	0.252
-659.945	800.000	-0.065	0.246
-658.930	-77.385	-0.423	0.150
-657.916	-200.000	0.015	-0.106
-656.901	800.000	-0.005	-0.017
-655.886	143.635	0.018	-0.024
-654.872	-12.466	-0.303	-0.202
-653.857	-3.658	-0.271	0.192
-652.843	-96.691	-0.231	-0.062
-651.828	768.920	-0.097	0.269
-650.814	-39.892	0.115	-0.061
-649.799	131.501	0.196	-0.257
-648.784	17.328	0.180	0.145
-647.770	-200.000	-0.049	0.351
-646.755	534.172	-0.012	0.028
-645.741	292.009	0.058	-0.107
-644.726	800.000	-0.051	-0.159
-643.711	63.170	-0.137	0.140
-642.697	-11.718	-0.135	0.090
-641.682	259.853	0.175	-0.309
-640.668	18.468	-0.141	-0.115
-639.653	-93.259	-0.263	0.074
-638.638	-115.582	-0.157	-0.030
-637.624	71.535	0.113	-0.120
-636.609	102.225	-0.208	0.247
-635.595	-200.000	-0.013	-0.216
-634.580	-2.353	0.067	0.048
-633.565	-200.000	0.020	0.168
-632.551	800.000	-0.073	-0.323
-631.536	154.794	0.107	0.149
-630.522	122.486	-0.086	0.109
-629.507	270.903	0.134	-0.240
-628.492	-200.000	0.020	0.177
-627.478	800.000	-0.015	0.055
-626.463	-200.000	-0.253	-0.000
-625.449	800.000	-0.017	-0.068
-624.434	-55.515	-0.113	-0.051
-623.419	165.252	0.138	-0.199
-622.405	-90.573	-0.236	-0.069
-621.390	-200.000	0.092	0.000
-620.376	800.000	-0.065	-0.263
-619.361	-106.487	-0.159	-0.036
-618.346	-60.321	0.414	-0.179
-617.332	-107.020	0.140	-0.031
-616.317	-79.938	0.320	-0.110
-615.303	-88.198	-0.072	-0.022
-614.288	800.000	-0.040	0.134
-613.273	430.395	-0.097	-0.213
-612.259	497.575	0.062	0.145
-611.244	-200.000	-0.017	0.180
-610.230	-189.308	-0.231	0.003
-609.215	115.481	0.165	-0.205
-608.201	-200.000	-0.020	0.000
-607.186	-200.000	-0.008	0.067
-606.171	-49.815	0.264	-0.128
-605.157	-51.093	-0.076	-0.036
-604.142	66.798	0.049	0.050
-603.128	-23.974	-0.126	0.077
-602.113	-60.202	0.212	0.092
-601.098	365.887	-0.038	0.079
-600.084	-74.265	0.309	-0.114
-599.069	-200.000	-0.002	-0.114
-598.055	111.118	0.063	0.077
-597.040	-29.718	-0.185	-0.107
-596.025	-146.847	0.103	0.009
-595.011	-90.027	-0.124	-0.037
-593.996	-200.000	0.001	0.091
-592.982	24.793	-0.104	-0.088
-591.967	-200.000	0.018	-0.242
-590.952	-200.000	-0.035	0.173
-589.938	800.000	0.109	0.326
-588.923	0.070	-0.091	-0.066
-587.909	468.043	-0.117	0.267
-586.894	-200.000	0.028	-0.207
-585.879	-50.034	0.325	-0.157
-584.865	800.000	-0.181	0.678
-583.850	169.747	0.062	0.090
-582.836	800.000	0.018	0.071
-581.821	-22.323	-0.145	-0.089
-580.806	292.633	0.048	-0.088
-579.792	-200.000	0.060	-0.293
-578.777	157.751	-0.098	0.138
-577.763	546.978	0.075	0.183
-576.748	800.000	-0.020	-0.063
-575.733	462.228	-0.126	-0.286
-574.719	-98.190	0.272	0.071
-573.704	463.967	-0.189	0.430
-572.690	-107.664	-0.381	0.085
-571.675	-43.824	0.041	0.021
-570.661	-188.922	-0.300	0.004
-569.646	-52.128	-0.307	0.145
-568.631	35.456	0.183	0.163
-567.617	-137.907	0.088	0.010
-566.602	800.000	-0.057	0.249
-565.588	-98.831	-0.320	0.083
-564.573	134.021	0.177	-0.232
-563.558	51.776	-0.159	-0.153
-562.544	-1.459	0.277	0.198
-561.529	-95.638	0.163	-0.044
-560.515	-98.333	0.085	0.022
-559.500	72.462	-0.069	0.073
-558.485	-137.385	0.166	-0.019
-557.471	-200.000	-0.053	-0.267
-556.456	-29.882	-0.094	0.055
-555.442	130.156	-0.148	0.193
-554.427	3.309	-0.235	-0.174
-553.412	80.255	-0.151	0.165
-552.398	48.043	0.215	0.204
-551.383	-200.000	0.031	0.258
-550.369	-84.179	-0.356	0.115
-549.354	212.610	0.108	-0.173
-548.339	227.170	-0.078	0.129
-547.325	-200.000	-0.017	0.133
-546.310	155.882	-0.054	-0.076
-545.296	189.564	0.150	0.228
-544.281	-40.288	-0.318	0.168
-543.266	-108.268	0.124	-0.027
-542.252	-18.289	0.058	0.037
-541.237	105.469	0.156	-0.187
-540.223	-200.000	-0.013	0.129
-539.208	800.000	0.075	-0.248
-538.193	-134.152	0.451	-0.056
-537.179	-124.300	-0.318	0.050
-536.164	293.523	-0.165	0.305
-535.150	41.011	0.128	-0.118
-534.135	-39.273	-0.299	0.159
-533.121	-200.000	0.005	0.336
-532.106	-200.000	-0.002	-0.158
-531.091	-100.273	0.182	0.046
-530.077	13.540	0.231	0.182
-529.062	-112.429	0.269	0.055
-528.048	112.319	0.044	0.054
-527.033	93.288	0.331	-0.380
-526.018	-98.897	0.433	0.112
-525.004	-200.000	-0.010	-0.276
-523.989	800.000	0.069	-0.282
-522.975	800.000	-0.044	-0.158
-521.960	447.722	-0.024	0.053
-520.945	232.196	-0.088	0.146
-519.931	-200.000	-0.039	0.285
-518.916	-200.000	-0.013	-0.108
-517.902	97.038	0.186	0.216
-516.887	-46.441	0.182	-0.090
-515.872	-50.451	0.137	-0.065
-514.858	84.904	-0.146	0.162
-513.843	35.609	-0.160	-0.143
-512.829	-200.000	0.001	-0.201
-511.814	800.000	0.135	0.385
-510.799	22.745	0.282	0.235
-509.785	16.605	-0.342	-0.274
-508.770	-26.286	-0.161	-0.096
-507.756	456.934	-0.104	-0.234
-506.741	59.336	-0.047	0.046
-505.726	-200.000	-0.055	0.270
-504.712	49.694	-0.315	-0.301
-503.697	546.619	0.044	0.107
-502.683	203.002	0.219	0.343
-501.668	71.751	-0.087	0.092
-500.653	100.972	0.075	0.089
-499.639	-200.000	-0.017	-0.274
-498.624	139.987	-0.227	-0.303
-497.610	-147.879	-0.117	0.010
-496.595	21.903	0.333	-0.275
-495.581	-159.631	0.153	-0.009
-494.566	10.612	-0.108	0.083
-493.551	-91.455	-0.380	-0.110
-492.537	800.000	0.058	-0.242
-491.522	-74.217	-0.254	0.093
-490.508	588.581	-0.064	-0.161
-489.493	800.000	0.113	-0.346
-488.478	-85.322	-0.204	-0.065
-487.464	245.199	0.267	-0.455
-486.449	476.827	-0.068	0.156
-485.435	239.484	-0.012	0.021
-484.420	-145.042	0.312	-0.029
-483.405	-104.348	-0.295	-0.069
-482.391	-168.081	0.249	-0.010
-481.376	-95.005	0.313	0.086
-480.362	-134.700	-0.247	-0.030
-479.347	-200.000	0.034	-0.209
-478.332	-34.427	-0.205	0.114
-477.318	-48.579	0.258	0.126
-476.303	-175.663	0.056	-0.002
-475.289	-37.112	0.301	-0.163
-474.274	-200.000	-0.042	-0.261
-473.259	-134.918	0.093	-0.011
-472.245	44.786	0.092	-0.086
-471.230	30.052	-0.114	-0.099
-470.216	-200.000	0.010	0.134
-469.201	368.441	0.102	-0.208
-468.186	800.000	0.092	-0.259
-467.172	-85.622	0.080	-0.025
-466.157	25.577	-0.232	0.195
-465.143	-166.957	-0.239	0.010
-464.128	770.903	0.096	-0.266
-463.113	-141.369	-0.026	0.003
-462.099	-59.553	0.043	-0.019
-461.084	313.302	0.087	-0.165
-460.070	-29.411	-0.236	-0.137
-459.055	-65.803	0.062	0.025
-458.040	-200.000	0.025	-0.141
-457.026	-172.443	-0.286	0.009
-456.011	-66.282	-0.073	-0.030
-454.997	-51.631	-0.203	-0.096
-453.982	213.927	-0.104	-0.166
-452.968	-200.000	-0.009	-0.068
-451.953	47.456	-0.216	0.204
-450.938	-200.000	0.023	-0.111
-449.924	316.697	0.075	0.143
-448.909	209.742	-0.153	-0.242
-447.895	102.174	0.182	0.215
-446.880	69.268	-0.171	0.178
-445.865	-40.151	0.052	-0.027
-444.851	590.139	-0.120	0.300
-443.836	-200.000	0.033	0.347
-442.822	-131.924	0.253	-0.033
-441.807	117.890	0.226	0.282
-440.792	-200.000	0.020	-0.252
-439.778	132.971	-0.167	-0.218
-438.763	90.104	-0.068	0.077
-437.749	-117.444	-0.164	-0.030
-436.734	-200.000	-0.028	-0.642
-435.719	216.243	-0.177	-0.285
-434.705	800.000	0.065	0.234
-433.690	617.273	0.166	-0.421
-432.676	-51.096	-0.067	0.032
-431.661	-65.368	-0.259	0.105
-430.646	84.679	0.233	-0.258
-429.632	-39.850	0.117	-0.062
-428.617	800.000	-0.079	-0.310
-427.603	118.633	-0.068	-0.085
-426.588	86.697	0.146	-0.163
-425.573	800.000	-0.072	-0.251
-424.559	-200.000	-0.022	-0.130
-423.544	32.425	-0.110	0.096
-422.530	48.415	-0.265	0.251
-421.515	-143.753	-0.250	-0.024
-420.500	-116.556	-0.259	-0.048
-419.486	103.152	0.071	0.084
-418.471	-17.366	0.237	0.150
-417.457	-99.781	0.248	-0.063
-416.442	41.899	0.321	0.294
-415.428	-78.191	0.306	0.106
-414.413	-200.000	0.015	0.462
-413.398	216.867	-0.043	-0.069
-412.384	-104.080	-0.154	0.036
-411.369	-200.000	-0.017	-0.090
-410.355	377.607	-0.082	-0.168
-409.340	413.623	0.099	0.212
-408.325	10.612	-0.051	0.039
-407.311	276.138	0.097	0.173
-406.296	-39.843	0.206	0.109
-405.282	-9.510	0.151	0.102
-404.267	10.014	0.159	-0.122
-403.252	81.977	-0.171	-0.187
-402.238	-200.000	0.038	-0.192
-401.223	99.368	-0.070	0.082
-400.209	-31.356	0.236	-0.134
-399.194	-33.411	-0.253	-0.141
-398.179	211.300	-0.147	0.234
-397.165	-141.890	-0.406	0.041
-396.150	-59.312	0.244	-0.106
-395.136	438.532	0.232	-0.510
-394.121	176.385	0.042	0.061
-393.106	182.269	0.171	0.255
-392.092	191.832	0.161	-0.244
-391.077	-73.552	0.076	0.028
-390.063	-200.000	0.063	0.349
-389.048	61.523	-0.222	0.223
-388.033	-72.164	-0.212	-0.079
-387.019	-200.000	-0.008	-0.096
-386.004	-144.199	0.058	0.005
-384.990	-111.529	-0.318	0.065
-383.975	-110.491	-0.120	0.025
-382.960	40.996	0.117	-0.107
-381.946	-146.621	-0.034	0.003
-380.931	246.530	0.211	0.358
-379.917	-137.536	-0.190	-0.022
-378.902	208.654	-0.149	-0.235
-377.888	-200.000	0.108	0.000
-376.873	-9.814	-0.186	0.125
-375.858	145.787	0.045	-0.061
-374.844	-79.130	-0.174	-0.059
-373.829	-123.718	0.112	-0.018
-372.815	11.281	-0.107	0.083
-371.800	-200.000	-0.061	0.347
-370.785	-45.499	0.259	0.129
-369.771	-0.949	0.079	-0.056
-368.756	123.913	0.125	0.159
-367.742	-62.402	-0.278	0.117
-366.727	-200.000	0.042	0.317
-365.712	-45.692	-0.080	0.040
-364.698	-139.937	0.307	-0.033
-363.683	87.735	0.065	0.073
-362.669	-5.218	-0.211	0.146
-361.654	-116.102	0.305	-0.057
-360.639	684.680	-0.040	0.104
-359.625	-6.744	-0.079	-0.054
-358.610	107.239	0.192	-0.230
-357.596	79.499	-0.109	-0.118
-356.581	-6.162	0.094	0.065
-355.566	-8.275	-0.184	0.125
-354.552	800.000	-0.110	0.354
-353.537	312.619	0.124	0.236
-352.523	-50.436	0.238	-0.113
-351.508	80.100	0.099	-0.107
-350.493	527.812	-0.048	0.114
-349.479	-129.986	0.313	0.043
-348.464	115.905	0.228	-0.280
-347.450	104.105	-0.042	-0.050
-346.435	168.127	-0.257	0.368
-345.420	-200.000	-0.057	0.257
-344.406	-200.000	0.020	-0.091
-343.391	-88.789	0.031	-0.009
-342.377	162.422	0.045	0.064
-341.362	798.791	-0.130	0.362
-340.348	148.767	0.221	-0.300
-339.333	800.000	0.080	0.319
-338.318	-121.132	0.261	-0.044
-337.304	-118.681	-0.054	0.010
-336.289	-16.968	-0.082	0.052
-335.275	31.453	0.084	-0.073
-334.260	-72.360	0.260	-0.097
-333.245	341.611	-0.170	-0.335
-332.231	800.000	-0.164	-0.600
-331.216	38.050	0.224	0.200
-330.202	-71.051	0.264	0.100
-329.187	-200.000	-0.001	0.171
-328.172	-21.413	-0.161	0.099
-327.158	32.805	0.216	-0.188
-326.143	-10.224	-0.312	-0.208
-325.129	-6.738	0.044	-0.030
-324.114	800.000	-0.069	0.194
-323.099	77.814	-0.279	0.300
-322.085	-64.107	0.136	-0.056
-321.070	-72.261	-0.151	0.056
-320.056	-200.000	-0.031	0.444
-319.041	424.460	-0.143	-0.310
-318.026	-136.500	-0.440	0.051
-317.012	-23.042	0.387	-0.235
-315.997	0.091	-0.052	-0.037
-314.983	-200.000	-0.002	0.032
-313.968	-200.000	0.004	-0.029
-312.953	-53.379	-0.042	-0.019
-311.939	800.000	0.053	-0.208
-310.924	370.492	0.072	-0.147
-309.910	250.283	-0.139	-0.238
-308.895	243.468	0.148	0.249
-307.880	800.000	-0.069	0.203
-306.866	-200.000	-0.028	0.219
-305.851	-0.970	-0.312	0.222
-304.837	-95.896	-0.143	-0.038
-303.822	-200.000	0.003	-0.025
-302.807	-112.600	0.249	-0.050
-301.793	-200.000	0.009	0.042
-300.778	-35.529	0.168	0.092
-299.764	9.460	-0.247	0.188
-298.749	-110.135	-0.183	-0.038
-297.735	-131.089	0.523	-0.070
-296.720	-200.000	-0.002	-0.035
-295.705	-200.000	-0.005	-0.033
-294.691	-200.000	0.012	-0.264
-293.676	-47.226	-0.071	0.035
-292.662	-47.106	0.075	0.037
-291.647	5.804	0.301	0.224
-290.632	207.890	0.174	-0.274
-289.618	26.403	0.152	-0.128
-288.603	333.246	-0.194	0.377
-287.589	-200.000	0.006	0.203
-286.574	346.960	0.158	0.313
-285.559	-55.172	-0.180	0.081
-284.545	653.073	-0.088	-0.227
-283.530	-88.362	0.102	0.030
-282.516	-154.035	-0.204	-0.014
-281.501	230.439	0.161	0.265
-280.486	800.000	-0.055	-0.154
-279.472	76.485	-0.170	0.181
-278.457	-102.240	0.238	-0.057
-277.443	800.000	-0.059	0.181
-276.428	-75.271	-0.224	0.080
-275.413	170.135	0.055	0.078
-274.399	-69.411	-0.300	0.115
-273.384	405.764	-0.058	0.123
-272.370	13.250	0.079	0.061
-271.355	262.417	-0.132	0.230
-270.340	-130.863	0.130	-0.018
-269.326	-200.000	0.050	-0.233
-268.311	114.396	0.083	0.101
-267.297	800.000	0.074	-0.309
-266.282	99.076	-0.151	-0.175
-265.267	258.228	-0.146	-0.252
-264.253	-88.569	0.461	-0.138
-263.238	586.805	0.106	0.262
-262.224	-30.426	-0.070	0.040
-261.209	-114.966	0.221	-0.042
-260.195	-122.100	0.076	0.013
-259.180	-200.000	0.031	-0.184
-258.165	-17.509	0.264	0.167
-257.151	216.348	-0.193	-0.309
-256.136	80.960	0.197	0.213
-255.122	-200.000	-0.032	-0.185
-254.107	800.000	-0.075	-0.286
-253.092	-7.544	-0.264	-0.180
-252.078	279.019	-0.125	0.224
-251.063	685.381	0.115	-0.302
-250.049	-118.375	-0.132	-0.023
-249.034	-138.783	0.148	-0.016
-248.019	-78.128	-0.338	0.117
-247.005	336.621	0.039	-0.075
-245.990	-128.361	0.079	0.011
-244.976	-86.600	0.264	-0.081
-243.961	-29.820	-0.132	0.076
-242.946	800.000	0.016	0.055
-241.932	-66.486	0.226	0.090
-240.917	-12.495	-0.111	0.073
-239.903	214.264	0.310	-0.493
-238.888	234.677	-0.094	0.156
-237.873	24.770	-0.259	0.215
-236.859	445.085	0.073	-0.161
-235.844	-19.029	-0.075	0.047
-234.830	-95.955	0.211	-0.056
-233.815	147.411	-0.214	0.289
-232.800	-1.147	-0.236	0.167
-231.786	-11.383	-0.525	0.346
-230.771	-200.000	-0.019	-0.112
-229.757	-9.085	0.264	-0.177
-228.742	-90.988	-0.195	0.056
-227.727	38.390	0.325	-0.290
-226.713	-5.715	-0.119	-0.082
-225.698	-130.708	0.101	0.014
-224.684	800.000	-0.055	0.203
-223.669	-120.081	-0.143	-0.024
-222.655	56.434	0.200	0.195
-221.640	-200.000	-0.005	-0.072
-220.625	92.276	0.121	0.137
-219.611	-131.505	-0.487	0.064
-218.596	51.255	0.090	-0.086
-217.582	247.201	0.069	0.117
-216.567	241.841	0.087	-0.146
-215.552	-200.000	0.009	-0.181
-214.538	4.291	-0.065	0.048
-213.523	-95.685	-0.245	0.066
-212.509	800.000	0.015	0.047
-211.494	-200.000	0.003	-0.131
-210.479	-108.530	0.109	-0.023
-209.465	3.384	0.127	0.092
-208.450	800.000	-0.083	-0.320
-207.436	-46.641	0.110	-0.054
-206.421	268.522	-0.101	0.177
-205.406	800.000	0.094	0.280
-204.392	26.649	0.214	-0.179
-203.377	-200.000	-0.053	0.322
-202.363	-141.956	0.311	-0.031
-201.348	-110.604	0.126	-0.026
-200.333	118.181	-0.091	-0.112
-199.319	-200.000	-0.041	0.229
-198.304	15.058	0.178	0.139
-197.290	5.166	-0.124	0.091
-196.275	-200.000	-0.007	-0.034
-195.260	-104.604	0.116	-0.027
-194.246	242.948	-0.130	-0.219
-193.231	-98.947	-0.320	-0.081
-192.217	-200.000	0.014	-0.086
-191.202	150.895	0.156	0.212
-190.187	337.563	-0.138	0.268
-189.173	183.010	-0.069	0.102
-188.158	48.056	0.061	0.057
-187.144	800.000	0.061	-0.216
-186.129	-200.000	0.035	0.321
-185.114	85.859	-0.230	-0.253
-184.100	83.959	-0.181	-0.197
-183.085	36.854	-0.160	-0.142
-182.071	-200.000	0.002	-0.173
-181.056	-53.240	-0.109	-0.050
-180.042	152.403	0.068	0.093
-179.027	313.678	-0.061	-0.116
-178.012	-200.000	0.080	0.355
-176.998	266.786	-0.169	-0.296
-175.983	-200.000	0.008	-0.147
-174.969	-147.217	0.289	-0.025
-173.954	-136.055	0.042	-0.005
-172.939	-14.873	0.121	-0.078
-171.925	171.224	0.116	0.166
-170.910	-61.318	-0.246	-0.103
-169.896	163.946	-0.201	-0.284
-168.881	13.080	0.318	0.246
-167.866	-124.797	-0.100	-0.015
-166.852	-124.157	0.321	-0.050
-165.837	33.281	0.123	0.106
-164.823	-85.270	-0.420	-0.131
-163.808	36.518	-0.355	-0.313
-162.793	91.401	0.059	0.067
-161.779	-26.593	0.312	0.183
-160.764	800.000	-0.102	-0.339
-159.750	-200.000	0.053	0.251
-158.735	-134.940	-0.075	-0.009
-157.720	289.467	-0.090	0.162
-156.706	-105.091	0.411	-0.094
-155.691	800.000	0.063	0.246
-154.677	-200.000	0.021	-0.193
-153.662	-55.039	-0.298	0.134
-152.647	104.975	0.111	-0.131
-151.633	-97.803	-0.119	-0.031
-150.618	-92.959	-0.295	0.082
-149.604	-200.000	0.054	0.253
-148.589	-169.156	0.240	-0.009
-147.574	786.907	-0.022	0.061
-146.560	212.455	0.091	0.144
-145.545	90.641	-0.126	0.141
-144.531	800.000	0.047	0.138
-143.516	-5.303	0.099	0.068
-142.502	-6.062	-0.203	-0.139
-141.487	646.748	0.016	-0.040
-140.472	-80.905	-0.143	0.047
-139.458	-62.402	-0.093	0.039
-138.443	-71.942	0.364	0.135
-137.429	105.097	-0.017	-0.020
-136.414	149.557	-0.126	0.171
-135.399	-106.799	0.355	-0.079
-134.385	796.472	0.060	0.166
-133.370	31.022	0.258	0.221
-132.356	-200.000	0.005	-0.024
-131.341	-151.638	0.319	0.024
-130.326	-200.000	0.088	-0.392
-129.312	-20.701	0.209	0.128
-128.297	-148.873	0.140	-0.011
-127.283	36.619	0.073	0.064
-126.268	-200.000	0.059	0.276
-125.253	-73.031	0.342	0.125
-124.239	-38.401	0.134	-0.071
-123.224	-32.331	-0.168	0.094
-122.210	452.201	0.056	0.123
-121.195	-8.675	-0.214	-0.143
