DTS Sentinel unit serial number:	SN413079Multiplexer serial number:	ORYXHardware model number:	OX4-SRSoftware version number:	ORYX F/W v4.00 Oryx Data Collector v3.7.2.0data status	okinstallation	princeton_trtdifferential loss correction	single-endedforward channel	channel 4reverse channel	N/Adate	2019/09/15time	02:17:34forward acquisition time	60.00reverse acquisition time	0.00gamma	496.2192k internal	0.2308k external	0.2308temperature offset calibration	1.0037default loss term (dB/km)	0.3790temperature slope calibration	1.0000multiplexer offset coefficient	1.0000multiplexer slope coefficient	1.0000fibre end	0.00T internal ref (°C)	31.62T ext. ref 1 (°C)	4.56T ext. ref 2 (°C)	26.20length (m)	temperature (°C)	Stokes	anti-Stokes-747.200	-81.403	0.346	0.116
-746.185	653.719	0.129	-0.337
-745.171	-35.010	-0.333	-0.185
-744.156	164.182	-0.124	0.177
-743.142	135.214	-0.088	-0.116
-742.127	413.328	-0.184	0.398
-741.112	-101.765	0.197	0.049
-740.098	-135.452	0.023	0.003
-739.083	-149.920	-0.164	0.013
-738.069	-158.550	0.122	0.007
-737.054	-200.000	-0.012	-0.118
-736.039	-92.254	0.159	0.046
-735.025	48.585	-0.114	0.108
-734.010	-3.180	-0.196	0.139
-732.996	-200.000	-0.036	-0.261
-731.981	-78.942	-0.334	-0.116
-730.966	-200.000	0.035	-0.000
-729.952	-102.870	-0.412	0.099
-728.937	-148.268	-0.154	0.013
-727.923	-177.786	0.308	-0.008
-726.908	800.000	-0.055	-0.156
-725.894	1.775	-0.333	0.243
-724.879	489.882	-0.085	-0.197
-723.864	-150.775	-0.265	-0.020
-722.850	-99.668	-0.223	-0.057
-721.835	-97.257	0.203	0.054
-720.821	-80.540	-0.216	0.073
-719.806	152.724	0.191	-0.265
-718.791	6.517	-0.237	-0.179
-717.777	-108.119	-0.263	-0.058
-716.762	-70.789	-0.249	-0.095
-715.748	-35.211	-0.194	0.107
-714.733	800.000	0.114	0.389
-713.718	-200.000	-0.021	-0.147
-712.704	-36.814	-0.160	0.087
-711.689	549.141	0.123	0.300
-710.675	15.441	-0.302	0.241
-709.660	-74.195	-0.117	0.043
-708.645	-200.000	-0.017	0.092
-707.631	248.782	0.175	0.301
-706.616	142.787	-0.139	-0.187
-705.602	-129.940	0.221	-0.031
-704.587	-104.785	-0.225	0.052
-703.572	-33.306	-0.112	0.063
-702.558	-200.000	0.031	-0.169
-701.543	-39.433	0.081	-0.043
-700.529	-187.190	-0.278	0.004
-699.514	-16.326	0.198	0.127
-698.499	179.613	0.041	0.062
-697.485	16.473	0.153	0.122
-696.470	-103.697	0.209	-0.050
-695.456	-43.308	0.232	-0.119
-694.441	147.193	-0.102	-0.139
-693.426	-38.457	-0.251	0.135
-692.412	800.000	0.109	0.400
-691.397	-200.000	0.015	-0.205
-690.383	-11.968	0.123	0.082
-689.368	158.835	-0.141	0.198
-688.354	113.269	0.289	0.355
-687.339	-41.148	-0.054	0.028
-686.324	800.000	0.064	0.205
-685.310	730.255	0.084	0.227
-684.295	-68.239	-0.137	0.054
-683.281	110.096	-0.164	0.199
-682.266	4.331	-0.180	-0.134
-681.251	800.000	0.045	-0.164
-680.237	469.484	-0.020	-0.046
-679.222	-87.216	0.102	0.031
-678.208	-200.000	-0.015	0.313
-677.193	-200.000	0.029	-0.169
-676.178	-158.511	0.488	0.029
-675.164	-25.791	0.181	-0.108
-674.149	800.000	-0.041	0.129
-673.135	-20.365	-0.206	0.129
-672.120	-104.524	0.256	0.060
-671.105	-123.013	-0.293	-0.048
-670.091	271.251	-0.104	0.186
-669.076	-9.427	0.252	0.170
-668.062	414.693	0.004	-0.009
-667.047	-100.697	-0.244	-0.061
-666.032	-16.695	-0.128	0.082
-665.018	-27.367	-0.149	-0.088
-664.003	153.140	-0.150	0.208
-662.989	800.000	0.066	-0.255
-661.974	219.646	-0.130	-0.211
-660.959	-74.368	-0.168	0.061
-659.945	149.271	0.148	0.204
-658.930	204.942	-0.053	-0.084
-657.916	138.573	0.161	0.214
-656.901	-116.978	-0.147	-0.027
-655.886	-196.052	-0.207	0.001
-654.872	227.137	0.109	-0.179
-653.857	10.304	-0.284	0.219
-652.843	30.284	-0.026	-0.022
-651.828	81.129	-0.237	-0.259
-650.814	132.267	-0.102	0.133
-649.799	800.000	0.014	-0.051
-648.784	-200.000	-0.018	-0.117
-647.770	200.831	0.115	0.179
-646.755	-200.000	0.031	0.197
-645.741	186.135	0.128	-0.193
-644.726	-200.000	-0.120	0.000
-643.711	-190.408	-0.107	0.001
-642.697	57.463	-0.232	-0.229
-641.682	26.818	-0.250	-0.212
-640.668	-18.602	0.305	-0.193
-639.653	120.413	-0.107	0.134
-638.638	22.328	0.246	-0.203
-637.624	-151.137	-0.160	0.012
-636.609	221.891	0.175	-0.285
-635.595	-200.000	-0.006	-0.349
-634.580	165.151	-0.069	0.099
-633.565	285.013	-0.076	-0.138
-632.551	-200.000	0.019	0.126
-631.536	44.998	0.184	-0.171
-630.522	1.285	0.165	0.120
-629.507	16.070	-0.072	-0.058
-628.492	119.828	0.190	-0.239
-627.478	-111.603	0.294	-0.060
-626.463	-60.747	-0.086	-0.037
-625.449	188.503	0.085	0.129
-624.434	0.576	-0.173	0.125
-623.419	417.183	-0.093	-0.201
-622.405	44.226	-0.294	-0.273
-621.390	172.670	0.122	0.177
-620.376	-9.069	0.083	-0.056
-619.361	-25.391	0.186	0.111
-618.346	136.574	0.131	0.173
-617.332	-19.973	-0.262	-0.164
-616.317	55.601	0.035	-0.034
-615.303	758.514	-0.051	0.140
-614.288	-46.465	-0.052	-0.026
-613.273	-200.000	-0.015	0.242
-612.259	-32.807	0.312	0.176
-611.244	2.798	0.349	0.256
-610.230	8.097	0.198	-0.151
-609.215	-89.468	-0.101	0.030
-608.201	204.811	0.174	0.273
-607.186	-200.000	-0.007	-0.056
-606.171	35.690	0.429	0.381
-605.157	-200.000	-0.042	-0.197
-604.142	-177.289	-0.285	0.007
-603.128	-84.364	-0.321	-0.103
-602.113	174.409	-0.197	0.288
-601.098	325.995	-0.046	0.090
-600.084	93.579	-0.201	0.230
-599.069	-84.622	-0.225	-0.072
-598.055	-78.871	-0.213	-0.073
-597.040	-200.000	-0.034	-0.182
-596.025	-200.000	0.017	0.223
-595.011	-25.977	0.282	-0.168
-593.996	-48.335	0.234	-0.114
-592.982	-1.629	0.186	0.132
-591.967	113.570	0.071	-0.087
-590.952	-200.000	0.041	0.209
-589.938	301.137	0.099	-0.184
-588.923	-88.947	-0.207	0.062
-587.909	201.387	0.141	-0.219
-586.894	40.184	-0.096	-0.088
-585.879	34.195	-0.103	0.091
-584.865	-200.000	0.019	0.130
-583.850	-43.183	-0.463	0.237
-582.836	138.938	-0.055	-0.074
-581.821	-103.293	-0.149	-0.035
-580.806	-200.000	0.015	-0.232
-579.792	-200.000	0.062	-0.321
-578.777	-94.595	-0.130	-0.036
-577.763	-40.685	0.151	0.079
-576.748	800.000	0.046	-0.150
-575.733	-183.872	0.173	-0.003
-574.719	330.745	0.126	-0.245
-573.704	545.652	-0.060	-0.144
-572.690	800.000	-0.130	0.382
-571.675	3.273	-0.110	-0.081
-570.661	800.000	0.083	0.329
-569.646	-200.000	-0.062	-0.399
-568.631	233.641	0.193	0.321
-567.617	-58.997	0.038	-0.017
-566.602	-103.256	-0.404	0.096
-565.588	-68.584	-0.096	-0.038
-564.573	-94.667	0.471	-0.129
-563.558	240.905	-0.044	0.075
-562.544	-42.857	-0.090	-0.046
-561.529	115.908	-0.114	-0.141
-560.515	240.690	-0.069	0.116
-559.500	-82.080	0.278	0.091
-558.485	-78.141	-0.216	0.075
-557.471	76.660	-0.314	0.336
-556.456	-200.000	0.043	0.323
-555.442	-200.000	-0.013	-0.198
-554.427	25.705	-0.339	-0.285
-553.412	800.000	-0.096	-0.276
-552.398	571.297	0.090	-0.221
-551.383	-134.083	0.156	0.019
-550.369	-200.000	-0.014	-0.181
-549.354	223.994	0.090	0.147
-548.339	-169.461	0.144	0.005
-547.325	84.757	-0.123	-0.135
-546.310	-108.612	-0.276	0.060
-545.296	-79.203	0.237	-0.081
-544.281	-180.260	0.218	-0.005
-543.266	800.000	0.091	-0.395
-542.252	360.625	-0.202	0.409
-541.237	800.000	0.030	-0.095
-540.223	309.030	-0.081	0.153
-539.208	394.162	0.104	-0.219
-538.193	-188.462	-0.224	-0.003
-537.179	-155.839	-0.129	-0.008
-536.164	-20.401	0.214	0.133
-535.150	-122.599	-0.159	-0.026
-534.135	800.000	0.098	-0.279
-533.121	-200.000	-0.021	0.303
-532.106	800.000	0.051	-0.216
-531.091	-142.810	-0.128	-0.013
-530.077	-84.943	0.198	0.063
-529.062	800.000	-0.044	0.187
-528.048	193.466	0.105	0.161
-527.033	-102.575	0.193	-0.047
-526.018	-2.082	-0.281	0.199
-525.004	-200.000	0.023	0.188
-523.989	527.686	0.038	0.090
-522.975	164.172	0.060	-0.085
-521.960	-37.542	0.214	-0.115
-520.945	54.331	-0.100	0.097
-519.931	107.991	-0.115	-0.139
-518.916	800.000	0.024	0.077
-517.902	800.000	-0.178	0.530
-516.887	-48.862	-0.094	-0.045
-515.872	-23.982	0.132	0.080
-514.858	-95.998	0.190	-0.051
-513.843	73.468	-0.197	-0.208
-512.829	-106.598	0.147	0.033
-511.814	689.409	0.041	-0.109
-510.799	-152.649	0.045	-0.003
-509.785	250.251	-0.081	0.139
-508.770	-169.299	-0.404	0.015
-507.756	-92.977	0.248	-0.070
-506.741	-87.079	0.061	-0.019
-505.726	-96.466	0.168	0.045
-504.712	-55.853	0.372	0.167
-503.697	223.536	0.123	-0.200
-502.683	-62.035	-0.124	0.052
-501.668	-190.623	0.329	0.004
-500.653	325.711	0.057	0.109
-499.639	800.000	0.111	-0.451
-498.624	-200.000	0.018	-0.497
-497.610	495.542	-0.195	-0.451
-496.595	-166.777	0.154	0.006
-495.581	-43.469	-0.136	-0.069
-494.566	-95.876	0.267	0.072
-493.551	87.554	-0.124	0.138
-492.537	-102.072	-0.281	0.068
-491.522	648.734	0.081	0.210
-490.508	58.649	0.159	0.157
-489.493	-200.000	-0.042	-0.323
-488.478	22.750	-0.033	-0.027
-487.464	-62.644	-0.337	0.141
-486.449	-137.467	-0.141	-0.016
-485.435	-78.853	-0.296	0.101
-484.420	-78.184	-0.354	0.123
-483.405	800.000	-0.062	-0.201
-482.391	-76.668	0.274	0.097
-481.376	-84.193	-0.244	0.078
-480.362	800.000	-0.124	0.357
-479.347	266.885	-0.058	-0.102
-478.332	129.775	0.067	0.086
-477.318	800.000	0.113	0.371
-476.303	800.000	0.072	-0.268
-475.289	203.766	-0.082	-0.128
-474.274	800.000	-0.077	-0.310
-473.259	-200.000	0.032	-0.225
-472.245	-65.798	-0.035	0.014
-471.230	800.000	0.045	-0.191
-470.216	-72.335	0.104	0.039
-469.201	-63.997	0.247	0.102
-468.186	107.960	0.044	-0.053
-467.172	-1.994	-0.059	-0.042
-466.157	162.390	-0.179	-0.252
-465.143	303.078	-0.121	-0.225
-464.128	156.940	-0.160	0.223
-463.113	-200.000	-0.011	0.209
-462.099	561.772	-0.073	0.178
-461.084	84.824	-0.021	-0.023
-460.070	-200.000	-0.111	-0.556
-459.055	-15.076	0.038	0.025
-458.040	-27.551	0.350	-0.204
-457.026	15.043	-0.190	-0.149
-456.011	-200.000	-0.005	-0.179
-454.997	-16.261	0.130	-0.083
-453.982	-78.999	0.397	-0.136
-452.968	800.000	0.074	-0.298
-451.953	-106.482	-0.322	0.072
-450.938	128.207	-0.078	0.099
-449.924	146.566	0.077	0.104
-448.909	49.952	-0.198	-0.187
-447.895	-24.034	0.279	0.168
-446.880	-53.295	0.097	-0.044
-445.865	-19.135	0.164	-0.103
-444.851	-83.396	0.245	-0.079
-443.836	-4.264	-0.341	-0.237
-442.822	-149.437	-0.195	-0.016
-441.807	800.000	0.064	0.194
-440.792	-35.450	0.266	0.145
-439.778	-112.684	0.158	-0.032
-438.763	31.535	-0.184	-0.159
-437.749	-115.125	-0.142	0.027
-436.734	-49.610	-0.268	-0.128
-435.719	117.388	-0.125	-0.155
-434.705	626.565	0.089	0.225
-433.690	-143.248	0.057	0.006
-432.676	-9.805	0.072	-0.048
-431.661	800.000	-0.103	0.299
-430.646	241.125	-0.040	-0.066
-429.632	-10.127	0.317	0.211
-428.617	-68.719	-0.275	0.107
-427.603	62.131	-0.183	-0.183
-426.588	-200.000	0.057	-0.000
-425.573	-200.000	0.047	-0.346
-424.559	424.810	0.031	0.067
-423.544	-41.575	0.181	-0.094
-422.530	800.000	-0.072	0.302
-421.515	223.031	-0.126	-0.204
-420.500	-200.000	0.037	-0.419
-419.486	-198.269	-0.277	-0.002
-418.471	478.695	0.179	0.407
-417.457	800.000	-0.084	0.348
-416.442	-200.000	-0.002	0.088
-415.428	275.663	-0.152	-0.271
-414.413	-174.898	0.126	0.004
-413.398	-4.451	-0.103	0.071
-412.384	210.799	-0.219	-0.346
-411.369	-152.034	-0.215	0.016
-410.355	-89.135	-0.135	-0.040
-409.340	-0.758	0.084	-0.060
-408.325	-200.000	0.010	0.302
-407.311	141.160	-0.134	-0.177
-406.296	413.979	0.128	-0.274
-405.282	-10.778	-0.073	0.048
-404.267	-114.117	0.121	0.024
-403.252	-43.591	0.299	-0.151
-402.238	289.106	-0.136	0.247
-401.223	-200.000	-0.017	0.146
-400.209	-200.000	0.052	0.566
-399.194	-123.893	0.321	0.051
-398.179	496.555	0.106	0.245
-397.165	-200.000	0.013	-0.233
-396.150	77.455	-0.189	0.202
-395.136	35.750	0.033	-0.029
-394.121	800.000	-0.079	-0.316
-393.106	-198.001	-0.152	0.001
-392.092	-157.016	0.288	0.018
-391.077	-200.000	-0.092	0.416
-390.063	-158.239	0.147	0.009
-389.048	15.526	0.101	-0.079
-388.033	-200.000	-0.009	0.075
-387.019	154.838	0.085	0.117
-386.004	485.987	-0.121	-0.277
-384.990	-98.219	0.059	0.015
-383.975	-83.972	0.441	0.141
-382.960	-76.765	-0.262	0.092
-381.946	5.116	0.045	-0.034
-380.931	230.941	0.076	0.125
-379.917	36.794	0.219	-0.194
-378.902	320.757	0.133	0.253
-377.888	41.941	-0.200	0.182
-376.873	231.855	-0.154	-0.253
-375.858	-200.000	0.055	-0.324
-374.844	193.085	-0.056	-0.085
-373.829	-200.000	0.007	0.394
-372.815	-200.000	0.035	0.192
-371.800	-31.509	-0.245	0.138
-370.785	-49.409	-0.288	-0.137
-369.771	347.017	-0.138	-0.272
-368.756	-200.000	-0.036	-0.179
-367.742	800.000	0.079	0.310
-366.727	-52.081	0.097	-0.045
-365.712	-200.000	-0.045	0.320
-364.698	-33.490	-0.339	0.187
-363.683	0.111	0.125	0.089
-362.669	-200.000	0.023	-0.143
-361.654	-2.469	0.132	0.093
-360.639	69.977	0.041	-0.043
-359.625	-138.159	-0.376	-0.042
-358.610	152.322	0.368	0.503
-357.596	125.924	-0.020	0.026
-356.581	-52.939	-0.138	0.064
-355.566	-0.638	0.323	0.229
-354.552	-0.357	-0.207	0.147
-353.537	-200.000	0.018	-0.289
-352.523	-200.000	-0.017	0.088
-351.508	19.719	-0.361	-0.291
-350.493	-120.096	-0.351	-0.060
-349.479	-200.000	0.000	-0.121
-348.464	-143.877	-0.141	-0.013
-347.450	41.172	0.010	0.009
-346.435	84.681	-0.269	-0.295
-345.420	-77.872	0.252	0.087
-344.406	-11.920	0.180	-0.118
-343.391	-107.947	-0.270	0.059
-342.377	524.952	-0.108	-0.253
-341.362	106.354	-0.201	0.238
-340.348	-200.000	0.000	-0.155
-339.333	36.727	-0.111	0.098
-338.318	-105.360	0.178	-0.041
-337.304	-28.156	-0.104	-0.060
-336.289	395.125	0.111	-0.232
-335.275	34.430	0.248	-0.217
-334.260	-108.278	0.079	-0.017
-333.245	-30.130	0.117	-0.067
-332.231	379.647	0.180	0.370
-331.216	70.970	0.220	-0.228
-330.202	800.000	-0.038	-0.134
-329.187	800.000	-0.053	-0.166
-328.172	455.528	0.143	-0.318
-327.158	34.422	-0.039	-0.034
-326.143	-200.000	-0.012	-0.135
-325.129	-110.397	0.227	-0.047
-324.114	275.727	0.228	-0.404
-323.099	-120.324	0.063	0.011
-322.085	-177.593	-0.244	0.006
-321.070	233.535	-0.147	-0.242
-320.056	118.744	0.194	-0.240
-319.041	147.874	-0.254	0.342
-318.026	-55.133	0.262	0.118
-317.012	-200.000	-0.014	0.192
-315.997	-52.891	0.147	-0.068
-314.983	-200.000	-0.002	0.429
-313.968	76.514	-0.276	0.293
-312.953	-200.000	-0.021	0.326
-311.939	227.040	0.025	-0.041
-310.924	-38.853	-0.131	0.069
-309.910	12.509	-0.117	0.090
-308.895	98.217	0.041	0.047
-307.880	-0.818	0.185	-0.131
-306.866	-22.808	0.098	-0.059
-305.851	-20.238	-0.269	0.166
-304.837	800.000	0.038	0.106
-303.822	-71.744	-0.380	-0.141
-302.807	50.826	-0.178	-0.169
-301.793	127.113	-0.175	-0.221
-300.778	-21.263	0.491	0.300
-299.764	-58.569	0.230	0.099
-298.749	370.254	-0.091	-0.184
-297.735	-26.328	0.074	0.043
-296.720	48.199	-0.031	-0.029
-295.705	-200.000	-0.058	0.379
-294.691	-200.000	0.000	0.265
-293.676	-131.042	-0.159	0.021
-292.662	131.357	-0.144	0.184
-291.647	34.987	0.159	-0.139
-290.632	482.594	-0.119	-0.270
-289.618	376.551	-0.164	-0.333
-288.603	-25.008	0.189	-0.112
-287.589	-200.000	-0.014	-0.186
-286.574	-200.000	-0.020	-0.158
-285.559	-4.069	-0.130	-0.090
-284.545	-67.829	-0.448	-0.175
-283.530	6.841	-0.125	0.093
-282.516	-200.000	0.021	-0.111
-281.501	-200.000	0.004	-0.047
-280.486	800.000	0.085	-0.314
-279.472	-200.000	-0.000	-0.198
-278.457	-79.776	-0.207	0.070
-277.443	-98.802	0.187	0.047
-276.428	800.000	0.051	0.170
-275.413	-13.144	0.415	0.269
-274.399	-200.000	-0.003	-0.391
-273.384	-200.000	0.042	0.204
-272.370	-200.000	-0.024	-0.279
-271.355	-200.000	0.049	0.311
-270.340	-124.228	-0.193	0.030
-269.326	-38.885	-0.180	-0.095
-268.311	232.972	-0.122	-0.201
-267.297	-200.000	-0.012	-0.402
-266.282	-140.669	-0.145	0.015
-265.267	563.936	-0.037	0.088
-264.253	-110.070	0.035	-0.007
-263.238	37.365	-0.067	-0.059
-262.224	130.521	0.206	0.263
-261.209	-200.000	0.042	0.498
-260.195	-200.000	-0.037	-0.184
-259.180	52.406	0.260	-0.248
-258.165	-200.000	0.012	0.389
-257.151	-163.490	0.282	0.013
-256.136	-10.180	0.369	-0.244
-255.122	133.286	-0.074	-0.095
-254.107	-200.000	0.018	0.083
-253.092	-89.118	0.089	0.026
-252.078	81.666	0.276	0.297
-251.063	800.000	0.080	0.268
-250.049	392.037	0.042	0.087
-249.034	-165.634	-0.288	0.012
-248.019	151.875	-0.216	0.293
-247.005	-87.577	-0.081	-0.024
-245.990	21.338	0.038	0.031
-244.976	-99.013	-0.044	-0.011
-243.961	-112.245	-0.171	-0.034
-242.946	-200.000	0.043	0.204
-241.932	139.607	0.050	0.066
-240.917	87.947	-0.110	-0.121
-239.903	31.616	0.239	0.205
-238.888	203.895	-0.125	0.192
-237.873	660.794	-0.121	0.310
-236.859	0.974	0.130	0.093
-235.844	800.000	0.025	-0.092
-234.830	124.094	-0.123	-0.154
-233.815	-17.631	-0.138	-0.086
-232.800	611.941	-0.112	0.279
-231.786	407.284	0.022	0.046
-230.771	278.484	-0.035	-0.063
-229.757	-200.000	-0.016	-0.379
-228.742	800.000	-0.052	-0.153
-227.727	99.274	0.111	0.128
-226.713	196.070	0.128	0.194
-225.698	-77.605	0.211	-0.073
-224.684	-101.283	-0.086	-0.021
-223.669	-200.000	-0.005	0.070
-222.655	188.034	0.230	0.342
-221.640	-200.000	0.006	-0.108
-220.625	775.843	-0.011	-0.029
-219.611	-136.293	-0.091	0.011
-218.596	-200.000	0.016	-0.155
-217.582	800.000	0.008	0.029
-216.567	-44.006	0.363	0.181
-215.552	462.344	-0.063	0.139
-214.538	800.000	0.033	0.125
-213.523	-200.000	0.065	0.354
-212.509	-114.564	0.176	-0.034
-211.494	-44.377	-0.222	-0.111
-210.479	-102.813	-0.123	-0.029
-209.465	-181.726	-0.340	0.007
-208.450	-200.000	0.015	0.191
-207.436	-117.943	0.535	-0.095
-206.421	800.000	-0.068	0.285
-205.406	56.460	-0.369	-0.358
-204.392	-141.697	0.257	0.026
-203.377	-120.819	0.329	-0.055
-202.363	143.745	-0.121	0.161
-201.348	64.105	0.243	-0.243
-200.333	-93.447	-0.139	0.038
-199.319	87.824	0.047	0.052
-198.304	85.416	-0.163	0.178
-197.290	243.080	-0.187	0.311
-196.275	73.267	-0.255	0.265
-195.260	-200.000	-0.005	0.091
-194.246	203.021	0.062	0.095
-193.231	-200.000	-0.003	-0.294
-192.217	-31.079	0.049	0.028
-191.202	-103.118	0.115	-0.027
-190.187	-14.187	0.138	-0.088
-189.173	-41.381	0.253	0.130
-188.158	-134.166	-0.175	-0.021
-187.144	11.777	0.238	-0.182
-186.129	-200.000	-0.042	-0.336
-185.114	-113.106	0.299	0.059
-184.100	-169.285	0.056	-0.002
-183.085	-81.760	-0.151	-0.049
-182.071	-127.575	-0.439	0.063
-181.056	27.344	0.309	0.259
-180.042	-159.607	0.191	-0.011
-179.027	17.061	-0.096	0.076
-178.012	-46.618	-0.032	-0.016
-176.998	-200.000	-0.033	-0.227
-175.983	-7.288	0.077	0.052
-174.969	-18.202	0.203	0.126
-173.954	-126.114	0.214	-0.032
-172.939	331.308	-0.054	-0.103
-171.925	800.000	-0.010	0.033
-170.910	-163.291	0.184	0.009
-169.896	-200.000	-0.021	0.152
-168.881	-83.546	0.277	0.088
-167.866	800.000	0.044	0.181
-166.852	800.000	-0.105	-0.325
-165.837	-200.000	-0.027	0.213
-164.823	-9.522	-0.212	0.141
-163.808	-200.000	0.000	-0.068
-162.793	119.280	0.038	-0.047
-161.779	-135.926	0.307	0.036
-160.764	30.767	0.116	-0.099
-159.750	-49.460	-0.360	-0.170
-158.735	-200.000	-0.003	0.071
-157.720	-104.849	-0.120	0.027
-156.706	-143.486	-0.261	-0.025
-155.691	-133.044	0.394	0.050
-154.677	-94.359	-0.121	-0.033
-153.662	160.431	-0.206	0.286
-152.647	-21.099	0.184	-0.112
-151.633	800.000	-0.033	0.090
-150.618	14.714	-0.243	0.189
-149.604	800.000	-0.060	0.220
-148.589	241.349	-0.071	0.117
-147.574	37.336	-0.108	-0.095
-146.560	-200.000	0.003	-0.141
-145.545	131.431	-0.090	0.114
-144.531	79.228	-0.260	0.277
-143.516	-200.000	-0.016	0.313
-142.502	-111.976	0.374	-0.075
-141.487	20.559	-0.241	0.193
-140.472	199.683	0.169	-0.258
-139.458	800.000	0.058	-0.170
-138.443	344.624	0.201	0.391
-137.429	800.000	-0.026	0.111
-136.414	250.310	-0.083	0.140
-135.399	-65.715	-0.113	-0.045
-134.385	-12.026	-0.116	0.075
-133.370	-126.787	-0.095	0.014
-132.356	-88.263	-0.091	0.027
-131.341	26.919	0.197	-0.163
-130.326	800.000	-0.119	0.397
-129.312	-103.304	-0.091	0.021
-128.297	-60.024	0.211	-0.089
-127.283	-126.886	0.123	0.018
-126.268	49.508	-0.221	-0.206
-125.253	-79.575	0.256	-0.086
-124.239	-45.383	0.087	0.043
-123.224	-29.375	0.088	-0.050
-122.210	-97.666	0.155	0.040
