DTS Sentinel unit serial number:	SN413079Multiplexer serial number:	ORYXHardware model number:	OX4-SRSoftware version number:	ORYX F/W v4.00 Oryx Data Collector v3.7.2.0data status	okinstallation	princeton_trtdifferential loss correction	single-endedforward channel	channel 4reverse channel	N/Adate	2019/09/15time	13:49:34forward acquisition time	60.00reverse acquisition time	0.00gamma	496.2192k internal	0.2290k external	0.2290temperature offset calibration	0.9994default loss term (dB/km)	0.3790temperature slope calibration	1.0000multiplexer offset coefficient	1.0000multiplexer slope coefficient	1.0000fibre end	0.00T internal ref (°C)	38.16T ext. ref 1 (°C)	4.93T ext. ref 2 (°C)	35.49length (m)	temperature (°C)	Stokes	anti-Stokes-747.200	-80.101	0.222	-0.076
-746.185	800.000	-0.072	0.212
-745.171	-40.475	-0.227	0.121
-744.156	-11.326	-0.247	0.166
-743.142	499.048	0.035	0.082
-742.127	800.000	0.083	0.294
-741.112	-110.991	-0.221	-0.047
-740.098	800.000	-0.096	0.318
-739.083	154.373	0.196	0.276
-738.069	445.522	0.041	-0.092
-737.054	198.125	0.160	-0.250
-736.039	-60.029	0.163	0.071
-735.025	-200.000	-0.003	0.044
-734.010	-134.802	-0.378	-0.047
-732.996	-200.000	-0.013	0.133
-731.981	82.312	0.035	0.039
-730.966	381.721	-0.031	-0.065
-729.952	616.589	-0.101	-0.259
-728.937	28.008	0.162	0.140
-727.923	391.962	-0.070	-0.150
-726.908	195.592	0.036	0.056
-725.894	12.971	-0.124	0.098
-724.879	64.229	0.033	0.034
-723.864	197.152	0.186	0.290
-722.850	471.025	0.048	-0.111
-721.835	23.792	-0.114	0.096
-720.821	120.531	0.128	0.163
-719.806	-158.822	-0.061	0.004
-718.791	38.542	0.089	0.081
-717.777	-4.461	-0.174	-0.123
-716.762	-126.461	-0.405	-0.062
-715.748	-87.827	-0.167	-0.051
-714.733	800.000	0.031	-0.137
-713.718	-3.384	-0.250	-0.178
-712.704	151.724	0.244	-0.341
-711.689	-41.674	-0.151	-0.079
-710.675	-64.352	-0.149	-0.062
-709.660	-200.000	0.002	-0.164
-708.645	351.970	0.129	-0.261
-707.631	401.436	0.079	-0.169
-706.616	631.182	0.126	0.327
-705.602	54.991	-0.275	-0.272
-704.587	800.000	0.060	0.190
-703.572	45.791	0.207	-0.196
-702.558	-49.663	-0.099	-0.048
-701.543	414.046	-0.075	0.163
-700.529	799.153	-0.018	0.050
-699.514	188.004	-0.147	-0.224
-698.499	14.105	-0.274	-0.218
-697.485	123.063	-0.102	-0.131
-696.470	800.000	-0.049	-0.180
-695.456	154.897	-0.136	0.191
-694.441	-169.563	0.315	0.012
-693.426	-108.246	-0.123	0.027
-692.412	19.698	-0.146	-0.121
-691.397	-200.000	0.044	-0.294
-690.383	-93.787	-0.485	0.137
-689.368	-200.000	0.002	-0.347
-688.354	-39.057	-0.179	-0.096
-687.339	-112.581	-0.272	-0.055
-686.324	328.372	-0.127	-0.249
-685.310	-69.321	-0.290	-0.114
-684.295	800.000	0.085	-0.349
-683.281	72.353	0.060	-0.064
-682.266	76.819	0.169	-0.183
-681.251	73.107	0.078	0.084
-680.237	77.075	-0.108	0.117
-679.222	-130.194	0.286	0.040
-678.208	-96.419	-0.073	-0.020
-677.193	213.956	-0.160	-0.259
-676.178	471.351	-0.103	-0.237
-675.164	800.000	0.016	-0.062
-674.149	-71.104	-0.310	-0.119
-673.135	-140.838	0.466	0.049
-672.120	206.289	0.224	0.357
-671.105	4.537	-0.155	-0.116
-670.091	228.439	0.047	0.079
-669.076	181.218	-0.056	-0.085
-668.062	131.942	0.147	0.194
-667.047	-95.061	0.116	-0.032
-666.032	118.732	-0.108	-0.137
-665.018	3.603	-0.003	0.002
-664.003	25.274	0.114	0.097
-662.989	-200.000	0.011	0.241
-661.974	211.720	0.054	-0.086
-660.959	-200.000	0.008	-0.102
-659.945	-110.289	0.248	0.053
-658.930	-101.326	0.053	-0.013
-657.916	-109.494	-0.099	0.021
-656.901	-59.026	0.289	-0.127
-655.886	-44.496	-0.153	-0.078
-654.872	224.603	0.069	0.113
-653.857	-116.933	-0.334	-0.062
-652.843	800.000	0.063	-0.204
-651.828	153.403	0.113	-0.158
-650.814	46.479	-0.021	0.020
-649.799	222.525	0.113	-0.185
-648.784	-200.000	0.021	0.453
-647.770	-116.033	-0.143	-0.027
-646.755	-85.477	0.182	0.058
-645.741	58.742	-0.124	0.125
-644.726	92.075	-0.173	-0.198
-643.711	-32.190	0.280	0.160
-642.697	57.947	-0.179	-0.179
-641.682	543.841	-0.043	-0.104
-640.668	72.051	-0.164	0.174
-639.653	-200.000	-0.030	0.239
-638.638	7.941	-0.075	-0.058
-637.624	-100.332	-0.118	-0.030
-636.609	-133.181	0.295	0.038
-635.595	113.149	-0.172	-0.213
-634.580	206.133	-0.256	-0.406
-633.565	-164.616	0.122	-0.006
-632.551	-200.000	-0.088	-0.508
-631.536	72.970	0.085	0.091
-630.522	8.040	0.305	-0.234
-629.507	-147.342	-0.187	-0.016
-628.492	-197.841	-0.310	0.002
-627.478	-200.000	-0.019	-0.201
-626.463	279.826	-0.149	-0.272
-625.449	277.338	-0.169	-0.306
-624.434	-179.773	0.410	0.009
-623.419	64.572	-0.218	-0.224
-622.405	-100.995	0.482	0.121
-621.390	-200.000	0.041	0.199
-620.376	-98.623	0.276	-0.072
-619.361	-52.694	0.076	0.036
-618.346	-101.953	0.264	0.065
-617.332	12.670	0.218	0.172
-616.317	68.130	0.202	-0.211
-615.303	800.000	0.052	-0.150
-614.288	51.089	-0.216	0.209
-613.273	317.665	0.071	0.138
-612.259	-200.000	0.008	-0.155
-611.244	43.866	-0.106	0.099
-610.230	25.785	-0.212	-0.180
-609.215	215.034	0.072	-0.116
-608.201	512.097	-0.097	-0.230
-607.186	-23.074	0.328	-0.202
-606.171	121.636	-0.082	-0.104
-605.157	-169.071	0.211	0.008
-604.142	-200.000	-0.023	-0.241
-603.128	-200.000	0.021	-0.101
-602.113	203.201	0.170	-0.268
-601.098	497.117	-0.117	-0.275
-600.084	800.000	0.029	-0.115
-599.069	-200.000	-0.021	0.106
-598.055	-131.765	-0.274	-0.037
-597.040	-55.159	0.194	-0.089
-596.025	-129.975	0.130	-0.018
-595.011	14.807	-0.191	0.153
-593.996	-14.086	0.306	-0.201
-592.982	-37.039	-0.413	0.225
-591.967	-200.000	0.014	-0.272
-590.952	78.782	0.248	-0.270
-589.938	800.000	0.114	-0.405
-588.923	800.000	0.029	-0.099
-587.909	424.977	-0.139	-0.306
-586.894	75.648	-0.016	0.017
-585.879	-136.307	0.266	-0.032
-584.865	-200.000	-0.035	-0.396
-583.850	-1.340	0.218	0.157
-582.836	-200.000	-0.016	0.270
-581.821	247.701	-0.103	0.177
-580.806	116.439	-0.058	-0.072
-579.792	-200.000	-0.011	-0.091
-578.777	91.141	0.184	-0.210
-577.763	800.000	-0.019	0.078
-576.748	438.011	0.104	0.231
-575.733	-102.277	0.273	0.067
-574.719	74.029	0.178	-0.190
-573.704	-53.068	0.282	-0.132
-572.690	-200.000	0.027	-0.222
-571.675	11.072	0.069	-0.054
-570.661	76.438	-0.239	0.257
-569.646	-165.632	-0.105	-0.005
-568.631	-1.833	-0.271	-0.194
-567.617	134.516	0.086	-0.114
-566.602	-200.000	-0.010	0.241
-565.588	-150.984	-0.176	-0.014
-564.573	482.866	0.078	-0.180
-563.558	515.159	-0.063	-0.149
-562.544	800.000	0.013	0.054
-561.529	-27.233	-0.081	-0.048
-560.515	231.783	-0.064	-0.107
-559.500	190.856	0.093	-0.142
-558.485	-31.323	-0.199	0.114
-557.471	-89.891	0.114	0.034
-556.456	-200.000	0.030	0.152
-555.442	299.431	-0.167	-0.312
-554.427	-200.000	-0.056	-0.448
-553.412	800.000	0.058	-0.188
-552.398	-44.442	0.063	-0.032
-551.383	-123.580	-0.200	0.032
-550.369	140.954	-0.230	-0.309
-549.354	-16.715	0.183	-0.118
-548.339	800.000	0.208	-0.604
-547.325	-122.979	-0.411	0.067
-546.310	-200.000	-0.011	-0.145
-545.296	-133.777	-0.154	0.020
-544.281	-49.456	0.391	0.189
-543.266	-8.134	0.272	0.186
-542.252	800.000	0.098	0.298
-541.237	-83.485	0.422	-0.137
-540.223	49.613	0.358	-0.343
-539.208	46.231	0.162	-0.152
-538.193	19.500	-0.314	-0.257
-537.179	-158.923	-0.359	0.021
-536.164	800.000	-0.050	0.141
-535.150	-200.000	-0.002	0.094
-534.135	23.116	-0.116	0.097
-533.121	7.027	-0.111	-0.084
-532.106	-65.175	-0.224	0.092
-531.091	619.318	-0.126	-0.323
-530.077	135.993	0.110	-0.145
-529.062	43.323	-0.137	0.127
-528.048	-102.541	-0.176	-0.043
-527.033	-200.000	-0.003	0.478
-526.018	-200.000	0.056	0.387
-525.004	-133.767	0.182	-0.023
-523.989	114.321	0.043	-0.053
-522.975	-11.999	0.130	0.087
-521.960	197.322	0.045	0.070
-520.945	0.221	0.189	-0.137
-519.931	167.094	-0.126	0.182
-518.916	800.000	0.049	-0.170
-517.902	-165.700	-0.145	-0.006
-516.887	194.964	-0.160	0.247
-515.872	33.315	-0.155	-0.136
-514.858	-20.683	0.376	0.234
-513.843	-102.626	-0.170	-0.041
-512.829	555.673	-0.079	-0.194
-511.814	200.921	0.145	0.227
-510.799	-200.000	0.003	0.060
-509.785	525.118	0.085	-0.203
-508.770	-200.000	-0.018	0.190
-507.756	800.000	-0.028	0.096
-506.741	-87.386	0.375	0.115
-505.726	118.699	-0.128	0.160
-504.712	-59.478	-0.153	-0.067
-503.697	1.228	0.129	0.094
-502.683	-115.390	0.046	0.009
-501.668	43.227	-0.355	-0.329
-500.653	123.262	-0.136	-0.173
-499.639	-200.000	0.033	0.195
-498.624	-43.509	0.243	-0.125
-497.610	-103.898	0.104	-0.025
-496.595	-68.046	-0.346	0.137
-495.581	447.607	0.075	-0.167
-494.566	692.783	0.072	0.190
-493.551	227.630	-0.021	-0.035
-492.537	-30.785	-0.216	0.124
-491.522	351.768	-0.041	0.082
-490.508	-95.508	0.142	0.039
-489.493	-200.000	-0.015	-0.080
-488.478	86.651	0.125	0.139
-487.464	-200.000	0.089	0.551
-486.449	800.000	-0.071	0.279
-485.435	-43.911	-0.023	-0.012
-484.420	-95.128	0.294	0.080
-483.405	493.671	-0.052	0.121
-482.391	-200.000	0.018	0.197
-481.376	-52.298	-0.191	-0.090
-480.362	800.000	0.046	-0.175
-479.347	147.340	0.196	0.268
-478.332	-31.514	-0.058	0.033
-477.318	-117.485	-0.063	0.012
-476.303	121.762	0.117	-0.148
-475.289	-61.469	0.018	-0.008
-474.274	-200.000	-0.002	-0.103
-473.259	-88.077	0.148	0.045
-472.245	800.000	0.088	0.277
-471.230	-160.692	0.292	-0.016
-470.216	237.065	0.031	-0.051
-469.201	375.838	0.186	0.384
-468.186	252.230	0.180	0.311
-467.172	-144.059	-0.157	-0.015
-466.157	-200.000	-0.054	-0.379
-465.143	-121.850	-0.133	0.022
-464.128	-9.758	0.198	-0.134
-463.113	-118.212	-0.248	-0.045
-462.099	479.178	-0.218	0.501
-461.084	800.000	-0.042	-0.163
-460.070	-200.000	0.026	0.166
-459.055	282.732	-0.196	-0.357
-458.040	800.000	0.059	-0.190
-457.026	-2.491	-0.107	-0.076
-456.011	-145.851	-0.288	0.026
-454.997	-100.491	0.326	0.082
-453.982	5.067	0.355	-0.265
-452.968	260.395	-0.126	0.221
-451.953	-5.190	0.185	-0.129
-450.938	800.000	0.047	0.143
-449.924	216.328	0.072	-0.116
-448.909	88.404	0.130	-0.146
-447.895	256.589	-0.012	0.021
-446.880	71.607	-0.069	-0.072
-445.865	384.803	0.065	0.136
-444.851	38.262	0.243	0.219
-443.836	-132.755	-0.057	-0.007
-442.822	-103.868	0.534	0.126
-441.807	-142.893	0.018	0.002
-440.792	-109.566	-0.119	0.025
-439.778	-71.254	-0.207	-0.079
-438.763	-168.641	-0.243	0.009
-437.749	800.000	0.072	0.260
-436.734	244.640	-0.155	0.264
-435.719	-132.008	0.109	-0.014
-434.705	225.033	-0.253	-0.414
-433.690	-200.000	0.003	-0.280
-432.676	-93.783	-0.114	-0.032
-431.661	74.490	-0.136	0.144
-430.646	-110.112	0.138	0.029
-429.632	315.286	-0.108	0.205
-428.617	405.472	-0.057	0.121
-427.603	-200.000	0.042	-0.251
-426.588	-31.833	0.384	-0.218
-425.573	-200.000	0.017	-0.222
-424.559	-79.211	0.063	-0.022
-423.544	47.038	-0.247	-0.233
-422.530	38.420	-0.167	0.150
-421.515	800.000	-0.063	-0.205
-420.500	257.264	0.108	-0.188
-419.486	48.680	0.108	-0.103
-418.471	-78.148	0.100	-0.035
-417.457	-200.000	0.033	0.361
-416.442	-200.000	0.014	-0.140
-415.428	-9.909	-0.165	-0.111
-414.413	603.439	-0.134	-0.336
-413.398	99.467	-0.285	0.333
-412.384	399.156	0.074	-0.158
-411.369	117.171	-0.185	-0.231
-410.355	-200.000	-0.029	0.131
-409.340	-141.491	-0.101	0.010
-408.325	83.041	0.171	-0.188
-407.311	160.112	0.105	-0.149
-406.296	-200.000	0.014	0.284
-405.282	275.797	-0.258	0.463
-404.267	800.000	-0.139	-0.439
-403.252	163.997	0.156	-0.222
-402.238	-107.836	0.153	0.034
-401.223	800.000	-0.062	0.238
-400.209	-15.062	0.048	0.031
-399.194	48.544	-0.169	0.161
-398.179	77.821	0.203	0.219
-397.165	-136.521	-0.058	0.007
-396.150	245.647	-0.104	0.176
-395.136	347.523	0.057	0.114
-394.121	208.717	-0.186	-0.294
-393.106	-54.123	0.157	0.072
-392.092	-49.021	0.121	-0.058
-391.077	49.470	-0.189	0.180
-390.063	-73.456	-0.039	-0.014
-389.048	-51.526	-0.129	-0.061
-388.033	102.094	-0.256	-0.302
-387.019	-56.642	-0.085	0.038
-386.004	340.481	-0.076	0.151
-384.990	85.943	-0.165	0.184
-383.975	-162.002	0.099	-0.005
-382.960	-10.202	0.275	-0.185
-381.946	-200.000	0.012	0.052
-380.931	348.996	-0.056	-0.112
-379.917	-17.045	0.154	-0.098
-378.902	-71.219	0.238	0.090
-377.888	-113.651	-0.136	-0.027
-376.873	-115.784	0.294	-0.056
-375.858	-149.406	0.179	-0.014
-374.844	-195.674	-0.307	-0.002
-373.829	-72.413	0.142	0.053
-372.815	63.079	-0.098	0.099
-371.800	280.108	0.044	-0.079
-370.785	-200.000	0.006	0.230
-369.771	509.133	-0.104	0.245
-368.756	-120.930	-0.035	-0.006
-367.742	107.222	0.061	-0.074
-366.727	-50.162	-0.300	0.143
-365.712	134.787	0.020	-0.026
-364.698	130.810	-0.189	0.244
-363.683	537.363	0.074	-0.178
-362.669	-118.856	0.131	-0.023
-361.654	258.002	0.069	-0.119
-360.639	800.000	0.140	0.395
-359.625	800.000	-0.118	0.385
-358.610	86.561	0.185	-0.206
-357.596	-159.617	-0.170	0.009
-356.581	-169.264	0.119	0.004
-355.566	30.070	0.070	0.061
-354.552	84.749	0.100	0.111
-353.537	-200.000	-0.025	0.122
-352.523	-200.000	0.038	-0.190
-351.508	-16.908	0.137	-0.087
-350.493	-104.131	-0.314	0.074
-349.479	-52.669	-0.250	-0.116
-348.464	-47.483	-0.223	-0.109
-347.450	-199.351	0.250	-0.001
-346.435	-115.257	-0.273	0.052
-345.420	-45.857	-0.215	0.107
-344.406	10.827	-0.068	-0.052
-343.391	-180.704	0.324	0.007
-342.377	282.210	-0.077	-0.139
-341.362	-200.000	0.030	-0.284
-340.348	301.051	-0.073	-0.135
-339.333	306.472	-0.147	0.275
-338.318	800.000	0.057	0.163
-337.304	232.150	0.228	0.377
-336.289	-83.554	0.143	-0.046
-335.275	-200.000	0.004	-0.099
-334.260	-69.959	0.134	0.051
-333.245	-200.000	-0.001	0.230
-332.231	-107.053	0.151	0.034
-331.216	800.000	0.049	0.218
-330.202	-141.094	-0.083	0.009
-329.187	495.166	0.024	0.055
-328.172	-145.167	-0.248	0.023
-327.158	105.710	0.060	0.072
-326.143	-179.463	-0.041	-0.001
-325.129	67.435	-0.197	0.203
-324.114	-129.488	0.116	0.016
-323.099	132.551	0.359	0.467
-322.085	-78.152	-0.097	-0.034
-321.070	-137.098	0.026	0.003
-320.056	310.680	0.073	-0.137
-319.041	-156.424	-0.304	-0.019
-318.026	-103.389	-0.129	-0.031
-317.012	-73.907	-0.332	0.121
-315.997	138.290	-0.080	-0.105
-314.983	-200.000	-0.023	-0.314
-313.968	-11.501	-0.169	0.112
-312.953	-199.703	-0.085	-0.000
-311.939	-200.000	-0.004	-0.153
-310.924	499.266	0.051	-0.118
-309.910	800.000	0.159	0.453
-308.895	106.747	0.160	-0.191
-307.880	-26.369	0.341	0.201
-306.866	37.924	-0.071	-0.063
-305.851	-111.852	-0.134	0.027
-304.837	-200.000	-0.005	0.055
-303.822	800.000	0.058	0.227
-302.807	-12.543	-0.182	-0.120
-301.793	267.540	0.050	0.087
-300.778	800.000	-0.024	0.096
-299.764	79.819	-0.250	-0.271
-298.749	471.356	0.140	-0.318
-297.735	-200.000	0.001	0.026
-296.720	175.578	0.014	0.021
-295.705	-61.299	0.417	0.177
-294.691	0.729	0.237	-0.171
-293.676	-101.508	-0.108	0.026
-292.662	313.343	0.085	0.161
-291.647	-124.660	-0.085	-0.013
-290.632	27.898	0.097	-0.082
-289.618	-200.000	0.029	0.156
-288.603	369.192	-0.171	0.349
-287.589	0.763	-0.120	-0.086
-286.574	63.915	-0.243	-0.246
-285.559	579.148	0.113	0.279
-284.545	-158.061	-0.115	0.007
-283.530	-87.497	0.144	0.044
-282.516	-2.635	-0.181	0.128
-281.501	391.634	-0.035	-0.074
-280.486	-200.000	0.020	-0.102
-279.472	-200.000	-0.013	-0.135
-278.457	800.000	0.082	0.312
-277.443	260.589	-0.136	-0.236
-276.428	-16.771	0.248	0.158
-275.413	38.465	-0.157	0.141
-274.399	-200.000	0.042	-0.197
-273.384	-173.959	-0.196	-0.006
-272.370	-200.000	0.011	0.104
-271.355	366.323	0.013	0.026
-270.340	18.655	0.323	-0.260
-269.326	-37.050	-0.200	0.108
-268.311	-20.411	0.246	0.152
-267.297	263.090	0.048	-0.084
-266.282	-140.432	-0.235	0.025
-265.267	477.949	0.079	-0.181
-264.253	800.000	0.112	0.408
-263.238	-200.000	0.069	0.348
-262.224	-200.000	-0.122	0.545
-261.209	-186.242	-0.245	-0.004
-260.195	173.850	-0.135	-0.196
-259.180	-96.442	-0.236	0.063
-258.165	800.000	0.090	-0.284
-257.151	551.327	0.090	0.217
-256.136	241.610	-0.138	0.231
-255.122	670.446	-0.104	-0.271
-254.107	800.000	0.069	0.211
-253.092	-200.000	0.014	0.275
-252.078	-200.000	-0.038	-0.322
-251.063	83.840	0.155	-0.170
-250.049	-100.151	0.233	-0.058
-249.034	443.625	-0.085	0.188
-248.019	800.000	0.028	0.115
-247.005	-23.199	-0.188	-0.113
-245.990	-200.000	-0.018	0.140
-244.976	15.312	0.222	0.175
-243.961	-13.797	-0.206	-0.134
-242.946	-18.108	-0.272	-0.171
-241.932	395.325	0.086	-0.181
-240.917	-144.615	0.158	0.015
-239.903	45.802	0.038	-0.035
-238.888	-93.743	0.068	0.019
-237.873	-98.596	-0.233	0.060
-236.859	66.136	-0.126	0.128
-235.844	186.837	0.058	-0.087
-234.830	-20.506	-0.141	-0.087
-233.815	-200.000	0.090	0.413
-232.800	-4.408	0.317	-0.220
-231.786	149.841	-0.103	-0.141
-230.771	439.902	0.091	0.199
-229.757	-121.241	-0.151	-0.025
-228.742	-200.000	0.027	0.137
-227.727	-200.000	-0.012	-0.295
-226.713	355.609	-0.122	-0.244
-225.698	-64.615	-0.209	0.085
-224.684	401.909	-0.073	-0.153
-223.669	-200.000	-0.042	0.241
-222.655	-200.000	-0.017	-0.110
-221.640	-92.634	-0.111	0.031
-220.625	-24.452	-0.147	0.088
-219.611	-11.335	-0.118	-0.078
-218.596	800.000	0.087	-0.255
-217.582	626.321	0.116	-0.293
-216.567	-38.111	-0.377	0.201
-215.552	-200.000	-0.006	0.043
-214.538	10.216	0.367	0.280
-213.523	-118.817	0.191	0.034
-212.509	7.263	0.129	0.097
-211.494	-17.277	-0.308	-0.195
-210.479	-124.046	0.535	0.084
-209.465	32.173	-0.205	0.177
-208.450	-123.632	0.085	-0.014
-207.436	800.000	0.055	0.200
-206.421	54.814	0.009	0.008
-205.406	800.000	0.057	0.229
-204.392	800.000	0.039	0.111
-203.377	-51.440	-0.044	0.021
-202.363	123.793	-0.065	0.082
-201.348	400.567	-0.059	-0.124
-200.333	191.982	0.064	0.097
-199.319	382.495	0.049	-0.101
-198.304	-71.217	-0.170	-0.064
-197.290	800.000	0.074	-0.239
-196.275	-74.329	0.352	0.128
-195.260	-105.322	0.132	0.030
-194.246	138.654	0.139	-0.183
-193.231	49.718	-0.136	-0.129
-192.217	-96.591	-0.160	-0.042
-191.202	260.310	0.093	0.161
-190.187	-52.195	-0.106	-0.049
-189.173	-90.199	0.496	-0.145
-188.158	-93.164	0.304	0.085
-187.144	-104.360	-0.335	0.078
-186.129	187.449	-0.138	0.206
-185.114	-72.875	0.413	-0.152
-184.100	-19.340	-0.245	0.152
-183.085	797.796	0.119	0.328
-182.071	-173.833	0.285	-0.008
-181.056	-126.008	0.158	-0.024
-180.042	236.532	-0.119	-0.197
-179.027	800.000	0.107	0.331
-178.012	71.057	0.073	0.076
-176.998	25.472	-0.322	0.268
-175.983	-136.734	-0.369	0.043
-174.969	-200.000	0.042	0.363
-173.954	188.367	0.054	0.081
-172.939	-178.595	-0.232	0.005
-171.925	-8.363	-0.328	-0.221
-170.910	800.000	-0.010	-0.044
-169.896	-119.666	0.274	0.047
-168.881	-167.445	-0.317	-0.013
-167.866	42.528	0.142	-0.129
-166.852	223.890	-0.150	-0.243
-165.837	-43.659	-0.088	-0.045
-164.823	159.853	0.081	-0.112
-163.808	3.888	0.099	0.073
-162.793	56.590	0.181	0.176
-161.779	-20.521	-0.077	0.048
-160.764	-200.000	-0.040	-0.178
-159.750	173.298	0.105	0.151
-158.735	155.494	0.098	0.135
-157.720	2.151	-0.368	0.266
-156.706	72.706	-0.152	-0.159
-155.691	110.303	-0.280	-0.337
-154.677	1.550	0.201	-0.145
-153.662	92.944	-0.144	0.163
-152.647	160.659	-0.048	0.067
-151.633	-200.000	-0.025	0.202
-150.618	34.857	0.108	-0.094
-149.604	-73.862	0.278	-0.101
-148.589	-200.000	-0.002	0.252
-147.574	195.336	0.246	0.374
-146.560	-90.682	0.191	-0.055
-145.545	-6.999	-0.231	-0.157
-144.531	-125.207	-0.149	-0.023
-143.516	-200.000	-0.026	-0.313
-142.502	800.000	-0.096	-0.297
-141.487	-62.453	-0.094	-0.039
-140.472	81.235	-0.262	0.284
-139.458	800.000	0.045	-0.164
-138.443	-17.750	0.256	0.161
-137.429	-165.157	0.201	-0.009
-136.414	466.602	-0.078	-0.175
-135.399	-200.000	0.019	0.215
-134.385	93.114	-0.265	-0.300
-133.370	-79.075	-0.145	0.049
-132.356	553.337	0.063	-0.152
-131.341	-200.000	0.010	-0.066
-130.326	-119.514	0.053	-0.009
-129.312	-200.000	0.071	0.317
-128.297	-95.479	0.287	-0.077
-127.283	77.733	0.105	-0.112
-126.268	52.231	0.065	0.062
-125.253	784.837	0.096	-0.262
-124.239	-41.986	-0.123	-0.063
-123.224	-104.646	0.174	0.040
-122.210	234.173	0.161	-0.265
-121.195	-148.615	-0.254	0.021
