DTS Sentinel unit serial number:	SN413079Multiplexer serial number:	ORYXHardware model number:	OX4-SRSoftware version number:	ORYX F/W v4.00 Oryx Data Collector v3.7.2.0data status	okinstallation	princeton_trtdifferential loss correction	single-endedforward channel	channel 4reverse channel	N/Adate	2019/09/11time	00:47:10forward acquisition time	60.00reverse acquisition time	0.00gamma	496.2192k internal	0.2318k external	0.2318temperature offset calibration	0.9949default loss term (dB/km)	0.3790temperature slope calibration	1.0000multiplexer offset coefficient	1.0000multiplexer slope coefficient	1.0000fibre end	0.00T internal ref (°C)	29.19T ext. ref 1 (°C)	-0.31T ext. ref 2 (°C)	22.80length (m)	temperature (°C)	Stokes	anti-Stokes-747.200	155.104	0.165	-0.230
-746.185	103.388	-0.139	0.165
-745.171	133.465	-0.136	-0.178
-744.156	800.000	0.063	0.221
-743.142	145.506	-0.079	-0.107
-742.127	-126.970	-0.439	0.065
-741.112	33.938	-0.261	-0.230
-740.098	800.000	0.089	0.318
-739.083	-108.181	0.493	-0.108
-738.069	10.756	-0.215	0.166
-737.054	-58.496	-0.327	-0.143
-736.039	60.217	-0.061	-0.061
-735.025	3.248	0.120	0.088
-734.010	521.183	-0.144	-0.341
-732.996	42.296	-0.081	0.075
-731.981	-57.326	-0.304	-0.135
-730.966	-200.000	0.053	0.318
-729.952	30.023	-0.260	-0.224
-728.937	-1.194	0.100	0.071
-727.923	173.600	-0.108	0.157
-726.908	89.310	-0.325	0.366
-725.894	800.000	0.050	-0.147
-724.879	-200.000	-0.007	-0.064
-723.864	314.833	0.225	-0.430
-722.850	52.462	0.067	-0.065
-721.835	-176.637	-0.346	-0.009
-720.821	-23.146	-0.158	-0.096
-719.806	-2.983	-0.121	-0.085
-718.791	7.602	-0.288	-0.218
-717.777	-93.064	-0.430	0.121
-716.762	-64.321	0.058	-0.024
-715.748	-200.000	-0.012	-0.370
-714.733	42.306	-0.061	-0.056
-713.718	-52.458	-0.252	0.118
-712.704	-53.970	0.082	-0.038
-711.689	201.345	0.141	-0.219
-710.675	-97.096	0.045	0.012
-709.660	-17.403	-0.406	0.258
-708.645	100.663	-0.104	0.123
-707.631	3.760	-0.064	0.048
-706.616	800.000	0.012	0.053
-705.602	-113.511	-0.129	-0.026
-704.587	28.072	-0.203	0.173
-703.572	800.000	-0.121	-0.349
-702.558	800.000	-0.045	0.149
-701.543	-127.138	0.300	0.044
-700.529	-51.037	0.354	-0.168
-699.514	-10.169	-0.202	-0.135
-698.499	214.892	0.111	0.177
-697.485	540.731	-0.122	-0.294
-696.470	-116.079	0.320	0.060
-695.456	-39.280	0.384	0.204
-694.441	265.890	0.060	0.106
-693.426	-20.199	0.029	-0.018
-692.412	-74.698	-0.147	0.054
-691.397	56.260	-0.070	0.068
-690.383	800.000	-0.048	-0.145
-689.368	-29.798	0.303	-0.175
-688.354	-20.155	0.177	-0.110
-687.339	-25.660	0.276	0.164
-686.324	-97.577	0.180	0.047
-685.310	737.204	-0.095	-0.257
-684.295	-61.677	-0.163	0.069
-683.281	72.010	0.157	0.165
-682.266	-200.000	0.014	-0.139
-681.251	-200.000	0.048	-0.245
-680.237	-200.000	-0.030	-0.198
-679.222	800.000	0.083	0.283
-678.208	761.386	-0.061	0.166
-677.193	15.105	-0.103	0.082
-676.178	25.443	-0.182	0.153
-675.164	45.529	0.133	-0.124
-674.149	88.172	-0.111	-0.124
-673.135	-108.307	0.194	-0.042
-672.120	800.000	-0.044	-0.168
-671.105	-85.314	0.116	-0.037
-670.091	73.178	-0.042	0.044
-669.076	251.674	-0.045	-0.077
-668.062	-200.000	-0.014	-0.209
-667.047	193.207	-0.235	-0.359
-666.032	102.168	0.170	-0.200
-665.018	720.389	0.057	0.154
-664.003	467.514	0.058	-0.131
-662.989	-200.000	-0.018	0.196
-661.974	43.712	-0.049	-0.045
-660.959	141.670	-0.253	-0.338
-659.945	-30.505	0.055	-0.031
-658.930	-91.502	0.123	0.035
-657.916	-79.222	-0.169	0.058
-656.901	-200.000	0.013	-0.116
-655.886	314.052	0.194	0.368
-654.872	2.394	0.092	-0.067
-653.857	354.926	0.077	0.155
-652.843	-119.555	0.210	0.037
-651.828	-34.264	-0.167	-0.092
-650.814	-200.000	-0.002	-0.057
-649.799	-142.926	-0.133	0.013
-648.784	800.000	-0.075	-0.271
-647.770	-20.939	-0.117	-0.072
-646.755	57.466	0.373	-0.367
-645.741	701.052	-0.013	-0.033
-644.726	-20.097	0.225	0.140
-643.711	800.000	-0.048	0.203
-642.697	-200.000	-0.046	0.370
-641.682	-143.563	0.323	0.031
-640.668	-39.337	-0.256	-0.135
-639.653	-200.000	-0.013	-0.299
-638.638	-105.091	0.243	-0.056
-637.624	-101.873	-0.194	0.047
-636.609	-143.947	0.110	-0.010
-635.595	-39.828	0.099	0.052
-634.580	800.000	-0.035	0.139
-633.565	-31.187	0.238	0.135
-632.551	22.514	0.077	-0.063
-631.536	389.282	-0.112	-0.234
-630.522	-200.000	-0.034	-0.153
-629.507	89.898	-0.060	-0.067
-628.492	333.648	0.040	-0.078
-627.478	210.712	0.210	-0.332
-626.463	415.244	-0.179	-0.384
-625.449	-76.786	-0.282	-0.100
-624.434	-200.000	0.012	0.195
-623.419	199.538	0.226	-0.350
-622.405	-78.428	0.120	0.041
-621.390	675.127	0.098	0.256
-620.376	800.000	-0.070	-0.206
-619.361	25.044	-0.179	-0.150
-618.346	-28.121	0.017	-0.010
-617.332	-133.583	0.328	0.041
-616.317	657.344	-0.087	-0.224
-615.303	-200.000	-0.039	-0.274
-614.288	-32.236	-0.201	0.113
-613.273	800.000	-0.021	0.078
-612.259	800.000	-0.119	-0.345
-611.244	-102.345	-0.353	0.085
-610.230	-97.569	0.354	0.092
-609.215	-200.000	0.029	-0.254
-608.201	211.879	0.116	-0.184
-607.186	50.998	0.054	0.051
-606.171	-120.991	0.343	0.058
-605.157	-82.765	-0.224	-0.073
-604.142	-37.029	-0.251	-0.135
-603.128	-135.738	-0.358	-0.043
-602.113	-36.801	-0.411	0.222
-601.098	-140.832	-0.270	0.028
-600.084	328.972	-0.111	0.214
-599.069	-160.163	0.342	0.019
-598.055	-90.725	0.287	0.083
-597.040	-48.067	-0.342	0.166
-596.025	-200.000	0.023	-0.107
-595.011	-120.724	0.015	-0.003
-593.996	-88.855	-0.152	0.045
-592.982	-86.207	-0.103	-0.032
-591.967	-153.984	0.129	0.009
-590.952	-49.957	-0.404	-0.193
-589.938	38.396	-0.272	0.243
-588.923	-158.787	-0.170	-0.010
-587.909	18.019	-0.168	0.135
-586.894	43.742	0.399	-0.368
-585.879	765.142	0.076	-0.209
-584.865	98.782	0.137	0.159
-583.850	-85.632	0.126	-0.039
-582.836	-85.649	-0.244	0.076
-581.821	484.576	0.053	-0.121
-580.806	-4.395	0.099	-0.069
-579.792	188.957	0.106	-0.160
-578.777	165.773	-0.126	0.180
-577.763	-139.212	0.157	-0.017
-576.748	800.000	0.100	-0.397
-575.733	-59.529	0.157	0.068
-574.719	38.905	-0.104	0.093
-573.704	-200.000	0.011	0.449
-572.690	58.877	-0.143	0.141
-571.675	358.357	-0.058	-0.116
-570.661	98.721	-0.148	0.172
-569.646	-200.000	-0.022	0.120
-568.631	60.016	0.143	0.142
-567.617	800.000	-0.017	-0.068
-566.602	54.029	-0.085	0.082
-565.588	-166.714	0.237	-0.010
-564.573	800.000	-0.032	0.101
-563.558	-200.000	-0.054	-0.360
-562.544	230.048	-0.108	-0.178
-561.529	-200.000	-0.025	-0.172
-560.515	-47.028	0.153	0.075
-559.500	750.735	0.033	0.089
-558.485	-153.531	-0.273	-0.019
-557.471	-200.000	0.001	-0.154
-556.456	800.000	-0.022	0.087
-555.442	-200.000	-0.098	-0.541
-554.427	-55.924	0.025	-0.011
-553.412	-23.026	0.026	-0.015
-552.398	-50.143	-0.302	-0.144
-551.383	-95.777	0.282	0.076
-550.369	-93.034	0.102	-0.028
-549.354	169.745	-0.251	0.360
-548.339	-200.000	0.016	0.226
-547.325	-171.003	0.427	0.015
-546.310	124.803	0.128	-0.162
-545.296	69.628	-0.091	-0.094
-544.281	80.338	0.265	0.286
-543.266	-179.300	-0.037	-0.001
-542.252	-79.678	-0.120	-0.040
-541.237	273.502	-0.085	-0.151
-540.223	-200.000	-0.041	-0.242
-539.208	-64.552	-0.365	0.149
-538.193	282.560	0.042	0.075
-537.179	-200.000	-0.048	0.239
-536.164	-2.224	-0.433	0.305
-535.150	-143.978	0.249	0.023
-534.135	168.531	-0.098	-0.140
-533.121	-11.413	-0.185	-0.122
-532.106	73.009	-0.096	-0.101
-531.091	-42.165	-0.061	-0.031
-530.077	345.721	-0.159	0.314
-529.062	-119.996	-0.071	-0.012
-528.048	-95.055	0.046	-0.012
-527.033	-76.852	0.148	-0.052
-526.018	10.343	-0.231	-0.176
-525.004	-22.428	-0.156	-0.095
-523.989	351.146	0.128	-0.253
-522.975	203.849	0.186	-0.289
-521.960	488.380	-0.060	-0.137
-520.945	-136.950	-0.206	0.024
-519.931	76.865	-0.214	0.228
-518.916	51.397	-0.229	0.218
-517.902	58.648	0.117	-0.115
-516.887	-133.831	-0.161	-0.020
-515.872	582.167	0.072	-0.176
-514.858	-149.918	0.207	-0.016
-513.843	-119.080	-0.087	0.015
-512.829	-200.000	-0.017	0.167
-511.814	20.725	0.084	-0.068
-510.799	-48.955	-0.107	-0.051
-509.785	-54.607	-0.308	-0.140
-508.770	305.519	0.052	-0.097
-507.756	-200.000	0.002	0.146
-506.741	-200.000	-0.034	-0.249
-505.726	-46.717	0.236	-0.116
-504.712	46.878	-0.141	-0.131
-503.697	17.792	-0.141	0.113
-502.683	-179.812	0.320	-0.007
-501.668	7.591	-0.090	0.068
-500.653	-23.203	0.106	-0.064
-499.639	-105.887	-0.165	-0.037
-498.624	-200.000	-0.041	0.281
-497.610	-42.004	-0.271	-0.139
-496.595	91.155	-0.117	0.131
-495.581	38.656	0.332	0.297
-494.566	-68.694	0.176	-0.068
-493.551	-79.925	0.236	-0.079
-492.537	-25.352	-0.253	0.150
-491.522	-200.000	0.018	0.282
-490.508	-127.446	-0.126	0.018
-489.493	-12.423	-0.429	-0.281
-488.478	800.000	-0.022	0.075
-487.464	-69.820	0.410	-0.157
-486.449	-68.826	-0.181	0.070
-485.435	-120.554	-0.078	-0.013
-484.420	433.728	0.102	0.222
-483.405	800.000	-0.064	-0.266
-482.391	-114.207	-0.235	0.045
-481.376	-38.265	-0.187	-0.099
-480.362	800.000	-0.071	0.198
-479.347	-90.014	0.182	0.053
-478.332	203.871	-0.098	-0.152
-477.318	-77.500	-0.381	-0.132
-476.303	747.749	-0.054	-0.145
-475.289	-149.738	-0.107	-0.008
-474.274	-74.618	-0.026	0.009
-473.259	67.983	-0.215	-0.221
-472.245	-200.000	0.038	-0.195
-471.230	504.904	-0.140	-0.325
-470.216	144.068	-0.137	0.183
-469.201	-200.000	-0.042	0.192
-468.186	-107.031	0.273	0.060
-467.172	800.000	0.091	0.327
-466.157	-200.000	0.059	0.265
-465.143	558.217	-0.060	0.144
-464.128	800.000	0.113	-0.434
-463.113	347.994	-0.103	-0.203
-462.099	-177.679	0.425	0.010
-461.084	141.199	-0.055	0.073
-460.070	-66.259	-0.218	0.087
-459.055	239.558	0.100	-0.166
-458.040	84.621	-0.179	0.196
-457.026	-49.018	0.062	0.030
-456.011	-66.410	0.369	-0.147
-454.997	212.652	0.145	0.229
-453.982	371.932	0.014	0.029
-452.968	-184.740	-0.101	-0.002
-451.953	800.000	0.058	0.182
-450.938	-200.000	-0.014	0.073
-449.924	196.894	-0.193	0.294
-448.909	-43.692	-0.223	0.113
-447.895	57.247	0.145	0.141
-446.880	800.000	0.081	-0.240
-445.865	724.213	0.158	0.421
-444.851	-197.283	0.116	-0.001
-443.836	274.807	-0.226	-0.401
-442.822	-200.000	0.015	0.110
-441.807	-64.600	-0.300	-0.122
-440.792	-23.189	-0.365	-0.220
-439.778	45.173	0.194	0.179
-438.763	-34.898	0.160	-0.087
-437.749	104.674	0.130	-0.154
-436.734	-200.000	-0.058	-0.498
-435.719	-200.000	0.048	0.222
-434.705	473.581	-0.097	0.219
-433.690	-114.714	0.228	-0.044
-432.676	-26.206	-0.147	0.086
-431.661	800.000	-0.064	0.184
-430.646	-8.191	-0.207	0.139
-429.632	-10.199	0.111	-0.073
-428.617	800.000	0.114	0.324
-427.603	156.717	-0.121	-0.167
-426.588	32.764	0.075	-0.065
-425.573	50.914	0.121	-0.115
-424.559	468.216	0.007	0.016
-423.544	-46.076	-0.071	-0.035
-422.530	-17.655	-0.380	-0.239
-421.515	-68.577	0.286	-0.111
-420.500	-200.000	0.044	0.235
-419.486	449.188	0.037	0.082
-418.471	-123.238	-0.135	0.022
-417.457	247.064	-0.072	-0.121
-416.442	-110.370	-0.040	-0.008
-415.428	-200.000	0.064	0.000
-414.413	-200.000	0.019	-0.279
-413.398	-200.000	-0.016	0.190
-412.384	123.453	0.253	0.316
-411.369	36.907	-0.300	-0.265
-410.355	27.618	0.091	0.076
-409.340	-20.777	0.434	-0.266
-408.325	375.257	0.040	-0.081
-407.311	-68.388	-0.401	0.155
-406.296	425.188	-0.023	-0.049
-405.282	35.746	0.161	0.141
-404.267	-60.334	-0.100	0.043
-403.252	-142.594	0.217	0.021
-402.238	-200.000	0.053	0.320
-401.223	-106.760	0.187	-0.041
-400.209	-76.077	0.176	-0.062
-399.194	246.947	0.037	0.063
-398.179	35.970	0.250	-0.220
-397.165	30.838	0.063	0.054
-396.150	-179.621	-0.362	0.008
-395.136	167.640	-0.038	0.053
-394.121	-113.526	0.149	0.029
-393.106	-123.095	-0.060	0.010
-392.092	800.000	0.089	0.351
-391.077	-200.000	-0.019	0.182
-390.063	-110.626	0.230	-0.047
-389.048	86.953	0.199	0.220
-388.033	-60.711	-0.155	-0.065
-387.019	-60.028	0.406	0.173
-386.004	651.156	0.022	0.057
-384.990	200.105	0.141	0.217
-383.975	310.651	-0.039	-0.074
-382.960	289.112	-0.108	0.195
-381.946	103.389	0.162	0.190
-380.931	336.398	-0.099	-0.192
-379.917	-81.149	0.076	0.025
-378.902	94.927	-0.263	-0.299
-377.888	-90.218	-0.230	0.067
-376.873	-200.000	-0.035	0.382
-375.858	-83.800	0.280	-0.089
-374.844	-97.752	-0.244	-0.063
-373.829	-123.113	-0.194	0.031
-372.815	-17.299	0.334	0.210
-371.800	-163.932	0.293	-0.014
-370.785	-30.547	-0.093	-0.053
-369.771	800.000	-0.030	0.110
-368.756	467.612	0.075	0.167
-367.742	500.791	-0.072	-0.167
-366.727	-172.299	-0.104	0.003
-365.712	-46.911	-0.214	-0.104
-364.698	-168.708	-0.163	-0.006
-363.683	-13.683	0.166	-0.107
-362.669	-33.880	0.109	0.060
-361.654	-5.110	-0.082	-0.056
-360.639	21.568	0.119	-0.097
-359.625	322.478	-0.098	0.186
-358.610	262.619	0.169	-0.292
-357.596	-81.396	0.145	0.048
-356.581	8.087	-0.161	0.121
-355.566	-44.316	-0.166	0.083
-354.552	-26.562	0.220	0.128
-353.537	10.006	-0.103	-0.078
-352.523	-146.390	0.375	-0.033
-351.508	69.520	0.307	0.315
-350.493	-97.722	-0.161	-0.041
-349.479	736.084	0.115	0.307
-348.464	460.902	0.063	0.140
-347.450	800.000	-0.034	0.122
-346.435	-200.000	-0.054	-0.313
-345.420	-6.777	0.340	0.231
-344.406	800.000	0.023	-0.069
-343.391	354.600	-0.187	-0.370
-342.377	205.149	0.068	-0.105
-341.362	-200.000	-0.016	0.520
-340.348	-200.000	-0.028	0.186
-339.333	59.014	0.182	-0.178
-338.318	-126.427	-0.314	0.047
-337.304	-58.232	0.378	-0.164
-336.289	-95.388	-0.178	-0.048
-335.275	-104.231	0.378	-0.087
-334.260	800.000	0.077	0.217
-333.245	-200.000	0.036	-0.238
-332.231	-103.112	-0.144	0.034
-331.216	9.458	-0.380	0.286
-330.202	407.910	-0.095	0.200
-329.187	-39.488	0.209	0.109
-328.172	170.531	-0.235	0.335
-327.158	-200.000	-0.049	0.270
-326.143	365.618	-0.141	0.283
-325.129	193.479	0.086	0.129
-324.114	210.080	-0.262	0.410
-323.099	73.094	-0.090	0.094
-322.085	-83.280	0.102	0.033
-321.070	-200.000	-0.048	-0.384
-320.056	-53.288	-0.133	-0.061
-319.041	56.012	-0.271	-0.262
-318.026	-36.632	-0.187	-0.100
-317.012	-200.000	-0.016	0.105
-315.997	-68.717	0.183	0.071
-314.983	728.243	0.049	0.131
-313.968	-200.000	0.043	0.317
-312.953	141.647	0.053	0.070
-311.939	260.678	-0.139	0.239
-310.924	657.505	-0.091	0.233
-309.910	109.084	0.040	0.047
-308.895	128.898	-0.009	0.011
-307.880	-32.145	0.116	0.065
-306.866	-53.926	0.106	-0.048
-305.851	27.456	-0.198	-0.165
-304.837	173.494	0.137	-0.197
-303.822	800.000	-0.027	-0.110
-302.807	800.000	-0.031	0.093
-301.793	1.075	0.239	-0.171
-300.778	200.933	-0.111	0.169
-299.764	-200.000	0.015	0.095
-298.749	800.000	-0.057	0.162
-297.735	735.218	0.056	-0.149
-296.720	-200.000	-0.014	-0.302
-295.705	19.762	-0.262	-0.210
-294.691	68.864	0.163	-0.167
-293.676	-125.135	-0.272	-0.041
-292.662	-69.526	0.058	-0.022
-291.647	53.661	0.189	-0.180
-290.632	261.803	0.148	-0.255
-289.618	270.860	0.112	-0.196
-288.603	55.865	0.101	0.098
-287.589	15.707	-0.109	-0.085
-286.574	-72.704	0.332	-0.122
-285.559	-37.983	0.120	-0.063
-284.545	41.901	-0.163	0.147
-283.530	-54.742	-0.463	0.208
-282.516	713.362	0.052	0.137
-281.501	-137.516	0.135	-0.015
-280.486	-21.921	0.358	0.216
-279.472	204.589	0.164	-0.252
-278.457	-114.908	0.301	-0.057
-277.443	-200.000	0.036	-0.239
-276.428	-136.133	0.281	-0.033
-275.413	206.988	0.112	-0.174
-274.399	-142.052	-0.142	-0.014
-273.384	-133.410	0.088	-0.011
-272.370	-200.000	-0.217	0.001
-271.355	-68.212	0.229	-0.089
-270.340	39.442	0.173	0.154
-269.326	-200.000	0.008	-0.218
-268.311	97.451	-0.148	0.169
-267.297	245.129	-0.156	-0.260
-266.282	800.000	-0.136	0.430
-265.267	-98.462	-0.367	-0.093
-264.253	-56.598	-0.038	-0.017
-263.238	10.116	-0.128	0.097
-262.224	345.164	-0.098	0.190
-261.209	800.000	0.084	-0.238
-260.195	-17.268	0.104	-0.065
-259.180	712.953	-0.119	0.314
-258.165	142.738	0.017	-0.022
-257.151	-128.781	-0.090	-0.013
-256.136	500.223	-0.076	0.175
-255.122	-99.331	-0.157	-0.039
-254.107	-200.000	-0.016	-0.143
-253.092	181.222	0.108	-0.158
-252.078	800.000	0.054	-0.153
-251.063	-85.256	-0.150	-0.047
-250.049	-54.402	0.188	0.085
-249.034	-200.000	-0.026	0.362
-248.019	-200.000	-0.002	0.054
-247.005	29.599	0.038	0.032
-245.990	41.369	0.213	-0.191
-244.976	240.106	-0.012	0.020
-243.961	-136.433	-0.163	-0.019
-242.946	-200.000	-0.003	0.107
-241.932	436.793	0.138	0.299
-240.917	162.972	-0.121	0.168
-239.903	-99.370	0.307	-0.077
-238.888	214.138	0.038	-0.060
-237.873	22.245	0.040	-0.033
-236.859	-79.288	0.150	0.050
-235.844	-70.010	0.204	-0.077
-234.830	372.595	0.048	-0.097
-233.815	51.921	0.183	0.173
-232.800	336.312	-0.094	0.181
-231.786	-200.000	0.012	0.076
-230.771	800.000	-0.011	0.030
-229.757	-108.198	-0.204	-0.044
-228.742	65.851	-0.195	-0.197
-227.727	800.000	0.032	-0.109
-226.713	-12.169	0.065	0.042
-225.698	-114.845	0.104	0.020
-224.684	-181.979	0.438	-0.008
-223.669	-200.000	0.003	0.378
-222.655	189.574	-0.229	-0.341
-221.640	103.510	0.104	-0.122
-220.625	69.700	-0.144	-0.147
-219.611	328.312	-0.010	0.020
-218.596	800.000	-0.048	0.136
-217.582	-48.276	0.141	0.067
-216.567	-99.311	-0.223	-0.056
-215.552	73.469	0.170	-0.176
-214.538	-106.606	-0.237	0.052
-213.523	800.000	-0.041	0.150
-212.509	-129.127	0.414	-0.057
-211.494	95.074	-0.094	-0.106
-210.479	86.864	-0.087	0.095
-209.465	198.755	-0.030	0.046
-208.450	-154.255	-0.145	-0.010
-207.436	800.000	-0.090	0.255
-206.421	-102.931	-0.188	0.044
-205.406	159.188	0.181	-0.249
-204.392	760.050	0.069	0.185
-203.377	-200.000	0.001	0.061
-202.363	166.561	0.140	0.196
-201.348	-200.000	0.017	-0.173
-200.333	16.179	-0.086	-0.067
-199.319	-88.365	-0.197	-0.058
-198.304	-200.000	0.022	-0.147
-197.290	641.508	-0.145	0.366
-196.275	-160.385	0.271	0.014
-195.260	-43.435	-0.401	-0.201
-194.246	-200.000	0.004	-0.066
-193.231	-36.980	0.164	-0.087
-192.217	-76.942	-0.211	-0.073
-191.202	800.000	-0.065	-0.221
-190.187	-131.785	0.334	0.043
-189.173	18.873	0.107	0.085
-188.158	-108.491	-0.227	-0.048
-187.144	176.256	0.063	0.091
-186.129	286.808	-0.208	0.373
-185.114	-19.834	0.242	0.148
-184.100	85.391	0.047	0.051
-183.085	-109.013	0.456	0.096
-182.071	107.164	0.198	0.233
-181.056	96.708	-0.151	-0.171
-180.042	-15.150	0.153	-0.097
-179.027	800.000	0.107	-0.313
-178.012	638.154	-0.186	-0.467
-176.998	800.000	0.037	0.101
-175.983	-72.886	0.124	0.045
-174.969	-0.648	0.349	-0.245
-173.954	-49.615	-0.108	-0.051
-172.939	94.091	-0.109	0.123
-171.925	-58.508	-0.245	0.105
-170.910	800.000	0.080	-0.284
-169.896	64.129	-0.095	-0.095
-168.881	-118.141	0.200	0.035
-167.866	134.017	0.147	0.188
-166.852	800.000	0.041	-0.135
-165.837	-117.650	-0.148	0.026
-164.823	-200.000	0.033	0.213
-163.808	-42.593	0.299	-0.151
-162.793	800.000	-0.045	0.140
-161.779	-200.000	0.014	-0.137
-160.764	800.000	0.072	-0.238
-159.750	-184.505	0.124	0.002
-158.735	17.819	-0.195	0.153
-157.720	79.131	0.059	0.063
-156.706	112.121	0.125	0.149
-155.691	62.885	-0.127	-0.125
-154.677	-200.000	0.079	-0.394
-153.662	-99.191	0.179	0.045
-152.647	-130.369	-0.234	-0.031
-151.633	-92.757	0.253	-0.070
-150.618	5.436	-0.123	0.089
-149.604	5.967	0.124	0.090
-148.589	54.905	-0.229	0.219
-147.574	800.000	-0.059	-0.221
-146.560	10.834	0.111	0.084
-145.545	517.487	0.039	0.091
-144.531	-59.697	0.175	0.074
-143.516	18.853	-0.058	0.046
-142.502	800.000	-0.013	0.051
-141.487	1.775	0.275	0.196
-140.472	-173.486	0.159	-0.005
-139.458	-114.865	0.089	-0.017
-138.443	91.888	0.136	-0.152
-137.429	-7.483	-0.246	-0.165
-136.414	-107.291	0.172	0.037
-135.399	186.981	-0.139	0.205
-134.385	-111.179	0.234	-0.047
-133.370	223.032	-0.151	0.241
-132.356	-200.000	0.013	0.121
-131.341	-94.348	-0.240	-0.065
-130.326	37.885	-0.083	0.073
-129.312	-200.000	-0.010	0.051
-128.297	800.000	0.085	0.286
-127.283	99.613	-0.193	0.221
-126.268	81.735	-0.303	0.324
-125.253	12.624	0.092	-0.070
-124.239	-121.623	0.362	0.059
-123.224	692.343	-0.145	-0.375
-122.210	35.685	0.188	0.163
-121.195	252.604	-0.164	0.277
-120.180	33.051	0.181	0.155
