DTS Sentinel unit serial number:	SN413079Multiplexer serial number:	ORYXHardware model number:	OX4-SRSoftware version number:	ORYX F/W v4.00 Oryx Data Collector v3.7.2.0data status	okinstallation	princeton_trtdifferential loss correction	single-endedforward channel	channel 4reverse channel	N/Adate	2019/09/18time	11:25:35forward acquisition time	60.00reverse acquisition time	0.00gamma	496.2192k internal	0.2311k external	0.2311temperature offset calibration	0.9984default loss term (dB/km)	0.3790temperature slope calibration	1.0000multiplexer offset coefficient	1.0000multiplexer slope coefficient	1.0000fibre end	0.00T internal ref (°C)	30.20T ext. ref 1 (°C)	0.43T ext. ref 2 (°C)	28.14length (m)	temperature (°C)	Stokes	anti-Stokes-747.200	2.077	-0.136	0.100
-746.185	9.334	-0.240	0.184
-745.171	55.865	0.120	-0.118
-744.156	-17.180	-0.204	0.131
-743.142	64.809	0.214	-0.220
-742.127	497.370	-0.057	-0.134
-741.112	6.037	0.111	0.083
-740.098	-200.000	-0.007	0.682
-739.083	-76.798	0.072	0.026
-738.069	-200.000	-0.034	0.297
-737.054	-47.846	0.101	0.050
-736.039	-86.564	0.114	-0.035
-735.025	-85.717	0.223	0.070
-734.010	69.450	-0.088	-0.092
-732.996	-31.811	-0.452	-0.257
-731.981	37.083	-0.130	0.117
-730.966	-53.395	-0.272	0.126
-729.952	434.552	0.089	-0.195
-728.937	99.416	-0.229	0.269
-727.923	800.000	0.025	0.071
-726.908	-200.000	-0.061	-0.422
-725.894	22.800	0.137	-0.114
-724.879	77.714	-0.190	-0.205
-723.864	800.000	0.072	-0.231
-722.850	-9.035	-0.271	0.184
-721.835	19.788	0.276	-0.225
-720.821	230.607	-0.180	0.299
-719.806	-200.000	-0.140	0.000
-718.791	-166.031	0.238	-0.010
-717.777	-72.462	-0.266	0.100
-716.762	463.258	-0.126	0.285
-715.748	-200.000	-0.000	-0.053
-714.733	-200.000	0.011	-0.259
-713.718	45.882	-0.099	0.093
-712.704	-200.000	0.030	-0.233
-711.689	800.000	-0.020	0.082
-710.675	-14.753	0.126	-0.082
-709.660	-200.000	0.030	-0.302
-708.645	-200.000	0.015	-0.173
-707.631	199.099	-0.208	-0.324
-706.616	7.426	0.085	-0.065
-705.602	138.609	-0.163	-0.217
-704.587	-71.411	-0.365	-0.139
-703.572	800.000	0.073	0.300
-702.558	42.469	-0.193	-0.178
-701.543	116.857	-0.132	0.164
-700.529	101.381	0.109	-0.128
-699.514	800.000	0.118	-0.428
-698.499	-131.142	0.182	-0.025
-697.485	-200.000	-0.058	0.384
-696.470	-148.289	0.246	0.021
-695.456	-34.180	0.348	0.193
-694.441	-150.019	-0.160	-0.013
-693.426	-144.549	0.212	0.020
-692.412	-200.000	-0.038	-0.184
-691.397	-64.614	0.264	0.108
-690.383	121.210	-0.048	-0.060
-689.368	449.583	-0.122	-0.273
-688.354	-93.140	-0.393	-0.111
-687.339	-69.143	-0.076	-0.030
-686.324	138.285	0.068	0.091
-685.310	-180.347	0.274	0.006
-684.295	-113.238	-0.291	0.058
-683.281	-200.000	-0.043	-0.280
-682.266	128.035	0.098	-0.126
-681.251	800.000	0.063	0.260
-680.237	499.757	-0.115	-0.270
-679.222	358.003	0.247	-0.499
-678.208	22.512	-0.112	-0.093
-677.193	17.940	-0.415	-0.334
-676.178	-17.528	-0.245	-0.156
-675.164	-80.111	-0.090	0.030
-674.149	800.000	-0.078	0.314
-673.135	-51.472	-0.067	-0.032
-672.120	413.458	-0.039	-0.083
-671.105	84.770	-0.156	0.173
-670.091	-101.013	0.211	-0.052
-669.076	175.164	-0.130	0.190
-668.062	111.365	-0.020	0.024
-667.047	408.514	-0.120	0.256
-666.032	103.765	-0.242	-0.288
-665.018	-200.000	0.075	0.577
-664.003	800.000	0.071	-0.301
-662.989	-119.464	0.281	0.049
-661.974	228.152	-0.183	-0.302
-660.959	-38.132	-0.150	-0.080
-659.945	32.027	-0.240	-0.209
-658.930	462.922	-0.013	-0.030
-657.916	-200.000	-0.000	0.106
-656.901	-78.350	-0.217	-0.075
-655.886	-110.775	-0.172	-0.036
-654.872	-200.000	-0.058	-0.321
-653.857	459.767	-0.080	-0.180
-652.843	68.637	-0.140	0.145
-651.828	-71.390	-0.081	0.031
-650.814	-69.230	0.362	0.141
-649.799	-79.558	-0.308	0.105
-648.784	-60.062	0.229	-0.099
-647.770	-140.805	0.133	-0.014
-646.755	-77.331	-0.444	0.156
-645.741	39.911	-0.013	-0.011
-644.726	-200.000	0.014	-0.419
-643.711	12.415	0.289	-0.226
-642.697	192.517	0.087	-0.132
-641.682	-200.000	0.064	0.467
-640.668	-140.925	0.111	0.012
-639.653	-200.000	0.001	-0.154
-638.638	-159.173	0.146	0.008
-637.624	-136.053	0.145	-0.017
-636.609	-200.000	0.194	0.000
-635.595	-162.464	-0.248	0.012
-634.580	756.456	-0.228	-0.624
-633.565	163.894	0.180	0.257
-632.551	-5.072	-0.318	-0.221
-631.536	-22.793	0.379	0.231
-630.522	-123.072	0.227	-0.037
-629.507	15.374	-0.013	-0.010
-628.492	-200.000	0.002	0.023
-627.478	-35.281	0.148	-0.082
-626.463	193.569	-0.224	0.342
-625.449	-200.000	-0.011	0.200
-624.434	57.732	-0.056	-0.056
-623.419	580.958	-0.082	-0.203
-622.405	46.947	0.286	-0.269
-621.390	-57.391	0.377	0.167
-620.376	-200.000	0.052	-0.234
-619.361	-200.000	-0.010	0.171
-618.346	800.000	-0.053	0.197
-617.332	129.023	0.075	0.096
-616.317	42.440	0.103	-0.095
-615.303	427.678	-0.042	0.092
-614.288	57.720	-0.066	-0.066
-613.273	-33.692	-0.446	0.249
-612.259	-58.264	0.179	-0.079
-611.244	-71.150	-0.080	0.030
-610.230	-89.773	-0.254	-0.075
-609.215	275.354	-0.107	-0.191
-608.201	254.062	-0.249	-0.430
-607.186	188.904	0.266	-0.402
-606.171	-95.309	0.167	0.045
-605.157	101.079	0.094	0.110
-604.142	281.051	-0.085	0.154
-603.128	230.038	0.130	-0.214
-602.113	272.385	-0.079	-0.141
-601.098	235.657	0.060	0.100
-600.084	-1.189	0.329	0.235
-599.069	-108.621	-0.139	-0.030
-598.055	-141.442	0.077	-0.008
-597.040	-86.175	0.226	0.070
-596.025	175.100	0.165	0.241
-595.011	212.919	-0.301	0.479
-593.996	15.119	0.245	-0.194
-592.982	440.561	-0.079	-0.174
-591.967	-200.000	0.009	-0.135
-590.952	177.623	-0.419	-0.617
-589.938	-200.000	-0.055	-0.284
-588.923	194.268	0.151	0.231
-587.909	472.198	0.076	-0.172
-586.894	-200.000	-0.035	0.240
-585.879	-27.584	-0.418	0.245
-584.865	266.888	0.206	0.364
-583.850	519.471	-0.135	0.318
-582.836	-43.824	0.137	0.070
-581.821	-156.317	-0.155	0.010
-580.806	800.000	-0.054	0.164
-579.792	-136.689	-0.274	-0.032
-578.777	-200.000	-0.006	-0.302
-577.763	800.000	-0.069	-0.273
-576.748	-33.844	-0.166	-0.092
-575.733	-200.000	-0.028	0.313
-574.719	22.740	-0.155	-0.128
-573.704	-38.479	-0.119	-0.063
-572.690	672.767	0.136	-0.355
-571.675	-27.418	0.282	0.166
-570.661	-85.863	0.012	-0.004
-569.646	426.661	-0.068	-0.148
-568.631	61.075	0.217	-0.218
-567.617	800.000	-0.035	-0.107
-566.602	107.236	0.091	-0.110
-565.588	485.899	-0.109	0.251
-564.573	-4.166	-0.083	0.058
-563.558	13.547	0.429	0.336
-562.544	1.978	0.226	-0.164
-561.529	800.000	-0.084	-0.327
-560.515	-119.304	-0.282	-0.049
-559.500	-113.256	0.156	-0.031
-558.485	-103.386	-0.173	0.041
-557.471	15.091	-0.034	0.027
-556.456	-200.000	-0.027	0.223
-555.442	161.916	-0.137	-0.194
-554.427	159.951	-0.186	-0.261
-553.412	-131.562	-0.306	0.041
-552.398	199.069	-0.126	-0.194
-551.383	800.000	-0.071	-0.204
-550.369	-89.743	-0.174	-0.051
-549.354	-55.144	0.204	-0.093
-548.339	-200.000	-0.054	-0.423
-547.325	-200.000	-0.044	-0.411
-546.310	800.000	0.051	0.182
-545.296	73.615	-0.085	0.090
-544.281	20.224	-0.123	0.100
-543.266	-159.064	-0.366	-0.021
-542.252	46.195	0.154	-0.144
-541.237	30.717	-0.082	-0.071
-540.223	54.711	0.245	0.238
-539.208	104.076	-0.063	0.075
-538.193	-157.803	0.260	0.016
-537.179	-7.862	-0.170	-0.116
-536.164	96.892	-0.208	0.240
-535.150	800.000	0.007	0.023
-534.135	2.559	0.078	-0.057
-533.121	80.644	0.074	0.080
-532.106	615.781	0.043	-0.110
-531.091	0.497	-0.127	-0.091
-530.077	251.767	-0.068	0.117
-529.062	-107.816	0.205	-0.045
-528.048	159.361	-0.108	-0.151
-527.033	105.145	0.239	0.284
-526.018	-120.440	-0.161	0.028
-525.004	-200.000	-0.004	0.086
-523.989	42.708	0.113	-0.104
-522.975	-195.332	-0.180	0.001
-521.960	-53.244	-0.243	-0.112
-520.945	800.000	-0.083	0.284
-519.931	-108.471	0.304	-0.066
-518.916	-200.000	-0.014	0.066
-517.902	-64.385	0.035	-0.014
-516.887	285.065	0.125	0.227
-515.872	-109.468	-0.216	0.046
-514.858	-105.043	-0.179	0.041
-513.843	289.669	0.153	0.279
-512.829	-96.917	-0.110	-0.029
-511.814	28.062	-0.024	-0.021
-510.799	91.392	-0.076	0.086
-509.785	352.277	-0.162	-0.324
-508.770	-158.009	0.102	-0.006
-507.756	-92.973	0.290	0.081
-506.741	-200.000	-0.005	-0.123
-505.726	85.941	0.084	-0.093
-504.712	-200.000	0.001	-0.223
-503.697	-4.476	0.089	-0.062
-502.683	154.206	0.059	-0.081
-501.668	99.176	-0.231	0.268
-500.653	22.226	0.222	0.182
-499.639	94.417	-0.062	-0.070
-498.624	22.098	0.205	0.168
-497.610	-74.741	0.177	0.064
-496.595	160.959	0.186	-0.261
-495.581	-67.553	0.157	0.062
-494.566	183.747	0.123	0.183
-493.551	237.607	0.130	-0.216
-492.537	-101.029	0.120	0.030
-491.522	-150.117	-0.079	0.006
-490.508	623.925	0.094	0.238
-489.493	-19.287	-0.060	0.037
-488.478	534.132	0.060	-0.144
-487.464	-200.000	-0.000	0.135
-486.449	-70.238	0.360	0.137
-485.435	714.784	-0.109	0.291
-484.420	-95.848	-0.281	-0.075
-483.405	196.616	-0.198	-0.303
-482.391	-200.000	-0.062	-0.299
-481.376	-200.000	0.014	0.242
-480.362	-200.000	0.006	-0.237
-479.347	800.000	0.034	-0.142
-478.332	800.000	-0.015	-0.058
-477.318	-96.856	0.158	0.042
-476.303	-200.000	0.052	-0.595
-475.289	455.813	0.102	-0.228
-474.274	-125.307	-0.112	-0.017
-473.259	-119.212	0.335	0.059
-472.245	-200.000	0.020	-0.150
-471.230	294.941	-0.208	0.381
-470.216	-200.000	0.029	0.208
-469.201	150.245	-0.042	-0.057
-468.186	-200.000	-0.041	0.202
-467.172	24.325	-0.055	0.046
-466.157	403.541	-0.171	-0.362
-465.143	-116.072	-0.236	0.044
-464.128	83.992	0.094	-0.103
-463.113	-100.905	-0.239	-0.059
-462.099	282.027	0.034	-0.062
-461.084	106.950	-0.029	0.034
-460.070	800.000	0.080	-0.262
-459.055	-118.221	-0.151	0.027
-458.040	47.739	0.216	-0.202
-457.026	-40.646	0.295	-0.154
-456.011	154.636	-0.141	0.194
-454.997	-200.000	-0.015	0.071
-453.982	-0.114	0.298	0.213
-452.968	-65.230	0.338	0.136
-451.953	-200.000	0.050	-0.318
-450.938	-200.000	-0.039	0.323
-449.924	86.696	0.070	0.077
-448.909	-200.000	-0.011	-0.318
-447.895	-31.024	-0.167	0.095
-446.880	-145.351	-0.209	0.019
-445.865	-136.515	-0.230	-0.027
-444.851	-88.053	0.020	-0.006
-443.836	38.594	-0.051	0.046
-442.822	122.294	-0.102	-0.128
-441.807	258.337	-0.090	0.156
-440.792	345.256	-0.100	-0.197
-439.778	62.867	0.171	0.171
-438.763	-9.277	0.096	-0.065
-437.749	9.384	-0.307	-0.233
-436.734	-117.982	-0.163	0.029
-435.719	-78.422	0.010	-0.003
-434.705	-194.094	-0.185	-0.002
-433.690	255.359	-0.104	-0.178
-432.676	-112.017	-0.076	0.015
-431.661	70.319	-0.113	0.118
-430.646	-142.927	-0.355	0.034
-429.632	149.246	0.155	-0.211
-428.617	71.161	0.163	0.170
-427.603	800.000	0.047	-0.203
-426.588	800.000	-0.094	0.283
-425.573	-59.560	-0.051	-0.022
-424.559	-12.366	0.197	0.129
-423.544	-111.900	-0.063	-0.013
-422.530	-194.436	-0.326	0.003
-421.515	800.000	0.040	0.156
-420.500	289.778	-0.214	-0.389
-419.486	54.812	0.180	-0.174
-418.471	-3.140	-0.143	-0.100
-417.457	546.378	-0.081	-0.193
-416.442	-156.586	0.401	-0.025
-415.428	-33.526	-0.106	0.059
-414.413	-8.366	-0.145	-0.097
-413.398	-65.052	0.268	0.108
-412.384	-90.516	0.190	-0.055
-411.369	-26.474	-0.121	0.071
-410.355	157.448	-0.235	0.325
-409.340	-200.000	-0.015	0.483
-408.325	130.790	-0.295	0.380
-407.311	-150.408	-0.235	-0.018
-406.296	86.217	-0.196	-0.217
-405.282	252.067	-0.211	0.360
-404.267	-22.412	0.085	-0.051
-403.252	2.606	-0.243	-0.176
-402.238	-73.267	0.166	-0.061
-401.223	-73.028	0.200	-0.074
-400.209	-74.149	-0.363	-0.132
-399.194	778.481	0.103	0.282
-398.179	-23.007	-0.235	0.142
-397.165	-200.000	-0.010	-0.092
-396.150	-200.000	-0.074	-0.437
-395.136	-58.579	-0.063	0.028
-394.121	-87.601	-0.263	0.080
-393.106	-73.718	-0.140	-0.051
-392.092	800.000	0.055	-0.161
-391.077	-163.906	-0.302	0.014
-390.063	-200.000	-0.030	-0.266
-389.048	-155.113	-0.267	-0.017
-388.033	800.000	-0.052	0.146
-387.019	-62.433	-0.092	0.038
-386.004	76.180	0.083	-0.088
-384.990	204.833	0.099	0.154
-383.975	539.696	0.066	-0.157
-382.960	-75.971	0.239	0.085
-381.946	140.261	-0.068	0.089
-380.931	536.944	0.017	0.040
-379.917	15.118	-0.118	0.093
-378.902	62.658	-0.143	-0.143
-377.888	31.215	-0.029	-0.025
-376.873	307.365	0.110	-0.206
-375.858	-84.389	0.394	0.125
-374.844	-30.297	-0.052	0.030
-373.829	-74.705	0.390	0.140
-372.815	-80.888	0.203	-0.067
-371.800	800.000	0.067	-0.240
-370.785	23.695	0.156	-0.129
-369.771	115.210	-0.177	-0.216
-368.756	-93.114	0.105	-0.029
-367.742	404.468	0.154	-0.324
-366.727	-144.733	0.145	-0.013
-365.712	119.579	0.224	-0.277
-364.698	327.843	0.074	0.142
-363.683	215.169	-0.169	-0.268
-362.669	60.799	-0.170	-0.168
-361.654	-59.370	0.182	-0.078
-360.639	130.594	0.094	0.120
-359.625	-200.000	0.009	-0.357
-358.610	-200.000	0.018	-0.228
-357.596	-200.000	-0.004	0.022
-356.581	152.872	0.115	-0.157
-355.566	-146.418	0.028	-0.002
-354.552	800.000	0.036	-0.152
-353.537	-38.446	-0.293	0.155
-352.523	-136.671	-0.198	0.023
-351.508	-98.065	0.234	0.060
-350.493	55.885	0.124	0.120
-349.479	363.886	-0.104	-0.209
-348.464	307.164	-0.155	0.289
-347.450	239.444	0.133	-0.222
-346.435	-200.000	-0.011	0.164
-345.420	800.000	-0.041	0.139
-344.406	-84.601	0.405	0.127
-343.391	-12.986	0.236	0.154
-342.377	-200.000	0.014	0.366
-341.362	42.734	-0.236	-0.215
-340.348	800.000	-0.062	0.198
-339.333	-40.461	0.287	0.149
-338.318	-115.454	-0.055	-0.010
-337.304	47.103	0.128	-0.119
-336.289	800.000	-0.084	0.252
-335.275	-200.000	-0.048	0.267
-334.260	-200.000	-0.036	0.399
-333.245	-132.195	0.294	0.038
-332.231	255.027	-0.174	-0.297
-331.216	-200.000	0.038	0.172
-330.202	-52.495	-0.253	0.117
-329.187	-200.000	-0.003	-0.194
-328.172	-155.781	0.209	-0.013
-327.158	-200.000	0.005	-0.079
-326.143	-105.382	-0.285	-0.065
-325.129	19.879	-0.101	-0.081
-324.114	57.270	-0.101	0.098
-323.099	-31.883	0.289	0.162
-322.085	800.000	-0.042	0.172
-321.070	-76.455	-0.261	-0.092
-320.056	-200.000	-0.019	-0.136
-319.041	-52.019	0.313	0.145
-318.026	800.000	-0.097	-0.331
-317.012	-30.623	0.154	0.087
-315.997	8.761	0.309	0.232
-314.983	282.719	-0.051	-0.092
-313.968	-200.000	-0.021	-0.229
-312.953	-128.482	0.204	-0.029
-311.939	-166.380	0.255	0.011
-310.924	112.082	0.179	-0.215
-309.910	-131.528	0.411	-0.054
-308.895	-140.677	-0.068	-0.007
-307.880	-33.110	0.294	0.163
-306.866	315.086	0.029	-0.055
-305.851	-22.855	0.102	-0.062
-304.837	-70.448	-0.055	-0.021
-303.822	236.922	-0.175	-0.289
-302.807	-200.000	-0.001	-0.081
-301.793	-62.774	0.161	-0.066
-300.778	151.572	-0.053	0.072
-299.764	800.000	-0.027	0.110
-298.749	88.018	-0.251	-0.278
-297.735	-143.959	-0.158	-0.015
-296.720	-59.486	-0.332	0.142
-295.705	800.000	-0.076	-0.231
-294.691	174.763	0.098	-0.142
-293.676	-200.000	-0.028	0.237
-292.662	800.000	0.047	0.205
-291.647	129.569	0.170	0.217
-290.632	718.504	-0.098	0.261
-289.618	-77.632	-0.145	-0.050
-288.603	-122.258	0.068	-0.011
-287.589	800.000	-0.067	-0.284
-286.574	284.176	0.035	0.062
-285.559	-200.000	0.018	-0.141
-284.545	179.020	0.287	-0.418
-283.530	28.826	-0.099	-0.083
-282.516	-63.953	-0.678	0.276
-281.501	295.895	0.096	0.175
-280.486	1.618	0.225	0.162
-279.472	57.946	-0.125	0.122
-278.457	-200.000	0.044	0.274
-277.443	-15.245	0.291	0.185
-276.428	149.474	-0.067	0.090
-275.413	445.227	0.174	0.381
-274.399	-200.000	-0.048	0.231
-273.384	40.128	0.320	0.287
-272.370	800.000	-0.038	0.129
-271.355	21.280	-0.274	0.222
-270.340	382.970	0.182	0.372
-269.326	575.633	-0.013	-0.033
-268.311	-200.000	0.011	-0.126
-267.297	-193.261	-0.117	-0.001
-266.282	-200.000	0.085	0.456
-265.267	-141.617	0.289	-0.029
-264.253	296.089	-0.065	-0.118
-263.238	425.103	0.151	0.324
-262.224	-96.295	-0.177	0.047
-261.209	-200.000	-0.001	-0.175
-260.195	800.000	-0.088	0.282
-259.180	-85.977	0.383	-0.118
-258.165	354.118	0.045	-0.088
-257.151	-136.821	0.225	-0.026
-256.136	523.264	0.034	-0.079
-255.122	-52.799	0.065	-0.030
-254.107	309.602	-0.111	-0.207
-253.092	17.952	-0.119	0.094
-252.078	-82.562	-0.300	-0.097
-251.063	-80.411	-0.334	0.111
-250.049	-88.351	0.166	0.049
-249.034	36.975	0.178	-0.156
-248.019	-110.527	-0.264	-0.054
-247.005	800.000	0.037	-0.144
-245.990	-125.791	0.109	0.016
-244.976	302.854	-0.131	0.242
-243.961	59.697	0.102	0.100
-242.946	-200.000	0.006	0.249
-241.932	-59.674	0.275	0.117
-240.917	128.790	-0.096	0.122
-239.903	-128.007	0.106	0.015
-238.888	-200.000	0.003	0.082
-237.873	-138.081	-0.115	0.013
-236.859	-99.436	0.347	0.087
-235.844	124.050	0.198	0.248
-234.830	-75.985	0.248	0.087
-233.815	-61.519	-0.252	-0.105
-232.800	92.038	-0.220	-0.246
-231.786	-200.000	0.037	-0.438
-230.771	513.602	-0.022	-0.052
-229.757	800.000	-0.062	-0.209
-228.742	-97.517	0.056	0.014
-227.727	512.607	0.095	-0.221
-226.713	19.328	-0.157	-0.125
-225.698	492.275	0.111	-0.253
-224.684	293.483	-0.199	-0.360
-223.669	-200.000	0.026	-0.218
-222.655	-22.837	0.313	0.188
-221.640	-200.000	-0.035	0.362
-220.625	12.981	-0.129	0.099
-219.611	274.570	-0.073	-0.129
-218.596	407.683	-0.120	-0.253
-217.582	-111.933	0.241	0.048
-216.567	-200.000	0.013	-0.058
-215.552	344.671	0.107	0.210
-214.538	-73.942	-0.338	-0.122
-213.523	-43.102	0.276	-0.139
-212.509	-145.688	0.299	-0.027
-211.494	281.697	0.099	0.176
-210.479	24.500	0.253	0.208
-209.465	251.756	0.112	0.189
-208.450	800.000	-0.054	0.180
-207.436	697.460	-0.026	-0.067
-206.421	14.361	-0.155	0.120
-205.406	-60.623	0.185	0.078
-204.392	-198.826	-0.192	0.001
-203.377	47.418	-0.118	0.109
-202.363	-69.590	-0.201	-0.076
-201.348	-8.936	-0.352	-0.234
-200.333	-137.414	-0.473	-0.053
-199.319	114.243	0.186	-0.225
-198.304	154.679	0.189	-0.258
-197.290	200.749	-0.047	0.072
-196.275	-200.000	0.013	0.181
-195.260	-19.263	-0.160	-0.099
-194.246	-110.005	0.242	0.050
-193.231	800.000	0.035	-0.138
-192.217	-36.491	-0.129	0.069
-191.202	-122.651	0.838	0.135
-190.187	-142.313	-0.423	-0.041
-189.173	-142.670	0.274	0.027
-188.158	800.000	-0.002	0.007
-187.144	-133.132	-0.176	-0.022
-186.129	800.000	0.045	0.191
-185.114	37.406	0.165	-0.145
-184.100	44.458	-0.217	0.198
-183.085	800.000	-0.028	0.095
-182.071	671.249	0.037	-0.096
-181.056	800.000	0.066	-0.206
-180.042	-67.000	0.320	-0.125
-179.027	235.062	-0.192	0.314
-178.012	800.000	0.063	0.210
-176.998	-200.000	-0.024	0.216
-175.983	205.156	0.098	0.152
-174.969	489.834	-0.132	-0.299
-173.954	-91.450	0.037	-0.010
-172.939	433.180	0.089	0.192
-171.925	-68.246	-0.240	-0.093
-170.910	2.868	-0.312	0.225
-169.896	220.298	-0.152	0.242
-168.881	-75.640	-0.089	0.032
-167.866	394.658	-0.005	0.011
-166.852	570.026	-0.117	0.283
-165.837	-102.092	-0.288	0.069
-164.823	-86.912	0.299	0.091
-163.808	243.133	0.215	-0.357
-162.793	-46.562	-0.158	-0.077
-161.779	800.000	0.080	0.255
-160.764	-64.696	-0.283	0.114
-159.750	10.593	0.182	0.137
-158.735	436.234	0.094	0.202
-157.720	-200.000	-0.009	0.122
-156.706	281.784	-0.078	0.139
-155.691	-200.000	0.062	0.275
-154.677	44.152	0.144	-0.131
-153.662	292.650	0.024	-0.044
-152.647	-109.475	-0.493	0.103
-151.633	479.011	-0.021	-0.047
-150.618	-109.166	-0.165	0.035
-149.604	25.782	-0.314	0.259
-148.589	783.250	0.067	0.182
-147.574	-48.203	0.349	0.167
-146.560	-200.000	-0.014	-0.160
-145.545	800.000	-0.037	-0.101
-144.531	-78.405	0.210	-0.071
-143.516	-57.842	-0.085	-0.037
-142.502	45.567	0.180	0.165
-141.487	-200.000	0.045	-0.259
-140.472	-118.980	-0.128	0.022
-139.458	-200.000	-0.034	0.151
-138.443	-82.728	-0.138	-0.044
-137.429	7.265	-0.290	-0.215
-136.414	-200.000	-0.012	-0.053
-135.399	97.377	0.054	-0.061
-134.385	93.156	0.076	0.085
-133.370	-57.648	0.279	0.121
-132.356	382.525	0.201	0.409
-131.341	-90.085	-0.185	0.054
-130.326	-81.003	-0.430	-0.141
-129.312	251.987	-0.048	-0.082
-128.297	33.129	0.158	0.136
-127.283	200.993	0.116	-0.178
-126.268	-67.473	-0.077	-0.030
-125.253	-8.236	0.165	-0.110
-124.239	-99.945	-0.185	-0.046
-123.224	-200.000	0.009	-0.067
-122.210	207.289	-0.031	-0.048
-121.195	7.509	-0.007	0.005
