DTS Sentinel unit serial number:	SN413079Multiplexer serial number:	ORYXHardware model number:	OX4-SRSoftware version number:	ORYX F/W v4.00 Oryx Data Collector v3.7.2.0data status	okinstallation	princeton_trtdifferential loss correction	single-endedforward channel	channel 4reverse channel	N/Adate	2019/09/12time	17:15:11forward acquisition time	60.00reverse acquisition time	0.00gamma	496.2192k internal	0.2307k external	0.2307temperature offset calibration	1.0127default loss term (dB/km)	0.3790temperature slope calibration	1.0000multiplexer offset coefficient	1.0000multiplexer slope coefficient	1.0000fibre end	0.00T internal ref (°C)	35.12T ext. ref 1 (°C)	2.86T ext. ref 2 (°C)	28.82length (m)	temperature (°C)	Stokes	anti-Stokes-747.200	-68.227	0.070	0.028
-746.185	71.185	-0.177	0.187
-745.171	-200.000	-0.006	0.045
-744.156	-10.721	-0.303	0.204
-743.142	198.853	0.099	0.155
-742.127	79.551	-0.129	0.141
-741.112	-42.901	-0.276	0.143
-740.098	358.603	-0.124	0.253
-739.083	-129.076	-0.162	-0.023
-738.069	-23.638	-0.098	0.060
-737.054	237.310	-0.080	-0.135
-736.039	35.877	-0.126	-0.113
-735.025	19.013	0.430	0.351
-734.010	-200.000	-0.021	-0.149
-732.996	800.000	-0.099	0.303
-731.981	-36.219	-0.110	0.060
-730.966	-200.000	0.016	-0.309
-729.952	800.000	-0.117	-0.366
-728.937	-70.211	-0.276	-0.107
-727.923	523.513	0.077	-0.183
-726.908	314.005	-0.050	0.096
-725.894	-200.000	-0.025	0.124
-724.879	-7.369	-0.295	-0.203
-723.864	800.000	0.091	-0.266
-722.850	-182.585	0.197	-0.004
-721.835	-71.529	-0.119	0.045
-720.821	-147.658	-0.162	0.014
-719.806	-16.412	0.313	0.201
-718.791	-93.437	-0.225	-0.063
-717.777	8.306	-0.120	0.091
-716.762	800.000	-0.079	0.285
-715.748	-94.915	-0.103	-0.028
-714.733	36.705	0.091	0.081
-713.718	215.221	0.103	-0.166
-712.704	-85.503	0.306	-0.097
-711.689	-200.000	0.060	0.338
-710.675	-32.127	0.128	0.072
-709.660	255.569	-0.075	-0.131
-708.645	-200.000	0.018	-0.111
-707.631	149.344	0.105	-0.145
-706.616	-12.295	-0.217	0.144
-705.602	651.799	-0.104	-0.271
-704.587	1.856	-0.326	-0.239
-703.572	94.542	-0.124	0.143
-702.558	220.314	0.095	0.154
-701.543	186.550	0.170	-0.258
-700.529	-114.189	-0.220	-0.043
-699.514	-32.499	-0.095	0.054
-698.499	-29.769	0.183	0.106
-697.485	-31.290	0.110	-0.063
-696.470	175.090	-0.103	-0.152
-695.456	-88.506	0.185	-0.056
-694.441	-30.650	0.049	0.028
-693.426	-200.000	-0.053	-0.240
-692.412	-101.726	0.116	-0.029
-691.397	-94.933	-0.280	0.077
-690.383	-186.645	-0.079	-0.001
-689.368	-133.781	0.346	-0.044
-688.354	608.058	0.036	0.092
-687.339	-200.000	-0.022	0.297
-686.324	-189.138	-0.253	-0.003
-685.310	-200.000	-0.028	-0.184
-684.295	800.000	0.020	-0.073
-683.281	800.000	-0.092	0.263
-682.266	-124.247	0.380	-0.060
-681.251	-200.000	-0.031	-0.153
-680.237	506.686	-0.096	-0.227
-679.222	38.828	0.172	0.156
-678.208	112.450	0.148	-0.182
-677.193	154.555	0.354	0.493
-676.178	-200.000	-0.025	-0.152
-675.164	19.895	0.076	-0.062
-674.149	17.057	-0.062	0.050
-673.135	174.201	-0.160	0.235
-672.120	-200.000	-0.084	-0.397
-671.105	-1.586	0.113	-0.081
-670.091	-90.093	-0.174	-0.051
-669.076	-200.000	0.000	-0.027
-668.062	275.756	-0.141	-0.254
-667.047	89.785	0.167	0.189
-666.032	-200.000	-0.054	-0.277
-665.018	-200.000	-0.025	0.200
-664.003	347.206	0.103	0.205
-662.989	-25.857	0.274	-0.164
-661.974	77.972	-0.096	0.104
-660.959	-200.000	0.023	0.317
-659.945	-200.000	-0.006	-0.066
-658.930	-200.000	-0.050	0.341
-657.916	800.000	-0.109	-0.309
-656.901	-50.475	0.099	-0.047
-655.886	-200.000	0.094	0.488
-654.872	-11.974	-0.036	0.024
-653.857	32.884	-0.260	-0.228
-652.843	-118.482	0.391	-0.070
-651.828	-103.189	0.077	-0.018
-650.814	-200.000	0.008	-0.225
-649.799	-89.127	0.182	0.055
-648.784	-55.684	-0.227	-0.103
-647.770	-113.342	-0.226	-0.045
-646.755	33.839	0.145	0.127
-645.741	-200.000	-0.047	-0.328
-644.726	800.000	-0.056	0.235
-643.711	276.641	0.171	0.308
-642.697	-78.162	0.348	-0.121
-641.682	42.094	-0.175	0.160
-640.668	-200.000	0.020	0.175
-639.653	-63.399	-0.091	-0.038
-638.638	56.882	0.147	0.146
-637.624	-5.735	0.323	0.224
-636.609	-98.321	0.219	-0.057
-635.595	-100.672	0.105	0.026
-634.580	-200.000	0.047	0.353
-633.565	800.000	-0.042	-0.184
-632.551	-48.150	0.219	0.107
-631.536	-200.000	-0.029	0.162
-630.522	800.000	-0.061	0.231
-629.507	-200.000	0.021	0.334
-628.492	-200.000	0.013	-0.465
-627.478	-13.008	0.151	0.099
-626.463	110.937	-0.082	-0.099
-625.449	183.966	-0.250	0.374
-624.434	638.730	0.124	-0.318
-623.419	-17.664	-0.184	0.117
-622.405	-81.094	0.393	-0.132
-621.390	28.983	-0.073	-0.062
-620.376	392.266	0.100	0.211
-619.361	-35.131	0.147	0.081
-618.346	-132.320	0.208	-0.027
-617.332	711.586	-0.066	-0.176
-616.317	800.000	0.042	0.153
-615.303	341.104	0.041	-0.081
-614.288	640.805	0.027	-0.070
-613.273	-200.000	-0.020	0.192
-612.259	-200.000	-0.049	-0.222
-611.244	-119.770	-0.122	0.021
-610.230	-150.077	0.148	-0.012
-609.215	-200.000	0.011	-0.103
-608.201	381.302	0.136	0.282
-607.186	-137.723	0.124	-0.014
-606.171	800.000	-0.019	0.075
-605.157	-26.277	0.159	0.094
-604.142	800.000	-0.116	0.386
-603.128	-128.927	0.108	0.015
-602.113	242.030	0.029	0.050
-601.098	36.047	0.050	0.044
-600.084	70.693	-0.403	0.422
-599.069	139.859	0.080	-0.106
-598.055	800.000	-0.042	-0.146
-597.040	58.437	0.138	-0.137
-596.025	-130.557	-0.309	-0.042
-595.011	-68.818	-0.271	0.106
-593.996	-80.882	0.092	0.031
-592.982	800.000	0.095	0.266
-591.967	193.883	0.165	0.253
-590.952	-149.734	0.184	-0.015
-589.938	-195.645	0.375	0.003
-588.923	-3.218	-0.149	0.105
-587.909	236.552	-0.068	0.114
-586.894	-0.957	-0.154	0.110
-585.879	678.929	-0.102	-0.268
-584.865	25.095	-0.097	0.082
-583.850	800.000	-0.081	-0.281
-582.836	476.697	0.148	-0.339
-581.821	-45.939	-0.115	-0.057
-580.806	-85.187	0.117	-0.037
-579.792	-159.792	-0.447	-0.025
-578.777	-29.640	0.174	-0.100
-577.763	380.954	0.138	-0.285
-576.748	-200.000	-0.005	0.088
-575.733	-200.000	-0.019	-0.227
-574.719	-117.928	0.220	-0.040
-573.704	11.559	0.168	0.130
-572.690	190.984	0.149	-0.226
-571.675	-200.000	-0.019	-0.084
-570.661	119.197	-0.093	-0.116
-569.646	-49.156	-0.187	0.090
-568.631	-45.287	-0.147	0.074
-567.617	487.312	0.062	-0.143
-566.602	-64.233	-0.116	0.048
-565.588	-200.000	-0.051	-0.400
-564.573	190.704	0.134	0.204
-563.558	-200.000	-0.000	-0.449
-562.544	9.604	-0.204	-0.156
-561.529	81.626	0.128	-0.140
-560.515	196.529	-0.104	-0.160
-559.500	-59.834	-0.196	0.085
-558.485	-65.974	0.119	-0.048
-557.471	-200.000	0.091	-0.445
-556.456	28.863	-0.080	-0.069
-555.442	800.000	0.076	0.225
-554.427	178.750	-0.066	0.097
-553.412	-99.774	-0.228	0.058
-552.398	-200.000	-0.000	0.099
-551.383	-200.000	0.045	0.211
-550.369	42.675	0.120	-0.110
-549.354	-105.389	0.235	-0.054
-548.339	-200.000	-0.016	0.152
-547.325	800.000	-0.095	-0.274
-546.310	-151.996	-0.263	-0.019
-545.296	800.000	-0.086	-0.266
-544.281	-93.421	0.174	0.049
-543.266	310.386	-0.167	0.315
-542.252	-53.575	-0.115	-0.053
-541.237	-51.072	0.149	-0.071
-540.223	-126.503	-0.424	0.064
-539.208	-1.163	0.116	-0.083
-538.193	692.381	0.085	0.224
-537.179	181.215	-0.233	0.345
-536.164	-82.191	-0.012	-0.004
-535.150	-109.012	0.314	-0.067
-534.135	-200.000	-0.044	0.387
-533.121	-200.000	0.011	0.224
-532.106	-11.402	0.088	-0.059
-531.091	576.649	0.021	-0.052
-530.077	-200.000	-0.015	-0.262
-529.062	24.428	0.277	-0.231
-528.048	-112.298	0.486	0.098
-527.033	105.533	0.134	-0.159
-526.018	-47.012	0.298	-0.147
-525.004	38.769	-0.159	0.143
-523.989	-200.000	-0.027	-0.128
-522.975	-105.279	0.177	-0.041
-521.960	39.165	-0.171	-0.155
-520.945	162.595	0.144	0.204
-519.931	13.494	0.012	0.009
-518.916	247.800	-0.116	-0.198
-517.902	179.569	0.058	-0.086
-516.887	-28.342	0.171	0.099
-515.872	-200.000	0.068	-0.308
-514.858	800.000	0.034	0.148
-513.843	256.815	-0.152	0.263
-512.829	730.490	-0.115	0.310
-511.814	800.000	0.098	0.408
-510.799	-54.938	-0.122	-0.056
-509.785	-49.512	-0.122	-0.059
-508.770	-200.000	0.051	-0.292
-507.756	495.078	0.135	-0.313
-506.741	566.372	-0.213	-0.521
-505.726	177.518	0.020	-0.030
-504.712	165.957	-0.042	0.059
-503.697	-61.056	-0.203	-0.086
-502.683	-82.414	0.382	-0.125
-501.668	-51.192	-0.301	-0.142
-500.653	-56.646	0.107	0.048
-499.639	58.900	-0.097	-0.096
-498.624	-200.000	-0.021	-0.296
-497.610	144.805	-0.164	-0.221
-496.595	-25.789	0.115	0.068
-495.581	-200.000	-0.023	-0.266
-494.566	138.278	-0.186	-0.246
-493.551	261.966	-0.164	-0.286
-492.537	-82.471	-0.138	-0.045
-491.522	-200.000	0.009	-0.054
-490.508	-100.625	0.230	0.057
-489.493	-127.005	0.254	0.038
-488.478	88.799	0.159	-0.178
-487.464	800.000	0.062	0.256
-486.449	186.595	-0.116	0.174
-485.435	-200.000	-0.037	0.195
-484.420	800.000	0.068	0.265
-483.405	-69.709	-0.230	-0.088
-482.391	39.400	0.300	0.271
-481.376	621.820	0.057	0.145
-480.362	-70.809	-0.076	-0.029
-479.347	-200.000	-0.023	-0.131
-478.332	-200.000	-0.008	0.036
-477.318	12.373	-0.099	-0.077
-476.303	133.079	-0.104	0.135
-475.289	60.566	0.111	-0.111
-474.274	70.827	-0.072	-0.075
-473.259	-139.843	0.148	0.016
-472.245	34.876	-0.090	-0.079
-471.230	-112.055	-0.094	-0.019
-470.216	636.522	0.139	-0.355
-469.201	-200.000	0.413	-0.001
-468.186	279.230	0.059	0.105
-467.172	-200.000	-0.098	0.466
-466.157	8.925	-0.127	0.096
-465.143	169.904	-0.195	-0.280
-464.128	-95.192	0.369	0.100
-463.113	-42.183	-0.101	-0.052
-462.099	27.116	0.028	0.024
-461.084	195.906	0.150	0.230
-460.070	-24.627	-0.223	-0.133
-459.055	-107.824	0.170	-0.037
-458.040	-97.993	0.102	0.026
-457.026	-66.627	0.173	-0.069
-456.011	-200.000	-0.022	-0.137
-454.997	-97.682	-0.294	-0.077
-453.982	14.346	-0.225	0.177
-452.968	-144.052	-0.054	-0.005
-451.953	-200.000	0.047	-0.000
-450.938	619.986	0.084	-0.213
-449.924	54.662	-0.232	0.225
-448.909	-68.553	0.220	0.086
-447.895	800.000	-0.046	0.175
-446.880	-116.757	0.325	-0.060
-445.865	800.000	0.046	-0.187
-444.851	800.000	0.079	-0.225
-443.836	-8.642	0.025	0.017
-442.822	42.622	0.271	-0.248
-441.807	-58.478	-0.146	0.064
-440.792	733.237	0.024	0.064
-439.778	25.735	0.122	0.102
-438.763	246.402	-0.035	0.059
-437.749	-200.000	-0.007	0.342
-436.734	-112.702	-0.123	-0.025
-435.719	800.000	0.115	0.386
-434.705	800.000	0.036	0.123
-433.690	-200.000	-0.018	0.198
-432.676	800.000	-0.051	-0.146
-431.661	30.351	0.198	-0.170
-430.646	4.195	-0.357	0.262
-429.632	-35.486	0.201	-0.109
-428.617	-200.000	0.032	0.267
-427.603	800.000	-0.111	-0.441
-426.588	240.659	0.096	0.161
-425.573	123.985	-0.097	-0.122
-424.559	-200.000	0.030	-0.251
-423.544	-143.635	-0.038	0.004
-422.530	-170.504	-0.222	0.008
-421.515	181.096	-0.262	0.387
-420.500	97.251	-0.094	-0.108
-419.486	800.000	0.099	0.300
-418.471	62.535	0.152	0.153
-417.457	-200.000	-0.019	0.188
-416.442	133.691	-0.246	0.319
-415.428	72.179	-0.194	0.203
-414.413	-200.000	-0.084	0.396
-413.398	-104.726	-0.298	0.069
-412.384	800.000	0.094	0.262
-411.369	-200.000	0.047	0.233
-410.355	-102.604	0.164	0.039
-409.340	19.552	-0.179	-0.145
-408.325	611.225	0.021	0.052
-407.311	-149.917	-0.219	0.017
-406.296	281.489	0.117	-0.210
-405.282	-137.996	-0.323	0.036
-404.267	-58.316	0.227	0.099
-403.252	800.000	-0.082	0.246
-402.238	-182.977	-0.121	-0.002
-401.223	246.034	-0.222	-0.376
-400.209	36.613	-0.062	-0.055
-399.194	-2.204	-0.074	0.052
-398.179	-200.000	0.098	-0.000
-397.165	-130.851	0.100	-0.013
-396.150	782.225	0.044	0.122
-395.136	800.000	-0.078	0.234
-394.121	-104.966	-0.068	-0.016
-393.106	-52.905	0.196	0.090
-392.092	800.000	-0.167	0.519
-391.077	157.308	0.158	-0.219
-390.063	-200.000	0.014	0.095
-389.048	262.900	0.046	-0.080
-388.033	507.327	0.132	-0.308
-387.019	-39.832	0.334	0.175
-386.004	33.816	-0.098	-0.086
-384.990	-12.067	0.185	0.121
-383.975	159.384	-0.130	0.182
-382.960	-200.000	0.006	-0.187
-381.946	-53.261	0.254	0.117
-380.931	96.902	-0.131	0.150
-379.917	208.925	-0.114	-0.179
-378.902	800.000	-0.057	0.217
-377.888	89.113	0.072	-0.081
-376.873	-85.724	0.141	0.044
-375.858	-114.829	-0.313	-0.060
-374.844	-200.000	0.006	0.145
-373.829	-79.613	0.236	0.080
-372.815	-38.464	-0.259	0.137
-371.800	-103.751	-0.156	0.037
-370.785	90.951	-0.121	0.136
-369.771	71.658	-0.034	0.035
-368.756	-79.124	0.246	-0.084
-367.742	-200.000	-0.027	0.292
-366.727	113.390	-0.112	-0.136
-365.712	-170.184	0.287	-0.010
-364.698	-200.000	0.043	-0.504
-363.683	-93.984	-0.300	-0.082
-362.669	231.252	-0.079	0.130
-361.654	-22.955	0.379	-0.229
-360.639	283.686	-0.138	-0.248
-359.625	45.764	-0.175	-0.162
-358.610	185.556	0.297	-0.442
-357.596	-177.582	0.119	-0.003
-356.581	-136.535	-0.168	-0.020
-355.566	-84.624	-0.671	0.212
-354.552	800.000	-0.073	0.294
-353.537	-200.000	-0.005	-0.025
-352.523	-136.325	0.237	0.028
-351.508	658.642	0.027	0.069
-350.493	44.022	-0.065	-0.059
-349.479	143.899	-0.087	-0.116
-348.464	-29.202	0.166	-0.095
-347.450	357.866	0.132	-0.263
-346.435	234.625	-0.053	-0.087
-345.420	-24.392	-0.510	-0.304
-344.406	16.888	0.134	-0.106
-343.391	-200.000	-0.009	-0.091
-342.377	20.218	-0.110	-0.089
-341.362	-200.000	0.023	0.124
-340.348	-146.333	0.197	-0.017
-339.333	46.611	-0.175	-0.162
-338.318	800.000	0.008	-0.036
-337.304	154.353	0.099	-0.136
-336.289	-200.000	0.063	-0.316
-335.275	-85.047	-0.257	0.081
-334.260	-142.843	0.074	0.007
-333.245	-21.090	-0.193	0.118
-332.231	-119.260	-0.086	0.015
-331.216	-200.000	0.007	0.056
-330.202	217.183	0.103	-0.165
-329.187	-200.000	-0.032	-0.247
-328.172	-8.425	0.378	-0.254
-327.158	-200.000	-0.493	0.002
-326.143	-24.232	0.255	0.152
-325.129	800.000	-0.027	0.110
-324.114	-117.347	-0.047	0.009
-323.099	-100.031	-0.223	0.056
-322.085	-158.812	-0.432	-0.025
-321.070	800.000	0.083	-0.282
-320.056	742.039	-0.101	-0.271
-319.041	-9.192	0.190	0.127
-318.026	38.024	0.121	0.108
-317.012	-23.283	0.037	0.022
-315.997	-200.000	-0.023	-0.150
-314.983	598.258	-0.060	-0.148
-313.968	800.000	0.027	0.083
-312.953	-31.888	-0.334	0.187
-311.939	326.806	-0.201	0.385
-310.924	156.286	0.132	-0.183
-309.910	-56.183	-0.237	0.106
-308.895	800.000	0.051	-0.206
-307.880	200.121	-0.211	-0.324
-306.866	452.573	0.114	-0.253
-305.851	-18.093	-0.260	-0.163
-304.837	183.926	0.143	0.211
-303.822	-37.966	0.105	-0.056
-302.807	152.195	0.124	-0.169
-301.793	152.130	0.254	-0.346
-300.778	110.522	0.059	-0.070
-299.764	-200.000	0.006	0.240
-298.749	330.937	-0.155	0.299
-297.735	-80.815	0.200	0.066
-296.720	13.982	0.113	0.088
-295.705	-200.000	-0.024	-0.122
-294.691	-27.844	-0.125	-0.072
-293.676	261.017	-0.136	-0.236
-292.662	384.795	-0.029	-0.060
-291.647	-44.940	-0.161	0.080
-290.632	-106.695	-0.191	-0.042
-289.618	286.791	0.150	0.271
-288.603	-153.772	0.244	-0.017
-287.589	97.533	0.154	-0.177
-286.574	800.000	-0.041	0.144
-285.559	-47.338	-0.162	0.079
-284.545	800.000	-0.153	-0.433
-283.530	80.236	-0.142	-0.152
-282.516	-200.000	0.076	0.446
-281.501	55.347	-0.196	0.189
-280.486	-68.947	0.355	-0.137
-279.472	-58.188	-0.063	0.027
-278.457	-200.000	0.002	0.127
-277.443	-200.000	-0.007	-0.086
-276.428	97.254	-0.112	-0.129
-275.413	232.196	-0.042	-0.069
-274.399	-200.000	0.000	-0.233
-273.384	-72.597	-0.188	0.069
-272.370	642.182	-0.002	-0.006
-271.355	-83.431	-0.057	0.018
-270.340	-46.991	0.216	0.105
-269.326	-71.404	0.160	0.060
-268.311	-3.865	-0.036	-0.025
-267.297	-105.445	0.545	0.124
-266.282	-140.977	-0.168	-0.017
-265.267	-200.000	-0.007	0.159
-264.253	243.617	-0.068	-0.113
-263.238	-11.562	-0.075	-0.049
-262.224	240.132	0.166	-0.276
-261.209	-28.258	-0.311	0.179
-260.195	-107.522	-0.088	0.019
-259.180	23.403	0.173	0.142
-258.165	-200.000	-0.015	0.116
-257.151	197.632	0.165	0.251
-256.136	-27.105	0.189	0.110
-255.122	291.150	0.086	0.155
-254.107	86.220	-0.070	-0.077
-253.092	521.775	-0.147	0.344
-252.078	696.147	0.096	0.251
-251.063	-40.861	0.266	-0.137
-250.049	800.000	0.103	-0.306
-249.034	321.591	-0.053	-0.101
-248.019	24.237	0.252	0.208
-247.005	45.965	0.049	0.045
-245.990	-1.010	0.210	-0.148
-244.976	-88.405	0.148	-0.044
-243.961	800.000	0.087	-0.370
-242.946	98.249	0.107	-0.122
-241.932	118.681	0.095	0.117
-240.917	7.859	0.267	-0.200
-239.903	-79.105	0.295	-0.100
-238.888	301.323	0.041	-0.076
-237.873	-45.351	-0.149	-0.074
-236.859	-200.000	-0.001	-0.135
-235.844	270.736	0.128	0.224
-234.830	77.668	0.168	0.178
-233.815	-200.000	0.001	0.550
-232.800	-200.000	0.004	-0.076
-231.786	-77.875	0.148	0.051
-230.771	318.984	0.139	0.263
-229.757	-42.309	-0.169	-0.086
-228.742	78.120	-0.123	0.130
-227.727	162.868	-0.110	-0.154
-226.713	-75.837	-0.443	0.156
-225.698	711.132	-0.065	0.172
-224.684	294.762	-0.077	0.140
-223.669	-66.275	-0.060	-0.024
-222.655	4.412	-0.364	-0.266
-221.640	800.000	-0.131	-0.460
-220.625	-200.000	0.012	-0.225
-219.611	212.702	-0.094	-0.148
-218.596	-133.594	-0.201	-0.025
-217.582	-200.000	-0.001	0.075
-216.567	42.351	-0.138	0.125
-215.552	-138.085	0.257	-0.028
-214.538	-200.000	-0.037	-0.210
-213.523	150.188	-0.078	-0.106
-212.509	-15.457	-0.154	0.098
-211.494	-47.259	-0.093	-0.045
-210.479	800.000	-0.045	-0.152
-209.465	420.847	0.203	0.434
-208.450	-73.267	-0.145	0.053
-207.436	-88.356	0.129	-0.038
-206.421	-66.343	0.127	0.050
-205.406	800.000	0.066	-0.203
-204.392	800.000	-0.108	0.406
-203.377	262.520	0.008	-0.014
-202.363	324.704	-0.138	-0.263
-201.348	1.245	0.239	0.171
-200.333	328.903	-0.137	-0.261
-199.319	-42.706	0.043	0.022
-198.304	364.636	-0.090	-0.181
-197.290	252.172	0.180	-0.306
-196.275	-146.538	0.279	0.024
-195.260	-200.000	0.009	-0.150
-194.246	-145.703	0.109	-0.010
-193.231	-200.000	0.030	0.170
-192.217	-166.748	-0.384	0.016
-191.202	785.031	-0.113	0.308
-190.187	800.000	0.063	0.193
-189.173	-104.992	-0.190	0.043
-188.158	-119.689	0.276	-0.047
-187.144	-200.000	-0.053	-0.264
-186.129	779.571	-0.104	-0.284
-185.114	-200.000	-0.011	-0.105
-184.100	-200.000	0.026	0.180
-183.085	188.972	0.213	-0.317
-182.071	-99.849	-0.197	-0.049
-181.056	-77.694	-0.156	0.054
-180.042	-130.483	0.054	0.007
-179.027	800.000	-0.069	0.291
-178.012	-41.145	-0.165	-0.085
-176.998	-200.000	0.135	0.001
-175.983	-125.012	-0.294	-0.045
-174.969	-57.861	0.276	0.120
-173.954	-200.000	0.031	0.186
-172.939	-200.000	0.000	-0.067
-171.925	347.585	-0.115	0.226
-170.910	340.804	0.073	0.142
-169.896	110.790	0.095	-0.114
-168.881	66.932	0.077	-0.078
-167.866	265.321	0.069	0.119
-166.852	-50.162	-0.148	-0.070
-165.837	-31.579	0.230	0.128
-164.823	-200.000	0.046	0.332
-163.808	50.632	0.299	0.281
-162.793	800.000	-0.156	0.449
-161.779	30.543	-0.269	0.228
-160.764	-82.296	-0.391	0.126
-159.750	243.811	0.286	-0.477
-158.735	-200.000	-0.029	-0.233
-157.720	-51.200	-0.115	-0.053
-156.706	139.630	0.067	-0.088
-155.691	-7.138	0.092	0.062
-154.677	-102.997	-0.160	-0.038
-153.662	-94.103	-0.310	-0.085
-152.647	41.616	0.084	-0.075
-151.633	-174.785	-0.082	-0.002
-150.618	800.000	0.061	-0.243
-149.604	540.851	-0.018	0.043
-148.589	-200.000	-0.033	0.212
-147.574	794.974	0.046	-0.126
-146.560	-164.021	-0.313	0.014
-145.545	-200.000	0.004	0.250
-144.531	-197.863	-0.332	0.002
-143.516	99.486	-0.089	-0.102
-142.502	-200.000	0.025	0.164
-141.487	-78.751	-0.189	0.064
-140.472	6.107	0.087	-0.064
-139.458	-40.870	-0.042	0.022
-138.443	85.269	-0.128	-0.140
-137.429	-200.000	-0.024	-0.137
-136.414	83.249	0.143	0.155
-135.399	800.000	-0.099	0.426
-134.385	-6.382	0.249	0.168
-133.370	-200.000	-0.015	-0.118
-132.356	800.000	-0.058	-0.169
-131.341	-90.677	0.013	-0.004
-130.326	58.955	0.117	0.114
-129.312	8.369	-0.201	0.150
-128.297	-8.070	-0.106	0.071
-127.283	-59.380	0.174	0.074
-126.268	633.056	-0.129	0.324
-125.253	23.772	0.161	-0.131
-124.239	272.142	-0.166	0.290
-123.224	-140.294	-0.231	-0.024
-122.210	-123.164	0.472	-0.075
