DTS Sentinel unit serial number:	SN413079Multiplexer serial number:	ORYXHardware model number:	OX4-SRSoftware version number:	ORYX F/W v4.00 Oryx Data Collector v3.7.2.0data status	okinstallation	princeton_trtdifferential loss correction	single-endedforward channel	channel 4reverse channel	N/Adate	2019/09/19time	06:09:35forward acquisition time	60.00reverse acquisition time	0.00gamma	496.2192k internal	0.2340k external	0.2340temperature offset calibration	1.0027default loss term (dB/km)	0.3790temperature slope calibration	1.0000multiplexer offset coefficient	1.0000multiplexer slope coefficient	1.0000fibre end	0.00T internal ref (°C)	19.12T ext. ref 1 (°C)	0.57T ext. ref 2 (°C)	12.73length (m)	temperature (°C)	Stokes	anti-Stokes-747.200	307.931	0.187	-0.350
-746.185	115.945	-0.088	0.108
-745.171	-183.898	0.236	0.004
-744.156	-200.000	0.064	0.322
-743.142	-51.409	-0.069	0.032
-742.127	122.035	-0.127	0.159
-741.112	-103.349	0.304	0.072
-740.098	-129.011	-0.340	0.048
-739.083	800.000	-0.113	0.425
-738.069	243.983	0.080	0.134
-737.054	-169.598	-0.350	-0.013
-736.039	-143.115	-0.141	-0.014
-735.025	-200.000	-0.012	0.064
-734.010	-143.667	0.274	0.026
-732.996	-200.000	-0.044	0.377
-731.981	-9.901	0.123	0.082
-730.966	26.407	0.025	0.021
-729.952	145.210	0.032	0.043
-728.937	-114.328	-0.278	0.054
-727.923	-44.828	-0.176	0.088
-726.908	-45.623	0.105	0.052
-725.894	-122.683	0.102	0.017
-724.879	-59.185	-0.346	-0.150
-723.864	-145.857	0.302	-0.027
-722.850	-0.854	-0.157	-0.111
-721.835	-77.935	0.202	0.070
-720.821	-62.588	-0.406	0.169
-719.806	-88.695	0.055	-0.016
-718.791	-70.015	0.201	0.077
-717.777	-128.438	0.233	0.033
-716.762	297.891	0.060	-0.110
-715.748	-0.728	0.116	-0.082
-714.733	-200.000	-0.001	-0.075
-713.718	-75.326	0.184	0.066
-712.704	-24.649	-0.087	0.052
-711.689	-149.191	0.143	-0.011
-710.675	-195.768	0.166	-0.001
-709.660	-89.151	-0.453	-0.134
-708.645	-92.026	-0.331	-0.094
-707.631	-127.903	0.264	0.038
-706.616	800.000	-0.130	0.420
-705.602	168.271	-0.084	0.120
-704.587	-41.353	-0.255	-0.132
-703.572	242.343	-0.078	0.130
-702.558	-200.000	0.013	-0.238
-701.543	800.000	0.082	0.240
-700.529	-65.405	0.094	-0.038
-699.514	297.370	0.116	-0.213
-698.499	44.609	-0.365	-0.336
-697.485	-200.000	0.015	-0.242
-696.470	-200.000	0.059	-0.480
-695.456	-200.000	-0.038	0.272
-694.441	146.020	0.095	-0.127
-693.426	-200.000	-0.006	-0.066
-692.412	90.640	-0.094	0.106
-691.397	87.663	0.304	-0.337
-690.383	38.655	0.012	-0.011
-689.368	47.233	-0.117	-0.109
-688.354	180.981	0.070	-0.103
-687.339	-89.865	-0.335	-0.098
-686.324	236.568	0.209	0.346
-685.310	301.940	-0.062	-0.114
-684.295	-116.023	-0.111	0.021
-683.281	375.518	-0.054	-0.111
-682.266	-200.000	0.005	0.408
-681.251	-194.144	-0.348	-0.003
-680.237	800.000	0.040	-0.118
-679.222	-200.000	-0.022	0.215
-678.208	275.701	-0.141	0.250
-677.193	413.655	-0.078	-0.167
-676.178	-200.000	0.020	-0.320
-675.164	282.677	0.176	0.316
-674.149	715.468	-0.054	-0.144
-673.135	397.950	0.231	0.484
-672.120	-200.000	-0.008	0.207
-671.105	-200.000	-0.015	0.090
-670.091	-76.930	0.056	0.019
-669.076	-200.000	-0.010	-0.157
-668.062	207.922	-0.126	-0.197
-667.047	238.329	0.161	0.267
-666.032	-162.423	0.323	0.016
-665.018	-75.473	0.216	-0.077
-664.003	800.000	0.086	-0.341
-662.989	-200.000	-0.057	-0.284
-661.974	9.485	-0.187	0.141
-660.959	27.823	-0.237	0.200
-659.945	-200.000	-0.020	0.151
-658.930	392.214	0.077	-0.161
-657.916	257.342	0.183	-0.315
-656.901	206.389	-0.154	0.239
-655.886	64.766	-0.053	-0.054
-654.872	396.053	0.125	-0.261
-653.857	157.174	0.168	-0.232
-652.843	113.942	-0.137	-0.166
-651.828	-129.667	0.043	0.006
-650.814	-200.000	-0.038	0.275
-649.799	-111.303	-0.435	0.089
-648.784	-30.333	-0.167	0.095
-647.770	452.773	-0.127	-0.280
-646.755	800.000	-0.094	0.325
-645.741	292.850	0.062	0.113
-644.726	-200.000	0.012	-0.182
-643.711	23.434	0.132	-0.108
-642.697	-55.331	-0.375	-0.168
-641.682	63.060	0.182	0.182
-640.668	276.733	-0.190	-0.338
-639.653	122.579	0.306	-0.381
-638.638	-200.000	-0.004	-0.082
-637.624	42.483	-0.078	0.071
-636.609	-180.097	-0.191	-0.004
-635.595	800.000	0.108	0.324
-634.580	-200.000	0.047	0.229
-633.565	800.000	0.043	-0.160
-632.551	-165.959	-0.318	0.014
-631.536	241.717	-0.102	-0.170
-630.522	-106.837	0.143	-0.032
-629.507	151.164	-0.106	0.144
-628.492	212.833	-0.124	0.196
-627.478	15.084	-0.275	0.215
-626.463	-15.543	-0.208	0.133
-625.449	-200.000	0.001	0.317
-624.434	-135.109	-0.088	-0.011
-623.419	-200.000	0.003	0.092
-622.405	18.958	-0.106	0.084
-621.390	295.870	-0.069	-0.126
-620.376	-191.129	0.212	0.002
-619.361	-200.000	-0.039	-0.225
-618.346	-47.626	-0.178	-0.086
-617.332	800.000	-0.026	-0.107
-616.317	584.493	-0.063	0.154
-615.303	-121.455	0.250	-0.042
-614.288	55.504	-0.035	-0.034
-613.273	128.382	-0.099	-0.125
-612.259	800.000	-0.103	0.386
-611.244	-200.000	-0.059	0.284
-610.230	-88.875	0.235	0.069
-609.215	105.133	-0.235	-0.277
-608.201	157.073	0.151	-0.209
-607.186	-94.409	0.084	-0.023
-606.171	-200.000	0.022	0.150
-605.157	-79.842	-0.287	-0.096
-604.142	24.207	0.186	-0.153
-603.128	-95.706	-0.079	0.021
-602.113	197.031	0.097	-0.147
-601.098	99.161	-0.076	-0.087
-600.084	-99.607	0.374	0.094
-599.069	-200.000	0.287	0.001
-598.055	10.752	0.119	0.090
-597.040	-200.000	-0.030	-0.156
-596.025	-200.000	0.003	-0.130
-595.011	-200.000	-0.037	-0.287
-593.996	223.569	0.057	-0.091
-592.982	194.602	0.035	-0.054
-591.967	108.839	-0.061	0.072
-590.952	78.110	0.157	0.167
-589.938	64.003	0.183	-0.184
-588.923	500.052	0.069	0.159
-587.909	800.000	0.030	-0.102
-586.894	471.658	-0.130	-0.292
-585.879	-68.932	0.188	-0.072
-584.865	138.684	-0.190	-0.248
-583.850	-200.000	-0.042	-0.269
-582.836	-176.791	-0.234	0.006
-581.821	-58.269	-0.049	-0.021
-580.806	-105.511	-0.218	-0.049
-579.792	231.638	0.044	-0.073
-578.777	53.814	-0.083	-0.079
-577.763	800.000	-0.085	-0.266
-576.748	323.663	-0.075	0.142
-575.733	-37.875	0.010	0.005
-574.719	-135.917	-0.407	0.048
-573.704	65.497	-0.153	0.154
-572.690	-200.000	0.007	0.235
-571.675	29.500	0.171	-0.144
-570.661	-200.000	-0.032	-0.348
-569.646	123.908	-0.183	0.229
-568.631	-24.416	-0.170	0.101
-567.617	-146.103	-0.266	0.023
-566.602	-161.575	0.020	0.001
-565.588	183.125	0.180	-0.265
-564.573	-181.219	-0.271	-0.005
-563.558	47.721	0.266	-0.247
-562.544	43.570	0.124	-0.113
-561.529	-200.000	0.006	-0.039
-560.515	-152.554	-0.225	-0.016
-559.500	42.885	0.071	-0.064
-558.485	751.998	0.069	-0.186
-557.471	-97.791	-0.192	0.049
-556.456	159.091	-0.095	-0.132
-555.442	35.927	0.100	-0.088
-554.427	38.188	-0.090	0.080
-553.412	443.273	0.168	-0.366
-552.398	-200.000	0.011	0.091
-551.383	-200.000	-0.005	-0.371
-550.369	52.679	-0.235	-0.223
-549.354	-200.000	0.024	0.182
-548.339	-176.373	0.206	0.005
-547.325	-80.734	-0.116	0.039
-546.310	-200.000	0.012	-0.072
-545.296	-101.486	0.172	0.042
-544.281	16.118	0.182	0.143
-543.266	-157.039	-0.369	-0.022
-542.252	-128.430	-0.229	0.032
-541.237	72.197	0.044	-0.046
-540.223	-45.227	0.258	-0.128
-539.208	22.330	-0.275	0.224
-538.193	-40.147	0.432	0.224
-537.179	800.000	-0.029	0.081
-536.164	9.071	0.239	0.180
-535.150	17.463	0.116	-0.092
-534.135	425.729	-0.076	-0.163
-533.121	147.078	0.201	-0.268
-532.106	800.000	-0.033	-0.121
-531.091	-103.931	-0.143	-0.033
-530.077	-103.009	0.302	0.071
-529.062	68.680	-0.271	-0.277
-528.048	800.000	-0.041	-0.150
-527.033	800.000	0.053	-0.164
-526.018	-200.000	-0.026	-0.260
-525.004	78.498	-0.096	0.102
-523.989	-200.000	-0.014	0.159
-522.975	75.546	0.023	-0.024
-521.960	108.887	0.174	0.207
-520.945	-200.000	0.048	0.307
-519.931	-19.598	0.196	0.120
-518.916	486.218	-0.138	0.312
-517.902	66.248	-0.047	-0.048
-516.887	-32.731	0.230	0.127
-515.872	800.000	-0.053	0.165
-514.858	194.591	0.050	0.075
-513.843	-159.109	0.277	0.016
-512.829	-4.875	0.180	0.124
-511.814	-200.000	0.016	-0.106
-510.799	156.122	-0.105	-0.144
-509.785	207.797	0.232	-0.360
-508.770	76.148	0.038	0.040
-507.756	619.112	0.073	-0.182
-506.741	800.000	0.158	0.539
-505.726	-94.617	0.095	0.026
-504.712	-44.748	0.104	0.051
-503.697	800.000	-0.063	-0.175
-502.683	5.827	0.099	-0.073
-501.668	135.277	0.151	0.195
-500.653	117.110	-0.207	-0.253
-499.639	220.445	0.141	0.224
-498.624	-47.026	-0.180	-0.087
-497.610	-38.334	0.184	0.097
-496.595	800.000	0.022	0.070
-495.581	387.564	0.155	0.318
-494.566	-200.000	-0.020	0.229
-493.551	800.000	-0.048	-0.154
-492.537	-125.621	-0.095	-0.014
-491.522	-53.205	0.169	0.077
-490.508	5.012	-0.251	-0.183
-489.493	1.192	0.061	0.044
-488.478	-200.000	-0.026	0.178
-487.464	-145.249	-0.325	0.029
-486.449	-29.263	0.193	-0.109
-485.435	227.406	-0.014	0.023
-484.420	-200.000	0.014	0.086
-483.405	800.000	0.043	0.147
-482.391	86.884	-0.085	-0.093
-481.376	800.000	-0.106	0.318
-480.362	31.753	0.227	0.194
-479.347	-63.202	0.200	0.082
-478.332	-11.635	0.157	0.102
-477.318	-200.000	0.002	0.074
-476.303	21.845	-0.111	-0.090
-475.289	-43.388	0.154	0.077
-474.274	-21.975	0.070	-0.042
-473.259	-103.618	-0.348	0.081
-472.245	366.080	-0.143	0.286
-471.230	-38.836	0.202	-0.106
-470.216	222.916	0.077	-0.123
-469.201	67.399	0.183	0.186
-468.186	-200.000	0.025	0.189
-467.172	-67.635	0.096	0.037
-466.157	89.152	-0.177	-0.195
-465.143	-127.342	-0.269	0.039
-464.128	800.000	0.062	0.227
-463.113	-125.651	-0.123	-0.019
-462.099	-79.833	0.050	-0.017
-461.084	-99.145	-0.069	0.017
-460.070	-200.000	-0.017	0.142
-459.055	-180.443	0.021	0.000
-458.040	4.842	-0.046	0.034
-457.026	-200.000	0.114	0.000
-456.011	88.181	-0.203	0.224
-454.997	571.926	-0.024	0.058
-453.982	43.425	0.211	0.191
-452.968	-82.279	0.343	0.111
-451.953	-135.305	-0.124	-0.015
-450.938	0.189	-0.259	0.183
-449.924	-110.730	0.102	-0.021
-448.909	66.723	0.231	-0.233
-447.895	36.483	-0.152	-0.133
-446.880	-30.368	-0.040	0.023
-445.865	317.517	0.196	-0.367
-444.851	27.212	-0.023	0.019
-443.836	-7.663	-0.080	-0.053
-442.822	-119.419	-0.143	0.025
-441.807	-90.137	-0.272	0.079
-440.792	205.422	-0.120	-0.185
-439.778	-177.087	0.289	-0.007
-438.763	-200.000	-0.065	-0.296
-437.749	544.189	-0.107	-0.252
-436.734	-28.110	0.234	-0.134
-435.719	165.709	-0.270	0.379
-434.705	-18.073	0.075	0.046
-433.690	-186.300	-0.086	-0.001
-432.676	800.000	-0.054	-0.156
-431.661	-49.028	0.258	0.122
-430.646	-200.000	-0.038	-0.327
-429.632	800.000	-0.089	-0.287
-428.617	800.000	-0.124	-0.372
-427.603	91.442	-0.063	-0.070
-426.588	-64.696	-0.139	0.056
-425.573	-0.421	-0.050	0.035
-424.559	-200.000	-0.016	0.103
-423.544	3.015	0.150	-0.108
-422.530	-200.000	-0.008	-0.071
-421.515	222.575	0.073	-0.116
-420.500	324.268	0.036	0.068
-419.486	-200.000	0.035	0.283
-418.471	-127.435	-0.081	-0.012
-417.457	-200.000	-0.033	0.330
-416.442	-116.697	0.190	0.035
-415.428	622.386	0.131	-0.326
-414.413	111.487	-0.180	-0.215
-413.398	-39.769	-0.181	-0.093
-412.384	589.013	0.069	-0.168
-411.369	19.309	0.258	0.205
-410.355	658.324	-0.169	0.430
-409.340	-200.000	-0.012	0.112
-408.325	-17.239	-0.291	0.182
-407.311	800.000	-0.040	0.159
-406.296	-107.214	0.410	0.089
-405.282	800.000	0.072	-0.243
-404.267	480.310	-0.027	0.061
-403.252	-71.974	0.362	-0.133
-402.238	-67.970	-0.326	0.126
-401.223	91.844	0.085	0.095
-400.209	94.245	0.045	-0.050
-399.194	-200.000	0.051	0.306
-398.179	122.069	-0.076	0.093
-397.165	-200.000	-0.000	-0.142
-396.150	52.063	0.097	0.092
-395.136	-62.697	0.386	0.158
-394.121	-200.000	-0.015	0.239
-393.106	239.229	0.075	0.123
-392.092	445.485	0.092	-0.199
-391.077	800.000	-0.021	-0.057
-390.063	800.000	-0.006	0.021
-389.048	-118.654	-0.168	-0.029
-388.033	272.091	-0.159	0.278
-387.019	-200.000	-0.086	0.408
-386.004	-200.000	0.026	0.155
-384.990	157.153	0.107	-0.147
-383.975	143.740	-0.281	0.370
-382.960	218.295	-0.072	0.114
-381.946	73.266	0.166	0.172
-380.931	23.771	0.171	0.139
-379.917	800.000	-0.092	-0.279
-378.902	199.716	0.180	-0.273
-377.888	38.003	0.117	0.103
-376.873	-135.992	-0.026	-0.003
-375.858	528.981	-0.120	-0.280
-374.844	-200.000	0.017	-0.205
-373.829	-45.985	-0.245	-0.119
-372.815	-36.979	0.190	0.101
-371.800	-200.000	0.008	0.203
-370.785	-62.802	-0.317	0.130
-369.771	800.000	0.119	-0.498
-368.756	251.745	0.098	0.165
-367.742	-172.092	0.135	-0.004
-366.727	-98.691	-0.014	-0.003
-365.712	-129.437	0.070	-0.010
-364.698	-20.357	0.210	-0.127
-363.683	524.192	0.111	-0.259
-362.669	-69.679	0.231	-0.087
-361.654	252.942	-0.204	0.344
-360.639	-145.763	0.253	-0.022
-359.625	213.889	-0.127	-0.199
-358.610	-54.631	0.171	0.076
-357.596	47.902	-0.252	-0.233
-356.581	800.000	0.059	0.209
-355.566	18.842	0.096	0.076
-354.552	710.528	0.130	-0.340
-353.537	124.189	0.104	0.129
-352.523	-200.000	-0.059	0.309
-351.508	256.935	-0.146	0.248
-350.493	-98.145	0.127	0.032
-349.479	-113.502	0.262	-0.051
-348.464	-115.211	-0.294	-0.055
-347.450	341.141	-0.237	0.457
-346.435	512.424	-0.069	0.158
-345.420	-200.000	0.032	-0.150
-344.406	103.902	-0.114	-0.132
-343.391	441.656	0.237	-0.511
-342.377	-200.000	0.037	-0.182
-341.362	-126.672	-0.068	0.010
-340.348	-51.489	-0.101	0.046
-339.333	-192.365	-0.368	-0.003
-338.318	800.000	0.051	0.158
-337.304	-70.912	0.381	0.142
-336.289	-200.000	-0.023	-0.113
-335.275	101.501	-0.220	-0.253
-334.260	417.202	-0.116	0.245
-333.245	-143.492	-0.296	-0.028
-332.231	-200.000	-0.001	-0.173
-331.216	-200.000	0.043	0.244
-330.202	174.354	0.109	0.155
-329.187	800.000	-0.052	0.209
-328.172	366.519	0.013	-0.025
-327.158	-200.000	-0.011	-0.082
-326.143	800.000	0.007	0.023
-325.129	-81.391	-0.035	-0.011
-324.114	800.000	0.128	0.355
-323.099	305.638	0.094	0.173
-322.085	242.670	-0.131	0.216
-321.070	263.213	-0.022	0.038
-320.056	-92.527	0.201	0.056
-319.041	197.783	0.180	0.271
-318.026	-39.512	0.156	-0.081
-317.012	-104.843	-0.213	-0.048
-315.997	-135.552	-0.503	-0.059
-314.983	800.000	-0.023	0.077
-313.968	-200.000	0.002	0.155
-312.953	-100.009	-0.207	-0.051
-311.939	-200.000	0.031	0.226
-310.924	40.075	-0.190	-0.168
-309.910	-156.198	0.065	-0.004
-308.895	800.000	-0.044	0.147
-307.880	-200.000	-0.016	0.126
-306.866	167.267	0.239	0.334
-305.851	-200.000	0.005	-0.039
-304.837	-39.162	-0.157	-0.081
-303.822	800.000	0.048	-0.186
-302.807	-68.751	-0.081	0.031
-301.793	678.093	-0.088	0.225
-300.778	8.645	-0.156	-0.116
-299.764	262.499	0.138	0.235
-298.749	622.424	-0.122	0.302
-297.735	160.693	0.021	0.029
-296.720	-131.842	-0.305	-0.039
-295.705	196.994	-0.074	-0.111
-294.691	-200.000	-0.008	-0.061
-293.676	233.387	-0.199	-0.323
-292.662	357.513	0.181	0.356
-291.647	-200.000	0.005	0.029
-290.632	241.930	-0.060	0.098
-289.618	-148.234	0.079	-0.006
-288.603	152.751	0.070	-0.094
-287.589	-65.587	0.047	-0.019
-286.574	-200.000	0.037	0.522
-285.559	-90.035	-0.198	0.057
-284.545	-200.000	-0.000	0.030
-283.530	158.360	-0.035	0.048
-282.516	-41.854	0.187	-0.094
-281.501	187.306	0.099	0.146
-280.486	193.649	0.214	0.319
-279.472	-63.972	0.279	-0.112
-278.457	1.005	0.261	0.184
-277.443	-147.656	0.165	-0.014
-276.428	464.119	0.170	0.373
-275.413	102.858	0.174	0.201
-274.399	-200.000	-0.036	-0.207
-273.384	-0.478	-0.169	0.118
-272.370	-65.774	0.047	-0.018
-271.355	-191.375	-0.278	0.003
-270.340	800.000	-0.033	0.094
-269.326	219.373	-0.066	0.104
-268.311	800.000	0.071	-0.200
-267.297	59.921	-0.141	0.137
-266.282	-101.102	0.271	-0.065
-265.267	-200.000	0.004	-0.147
-264.253	800.000	0.045	0.178
-263.238	-200.000	0.029	-0.473
-262.224	800.000	-0.090	-0.342
-261.209	-59.308	-0.392	-0.166
-260.195	-152.424	-0.151	-0.011
-259.180	-5.966	0.156	-0.105
-258.165	-200.000	-0.009	-0.186
-257.151	-109.824	-0.095	-0.020
-256.136	-94.239	0.197	-0.053
-255.122	80.503	-0.142	-0.150
-254.107	172.832	0.044	-0.062
-253.092	800.000	-0.033	0.119
-252.078	503.913	0.148	-0.337
-251.063	-134.838	0.440	0.052
-250.049	3.217	0.113	-0.081
-249.034	-53.256	-0.391	-0.176
-248.019	38.856	0.169	-0.148
-247.005	-200.000	-0.048	-0.425
-245.990	177.434	-0.122	0.175
-244.976	800.000	-0.070	0.292
-243.961	222.356	0.083	0.131
-242.946	68.032	0.091	-0.092
-241.932	-126.622	0.236	0.034
-240.917	99.503	-0.203	-0.231
-239.903	397.197	-0.097	-0.200
-238.888	-200.000	0.048	-0.289
-237.873	-25.766	0.185	-0.107
-236.859	69.546	-0.192	-0.194
-235.844	17.102	-0.168	0.131
-234.830	-1.598	0.194	0.135
-233.815	193.171	-0.123	0.182
-232.800	-30.799	-0.277	-0.154
-231.786	33.433	-0.237	-0.202
-230.771	52.469	0.070	-0.066
-229.757	186.989	-0.094	-0.138
-228.742	-46.607	0.041	0.020
-227.727	-41.089	0.174	-0.088
-226.713	-132.665	0.118	-0.015
-225.698	-63.842	-0.076	0.031
-224.684	-55.569	0.178	-0.078
-223.669	180.433	-0.129	0.185
-222.655	-130.175	-0.121	-0.016
-221.640	40.114	-0.096	-0.085
-220.625	800.000	-0.018	-0.068
-219.611	-16.479	0.263	-0.164
-218.596	800.000	0.035	0.097
-217.582	-72.089	-0.269	0.098
-216.567	-145.583	-0.330	0.029
-215.552	-141.702	0.096	0.009
-214.538	-200.000	-0.047	0.352
-213.523	800.000	0.056	0.154
-212.509	31.627	-0.080	0.067
-211.494	-32.742	0.146	0.080
-210.479	129.587	-0.037	0.046
-209.465	383.105	0.115	0.232
-208.450	152.769	0.103	-0.138
-207.436	-109.845	0.281	-0.058
-206.421	-70.873	-0.117	0.043
-205.406	116.106	-0.155	-0.187
-204.392	194.296	0.069	0.102
-203.377	417.019	0.055	-0.115
-202.363	-84.373	0.414	-0.128
-201.348	-2.295	0.160	-0.110
-200.333	23.680	0.324	-0.262
-199.319	158.998	0.112	-0.153
-198.304	-133.586	-0.117	0.014
-197.290	-177.968	-0.190	0.004
-196.275	-16.924	-0.159	0.099
-195.260	1.546	0.244	0.172
-194.246	121.218	0.235	-0.287
-193.231	-71.386	-0.104	-0.038
-192.217	-200.000	0.001	0.279
-191.202	49.903	0.180	-0.167
-190.187	800.000	0.076	0.246
-189.173	41.477	0.273	-0.243
-188.158	-90.702	-0.101	-0.029
-187.144	-92.429	-0.129	0.036
-186.129	-87.220	0.148	-0.044
-185.114	20.247	0.200	0.158
-184.100	-200.000	0.054	0.271
-183.085	-85.784	-0.375	-0.114
-182.071	48.926	0.119	0.110
-181.056	-137.966	0.263	-0.029
-180.042	643.850	-0.085	-0.212
-179.027	-154.490	0.206	-0.013
-178.012	800.000	0.072	-0.303
-176.998	231.979	-0.165	0.265
-175.983	-45.445	0.149	0.073
-174.969	86.525	-0.157	0.169
-173.954	179.676	-0.187	-0.269
-172.939	-59.185	0.151	-0.064
-171.925	800.000	-0.049	0.206
-170.910	42.557	0.040	0.035
-169.896	55.242	-0.054	-0.052
-168.881	800.000	0.039	-0.143
-167.866	262.641	-0.084	-0.143
-166.852	196.215	-0.238	-0.355
-165.837	23.763	0.049	0.040
-164.823	261.489	-0.049	-0.083
-163.808	670.836	-0.039	-0.100
-162.793	800.000	0.043	-0.172
-161.779	-27.025	0.305	0.175
-160.764	76.403	-0.100	0.104
-159.750	421.587	-0.168	0.354
-158.735	-25.943	0.302	-0.174
-157.720	55.690	-0.282	-0.267
-156.706	482.751	0.143	0.319
-155.691	155.511	0.106	-0.143
-154.677	-74.620	-0.319	-0.112
-153.662	111.123	-0.158	-0.186
-152.647	108.689	-0.103	-0.120
-151.633	-13.206	-0.283	-0.180
-150.618	-200.000	-0.038	0.204
-149.604	-180.848	-0.267	0.005
-148.589	161.066	-0.090	0.123
-147.574	80.087	0.181	0.191
-146.560	-200.000	-0.008	0.199
-145.545	-67.344	0.379	-0.146
-144.531	56.135	0.114	0.109
-143.516	-200.000	-0.018	0.084
-142.502	509.660	0.145	-0.329
-141.487	-44.651	-0.210	-0.102
-140.472	76.662	-0.118	0.123
-139.458	-112.264	0.349	-0.069
-138.443	573.263	0.079	-0.190
-137.429	-75.746	-0.199	-0.069
-136.414	-200.000	0.024	0.106
-135.399	800.000	-0.056	-0.195
-134.385	422.813	-0.031	-0.066
-133.370	0.860	0.096	0.067
-132.356	18.858	-0.329	0.258
-131.341	317.563	0.096	-0.177
-130.326	110.959	-0.228	0.268
-129.312	386.713	0.151	-0.306
-128.297	800.000	0.079	0.310
-127.283	-15.627	-0.210	0.131
-126.268	-75.827	-0.043	0.015
-125.253	-134.087	0.085	0.010
-124.239	-103.426	0.195	0.045
-123.224	-55.902	-0.212	0.093
-122.210	800.000	-0.071	0.217
-121.195	-37.187	0.155	0.081
