DTS Sentinel unit serial number:	SN413079Multiplexer serial number:	ORYXHardware model number:	OX4-SRSoftware version number:	ORYX F/W v4.00 Oryx Data Collector v3.7.2.0data status	okinstallation	princeton_trtdifferential loss correction	single-endedforward channel	channel 4reverse channel	N/Adate	2019/09/18time	19:57:34forward acquisition time	60.00reverse acquisition time	0.00gamma	496.2192k internal	0.2317k external	0.2317temperature offset calibration	1.0034default loss term (dB/km)	0.3790temperature slope calibration	1.0000multiplexer offset coefficient	1.0000multiplexer slope coefficient	1.0000fibre end	0.00T internal ref (°C)	30.59T ext. ref 1 (°C)	1.02T ext. ref 2 (°C)	21.44length (m)	temperature (°C)	Stokes	anti-Stokes-747.200	-52.166	-0.136	-0.064
-746.185	-86.895	-0.118	-0.036
-745.171	93.300	0.158	0.181
-744.156	-94.235	-0.037	0.010
-743.142	103.140	0.078	-0.092
-742.127	289.902	-0.158	-0.291
-741.112	-18.340	-0.177	-0.112
-740.098	-3.669	-0.094	0.066
-739.083	-187.341	0.167	-0.002
-738.069	74.261	0.203	-0.216
-737.054	-98.730	0.176	-0.045
-736.039	-133.550	-0.122	0.015
-735.025	800.000	0.047	0.165
-734.010	-200.000	0.018	-0.240
-732.996	-91.269	-0.201	-0.058
-731.981	-28.455	-0.163	0.095
-730.966	800.000	-0.095	-0.283
-729.952	-111.997	-0.306	0.062
-728.937	16.742	-0.265	-0.212
-727.923	-150.346	-0.140	-0.011
-726.908	-22.429	0.427	-0.262
-725.894	-181.453	-0.423	0.008
-724.879	-33.209	-0.135	-0.076
-723.864	779.594	0.042	0.115
-722.850	77.871	-0.123	0.133
-721.835	-141.117	-0.148	0.015
-720.821	355.302	-0.113	-0.227
-719.806	78.269	0.156	0.169
-718.791	-87.495	-0.262	0.080
-717.777	752.170	0.067	-0.183
-716.762	-83.245	-0.160	-0.052
-715.748	-2.290	-0.311	-0.220
-714.733	-122.737	0.153	-0.025
-713.718	-88.067	-0.222	-0.067
-712.704	267.863	-0.133	-0.235
-711.689	52.380	0.096	0.093
-710.675	-2.414	-0.083	-0.058
-709.660	-200.000	-0.013	-0.140
-708.645	-200.000	-0.009	0.119
-707.631	800.000	-0.093	0.329
-706.616	691.334	0.057	0.150
-705.602	-53.255	-0.441	-0.204
-704.587	-2.793	-0.199	-0.141
-703.572	-200.000	0.019	0.231
-702.558	-172.843	0.135	0.004
-701.543	220.215	-0.076	-0.122
-700.529	138.104	0.062	-0.083
-699.514	210.671	-0.231	0.367
-698.499	800.000	0.038	0.110
-697.485	800.000	0.068	-0.223
-696.470	-200.000	0.043	-0.196
-695.456	800.000	0.122	0.396
-694.441	174.883	0.053	-0.077
-693.426	7.622	-0.221	-0.167
-692.412	31.374	-0.349	-0.303
-691.397	800.000	-0.065	-0.268
-690.383	-200.000	0.030	-0.251
-689.368	5.698	0.094	0.070
-688.354	256.947	-0.043	0.075
-687.339	-200.000	-0.001	-0.024
-686.324	-120.552	0.256	-0.044
-685.310	300.544	-0.167	0.311
-684.295	19.058	-0.179	0.145
-683.281	-103.790	-0.170	0.040
-682.266	160.922	0.050	0.070
-681.251	352.172	-0.291	-0.582
-680.237	-66.399	-0.364	-0.146
-679.222	-179.854	-0.298	-0.006
-678.208	-70.534	-0.333	-0.127
-677.193	10.497	-0.222	-0.171
-676.178	-36.222	-0.310	-0.169
-675.164	-78.916	-0.202	0.069
-674.149	18.600	-0.071	0.057
-673.135	124.776	0.085	-0.109
-672.120	14.044	-0.186	-0.146
-671.105	-142.034	-0.455	-0.046
-670.091	467.109	0.046	0.104
-669.076	-11.355	0.214	0.142
-668.062	643.832	0.139	-0.358
-667.047	-82.808	-0.265	0.086
-666.032	133.210	-0.129	0.168
-665.018	6.535	0.199	-0.149
-664.003	706.221	0.045	-0.121
-662.989	800.000	-0.070	-0.213
-661.974	-94.104	0.473	-0.131
-660.959	-13.310	-0.278	0.182
-659.945	-137.603	-0.122	0.014
-658.930	800.000	0.127	-0.392
-657.916	-200.000	0.003	-0.282
-656.901	-25.644	-0.229	0.137
-655.886	248.394	-0.084	0.144
-654.872	-200.000	0.025	0.129
-653.857	800.000	0.073	-0.263
-652.843	766.504	-0.124	-0.340
-651.828	-10.642	0.313	-0.209
-650.814	-57.418	-0.161	0.071
-649.799	-71.453	0.019	0.007
-648.784	-101.329	0.138	0.034
-647.770	-200.000	-0.023	-0.236
-646.755	-141.179	-0.364	0.037
-645.741	418.800	-0.105	-0.227
-644.726	-134.085	0.189	-0.024
-643.711	-159.710	-0.359	0.020
-642.697	-64.895	-0.196	-0.080
-641.682	-129.946	0.306	0.042
-640.668	101.928	0.208	-0.245
-639.653	228.977	0.209	-0.343
-638.638	-70.178	-0.292	-0.112
-637.624	-46.181	0.102	0.050
-636.609	775.066	0.132	-0.363
-635.595	103.774	-0.466	-0.552
-634.580	320.604	-0.144	-0.276
-633.565	800.000	-0.066	-0.287
-632.551	-52.901	0.218	0.101
-631.536	185.484	0.035	-0.053
-630.522	-64.266	-0.368	0.151
-629.507	-200.000	-0.002	0.366
-628.492	302.869	-0.061	-0.113
-627.478	-19.297	-0.080	0.050
-626.463	-21.856	0.216	-0.132
-625.449	-200.000	0.031	-0.545
-624.434	-200.000	0.050	0.219
-623.419	12.512	-0.094	-0.073
-622.405	389.349	0.105	0.219
-621.390	-200.000	0.042	0.257
-620.376	-200.000	-0.017	0.135
-619.361	302.932	-0.279	-0.521
-618.346	80.921	0.142	-0.154
-617.332	800.000	0.078	-0.264
-616.317	800.000	0.042	-0.186
-615.303	-83.401	-0.230	0.074
-614.288	-200.000	0.061	0.357
-613.273	105.776	0.064	-0.076
-612.259	-183.703	0.100	-0.002
-611.244	-200.000	-0.005	-0.129
-610.230	0.055	-0.264	-0.190
-609.215	698.817	-0.119	-0.315
-608.201	-169.840	-0.084	0.003
-607.186	-200.000	0.021	0.286
-606.171	46.902	-0.139	-0.130
-605.157	-200.000	-0.096	-0.460
-604.142	-200.000	-0.004	-0.056
-603.128	62.810	0.185	-0.186
-602.113	8.902	-0.193	-0.147
-601.098	-75.323	0.084	-0.030
-600.084	800.000	0.096	0.277
-599.069	-200.000	0.007	0.224
-598.055	-79.242	0.201	-0.069
-597.040	-112.340	-0.278	-0.056
-596.025	-200.000	0.005	-0.237
-595.011	-103.268	-0.144	-0.034
-593.996	560.823	-0.087	-0.211
-592.982	280.267	0.123	0.220
-591.967	-60.520	-0.166	0.071
-590.952	351.544	-0.089	0.177
-589.938	800.000	0.049	-0.157
-588.923	-56.054	0.116	-0.052
-587.909	-200.000	-0.004	-0.455
-586.894	16.750	-0.248	-0.197
-585.879	-107.708	-0.155	0.034
-584.865	-11.079	0.115	0.077
-583.850	-82.845	-0.289	-0.094
-582.836	326.538	0.078	0.150
-581.821	-81.048	0.128	0.043
-580.806	35.687	-0.119	0.105
-579.792	637.045	0.071	-0.181
-578.777	174.631	-0.105	-0.153
-577.763	800.000	-0.135	-0.445
-576.748	800.000	0.083	-0.258
-575.733	23.067	0.312	-0.257
-574.719	121.226	-0.240	-0.301
-573.704	-156.992	-0.291	-0.018
-572.690	-200.000	0.014	-0.243
-571.675	800.000	0.082	-0.296
-570.661	-112.664	-0.548	-0.110
-569.646	260.556	0.178	0.309
-568.631	-80.335	-0.211	0.071
-567.617	-12.908	0.240	0.157
-566.602	243.563	0.135	-0.227
-565.588	475.868	-0.095	-0.216
-564.573	-5.663	-0.196	-0.135
-563.558	-75.534	0.088	0.031
-562.544	-69.544	0.181	-0.070
-561.529	166.164	-0.057	-0.081
-560.515	800.000	-0.116	-0.408
-559.500	84.782	-0.095	0.105
-558.485	800.000	0.054	0.226
-557.471	-200.000	0.024	0.126
-556.456	-130.947	0.118	0.016
-555.442	-200.000	-0.023	-0.177
-554.427	-200.000	-0.047	-0.355
-553.412	586.637	0.070	-0.174
-552.398	-15.969	0.043	0.028
-551.383	-173.098	0.410	0.013
-550.369	-95.261	0.052	0.014
-549.354	-200.000	0.004	-0.064
-548.339	-33.669	-0.337	0.187
-547.325	177.931	0.078	-0.115
-546.310	768.510	0.063	-0.173
-545.296	-97.342	-0.249	-0.065
-544.281	261.565	0.106	0.184
-543.266	386.539	0.066	-0.136
-542.252	137.979	0.043	0.057
-541.237	-46.612	0.319	-0.157
-540.223	268.997	-0.082	0.144
-539.208	-200.000	0.002	0.041
-538.193	-136.558	-0.453	0.053
-537.179	682.050	0.081	-0.211
-536.164	371.964	-0.096	-0.197
-535.150	-119.249	-0.241	-0.042
-534.135	-200.000	0.002	-0.071
-533.121	800.000	-0.080	-0.303
-532.106	-65.530	0.233	0.094
-531.091	761.446	-0.051	0.138
-530.077	800.000	-0.087	0.317
-529.062	13.438	0.128	0.100
-528.048	-58.355	0.160	0.070
-527.033	-18.404	0.116	-0.073
-526.018	-57.750	-0.333	-0.146
-525.004	-77.870	-0.199	-0.069
-523.989	-200.000	0.048	0.290
-522.975	-36.306	0.355	-0.192
-521.960	308.981	0.182	-0.341
-520.945	38.347	0.073	0.065
-519.931	284.581	-0.052	-0.094
-518.916	607.932	0.076	-0.190
-517.902	-156.578	-0.151	-0.009
-516.887	-48.508	-0.248	-0.120
-515.872	-12.580	-0.124	-0.081
-514.858	-87.158	0.052	-0.016
-513.843	39.023	-0.249	0.223
-512.829	540.671	0.034	0.081
-511.814	77.010	-0.126	-0.135
-510.799	507.503	0.088	0.204
-509.785	-133.646	0.275	0.034
-508.770	58.539	-0.107	-0.105
-507.756	-54.531	0.283	0.129
-506.741	21.054	0.074	0.060
-505.726	181.834	0.100	-0.147
-504.712	-112.829	-0.069	0.014
-503.697	-200.000	0.012	-0.152
-502.683	-9.323	-0.288	0.193
-501.668	723.390	-0.068	0.182
-500.653	-75.778	0.160	0.057
-499.639	299.875	-0.042	0.079
-498.624	-95.078	0.158	0.043
-497.610	203.521	-0.222	0.345
-496.595	800.000	-0.049	0.156
-495.581	546.837	0.081	-0.193
-494.566	-66.542	0.046	0.018
-493.551	800.000	-0.021	0.061
-492.537	-200.000	0.019	-0.100
-491.522	632.883	0.108	0.274
-490.508	-134.357	0.138	-0.017
-489.493	66.853	0.166	-0.169
-488.478	174.858	-0.138	-0.201
-487.464	642.931	-0.103	-0.262
-486.449	80.195	0.095	0.102
-485.435	328.316	0.161	-0.311
-484.420	-200.000	0.014	-0.241
-483.405	-200.000	0.015	-0.148
-482.391	515.743	0.044	-0.103
-481.376	-200.000	0.001	0.210
-480.362	800.000	-0.049	0.206
-479.347	-107.409	0.201	0.044
-478.332	-200.000	-0.009	0.269
-477.318	303.415	0.088	0.163
-476.303	67.795	0.045	-0.046
-475.289	800.000	-0.064	0.240
-474.274	800.000	0.062	0.237
-473.259	113.987	-0.120	0.147
-472.245	-43.588	-0.225	0.114
-471.230	-147.404	-0.158	-0.013
-470.216	-28.018	0.349	0.203
-469.201	93.040	-0.170	0.192
-468.186	-78.056	-0.377	-0.130
-467.172	-61.067	0.233	-0.098
-466.157	652.707	0.095	0.244
-465.143	583.545	0.011	0.026
-464.128	-200.000	0.014	-0.602
-463.113	-200.000	-0.030	0.224
-462.099	7.545	0.290	-0.217
-461.084	73.484	0.219	0.229
-460.070	-8.678	0.177	0.119
-459.055	162.966	-0.199	0.280
-458.040	-200.000	-0.001	-0.021
-457.026	-88.129	0.060	-0.018
-456.011	-161.079	0.213	0.011
-454.997	214.489	0.162	0.257
-453.982	22.187	0.333	-0.272
-452.968	-78.472	-0.236	0.081
-451.953	3.114	-0.227	-0.165
-450.938	-37.206	0.101	-0.054
-449.924	534.588	0.125	-0.297
-448.909	-200.000	0.034	-0.353
-447.895	-173.312	-0.163	-0.005
-446.880	-92.344	0.279	-0.079
-445.865	-200.000	-0.015	-0.115
-444.851	18.497	-0.146	0.117
-443.836	-200.000	-0.010	0.121
-442.822	-136.708	-0.023	0.003
-441.807	-132.103	0.279	-0.036
-440.792	-49.683	0.237	0.113
-439.778	-79.183	-0.167	0.057
-438.763	-200.000	-0.017	-0.283
-437.749	-149.637	-0.219	-0.017
-436.734	433.298	0.109	-0.236
-435.719	-162.486	0.295	-0.015
-434.705	-8.018	-0.264	-0.178
-433.690	154.973	0.055	0.075
-432.676	-9.389	-0.180	-0.120
-431.661	-39.008	-0.290	0.153
-430.646	-195.301	0.230	0.002
-429.632	-81.112	0.105	-0.035
-428.617	659.201	0.086	-0.221
-427.603	22.872	0.296	-0.243
-426.588	-82.899	-0.148	0.048
-425.573	-114.438	-0.275	0.053
-424.559	476.840	-0.097	0.219
-423.544	-146.000	-0.343	0.030
-422.530	3.388	-0.232	-0.169
-421.515	-120.363	0.384	-0.065
-420.500	271.329	0.120	-0.212
-419.486	800.000	-0.085	0.255
-418.471	-101.987	-0.506	0.122
-417.457	14.951	-0.130	0.102
-416.442	4.514	0.367	0.269
-415.428	-70.978	0.238	-0.089
-414.413	17.982	0.277	0.221
-413.398	338.571	-0.125	0.244
-412.384	800.000	-0.073	0.282
-411.369	-200.000	-0.029	-0.147
-410.355	566.576	-0.120	-0.291
-409.340	-55.046	-0.388	-0.174
-408.325	-37.810	0.145	0.077
-407.311	-67.682	-0.372	-0.146
-406.296	800.000	0.037	-0.106
-405.282	800.000	-0.093	0.348
-404.267	-79.745	-0.115	0.039
-403.252	28.740	0.167	0.141
-402.238	31.378	-0.131	-0.112
-401.223	-46.635	0.208	0.102
-400.209	800.000	-0.097	0.291
-399.194	390.279	0.058	-0.120
-398.179	8.712	-0.204	-0.154
-397.165	-200.000	0.000	0.009
-396.150	-65.277	-0.013	0.005
-395.136	-172.170	-0.123	-0.004
-394.121	-82.680	-0.112	0.036
-393.106	-200.000	-0.012	0.223
-392.092	223.864	0.159	0.256
-391.077	-200.000	0.010	0.092
-390.063	413.857	-0.030	0.064
-389.048	26.192	-0.202	-0.168
-388.033	122.298	-0.071	-0.089
-387.019	714.515	0.121	-0.319
-386.004	-182.016	0.286	-0.005
-384.990	57.152	0.286	0.279
-383.975	-122.409	0.256	0.042
-382.960	-105.204	0.118	0.027
-381.946	26.869	-0.044	0.037
-380.931	9.318	0.198	0.149
-379.917	-44.876	0.177	0.088
-378.902	-200.000	-0.017	0.085
-377.888	228.414	0.099	-0.161
-376.873	382.801	0.097	-0.198
-375.858	-200.000	0.016	0.178
-374.844	-200.000	-0.048	-0.280
-373.829	-200.000	0.009	0.216
-372.815	-63.979	0.194	0.079
-371.800	-34.288	0.133	-0.073
-370.785	-33.268	-0.237	0.131
-369.771	800.000	0.041	0.117
-368.756	-49.364	-0.160	0.076
-367.742	-200.000	0.007	-0.225
-366.727	177.829	-0.269	0.391
-365.712	-200.000	-0.033	-0.242
-364.698	54.249	0.147	-0.141
-363.683	-60.692	-0.140	-0.059
-362.669	285.021	0.032	-0.058
-361.654	800.000	0.058	0.224
-360.639	-200.000	0.003	0.045
-359.625	30.386	-0.239	-0.203
-358.610	-200.000	-0.046	-0.257
-357.596	383.592	0.044	-0.090
-356.581	-200.000	0.040	0.267
-355.566	124.975	0.330	0.414
-354.552	-187.961	0.294	-0.004
-353.537	-200.000	0.040	-0.191
-352.523	159.874	0.061	0.084
-351.508	-71.538	0.052	0.019
-350.493	537.872	-0.146	0.346
-349.479	4.968	-0.166	-0.122
-348.464	-106.677	-0.309	-0.069
-347.450	-90.613	0.268	-0.077
-346.435	-200.000	-0.020	-0.127
-345.420	30.810	0.092	-0.079
-344.406	-65.118	-0.217	0.087
-343.391	-200.000	-0.038	0.196
-342.377	-93.415	0.249	0.069
-341.362	-200.000	-0.014	0.357
-340.348	68.142	-0.087	-0.089
-339.333	0.488	-0.194	-0.138
-338.318	-200.000	0.006	0.447
-337.304	-75.147	0.248	-0.088
-336.289	-16.348	-0.229	0.145
-335.275	50.462	0.074	0.069
-334.260	-174.597	0.195	0.006
-333.245	69.976	0.165	-0.169
-332.231	-156.374	-0.313	0.019
-331.216	63.330	0.101	0.101
-330.202	78.135	-0.065	0.070
-329.187	256.230	-0.139	0.238
-328.172	800.000	-0.037	-0.132
-327.158	157.535	-0.087	-0.120
-326.143	97.499	-0.172	0.196
-325.129	800.000	0.047	0.163
-324.114	12.604	-0.176	-0.135
-323.099	272.727	0.233	0.410
-322.085	-200.000	-0.057	0.381
-321.070	70.047	-0.224	-0.230
-320.056	800.000	0.041	0.168
-319.041	-103.622	0.285	0.067
-318.026	-29.419	-0.134	-0.076
-317.012	-46.700	-0.282	0.138
-315.997	800.000	0.011	-0.049
-314.983	800.000	-0.044	0.140
-313.968	39.490	-0.147	-0.131
-312.953	413.408	0.102	0.216
-311.939	713.605	0.034	-0.089
-310.924	-200.000	0.006	-0.145
-309.910	201.129	0.177	0.271
-308.895	283.486	-0.181	0.324
-307.880	118.762	0.053	-0.065
-306.866	-93.019	0.288	0.080
-305.851	58.531	0.082	0.080
-304.837	263.087	0.047	0.081
-303.822	-200.000	-0.010	0.137
-302.807	800.000	-0.103	0.333
-301.793	-42.244	-0.030	-0.015
-300.778	-152.669	0.079	0.006
-299.764	-200.000	0.013	0.230
-298.749	-113.087	0.255	-0.050
-297.735	98.054	0.082	-0.094
-296.720	95.755	-0.037	-0.042
-295.705	191.528	-0.174	0.261
-294.691	250.053	-0.044	0.073
-293.676	690.075	0.035	0.090
-292.662	82.334	0.161	0.174
-291.647	-147.446	0.338	-0.028
-290.632	53.816	-0.176	0.168
-289.618	96.376	-0.064	0.073
-288.603	-200.000	-0.020	-0.296
-287.589	84.284	0.184	-0.200
-286.574	-12.277	0.084	-0.054
-285.559	220.964	-0.150	0.240
-284.545	45.991	0.148	0.136
-283.530	624.424	-0.168	0.421
-282.516	-200.000	0.008	0.154
-281.501	-121.130	0.121	0.020
-280.486	178.889	-0.226	0.328
-279.472	-139.049	-0.337	-0.036
-278.457	451.667	0.099	0.217
-277.443	800.000	-0.160	-0.506
-276.428	119.587	-0.032	-0.039
-275.413	-200.000	-0.035	0.263
-274.399	-6.251	-0.263	-0.179
-273.384	308.422	-0.034	0.063
-272.370	-168.437	0.368	0.014
-271.355	-143.277	0.109	0.010
-270.340	-92.129	-0.304	-0.085
-269.326	-200.000	0.001	0.066
-268.311	-27.115	-0.115	0.066
-267.297	104.410	0.191	0.223
-266.282	139.276	0.125	-0.164
-265.267	-6.836	0.133	0.090
-264.253	104.082	0.240	-0.281
-263.238	46.131	0.076	0.070
-262.224	623.020	-0.120	0.300
-261.209	-111.958	0.318	0.064
-260.195	-70.105	-0.052	0.020
-259.180	-200.000	0.008	0.158
-258.165	-190.991	0.106	-0.001
-257.151	-52.456	0.076	0.035
-256.136	-8.559	-0.195	0.130
-255.122	800.000	-0.076	-0.268
-254.107	116.817	0.058	-0.071
-253.092	-72.712	0.280	0.102
-252.078	-7.897	0.433	-0.290
-251.063	-200.000	-0.043	-0.225
-250.049	135.203	0.159	0.205
-249.034	-200.000	-0.017	0.246
-248.019	27.274	0.289	0.241
-247.005	381.894	0.067	0.136
-245.990	59.379	-0.360	0.352
-244.976	35.387	0.058	-0.051
-243.961	392.905	0.198	0.409
-242.946	-8.289	-0.143	0.095
-241.932	-145.549	0.184	0.016
-240.917	-200.000	-0.003	0.191
-239.903	413.684	0.064	-0.136
-238.888	-84.916	-0.263	-0.082
-237.873	800.000	0.050	0.192
-236.859	-36.510	-0.279	-0.149
-235.844	-200.000	-0.017	-0.241
-234.830	214.903	0.125	0.196
-233.815	-95.613	-0.200	0.053
-232.800	-26.075	0.110	-0.064
-231.786	59.279	-0.073	-0.071
-230.771	800.000	-0.099	-0.318
-229.757	41.949	-0.267	0.240
-228.742	-200.000	0.026	0.171
-227.727	-200.000	0.052	-0.317
-226.713	-100.613	-0.151	-0.037
-225.698	297.818	0.116	0.212
-224.684	-3.924	0.140	0.096
-223.669	149.616	-0.196	-0.263
-222.655	-200.000	-0.042	-0.215
-221.640	-200.000	-0.008	0.070
-220.625	45.784	0.073	0.067
-219.611	470.316	0.112	0.250
-218.596	-15.919	-0.255	-0.161
-217.582	-141.832	0.343	0.034
-216.567	402.290	-0.083	0.173
-215.552	87.817	-0.192	0.211
-214.538	293.711	0.123	0.223
-213.523	284.028	-0.039	0.069
-212.509	342.032	0.200	0.388
-211.494	495.775	-0.019	-0.043
-210.479	91.281	0.097	-0.108
-209.465	254.047	-0.180	-0.305
-208.450	800.000	0.050	0.166
-207.436	-31.397	0.253	-0.141
-206.421	-200.000	0.048	-0.255
-205.406	135.753	-0.164	-0.212
-204.392	15.354	0.293	0.228
-203.377	7.075	-0.148	0.109
-202.363	-91.964	-0.280	0.078
-201.348	-52.223	-0.265	-0.122
-200.333	367.711	-0.166	-0.333
-199.319	-200.000	-0.013	0.271
-198.304	-200.000	0.084	0.368
-197.290	-95.407	-0.452	0.120
-196.275	-59.171	0.172	-0.073
-195.260	224.097	-0.166	0.265
-194.246	143.200	-0.122	-0.161
-193.231	536.491	-0.119	0.280
-192.217	-200.000	0.040	0.239
-191.202	800.000	-0.053	-0.159
-190.187	-28.045	-0.014	-0.008
-189.173	352.439	0.180	0.354
-188.158	-29.677	-0.059	0.033
-187.144	-200.000	-0.023	0.125
-186.129	71.124	-0.054	0.055
-185.114	400.560	0.119	-0.248
-184.100	575.983	0.182	-0.440
-183.085	-83.618	0.334	0.106
-182.071	-108.280	-0.029	0.006
-181.056	268.867	0.124	0.216
-180.042	-200.000	-0.020	-0.175
-179.027	-102.943	0.224	0.053
-178.012	59.689	-0.047	0.046
-176.998	13.559	0.106	-0.082
-175.983	29.595	0.181	-0.153
-174.969	-200.000	0.021	-0.497
-173.954	-200.000	-0.042	-0.217
-172.939	196.511	0.069	-0.104
-171.925	-49.526	0.186	0.088
-170.910	1.409	0.235	-0.167
-169.896	3.425	-0.128	-0.092
-168.881	-43.549	-0.224	0.112
-167.866	-146.408	-0.030	0.003
-166.852	74.025	-0.253	-0.263
-165.837	516.929	0.058	-0.133
-164.823	31.598	0.219	-0.186
-163.808	-200.000	0.020	-0.107
-162.793	231.951	-0.111	0.180
-161.779	-200.000	-0.045	0.484
-160.764	-200.000	0.015	-0.214
-159.750	-24.988	-0.228	0.134
-158.735	64.053	0.250	-0.249
-157.720	722.243	-0.181	0.476
-156.706	-141.669	0.111	-0.011
-155.691	800.000	-0.038	0.141
-154.677	-27.658	0.155	0.089
-153.662	622.115	0.085	-0.212
-152.647	-165.844	0.278	0.012
-151.633	-79.220	-0.232	-0.078
-150.618	800.000	0.060	-0.164
-149.604	-105.609	0.332	0.074
-148.589	92.733	0.087	0.097
-147.574	127.472	-0.086	0.108
-146.560	72.337	-0.151	0.156
-145.545	-88.127	-0.040	-0.012
-144.531	-200.000	-0.021	0.142
-143.516	-157.712	-0.147	-0.009
-142.502	-58.274	0.215	0.093
-141.487	186.806	0.088	0.129
-140.472	-55.082	-0.081	0.036
-139.458	-7.262	0.350	0.234
-138.443	29.111	0.199	0.167
-137.429	117.214	0.065	-0.079
-136.414	20.868	0.175	0.140
-135.399	-200.000	-0.052	0.427
-134.385	324.339	-0.081	0.153
-133.370	67.358	-0.134	0.136
-132.356	800.000	0.068	-0.191
-131.341	-200.000	0.004	-0.156
-130.326	-200.000	-0.233	-0.001
-129.312	-200.000	-0.043	-0.236
-128.297	-94.812	0.245	0.066
-127.283	-200.000	-0.062	0.274
-126.268	-64.529	0.119	0.048
-125.253	520.067	0.134	0.311
-124.239	170.777	-0.119	-0.168
-123.224	-200.000	0.059	-0.532
-122.210	-122.372	-0.355	0.057
-121.195	211.946	0.089	0.139
-120.180	-133.624	0.311	0.038
