DTS Sentinel unit serial number:	SN413079Multiplexer serial number:	ORYXHardware model number:	OX4-SRSoftware version number:	ORYX F/W v4.00 Oryx Data Collector v3.7.2.0data status	okinstallation	princeton_trtdifferential loss correction	single-endedforward channel	channel 4reverse channel	N/Adate	2019/09/19time	05:57:35forward acquisition time	60.00reverse acquisition time	0.00gamma	496.2192k internal	0.2340k external	0.2340temperature offset calibration	1.0030default loss term (dB/km)	0.3790temperature slope calibration	1.0000multiplexer offset coefficient	1.0000multiplexer slope coefficient	1.0000fibre end	0.00T internal ref (°C)	19.17T ext. ref 1 (°C)	0.58T ext. ref 2 (°C)	12.82length (m)	temperature (°C)	Stokes	anti-Stokes-747.200	4.912	0.174	0.129
-746.185	2.561	0.299	0.217
-745.171	458.584	0.157	0.351
-744.156	-118.004	-0.103	0.018
-743.142	-35.823	0.428	-0.233
-742.127	43.831	-0.038	-0.035
-741.112	624.067	-0.033	0.083
-740.098	-11.030	-0.139	0.092
-739.083	14.688	0.358	0.280
-738.069	331.098	-0.046	0.088
-737.054	-71.139	0.229	0.086
-736.039	-114.298	-0.395	-0.076
-735.025	-199.257	0.209	-0.001
-734.010	-111.718	-0.225	-0.046
-732.996	643.003	-0.066	-0.168
-731.981	496.151	-0.188	-0.434
-730.966	-134.774	-0.221	0.027
-729.952	-134.908	-0.531	0.064
-728.937	355.867	-0.150	-0.299
-727.923	-200.000	-0.020	-0.129
-726.908	361.548	-0.081	-0.162
-725.894	-200.000	-0.076	-0.447
-724.879	-125.175	0.025	0.004
-723.864	-200.000	-0.077	-0.481
-722.850	363.974	-0.141	0.284
-721.835	234.665	-0.056	-0.092
-720.821	-200.000	-0.023	0.118
-719.806	-123.298	-0.537	-0.086
-718.791	800.000	0.083	0.247
-717.777	-125.205	-0.387	-0.059
-716.762	164.475	-0.107	0.151
-715.748	100.768	-0.048	-0.056
-714.733	-200.000	0.051	-0.309
-713.718	72.739	-0.174	-0.182
-712.704	-3.882	0.049	0.034
-711.689	-200.000	-0.032	-0.393
-710.675	11.059	-0.257	-0.197
-709.660	-24.257	-0.187	-0.112
-708.645	-11.852	0.229	0.151
-707.631	534.541	0.050	0.119
-706.616	97.050	0.120	0.138
-705.602	402.869	0.062	0.131
-704.587	-93.155	0.287	-0.080
-703.572	516.095	-0.073	-0.171
-702.558	7.505	0.138	-0.104
-701.543	-122.688	-0.244	0.040
-700.529	-200.000	-0.009	-0.067
-699.514	155.355	0.098	-0.135
-698.499	749.340	0.102	-0.275
-697.485	259.383	0.121	-0.209
-696.470	32.654	0.055	-0.047
-695.456	-200.000	-0.039	-0.211
-694.441	431.325	-0.044	0.095
-693.426	-78.048	-0.367	-0.126
-692.412	-200.000	0.048	-0.252
-691.397	47.711	0.125	-0.116
-690.383	-3.947	0.152	0.106
-689.368	113.437	-0.088	0.106
-688.354	583.594	-0.058	0.143
-687.339	126.529	0.219	-0.278
-686.324	-155.567	-0.305	-0.020
-685.310	167.343	-0.205	0.292
-684.295	105.653	0.303	0.358
-683.281	-176.956	-0.122	-0.003
-682.266	-200.000	0.023	-0.127
-681.251	216.315	-0.076	-0.122
-680.237	800.000	-0.016	-0.068
-679.222	-51.554	0.248	0.116
-678.208	-76.254	0.027	0.009
-677.193	-83.157	-0.392	0.126
-676.178	-200.000	0.019	0.265
-675.164	120.974	-0.133	-0.166
-674.149	-200.000	-0.021	-0.221
-673.135	-200.000	0.002	-0.011
-672.120	-200.000	0.040	-0.364
-671.105	120.592	0.141	0.175
-670.091	-33.938	0.209	0.115
-669.076	477.532	-0.134	-0.303
-668.062	-29.513	0.277	-0.158
-667.047	800.000	-0.086	-0.265
-666.032	74.162	-0.140	0.147
-665.018	8.913	0.242	0.183
-664.003	-200.000	0.008	0.232
-662.989	36.440	-0.101	-0.089
-661.974	-187.363	-0.094	-0.001
-660.959	800.000	-0.088	0.276
-659.945	-31.087	-0.071	-0.040
-658.930	-200.000	-0.135	0.000
-657.916	-200.000	0.016	-0.205
-656.901	-200.000	-0.004	-0.174
-655.886	-20.799	-0.214	0.131
-654.872	800.000	-0.029	-0.097
-653.857	19.127	-0.159	-0.127
-652.843	697.772	-0.025	0.066
-651.828	-200.000	-0.029	0.145
-650.814	428.711	-0.206	-0.446
-649.799	-124.434	-0.121	-0.019
-648.784	-90.676	-0.109	-0.032
-647.770	-148.502	-0.309	-0.025
-646.755	800.000	-0.080	-0.336
-645.741	376.328	0.078	-0.159
-644.726	-36.336	-0.328	0.177
-643.711	226.669	0.147	0.238
-642.697	-37.536	-0.150	0.080
-641.682	-35.821	0.087	0.047
-640.668	29.356	-0.128	0.109
-639.653	70.278	-0.036	0.037
-638.638	-200.000	-0.005	-0.254
-637.624	-62.589	-0.405	-0.168
-636.609	710.229	-0.088	-0.231
-635.595	-24.698	0.103	0.061
-634.580	15.263	-0.197	-0.154
-633.565	716.186	-0.026	-0.068
-632.551	-200.000	-0.028	-0.127
-631.536	228.352	0.184	-0.300
-630.522	159.223	-0.242	-0.336
-629.507	654.512	-0.106	-0.270
-628.492	49.848	-0.311	-0.293
-627.478	6.686	0.185	0.137
-626.463	-82.995	-0.392	-0.126
-625.449	275.869	0.204	-0.361
-624.434	142.769	-0.006	-0.008
-623.419	-200.000	-0.051	-0.365
-622.405	-86.271	0.072	-0.022
-621.390	12.937	-0.119	-0.092
-620.376	-174.728	-0.230	-0.006
-619.361	-200.000	-0.004	0.250
-618.346	-200.000	0.052	-0.228
-617.332	-107.364	-0.130	-0.028
-616.317	199.590	0.013	0.019
-615.303	179.131	-0.079	0.115
-614.288	-200.000	0.003	0.151
-613.273	746.339	-0.152	0.409
-612.259	-15.304	0.196	0.125
-611.244	-160.537	-0.157	0.008
-610.230	180.595	-0.079	0.115
-609.215	-42.974	0.132	-0.067
-608.201	800.000	0.073	-0.305
-607.186	-200.000	0.026	-0.289
-606.171	-182.774	0.130	-0.002
-605.157	-153.009	-0.134	-0.009
-604.142	340.968	-0.036	0.071
-603.128	-109.390	-0.458	0.097
-602.113	-200.000	0.080	-0.419
-601.098	37.867	-0.197	-0.174
-600.084	-141.519	0.199	0.020
-599.069	-200.000	0.011	-0.074
-598.055	-146.974	-0.205	0.018
-597.040	62.508	-0.123	-0.122
-596.025	800.000	0.115	0.319
-595.011	-81.310	-0.188	-0.062
-593.996	8.714	-0.224	0.168
-592.982	800.000	0.055	0.198
-591.967	-154.658	-0.154	-0.010
-590.952	41.182	0.098	0.088
-589.938	-163.587	0.128	-0.006
-588.923	-200.000	-0.005	-0.045
-587.909	24.902	0.225	0.185
-586.894	-78.737	-0.180	-0.061
-585.879	-200.000	-0.004	-0.186
-584.865	-70.588	-0.145	0.055
-583.850	105.299	-0.334	-0.393
-582.836	240.808	-0.205	-0.340
-581.821	-200.000	-0.042	-0.344
-580.806	465.069	-0.194	0.431
-579.792	-102.762	0.248	-0.059
-578.777	-200.000	0.003	0.238
-577.763	-83.828	-0.339	-0.108
-576.748	-35.838	0.198	0.107
-575.733	-46.326	-0.235	-0.115
-574.719	355.151	-0.103	0.205
-573.704	17.747	0.128	-0.101
-572.690	32.642	0.106	0.092
-571.675	-123.493	-0.223	0.035
-570.661	711.024	-0.061	-0.160
-569.646	-83.375	-0.403	-0.129
-568.631	-200.000	-0.018	-0.164
-567.617	-47.817	-0.261	-0.126
-566.602	800.000	-0.087	-0.266
-565.588	-62.462	0.182	-0.075
-564.573	565.708	-0.122	-0.293
-563.558	294.313	0.047	0.086
-562.544	-89.575	-0.074	-0.022
-561.529	-4.723	-0.154	0.105
-560.515	588.106	0.079	0.194
-559.500	71.128	-0.210	-0.216
-558.485	165.929	0.049	-0.069
-557.471	111.352	-0.044	0.053
-556.456	-19.503	-0.117	0.072
-555.442	-188.426	0.193	0.002
-554.427	72.608	0.044	0.046
-553.412	178.318	0.088	-0.127
-552.398	-70.476	0.310	0.117
-551.383	-137.334	0.206	-0.023
-550.369	136.698	0.110	-0.143
-549.354	-31.211	-0.074	0.042
-548.339	-200.000	-0.041	-0.181
-547.325	-63.529	-0.280	-0.114
-546.310	-200.000	0.052	0.234
-545.296	135.262	-0.310	0.401
-544.281	-200.000	-0.045	-0.445
-543.266	-66.566	0.270	-0.107
-542.252	-21.736	-0.223	-0.135
-541.237	29.906	0.188	0.159
-540.223	800.000	-0.062	0.211
-539.208	-113.443	0.033	-0.006
-538.193	-95.271	-0.407	0.109
-537.179	-16.284	0.231	0.146
-536.164	-19.034	-0.058	0.036
-535.150	-100.421	0.250	0.062
-534.135	248.043	-0.034	0.057
-533.121	-90.649	-0.071	-0.020
-532.106	-162.038	0.262	-0.013
-531.091	-91.969	-0.243	-0.068
-530.077	110.615	-0.253	0.302
-529.062	20.879	-0.170	0.137
-528.048	17.539	-0.115	0.091
-527.033	-111.338	0.037	0.008
-526.018	-18.928	0.037	-0.023
-525.004	-99.890	0.418	0.104
-523.989	-46.556	-0.367	0.179
-522.975	-6.141	-0.196	-0.133
-521.960	-173.328	0.130	-0.004
-520.945	-152.887	0.127	0.009
-519.931	-71.841	0.067	0.025
-518.916	-102.889	-0.205	0.049
-517.902	800.000	0.080	-0.245
-516.887	-165.792	-0.198	0.008
-515.872	-200.000	-0.015	-0.214
-514.858	-14.087	0.098	0.063
-513.843	800.000	-0.097	-0.303
-512.829	138.366	0.152	0.198
-511.814	-75.256	0.244	0.087
-510.799	29.843	-0.220	-0.186
-509.785	-67.162	-0.461	0.180
-508.770	-72.410	0.280	0.103
-507.756	511.470	-0.089	0.206
-506.741	-4.281	0.154	0.106
-505.726	-94.747	0.243	-0.066
-504.712	800.000	0.132	0.419
-503.697	-67.058	-0.040	-0.016
-502.683	-66.390	0.114	-0.045
-501.668	58.744	0.102	-0.099
-500.653	-115.354	0.235	-0.044
-499.639	800.000	0.075	0.252
-498.624	-14.153	-0.180	0.116
-497.610	-13.788	-0.494	-0.317
-496.595	279.417	0.120	0.213
-495.581	-200.000	-0.007	0.081
-494.566	800.000	0.073	-0.237
-493.551	-7.972	-0.163	0.109
-492.537	-52.116	0.276	0.127
-491.522	-111.457	-0.092	0.019
-490.508	-73.616	0.318	-0.115
-489.493	194.268	0.058	0.087
-488.478	-200.000	0.002	0.022
-487.464	-66.803	0.169	-0.066
-486.449	289.981	0.047	-0.085
-485.435	-155.004	0.153	0.010
-484.420	291.460	0.163	0.295
-483.405	50.439	0.148	-0.139
-482.391	-131.916	0.119	0.015
-481.376	-153.479	-0.408	-0.028
-480.362	-200.000	-0.001	0.132
-479.347	173.535	-0.133	-0.190
-478.332	134.077	-0.290	0.372
-477.318	-11.234	-0.243	0.159
-476.303	-116.458	-0.161	0.030
-475.289	2.779	-0.167	0.120
-474.274	-53.743	0.249	0.113
-473.259	-99.352	0.203	-0.051
-472.245	-51.445	0.370	0.172
-471.230	-61.165	-0.271	0.113
-470.216	290.351	-0.068	-0.123
-469.201	100.897	0.065	0.075
-468.186	800.000	-0.034	-0.138
-467.172	-200.000	-0.013	0.184
-466.157	-142.355	-0.226	0.022
-465.143	-121.072	0.086	-0.014
-464.128	-9.913	-0.336	0.222
-463.113	-68.760	-0.125	0.048
-462.099	-167.860	-0.090	-0.004
-461.084	-200.000	-0.008	-0.250
-460.070	-200.000	0.025	0.112
-459.055	48.173	0.159	0.147
-458.040	-54.789	0.364	0.163
-457.026	800.000	-0.085	-0.238
-456.011	20.598	-0.054	0.043
-454.997	467.506	0.123	-0.274
-453.982	417.364	0.132	0.279
-452.968	21.369	-0.266	0.215
-451.953	156.246	-0.074	-0.101
-450.938	-113.669	0.210	-0.041
-449.924	-131.138	0.112	-0.015
-448.909	94.718	0.151	0.170
-447.895	-148.038	-0.223	-0.018
-446.880	-58.163	0.526	0.227
-445.865	-1.424	-0.190	-0.133
-444.851	-200.000	0.004	0.242
-443.836	-200.000	0.007	0.226
-442.822	-102.590	0.398	-0.094
-441.807	360.942	-0.192	-0.381
-440.792	213.271	-0.085	0.132
-439.778	-55.015	-0.059	-0.027
-438.763	153.888	-0.120	0.163
-437.749	-93.414	-0.052	-0.014
-436.734	91.595	0.046	-0.051
-435.719	-123.804	0.192	0.030
-434.705	-138.213	0.240	-0.026
-433.690	-135.118	-0.439	0.052
-432.676	50.361	0.125	0.117
-431.661	-21.678	0.098	0.059
-430.646	576.731	-0.082	-0.199
-429.632	-200.000	-0.016	-0.396
-428.617	716.390	-0.087	0.229
-427.603	332.676	-0.043	-0.082
-426.588	-75.539	0.262	0.092
-425.573	-4.281	0.358	-0.245
-424.559	-108.865	-0.150	-0.032
-423.544	800.000	0.040	0.112
-422.530	800.000	-0.096	-0.277
-421.515	47.379	-0.122	-0.112
-420.500	800.000	-0.040	-0.150
-419.486	135.276	0.190	-0.244
-418.471	2.467	0.224	-0.161
-417.457	61.483	-0.137	0.135
-416.442	-200.000	0.010	0.386
-415.428	-150.872	0.414	0.031
-414.413	-200.000	0.020	0.131
-413.398	390.119	0.139	-0.284
-412.384	-144.767	-0.307	-0.028
-411.369	72.017	0.088	0.091
-410.355	-31.358	0.067	0.038
-409.340	718.950	-0.106	-0.280
-408.325	534.732	-0.061	0.144
-407.311	-16.149	0.231	0.145
-406.296	-200.000	0.080	0.560
-405.282	296.075	-0.097	0.177
-404.267	4.779	-0.113	-0.082
-403.252	-200.000	-0.036	0.493
-402.238	-200.000	0.019	0.115
-401.223	-83.760	-0.194	0.061
-400.209	-200.000	0.023	-0.300
-399.194	-140.254	-0.108	-0.011
-398.179	-200.000	-0.031	-0.417
-397.165	221.698	-0.060	0.095
-396.150	562.750	0.039	0.093
-395.136	800.000	0.051	-0.220
-394.121	-32.440	0.204	-0.113
-393.106	-200.000	-0.067	-0.379
-392.092	-31.449	0.136	0.076
-391.077	167.990	0.138	0.194
-390.063	-21.327	0.068	0.041
-389.048	21.843	-0.314	0.253
-388.033	-200.000	0.093	0.458
-387.019	-156.531	-0.147	-0.009
-386.004	-37.469	-0.326	0.172
-384.990	-167.005	-0.340	-0.014
-383.975	-200.000	-0.009	0.291
-382.960	-151.906	0.236	0.017
-381.946	-64.806	-0.141	0.056
-380.931	270.565	0.093	0.163
-379.917	-58.712	0.207	0.088
-378.902	-181.541	0.068	-0.001
-377.888	127.739	-0.116	-0.146
-376.873	800.000	0.068	-0.239
-375.858	-25.162	0.155	-0.091
-374.844	-32.619	0.276	-0.152
-373.829	557.726	-0.051	0.123
-372.815	13.320	0.099	0.076
-371.800	-0.792	0.383	0.268
-370.785	158.028	0.113	0.154
-369.771	-123.761	0.195	0.030
-368.756	-150.875	-0.255	-0.019
-367.742	-121.359	-0.234	0.038
-366.727	-74.695	-0.263	0.093
-365.712	23.741	0.114	0.093
-364.698	800.000	0.050	0.196
-363.683	-22.641	0.265	0.158
-362.669	29.482	0.103	0.086
-361.654	14.611	0.312	0.241
-360.639	75.248	-0.138	0.144
-359.625	80.451	-0.123	0.131
-358.610	-200.000	-0.019	0.267
-357.596	-200.000	-0.039	-0.226
-356.581	205.318	-0.151	-0.231
-355.566	-200.000	-0.013	0.211
-354.552	800.000	-0.044	0.171
-353.537	-191.366	0.318	-0.003
-352.523	206.780	-0.194	-0.299
-351.508	691.744	0.111	-0.288
-350.493	-200.000	0.051	0.293
-349.479	73.357	-0.043	-0.045
-348.464	10.201	-0.060	0.045
-347.450	-106.213	0.150	-0.033
-346.435	-100.332	-0.223	0.055
-345.420	-106.315	0.114	-0.025
-344.406	800.000	0.053	-0.161
-343.391	-148.853	0.096	0.008
-342.377	54.176	-0.069	0.065
-341.362	-153.502	-0.168	0.011
-340.348	157.344	0.144	0.196
-339.333	0.558	-0.186	0.132
-338.318	34.896	0.121	-0.105
-337.304	-121.196	-0.258	0.043
-336.289	-145.663	-0.333	0.029
-335.275	127.353	0.189	0.236
-334.260	24.360	-0.126	0.102
-333.245	-140.446	0.412	-0.042
-332.231	-46.356	0.497	-0.241
-331.216	800.000	-0.054	-0.224
-330.202	-200.000	-0.014	0.300
-329.187	-122.726	0.340	0.054
-328.172	-200.000	-0.008	-0.101
-327.158	153.114	0.311	-0.420
-326.143	-121.002	0.343	-0.057
-325.129	114.821	-0.196	0.236
-324.114	-110.068	0.119	0.024
-323.099	-34.545	-0.271	0.146
-322.085	-200.000	-0.032	0.240
-321.070	692.831	-0.125	-0.323
-320.056	760.851	-0.095	-0.253
-319.041	183.993	-0.123	0.179
-318.026	800.000	0.084	-0.242
-317.012	-200.000	0.073	-0.315
-315.997	-200.000	0.023	0.287
-314.983	-56.710	-0.257	0.112
-313.968	-71.417	-0.218	0.081
-312.953	-143.246	-0.115	-0.011
-311.939	-144.242	0.395	-0.036
-310.924	292.422	0.063	0.113
-309.910	4.648	-0.153	0.110
-308.895	33.724	-0.222	-0.190
-307.880	-200.000	-0.047	-0.359
-306.866	-200.000	-0.001	-0.102
-305.851	-200.000	0.056	0.332
-304.837	-80.096	0.363	-0.120
-303.822	-200.000	-0.022	0.214
-302.807	-72.222	-0.032	-0.012
-301.793	48.172	0.238	-0.219
-300.778	29.043	-0.128	-0.107
-299.764	-200.000	-0.018	-0.365
-298.749	12.967	0.161	0.123
-297.735	174.264	0.131	0.186
-296.720	-200.000	0.036	-0.226
-295.705	47.309	0.250	-0.229
-294.691	-200.000	-0.017	-0.081
-293.676	228.562	0.040	-0.065
-292.662	-136.610	0.123	-0.014
-291.647	-36.706	-0.109	0.058
-290.632	800.000	0.056	0.236
-289.618	642.355	-0.065	0.163
-288.603	-200.000	-0.008	-0.390
-287.589	32.149	-0.148	0.126
-286.574	52.264	-0.189	-0.177
-285.559	0.608	0.216	0.152
-284.545	800.000	0.114	0.406
-283.530	-60.238	-0.399	-0.167
-282.516	-93.354	0.253	-0.069
-281.501	-82.178	0.271	0.087
-280.486	-64.574	0.150	0.060
-279.472	-16.535	-0.299	-0.186
-278.457	-6.356	0.102	0.069
-277.443	169.868	-0.073	-0.103
-276.428	203.094	-0.074	0.112
-275.413	800.000	-0.077	0.226
-274.399	-129.154	-0.229	-0.032
-273.384	-200.000	0.021	-0.139
-272.370	-0.109	0.070	0.049
-271.355	141.461	-0.194	0.252
-270.340	-200.000	0.010	-0.257
-269.326	15.529	0.249	-0.193
-268.311	-67.863	0.028	0.011
-267.297	-200.000	0.001	0.089
-266.282	30.116	0.268	0.225
-265.267	-200.000	0.074	-0.409
-264.253	-39.511	-0.178	-0.092
-263.238	-20.408	-0.437	0.265
-262.224	200.106	-0.024	-0.036
-261.209	178.069	0.112	-0.161
-260.195	-42.293	0.273	0.137
-259.180	65.833	-0.232	0.231
-258.165	4.887	-0.171	-0.124
-257.151	-43.929	-0.112	-0.055
-256.136	59.371	0.296	0.287
-255.122	-2.824	0.208	0.143
-254.107	268.759	0.043	0.074
-253.092	197.978	0.072	0.109
-252.078	-179.787	-0.094	-0.002
-251.063	-200.000	0.023	0.226
-250.049	419.120	-0.072	-0.152
-249.034	-40.810	0.146	0.074
-248.019	-200.000	-0.027	0.156
-247.005	-200.000	0.036	-0.292
-245.990	337.419	0.140	-0.268
-244.976	581.596	0.075	-0.182
-243.961	20.207	0.076	0.060
-242.946	735.011	-0.033	-0.086
-241.932	365.117	0.101	-0.200
-240.917	37.415	0.105	0.092
-239.903	-39.485	0.122	-0.063
-238.888	150.553	0.125	0.166
-237.873	-200.000	-0.001	0.023
-236.859	176.309	0.087	-0.124
-235.844	-159.573	0.251	0.014
-234.830	47.080	0.096	0.088
-233.815	-69.976	0.536	-0.201
-232.800	210.025	0.127	0.196
-231.786	226.141	-0.088	-0.140
-230.771	242.882	0.090	0.148
-229.757	-95.456	-0.164	-0.043
-228.742	-200.000	0.012	-0.222
-227.727	121.270	-0.091	0.112
-226.713	800.000	0.003	0.011
-225.698	-200.000	-0.001	-0.182
-224.684	-81.495	0.235	-0.076
-223.669	800.000	-0.077	0.236
-222.655	243.437	0.116	-0.192
-221.640	-95.955	0.073	0.019
-220.625	-200.000	-0.024	-0.170
-219.611	-200.000	0.072	0.444
-218.596	129.407	0.215	0.269
-217.582	216.604	0.144	-0.225
-216.567	-146.878	0.424	-0.036
-215.552	800.000	0.094	-0.316
-214.538	271.802	-0.043	-0.074
-213.523	800.000	0.021	0.071
-212.509	-11.186	0.072	0.047
-211.494	675.285	0.143	-0.365
-210.479	800.000	0.107	-0.332
-209.465	-53.637	-0.354	0.159
-208.450	-200.000	0.020	0.173
-207.436	170.585	0.110	-0.155
-206.421	-130.892	0.145	0.019
-205.406	371.996	-0.182	-0.363
-204.392	800.000	-0.030	-0.097
-203.377	58.477	0.100	0.096
-202.363	243.149	0.107	-0.176
-201.348	-24.253	0.260	-0.152
-200.333	-200.000	-0.032	0.375
-199.319	800.000	0.068	-0.288
-198.304	800.000	0.036	0.151
-197.290	-5.486	-0.424	0.286
-196.275	-20.457	0.205	0.124
-195.260	-100.667	-0.107	-0.026
-194.246	800.000	0.044	0.125
-193.231	2.924	-0.033	-0.024
-192.217	-200.000	-0.006	-0.094
-191.202	-95.732	0.302	-0.079
-190.187	-118.551	0.168	0.029
-189.173	800.000	-0.052	0.142
-188.158	-46.045	0.225	0.109
-187.144	542.867	-0.130	-0.305
-186.129	-65.293	0.111	-0.044
-185.114	-200.000	0.046	0.337
-184.100	-95.116	-0.195	-0.052
-183.085	213.851	0.074	0.115
-182.071	-20.933	0.155	-0.093
-181.056	98.226	0.249	-0.281
-180.042	800.000	0.009	0.026
-179.027	-200.000	-0.016	-0.161
-178.012	-175.691	-0.156	-0.004
-176.998	5.274	-0.376	0.272
-175.983	651.403	-0.053	0.134
-174.969	412.139	0.160	0.333
-173.954	-200.000	-0.014	0.098
-172.939	-54.324	0.069	-0.031
-171.925	36.064	0.101	0.087
-170.910	-98.736	-0.235	0.059
-169.896	258.842	-0.166	0.281
-168.881	643.755	0.101	-0.251
-167.866	110.919	-0.195	-0.230
-166.852	27.021	-0.108	-0.089
-165.837	60.245	-0.096	-0.093
-164.823	-52.566	-0.196	0.089
-163.808	163.906	-0.119	-0.164
-162.793	-200.000	-0.026	0.139
-161.779	-19.176	-0.242	-0.147
-160.764	94.819	0.275	-0.307
-159.750	800.000	-0.073	-0.296
-158.735	-53.297	-0.208	-0.093
-157.720	240.334	0.050	0.082
-156.706	-158.375	-0.251	0.014
-155.691	-126.334	-0.247	-0.036
-154.677	-200.000	0.027	0.155
-153.662	-200.000	0.012	-0.228
-152.647	305.228	0.109	0.198
-151.633	26.683	0.248	0.203
-150.618	10.874	-0.106	-0.079
-149.604	-200.000	-0.011	-0.128
-148.589	-66.361	0.067	0.026
-147.574	-68.570	0.258	-0.098
-146.560	-85.049	0.246	0.075
-145.545	-47.201	0.173	0.083
-144.531	800.000	0.016	-0.051
-143.516	122.724	0.102	-0.124
-142.502	-200.000	0.026	-0.209
-141.487	-200.000	-0.040	-0.262
-140.472	402.312	0.100	-0.206
-139.458	463.043	-0.040	-0.088
-138.443	47.423	-0.170	-0.155
-137.429	-200.000	-0.033	-0.149
-136.414	64.543	0.211	-0.209
-135.399	454.699	-0.126	0.274
-134.385	-10.077	-0.046	-0.030
-133.370	47.001	0.088	0.080
-132.356	-47.913	0.085	0.040
-131.341	-113.803	0.145	0.028
-130.326	-167.724	-0.323	-0.013
-129.312	30.807	-0.194	-0.163
-128.297	-140.146	0.479	-0.049
-127.283	-200.000	0.071	0.418
-126.268	-44.176	0.348	0.171
-125.253	-26.127	0.115	0.066
-124.239	421.758	0.103	0.216
-123.224	-138.655	0.146	-0.016
-122.210	-102.121	-0.331	0.078
