DTS Sentinel unit serial number:	SN413079Multiplexer serial number:	ORYXHardware model number:	OX4-SRSoftware version number:	ORYX F/W v4.00 Oryx Data Collector v3.7.2.0data status	okinstallation	princeton_trtdifferential loss correction	single-endedforward channel	channel 4reverse channel	N/Adate	2019/09/16time	18:53:35forward acquisition time	60.00reverse acquisition time	0.00gamma	496.2192k internal	0.2304k external	0.2304temperature offset calibration	0.9962default loss term (dB/km)	0.3790temperature slope calibration	1.0000multiplexer offset coefficient	1.0000multiplexer slope coefficient	1.0000fibre end	0.00T internal ref (°C)	35.81T ext. ref 1 (°C)	0.06T ext. ref 2 (°C)	29.14length (m)	temperature (°C)	Stokes	anti-Stokes-747.200	269.884	0.042	0.074
-746.185	-195.201	0.235	-0.002
-745.171	-172.585	0.208	0.007
-744.156	800.000	-0.111	0.422
-743.142	392.333	-0.091	-0.193
-742.127	-0.941	-0.089	0.064
-741.112	-159.191	-0.067	-0.004
-740.098	0.320	0.117	0.085
-739.083	397.422	-0.025	0.054
-738.069	-63.444	-0.145	0.061
-737.054	800.000	-0.131	0.400
-736.039	-200.000	0.005	0.124
-735.025	138.360	0.233	0.311
-734.010	-71.603	0.307	-0.117
-732.996	-164.878	-0.166	0.008
-731.981	800.000	-0.041	0.150
-730.966	-185.558	-0.153	0.002
-729.952	-119.494	-0.190	0.034
-728.937	-155.145	-0.258	-0.017
-727.923	-44.541	-0.063	0.032
-726.908	-94.569	-0.068	0.019
-725.894	-157.343	0.123	-0.008
-724.879	-200.000	-0.001	-0.123
-723.864	-200.000	-0.001	-0.054
-722.850	15.936	0.206	0.165
-721.835	-19.165	-0.172	0.108
-720.821	-91.368	0.298	-0.087
-719.806	516.552	-0.043	-0.102
-718.791	160.279	-0.047	-0.067
-717.777	170.871	0.162	0.236
-716.762	-127.195	0.327	-0.049
-715.748	-14.225	0.296	-0.194
-714.733	164.944	-0.058	0.084
-713.718	-200.000	0.022	-0.186
-712.704	104.716	0.089	-0.107
-711.689	-103.307	0.046	0.011
-710.675	-4.632	0.376	-0.264
-709.660	68.637	0.102	0.107
-708.645	-125.661	0.184	-0.028
-707.631	-54.824	0.160	-0.074
-706.616	-200.000	0.018	0.148
-705.602	215.431	0.062	-0.101
-704.587	324.354	-0.094	0.183
-703.572	198.836	0.137	0.213
-702.558	-22.983	-0.160	-0.098
-701.543	1.552	0.191	0.139
-700.529	-45.453	-0.086	0.043
-699.514	597.133	0.151	-0.380
-698.499	51.632	-0.219	-0.212
-697.485	-200.000	-0.028	0.224
-696.470	-73.198	-0.101	0.038
-695.456	457.587	0.082	-0.186
-694.441	-131.180	0.193	-0.026
-693.426	-157.527	0.167	0.010
-692.412	-63.528	-0.248	-0.104
-691.397	151.647	0.082	-0.113
-690.383	50.112	-0.210	-0.201
-689.368	-23.315	-0.119	0.072
-688.354	128.748	0.062	-0.081
-687.339	149.767	-0.100	-0.138
-686.324	-3.122	0.196	0.139
-685.310	59.042	0.240	-0.240
-684.295	165.038	-0.157	-0.225
-683.281	104.416	0.201	0.241
-682.266	291.324	0.076	0.141
-681.251	-200.000	-0.030	0.360
-680.237	-11.995	-0.096	-0.064
-679.222	-123.218	0.193	-0.031
-678.208	-174.734	-0.129	0.004
-677.193	-180.250	0.133	-0.003
-676.178	-200.000	0.007	-0.071
-675.164	-200.000	0.012	0.123
-674.149	-127.879	-0.284	0.042
-673.135	-9.208	-0.126	-0.085
-672.120	515.244	-0.054	-0.129
-671.105	-200.000	-0.008	-0.444
-670.091	54.693	-0.204	-0.200
-669.076	800.000	0.031	-0.128
-668.062	144.781	-0.148	-0.201
-667.047	33.702	-0.139	-0.123
-666.032	800.000	0.093	0.303
-665.018	-70.780	-0.264	-0.101
-664.003	-200.000	-0.039	-0.318
-662.989	534.891	-0.088	-0.211
-661.974	-16.339	-0.211	0.136
-660.959	800.000	-0.063	0.280
-659.945	-106.886	0.204	-0.046
-658.930	0.608	0.300	-0.218
-657.916	-200.000	-0.048	0.395
-656.901	800.000	0.049	0.145
-655.886	-136.304	-0.049	0.006
-654.872	-200.000	-0.016	-0.103
-653.857	22.645	-0.351	-0.291
-652.843	-83.560	-0.195	-0.063
-651.828	15.697	0.389	0.310
-650.814	800.000	0.169	-0.476
-649.799	-3.988	-0.259	0.182
-648.784	-200.000	-0.002	0.121
-647.770	-200.000	0.011	0.234
-646.755	-200.000	0.001	-0.039
-645.741	800.000	-0.027	-0.098
-644.726	-200.000	0.021	0.103
-643.711	-52.990	0.183	0.086
-642.697	96.683	0.041	-0.048
-641.682	266.032	0.138	-0.244
-640.668	-200.000	-0.012	0.139
-639.653	800.000	0.074	0.208
-638.638	16.724	0.215	-0.172
-637.624	-141.859	0.238	-0.024
-636.609	800.000	0.088	0.315
-635.595	-200.000	0.101	-0.471
-634.580	-65.297	-0.274	-0.112
-633.565	-110.585	0.286	0.060
-632.551	800.000	0.067	0.254
-631.536	-156.987	-0.196	-0.012
-630.522	-66.287	0.187	-0.075
-629.507	-64.666	-0.067	-0.028
-628.492	-12.858	0.244	0.161
-627.478	416.620	-0.143	0.310
-626.463	-42.011	0.220	-0.114
-625.449	-200.000	-0.029	0.196
-624.434	-200.000	-0.011	0.117
-623.419	-200.000	0.028	0.300
-622.405	-200.000	0.004	-0.144
-621.390	-139.905	-0.094	0.010
-620.376	146.208	0.268	0.365
-619.361	-57.452	0.160	0.071
-618.346	558.829	0.179	0.439
-617.332	-61.643	-0.277	-0.118
-616.317	689.270	-0.062	-0.165
-615.303	-93.298	0.119	-0.034
-614.288	-144.533	0.288	-0.027
-613.273	282.231	-0.042	0.076
-612.259	-200.000	0.018	-0.314
-611.244	-131.631	0.216	0.029
-610.230	-62.677	-0.221	-0.093
-609.215	800.000	0.056	-0.205
-608.201	800.000	-0.016	0.066
-607.186	404.412	-0.078	0.166
-606.171	733.457	-0.057	0.154
-605.157	93.296	0.080	0.091
-604.142	266.713	0.038	-0.067
-603.128	173.903	0.050	0.074
-602.113	-200.000	0.038	0.250
-601.098	-53.671	-0.140	-0.065
-600.084	800.000	0.028	0.099
-599.069	-120.929	0.204	0.035
-598.055	230.512	0.038	0.064
-597.040	-47.030	-0.149	-0.074
-596.025	221.460	0.109	0.177
-595.011	-56.813	-0.302	-0.135
-593.996	-17.577	-0.152	-0.097
-592.982	-144.425	0.189	-0.018
-591.967	800.000	-0.071	-0.291
-590.952	-191.567	0.278	0.003
-589.938	318.788	0.143	0.274
-588.923	56.252	-0.049	-0.048
-587.909	800.000	0.026	-0.101
-586.894	-55.781	0.209	0.095
-585.879	123.674	-0.068	0.087
-584.865	-109.307	-0.064	0.014
-583.850	-138.228	0.214	0.024
-582.836	297.619	-0.036	-0.066
-581.821	41.798	0.230	0.211
-580.806	-27.150	0.136	-0.080
-579.792	-32.985	-0.283	0.159
-578.777	391.785	-0.141	0.296
-577.763	800.000	0.114	-0.338
-576.748	-53.206	0.224	-0.104
-575.733	53.421	0.083	-0.080
-574.719	49.654	-0.071	0.067
-573.704	792.361	0.053	-0.147
-572.690	-142.509	0.469	-0.047
-571.675	85.593	-0.123	0.137
-570.661	-56.967	-0.320	0.143
-569.646	-11.859	-0.149	-0.099
-568.631	129.150	-0.308	-0.398
-567.617	800.000	0.094	-0.387
-566.602	800.000	-0.035	-0.121
-565.588	357.181	0.138	-0.277
-564.573	29.175	-0.055	-0.047
-563.558	-128.668	-0.041	-0.006
-562.544	168.558	-0.193	-0.278
-561.529	189.778	-0.124	-0.188
-560.515	28.276	0.069	0.059
-559.500	-200.000	-0.034	0.232
-558.485	-200.000	-0.006	0.239
-557.471	602.999	-0.199	0.501
-556.456	-200.000	-0.001	-0.183
-555.442	-78.097	-0.120	-0.042
-554.427	-62.145	0.294	-0.124
-553.412	-42.730	0.050	-0.026
-552.398	-82.989	0.063	-0.020
-551.383	800.000	0.076	-0.275
-550.369	-100.015	0.116	-0.029
-549.354	207.985	0.032	0.051
-548.339	-142.215	-0.314	0.031
-547.325	-200.000	0.009	0.338
-546.310	250.602	0.100	0.172
-545.296	-172.411	-0.225	0.007
-544.281	58.743	0.275	-0.273
-543.266	36.535	-0.125	0.111
-542.252	-0.670	0.264	0.189
-541.237	381.554	-0.107	0.221
-540.223	-113.023	0.284	0.057
-539.208	143.767	-0.160	-0.215
-538.193	56.743	0.140	-0.137
-537.179	-65.593	-0.068	0.027
-536.164	563.366	-0.150	0.368
-535.150	-13.254	0.029	-0.019
-534.135	-67.588	-0.152	-0.060
-533.121	133.156	-0.099	-0.129
-532.106	81.648	0.207	-0.226
-531.091	-200.000	0.004	0.077
-530.077	-101.775	-0.296	-0.072
-529.062	-126.807	0.175	0.026
-528.048	666.672	0.044	0.115
-527.033	-101.320	-0.160	-0.039
-526.018	-78.136	0.122	-0.042
-525.004	358.527	-0.123	-0.249
-523.989	45.090	-0.152	-0.141
-522.975	-40.590	0.151	-0.079
-521.960	800.000	0.096	0.301
-520.945	60.257	-0.201	-0.200
-519.931	800.000	-0.004	-0.016
-518.916	727.004	-0.161	0.432
-517.902	-200.000	0.009	-0.040
-516.887	-200.000	0.013	-0.287
-515.872	263.339	-0.145	-0.254
-514.858	-59.207	0.139	0.060
-513.843	129.650	0.104	0.134
-512.829	703.996	0.041	-0.110
-511.814	59.553	0.136	-0.135
-510.799	-19.692	-0.143	-0.089
-509.785	-200.000	-0.073	0.524
-508.770	-200.000	0.147	-0.000
-507.756	518.534	-0.179	0.424
-506.741	-153.783	0.057	0.004
-505.726	-200.000	-0.026	-0.130
-504.712	55.431	0.230	-0.225
-503.697	-200.000	0.000	-0.009
-502.683	-200.000	0.035	0.274
-501.668	-200.000	-0.020	-0.132
-500.653	-114.904	-0.193	-0.037
-499.639	-200.000	0.021	0.104
-498.624	5.233	-0.229	-0.170
-497.610	800.000	0.060	0.188
-496.595	9.472	-0.289	-0.221
-495.581	-200.000	0.203	0.000
-494.566	-69.608	-0.192	0.074
-493.551	206.333	0.084	-0.133
-492.537	184.264	-0.121	-0.180
-491.522	186.114	-0.111	0.167
-490.508	382.736	-0.038	0.078
-489.493	-200.000	-0.045	-0.333
-488.478	-41.037	-0.304	0.158
-487.464	-122.746	0.161	-0.026
-486.449	-200.000	-0.023	0.355
-485.435	296.934	0.109	-0.201
-484.420	768.412	-0.040	-0.109
-483.405	800.000	0.183	-0.510
-482.391	-200.000	0.027	0.176
-481.376	800.000	0.048	-0.166
-480.362	800.000	-0.067	-0.275
-479.347	-126.504	0.301	-0.045
-478.332	-50.106	-0.312	0.149
-477.318	-85.715	-0.085	0.027
-476.303	755.819	0.072	-0.196
-475.289	-200.000	0.238	-0.001
-474.274	-26.490	0.097	-0.057
-473.259	49.277	-0.145	-0.138
-472.245	-124.050	0.115	-0.018
-471.230	8.172	-0.172	0.130
-470.216	-133.427	0.307	0.039
-469.201	-30.985	0.033	-0.019
-468.186	-32.095	0.025	-0.014
-467.172	-200.000	-0.068	-0.349
-466.157	259.017	0.234	-0.406
-465.143	-200.000	-0.013	0.058
-464.128	800.000	-0.022	0.079
-463.113	603.775	-0.115	0.288
-462.099	752.090	0.064	0.175
-461.084	102.540	0.133	0.157
-460.070	-0.739	0.312	-0.223
-459.055	-67.320	-0.133	0.053
-458.040	-170.079	-0.355	0.013
-457.026	-200.000	0.009	0.087
-456.011	28.440	-0.386	-0.328
-454.997	94.766	0.071	-0.081
-453.982	-200.000	-0.082	0.496
-452.968	181.752	0.105	-0.156
-451.953	373.778	-0.085	-0.175
-450.938	315.909	0.070	0.132
-449.924	33.213	0.215	-0.188
-448.909	-20.139	-0.147	0.091
-447.895	-200.000	0.004	0.417
-446.880	-83.005	0.186	0.060
-445.865	61.198	-0.206	0.206
-444.851	-45.927	-0.054	0.027
-443.836	-166.568	-0.265	0.011
-442.822	800.000	0.063	-0.242
-441.807	40.366	0.017	-0.015
-440.792	86.270	0.095	0.105
-439.778	131.534	0.151	-0.195
-438.763	31.962	0.222	-0.193
-437.749	-200.000	0.386	-0.002
-436.734	-184.521	-0.427	0.007
-435.719	51.726	0.373	0.357
-434.705	86.422	-0.188	-0.209
-433.690	-96.201	0.124	0.033
-432.676	501.674	0.092	0.214
-431.661	17.763	-0.127	0.102
-430.646	-108.823	-0.285	-0.061
-429.632	215.751	-0.046	-0.073
-428.617	800.000	-0.021	-0.076
-427.603	-33.485	0.161	-0.090
-426.588	119.197	-0.097	-0.121
-425.573	21.558	-0.078	0.064
-424.559	-157.425	-0.100	-0.006
-423.544	344.102	-0.054	-0.106
-422.530	17.051	-0.257	0.205
-421.515	-131.424	0.336	0.045
-420.500	76.130	-0.153	0.163
-419.486	-24.761	-0.081	-0.048
-418.471	-149.684	-0.135	-0.011
-417.457	47.814	0.060	-0.056
-416.442	89.627	0.267	-0.300
-415.428	-177.459	0.077	0.002
-414.413	-200.000	0.025	0.227
-413.398	800.000	0.069	0.298
-412.384	-200.000	-0.050	-0.397
-411.369	-10.953	0.237	-0.157
-410.355	-3.901	-0.302	0.211
-409.340	294.481	0.069	0.127
-408.325	158.056	0.083	0.116
-407.311	-35.848	0.075	-0.041
-406.296	-1.925	0.253	0.179
-405.282	8.439	0.144	-0.109
-404.267	-4.538	0.312	-0.217
-403.252	-101.321	0.136	0.033
-402.238	208.563	-0.258	-0.406
-401.223	-200.000	-0.021	-0.507
-400.209	72.629	0.078	-0.082
-399.194	354.856	0.122	0.244
-398.179	15.643	0.189	0.149
-397.165	-200.000	-0.065	-0.392
-396.150	11.742	0.125	0.096
-395.136	-89.468	0.058	-0.017
-394.121	800.000	0.028	0.113
-393.106	-36.231	0.114	-0.062
-392.092	-82.600	-0.180	0.059
-391.077	126.784	-0.311	0.396
-390.063	-93.266	0.231	0.064
-389.048	56.292	-0.173	0.169
-388.033	-14.387	-0.170	-0.110
-387.019	-200.000	0.053	-0.328
-386.004	-149.446	-0.259	0.021
-384.990	800.000	-0.011	-0.041
-383.975	-0.230	0.418	-0.299
-382.960	-60.488	0.233	-0.099
-381.946	-191.682	0.119	0.001
-380.931	414.305	0.083	0.178
-379.917	125.867	-0.033	0.042
-378.902	-118.928	0.060	-0.011
-377.888	-92.774	0.251	0.071
-376.873	-82.300	0.129	0.042
-375.858	-136.833	0.044	-0.005
-374.844	79.920	-0.232	-0.250
-373.829	-86.168	0.130	0.040
-372.815	295.590	0.127	0.233
-371.800	-42.483	-0.118	0.060
-370.785	-200.000	0.005	0.265
-369.771	-200.000	-0.069	-0.336
-368.756	-200.000	-0.001	-0.077
-367.742	800.000	-0.060	0.200
-366.727	55.611	0.011	0.011
-365.712	35.737	-0.259	-0.229
-364.698	246.248	0.170	-0.287
-363.683	25.307	-0.312	0.260
-362.669	-175.887	-0.178	-0.005
-361.654	-141.492	-0.471	0.048
-360.639	43.013	0.135	-0.124
-359.625	-86.957	-0.069	-0.021
-358.610	-200.000	-0.012	0.162
-357.596	201.198	-0.114	-0.176
-356.581	20.082	0.270	-0.219
-355.566	695.422	-0.047	0.123
-354.552	697.995	-0.035	0.092
-353.537	566.664	0.109	0.266
-352.523	-16.458	-0.275	-0.175
-351.508	-200.000	0.004	0.321
-350.493	-57.078	0.151	0.067
-349.479	63.255	-0.131	-0.131
-348.464	-200.000	0.025	0.150
-347.450	280.198	-0.061	-0.109
-346.435	-200.000	0.000	0.271
-345.420	800.000	0.080	0.243
-344.406	-22.112	-0.200	-0.121
-343.391	-38.879	0.117	-0.062
-342.377	-172.600	0.126	0.004
-341.362	-200.000	0.042	-0.191
-340.348	-121.672	0.137	-0.023
-339.333	115.360	-0.034	0.042
-338.318	93.950	0.142	0.162
-337.304	-106.464	-0.304	-0.068
-336.289	194.887	-0.026	0.039
-335.275	-4.489	0.065	-0.045
-334.260	-87.209	0.151	-0.046
-333.245	208.844	-0.153	0.241
-332.231	-200.000	0.021	0.258
-331.216	30.480	0.260	0.223
-330.202	-56.261	-0.183	0.082
-329.187	-132.709	0.186	-0.024
-328.172	-146.680	-0.099	-0.009
-327.158	-98.105	-0.036	0.009
-326.143	66.819	-0.075	-0.077
-325.129	-200.000	-0.068	-0.301
-324.114	33.827	0.325	0.283
-323.099	-99.378	0.261	-0.066
-322.085	-21.990	-0.181	-0.110
-321.070	-200.000	0.034	0.177
-320.056	-200.000	0.273	-0.001
-319.041	-104.205	0.232	0.054
-318.026	-104.136	0.250	-0.058
-317.012	34.289	0.233	-0.203
-315.997	339.010	-0.166	-0.324
-314.983	228.392	-0.124	0.202
-313.968	-155.635	-0.282	-0.018
-312.953	-137.401	-0.439	-0.050
-311.939	-101.355	0.125	0.031
-310.924	-200.000	-0.030	-0.221
-309.910	69.719	0.118	-0.121
-308.895	128.639	-0.116	0.148
-307.880	-96.697	-0.336	-0.089
-306.866	800.000	-0.104	0.406
-305.851	-19.895	-0.113	-0.070
-304.837	-78.592	-0.135	0.046
-303.822	-112.986	-0.306	-0.061
-302.807	-50.229	-0.208	0.099
-301.793	-200.000	0.023	0.196
-300.778	-121.648	-0.182	0.030
-299.764	299.164	-0.108	-0.200
-298.749	-200.000	-0.054	0.245
-297.735	32.597	0.112	0.097
-296.720	-71.983	0.317	-0.118
-295.705	-200.000	0.003	-0.401
-294.691	-138.772	-0.304	-0.033
-293.676	-1.635	-0.077	0.054
-292.662	162.985	0.247	-0.347
-291.647	-98.874	-0.350	0.089
-290.632	306.513	0.079	0.146
-289.618	128.020	-0.073	-0.093
-288.603	212.836	-0.084	-0.133
-287.589	-200.000	0.004	-0.331
-286.574	-69.381	0.024	-0.009
-285.559	71.363	-0.051	-0.053
-284.545	-92.237	0.132	0.037
-283.530	-58.370	0.278	-0.121
-282.516	800.000	0.067	0.222
-281.501	-200.000	0.037	0.574
-280.486	38.872	-0.038	0.034
-279.472	-200.000	-0.022	-0.205
-278.457	-131.666	0.080	0.011
-277.443	-139.644	-0.286	-0.030
-276.428	404.929	-0.051	0.108
-275.413	-70.175	0.261	0.099
-274.399	-195.709	0.164	-0.001
-273.384	389.274	0.150	0.311
-272.370	-151.293	-0.068	0.005
-271.355	-29.846	0.317	0.181
-270.340	132.046	0.107	-0.138
-269.326	539.834	-0.122	-0.290
-268.311	-48.586	0.484	-0.232
-267.297	-21.955	-0.147	0.089
-266.282	-64.426	0.270	-0.110
-265.267	-200.000	0.009	0.113
-264.253	-98.754	-0.252	0.064
-263.238	-66.631	0.254	-0.101
-262.224	69.479	-0.177	-0.182
-261.209	800.000	-0.049	-0.136
-260.195	-56.035	-0.196	-0.087
-259.180	800.000	0.125	0.356
-258.165	800.000	0.058	0.196
-257.151	-200.000	-0.005	-0.077
-256.136	301.258	-0.101	-0.186
-255.122	-81.216	-0.371	0.122
-254.107	-200.000	0.010	-0.073
-253.092	6.080	0.139	0.103
-252.078	90.493	-0.194	0.217
-251.063	-36.244	0.507	0.273
-250.049	-200.000	0.006	0.177
-249.034	9.031	0.052	0.039
-248.019	84.331	0.212	-0.231
-247.005	240.726	0.194	-0.324
-245.990	100.875	-0.356	0.414
-244.976	-81.727	-0.082	-0.027
-243.961	-38.739	-0.277	-0.146
-242.946	38.271	-0.266	-0.237
-241.932	-178.491	0.045	-0.001
-240.917	-48.209	-0.186	0.090
-239.903	-94.315	-0.403	0.110
-238.888	-136.206	-0.214	0.025
-237.873	-45.971	0.103	0.051
-236.859	-22.541	-0.207	-0.125
-235.844	-200.000	-0.038	-0.262
-234.830	-200.000	0.002	-0.209
-233.815	53.343	-0.146	-0.139
-232.800	283.208	0.161	0.288
-231.786	-200.000	0.017	0.173
-230.771	-194.054	0.237	-0.002
-229.757	513.723	-0.038	0.088
-228.742	73.659	-0.211	-0.221
-227.727	-200.000	0.003	0.045
-226.713	-84.830	-0.300	0.094
-225.698	-200.000	-0.018	0.109
-224.684	31.126	-0.064	-0.055
-223.669	-200.000	0.010	0.050
-222.655	800.000	-0.051	0.165
-221.640	311.938	-0.174	-0.325
-220.625	-200.000	-0.011	-0.160
-219.611	-143.795	0.278	-0.026
-218.596	172.928	0.149	-0.214
-217.582	800.000	-0.100	-0.292
-216.567	-192.330	0.113	-0.001
-215.552	193.841	-0.111	-0.168
-214.538	119.075	0.152	0.187
-213.523	800.000	-0.009	0.037
-212.509	-93.043	-0.303	-0.084
-211.494	-151.401	-0.262	0.019
-210.479	18.534	0.048	0.039
-209.465	-82.337	-0.096	0.031
-208.450	-143.559	-0.324	0.031
-207.436	18.056	-0.059	-0.047
-206.421	800.000	-0.071	-0.293
-205.406	107.022	-0.116	0.138
-204.392	-150.450	-0.159	-0.012
-203.377	58.778	0.186	-0.183
-202.363	800.000	-0.049	0.210
-201.348	66.335	0.388	0.393
-200.333	112.558	0.047	-0.057
-199.319	800.000	0.064	-0.246
-198.304	800.000	-0.066	0.195
-197.290	-200.000	0.082	0.391
-196.275	49.124	-0.203	-0.190
-195.260	522.369	-0.115	-0.268
-194.246	-107.675	-0.122	0.027
-193.231	-33.790	0.142	0.078
-192.217	800.000	0.083	0.237
-191.202	-200.000	-0.091	-0.560
-190.187	112.713	-0.134	0.162
-189.173	51.945	-0.106	0.100
-188.158	-18.761	0.232	0.144
-187.144	163.334	0.015	-0.021
-186.129	-161.880	0.406	-0.020
-185.114	231.990	0.064	-0.105
-184.100	-200.000	-0.043	-0.394
-183.085	5.904	0.137	0.101
-182.071	663.070	-0.068	0.174
-181.056	800.000	0.025	-0.104
-180.042	79.467	-0.157	0.168
-179.027	445.040	-0.132	0.288
-178.012	-23.535	-0.382	0.228
-176.998	0.222	0.048	-0.034
-175.983	513.769	0.117	-0.271
-174.969	-150.547	0.107	0.008
-173.954	21.878	0.023	-0.019
-172.939	800.000	0.073	0.248
-171.925	196.772	0.040	-0.061
-170.910	-64.794	-0.515	-0.208
-169.896	27.274	0.100	0.083
-168.881	-106.720	-0.084	-0.019
-167.866	8.603	-0.192	-0.144
-166.852	-67.239	0.211	0.083
-165.837	-125.492	-0.365	0.055
-164.823	49.046	0.108	0.101
-163.808	71.909	0.168	-0.174
-162.793	-125.891	0.078	-0.012
-161.779	-56.855	0.171	0.075
-160.764	-200.000	-0.011	-0.296
-159.750	-100.593	-0.283	-0.070
-158.735	-29.798	0.083	0.047
-157.720	-126.167	-0.136	-0.020
-156.706	336.444	-0.242	0.468
-155.691	11.382	0.138	-0.105
-154.677	-111.164	0.059	-0.012
-153.662	-109.968	0.093	0.019
-152.647	-139.172	0.242	-0.026
-151.633	-171.948	0.150	0.005
-150.618	40.375	0.155	0.139
-149.604	-101.773	-0.175	0.042
-148.589	800.000	-0.049	-0.193
-147.574	12.507	0.126	0.096
-146.560	70.680	-0.154	0.158
-145.545	-200.000	0.010	-0.152
-144.531	-29.113	0.140	0.080
-143.516	171.893	0.239	-0.342
-142.502	-32.758	-0.289	0.160
-141.487	-26.523	0.259	0.151
-140.472	385.127	0.082	0.168
-139.458	-200.000	0.025	0.136
-138.443	-26.396	0.178	-0.104
-137.429	-142.177	0.141	0.014
-136.414	-68.233	-0.034	-0.013
-135.399	-108.699	0.157	-0.034
-134.385	227.854	-0.150	0.243
-133.370	-200.000	-0.007	0.144
-132.356	-114.285	-0.134	0.026
-131.341	291.769	0.075	-0.135
-130.326	-200.000	0.216	-0.000
-129.312	800.000	-0.006	0.020
-128.297	129.465	-0.009	-0.011
-127.283	-116.423	0.230	0.042
-126.268	136.753	0.150	0.195
-125.253	-200.000	-0.028	-0.312
-124.239	-148.611	0.472	-0.038
-123.224	-55.927	0.331	0.147
-122.210	-27.731	-0.202	-0.116
-121.195	129.865	0.082	0.104
