DTS Sentinel unit serial number:	SN413079Multiplexer serial number:	ORYXHardware model number:	OX4-SRSoftware version number:	ORYX F/W v4.00 Oryx Data Collector v3.7.2.0data status	okinstallation	princeton_trtdifferential loss correction	single-endedforward channel	channel 4reverse channel	N/Adate	2019/09/17time	07:37:35forward acquisition time	60.00reverse acquisition time	0.00gamma	496.2192k internal	0.2320k external	0.2320temperature offset calibration	0.9984default loss term (dB/km)	0.3790temperature slope calibration	1.0000multiplexer offset coefficient	1.0000multiplexer slope coefficient	1.0000fibre end	0.00T internal ref (°C)	27.14T ext. ref 1 (°C)	0.12T ext. ref 2 (°C)	21.87length (m)	temperature (°C)	Stokes	anti-Stokes-747.200	262.610	-0.149	-0.262
-746.185	-103.597	0.077	0.018
-745.171	-200.000	0.044	-0.241
-744.156	800.000	-0.075	0.284
-743.142	-200.000	-0.054	0.263
-742.127	-48.447	-0.561	0.273
-741.112	800.000	-0.045	-0.139
-740.098	-116.344	-0.319	-0.060
-739.083	-200.000	0.017	0.393
-738.069	250.199	0.024	-0.040
-737.054	-58.564	-0.353	0.155
-736.039	326.707	-0.170	-0.330
-735.025	199.731	0.142	-0.220
-734.010	-54.510	0.130	-0.059
-732.996	250.660	0.143	-0.246
-731.981	-130.132	0.228	-0.031
-730.966	-53.691	-0.140	-0.065
-729.952	-109.432	-0.368	-0.079
-728.937	-173.075	0.193	-0.006
-727.923	-39.599	-0.310	-0.164
-726.908	-200.000	-0.025	0.276
-725.894	-137.830	-0.437	-0.049
-724.879	149.634	0.089	0.122
-723.864	-2.749	0.236	0.167
-722.850	563.636	-0.122	-0.299
-721.835	-89.809	-0.272	0.080
-720.821	-164.651	-0.378	0.017
-719.806	-43.991	0.280	0.142
-718.791	-103.158	-0.400	0.096
-717.777	167.216	-0.051	0.073
-716.762	-54.704	-0.303	-0.138
-715.748	-26.812	-0.210	0.124
-714.733	-103.976	0.153	0.036
-713.718	-98.744	0.310	-0.080
-712.704	286.351	0.147	0.269
-711.689	7.974	0.206	0.156
-710.675	30.133	-0.236	0.203
-709.660	-200.000	-0.027	-0.206
-708.645	-110.835	-0.437	-0.091
-707.631	396.187	-0.071	-0.149
-706.616	-188.184	-0.063	-0.001
-705.602	310.917	0.126	-0.239
-704.587	-36.183	-0.146	0.080
-703.572	-170.938	0.052	-0.002
-702.558	-13.841	-0.369	0.241
-701.543	-154.391	-0.337	-0.023
-700.529	-60.837	-0.077	-0.033
-699.514	140.790	0.209	0.279
-698.499	-63.622	0.192	0.080
-697.485	-115.959	0.291	-0.055
-696.470	-114.995	-0.504	0.097
-695.456	800.000	0.033	0.129
-694.441	-109.492	0.098	0.021
-693.426	-106.278	0.313	0.071
-692.412	-17.768	0.088	0.056
-691.397	-97.059	0.115	0.031
-690.383	-200.000	-0.025	-0.292
-689.368	11.270	-0.049	0.038
-688.354	-103.505	-0.591	0.140
-687.339	170.358	-0.066	0.096
-686.324	-196.850	-0.077	-0.001
-685.310	800.000	0.012	-0.040
-684.295	142.861	0.080	0.107
-683.281	-70.996	0.236	0.090
-682.266	-200.000	-0.048	-0.233
-681.251	-136.803	-0.069	-0.008
-680.237	266.434	-0.077	0.136
-679.222	-200.000	0.011	0.070
-678.208	638.839	0.064	-0.164
-677.193	-200.000	0.029	-0.201
-676.178	171.667	0.059	0.086
-675.164	-47.020	0.143	0.070
-674.149	-125.128	0.048	0.007
-673.135	800.000	-0.054	-0.177
-672.120	-3.099	-0.166	0.117
-671.105	800.000	-0.065	0.200
-670.091	800.000	0.061	-0.252
-669.076	127.830	-0.032	-0.041
-668.062	-105.198	-0.054	0.013
-667.047	-200.000	-0.009	-0.214
-666.032	370.400	-0.051	0.105
-665.018	-200.000	0.002	0.144
-664.003	-93.324	-0.143	-0.040
-662.989	-160.429	0.231	-0.012
-661.974	800.000	-0.197	-0.597
-660.959	-200.000	-0.054	0.331
-659.945	-200.000	0.008	0.058
-658.930	-138.597	0.120	-0.013
-657.916	-62.590	-0.059	-0.025
-656.901	-106.249	0.258	0.058
-655.886	-51.101	0.281	-0.133
-654.872	-40.845	-0.075	0.039
-653.857	-200.000	-0.009	-0.279
-652.843	9.544	-0.271	0.207
-651.828	173.147	-0.200	0.291
-650.814	387.940	-0.062	0.129
-649.799	-45.756	-0.158	-0.079
-648.784	-159.213	-0.156	0.009
-647.770	800.000	0.112	-0.386
-646.755	-95.707	0.055	0.015
-645.741	100.619	0.042	0.049
-644.726	216.811	0.107	0.172
-643.711	265.441	0.194	0.341
-642.697	-200.000	-0.004	0.232
-641.682	-152.992	-0.095	-0.007
-640.668	4.219	-0.326	0.240
-639.653	-200.000	0.009	-0.085
-638.638	89.464	0.175	-0.196
-637.624	-76.879	-0.182	-0.064
-636.609	19.458	0.186	-0.150
-635.595	181.254	-0.110	-0.163
-634.580	7.276	-0.381	0.286
-633.565	277.865	-0.180	0.323
-632.551	-5.801	0.277	-0.191
-631.536	-200.000	-0.076	0.478
-630.522	85.276	-0.107	0.119
-629.507	6.435	-0.160	0.120
-628.492	-157.213	0.134	-0.008
-627.478	-2.875	0.076	0.053
-626.463	501.628	0.039	0.091
-625.449	221.484	-0.088	0.142
-624.434	31.167	-0.364	-0.314
-623.419	-200.000	-0.017	-0.129
-622.405	-125.725	0.293	0.045
-621.390	-104.626	0.119	0.028
-620.376	-200.000	0.101	0.453
-619.361	-200.000	0.008	0.042
-618.346	-146.683	-0.141	0.012
-617.332	-130.428	0.318	0.043
-616.317	170.448	0.164	-0.236
-615.303	346.392	-0.079	-0.156
-614.288	-85.501	-0.330	-0.103
-613.273	800.000	-0.053	-0.191
-612.259	-89.403	-0.405	-0.120
-611.244	-172.171	-0.217	-0.007
-610.230	176.436	0.181	0.264
-609.215	416.943	0.054	-0.116
-608.201	80.163	0.203	0.220
-607.186	-200.000	-0.022	-0.257
-606.171	-200.000	-0.020	0.355
-605.157	-48.836	0.150	0.073
-604.142	-200.000	-0.022	-0.263
-603.128	-159.151	-0.095	0.005
-602.113	223.696	0.231	0.375
-601.098	126.859	-0.041	0.052
-600.084	-20.484	0.198	-0.122
-599.069	457.537	-0.181	0.404
-598.055	-200.000	-0.048	0.305
-597.040	-35.808	-0.141	0.077
-596.025	46.532	0.126	-0.118
-595.011	-123.241	-0.087	-0.014
-593.996	-108.900	-0.107	0.023
-592.982	-41.745	0.029	-0.015
-591.967	-122.477	0.154	0.025
-590.952	371.003	-0.107	0.219
-589.938	-60.445	-0.269	-0.115
-588.923	-200.000	-0.033	-0.151
-587.909	-200.000	-0.003	-0.103
-586.894	-200.000	0.033	0.215
-585.879	347.329	-0.104	-0.205
-584.865	-162.589	0.415	0.021
-583.850	-90.881	-0.271	-0.078
-582.836	-87.617	0.218	0.066
-581.821	-200.000	0.023	-0.217
-580.806	-137.432	-0.250	0.028
-579.792	800.000	0.056	-0.200
-578.777	112.609	0.158	0.192
-577.763	-98.752	-0.070	-0.018
-576.748	-200.000	-0.023	0.314
-575.733	-10.086	-0.280	0.187
-574.719	-56.564	-0.411	0.183
-573.704	109.761	-0.104	0.126
-572.690	10.052	-0.195	0.148
-571.675	-200.000	0.018	-0.180
-570.661	-23.328	0.077	-0.047
-569.646	-200.000	-0.058	0.275
-568.631	663.818	0.088	-0.227
-567.617	-101.592	0.267	-0.065
-566.602	498.109	-0.065	0.149
-565.588	-200.000	0.007	-0.073
-564.573	4.396	0.071	-0.052
-563.558	-40.333	0.325	-0.170
-562.544	-125.110	-0.381	-0.059
-561.529	-143.782	-0.106	0.010
-560.515	-200.000	-0.049	0.307
-559.500	-200.000	-0.024	-0.341
-558.485	-76.603	0.022	-0.008
-557.471	800.000	0.022	0.064
-556.456	353.188	-0.127	0.253
-555.442	381.882	0.046	0.096
-554.427	-27.104	0.111	-0.065
-553.412	332.431	0.096	-0.187
-552.398	12.954	-0.220	0.171
-551.383	800.000	-0.050	0.201
-550.369	-200.000	0.003	-0.216
-549.354	336.041	-0.021	-0.041
-548.339	-117.333	0.426	0.077
-547.325	1.459	0.186	0.134
-546.310	-150.130	-0.081	-0.006
-545.296	132.738	0.063	0.082
-544.281	-135.797	0.114	0.014
-543.266	231.384	-0.150	0.246
-542.252	-86.549	-0.217	0.067
-541.237	800.000	0.106	0.404
-540.223	-200.000	0.022	0.158
-539.208	-64.504	-0.186	-0.076
-538.193	4.052	-0.142	-0.104
-537.179	10.342	-0.113	-0.086
-536.164	-122.113	-0.137	0.022
-535.150	117.252	0.080	0.099
-534.135	-59.601	-0.114	-0.049
-533.121	-161.917	0.322	-0.016
-532.106	-48.869	-0.361	0.174
-531.091	800.000	0.061	-0.225
-530.077	3.977	0.030	-0.022
-529.062	-88.340	-0.214	-0.064
-528.048	800.000	-0.018	-0.077
-527.033	800.000	-0.038	-0.115
-526.018	158.113	0.170	0.236
-525.004	84.002	-0.227	-0.248
-523.989	-34.487	0.128	-0.070
-522.975	800.000	0.027	-0.087
-521.960	-200.000	0.001	-0.147
-520.945	-85.946	-0.258	-0.080
-519.931	-200.000	-0.004	-0.241
-518.916	800.000	-0.048	0.164
-517.902	-200.000	-0.016	-0.143
-516.887	25.281	0.184	0.153
-515.872	-65.842	-0.178	-0.072
-514.858	-131.945	0.158	0.021
-513.843	509.787	-0.051	-0.118
-512.829	-168.156	0.347	-0.014
-511.814	-200.000	-0.030	-0.321
-510.799	-83.285	0.237	-0.076
-509.785	580.591	0.147	-0.362
-508.770	-157.713	0.129	0.008
-507.756	-200.000	-0.007	0.152
-506.741	80.383	-0.073	0.079
-505.726	134.521	0.115	0.150
-504.712	-92.896	-0.069	0.019
-503.697	-9.309	-0.128	-0.085
-502.683	-47.133	-0.287	0.140
-501.668	-31.594	0.207	-0.117
-500.653	-200.000	-0.005	-0.260
-499.639	-105.315	-0.200	-0.046
-498.624	486.977	0.071	-0.162
-497.610	20.850	-0.108	-0.088
-496.595	-126.655	-0.037	-0.006
-495.581	-37.575	-0.305	-0.163
-494.566	-153.693	0.353	-0.024
-493.551	361.296	-0.164	-0.329
-492.537	2.742	0.128	-0.093
-491.522	-85.252	-0.144	-0.045
-490.508	684.170	0.104	-0.272
-489.493	301.768	0.075	-0.138
-488.478	-84.244	0.266	0.084
-487.464	7.666	0.224	-0.168
-486.449	5.811	0.255	0.189
-485.435	-200.000	0.002	-0.138
-484.420	587.817	-0.022	0.055
-483.405	161.968	0.015	-0.021
-482.391	-141.226	0.051	0.005
-481.376	-17.427	-0.082	0.052
-480.362	-200.000	-0.016	-0.085
-479.347	405.486	-0.056	-0.118
-478.332	-200.000	0.104	-0.482
-477.318	-85.818	0.097	-0.030
-476.303	800.000	0.081	-0.253
-475.289	173.265	-0.193	-0.278
-474.274	-200.000	-0.019	-0.161
-473.259	-101.889	-0.216	-0.052
-472.245	146.966	-0.266	-0.357
-471.230	-60.587	0.187	0.079
-470.216	262.508	0.050	0.087
-469.201	-7.431	-0.148	0.100
-468.186	427.309	-0.176	-0.380
-467.172	-81.835	-0.170	0.056
-466.157	800.000	-0.029	-0.110
-465.143	-17.894	0.383	0.240
-464.128	-200.000	0.049	-0.325
-463.113	-200.000	-0.017	0.274
-462.099	-78.253	0.051	-0.017
-461.084	-200.000	0.043	0.355
-460.070	-200.000	-0.007	-0.145
-459.055	-14.273	0.147	-0.095
-458.040	-200.000	-0.002	0.149
-457.026	800.000	-0.062	-0.175
-456.011	300.722	-0.122	0.225
-454.997	97.962	0.156	0.180
-453.982	105.255	-0.149	0.176
-452.968	150.132	0.237	0.322
-451.953	19.982	-0.106	0.085
-450.938	-180.132	0.313	0.007
-449.924	304.731	0.093	0.173
-448.909	-200.000	0.010	0.160
-447.895	604.484	-0.113	0.282
-446.880	-200.000	0.023	0.276
-445.865	196.013	-0.195	0.296
-444.851	-200.000	-0.090	0.594
-443.836	149.781	-0.111	0.150
-442.822	-97.137	-0.229	-0.060
-441.807	66.238	-0.114	-0.115
-440.792	-109.665	0.149	-0.031
-439.778	-200.000	0.022	-0.126
-438.763	-200.000	0.005	-0.105
-437.749	753.267	0.159	-0.430
-436.734	53.239	0.063	-0.061
-435.719	-77.348	-0.397	-0.138
-434.705	137.291	0.185	0.242
-433.690	800.000	-0.034	-0.140
-432.676	177.743	0.067	-0.097
-431.661	-200.000	0.004	-0.111
-430.646	-110.881	-0.226	-0.046
-429.632	179.108	0.068	0.100
-428.617	66.308	-0.255	-0.259
-427.603	-74.478	0.108	-0.039
-426.588	800.000	0.071	-0.275
-425.573	800.000	0.032	0.122
-424.559	155.065	0.142	-0.195
-423.544	275.472	-0.118	0.209
-422.530	508.614	0.089	-0.206
-421.515	-101.253	0.234	0.057
-420.500	-148.414	-0.137	0.011
-419.486	-200.000	-0.027	-0.129
-418.471	-200.000	0.029	-0.143
-417.457	-43.700	0.144	-0.073
-416.442	-70.105	0.054	0.021
-415.428	-30.017	0.210	0.119
-414.413	-200.000	0.108	0.525
-413.398	552.222	0.105	0.252
-412.384	-200.000	0.029	-0.201
-411.369	800.000	0.029	-0.080
-410.355	-53.142	-0.222	-0.102
-409.340	-76.370	-0.156	-0.055
-408.325	-70.916	-0.323	0.122
-407.311	-200.000	0.002	-0.128
-406.296	207.179	0.053	-0.083
-405.282	-92.649	0.067	0.019
-404.267	-153.816	-0.255	0.017
-403.252	386.599	0.074	0.152
-402.238	-200.000	0.088	-0.419
-401.223	-200.000	0.019	0.130
-400.209	171.324	-0.197	0.282
-399.194	-54.976	0.120	-0.054
-398.179	800.000	-0.006	0.019
-397.165	55.675	-0.102	0.099
-396.150	134.965	0.169	0.219
-395.136	9.129	0.120	0.090
-394.121	-0.380	0.129	-0.091
-393.106	-121.174	-0.180	0.030
-392.092	88.130	0.122	0.135
-391.077	-119.783	0.329	-0.057
-390.063	-200.000	0.006	-0.038
-389.048	-63.699	-0.088	-0.036
-388.033	-112.402	0.131	-0.026
-387.019	653.483	-0.070	0.178
-386.004	-82.926	0.258	-0.083
-384.990	-200.000	-0.012	-0.295
-383.975	-85.786	0.115	-0.036
-382.960	147.650	-0.118	-0.158
-381.946	56.925	0.084	0.082
-380.931	545.302	0.077	0.182
-379.917	115.708	-0.194	-0.237
-378.902	24.593	0.006	0.005
-377.888	305.453	0.061	-0.114
-376.873	-200.000	-0.014	0.303
-375.858	800.000	0.118	0.422
-374.844	772.068	0.061	0.166
-373.829	65.312	-0.188	0.189
-372.815	-186.537	-0.190	-0.003
-371.800	-200.000	-0.211	0.000
-370.785	-73.925	0.051	0.018
-369.771	800.000	-0.020	-0.069
-368.756	749.734	0.070	-0.187
-367.742	-200.000	0.004	0.179
-366.727	23.055	0.223	-0.182
-365.712	-200.000	0.037	0.442
-364.698	-200.000	-0.051	-0.251
-363.683	134.080	-0.199	-0.257
-362.669	-172.887	-0.188	-0.006
-361.654	85.958	-0.164	0.179
-360.639	800.000	0.043	0.166
-359.625	-200.000	0.017	0.138
-358.610	-70.898	0.061	-0.023
-357.596	208.570	0.081	0.127
-356.581	-59.764	0.308	0.132
-355.566	-49.410	0.367	0.174
-354.552	367.014	-0.080	-0.160
-353.537	-128.886	0.166	-0.023
-352.523	-83.033	0.129	-0.041
-351.508	208.259	-0.049	0.076
-350.493	-200.000	0.009	0.192
-349.479	197.664	-0.061	-0.093
-348.464	248.820	0.074	0.126
-347.450	800.000	-0.116	0.350
-346.435	26.449	-0.313	-0.261
-345.420	-200.000	-0.014	-0.140
-344.406	-35.655	-0.091	0.049
-343.391	6.969	-0.096	-0.072
-342.377	-109.840	0.429	0.090
-341.362	112.922	-0.073	-0.089
-340.348	-200.000	-0.019	0.087
-339.333	-200.000	-0.022	-0.100
-338.318	53.193	-0.269	-0.256
-337.304	-66.027	-0.474	0.188
-336.289	-21.821	-0.255	-0.155
-335.275	793.235	0.058	-0.159
-334.260	-200.000	-0.015	-0.189
-333.245	-65.726	0.156	-0.062
-332.231	56.198	0.132	-0.128
-331.216	-94.649	-0.329	0.089
-330.202	39.772	-0.195	0.174
-329.187	-53.370	0.146	0.066
-328.172	800.000	-0.098	0.274
-327.158	800.000	0.037	0.126
-326.143	-121.508	-0.264	-0.044
-325.129	141.113	0.174	-0.228
-324.114	216.758	-0.146	0.232
-323.099	-18.918	-0.119	-0.074
-322.085	-200.000	0.008	0.364
-321.070	199.201	0.094	0.143
-320.056	800.000	0.024	0.087
-319.041	-23.190	-0.158	-0.095
-318.026	187.820	-0.125	-0.186
-317.012	246.830	0.176	-0.295
-315.997	-59.290	-0.226	0.097
-314.983	-136.268	-0.049	-0.006
-313.968	-53.877	0.176	0.080
-312.953	-42.626	-0.414	0.210
-311.939	9.330	0.577	0.434
-310.924	800.000	-0.105	-0.448
-309.910	-200.000	-0.010	-0.056
-308.895	-200.000	-0.015	0.095
-307.880	64.645	-0.078	-0.078
-306.866	133.659	-0.210	-0.270
-305.851	-117.735	0.559	-0.100
-304.837	-51.602	-0.103	-0.048
-303.822	-95.826	-0.355	0.094
-302.807	-200.000	0.021	0.133
-301.793	-8.694	0.212	-0.141
-300.778	-138.091	-0.030	-0.003
-299.764	284.612	-0.181	-0.323
-298.749	77.504	-0.070	-0.074
-297.735	82.895	-0.073	0.079
-296.720	-200.000	0.015	0.166
-295.705	-142.412	0.255	-0.025
-294.691	-98.157	0.246	0.063
-293.676	800.000	0.035	0.148
-292.662	138.748	0.051	0.067
-291.647	339.110	-0.188	-0.364
-290.632	52.208	-0.072	0.068
-289.618	-82.433	-0.077	0.025
-288.603	800.000	0.105	-0.425
-287.589	414.551	-0.247	0.522
-286.574	243.150	0.111	-0.184
-285.559	5.119	0.091	0.067
-284.545	315.776	0.068	-0.128
-283.530	-144.152	0.249	-0.023
-282.516	560.449	0.058	-0.140
-281.501	-152.814	0.301	-0.021
-280.486	800.000	-0.079	0.270
-279.472	-87.408	-0.413	0.124
-278.457	456.341	-0.065	-0.143
-277.443	49.887	-0.110	0.103
-276.428	44.742	0.036	-0.033
-275.413	-37.206	0.072	-0.038
-274.399	9.122	-0.124	-0.093
-273.384	-38.990	0.227	0.119
-272.370	-22.376	-0.206	-0.124
-271.355	-14.286	-0.297	0.190
-270.340	800.000	-0.085	0.263
-269.326	249.510	-0.073	-0.123
-268.311	364.061	0.119	0.238
-267.297	-58.745	-0.153	0.066
-266.282	136.524	0.170	-0.220
-265.267	-78.418	-0.242	0.082
-264.253	-17.469	-0.402	0.251
-263.238	146.243	-0.026	-0.035
-262.224	-200.000	-0.020	0.118
-261.209	68.742	-0.159	0.162
-260.195	-97.009	0.461	-0.120
-259.180	-77.962	-0.222	0.076
-258.165	800.000	-0.020	-0.071
-257.151	397.618	0.074	0.154
-256.136	97.932	0.144	0.165
-255.122	72.034	0.199	0.205
-254.107	-200.000	0.014	0.154
-253.092	279.756	-0.056	-0.099
-252.078	-200.000	-0.082	0.447
-251.063	-56.411	0.169	0.074
-250.049	-200.000	0.018	-0.199
-249.034	19.058	0.218	-0.173
-248.019	27.868	0.124	-0.104
-247.005	-147.910	-0.210	-0.017
-245.990	-23.792	-0.055	0.033
-244.976	-200.000	0.054	0.378
-243.961	-75.543	0.323	-0.114
-242.946	-56.961	0.362	0.159
-241.932	-51.512	0.188	-0.087
-240.917	11.889	0.215	-0.164
-239.903	117.406	0.338	-0.412
-238.888	-88.367	-0.303	-0.090
-237.873	-200.000	-0.021	-0.149
-236.859	118.519	-0.132	0.162
-235.844	-127.958	0.197	0.028
-234.830	-200.000	0.063	-0.350
-233.815	277.952	-0.057	0.100
-232.800	108.827	-0.191	-0.227
-231.786	-194.111	0.374	0.003
-230.771	102.662	0.149	-0.173
-229.757	474.187	0.082	0.183
-228.742	-200.000	0.061	0.402
-227.727	13.405	-0.309	-0.238
-226.713	443.007	0.081	0.175
-225.698	-95.712	-0.110	-0.029
-224.684	317.661	-0.114	-0.214
-223.669	-200.000	-0.017	-0.190
-222.655	44.773	-0.289	-0.264
-221.640	-200.000	0.029	-0.169
-220.625	-116.640	-0.142	-0.026
-219.611	-190.628	0.077	0.001
-218.596	-21.198	-0.263	-0.160
-217.582	461.961	-0.075	-0.165
-216.567	288.432	-0.150	0.268
-215.552	-200.000	-0.015	0.110
-214.538	165.122	0.203	-0.284
-213.523	800.000	0.054	0.160
-212.509	203.280	0.091	-0.140
-211.494	62.865	0.120	0.119
-210.479	227.508	-0.131	0.211
-209.465	-200.000	0.006	0.166
-208.450	-76.638	-0.338	-0.117
-207.436	800.000	0.047	0.190
-206.421	760.281	0.093	-0.249
-205.406	79.811	-0.096	-0.102
-204.392	-61.510	0.098	0.041
-203.377	-50.081	0.189	0.088
-202.363	397.599	-0.091	0.188
-201.348	-200.000	-0.021	-0.229
-200.333	244.670	-0.117	0.195
-199.319	101.659	0.116	-0.134
-198.304	-200.000	-0.031	-0.272
-197.290	33.364	0.076	-0.065
-196.275	39.183	-0.198	-0.175
-195.260	92.975	-0.126	0.140
-194.246	539.424	0.095	-0.224
-193.231	227.518	-0.028	-0.046
-192.217	800.000	-0.034	-0.110
-191.202	-53.449	-0.165	0.075
-190.187	36.771	0.198	-0.173
-189.173	800.000	0.036	0.151
-188.158	-46.896	-0.288	-0.140
-187.144	-62.228	0.117	-0.048
-186.129	-151.620	0.077	0.006
-185.114	-49.587	0.035	-0.017
-184.100	-42.836	0.392	-0.197
-183.085	-200.000	-0.020	-0.478
-182.071	-41.516	-0.331	-0.168
-181.056	-200.000	0.023	0.151
-180.042	-200.000	0.010	0.183
-179.027	147.637	0.129	0.172
-178.012	311.920	0.115	0.213
-176.998	-173.510	-0.291	0.009
-175.983	-178.345	0.373	-0.009
-174.969	104.157	0.032	-0.038
-173.954	-200.000	-0.030	-0.220
-172.939	-63.046	0.279	0.114
-171.925	384.087	-0.051	-0.103
-170.910	101.285	0.278	-0.320
-169.896	9.284	0.173	-0.129
-168.881	-91.950	0.534	0.149
-167.866	-200.000	0.016	0.200
-166.852	-48.909	0.201	-0.095
-165.837	-53.901	0.415	0.187
-164.823	23.761	0.096	0.078
-163.808	-150.409	0.048	0.004
-162.793	-136.029	-0.167	-0.019
-161.779	639.911	0.066	-0.165
-160.764	34.300	-0.112	0.096
-159.750	-200.000	0.012	0.091
-158.735	800.000	0.062	-0.220
-157.720	-200.000	-0.043	0.206
-156.706	-109.202	0.354	-0.074
-155.691	267.221	-0.192	0.332
-154.677	800.000	-0.101	-0.378
-153.662	218.788	0.098	0.155
-152.647	-200.000	-0.017	-0.211
-151.633	23.403	-0.172	-0.140
-150.618	-150.947	-0.295	0.022
-149.604	800.000	-0.054	0.222
-148.589	317.726	0.083	-0.155
-147.574	290.888	-0.123	0.220
-146.560	-115.569	0.218	0.040
-145.545	-76.863	-0.174	-0.060
-144.531	537.057	0.188	0.440
-143.516	800.000	-0.060	0.171
-142.502	239.069	0.048	0.078
-141.487	46.565	0.263	-0.241
-140.472	198.514	0.104	0.157
-139.458	83.197	0.171	0.184
-138.443	-200.000	0.010	-0.155
-137.429	233.677	0.168	0.273
-136.414	19.488	0.118	0.094
-135.399	-57.351	-0.062	0.027
-134.385	-108.465	0.230	0.049
-133.370	-54.733	-0.151	-0.067
-132.356	-34.714	-0.098	-0.053
-131.341	104.627	0.134	-0.156
-130.326	-34.162	-0.239	-0.129
-129.312	-1.723	-0.313	-0.218
-128.297	-109.237	0.239	0.050
-127.283	-179.766	0.326	0.007
-126.268	-1.995	-0.140	0.097
-125.253	-200.000	-0.025	0.143
-124.239	69.544	0.392	0.399
-123.224	30.760	0.055	0.046
-122.210	-200.000	0.029	-0.305
