DTS Sentinel unit serial number:	SN413079Multiplexer serial number:	ORYXHardware model number:	OX4-SRSoftware version number:	ORYX F/W v4.00 Oryx Data Collector v3.7.2.0data status	okinstallation	princeton_trtdifferential loss correction	single-endedforward channel	channel 4reverse channel	N/Adate	2019/09/13time	10:53:34forward acquisition time	60.00reverse acquisition time	0.00gamma	496.2192k internal	0.2305k external	0.2305temperature offset calibration	1.0192default loss term (dB/km)	0.3790temperature slope calibration	1.0000multiplexer offset coefficient	1.0000multiplexer slope coefficient	1.0000fibre end	0.00T internal ref (°C)	31.75T ext. ref 1 (°C)	4.61T ext. ref 2 (°C)	28.31length (m)	temperature (°C)	Stokes	anti-Stokes-747.200	-113.319	-0.083	0.017
-746.185	79.916	-0.082	-0.090
-745.171	-56.656	0.162	0.073
-744.156	-200.000	0.068	0.322
-743.142	-32.275	-0.149	0.085
-742.127	267.759	-0.103	0.183
-741.112	308.404	-0.076	0.145
-740.098	230.199	-0.122	0.203
-739.083	-141.485	0.366	0.038
-738.069	310.797	-0.067	0.128
-737.054	-115.773	-0.227	0.043
-736.039	-117.078	-0.404	-0.075
-735.025	114.802	-0.198	0.245
-734.010	-200.000	0.009	0.322
-732.996	59.180	0.139	-0.139
-731.981	-165.532	-0.254	-0.011
-730.966	-200.000	0.008	-0.106
-729.952	122.911	0.212	-0.270
-728.937	800.000	-0.057	-0.204
-727.923	21.239	0.137	-0.113
-726.908	439.538	-0.055	0.122
-725.894	600.478	-0.114	-0.289
-724.879	21.324	-0.391	-0.323
-723.864	-109.861	-0.054	0.012
-722.850	-106.637	-0.351	0.079
-721.835	-178.249	-0.354	-0.008
-720.821	-36.034	-0.160	-0.088
-719.806	-200.000	-0.028	0.136
-718.791	-53.354	-0.035	0.016
-717.777	-114.231	0.277	-0.054
-716.762	800.000	-0.043	-0.138
-715.748	-196.797	0.267	-0.002
-714.733	223.492	0.080	-0.130
-713.718	-134.803	0.123	0.015
-712.704	565.406	-0.051	-0.126
-711.689	800.000	0.088	-0.325
-710.675	116.858	-0.108	0.134
-709.660	-200.000	-0.012	-0.275
-708.645	-31.295	-0.426	-0.243
-707.631	708.088	-0.065	-0.176
-706.616	504.960	-0.050	-0.118
-705.602	-46.514	-0.366	-0.183
-704.587	-5.518	-0.131	-0.091
-703.572	-200.000	-0.004	0.628
-702.558	41.838	0.056	-0.052
-701.543	36.203	-0.287	-0.257
-700.529	-200.000	-0.052	-0.237
-699.514	171.871	-0.108	0.158
-698.499	-63.359	-0.201	-0.084
-697.485	196.065	-0.076	0.117
-696.470	800.000	-0.053	0.219
-695.456	-185.873	-0.313	0.005
-694.441	800.000	0.019	0.078
-693.426	-151.464	-0.049	-0.004
-692.412	612.620	0.031	-0.079
-691.397	-174.290	-0.237	0.007
-690.383	-200.000	0.051	0.237
-689.368	-200.000	-0.063	0.296
-688.354	-111.013	-0.337	-0.070
-687.339	-186.035	-0.218	0.003
-686.324	298.308	0.069	-0.129
-685.310	-89.879	-0.305	-0.091
-684.295	800.000	-0.046	-0.138
-683.281	800.000	0.037	-0.163
-682.266	-123.866	-0.211	-0.034
-681.251	-87.210	-0.175	-0.054
-680.237	-161.351	-0.362	0.019
-679.222	69.265	0.337	-0.352
-678.208	800.000	0.075	0.261
-677.193	-167.844	-0.423	0.017
-676.178	224.141	-0.153	-0.250
-675.164	-105.253	-0.213	0.049
-674.149	145.105	-0.192	0.260
-673.135	440.825	0.112	-0.249
-672.120	111.125	0.245	-0.299
-671.105	800.000	0.049	-0.152
-670.091	-19.147	0.071	0.045
-669.076	-167.171	0.270	0.011
-668.062	-200.000	-0.035	-0.210
-667.047	182.720	-0.116	-0.174
-666.032	800.000	0.090	-0.327
-665.018	-113.932	-0.293	-0.058
-664.003	-142.280	0.522	0.052
-662.989	-39.870	0.178	-0.094
-661.974	335.289	-0.125	-0.246
-660.959	-200.000	0.020	0.172
-659.945	-59.645	-0.260	0.113
-658.930	183.543	-0.098	-0.148
-657.916	-142.705	0.202	-0.020
-656.901	-150.365	-0.087	0.007
-655.886	-95.891	0.236	0.064
-654.872	141.844	-0.220	-0.296
-653.857	230.107	-0.157	-0.261
-652.843	-65.452	-0.230	0.094
-651.828	209.827	-0.330	0.525
-650.814	800.000	-0.075	-0.265
-649.799	11.027	-0.208	0.161
-648.784	-200.000	0.067	0.348
-647.770	201.738	-0.092	0.144
-646.755	563.234	0.134	0.329
-645.741	43.908	-0.067	0.062
-644.726	800.000	-0.019	-0.064
-643.711	-87.489	-0.343	-0.105
-642.697	266.008	-0.202	0.358
-641.682	-97.041	0.180	-0.048
-640.668	169.768	-0.171	-0.248
-639.653	-101.598	-0.091	0.022
-638.638	18.074	0.072	-0.058
-637.624	7.013	-0.163	-0.123
-636.609	-81.106	-0.050	-0.017
-635.595	136.831	0.116	0.153
-634.580	-55.751	-0.365	-0.165
-633.565	16.773	-0.138	-0.111
-632.551	-142.353	0.059	0.006
-631.536	-171.923	0.048	-0.002
-630.522	163.166	-0.023	0.033
-629.507	-34.380	0.295	-0.164
-628.492	20.893	0.254	-0.209
-627.478	19.160	0.108	0.088
-626.463	-95.611	-0.077	-0.021
-625.449	-181.661	-0.407	-0.008
-624.434	-88.328	-0.182	-0.055
-623.419	800.000	-0.099	-0.324
-622.405	269.706	-0.173	-0.309
-621.390	65.655	-0.228	0.234
-620.376	90.910	0.136	-0.154
-619.361	-167.770	0.306	-0.012
-618.346	-149.872	0.140	0.011
-617.332	-123.497	0.289	-0.047
-616.317	-200.000	0.006	-0.137
-615.303	692.973	0.133	0.353
-614.288	-151.281	-0.310	0.023
-613.273	800.000	-0.092	0.355
-612.259	-200.000	-0.045	-0.295
-611.244	-175.246	-0.278	0.008
-610.230	-113.635	0.248	-0.049
-609.215	166.067	-0.246	0.353
-608.201	35.461	-0.145	-0.129
-607.186	-200.000	0.053	-0.264
-606.171	-200.000	0.006	-0.036
-605.157	97.798	-0.110	0.128
-604.142	499.697	0.063	-0.147
-603.128	-76.434	-0.402	-0.143
-602.113	800.000	-0.080	0.255
-601.098	-24.731	0.319	-0.192
-600.084	-184.473	-0.144	0.002
-599.069	-200.000	-0.034	0.244
-598.055	72.400	-0.116	0.122
-597.040	-87.577	-0.213	-0.065
-596.025	180.707	-0.165	0.245
-595.011	-161.858	0.154	0.008
-593.996	773.232	0.081	-0.224
-592.982	452.903	-0.072	-0.161
-591.967	-117.994	-0.283	-0.051
-590.952	-86.560	0.095	0.030
-589.938	131.300	-0.174	-0.226
-588.923	126.328	-0.197	0.252
-587.909	654.164	0.066	0.170
-586.894	-47.355	0.285	-0.140
-585.879	-134.047	-0.187	-0.023
-584.865	628.650	-0.088	0.226
-583.850	25.730	-0.179	0.151
-582.836	800.000	0.042	-0.132
-581.821	-200.000	0.071	-0.454
-580.806	95.726	-0.140	0.162
-579.792	-37.023	-0.063	0.034
-578.777	-16.229	-0.437	-0.281
-577.763	332.652	0.149	0.292
-576.748	-80.085	0.050	-0.017
-575.733	-200.000	-0.047	0.230
-574.719	59.713	0.129	0.129
-573.704	-123.251	-0.099	-0.016
-572.690	133.186	0.008	-0.011
-571.675	800.000	-0.029	0.125
-570.661	180.461	-0.085	-0.127
-569.646	252.340	-0.155	-0.267
-568.631	-33.342	0.161	-0.090
-567.617	-154.662	0.388	0.026
-566.602	-92.172	0.128	-0.037
-565.588	-11.831	-0.101	-0.067
-564.573	800.000	-0.058	0.234
-563.558	-119.037	-0.208	0.037
-562.544	226.892	0.100	0.164
-561.529	-200.000	0.020	-0.194
-560.515	-121.146	-0.149	0.025
-559.500	-200.000	-0.018	-0.085
-558.485	-98.995	0.366	0.094
-557.471	-135.239	-0.290	0.035
-556.456	-88.486	-0.215	-0.065
-555.442	-76.336	0.380	0.135
-554.427	-163.590	0.302	0.014
-553.412	-200.000	-0.049	0.453
-552.398	800.000	0.049	0.149
-551.383	-0.721	-0.013	0.009
-550.369	-24.938	0.139	-0.083
-549.354	800.000	-0.013	-0.043
-548.339	-88.862	-0.316	0.095
-547.325	71.557	-0.378	-0.397
-546.310	-200.000	-0.015	-0.234
-545.296	-200.000	-0.004	0.330
-544.281	-148.946	-0.260	-0.021
-543.266	674.155	0.105	0.275
-542.252	-20.651	0.236	0.146
-541.237	244.454	-0.188	-0.318
-540.223	-42.590	0.566	-0.291
-539.208	-139.821	0.137	-0.015
-538.193	-200.000	-0.005	-0.285
-537.179	491.314	-0.125	-0.288
-536.164	138.553	-0.025	-0.033
-535.150	251.197	-0.122	0.209
-534.135	-161.805	-0.178	-0.009
-533.121	94.118	-0.126	-0.145
-532.106	800.000	0.129	-0.421
-531.091	-55.851	-0.262	-0.118
-530.077	42.586	0.267	0.246
-529.062	-200.000	0.014	-0.381
-528.048	-200.000	-0.024	0.345
-527.033	-200.000	0.031	-0.154
-526.018	-38.617	-0.322	0.172
-525.004	-200.000	0.010	0.335
-523.989	-121.456	-0.334	-0.056
-522.975	-109.805	0.276	0.059
-521.960	112.771	-0.035	0.043
-520.945	29.433	-0.093	-0.080
-519.931	359.517	0.021	0.042
-518.916	69.161	-0.214	0.222
-517.902	-133.578	-0.260	-0.033
-516.887	135.297	-0.057	0.075
-515.872	-49.156	-0.243	-0.117
-514.858	180.603	-0.178	-0.263
-513.843	82.847	-0.166	-0.182
-512.829	-68.684	-0.085	0.033
-511.814	87.597	0.174	0.194
-510.799	-14.945	0.233	0.151
-509.785	-60.721	-0.378	-0.161
-508.770	800.000	-0.072	0.312
-507.756	-163.787	-0.162	-0.008
-506.741	383.797	0.158	0.327
-505.726	-29.712	-0.225	0.130
-504.712	800.000	-0.029	0.104
-503.697	244.941	0.204	0.347
-502.683	-20.851	0.187	0.116
-501.668	800.000	0.072	-0.291
-500.653	146.087	0.091	0.124
-499.639	-168.772	-0.159	-0.006
-498.624	-110.946	-0.157	0.033
-497.610	4.614	0.197	-0.146
-496.595	23.645	-0.104	-0.086
-495.581	-125.926	0.243	0.037
-494.566	348.632	-0.070	0.139
-493.551	227.878	0.071	0.117
-492.537	-71.119	-0.325	0.123
-491.522	-72.930	0.326	0.121
-490.508	-70.879	0.270	0.103
-489.493	57.475	-0.225	-0.221
-488.478	-200.000	-0.009	-0.071
-487.464	-200.000	-0.012	-0.274
-486.449	5.654	0.238	-0.177
-485.435	-200.000	-0.022	-0.148
-484.420	-200.000	-0.042	0.332
-483.405	-200.000	0.040	0.199
-482.391	-142.203	0.291	0.029
-481.376	-200.000	-0.017	-0.190
-480.362	40.322	-0.061	-0.055
-479.347	800.000	0.056	-0.195
-478.332	-200.000	0.014	0.118
-477.318	-200.000	-0.004	-0.114
-476.303	-134.874	0.190	-0.023
-475.289	323.117	0.058	-0.111
-474.274	-100.809	0.337	-0.083
-473.259	83.926	0.099	-0.109
-472.245	52.365	-0.228	0.219
-471.230	-52.620	-0.157	-0.073
-470.216	-92.432	-0.067	0.019
-469.201	-200.000	0.021	-0.247
-468.186	517.475	0.023	0.054
-467.172	-97.418	-0.356	0.093
-466.157	34.699	0.273	0.240
-465.143	-138.993	0.143	0.016
-464.128	-114.711	0.123	-0.024
-463.113	-147.495	-0.066	-0.006
-462.099	335.329	0.032	0.062
-461.084	478.139	-0.130	-0.296
-460.070	72.248	-0.116	0.121
-459.055	6.367	0.119	0.089
-458.040	-83.710	-0.102	-0.033
-457.026	-43.555	0.066	-0.033
-456.011	62.689	-0.163	-0.164
-454.997	282.834	-0.110	-0.199
-453.982	-100.869	-0.101	-0.025
-452.968	436.091	0.104	-0.229
-451.953	-80.042	0.076	-0.026
-450.938	532.108	0.102	-0.243
-449.924	-200.000	0.023	-0.388
-448.909	-73.069	-0.016	-0.006
-447.895	-83.907	0.281	-0.090
-446.880	-200.000	-0.002	0.088
-445.865	-111.750	-0.306	-0.062
-444.851	-57.696	0.108	0.048
-443.836	-200.000	-0.001	-0.114
-442.822	99.557	0.167	-0.194
-441.807	-76.296	0.147	-0.052
-440.792	-10.989	0.118	-0.078
-439.778	487.000	0.074	0.170
-438.763	428.258	0.088	0.192
-437.749	0.347	-0.111	0.080
-436.734	-159.607	-0.154	-0.009
-435.719	-69.310	0.178	-0.069
-434.705	-200.000	0.010	-0.060
-433.690	-85.147	-0.288	0.091
-432.676	116.997	0.180	0.222
-431.661	800.000	-0.060	-0.179
-430.646	394.461	0.248	0.520
-429.632	-111.614	0.128	-0.026
-428.617	-171.496	-0.158	-0.005
-427.603	-200.000	0.019	0.323
-426.588	566.819	-0.114	0.278
-425.573	14.066	-0.209	-0.163
-424.559	800.000	-0.138	0.447
-423.544	56.942	0.206	0.202
-422.530	800.000	-0.022	-0.080
-421.515	-158.925	-0.096	0.005
-420.500	-190.500	0.173	-0.002
-419.486	-98.838	0.447	-0.114
-418.471	56.696	0.176	0.173
-417.457	800.000	-0.040	-0.168
-416.442	-137.899	-0.250	-0.028
-415.428	-141.978	-0.198	-0.020
-414.413	47.868	0.236	0.221
-413.398	31.660	-0.335	-0.290
-412.384	-51.081	-0.252	-0.119
-411.369	-200.000	0.009	0.138
-410.355	-120.156	0.177	-0.030
-409.340	-200.000	0.031	-0.198
-408.325	-66.897	-0.035	-0.014
-407.311	-72.595	-0.160	-0.059
-406.296	-24.906	-0.142	-0.084
-405.282	-141.967	-0.287	0.029
-404.267	-108.428	0.299	-0.065
-403.252	-110.237	0.089	-0.019
-402.238	800.000	0.044	0.139
-401.223	800.000	-0.020	0.058
-400.209	140.729	0.107	0.142
-399.194	800.000	-0.094	-0.384
-398.179	296.404	0.110	0.203
-397.165	-100.969	0.333	0.082
-396.150	471.349	-0.093	0.211
-395.136	-200.000	0.011	-0.062
-394.121	639.093	-0.097	-0.248
-393.106	455.250	-0.078	0.175
-392.092	-12.361	0.193	-0.127
-391.077	43.753	0.100	-0.092
-390.063	27.894	0.043	-0.036
-389.048	378.222	0.128	-0.263
-388.033	800.000	-0.057	0.250
-387.019	54.638	-0.171	0.166
-386.004	156.309	-0.096	0.133
-384.990	45.720	-0.117	-0.109
-383.975	-74.410	-0.195	0.071
-382.960	219.037	0.182	-0.292
-381.946	-200.000	0.006	-0.035
-380.931	-200.000	-0.070	0.360
-379.917	-200.000	-0.011	0.068
-378.902	-7.241	0.029	-0.019
-377.888	-200.000	-0.022	-0.348
-376.873	93.796	0.152	0.173
-375.858	-97.048	0.063	-0.017
-374.844	-152.115	0.323	0.024
-373.829	-57.881	-0.322	0.141
-372.815	-114.637	-0.149	-0.029
-371.800	-200.000	0.031	0.256
-370.785	-39.694	-0.292	-0.153
-369.771	133.005	0.062	0.080
-368.756	-200.000	0.092	-0.408
-367.742	65.463	0.019	0.019
-366.727	800.000	0.085	0.237
-365.712	12.043	-0.252	-0.194
-364.698	412.999	0.077	0.165
-363.683	800.000	0.051	0.193
-362.669	-114.827	0.252	-0.048
-361.654	-120.817	0.426	0.072
-360.639	75.156	-0.125	-0.132
-359.625	-85.558	-0.049	-0.015
-358.610	-93.077	-0.297	-0.083
-357.596	28.847	-0.204	-0.174
-356.581	-51.371	0.236	-0.111
-355.566	556.547	0.007	0.016
-354.552	55.824	0.166	-0.161
-353.537	-54.809	0.123	0.056
-352.523	-43.944	0.060	0.030
-351.508	-200.000	-0.002	-0.265
-350.493	-166.961	0.253	0.010
-349.479	-97.333	-0.152	0.040
-348.464	-16.254	-0.107	0.068
-347.450	264.625	-0.064	0.111
-346.435	-200.000	-0.006	0.048
-345.420	-200.000	0.072	-0.452
-344.406	800.000	-0.000	0.001
-343.391	276.881	0.165	0.293
-342.377	106.025	0.067	-0.080
-341.362	446.675	0.087	-0.191
-340.348	-24.799	0.048	-0.028
-339.333	-200.000	0.017	-0.091
-338.318	800.000	0.080	0.286
-337.304	-145.338	-0.401	-0.036
-336.289	-119.076	-0.223	0.039
-335.275	562.452	0.064	0.156
-334.260	-11.465	0.121	-0.079
-333.245	104.373	-0.086	-0.102
-332.231	-200.000	-0.031	0.256
-331.216	-162.377	-0.135	0.007
-330.202	-85.704	0.351	0.109
-329.187	800.000	0.092	-0.316
-328.172	231.457	0.018	-0.029
-327.158	258.195	-0.101	0.175
-326.143	-200.000	0.051	-0.237
-325.129	-200.000	0.018	-0.103
-324.114	1.621	0.216	0.156
-323.099	-200.000	0.016	0.216
-322.085	-55.501	0.135	0.061
-321.070	346.595	0.157	0.310
-320.056	-119.212	-0.150	0.026
-319.041	71.505	0.201	-0.209
-318.026	-137.698	-0.235	0.026
-317.012	66.293	0.125	0.127
-315.997	-122.784	-0.125	-0.020
-314.983	-81.028	0.155	-0.051
-313.968	90.653	0.026	-0.029
-312.953	-30.737	-0.293	0.166
-311.939	-150.413	0.199	-0.015
-310.924	29.730	-0.206	-0.175
-309.910	-84.676	0.273	0.086
-308.895	-7.648	-0.219	0.148
-307.880	-47.104	-0.381	0.186
-306.866	245.742	-0.064	-0.108
-305.851	251.309	0.076	-0.129
-304.837	-166.027	0.301	-0.013
-303.822	-82.648	0.131	0.043
-302.807	495.161	0.117	-0.269
-301.793	-57.824	0.193	0.084
-300.778	-97.506	0.303	0.079
-299.764	800.000	-0.065	-0.216
-298.749	-94.117	-0.121	0.033
-297.735	346.160	-0.073	-0.144
-296.720	-130.176	-0.310	-0.042
-295.705	800.000	0.088	-0.339
-294.691	-200.000	0.064	0.283
-293.676	-37.238	0.142	-0.076
-292.662	10.966	-0.051	-0.039
-291.647	298.387	-0.248	-0.455
-290.632	-74.665	0.129	-0.047
-289.618	800.000	-0.034	-0.102
-288.603	26.860	0.082	-0.069
-287.589	544.935	0.075	-0.179
-286.574	-31.112	-0.174	0.098
-285.559	692.132	-0.010	-0.025
-284.545	-40.484	0.171	-0.089
-283.530	-115.302	0.108	-0.020
-282.516	89.070	-0.100	-0.111
-281.501	113.633	0.156	0.189
-280.486	141.007	0.155	-0.205
-279.472	-200.000	0.001	-0.248
-278.457	-3.110	-0.152	0.106
-277.443	-186.489	-0.238	0.003
-276.428	800.000	0.052	-0.182
-275.413	36.900	-0.034	0.030
-274.399	-131.787	-0.038	-0.005
-273.384	-196.078	0.213	-0.001
-272.370	319.623	-0.172	-0.326
-271.355	-200.000	0.040	0.176
-270.340	216.781	0.084	-0.133
-269.326	800.000	-0.067	-0.223
-268.311	289.278	-0.090	0.163
-267.297	-115.429	-0.169	-0.032
-266.282	-7.848	0.137	0.092
-265.267	-14.397	-0.166	-0.107
-264.253	116.471	0.089	-0.109
-263.238	-28.894	-0.083	0.048
-262.224	-200.000	0.004	0.037
-261.209	157.900	-0.091	0.125
-260.195	-120.624	-0.119	-0.020
-259.180	17.523	-0.171	-0.136
-258.165	-200.000	0.012	-0.059
-257.151	-115.940	0.151	0.028
-256.136	800.000	0.026	-0.086
-255.122	800.000	-0.046	-0.152
-254.107	-200.000	0.059	0.478
-253.092	193.101	-0.140	0.211
-252.078	-107.500	-0.149	0.033
-251.063	-144.988	-0.264	0.024
-250.049	-138.400	0.150	0.016
-249.034	-200.000	-0.015	-0.166
-248.019	167.009	0.167	0.236
-247.005	9.584	-0.130	-0.098
-245.990	-113.263	0.272	-0.053
-244.976	322.622	0.122	0.232
-243.961	199.104	0.005	-0.008
-242.946	-200.000	0.044	-0.204
-241.932	-129.422	0.075	-0.010
-240.917	-122.927	0.279	0.045
-239.903	34.416	0.277	-0.241
-238.888	378.206	0.075	0.152
-237.873	22.997	0.182	0.149
-236.859	364.072	0.013	0.025
-235.844	800.000	0.031	0.126
-234.830	791.403	-0.107	0.294
-233.815	-165.318	0.455	-0.020
-232.800	39.012	-0.132	0.118
-231.786	-177.465	0.320	-0.008
-230.771	-85.370	0.237	0.074
-229.757	38.197	-0.176	-0.156
-228.742	-169.413	0.130	-0.005
-227.727	-57.671	-0.287	-0.125
-226.713	-116.264	-0.129	-0.024
-225.698	133.572	-0.060	0.077
-224.684	3.242	0.162	-0.118
-223.669	-99.520	0.188	0.047
-222.655	78.443	0.103	0.110
-221.640	721.797	-0.072	0.191
-220.625	75.766	-0.074	0.078
-219.611	230.085	0.067	0.109
-218.596	-153.602	0.067	0.005
-217.582	-197.762	-0.042	-0.000
-216.567	61.818	0.181	-0.180
-215.552	630.516	-0.133	0.334
-214.538	-98.738	0.182	0.046
-213.523	-200.000	-0.030	-0.164
-212.509	73.679	0.168	0.175
-211.494	-141.282	-0.166	0.017
-210.479	237.758	0.087	-0.143
-209.465	186.172	0.142	0.211
-208.450	800.000	-0.007	-0.028
-207.436	98.676	-0.090	0.103
-206.421	800.000	0.082	0.255
-205.406	-200.000	0.041	-0.196
-204.392	-200.000	0.016	0.239
-203.377	-129.542	0.192	0.026
-202.363	288.223	-0.111	-0.200
-201.348	101.372	0.121	-0.141
-200.333	437.039	0.101	0.220
-199.319	-200.000	0.066	0.438
-198.304	4.432	0.186	-0.136
-197.290	-22.796	0.349	-0.210
-196.275	18.528	-0.330	-0.263
-195.260	74.426	-0.045	-0.047
-194.246	-71.246	0.512	-0.191
-193.231	-200.000	0.004	-0.164
-192.217	-96.879	-0.434	0.114
-191.202	167.505	0.070	0.098
-190.187	800.000	0.064	0.228
-189.173	-124.561	-0.257	-0.040
-188.158	800.000	0.027	-0.097
-187.144	147.719	0.150	0.202
-186.129	-87.017	0.121	-0.037
-185.114	-130.019	-0.220	0.030
-184.100	-134.145	0.244	-0.030
-183.085	734.626	0.044	0.117
-182.071	-10.191	0.105	-0.070
-181.056	-65.624	-0.296	0.118
-180.042	800.000	-0.041	0.113
-179.027	354.278	-0.063	-0.124
-178.012	-89.495	-0.353	0.103
-176.998	-103.681	0.427	0.100
-175.983	20.483	0.181	0.145
-174.969	-174.595	0.275	-0.008
-173.954	192.550	-0.151	0.226
-172.939	-127.999	0.355	0.051
-171.925	800.000	0.106	-0.334
-170.910	-39.378	-0.269	-0.141
-169.896	16.798	0.219	-0.172
-168.881	-200.000	0.043	-0.417
-167.866	219.025	0.051	0.080
-166.852	102.881	-0.122	0.142
-165.837	39.776	-0.251	0.224
-164.823	-25.603	-0.294	0.173
-163.808	73.394	0.235	0.245
-162.793	-195.928	-0.321	0.002
-161.779	359.374	0.128	0.254
-160.764	-79.630	-0.125	-0.042
-159.750	149.344	-0.037	-0.050
-158.735	127.004	-0.214	-0.270
-157.720	-103.181	0.117	0.028
-156.706	800.000	-0.124	-0.427
-155.691	-149.812	-0.238	0.019
-154.677	26.867	0.140	-0.116
-153.662	537.536	0.057	0.136
-152.647	-161.734	0.144	0.007
-151.633	494.883	-0.075	0.172
-150.618	-200.000	-0.003	0.088
-149.604	-200.000	-0.007	-0.165
-148.589	-125.786	0.022	0.003
-147.574	320.192	-0.181	-0.342
-146.560	237.798	-0.270	-0.446
-145.545	138.432	-0.261	-0.341
-144.531	22.309	-0.020	0.016
-143.516	-150.016	0.218	0.017
-142.502	-178.968	0.051	-0.001
-141.487	2.146	0.150	0.108
-140.472	-98.092	0.244	-0.063
-139.458	-111.164	0.229	0.047
-138.443	108.497	-0.048	0.057
-137.429	31.010	0.166	-0.141
-136.414	-25.877	0.234	-0.137
-135.399	22.584	0.247	0.201
-134.385	-200.000	-0.012	-0.122
-133.370	-200.000	-0.039	0.217
-132.356	-155.132	-0.195	0.013
-131.341	227.849	0.138	-0.224
-130.326	12.323	-0.225	0.172
-129.312	-200.000	-0.032	-0.366
-128.297	704.427	-0.075	0.197
-127.283	-92.932	-0.079	-0.022
-126.268	-109.279	0.089	0.019
-125.253	21.741	0.071	-0.058
-124.239	107.244	-0.035	-0.042
-123.224	800.000	-0.066	0.230
