DTS Sentinel unit serial number:	SN413079Multiplexer serial number:	ORYXHardware model number:	OX4-SRSoftware version number:	ORYX F/W v4.00 Oryx Data Collector v3.7.2.0data status	okinstallation	princeton_trtdifferential loss correction	single-endedforward channel	channel 4reverse channel	N/Adate	2019/09/12time	10:07:11forward acquisition time	60.00reverse acquisition time	0.00gamma	496.2192k internal	0.2296k external	0.2296temperature offset calibration	1.0071default loss term (dB/km)	0.3790temperature slope calibration	1.0000multiplexer offset coefficient	1.0000multiplexer slope coefficient	1.0000fibre end	0.00T internal ref (°C)	36.34T ext. ref 1 (°C)	1.85T ext. ref 2 (°C)	33.33length (m)	temperature (°C)	Stokes	anti-Stokes-747.200	104.013	0.123	0.148
-746.185	-147.610	-0.229	-0.020
-745.171	213.219	-0.149	0.240
-744.156	-27.120	-0.312	0.186
-743.142	50.654	0.066	-0.064
-742.127	-200.000	0.007	-0.105
-741.112	-142.857	0.246	0.024
-740.098	-89.057	-0.429	0.130
-739.083	-122.807	0.146	-0.024
-738.069	-200.000	-0.011	0.382
-737.054	13.406	-0.147	-0.117
-736.039	-109.994	0.202	-0.043
-735.025	80.799	0.216	-0.238
-734.010	-66.611	-0.234	-0.095
-732.996	-194.858	0.225	-0.002
-731.981	-200.000	-0.033	0.325
-730.966	-20.169	0.198	-0.125
-729.952	508.241	0.120	0.284
-728.937	186.402	-0.026	-0.039
-727.923	-5.268	0.162	-0.114
-726.908	-184.317	0.707	0.012
-725.894	488.944	-0.112	-0.262
-724.879	-200.000	0.019	0.124
-723.864	230.670	-0.191	0.319
-722.850	-117.281	0.113	0.021
-721.835	270.503	-0.041	-0.073
-720.821	-200.000	0.002	0.237
-719.806	-92.508	0.190	0.055
-718.791	214.270	-0.094	0.153
-717.777	167.138	-0.091	0.131
-716.762	-200.000	-0.022	-0.210
-715.748	-107.037	0.153	0.034
-714.733	-138.687	0.161	-0.018
-713.718	59.060	0.091	-0.091
-712.704	67.810	0.151	0.158
-711.689	-164.939	-0.321	-0.015
-710.675	-110.830	-0.218	-0.046
-709.660	-115.782	-0.274	0.052
-708.645	800.000	0.076	0.289
-707.631	-200.000	-0.004	-0.094
-706.616	81.994	-0.112	-0.124
-705.602	-62.583	0.004	0.002
-704.587	-77.920	-0.370	0.130
-703.572	6.514	-0.152	0.116
-702.558	391.137	-0.168	0.355
-701.543	427.360	0.190	-0.417
-700.529	-92.383	-0.123	0.035
-699.514	354.180	-0.182	0.368
-698.499	387.989	-0.103	0.217
-697.485	301.171	-0.106	0.200
-696.470	-185.431	0.114	0.002
-695.456	219.058	-0.102	-0.167
-694.441	-39.232	0.283	-0.152
-693.426	-200.000	-0.015	-0.239
-692.412	-65.627	0.273	0.112
-691.397	800.000	-0.017	-0.047
-690.383	800.000	-0.088	-0.303
-689.368	-39.588	0.211	0.113
-688.354	-186.291	0.442	0.007
-687.339	-37.835	0.289	-0.157
-686.324	-66.987	0.246	-0.099
-685.310	-200.000	-0.088	0.431
-684.295	-200.000	0.005	-0.223
-683.281	367.488	-0.100	-0.207
-682.266	-117.982	-0.438	0.080
-681.251	-49.060	0.236	-0.115
-680.237	36.966	0.055	0.050
-679.222	232.470	0.031	-0.052
-678.208	-66.870	0.130	0.052
-677.193	-200.000	-0.001	0.039
-676.178	800.000	-0.092	-0.391
-675.164	800.000	0.065	-0.200
-674.149	51.363	0.178	-0.172
-673.135	-149.522	0.356	-0.029
-672.120	44.646	0.331	-0.310
-671.105	58.764	0.071	-0.071
-670.091	75.197	0.180	0.194
-669.076	-100.316	-0.277	0.070
-668.062	26.025	-0.092	-0.078
-667.047	-200.000	-0.010	0.140
-666.032	4.114	-0.173	0.129
-665.018	-187.498	0.156	0.002
-664.003	-159.430	-0.250	0.014
-662.989	-130.883	0.108	0.015
-661.974	-52.334	-0.229	-0.108
-660.959	-200.000	-0.043	-0.242
-659.945	-16.371	-0.117	-0.076
-658.930	39.674	-0.115	-0.105
-657.916	419.362	-0.160	0.348
-656.901	101.410	0.147	0.175
-655.886	-200.000	-0.053	0.302
-654.872	86.888	-0.133	0.149
-653.857	3.252	-0.214	0.159
-652.843	-57.835	0.215	0.096
-651.828	-14.114	-0.186	0.122
-650.814	47.741	0.174	-0.166
-649.799	145.776	-0.051	-0.070
-648.784	-200.000	0.040	-0.203
-647.770	800.000	0.027	-0.120
-646.755	17.668	0.134	-0.108
-645.741	800.000	-0.005	0.018
-644.726	-200.000	-0.027	0.196
-643.711	35.820	0.218	-0.196
-642.697	-102.299	-0.067	-0.016
-641.682	-200.000	0.042	-0.341
-640.668	-157.923	0.171	0.010
-639.653	-79.213	0.155	-0.054
-638.638	617.129	-0.118	-0.302
-637.624	-143.229	-0.332	-0.032
-636.609	388.856	0.077	-0.162
-635.595	-158.799	-0.270	-0.016
-634.580	3.469	-0.131	-0.097
-633.565	427.085	-0.085	-0.186
-632.551	-200.000	-0.025	0.168
-631.536	800.000	-0.034	0.139
-630.522	201.719	-0.115	0.180
-629.507	800.000	-0.078	-0.325
-628.492	-200.000	0.078	-0.569
-627.478	-0.942	0.252	0.182
-626.463	-21.703	-0.239	-0.148
-625.449	800.000	0.043	-0.168
-624.434	-200.000	0.011	-0.057
-623.419	98.038	-0.073	-0.085
-622.405	-200.000	-0.048	-0.396
-621.390	149.955	0.140	-0.194
-620.376	278.143	0.167	0.303
-619.361	-49.819	-0.333	-0.161
-618.346	-54.598	-0.049	0.022
-617.332	-56.510	-0.138	-0.062
-616.317	-200.000	0.020	0.134
-615.303	669.414	0.065	0.172
-614.288	536.626	0.108	-0.260
-613.273	-106.975	0.245	-0.055
-612.259	-200.000	-0.003	-0.088
-611.244	-64.044	0.105	0.044
-610.230	-36.564	0.058	0.032
-609.215	800.000	-0.090	0.262
-608.201	800.000	0.074	-0.299
-607.186	-52.587	-0.027	0.013
-606.171	-21.769	-0.046	0.029
-605.157	-200.000	-0.004	-0.119
-604.142	-200.000	0.005	0.027
-603.128	800.000	-0.032	0.124
-602.113	243.116	-0.088	-0.150
-601.098	-154.729	0.178	0.012
-600.084	48.523	0.072	-0.069
-599.069	-200.000	-0.012	0.196
-598.055	165.617	0.154	-0.221
-597.040	800.000	0.019	-0.064
-596.025	79.662	-0.141	0.154
-595.011	800.000	-0.043	-0.169
-593.996	-70.518	-0.141	-0.054
-592.982	-154.146	0.300	0.021
-591.967	-200.000	-0.011	-0.250
-590.952	-200.000	0.022	0.127
-589.938	-84.847	-0.156	0.050
-588.923	-23.967	-0.055	-0.033
-587.909	-62.842	-0.249	-0.105
-586.894	-54.430	0.130	0.060
-585.879	800.000	-0.082	0.249
-584.865	-200.000	0.026	-0.129
-583.850	437.099	-0.120	0.265
-582.836	-134.926	0.579	-0.071
-581.821	800.000	-0.070	-0.257
-580.806	-200.000	0.004	-0.156
-579.792	-90.503	0.299	0.088
-578.777	-200.000	-0.002	0.061
-577.763	-29.020	0.138	0.081
-576.748	194.600	-0.130	0.201
-575.733	-8.580	0.193	-0.131
-574.719	142.813	-0.095	-0.129
-573.704	-130.861	0.202	-0.028
-572.690	622.010	0.116	0.295
-571.675	80.975	-0.147	-0.161
-570.661	800.000	0.038	0.147
-569.646	-6.170	-0.106	-0.074
-568.631	27.775	-0.124	-0.106
-567.617	800.000	0.032	0.093
-566.602	40.010	-0.182	-0.166
-565.588	31.109	0.130	-0.113
-564.573	800.000	-0.019	-0.080
-563.558	-108.838	0.233	-0.050
-562.544	190.969	-0.153	0.233
-561.529	-200.000	0.010	-0.372
-560.515	80.635	0.185	0.202
-559.500	8.416	-0.328	-0.250
-558.485	800.000	-0.097	-0.309
-557.471	264.938	0.131	-0.232
-556.456	12.972	-0.043	0.034
-555.442	-117.593	-0.145	0.027
-554.427	203.668	0.099	-0.155
-553.412	800.000	0.071	0.217
-552.398	-197.747	0.288	-0.002
-551.383	-200.000	-0.008	-0.205
-550.369	-30.106	-0.109	0.063
-549.354	-102.110	-0.149	-0.036
-548.339	-54.907	-0.159	-0.073
-547.325	-185.219	-0.126	0.002
-546.310	-130.132	-0.290	-0.040
-545.296	-17.008	-0.166	-0.106
-544.281	800.000	-0.026	0.096
-543.266	25.833	0.160	0.136
-542.252	-12.551	-0.214	0.142
-541.237	800.000	-0.082	-0.287
-540.223	7.072	-0.160	-0.121
-539.208	-199.041	-0.144	0.001
-538.193	-54.749	0.290	0.133
-537.179	-87.014	-0.016	0.005
-536.164	422.048	0.047	0.102
-535.150	-37.166	-0.143	-0.077
-534.135	415.965	-0.064	-0.138
-533.121	-107.500	-0.094	0.021
-532.106	-110.905	-0.030	-0.006
-531.091	210.903	-0.118	-0.187
-530.077	-171.408	-0.232	-0.008
-529.062	-200.000	-0.010	0.316
-528.048	-45.631	0.126	0.063
-527.033	-24.072	0.259	0.157
-526.018	-26.021	-0.052	0.031
-525.004	-88.317	-0.322	-0.097
-523.989	-200.000	0.010	0.068
-522.975	635.755	-0.024	0.062
-521.960	-48.960	0.150	-0.073
-520.945	-17.990	-0.070	-0.044
-519.931	800.000	-0.049	0.142
-518.916	41.875	0.128	-0.118
-517.902	-56.861	0.104	0.047
-516.887	-102.429	-0.261	-0.063
-515.872	-111.057	0.370	0.077
-514.858	800.000	-0.100	-0.423
-513.843	38.956	0.212	0.192
-512.829	202.095	0.155	0.242
-511.814	-153.276	0.333	0.024
-510.799	-200.000	0.026	0.163
-509.785	332.765	0.055	0.108
-508.770	71.005	0.097	0.102
-507.756	27.548	0.226	0.192
-506.741	283.115	0.100	0.182
-505.726	-200.000	-0.008	-0.145
-504.712	-200.000	-0.001	0.061
-503.697	-56.437	-0.287	-0.129
-502.683	-7.134	-0.207	-0.142
-501.668	-39.592	0.182	-0.096
-500.653	-118.084	-0.186	-0.034
-499.639	253.891	-0.089	-0.153
-498.624	4.055	0.223	0.165
-497.610	259.939	-0.109	0.191
-496.595	-200.000	0.014	0.183
-495.581	-200.000	-0.014	-0.060
-494.566	47.456	0.203	0.192
-493.551	5.920	-0.082	0.062
-492.537	-154.974	-0.435	0.029
-491.522	358.791	-0.063	-0.128
-490.508	-200.000	-0.026	0.240
-489.493	358.200	-0.128	-0.258
-488.478	800.000	0.076	-0.335
-487.464	-111.141	0.141	0.029
-486.449	156.994	0.259	-0.362
-485.435	-200.000	-0.036	-0.275
-484.420	15.555	-0.079	-0.063
-483.405	-155.339	0.212	0.014
-482.391	158.109	0.121	0.170
-481.376	-74.836	0.217	0.079
-480.362	496.150	0.135	0.314
-479.347	-96.854	-0.133	0.035
-478.332	-103.533	-0.190	-0.045
-477.318	25.515	-0.163	0.137
-476.303	327.538	0.068	-0.131
-475.289	-200.000	-0.007	0.216
-474.274	495.462	0.105	0.244
-473.259	-108.121	-0.119	-0.026
-472.245	-2.455	-0.169	-0.120
-471.230	-68.367	0.058	0.023
-470.216	330.417	-0.079	0.155
-469.201	-122.872	0.475	0.078
-468.186	37.580	-0.074	0.067
-467.172	72.930	0.218	0.231
-466.157	636.824	-0.108	-0.276
-465.143	117.915	0.194	0.241
-464.128	669.118	-0.076	0.198
-463.113	346.199	0.064	-0.126
-462.099	191.551	0.257	0.392
-461.084	444.106	-0.176	0.391
-460.070	562.747	0.090	0.220
-459.055	-166.191	-0.028	0.001
-458.040	-28.825	-0.157	0.091
-457.026	114.218	0.121	0.149
-456.011	-68.944	0.048	0.019
-454.997	-200.000	-0.433	0.001
-453.982	-131.312	-0.059	-0.008
-452.968	-58.977	-0.317	0.138
-451.953	-81.450	0.333	-0.111
-450.938	-152.238	0.256	0.019
-449.924	368.918	-0.145	0.295
-448.909	247.903	0.117	-0.200
-447.895	52.642	0.277	-0.267
-446.880	-86.681	-0.070	-0.022
-445.865	185.211	-0.232	0.347
-444.851	-59.780	0.251	0.109
-443.836	-97.130	0.255	0.067
-442.822	-51.456	0.279	-0.131
-441.807	-200.000	-0.045	-0.343
-440.792	193.885	-0.048	0.074
-439.778	25.505	-0.172	0.144
-438.763	-200.000	-0.002	-0.145
-437.749	-200.000	0.000	0.254
-436.734	-42.457	-0.164	0.084
-435.719	-68.712	0.272	-0.106
-434.705	800.000	0.152	0.463
-433.690	-58.242	0.078	-0.034
-432.676	-200.000	-0.004	-0.106
-431.661	1.392	0.114	0.083
-430.646	113.693	-0.230	-0.282
-429.632	-200.000	-0.007	-0.198
-428.617	236.756	0.136	-0.227
-427.603	-200.000	-0.001	-0.009
-426.588	800.000	0.089	-0.362
-425.573	285.079	-0.130	0.236
-424.559	16.064	0.084	0.067
-423.544	-35.115	-0.117	0.064
-422.530	-54.021	-0.207	-0.095
-421.515	-62.283	0.307	0.129
-420.500	129.780	0.179	-0.231
-419.486	-200.000	-0.021	-0.131
-418.471	546.900	-0.011	0.026
-417.457	-64.934	-0.082	-0.033
-416.442	605.004	-0.069	0.173
-415.428	-57.181	-0.041	-0.018
-414.413	109.016	0.132	0.160
-413.398	23.909	-0.083	0.069
-412.384	-200.000	-0.035	-0.250
-411.369	103.762	0.121	-0.143
-410.355	90.431	-0.197	0.223
-409.340	-200.000	0.003	-0.191
-408.325	173.839	-0.041	0.059
-407.311	24.841	0.142	0.119
-406.296	-91.152	0.278	0.080
-405.282	-150.275	-0.242	0.019
-404.267	-200.000	-0.038	0.202
-403.252	40.207	0.080	-0.073
-402.238	-72.047	-0.097	0.036
-401.223	800.000	0.145	-0.414
-400.209	-200.000	0.001	0.404
-399.194	-200.000	0.035	-0.325
-398.179	-8.699	-0.173	0.117
-397.165	136.392	-0.188	0.247
-396.150	73.987	-0.318	0.337
-395.136	579.855	-0.168	0.414
-394.121	117.942	0.111	-0.137
-393.106	-60.767	-0.117	-0.050
-392.092	-66.343	0.123	-0.049
-391.077	65.711	0.074	-0.076
-390.063	136.287	-0.120	-0.158
-389.048	-18.299	0.343	0.216
-388.033	768.971	-0.045	-0.123
-387.019	636.130	-0.165	-0.422
-386.004	-44.475	0.186	0.094
-384.990	-200.000	0.013	-0.089
-383.975	-200.000	0.013	-0.253
-382.960	407.219	0.056	-0.119
-381.946	-76.154	0.281	-0.100
-380.931	-4.533	-0.162	0.113
-379.917	-51.261	0.114	0.054
-378.902	242.732	0.165	0.278
-377.888	-200.000	0.012	-0.155
-376.873	-200.000	0.008	0.097
-375.858	800.000	-0.016	-0.050
-374.844	102.131	-0.174	-0.205
-373.829	-44.448	-0.142	0.071
-372.815	-157.801	-0.126	-0.008
-371.800	-200.000	-0.012	-0.377
-370.785	112.456	-0.154	-0.187
-369.771	202.832	-0.025	-0.039
-368.756	-139.250	-0.302	-0.033
-367.742	758.658	0.007	0.019
-366.727	99.807	0.170	0.199
-365.712	-200.000	-0.036	0.222
-364.698	-200.000	0.013	-0.064
-363.683	-200.000	0.065	0.307
-362.669	-200.000	-0.007	0.324
-361.654	7.096	-0.084	-0.063
-360.639	103.816	-0.168	0.199
-359.625	-62.730	-0.246	0.102
-358.610	605.980	0.129	0.323
-357.596	221.606	-0.026	0.042
-356.581	159.708	-0.121	-0.169
-355.566	-3.199	-0.112	-0.079
-354.552	6.211	-0.348	0.260
-353.537	205.253	0.113	-0.177
-352.523	-90.776	0.087	-0.025
-351.508	-19.957	0.171	0.106
-350.493	107.911	0.267	-0.320
-349.479	-200.000	-0.010	-0.095
-348.464	33.024	-0.189	-0.165
-347.450	-142.441	0.231	-0.023
-346.435	-105.963	-0.368	0.084
-345.420	-200.000	0.051	-0.278
-344.406	-48.970	0.239	0.115
-343.391	-75.745	-0.293	-0.105
-342.377	339.877	-0.043	-0.085
-341.362	-200.000	0.036	-0.331
-340.348	727.356	0.081	-0.216
-339.333	800.000	0.135	0.387
-338.318	-41.848	-0.171	-0.088
-337.304	71.116	0.092	0.095
-336.289	-174.241	0.240	0.007
-335.275	519.504	0.146	0.343
-334.260	-88.115	-0.240	0.072
-333.245	-26.424	-0.101	-0.059
-332.231	-130.258	0.162	0.022
-331.216	297.134	-0.154	0.285
-330.202	135.152	0.060	-0.079
-329.187	184.266	0.040	-0.060
-328.172	-55.550	-0.322	-0.145
-327.158	-39.415	0.238	-0.126
-326.143	-106.441	-0.167	0.037
-325.129	-100.864	0.167	0.041
-324.114	800.000	0.099	-0.409
-323.099	-126.147	-0.253	0.038
-322.085	209.033	0.217	-0.342
-321.070	-53.306	-0.056	-0.026
-320.056	800.000	-0.037	0.141
-319.041	98.117	0.210	0.243
-318.026	-175.439	0.267	0.007
-317.012	800.000	0.049	0.154
-315.997	-200.000	0.065	0.360
-314.983	-83.105	-0.181	0.059
-313.968	-200.000	-0.015	-0.181
-312.953	-101.434	0.328	0.080
-311.939	306.093	0.292	0.546
-310.924	68.478	0.219	0.225
-309.910	152.338	0.081	-0.111
-308.895	53.176	0.108	0.104
-307.880	442.180	-0.052	-0.114
-306.866	24.094	-0.230	0.191
-305.851	-36.048	0.135	-0.073
-304.837	-26.080	-0.200	-0.118
-303.822	800.000	-0.084	-0.287
-302.807	36.998	-0.200	-0.178
-301.793	-200.000	-0.009	-0.309
-300.778	-87.865	0.203	0.061
-299.764	-80.482	-0.127	-0.043
-298.749	247.919	-0.127	-0.216
-297.735	2.675	-0.151	0.110
-296.720	800.000	-0.089	-0.261
-295.705	-76.721	0.254	0.089
-294.691	339.658	-0.135	-0.265
-293.676	-17.001	0.035	-0.022
-292.662	119.107	-0.121	0.151
-291.647	58.392	0.105	0.103
-290.632	-200.000	0.019	-0.198
-289.618	134.124	0.170	0.221
-288.603	800.000	-0.108	-0.334
-287.589	-121.466	0.185	-0.031
-286.574	-28.485	0.234	-0.135
-285.559	232.688	-0.202	-0.334
-284.545	800.000	0.141	-0.435
-283.530	71.006	-0.187	0.194
-282.516	800.000	-0.093	0.331
-281.501	40.494	-0.440	0.398
-280.486	234.805	0.129	-0.213
-279.472	15.771	-0.034	-0.027
-278.457	-27.703	-0.197	0.115
-277.443	76.172	-0.200	-0.212
-276.428	-56.900	-0.232	-0.103
-275.413	721.436	0.060	0.160
-274.399	-9.622	0.133	0.089
-273.384	204.748	0.146	-0.227
-272.370	6.468	-0.204	-0.152
-271.355	800.000	0.063	-0.242
-270.340	800.000	-0.018	-0.076
-269.326	230.607	-0.127	-0.209
-268.311	629.926	-0.053	0.134
-267.297	130.546	-0.158	0.203
-266.282	44.646	0.192	0.177
-265.267	-96.133	0.503	0.134
-264.253	-200.000	-0.048	0.274
-263.238	-104.386	-0.228	-0.053
-262.224	-200.000	-0.049	0.298
-261.209	-125.181	0.189	0.029
-260.195	-125.182	-0.159	0.024
-259.180	-3.275	0.357	0.249
-258.165	-60.047	-0.246	0.105
-257.151	-200.000	0.003	0.102
-256.136	800.000	-0.046	-0.160
-255.122	800.000	-0.094	0.280
-254.107	-77.531	-0.138	0.048
-253.092	-167.889	0.225	-0.009
-252.078	-137.780	-0.398	0.045
-251.063	-200.000	-0.048	0.296
-250.049	412.999	0.037	0.079
-249.034	6.131	-0.060	0.045
-248.019	225.028	-0.156	0.253
-247.005	173.565	0.082	-0.119
-245.990	75.873	0.183	0.193
-244.976	198.954	0.137	0.210
-243.961	-63.585	0.028	0.012
-242.946	63.280	-0.178	0.179
-241.932	-200.000	-0.025	-0.221
-240.917	-74.868	-0.087	-0.031
-239.903	-200.000	-0.098	0.488
-238.888	-200.000	-0.033	-0.307
-237.873	-121.664	0.088	-0.015
-236.859	-200.000	0.008	0.141
-235.844	-45.740	0.210	-0.104
-234.830	-0.542	0.180	0.128
-233.815	264.663	-0.223	0.388
-232.800	-200.000	-0.010	0.188
-231.786	312.918	0.188	-0.353
-230.771	39.799	0.196	-0.176
-229.757	-7.949	0.054	0.036
-228.742	12.263	-0.179	0.138
-227.727	800.000	-0.126	-0.349
-226.713	237.791	-0.116	-0.194
-225.698	-103.007	-0.262	-0.062
-224.684	39.740	0.160	0.144
-223.669	800.000	0.160	-0.466
-222.655	800.000	-0.026	-0.081
-221.640	343.660	0.104	-0.204
-220.625	4.452	0.023	-0.017
-219.611	800.000	0.039	0.112
-218.596	239.874	-0.098	0.164
-217.582	119.068	-0.050	0.062
-216.567	-152.100	-0.311	-0.023
-215.552	-200.000	0.025	-0.167
-214.538	445.935	-0.100	0.220
-213.523	175.430	0.261	0.378
-212.509	114.046	0.112	-0.137
-211.494	171.158	-0.324	-0.466
-210.479	-41.465	-0.269	-0.139
-209.465	800.000	0.053	0.155
-208.450	-65.312	0.252	0.101
-207.436	127.591	0.225	-0.286
-206.421	30.412	0.149	-0.127
-205.406	-60.823	-0.212	-0.090
-204.392	-193.822	-0.276	-0.002
-203.377	-136.821	-0.371	0.043
-202.363	86.657	-0.173	0.191
-201.348	-140.358	0.058	0.006
-200.333	-68.807	0.301	-0.116
-199.319	221.889	-0.074	0.119
-198.304	127.319	-0.184	0.234
-197.290	-39.917	0.135	-0.071
-196.275	-60.889	0.318	0.134
-195.260	-148.637	0.049	0.004
-194.246	-151.138	-0.191	-0.014
-193.231	146.524	0.225	0.302
-192.217	327.908	0.135	0.260
-191.202	18.948	-0.225	0.180
-190.187	214.059	-0.115	0.182
-189.173	285.242	-0.145	0.262
-188.158	4.809	0.232	0.171
-187.144	5.016	0.197	0.145
-186.129	-176.224	0.336	0.009
-185.114	-13.321	-0.390	-0.253
-184.100	-79.722	-0.144	-0.048
-183.085	113.588	0.178	-0.216
-182.071	129.693	0.190	-0.242
-181.056	-137.029	-0.293	0.034
-180.042	385.725	0.188	0.388
-179.027	-21.415	0.039	0.024
-178.012	378.032	-0.185	-0.378
-176.998	437.166	0.143	-0.312
-175.983	261.050	0.021	0.036
-174.969	800.000	-0.062	-0.204
-173.954	69.371	-0.190	0.195
-172.939	-32.312	0.027	0.015
-171.925	-200.000	0.072	0.358
-170.910	280.457	-0.059	0.106
-169.896	-120.841	0.156	-0.026
-168.881	-111.716	-0.166	0.034
-167.866	-81.326	-0.291	-0.096
-166.852	800.000	0.045	0.184
-165.837	-135.007	-0.164	0.020
-164.823	-49.578	0.115	-0.055
-163.808	21.846	0.070	-0.057
-162.793	-26.932	0.442	-0.258
-161.779	-109.985	0.292	0.061
-160.764	-144.295	-0.225	-0.021
-159.750	-200.000	0.182	0.000
-158.735	-184.717	-0.231	-0.004
-157.720	-36.604	0.085	0.046
-156.706	-200.000	-0.015	0.072
-155.691	-97.622	0.460	-0.119
-154.677	-87.566	-0.191	-0.058
-153.662	105.359	-0.040	-0.048
-152.647	238.694	0.077	0.127
-151.633	40.248	-0.226	0.203
-150.618	-39.626	-0.223	0.116
-149.604	180.558	0.077	-0.113
-148.589	-116.325	0.294	-0.054
-147.574	520.606	0.099	-0.231
-146.560	-173.574	0.485	-0.015
-145.545	118.696	-0.159	-0.196
-144.531	768.211	0.044	-0.119
-143.516	402.444	-0.125	-0.262
-142.502	102.640	0.126	0.147
-141.487	267.900	-0.061	-0.106
-140.472	-200.000	-0.042	-0.197
-139.458	72.729	0.194	-0.203
-138.443	800.000	0.150	0.461
-137.429	-10.270	0.111	-0.073
-136.414	548.090	-0.138	-0.330
-135.399	-61.232	0.028	-0.012
-134.385	800.000	0.035	0.124
-133.370	-2.863	0.267	-0.186
-132.356	-200.000	-0.007	-0.267
-131.341	-93.880	0.155	-0.043
-130.326	-45.536	-0.041	0.020
-129.312	207.828	-0.221	0.345
-128.297	276.688	-0.094	0.167
-127.283	-118.156	0.167	-0.030
-126.268	62.300	-0.045	0.045
-125.253	-23.605	0.012	0.007
-124.239	17.375	0.050	0.040
-123.224	800.000	-0.104	-0.287
-122.210	269.501	-0.142	-0.248
-121.195	24.231	-0.089	0.073
