DTS Sentinel unit serial number:	SN413079Multiplexer serial number:	ORYXHardware model number:	OX4-SRSoftware version number:	ORYX F/W v4.00 Oryx Data Collector v3.7.2.0data status	okinstallation	princeton_trtdifferential loss correction	single-endedforward channel	channel 4reverse channel	N/Adate	2019/09/14time	11:57:34forward acquisition time	60.00reverse acquisition time	0.00gamma	496.2192k internal	0.2293k external	0.2293temperature offset calibration	1.0155default loss term (dB/km)	0.3790temperature slope calibration	1.0000multiplexer offset coefficient	1.0000multiplexer slope coefficient	1.0000fibre end	0.00T internal ref (°C)	37.31T ext. ref 1 (°C)	4.65T ext. ref 2 (°C)	35.15length (m)	temperature (°C)	Stokes	anti-Stokes-747.200	-151.876	0.208	0.016
-746.185	241.354	-0.262	0.448
-745.171	-117.434	0.152	0.028
-744.156	-62.463	0.040	-0.017
-743.142	800.000	-0.089	-0.384
-742.127	106.126	0.144	0.174
-741.112	222.001	-0.077	-0.127
-740.098	-104.224	0.251	-0.060
-739.083	12.131	-0.208	-0.164
-738.069	56.272	-0.206	0.205
-737.054	-19.648	-0.373	-0.236
-736.039	-22.724	-0.288	-0.178
-735.025	-200.000	-0.001	-0.152
-734.010	150.068	-0.189	-0.262
-732.996	353.254	-0.068	0.137
-731.981	800.000	0.073	-0.215
-730.966	-200.000	0.007	-0.153
-729.952	-91.161	-0.135	0.040
-728.937	268.323	-0.123	-0.221
-727.923	-112.157	-0.428	-0.088
-726.908	-200.000	-0.050	0.283
-725.894	-30.363	-0.209	-0.121
-724.879	-52.416	-0.273	-0.129
-723.864	368.970	-0.043	0.089
-722.850	-91.658	-0.091	0.027
-721.835	-73.172	-0.172	0.064
-720.821	-118.830	0.072	0.013
-719.806	671.090	0.141	-0.373
-718.791	-200.000	-0.026	-0.206
-717.777	703.756	-0.052	-0.139
-716.762	344.761	-0.033	0.066
-715.748	10.598	-0.221	-0.172
-714.733	62.361	-0.402	-0.410
-713.718	-154.668	-0.200	-0.014
-712.704	15.149	-0.209	0.167
-711.689	-199.950	-0.188	0.001
-710.675	-27.313	-0.213	-0.127
-709.660	800.000	-0.032	0.101
-708.645	-88.367	0.383	0.117
-707.631	-110.325	0.282	-0.060
-706.616	112.195	-0.090	-0.111
-705.602	-123.997	-0.120	-0.019
-704.587	-31.082	-0.305	-0.176
-703.572	-30.178	-0.039	0.023
-702.558	-200.000	0.040	0.264
-701.543	-73.912	-0.153	-0.057
-700.529	9.265	0.281	-0.217
-699.514	16.787	0.164	-0.132
-698.499	-55.889	0.007	-0.003
-697.485	104.255	0.052	-0.063
-696.470	-111.317	-0.196	0.041
-695.456	-52.031	0.192	-0.091
-694.441	57.725	0.088	0.087
-693.426	-175.295	0.145	-0.004
-692.412	-88.054	-0.166	-0.051
-691.397	172.613	-0.204	0.300
-690.383	96.377	-0.161	-0.189
-689.368	282.132	-0.073	-0.133
-688.354	43.694	-0.128	0.119
-687.339	-153.936	-0.182	-0.013
-686.324	39.983	0.122	-0.112
-685.310	-200.000	-0.071	-0.354
-684.295	105.015	-0.216	-0.261
-683.281	274.706	-0.044	0.080
-682.266	-17.535	0.128	-0.082
-681.251	-200.000	0.012	0.090
-680.237	456.409	-0.044	-0.100
-679.222	-124.113	0.094	0.015
-678.208	73.378	0.054	-0.058
-677.193	17.699	0.118	-0.096
-676.178	-200.000	-0.050	-0.265
-675.164	54.138	-0.110	-0.108
-674.149	-122.355	0.215	-0.036
-673.135	-50.276	-0.312	-0.151
-672.120	-200.000	-0.031	-0.177
-671.105	-83.490	-0.328	-0.107
-670.091	-200.000	0.087	-0.436
-669.076	-160.615	-0.233	0.013
-668.062	-200.000	-0.026	-0.225
-667.047	556.801	0.027	0.067
-666.032	5.740	-0.270	-0.204
-665.018	-138.136	0.109	-0.012
-664.003	-5.673	-0.215	0.150
-662.989	800.000	0.070	-0.202
-661.974	-135.285	0.285	-0.035
-660.959	-125.564	-0.494	-0.076
-659.945	800.000	-0.029	0.101
-658.930	1.940	-0.070	0.052
-657.916	-138.602	-0.116	0.013
-656.901	-60.773	0.180	-0.078
-655.886	-96.214	0.071	-0.019
-654.872	-156.743	0.293	-0.018
-653.857	-200.000	-0.005	-0.354
-652.843	-149.926	-0.100	-0.008
-651.828	140.224	0.141	0.189
-650.814	49.755	0.128	-0.123
-649.799	-200.000	-0.020	0.504
-648.784	-200.000	0.036	-0.215
-647.770	1.586	0.171	0.125
-646.755	9.034	-0.346	-0.266
-645.741	-200.000	0.063	-0.341
-644.726	-1.419	0.066	0.048
-643.711	59.532	-0.039	0.039
-642.697	434.452	0.079	-0.175
-641.682	-70.695	0.179	0.069
-640.668	-86.877	-0.033	0.010
-639.653	-118.565	-0.471	0.085
-638.638	44.365	-0.135	0.126
-637.624	21.552	-0.243	0.201
-636.609	-127.684	0.327	0.048
-635.595	-140.698	0.124	0.013
-634.580	20.881	0.121	-0.100
-633.565	166.515	-0.115	-0.166
-632.551	490.285	0.107	0.250
-631.536	-200.000	-0.015	-0.287
-630.522	51.479	-0.219	-0.212
-629.507	-108.642	0.030	-0.007
-628.492	443.342	-0.074	0.165
-627.478	115.173	-0.144	0.179
-626.463	-38.822	0.288	0.155
-625.449	-89.846	-0.039	0.012
-624.434	1.981	-0.210	-0.154
-623.419	26.624	-0.302	0.257
-622.405	188.266	-0.007	-0.011
-621.390	2.904	0.065	-0.048
-620.376	36.082	0.173	-0.155
-619.361	-200.000	0.040	-0.336
-618.346	63.568	-0.164	0.168
-617.332	217.370	0.055	-0.089
-616.317	106.756	0.068	-0.082
-615.303	8.934	0.075	0.058
-614.288	-47.586	-0.133	0.066
-613.273	27.307	-0.270	0.231
-612.259	-200.000	0.070	0.409
-611.244	-151.509	-0.205	0.015
-610.230	543.354	-0.110	0.268
-609.215	-81.916	-0.170	-0.057
-608.201	44.762	0.182	0.170
-607.186	99.027	0.228	0.267
-606.171	52.183	0.164	0.159
-605.157	15.424	-0.150	-0.119
-604.142	-175.899	0.161	0.004
-603.128	-33.714	-0.359	0.202
-602.113	78.126	0.142	-0.154
-601.098	-59.440	0.142	0.062
-600.084	-72.776	-0.167	-0.062
-599.069	1.016	-0.063	0.046
-598.055	701.467	0.119	0.318
-597.040	92.480	-0.100	-0.114
-596.025	-62.426	0.088	-0.037
-595.011	-200.000	-0.012	-0.144
-593.996	77.965	-0.174	-0.189
-592.982	-86.815	-0.301	0.093
-591.967	66.888	-0.134	0.139
-590.952	-200.000	0.014	0.155
-589.938	610.937	-0.121	0.308
-588.923	7.708	0.136	0.103
-587.909	506.473	-0.033	0.078
-586.894	800.000	-0.146	0.440
-585.879	311.101	-0.042	-0.081
-584.865	-40.618	-0.170	-0.090
-583.850	-200.000	-0.061	-0.448
-582.836	-200.000	-0.010	-0.128
-581.821	136.628	0.158	0.209
-580.806	-56.272	-0.355	-0.161
-579.792	17.874	0.196	-0.159
-578.777	20.726	-0.130	0.107
-577.763	-66.050	0.382	-0.155
-576.748	51.575	-0.228	-0.220
-575.733	278.218	0.213	-0.385
-574.719	-165.492	-0.335	0.015
-573.704	9.027	0.200	0.153
-572.690	546.373	0.101	-0.244
-571.675	800.000	-0.036	-0.134
-570.661	-38.016	-0.316	-0.170
-569.646	-200.000	0.015	-0.122
-568.631	800.000	-0.096	-0.296
-567.617	9.662	0.326	-0.251
-566.602	22.350	0.220	-0.183
-565.588	1.986	-0.185	0.136
-564.573	45.827	0.088	0.082
-563.558	34.357	-0.305	-0.270
-562.544	-140.586	0.352	0.037
-561.529	-33.259	0.105	0.059
-560.515	9.185	0.286	0.220
-559.500	-190.759	-0.144	0.002
-558.485	-116.758	0.298	0.056
-557.471	-85.004	-0.069	0.022
-556.456	-136.868	-0.054	-0.006
-555.442	49.024	-0.070	-0.066
-554.427	800.000	-0.092	-0.307
-553.412	800.000	0.054	0.237
-552.398	170.296	0.135	0.197
-551.383	-95.775	-0.148	0.040
-550.369	-175.278	0.132	-0.004
-549.354	-45.677	-0.021	0.011
-548.339	-96.996	0.249	-0.066
-547.325	-193.590	0.246	0.002
-546.310	-200.000	0.020	0.182
-545.296	-141.132	0.135	-0.014
-544.281	-200.000	0.015	-0.144
-543.266	-200.000	-0.009	0.081
-542.252	116.269	0.055	0.069
-541.237	159.150	0.141	-0.199
-540.223	-163.320	0.433	-0.021
-539.208	-152.033	0.302	0.022
-538.193	-45.383	-0.193	-0.097
-537.179	117.050	0.111	-0.138
-536.164	-137.611	0.221	0.025
-535.150	-3.284	-0.217	-0.153
-534.135	347.783	0.291	-0.581
-533.121	-200.000	-0.037	-0.318
-532.106	-200.000	0.033	0.172
-531.091	800.000	-0.109	0.344
-530.077	331.030	-0.123	-0.240
-529.062	-60.994	0.072	0.031
-528.048	58.225	0.204	0.203
-527.033	147.421	0.241	-0.329
-526.018	-45.307	-0.293	-0.147
-525.004	217.135	0.150	-0.242
-523.989	100.056	-0.174	-0.204
-522.975	-200.000	-0.010	-0.271
-521.960	39.836	0.059	0.054
-520.945	-136.399	0.096	-0.011
-519.931	-95.061	-0.183	-0.050
-518.916	170.214	-0.228	-0.330
-517.902	-116.245	0.067	0.013
-516.887	279.503	0.139	-0.251
-515.872	-200.000	0.014	0.177
-514.858	40.506	-0.035	-0.032
-513.843	-61.586	-0.100	-0.043
-512.829	-3.744	0.327	-0.230
-511.814	321.425	-0.148	0.285
-510.799	22.569	-0.204	0.169
-509.785	151.821	-0.099	0.136
-508.770	-102.058	-0.248	-0.061
-507.756	388.403	-0.044	-0.092
-506.741	-200.000	-0.024	0.119
-505.726	197.034	-0.202	-0.313
-504.712	-136.177	0.216	-0.026
-503.697	-82.624	-0.261	0.086
-502.683	456.106	0.240	0.541
-501.668	98.693	-0.148	0.173
-500.653	95.178	0.169	0.195
-499.639	-8.078	0.181	0.124
-498.624	104.022	0.046	0.055
-497.610	107.648	-0.127	-0.153
-496.595	-50.029	-0.275	-0.132
-495.581	237.818	-0.044	-0.074
-494.566	-25.288	-0.348	-0.209
-493.551	568.869	-0.136	0.335
-492.537	-200.000	-0.015	-0.199
-491.522	-18.168	0.214	0.136
-490.508	-200.000	-0.032	0.157
-489.493	800.000	0.090	0.275
-488.478	-200.000	0.006	-0.296
-487.464	-200.000	0.004	-0.333
-486.449	-78.375	-0.209	0.073
-485.435	-24.394	0.257	0.155
-484.420	-200.000	0.034	0.192
-483.405	57.658	0.152	-0.150
-482.391	672.243	-0.146	-0.382
-481.376	192.953	0.105	-0.160
-480.362	-186.978	0.270	0.004
-479.347	-85.198	0.137	0.043
-478.332	-106.262	0.084	-0.019
-477.318	201.719	0.172	0.268
-476.303	320.221	-0.132	0.253
-475.289	350.664	-0.230	0.461
-474.274	-200.000	-0.005	-0.272
-473.259	339.202	-0.009	0.018
-472.245	169.839	0.112	0.162
-471.230	52.879	0.157	0.152
-470.216	-90.287	-0.279	-0.082
-469.201	9.483	0.459	-0.352
-468.186	-200.000	0.023	0.135
-467.172	-14.611	-0.047	0.031
-466.157	-86.580	0.287	-0.089
-465.143	-200.000	0.030	0.269
-464.128	-200.000	0.004	-0.268
-463.113	23.860	-0.193	-0.161
-462.099	245.609	-0.112	0.190
-461.084	282.947	0.036	-0.065
-460.070	566.805	0.147	0.361
-459.055	-99.415	0.170	-0.043
-458.040	43.998	0.204	-0.189
-457.026	33.577	-0.049	0.043
-456.011	-11.809	-0.085	-0.057
-454.997	106.172	0.174	0.208
-453.982	308.062	-0.195	-0.367
-452.968	-175.485	0.204	-0.006
-451.953	73.678	-0.244	-0.258
-450.938	800.000	0.065	-0.213
-449.924	-159.056	-0.051	-0.003
-448.909	-101.800	0.362	-0.089
-447.895	800.000	-0.039	0.159
-446.880	97.008	0.035	0.041
-445.865	-200.000	-0.014	0.091
-444.851	-150.636	-0.126	-0.010
-443.836	-24.696	-0.115	-0.069
-442.822	534.317	-0.050	0.119
-441.807	-54.298	0.302	0.139
-440.792	201.696	-0.051	-0.079
-439.778	177.951	0.119	-0.175
-438.763	-190.224	0.335	0.004
-437.749	-5.997	0.165	0.114
-436.734	-14.593	-0.136	-0.089
-435.719	19.249	-0.163	0.133
-434.705	-12.718	0.149	0.098
-433.690	273.855	-0.126	0.225
-432.676	328.399	-0.117	0.227
-431.661	-72.597	0.297	-0.111
-430.646	-200.000	0.016	-0.414
-429.632	800.000	-0.015	0.054
-428.617	-147.967	0.321	0.027
-427.603	-30.529	0.120	-0.069
-426.588	-200.000	-0.042	0.326
-425.573	800.000	0.046	-0.179
-424.559	187.187	0.153	0.230
-423.544	-55.439	-0.345	-0.156
-422.530	-200.000	-0.004	0.133
-421.515	-176.626	-0.083	0.002
-420.500	16.780	0.224	-0.179
-419.486	61.743	0.176	-0.177
-418.471	334.569	0.190	-0.371
-417.457	111.760	0.117	0.143
-416.442	680.218	-0.058	-0.152
-415.428	-200.000	-0.043	0.305
-414.413	-200.000	-0.021	-0.233
-413.398	244.438	0.072	-0.122
-412.384	-200.000	0.029	0.214
-411.369	-108.840	0.048	-0.010
-410.355	800.000	-0.102	0.287
-409.340	-200.000	-0.017	0.146
-408.325	-200.000	0.045	-0.232
-407.311	-88.094	0.489	0.148
-406.296	11.611	0.138	-0.107
-405.282	-83.661	-0.104	0.034
-404.267	-30.057	-0.374	-0.215
-403.252	157.446	0.172	0.241
-402.238	656.637	-0.087	-0.225
-401.223	131.316	-0.088	-0.113
-400.209	173.916	-0.221	0.322
-399.194	106.788	0.173	0.207
-398.179	-38.280	0.208	0.111
-397.165	365.474	0.143	0.292
-396.150	161.556	0.023	0.033
-395.136	-200.000	0.004	0.078
-394.121	-37.758	-0.061	0.033
-393.106	-200.000	0.023	0.290
-392.092	224.165	-0.301	-0.491
-391.077	49.314	0.082	-0.077
-390.063	-124.113	0.210	0.033
-389.048	-63.537	-0.124	-0.051
-388.033	-149.662	0.578	0.046
-387.019	393.211	0.160	-0.336
-386.004	496.344	-0.192	-0.446
-384.990	-164.356	0.306	0.014
-383.975	-167.128	-0.051	0.002
-382.960	800.000	-0.081	-0.266
-381.946	8.857	-0.271	0.206
-380.931	92.475	0.087	0.099
-379.917	-53.360	0.295	0.137
-378.902	162.642	0.073	0.104
-377.888	-62.320	0.079	-0.033
-376.873	-200.000	-0.033	0.277
-375.858	-24.776	-0.192	0.115
-374.844	10.721	-0.232	0.179
-373.829	16.502	-0.230	-0.183
-372.815	-200.000	0.024	0.256
-371.800	-200.000	0.030	0.215
-370.785	99.439	-0.163	-0.191
-369.771	40.855	0.118	-0.108
-368.756	-44.862	-0.438	-0.220
-367.742	130.186	-0.225	0.290
-366.727	800.000	0.038	-0.110
-365.712	217.082	-0.190	-0.305
-364.698	-66.154	-0.102	-0.041
-363.683	-62.619	-0.220	-0.092
-362.669	244.370	0.041	0.070
-361.654	18.636	0.194	0.157
-360.639	-2.134	-0.356	0.252
-359.625	-41.009	0.030	0.015
-358.610	9.207	-0.201	0.153
-357.596	-38.323	0.252	0.134
-356.581	157.877	0.236	-0.330
-355.566	67.036	0.079	0.081
-354.552	458.652	0.118	-0.264
-353.537	-38.867	0.411	-0.218
-352.523	147.683	-0.124	0.169
-351.508	-200.000	0.004	-0.192
-350.493	102.320	-0.050	0.059
-349.479	733.778	0.085	-0.228
-348.464	-97.420	-0.094	0.025
-347.450	-200.000	0.156	0.000
-346.435	40.741	0.107	0.097
-345.420	-56.534	-0.043	-0.019
-344.406	97.245	0.095	-0.110
-343.391	-42.382	-0.105	-0.054
-342.377	-96.358	0.306	0.081
-341.362	-134.967	-0.329	-0.040
-340.348	221.412	-0.035	-0.057
-339.333	481.909	0.056	-0.128
-338.318	-119.864	-0.166	0.029
-337.304	22.251	0.037	-0.030
-336.289	471.545	0.188	0.426
-335.275	-200.000	0.025	0.260
-334.260	-14.659	-0.345	-0.223
-333.245	510.207	-0.056	0.132
-332.231	-29.901	0.229	-0.131
-331.216	-3.054	-0.194	0.136
-330.202	297.077	0.080	0.147
-329.187	-77.401	0.406	-0.142
-328.172	-100.768	-0.446	-0.111
-327.158	-171.975	0.173	0.006
-326.143	800.000	-0.088	-0.321
-325.129	-44.679	0.076	-0.038
-324.114	220.530	-0.129	-0.208
-323.099	298.430	-0.025	-0.046
-322.085	-200.000	-0.204	0.000
-321.070	-3.926	0.064	0.044
-320.056	41.753	-0.104	0.095
-319.041	105.343	-0.318	0.378
-318.026	333.847	-0.205	0.400
-317.012	148.786	0.147	0.201
-315.997	-200.000	0.062	0.470
-314.983	-81.720	0.038	-0.013
-313.968	88.920	-0.091	0.102
-312.953	-150.235	0.189	0.015
-311.939	101.505	0.163	0.192
-310.924	800.000	0.115	-0.332
-309.910	-144.354	0.105	0.010
-308.895	-176.423	0.416	0.011
-307.880	-200.000	0.005	0.140
-306.866	94.695	0.162	0.186
-305.851	327.776	0.111	-0.214
-304.837	-65.398	-0.104	-0.042
-303.822	-200.000	0.001	0.286
-302.807	11.286	-0.123	0.095
-301.793	44.696	0.199	0.184
-300.778	316.934	-0.126	0.239
-299.764	800.000	-0.075	0.246
-298.749	42.614	-0.170	-0.155
-297.735	138.716	-0.193	-0.255
-296.720	103.696	-0.282	0.333
-295.705	-105.648	-0.228	0.052
-294.691	50.942	0.231	0.220
-293.676	-65.641	0.140	-0.057
-292.662	-44.336	0.054	-0.027
-291.647	800.000	-0.048	-0.186
-290.632	321.555	0.049	-0.094
-289.618	-3.011	0.155	0.108
-288.603	-105.921	0.251	0.057
-287.589	-86.339	0.097	0.030
-286.574	-43.733	0.019	-0.009
-285.559	374.938	0.069	-0.142
-284.545	120.640	-0.154	-0.192
-283.530	-126.456	0.113	0.017
-282.516	-59.564	-0.111	-0.048
-281.501	37.415	-0.211	0.188
-280.486	-3.744	0.294	-0.205
-279.472	-149.363	-0.166	0.013
-278.457	-200.000	-0.009	-0.168
-277.443	-88.128	0.254	-0.076
-276.428	-200.000	0.010	-0.166
-275.413	800.000	0.034	-0.132
-274.399	-128.230	-0.072	-0.010
-273.384	93.497	0.064	-0.072
-272.370	-2.679	0.194	0.137
-271.355	458.873	-0.048	-0.107
-270.340	-185.273	-0.126	0.002
-269.326	-114.318	-0.235	-0.045
-268.311	651.836	0.043	0.110
-267.297	49.164	-0.131	0.124
-266.282	-200.000	-0.055	-0.472
-265.267	414.601	-0.072	-0.153
-264.253	131.194	-0.150	-0.193
-263.238	-61.857	-0.282	-0.119
-262.224	800.000	0.131	0.404
-261.209	-200.000	0.022	-0.224
-260.195	108.770	-0.054	0.065
-259.180	114.805	0.213	-0.261
-258.165	-11.527	-0.440	-0.290
-257.151	126.493	0.230	-0.292
-256.136	-137.210	-0.054	-0.006
-255.122	-50.728	-0.243	0.115
-254.107	-56.842	-0.255	-0.113
-253.092	-200.000	-0.055	-0.363
-252.078	234.794	-0.093	-0.154
-251.063	-200.000	-0.026	-0.409
-250.049	23.918	0.166	0.137
-249.034	59.076	-0.161	0.159
-248.019	-200.000	-0.018	-0.262
-247.005	133.425	-0.170	0.220
-245.990	-18.931	-0.124	-0.077
-244.976	-200.000	-0.023	-0.153
-243.961	-162.880	-0.339	-0.017
-242.946	-200.000	-0.013	0.276
-241.932	-102.245	-0.217	-0.052
-240.917	-127.084	0.218	0.032
-239.903	800.000	0.068	0.219
-238.888	-145.358	0.271	0.025
-237.873	17.716	-0.117	0.094
-236.859	800.000	-0.064	0.198
-235.844	-99.857	-0.300	-0.075
-234.830	-50.979	-0.189	0.089
-233.815	44.282	0.233	-0.214
-232.800	16.051	0.276	0.218
-231.786	343.637	-0.067	0.132
-230.771	-116.588	-0.269	-0.050
-229.757	-20.268	-0.179	-0.111
-228.742	339.778	-0.109	0.214
-227.727	-154.556	-0.147	0.010
-226.713	56.472	-0.181	-0.177
-225.698	-142.958	-0.316	-0.031
-224.684	800.000	0.095	-0.377
-223.669	240.830	0.077	-0.128
-222.655	722.837	0.125	0.334
-221.640	127.530	0.022	0.028
-220.625	93.466	-0.201	0.228
-219.611	-83.779	-0.088	0.028
-218.596	258.533	0.142	-0.245
-217.582	-200.000	-0.007	-0.166
-216.567	-69.209	-0.069	0.027
-215.552	-100.818	-0.352	0.087
-214.538	-200.000	-0.047	-0.234
-213.523	135.736	-0.146	0.191
-212.509	33.477	0.099	0.086
-211.494	753.388	0.220	0.596
-210.479	-123.885	0.287	-0.045
-209.465	-55.393	-0.118	-0.053
-208.450	-124.494	-0.359	-0.056
-207.436	313.715	-0.095	0.178
-206.421	92.372	0.106	0.120
-205.406	31.979	0.141	0.121
-204.392	21.683	0.180	-0.147
-203.377	-200.000	0.016	0.184
-202.363	-200.000	-0.010	0.073
-201.348	223.496	-0.176	-0.284
-200.333	267.975	0.103	0.181
-199.319	-80.663	0.193	-0.064
-198.304	82.296	-0.272	-0.295
-197.290	-200.000	0.028	-0.303
-196.275	800.000	-0.126	0.389
-195.260	-122.561	0.115	0.019
-194.246	70.909	0.043	0.045
-193.231	-200.000	0.028	-0.220
-192.217	192.267	0.085	-0.129
-191.202	-146.318	0.407	-0.036
-190.187	800.000	0.051	0.155
-189.173	-200.000	0.032	0.187
-188.158	-74.190	-0.057	0.021
-187.144	-81.328	-0.038	-0.012
-186.129	-120.480	0.233	-0.040
-185.114	-18.071	0.253	-0.158
-184.100	20.415	-0.160	0.129
-183.085	-113.910	0.370	0.072
-182.071	-76.937	-0.173	0.060
-181.056	-165.609	0.216	0.009
-180.042	-200.000	0.021	0.194
-179.027	-25.711	-0.048	0.028
-178.012	-39.902	-0.300	0.157
-176.998	-43.362	-0.308	0.156
-175.983	146.104	-0.112	-0.151
-174.969	-200.000	0.011	-0.293
-173.954	-122.030	-0.134	0.022
-172.939	800.000	0.077	0.298
-171.925	-200.000	0.008	0.047
-170.910	-38.429	-0.359	0.190
-169.896	800.000	-0.088	0.326
-168.881	-21.599	0.151	-0.092
-167.866	-62.607	0.347	0.144
-166.852	69.750	-0.154	0.159
-165.837	87.614	-0.272	0.301
-164.823	800.000	-0.084	0.344
-163.808	800.000	0.065	0.189
-162.793	-104.116	0.431	-0.100
-161.779	317.257	-0.069	-0.131
-160.764	-200.000	-0.047	0.401
-159.750	-45.014	-0.232	-0.115
-158.735	355.520	0.076	-0.151
-157.720	-200.000	-0.013	-0.423
-156.706	-200.000	0.064	-0.293
-155.691	12.717	-0.088	-0.068
-154.677	-200.000	-0.038	-0.180
-153.662	-24.382	0.272	-0.162
-152.647	-136.493	-0.122	-0.014
-151.633	-200.000	-0.013	0.141
-150.618	179.054	0.081	0.118
-149.604	405.776	0.060	-0.127
-148.589	-80.884	0.179	0.059
-147.574	-112.668	0.215	0.043
-146.560	-48.733	0.197	0.095
-145.545	39.001	-0.073	-0.065
-144.531	800.000	-0.093	-0.342
-143.516	-200.000	0.058	0.359
-142.502	-3.090	0.116	0.081
-141.487	800.000	-0.056	0.199
-140.472	494.201	0.069	-0.157
-139.458	-59.129	-0.190	0.082
-138.443	27.646	0.187	0.157
-137.429	800.000	0.025	0.076
-136.414	8.464	-0.192	0.144
-135.399	197.350	-0.072	0.110
-134.385	585.487	-0.076	0.186
-133.370	-127.211	-0.189	-0.028
-132.356	131.688	-0.171	0.220
-131.341	203.544	-0.057	-0.089
-130.326	-11.443	0.168	0.110
-129.312	111.293	0.110	-0.132
-128.297	-179.770	0.187	0.004
-127.283	557.820	-0.046	-0.112
-126.268	181.851	-0.014	0.020
-125.253	-200.000	0.046	-0.410
-124.239	-33.950	-0.056	-0.031
-123.224	89.810	0.164	0.182
-122.210	207.646	0.196	0.306
-121.195	703.356	-0.062	-0.164
-120.180	79.179	0.057	-0.061
