DTS Sentinel unit serial number:	SN413079Multiplexer serial number:	ORYXHardware model number:	OX4-SRSoftware version number:	ORYX F/W v4.00 Oryx Data Collector v3.7.2.0data status	okinstallation	princeton_trtdifferential loss correction	single-endedforward channel	channel 4reverse channel	N/Adate	2019/09/16time	08:53:34forward acquisition time	60.00reverse acquisition time	0.00gamma	496.2192k internal	0.2311k external	0.2311temperature offset calibration	0.9970default loss term (dB/km)	0.3790temperature slope calibration	1.0000multiplexer offset coefficient	1.0000multiplexer slope coefficient	1.0000fibre end	0.00T internal ref (°C)	30.14T ext. ref 1 (°C)	12.02T ext. ref 2 (°C)	27.70length (m)	temperature (°C)	Stokes	anti-Stokes-747.200	-200.000	-0.014	-0.260
-746.185	-80.953	-0.199	-0.067
-745.171	-200.000	0.072	0.433
-744.156	85.837	-0.099	0.111
-743.142	449.781	0.079	0.176
-742.127	471.293	-0.258	0.589
-741.112	-200.000	-0.131	0.001
-740.098	-134.201	0.208	-0.026
-739.083	-46.318	0.424	0.211
-738.069	-56.004	-0.228	0.103
-737.054	-2.429	0.080	-0.057
-736.039	-200.000	0.027	-0.145
-735.025	7.258	0.149	-0.113
-734.010	59.081	-0.213	-0.213
-732.996	152.972	-0.126	0.175
-731.981	-64.441	0.208	-0.086
-730.966	-143.455	0.212	-0.021
-729.952	-169.739	-0.036	-0.001
-728.937	45.170	-0.383	-0.358
-727.923	20.614	-0.171	-0.140
-726.908	-7.972	-0.161	-0.111
-725.894	130.486	-0.131	-0.170
-724.879	-191.892	0.128	-0.001
-723.864	-200.000	-0.009	-0.095
-722.850	179.203	-0.119	0.176
-721.835	88.289	-0.191	-0.216
-720.821	-88.510	0.118	-0.036
-719.806	-5.056	0.129	-0.090
-718.791	19.246	-0.191	-0.155
-717.777	-155.665	-0.214	0.014
-716.762	-152.784	0.104	0.007
-715.748	653.875	0.045	0.118
-714.733	-173.302	-0.348	0.011
-713.718	-82.551	0.344	0.113
-712.704	-128.544	-0.164	-0.024
-711.689	-89.039	0.142	0.043
-710.675	-66.120	0.219	0.089
-709.660	-106.473	-0.207	-0.047
-708.645	-200.000	0.033	0.196
-707.631	-11.950	0.172	0.114
-706.616	-127.684	-0.212	-0.031
-705.602	-200.000	-0.040	-0.426
-704.587	88.093	0.150	-0.168
-703.572	167.395	0.107	-0.155
-702.558	101.783	-0.240	0.283
-701.543	-115.157	0.329	0.063
-700.529	-200.000	-0.029	-0.251
-699.514	800.000	-0.115	-0.503
-698.499	69.276	0.177	-0.185
-697.485	26.367	0.083	0.071
-696.470	443.916	-0.069	-0.153
-695.456	800.000	-0.054	-0.226
-694.441	-2.899	-0.194	-0.137
-693.426	-165.262	0.139	-0.006
-692.412	676.467	0.066	0.175
-691.397	276.810	-0.069	0.124
-690.383	-81.272	-0.157	-0.052
-689.368	-18.606	-0.186	0.117
-688.354	-200.000	-0.004	0.139
-687.339	-83.977	-0.259	0.083
-686.324	-200.000	0.022	0.233
-685.310	-47.988	0.110	0.054
-684.295	-79.431	-0.133	0.046
-683.281	-76.451	0.362	0.129
-682.266	641.709	0.118	-0.304
-681.251	-200.000	-0.024	-0.649
-680.237	-132.392	0.402	-0.053
-679.222	86.665	-0.245	-0.274
-678.208	800.000	0.018	0.058
-677.193	213.315	0.079	-0.126
-676.178	302.813	-0.122	-0.229
-675.164	729.046	-0.059	-0.161
-674.149	132.635	-0.322	0.421
-673.135	32.929	-0.091	-0.080
-672.120	800.000	-0.038	-0.117
-671.105	-200.000	-0.118	-0.653
-670.091	800.000	-0.059	-0.200
-669.076	-185.064	-0.363	-0.006
-668.062	-159.845	0.124	0.007
-667.047	53.490	-0.224	-0.217
-666.032	496.961	0.080	0.187
-665.018	-30.761	0.074	0.042
-664.003	11.669	-0.167	0.130
-662.989	24.658	0.220	-0.184
-661.974	655.772	-0.122	-0.318
-660.959	208.652	-0.101	-0.160
-659.945	-134.271	-0.282	-0.035
-658.930	800.000	0.060	-0.179
-657.916	-102.999	-0.491	-0.118
-656.901	16.956	0.169	0.135
-655.886	603.209	0.062	0.155
-654.872	94.593	-0.197	-0.226
-653.857	782.118	-0.096	0.266
-652.843	-200.000	-0.061	-0.406
-651.828	-98.772	0.185	-0.048
-650.814	24.409	0.349	0.292
-649.799	-155.293	-0.393	-0.026
-648.784	42.004	-0.123	-0.113
-647.770	-7.555	-0.215	0.147
-646.755	61.283	0.201	0.202
-645.741	-61.702	0.125	-0.053
-644.726	-176.894	0.370	-0.009
-643.711	-135.922	-0.286	-0.034
-642.697	400.139	-0.099	-0.209
-641.682	800.000	0.107	0.437
-640.668	408.964	0.031	0.067
-639.653	785.575	0.018	0.051
-638.638	-59.882	0.236	-0.102
-637.624	-78.691	0.264	-0.091
-636.609	391.567	-0.026	0.054
-635.595	800.000	0.048	-0.184
-634.580	326.823	-0.196	-0.379
-633.565	3.798	-0.143	-0.105
-632.551	72.843	-0.144	-0.152
-631.536	-169.361	0.217	0.008
-630.522	-93.262	0.150	-0.042
-629.507	-38.439	-0.354	-0.189
-628.492	-124.228	0.274	-0.043
-627.478	-157.724	0.196	-0.012
-626.463	216.597	0.176	-0.282
-625.449	0.528	-0.062	0.045
-624.434	800.000	0.040	0.125
-623.419	-52.064	0.081	0.038
-622.405	-23.611	-0.010	0.006
-621.390	157.952	0.135	0.189
-620.376	-7.744	0.333	-0.227
-619.361	200.323	-0.080	0.125
-618.346	90.710	0.138	0.156
-617.332	-46.418	0.187	0.093
-616.317	-50.716	-0.187	0.089
-615.303	15.727	-0.082	0.065
-614.288	117.549	-0.029	-0.036
-613.273	-200.000	-0.050	0.445
-612.259	233.959	-0.140	0.233
-611.244	-181.292	-0.293	0.006
-610.230	-103.533	0.149	-0.035
-609.215	-200.000	0.017	-0.112
-608.201	382.028	0.100	0.208
-607.186	-86.408	0.209	0.065
-606.171	-200.000	-0.005	-0.485
-605.157	159.672	0.129	0.182
-604.142	-200.000	0.010	-0.106
-603.128	27.808	0.051	0.043
-602.113	228.172	0.115	-0.189
-601.098	116.099	-0.058	0.072
-600.084	-149.455	0.209	0.017
-599.069	218.202	0.133	-0.215
-598.055	775.152	-0.086	-0.236
-597.040	348.815	-0.025	0.051
-596.025	618.347	-0.107	-0.271
-595.011	363.735	-0.028	0.058
-593.996	116.509	-0.138	-0.171
-592.982	33.951	-0.022	0.019
-591.967	-89.689	0.250	-0.074
-590.952	800.000	0.061	0.181
-589.938	458.897	-0.114	0.256
-588.923	219.420	0.188	0.304
-587.909	-118.535	-0.477	0.085
-586.894	-50.882	-0.134	0.064
-585.879	800.000	-0.071	-0.255
-584.865	-157.769	-0.110	0.007
-583.850	78.726	-0.384	-0.414
-582.836	94.101	0.194	-0.222
-581.821	90.474	-0.095	0.108
-580.806	800.000	0.044	-0.174
-579.792	-131.085	0.198	-0.027
-578.777	471.338	-0.128	-0.292
-577.763	156.148	0.095	-0.133
-576.748	5.263	0.207	-0.154
-575.733	28.382	-0.206	0.175
-574.719	29.491	-0.160	0.137
-573.704	19.025	0.061	-0.049
-572.690	-111.918	0.221	0.045
-571.675	-200.000	0.029	0.194
-570.661	76.737	0.070	0.074
-569.646	130.938	0.049	-0.064
-568.631	282.038	0.072	-0.130
-567.617	-200.000	0.038	-0.219
-566.602	34.507	0.114	-0.101
-565.588	-200.000	0.060	0.273
-564.573	274.201	-0.056	0.100
-563.558	56.024	0.112	-0.109
-562.544	702.832	0.057	0.151
-561.529	135.674	0.099	-0.129
-560.515	-97.971	-0.107	-0.028
-559.500	-114.043	0.193	-0.038
-558.485	132.988	-0.056	-0.073
-557.471	-88.390	-0.475	-0.143
-556.456	800.000	-0.081	-0.290
-555.442	800.000	-0.021	0.077
-554.427	-77.294	-0.187	0.065
-553.412	-18.597	-0.183	-0.115
-552.398	88.079	-0.179	-0.200
-551.383	186.246	0.135	0.203
-550.369	-145.008	0.228	0.021
-549.354	-80.491	-0.212	0.071
-548.339	-147.284	-0.255	0.022
-547.325	-102.064	0.287	-0.070
-546.310	187.651	0.098	0.147
-545.296	732.921	-0.068	-0.185
-544.281	800.000	0.039	-0.164
-543.266	-40.486	0.080	0.042
-542.252	-200.000	-0.065	-0.312
-541.237	45.739	0.407	-0.379
-540.223	-135.919	-0.082	0.010
-539.208	800.000	-0.089	-0.357
-538.193	-44.992	0.223	0.112
-537.179	-153.427	0.098	0.007
-536.164	-200.000	-0.010	-0.061
-535.150	-122.699	0.229	0.037
-534.135	260.485	-0.091	-0.159
-533.121	-31.022	-0.155	0.088
-532.106	-77.308	-0.153	0.053
-531.091	-118.263	-0.140	0.025
-530.077	-200.000	0.052	-0.464
-529.062	-61.903	-0.188	0.079
-528.048	-54.625	-0.404	-0.184
-527.033	-200.000	0.019	0.235
-526.018	-200.000	0.057	0.325
-525.004	-72.358	-0.269	0.100
-523.989	-200.000	-0.040	-0.214
-522.975	93.031	-0.093	-0.106
-521.960	-127.953	-0.137	-0.020
-520.945	6.449	-0.218	-0.163
-519.931	-200.000	0.006	0.058
-518.916	55.368	-0.201	0.196
-517.902	39.307	0.099	-0.089
-516.887	11.110	0.227	0.174
-515.872	80.716	0.098	-0.106
-514.858	49.986	-0.173	-0.164
-513.843	107.798	-0.191	-0.229
-512.829	-37.108	-0.211	-0.114
-511.814	-106.654	-0.266	0.060
-510.799	800.000	0.049	-0.173
-509.785	412.785	-0.093	-0.199
-508.770	-100.869	0.122	-0.030
-507.756	-200.000	0.029	-0.200
-506.741	-200.000	-0.030	-0.394
-505.726	-200.000	-0.016	-0.105
-504.712	-106.940	-0.170	0.038
-503.697	228.441	0.064	-0.105
-502.683	133.789	0.067	0.087
-501.668	-200.000	-0.031	0.207
-500.653	800.000	0.004	0.016
-499.639	128.660	0.006	0.007
-498.624	-48.598	-0.399	-0.193
-497.610	-127.456	0.505	-0.074
-496.595	-188.609	-0.356	-0.004
-495.581	-141.294	-0.226	-0.023
-494.566	358.095	0.177	0.354
-493.551	283.224	-0.077	-0.140
-492.537	44.551	-0.021	0.019
-491.522	-12.884	0.263	-0.172
-490.508	699.729	-0.046	0.122
-489.493	800.000	0.072	-0.247
-488.478	-50.290	0.313	-0.149
-487.464	-200.000	0.015	0.232
-486.449	-200.000	0.016	-0.325
-485.435	-22.286	0.131	-0.080
-484.420	-119.819	-0.317	0.055
-483.405	7.413	-0.383	0.288
-482.391	178.576	0.125	-0.183
-481.376	95.435	0.212	0.243
-480.362	32.134	0.095	0.082
-479.347	-120.389	-0.161	0.027
-478.332	-129.007	0.213	0.030
-477.318	-68.535	-0.274	-0.107
-476.303	144.449	-0.216	-0.290
-475.289	-200.000	-0.076	0.409
-474.274	2.386	0.071	0.052
-473.259	-85.578	0.113	-0.035
-472.245	46.876	-0.027	-0.025
-471.230	800.000	-0.047	0.176
-470.216	-200.000	0.008	0.079
-469.201	-43.352	-0.286	0.145
-468.186	-200.000	-0.008	0.180
-467.172	-200.000	0.033	-0.361
-466.157	-83.010	0.341	-0.110
-465.143	-200.000	0.013	-0.306
-464.128	-121.584	-0.061	0.010
-463.113	140.459	0.065	0.086
-462.099	-200.000	-0.006	0.193
-461.084	-200.000	-0.000	0.161
-460.070	-30.078	-0.068	0.039
-459.055	421.800	0.120	-0.259
-458.040	200.887	0.262	-0.405
-457.026	-126.484	-0.064	-0.010
-456.011	161.405	0.092	0.130
-454.997	127.850	0.080	0.103
-453.982	203.612	0.085	0.133
-452.968	-166.764	-0.213	-0.009
-451.953	473.155	-0.037	-0.085
-450.938	-200.000	0.019	-0.354
-449.924	-50.297	0.274	-0.130
-448.909	72.589	0.066	0.069
-447.895	179.195	-0.054	0.080
-446.880	-38.441	0.112	-0.059
-445.865	6.122	-0.212	-0.158
-444.851	800.000	-0.078	0.284
-443.836	69.741	-0.234	0.243
-442.822	291.143	-0.102	0.186
-441.807	-47.260	0.237	0.116
-440.792	9.231	0.265	-0.201
-439.778	-22.896	0.192	0.116
-438.763	6.843	-0.032	0.024
-437.749	-15.212	-0.101	0.065
-436.734	-142.039	-0.093	0.009
-435.719	767.324	0.018	0.050
-434.705	2.579	0.186	-0.135
-433.690	79.998	-0.050	0.054
-432.676	-157.436	0.139	0.008
-431.661	-200.000	-0.048	-0.240
-430.646	-200.000	0.005	0.167
-429.632	-147.265	-0.290	0.025
-428.617	-121.674	0.400	-0.066
-427.603	-85.651	0.061	0.019
-426.588	-7.144	-0.252	0.171
-425.573	800.000	0.115	0.357
-424.559	61.389	0.101	0.101
-423.544	-143.064	0.081	0.008
-422.530	-107.109	0.223	0.049
-421.515	395.961	0.050	-0.106
-420.500	-28.102	-0.164	-0.095
-419.486	-67.321	0.168	-0.066
-418.471	-9.708	-0.117	-0.078
-417.457	-33.961	0.159	0.088
-416.442	67.467	-0.108	0.111
-415.428	-30.626	0.095	0.054
-414.413	-60.344	-0.276	-0.118
-413.398	146.447	0.070	-0.094
-412.384	-91.310	0.389	-0.112
-411.369	-142.942	-0.156	0.015
-410.355	67.689	0.197	-0.202
-409.340	131.527	0.069	-0.089
-408.325	-200.000	0.005	0.158
-407.311	75.504	-0.213	0.226
-406.296	-130.888	0.131	-0.018
-405.282	119.698	-0.266	-0.330
-404.267	-123.780	-0.384	0.061
-403.252	67.071	-0.087	0.089
-402.238	-78.804	-0.037	-0.013
-401.223	-9.610	0.243	0.162
-400.209	214.660	-0.331	0.526
-399.194	-159.100	0.170	0.010
-398.179	109.921	-0.168	0.201
-397.165	-200.000	-0.009	0.041
-396.150	-200.000	-0.060	-0.385
-395.136	-102.256	0.468	0.113
-394.121	134.806	-0.188	0.244
-393.106	271.219	-0.065	-0.115
-392.092	-200.000	-0.112	0.000
-391.077	-200.000	-0.032	0.214
-390.063	-200.000	0.079	-0.437
-389.048	13.479	0.153	-0.119
-388.033	-162.782	0.059	-0.003
-387.019	-200.000	0.001	0.122
-386.004	-114.225	-0.293	-0.057
-384.990	-200.000	0.020	0.176
-383.975	-95.514	0.091	-0.025
-382.960	4.595	0.093	-0.068
-381.946	-88.183	-0.468	-0.140
-380.931	-41.914	0.294	-0.151
-379.917	-200.000	-0.045	-0.232
-378.902	188.860	0.016	0.024
-377.888	-122.257	-0.317	-0.052
-376.873	330.075	0.124	0.238
-375.858	58.493	0.316	-0.310
-374.844	800.000	0.068	0.248
-373.829	137.893	0.182	-0.239
-372.815	-58.301	-0.090	-0.039
-371.800	-87.816	0.147	-0.044
-370.785	-200.000	-0.012	-0.132
-369.771	-98.507	-0.258	0.066
-368.756	1.371	0.111	0.080
-367.742	-200.000	0.008	-0.123
-366.727	800.000	-0.057	-0.183
-365.712	-200.000	0.033	0.149
-364.698	-200.000	-0.014	-0.494
-363.683	-129.541	-0.188	-0.026
-362.669	-200.000	0.091	-0.439
-361.654	-85.621	0.214	0.066
-360.639	-5.123	-0.190	0.131
-359.625	-200.000	-0.018	-0.126
-358.610	-79.476	-0.183	0.062
-357.596	800.000	-0.022	0.096
-356.581	-200.000	-0.034	0.194
-355.566	-200.000	-0.002	-0.118
-354.552	-200.000	0.045	0.328
-353.537	-128.934	0.194	-0.027
-352.523	-6.626	-0.212	0.144
-351.508	443.026	-0.120	-0.263
-350.493	-27.950	-0.206	0.119
-349.479	-200.000	0.020	0.409
-348.464	412.862	-0.056	-0.119
-347.450	-107.879	0.177	0.038
-346.435	451.987	0.119	-0.263
-345.420	-200.000	-0.024	-0.356
-344.406	27.008	-0.083	-0.070
-343.391	-127.292	0.460	-0.067
-342.377	24.532	-0.165	-0.137
-341.362	47.314	-0.019	-0.018
-340.348	1.514	-0.072	-0.052
-339.333	54.193	0.163	-0.156
-338.318	-45.280	0.123	-0.061
-337.304	-106.778	0.091	-0.020
-336.289	800.000	0.082	0.284
-335.275	621.400	0.021	0.052
-334.260	800.000	-0.075	-0.228
-333.245	107.573	0.137	0.163
-332.231	-16.683	-0.181	0.114
-331.216	-70.512	-0.255	0.097
-330.202	-200.000	0.029	0.235
-329.187	154.097	0.070	-0.096
-328.172	10.356	0.057	-0.043
-327.158	404.310	0.038	-0.079
-326.143	-39.902	-0.077	0.040
-325.129	-35.456	0.074	0.040
-324.114	-107.610	-0.531	0.116
-323.099	-93.732	0.384	0.106
-322.085	-63.584	-0.280	0.115
-321.070	-180.167	0.138	-0.003
-320.056	-200.000	-0.000	-0.139
-319.041	-136.431	-0.353	-0.041
-318.026	-195.215	0.136	-0.001
-317.012	-79.224	-0.189	-0.064
-315.997	735.772	-0.070	-0.186
-314.983	-10.447	-0.152	0.101
-313.968	490.579	0.108	-0.246
-312.953	-36.562	0.340	0.183
-311.939	-3.587	0.340	0.236
-310.924	-63.600	-0.125	-0.051
-309.910	-87.804	-0.177	-0.053
-308.895	-148.362	-0.113	0.009
-307.880	-54.580	0.361	0.163
-306.866	-139.357	0.300	-0.032
-305.851	26.810	-0.303	-0.254
-304.837	-38.770	0.147	0.077
-303.822	61.692	0.139	0.138
-302.807	800.000	-0.058	0.197
-301.793	800.000	0.076	0.299
-300.778	758.732	0.046	-0.124
-299.764	-110.410	-0.183	-0.038
-298.749	243.158	0.174	0.290
-297.735	-95.045	-0.416	0.112
-296.720	800.000	-0.073	-0.314
-295.705	-20.753	0.130	-0.080
-294.691	278.049	-0.097	0.172
-293.676	-200.000	0.017	0.162
-292.662	231.838	-0.101	-0.166
-291.647	-78.019	-0.432	0.149
-290.632	575.337	0.066	0.162
-289.618	764.080	0.189	0.512
-288.603	-52.869	0.098	-0.045
-287.589	76.054	-0.207	-0.218
-286.574	345.717	0.110	0.216
-285.559	40.670	-0.190	0.171
-284.545	-58.199	-0.261	-0.113
-283.530	-200.000	0.050	0.361
-282.516	4.359	0.077	-0.056
-281.501	-80.181	-0.133	0.044
-280.486	-118.277	-0.236	0.042
-279.472	-15.682	0.031	0.019
-278.457	17.926	0.104	0.082
-277.443	-131.786	0.476	-0.062
-276.428	800.000	-0.090	-0.348
-275.413	-104.619	0.269	0.062
-274.399	-124.419	0.225	0.035
-273.384	47.826	-0.119	0.111
-272.370	64.496	0.061	0.061
-271.355	-120.412	-0.263	-0.045
-270.340	-57.723	0.080	0.035
-269.326	66.092	-0.030	0.030
-268.311	-66.225	0.192	0.076
-267.297	154.317	0.197	0.270
-266.282	-182.530	-0.134	-0.002
-265.267	15.219	-0.120	0.094
-264.253	-7.934	0.267	0.179
-263.238	-194.638	-0.059	0.000
-262.224	-200.000	-0.020	-0.300
-261.209	66.610	-0.101	-0.102
-260.195	-200.000	-0.042	-0.307
-259.180	-200.000	-0.021	0.365
-258.165	286.458	0.047	-0.084
-257.151	152.471	-0.087	-0.118
-256.136	119.132	-0.116	0.143
-255.122	-200.000	0.012	-0.077
-254.107	91.167	0.173	0.194
-253.092	800.000	-0.055	-0.201
-252.078	38.913	0.163	0.145
-251.063	136.561	-0.200	0.260
-250.049	60.841	0.024	-0.024
-249.034	800.000	-0.070	-0.251
-248.019	-200.000	0.046	0.266
-247.005	-102.615	-0.297	0.071
-245.990	-6.475	-0.257	0.174
-244.976	0.120	-0.065	-0.046
-243.961	-200.000	-0.016	0.321
-242.946	74.118	0.042	0.044
-241.932	-113.957	-0.138	-0.027
-240.917	7.531	-0.226	0.168
-239.903	522.418	-0.105	0.245
-238.888	-109.316	0.435	-0.092
-237.873	800.000	-0.040	0.156
-236.859	-200.000	0.042	-0.253
-235.844	-43.933	-0.095	-0.047
-234.830	-77.252	0.108	-0.037
-233.815	800.000	-0.040	0.143
-232.800	-151.669	-0.220	0.016
-231.786	189.326	-0.242	0.360
-230.771	-200.000	0.023	-0.199
-229.757	800.000	-0.042	0.175
-228.742	158.801	0.095	-0.131
-227.727	-63.021	-0.114	0.047
-226.713	-126.343	-0.129	0.019
-225.698	-37.836	-0.090	0.048
-224.684	800.000	0.169	-0.475
-223.669	179.729	-0.108	0.158
-222.655	447.029	0.053	0.117
-221.640	58.852	0.074	-0.072
-220.625	-200.000	0.025	-0.303
-219.611	32.139	0.271	0.233
-218.596	-33.091	0.277	-0.153
-217.582	-94.624	0.343	-0.093
-216.567	112.105	-0.158	0.190
-215.552	-200.000	-0.019	0.124
-214.538	-180.877	0.493	-0.010
-213.523	-126.260	0.324	-0.048
-212.509	-89.203	-0.287	0.084
-211.494	375.866	-0.202	-0.410
-210.479	-9.176	0.176	0.117
-209.465	-13.260	0.140	0.090
-208.450	636.200	0.046	0.117
-207.436	151.122	-0.169	-0.228
-206.421	800.000	0.042	-0.183
-205.406	287.039	-0.180	-0.323
-204.392	93.487	0.160	0.180
-203.377	34.317	0.100	0.086
-202.363	800.000	0.038	0.153
-201.348	365.849	-0.156	0.312
-200.333	-83.237	-0.376	0.120
-199.319	-14.542	0.145	-0.093
-198.304	185.239	0.193	-0.285
-197.290	73.917	-0.028	0.029
-196.275	-32.528	0.065	0.036
-195.260	-200.000	0.026	0.172
-194.246	-44.124	0.213	-0.106
-193.231	119.404	0.173	0.212
-192.217	23.858	0.089	0.073
-191.202	49.563	-0.239	-0.223
-190.187	800.000	0.032	0.115
-189.173	-200.000	0.017	0.154
-188.158	800.000	-0.126	0.451
-187.144	-200.000	-0.168	-0.001
-186.129	-200.000	-0.012	0.242
-185.114	-122.315	0.010	0.002
-184.100	470.856	-0.067	0.149
-183.085	-200.000	0.061	0.282
-182.071	-38.060	-0.161	-0.085
-181.056	47.040	-0.162	0.149
-180.042	-26.954	0.143	0.083
-179.027	-138.365	-0.048	-0.005
-178.012	-154.494	-0.058	-0.004
-176.998	739.154	0.111	0.297
-175.983	-3.334	-0.305	-0.211
-174.969	-132.518	0.219	-0.028
-173.954	800.000	-0.114	0.315
-172.939	75.251	0.044	-0.046
-171.925	-200.000	0.084	0.373
-170.910	66.767	-0.270	0.273
-169.896	198.557	0.159	-0.241
-168.881	-15.900	0.290	-0.184
-167.866	6.025	-0.175	0.129
-166.852	-200.000	-0.001	-0.308
-165.837	800.000	-0.144	0.420
-164.823	215.915	0.078	-0.122
-163.808	45.381	0.312	-0.286
-162.793	-171.903	-0.231	0.007
-161.779	88.027	-0.226	0.248
-160.764	-119.620	0.223	0.038
-159.750	116.879	0.047	-0.058
-158.735	-16.892	0.225	-0.141
-157.720	-75.650	0.137	0.048
-156.706	-31.067	-0.215	-0.120
-155.691	-65.259	0.215	0.086
-154.677	-200.000	-0.004	0.044
-153.662	-200.000	-0.014	-0.125
-152.647	32.473	0.282	-0.242
-151.633	23.373	0.247	0.201
-150.618	-109.070	-0.320	-0.068
-149.604	303.186	0.162	-0.297
-148.589	192.986	-0.104	0.156
-147.574	-123.215	-0.066	0.011
-146.560	-107.288	-0.353	-0.077
-145.545	-200.000	0.011	0.221
-144.531	346.916	0.036	-0.070
-143.516	800.000	-0.025	-0.101
-142.502	-86.197	0.179	-0.055
-141.487	-200.000	-0.008	0.137
-140.472	-125.138	-0.388	0.059
-139.458	800.000	-0.039	0.122
-138.443	-127.608	0.179	0.026
-137.429	-108.845	0.273	-0.058
-136.414	-132.937	0.286	0.036
-135.399	430.815	-0.127	-0.272
-134.385	-23.171	0.105	0.063
-133.370	-68.478	0.203	-0.078
-132.356	-136.541	-0.294	-0.034
-131.341	800.000	-0.051	0.195
-130.326	-200.000	-0.015	-0.077
-129.312	-200.000	-0.008	-0.061
-128.297	29.253	-0.168	0.141
-127.283	202.344	-0.142	-0.217
-126.268	-32.988	-0.148	-0.081
-125.253	372.916	0.148	-0.299
-124.239	-200.000	0.028	-0.161
-123.224	-200.000	0.009	-0.229
-122.210	-200.000	-0.050	-0.229
-121.195	3.400	0.160	0.116
