DTS Sentinel unit serial number:	SN413079Multiplexer serial number:	ORYXHardware model number:	OX4-SRSoftware version number:	ORYX F/W v4.00 Oryx Data Collector v3.7.2.0data status	okinstallation	princeton_trtdifferential loss correction	single-endedforward channel	channel 4reverse channel	N/Adate	2019/09/13time	15:41:34forward acquisition time	60.00reverse acquisition time	0.00gamma	496.2192k internal	0.2298k external	0.2298temperature offset calibration	1.0217default loss term (dB/km)	0.3790temperature slope calibration	1.0000multiplexer offset coefficient	1.0000multiplexer slope coefficient	1.0000fibre end	0.00T internal ref (°C)	34.83T ext. ref 1 (°C)	4.76T ext. ref 2 (°C)	29.09length (m)	temperature (°C)	Stokes	anti-Stokes-747.200	431.523	-0.074	0.164
-746.185	-3.422	-0.198	0.141
-745.171	436.290	0.080	0.178
-744.156	-48.302	0.243	-0.119
-743.142	-185.586	-0.346	0.005
-742.127	-131.906	0.180	-0.024
-741.112	209.945	0.074	0.118
-740.098	56.457	-0.043	0.042
-739.083	286.213	-0.016	-0.030
-738.069	195.771	-0.105	0.163
-737.054	62.727	-0.248	-0.253
-736.039	-83.126	-0.155	0.051
-735.025	165.891	0.081	-0.117
-734.010	-55.722	0.306	0.140
-732.996	298.362	-0.101	-0.189
-731.981	171.636	-0.181	0.265
-730.966	328.506	-0.162	0.316
-729.952	-126.084	-0.202	-0.031
-728.937	-166.619	-0.126	0.005
-727.923	800.000	-0.105	-0.323
-726.908	-200.000	-0.013	-0.126
-725.894	375.257	-0.159	-0.332
-724.879	800.000	-0.011	-0.032
-723.864	97.779	-0.149	-0.175
-722.850	-41.993	-0.032	0.017
-721.835	570.876	-0.123	0.306
-720.821	-125.381	0.363	-0.056
-719.806	355.789	0.144	-0.292
-718.791	202.373	-0.066	-0.105
-717.777	251.477	0.063	-0.110
-716.762	6.661	-0.123	-0.093
-715.748	-95.580	-0.259	0.071
-714.733	-124.306	-0.453	0.072
-713.718	88.831	-0.023	0.026
-712.704	800.000	-0.008	0.030
-711.689	-200.000	0.429	0.002
-710.675	-17.969	0.060	0.038
-709.660	-33.787	0.166	-0.093
-708.645	-125.418	-0.350	-0.054
-707.631	-200.000	-0.014	0.303
-706.616	-16.116	-0.417	-0.270
-705.602	-20.156	0.125	-0.079
-704.587	-106.970	-0.210	-0.047
-703.572	278.613	-0.097	0.177
-702.558	113.346	0.040	-0.050
-701.543	-177.259	0.089	-0.002
-700.529	-200.000	-0.009	0.181
-699.514	-94.152	-0.260	-0.073
-698.499	-87.548	0.202	0.062
-697.485	-58.327	0.118	0.052
-696.470	119.042	0.096	0.121
-695.456	-2.834	0.318	-0.226
-694.441	-174.245	-0.230	-0.007
-693.426	-52.826	-0.086	-0.040
-692.412	800.000	-0.045	-0.128
-691.397	-134.791	0.332	0.041
-690.383	800.000	-0.039	0.131
-689.368	223.464	-0.012	0.019
-688.354	-182.820	0.154	0.003
-687.339	70.094	-0.154	-0.161
-686.324	68.507	-0.142	0.149
-685.310	565.155	0.106	-0.262
-684.295	566.976	-0.047	-0.117
-683.281	-74.634	-0.104	-0.038
-682.266	-55.600	-0.219	0.100
-681.251	208.057	-0.124	0.198
-680.237	-3.780	-0.121	-0.085
-679.222	747.012	-0.035	0.097
-678.208	-90.865	-0.252	0.074
-677.193	-66.006	-0.118	0.048
-676.178	1.161	-0.179	-0.131
-675.164	-82.255	0.151	0.050
-674.149	669.190	-0.074	0.195
-673.135	-147.585	0.225	-0.019
-672.120	125.892	0.172	0.222
-671.105	25.481	-0.160	0.135
-670.091	1.032	-0.083	-0.061
-669.076	-129.754	0.234	0.033
-668.062	-155.846	-0.285	-0.019
-667.047	-63.683	-0.352	-0.147
-666.032	-200.000	0.069	-0.313
-665.018	-135.079	0.410	0.050
-664.003	178.263	-0.124	0.184
-662.989	467.118	-0.163	-0.371
-661.974	12.659	0.148	-0.116
-660.959	-122.209	0.258	-0.043
-659.945	-138.771	-0.220	-0.024
-658.930	575.820	-0.031	0.077
-657.916	-200.000	-0.034	-0.248
-656.901	-136.547	0.053	-0.006
-655.886	378.760	-0.090	0.188
-654.872	93.244	-0.182	-0.210
-653.857	-39.512	-0.125	-0.066
-652.843	35.912	0.092	0.082
-651.828	476.069	-0.142	-0.326
-650.814	257.853	0.068	-0.119
-649.799	10.567	0.097	0.075
-648.784	153.506	-0.185	-0.258
-647.770	-45.175	0.033	-0.017
-646.755	567.274	0.149	0.367
-645.741	-107.589	-0.178	0.040
-644.726	185.376	-0.103	-0.156
-643.711	94.529	-0.177	0.204
-642.697	-61.850	-0.136	0.058
-641.682	-114.064	0.285	0.056
-640.668	-3.568	0.338	-0.239
-639.653	-101.672	-0.284	-0.070
-638.638	-200.000	0.004	0.129
-637.624	-98.941	0.268	-0.069
-636.609	-1.096	-0.200	0.144
-635.595	180.940	-0.061	0.091
-634.580	-97.323	0.277	0.073
-633.565	377.961	0.044	-0.091
-632.551	708.233	0.174	-0.467
-631.536	-200.000	0.005	0.225
-630.522	350.007	0.104	0.209
-629.507	-35.781	-0.273	0.150
-628.492	-108.751	-0.086	0.019
-627.478	188.199	-0.108	-0.164
-626.463	-200.000	-0.031	-0.219
-625.449	-22.649	0.148	-0.091
-624.434	800.000	0.107	-0.372
-623.419	17.406	-0.280	0.226
-622.405	-135.079	-0.143	-0.018
-621.390	-99.024	-0.077	0.020
-620.376	104.290	0.148	0.177
-619.361	-95.568	-0.346	-0.094
-618.346	-200.000	0.022	0.109
-617.332	-122.377	-0.232	-0.038
-616.317	-200.000	0.051	-0.422
-615.303	523.672	0.088	-0.211
-614.288	-200.000	0.000	0.170
-613.273	-200.000	-0.001	0.257
-612.259	800.000	0.032	-0.092
-611.244	-60.851	0.111	0.048
-610.230	98.976	-0.211	-0.248
-609.215	-125.847	0.479	0.073
-608.201	-133.928	-0.324	0.041
-607.186	-107.150	-0.213	0.048
-606.171	800.000	-0.042	0.159
-605.157	-4.006	0.162	0.114
-604.142	-39.634	0.077	-0.041
-603.128	-200.000	0.009	0.097
-602.113	-200.000	0.012	0.376
-601.098	-200.000	0.013	-0.177
-600.084	-32.772	0.355	-0.200
-599.069	-200.000	0.039	0.188
-598.055	539.086	-0.143	-0.345
-597.040	-106.764	-0.333	-0.075
-596.025	-83.377	0.048	0.016
-595.011	622.400	-0.103	0.263
-593.996	323.198	0.162	0.313
-592.982	28.992	-0.007	0.006
-591.967	-143.650	0.264	0.025
-590.952	-62.298	0.130	-0.055
-589.938	19.687	0.225	-0.183
-588.923	-86.818	-0.151	0.047
-587.909	-131.942	0.185	0.024
-586.894	-49.074	-0.304	-0.148
-585.879	-67.033	0.347	0.139
-584.865	232.329	0.198	0.330
-583.850	7.266	-0.377	0.285
-582.836	29.517	-0.117	-0.101
-581.821	800.000	0.060	-0.205
-580.806	-200.000	-0.014	-0.180
-579.792	-30.299	-0.181	0.104
-578.777	53.561	-0.163	-0.159
-577.763	-124.004	-0.009	-0.002
-576.748	-115.011	0.139	0.027
-575.733	92.210	0.223	0.255
-574.719	118.868	-0.110	-0.138
-573.704	23.921	0.224	0.187
-572.690	52.095	-0.064	-0.062
-571.675	29.014	0.089	0.077
-570.661	-126.049	-0.108	-0.016
-569.646	382.202	0.073	-0.153
-568.631	-89.894	-0.180	0.053
-567.617	800.000	-0.065	-0.225
-566.602	-192.956	-0.180	0.002
-565.588	215.100	-0.123	-0.198
-564.573	800.000	-0.096	-0.397
-563.558	-74.257	0.187	0.069
-562.544	-33.917	0.220	-0.123
-561.529	-112.995	0.312	-0.062
-560.515	800.000	0.093	0.305
-559.500	13.995	0.176	0.139
-558.485	-200.000	0.001	-0.110
-557.471	153.087	0.077	0.107
-556.456	-41.343	-0.251	0.131
-555.442	681.004	-0.163	-0.432
-554.427	25.317	-0.244	0.206
-553.412	-22.446	0.175	0.107
-552.398	-138.120	0.208	0.023
-551.383	800.000	0.031	0.087
-550.369	800.000	-0.140	-0.473
-549.354	-61.301	-0.164	0.070
-548.339	132.713	0.087	0.114
-547.325	-12.254	-0.186	0.123
-546.310	800.000	0.065	0.210
-545.296	164.602	-0.232	-0.331
-544.281	-200.000	0.010	0.105
-543.266	-99.644	-0.249	-0.063
-542.252	466.447	0.046	0.105
-541.237	-158.900	-0.064	0.004
-540.223	61.328	-0.146	-0.147
-539.208	-200.000	0.003	-0.260
-538.193	-163.234	-0.442	-0.021
-537.179	35.943	-0.057	-0.051
-536.164	356.908	-0.056	0.113
-535.150	-28.718	0.060	-0.035
-534.135	-200.000	0.006	0.082
-533.121	-200.000	0.011	0.393
-532.106	-26.423	0.198	-0.118
-531.091	399.818	0.023	0.048
-530.077	800.000	-0.109	-0.316
-529.062	303.038	-0.249	-0.467
-528.048	-200.000	0.005	-0.043
-527.033	-36.769	0.284	0.154
-526.018	-200.000	-0.029	0.306
-525.004	194.874	-0.065	-0.099
-523.989	115.791	-0.070	0.087
-522.975	535.119	0.037	0.090
-521.960	800.000	0.088	0.247
-520.945	-41.996	-0.210	-0.109
-519.931	684.292	0.106	0.280
-518.916	-200.000	-0.034	-0.439
-517.902	-99.685	0.068	0.017
-516.887	-107.984	-0.086	0.019
-515.872	-116.121	-0.155	0.029
-514.858	-107.542	0.226	0.050
-513.843	-55.919	0.447	-0.202
-512.829	47.869	-0.247	0.234
-511.814	1.403	-0.199	-0.145
-510.799	-176.940	-0.083	-0.002
-509.785	800.000	0.050	-0.163
-508.770	800.000	-0.109	-0.358
-507.756	-154.732	0.128	0.009
-506.741	-157.044	-0.233	-0.014
-505.726	29.470	0.160	-0.138
-504.712	-196.531	0.309	-0.002
-503.697	-23.855	0.156	-0.095
-502.683	137.118	0.114	-0.150
-501.668	-40.569	0.249	0.130
-500.653	303.228	0.125	-0.233
-499.639	417.403	0.062	0.135
-498.624	-200.000	-0.021	-0.238
-497.610	-73.510	-0.362	0.134
-496.595	-154.419	0.035	-0.002
-495.581	-89.967	0.240	-0.071
-494.566	-103.759	-0.113	0.027
-493.551	720.320	-0.069	-0.185
-492.537	-200.000	-0.017	0.135
-491.522	-94.973	-0.279	-0.076
-490.508	-107.953	-0.071	-0.016
-489.493	68.313	0.162	0.167
-488.478	89.878	0.046	0.052
-487.464	-56.845	0.045	0.020
-486.449	-200.000	-0.005	-0.228
-485.435	-200.000	-0.029	-0.251
-484.420	-118.939	0.185	0.033
-483.405	-166.496	-0.467	0.020
-482.391	457.962	-0.079	-0.176
-481.376	-173.514	0.092	-0.003
-480.362	800.000	0.070	0.234
-479.347	-98.308	-0.220	-0.057
-478.332	411.367	-0.124	-0.265
-477.318	-47.821	-0.228	-0.111
-476.303	-104.810	0.198	-0.046
-475.289	114.778	-0.139	-0.171
-474.274	-86.627	0.260	0.080
-473.259	800.000	0.078	-0.339
-472.245	-159.074	-0.146	-0.008
-471.230	800.000	0.060	0.252
-470.216	-200.000	0.005	0.033
-469.201	26.058	0.054	-0.046
-468.186	-149.086	0.395	0.032
-467.172	295.190	-0.240	-0.443
-466.157	-104.843	-0.195	0.045
-465.143	-200.000	0.017	-0.185
-464.128	152.398	0.092	0.127
-463.113	37.560	-0.196	-0.175
-462.099	-100.574	0.270	0.067
-461.084	-181.534	-0.166	0.003
-460.070	-115.594	0.286	-0.054
-459.055	202.357	0.361	-0.562
-458.040	135.093	-0.204	-0.267
-457.026	-200.000	0.069	0.355
-456.011	191.522	-0.182	0.277
-454.997	800.000	-0.125	0.403
-453.982	331.440	0.083	0.162
-452.968	-200.000	0.021	0.134
-451.953	6.034	-0.169	0.127
-450.938	192.714	0.307	-0.468
-449.924	133.685	-0.158	-0.207
-448.909	183.893	0.179	0.268
-447.895	321.485	-0.253	0.486
-446.880	101.277	-0.218	0.256
-445.865	-176.448	-0.214	0.006
-444.851	603.476	0.203	0.509
-443.836	179.076	0.101	0.149
-442.822	109.557	-0.032	-0.038
-441.807	-196.823	0.308	0.002
-440.792	-200.000	0.152	-0.000
-439.778	-16.365	-0.149	0.095
-438.763	39.200	-0.200	-0.181
-437.749	-115.337	0.447	0.085
-436.734	522.004	0.161	0.382
-435.719	212.649	-0.074	0.117
-434.705	-4.357	0.098	0.068
-433.690	-74.349	-0.142	-0.052
-432.676	242.243	-0.182	0.308
-431.661	58.571	0.165	0.163
-430.646	-200.000	0.026	0.379
-429.632	-88.705	-0.075	0.022
-428.617	-180.806	0.529	0.011
-427.603	-155.633	0.501	0.032
-426.588	-200.000	-0.037	0.240
-425.573	800.000	-0.037	0.113
-424.559	-131.638	0.156	0.021
-423.544	-89.700	-0.314	-0.093
-422.530	187.541	0.132	-0.199
-421.515	348.436	-0.083	-0.164
-420.500	221.625	0.159	-0.258
-419.486	800.000	-0.078	-0.219
-418.471	-87.829	-0.034	0.010
-417.457	-30.496	-0.106	0.060
-416.442	-99.613	-0.291	0.074
-415.428	-171.908	-0.276	-0.009
-414.413	63.478	0.303	0.307
-413.398	-76.764	-0.328	-0.116
-412.384	-100.346	-0.162	0.040
-411.369	-200.000	0.007	0.133
-410.355	-79.053	-0.283	-0.097
-409.340	800.000	0.087	-0.283
-408.325	-35.055	-0.206	0.113
-407.311	-23.785	-0.225	-0.136
-406.296	-128.116	0.145	-0.021
-405.282	195.323	0.121	0.185
-404.267	108.358	-0.248	0.298
-403.252	-60.877	-0.264	0.113
-402.238	181.395	0.299	-0.443
-401.223	123.249	-0.256	0.323
-400.209	-200.000	0.027	0.177
-399.194	-117.726	0.093	0.017
-398.179	112.095	0.030	-0.036
-397.165	111.568	-0.184	-0.224
-396.150	17.516	0.173	0.139
-395.136	59.712	0.051	0.051
-394.121	-200.000	-0.027	0.118
-393.106	80.289	-0.179	0.194
-392.092	-200.000	-0.036	-0.264
-391.077	-70.777	0.221	-0.084
-390.063	-200.000	-0.068	-0.323
-389.048	-48.483	-0.064	0.031
-388.033	800.000	0.071	0.309
-387.019	33.079	0.173	-0.151
-386.004	-57.885	-0.261	-0.115
-384.990	-66.662	0.104	0.041
-383.975	486.960	-0.111	-0.254
-382.960	-27.589	0.186	-0.109
-381.946	137.467	0.136	-0.179
-380.931	-144.852	-0.514	0.047
-379.917	3.837	0.136	-0.100
-378.902	89.780	-0.113	-0.127
-377.888	15.951	0.176	0.139
-376.873	-97.862	-0.202	0.052
-375.858	-123.222	0.210	-0.034
-374.844	33.054	0.035	0.031
-373.829	-32.159	-0.084	-0.047
-372.815	-80.313	-0.208	0.070
-371.800	88.584	-0.136	-0.152
-370.785	125.367	-0.142	-0.181
-369.771	406.104	-0.054	0.115
-368.756	149.844	-0.139	-0.190
-367.742	-200.000	0.052	0.324
-366.727	-151.160	0.397	0.030
-365.712	-45.066	-0.063	-0.032
-364.698	562.580	0.064	0.156
-363.683	-119.592	-0.233	0.041
-362.669	39.554	0.199	0.179
-361.654	632.846	0.086	0.220
-360.639	99.019	0.129	0.150
-359.625	44.333	-0.265	0.245
-358.610	359.154	0.130	0.262
-357.596	-200.000	-0.001	0.147
-356.581	247.501	-0.086	-0.147
-355.566	15.786	0.241	-0.190
-354.552	-29.209	0.246	0.142
-353.537	291.509	0.081	0.149
-352.523	9.063	-0.338	-0.257
-351.508	157.017	-0.053	0.074
-350.493	-39.056	-0.161	-0.085
-349.479	125.184	0.180	-0.228
-348.464	800.000	0.060	-0.176
-347.450	-85.771	0.403	-0.126
-346.435	800.000	0.044	-0.151
-345.420	-23.324	-0.146	0.088
-344.406	-200.000	-0.021	-0.161
-343.391	-200.000	-0.073	-0.368
-342.377	123.136	-0.293	-0.369
-341.362	800.000	0.013	0.052
-340.348	-22.360	0.347	0.211
-339.333	-61.703	-0.346	0.146
-338.318	239.462	0.112	0.187
-337.304	22.172	0.131	0.108
-336.289	499.313	0.171	0.397
-335.275	-153.266	0.095	0.007
-334.260	-60.047	-0.312	-0.134
-333.245	-21.791	0.240	0.146
-332.231	118.979	-0.155	-0.193
-331.216	-36.409	0.218	0.118
-330.202	28.536	-0.096	-0.082
-329.187	-81.369	-0.142	-0.047
-328.172	-25.874	0.046	0.027
-327.158	-200.000	-0.027	-0.221
-326.143	-200.000	0.005	0.076
-325.129	-200.000	0.105	0.500
-324.114	-200.000	0.004	-0.099
-323.099	259.204	-0.048	-0.084
-322.085	475.418	-0.037	0.084
-321.070	-200.000	0.003	-0.135
-320.056	299.964	0.029	-0.053
-319.041	800.000	-0.013	-0.053
-318.026	-200.000	0.035	-0.189
-317.012	100.415	0.152	0.177
-315.997	800.000	-0.026	0.098
-314.983	257.534	-0.084	-0.145
-313.968	16.723	0.266	0.211
-312.953	136.629	-0.079	0.104
-311.939	-200.000	0.005	-0.097
-310.924	7.847	0.105	0.079
-309.910	-200.000	-0.027	0.185
-308.895	349.932	0.076	0.152
-307.880	695.159	-0.056	-0.148
-306.866	-18.837	-0.114	0.071
-305.851	-200.000	0.051	0.250
-304.837	800.000	0.076	0.255
-303.822	-200.000	-0.085	0.405
-302.807	-170.029	0.220	0.008
-301.793	-200.000	0.008	0.115
-300.778	567.338	-0.083	0.201
-299.764	-76.303	0.252	0.089
-298.749	327.384	0.091	-0.175
-297.735	-51.698	-0.211	0.099
-296.720	11.096	-0.074	-0.057
-295.705	-17.977	0.064	-0.040
-294.691	-200.000	-0.035	-0.400
-293.676	83.599	-0.084	-0.092
-292.662	-78.317	0.161	-0.055
-291.647	351.867	-0.035	0.069
-290.632	-200.000	0.042	-0.263
-289.618	-100.363	-0.199	-0.049
-288.603	291.340	-0.083	0.151
-287.589	-200.000	0.136	0.000
-286.574	159.696	0.117	-0.163
-285.559	28.628	-0.222	-0.188
-284.545	86.279	-0.151	-0.167
-283.530	-200.000	-0.011	0.093
-282.516	800.000	0.062	0.259
-281.501	-200.000	-0.028	-0.157
-280.486	-109.730	0.254	0.054
-279.472	-200.000	0.001	0.034
-278.457	-200.000	0.003	-0.216
-277.443	800.000	-0.038	0.148
-276.428	269.156	0.057	-0.100
-275.413	-13.959	0.125	0.081
-274.399	-114.513	0.175	0.034
-273.384	99.522	-0.048	-0.055
-272.370	-115.742	0.268	0.050
-271.355	-100.112	-0.375	0.094
-270.340	-129.010	0.034	-0.005
-269.326	52.074	0.148	0.141
-268.311	-200.000	-0.001	-0.086
-267.297	380.926	-0.087	0.179
-266.282	-76.478	0.219	-0.077
-265.267	316.011	0.094	0.178
-264.253	-28.283	-0.496	0.287
-263.238	800.000	-0.054	-0.151
-262.224	137.660	-0.107	0.140
-261.209	146.339	0.149	0.201
-260.195	800.000	0.034	-0.102
-259.180	-123.903	-0.184	0.029
-258.165	179.491	0.242	0.355
-257.151	-71.592	-0.214	-0.080
-256.136	48.044	-0.229	-0.214
-255.122	-200.000	0.046	0.217
-254.107	-90.794	-0.116	0.033
-253.092	21.280	0.067	-0.054
-252.078	541.770	0.057	0.136
-251.063	-88.471	-0.209	0.063
-250.049	-77.406	0.223	0.077
-249.034	-137.489	-0.227	-0.026
-248.019	260.137	-0.054	-0.093
-247.005	-97.909	-0.250	-0.065
-245.990	112.081	0.195	-0.236
-244.976	104.144	0.135	-0.159
-243.961	-41.856	-0.427	-0.219
-242.946	426.449	0.042	-0.090
-241.932	800.000	-0.069	0.207
-240.917	-63.435	-0.131	0.054
-239.903	-200.000	-0.006	-0.265
-238.888	151.777	-0.031	0.043
-237.873	13.036	0.195	-0.151
-236.859	58.817	0.173	0.170
-235.844	133.283	-0.088	-0.114
-234.830	800.000	0.061	0.188
-233.815	-113.679	-0.185	-0.036
-232.800	-200.000	-0.017	0.106
-231.786	353.232	0.149	0.295
-230.771	-200.000	-0.023	0.202
-229.757	-131.363	0.063	0.008
-228.742	-32.085	0.065	-0.036
-227.727	-200.000	-0.002	-0.174
-226.713	-200.000	0.011	0.066
-225.698	-90.027	0.126	0.037
-224.684	-147.416	-0.097	-0.008
-223.669	-200.000	-0.015	-0.077
-222.655	-143.773	-0.485	0.046
-221.640	5.142	-0.198	-0.146
-220.625	-75.942	-0.104	0.037
-219.611	-120.940	-0.321	0.054
-218.596	-196.646	-0.306	0.002
-217.582	-200.000	0.026	0.392
-216.567	27.782	0.106	0.090
-215.552	-13.105	-0.352	-0.229
-214.538	-98.580	0.489	0.125
-213.523	-56.745	-0.265	0.117
-212.509	39.817	-0.083	0.074
-211.494	-98.775	-0.200	-0.051
-210.479	-113.224	-0.174	-0.034
-209.465	107.602	-0.241	-0.287
-208.450	626.520	0.037	0.094
-207.436	-57.219	-0.278	0.122
-206.421	800.000	-0.068	-0.251
-205.406	800.000	0.061	-0.222
-204.392	800.000	0.097	-0.408
-203.377	-118.443	0.306	-0.054
-202.363	129.447	0.114	-0.145
-201.348	-22.572	0.312	0.188
-200.333	-86.392	0.062	0.019
-199.319	82.157	0.026	0.028
-198.304	-200.000	-0.003	0.177
-197.290	-65.627	0.105	0.042
-196.275	-126.642	0.154	0.023
-195.260	100.272	0.070	-0.082
-194.246	800.000	0.047	-0.172
-193.231	-83.638	-0.211	0.067
-192.217	-200.000	-0.001	-0.058
-191.202	155.361	0.037	0.051
-190.187	20.433	-0.092	-0.074
-189.173	-136.465	0.233	0.027
-188.158	620.463	-0.086	-0.216
-187.144	-168.300	0.481	0.019
-186.129	-50.143	0.094	0.044
-185.114	-146.023	-0.148	0.013
-184.100	748.681	-0.056	0.152
-183.085	772.854	-0.027	0.074
-182.071	-87.890	-0.139	-0.042
-181.056	435.858	-0.108	-0.234
-180.042	-200.000	0.003	0.314
-179.027	-153.687	0.317	0.022
-178.012	-106.323	0.147	-0.033
-176.998	141.792	0.163	-0.215
-175.983	-200.000	0.004	-0.020
-174.969	-61.756	0.051	0.021
-173.954	152.476	-0.192	-0.261
-172.939	-143.931	-0.156	-0.015
-171.925	40.576	0.159	0.143
-170.910	302.307	0.111	-0.205
-169.896	-17.284	-0.151	0.095
-168.881	-144.775	-0.087	-0.008
-167.866	-112.149	0.315	0.063
-166.852	-111.105	-0.102	0.021
-165.837	176.007	0.112	0.162
-164.823	-13.733	0.141	-0.091
-163.808	-143.546	0.167	-0.016
-162.793	-119.226	0.101	0.018
-161.779	-140.507	0.206	-0.021
-160.764	133.207	-0.125	-0.161
-159.750	-116.162	-0.121	-0.022
-158.735	16.722	-0.168	-0.133
-157.720	18.719	0.170	-0.136
-156.706	-0.271	-0.201	-0.143
-155.691	-200.000	-0.004	-0.178
-154.677	-75.424	0.411	0.146
-153.662	124.960	0.255	-0.321
-152.647	28.880	0.380	-0.321
-151.633	-13.327	0.348	0.225
-150.618	-200.000	0.015	0.096
-149.604	-78.420	-0.125	0.043
-148.589	110.525	-0.077	0.093
-147.574	7.138	0.352	-0.262
-146.560	-69.371	-0.177	-0.068
-145.545	421.312	0.158	-0.337
-144.531	346.480	0.053	0.104
-143.516	24.830	0.105	-0.087
-142.502	-55.892	-0.331	-0.147
-141.487	-141.107	-0.123	0.013
-140.472	458.106	-0.032	-0.071
-139.458	196.076	0.088	-0.134
-138.443	78.488	-0.078	0.084
-137.429	-31.374	0.076	-0.043
-136.414	800.000	0.135	-0.421
-135.399	-122.628	0.643	0.104
-134.385	395.999	0.102	0.212
-133.370	238.949	0.149	0.247
-132.356	-54.372	0.303	0.137
-131.341	531.895	0.066	-0.157
-130.326	-26.136	0.293	0.172
-129.312	-37.777	0.170	-0.090
-128.297	220.475	-0.038	-0.061
-127.283	-100.008	-0.429	0.107
-126.268	236.564	0.220	0.364
-125.253	-200.000	-0.014	0.453
-124.239	-200.000	0.062	-0.340
-123.224	-102.657	0.133	-0.032
-122.210	-150.521	0.369	0.028
-121.195	-200.000	0.005	0.388
