DTS Sentinel unit serial number:	SN413079Multiplexer serial number:	ORYXHardware model number:	OX4-SRSoftware version number:	ORYX F/W v4.00 Oryx Data Collector v3.7.2.0data status	okinstallation	princeton_trtdifferential loss correction	single-endedforward channel	channel 4reverse channel	N/Adate	2019/09/12time	17:55:11forward acquisition time	60.00reverse acquisition time	0.00gamma	496.2192k internal	0.2308k external	0.2308temperature offset calibration	1.0132default loss term (dB/km)	0.3790temperature slope calibration	1.0000multiplexer offset coefficient	1.0000multiplexer slope coefficient	1.0000fibre end	0.00T internal ref (°C)	33.92T ext. ref 1 (°C)	2.91T ext. ref 2 (°C)	28.33length (m)	temperature (°C)	Stokes	anti-Stokes-747.200	-200.000	0.057	0.310
-746.185	154.691	-0.242	0.337
-745.171	-91.773	-0.111	0.032
-744.156	-26.658	-0.190	0.113
-743.142	788.467	0.069	-0.191
-742.127	800.000	0.024	-0.104
-741.112	-140.482	0.392	-0.041
-740.098	95.247	0.209	0.242
-739.083	-20.294	0.332	-0.208
-738.069	604.175	-0.114	-0.287
-737.054	530.873	0.116	0.279
-736.039	-104.365	-0.667	0.157
-735.025	-164.977	0.269	0.012
-734.010	60.938	-0.281	-0.283
-732.996	21.227	-0.275	-0.227
-731.981	-92.862	-0.110	-0.031
-730.966	-200.000	0.052	-0.356
-729.952	118.371	0.087	0.109
-728.937	8.610	-0.143	-0.110
-727.923	-200.000	-0.049	0.220
-726.908	800.000	-0.034	-0.111
-725.894	289.104	0.130	0.239
-724.879	49.608	0.122	0.117
-723.864	30.525	-0.169	-0.147
-722.850	151.126	-0.260	-0.359
-721.835	-200.000	-0.054	-0.278
-720.821	-66.027	0.100	0.041
-719.806	-52.495	0.072	0.034
-718.791	-92.068	-0.189	0.054
-717.777	-200.000	0.002	-0.028
-716.762	644.247	-0.047	-0.122
-715.748	171.116	-0.237	0.346
-714.733	-168.028	0.221	0.009
-713.718	38.736	0.310	-0.281
-712.704	-53.743	0.069	0.032
-711.689	-43.707	-0.215	0.110
-710.675	155.524	-0.167	-0.233
-709.660	800.000	-0.103	-0.366
-708.645	48.228	0.197	-0.187
-707.631	-141.832	0.276	-0.028
-706.616	-41.700	0.285	0.149
-705.602	335.262	0.041	-0.081
-704.587	-200.000	-0.021	0.124
-703.572	214.266	0.232	-0.373
-702.558	-70.912	-0.336	-0.128
-701.543	-58.992	0.252	-0.111
-700.529	223.783	-0.075	0.123
-699.514	-43.817	0.368	0.188
-698.499	-79.067	0.087	0.030
-697.485	215.292	-0.156	0.251
-696.470	-200.000	-0.021	0.202
-695.456	-55.722	0.142	0.064
-694.441	128.726	-0.175	-0.226
-693.426	800.000	-0.032	-0.142
-692.412	63.149	-0.276	-0.280
-691.397	-36.901	0.108	0.059
-690.383	35.654	0.031	0.028
-689.368	-200.000	0.015	-0.333
-688.354	800.000	-0.075	-0.241
-687.339	-80.483	-0.079	-0.027
-686.324	-200.000	0.354	-0.001
-685.310	800.000	-0.076	-0.254
-684.295	-76.498	0.157	0.056
-683.281	-155.546	-0.145	-0.009
-682.266	270.404	-0.116	-0.207
-681.251	800.000	0.031	-0.112
-680.237	-92.915	-0.063	-0.018
-679.222	-125.936	-0.578	-0.088
-678.208	-62.049	0.161	-0.068
-677.193	144.777	-0.210	-0.285
-676.178	97.296	0.098	-0.114
-675.164	784.735	0.110	0.307
-674.149	-172.349	-0.170	0.005
-673.135	-73.053	-0.216	0.080
-672.120	800.000	-0.019	-0.056
-671.105	-54.850	-0.114	0.052
-670.091	331.454	-0.155	0.304
-669.076	208.256	-0.088	-0.140
-668.062	124.042	0.101	0.128
-667.047	159.649	-0.277	0.391
-666.032	-87.767	0.343	-0.105
-665.018	238.271	-0.057	-0.095
-664.003	30.602	-0.058	0.050
-662.989	-107.907	0.185	-0.041
-661.974	-70.495	0.481	0.184
-660.959	13.930	0.273	-0.215
-659.945	-96.683	-0.138	-0.037
-658.930	293.815	0.066	-0.123
-657.916	-121.862	-0.083	-0.014
-656.901	355.072	-0.044	0.088
-655.886	-147.741	0.168	0.014
-654.872	800.000	-0.032	0.123
-653.857	800.000	0.092	-0.330
-652.843	-19.982	0.060	-0.037
-651.828	164.916	-0.076	0.108
-650.814	324.423	-0.090	-0.174
-649.799	-200.000	-0.034	-0.271
-648.784	122.853	0.198	-0.251
-647.770	800.000	-0.070	-0.237
-646.755	-200.000	-0.000	-0.083
-645.741	800.000	-0.022	0.082
-644.726	-193.302	0.052	0.000
-643.711	-66.313	0.315	-0.127
-642.697	-131.685	0.200	-0.027
-641.682	800.000	-0.071	-0.228
-640.668	48.637	-0.142	0.134
-639.653	280.786	-0.070	-0.126
-638.638	123.417	0.185	0.235
-637.624	504.068	-0.109	0.256
-636.609	65.198	0.173	-0.177
-635.595	281.262	0.010	0.019
-634.580	7.386	-0.119	0.090
-633.565	800.000	0.045	-0.148
-632.551	-200.000	-0.011	-0.088
-631.536	-48.553	-0.150	0.073
-630.522	30.858	-0.241	0.209
-629.507	273.000	0.027	0.049
-628.492	201.653	0.027	0.041
-627.478	233.971	-0.193	0.321
-626.463	800.000	0.079	0.247
-625.449	-136.019	-0.172	-0.020
-624.434	44.772	-0.122	0.113
-623.419	93.033	-0.165	0.189
-622.405	-93.763	0.183	-0.051
-621.390	-29.337	0.127	-0.073
-620.376	230.076	-0.088	-0.145
-619.361	-15.009	-0.166	-0.107
-618.346	-66.396	0.158	0.064
-617.332	800.000	-0.076	0.239
-616.317	162.205	-0.049	-0.070
-615.303	-5.751	-0.099	-0.069
-614.288	800.000	0.084	-0.258
-613.273	-123.597	0.512	0.082
-612.259	-21.755	-0.290	0.179
-611.244	-91.903	0.132	0.038
-610.230	96.651	0.201	0.233
-609.215	-200.000	0.060	0.468
-608.201	800.000	-0.130	0.372
-607.186	800.000	-0.045	-0.134
-606.171	14.280	0.106	-0.083
-605.157	239.663	-0.098	-0.165
-604.142	-200.000	0.011	-0.063
-603.128	-127.225	-0.313	0.046
-602.113	-200.000	-0.008	-0.124
-601.098	100.587	0.219	0.257
-600.084	-96.764	0.256	0.068
-599.069	-58.608	-0.106	-0.046
-598.055	-200.000	0.019	0.286
-597.040	78.301	-0.329	0.355
-596.025	42.761	0.134	-0.124
-595.011	580.877	0.161	0.400
-593.996	138.766	-0.209	-0.277
-592.982	-112.079	0.334	-0.068
-591.967	151.551	0.023	0.032
-590.952	9.891	0.111	0.085
-589.938	-125.548	0.197	0.030
-588.923	800.000	0.021	-0.084
-587.909	-200.000	-0.018	0.274
-586.894	-11.605	-0.118	-0.079
-585.879	274.606	-0.173	0.309
-584.865	-41.713	-0.120	-0.062
-583.850	-121.113	0.167	-0.028
-582.836	-63.429	-0.078	-0.032
-581.821	-30.427	0.031	-0.018
-580.806	-200.000	0.013	-0.125
-579.792	159.788	0.203	-0.286
-578.777	6.103	0.069	0.052
-577.763	116.201	-0.280	-0.346
-576.748	343.037	-0.046	0.091
-575.733	-162.734	0.367	0.018
-574.719	307.220	0.189	-0.355
-573.704	-96.981	-0.190	0.050
-572.690	-105.024	-0.392	0.091
-571.675	28.662	-0.082	-0.070
-570.661	203.458	-0.028	-0.043
-569.646	36.442	-0.483	0.430
-568.631	411.450	0.094	-0.201
-567.617	-91.253	0.020	-0.006
-566.602	-149.598	0.028	0.002
-565.588	-200.000	-0.286	-0.000
-564.573	-200.000	-0.077	0.405
-563.558	147.102	-0.076	0.104
-562.544	-92.093	0.260	0.074
-561.529	441.202	0.049	0.107
-560.515	-17.810	-0.127	-0.080
-559.500	-131.399	0.187	0.025
-558.485	-200.000	-0.029	-0.183
-557.471	-200.000	-0.024	-0.121
-556.456	257.622	-0.203	0.353
-555.442	-200.000	0.011	-0.118
-554.427	360.476	-0.097	0.196
-553.412	-89.806	0.192	-0.057
-552.398	525.330	0.117	0.277
-551.383	61.210	0.142	-0.142
-550.369	-200.000	-0.000	-0.460
-549.354	8.951	-0.049	0.037
-548.339	798.898	0.087	0.242
-547.325	-100.167	-0.276	-0.069
-546.310	-31.015	-0.275	-0.156
-545.296	49.163	-0.025	0.024
-544.281	-113.045	-0.112	0.022
-543.266	-162.704	-0.220	0.011
-542.252	-147.884	0.332	0.028
-541.237	-71.437	-0.110	-0.041
-540.223	44.138	-0.140	-0.129
-539.208	-116.936	-0.168	0.031
-538.193	800.000	-0.055	-0.206
-537.179	68.112	0.167	-0.172
-536.164	-37.689	0.212	-0.114
-535.150	-200.000	-0.009	0.101
-534.135	29.030	-0.247	0.211
-533.121	-200.000	0.048	-0.265
-532.106	413.237	-0.088	0.189
-531.091	-89.647	0.097	-0.029
-530.077	-38.321	0.130	0.069
-529.062	9.092	0.062	-0.047
-528.048	423.509	0.238	-0.516
-527.033	0.079	0.170	-0.122
-526.018	-200.000	0.007	-0.051
-525.004	742.466	0.048	0.131
-523.989	66.915	-0.137	-0.140
-522.975	-120.462	0.089	-0.015
-521.960	-110.704	-0.140	-0.029
-520.945	-33.022	0.071	-0.040
-519.931	46.537	0.107	0.100
-518.916	-24.498	-0.321	-0.193
-517.902	49.078	-0.069	-0.065
-516.887	52.901	-0.194	0.187
-515.872	54.159	0.369	0.358
-514.858	-200.000	0.054	-0.273
-513.843	-200.000	0.057	0.279
-512.829	-200.000	0.037	0.269
-511.814	800.000	-0.124	-0.362
-510.799	-162.994	-0.225	0.011
-509.785	-93.201	0.146	-0.041
-508.770	-149.118	-0.338	0.027
-507.756	-113.128	0.105	0.021
-506.741	-172.794	0.207	-0.007
-505.726	800.000	-0.026	0.083
-504.712	-200.000	0.002	0.108
-503.697	286.890	-0.120	0.219
-502.683	-200.000	-0.009	-0.196
-501.668	-72.080	0.217	0.081
-500.653	85.230	-0.169	0.187
-499.639	31.888	-0.134	-0.116
-498.624	800.000	-0.076	0.222
-497.610	-25.163	-0.089	0.053
-496.595	-200.000	0.004	-0.058
-495.581	81.162	0.012	-0.013
-494.566	-200.000	0.061	-0.344
-493.551	-177.979	0.241	0.006
-492.537	800.000	-0.063	0.213
-491.522	-200.000	-0.033	-0.363
-490.508	800.000	-0.070	-0.250
-489.493	25.469	0.100	-0.084
-488.478	-174.306	0.194	0.006
-487.464	93.596	-0.289	0.329
-486.449	464.665	0.063	0.142
-485.435	-105.784	0.110	0.025
-484.420	-125.104	0.244	0.038
-483.405	800.000	-0.110	0.334
-482.391	800.000	-0.081	0.262
-481.376	-30.088	-0.267	0.153
-480.362	114.036	-0.134	-0.164
-479.347	-65.517	-0.130	0.052
-478.332	303.350	-0.278	0.518
-477.318	-52.794	0.047	-0.022
-476.303	-46.518	-0.356	0.176
-475.289	800.000	0.006	-0.017
-474.274	28.996	-0.307	0.262
-473.259	76.455	0.197	0.210
-472.245	40.267	-0.165	-0.149
-471.230	4.683	0.042	0.031
-470.216	800.000	0.054	0.159
-469.201	243.047	-0.091	0.153
-468.186	721.358	-0.019	-0.051
-467.172	-56.536	0.288	-0.129
-466.157	-200.000	-0.006	0.137
-465.143	118.569	-0.119	0.148
-464.128	138.142	-0.184	-0.243
-463.113	-190.413	0.041	-0.000
-462.099	-200.000	0.017	0.120
-461.084	-190.067	-0.437	-0.005
-460.070	233.330	0.176	0.291
-459.055	-200.000	0.015	-0.148
-458.040	-2.230	0.249	0.176
-457.026	394.804	0.027	-0.056
-456.011	-97.146	0.175	-0.046
-454.997	201.520	-0.122	0.190
-453.982	640.408	-0.128	-0.327
-452.968	248.076	-0.236	-0.401
-451.953	-200.000	0.004	-0.347
-450.938	-200.000	0.007	0.208
-449.924	800.000	-0.018	-0.073
-448.909	800.000	0.050	0.177
-447.895	-63.860	0.291	-0.119
-446.880	-200.000	-0.002	-0.125
-445.865	-70.199	0.027	0.010
-444.851	800.000	0.072	0.262
-443.836	578.942	0.038	-0.094
-442.822	-200.000	0.001	0.183
-441.807	-200.000	-0.049	0.400
-440.792	9.424	0.244	-0.186
-439.778	12.473	0.201	-0.156
-438.763	94.164	-0.247	-0.281
-437.749	800.000	-0.133	-0.397
-436.734	259.264	0.175	-0.303
-435.719	278.396	0.099	-0.178
-434.705	-200.000	-0.011	-0.203
-433.690	14.772	-0.231	0.181
-432.676	-113.530	-0.126	0.025
-431.661	23.956	-0.203	-0.168
-430.646	34.661	-0.153	0.134
-429.632	-18.780	0.243	-0.152
-428.617	22.665	0.225	-0.185
-427.603	-84.706	-0.135	-0.043
-426.588	-99.925	-0.212	-0.053
-425.573	-163.735	0.262	0.012
-424.559	-36.710	0.006	-0.003
-423.544	-140.161	-0.152	0.016
-422.530	-192.265	-0.281	-0.003
-421.515	291.359	0.125	-0.229
-420.500	-172.105	-0.087	0.003
-419.486	-77.498	-0.137	-0.048
-418.471	-121.319	-0.166	0.028
-417.457	-200.000	0.027	0.146
-416.442	-168.163	-0.400	0.016
-415.428	106.992	-0.182	0.217
-414.413	-72.948	0.062	0.023
-413.398	-68.286	-0.215	-0.084
-412.384	76.168	0.225	0.239
-411.369	-200.000	-0.014	-0.063
-410.355	-74.973	-0.156	0.056
-409.340	155.040	0.188	-0.259
-408.325	-93.628	0.092	-0.026
-407.311	-67.538	-0.190	-0.075
-406.296	-12.382	0.192	-0.126
-405.282	-51.468	-0.394	-0.185
-404.267	-1.817	-0.124	0.088
-403.252	51.181	-0.137	0.130
-402.238	377.529	-0.069	-0.141
-401.223	-165.742	0.051	-0.002
-400.209	110.625	0.036	0.043
-399.194	-150.061	-0.213	-0.017
-398.179	669.196	0.088	0.228
-397.165	-73.151	0.313	0.115
-396.150	686.690	-0.081	-0.212
-395.136	34.675	-0.037	-0.033
-394.121	58.331	-0.184	0.181
-393.106	-0.329	-0.152	0.108
-392.092	800.000	-0.067	0.204
-391.077	640.451	0.171	0.436
-390.063	378.636	0.102	0.209
-389.048	-16.472	0.150	0.095
-388.033	-200.000	0.033	0.176
-387.019	800.000	0.067	-0.230
-386.004	-12.122	0.028	-0.018
-384.990	32.638	0.092	-0.080
-383.975	-200.000	0.053	-0.251
-382.960	-8.827	-0.418	-0.281
-381.946	-16.117	0.352	-0.224
-380.931	127.490	0.321	0.408
-379.917	-36.222	0.077	-0.042
-378.902	-123.157	-0.433	-0.069
-377.888	-200.000	-0.000	0.101
-376.873	800.000	-0.077	0.284
-375.858	132.142	0.118	0.152
-374.844	800.000	0.078	0.317
-373.829	5.493	0.183	-0.136
-372.815	190.426	-0.062	-0.093
-371.800	-8.038	0.041	-0.028
-370.785	-98.513	-0.429	-0.110
-369.771	-2.456	0.081	-0.057
-368.756	-139.830	0.235	-0.025
-367.742	-28.276	0.310	0.179
-366.727	-111.899	-0.250	-0.051
-365.712	485.348	0.060	0.137
-364.698	-200.000	-0.029	0.163
-363.683	203.871	0.192	-0.298
-362.669	-4.215	0.120	0.083
-361.654	313.883	-0.107	-0.202
-360.639	800.000	-0.087	0.318
-359.625	-115.828	0.155	0.029
-358.610	121.304	0.177	0.221
-357.596	163.023	-0.112	0.158
-356.581	800.000	-0.026	-0.108
-355.566	-200.000	0.035	-0.239
-354.552	373.327	-0.080	0.163
-353.537	-0.450	0.254	-0.180
-352.523	62.345	0.169	0.168
-351.508	800.000	0.021	0.068
-350.493	436.814	0.040	0.086
-349.479	-138.432	-0.275	-0.030
-348.464	87.989	-0.062	0.069
-347.450	-188.586	-0.120	-0.001
-346.435	-55.150	-0.201	-0.091
-345.420	176.965	0.233	0.339
-344.406	26.891	0.178	0.149
-343.391	-66.656	0.344	0.136
-342.377	-55.228	-0.293	0.132
-341.362	-200.000	0.018	-0.122
-340.348	-98.698	-0.558	0.142
-339.333	-149.915	0.021	-0.002
-338.318	-200.000	-0.229	0.001
-337.304	234.153	0.179	-0.294
-336.289	-84.189	-0.321	-0.102
-335.275	-117.548	0.302	0.054
-334.260	188.652	-0.113	0.169
-333.245	-200.000	0.016	0.269
-332.231	227.774	0.073	-0.119
-331.216	-35.215	0.201	0.109
-330.202	-35.847	0.171	0.092
-329.187	800.000	0.077	0.305
-328.172	296.457	0.174	-0.319
-327.158	63.613	0.120	-0.121
-326.143	-200.000	0.030	-0.180
-325.129	-69.176	-0.275	-0.106
-324.114	-106.222	0.154	0.035
-323.099	210.260	-0.119	0.187
-322.085	-143.593	-0.159	0.015
-321.070	370.866	0.149	0.302
-320.056	-200.000	0.094	-0.583
-319.041	800.000	-0.099	-0.314
-318.026	33.433	0.268	-0.232
-317.012	-52.753	-0.118	-0.054
-315.997	49.066	-0.179	-0.168
-314.983	118.457	0.035	-0.043
-313.968	-18.431	0.067	-0.042
-312.953	-200.000	-0.043	-0.279
-311.939	-19.932	-0.355	-0.219
-310.924	-3.155	0.169	-0.118
-309.910	355.314	-0.131	0.260
-308.895	17.820	-0.260	-0.207
-307.880	-200.000	-0.023	-0.331
-306.866	-200.000	-0.016	-0.226
-305.851	252.949	0.112	-0.191
-304.837	-50.260	0.137	-0.065
-303.822	278.823	0.184	0.328
-302.807	-200.000	0.051	0.304
-301.793	-200.000	-0.011	-0.142
-300.778	-25.938	0.111	0.065
-299.764	66.601	0.189	0.192
-298.749	-67.525	-0.483	-0.189
-297.735	350.022	-0.095	-0.188
-296.720	-45.375	0.143	-0.071
-295.705	-113.169	0.152	0.030
-294.691	129.508	-0.084	0.108
-293.676	716.970	-0.121	0.319
-292.662	-200.000	0.050	-0.345
-291.647	-89.222	-0.121	0.036
-290.632	800.000	-0.062	-0.272
-289.618	-200.000	0.027	-0.422
-288.603	215.230	0.133	-0.211
-287.589	-177.348	-0.042	-0.001
-286.574	28.929	-0.042	-0.036
-285.559	56.606	0.020	0.020
-284.545	-95.576	0.364	-0.097
-283.530	-32.947	-0.163	0.091
-282.516	496.203	-0.062	-0.143
-281.501	23.023	0.232	0.190
-280.486	-200.000	-0.010	-0.185
-279.472	-147.789	0.277	-0.023
-278.457	0.549	-0.097	-0.069
-277.443	-200.000	0.010	0.147
-276.428	-104.162	-0.187	0.043
-275.413	289.089	0.061	0.111
-274.399	-140.274	-0.118	-0.012
-273.384	-105.082	0.112	0.026
-272.370	-63.097	0.189	-0.078
-271.355	-18.553	0.255	-0.159
-270.340	179.895	-0.099	-0.145
-269.326	24.214	0.237	0.195
-268.311	-40.048	0.192	0.100
-267.297	-54.101	0.351	-0.159
-266.282	-200.000	-0.015	-0.203
-265.267	-73.557	0.229	-0.083
-264.253	274.169	0.087	-0.154
-263.238	-200.000	-0.009	0.088
-262.224	-200.000	0.004	-0.092
-261.209	-152.862	0.215	0.015
-260.195	61.805	-0.109	-0.108
-259.180	-166.184	0.211	0.009
-258.165	-87.017	-0.300	0.091
-257.151	230.825	-0.049	-0.080
-256.136	376.823	-0.115	0.234
-255.122	-122.804	-0.174	-0.028
-254.107	-200.000	-0.003	-0.177
-253.092	730.514	0.098	-0.261
-252.078	290.162	0.161	0.292
-251.063	78.567	0.109	0.116
-250.049	-200.000	0.045	-0.333
-249.034	55.320	-0.100	-0.096
-248.019	800.000	0.100	0.353
-247.005	126.409	-0.077	0.098
-245.990	-50.126	-0.164	0.077
-244.976	-200.000	-0.002	-0.262
-243.961	-65.935	0.015	-0.006
-242.946	-200.000	0.024	-0.269
-241.932	800.000	-0.102	0.299
-240.917	-52.388	0.165	-0.076
-239.903	423.855	-0.045	-0.096
-238.888	-29.764	0.072	0.041
-237.873	-200.000	-0.024	-0.159
-236.859	191.917	-0.155	-0.232
-235.844	-200.000	0.047	0.335
-234.830	-42.462	0.372	-0.189
-233.815	66.771	-0.107	-0.109
-232.800	-0.312	0.318	-0.225
-231.786	32.750	-0.175	-0.151
-230.771	-200.000	0.018	-0.081
-229.757	33.829	0.305	0.265
-228.742	84.346	-0.153	-0.167
-227.727	-29.457	-0.033	-0.019
-226.713	-124.014	-0.279	-0.044
-225.698	-200.000	-0.019	-0.269
-224.684	-123.021	-0.107	-0.017
-223.669	132.682	-0.156	-0.201
-222.655	-50.012	-0.332	-0.157
-221.640	-31.147	0.038	-0.021
-220.625	182.781	-0.084	-0.124
-219.611	54.422	0.101	-0.097
-218.596	202.401	0.134	0.206
-217.582	186.141	-0.062	0.092
-216.567	-200.000	-0.018	-0.171
-215.552	26.220	0.225	-0.187
-214.538	113.902	-0.189	0.228
-213.523	2.784	0.224	0.162
-212.509	-49.979	-0.242	-0.114
-211.494	600.065	-0.013	0.032
-210.479	-200.000	0.051	0.247
-209.465	-163.239	0.149	-0.007
-208.450	180.378	-0.232	-0.339
-207.436	-21.307	-0.154	0.094
-206.421	745.080	0.072	0.193
-205.406	181.164	0.240	0.351
-204.392	-124.013	0.354	-0.055
-203.377	155.919	-0.069	-0.094
-202.363	800.000	-0.087	0.289
-201.348	800.000	0.090	-0.316
-200.333	-200.000	0.016	0.099
-199.319	1.939	0.219	0.157
-198.304	-107.162	0.153	-0.034
-197.290	-128.711	-0.334	-0.047
-196.275	800.000	0.039	-0.148
-195.260	115.877	-0.122	0.149
-194.246	-15.942	0.273	0.173
-193.231	-105.598	-0.387	-0.087
-192.217	-200.000	0.038	0.282
-191.202	-200.000	-0.019	-0.214
-190.187	-40.618	0.297	0.153
-189.173	-200.000	0.004	-0.067
-188.158	238.955	-0.039	0.064
-187.144	80.388	0.196	0.209
-186.129	-200.000	0.041	0.323
-185.114	800.000	-0.042	0.132
-184.100	460.357	0.068	-0.151
-183.085	-200.000	0.046	0.321
-182.071	-200.000	0.011	0.121
-181.056	-24.953	0.056	0.033
-180.042	800.000	0.044	0.132
-179.027	15.918	-0.130	0.102
-178.012	91.970	-0.099	-0.110
-176.998	31.606	0.281	0.240
-175.983	183.046	0.161	-0.236
-174.969	4.065	-0.129	-0.094
-173.954	155.547	0.051	0.069
-172.939	800.000	-0.050	-0.160
-171.925	800.000	0.063	-0.238
-170.910	15.369	0.248	0.193
-169.896	-200.000	0.031	-0.262
-168.881	114.738	-0.039	0.047
-167.866	-200.000	-0.010	-0.139
-166.852	-145.804	-0.275	-0.024
-165.837	150.234	0.188	0.253
-164.823	800.000	-0.070	-0.204
-163.808	-145.579	-0.087	-0.008
-162.793	8.861	-0.189	0.141
-161.779	-200.000	-0.013	-0.063
-160.764	800.000	-0.012	0.049
-159.750	72.525	0.087	0.090
-158.735	-200.000	0.044	-0.263
-157.720	-70.341	0.364	0.137
-156.706	-51.052	-0.172	0.080
-155.691	752.555	-0.112	0.299
-154.677	-113.645	0.126	-0.024
-153.662	-84.317	-0.041	0.013
-152.647	178.109	0.151	-0.218
-151.633	-65.064	0.127	-0.051
-150.618	-79.075	-0.049	-0.017
-149.604	-200.000	0.012	-0.108
-148.589	607.802	0.048	-0.118
-147.574	800.000	-0.135	0.583
-146.560	259.647	0.069	0.118
-145.545	-129.947	0.456	0.062
-144.531	-14.671	0.168	-0.107
-143.516	-54.186	-0.095	0.043
-142.502	78.501	-0.054	0.057
-141.487	-41.009	-0.133	0.068
-140.472	-83.607	0.274	-0.087
-139.458	-130.027	0.151	-0.020
-138.443	-200.000	-0.019	0.166
-137.429	5.608	0.384	0.282
-136.414	-66.339	-0.213	-0.084
-135.399	-152.241	0.265	0.019
-134.385	-172.513	0.180	-0.006
-133.370	-100.273	0.181	-0.045
-132.356	-137.607	-0.146	0.016
-131.341	376.376	-0.035	-0.072
-130.326	-200.000	-0.038	-0.280
-129.312	110.468	0.069	0.083
-128.297	33.625	-0.211	-0.182
-127.283	-200.000	-0.030	0.148
-126.268	-107.238	-0.255	0.056
-125.253	-79.867	-0.086	0.029
-124.239	-200.000	0.021	0.168
-123.224	101.328	-0.094	0.109
-122.210	800.000	-0.063	0.191
-121.195	333.748	-0.093	-0.178
