DTS Sentinel unit serial number:	SN413079Multiplexer serial number:	ORYXHardware model number:	OX4-SRSoftware version number:	ORYX F/W v4.00 Oryx Data Collector v3.7.2.0data status	okinstallation	princeton_trtdifferential loss correction	single-endedforward channel	channel 4reverse channel	N/Adate	2019/09/16time	14:41:35forward acquisition time	60.00reverse acquisition time	0.00gamma	496.2192k internal	0.2288k external	0.2288temperature offset calibration	0.9938default loss term (dB/km)	0.3790temperature slope calibration	1.0000multiplexer offset coefficient	1.0000multiplexer slope coefficient	1.0000fibre end	0.00T internal ref (°C)	41.64T ext. ref 1 (°C)	14.31T ext. ref 2 (°C)	35.83length (m)	temperature (°C)	Stokes	anti-Stokes-747.200	644.439	0.071	0.185
-746.185	167.082	0.152	0.222
-745.171	-110.050	-0.149	0.032
-744.156	-49.415	-0.243	0.119
-743.142	-200.000	0.012	0.461
-742.127	742.088	0.118	0.325
-741.112	108.085	0.217	0.266
-740.098	-138.168	0.095	-0.011
-739.083	-200.000	-0.029	0.180
-738.069	401.142	0.211	0.454
-737.054	-33.616	-0.352	-0.199
-736.039	-71.667	-0.145	0.055
-735.025	184.779	0.098	0.149
-734.010	-134.318	-0.337	-0.042
-732.996	487.676	-0.194	-0.453
-731.981	800.000	-0.063	-0.230
-730.966	256.012	-0.109	0.192
-729.952	-137.367	0.256	0.030
-728.937	-200.000	0.071	-0.321
-727.923	-200.000	0.019	-0.115
-726.908	71.010	-0.148	-0.157
-725.894	-53.668	0.214	0.100
-724.879	154.825	-0.046	0.065
-723.864	114.179	0.042	0.053
-722.850	-103.329	-0.158	-0.038
-721.835	-69.419	0.161	-0.063
-720.821	800.000	-0.040	-0.131
-719.806	800.000	-0.071	-0.222
-718.791	386.380	0.022	0.046
-717.777	-178.989	-0.279	0.006
-716.762	-200.000	0.037	-0.181
-715.748	-53.773	-0.190	-0.089
-714.733	-50.208	-0.140	-0.068
-713.718	-75.904	-0.266	-0.097
-712.704	-200.000	-0.028	-0.262
-711.689	32.911	-0.243	-0.215
-710.675	71.612	-0.071	-0.076
-709.660	-119.569	-0.229	-0.041
-708.645	2.506	-0.077	-0.057
-707.631	-127.296	-0.152	0.023
-706.616	-200.000	-0.056	0.363
-705.602	-56.716	0.282	-0.128
-704.587	190.663	0.101	0.155
-703.572	424.427	-0.095	-0.209
-702.558	86.755	-0.186	0.211
-701.543	-65.401	0.112	0.046
-700.529	150.314	0.016	0.022
-699.514	-200.000	0.019	-0.113
-698.499	-200.000	0.032	-0.508
-697.485	209.878	-0.058	-0.093
-696.470	-92.663	-0.248	0.071
-695.456	92.690	-0.087	0.101
-694.441	-200.000	0.065	0.360
-693.426	-73.208	0.385	0.144
-692.412	-157.421	0.262	0.016
-691.397	800.000	0.096	-0.276
-690.383	419.096	-0.130	-0.285
-689.368	-200.000	-0.011	-0.100
-688.354	-200.000	0.015	0.296
-687.339	191.607	-0.133	0.205
-686.324	-200.000	0.007	-0.164
-685.310	473.352	-0.063	0.146
-684.295	-23.138	0.088	0.054
-683.281	-144.833	-0.309	-0.029
-682.266	591.934	-0.070	0.177
-681.251	-200.000	0.002	-0.154
-680.237	-62.077	-0.337	0.144
-679.222	-132.326	0.200	0.026
-678.208	-27.829	0.089	0.053
-677.193	34.669	0.177	-0.158
-676.178	-140.837	-0.204	0.021
-675.164	7.300	0.306	-0.233
-674.149	-95.217	-0.198	0.055
-673.135	-137.639	0.339	0.039
-672.120	-85.786	-0.152	0.048
-671.105	-200.000	-0.028	0.210
-670.091	-82.306	-0.314	0.105
-669.076	800.000	-0.071	0.272
-668.062	-200.000	-0.001	0.101
-667.047	800.000	0.051	0.199
-666.032	21.884	-0.221	-0.184
-665.018	800.000	0.164	-0.498
-664.003	485.442	-0.041	0.094
-662.989	800.000	-0.052	-0.229
-661.974	-124.958	0.155	-0.024
-660.959	-200.000	0.034	-0.271
-659.945	207.488	0.093	0.148
-658.930	-99.194	0.043	0.011
-657.916	127.331	-0.085	-0.110
-656.901	-200.000	0.037	-0.250
-655.886	-98.692	0.178	-0.046
-654.872	-200.000	-0.010	0.270
-653.857	-200.000	0.015	0.247
-652.843	-200.000	-0.088	0.000
-651.828	-200.000	0.036	-0.171
-650.814	6.083	0.125	-0.095
-649.799	-188.706	0.127	0.002
-648.784	-200.000	0.008	-0.224
-647.770	-94.756	-0.513	-0.142
-646.755	-200.000	-0.031	-0.413
-645.741	-100.517	-0.108	0.027
-644.726	548.207	-0.116	-0.283
-643.711	-14.204	-0.148	-0.097
-642.697	80.341	-0.212	0.234
-641.682	329.136	0.106	0.208
-640.668	800.000	0.073	0.261
-639.653	-91.638	-0.307	-0.089
-638.638	-26.802	-0.180	0.108
-637.624	448.346	-0.050	0.112
-636.609	53.168	-0.163	-0.159
-635.595	65.259	0.294	0.303
-634.580	322.976	0.081	-0.158
-633.565	800.000	-0.055	0.230
-632.551	142.014	-0.123	-0.167
-631.536	-82.116	0.198	0.066
-630.522	-58.877	-0.165	-0.073
-629.507	-200.000	-0.007	-0.162
-628.492	140.874	-0.110	-0.148
-627.478	141.472	0.141	-0.191
-626.463	44.950	0.250	0.235
-625.449	800.000	-0.117	-0.382
-624.434	138.599	-0.134	-0.180
-623.419	-200.000	0.012	-0.205
-622.405	-89.684	-0.124	0.037
-621.390	-200.000	0.048	-0.217
-620.376	227.795	0.159	0.264
-619.361	19.945	-0.177	0.145
-618.346	72.528	0.142	0.151
-617.332	-90.227	-0.227	-0.067
-616.317	13.903	0.196	-0.156
-615.303	-28.468	0.340	0.200
-614.288	318.934	0.164	0.317
-613.273	38.735	-0.239	-0.218
-612.259	-34.024	0.192	-0.108
-611.244	-157.250	-0.298	-0.018
-610.230	218.571	0.117	-0.191
-609.215	800.000	0.083	-0.287
-608.201	478.512	-0.137	0.316
-607.186	369.922	-0.074	0.153
-606.171	-128.074	0.032	0.005
-605.157	-154.941	-0.358	-0.024
-604.142	-200.000	0.002	-0.108
-603.128	800.000	-0.040	0.120
-602.113	124.024	-0.273	-0.350
-601.098	-97.679	-0.228	-0.060
-600.084	-200.000	0.009	-0.299
-599.069	-104.753	-0.179	0.042
-598.055	-58.862	0.180	0.079
-597.040	14.109	0.188	0.149
-596.025	-124.979	-0.145	-0.023
-595.011	-44.054	-0.253	0.129
-593.996	-200.000	-0.000	0.010
-592.982	82.437	-0.027	-0.030
-591.967	-200.000	0.060	-0.450
-590.952	42.664	-0.073	0.068
-589.938	45.374	0.116	0.109
-588.923	-11.832	-0.210	0.140
-587.909	800.000	-0.049	0.154
-586.894	-97.067	-0.188	0.050
-585.879	-127.724	0.116	-0.017
-584.865	-5.272	-0.226	0.159
-583.850	-45.331	0.224	-0.113
-582.836	37.885	0.078	0.071
-581.821	-200.000	0.005	-0.319
-580.806	-50.274	-0.301	-0.145
-579.792	81.834	-0.225	0.248
-578.777	-49.716	-0.251	0.122
-577.763	-77.165	-0.247	-0.088
-576.748	241.918	-0.064	-0.109
-575.733	-152.237	0.286	0.021
-574.719	-200.000	0.007	-0.127
-573.704	-61.111	0.321	0.138
-572.690	-200.000	-0.038	-0.170
-571.675	-200.000	-0.004	-0.193
-570.661	-200.000	0.037	-0.253
-569.646	-200.000	-0.000	-0.133
-568.631	118.872	-0.105	0.132
-567.617	800.000	-0.063	-0.240
-566.602	-77.838	0.227	-0.080
-565.588	55.548	0.174	-0.172
-564.573	70.016	0.159	0.167
-563.558	-200.000	0.026	-0.327
-562.544	-200.000	0.042	-0.337
-561.529	800.000	0.058	-0.256
-560.515	-20.640	0.207	-0.130
-559.500	-200.000	-0.010	-0.447
-558.485	-76.392	0.128	-0.046
-557.471	85.248	-0.286	-0.319
-556.456	245.180	-0.105	0.180
-555.442	463.512	-0.060	-0.137
-554.427	-197.334	0.213	-0.001
-553.412	206.334	0.139	-0.220
-552.398	-65.155	0.358	0.147
-551.383	800.000	-0.179	0.533
-550.369	-200.000	-0.021	0.151
-549.354	113.020	0.121	0.149
-548.339	-163.929	0.082	-0.004
-547.325	-200.000	-0.024	-0.137
-546.310	-200.000	0.046	-0.271
-545.296	800.000	-0.035	0.129
-544.281	-101.202	-0.191	0.048
-543.266	800.000	-0.096	-0.299
-542.252	-142.357	-0.210	-0.021
-541.237	-114.116	0.046	0.009
-540.223	0.936	0.277	0.202
-539.208	800.000	-0.061	0.193
-538.193	-105.526	0.082	0.019
-537.179	-113.857	0.078	0.015
-536.164	-113.967	0.237	-0.047
-535.150	397.874	0.103	-0.219
-534.135	-89.274	-0.274	-0.082
-533.121	-87.457	-0.045	-0.014
-532.106	-147.877	-0.367	-0.031
-531.091	-127.791	-0.223	0.033
-530.077	794.246	0.112	-0.314
-529.062	-200.000	0.015	-0.198
-528.048	800.000	0.150	-0.564
-527.033	-200.000	0.015	-0.245
-526.018	-92.024	-0.057	-0.016
-525.004	-12.229	0.258	-0.171
-523.989	105.386	0.072	-0.087
-522.975	800.000	0.104	-0.362
-521.960	-33.031	-0.211	0.119
-520.945	76.264	-0.052	-0.056
-519.931	25.966	-0.075	0.063
-518.916	-59.112	-0.072	-0.031
-517.902	108.865	0.071	0.087
-516.887	16.812	0.161	-0.129
-515.872	-200.000	-0.008	0.053
-514.858	31.134	0.137	0.119
-513.843	51.336	-0.119	-0.115
-512.829	465.215	0.100	0.228
-511.814	800.000	0.069	-0.195
-510.799	105.504	-0.105	-0.126
-509.785	-18.686	-0.422	0.267
-508.770	-100.283	-0.388	0.098
-507.756	-200.000	0.018	-0.126
-506.741	127.473	-0.200	-0.258
-505.726	800.000	0.089	-0.378
-504.712	110.118	-0.246	0.300
-503.697	126.540	0.057	0.073
-502.683	123.546	0.113	0.144
-501.668	472.853	-0.064	0.146
-500.653	-141.640	0.106	0.011
-499.639	800.000	0.039	0.160
-498.624	26.562	-0.105	0.089
-497.610	-72.682	-0.235	-0.088
-496.595	128.245	0.098	0.127
-495.581	-200.000	0.042	-0.228
-494.566	-61.361	-0.030	0.013
-493.551	-43.501	-0.181	-0.093
-492.537	111.689	-0.131	0.160
-491.522	509.889	0.105	-0.249
-490.508	-108.183	0.230	-0.050
-489.493	50.638	0.145	-0.139
-488.478	271.513	-0.074	-0.132
-487.464	-83.546	0.230	-0.075
-486.449	-74.533	0.230	-0.084
-485.435	-61.448	0.023	0.010
-484.420	-200.000	-0.032	-0.179
-483.405	1.996	0.293	-0.214
-482.391	66.344	-0.098	0.101
-481.376	17.507	0.109	-0.088
-480.362	251.442	-0.153	0.264
-479.347	-92.297	0.233	0.067
-478.332	-73.643	0.065	-0.024
-477.318	-200.000	0.045	0.264
-476.303	-200.000	-0.034	-0.173
-475.289	1.562	-0.393	0.287
-474.274	-200.000	0.013	-0.331
-473.259	-111.624	0.432	-0.089
-472.245	-200.000	0.014	-0.198
-471.230	-200.000	0.022	-0.097
-470.216	-73.820	0.132	-0.049
-469.201	686.956	0.074	-0.195
-468.186	-200.000	-0.043	-0.255
-467.172	-84.588	-0.095	-0.030
-466.157	79.478	0.086	0.094
-465.143	-63.354	0.214	0.089
-464.128	-34.945	-0.150	-0.083
-463.113	100.653	-0.215	0.253
-462.099	395.478	-0.092	-0.195
-461.084	-173.390	-0.324	-0.010
-460.070	463.599	0.086	0.194
-459.055	-200.000	-0.042	-0.206
-458.040	-200.000	-0.016	0.354
-457.026	10.191	0.349	0.269
-456.011	-11.369	-0.190	-0.127
-454.997	227.133	-0.142	0.234
-453.982	116.636	0.135	-0.168
-452.968	-180.835	-0.395	0.008
-451.953	-97.930	-0.328	0.086
-450.938	-200.000	-0.019	-0.234
-449.924	225.337	0.075	-0.124
-448.909	118.413	-0.045	0.056
-447.895	242.845	-0.080	-0.136
-446.880	-75.755	-0.239	0.086
-445.865	-82.716	-0.084	-0.028
-444.851	-200.000	-0.018	0.134
-443.836	307.420	-0.043	0.082
-442.822	203.512	0.065	-0.103
-441.807	800.000	0.022	0.070
-440.792	800.000	0.139	-0.467
-439.778	310.320	-0.024	0.045
-438.763	46.768	-0.109	-0.103
-437.749	-9.840	0.262	-0.177
-436.734	-50.926	0.040	0.019
-435.719	-156.779	-0.537	0.034
-434.705	221.083	-0.123	0.199
-433.690	-126.446	-0.234	-0.035
-432.676	800.000	-0.101	-0.322
-431.661	17.799	-0.189	0.153
-430.646	56.389	-0.122	0.120
-429.632	-87.202	-0.135	0.041
-428.617	21.211	0.289	0.238
-427.603	381.214	-0.065	-0.136
-426.588	-3.013	-0.177	0.125
-425.573	-121.663	0.349	0.059
-424.559	-200.000	0.025	-0.389
-423.544	-138.995	0.241	-0.026
-422.530	5.479	-0.196	0.146
-421.515	572.393	0.082	0.202
-420.500	-200.000	-0.009	-0.273
-419.486	82.351	-0.242	-0.265
-418.471	-200.000	0.037	0.285
-417.457	135.497	0.166	-0.218
-416.442	289.960	0.178	-0.327
-415.428	777.416	0.033	0.091
-414.413	-157.033	0.161	-0.010
-413.398	-1.139	-0.295	0.211
-412.384	196.541	0.228	0.352
-411.369	-100.388	0.112	0.028
-410.355	-70.884	-0.228	0.087
-409.340	577.387	-0.146	0.362
-408.325	-73.497	0.251	-0.093
-407.311	66.586	-0.186	0.191
-406.296	800.000	-0.068	-0.239
-405.282	518.987	-0.131	0.311
-404.267	-147.903	-0.170	0.014
-403.252	-200.000	-0.018	-0.152
-402.238	-26.543	0.282	0.167
-401.223	137.344	-0.135	-0.178
-400.209	-144.368	0.230	0.022
-399.194	288.893	0.104	0.190
-398.179	-68.882	0.169	-0.066
-397.165	-200.000	0.043	0.272
-396.150	120.040	0.293	0.368
-395.136	-169.425	0.102	0.004
-394.121	-68.131	-0.278	-0.110
-393.106	151.983	0.133	0.184
-392.092	-80.831	-0.164	0.055
-391.077	127.665	-0.056	-0.072
-390.063	55.659	-0.085	0.084
-389.048	-8.789	0.294	0.200
-388.033	458.867	-0.030	-0.068
-387.019	-54.214	-0.381	0.175
-386.004	-35.633	-0.252	-0.138
-384.990	-94.936	0.305	0.083
-383.975	800.000	0.056	-0.198
-382.960	-124.544	-0.366	-0.057
-381.946	498.002	0.140	0.325
-380.931	-200.000	0.017	-0.155
-379.917	24.058	0.193	0.161
-378.902	586.947	-0.056	-0.139
-377.888	-200.000	-0.003	-0.075
-376.873	54.598	-0.038	0.037
-375.858	800.000	0.042	0.183
-374.844	75.005	0.092	0.098
-373.829	-76.006	-0.193	0.069
-372.815	-48.094	-0.081	-0.039
-371.800	81.088	-0.070	-0.076
-370.785	49.896	0.005	0.005
-369.771	-200.000	-0.022	-0.169
-368.756	-70.702	0.130	-0.049
-367.742	-149.226	-0.472	-0.038
-366.727	-200.000	-0.019	-0.179
-365.712	-200.000	0.005	-0.164
-364.698	44.735	0.185	-0.172
-363.683	-125.346	0.232	-0.036
-362.669	-200.000	-0.008	0.262
-361.654	-98.691	0.210	-0.054
-360.639	-140.244	-0.305	0.032
-359.625	108.105	-0.084	-0.101
-358.610	-143.380	0.280	0.027
-357.596	29.062	0.086	0.073
-356.581	-200.000	0.007	-0.139
-355.566	86.274	0.145	0.161
-354.552	-200.000	0.021	0.115
-353.537	463.061	0.104	-0.233
-352.523	-106.485	-0.344	0.078
-351.508	-42.665	0.193	0.099
-350.493	-64.934	0.108	-0.044
-349.479	-200.000	-0.033	-0.243
-348.464	-112.062	-0.174	-0.035
-347.450	-83.352	-0.442	-0.143
-346.435	-79.718	-0.246	-0.084
-345.420	-200.000	-0.007	0.132
-344.406	-22.923	-0.048	0.029
-343.391	247.794	0.070	-0.119
-342.377	-179.456	0.371	0.008
-341.362	-128.334	0.171	0.025
-340.348	-9.505	0.071	-0.048
-339.333	-200.000	-0.016	-0.346
-338.318	113.848	-0.356	-0.437
-337.304	-131.909	-0.094	-0.012
-336.289	-33.041	0.338	-0.189
-335.275	800.000	-0.063	0.251
-334.260	-200.000	0.001	-0.085
-333.245	203.218	0.258	-0.402
-332.231	-200.000	0.076	0.756
-331.216	-200.000	0.039	0.175
-330.202	61.275	0.089	-0.089
-329.187	-200.000	0.016	-0.087
-328.172	-78.367	0.297	0.103
-327.158	-59.179	0.286	-0.125
-326.143	58.669	-0.199	0.198
-325.129	8.560	0.126	0.096
-324.114	-87.867	-0.114	0.035
-323.099	-125.373	0.328	-0.050
-322.085	-44.380	0.129	0.065
-321.070	-200.000	0.022	-0.171
-320.056	-200.000	-0.024	0.259
-319.041	-200.000	-0.003	0.363
-318.026	231.023	-0.017	0.028
-317.012	140.147	-0.092	-0.122
-315.997	117.039	0.166	-0.206
-314.983	-118.847	-0.325	0.058
-313.968	247.928	0.035	0.060
-312.953	-84.721	0.041	0.013
-311.939	121.312	0.208	0.261
-310.924	-200.000	0.003	0.148
-309.910	52.715	-0.221	0.213
-308.895	109.500	0.182	0.220
-307.880	-78.193	0.381	-0.132
-306.866	88.726	0.114	0.128
-305.851	72.789	-0.070	-0.074
-304.837	-123.427	0.318	-0.051
-303.822	800.000	0.058	0.192
-302.807	-200.000	-0.080	0.418
-301.793	319.625	0.257	0.491
-300.778	90.931	-0.116	0.131
-299.764	630.917	-0.151	-0.385
-298.749	172.849	0.219	-0.318
-297.735	-131.489	0.220	0.029
-296.720	229.708	0.104	0.172
-295.705	-200.000	0.003	0.306
-294.691	27.301	0.132	0.112
-293.676	800.000	-0.115	-0.335
-292.662	-59.097	-0.230	0.100
-291.647	800.000	0.064	0.182
-290.632	800.000	-0.035	0.134
-289.618	-45.978	-0.338	-0.168
-288.603	553.655	0.135	-0.326
-287.589	10.947	-0.106	0.082
-286.574	-61.534	0.138	-0.058
-285.559	-200.000	-0.031	0.185
-284.545	-84.350	-0.285	-0.091
-283.530	121.029	-0.134	0.168
-282.516	400.676	-0.117	-0.248
-281.501	76.434	-0.260	0.277
-280.486	-60.546	-0.167	-0.071
-279.472	174.733	-0.203	0.296
-278.457	800.000	-0.038	0.138
-277.443	-25.267	0.110	0.066
-276.428	319.449	-0.119	-0.227
-275.413	-48.017	0.253	0.123
-274.399	-78.308	-0.125	0.043
-273.384	-200.000	0.025	-0.288
-272.370	-153.946	-0.321	0.022
-271.355	317.371	0.201	0.382
-270.340	-108.737	0.327	0.071
-269.326	-19.184	0.033	0.021
-268.311	-55.462	0.236	0.106
-267.297	-75.188	0.085	0.031
-266.282	-200.000	-0.025	-0.191
-265.267	800.000	0.113	-0.432
-264.253	-39.098	0.046	0.024
-263.238	185.290	-0.316	0.472
-262.224	121.701	-0.161	-0.202
-261.209	-170.710	-0.101	-0.003
-260.195	800.000	0.102	0.349
-259.180	22.324	-0.062	-0.051
-258.165	-122.755	0.113	-0.018
-257.151	-66.029	-0.076	-0.030
-256.136	773.764	0.169	0.463
-255.122	800.000	0.061	0.247
-254.107	110.909	0.247	0.299
-253.092	286.237	-0.122	-0.222
-252.078	777.365	-0.130	0.358
-251.063	448.914	0.100	-0.222
-250.049	471.058	-0.059	-0.133
-249.034	-182.640	0.359	0.007
-248.019	728.456	-0.051	-0.137
-247.005	-150.164	-0.374	-0.029
-245.990	76.238	0.284	0.303
-244.976	800.000	-0.101	0.353
-243.961	329.861	0.229	-0.443
-242.946	-146.013	0.248	-0.022
-241.932	5.953	-0.069	0.051
-240.917	-5.928	0.034	-0.023
-239.903	407.281	0.103	0.220
-238.888	265.522	0.124	0.218
-237.873	265.553	0.050	0.088
-236.859	180.122	-0.059	0.087
-235.844	-122.882	-0.079	0.013
-234.830	-200.000	-0.033	-0.166
-233.815	405.218	-0.082	0.173
-232.800	428.435	0.077	-0.166
-231.786	-144.407	0.074	0.007
-230.771	-200.000	0.009	0.086
-229.757	-200.000	-0.034	0.245
-228.742	800.000	-0.121	0.352
-227.727	800.000	0.107	-0.364
-226.713	-161.122	0.064	-0.003
-225.698	-9.716	-0.345	-0.231
-224.684	-120.751	0.201	0.034
-223.669	219.152	-0.156	0.251
-222.655	184.981	0.208	0.310
-221.640	800.000	-0.043	-0.129
-220.625	8.664	0.217	-0.164
-219.611	157.674	-0.180	0.250
-218.596	800.000	-0.082	0.361
-217.582	-134.790	0.142	-0.017
-216.567	214.851	0.073	-0.117
-215.552	-123.892	0.233	-0.037
-214.538	-179.483	0.238	0.005
-213.523	134.993	0.027	-0.035
-212.509	-24.553	0.074	-0.044
-211.494	88.112	-0.137	-0.153
-210.479	-144.857	0.312	0.029
-209.465	-200.000	-0.085	0.416
-208.450	-113.633	0.362	0.071
-207.436	498.105	-0.083	0.192
-206.421	300.319	0.095	-0.175
-205.406	-200.000	0.003	-0.158
-204.392	-200.000	-0.007	-0.229
-203.377	107.295	-0.097	0.116
-202.363	-200.000	0.005	-0.135
-201.348	167.229	0.065	-0.092
-200.333	-121.272	-0.168	-0.028
-199.319	-200.000	0.023	0.296
-198.304	800.000	-0.057	0.200
-197.290	-165.675	0.088	0.004
-196.275	-15.616	-0.064	-0.041
-195.260	-60.096	0.262	-0.112
-194.246	-33.568	-0.107	0.059
-193.231	-4.799	0.112	0.077
-192.217	-2.288	0.029	0.021
-191.202	-25.151	-0.164	0.097
-190.187	67.307	0.166	0.170
-189.173	-60.840	0.281	0.119
-188.158	-191.414	-0.284	0.003
-187.144	-108.567	-0.197	-0.042
-186.129	-137.905	0.335	-0.038
-185.114	-56.308	-0.215	0.096
-184.100	-86.914	-0.213	0.065
-183.085	-200.000	0.002	0.073
-182.071	-144.438	0.096	-0.009
-181.056	-19.521	0.144	0.090
-180.042	724.878	0.106	0.284
-179.027	111.421	0.057	0.069
-178.012	-69.231	-0.426	0.164
-176.998	499.299	0.136	-0.314
-175.983	-200.000	0.022	-0.315
-174.969	151.801	0.160	0.218
-173.954	210.526	0.097	-0.152
-172.939	25.507	-0.043	0.036
-171.925	139.481	-0.067	0.089
-170.910	-18.974	0.406	0.253
-169.896	94.343	0.042	0.048
-168.881	136.444	0.101	0.132
-167.866	101.318	-0.101	0.118
-166.852	-42.070	-0.166	0.085
-165.837	59.771	-0.091	0.090
-164.823	-108.487	0.180	0.039
-163.808	82.116	-0.095	-0.104
-162.793	-80.534	-0.132	0.044
-161.779	800.000	-0.133	0.428
-160.764	99.861	0.117	-0.135
-159.750	-200.000	0.032	-0.237
-158.735	94.501	-0.083	-0.095
-157.720	-40.107	0.321	-0.168
-156.706	-54.821	-0.163	0.074
-155.691	110.060	-0.125	-0.151
-154.677	193.104	0.121	-0.183
-153.662	-200.000	-0.011	0.105
-152.647	-200.000	0.021	-0.135
-151.633	-200.000	0.025	0.223
-150.618	-200.000	0.025	0.271
-149.604	-133.821	-0.122	-0.015
-148.589	800.000	-0.046	0.141
-147.574	-90.953	-0.451	0.130
-146.560	-51.051	-0.209	0.098
-145.545	128.239	0.298	-0.380
-144.531	-20.371	-0.087	-0.053
-143.516	156.791	0.094	-0.131
-142.502	800.000	0.070	0.248
-141.487	800.000	-0.103	0.289
-140.472	134.701	-0.140	-0.182
-139.458	-111.676	-0.476	0.097
-138.443	444.560	0.222	-0.488
-137.429	738.757	-0.074	-0.200
-136.414	-52.067	-0.125	0.058
-135.399	54.095	0.071	0.068
-134.385	-200.000	0.014	0.194
-133.370	-105.665	0.183	0.042
-132.356	444.667	-0.103	-0.226
-131.341	2.901	0.040	-0.029
-130.326	-200.000	0.076	-0.438
-129.312	327.924	0.097	0.186
-128.297	-33.642	-0.208	-0.115
-127.283	-19.208	-0.255	-0.158
-126.268	-129.204	-0.221	0.031
-125.253	-134.812	-0.110	0.013
-124.239	271.464	0.170	-0.300
-123.224	266.185	-0.173	-0.302
-122.210	-122.280	0.428	0.070
