DTS Sentinel unit serial number:	SN413079Multiplexer serial number:	ORYXHardware model number:	OX4-SRSoftware version number:	ORYX F/W v4.00 Oryx Data Collector v3.7.2.0data status	okinstallation	princeton_trtdifferential loss correction	single-endedforward channel	channel 4reverse channel	N/Adate	2019/09/17time	23:53:35forward acquisition time	60.00reverse acquisition time	0.00gamma	496.2192k internal	0.2332k external	0.2332temperature offset calibration	0.9996default loss term (dB/km)	0.3790temperature slope calibration	1.0000multiplexer offset coefficient	1.0000multiplexer slope coefficient	1.0000fibre end	0.00T internal ref (°C)	23.94T ext. ref 1 (°C)	0.17T ext. ref 2 (°C)	17.25length (m)	temperature (°C)	Stokes	anti-Stokes-747.200	557.104	-0.132	0.320
-746.185	-200.000	0.030	-0.217
-745.171	83.449	0.058	-0.063
-744.156	-200.000	0.008	0.171
-743.142	567.647	0.042	0.102
-742.127	-132.688	-0.300	-0.039
-741.112	-170.129	-0.080	0.003
-740.098	-39.882	-0.353	0.185
-739.083	-134.753	0.457	-0.056
-738.069	-92.165	0.286	0.081
-737.054	-126.758	-0.416	0.062
-736.039	-161.779	-0.367	0.019
-735.025	225.069	0.204	0.332
-734.010	225.566	0.270	-0.441
-732.996	-200.000	0.009	-0.051
-731.981	-47.728	0.243	0.119
-730.966	68.679	0.288	-0.297
-729.952	-188.635	-0.507	0.006
-728.937	365.518	-0.012	0.024
-727.923	15.035	-0.201	-0.158
-726.908	-55.421	0.066	0.030
-725.894	506.899	-0.128	-0.299
-724.879	-22.212	-0.159	-0.097
-723.864	569.361	0.146	-0.357
-722.850	225.739	-0.126	0.205
-721.835	-36.079	0.406	0.220
-720.821	93.629	-0.075	0.085
-719.806	800.000	-0.074	0.313
-718.791	-70.296	-0.299	0.114
-717.777	800.000	0.101	0.360
-716.762	-200.000	-0.038	-0.179
-715.748	254.430	0.153	-0.262
-714.733	-169.056	-0.108	0.004
-713.718	-95.036	-0.090	-0.024
-712.704	-36.579	-0.246	-0.133
-711.689	163.517	-0.097	-0.137
-710.675	-1.358	-0.194	-0.138
-709.660	10.746	0.189	-0.145
-708.645	800.000	-0.141	-0.444
-707.631	800.000	0.024	-0.081
-706.616	-50.531	0.279	-0.132
-705.602	-156.024	0.213	0.014
-704.587	521.186	-0.154	0.362
-703.572	493.648	-0.081	-0.186
-702.558	-129.858	-0.319	0.044
-701.543	-8.678	0.175	0.118
-700.529	-85.645	-0.354	0.110
-699.514	-132.556	-0.051	0.007
-698.499	-154.234	-0.177	-0.012
-697.485	-159.925	0.323	-0.018
-696.470	800.000	-0.065	0.230
-695.456	21.964	0.346	0.283
-694.441	14.591	-0.233	0.182
-693.426	-54.596	0.105	-0.048
-692.412	41.943	-0.080	0.073
-691.397	342.733	-0.149	-0.292
-690.383	37.158	-0.107	0.095
-689.368	20.831	-0.258	0.210
-688.354	-145.421	-0.114	0.010
-687.339	-101.266	-0.150	0.037
-686.324	-132.897	-0.043	0.006
-685.310	89.276	0.102	0.115
-684.295	-116.458	-0.279	-0.052
-683.281	380.557	-0.023	0.047
-682.266	-75.119	-0.148	0.053
-681.251	-132.721	0.239	0.031
-680.237	125.727	-0.241	-0.306
-679.222	-200.000	-0.002	0.277
-678.208	-40.845	-0.027	0.014
-677.193	463.550	-0.177	0.397
-676.178	-176.891	-0.201	0.005
-675.164	-200.000	0.052	-0.294
-674.149	-80.680	-0.030	0.010
-673.135	-56.470	0.017	0.008
-672.120	-200.000	0.008	-0.203
-671.105	-79.411	0.111	0.038
-670.091	-200.000	-0.021	0.499
-669.076	-82.974	-0.189	0.061
-668.062	800.000	0.065	-0.221
-667.047	264.230	0.133	-0.233
-666.032	135.923	-0.010	0.014
-665.018	-111.278	0.147	0.030
-664.003	-130.388	0.206	-0.028
-662.989	17.120	0.115	-0.091
-661.974	29.885	0.155	-0.132
-660.959	16.098	-0.264	-0.208
-659.945	-200.000	-0.087	0.436
-658.930	-2.418	-0.209	0.147
-657.916	-0.390	0.177	-0.126
-656.901	-200.000	0.032	0.181
-655.886	-200.000	-0.027	0.124
-654.872	129.721	-0.037	-0.047
-653.857	800.000	0.051	0.168
-652.843	-114.345	-0.299	0.058
-651.828	124.653	-0.047	-0.059
-650.814	800.000	-0.063	-0.192
-649.799	-174.904	0.070	0.002
-648.784	59.481	-0.290	-0.286
-647.770	800.000	0.015	-0.052
-646.755	493.587	0.098	-0.225
-645.741	-79.441	-0.154	0.052
-644.726	43.435	-0.093	-0.085
-643.711	-77.814	-0.430	0.149
-642.697	71.473	0.021	-0.022
-641.682	-121.744	-0.149	-0.025
-640.668	-200.000	-0.017	-0.467
-639.653	137.281	-0.137	0.179
-638.638	-124.674	-0.192	-0.030
-637.624	-200.000	0.002	0.382
-636.609	-200.000	0.045	-0.323
-635.595	-5.355	-0.075	0.052
-634.580	49.785	0.213	-0.201
-633.565	691.564	0.045	-0.117
-632.551	20.598	-0.166	-0.135
-631.536	800.000	-0.076	-0.311
-630.522	48.483	-0.061	-0.058
-629.507	158.216	-0.169	0.234
-628.492	800.000	-0.099	-0.375
-627.478	3.922	0.213	0.156
-626.463	120.026	0.207	0.257
-625.449	92.159	-0.154	-0.174
-624.434	340.740	0.066	0.129
-623.419	-200.000	0.052	0.283
-622.405	-94.281	-0.065	0.018
-621.390	800.000	0.071	0.223
-620.376	190.770	-0.036	-0.054
-619.361	800.000	-0.040	-0.116
-618.346	74.127	-0.276	-0.290
-617.332	41.934	0.170	-0.155
-616.317	-200.000	0.037	0.247
-615.303	-200.000	-0.015	0.377
-614.288	-5.682	0.328	0.225
-613.273	247.263	0.113	0.190
-612.259	-200.000	0.009	0.159
-611.244	-54.101	-0.022	0.010
-610.230	216.694	-0.260	0.414
-609.215	800.000	-0.062	-0.259
-608.201	40.007	0.152	-0.136
-607.186	19.534	-0.266	-0.214
-606.171	-200.000	-0.005	-0.328
-605.157	-200.000	0.014	0.235
-604.142	268.051	-0.073	-0.128
-603.128	599.897	-0.116	0.288
-602.113	-73.539	-0.145	-0.053
-601.098	-200.000	-0.006	0.194
-600.084	51.267	-0.193	0.184
-599.069	124.275	0.047	0.059
-598.055	198.047	-0.081	-0.124
-597.040	-200.000	0.064	-0.297
-596.025	-51.236	0.168	-0.079
-595.011	-155.347	-0.239	0.015
-593.996	759.345	0.086	-0.232
-592.982	-51.142	0.130	-0.061
-591.967	-200.000	0.025	-0.179
-590.952	-177.766	-0.318	-0.008
-589.938	163.306	-0.143	-0.200
-588.923	-200.000	-0.036	-0.321
-587.909	554.735	-0.157	-0.377
-586.894	-200.000	-0.026	0.158
-585.879	558.069	-0.166	0.400
-584.865	800.000	0.126	-0.447
-583.850	-109.917	0.300	0.063
-582.836	-200.000	0.025	0.310
-581.821	-1.004	0.255	-0.180
-580.806	99.416	0.188	-0.217
-579.792	800.000	0.135	0.393
-578.777	800.000	0.059	0.229
-577.763	-133.481	-0.131	0.016
-576.748	58.886	-0.177	-0.174
-575.733	-200.000	-0.010	0.141
-574.719	-78.372	-0.524	0.180
-573.704	185.434	0.071	0.105
-572.690	-88.598	0.056	0.017
-571.675	800.000	-0.058	0.228
-570.661	550.366	0.099	0.237
-569.646	123.620	-0.212	0.266
-568.631	800.000	-0.021	0.087
-567.617	22.412	-0.162	0.132
-566.602	-116.152	-0.161	0.030
-565.588	556.600	-0.092	0.221
-564.573	27.931	0.197	0.166
-563.558	-19.162	0.153	-0.095
-562.544	-132.174	-0.180	-0.023
-561.529	-200.000	-0.032	0.180
-560.515	-99.831	-0.194	-0.048
-559.500	-200.000	0.048	-0.263
-558.485	146.869	0.039	0.053
-557.471	-99.592	0.165	-0.042
-556.456	-200.000	0.004	0.104
-555.442	-200.000	-0.022	0.137
-554.427	-67.716	0.356	0.139
-553.412	-190.540	-0.350	0.004
-552.398	-73.542	0.288	-0.105
-551.383	129.070	-0.275	0.351
-550.369	-200.000	0.017	0.157
-549.354	-53.330	-0.075	-0.035
-548.339	30.548	-0.187	-0.159
-547.325	322.338	0.105	-0.199
-546.310	664.104	0.032	-0.082
-545.296	24.869	0.146	-0.121
-544.281	800.000	0.067	-0.197
-543.266	681.679	-0.120	-0.312
-542.252	-69.753	0.261	0.099
-541.237	-3.691	-0.339	-0.235
-540.223	4.695	-0.101	-0.074
-539.208	-12.686	0.205	0.133
-538.193	-200.000	0.033	-0.272
-537.179	153.129	0.128	0.175
-536.164	-82.750	-0.162	0.052
-535.150	261.420	-0.042	-0.073
-534.135	445.475	0.149	0.327
-533.121	267.500	0.042	0.074
-532.106	208.784	-0.097	0.151
-531.091	34.453	0.128	0.112
-530.077	-67.565	-0.187	0.073
-529.062	618.578	0.124	0.310
-528.048	-44.803	-0.329	-0.164
-527.033	125.132	0.101	0.127
-526.018	-200.000	0.010	-0.409
-525.004	235.159	-0.175	0.288
-523.989	-158.558	0.048	-0.003
-522.975	44.348	0.094	0.086
-521.960	37.410	-0.102	-0.091
-520.945	-187.088	0.137	-0.002
-519.931	-75.070	-0.100	0.036
-518.916	-72.679	-0.216	-0.079
-517.902	25.831	-0.087	0.072
-516.887	-200.000	0.007	0.230
-515.872	-200.000	-0.008	0.090
-514.858	-80.223	0.076	0.025
-513.843	245.544	-0.056	-0.094
-512.829	-200.000	0.005	0.025
-511.814	-145.395	-0.255	0.023
-510.799	-105.870	-0.049	-0.011
-509.785	-21.801	-0.483	-0.293
-508.770	-58.975	0.227	-0.098
-507.756	128.864	0.016	-0.020
-506.741	-12.268	-0.202	-0.132
-505.726	511.319	0.063	-0.146
-504.712	-134.408	-0.347	-0.042
-503.697	-101.129	0.401	0.098
-502.683	191.225	0.033	-0.049
-501.668	-60.284	-0.298	-0.127
-500.653	-200.000	-0.059	-0.564
-499.639	-200.000	0.024	-0.201
-498.624	-83.384	-0.167	0.054
-497.610	-200.000	-0.004	-0.061
-496.595	-131.701	-0.239	0.031
-495.581	-153.347	0.166	-0.012
-494.566	32.387	-0.093	-0.080
-493.551	-200.000	-0.047	-0.349
-492.537	1.628	-0.085	0.061
-491.522	85.891	0.296	0.325
-490.508	-149.222	-0.147	-0.012
-489.493	800.000	-0.100	-0.429
-488.478	800.000	0.073	0.227
-487.464	125.989	0.056	-0.070
-486.449	800.000	0.060	-0.256
-485.435	-64.201	-0.357	0.145
-484.420	30.450	-0.106	0.091
-483.405	800.000	0.068	-0.199
-482.391	35.372	0.037	0.032
-481.376	-80.372	0.156	0.052
-480.362	-59.345	0.265	-0.113
-479.347	800.000	-0.058	-0.224
-478.332	-141.111	-0.033	0.003
-477.318	800.000	0.123	-0.393
-476.303	762.927	-0.038	0.104
-475.289	389.828	0.114	0.235
-474.274	800.000	-0.003	-0.010
-473.259	-122.093	-0.120	-0.020
-472.245	-32.200	0.155	-0.086
-471.230	-27.882	-0.172	0.099
-470.216	800.000	0.082	-0.228
-469.201	-93.680	0.112	-0.031
-468.186	-110.013	-0.158	-0.033
-467.172	39.728	-0.041	0.036
-466.157	181.134	0.106	0.155
-465.143	-100.495	-0.125	-0.031
-464.128	800.000	-0.079	0.299
-463.113	-200.000	-0.001	0.090
-462.099	317.303	0.142	-0.268
-461.084	635.772	-0.133	-0.336
-460.070	-134.359	0.261	-0.032
-459.055	516.941	-0.063	-0.146
-458.040	91.298	0.053	-0.059
-457.026	-200.000	-0.037	-0.198
-456.011	-200.000	0.023	0.205
-454.997	12.799	-0.213	0.164
-453.982	-21.109	0.392	0.239
-452.968	-24.603	0.104	-0.061
-451.953	396.292	-0.099	0.205
-450.938	344.510	0.004	0.009
-449.924	-200.000	0.007	0.075
-448.909	-200.000	0.026	-0.197
-447.895	-15.425	0.203	-0.129
-446.880	-141.401	-0.173	0.017
-445.865	588.329	0.094	-0.230
-444.851	-200.000	0.006	-0.097
-443.836	372.797	0.035	0.071
-442.822	-113.456	0.411	0.080
-441.807	-48.735	-0.438	-0.209
-440.792	-9.089	0.127	0.085
-439.778	101.046	-0.310	0.358
-438.763	31.013	0.173	-0.148
-437.749	-107.288	-0.065	-0.014
-436.734	15.175	-0.040	-0.031
-435.719	249.226	0.098	-0.165
-434.705	-0.807	-0.294	-0.207
-433.690	-123.253	-0.150	0.024
-432.676	184.944	0.149	0.220
-431.661	-114.406	-0.148	0.028
-430.646	62.244	0.213	0.211
-429.632	-139.696	-0.245	0.026
-428.617	-70.030	-0.259	0.098
-427.603	-174.983	0.387	0.011
-426.588	-200.000	-0.021	0.106
-425.573	682.024	-0.039	0.100
-424.559	90.624	-0.238	0.265
-423.544	-55.400	0.202	0.090
-422.530	-167.251	-0.326	0.013
-421.515	-41.089	-0.040	-0.020
-420.500	-100.187	-0.168	0.042
-419.486	329.025	-0.088	0.168
-418.471	-122.601	0.242	-0.039
-417.457	-155.614	-0.443	-0.028
-416.442	139.297	0.139	-0.182
-415.428	800.000	-0.033	0.140
-414.413	-31.908	0.131	-0.073
-413.398	356.828	-0.079	0.157
-412.384	-112.991	-0.285	0.056
-411.369	31.548	0.069	-0.059
-410.355	800.000	0.154	-0.423
-409.340	340.642	-0.298	-0.577
-408.325	-20.019	0.247	-0.152
-407.311	-188.496	-0.209	0.003
-406.296	-35.412	0.292	0.157
-405.282	-83.789	-0.212	0.067
-404.267	-68.412	0.104	-0.040
-403.252	-60.209	-0.369	-0.156
-402.238	112.396	0.098	0.117
-401.223	57.006	0.151	-0.146
-400.209	177.240	-0.295	0.426
-399.194	800.000	-0.030	-0.122
-398.179	-106.544	0.219	-0.048
-397.165	-200.000	0.035	0.160
-396.150	-122.932	0.381	-0.061
-395.136	-200.000	-0.006	-0.345
-394.121	4.950	0.299	-0.219
-393.106	732.278	-0.036	-0.095
-392.092	650.437	-0.065	0.165
-391.077	-11.796	0.152	-0.099
-390.063	-200.000	0.014	-0.083
-389.048	18.383	-0.027	0.021
-388.033	-200.000	0.003	0.093
-387.019	171.590	0.115	0.164
-386.004	-135.115	0.180	-0.021
-384.990	-105.320	-0.191	0.043
-383.975	763.218	-0.100	-0.269
-382.960	91.290	0.275	-0.307
-381.946	140.173	0.058	-0.075
-380.931	-200.000	-0.026	0.179
-379.917	129.453	0.093	-0.117
-378.902	-200.000	-0.014	0.102
-377.888	113.489	-0.111	-0.134
-376.873	-151.200	-0.097	-0.007
-375.858	212.224	-0.133	0.208
-374.844	800.000	-0.021	-0.078
-373.829	83.461	-0.174	-0.188
-372.815	35.345	-0.098	0.085
-371.800	86.297	0.227	0.248
-370.785	156.033	-0.200	0.273
-369.771	-21.042	0.274	-0.166
-368.756	800.000	0.055	-0.159
-367.742	-146.487	0.281	-0.024
-366.727	-200.000	0.015	0.166
-365.712	800.000	-0.078	0.298
-364.698	418.033	-0.039	-0.083
-363.683	209.165	0.108	0.167
-362.669	57.475	0.122	-0.118
-361.654	-37.239	0.122	-0.065
-360.639	-141.236	-0.091	-0.009
-359.625	800.000	0.041	-0.124
-358.610	-46.653	0.199	0.097
-357.596	-200.000	0.012	-0.055
-356.581	800.000	-0.056	-0.229
-355.566	142.694	-0.063	0.083
-354.552	-62.645	0.228	-0.094
-353.537	-200.000	-0.026	0.185
-352.523	-119.763	-0.185	0.032
-351.508	-200.000	-0.020	-0.256
-350.493	800.000	0.051	0.162
-349.479	-29.152	0.159	0.090
-348.464	-43.660	-0.124	-0.062
-347.450	-200.000	0.024	-0.244
-346.435	366.367	0.120	0.240
-345.420	-39.763	0.060	0.031
-344.406	800.000	0.047	-0.164
-343.391	-119.568	0.455	0.078
-342.377	-17.952	0.223	-0.138
-341.362	-63.064	-0.182	0.074
-340.348	-200.000	-0.012	0.062
-339.333	-200.000	0.013	0.267
-338.318	432.626	0.034	-0.074
-337.304	195.928	-0.141	0.212
-336.289	128.530	-0.184	-0.232
-335.275	-121.338	0.260	0.043
-334.260	800.000	0.022	-0.072
-333.245	66.929	-0.147	-0.148
-332.231	-34.126	0.038	-0.021
-331.216	-200.000	-0.032	-0.144
-330.202	800.000	-0.094	-0.271
-329.187	628.487	0.051	0.129
-328.172	-53.787	-0.257	0.116
-327.158	-46.603	-0.231	-0.112
-326.143	85.615	0.147	0.160
-325.129	800.000	-0.156	-0.535
-324.114	-200.000	0.037	-0.291
-323.099	-106.541	0.224	-0.049
-322.085	180.650	0.087	0.126
-321.070	562.802	-0.109	-0.261
-320.056	-133.984	-0.338	0.041
-319.041	-86.071	-0.127	-0.039
-318.026	-110.885	0.189	-0.039
-317.012	24.080	0.167	0.136
-315.997	13.202	-0.117	0.089
-314.983	122.925	-0.061	-0.076
-313.968	800.000	0.029	0.115
-312.953	-200.000	0.025	0.186
-311.939	32.426	0.290	0.248
-310.924	280.511	-0.023	-0.040
-309.910	-200.000	0.017	0.117
-308.895	-200.000	-0.023	-0.346
-307.880	-66.945	0.307	0.120
-306.866	-128.615	-0.318	0.044
-305.851	-110.746	0.199	0.041
-304.837	800.000	-0.028	-0.093
-303.822	800.000	0.122	-0.486
-302.807	23.118	-0.275	0.223
-301.793	-200.000	-0.030	-0.348
-300.778	-163.667	0.366	-0.017
-299.764	-34.340	0.052	-0.028
-298.749	-200.000	-0.026	0.288
-297.735	-82.580	-0.036	-0.012
-296.720	-6.852	-0.036	-0.024
-295.705	-144.539	0.351	0.032
-294.691	45.160	0.039	0.035
-293.676	-111.979	-0.173	-0.034
-292.662	-141.052	0.269	0.027
-291.647	316.885	0.167	0.312
-290.632	52.117	0.235	0.221
-289.618	-65.842	0.206	0.081
-288.603	-20.145	-0.139	-0.085
-287.589	256.889	0.186	0.315
-286.574	-23.521	0.076	0.045
-285.559	-171.146	0.277	0.009
-284.545	-40.035	-0.420	-0.217
-283.530	-71.885	-0.189	0.070
-282.516	553.304	-0.077	-0.184
-281.501	436.086	-0.061	0.132
-280.486	800.000	-0.124	0.358
-279.472	800.000	0.115	-0.386
-278.457	-11.726	0.188	0.122
-277.443	-200.000	0.061	-0.397
-276.428	-45.888	-0.101	0.049
-275.413	82.167	-0.051	0.054
-274.399	94.256	0.041	-0.046
-273.384	-118.536	0.122	-0.021
-272.370	-200.000	-0.027	-0.584
-271.355	-76.899	0.428	0.148
-270.340	103.985	0.121	-0.141
-269.326	-200.000	0.032	0.167
-268.311	800.000	-0.015	0.054
-267.297	-200.000	0.062	0.414
-266.282	58.259	-0.244	-0.237
-265.267	-200.000	0.070	-0.325
-264.253	-200.000	-0.007	0.069
-263.238	-164.296	0.378	0.017
-262.224	-75.544	0.177	0.062
-261.209	104.467	-0.314	-0.365
-260.195	-14.289	0.205	0.130
-259.180	-200.000	-0.047	0.229
-258.165	-62.808	0.263	-0.107
-257.151	309.925	0.067	-0.123
-256.136	-200.000	-0.005	0.299
-255.122	-67.266	0.082	0.032
-254.107	-99.086	0.099	0.025
-253.092	800.000	-0.016	0.069
-252.078	-200.000	0.044	-0.223
-251.063	60.532	0.028	0.028
-250.049	313.392	0.116	-0.215
-249.034	-181.291	-0.149	-0.003
-248.019	243.124	0.122	0.201
-247.005	-200.000	0.030	-0.157
-245.990	13.755	-0.101	0.077
-244.976	144.253	-0.120	0.158
-243.961	303.970	0.127	-0.232
-242.946	800.000	-0.083	0.345
-241.932	63.644	-0.199	-0.197
-240.917	752.685	0.108	-0.288
-239.903	-190.238	-0.168	0.002
-238.888	-123.811	0.099	0.015
-237.873	-74.434	-0.091	0.032
-236.859	-28.131	-0.228	0.130
-235.844	-200.000	-0.012	-0.136
-234.830	19.114	0.294	-0.233
-233.815	80.076	0.157	0.167
-232.800	244.019	-0.025	0.042
-231.786	170.558	0.212	0.299
-230.771	129.209	0.069	0.086
-229.757	681.093	0.133	0.341
-228.742	-118.999	-0.237	0.041
-227.727	67.362	0.085	-0.085
-226.713	172.281	0.048	-0.068
-225.698	-30.868	-0.004	0.002
-224.684	-28.896	0.084	0.048
-223.669	-115.646	-0.178	-0.033
-222.655	29.590	0.104	0.087
-221.640	47.764	0.202	0.186
-220.625	-19.362	-0.145	0.088
-219.611	432.026	0.152	-0.326
-218.596	129.789	0.101	0.128
-217.582	-105.233	-0.090	-0.020
-216.567	-108.635	-0.237	-0.050
-215.552	206.488	0.219	-0.336
-214.538	-178.661	0.365	-0.008
-213.523	-200.000	-0.055	-0.378
-212.509	83.186	0.080	-0.085
-211.494	-200.000	0.048	0.233
-210.479	106.921	-0.210	0.246
-209.465	13.829	-0.267	0.204
-208.450	-9.054	0.157	0.103
-207.436	193.203	0.093	0.139
-206.421	179.194	-0.105	0.152
-205.406	800.000	-0.057	0.204
-204.392	-110.307	-0.227	0.047
-203.377	447.261	0.130	0.282
-202.363	230.532	0.077	0.124
-201.348	-159.728	-0.170	0.009
-200.333	557.539	-0.109	0.260
-199.319	8.520	0.045	0.034
-198.304	-88.829	0.372	0.109
-197.290	800.000	0.024	0.076
-196.275	-108.110	-0.235	-0.050
-195.260	-44.571	0.207	-0.102
-194.246	400.890	0.099	0.204
-193.231	-120.339	0.292	0.049
-192.217	-76.971	-0.132	0.045
-191.202	-26.882	0.329	0.189
-190.187	-200.000	0.008	0.043
-189.173	-200.000	0.006	-0.235
-188.158	-126.236	0.545	-0.080
-187.144	800.000	0.095	0.291
-186.129	-93.918	-0.351	-0.095
-185.114	-18.405	-0.226	0.139
-184.100	-125.861	0.055	-0.008
-183.085	38.913	0.302	-0.265
-182.071	800.000	-0.058	-0.212
-181.056	-100.466	-0.043	0.011
-180.042	800.000	0.068	0.276
-179.027	-124.552	0.217	-0.033
-178.012	-125.786	-0.325	-0.048
-176.998	104.724	-0.267	0.309
-175.983	800.000	-0.046	0.134
-174.969	18.077	-0.316	0.248
-173.954	222.140	0.070	0.112
-172.939	-15.233	-0.040	-0.025
-171.925	271.744	-0.075	0.131
-170.910	-128.361	-0.218	-0.031
-169.896	-200.000	0.010	-0.204
-168.881	1.695	0.237	0.168
-167.866	-36.425	0.401	-0.212
-166.852	-200.000	-0.016	-0.083
-165.837	-100.896	-0.146	0.035
-164.823	407.854	-0.081	0.167
-163.808	-39.968	0.086	0.044
-162.793	-39.758	-0.052	-0.027
-161.779	445.389	0.125	-0.269
-160.764	-50.379	-0.234	0.109
-159.750	800.000	-0.068	0.233
-158.735	800.000	-0.037	-0.112
-157.720	-10.149	0.148	0.097
-156.706	-200.000	0.022	0.260
-155.691	-200.000	0.010	-0.090
-154.677	-200.000	0.012	-0.222
-153.662	-75.784	-0.347	-0.121
-152.647	318.365	-0.196	0.365
-151.633	68.274	0.233	0.235
-150.618	-37.286	-0.190	0.100
-149.604	587.793	-0.063	-0.152
-148.589	-200.000	-0.018	-0.101
-147.574	-200.000	0.025	-0.312
-146.560	-168.735	0.145	0.005
-145.545	-2.830	-0.028	-0.019
-144.531	-35.227	0.051	-0.027
-143.516	108.430	-0.278	-0.326
-142.502	-198.286	-0.097	-0.001
-141.487	-125.746	-0.269	0.040
-140.472	800.000	0.010	0.041
-139.458	-200.000	0.068	-0.366
-138.443	800.000	0.099	-0.280
-137.429	-65.242	-0.450	0.178
-136.414	228.952	0.096	0.154
-135.399	800.000	-0.089	-0.304
-134.385	14.639	-0.228	-0.175
-133.370	295.173	0.099	-0.178
-132.356	-106.895	0.107	0.023
-131.341	201.046	-0.113	0.171
-130.326	-23.597	-0.152	0.089
-129.312	-58.397	-0.253	0.108
-128.297	-95.869	-0.332	0.087
-127.283	-200.000	0.018	-0.202
-126.268	-164.445	-0.249	0.011
-125.253	-46.209	0.057	0.028
-124.239	255.318	-0.155	0.261
-123.224	-90.739	0.267	0.076
-122.210	-89.535	0.130	-0.038
