DTS Sentinel unit serial number:	SN413079Multiplexer serial number:	ORYXHardware model number:	OX4-SRSoftware version number:	ORYX F/W v4.00 Oryx Data Collector v3.7.2.0data status	okinstallation	princeton_trtdifferential loss correction	single-endedforward channel	channel 4reverse channel	N/Adate	2019/09/15time	10:37:35forward acquisition time	60.00reverse acquisition time	0.00gamma	496.2192k internal	0.2299k external	0.2299temperature offset calibration	1.0020default loss term (dB/km)	0.3790temperature slope calibration	1.0000multiplexer offset coefficient	1.0000multiplexer slope coefficient	1.0000fibre end	0.00T internal ref (°C)	34.25T ext. ref 1 (°C)	5.03T ext. ref 2 (°C)	29.62length (m)	temperature (°C)	Stokes	anti-Stokes-747.200	143.161	-0.047	-0.064
-746.185	800.000	-0.080	0.302
-745.171	20.614	-0.152	-0.126
-744.156	-120.345	0.214	0.037
-743.142	66.513	0.134	0.139
-742.127	17.526	-0.340	0.276
-741.112	-186.138	-0.253	0.004
-740.098	-74.773	-0.096	-0.035
-739.083	99.754	-0.078	-0.092
-738.069	-129.961	0.182	0.025
-737.054	-136.438	0.238	0.028
-736.039	21.267	-0.049	-0.040
-735.025	-133.579	0.513	-0.066
-734.010	-65.080	-0.370	-0.152
-732.996	-167.432	-0.031	-0.001
-731.981	-200.000	-0.037	0.200
-730.966	-60.483	-0.141	-0.061
-729.952	2.743	0.089	0.066
-728.937	800.000	0.056	0.196
-727.923	-78.991	-0.281	-0.097
-726.908	3.969	-0.208	0.155
-725.894	-64.507	0.279	-0.115
-724.879	-71.641	-0.278	-0.106
-723.864	-200.000	0.028	0.202
-722.850	232.026	-0.030	-0.051
-721.835	28.186	0.222	-0.191
-720.821	203.732	0.112	0.176
-719.806	-11.506	0.054	-0.036
-718.791	303.372	0.108	0.204
-717.777	163.599	0.098	-0.141
-716.762	-38.166	-0.098	0.053
-715.748	-27.524	0.210	-0.125
-714.733	185.356	-0.095	-0.143
-713.718	800.000	0.132	-0.425
-712.704	-200.000	0.001	-0.089
-711.689	215.559	0.099	0.161
-710.675	104.311	0.140	0.168
-709.660	338.572	0.116	0.229
-708.645	122.561	-0.082	-0.104
-707.631	-116.937	-0.200	-0.037
-706.616	-94.438	0.299	0.083
-705.602	-145.720	-0.439	0.040
-704.587	-200.000	-0.056	-0.367
-703.572	-200.000	0.003	-0.077
-702.558	-73.571	0.036	0.013
-701.543	286.406	0.151	-0.277
-700.529	141.270	0.069	0.094
-699.514	8.717	-0.119	-0.091
-698.499	514.783	0.045	-0.107
-697.485	-12.342	0.173	-0.116
-696.470	228.566	0.062	-0.103
-695.456	-200.000	0.065	-0.342
-694.441	795.277	0.073	0.206
-693.426	-145.382	0.102	0.009
-692.412	-77.128	-0.109	0.039
-691.397	18.271	0.127	-0.103
-690.383	63.076	0.163	-0.166
-689.368	-16.062	-0.125	0.081
-688.354	800.000	-0.071	-0.254
-687.339	-19.540	-0.158	0.100
-686.324	-28.144	-0.271	-0.159
-685.310	800.000	0.068	0.292
-684.295	-115.301	-0.025	0.005
-683.281	459.883	0.097	0.219
-682.266	36.642	-0.173	-0.156
-681.251	293.211	0.078	-0.144
-680.237	-127.628	-0.333	0.049
-679.222	-90.330	0.131	-0.039
-678.208	-200.000	0.012	-0.141
-677.193	6.242	-0.121	-0.091
-676.178	-1.307	0.149	-0.107
-675.164	368.165	0.074	-0.152
-674.149	-124.590	-0.103	0.016
-673.135	80.163	0.144	-0.158
-672.120	38.047	-0.133	0.120
-671.105	800.000	0.081	0.253
-670.091	52.278	-0.216	0.210
-669.076	-191.254	-0.140	-0.001
-668.062	178.987	0.071	-0.105
-667.047	-142.478	0.164	-0.016
-666.032	-113.788	-0.130	0.026
-665.018	11.140	0.195	-0.152
-664.003	579.957	0.080	-0.199
-662.989	621.167	0.068	-0.173
-661.974	29.264	0.118	-0.102
-660.959	-69.706	0.071	0.028
-659.945	800.000	0.075	-0.240
-658.930	-107.057	-0.086	0.019
-657.916	40.014	-0.189	-0.173
-656.901	-8.893	-0.276	-0.188
-655.886	-95.435	-0.223	0.061
-654.872	8.510	0.270	0.207
-653.857	109.494	0.072	0.088
-652.843	-7.716	0.198	0.136
-651.828	94.603	0.073	0.084
-650.814	-200.000	0.007	0.173
-649.799	800.000	0.108	0.336
-648.784	800.000	0.047	-0.180
-647.770	307.811	-0.090	-0.171
-646.755	-195.493	0.017	-0.000
-645.741	59.917	0.028	0.028
-644.726	780.387	0.048	-0.134
-643.711	-106.282	0.061	0.014
-642.697	-200.000	0.002	-0.239
-641.682	440.280	-0.203	-0.452
-640.668	31.451	0.221	-0.193
-639.653	-46.397	-0.497	-0.248
-638.638	-132.649	-0.277	-0.036
-637.624	-103.776	-0.158	0.038
-636.609	-60.183	0.335	-0.145
-635.595	-60.015	0.036	-0.016
-634.580	-20.877	-0.149	-0.093
-633.565	-60.844	0.098	0.042
-632.551	11.802	-0.133	-0.104
-631.536	-119.670	-0.287	-0.050
-630.522	-135.639	-0.154	-0.019
-629.507	223.592	-0.203	0.332
-628.492	-12.111	0.161	-0.107
-627.478	-191.845	0.560	-0.006
-626.463	-200.000	0.018	-0.207
-625.449	800.000	-0.081	-0.299
-624.434	800.000	-0.057	0.249
-623.419	98.769	-0.185	-0.217
-622.405	-92.179	0.226	-0.065
-621.390	-200.000	0.012	0.094
-620.376	205.706	0.032	0.051
-619.361	72.938	-0.068	0.072
-618.346	10.489	-0.191	0.148
-617.332	-55.856	0.281	-0.128
-616.317	598.390	0.051	-0.127
-615.303	-15.324	-0.222	-0.144
-614.288	782.353	-0.088	-0.246
-613.273	-130.539	-0.215	-0.029
-612.259	25.926	-0.214	0.181
-611.244	-114.967	0.179	-0.035
-610.230	656.670	0.116	-0.303
-609.215	-3.796	0.213	-0.150
-608.201	114.686	0.112	-0.139
-607.186	145.664	-0.108	-0.146
-606.171	800.000	-0.034	-0.122
-605.157	-90.946	0.022	0.006
-604.142	10.323	0.050	-0.039
-603.128	130.717	0.102	0.132
-602.113	258.419	0.176	-0.308
-601.098	-17.455	0.370	0.236
-600.084	-200.000	-0.002	-0.116
-599.069	194.477	0.121	0.185
-598.055	-106.096	-0.070	0.016
-597.040	-200.000	0.059	0.331
-596.025	-150.456	0.369	-0.029
-595.011	100.515	0.084	0.099
-593.996	26.239	-0.063	-0.053
-592.982	800.000	-0.068	0.200
-591.967	168.618	-0.055	-0.079
-590.952	-132.697	0.432	0.056
-589.938	-200.000	-0.018	0.115
-588.923	-117.473	-0.137	0.025
-587.909	161.860	0.083	-0.118
-586.894	-76.891	0.277	-0.098
-585.879	-28.874	-0.434	-0.253
-584.865	-5.063	0.133	-0.093
-583.850	-200.000	0.151	0.000
-582.836	174.530	-0.130	0.191
-581.821	-132.902	-0.056	-0.007
-580.806	-81.982	-0.196	-0.065
-579.792	-119.636	-0.509	0.089
-578.777	-46.288	-0.288	0.143
-577.763	536.532	-0.102	0.246
-576.748	800.000	-0.019	-0.080
-575.733	800.000	0.081	-0.353
-574.719	32.586	-0.185	-0.162
-573.704	-30.041	0.344	0.198
-572.690	-8.683	-0.204	-0.138
-571.675	136.306	0.166	-0.220
-570.661	-200.000	0.038	-0.231
-569.646	37.565	0.314	-0.282
-568.631	-152.207	0.005	0.000
-567.617	-200.000	0.034	0.171
-566.602	-6.765	0.053	-0.037
-565.588	36.030	0.139	-0.124
-564.573	198.809	0.154	-0.239
-563.558	800.000	-0.032	-0.103
-562.544	-200.000	0.070	0.430
-561.529	56.811	-0.204	0.202
-560.515	9.083	0.185	0.141
-559.500	-148.563	0.199	0.016
-558.485	195.331	-0.064	-0.099
-557.471	95.597	-0.070	-0.081
-556.456	-80.770	-0.175	-0.059
-555.442	-103.383	0.099	0.024
-554.427	-58.961	-0.203	0.089
-553.412	-21.628	0.066	-0.041
-552.398	229.859	0.094	-0.156
-551.383	-200.000	-0.003	0.057
-550.369	-56.141	-0.198	-0.089
-549.354	-73.512	0.150	0.055
-548.339	-94.482	0.189	0.052
-547.325	-108.839	-0.300	0.065
-546.310	-66.346	0.126	0.051
-545.296	157.371	0.040	0.057
-544.281	800.000	-0.084	-0.281
-543.266	-1.418	-0.069	-0.050
-542.252	-200.000	-0.179	-0.000
-541.237	-193.790	-0.362	-0.003
-540.223	50.900	0.150	-0.144
-539.208	800.000	0.042	0.183
-538.193	800.000	-0.041	0.172
-537.179	-128.724	-0.184	-0.026
-536.164	209.952	0.188	0.298
-535.150	260.569	-0.235	0.411
-534.135	150.808	0.089	0.123
-533.121	115.963	-0.097	-0.120
-532.106	83.393	0.112	0.124
-531.091	260.653	0.141	-0.247
-530.077	318.841	-0.242	-0.464
-529.062	-101.783	0.174	-0.043
-528.048	-44.054	-0.374	-0.190
-527.033	-200.000	-0.012	0.208
-526.018	37.338	0.154	-0.138
-525.004	-142.482	-0.176	0.018
-523.989	-28.830	0.045	-0.026
-522.975	22.193	-0.107	-0.088
-521.960	-194.294	-0.278	0.002
-520.945	-200.000	-0.012	0.256
-519.931	138.894	-0.108	-0.144
-518.916	110.665	0.180	-0.219
-517.902	-167.642	-0.238	0.010
-516.887	228.313	-0.150	-0.247
-515.872	82.171	-0.157	-0.172
-514.858	117.646	-0.143	0.179
-513.843	459.025	-0.040	0.090
-512.829	236.369	-0.015	0.025
-511.814	-107.198	-0.275	-0.061
-510.799	84.076	0.094	0.104
-509.785	-75.278	0.244	-0.088
-508.770	-49.855	-0.286	-0.137
-507.756	-162.289	0.099	-0.005
-506.741	-90.710	-0.218	0.064
-505.726	-200.000	0.003	-0.327
-504.712	-70.636	0.479	0.183
-503.697	-74.268	0.172	0.063
-502.683	527.263	-0.057	0.136
-501.668	-163.762	0.164	-0.008
-500.653	-159.809	0.246	0.014
-499.639	-77.572	-0.141	-0.049
-498.624	14.116	-0.075	0.059
-497.610	-98.746	0.074	-0.019
-496.595	800.000	-0.044	-0.178
-495.581	800.000	0.039	0.113
-494.566	259.399	0.115	0.200
-493.551	-77.194	0.241	0.085
-492.537	-96.463	-0.422	-0.113
-491.522	-174.671	0.209	0.006
-490.508	800.000	0.099	0.369
-489.493	800.000	-0.072	-0.206
-488.478	28.584	-0.128	-0.110
-487.464	-82.752	0.131	0.043
-486.449	800.000	0.074	0.222
-485.435	142.069	0.177	-0.237
-484.420	800.000	-0.045	0.134
-483.405	-200.000	-0.028	0.156
-482.391	-76.137	0.293	-0.105
-481.376	-152.957	-0.141	-0.010
-480.362	152.970	0.108	-0.149
-479.347	-157.955	-0.181	-0.011
-478.332	800.000	-0.043	0.131
-477.318	-26.884	-0.214	0.126
-476.303	519.907	0.049	-0.117
-475.289	-200.000	0.014	-0.070
-474.274	-44.229	-0.197	0.100
-473.259	703.778	-0.037	-0.098
-472.245	-86.799	-0.234	0.072
-471.230	800.000	0.044	-0.139
-470.216	-200.000	0.021	0.184
-469.201	-131.171	-0.334	0.045
-468.186	155.167	-0.142	-0.197
-467.172	-200.000	0.008	0.357
-466.157	487.761	-0.108	0.249
-465.143	62.841	-0.074	0.075
-464.128	274.128	0.131	0.233
-463.113	147.151	-0.087	0.118
-462.099	696.967	-0.105	-0.279
-461.084	125.359	-0.268	-0.342
-460.070	716.656	0.103	-0.275
-459.055	-200.000	-0.012	0.137
-458.040	-200.000	0.016	-0.297
-457.026	28.309	-0.332	-0.283
-456.011	156.123	0.119	0.166
-454.997	-200.000	-0.017	0.233
-453.982	-200.000	0.013	-0.067
-452.968	131.696	-0.053	0.069
-451.953	800.000	-0.095	0.286
-450.938	95.338	-0.203	-0.234
-449.924	570.049	0.051	-0.126
-448.909	177.864	0.039	0.057
-447.895	62.132	-0.206	-0.207
-446.880	519.356	-0.037	0.088
-445.865	-200.000	-0.033	0.165
-444.851	-200.000	0.030	-0.252
-443.836	-16.967	-0.153	-0.098
-442.822	2.627	0.067	0.049
-441.807	-120.762	0.195	-0.033
-440.792	401.274	-0.049	-0.104
-439.778	82.064	0.209	-0.229
-438.763	407.382	-0.062	-0.132
-437.749	-23.123	0.258	0.157
-436.734	442.617	-0.121	-0.266
-435.719	-132.075	-0.166	0.022
-434.705	572.018	0.035	-0.087
-433.690	-200.000	-0.018	-0.260
-432.676	160.272	-0.143	-0.200
-431.661	-156.615	0.180	-0.011
-430.646	-136.314	0.087	-0.010
-429.632	311.710	0.070	0.132
-428.617	618.010	-0.058	-0.148
-427.603	-136.053	0.272	0.032
-426.588	-35.440	0.122	0.067
-425.573	-13.800	-0.130	-0.085
-424.559	-110.892	-0.174	0.036
-423.544	-71.028	-0.095	0.036
-422.530	442.583	0.052	0.114
-421.515	-200.000	0.009	-0.105
-420.500	170.870	0.163	-0.235
-419.486	-48.033	0.164	0.080
-418.471	-102.174	0.282	0.068
-417.457	-200.000	-0.029	-0.216
-416.442	800.000	-0.020	-0.076
-415.428	92.080	0.199	-0.225
-414.413	-63.544	-0.275	0.114
-413.398	-152.896	-0.016	-0.001
-412.384	-133.714	-0.156	0.020
-411.369	-44.635	0.106	0.053
-410.355	-200.000	-0.011	0.223
-409.340	-4.165	-0.070	-0.049
-408.325	-29.440	-0.267	-0.154
-407.311	-200.000	0.009	0.066
-406.296	-127.753	-0.145	0.021
-405.282	-19.566	0.236	0.147
-404.267	-110.683	0.383	-0.080
-403.252	-162.378	0.415	-0.021
-402.238	521.445	0.066	-0.156
-401.223	171.192	-0.041	0.059
-400.209	-200.000	-0.028	-0.287
-399.194	-200.000	0.016	0.135
-398.179	110.379	-0.109	0.132
-397.165	-200.000	-0.005	-0.093
-396.150	209.400	0.049	0.077
-395.136	197.467	0.193	-0.296
-394.121	102.214	0.179	-0.210
-393.106	-129.403	-0.111	0.015
-392.092	-105.514	-0.072	-0.017
-391.077	119.571	-0.119	-0.149
-390.063	8.590	0.007	-0.006
-389.048	-91.798	0.107	-0.031
-388.033	-20.609	-0.221	-0.137
-387.019	-10.994	-0.107	0.071
-386.004	-156.303	-0.107	0.007
-384.990	412.414	-0.138	0.295
-383.975	-57.025	0.269	-0.119
-382.960	-199.554	0.224	-0.001
-381.946	-83.468	-0.083	-0.027
-380.931	-200.000	0.029	0.214
-379.917	800.000	-0.091	0.359
-378.902	38.864	0.277	0.249
-377.888	-200.000	0.019	0.085
-376.873	332.084	0.065	-0.126
-375.858	-76.504	-0.292	0.103
-374.844	-52.133	-0.302	0.141
-373.829	-103.985	0.308	-0.072
-372.815	-177.149	0.137	0.003
-371.800	-200.000	0.001	-0.132
-370.785	-200.000	-0.015	-0.142
-369.771	-167.670	0.459	-0.018
-368.756	-78.719	-0.417	0.143
-367.742	-83.152	0.218	0.070
-366.727	45.603	-0.073	0.068
-365.712	431.259	-0.115	0.250
-364.698	-161.927	-0.102	-0.005
-363.683	-145.771	-0.564	0.050
-362.669	317.707	0.081	0.154
-361.654	-140.967	0.164	0.017
-360.639	314.307	-0.033	-0.062
-359.625	-15.157	0.182	0.117
-358.610	-62.320	-0.239	0.100
-357.596	16.599	-0.167	-0.132
-356.581	-22.536	-0.084	0.051
-355.566	-144.238	-0.282	-0.026
-354.552	-200.000	-0.004	0.271
-353.537	11.573	-0.125	-0.097
-352.523	-71.749	0.024	-0.009
-351.508	-128.833	0.257	-0.036
-350.493	-179.754	-0.348	-0.008
-349.479	13.923	0.388	0.303
-348.464	-86.701	-0.251	0.077
-347.450	668.972	-0.085	-0.222
-346.435	128.746	-0.111	0.142
-345.420	-115.672	0.356	-0.067
-344.406	312.997	0.171	0.323
-343.391	-139.293	0.109	-0.012
-342.377	800.000	-0.034	-0.123
-341.362	684.827	-0.051	0.134
-340.348	123.692	-0.138	0.174
-339.333	-122.516	-0.130	-0.021
-338.318	-200.000	0.013	-0.288
-337.304	6.591	0.221	0.165
-336.289	-200.000	0.024	0.251
-335.275	78.232	0.037	0.039
-334.260	-0.514	0.025	0.018
-333.245	-115.365	-0.199	-0.038
-332.231	164.229	-0.096	0.136
-331.216	-200.000	-0.060	0.320
-330.202	59.775	0.143	0.142
-329.187	247.998	-0.078	-0.132
-328.172	58.068	0.169	-0.166
-327.158	-113.220	0.272	-0.054
-326.143	294.059	0.074	-0.135
-325.129	-176.236	0.071	-0.002
-324.114	-80.563	-0.190	-0.063
-323.099	-162.537	0.324	0.016
-322.085	219.387	0.167	0.269
-321.070	-200.000	0.132	-0.000
-320.056	161.314	0.226	-0.318
-319.041	-46.252	-0.242	0.119
-318.026	-200.000	0.005	0.097
-317.012	-55.382	-0.285	0.128
-315.997	-35.262	-0.058	0.032
-314.983	-22.797	0.122	-0.074
-313.968	156.832	-0.021	0.029
-312.953	96.125	-0.293	0.336
-311.939	-16.544	-0.167	0.106
-310.924	-131.677	0.203	-0.027
-309.910	-108.128	-0.211	0.046
-308.895	508.709	-0.031	-0.072
-307.880	-188.675	-0.178	-0.002
-306.866	-35.692	0.198	0.108
-305.851	560.528	-0.041	-0.099
-304.837	-81.823	0.091	-0.030
-303.822	-169.150	0.131	-0.005
-302.807	800.000	-0.123	0.447
-301.793	-117.185	-0.080	-0.015
-300.778	-97.008	-0.245	-0.064
-299.764	30.823	0.139	0.120
-298.749	582.112	-0.013	0.032
-297.735	4.272	-0.394	-0.290
-296.720	-10.262	0.098	-0.065
-295.705	72.293	-0.198	-0.206
-294.691	45.398	0.144	0.133
-293.676	42.632	0.525	0.479
-292.662	-72.532	0.413	-0.153
-291.647	-116.095	-0.110	-0.020
-290.632	-62.535	0.126	0.052
-289.618	800.000	-0.090	0.340
-288.603	-200.000	0.050	0.291
-287.589	-158.380	-0.069	0.004
-286.574	800.000	0.065	-0.191
-285.559	-200.000	-0.050	0.436
-284.545	246.652	-0.045	-0.076
-283.530	-22.146	0.156	-0.095
-282.516	62.369	0.155	0.155
-281.501	13.378	0.042	0.032
-280.486	78.407	0.090	0.096
-279.472	404.317	0.018	0.039
-278.457	-200.000	0.027	-0.168
-277.443	800.000	-0.046	-0.179
-276.428	-14.571	0.478	0.308
-275.413	90.800	-0.154	-0.173
-274.399	276.131	-0.142	-0.253
-273.384	-12.552	0.162	-0.106
-272.370	77.058	-0.077	-0.082
-271.355	-200.000	-0.019	-0.255
-270.340	-60.847	0.111	0.047
-269.326	800.000	-0.065	0.237
-268.311	-67.384	0.080	0.032
-267.297	291.825	-0.132	-0.240
-266.282	-68.253	0.313	-0.122
-265.267	800.000	-0.076	-0.290
-264.253	162.239	-0.245	-0.345
-263.238	-168.321	-0.130	-0.005
-262.224	160.546	-0.203	-0.283
-261.209	-200.000	-0.018	-0.197
-260.195	22.975	0.086	0.070
-259.180	-58.087	-0.094	-0.041
-258.165	326.110	-0.072	0.138
-257.151	-200.000	0.028	-0.132
-256.136	684.130	0.107	0.278
-255.122	-200.000	0.007	-0.182
-254.107	-139.052	0.172	-0.019
-253.092	800.000	-0.102	-0.332
-252.078	-200.000	0.024	-0.190
-251.063	-80.305	0.297	-0.099
-250.049	165.293	-0.098	0.139
-249.034	-151.986	0.189	-0.014
-248.019	31.170	0.142	0.122
-247.005	-77.617	0.192	0.067
-245.990	-8.449	0.146	0.098
-244.976	168.718	0.134	0.191
-243.961	63.286	0.217	0.218
-242.946	-50.885	-0.142	0.067
-241.932	-200.000	0.002	0.039
-240.917	198.720	-0.097	-0.149
-239.903	336.261	0.063	-0.123
-238.888	800.000	0.026	0.106
-237.873	-55.542	0.160	-0.072
-236.859	800.000	0.051	-0.146
-235.844	800.000	0.042	0.158
-234.830	-63.020	-0.357	-0.148
-233.815	-200.000	0.028	-0.216
-232.800	-152.359	-0.114	0.008
-231.786	-118.301	0.271	0.048
-230.771	-92.851	0.170	-0.048
-229.757	-105.823	-0.095	0.021
-228.742	-200.000	0.026	-0.147
-227.727	-101.465	-0.244	-0.059
-226.713	6.463	-0.207	-0.154
-225.698	-87.603	-0.389	0.117
-224.684	47.384	-0.140	-0.131
-223.669	-200.000	0.036	0.258
-222.655	36.499	0.301	0.265
-221.640	-82.082	0.117	0.038
-220.625	570.792	-0.136	0.331
-219.611	282.194	0.184	0.331
-218.596	-200.000	0.014	-0.183
-217.582	-200.000	-0.021	0.283
-216.567	169.741	-0.054	0.077
-215.552	626.771	-0.100	0.254
-214.538	-200.000	-0.064	0.449
-213.523	26.333	-0.133	-0.111
-212.509	-108.740	0.134	0.029
-211.494	56.827	-0.089	0.087
-210.479	70.797	0.113	0.117
-209.465	77.537	0.255	0.271
-208.450	-1.616	-0.346	0.244
-207.436	-140.200	-0.295	-0.031
-206.421	800.000	0.016	0.064
-205.406	365.970	0.056	-0.112
-204.392	-128.170	-0.338	-0.048
-203.377	-200.000	-0.033	-0.299
-202.363	88.928	-0.120	-0.133
-201.348	800.000	-0.025	-0.094
-200.333	177.140	-0.132	0.192
-199.319	-200.000	-0.024	0.241
-198.304	-200.000	-0.018	0.209
-197.290	0.052	0.251	0.178
-196.275	109.306	0.068	0.082
-195.260	130.547	-0.038	0.048
-194.246	10.416	-0.104	0.079
-193.231	800.000	-0.034	0.124
-192.217	-92.265	-0.393	0.111
-191.202	-64.607	0.084	-0.034
-190.187	-116.373	0.076	0.014
-189.173	101.344	-0.251	0.292
-188.158	15.595	0.302	-0.237
-187.144	401.860	-0.089	0.187
-186.129	-39.037	-0.126	0.066
-185.114	-9.168	-0.067	0.044
-184.100	596.150	0.074	-0.182
-183.085	-107.140	0.103	-0.023
-182.071	-11.646	0.284	0.186
-181.056	-200.000	-0.037	0.341
-180.042	-30.166	0.178	0.101
-179.027	800.000	-0.092	-0.312
-178.012	-137.239	-0.030	-0.003
-176.998	269.359	-0.099	0.173
-175.983	-22.490	0.181	0.109
-174.969	367.580	0.060	-0.120
-173.954	433.066	0.041	0.089
-172.939	-116.367	0.404	0.075
-171.925	-44.281	0.225	0.112
-170.910	-108.143	-0.222	-0.048
-169.896	-200.000	0.018	-0.220
-168.881	74.226	-0.177	-0.186
-167.866	-71.697	0.263	0.098
-166.852	-96.552	-0.266	-0.070
-165.837	-190.824	0.364	-0.004
-164.823	-200.000	-0.130	-0.659
-163.808	-36.788	0.372	0.199
-162.793	-96.188	-0.018	0.005
-161.779	-200.000	-0.005	-0.107
-160.764	-200.000	0.001	0.124
-159.750	-99.020	0.240	-0.061
-158.735	708.114	0.038	0.100
-157.720	-200.000	0.007	0.390
-156.706	-83.225	0.199	-0.064
-155.691	-35.418	-0.143	0.078
-154.677	-200.000	0.025	0.141
-153.662	70.510	0.092	0.095
-152.647	-200.000	0.020	-0.208
-151.633	348.650	-0.125	-0.245
-150.618	42.468	-0.213	-0.193
-149.604	-80.005	0.482	-0.161
-148.589	-90.131	-0.303	-0.088
-147.574	153.188	-0.116	-0.159
-146.560	129.384	0.132	-0.169
-145.545	-58.161	0.312	-0.136
-144.531	-26.540	-0.302	0.177
-143.516	-200.000	-0.040	0.278
-142.502	441.064	0.066	0.144
-141.487	-200.000	0.055	-0.244
-140.472	-200.000	-0.049	-0.483
-139.458	772.585	0.018	-0.050
-138.443	404.102	-0.108	-0.226
-137.429	87.578	0.107	0.118
-136.414	30.572	0.085	-0.073
-135.399	43.804	0.038	0.035
-134.385	651.434	0.162	0.414
-133.370	-200.000	-0.029	0.167
-132.356	-84.796	0.091	-0.028
-131.341	-200.000	-0.071	-0.344
-130.326	140.084	0.040	-0.052
-129.312	54.809	0.364	0.349
-128.297	-200.000	0.008	0.192
-127.283	-41.540	0.034	0.017
-126.268	-200.000	0.014	0.321
-125.253	679.965	-0.042	-0.108
-124.239	70.152	0.072	0.074
-123.224	800.000	0.032	0.121
-122.210	-200.000	-0.006	-0.263
-121.195	-94.904	-0.174	0.047
