DTS Sentinel unit serial number:	SN413079Multiplexer serial number:	ORYXHardware model number:	OX4-SRSoftware version number:	ORYX F/W v4.00 Oryx Data Collector v3.7.2.0data status	okinstallation	princeton_trtdifferential loss correction	single-endedforward channel	channel 4reverse channel	N/Adate	2019/09/17time	21:17:34forward acquisition time	60.00reverse acquisition time	0.00gamma	496.2192k internal	0.2326k external	0.2326temperature offset calibration	0.9991default loss term (dB/km)	0.3790temperature slope calibration	1.0000multiplexer offset coefficient	1.0000multiplexer slope coefficient	1.0000fibre end	0.00T internal ref (°C)	27.75T ext. ref 1 (°C)	0.19T ext. ref 2 (°C)	19.60length (m)	temperature (°C)	Stokes	anti-Stokes-747.200	128.519	0.084	0.108
-746.185	-40.519	0.183	0.096
-745.171	-103.101	-0.113	-0.027
-744.156	790.953	-0.068	0.187
-743.142	488.715	0.093	-0.213
-742.127	-0.562	-0.246	0.176
-741.112	569.760	0.042	0.103
-740.098	238.059	-0.089	0.149
-739.083	254.713	-0.070	0.121
-738.069	134.094	-0.192	0.251
-737.054	-195.852	0.093	-0.001
-736.039	354.535	0.148	0.296
-735.025	-90.470	-0.130	0.038
-734.010	12.678	-0.289	0.225
-732.996	-106.363	-0.145	-0.033
-731.981	203.487	0.122	0.190
-730.966	460.494	-0.061	0.137
-729.952	10.110	-0.057	0.044
-728.937	608.843	-0.189	-0.476
-727.923	-200.000	-0.023	-0.109
-726.908	-82.051	-0.254	0.084
-725.894	-6.670	0.082	0.056
-724.879	-69.052	0.161	0.062
-723.864	186.002	0.088	-0.132
-722.850	16.183	-0.342	0.272
-721.835	204.773	-0.093	-0.145
-720.821	-66.499	-0.131	0.053
-719.806	767.492	0.074	0.204
-718.791	24.860	0.017	0.014
-717.777	356.090	0.062	-0.125
-716.762	243.244	-0.112	-0.190
-715.748	-119.184	0.321	-0.056
-714.733	62.134	-0.075	-0.075
-713.718	-13.009	-0.097	0.064
-712.704	-22.686	0.098	0.059
-711.689	-50.007	-0.087	-0.042
-710.675	-146.494	0.178	0.016
-709.660	225.564	0.184	0.301
-708.645	16.493	0.063	0.050
-707.631	-200.000	0.005	-0.136
-706.616	-81.871	-0.330	-0.109
-705.602	19.788	-0.084	-0.068
-704.587	-174.858	-0.542	0.015
-703.572	800.000	0.127	0.377
-702.558	173.064	-0.175	0.253
-701.543	136.100	-0.169	-0.221
-700.529	-66.159	-0.141	0.056
-699.514	-8.867	-0.260	-0.176
-698.499	800.000	0.031	0.122
-697.485	-43.907	0.416	-0.211
-696.470	800.000	-0.032	-0.126
-695.456	-147.379	-0.102	0.009
-694.441	-200.000	-0.014	-0.381
-693.426	-81.501	0.112	0.037
-692.412	-115.177	-0.279	0.053
-691.397	184.015	0.091	-0.136
-690.383	542.627	0.039	-0.094
-689.368	-200.000	0.012	0.130
-688.354	39.249	0.386	-0.347
-687.339	74.229	0.091	0.096
-686.324	269.336	0.266	-0.469
-685.310	12.479	-0.257	0.199
-684.295	24.817	0.116	-0.097
-683.281	76.266	0.052	0.055
-682.266	61.563	0.077	0.077
-681.251	28.688	-0.108	-0.092
-680.237	66.329	-0.016	-0.017
-679.222	28.232	-0.357	-0.303
-678.208	56.264	0.107	0.105
-677.193	603.869	-0.010	0.025
-676.178	-168.512	-0.102	-0.004
-675.164	447.062	-0.147	-0.325
-674.149	-118.882	-0.219	-0.039
-673.135	395.548	0.233	-0.489
-672.120	241.559	-0.089	0.150
-671.105	-116.690	-0.340	0.063
-670.091	-138.227	-0.190	0.021
-669.076	332.081	-0.284	-0.551
-668.062	-137.074	-0.176	-0.020
-667.047	-200.000	-0.018	0.129
-666.032	744.408	-0.127	-0.344
-665.018	-56.424	0.053	-0.023
-664.003	-17.738	0.265	0.167
-662.989	141.721	0.057	0.076
-661.974	143.930	0.137	-0.184
-660.959	-132.989	0.263	-0.034
-659.945	800.000	-0.081	-0.320
-658.930	39.817	0.302	0.273
-657.916	800.000	-0.084	0.282
-656.901	309.245	0.251	-0.471
-655.886	-114.454	-0.102	0.020
-654.872	10.397	-0.243	0.186
-653.857	197.047	-0.099	-0.152
-652.843	146.487	0.035	-0.048
-651.828	-200.000	0.022	0.189
-650.814	-200.000	-0.054	-0.348
-649.799	426.678	0.156	0.338
-648.784	-119.673	-0.219	0.038
-647.770	800.000	0.060	-0.175
-646.755	518.872	-0.075	0.176
-645.741	800.000	0.014	0.042
-644.726	-19.511	-0.249	-0.155
-643.711	800.000	-0.025	0.077
-642.697	-200.000	-0.022	-0.120
-641.682	-16.713	0.221	0.140
-640.668	800.000	-0.101	0.327
-639.653	-136.398	0.045	-0.005
-638.638	-10.327	-0.261	0.174
-637.624	104.427	-0.210	0.248
-636.609	28.299	-0.162	-0.138
-635.595	-135.080	-0.378	0.046
-634.580	283.143	-0.126	0.227
-633.565	79.861	0.234	-0.252
-632.551	-200.000	0.038	-0.171
-631.536	221.276	-0.109	-0.176
-630.522	108.441	0.152	-0.182
-629.507	-4.855	-0.391	-0.271
-628.492	800.000	-0.068	0.207
-627.478	33.346	0.096	-0.084
-626.463	428.728	0.102	0.222
-625.449	-123.590	-0.352	-0.056
-624.434	-191.761	0.155	-0.002
-623.419	800.000	0.078	-0.219
-622.405	-163.590	0.199	0.009
-621.390	800.000	-0.043	0.144
-620.376	8.006	0.202	0.152
-619.361	-200.000	-0.003	-0.163
-618.346	35.779	-0.151	-0.133
-617.332	27.701	0.193	-0.163
-616.317	-3.377	-0.215	-0.150
-615.303	259.869	0.110	0.190
-614.288	-105.710	-0.056	0.013
-613.273	-49.935	-0.174	-0.083
-612.259	-78.380	0.350	0.120
-611.244	-80.333	-0.210	0.070
-610.230	-20.226	-0.096	-0.059
-609.215	-117.940	-0.112	-0.020
-608.201	-111.784	-0.056	-0.011
-607.186	144.481	0.208	-0.278
-606.171	-147.901	0.233	0.020
-605.157	-3.830	0.191	-0.133
-604.142	-57.019	-0.200	0.088
-603.128	-132.154	-0.200	0.026
-602.113	169.297	0.015	-0.021
-601.098	-60.149	-0.090	-0.039
-600.084	800.000	0.028	-0.080
-599.069	414.580	-0.161	-0.344
-598.055	376.059	-0.159	0.324
-597.040	378.517	-0.067	-0.137
-596.025	800.000	0.074	-0.271
-595.011	-16.512	0.302	-0.192
-593.996	-200.000	0.008	0.223
-592.982	-200.000	-0.046	-0.334
-591.967	368.298	0.088	0.179
-590.952	-200.000	-0.004	-0.057
-589.938	-130.005	-0.096	0.013
-588.923	-200.000	-0.010	0.214
-587.909	98.815	0.039	0.045
-586.894	187.181	-0.113	-0.169
-585.879	75.158	0.056	-0.060
-584.865	43.998	0.054	0.049
-583.850	69.199	-0.084	0.087
-582.836	-11.983	0.333	-0.219
-581.821	-164.434	-0.186	-0.009
-580.806	121.945	-0.041	-0.051
-579.792	112.254	-0.132	0.160
-578.777	-117.306	-0.223	-0.041
-577.763	-98.803	-0.377	0.096
-576.748	787.091	-0.209	-0.574
-575.733	451.359	-0.083	0.183
-574.719	159.638	-0.081	-0.112
-573.704	800.000	-0.054	0.160
-572.690	-200.000	0.010	-0.103
-571.675	344.519	-0.047	-0.093
-570.661	800.000	-0.057	-0.160
-569.646	-18.246	0.189	0.119
-568.631	-156.225	0.222	0.014
-567.617	-142.205	0.477	-0.047
-566.602	263.346	0.045	0.078
-565.588	-160.127	0.058	-0.003
-564.573	-135.017	-0.155	-0.019
-563.558	-32.507	-0.272	0.152
-562.544	-200.000	0.060	-0.338
-561.529	-1.906	-0.204	0.144
-560.515	86.511	0.204	-0.226
-559.500	800.000	0.018	-0.071
-558.485	-38.925	-0.338	0.178
-557.471	800.000	-0.055	-0.194
-556.456	57.586	0.265	-0.260
-555.442	694.971	0.133	-0.351
-554.427	164.306	-0.217	-0.307
-553.412	197.954	0.327	-0.501
-552.398	458.046	-0.138	-0.308
-551.383	-191.761	0.201	-0.002
-550.369	-39.664	0.128	0.067
-549.354	-191.570	-0.291	0.003
-548.339	262.612	-0.146	-0.254
-547.325	-200.000	0.061	-0.292
-546.310	-60.118	-0.311	-0.133
-545.296	-90.814	-0.148	0.043
-544.281	-200.000	0.056	0.264
-543.266	213.653	0.109	0.172
-542.252	-48.735	-0.167	-0.080
-541.237	-200.000	0.030	-0.156
-540.223	8.377	-0.173	-0.130
-539.208	800.000	0.019	0.070
-538.193	800.000	0.089	0.246
-537.179	-147.248	-0.078	0.007
-536.164	174.968	0.095	0.137
-535.150	800.000	-0.054	-0.176
-534.135	197.085	-0.077	0.117
-533.121	-158.213	0.354	0.021
-532.106	-118.439	-0.331	0.059
-531.091	-54.225	-0.350	0.159
-530.077	-137.893	0.058	0.006
-529.062	800.000	-0.018	0.051
-528.048	-40.503	0.189	0.098
-527.033	-144.375	-0.259	-0.024
-526.018	48.213	0.139	-0.130
-525.004	800.000	0.032	-0.126
-523.989	-200.000	0.038	0.222
-522.975	-200.000	0.017	-0.284
-521.960	-200.000	-0.001	0.100
-520.945	-200.000	0.011	0.129
-519.931	-51.037	0.435	0.204
-518.916	454.156	-0.119	0.264
-517.902	-113.957	-0.102	0.020
-516.887	34.489	0.179	-0.156
-515.872	227.635	0.052	-0.085
-514.858	-124.570	-0.231	-0.036
-513.843	100.110	-0.079	-0.091
-512.829	7.761	0.162	-0.122
-511.814	127.330	0.057	0.072
-510.799	90.072	0.123	0.137
-509.785	-139.947	-0.157	0.017
-508.770	-200.000	0.006	-0.187
-507.756	-200.000	0.034	0.278
-506.741	-159.707	0.444	-0.025
-505.726	179.458	-0.183	-0.268
-504.712	-57.260	-0.056	-0.025
-503.697	-26.110	0.097	-0.057
-502.683	-200.000	0.016	0.251
-501.668	-200.000	-0.024	-0.210
-500.653	40.387	-0.178	-0.160
-499.639	-101.169	0.085	-0.021
-498.624	-166.537	0.097	-0.004
-497.610	425.068	-0.041	-0.088
-496.595	800.000	-0.048	0.149
-495.581	53.009	-0.304	-0.291
-494.566	-78.056	-0.256	-0.088
-493.551	-200.000	0.002	0.140
-492.537	56.907	-0.289	0.282
-491.522	-72.582	-0.163	-0.060
-490.508	-172.862	-0.390	0.012
-489.493	-157.270	0.320	0.019
-488.478	-130.632	-0.042	-0.006
-487.464	102.331	-0.052	-0.061
-486.449	800.000	-0.056	0.177
-485.435	800.000	0.047	0.182
-484.420	-116.030	0.197	0.037
-483.405	198.656	0.201	-0.307
-482.391	-198.909	-0.342	0.002
-481.376	419.061	-0.265	0.565
-480.362	-135.851	-0.231	-0.027
-479.347	547.041	-0.031	-0.075
-478.332	800.000	0.063	-0.202
-477.318	-83.526	0.303	-0.097
-476.303	-128.543	0.374	-0.053
-475.289	-59.514	-0.158	0.068
-474.274	-1.094	-0.244	0.172
-473.259	173.039	-0.152	-0.219
-472.245	-200.000	0.036	-0.241
-471.230	15.363	0.100	0.078
-470.216	800.000	0.091	0.271
-469.201	706.761	0.117	0.307
-468.186	-70.874	0.044	0.017
-467.172	-200.000	-0.019	0.406
-466.157	-85.387	0.047	0.014
-465.143	-110.586	-0.142	0.029
-464.128	255.595	0.049	0.083
-463.113	-81.448	0.246	0.081
-462.099	-24.028	0.190	0.114
-461.084	31.472	-0.219	0.187
-460.070	-200.000	0.013	-0.196
-459.055	800.000	0.074	-0.267
-458.040	-89.918	-0.304	-0.088
-457.026	-69.219	-0.214	-0.082
-456.011	-200.000	-0.013	-0.292
-454.997	-133.248	-0.077	0.010
-453.982	3.338	-0.163	-0.118
-452.968	-155.597	0.269	0.017
-451.953	341.628	-0.072	0.140
-450.938	-44.331	-0.322	-0.161
-449.924	195.145	-0.056	0.085
-448.909	-40.017	0.309	-0.161
-447.895	-36.470	0.169	-0.091
-446.880	-200.000	-0.002	0.268
-445.865	800.000	-0.054	0.191
-444.851	409.871	-0.192	0.405
-443.836	-96.808	-0.156	-0.041
-442.822	-80.695	-0.148	-0.049
-441.807	-14.454	-0.155	-0.100
-440.792	164.059	0.094	0.132
-439.778	-30.283	0.232	0.131
-438.763	-50.875	-0.268	-0.125
-437.749	135.699	0.036	0.047
-436.734	-200.000	-0.019	-0.154
-435.719	-81.208	-0.435	-0.143
-434.705	800.000	-0.016	0.051
-433.690	348.217	0.100	0.197
-432.676	0.484	0.125	0.089
-431.661	800.000	-0.071	-0.231
-430.646	-200.000	0.061	0.329
-429.632	511.485	0.169	0.392
-428.617	26.963	-0.100	0.083
-427.603	-200.000	0.009	-0.263
-426.588	-84.836	0.244	-0.076
-425.573	-200.000	0.028	0.243
-424.559	-84.967	0.223	0.070
-423.544	-20.796	0.170	-0.104
-422.530	800.000	-0.130	-0.408
-421.515	37.382	-0.066	-0.058
-420.500	-63.767	0.225	0.092
-419.486	-142.593	0.194	-0.019
-418.471	-86.302	-0.334	-0.103
-417.457	-82.145	0.166	0.054
-416.442	-87.166	0.174	0.053
-415.428	235.259	0.124	-0.204
-414.413	-200.000	-0.038	0.468
-413.398	-91.688	0.386	0.109
-412.384	-200.000	0.007	0.052
-411.369	-151.912	0.254	0.018
-410.355	800.000	0.012	-0.040
-409.340	170.983	0.069	0.099
-408.325	-200.000	0.044	-0.450
-407.311	137.193	-0.248	-0.323
-406.296	-112.477	0.273	-0.054
-405.282	65.410	-0.219	0.220
-404.267	-65.139	-0.289	-0.116
-403.252	286.567	0.134	-0.241
-402.238	276.149	0.165	0.292
-401.223	-55.952	-0.197	0.087
-400.209	-130.728	0.269	-0.036
-399.194	45.320	-0.113	-0.104
-398.179	592.735	0.054	0.133
-397.165	-98.866	-0.145	0.037
-396.150	-68.318	0.059	0.023
-395.136	-183.667	0.264	-0.005
-394.121	18.275	0.103	-0.081
-393.106	117.210	0.303	-0.370
-392.092	66.499	0.349	-0.353
-391.077	-151.431	0.263	-0.019
-390.063	77.970	0.031	0.033
-389.048	188.962	0.071	0.106
-388.033	-47.070	-0.208	0.101
-387.019	60.689	-0.141	0.139
-386.004	-200.000	0.028	0.267
-384.990	-45.422	0.071	0.035
-383.975	344.641	-0.070	0.136
-382.960	-200.000	0.041	-0.417
-381.946	800.000	0.048	0.172
-380.931	770.062	0.121	-0.327
-379.917	-96.817	-0.135	-0.035
-378.902	-108.942	-0.085	0.018
-377.888	-92.749	-0.186	0.052
-376.873	-200.000	-0.061	-0.338
-375.858	194.132	-0.045	-0.068
-374.844	-200.000	0.048	0.522
-373.829	-200.000	-0.063	0.466
-372.815	-146.164	-0.171	0.015
-371.800	139.102	0.203	-0.265
-370.785	-37.951	-0.142	0.075
-369.771	-167.188	0.226	0.009
-368.756	-71.431	0.301	0.112
-367.742	205.120	-0.113	-0.175
-366.727	126.130	-0.037	-0.047
-365.712	-200.000	-0.009	-0.128
-364.698	-38.876	-0.162	-0.085
-363.683	-110.215	-0.210	-0.044
-362.669	4.046	-0.158	-0.115
-361.654	-200.000	0.022	0.204
-360.639	-200.000	0.002	0.179
-359.625	-200.000	0.022	-0.333
-358.610	244.668	0.045	0.075
-357.596	-53.706	0.190	0.086
-356.581	353.157	0.092	0.182
-355.566	-3.090	-0.147	0.102
-354.552	-62.098	0.316	0.131
-353.537	800.000	0.115	-0.395
-352.523	358.152	-0.140	-0.277
-351.508	66.323	-0.289	0.291
-350.493	-200.000	-0.006	-0.079
-349.479	96.829	-0.085	0.097
-348.464	17.856	-0.215	0.170
-347.450	304.463	0.110	-0.202
-346.435	683.784	0.132	-0.343
-345.420	-200.000	0.084	0.504
-344.406	-114.736	0.233	0.044
-343.391	-200.000	0.028	0.298
-342.377	-27.337	0.204	0.118
-341.362	329.501	0.107	-0.204
-340.348	91.842	0.140	0.157
-339.333	-54.489	0.470	0.211
-338.318	-157.028	0.043	0.003
-337.304	-95.155	-0.184	0.049
-336.289	-200.000	0.000	0.126
-335.275	-200.000	0.000	0.206
-334.260	612.368	-0.169	-0.420
-333.245	85.342	-0.074	0.080
-332.231	-3.045	0.236	0.164
-331.216	800.000	0.062	-0.226
-330.202	220.608	-0.127	-0.202
-329.187	800.000	0.034	-0.119
-328.172	-107.524	0.324	0.070
-327.158	-124.470	0.295	-0.046
-326.143	-8.401	0.226	-0.151
-325.129	-50.191	-0.319	0.150
-324.114	-29.811	-0.283	0.160
-323.099	-21.948	-0.242	-0.146
-322.085	-133.880	-0.204	-0.025
-321.070	-122.305	0.493	0.080
-320.056	198.549	0.128	-0.195
-319.041	409.105	0.091	0.191
-318.026	106.846	0.102	0.120
-317.012	24.726	-0.083	0.068
-315.997	645.315	-0.103	0.261
-314.983	-59.295	0.156	-0.067
-313.968	-200.000	-0.030	0.194
-312.953	-124.493	0.329	-0.051
-311.939	-50.237	0.118	-0.055
-310.924	-200.000	0.015	0.080
-309.910	-38.000	0.085	0.045
-308.895	153.600	-0.062	0.084
-307.880	800.000	0.073	0.311
-306.866	-200.000	-0.024	-0.111
-305.851	-121.372	-0.193	0.032
-304.837	69.172	0.073	-0.075
-303.822	12.766	-0.150	0.115
-302.807	800.000	0.044	0.122
-301.793	114.843	-0.192	-0.232
-300.778	800.000	0.027	-0.073
-299.764	-200.000	0.023	0.267
-298.749	800.000	0.083	0.237
-297.735	69.135	0.381	0.388
-296.720	8.451	-0.051	-0.038
-295.705	148.928	0.194	-0.260
-294.691	-11.083	-0.220	0.144
-293.676	-200.000	-0.044	0.222
-292.662	112.162	-0.163	0.195
-291.647	22.531	0.194	-0.157
-290.632	-24.051	0.330	-0.196
-289.618	-116.165	-0.065	0.012
-288.603	-73.891	0.244	-0.088
-287.589	-42.933	0.036	0.018
-286.574	-55.467	0.098	0.044
-285.559	-17.052	-0.278	-0.174
-284.545	-71.212	-0.161	0.060
-283.530	4.866	0.158	-0.115
-282.516	329.935	0.062	0.119
-281.501	-59.173	-0.195	0.083
-280.486	800.000	0.099	0.328
-279.472	225.660	0.034	0.054
-278.457	800.000	-0.007	-0.028
-277.443	-127.747	0.093	0.013
-276.428	-85.382	-0.162	0.050
-275.413	-99.436	-0.441	-0.110
-274.399	210.123	0.066	-0.103
-273.384	-103.892	0.414	-0.096
-272.370	276.260	-0.123	-0.216
-271.355	-71.293	0.267	-0.099
-270.340	305.181	0.065	-0.119
-269.326	614.104	-0.165	-0.409
-268.311	7.579	0.091	0.067
-267.297	-40.689	0.235	0.120
-266.282	-43.390	0.230	-0.115
-265.267	356.756	-0.113	0.223
-264.253	54.379	0.157	0.150
-263.238	-107.276	-0.258	-0.056
-262.224	-200.000	-0.034	0.174
-261.209	800.000	-0.045	0.183
-260.195	48.362	0.330	0.305
-259.180	24.613	0.434	-0.356
-258.165	-9.448	0.026	-0.017
-257.151	-103.600	-0.140	0.032
-256.136	-200.000	-0.005	0.147
-255.122	258.175	-0.158	-0.270
-254.107	-77.697	-0.310	0.106
-253.092	-20.499	0.193	-0.117
-252.078	-200.000	0.039	-0.174
-251.063	176.565	-0.201	-0.289
-250.049	177.981	-0.098	0.141
-249.034	-200.000	-0.011	-0.127
-248.019	77.960	0.091	0.096
-247.005	-136.067	-0.206	0.024
-245.990	34.142	0.151	0.130
-244.976	206.974	-0.142	-0.219
-243.961	82.553	0.065	0.070
-242.946	-200.000	0.011	-0.066
-241.932	-98.663	0.188	-0.047
-240.917	800.000	0.047	0.134
-239.903	-161.583	0.048	0.002
-238.888	800.000	0.045	-0.195
-237.873	-4.716	-0.103	-0.070
-236.859	-76.671	0.261	-0.090
-235.844	-200.000	0.044	0.295
-234.830	-200.000	0.095	-0.463
-233.815	800.000	-0.050	-0.169
-232.800	-33.580	0.206	0.112
-231.786	-31.848	0.132	-0.073
-230.771	-80.815	0.316	-0.104
-229.757	-146.950	0.374	0.032
-228.742	-200.000	-0.018	0.430
-227.727	-71.323	-0.265	-0.098
-226.713	-200.000	-0.037	-0.400
-225.698	25.140	-0.224	0.184
-224.684	164.216	-0.226	0.314
-223.669	-7.462	0.143	0.095
-222.655	507.083	-0.050	0.114
-221.640	-161.377	-0.321	0.016
-220.625	516.116	0.091	0.210
-219.611	-6.438	0.195	0.131
-218.596	300.489	0.045	-0.081
-217.582	-200.000	-0.012	-0.261
-216.567	88.907	0.153	0.169
-215.552	-160.001	-0.224	0.012
-214.538	-200.000	-0.016	0.227
-213.523	219.673	-0.043	0.069
-212.509	169.182	-0.045	-0.063
-211.494	-79.425	0.226	0.076
-210.479	800.000	0.080	0.263
-209.465	-14.791	-0.300	-0.190
-208.450	-200.000	-0.061	-0.296
-207.436	-94.076	-0.268	-0.073
-206.421	-73.341	-0.112	0.040
-205.406	307.772	0.166	0.306
-204.392	19.841	0.268	-0.213
-203.377	-103.797	0.248	0.057
-202.363	60.541	0.279	-0.273
-201.348	64.052	0.293	0.291
-200.333	-30.127	-0.124	0.070
-199.319	210.145	0.062	0.096
-198.304	373.335	0.056	0.112
-197.290	-4.975	0.241	0.164
-196.275	-118.250	0.112	0.020
-195.260	65.332	0.243	0.242
-194.246	-87.677	-0.233	-0.069
-193.231	-200.000	0.002	-0.309
-192.217	-200.000	-0.047	0.315
-191.202	76.444	-0.076	-0.079
-190.187	-200.000	-0.033	0.171
-189.173	-200.000	0.019	0.299
-188.158	-200.000	0.040	-0.205
-187.144	-61.084	-0.185	0.077
-186.129	3.417	-0.214	0.154
-185.114	800.000	0.084	-0.255
-184.100	197.396	0.252	0.380
-183.085	800.000	-0.046	0.190
-182.071	-113.767	-0.134	-0.026
-181.056	-79.765	-0.285	-0.095
-180.042	-156.742	0.188	-0.011
-179.027	-127.254	-0.520	0.075
-178.012	355.067	-0.050	0.097
-176.998	-90.053	-0.186	0.054
-175.983	189.994	-0.158	-0.234
-174.969	-143.030	-0.228	-0.022
-173.954	-26.176	-0.080	0.046
-172.939	-200.000	0.027	-0.279
-171.925	-17.902	-0.273	-0.169
-170.910	-27.914	0.197	0.112
-169.896	-200.000	0.089	0.515
-168.881	-22.050	-0.122	-0.073
-167.866	44.278	0.054	-0.049
-166.852	-115.470	-0.113	-0.021
-165.837	-93.129	-0.148	-0.041
-164.823	535.084	-0.082	-0.192
-163.808	381.307	0.072	-0.146
-162.793	20.769	-0.189	-0.151
-161.779	288.569	0.013	0.024
-160.764	83.526	-0.128	-0.138
-159.750	-200.000	0.009	0.051
-158.735	71.071	0.120	-0.123
-157.720	800.000	0.063	-0.230
-156.706	-35.944	-0.141	0.075
-155.691	-2.001	-0.164	-0.114
-154.677	-80.310	-0.161	0.053
-153.662	-105.046	-0.182	0.041
-152.647	184.417	0.055	-0.080
-151.633	-200.000	-0.047	0.246
-150.618	136.302	0.289	0.372
-149.604	-20.602	0.279	-0.169
-148.589	-10.511	0.168	0.109
-147.574	10.797	-0.054	0.041
-146.560	70.001	-0.279	-0.284
-145.545	800.000	0.096	-0.376
-144.531	-118.811	-0.211	0.037
-143.516	330.966	0.108	0.205
-142.502	-94.963	-0.270	-0.072
-141.487	-117.242	0.347	-0.062
-140.472	-153.008	0.097	-0.007
-139.458	105.031	0.173	0.201
-138.443	-41.927	0.238	-0.120
-137.429	252.736	-0.091	0.152
-136.414	-14.470	0.053	0.034
-135.399	347.458	-0.086	-0.167
-134.385	-200.000	-0.031	0.167
-133.370	-101.138	0.250	0.060
-132.356	-200.000	0.003	0.084
-131.341	626.663	-0.055	0.136
-130.326	-200.000	0.042	0.222
-129.312	-120.570	0.136	-0.023
-128.297	379.178	-0.113	0.228
-127.283	-109.837	0.240	-0.050
-126.268	33.141	-0.079	0.067
-125.253	32.670	0.278	0.236
-124.239	-200.000	-0.015	0.118
-123.224	197.275	0.150	-0.225
-122.210	41.710	-0.154	0.138
-121.195	35.904	0.132	-0.114
-120.180	-200.000	0.028	0.202
