DTS Sentinel unit serial number:	SN413079Multiplexer serial number:	ORYXHardware model number:	OX4-SRSoftware version number:	ORYX F/W v4.00 Oryx Data Collector v3.7.2.0data status	okinstallation	princeton_trtdifferential loss correction	single-endedforward channel	channel 4reverse channel	N/Adate	2019/09/19time	11:57:34forward acquisition time	60.00reverse acquisition time	0.00gamma	496.2192k internal	0.2325k external	0.2325temperature offset calibration	1.0016default loss term (dB/km)	0.3790temperature slope calibration	1.0000multiplexer offset coefficient	1.0000multiplexer slope coefficient	1.0000fibre end	0.00T internal ref (°C)	25.95T ext. ref 1 (°C)	0.84T ext. ref 2 (°C)	22.11length (m)	temperature (°C)	Stokes	anti-Stokes-747.200	-10.323	-0.177	-0.118
-746.185	563.933	-0.134	0.328
-745.171	800.000	-0.008	0.032
-744.156	-116.565	-0.269	0.050
-743.142	-25.776	-0.120	0.072
-742.127	-38.835	0.263	0.140
-741.112	-12.773	0.301	0.198
-740.098	-58.324	-0.215	0.094
-739.083	-197.020	0.134	0.001
-738.069	800.000	0.053	0.195
-737.054	-173.851	0.140	-0.004
-736.039	-6.638	-0.189	-0.130
-735.025	50.493	-0.251	0.239
-734.010	-130.796	-0.186	0.025
-732.996	63.587	-0.167	0.169
-731.981	-39.437	-0.302	-0.160
-730.966	-85.549	0.274	0.086
-729.952	2.209	-0.135	0.098
-728.937	37.923	0.165	0.148
-727.923	681.097	0.036	-0.094
-726.908	-19.194	-0.293	0.183
-725.894	-200.000	-0.008	0.509
-724.879	-139.084	0.269	-0.029
-723.864	283.447	0.034	0.062
-722.850	2.109	-0.171	-0.124
-721.835	195.085	0.210	-0.321
-720.821	-84.205	-0.123	0.039
-719.806	219.205	-0.134	0.216
-718.791	-4.031	-0.220	0.154
-717.777	187.522	-0.037	-0.056
-716.762	-54.868	-0.335	-0.153
-715.748	-78.625	0.236	-0.081
-714.733	307.035	0.038	-0.071
-713.718	61.779	0.034	-0.034
-712.704	-200.000	-0.021	-0.127
-711.689	-111.339	0.189	-0.039
-710.675	36.702	0.330	0.293
-709.660	176.294	0.218	-0.319
-708.645	800.000	-0.090	-0.323
-707.631	54.423	0.196	0.190
-706.616	-200.000	-0.026	0.409
-705.602	122.998	-0.199	-0.251
-704.587	-88.161	-0.264	-0.080
-703.572	-101.676	0.256	0.063
-702.558	-104.514	-0.182	-0.042
-701.543	-152.140	-0.228	-0.017
-700.529	-54.392	-0.059	-0.027
-699.514	-52.075	0.349	0.163
-698.499	60.373	0.150	0.149
-697.485	-200.000	-0.005	-0.081
-696.470	800.000	-0.097	-0.295
-695.456	-98.927	-0.235	0.060
-694.441	-200.000	-0.017	-0.269
-693.426	800.000	-0.062	-0.273
-692.412	-28.629	-0.137	0.080
-691.397	100.531	0.109	0.127
-690.383	-44.071	0.210	-0.106
-689.368	-123.243	-0.382	-0.062
-688.354	800.000	-0.020	0.065
-687.339	-51.058	0.145	0.068
-686.324	-117.283	-0.354	-0.065
-685.310	18.604	0.176	-0.142
-684.295	-71.122	0.140	0.053
-683.281	-200.000	-0.010	0.358
-682.266	-103.088	0.104	0.025
-681.251	-200.000	-0.020	-0.188
-680.237	347.905	-0.099	0.196
-679.222	-50.188	0.059	-0.028
-678.208	-161.395	0.263	-0.014
-677.193	-136.622	0.170	0.020
-676.178	-200.000	-0.000	0.038
-675.164	-99.530	0.232	-0.059
-674.149	-200.000	-0.001	0.146
-673.135	-200.000	-0.045	-0.361
-672.120	87.501	0.113	-0.126
-671.105	-200.000	0.032	0.143
-670.091	-91.198	0.264	-0.076
-669.076	0.287	-0.186	-0.133
-668.062	-200.000	-0.054	0.269
-667.047	-58.630	0.201	-0.088
-666.032	534.992	0.167	0.399
-665.018	-200.000	-0.033	0.311
-664.003	800.000	0.075	0.324
-662.989	800.000	0.055	0.207
-661.974	-174.506	0.221	0.006
-660.959	132.844	-0.111	0.144
-659.945	106.466	-0.105	0.125
-658.930	595.057	0.107	0.265
-657.916	-72.833	-0.451	0.167
-656.901	166.824	0.221	-0.316
-655.886	-151.307	0.071	-0.005
-654.872	145.695	0.130	0.175
-653.857	-183.692	-0.113	-0.002
-652.843	800.000	-0.071	0.201
-651.828	-109.355	-0.175	-0.037
-650.814	800.000	0.096	-0.289
-649.799	108.573	0.103	-0.123
-648.784	-200.000	0.005	-0.150
-647.770	98.912	-0.357	-0.415
-646.755	-200.000	0.058	-0.329
-645.741	-4.312	0.174	0.121
-644.726	-56.083	0.218	-0.098
-643.711	-4.837	0.197	0.137
-642.697	33.891	0.124	0.109
-641.682	123.302	-0.070	0.088
-640.668	797.282	-0.117	-0.323
-639.653	27.986	-0.206	0.175
-638.638	514.496	-0.120	-0.281
-637.624	-114.068	0.341	0.066
-636.609	43.890	-0.302	-0.278
-635.595	-200.000	-0.055	-0.298
-634.580	-0.126	-0.151	-0.108
-633.565	126.521	-0.105	-0.133
-632.551	-92.328	0.164	-0.046
-631.536	106.854	0.081	0.097
-630.522	-132.199	-0.117	0.015
-629.507	-170.627	-0.178	0.006
-628.492	424.474	-0.171	-0.369
-627.478	-104.577	0.250	-0.058
-626.463	-200.000	-0.034	0.205
-625.449	7.826	-0.158	0.119
-624.434	-120.299	-0.230	0.039
-623.419	-130.342	-0.110	-0.015
-622.405	800.000	-0.132	-0.388
-621.390	415.618	-0.129	-0.276
-620.376	-200.000	0.063	-0.280
-619.361	84.902	-0.124	0.137
-618.346	-122.401	-0.191	-0.031
-617.332	64.797	0.200	0.202
-616.317	34.164	0.360	-0.315
-615.303	594.576	0.034	0.084
-614.288	135.815	-0.112	-0.147
-613.273	-200.000	-0.028	0.258
-612.259	-59.222	0.221	0.095
-611.244	224.411	0.054	-0.087
-610.230	-100.730	-0.060	-0.015
-609.215	673.023	0.059	0.154
-608.201	169.197	-0.104	0.149
-607.186	-12.505	-0.248	-0.163
-606.171	-52.396	-0.138	0.064
-605.157	-4.219	0.198	0.137
-604.142	800.000	-0.037	0.129
-603.128	-141.614	-0.137	-0.014
-602.113	15.023	-0.153	0.121
-601.098	174.917	-0.134	0.195
-600.084	-84.217	-0.234	0.074
-599.069	-145.832	-0.414	0.037
-598.055	57.360	-0.354	0.347
-597.040	578.414	-0.069	-0.169
-596.025	342.153	0.054	-0.105
-595.011	313.787	-0.188	-0.354
-593.996	-200.000	0.043	-0.219
-592.982	55.658	-0.246	-0.239
-591.967	-200.000	0.023	0.145
-590.952	-200.000	-0.025	-0.394
-589.938	198.764	-0.098	-0.151
-588.923	-200.000	-0.306	0.000
-587.909	-35.365	0.392	-0.214
-586.894	488.443	0.119	-0.272
-585.879	64.369	0.047	0.048
-584.865	-2.605	-0.256	-0.180
-583.850	800.000	-0.030	0.101
-582.836	278.092	0.110	-0.197
-581.821	-200.000	-0.019	0.204
-580.806	33.368	-0.129	-0.112
-579.792	-148.244	-0.088	-0.007
-578.777	136.067	-0.090	0.118
-577.763	-73.715	-0.081	0.029
-576.748	749.834	0.097	-0.262
-575.733	41.072	-0.174	-0.158
-574.719	-127.437	-0.191	0.028
-573.704	153.018	-0.145	-0.199
-572.690	293.759	0.121	-0.221
-571.675	-147.970	-0.095	-0.008
-570.661	-119.210	-0.220	-0.038
-569.646	-200.000	-0.001	-0.369
-568.631	-200.000	0.022	-0.146
-567.617	83.604	-0.065	-0.071
-566.602	3.679	-0.016	0.012
-565.588	687.653	-0.082	0.214
-564.573	59.214	-0.217	-0.214
-563.558	-110.745	0.323	0.067
-562.544	-113.106	0.198	0.039
-561.529	-107.976	0.133	-0.029
-560.515	-185.831	-0.416	0.006
-559.500	278.145	0.224	0.400
-558.485	97.431	-0.169	0.194
-557.471	140.692	0.219	0.290
-556.456	-200.000	-0.002	0.083
-555.442	-70.004	0.083	0.032
-554.427	127.441	0.063	-0.081
-553.412	-143.443	0.212	0.020
-552.398	18.486	-0.260	0.208
-551.383	182.386	0.043	-0.064
-550.369	-200.000	-0.006	-0.089
-549.354	-143.439	0.190	-0.018
-548.339	-117.001	0.157	-0.029
-547.325	43.022	0.291	-0.266
-546.310	-52.976	0.144	0.066
-545.296	287.357	0.030	0.054
-544.281	-139.719	-0.270	0.029
-543.266	-164.445	-0.168	0.008
-542.252	93.384	0.138	0.157
-541.237	-200.000	0.033	-0.251
-540.223	659.398	0.063	0.163
-539.208	-200.000	0.019	-0.101
-538.193	3.088	-0.227	0.165
-537.179	-146.106	0.183	0.016
-536.164	23.345	-0.167	-0.137
-535.150	-131.002	-0.058	-0.008
-534.135	8.806	-0.148	0.112
-533.121	-200.000	0.021	0.201
-532.106	-105.561	0.054	-0.012
-531.091	41.134	0.079	-0.071
-530.077	147.536	-0.191	0.258
-529.062	93.893	-0.281	-0.319
-528.048	-15.306	-0.184	0.118
-527.033	-102.017	0.282	-0.068
-526.018	-147.245	0.045	0.004
-525.004	10.350	-0.125	-0.095
-523.989	-21.705	-0.372	-0.226
-522.975	800.000	-0.111	0.336
-521.960	800.000	0.051	0.154
-520.945	-31.200	-0.327	0.184
-519.931	160.056	0.249	0.347
-518.916	-46.040	-0.357	-0.176
-517.902	-54.652	-0.075	0.034
-516.887	800.000	0.043	-0.133
-515.872	-175.853	-0.138	0.004
-514.858	-69.244	-0.183	0.071
-513.843	-200.000	-0.012	0.138
-512.829	83.860	0.227	0.248
-511.814	-93.513	-0.287	-0.079
-510.799	22.895	-0.045	-0.037
-509.785	504.060	-0.126	0.292
-508.770	15.967	-0.328	-0.259
-507.756	800.000	-0.023	-0.067
-506.741	693.103	-0.016	0.043
-505.726	87.085	-0.214	0.236
-504.712	76.263	0.190	0.202
-503.697	-76.870	-0.252	0.088
-502.683	446.899	0.082	0.180
-501.668	117.731	0.230	0.283
-500.653	-200.000	-0.014	0.075
-499.639	206.606	0.190	-0.295
-498.624	-177.115	-0.293	-0.007
-497.610	-62.244	-0.276	-0.115
-496.595	-45.678	-0.101	-0.050
-495.581	446.562	-0.069	0.152
-494.566	-15.143	0.072	-0.046
-493.551	-200.000	0.002	-0.356
-492.537	-200.000	-0.006	-0.295
-491.522	100.427	-0.146	-0.169
-490.508	48.626	0.093	0.087
-489.493	-171.414	-0.330	-0.011
-488.478	-111.085	0.256	0.052
-487.464	157.241	0.278	-0.384
-486.449	642.439	-0.091	0.231
-485.435	-146.761	-0.062	0.005
-484.420	770.206	-0.075	-0.203
-483.405	-137.639	0.088	0.010
-482.391	52.843	-0.304	-0.290
-481.376	212.838	0.092	0.145
-480.362	-112.986	0.222	-0.044
-479.347	183.921	0.084	0.125
-478.332	377.502	-0.088	-0.180
-477.318	-200.000	-0.012	0.084
-476.303	-125.513	0.308	0.047
-475.289	-102.248	-0.130	-0.031
-474.274	-200.000	-0.015	0.168
-473.259	-98.477	0.162	0.041
-472.245	295.116	0.141	-0.257
-471.230	384.000	-0.091	-0.188
-470.216	-53.043	-0.124	-0.057
-469.201	140.509	-0.035	0.046
-468.186	-90.856	-0.073	-0.021
-467.172	-200.000	-0.020	0.114
-466.157	-75.109	-0.191	0.068
-465.143	-200.000	-0.049	-0.315
-464.128	203.166	-0.140	0.215
-463.113	-200.000	0.036	0.548
-462.099	46.903	0.166	0.154
-461.084	-200.000	0.027	0.195
-460.070	800.000	0.120	-0.344
-459.055	6.558	0.415	-0.308
-458.040	-92.409	-0.089	-0.025
-457.026	-129.742	-0.173	0.024
-456.011	-200.000	0.069	0.320
-454.997	741.279	-0.106	-0.283
-453.982	-84.429	0.253	-0.080
-452.968	140.337	-0.067	0.088
-451.953	-85.654	-0.309	-0.096
-450.938	-138.624	0.127	0.014
-449.924	-26.938	-0.137	-0.080
-448.909	-200.000	0.199	0.000
-447.895	-65.890	-0.136	0.054
-446.880	-156.253	0.156	-0.010
-445.865	142.028	-0.206	-0.273
-444.851	800.000	-0.116	-0.483
-443.836	33.334	-0.253	-0.219
-442.822	-127.790	0.394	0.057
-441.807	451.145	0.147	0.324
-440.792	556.032	-0.093	0.224
-439.778	-200.000	0.116	0.000
-438.763	438.561	-0.103	0.224
-437.749	-200.000	0.033	0.214
-436.734	6.218	0.133	0.098
-435.719	29.341	-0.077	-0.065
-434.705	-24.486	0.209	0.124
-433.690	-142.868	-0.082	-0.008
-432.676	-4.126	-0.281	-0.194
-431.661	472.005	0.109	0.244
-430.646	800.000	0.089	0.293
-429.632	-200.000	0.005	-0.101
-428.617	-57.248	-0.071	0.031
-427.603	-26.973	-0.075	0.044
-426.588	365.993	0.144	0.289
-425.573	176.943	-0.235	0.341
-424.559	-91.547	-0.213	0.060
-423.544	337.974	0.068	0.132
-422.530	52.960	-0.127	0.121
-421.515	-35.273	-0.100	0.054
-420.500	114.018	0.254	0.308
-419.486	346.363	0.076	-0.148
-418.471	-116.693	0.267	0.049
-417.457	471.829	-0.014	0.032
-416.442	-142.224	-0.170	-0.017
-415.428	-200.000	-0.017	-0.075
-414.413	-10.366	0.151	-0.099
-413.398	-121.484	0.103	-0.017
-412.384	416.723	0.080	0.170
-411.369	800.000	0.043	0.182
-410.355	-167.035	-0.329	-0.013
-409.340	-200.000	0.054	0.241
-408.325	-32.001	0.165	0.092
-407.311	-200.000	0.030	-0.238
-406.296	39.773	0.259	0.232
-405.282	-200.000	-0.007	0.252
-404.267	-200.000	-0.053	0.261
-403.252	-200.000	-0.011	0.166
-402.238	122.314	-0.109	0.135
-401.223	800.000	0.137	0.405
-400.209	6.437	0.125	0.093
-399.194	-146.658	0.266	0.023
-398.179	371.744	-0.029	0.060
-397.165	473.552	0.016	0.036
-396.150	-200.000	-0.008	-0.308
-395.136	107.348	-0.107	0.126
-394.121	57.278	-0.010	0.010
-393.106	255.836	0.130	0.222
-392.092	-100.276	-0.240	-0.059
-391.077	800.000	0.093	-0.285
-390.063	-27.318	-0.146	-0.085
-389.048	-8.209	-0.058	-0.039
-388.033	-200.000	-0.015	-0.323
-387.019	791.466	0.005	-0.014
-386.004	294.723	0.241	-0.438
-384.990	143.880	-0.271	0.360
-383.975	-138.543	0.187	-0.020
-382.960	729.303	0.119	-0.317
-381.946	-183.110	-0.285	0.005
-380.931	146.928	0.091	-0.122
-379.917	-50.287	0.207	-0.097
-378.902	-9.700	0.224	0.148
-377.888	-89.635	0.313	0.091
-376.873	68.764	-0.098	-0.100
-375.858	-200.000	-0.007	-0.052
-374.844	426.020	0.110	-0.236
-373.829	-200.000	-0.005	0.100
-372.815	240.253	0.149	0.246
-371.800	800.000	0.045	0.158
-370.785	163.602	-0.103	-0.144
-369.771	-42.992	0.366	-0.185
-368.756	43.168	-0.241	-0.219
-367.742	-139.557	-0.286	-0.030
-366.727	800.000	-0.150	-0.439
-365.712	-87.639	0.194	-0.058
-364.698	319.856	0.044	0.082
-363.683	-200.000	0.005	0.094
-362.669	-22.566	-0.284	0.171
-361.654	-200.000	-0.006	0.129
-360.639	-95.493	0.347	0.093
-359.625	800.000	-0.087	0.365
-358.610	2.226	0.179	0.129
-357.596	192.365	-0.169	-0.254
-356.581	528.027	-0.071	0.166
-355.566	238.068	0.110	0.181
-354.552	175.146	-0.085	0.122
-353.537	-200.000	0.027	0.130
-352.523	-200.000	0.025	0.130
-351.508	-83.794	0.205	-0.065
-350.493	11.266	-0.304	-0.231
-349.479	-72.585	-0.333	0.122
-348.464	-38.211	0.047	0.025
-347.450	-113.506	-0.153	-0.030
-346.435	414.505	-0.097	0.206
-345.420	-200.000	-0.044	0.243
-344.406	-86.040	0.096	-0.030
-343.391	-113.937	0.102	-0.020
-342.377	-48.345	-0.140	0.067
-341.362	-123.030	0.347	0.055
-340.348	-69.426	0.200	0.076
-339.333	18.485	0.190	-0.151
-338.318	471.660	-0.066	-0.147
-337.304	-200.000	-0.007	-0.332
-336.289	-33.535	0.293	0.161
-335.275	800.000	-0.037	0.145
-334.260	-20.400	-0.109	0.067
-333.245	-200.000	0.000	0.163
-332.231	-146.434	0.295	0.026
-331.216	171.632	0.070	0.100
-330.202	-21.896	-0.106	-0.064
-329.187	581.363	-0.107	-0.260
-328.172	180.679	0.172	-0.251
-327.158	-50.675	0.212	-0.099
-326.143	85.900	0.071	-0.077
-325.129	-136.385	-0.183	0.021
-324.114	-200.000	-0.235	-0.001
-323.099	-200.000	-0.021	-0.184
-322.085	-60.805	-0.446	0.187
-321.070	-130.794	0.196	-0.026
-320.056	5.523	0.081	0.060
-319.041	-120.452	0.451	0.076
-318.026	-93.983	0.173	0.047
-317.012	47.063	-0.131	0.121
-315.997	41.594	0.328	-0.294
-314.983	-53.709	0.077	-0.035
-313.968	-53.138	0.273	-0.124
-312.953	-112.180	0.347	0.069
-311.939	-159.378	-0.293	0.016
-310.924	800.000	-0.119	0.359
-309.910	-3.742	0.150	-0.104
-308.895	-113.741	0.224	-0.043
-307.880	-200.000	0.005	0.217
-306.866	-34.534	0.302	-0.164
-305.851	-200.000	0.035	-0.266
-304.837	3.889	0.174	-0.126
-303.822	-200.000	-0.026	0.172
-302.807	-73.541	-0.134	0.048
-301.793	-200.000	0.014	-0.123
-300.778	69.017	0.107	0.110
-299.764	197.891	-0.130	0.198
-298.749	-127.859	-0.212	0.030
-297.735	-85.045	0.258	-0.080
-296.720	51.481	-0.105	0.099
-295.705	150.487	-0.127	0.171
-294.691	88.478	-0.112	0.124
-293.676	108.307	0.082	-0.097
-292.662	-153.968	-0.275	-0.019
-291.647	-62.298	-0.405	0.167
-290.632	25.279	0.360	0.296
-289.618	70.552	-0.036	0.037
-288.603	155.903	0.048	0.066
-287.589	-58.964	-0.257	0.110
-286.574	458.727	0.055	0.121
-285.559	97.596	0.178	-0.203
-284.545	-136.339	0.278	0.032
-283.530	183.225	-0.142	0.208
-282.516	626.715	-0.083	-0.209
-281.501	-126.097	-0.143	0.021
-280.486	800.000	-0.163	0.566
-279.472	215.635	0.130	-0.205
-278.457	-42.389	-0.173	0.088
-277.443	270.440	0.224	0.390
-276.428	-200.000	-0.022	-0.247
-275.413	-200.000	0.003	-0.235
-274.399	-200.000	0.026	0.358
-273.384	-119.389	-0.236	0.041
-272.370	-109.173	0.297	0.063
-271.355	-11.081	0.421	0.275
-270.340	258.017	-0.111	-0.190
-269.326	453.181	-0.192	0.422
-268.311	222.163	0.107	0.171
-267.297	800.000	-0.045	-0.167
-266.282	-68.357	0.170	0.065
-265.267	-200.000	-0.000	0.130
-264.253	60.944	-0.041	-0.040
-263.238	800.000	0.155	0.633
-262.224	11.172	0.140	0.106
-261.209	185.000	0.083	0.122
-260.195	-200.000	0.023	0.116
-259.180	-200.000	-0.015	-0.225
-258.165	35.178	0.321	-0.279
-257.151	-61.848	-0.077	0.032
-256.136	52.562	0.172	0.162
-255.122	800.000	-0.124	-0.353
-254.107	-200.000	-0.041	-0.503
-253.092	-200.000	-0.076	0.442
-252.078	185.857	0.101	-0.148
-251.063	-200.000	0.084	-0.455
-250.049	37.844	0.106	-0.093
-249.034	-75.646	0.159	-0.056
-248.019	337.315	-0.056	-0.107
-247.005	-200.000	0.001	0.509
-245.990	-143.977	0.231	0.021
-244.976	87.367	-0.111	0.122
-243.961	5.494	0.154	0.112
-242.946	535.219	0.107	0.252
-241.932	10.756	-0.140	-0.105
-240.917	-152.018	0.112	-0.008
-239.903	-146.377	0.123	0.011
-238.888	-53.607	-0.324	0.147
-237.873	-135.021	-0.160	-0.019
-236.859	-135.415	-0.215	-0.025
-235.844	49.636	0.171	-0.160
-234.830	800.000	0.048	-0.134
-233.815	89.844	0.206	-0.227
-232.800	800.000	0.051	0.184
-231.786	72.888	0.189	-0.196
-230.771	-74.893	0.170	0.060
-229.757	800.000	0.015	0.055
-228.742	-54.052	-0.053	-0.024
-227.727	-71.168	0.196	-0.073
-226.713	-200.000	0.036	0.248
-225.698	-49.912	0.108	-0.051
-224.684	-200.000	-0.102	-0.538
-223.669	-21.113	0.069	-0.042
-222.655	232.767	0.095	0.155
-221.640	-85.318	-0.248	-0.077
-220.625	373.394	-0.051	0.102
-219.611	-200.000	0.004	0.057
-218.596	13.508	0.146	0.112
-217.582	-22.082	-0.202	0.121
-216.567	417.868	-0.069	-0.146
-215.552	-200.000	0.024	-0.395
-214.538	96.131	0.052	-0.059
-213.523	760.422	-0.067	-0.180
-212.509	261.151	0.076	0.130
-211.494	-153.201	-0.324	-0.022
-210.479	-26.390	-0.171	-0.099
-209.465	-200.000	0.028	0.138
-208.450	178.035	-0.096	0.139
-207.436	-98.555	-0.149	0.038
-206.421	11.001	0.079	-0.060
-205.406	-200.000	0.003	-0.173
-204.392	-8.127	-0.185	0.123
-203.377	-109.807	0.421	0.087
-202.363	-107.468	-0.254	0.055
-201.348	-117.532	-0.138	-0.025
-200.333	205.711	0.108	0.166
-199.319	81.271	-0.082	0.087
-198.304	478.363	-0.068	-0.152
-197.290	472.944	0.136	0.303
-196.275	-200.000	-0.048	-0.260
-195.260	675.880	-0.094	-0.241
-194.246	6.413	0.193	0.142
-193.231	800.000	0.063	0.201
-192.217	-146.016	0.209	-0.018
-191.202	-55.570	0.185	-0.082
-190.187	12.669	0.036	-0.027
-189.173	234.308	0.084	0.136
-188.158	10.601	0.345	-0.260
-187.144	2.626	0.123	-0.088
-186.129	-119.380	0.117	-0.020
-185.114	305.726	0.085	-0.156
-184.100	6.214	-0.244	-0.178
-183.085	-200.000	-0.001	-0.310
-182.071	-183.799	-0.121	0.002
-181.056	310.363	0.056	-0.103
-180.042	-200.000	0.018	0.103
-179.027	74.792	-0.179	0.186
-178.012	218.310	0.096	0.151
-176.998	-35.533	-0.108	0.058
-175.983	4.780	0.235	-0.171
-174.969	126.337	-0.049	0.061
-173.954	-124.160	-0.168	-0.026
-172.939	800.000	0.067	0.224
-171.925	-126.690	0.173	-0.025
-170.910	-81.293	-0.224	-0.073
-169.896	-162.336	0.253	0.012
-168.881	137.777	0.133	-0.172
-167.866	126.068	-0.332	-0.414
-166.852	210.095	-0.021	-0.032
-165.837	-200.000	-0.014	0.095
-164.823	-200.000	0.012	0.074
-163.808	-149.838	0.446	-0.034
-162.793	800.000	0.031	-0.084
-161.779	-200.000	-0.014	0.133
-160.764	-11.512	0.161	-0.104
-159.750	30.147	-0.137	-0.115
-158.735	-200.000	-0.054	-0.469
-157.720	800.000	0.077	-0.277
-156.706	800.000	-0.041	-0.114
-155.691	-132.548	0.444	0.056
-154.677	48.297	-0.276	0.255
-153.662	354.258	0.070	0.136
-152.647	13.316	0.026	-0.020
-151.633	248.257	0.066	-0.110
-150.618	-54.386	-0.230	-0.103
-149.604	-55.744	-0.245	-0.108
-148.589	-38.976	0.090	-0.047
-147.574	-49.425	-0.268	0.126
-146.560	-200.000	-0.026	0.231
-145.545	574.889	-0.085	-0.204
-144.531	89.168	-0.138	-0.152
-143.516	357.517	-0.021	-0.041
-142.502	-55.228	0.267	0.118
-141.487	394.479	0.019	0.038
-140.472	-71.189	-0.151	0.056
-139.458	-120.992	-0.169	-0.028
-138.443	768.289	0.152	-0.408
-137.429	-16.144	0.156	0.098
-136.414	309.838	0.125	-0.230
-135.399	-52.574	-0.338	0.154
-134.385	-53.533	0.270	0.122
-133.370	-68.758	-0.227	-0.086
-132.356	65.526	-0.055	0.055
-131.341	-200.000	0.013	0.355
-130.326	126.440	0.103	0.129
-129.312	380.779	0.140	0.283
-128.297	-200.000	0.006	0.163
-127.283	159.702	0.245	0.336
-126.268	-17.099	0.271	0.169
-125.253	-87.149	-0.069	-0.021
-124.239	46.931	0.160	0.147
-123.224	-200.000	-0.011	-0.169
-122.210	-200.000	-0.021	0.208
-121.195	99.840	0.149	0.170
