DTS Sentinel unit serial number:	SN413079Multiplexer serial number:	ORYXHardware model number:	OX4-SRSoftware version number:	ORYX F/W v4.00 Oryx Data Collector v3.7.2.0data status	okinstallation	princeton_trtdifferential loss correction	single-endedforward channel	channel 4reverse channel	N/Adate	2019/09/16time	11:17:34forward acquisition time	60.00reverse acquisition time	0.00gamma	496.2192k internal	0.2297k external	0.2297temperature offset calibration	0.9960default loss term (dB/km)	0.3790temperature slope calibration	1.0000multiplexer offset coefficient	1.0000multiplexer slope coefficient	1.0000fibre end	0.00T internal ref (°C)	37.20T ext. ref 1 (°C)	12.87T ext. ref 2 (°C)	33.43length (m)	temperature (°C)	Stokes	anti-Stokes-747.200	-15.530	0.261	0.170
-746.185	-114.671	-0.331	0.065
-745.171	-9.016	0.260	0.178
-744.156	182.128	0.056	0.084
-743.142	-65.327	0.167	0.069
-742.127	-41.878	0.108	0.057
-741.112	-26.991	-0.138	0.082
-740.098	-27.767	-0.398	-0.236
-739.083	1.864	-0.197	-0.145
-738.069	408.270	-0.158	0.342
-737.054	-79.146	0.244	-0.085
-736.039	-58.004	-0.267	-0.119
-735.025	92.061	-0.363	0.418
-734.010	-200.000	0.005	-0.170
-732.996	-11.319	-0.164	-0.110
-731.981	-48.964	-0.259	-0.127
-730.966	-76.691	-0.009	0.003
-729.952	-51.773	0.295	0.140
-728.937	335.189	-0.143	-0.283
-727.923	-200.000	-0.004	-0.220
-726.908	51.875	0.061	-0.060
-725.894	-114.919	0.202	0.039
-724.879	800.000	0.044	-0.183
-723.864	-59.943	0.050	-0.022
-722.850	40.488	0.158	0.145
-721.835	18.808	0.096	-0.078
-720.821	-54.280	0.245	-0.114
-719.806	-200.000	0.016	0.078
-718.791	49.697	-0.216	0.207
-717.777	-115.782	-0.133	-0.025
-716.762	-200.000	-0.055	-0.284
-715.748	800.000	0.030	-0.115
-714.733	-26.696	-0.238	-0.142
-713.718	-63.784	0.368	-0.154
-712.704	290.077	0.075	-0.139
-711.689	-200.000	-0.008	-0.079
-710.675	-35.883	0.093	0.052
-709.660	-36.224	-0.125	-0.069
-708.645	410.732	0.079	-0.172
-707.631	-113.407	-0.357	-0.071
-706.616	-200.000	-0.004	-0.399
-705.602	-124.960	-0.050	-0.008
-704.587	57.248	-0.069	0.069
-703.572	-200.000	-0.056	0.326
-702.558	-4.564	-0.116	0.082
-701.543	8.686	-0.278	-0.214
-700.529	391.238	0.160	-0.339
-699.514	11.462	0.189	-0.148
-698.499	-12.303	0.181	-0.121
-697.485	134.542	0.125	0.166
-696.470	54.015	-0.129	0.127
-695.456	534.045	-0.078	-0.189
-694.441	-7.062	0.024	0.017
-693.426	-95.487	0.136	-0.037
-692.412	-83.864	0.184	-0.060
-691.397	-105.976	-0.251	0.058
-690.383	-200.000	-0.027	0.124
-689.368	75.886	0.085	0.091
-688.354	800.000	-0.033	-0.139
-687.339	81.781	-0.076	-0.084
-686.324	800.000	0.095	-0.317
-685.310	-183.701	-0.171	0.003
-684.295	94.558	-0.148	-0.172
-683.281	-142.367	0.179	-0.018
-682.266	43.100	-0.148	0.138
-681.251	-25.682	-0.402	-0.242
-680.237	453.239	-0.072	0.163
-679.222	-167.245	-0.151	0.006
-678.208	-93.383	0.126	0.036
-677.193	-200.000	0.038	-0.192
-676.178	-40.058	-0.286	-0.152
-675.164	-93.385	0.223	-0.063
-674.149	800.000	0.081	0.253
-673.135	24.728	-0.273	0.231
-672.120	-200.000	-0.041	-0.395
-671.105	501.502	-0.105	0.248
-670.091	60.148	-0.081	0.081
-669.076	-43.716	0.333	-0.171
-668.062	44.184	0.073	0.068
-667.047	-107.648	-0.179	0.040
-666.032	-200.000	-0.027	-0.196
-665.018	-154.577	0.278	0.019
-664.003	-152.542	-0.085	0.006
-662.989	104.514	-0.182	-0.218
-661.974	23.439	0.049	-0.041
-660.959	-49.592	-0.140	0.068
-659.945	73.937	0.148	0.158
-658.930	377.772	-0.111	0.231
-657.916	458.088	-0.057	0.130
-656.901	-69.178	0.281	-0.110
-655.886	201.950	0.173	-0.271
-654.872	429.930	0.038	-0.085
-653.857	104.895	-0.135	0.163
-652.843	527.246	0.096	-0.231
-651.828	800.000	-0.014	0.047
-650.814	-127.576	-0.143	-0.021
-649.799	-92.666	0.067	0.019
-648.784	456.054	0.102	-0.230
-647.770	800.000	-0.027	-0.095
-646.755	-151.892	0.301	0.022
-645.741	72.164	-0.082	0.087
-644.726	95.954	0.168	0.195
-643.711	-155.091	-0.154	-0.010
-642.697	505.613	-0.100	-0.235
-641.682	-200.000	-0.046	-0.299
-640.668	-117.550	-0.210	-0.039
-639.653	-70.072	-0.182	-0.070
-638.638	-200.000	0.013	0.298
-637.624	-38.309	0.308	-0.166
-636.609	434.042	-0.072	0.159
-635.595	-200.000	-0.016	0.109
-634.580	-154.536	-0.389	-0.026
-633.565	-200.000	-0.032	0.299
-632.551	43.529	0.194	-0.181
-631.536	-200.000	0.017	-0.137
-630.522	-56.348	0.331	0.150
-629.507	408.977	-0.150	0.322
-628.492	-19.645	0.109	0.068
-627.478	-200.000	-0.035	-0.255
-626.463	344.415	-0.148	-0.295
-625.449	-32.595	0.061	-0.035
-624.434	-100.232	0.125	-0.032
-623.419	-16.009	-0.439	-0.284
-622.405	3.436	-0.034	-0.026
-621.390	-153.987	-0.215	-0.015
-620.376	-40.040	-0.109	0.058
-619.361	-82.450	0.117	0.039
-618.346	800.000	0.066	-0.293
-617.332	280.265	0.191	-0.346
-616.317	112.027	-0.026	0.032
-615.303	-107.551	-0.397	0.088
-614.288	-40.732	-0.277	0.146
-613.273	-101.909	0.125	-0.031
-612.259	-14.449	0.122	0.080
-611.244	800.000	0.005	-0.016
-610.230	-200.000	-0.057	0.306
-609.215	-200.000	-0.054	0.417
-608.201	-90.252	0.188	0.055
-607.186	95.961	-0.063	0.073
-606.171	-110.991	-0.360	-0.075
-605.157	-22.078	0.110	0.068
-604.142	69.667	0.140	-0.147
-603.128	95.396	-0.293	-0.340
-602.113	-200.000	0.023	0.164
-601.098	800.000	-0.080	0.268
-600.084	738.710	-0.145	0.396
-599.069	-200.000	0.007	0.123
-598.055	-200.000	-0.013	0.248
-597.040	-25.294	-0.272	0.164
-596.025	-98.662	-0.106	-0.027
-595.011	-168.189	-0.018	0.001
-593.996	-200.000	0.023	0.105
-592.982	-200.000	-0.003	-0.153
-591.967	637.481	-0.065	0.169
-590.952	3.197	0.243	-0.179
-589.938	-163.180	-0.268	0.013
-588.923	-200.000	-0.004	0.068
-587.909	20.978	0.368	0.303
-586.894	-92.539	-0.153	0.044
-585.879	510.538	-0.116	-0.275
-584.865	-124.260	-0.289	0.046
-583.850	39.938	0.121	-0.110
-582.836	800.000	0.054	0.213
-581.821	-21.335	-0.090	-0.056
-580.806	-200.000	-0.002	-0.033
-579.792	800.000	-0.060	0.170
-578.777	-18.051	-0.317	0.201
-577.763	-69.692	0.262	0.102
-576.748	-120.398	0.139	0.024
-575.733	-200.000	-0.031	0.185
-574.719	-83.280	-0.205	-0.067
-573.704	-52.988	-0.129	0.060
-572.690	-200.000	-0.031	-0.178
-571.675	-63.690	-0.127	-0.053
-570.661	-75.813	-0.289	0.104
-569.646	-148.133	-0.431	0.036
-568.631	-200.000	-0.057	0.319
-567.617	-1.012	-0.105	-0.075
-566.602	-15.245	0.127	0.083
-565.588	-154.407	0.242	0.016
-564.573	800.000	0.070	-0.232
-563.558	127.093	0.252	-0.325
-562.544	118.849	-0.119	-0.149
-561.529	-200.000	-0.036	0.394
-560.515	-34.983	-0.234	-0.129
-559.500	212.124	-0.090	0.143
-558.485	-27.442	0.226	0.133
-557.471	107.720	0.128	-0.155
-556.456	-171.082	0.418	0.014
-555.442	-103.520	0.261	-0.062
-554.427	800.000	0.051	0.186
-553.412	176.019	0.153	-0.225
-552.398	-136.842	-0.329	0.038
-551.383	-88.809	-0.113	0.034
-550.369	107.789	0.004	0.005
-549.354	-123.436	-0.374	0.060
-548.339	402.547	0.066	0.140
-547.325	85.569	0.203	-0.226
-546.310	67.160	0.220	-0.227
-545.296	420.691	-0.116	-0.252
-544.281	-200.000	-0.063	-0.371
-543.266	-105.017	-0.075	-0.017
-542.252	-37.114	-0.256	0.139
-541.237	27.050	0.259	-0.220
-540.223	-44.013	-0.141	-0.072
-539.208	-200.000	-0.016	-0.150
-538.193	-8.638	0.164	-0.112
-537.179	18.888	0.411	-0.334
-536.164	-91.369	-0.212	-0.061
-535.150	336.909	-0.085	-0.167
-534.135	-107.470	0.244	0.054
-533.121	122.106	0.108	0.137
-532.106	184.777	0.108	-0.162
-531.091	-150.176	0.399	-0.031
-530.077	-200.000	-0.028	-0.232
-529.062	48.065	-0.076	0.072
-528.048	-147.058	-0.168	-0.015
-527.033	-117.313	-0.125	-0.023
-526.018	-200.000	0.042	-0.281
-525.004	668.255	0.081	-0.213
-523.989	182.087	-0.041	-0.062
-522.975	-26.364	-0.163	-0.097
-521.960	800.000	-0.019	0.074
-520.945	183.820	0.054	-0.081
-519.931	-135.018	-0.116	0.014
-518.916	-99.109	-0.274	-0.070
-517.902	-32.827	0.151	0.085
-516.887	-114.954	0.139	0.027
-515.872	3.158	0.121	-0.089
-514.858	489.984	-0.123	0.284
-513.843	800.000	-0.037	0.130
-512.829	138.355	0.223	0.296
-511.814	55.814	-0.089	0.087
-510.799	-123.500	0.476	0.077
-509.785	-11.905	-0.304	0.202
-508.770	-135.825	-0.155	-0.019
-507.756	-200.000	0.004	0.094
-506.741	-52.238	0.290	0.136
-505.726	-43.784	-0.190	-0.097
-504.712	370.667	0.018	-0.037
-503.697	222.659	0.233	0.379
-502.683	415.450	0.031	0.066
-501.668	-92.907	-0.284	0.080
-500.653	-39.849	0.426	-0.225
-499.639	-200.000	-0.003	-0.248
-498.624	661.999	-0.027	-0.070
-497.610	-120.901	0.210	0.036
-496.595	800.000	0.081	0.292
-495.581	6.556	-0.303	0.228
-494.566	22.426	0.056	-0.047
-493.551	4.473	0.122	0.090
-492.537	11.375	-0.142	-0.110
-491.522	-200.000	0.001	0.259
-490.508	-124.832	-0.241	0.038
-489.493	-163.713	0.115	0.005
-488.478	-97.874	-0.234	-0.061
-487.464	734.690	0.033	0.090
-486.449	-31.522	-0.429	-0.244
-485.435	145.077	-0.114	0.154
-484.420	73.922	0.185	0.196
-483.405	-73.465	0.381	-0.141
-482.391	-200.000	-0.056	-0.378
-481.376	-75.162	-0.316	-0.114
-480.362	-47.494	0.255	-0.125
-479.347	-200.000	-0.001	-0.173
-478.332	-141.585	0.351	-0.036
-477.318	800.000	-0.056	-0.167
-476.303	-200.000	0.030	0.229
-475.289	-200.000	0.048	0.309
-474.274	144.088	-0.106	0.142
-473.259	-112.828	0.188	0.038
-472.245	800.000	-0.071	0.313
-471.230	800.000	-0.047	0.185
-470.216	-80.752	0.120	-0.040
-469.201	-75.829	0.200	0.072
-468.186	-121.666	0.294	0.049
-467.172	23.390	-0.204	-0.169
-466.157	-43.888	-0.356	-0.181
-465.143	-117.752	0.210	-0.038
-464.128	390.556	0.087	-0.182
-463.113	-93.174	0.188	-0.053
-462.099	36.741	0.269	-0.240
-461.084	-63.075	0.105	-0.044
-460.070	-68.275	0.247	0.097
-459.055	-187.991	0.321	-0.004
-458.040	324.342	-0.117	0.226
-457.026	-86.684	-0.245	0.076
-456.011	-78.439	-0.252	-0.087
-454.997	99.863	0.058	-0.068
-453.982	415.293	0.124	-0.267
-452.968	-72.006	-0.099	0.037
-451.953	353.432	-0.096	-0.192
-450.938	-200.000	0.043	-0.458
-449.924	215.904	0.170	-0.272
-448.909	-73.204	-0.355	-0.131
-447.895	44.892	-0.214	0.199
-446.880	-78.477	0.174	-0.060
-445.865	-200.000	-0.023	-0.107
-444.851	4.329	0.483	0.358
-443.836	-37.882	-0.153	-0.082
-442.822	241.886	0.107	0.181
-441.807	52.405	-0.158	0.152
-440.792	-200.000	-0.017	-0.193
-439.778	159.826	-0.193	-0.272
-438.763	607.558	0.028	-0.072
-437.749	-21.707	-0.252	-0.155
-436.734	237.701	-0.065	-0.109
-435.719	-151.704	-0.124	0.009
-434.705	-102.124	-0.252	-0.061
-433.690	117.929	0.189	-0.235
-432.676	-1.219	0.231	-0.165
-431.661	-200.000	-0.006	0.247
-430.646	96.514	-0.054	-0.062
-429.632	436.937	0.114	-0.251
-428.617	-200.000	0.018	0.106
-427.603	-122.664	-0.182	0.030
-426.588	184.627	0.231	-0.345
-425.573	-54.553	-0.209	0.095
-424.559	-146.603	0.180	-0.016
-423.544	-57.982	-0.032	0.014
-422.530	-27.561	0.264	0.155
-421.515	328.705	-0.110	0.213
-420.500	-110.108	-0.097	0.020
-419.486	-200.000	0.010	0.192
-418.471	-121.935	-0.017	0.003
-417.457	205.860	-0.185	0.290
-416.442	-95.830	0.365	0.098
-415.428	149.361	0.114	-0.156
-414.413	470.891	0.110	-0.249
-413.398	-96.343	-0.062	0.016
-412.384	16.495	-0.061	0.048
-411.369	-200.000	-0.018	0.173
-410.355	63.717	-0.411	0.416
-409.340	-113.949	0.153	0.030
-408.325	800.000	-0.066	0.280
-407.311	-200.000	0.036	0.269
-406.296	126.659	-0.178	-0.227
-405.282	-19.746	-0.084	0.053
-404.267	-90.582	0.146	-0.042
-403.252	-183.650	0.215	0.004
-402.238	543.458	0.148	-0.355
-401.223	-116.460	0.124	0.023
-400.209	-200.000	0.032	0.204
-399.194	449.546	-0.055	0.121
-398.179	-200.000	0.013	-0.205
-397.165	-200.000	0.031	-0.146
-396.150	-95.760	0.275	-0.074
-395.136	-200.000	-0.036	-0.307
-394.121	-200.000	-0.001	0.044
-393.106	118.801	0.205	0.255
-392.092	0.558	0.066	0.047
-391.077	31.671	0.003	0.003
-390.063	54.547	-0.060	-0.058
-389.048	-200.000	0.062	0.307
-388.033	800.000	0.093	-0.296
-387.019	-200.000	-0.008	-0.198
-386.004	-70.654	0.016	-0.006
-384.990	86.907	-0.046	0.051
-383.975	-37.287	0.360	0.194
-382.960	712.481	-0.073	-0.195
-381.946	-200.000	-0.017	-0.082
-380.931	-152.953	0.142	-0.010
-379.917	164.635	0.054	0.077
-378.902	-44.093	-0.223	-0.113
-377.888	-65.153	-0.080	-0.033
-376.873	-200.000	0.021	-0.223
-375.858	-137.051	0.141	-0.016
-374.844	234.741	0.191	0.317
-373.829	230.774	-0.117	0.192
-372.815	47.471	0.014	-0.013
-371.800	170.938	0.068	0.098
-370.785	-200.000	-0.020	-0.117
-369.771	800.000	-0.047	0.156
-368.756	74.885	-0.089	-0.094
-367.742	-200.000	-0.008	-0.147
-366.727	378.048	-0.183	0.377
-365.712	186.903	0.056	0.085
-364.698	-200.000	0.028	-0.334
-363.683	-151.029	-0.132	-0.010
-362.669	800.000	-0.063	0.228
-361.654	292.648	0.149	-0.273
-360.639	96.388	-0.047	-0.054
-359.625	-163.978	0.389	0.018
-358.610	-114.627	-0.135	-0.026
-357.596	71.586	-0.215	-0.225
-356.581	-46.445	-0.231	0.114
-355.566	-200.000	-0.030	-0.159
-354.552	336.123	0.101	-0.198
-353.537	-139.830	-0.496	-0.053
-352.523	-200.000	0.081	-0.446
-351.508	-200.000	0.054	-0.492
-350.493	-147.208	-0.050	0.004
-349.479	-122.645	-0.362	0.059
-348.464	-200.000	-0.000	-0.009
-347.450	-147.027	0.252	-0.022
-346.435	-200.000	-0.019	-0.244
-345.420	21.238	-0.100	0.081
-344.406	258.960	-0.107	-0.185
-343.391	33.480	-0.102	0.089
-342.377	-54.677	-0.106	0.048
-341.362	-45.734	-0.112	-0.056
-340.348	332.324	0.050	-0.096
-339.333	-0.414	-0.241	0.172
-338.318	800.000	0.077	-0.240
-337.304	263.086	-0.111	-0.193
-336.289	-172.140	-0.069	0.002
-335.275	226.951	-0.077	0.126
-334.260	-146.984	0.102	0.009
-333.245	-89.331	0.421	0.125
-332.231	-42.304	0.238	0.122
-331.216	-79.811	0.177	0.060
-330.202	800.000	0.049	0.153
-329.187	-95.081	0.240	0.065
-328.172	-183.888	0.069	-0.001
-327.158	-200.000	0.031	-0.311
-326.143	800.000	-0.042	-0.132
-325.129	62.003	-0.068	0.068
-324.114	89.690	-0.192	0.215
-323.099	-200.000	-0.035	-0.157
-322.085	246.810	0.078	-0.132
-321.070	43.376	-0.121	0.112
-320.056	-36.885	0.122	-0.066
-319.041	-200.000	0.011	-0.735
-318.026	127.156	0.117	-0.150
-317.012	-147.443	-0.069	0.006
-315.997	-87.298	0.009	-0.003
-314.983	162.822	-0.082	0.116
-313.968	538.528	-0.179	0.427
-312.953	60.636	0.202	-0.201
-311.939	348.032	-0.016	0.032
-310.924	91.890	0.123	0.139
-309.910	-200.000	-0.032	0.180
-308.895	9.968	0.199	-0.152
-307.880	303.135	0.045	0.084
-306.866	448.866	-0.142	0.314
-305.851	102.440	0.068	0.079
-304.837	800.000	-0.047	-0.186
-303.822	-109.226	-0.096	-0.020
-302.807	16.153	-0.129	0.102
-301.793	196.512	-0.131	-0.200
-300.778	-87.993	0.242	-0.073
-299.764	363.004	-0.099	0.200
-298.749	-200.000	0.007	0.184
-297.735	-8.263	-0.172	0.116
-296.720	28.435	0.091	-0.077
-295.705	49.618	0.321	0.304
-294.691	28.272	-0.151	-0.128
-293.676	800.000	-0.021	0.085
-292.662	60.192	-0.217	0.215
-291.647	-81.448	-0.616	-0.203
-290.632	-162.145	-0.147	0.007
-289.618	-200.000	0.034	-0.171
-288.603	800.000	-0.089	-0.312
-287.589	-136.344	-0.095	0.011
-286.574	-200.000	0.027	-0.136
-285.559	-200.000	0.032	0.156
-284.545	-200.000	0.136	0.000
-283.530	-124.990	0.225	-0.035
-282.516	-200.000	0.007	-0.176
-281.501	-198.629	0.025	-0.000
-280.486	-84.531	0.201	-0.064
-279.472	-32.308	-0.302	0.169
-278.457	-188.624	0.033	0.000
-277.443	800.000	0.041	0.143
-276.428	800.000	-0.141	-0.542
-275.413	101.301	0.278	0.325
-274.399	-6.906	-0.217	-0.148
-273.384	92.929	-0.144	0.163
-272.370	-61.914	-0.390	0.164
-271.355	800.000	0.076	-0.318
-270.340	97.923	0.105	0.121
-269.326	-174.450	-0.201	-0.006
-268.311	-56.931	0.633	0.280
-267.297	800.000	0.159	0.443
-266.282	-200.000	0.020	-0.246
-265.267	-200.000	-0.031	-0.155
-264.253	-66.350	0.167	-0.067
-263.238	-62.825	-0.419	-0.174
-262.224	-200.000	-0.027	-0.189
-261.209	-200.000	0.000	-0.207
-260.195	800.000	-0.079	0.327
-259.180	-88.672	0.300	-0.090
-258.165	29.197	0.086	-0.073
-257.151	-106.273	0.145	-0.033
-256.136	17.968	-0.025	0.020
-255.122	-179.663	0.136	-0.003
-254.107	282.121	-0.044	0.079
-253.092	-31.652	0.232	-0.130
-252.078	30.340	-0.180	-0.154
-251.063	28.816	0.185	0.157
-250.049	-200.000	0.019	0.416
-249.034	34.260	0.192	0.168
-248.019	251.698	0.237	0.403
-247.005	800.000	-0.034	-0.143
-245.990	-79.050	-0.113	0.038
-244.976	4.763	-0.395	-0.290
-243.961	393.032	0.189	-0.393
-242.946	-66.742	0.138	0.055
-241.932	82.647	0.309	0.336
-240.917	-40.918	0.224	0.116
-239.903	800.000	0.061	0.221
-238.888	-145.295	-0.284	0.026
-237.873	48.078	0.032	-0.030
-236.859	-116.465	0.221	-0.041
-235.844	-57.134	-0.153	-0.068
-234.830	108.799	-0.080	-0.096
-233.815	108.080	0.116	0.138
-232.800	-58.357	-0.107	-0.047
-231.786	390.679	-0.158	-0.328
-230.771	378.537	0.127	0.260
-229.757	-107.065	-0.145	0.032
-228.742	-64.573	0.234	0.095
-227.727	800.000	-0.021	0.091
-226.713	-76.885	-0.203	0.071
-225.698	-79.345	0.235	0.080
-224.684	37.255	-0.233	0.206
-223.669	-61.119	0.256	-0.108
-222.655	-141.561	-0.204	0.021
-221.640	-200.000	0.024	-0.196
-220.625	-9.993	-0.301	-0.200
-219.611	222.702	-0.129	-0.208
-218.596	-66.004	-0.182	0.073
-217.582	-200.000	0.010	0.379
-216.567	59.167	-0.060	0.059
-215.552	174.261	-0.145	0.210
-214.538	800.000	-0.103	0.360
-213.523	800.000	0.038	-0.134
-212.509	142.743	-0.041	0.055
-211.494	-27.905	-0.228	-0.132
-210.479	-200.000	-0.002	-0.061
-209.465	-191.194	0.242	0.002
-208.450	-83.267	-0.376	-0.121
-207.436	-97.998	0.247	0.064
-206.421	-65.267	-0.047	-0.019
-205.406	-162.841	-0.237	0.012
-204.392	-16.578	-0.149	0.094
-203.377	-44.700	-0.148	-0.074
-202.363	-110.172	0.286	-0.060
-201.348	87.820	0.277	0.307
-200.333	-81.342	0.214	-0.071
-199.319	521.068	0.142	0.332
-198.304	-200.000	-0.034	-0.242
-197.290	-200.000	0.008	-0.115
-196.275	-200.000	0.022	0.145
-195.260	-94.584	0.126	0.034
-194.246	-200.000	0.025	-0.205
-193.231	-21.819	-0.161	-0.098
-192.217	706.296	0.051	0.134
-191.202	-4.425	-0.320	0.221
-190.187	-181.461	0.189	-0.004
-189.173	249.403	0.234	0.396
-188.158	-23.596	-0.235	-0.141
-187.144	-200.000	-0.022	-0.327
-186.129	-83.983	0.245	-0.078
-185.114	-200.000	-0.008	-0.037
-184.100	142.370	-0.215	0.286
-183.085	-53.352	-0.315	0.144
-182.071	-6.879	0.411	-0.279
-181.056	800.000	-0.016	-0.070
-180.042	95.384	-0.099	0.113
-179.027	800.000	0.049	0.166
-178.012	-4.520	0.141	-0.097
-176.998	-113.506	-0.235	0.046
-175.983	800.000	0.040	0.170
-174.969	243.414	0.143	0.240
-173.954	-151.265	0.149	-0.011
-172.939	-14.609	-0.091	-0.058
-171.925	800.000	-0.127	0.394
-170.910	-126.487	0.236	-0.035
-169.896	127.819	0.207	0.262
-168.881	-26.135	0.127	-0.074
-167.866	-200.000	-0.016	-0.285
-166.852	446.417	0.035	-0.077
-165.837	708.246	-0.056	-0.147
-164.823	800.000	0.066	0.240
-163.808	73.417	-0.108	-0.113
-162.793	-110.275	-0.129	-0.027
-161.779	-98.241	0.213	0.055
-160.764	-11.454	-0.144	0.094
-159.750	109.672	0.143	-0.171
-158.735	273.279	-0.066	0.117
-157.720	-36.038	-0.225	-0.121
-156.706	800.000	0.151	0.513
-155.691	800.000	-0.058	0.176
-154.677	-34.347	0.118	0.065
-153.662	800.000	0.013	-0.050
-152.647	57.661	-0.118	0.115
-151.633	174.789	0.131	-0.190
-150.618	468.140	0.088	0.197
-149.604	-200.000	0.059	0.296
-148.589	63.602	0.243	0.243
-147.574	-200.000	0.019	0.240
-146.560	-118.975	-0.035	0.006
-145.545	-30.129	-0.298	-0.169
-144.531	128.628	0.103	-0.131
-143.516	157.850	-0.145	-0.200
-142.502	43.459	0.204	0.186
-141.487	800.000	-0.143	0.449
-140.472	-200.000	0.011	0.141
-139.458	53.905	0.178	0.171
-138.443	-193.184	-0.316	0.003
-137.429	174.471	-0.066	-0.096
-136.414	-28.952	-0.024	-0.014
-135.399	80.072	-0.399	0.428
-134.385	720.606	-0.166	0.441
-133.370	-27.384	0.085	-0.049
-132.356	-123.146	0.034	0.005
-131.341	81.426	0.046	-0.049
-130.326	-34.868	-0.161	0.088
-129.312	-77.247	-0.151	-0.052
-128.297	536.009	0.042	-0.100
-127.283	256.759	0.242	-0.414
-126.268	-71.365	0.302	-0.113
-125.253	558.343	-0.147	-0.353
-124.239	6.581	-0.072	-0.053
-123.224	238.982	-0.133	0.221
-122.210	1.334	0.153	-0.110
