DTS Sentinel unit serial number:	SN413079Multiplexer serial number:	ORYXHardware model number:	OX4-SRSoftware version number:	ORYX F/W v4.00 Oryx Data Collector v3.7.2.0data status	okinstallation	princeton_trtdifferential loss correction	single-endedforward channel	channel 4reverse channel	N/Adate	2019/09/15time	06:41:35forward acquisition time	60.00reverse acquisition time	0.00gamma	496.2192k internal	0.2312k external	0.2312temperature offset calibration	1.0030default loss term (dB/km)	0.3790temperature slope calibration	1.0000multiplexer offset coefficient	1.0000multiplexer slope coefficient	1.0000fibre end	0.00T internal ref (°C)	30.50T ext. ref 1 (°C)	4.80T ext. ref 2 (°C)	25.44length (m)	temperature (°C)	Stokes	anti-Stokes-747.200	184.289	-0.030	-0.045
-746.185	-92.117	-0.256	0.073
-745.171	-126.194	0.194	0.029
-744.156	276.341	0.144	0.260
-743.142	25.558	-0.090	0.076
-742.127	125.762	-0.211	0.270
-741.112	164.695	-0.114	0.163
-740.098	-39.878	-0.413	0.219
-739.083	10.550	-0.220	-0.170
-738.069	124.731	-0.129	0.164
-737.054	-71.646	-0.341	-0.129
-736.039	285.082	-0.053	0.098
-735.025	14.283	-0.081	0.064
-734.010	-0.716	-0.184	-0.132
-732.996	124.422	0.177	0.225
-731.981	407.238	-0.197	0.423
-730.966	-82.163	-0.498	-0.165
-729.952	618.853	-0.080	-0.205
-728.937	141.473	0.171	0.229
-727.923	800.000	-0.098	-0.299
-726.908	-33.615	0.155	0.087
-725.894	-83.364	0.299	0.097
-724.879	-73.741	0.145	0.053
-723.864	130.402	-0.079	-0.103
-722.850	47.130	-0.204	-0.193
-721.835	-142.003	-0.220	-0.022
-720.821	-94.752	0.160	0.044
-719.806	26.828	-0.136	0.116
-718.791	-182.243	-0.309	0.006
-717.777	105.632	-0.194	-0.233
-716.762	-200.000	0.010	0.237
-715.748	-200.000	-0.000	0.069
-714.733	201.654	-0.152	-0.238
-713.718	-5.585	0.275	-0.191
-712.704	-72.209	-0.093	0.035
-711.689	229.469	0.221	0.365
-710.675	800.000	-0.054	-0.240
-709.660	-122.850	0.232	-0.038
-708.645	-200.000	0.122	-0.645
-707.631	-200.000	0.019	-0.156
-706.616	-200.000	-0.006	-0.067
-705.602	197.273	0.172	-0.266
-704.587	-102.226	-0.266	0.065
-703.572	-126.825	-0.233	-0.035
-702.558	-146.537	0.174	0.015
-701.543	59.619	-0.304	-0.304
-700.529	13.880	-0.259	-0.204
-699.514	-128.830	-0.099	0.014
-698.499	800.000	-0.033	0.114
-697.485	-200.000	-0.022	0.214
-696.470	-95.321	0.177	-0.048
-695.456	-200.000	0.033	0.257
-694.441	800.000	0.016	-0.051
-693.426	-124.464	-0.338	-0.053
-692.412	411.540	-0.097	-0.208
-691.397	-110.073	-0.241	-0.051
-690.383	-111.979	0.084	-0.017
-689.368	0.318	-0.073	-0.053
-688.354	384.036	0.145	-0.302
-687.339	46.995	-0.077	-0.073
-686.324	-17.121	0.194	-0.124
-685.310	99.891	-0.162	-0.190
-684.295	-112.827	0.065	-0.013
-683.281	32.142	-0.215	-0.187
-682.266	272.780	0.102	-0.182
-681.251	179.611	0.152	-0.226
-680.237	-56.081	-0.139	-0.063
-679.222	800.000	0.066	0.242
-678.208	44.020	-0.055	0.051
-677.193	-61.879	0.216	-0.091
-676.178	-164.680	-0.171	-0.008
-675.164	138.969	0.126	0.167
-674.149	198.135	-0.165	-0.255
-673.135	-200.000	-0.028	0.226
-672.120	565.450	0.129	-0.316
-671.105	-139.948	0.140	-0.015
-670.091	322.953	-0.099	-0.190
-669.076	800.000	-0.030	0.133
-668.062	800.000	0.025	-0.091
-667.047	-152.570	-0.206	0.015
-666.032	92.647	-0.180	-0.205
-665.018	-140.124	-0.239	-0.025
-664.003	-200.000	-0.176	0.853
-662.989	-200.000	0.044	0.255
-661.974	-200.000	-0.046	0.263
-660.959	-178.437	0.180	-0.004
-659.945	-69.251	-0.185	0.072
-658.930	-106.427	0.278	-0.063
-657.916	307.437	-0.119	0.224
-656.901	-200.000	0.017	-0.152
-655.886	-200.000	0.060	-0.367
-654.872	-29.206	0.222	0.128
-653.857	-166.623	-0.292	-0.012
-652.843	257.685	-0.131	-0.227
-651.828	-13.511	-0.255	-0.167
-650.814	-170.944	-0.118	0.004
-649.799	332.501	-0.049	0.095
-648.784	-97.550	0.023	0.006
-647.770	189.941	-0.057	-0.086
-646.755	-65.074	-0.037	-0.015
-645.741	-58.292	-0.181	-0.080
-644.726	-200.000	0.016	-0.201
-643.711	-107.114	0.210	0.047
-642.697	54.317	0.126	0.123
-641.682	-131.034	-0.220	0.030
-640.668	-160.535	-0.361	-0.020
-639.653	201.845	-0.206	-0.321
-638.638	66.950	-0.084	-0.087
-637.624	24.752	0.154	0.129
-636.609	164.646	0.077	-0.110
-635.595	-59.424	0.170	0.074
-634.580	42.290	-0.237	-0.217
-633.565	-200.000	-0.012	-0.141
-632.551	-157.508	-0.280	0.017
-631.536	-200.000	0.000	-0.247
-630.522	800.000	0.079	-0.336
-629.507	21.984	0.047	0.039
-628.492	-43.454	0.284	-0.145
-627.478	-165.233	0.172	-0.008
-626.463	67.756	-0.054	-0.055
-625.449	-87.562	0.083	0.025
-624.434	-132.654	0.148	0.019
-623.419	-3.815	-0.088	0.061
-622.405	-200.000	-0.032	-0.297
-621.390	-24.904	-0.215	0.129
-620.376	-38.026	0.122	-0.066
-619.361	-24.669	-0.086	-0.051
-618.346	-72.211	-0.303	0.113
-617.332	800.000	0.044	0.129
-616.317	-200.000	-0.023	0.106
-615.303	800.000	0.036	0.117
-614.288	800.000	0.055	0.193
-613.273	-146.962	0.062	0.005
-612.259	-72.767	-0.313	-0.116
-611.244	141.272	0.170	0.227
-610.230	180.373	-0.112	-0.165
-609.215	-163.493	-0.184	0.009
-608.201	800.000	0.036	0.102
-607.186	-85.303	-0.203	0.064
-606.171	-95.003	-0.232	0.063
-605.157	-66.829	0.081	-0.032
-604.142	-73.593	0.215	0.079
-603.128	-183.654	0.244	0.004
-602.113	-129.236	-0.177	-0.025
-601.098	-71.720	-0.047	-0.018
-600.084	-200.000	0.023	0.156
-599.069	739.540	-0.037	0.100
-598.055	-86.939	0.261	0.080
-597.040	-36.791	0.254	0.137
-596.025	103.835	0.280	-0.332
-595.011	800.000	0.009	-0.039
-593.996	-119.700	-0.171	0.030
-592.982	-137.487	0.464	0.053
-591.967	-164.738	-0.158	0.007
-590.952	-156.179	0.183	0.012
-589.938	-200.000	0.022	0.310
-588.923	-4.713	-0.147	0.102
-587.909	167.010	-0.085	-0.121
-586.894	203.044	-0.175	0.272
-585.879	800.000	0.042	-0.119
-584.865	74.094	-0.148	0.157
-583.850	299.912	-0.063	0.117
-582.836	-110.854	-0.361	-0.075
-581.821	-67.113	-0.287	-0.114
-580.806	127.319	0.160	-0.205
-579.792	-200.000	0.004	-0.388
-578.777	-200.000	-0.028	-0.128
-577.763	-125.207	0.262	-0.040
-576.748	53.725	-0.184	0.178
-575.733	-160.228	-0.146	0.008
-574.719	253.609	0.128	-0.220
-573.704	176.737	0.063	-0.092
-572.690	-88.026	0.047	-0.014
-571.675	-128.583	-0.460	0.066
-570.661	-24.531	0.104	-0.062
-569.646	778.195	0.047	-0.129
-568.631	8.303	0.296	-0.225
-567.617	-114.934	-0.263	0.051
-566.602	-55.403	-0.123	0.056
-565.588	-29.888	-0.077	0.044
-564.573	-56.603	-0.115	-0.051
-563.558	422.444	-0.048	0.104
-562.544	33.942	0.099	0.087
-561.529	190.161	0.139	0.210
-560.515	-10.174	-0.214	0.143
-559.500	100.683	-0.144	0.169
-558.485	-140.289	-0.055	0.006
-557.471	-71.726	-0.196	-0.074
-556.456	-79.709	-0.340	0.116
-555.442	-200.000	-0.012	-0.058
-554.427	234.216	-0.092	0.153
-553.412	-100.918	0.346	0.086
-552.398	-153.145	-0.415	0.029
-551.383	74.800	0.158	-0.168
-550.369	-66.676	0.195	-0.078
-549.354	268.483	0.208	0.368
-548.339	286.292	0.125	0.227
-547.325	-200.000	-0.016	-0.093
-546.310	-89.435	-0.135	-0.040
-545.296	800.000	-0.114	-0.329
-544.281	-200.000	0.014	0.274
-543.266	83.767	0.095	-0.105
-542.252	-200.000	-0.004	-0.325
-541.237	-37.921	-0.309	-0.165
-540.223	-54.725	0.177	0.080
-539.208	-200.000	-0.035	-0.327
-538.193	171.630	-0.075	0.109
-537.179	-128.446	0.222	-0.032
-536.164	-200.000	-0.019	-0.269
-535.150	-176.216	-0.363	0.010
-534.135	800.000	0.137	0.381
-533.121	800.000	-0.042	-0.171
-532.106	-40.331	0.073	-0.038
-531.091	31.398	-0.190	-0.164
-530.077	-200.000	-0.101	-0.503
-529.062	800.000	0.047	0.155
-528.048	-32.559	-0.194	-0.109
-527.033	427.291	-0.044	-0.096
-526.018	109.559	-0.141	0.170
-525.004	160.407	0.173	0.243
-523.989	796.833	-0.109	-0.301
-522.975	-88.255	0.095	0.029
-521.960	1.840	-0.179	0.130
-520.945	23.034	-0.115	0.095
-519.931	-200.000	-0.011	0.163
-518.916	-10.173	-0.227	-0.152
-517.902	429.454	-0.142	0.309
-516.887	-200.000	-0.001	-0.129
-515.872	537.105	-0.077	-0.185
-514.858	-143.657	0.455	-0.043
-513.843	-200.000	-0.053	-0.361
-512.829	-200.000	-0.004	0.075
-511.814	227.106	-0.044	0.071
-510.799	-110.279	0.387	0.081
-509.785	-124.790	0.395	0.061
-508.770	-51.553	-0.281	0.132
-507.756	310.259	-0.045	-0.084
-506.741	800.000	-0.024	0.084
-505.726	-138.573	-0.246	-0.027
-504.712	-108.907	-0.304	0.065
-503.697	-200.000	-0.046	0.465
-502.683	-81.571	-0.107	0.035
-501.668	112.068	0.147	-0.179
-500.653	-71.980	-0.273	-0.102
-499.639	314.993	0.087	-0.164
-498.624	268.248	-0.094	-0.165
-497.610	-8.426	-0.254	-0.172
-496.595	-200.000	-0.030	-0.150
-495.581	-34.611	0.124	0.068
-494.566	-50.073	-0.108	0.052
-493.551	66.267	-0.076	-0.078
-492.537	-148.908	-0.094	-0.008
-491.522	-48.324	-0.175	-0.085
-490.508	-200.000	0.003	-0.032
-489.493	150.418	0.030	-0.040
-488.478	-95.849	-0.257	-0.069
-487.464	77.885	0.222	0.238
-486.449	-124.762	0.134	0.021
-485.435	-200.000	-0.008	0.064
-484.420	242.893	0.169	0.284
-483.405	266.429	0.130	-0.228
-482.391	-34.476	-0.206	-0.114
-481.376	-136.316	-0.507	-0.059
-480.362	500.143	-0.168	-0.388
-479.347	-200.000	-0.011	-0.254
-478.332	-125.921	0.197	0.030
-477.318	-111.596	-0.322	0.066
-476.303	103.319	-0.157	0.185
-475.289	204.728	0.181	-0.282
-474.274	62.675	-0.209	0.210
-473.259	105.066	-0.221	0.262
-472.245	237.277	0.100	-0.167
-471.230	-200.000	-0.005	-0.150
-470.216	407.176	0.182	-0.386
-469.201	-200.000	-0.018	-0.107
-468.186	1.246	0.231	0.166
-467.172	-200.000	0.008	-0.342
-466.157	-133.373	0.244	0.031
-465.143	800.000	-0.079	-0.255
-464.128	597.888	0.172	-0.429
-463.113	-153.520	0.097	-0.007
-462.099	71.777	-0.088	0.092
-461.084	-97.791	-0.125	-0.032
-460.070	8.641	0.159	-0.120
-459.055	-105.237	0.119	0.027
-458.040	508.217	0.052	0.120
-457.026	101.760	0.124	0.145
-456.011	-113.031	0.253	-0.050
-454.997	-200.000	0.008	0.162
-453.982	-152.974	-0.485	0.034
-452.968	-13.276	0.379	0.247
-451.953	-174.851	0.271	-0.008
-450.938	-49.495	-0.255	0.122
-449.924	-114.653	0.178	0.034
-448.909	505.547	0.143	0.333
-447.895	341.957	0.066	0.130
-446.880	-200.000	-0.007	-0.161
-445.865	-81.010	0.294	0.098
-444.851	-200.000	0.030	-0.162
-443.836	-38.151	-0.079	0.042
-442.822	-115.809	0.168	-0.032
-441.807	-200.000	-0.021	0.102
-440.792	200.772	0.215	-0.332
-439.778	-200.000	0.027	-0.351
-438.763	-200.000	0.003	-0.041
-437.749	800.000	0.056	0.162
-436.734	-56.352	0.221	0.098
-435.719	-200.000	-0.016	0.094
-434.705	800.000	-0.012	0.047
-433.690	-88.685	0.355	0.106
-432.676	-116.135	0.121	0.023
-431.661	-200.000	0.043	-0.313
-430.646	-23.314	-0.193	-0.116
-429.632	800.000	-0.052	-0.178
-428.617	-94.443	0.050	0.014
-427.603	-200.000	-0.020	-0.384
-426.588	800.000	0.078	-0.229
-425.573	153.509	0.084	-0.115
-424.559	-104.656	-0.264	0.061
-423.544	-52.318	0.148	0.069
-422.530	-200.000	-0.039	-0.340
-421.515	304.185	-0.071	0.131
-420.500	101.646	0.193	0.226
-419.486	-130.017	0.204	0.028
-418.471	-200.000	-0.007	-0.203
-417.457	-103.271	-0.397	0.094
-416.442	-200.000	-0.012	-0.138
-415.428	800.000	-0.033	-0.125
-414.413	800.000	0.061	-0.246
-413.398	-200.000	-0.051	-0.280
-412.384	-28.143	-0.213	-0.123
-411.369	116.227	0.311	-0.382
-410.355	-200.000	-0.019	-0.196
-409.340	-167.837	-0.239	-0.009
-408.325	-102.004	0.380	-0.092
-407.311	43.952	-0.230	0.211
-406.296	800.000	0.049	0.194
-405.282	-67.411	0.117	0.046
-404.267	-200.000	0.501	-0.001
-403.252	-81.854	0.361	-0.118
-402.238	800.000	-0.096	0.320
-401.223	442.870	-0.151	0.332
-400.209	169.055	0.112	-0.160
-399.194	225.976	0.147	0.239
-398.179	800.000	0.043	0.185
-397.165	-118.148	-0.183	-0.033
-396.150	128.320	0.073	0.093
-395.136	375.562	0.079	0.161
-394.121	16.200	-0.295	0.233
-393.106	-200.000	-0.015	0.183
-392.092	-200.000	0.026	0.276
-391.077	-25.905	0.310	0.183
-390.063	-128.787	-0.115	0.016
-389.048	90.370	-0.327	0.367
-388.033	800.000	0.046	0.189
-387.019	147.719	-0.027	-0.037
-386.004	6.634	0.158	0.118
-384.990	279.755	0.039	0.070
-383.975	323.107	-0.137	-0.262
-382.960	-89.413	-0.218	0.064
-381.946	79.731	0.194	-0.209
-380.931	134.931	-0.102	0.132
-379.917	129.194	0.063	-0.080
-378.902	32.826	0.186	-0.161
-377.888	86.820	0.196	0.217
-376.873	-87.575	-0.061	-0.018
-375.858	-136.643	0.270	-0.031
-374.844	-49.920	-0.345	-0.164
-373.829	390.944	-0.069	0.144
-372.815	207.684	-0.256	0.400
-371.800	-200.000	0.003	0.126
-370.785	176.818	-0.028	-0.041
-369.771	-57.108	0.245	-0.108
-368.756	-200.000	-0.013	0.291
-367.742	-39.598	-0.350	0.183
-366.727	14.187	0.195	0.152
-365.712	-65.568	-0.183	-0.073
-364.698	576.383	-0.128	0.312
-363.683	-200.000	0.014	0.228
-362.669	71.518	-0.266	0.276
-361.654	179.608	0.116	0.171
-360.639	-57.724	0.099	0.043
-359.625	-8.193	0.122	0.082
-358.610	800.000	0.079	0.311
-357.596	800.000	-0.023	-0.094
-356.581	74.871	-0.208	-0.219
-355.566	282.132	0.100	-0.178
-354.552	-12.309	0.143	0.093
-353.537	800.000	0.065	0.224
-352.523	130.786	0.154	-0.197
-351.508	-12.947	0.072	0.047
-350.493	-81.001	0.079	-0.026
-349.479	-35.111	-0.182	-0.099
-348.464	401.103	0.026	0.054
-347.450	27.475	-0.150	0.126
-346.435	-50.598	0.351	0.165
-345.420	800.000	0.023	0.071
-344.406	-200.000	-0.028	-0.188
-343.391	25.465	0.070	-0.058
-342.377	41.924	0.163	0.147
-341.362	-200.000	0.007	-0.032
-340.348	-23.984	-0.102	0.061
-339.333	-200.000	-0.024	-0.213
-338.318	235.684	-0.038	-0.062
-337.304	18.332	0.357	-0.285
-336.289	-200.000	0.038	-0.327
-335.275	-80.594	-0.221	-0.074
-334.260	-53.630	0.101	0.046
-333.245	700.277	0.080	-0.209
-332.231	235.488	-0.091	-0.149
-331.216	800.000	-0.038	-0.128
-330.202	-52.944	-0.135	-0.062
-329.187	102.622	-0.158	-0.184
-328.172	150.597	0.131	-0.178
-327.158	-32.014	-0.020	0.011
-326.143	85.288	0.123	0.135
-325.129	189.069	-0.151	-0.226
-324.114	263.423	0.096	0.166
-323.099	61.851	0.148	-0.147
-322.085	-182.823	0.078	-0.001
-321.070	-193.128	0.411	-0.004
-320.056	93.208	0.208	0.234
-319.041	-99.945	-0.130	-0.032
-318.026	800.000	-0.046	-0.185
-317.012	800.000	0.059	-0.229
-315.997	90.194	-0.107	-0.120
-314.983	-200.000	-0.034	0.189
-313.968	255.575	0.085	0.145
-312.953	427.123	-0.121	0.260
-311.939	310.170	0.039	0.073
-310.924	-200.000	0.003	0.047
-309.910	-37.260	-0.189	-0.101
-308.895	-133.013	-0.263	0.033
-307.880	-200.000	-0.028	-0.260
-306.866	417.520	0.057	-0.122
-305.851	-200.000	0.051	-0.226
-304.837	-84.596	0.431	0.136
-303.822	486.078	-0.061	0.139
-302.807	-200.000	0.005	0.129
-301.793	-62.170	-0.297	-0.123
-300.778	-109.893	0.266	0.056
-299.764	-143.754	-0.199	0.019
-298.749	800.000	-0.034	0.098
-297.735	-8.157	0.299	0.201
-296.720	-34.862	0.328	-0.179
-295.705	-126.023	-0.281	-0.042
-294.691	414.462	-0.067	0.142
-293.676	-126.340	-0.175	-0.026
-292.662	-138.287	-0.209	-0.023
-291.647	142.734	0.168	0.222
-290.632	53.882	-0.224	-0.215
-289.618	13.023	-0.188	-0.145
-288.603	-101.592	0.236	-0.057
-287.589	800.000	-0.082	0.295
-286.574	-172.239	-0.147	-0.005
-285.559	-200.000	-0.011	0.201
-284.545	81.719	0.127	0.137
-283.530	66.819	-0.360	0.366
-282.516	-200.000	-0.005	0.155
-281.501	-157.133	0.031	-0.002
-280.486	13.951	-0.142	0.110
-279.472	800.000	-0.071	-0.309
-278.457	-130.537	0.177	-0.024
-277.443	-97.078	-0.170	-0.044
-276.428	108.124	-0.160	0.191
-275.413	157.614	-0.126	0.174
-274.399	129.199	-0.135	0.172
-273.384	-80.242	0.326	0.109
-272.370	92.509	-0.062	-0.070
-271.355	-83.879	0.470	-0.149
-270.340	100.580	0.256	0.297
-269.326	-138.360	0.379	0.042
-268.311	70.103	-0.170	0.175
-267.297	253.510	-0.060	0.101
-266.282	-95.318	-0.368	-0.099
-265.267	-93.508	-0.090	-0.025
-264.253	-109.236	-0.475	0.101
-263.238	800.000	0.086	-0.290
-262.224	238.873	-0.156	0.259
-261.209	-85.921	0.234	0.072
-260.195	800.000	0.070	-0.193
-259.180	222.314	0.156	-0.250
-258.165	-200.000	-0.010	-0.157
-257.151	-10.598	0.099	0.065
-256.136	-150.869	0.605	-0.046
-255.122	-90.011	-0.230	-0.067
-254.107	-45.522	0.173	-0.085
-253.092	460.136	0.137	-0.303
-252.078	-200.000	-0.010	-0.102
-251.063	-26.304	-0.297	-0.173
-250.049	178.962	0.153	-0.223
-249.034	-37.990	0.175	-0.093
-248.019	-27.773	-0.128	-0.074
-247.005	-63.198	-0.080	0.033
-245.990	119.062	-0.108	0.133
-244.976	-14.244	0.274	0.175
-243.961	-7.979	0.078	0.052
-242.946	556.063	-0.142	0.341
-241.932	-62.304	0.265	-0.110
-240.917	-200.000	-0.001	0.396
-239.903	24.987	-0.110	-0.091
-238.888	800.000	-0.030	0.114
-237.873	114.164	-0.064	0.078
-236.859	-200.000	0.010	-0.185
-235.844	571.847	0.133	-0.323
-234.830	151.611	0.255	0.345
-233.815	49.551	-0.139	0.131
-232.800	-200.000	-0.001	0.084
-231.786	72.404	0.106	0.110
-230.771	-3.440	-0.231	0.160
-229.757	-33.792	0.238	0.130
-228.742	-151.521	0.283	0.021
-227.727	-28.235	-0.320	0.184
-226.713	272.332	0.145	-0.254
-225.698	21.025	0.124	-0.100
-224.684	-7.026	-0.139	0.094
-223.669	-10.799	0.195	0.128
-222.655	27.115	0.264	-0.221
-221.640	126.072	-0.098	0.124
-220.625	-2.575	-0.344	0.239
-219.611	383.389	-0.131	0.267
-218.596	42.347	-0.020	-0.018
-217.582	-58.099	-0.185	-0.080
-216.567	86.809	-0.103	-0.113
-215.552	-200.000	0.010	-0.315
-214.538	-200.000	-0.041	-0.310
-213.523	-72.044	0.039	0.014
-212.509	-56.543	-0.151	-0.067
-211.494	-200.000	-0.027	-0.130
-210.479	-95.845	0.310	-0.082
-209.465	587.496	-0.121	0.296
-208.450	-123.083	-0.232	-0.037
-207.436	249.009	0.076	0.128
-206.421	-200.000	0.000	0.138
-205.406	-163.235	-0.307	-0.015
-204.392	-200.000	-0.006	-0.162
-203.377	-200.000	0.038	-0.180
-202.363	469.752	-0.073	-0.164
-201.348	-104.975	0.434	0.099
-200.333	-200.000	0.020	0.106
-199.319	267.277	-0.072	-0.125
-198.304	27.855	-0.142	-0.118
-197.290	800.000	0.028	0.098
-196.275	800.000	0.025	0.108
-195.260	-59.377	-0.106	-0.045
-194.246	-122.874	-0.137	-0.022
-193.231	-189.119	0.318	0.004
-192.217	-123.958	0.323	0.051
-191.202	-15.348	-0.344	0.218
-190.187	168.934	0.047	-0.066
-189.173	53.860	-0.127	-0.122
-188.158	800.000	0.086	0.296
-187.144	-11.236	-0.129	-0.084
-186.129	-3.139	-0.315	0.218
-185.114	-200.000	0.048	0.237
-184.100	800.000	-0.065	0.201
-183.085	694.266	-0.015	-0.039
-182.071	16.303	0.280	0.219
-181.056	74.036	-0.396	-0.413
-180.042	-28.859	0.112	0.064
-179.027	-87.431	-0.074	0.022
-178.012	-200.000	-0.024	0.109
-176.998	197.664	-0.083	0.126
-175.983	622.819	0.054	0.135
-174.969	-200.000	0.033	-0.160
-173.954	-118.454	-0.167	-0.029
-172.939	-52.919	0.191	0.087
-171.925	-200.000	0.013	-0.068
-170.910	401.603	-0.056	-0.116
-169.896	317.509	0.098	0.183
-168.881	39.648	-0.274	-0.244
-167.866	-84.601	0.192	-0.060
-166.852	-86.169	0.025	0.008
-165.837	-89.762	-0.089	-0.026
-164.823	-151.963	-0.136	0.010
-163.808	115.866	0.214	-0.259
-162.793	264.433	-0.248	0.428
-161.779	-200.000	0.014	0.084
-160.764	-200.000	0.016	0.076
-159.750	-161.957	-0.265	-0.013
-158.735	-78.487	0.279	-0.095
-157.720	-7.480	0.320	-0.214
-156.706	-119.958	0.097	-0.017
-155.691	-13.739	0.146	0.094
-154.677	-154.113	0.218	-0.015
-153.662	-124.056	0.383	-0.060
-152.647	92.201	0.202	0.225
-151.633	-107.345	0.156	0.034
-150.618	-200.000	0.038	-0.211
-149.604	-71.049	0.096	-0.036
-148.589	-63.945	-0.145	0.059
-147.574	-134.972	-0.120	0.014
-146.560	-88.148	-0.438	-0.130
-145.545	114.497	-0.100	0.121
-144.531	-200.000	0.008	-0.118
-143.516	-4.078	0.171	-0.117
-142.502	-106.211	0.162	0.036
-141.487	-170.782	0.102	0.003
-140.472	-91.578	-0.445	-0.126
-139.458	-66.666	-0.106	0.042
-138.443	2.863	0.045	-0.032
-137.429	-200.000	-0.027	-0.309
-136.414	-200.000	0.048	0.213
-135.399	1.656	-0.299	-0.213
-134.385	-200.000	-0.007	-0.177
-133.370	101.904	-0.097	-0.112
-132.356	196.930	-0.111	-0.168
-131.341	-96.274	0.103	-0.027
-130.326	375.147	0.180	-0.363
-129.312	-200.000	0.008	0.293
-128.297	-78.654	0.035	-0.012
-127.283	786.066	-0.080	0.216
-126.268	493.675	-0.066	0.149
-125.253	-200.000	0.063	-0.336
-124.239	215.636	0.060	0.094
-123.224	219.856	-0.081	-0.129
