DTS Sentinel unit serial number:	SN413079Multiplexer serial number:	ORYXHardware model number:	OX4-SRSoftware version number:	ORYX F/W v4.00 Oryx Data Collector v3.7.2.0data status	okinstallation	princeton_trtdifferential loss correction	single-endedforward channel	channel 4reverse channel	N/Adate	2019/09/12time	18:42:18forward acquisition time	15.00reverse acquisition time	0.00gamma	496.2192k internal	0.2307k external	0.2307temperature offset calibration	1.0133default loss term (dB/km)	0.3790temperature slope calibration	1.0000multiplexer offset coefficient	1.0000multiplexer slope coefficient	1.0000fibre end	0.00T internal ref (°C)	33.06T ext. ref 1 (°C)	2.94T ext. ref 2 (°C)	27.57length (m)	temperature (°C)	Stokes	anti-Stokes-747.200	-19.529	-0.194	0.122
-746.185	800.000	-0.242	-0.766
-745.171	800.000	0.060	-0.186
-744.156	160.495	-0.387	-0.549
-743.142	-79.794	1.056	-0.361
-742.127	68.596	-0.630	0.657
-741.112	51.534	-0.319	0.308
-740.098	-113.657	-0.758	0.150
-739.083	-170.994	0.826	0.029
-738.069	-61.129	-0.506	-0.217
-737.054	50.251	0.183	0.176
-736.039	-200.000	0.047	-0.213
-735.025	53.640	-0.432	-0.422
-734.010	-150.022	-0.067	-0.005
-732.996	-200.000	-0.067	0.438
-731.981	-83.790	-0.546	-0.177
-730.966	655.442	0.213	-0.557
-729.952	-200.000	0.007	0.448
-728.937	94.403	-0.310	-0.358
-727.923	-37.819	-0.592	0.320
-726.908	-140.029	0.374	-0.040
-725.894	-87.543	-0.491	0.151
-724.879	-14.324	0.220	0.144
-723.864	-151.321	-0.545	-0.041
-722.850	63.783	0.204	-0.208
-721.835	-89.040	0.961	-0.289
-720.821	-71.304	-0.246	0.094
-719.806	-96.203	-0.650	-0.175
-718.791	-67.859	0.393	-0.156
-717.777	-200.000	0.075	-0.617
-716.762	800.000	-0.237	0.699
-715.748	-56.358	-0.858	-0.387
-714.733	270.827	0.162	-0.289
-713.718	-40.734	-0.872	-0.459
-712.704	800.000	-0.236	0.889
-711.689	-40.971	0.566	0.297
-710.675	-40.846	0.245	-0.129
-709.660	242.954	-0.372	-0.632
-708.645	726.119	0.304	-0.824
-707.631	800.000	0.189	0.602
-706.616	-69.474	0.711	-0.277
-705.602	-126.170	-0.817	0.124
-704.587	-36.639	-0.219	-0.119
-703.572	-134.651	-0.562	-0.069
-702.558	-86.712	0.719	-0.223
-701.543	-125.769	-0.550	0.084
-700.529	365.282	0.322	-0.659
-699.514	-0.814	0.086	0.062
-698.499	-200.000	-0.057	-0.472
-697.485	-152.815	-0.396	0.028
-696.470	-87.027	0.168	-0.052
-695.456	359.532	-0.258	0.523
-694.441	-200.000	0.092	0.722
-693.426	-129.088	-0.924	-0.131
-692.412	-143.327	0.493	0.048
-691.397	-200.000	0.039	-0.339
-690.383	22.372	-0.588	-0.487
-689.368	-49.959	0.095	-0.046
-688.354	89.388	0.457	-0.516
-687.339	118.809	-0.649	0.814
-686.324	-200.000	-0.421	-0.002
-685.310	-60.686	0.316	-0.136
-684.295	-200.000	0.056	0.662
-683.281	-139.048	0.606	-0.067
-682.266	800.000	-0.234	-0.770
-681.251	-9.212	-0.107	0.073
-680.237	800.000	0.053	-0.199
-679.222	-137.495	0.262	0.030
-678.208	378.102	0.276	0.572
-677.193	17.121	0.231	0.186
-676.178	800.000	0.127	-0.362
-675.164	366.858	-0.270	0.553
-674.149	215.136	-0.186	0.299
-673.135	-200.000	-0.185	-1.071
-672.120	-200.000	0.079	0.456
-671.105	316.305	0.136	0.260
-670.091	152.069	-0.234	-0.323
-669.076	-72.355	0.635	-0.238
-668.062	10.640	-0.569	-0.440
-667.047	745.050	0.197	-0.539
-666.032	-34.934	0.610	0.337
-665.018	-79.830	-0.434	0.148
-664.003	-31.008	-0.248	0.142
-662.989	107.580	0.322	-0.388
-661.974	208.286	-0.142	0.225
-660.959	60.730	-0.594	-0.597
-659.945	154.033	0.428	0.595
-658.930	-200.000	0.019	0.828
-657.916	800.000	-0.072	0.281
-656.901	41.303	-0.446	0.409
-655.886	121.097	0.469	-0.591
-654.872	-29.564	-0.693	0.401
-653.857	237.577	-0.043	-0.072
-652.843	-158.107	0.297	0.018
-651.828	252.509	-0.148	0.256
-650.814	-28.799	-0.392	-0.229
-649.799	-200.000	0.160	-1.473
-648.784	354.961	-0.359	-0.723
-647.770	472.506	-0.042	0.095
-646.755	-95.157	-0.595	-0.163
-645.741	800.000	-0.099	-0.363
-644.726	-134.367	-0.245	-0.030
-643.711	13.376	-0.165	0.130
-642.697	-146.425	-0.890	-0.079
-641.682	510.551	0.257	0.605
-640.668	228.526	0.688	-1.136
-639.653	-200.000	0.039	0.478
-638.638	-200.000	0.106	-0.590
-637.624	-157.788	-0.649	0.039
-636.609	-200.000	-0.123	0.884
-635.595	-200.000	0.077	0.595
-634.580	14.350	-0.648	-0.512
-633.565	800.000	-0.125	0.508
-632.551	-20.290	0.202	-0.126
-631.536	67.139	-0.471	-0.486
-630.522	533.893	-0.206	0.494
-629.507	113.373	0.393	0.483
-628.492	255.094	0.235	-0.407
-627.478	-59.149	0.257	0.112
-626.463	-200.000	0.150	1.014
-625.449	-7.036	0.455	-0.313
-624.434	800.000	-0.067	0.216
-623.419	-12.961	-0.336	0.221
-622.405	-89.838	0.416	-0.123
-621.390	-5.896	-0.123	0.085
-620.376	184.855	0.209	-0.314
-619.361	-99.967	0.177	0.045
-618.346	11.340	0.353	0.273
-617.332	-94.916	-0.288	-0.079
-616.317	-124.025	-0.403	-0.064
-615.303	384.443	0.107	-0.223
-614.288	-157.416	0.653	0.040
-613.273	-17.353	-0.417	-0.266
-612.259	-74.177	0.485	0.177
-611.244	800.000	0.281	0.901
-610.230	-200.000	0.161	0.883
-609.215	-21.953	-0.499	-0.307
-608.201	609.778	0.422	1.067
-607.186	800.000	-0.102	0.384
-606.171	-200.000	-0.055	0.427
-605.157	-200.000	0.081	-0.373
-604.142	-76.383	0.294	0.105
-603.128	354.193	0.193	0.387
-602.113	146.572	-0.170	-0.231
-601.098	800.000	0.167	-0.552
-600.084	-19.391	0.248	-0.155
-599.069	-24.372	1.004	0.605
-598.055	800.000	0.250	-0.821
-597.040	-82.233	0.253	0.083
-596.025	368.924	0.268	-0.547
-595.011	-37.359	-0.625	-0.337
-593.996	800.000	-0.097	-0.388
-592.982	-200.000	0.034	0.314
-591.967	-144.077	-0.921	-0.087
-590.952	-54.089	-0.092	0.042
-589.938	218.217	-0.137	0.220
-588.923	129.003	-0.433	0.558
-587.909	-98.301	0.925	-0.240
-586.894	591.325	0.320	-0.797
-585.879	188.921	-0.537	-0.813
-584.865	800.000	0.120	-0.374
-583.850	-200.000	0.029	-0.253
-582.836	6.597	0.614	-0.461
-581.821	280.600	0.294	0.532
-580.806	90.515	0.816	0.923
-579.792	-200.000	0.016	-0.120
-578.777	800.000	-0.176	0.622
-577.763	155.819	0.345	0.480
-576.748	186.778	-0.424	0.638
-575.733	-30.774	-0.726	-0.415
-574.719	7.742	0.330	0.250
-573.704	-147.074	0.277	-0.024
-572.690	-25.818	0.377	0.224
-571.675	7.967	-0.348	-0.264
-570.661	-92.712	0.924	0.261
-569.646	-145.724	0.360	-0.032
-568.631	159.531	0.430	-0.604
-567.617	-76.151	0.587	-0.209
-566.602	800.000	-0.128	-0.524
-565.588	-123.121	-0.430	0.070
-564.573	44.111	0.418	-0.387
-563.558	-53.558	0.453	0.209
-562.544	-56.534	0.454	0.203
-561.529	-4.022	0.214	0.150
-560.515	106.208	-0.385	0.460
-559.500	410.794	0.192	-0.412
-558.485	800.000	0.152	0.506
-557.471	405.149	0.212	-0.451
-556.456	124.364	0.412	-0.523
-555.442	293.988	-0.339	-0.625
-554.427	-200.000	-0.173	1.116
-553.412	96.875	-0.230	0.266
-552.398	800.000	0.036	0.155
-551.383	-37.219	0.613	-0.331
-550.369	-15.060	-0.624	0.403
-549.354	800.000	-0.069	0.271
-548.339	176.542	-0.466	-0.684
-547.325	-42.303	-0.068	-0.035
-546.310	2.869	0.314	-0.230
-545.296	-107.357	0.695	0.154
-544.281	376.513	0.245	0.504
-543.266	50.914	0.647	-0.619
-542.252	800.000	0.283	-0.912
-541.237	-200.000	0.083	0.470
-540.223	-125.811	0.810	0.123
-539.208	-200.000	-0.013	-0.285
-538.193	-200.000	-0.078	-0.639
-537.179	800.000	-0.053	-0.231
-536.164	292.577	0.224	0.411
-535.150	112.663	-0.379	-0.463
-534.135	313.028	-0.264	0.500
-533.121	-118.951	-1.141	0.202
-532.106	800.000	0.142	0.420
-531.091	54.603	0.557	-0.542
-530.077	800.000	-0.048	0.156
-529.062	754.018	-0.329	-0.896
-528.048	38.054	-0.467	0.419
-527.033	128.659	-0.340	0.437
-526.018	315.270	-0.095	-0.181
-525.004	7.692	0.495	-0.374
-523.989	800.000	-0.123	-0.416
-522.975	-172.137	-0.119	-0.004
-521.960	-26.130	-0.268	-0.159
-520.945	-155.191	0.531	0.035
-519.931	291.303	-0.296	0.543
-518.916	-32.198	-0.470	0.265
-517.902	-112.652	-0.832	0.167
-516.887	156.546	0.616	0.857
-515.872	-200.000	0.067	-0.336
-514.858	-200.000	-0.009	0.172
-513.843	38.352	0.462	-0.415
-512.829	141.121	0.309	-0.412
-511.814	566.828	0.306	0.748
-510.799	47.245	0.140	0.131
-509.785	283.799	-0.344	-0.622
-508.770	-200.000	-0.098	0.434
-507.756	-200.000	0.191	-0.897
-506.741	56.357	-0.265	0.259
-505.726	-35.032	-0.430	-0.236
-504.712	183.518	0.220	0.327
-503.697	-13.189	0.739	-0.483
-502.683	162.372	-0.247	0.349
-501.668	-200.000	-0.045	-0.421
-500.653	538.161	0.222	-0.531
-499.639	-90.512	0.234	0.068
-498.624	-194.687	0.926	0.007
-497.610	-93.125	0.184	0.052
-496.595	207.846	-0.255	-0.401
-495.581	-3.733	-0.280	0.196
-494.566	-76.635	-0.613	0.216
-493.551	-50.113	0.706	-0.337
-492.537	233.902	0.055	-0.092
-491.522	285.774	0.170	-0.309
-490.508	-124.426	-1.072	-0.168
-489.493	800.000	0.294	-1.084
-488.478	92.142	-0.252	0.286
-487.464	-123.561	0.807	0.129
-486.449	200.532	0.096	0.148
-485.435	168.917	0.094	-0.135
-484.420	-155.352	0.619	0.040
-483.405	7.647	-0.778	0.586
-482.391	6.199	-0.390	-0.291
-481.376	54.228	-0.424	-0.411
-480.362	74.591	-0.303	-0.321
-479.347	-200.000	0.038	0.204
-478.332	-21.280	1.164	-0.716
-477.318	28.823	-0.448	0.382
-476.303	77.968	0.447	0.480
-475.289	-71.372	0.486	0.183
-474.274	112.201	-0.122	-0.149
-473.259	-138.089	0.491	-0.055
-472.245	300.894	0.232	0.430
-471.230	33.553	0.129	-0.113
-470.216	50.565	-0.409	-0.389
-469.201	-77.971	0.374	-0.130
-468.186	590.810	0.386	0.957
-467.172	20.619	0.325	0.265
-466.157	48.698	-0.588	0.555
-465.143	800.000	-0.058	0.238
-464.128	627.284	-0.306	0.776
-463.113	800.000	0.093	-0.322
-462.099	-200.000	0.032	-0.775
-461.084	-200.000	-0.065	-0.861
-460.070	729.327	0.133	0.357
-459.055	125.900	0.529	0.673
-458.040	-200.000	-0.057	-0.910
-457.026	-200.000	0.061	0.842
-456.011	-65.920	0.794	0.319
-454.997	299.914	0.357	-0.661
-453.982	298.889	-0.184	0.341
-452.968	-119.657	-0.612	-0.106
-451.953	-3.944	-0.823	0.574
-450.938	73.878	-0.124	-0.131
-449.924	22.419	-0.924	-0.759
-448.909	-73.574	0.513	0.188
-447.895	-200.000	-0.189	-1.389
-446.880	-200.000	-0.047	-0.408
-445.865	-32.364	0.187	-0.105
-444.851	0.016	-0.111	-0.080
-443.836	280.408	-0.338	-0.607
-442.822	-187.547	-0.894	-0.012
-441.807	-35.233	-1.008	-0.551
-440.792	46.291	-0.365	-0.340
-439.778	656.178	-0.248	-0.641
-438.763	76.974	-0.382	0.407
-437.749	680.739	0.449	1.175
-436.734	176.487	0.189	0.276
-435.719	-51.564	0.251	-0.118
-434.705	-200.000	0.053	-0.336
-433.690	18.480	0.379	-0.305
-432.676	-56.805	-0.047	0.021
-431.661	-200.000	-0.057	0.504
-430.646	-163.272	-0.332	0.016
-429.632	129.971	-0.582	-0.748
-428.617	259.588	0.116	-0.200
-427.603	-53.178	-0.174	-0.080
-426.588	-31.861	0.373	-0.210
-425.573	33.540	0.294	-0.256
-424.559	476.079	0.207	-0.469
-423.544	388.362	-0.129	0.269
-422.530	-169.981	-0.120	-0.004
-421.515	-49.063	-0.543	-0.261
-420.500	-128.536	-0.155	-0.022
-419.486	-78.362	-0.334	-0.115
-418.471	563.700	-0.331	-0.805
-417.457	93.743	0.158	0.180
-416.442	-200.000	0.061	0.775
-415.428	-82.376	-0.325	0.106
-414.413	98.341	-0.474	-0.548
-413.398	103.973	-0.440	-0.519
-412.384	800.000	-0.190	0.633
-411.369	558.125	0.099	0.240
-410.355	-52.753	-0.359	0.166
-409.340	-88.435	1.279	-0.383
-408.325	-170.709	-0.806	-0.028
-407.311	63.170	-0.264	0.265
-406.296	-147.965	-0.490	0.041
-405.282	260.171	0.235	0.407
-404.267	-121.656	-0.258	0.043
-403.252	37.918	-0.352	-0.314
-402.238	800.000	0.082	0.316
-401.223	-63.352	1.161	0.479
-400.209	800.000	0.095	0.364
-399.194	49.580	-0.210	-0.199
-398.179	-200.000	-0.039	-0.612
-397.165	-96.050	1.112	0.297
-396.150	24.628	0.274	0.228
-395.136	18.239	0.384	0.308
-394.121	96.203	-0.413	-0.473
-393.106	-20.907	0.437	-0.268
-392.092	-200.000	0.187	-0.842
-391.077	153.735	0.390	-0.536
-390.063	433.420	0.201	-0.438
-389.048	51.484	0.211	0.201
-388.033	-137.204	-0.206	-0.023
-387.019	-200.000	0.021	-0.338
-386.004	-200.000	-0.115	0.730
-384.990	-61.336	0.689	-0.291
-383.975	6.253	-0.145	0.107
-382.960	-144.762	0.547	-0.050
-381.946	800.000	-0.231	-0.722
-380.931	-108.299	1.053	0.228
-379.917	-138.786	0.831	0.091
-378.902	193.651	-0.258	-0.392
-377.888	-200.000	0.042	-0.341
-376.873	-25.388	-0.599	0.355
-375.858	0.754	-0.642	-0.461
-374.844	110.885	-0.443	-0.535
-373.829	-158.310	0.323	-0.019
-372.815	336.140	-0.211	0.410
-371.800	-100.208	0.543	-0.135
-370.785	-21.491	-0.518	-0.317
-369.771	-1.815	0.676	0.476
-368.756	-137.505	0.376	0.043
-367.742	-119.859	-0.500	0.086
-366.727	97.333	-0.630	0.725
-365.712	-174.595	-1.269	0.036
-364.698	1.614	1.040	-0.750
-363.683	548.862	-0.161	-0.386
-362.669	415.472	-0.229	-0.490
-361.654	-200.000	-0.551	-0.000
-360.639	27.058	-0.182	-0.153
-359.625	-134.272	-0.297	0.037
-358.610	-36.919	-0.596	0.320
-357.596	-14.087	-0.465	0.301
-356.581	-177.763	-0.353	-0.009
-355.566	-200.000	-0.029	0.433
-354.552	-7.505	0.234	0.158
-353.537	-9.580	0.254	-0.170
-352.523	114.467	0.582	-0.710
-351.508	34.061	-0.378	0.330
-350.493	164.729	0.237	0.335
-349.479	-100.043	-0.376	-0.094
-348.464	-200.000	-0.057	0.304
-347.450	-112.414	0.256	-0.051
-346.435	-94.423	-0.650	-0.178
-345.420	-200.000	-0.168	0.747
-344.406	49.083	0.256	0.241
-343.391	-153.362	-0.662	0.046
-342.377	358.915	-0.375	0.751
-341.362	-83.908	0.278	-0.089
-340.348	800.000	-0.117	0.500
-339.333	16.785	0.869	0.688
-338.318	185.536	0.090	-0.134
-337.304	-200.000	0.101	0.898
-336.289	-69.241	0.379	0.146
-335.275	100.360	0.341	-0.397
-334.260	800.000	-0.083	0.341
-333.245	-147.793	-0.351	-0.029
-332.231	-200.000	-0.017	0.097
-331.216	-4.243	-0.346	-0.240
-330.202	28.827	-0.818	-0.693
-329.187	-23.298	-0.627	0.377
-328.172	-133.590	0.750	-0.094
-327.158	16.846	-0.138	0.109
-326.143	198.926	-0.574	0.880
-325.129	-134.914	0.244	0.029
-324.114	-34.782	0.415	-0.227
-323.099	-45.986	-0.403	-0.199
-322.085	31.321	-0.070	0.060
-321.070	-76.840	0.526	0.184
-320.056	24.208	0.729	0.602
-319.041	-93.612	0.223	-0.061
-318.026	121.116	-0.652	0.812
-317.012	-102.531	0.242	0.058
-315.997	89.932	0.169	-0.188
-314.983	-200.000	-0.274	-1.205
-313.968	-65.599	-0.722	0.290
-312.953	708.355	-0.106	-0.280
-311.939	-200.000	0.056	0.356
-310.924	179.645	0.520	0.762
-309.910	-59.211	0.390	-0.168
-308.895	22.689	-0.171	-0.140
-307.880	-200.000	-0.068	0.374
-306.866	800.000	-0.218	0.751
-305.851	-105.069	0.551	0.126
-304.837	-21.294	-0.210	-0.128
-303.822	-200.000	0.004	0.324
-302.807	-137.863	-0.473	-0.053
-301.793	742.521	-0.323	-0.869
-300.778	-40.459	0.376	0.195
-299.764	-57.260	0.120	0.053
-298.749	800.000	-0.095	-0.284
-297.735	-106.025	0.168	-0.038
-296.720	-200.000	0.077	0.344
-295.705	124.240	-0.659	0.827
-294.691	35.898	-0.136	0.120
-293.676	-200.000	0.092	-0.493
-292.662	-200.000	-0.020	-0.676
-291.647	704.807	-0.236	-0.622
-290.632	-139.009	0.766	0.083
-289.618	8.026	0.335	0.251
-288.603	-134.801	-0.068	-0.008
-287.589	122.275	-0.509	-0.634
-286.574	-200.000	-0.086	0.465
-285.559	-11.869	-0.275	-0.180
-284.545	-135.246	-0.306	-0.037
-283.530	117.935	0.299	-0.368
-282.516	800.000	-0.148	-0.497
-281.501	186.688	-0.269	-0.400
-280.486	16.835	0.252	-0.199
-279.472	-200.000	0.076	0.517
-278.457	103.532	-0.353	0.414
-277.443	-200.000	0.170	1.028
-276.428	800.000	-0.213	-0.775
-275.413	440.398	-0.177	-0.386
-274.399	-153.120	-1.178	-0.083
-273.384	-200.000	0.080	-0.536
-272.370	-200.000	0.018	0.407
-271.355	732.541	0.296	0.791
-270.340	21.749	0.525	0.427
-269.326	6.969	0.849	0.632
-268.311	89.273	0.232	-0.258
-267.297	-200.000	0.007	0.158
-266.282	-192.560	-0.526	-0.005
-265.267	204.928	-0.311	-0.482
-264.253	800.000	0.249	0.788
-263.238	115.397	0.378	-0.461
-262.224	-200.000	0.087	0.433
-261.209	-200.000	0.125	0.806
-260.195	-81.869	-0.220	0.072
-259.180	-72.936	-0.805	-0.295
-258.165	800.000	-0.092	0.360
-257.151	800.000	0.222	0.744
-256.136	61.871	-0.291	0.289
-255.122	370.255	-0.146	0.295
-254.107	-102.674	0.705	0.168
-253.092	53.278	0.598	0.571
-252.078	-58.699	-0.671	-0.290
-251.063	2.793	0.358	0.259
-250.049	800.000	-0.065	0.197
-249.034	-107.547	-0.134	0.029
-248.019	10.531	0.703	0.534
-247.005	70.430	-0.233	-0.240
-245.990	27.374	-0.733	0.615
-244.976	-200.000	-0.010	0.384
-243.961	-200.000	0.062	-0.732
-242.946	44.628	-0.339	0.311
-241.932	-55.155	0.469	-0.210
-240.917	-34.168	-0.555	0.304
-239.903	-200.000	-0.058	0.711
-238.888	-149.280	-0.603	0.048
-237.873	89.037	0.043	0.047
-236.859	-200.000	0.098	1.069
-235.844	-1.535	0.372	-0.261
-234.830	-18.236	-0.871	-0.543
-233.815	294.378	-0.310	-0.565
-232.800	-75.994	-0.375	0.132
-231.786	49.756	-0.608	-0.571
-230.771	45.023	-0.376	-0.345
-229.757	-200.000	-0.061	0.420
-228.742	-57.074	-0.804	0.353
-227.727	-77.284	-0.710	0.246
-226.713	-7.184	0.186	-0.125
-225.698	800.000	-0.076	-0.217
-224.684	64.080	-0.290	0.291
-223.669	46.181	0.225	-0.208
-222.655	-3.613	-0.119	0.082
-221.640	-200.000	-0.039	0.881
-220.625	-41.287	-0.206	0.106
-219.611	-200.000	0.079	-0.427
-218.596	-63.584	-0.996	-0.407
-217.582	450.732	0.244	0.536
-216.567	-69.340	-0.925	-0.354
-215.552	-65.243	-0.661	-0.265
-214.538	-132.127	1.122	0.145
-213.523	40.563	-0.190	0.170
-212.509	800.000	0.154	-0.468
-211.494	28.251	0.318	0.267
-210.479	-123.724	-0.740	-0.117
-209.465	-181.972	-0.253	0.005
-208.450	-190.419	-0.479	-0.005
-207.436	-121.826	0.339	0.056
-206.421	-200.000	0.035	0.419
-205.406	24.303	0.402	-0.330
-204.392	800.000	0.158	0.579
-203.377	-200.000	0.413	-0.001
-202.363	-140.488	-0.635	0.066
-201.348	-200.000	-0.010	0.281
-200.333	800.000	0.210	-0.679
-199.319	-200.000	-0.044	-0.403
-198.304	187.534	0.796	1.182
-197.290	12.434	0.448	0.344
-196.275	-12.689	0.412	-0.267
-195.260	-200.000	0.011	-0.163
-194.246	-200.000	0.047	-0.208
-193.231	5.522	-0.222	-0.163
-192.217	-115.002	0.477	0.090
-191.202	-82.274	0.695	-0.225
-190.187	348.762	0.150	-0.295
-189.173	-200.000	0.004	0.342
-188.158	364.500	-0.505	1.011
-187.144	71.418	0.543	-0.561
-186.129	53.638	0.758	-0.724
-185.114	597.922	-0.084	0.208
-184.100	38.085	0.446	-0.395
-183.085	87.278	0.674	-0.742
-182.071	-39.332	0.218	0.114
-181.056	800.000	-0.137	-0.455
-180.042	-1.357	0.355	0.249
-179.027	177.081	-0.201	-0.291
-178.012	133.964	-0.750	-0.966
-176.998	57.970	-0.400	0.390
-175.983	373.413	-0.211	0.426
-174.969	179.007	-0.592	-0.861
-173.954	-200.000	0.007	0.798
-172.939	-15.864	0.456	0.288
-171.925	357.764	-0.204	-0.405
-170.910	-126.005	-0.353	-0.053
-169.896	-125.642	0.672	-0.101
-168.881	362.462	0.211	-0.422
-167.866	-128.532	0.689	0.097
-166.852	10.598	-0.576	0.436
-165.837	-75.292	0.890	-0.316
-164.823	153.166	-0.128	-0.174
-163.808	-114.933	0.358	0.068
-162.793	-36.769	0.655	0.349
-161.779	-30.704	-0.586	0.329
-160.764	-43.167	0.589	-0.296
-159.750	-33.682	-0.206	0.113
-158.735	-42.559	0.937	0.474
-157.720	-138.609	-0.806	0.088
-156.706	-200.000	0.079	-0.421
-155.691	-128.788	-0.409	0.057
-154.677	-44.938	0.479	-0.237
-153.662	-101.540	-0.439	0.106
-152.647	-87.834	-0.696	-0.208
-151.633	447.956	0.301	-0.659
-150.618	-189.025	0.130	0.002
-149.604	630.755	0.121	0.305
-148.589	201.134	-0.261	-0.400
-147.574	124.451	-0.550	-0.687
-146.560	-77.706	-0.715	0.246
-145.545	73.525	-0.520	0.541
-144.531	-65.227	-0.358	-0.143
-143.516	-125.417	-0.334	0.051
-142.502	-200.000	-0.120	-0.660
-141.487	71.268	0.279	0.288
-140.472	-139.653	-0.869	-0.092
-139.458	-69.172	0.598	-0.229
-138.443	118.413	-0.364	0.446
-137.429	122.587	-0.490	-0.608
-136.414	-200.000	0.052	-0.663
-135.399	-111.783	-0.728	-0.146
-134.385	-200.000	0.029	-0.741
-133.370	-113.051	-0.410	-0.080
-132.356	800.000	-0.071	0.242
-131.341	-136.177	-0.661	-0.077
-130.326	-200.000	0.048	0.358
-129.312	-179.280	0.408	0.009
-128.297	-200.000	-0.027	-0.439
-127.283	787.448	0.211	0.576
-126.268	-37.917	0.389	-0.205
-125.253	22.789	-0.090	0.073
-124.239	-94.741	-0.219	-0.059
-123.224	-65.217	0.363	0.145
-122.210	-200.000	-0.096	-0.601
-121.195	120.720	0.304	0.375
