DTS Sentinel unit serial number:	SN413079Multiplexer serial number:	ORYXHardware model number:	OX4-SRSoftware version number:	ORYX F/W v4.00 Oryx Data Collector v3.7.2.0data status	okinstallation	princeton_trtdifferential loss correction	single-endedforward channel	channel 4reverse channel	N/Adate	2019/09/18time	23:41:35forward acquisition time	60.00reverse acquisition time	0.00gamma	496.2192k internal	0.2335k external	0.2335temperature offset calibration	1.0030default loss term (dB/km)	0.3790temperature slope calibration	1.0000multiplexer offset coefficient	1.0000multiplexer slope coefficient	1.0000fibre end	0.00T internal ref (°C)	23.48T ext. ref 1 (°C)	0.77T ext. ref 2 (°C)	16.26length (m)	temperature (°C)	Stokes	anti-Stokes-747.200	-4.525	0.197	-0.137
-746.185	45.344	-0.229	-0.212
-745.171	296.763	0.060	0.111
-744.156	-52.649	-0.481	0.223
-743.142	144.985	0.059	0.079
-742.127	32.800	0.177	0.154
-741.112	800.000	-0.074	-0.209
-740.098	-62.826	0.040	-0.017
-739.083	800.000	-0.122	0.419
-738.069	-200.000	-0.003	0.365
-737.054	28.357	-0.211	-0.179
-736.039	22.977	-0.120	-0.099
-735.025	120.385	0.263	0.328
-734.010	16.735	-0.296	-0.236
-732.996	-50.412	-0.390	-0.185
-731.981	410.938	0.157	-0.335
-730.966	-200.000	-0.006	0.062
-729.952	126.584	-0.129	0.164
-728.937	-31.545	-0.218	-0.123
-727.923	-200.000	-0.078	0.347
-726.908	-200.000	0.001	0.475
-725.894	-106.580	0.005	0.001
-724.879	-200.000	-0.025	-0.114
-723.864	800.000	0.120	-0.386
-722.850	-200.000	0.036	0.173
-721.835	136.224	0.092	0.120
-720.821	208.836	0.218	0.343
-719.806	-200.000	-0.032	-0.244
-718.791	21.573	0.133	-0.108
-717.777	-126.982	-0.070	0.010
-716.762	-125.058	0.123	-0.019
-715.748	15.234	0.179	0.141
-714.733	800.000	0.031	-0.123
-713.718	800.000	-0.125	0.409
-712.704	-114.104	0.355	-0.069
-711.689	-89.468	0.232	-0.068
-710.675	636.862	0.068	-0.172
-709.660	800.000	-0.124	0.508
-708.645	571.148	-0.025	-0.060
-707.631	800.000	0.003	0.013
-706.616	23.553	0.046	-0.038
-705.602	-108.749	0.234	0.050
-704.587	-42.704	-0.110	0.056
-703.572	-59.871	0.052	0.022
-702.558	-54.697	0.115	0.052
-701.543	314.347	-0.152	0.287
-700.529	1.862	0.205	0.148
-699.514	-167.201	0.092	0.004
-698.499	-200.000	0.034	0.237
-697.485	800.000	-0.023	0.083
-696.470	-200.000	-0.064	-0.345
-695.456	-71.414	-0.422	0.158
-694.441	-200.000	-0.088	0.552
-693.426	-18.297	0.251	0.158
-692.412	342.626	-0.030	-0.058
-691.397	153.405	-0.168	-0.230
-690.383	-200.000	0.036	0.218
-689.368	-140.994	0.055	0.006
-688.354	-50.336	0.061	0.029
-687.339	253.318	-0.138	-0.237
-686.324	800.000	0.044	-0.167
-685.310	-87.369	-0.384	-0.117
-684.295	800.000	0.080	0.296
-683.281	-69.477	-0.196	0.075
-682.266	-127.394	0.338	-0.049
-681.251	800.000	0.119	-0.357
-680.237	-171.315	-0.264	-0.009
-679.222	-115.278	0.290	-0.055
-678.208	80.458	-0.079	0.085
-677.193	372.638	0.099	-0.202
-676.178	-80.639	0.253	0.084
-675.164	-14.884	-0.163	0.105
-674.149	-200.000	0.045	0.268
-673.135	-64.529	0.204	-0.083
-672.120	-57.783	0.171	-0.075
-671.105	-52.645	0.125	-0.058
-670.091	-200.000	-0.035	0.422
-669.076	75.238	-0.283	-0.299
-668.062	-16.656	-0.513	-0.325
-667.047	-200.000	-0.447	0.001
-666.032	312.919	0.224	-0.422
-665.018	-38.925	0.266	0.140
-664.003	-65.016	0.173	-0.070
-662.989	183.038	-0.217	0.321
-661.974	-27.913	0.276	-0.160
-660.959	800.000	0.084	-0.238
-659.945	-161.877	0.053	0.003
-658.930	-43.126	0.068	-0.035
-657.916	-61.716	-0.258	-0.108
-656.901	-200.000	-0.038	0.325
-655.886	800.000	0.058	0.221
-654.872	-136.290	0.099	-0.012
-653.857	-147.915	-0.308	0.026
-652.843	-65.391	0.249	0.100
-651.828	800.000	-0.089	-0.275
-650.814	800.000	0.055	-0.231
-649.799	378.444	0.076	0.155
-648.784	-200.000	-0.002	0.040
-647.770	-200.000	0.029	0.142
-646.755	-134.525	0.137	0.017
-645.741	-92.131	0.126	0.036
-644.726	-200.000	0.031	-0.292
-643.711	-200.000	-0.022	0.383
-642.697	-70.952	-0.076	-0.029
-641.682	-18.344	0.326	0.204
-640.668	-200.000	-0.002	-0.135
-639.653	-152.977	-0.187	-0.013
-638.638	194.143	-0.133	0.202
-637.624	4.756	-0.370	0.272
-636.609	45.079	-0.170	-0.157
-635.595	-70.359	0.202	0.076
-634.580	-32.606	-0.303	-0.169
-633.565	100.648	-0.031	0.036
-632.551	-200.000	-0.150	-0.001
-631.536	725.166	-0.081	-0.217
-630.522	-101.637	0.184	-0.045
-629.507	-78.713	0.308	0.105
-628.492	-200.000	-0.006	-0.150
-627.478	-2.145	0.012	-0.008
-626.463	377.158	-0.078	0.160
-625.449	-15.591	0.196	0.125
-624.434	294.811	0.129	-0.236
-623.419	-200.000	-0.031	-0.364
-622.405	-200.000	-0.032	0.161
-621.390	59.288	0.088	-0.087
-620.376	27.347	0.285	-0.240
-619.361	-200.000	0.011	-0.066
-618.346	267.018	-0.071	-0.123
-617.332	-67.481	0.093	-0.036
-616.317	-68.889	-0.441	-0.170
-615.303	164.942	-0.246	0.346
-614.288	-95.746	-0.164	0.044
-613.273	-62.815	0.274	-0.114
-612.259	305.274	0.133	-0.247
-611.244	-73.052	-0.274	-0.100
-610.230	800.000	0.047	0.140
-609.215	-18.699	-0.134	0.084
-608.201	800.000	-0.051	0.170
-607.186	-141.891	-0.130	0.013
-606.171	392.106	0.198	-0.411
-605.157	-11.182	-0.185	-0.122
-604.142	389.999	0.035	0.072
-603.128	-78.921	-0.261	-0.089
-602.113	-117.249	-0.227	-0.041
-601.098	287.985	-0.159	-0.287
-600.084	-66.272	-0.323	0.129
-599.069	17.285	0.189	0.150
-598.055	-134.671	-0.210	0.026
-597.040	-56.344	-0.066	0.029
-596.025	-1.972	0.283	0.199
-595.011	150.237	0.135	-0.183
-593.996	25.678	-0.022	-0.019
-592.982	10.968	-0.191	-0.146
-591.967	-5.009	0.257	0.177
-590.952	60.340	-0.143	-0.142
-589.938	161.628	-0.044	0.061
-588.923	-87.559	0.255	0.077
-587.909	473.708	-0.045	0.101
-586.894	-200.000	0.009	0.410
-585.879	337.392	0.134	0.260
-584.865	-200.000	0.050	-0.222
-583.850	800.000	0.108	0.299
-582.836	502.994	0.111	0.256
-581.821	800.000	-0.030	-0.116
-580.806	292.541	0.118	0.215
-579.792	-51.223	-0.102	-0.048
-578.777	-116.708	0.241	0.044
-577.763	273.918	0.122	-0.216
-576.748	800.000	0.034	-0.129
-575.733	583.048	0.054	-0.131
-574.719	81.490	-0.129	-0.139
-573.704	-130.554	-0.114	-0.015
-572.690	-131.761	0.099	0.013
-571.675	-83.056	-0.141	-0.045
-570.661	-200.000	0.033	0.243
-569.646	-147.476	-0.102	-0.009
-568.631	-200.000	0.022	-0.401
-567.617	-103.410	-0.206	0.048
-566.602	-35.034	0.175	-0.095
-565.588	-20.653	0.203	0.124
-564.573	68.631	0.160	0.164
-563.558	107.971	0.141	-0.168
-562.544	703.502	-0.095	0.249
-561.529	99.299	0.189	-0.218
-560.515	93.525	-0.134	0.152
-559.500	155.073	-0.025	-0.034
-558.485	-42.697	-0.214	-0.108
-557.471	292.840	0.121	0.221
-556.456	768.963	-0.085	-0.231
-555.442	-165.015	0.168	0.007
-554.427	9.577	0.240	0.181
-553.412	-200.000	0.066	0.336
-552.398	189.186	-0.240	0.358
-551.383	-164.364	-0.172	-0.008
-550.369	22.413	-0.142	-0.115
-549.354	-132.397	0.239	-0.031
-548.339	-200.000	0.056	-0.320
-547.325	-200.000	0.074	-0.567
-546.310	800.000	0.095	-0.286
-545.296	-113.652	0.202	0.039
-544.281	-88.060	0.198	-0.059
-543.266	645.675	-0.094	-0.240
-542.252	-200.000	-0.029	-0.312
-541.237	-136.176	-0.383	0.045
-540.223	-139.942	0.368	0.039
-539.208	-200.000	0.014	0.198
-538.193	104.112	0.190	0.223
-537.179	-5.561	-0.468	0.320
-536.164	-46.724	0.100	-0.049
-535.150	259.392	-0.144	0.248
-534.135	800.000	-0.030	0.128
-533.121	-200.000	0.001	0.144
-532.106	584.364	0.066	-0.162
-531.091	-20.077	0.176	-0.108
-530.077	-41.753	-0.120	0.061
-529.062	169.457	-0.152	-0.216
-528.048	-150.025	-0.107	-0.008
-527.033	-108.369	0.180	0.039
-526.018	-160.671	-0.551	-0.029
-525.004	-200.000	-0.007	0.352
-523.989	440.321	0.127	-0.276
-522.975	717.650	0.018	-0.047
-521.960	11.131	-0.263	0.200
-520.945	-200.000	-0.004	-0.230
-519.931	656.857	-0.064	-0.163
-518.916	-200.000	0.000	-0.047
-517.902	-26.783	0.028	0.016
-516.887	223.458	-0.042	-0.067
-515.872	28.464	-0.175	-0.147
-514.858	-93.753	-0.230	-0.063
-513.843	549.768	-0.168	0.401
-512.829	360.999	-0.078	-0.155
-511.814	-106.482	0.300	0.067
-510.799	-110.840	0.414	-0.085
-509.785	-200.000	-0.012	-0.193
-508.770	-50.378	0.347	-0.163
-507.756	232.124	0.024	-0.039
-506.741	-200.000	-0.038	0.198
-505.726	181.777	0.026	0.038
-504.712	518.500	0.125	-0.291
-503.697	45.760	-0.137	0.126
-502.683	-200.000	0.003	-0.097
-501.668	325.730	-0.207	-0.394
-500.653	772.860	-0.094	-0.254
-499.639	-44.562	-0.104	-0.052
-498.624	-200.000	0.023	-0.264
-497.610	-200.000	-0.052	-0.277
-496.595	-117.914	0.244	-0.043
-495.581	-156.393	-0.195	-0.012
-494.566	-41.723	-0.271	-0.138
-493.551	800.000	-0.068	-0.274
-492.537	-92.106	-0.160	0.045
-491.522	-200.000	0.010	0.088
-490.508	73.836	-0.119	-0.124
-489.493	57.226	-0.136	0.132
-488.478	800.000	-0.051	0.159
-487.464	-80.520	-0.321	0.106
-486.449	800.000	-0.094	-0.333
-485.435	172.445	0.259	-0.371
-484.420	-32.594	-0.429	0.238
-483.405	-128.725	0.219	0.031
-482.391	1.332	-0.133	-0.095
-481.376	447.863	0.096	0.210
-480.362	173.091	-0.181	-0.259
-479.347	68.325	-0.111	0.113
-478.332	167.761	0.195	0.276
-477.318	-102.034	0.057	-0.014
-476.303	397.212	-0.112	0.232
-475.289	800.000	-0.056	-0.174
-474.274	440.786	-0.119	-0.259
-473.259	221.236	-0.112	-0.178
-472.245	224.801	-0.135	-0.217
-471.230	-138.890	-0.160	-0.017
-470.216	800.000	0.016	-0.068
-469.201	479.688	0.065	0.146
-468.186	91.081	0.353	0.393
-467.172	231.070	0.101	0.164
-466.157	-115.930	0.107	0.020
-465.143	-200.000	-0.036	0.218
-464.128	-200.000	0.006	0.367
-463.113	426.536	-0.159	0.342
-462.099	-186.921	0.148	-0.002
-461.084	26.289	0.232	-0.192
-460.070	-200.000	0.016	0.158
-459.055	-200.000	-0.016	0.108
-458.040	129.635	0.256	-0.325
-457.026	800.000	-0.095	0.310
-456.011	-5.172	0.179	0.122
-454.997	-65.780	0.176	-0.070
-453.982	62.189	0.215	-0.214
-452.968	-135.414	-0.174	-0.021
-451.953	92.897	0.323	0.362
-450.938	-200.000	-0.027	0.124
-449.924	-40.205	-0.084	-0.043
-448.909	17.406	0.181	-0.143
-447.895	-195.400	-0.056	-0.000
-446.880	17.242	-0.177	-0.139
-445.865	471.697	-0.030	0.067
-444.851	-38.061	0.264	0.139
-443.836	545.534	0.071	0.169
-442.822	800.000	-0.010	-0.041
-441.807	149.185	-0.081	0.109
-440.792	128.850	-0.202	0.256
-439.778	-81.722	-0.306	0.099
-438.763	84.688	0.291	-0.317
-437.749	-185.568	-0.372	-0.006
-436.734	-94.565	-0.101	-0.027
-435.719	-200.000	-0.040	-0.314
-434.705	24.568	-0.310	0.255
-433.690	-51.547	0.153	0.071
-432.676	-141.150	0.133	-0.013
-431.661	-57.253	-0.047	0.020
-430.646	-200.000	-0.012	0.210
-429.632	-50.193	-0.187	-0.088
-428.617	-35.249	-0.084	0.045
-427.603	-2.628	-0.187	0.130
-426.588	-138.932	-0.021	0.002
-425.573	-52.517	-0.308	0.141
-424.559	255.528	0.196	0.333
-423.544	12.147	-0.219	0.167
-422.530	800.000	-0.058	0.210
-421.515	-85.133	-0.121	-0.038
-420.500	800.000	0.101	-0.375
-419.486	800.000	0.074	-0.264
-418.471	-76.255	-0.469	0.164
-417.457	-154.062	-0.254	0.017
-416.442	172.521	-0.109	-0.156
-415.428	106.784	0.138	0.162
-414.413	391.704	0.072	-0.147
-413.398	-15.029	0.216	0.137
-412.384	275.141	0.122	0.214
-411.369	174.461	-0.075	0.107
-410.355	-12.377	-0.125	-0.081
-409.340	-51.110	-0.226	-0.105
-408.325	455.741	-0.030	-0.066
-407.311	110.852	-0.241	-0.287
-406.296	-111.328	0.038	-0.008
-405.282	800.000	0.052	-0.188
-404.267	-200.000	0.162	0.000
-403.252	-200.000	0.045	-0.456
-402.238	-136.992	-0.259	-0.029
-401.223	-87.945	0.446	-0.133
-400.209	800.000	0.034	-0.123
-399.194	-165.109	0.067	-0.003
-398.179	-128.003	0.398	-0.057
-397.165	684.576	0.060	0.156
-396.150	282.782	0.056	-0.099
-395.136	203.766	0.131	-0.201
-394.121	-23.082	-0.073	-0.044
-393.106	800.000	0.122	-0.382
-392.092	-200.000	-0.041	0.431
-391.077	-14.135	0.293	-0.187
-390.063	125.934	0.307	-0.385
-389.048	-179.454	0.169	-0.004
-388.033	33.463	0.021	0.018
-387.019	-23.276	-0.026	0.015
-386.004	261.420	-0.187	-0.321
-384.990	370.729	0.134	0.269
-383.975	226.802	-0.175	0.282
-382.960	-131.432	0.186	0.024
-381.946	199.970	0.111	0.169
-380.931	17.393	-0.146	0.115
-379.917	-116.550	0.069	0.013
-378.902	2.863	0.213	0.153
-377.888	-59.436	0.205	-0.087
-376.873	-84.470	-0.045	0.014
-375.858	-147.143	0.290	0.025
-374.844	159.248	0.086	0.119
-373.829	463.868	-0.076	-0.169
-372.815	-46.606	-0.197	0.096
-371.800	-54.356	0.244	0.110
-370.785	-33.294	-0.195	0.107
-369.771	122.464	-0.044	-0.054
-368.756	-83.976	0.078	0.025
-367.742	800.000	-0.046	0.170
-366.727	27.927	0.166	0.138
-365.712	250.750	-0.203	0.341
-364.698	31.024	0.048	0.040
-363.683	-19.276	0.251	0.154
-362.669	-105.532	-0.303	-0.068
-361.654	-200.000	0.020	0.318
-360.639	-200.000	-0.009	-0.057
-359.625	-200.000	0.048	-0.209
-358.610	-200.000	0.013	0.190
-357.596	-154.960	-0.185	0.012
-356.581	240.627	-0.088	0.145
-355.566	-200.000	-0.022	-0.134
-354.552	800.000	0.042	0.115
-353.537	-50.574	0.149	-0.069
-352.523	-200.000	0.008	-0.090
-351.508	97.181	0.093	0.105
-350.493	800.000	-0.084	-0.321
-349.479	463.231	-0.048	0.106
-348.464	13.402	0.186	-0.142
-347.450	72.006	-0.079	-0.081
-346.435	25.151	0.232	-0.190
-345.420	-129.890	0.040	0.005
-344.406	-96.681	0.207	0.054
-343.391	-145.268	-0.220	-0.020
-342.377	-58.338	-0.332	-0.143
-341.362	-185.558	-0.309	0.005
-340.348	-38.808	-0.281	0.147
-339.333	194.950	-0.068	0.102
-338.318	-60.670	-0.385	0.162
-337.304	-40.024	0.345	-0.178
-336.289	-11.112	-0.037	0.024
-335.275	-17.611	-0.127	-0.079
-334.260	-22.137	-0.247	-0.148
-333.245	86.753	-0.171	0.187
-332.231	178.453	-0.044	0.063
-331.216	-126.256	0.119	-0.018
-330.202	-200.000	0.014	-0.159
-329.187	-64.639	0.201	0.081
-328.172	64.370	0.155	0.155
-327.158	228.076	0.211	-0.340
-326.143	-0.304	0.162	0.114
-325.129	800.000	0.050	-0.144
-324.114	-48.456	0.240	0.114
-323.099	321.684	-0.064	-0.120
-322.085	178.031	0.065	-0.093
-321.070	185.436	0.044	0.064
-320.056	57.854	-0.247	0.239
-319.041	-188.247	0.447	-0.006
-318.026	-79.293	0.361	-0.121
-317.012	-200.000	-0.025	-0.154
-315.997	-200.000	-0.009	0.277
-314.983	-96.034	-0.190	0.050
-313.968	-105.204	0.223	0.050
-312.953	2.735	0.176	0.126
-311.939	-125.828	-0.252	-0.038
-310.924	-189.757	-0.287	-0.003
-309.910	-76.503	0.259	0.090
-308.895	367.071	0.022	-0.044
-307.880	98.377	-0.147	-0.167
-306.866	-60.759	-0.258	0.108
-305.851	800.000	-0.071	-0.216
-304.837	-51.697	0.122	-0.056
-303.822	-110.591	-0.100	0.021
-302.807	-200.000	0.036	0.190
-301.793	29.505	-0.170	-0.143
-300.778	208.390	0.068	-0.104
-299.764	-42.522	-0.029	0.014
-298.749	-30.967	-0.053	-0.030
-297.735	-69.594	0.325	-0.123
-296.720	-54.652	-0.267	0.119
-295.705	-98.885	0.368	-0.092
-294.691	-118.102	0.124	-0.022
-293.676	41.605	-0.255	0.228
-292.662	-119.367	0.315	0.054
-291.647	800.000	-0.056	0.156
-290.632	-79.157	-0.337	0.113
-289.618	-88.329	-0.174	-0.051
-288.603	-64.686	0.120	0.048
-287.589	-77.648	0.128	-0.044
-286.574	9.944	0.232	-0.174
-285.559	201.363	0.118	0.179
-284.545	47.764	0.169	0.155
-283.530	-124.956	-0.103	-0.016
-282.516	-94.594	0.048	0.013
-281.501	-200.000	0.039	0.285
-280.486	-52.623	0.291	-0.133
-279.472	-101.062	-0.200	-0.048
-278.457	-90.967	-0.187	0.053
-277.443	656.903	-0.009	-0.023
-276.428	407.162	-0.159	-0.332
-275.413	-200.000	0.045	-0.481
-274.399	147.775	-0.196	0.261
-273.384	21.139	0.100	-0.080
-272.370	207.588	0.100	-0.153
-271.355	-32.596	0.217	0.119
-270.340	-200.000	0.015	-0.072
-269.326	-150.829	0.143	0.011
-268.311	375.835	-0.187	-0.376
-267.297	144.208	0.050	-0.066
-266.282	-72.481	-0.120	-0.044
-265.267	36.667	0.162	-0.141
-264.253	57.770	0.163	-0.157
-263.238	87.749	0.235	-0.256
-262.224	321.519	-0.059	-0.111
-261.209	-200.000	-0.007	0.163
-260.195	-200.000	0.013	0.121
-259.180	-56.266	0.240	0.105
-258.165	-200.000	0.052	0.390
-257.151	-119.744	-0.088	0.015
-256.136	800.000	0.028	0.116
-255.122	-4.722	0.114	-0.078
-254.107	11.584	-0.217	-0.164
-253.092	-34.996	0.169	-0.091
-252.078	-72.863	0.242	0.088
-251.063	-200.000	0.008	-0.191
-250.049	-200.000	0.034	-0.147
-249.034	-40.707	-0.169	0.086
-248.019	-200.000	0.076	0.395
-247.005	57.044	-0.166	0.159
-245.990	-200.000	0.030	-0.148
-244.976	658.796	-0.058	-0.148
-243.961	-28.067	-0.030	-0.017
-242.946	35.603	-0.221	-0.191
-241.932	-120.938	-0.139	-0.023
-240.917	353.628	0.115	0.225
-239.903	-200.000	-0.000	0.085
-238.888	12.084	0.169	0.128
-237.873	361.321	-0.012	0.023
-236.859	800.000	-0.031	0.101
-235.844	456.459	0.148	0.323
-234.830	247.303	0.088	0.147
-233.815	-50.375	0.109	-0.051
-232.800	103.161	-0.179	-0.207
-231.786	-200.000	-0.025	0.119
-230.771	141.264	-0.390	0.508
-229.757	-26.414	0.314	-0.181
-228.742	-200.000	0.002	0.074
-227.727	-118.075	-0.429	-0.075
-226.713	-11.268	0.124	-0.080
-225.698	101.875	-0.117	0.134
-224.684	56.521	0.124	0.119
-223.669	553.777	0.125	-0.296
-222.655	-65.505	0.258	-0.102
-221.640	106.368	0.297	0.346
-220.625	-10.249	-0.345	0.225
-219.611	-194.370	-0.352	-0.003
-218.596	-126.593	0.256	-0.037
-217.582	-197.636	-0.300	0.002
-216.567	-79.984	0.036	0.012
-215.552	-200.000	-0.042	0.228
-214.538	137.587	0.149	0.191
-213.523	-44.483	-0.236	-0.116
-212.509	-200.000	-0.024	0.366
-211.494	-63.126	-0.216	-0.088
-210.479	800.000	0.027	-0.084
-209.465	483.109	0.184	-0.412
-208.450	355.947	-0.152	0.299
-207.436	125.107	-0.215	0.267
-206.421	800.000	-0.059	0.233
-205.406	-200.000	-0.039	-0.197
-204.392	-117.087	-0.172	0.031
-203.377	37.254	-0.281	-0.245
-202.363	-48.327	-0.189	0.090
-201.348	-9.354	-0.485	0.319
-200.333	443.763	-0.148	-0.319
-199.319	800.000	0.046	-0.129
-198.304	51.344	0.155	-0.145
-197.290	-87.244	0.159	0.047
-196.275	-102.666	-0.460	-0.108
-195.260	-125.154	0.110	0.017
-194.246	-23.168	0.191	0.113
-193.231	142.523	0.138	-0.181
-192.217	-73.303	-0.073	-0.026
-191.202	-137.938	-0.062	-0.007
-190.187	-150.121	-0.077	-0.006
-189.173	3.206	0.073	-0.052
-188.158	800.000	-0.017	-0.069
-187.144	-147.384	0.120	0.010
-186.129	-200.000	0.021	0.162
-185.114	-180.970	-0.163	-0.003
-184.100	800.000	0.067	-0.260
-183.085	-94.105	0.227	-0.061
-182.071	134.741	0.073	0.094
-181.056	-88.123	0.349	0.103
-180.042	40.267	0.326	0.288
-179.027	-90.353	-0.154	-0.044
-178.012	-74.379	-0.088	-0.031
-176.998	-94.131	0.420	-0.113
-175.983	-11.728	0.214	0.138
-174.969	-200.000	0.067	-0.304
-173.954	-200.000	-0.033	-0.220
-172.939	-133.439	0.276	0.034
-171.925	-200.000	-0.014	-0.233
-170.910	-179.189	0.107	-0.002
-169.896	137.341	-0.209	0.269
-168.881	-200.000	0.017	0.431
-167.866	208.520	-0.112	-0.172
-166.852	-104.277	0.065	-0.015
-165.837	800.000	0.066	0.199
-164.823	414.302	-0.055	0.116
-163.808	-200.000	0.040	0.183
-162.793	342.724	-0.100	0.192
-161.779	259.114	0.093	-0.158
-160.764	4.434	-0.167	-0.120
-159.750	-112.290	0.127	0.025
-158.735	-200.000	-0.009	-0.077
-157.720	108.049	0.187	0.219
-156.706	178.691	-0.200	-0.286
-155.691	50.777	0.141	0.131
-154.677	-69.908	0.220	-0.082
-153.662	-101.602	0.208	-0.050
-152.647	-200.000	-0.053	-0.241
-151.633	-121.376	-0.191	0.031
-150.618	-140.581	0.112	-0.011
-149.604	-48.641	-0.335	0.158
-148.589	800.000	0.036	0.140
-147.574	-38.405	-0.345	0.179
-146.560	-0.647	-0.122	0.085
-145.545	800.000	-0.073	-0.289
-144.531	38.777	0.119	0.105
-143.516	280.459	-0.034	0.060
-142.502	65.161	-0.134	-0.133
-141.487	-4.276	0.132	0.090
-140.472	-200.000	0.038	0.566
-139.458	-79.688	-0.200	0.066
-138.443	-5.487	-0.245	-0.165
-137.429	21.717	0.110	0.088
-136.414	38.816	-0.200	0.175
-135.399	-40.341	0.299	0.152
-134.385	-200.000	0.003	-0.106
-133.370	-136.473	0.237	0.027
-132.356	168.453	0.107	0.150
-131.341	160.764	0.130	0.178
-130.326	-52.975	0.049	0.022
-129.312	-200.000	-0.020	0.117
-128.297	296.729	-0.165	0.296
-127.283	442.586	-0.059	0.126
-126.268	-90.612	0.368	-0.104
-125.253	-7.381	0.116	0.077
-124.239	-4.655	-0.107	-0.073
-123.224	364.435	-0.097	-0.192
-122.210	-53.413	-0.393	-0.177
-121.195	-110.265	0.291	-0.059
