DTS Sentinel unit serial number:	SN413079Multiplexer serial number:	ORYXHardware model number:	OX4-SRSoftware version number:	ORYX F/W v4.00 Oryx Data Collector v3.7.2.0data status	okinstallation	princeton_trtdifferential loss correction	single-endedforward channel	channel 4reverse channel	N/Adate	2019/09/14time	18:21:35forward acquisition time	60.00reverse acquisition time	0.00gamma	496.2192k internal	0.2298k external	0.2298temperature offset calibration	1.0106default loss term (dB/km)	0.3790temperature slope calibration	1.0000multiplexer offset coefficient	1.0000multiplexer slope coefficient	1.0000fibre end	0.00T internal ref (°C)	36.87T ext. ref 1 (°C)	4.96T ext. ref 2 (°C)	30.78length (m)	temperature (°C)	Stokes	anti-Stokes-747.200	-33.895	-0.154	-0.087
-746.185	-147.193	-0.062	0.005
-745.171	355.188	-0.045	-0.091
-744.156	172.937	0.159	0.233
-743.142	101.557	0.087	0.103
-742.127	-200.000	-0.011	0.218
-741.112	194.790	0.145	0.224
-740.098	800.000	-0.028	0.108
-739.083	800.000	-0.017	-0.068
-738.069	800.000	0.016	0.052
-737.054	748.374	-0.144	0.396
-736.039	-103.304	0.122	-0.029
-735.025	205.253	-0.124	0.197
-734.010	-76.485	-0.243	0.087
-732.996	-16.955	-0.329	0.212
-731.981	207.073	-0.069	0.109
-730.966	133.468	0.298	-0.394
-729.952	624.688	-0.020	0.050
-728.937	800.000	0.022	0.075
-727.923	800.000	-0.009	-0.027
-726.908	-152.273	-0.162	-0.012
-725.894	-63.831	-0.142	0.059
-724.879	88.353	-0.390	-0.442
-723.864	-200.000	0.007	0.082
-722.850	36.936	0.117	-0.106
-721.835	374.282	0.063	0.130
-720.821	800.000	0.069	-0.195
-719.806	800.000	-0.019	-0.073
-718.791	-129.942	-0.004	-0.001
-717.777	200.366	-0.259	0.406
-716.762	-90.825	0.189	0.056
-715.748	-117.406	-0.210	-0.039
-714.733	53.522	-0.149	-0.146
-713.718	-3.851	-0.193	-0.137
-712.704	-162.601	-0.244	-0.012
-711.689	-200.000	-0.042	-0.349
-710.675	-87.396	0.356	0.110
-709.660	-23.182	0.086	-0.053
-708.645	-200.000	0.044	-0.336
-707.631	113.164	-0.153	0.189
-706.616	-54.041	-0.055	0.026
-705.602	-80.246	-0.447	-0.152
-704.587	195.909	-0.065	-0.101
-703.572	26.993	0.034	-0.029
-702.558	537.360	0.043	0.103
-701.543	-96.396	-0.062	0.017
-700.529	-200.000	0.004	-0.183
-699.514	-200.000	-0.047	-0.257
-698.499	-77.104	0.408	-0.145
-697.485	-99.428	-0.139	-0.036
-696.470	34.487	0.253	-0.226
-695.456	-56.805	0.389	0.175
-694.441	-115.460	-0.109	0.021
-693.426	-101.046	-0.067	0.017
-692.412	-200.000	-0.005	-0.053
-691.397	-55.750	-0.287	-0.131
-690.383	-200.000	0.020	-0.185
-689.368	229.269	0.102	-0.169
-688.354	-200.000	-0.005	-0.155
-687.339	800.000	-0.053	-0.158
-686.324	-109.605	-0.116	0.025
-685.310	-200.000	-0.001	-0.073
-684.295	-148.147	-0.221	0.019
-683.281	-98.409	-0.261	-0.068
-682.266	23.463	0.232	0.195
-681.251	-95.912	-0.412	0.112
-680.237	79.520	-0.173	0.189
-679.222	90.359	0.022	0.025
-678.208	-200.000	0.008	-0.063
-677.193	-200.000	-0.016	0.112
-676.178	317.943	-0.030	0.058
-675.164	-200.000	-0.042	0.297
-674.149	-26.156	-0.229	0.137
-673.135	-132.692	0.153	-0.020
-672.120	83.774	0.058	0.064
-671.105	-123.460	-0.487	-0.079
-670.091	-81.019	-0.183	0.062
-669.076	-143.217	0.228	-0.022
-668.062	-135.702	0.093	0.011
-667.047	-77.155	0.180	0.064
-666.032	-142.647	0.157	0.016
-665.018	-111.083	-0.230	-0.048
-664.003	92.326	-0.048	0.055
-662.989	151.072	-0.137	-0.189
-661.974	286.321	0.112	0.207
-660.959	-200.000	0.029	0.244
-659.945	121.073	0.170	0.215
-658.930	2.510	0.044	-0.032
-657.916	-100.898	0.374	-0.094
-656.901	-115.835	0.208	-0.040
-655.886	-36.345	0.105	0.058
-654.872	800.000	-0.048	-0.140
-653.857	-200.000	-0.003	0.331
-652.843	323.014	-0.146	0.283
-651.828	193.892	-0.064	0.099
-650.814	26.687	0.275	-0.234
-649.799	713.622	0.070	0.189
-648.784	800.000	0.068	-0.222
-647.770	-1.018	-0.088	0.063
-646.755	-94.897	-0.365	-0.100
-645.741	-165.154	-0.380	0.017
-644.726	-156.901	0.296	-0.018
-643.711	-56.856	-0.343	-0.154
-642.697	800.000	0.068	-0.232
-641.682	-155.137	0.373	0.025
-640.668	85.590	-0.172	-0.192
-639.653	-125.749	0.074	-0.011
-638.638	-200.000	0.016	0.116
-637.624	-200.000	-0.044	-0.263
-636.609	-200.000	0.022	-0.181
-635.595	-200.000	0.071	-0.352
-634.580	-63.524	0.268	-0.112
-633.565	-200.000	0.007	0.272
-632.551	800.000	0.064	0.279
-631.536	-2.042	-0.270	-0.193
-630.522	130.326	-0.115	0.149
-629.507	-120.473	-0.199	-0.034
-628.492	152.955	0.039	-0.055
-627.478	100.156	0.246	-0.289
-626.463	-200.000	0.046	0.212
-625.449	124.088	0.184	-0.234
-624.434	-119.138	-0.121	0.022
-623.419	800.000	0.106	-0.377
-622.405	13.003	-0.124	0.097
-621.390	125.924	-0.056	0.072
-620.376	-134.558	-0.299	-0.037
-619.361	800.000	0.119	0.343
-618.346	-150.271	-0.171	0.013
-617.332	-200.000	-0.003	-0.161
-616.317	-200.000	0.001	0.254
-615.303	4.194	0.301	-0.224
-614.288	-40.036	0.203	0.107
-613.273	-39.045	-0.183	-0.098
-612.259	800.000	0.002	-0.005
-611.244	247.586	0.124	-0.212
-610.230	800.000	0.157	0.447
-609.215	64.580	-0.105	0.107
-608.201	194.672	0.162	0.249
-607.186	195.152	-0.079	0.122
-606.171	-200.000	0.049	0.536
-605.157	180.768	-0.099	0.147
-604.142	-38.077	0.214	0.115
-603.128	149.355	0.131	-0.180
-602.113	-200.000	0.038	-0.188
-601.098	584.127	-0.036	-0.089
-600.084	800.000	0.060	0.212
-599.069	24.220	0.360	-0.302
-598.055	-47.074	0.121	-0.060
-597.040	33.851	0.152	0.134
-596.025	172.172	0.167	0.244
-595.011	-110.885	-0.064	-0.013
-593.996	-141.066	-0.159	-0.017
-592.982	150.150	0.103	-0.142
-591.967	92.991	0.218	-0.250
-590.952	-200.000	-0.032	-0.158
-589.938	-23.527	-0.256	-0.156
-588.923	-58.743	-0.151	0.067
-587.909	626.271	0.059	-0.152
-586.894	-96.954	-0.037	0.010
-585.879	6.932	0.278	-0.210
-584.865	125.168	-0.053	-0.067
-583.850	-28.595	0.126	-0.074
-582.836	-120.421	-0.224	0.039
-581.821	45.775	-0.339	-0.317
-580.806	800.000	-0.092	-0.284
-579.792	-107.763	0.336	0.074
-578.777	-200.000	0.024	0.240
-577.763	337.439	-0.053	-0.105
-576.748	265.118	-0.115	0.203
-575.733	-200.000	-0.060	0.308
-574.719	-81.504	-0.355	0.118
-573.704	-117.977	0.476	0.086
-572.690	73.037	-0.076	0.081
-571.675	95.583	0.079	-0.092
-570.661	50.007	0.149	-0.143
-569.646	-200.000	0.001	0.023
-568.631	-200.000	-0.010	0.193
-567.617	61.534	-0.047	-0.048
-566.602	124.440	-0.231	0.294
-565.588	5.380	0.343	-0.257
-564.573	-200.000	-0.015	0.296
-563.558	-200.000	0.033	0.215
-562.544	800.000	-0.039	0.115
-561.529	-131.596	0.248	0.033
-560.515	-68.425	-0.175	0.069
-559.500	800.000	-0.108	-0.379
-558.485	-165.294	-0.115	-0.005
-557.471	549.656	-0.061	0.147
-556.456	370.613	-0.069	-0.142
-555.442	-14.573	-0.244	-0.159
-554.427	800.000	-0.015	-0.065
-553.412	-94.792	0.259	-0.071
-552.398	-200.000	-0.084	-0.426
-551.383	-6.070	-0.158	0.109
-550.369	-188.519	0.183	-0.002
-549.354	-200.000	-0.039	-0.172
-548.339	152.605	0.116	0.161
-547.325	467.159	-0.115	-0.261
-546.310	-4.892	0.108	-0.075
-545.296	148.627	-0.094	0.128
-544.281	-200.000	0.020	-0.249
-543.266	39.377	-0.286	-0.259
-542.252	-200.000	-0.003	0.140
-541.237	-42.222	0.162	-0.084
-540.223	800.000	-0.052	0.174
-539.208	-200.000	0.013	0.058
-538.193	117.424	-0.149	0.185
-537.179	76.427	-0.132	-0.141
-536.164	27.550	0.195	-0.166
-535.150	217.215	-0.160	-0.259
-534.135	-106.239	-0.187	-0.042
-533.121	-119.270	-0.221	-0.039
-532.106	610.719	-0.107	0.271
-531.091	-81.903	-0.111	0.037
-530.077	-85.957	0.294	-0.092
-529.062	-200.000	-0.028	-0.473
-528.048	-105.984	-0.277	-0.063
-527.033	334.366	-0.191	-0.373
-526.018	99.646	-0.253	-0.297
-525.004	6.563	-0.127	0.095
-523.989	-200.000	-0.015	0.221
-522.975	-4.453	0.101	-0.071
-521.960	800.000	0.020	-0.074
-520.945	-89.811	0.025	-0.008
-519.931	160.623	0.163	-0.230
-518.916	302.347	0.133	0.248
-517.902	-15.157	-0.055	0.036
-516.887	-147.950	-0.288	0.024
-515.872	251.359	-0.017	-0.030
-514.858	-200.000	-0.016	-0.081
-513.843	-81.827	0.196	0.065
-512.829	-143.585	-0.238	-0.023
-511.814	-52.610	0.320	-0.150
-510.799	-100.570	0.341	0.085
-509.785	350.916	0.006	-0.011
-508.770	-63.436	0.438	0.182
-507.756	-110.251	-0.235	0.049
-506.741	-45.463	-0.175	0.088
-505.726	-200.000	-0.013	-0.200
-504.712	-34.385	-0.258	-0.143
-503.697	279.861	-0.168	0.303
-502.683	-78.480	0.241	0.084
-501.668	-200.000	-0.028	0.189
-500.653	202.371	-0.142	-0.222
-499.639	-135.753	-0.199	0.024
-498.624	-200.000	0.046	-0.286
-497.610	169.303	0.118	-0.170
-496.595	-200.000	-0.008	0.266
-495.581	-130.163	0.150	-0.021
-494.566	-96.514	-0.160	-0.043
-493.551	523.231	0.213	0.505
-492.537	-200.000	0.000	0.170
-491.522	-200.000	-0.077	-0.479
-490.508	164.288	0.139	0.198
-489.493	393.499	0.120	-0.253
-488.478	735.304	0.065	0.175
-487.464	616.309	0.022	0.057
-486.449	-103.471	-0.161	-0.038
-485.435	-44.224	-0.167	0.085
-484.420	-8.632	0.182	-0.124
-483.405	-200.000	0.038	-0.182
-482.391	-165.789	-0.069	0.003
-481.376	243.688	-0.126	0.214
-480.362	420.320	-0.108	0.234
-479.347	-31.492	-0.066	0.037
-478.332	5.204	-0.273	0.203
-477.318	251.926	0.032	-0.055
-476.303	-200.000	0.004	0.274
-475.289	-31.379	-0.353	-0.201
-474.274	759.627	0.123	-0.336
-473.259	264.696	-0.101	-0.178
-472.245	-17.643	-0.272	-0.173
-471.230	-54.640	-0.124	-0.057
-470.216	-127.267	-0.053	-0.008
-469.201	800.000	0.026	0.097
-468.186	7.283	0.412	0.311
-467.172	289.757	0.036	0.067
-466.157	-169.250	-0.193	-0.007
-465.143	-197.364	0.037	-0.000
-464.128	361.374	0.165	0.333
-463.113	-200.000	-0.410	0.001
-462.099	-81.529	-0.175	0.058
-461.084	-200.000	0.007	0.145
-460.070	-64.335	-0.161	0.066
-459.055	242.010	0.085	-0.143
-458.040	-200.000	0.009	-0.344
-457.026	266.957	-0.118	0.209
-456.011	9.123	-0.107	-0.082
-454.997	-116.309	-0.237	-0.044
-453.982	20.948	0.120	0.099
-452.968	232.455	0.117	-0.193
-451.953	800.000	-0.027	0.099
-450.938	-23.758	0.171	0.104
-449.924	-122.620	0.455	0.075
-448.909	800.000	0.125	-0.368
-447.895	-115.978	-0.146	-0.028
-446.880	129.575	-0.157	-0.203
-445.865	-153.646	0.116	0.008
-444.851	800.000	-0.071	-0.218
-443.836	170.985	0.186	0.269
-442.822	-149.978	-0.285	0.022
-441.807	-62.557	-0.123	0.051
-440.792	287.341	0.046	0.084
-439.778	-193.333	0.174	0.002
-438.763	594.963	0.049	-0.122
-437.749	-53.498	0.104	-0.048
-436.734	800.000	0.063	0.192
-435.719	800.000	-0.055	-0.228
-434.705	-104.621	0.265	0.062
-433.690	124.277	-0.125	0.159
-432.676	-73.196	-0.307	-0.114
-431.661	-33.208	0.212	-0.118
-430.646	-159.952	-0.273	-0.015
-429.632	-47.951	-0.186	-0.091
-428.617	-22.141	0.199	-0.122
-427.603	-164.314	-0.409	-0.019
-426.588	800.000	-0.053	0.201
-425.573	450.554	-0.085	0.188
-424.559	-11.960	0.368	0.243
-423.544	110.737	-0.204	-0.248
-422.530	23.780	0.099	-0.083
-421.515	433.556	0.029	-0.063
-420.500	-66.575	-0.049	0.020
-419.486	-26.303	-0.172	0.101
-418.471	290.640	0.162	0.296
-417.457	800.000	-0.063	0.218
-416.442	-43.706	-0.052	-0.026
-415.428	-146.866	-0.421	0.037
-414.413	-200.000	0.000	-0.464
-413.398	306.606	-0.039	0.073
-412.384	-174.225	-0.231	-0.007
-411.369	173.833	0.060	-0.088
-410.355	69.030	0.270	0.279
-409.340	-178.185	0.135	-0.003
-408.325	142.648	-0.212	-0.283
-407.311	-200.000	0.047	0.246
-406.296	-200.000	-0.006	0.026
-405.282	-200.000	0.023	-0.113
-404.267	95.378	0.071	0.082
-403.252	-200.000	-0.055	0.000
-402.238	154.855	0.124	-0.172
-401.223	-200.000	0.009	0.127
-400.209	-97.451	0.307	0.080
-399.194	220.503	0.097	0.157
-398.179	3.418	0.213	-0.156
-397.165	338.158	-0.111	0.218
-396.150	800.000	-0.050	-0.193
-395.136	-200.000	-0.034	0.231
-394.121	151.789	-0.197	-0.270
-393.106	105.814	-0.121	0.144
-392.092	426.844	0.128	-0.279
-391.077	800.000	0.037	0.120
-390.063	360.526	-0.179	0.362
-389.048	-47.765	0.115	-0.056
-388.033	140.231	-0.078	0.104
-387.019	-197.463	-0.252	-0.002
-386.004	-200.000	0.029	0.132
-384.990	-92.391	-0.247	-0.070
-383.975	665.600	-0.049	0.127
-382.960	48.754	-0.144	-0.135
-381.946	520.099	-0.088	0.207
-380.931	-31.965	0.240	-0.135
-379.917	-48.020	0.206	0.100
-378.902	-14.984	-0.199	-0.128
-377.888	-113.861	0.016	-0.003
-376.873	-18.106	-0.031	-0.020
-375.858	-200.000	0.040	0.224
-374.844	-3.044	0.375	-0.263
-373.829	527.686	-0.127	-0.302
-372.815	800.000	0.063	-0.230
-371.800	-200.000	0.002	0.061
-370.785	35.659	0.069	-0.061
-369.771	-63.369	0.260	0.107
-368.756	526.406	-0.030	0.070
-367.742	-77.524	0.178	-0.062
-366.727	323.812	-0.083	-0.159
-365.712	-200.000	-0.007	0.120
-364.698	23.257	-0.254	0.210
-363.683	-73.936	-0.266	-0.097
-362.669	-133.343	0.124	-0.016
-361.654	68.605	0.044	-0.045
-360.639	-9.787	0.208	-0.139
-359.625	-66.639	0.190	0.076
-358.610	162.834	-0.081	0.114
-357.596	31.101	-0.161	-0.138
-356.581	657.785	-0.024	-0.062
-355.566	-51.687	0.152	0.071
-354.552	246.112	0.100	0.169
-353.537	312.778	-0.060	-0.113
-352.523	-200.000	-0.018	0.091
-351.508	-114.821	0.080	0.015
-350.493	384.604	-0.085	-0.176
-349.479	-44.331	0.104	-0.052
-348.464	-200.000	0.014	-0.252
-347.450	274.356	-0.121	-0.215
-346.435	741.253	-0.078	-0.211
-345.420	-33.879	-0.189	-0.105
-344.406	-4.760	0.155	0.108
-343.391	-200.000	0.014	-0.161
-342.377	88.000	0.173	0.193
-341.362	467.431	-0.112	-0.253
-340.348	-9.288	0.106	0.071
-339.333	-200.000	0.078	-0.479
-338.318	-47.874	-0.176	0.085
-337.304	-69.287	0.269	0.104
-336.289	-40.576	0.379	-0.197
-335.275	800.000	-0.069	0.294
-334.260	-200.000	-0.068	0.369
-333.245	125.944	-0.100	0.127
-332.231	-200.000	-0.002	-0.103
-331.216	-200.000	0.005	-0.067
-330.202	61.966	0.206	0.206
-329.187	74.603	0.112	-0.118
-328.172	-150.969	0.194	0.015
-327.158	-129.250	-0.430	0.060
-326.143	-167.955	0.186	0.007
-325.129	-200.000	0.045	0.224
-324.114	-91.283	0.480	-0.138
-323.099	379.531	-0.034	-0.071
-322.085	24.051	-0.228	0.189
-321.070	15.317	-0.145	0.114
-320.056	-200.000	-0.008	-0.262
-319.041	-200.000	0.003	-0.351
-318.026	-134.404	-0.368	-0.045
-317.012	800.000	0.056	-0.231
-315.997	-153.972	-0.285	0.019
-314.983	-41.478	-0.092	-0.048
-313.968	4.336	0.242	-0.178
-312.953	95.228	-0.087	0.099
-311.939	-81.887	-0.200	0.066
-310.924	-72.723	-0.241	0.089
-309.910	20.978	-0.053	-0.043
-308.895	-39.246	0.142	0.075
-307.880	-160.566	0.232	-0.012
-306.866	-20.663	-0.358	0.221
-305.851	-23.117	-0.116	-0.070
-304.837	800.000	-0.093	-0.270
-303.822	-200.000	-0.072	-0.419
-302.807	-200.000	-0.006	0.355
-301.793	439.645	-0.032	0.070
-300.778	-200.000	0.007	-0.344
-299.764	-200.000	-0.024	-0.231
-298.749	21.969	-0.167	-0.137
-297.735	-200.000	-0.002	-0.016
-296.720	14.333	-0.123	0.096
-295.705	-188.398	-0.193	0.002
-294.691	369.878	-0.100	0.203
-293.676	286.743	0.166	-0.301
-292.662	-200.000	-0.034	0.181
-291.647	-200.000	0.046	0.261
-290.632	-25.424	0.237	-0.141
-289.618	-200.000	-0.011	-0.203
-288.603	-112.085	0.114	-0.023
-287.589	365.054	-0.053	-0.107
-286.574	57.078	0.044	-0.043
-285.559	-31.762	0.145	-0.082
-284.545	374.845	-0.196	0.400
-283.530	-68.039	-0.175	0.069
-282.516	134.302	0.078	-0.101
-281.501	-200.000	-0.006	0.105
-280.486	-140.961	-0.109	-0.011
-279.472	550.766	-0.178	0.429
-278.457	-200.000	-0.027	0.269
-277.443	-133.267	-0.189	0.024
-276.428	124.129	-0.116	0.146
-275.413	-200.000	0.066	-0.370
-274.399	-104.532	0.239	0.055
-273.384	-152.107	0.233	0.017
-272.370	77.511	0.063	0.067
-271.355	382.739	0.134	-0.277
-270.340	-42.558	0.149	-0.076
-269.326	-80.218	0.126	0.042
-268.311	-188.447	-0.040	0.001
-267.297	-82.527	-0.320	0.104
-266.282	498.622	-0.080	0.186
-265.267	-73.454	-0.372	-0.136
-264.253	-90.870	0.320	-0.092
-263.238	-99.949	-0.223	-0.056
-262.224	-43.272	0.260	-0.132
-261.209	-92.434	0.024	0.007
-260.195	218.845	-0.065	0.105
-259.180	-200.000	-0.006	-0.032
-258.165	800.000	0.040	0.122
-257.151	577.330	-0.064	-0.156
-256.136	-193.553	0.372	-0.003
-255.122	710.226	-0.080	-0.212
-254.107	-22.117	-0.080	0.049
-253.092	139.391	-0.141	0.185
-252.078	541.048	-0.068	0.163
-251.063	-81.557	0.233	0.077
-250.049	800.000	-0.025	-0.094
-249.034	-110.928	-0.237	-0.049
-248.019	-200.000	0.015	0.351
-247.005	800.000	0.011	0.042
-245.990	-121.827	0.211	0.035
-244.976	-142.560	0.125	-0.012
-243.961	-47.255	-0.279	0.136
-242.946	-200.000	-0.014	-0.291
-241.932	-194.466	-0.230	0.002
-240.917	-28.959	0.150	-0.086
-239.903	-200.000	-0.024	0.129
-238.888	-200.000	0.035	-0.321
-237.873	-58.643	0.412	-0.179
-236.859	287.259	-0.196	0.355
-235.844	-200.000	-0.037	0.390
-234.830	10.574	-0.281	0.214
-233.815	-105.441	0.110	-0.025
-232.800	-73.067	0.419	0.154
-231.786	-75.705	-0.230	-0.082
-230.771	-127.552	-0.101	0.015
-229.757	-124.848	-0.381	-0.059
-228.742	-152.719	-0.238	0.017
-227.727	204.805	0.182	-0.282
-226.713	103.887	0.180	0.211
-225.698	-200.000	0.021	0.160
-224.684	143.004	0.164	0.218
-223.669	-200.000	0.032	0.383
-222.655	-156.464	-0.120	0.007
-221.640	268.824	-0.175	0.307
-220.625	-40.978	0.354	0.183
-219.611	215.685	-0.098	0.155
-218.596	554.537	0.061	-0.147
-217.582	800.000	-0.094	0.361
-216.567	393.446	0.041	0.085
-215.552	800.000	-0.069	0.225
-214.538	-200.000	-0.032	0.343
-213.523	-48.508	0.282	-0.136
-212.509	129.658	0.054	0.068
-211.494	-200.000	-0.001	0.055
-210.479	800.000	0.084	-0.243
-209.465	-105.262	0.107	0.024
-208.450	-96.628	0.170	0.045
-207.436	-145.972	0.143	-0.013
-206.421	12.561	0.338	0.261
-205.406	800.000	0.045	0.145
-204.392	-0.107	-0.254	-0.181
-203.377	193.971	0.260	-0.393
-202.363	-64.805	-0.347	0.140
-201.348	-28.404	0.198	-0.114
-200.333	1.117	0.173	0.124
-199.319	116.902	-0.125	-0.153
-198.304	800.000	-0.139	-0.401
-197.290	3.468	-0.066	-0.048
-196.275	653.013	0.069	-0.176
-195.260	-66.031	0.394	0.157
-194.246	-165.027	-0.226	-0.010
-193.231	177.129	0.119	-0.173
-192.217	-0.843	0.312	0.221
-191.202	-79.669	0.181	-0.061
-190.187	116.655	-0.089	0.109
-189.173	-69.017	0.212	0.081
-188.158	-200.000	-0.005	0.156
-187.144	-173.048	0.306	0.009
-186.129	-48.582	0.334	0.160
-185.114	-69.343	0.231	0.089
-184.100	775.201	0.130	0.355
-183.085	-38.138	-0.166	-0.088
-182.071	800.000	-0.057	-0.184
-181.056	-118.235	0.110	-0.020
-180.042	-44.277	-0.136	0.068
-179.027	-60.122	0.371	0.158
-178.012	-151.479	-0.127	-0.009
-176.998	40.427	-0.147	0.132
-175.983	139.343	-0.114	-0.150
-174.969	-143.573	-0.293	-0.028
-173.954	47.358	-0.147	0.137
-172.939	800.000	-0.022	0.071
-171.925	-200.000	0.025	0.233
-170.910	39.955	0.306	0.274
-169.896	209.194	-0.167	-0.262
-168.881	-101.178	0.395	0.096
-167.866	5.114	0.115	0.085
-166.852	1.649	0.105	0.076
-165.837	2.459	0.178	-0.129
-164.823	-200.000	-0.005	0.142
-163.808	-200.000	0.007	0.057
-162.793	-200.000	0.019	0.218
-161.779	-200.000	-0.013	-0.210
-160.764	-99.921	0.265	0.066
-159.750	-101.094	-0.056	-0.014
-158.735	-37.231	-0.462	-0.246
-157.720	-60.397	0.331	0.140
-156.706	11.387	0.109	-0.083
-155.691	66.323	0.082	0.083
-154.677	-146.342	-0.293	0.026
-153.662	-119.224	0.357	0.062
-152.647	147.090	-0.129	-0.173
-151.633	175.393	-0.205	-0.296
-150.618	89.219	-0.374	-0.415
-149.604	-200.000	0.092	0.408
-148.589	-118.350	0.178	0.032
-147.574	629.104	0.062	0.157
-146.560	-64.374	0.255	0.103
-145.545	-72.145	-0.252	0.093
-144.531	106.125	0.167	-0.197
-143.516	-200.000	-0.025	0.258
-142.502	-200.000	0.009	0.081
-141.487	-152.501	-0.075	0.005
-140.472	146.189	0.115	0.154
-139.458	-99.752	0.313	0.078
-138.443	86.110	0.149	0.164
-137.429	800.000	0.058	-0.190
-136.414	1.324	0.295	-0.211
-135.399	800.000	-0.061	0.173
-134.385	-92.985	0.053	-0.015
-133.370	10.243	-0.123	-0.093
-132.356	-171.599	0.186	0.006
-131.341	378.404	0.024	0.049
-130.326	291.716	-0.027	-0.049
-129.312	93.704	-0.098	0.111
-128.297	50.732	0.182	-0.172
-127.283	-13.766	-0.310	-0.200
-126.268	-53.206	0.216	-0.099
-125.253	-32.251	-0.308	0.172
-124.239	21.660	0.108	0.088
-123.224	518.649	-0.081	0.189
-122.210	-44.862	-0.276	0.137
