DTS Sentinel unit serial number:	SN413079Multiplexer serial number:	ORYXHardware model number:	OX4-SRSoftware version number:	ORYX F/W v4.00 Oryx Data Collector v3.7.2.0data status	okinstallation	princeton_trtdifferential loss correction	single-endedforward channel	channel 4reverse channel	N/Adate	2019/09/18time	16:33:35forward acquisition time	60.00reverse acquisition time	0.00gamma	496.2192k internal	0.2289k external	0.2289temperature offset calibration	1.0007default loss term (dB/km)	0.3790temperature slope calibration	1.0000multiplexer offset coefficient	1.0000multiplexer slope coefficient	1.0000fibre end	0.00T internal ref (°C)	39.37T ext. ref 1 (°C)	0.85T ext. ref 2 (°C)	36.65length (m)	temperature (°C)	Stokes	anti-Stokes-747.200	31.649	-0.339	0.299
-746.185	-200.000	-0.029	0.323
-745.171	-200.000	0.042	0.249
-744.156	161.025	-0.015	-0.021
-743.142	-200.000	-0.096	-0.482
-742.127	-200.000	-0.039	0.201
-741.112	360.082	0.045	0.092
-740.098	92.001	-0.052	0.060
-739.083	-200.000	0.200	-0.000
-738.069	71.456	-0.113	-0.120
-737.054	-73.706	-0.136	0.051
-736.039	-106.682	-0.283	-0.064
-735.025	-40.641	-0.109	-0.058
-734.010	800.000	0.078	-0.255
-732.996	577.147	0.136	0.340
-731.981	-200.000	0.017	0.237
-730.966	35.865	-0.126	-0.114
-729.952	15.911	-0.238	0.192
-728.937	-51.451	-0.208	-0.100
-727.923	-200.000	-0.061	-0.275
-726.908	-4.442	-0.277	-0.196
-725.894	-200.000	0.011	0.113
-724.879	-200.000	-0.016	-0.399
-723.864	-200.000	-0.005	0.069
-722.850	-200.000	0.330	0.000
-721.835	-153.602	-0.208	0.015
-720.821	800.000	-0.132	-0.482
-719.806	3.464	0.183	-0.136
-718.791	-117.138	0.085	-0.016
-717.777	-200.000	-0.008	0.363
-716.762	-67.403	-0.085	-0.034
-715.748	29.974	-0.196	0.171
-714.733	134.151	-0.190	-0.253
-713.718	-104.968	-0.447	-0.105
-712.704	-200.000	0.001	-0.089
-711.689	100.201	-0.086	-0.102
-710.675	-161.547	-0.151	-0.008
-709.660	800.000	0.041	-0.137
-708.645	630.301	-0.063	-0.162
-707.631	-16.518	0.155	0.100
-706.616	-200.000	0.038	0.292
-705.602	-200.000	-0.003	0.233
-704.587	21.475	0.202	-0.168
-703.572	-200.000	0.015	-0.093
-702.558	122.755	0.191	-0.244
-701.543	468.681	-0.091	-0.209
-700.529	62.773	-0.049	0.050
-699.514	-200.000	-0.034	0.381
-698.499	72.073	-0.250	-0.266
-697.485	-112.719	0.200	0.041
-696.470	-200.000	0.072	-0.422
-695.456	90.103	-0.143	-0.164
-694.441	800.000	-0.050	0.155
-693.426	-52.796	0.115	0.054
-692.412	0.948	-0.266	-0.195
-691.397	800.000	0.058	-0.229
-690.383	-167.367	-0.117	-0.005
-689.368	23.653	0.189	0.159
-688.354	47.161	-0.059	0.057
-687.339	-121.601	-0.454	0.077
-686.324	-144.960	-0.201	-0.019
-685.310	46.258	0.271	-0.257
-684.295	-200.000	-0.012	-0.182
-683.281	8.942	0.212	-0.164
-682.266	800.000	-0.049	0.191
-681.251	142.501	0.025	-0.034
-680.237	-16.510	0.197	-0.128
-679.222	-124.192	-0.290	0.046
-678.208	93.257	-0.040	0.046
-677.193	-58.749	-0.138	-0.061
-676.178	-200.000	0.042	-0.315
-675.164	553.209	0.096	-0.235
-674.149	148.567	-0.076	-0.105
-673.135	46.899	-0.062	0.059
-672.120	-125.468	0.307	0.048
-671.105	-181.482	0.295	-0.006
-670.091	800.000	-0.032	0.092
-669.076	-87.593	0.031	-0.010
-668.062	165.462	0.130	-0.188
-667.047	34.216	-0.300	0.268
-666.032	800.000	0.044	-0.154
-665.018	-109.523	-0.152	-0.033
-664.003	-143.377	0.169	0.017
-662.989	199.326	0.146	0.229
-661.974	-200.000	-0.045	-0.281
-660.959	-75.091	0.082	0.030
-659.945	-88.738	-0.134	-0.041
-658.930	103.621	0.054	-0.064
-657.916	565.346	0.134	-0.332
-656.901	-74.817	-0.155	0.057
-655.886	-158.474	-0.485	0.029
-654.872	136.689	-0.075	-0.100
-653.857	-200.000	-0.005	-0.198
-652.843	-200.000	0.003	-0.057
-651.828	266.463	-0.046	-0.082
-650.814	23.158	-0.286	-0.240
-649.799	128.250	-0.274	0.356
-648.784	800.000	0.063	0.183
-647.770	421.975	-0.115	0.253
-646.755	-35.170	0.184	-0.102
-645.741	329.050	0.172	-0.338
-644.726	156.582	0.256	-0.360
-643.711	-161.829	-0.205	0.011
-642.697	-0.660	0.397	0.287
-641.682	110.341	-0.083	-0.102
-640.668	800.000	0.031	-0.089
-639.653	-48.364	-0.128	-0.063
-638.638	800.000	0.033	-0.119
-637.624	800.000	-0.003	-0.014
-636.609	392.102	-0.091	0.194
-635.595	-116.598	-0.213	0.040
-634.580	162.825	-0.036	0.051
-633.565	-192.051	-0.175	0.002
-632.551	-141.421	-0.225	-0.023
-631.536	-181.809	-0.102	-0.002
-630.522	-59.244	-0.286	0.126
-629.507	-64.684	0.111	0.046
-628.492	-200.000	0.004	-0.312
-627.478	420.149	0.126	-0.275
-626.463	-200.000	0.020	-0.254
-625.449	270.097	0.093	-0.167
-624.434	-164.866	-0.260	0.012
-623.419	191.591	0.132	0.202
-622.405	129.054	-0.151	0.196
-621.390	-200.000	-0.011	0.132
-620.376	-17.094	-0.078	-0.050
-619.361	800.000	0.050	-0.218
-618.346	118.241	-0.177	-0.223
-617.332	63.260	-0.217	-0.221
-616.317	-23.314	-0.091	0.056
-615.303	800.000	0.032	-0.138
-614.288	800.000	0.079	0.223
-613.273	18.376	-0.153	0.124
-612.259	-173.311	-0.202	0.006
-611.244	47.696	0.185	-0.176
-610.230	-49.862	-0.120	0.058
-609.215	-20.521	-0.151	-0.095
-608.201	568.711	0.109	-0.269
-607.186	129.933	0.120	0.156
-606.171	97.397	0.145	0.169
-605.157	800.000	-0.023	-0.086
-604.142	-99.872	-0.082	-0.021
-603.128	94.845	-0.072	0.084
-602.113	-111.536	0.402	-0.083
-601.098	-28.607	-0.166	0.097
-600.084	-200.000	0.040	0.460
-599.069	-104.528	0.044	-0.010
-598.055	-105.946	-0.218	0.050
-597.040	-70.668	-0.172	0.066
-596.025	800.000	-0.109	0.337
-595.011	-122.623	0.354	0.058
-593.996	-56.400	0.061	0.028
-592.982	167.961	-0.042	0.061
-591.967	-44.136	0.129	0.066
-590.952	-100.335	0.355	0.090
-589.938	-200.000	-0.033	0.256
-588.923	150.791	0.146	0.202
-587.909	-24.581	-0.193	-0.117
-586.894	-200.000	-0.007	-0.072
-585.879	-34.141	-0.379	-0.212
-584.865	50.806	0.132	0.127
-583.850	350.288	-0.013	-0.026
-582.836	6.277	-0.155	0.117
-581.821	56.260	-0.035	-0.035
-580.806	72.377	-0.052	0.056
-579.792	-64.683	0.152	0.063
-578.777	-165.588	0.119	-0.005
-577.763	188.740	0.045	0.068
-576.748	-200.000	-0.031	-0.201
-575.733	405.108	0.075	-0.161
-574.719	-100.274	0.124	-0.031
-573.704	353.135	0.111	0.224
-572.690	57.703	0.147	0.147
-571.675	-200.000	0.049	-0.400
-570.661	619.055	0.112	0.286
-569.646	-200.000	0.050	0.383
-568.631	-48.923	-0.216	0.106
-567.617	-75.528	0.332	0.120
-566.602	336.141	-0.180	0.355
-565.588	21.567	0.280	0.231
-564.573	164.721	0.100	0.144
-563.558	-200.000	-0.012	0.061
-562.544	-54.511	-0.126	0.058
-561.529	793.048	-0.073	-0.205
-560.515	800.000	-0.054	-0.155
-559.500	169.126	0.035	-0.050
-558.485	-200.000	0.051	0.384
-557.471	-54.683	0.330	-0.152
-556.456	-200.000	0.010	0.156
-555.442	404.527	0.111	-0.238
-554.427	313.640	-0.103	0.197
-553.412	-5.526	0.247	0.172
-552.398	-39.802	-0.278	0.148
-551.383	800.000	-0.061	0.250
-550.369	-76.196	-0.247	-0.089
-549.354	-97.846	-0.207	0.054
-548.339	800.000	-0.037	0.149
-547.325	8.103	-0.466	-0.356
-546.310	22.385	0.084	-0.070
-545.296	73.164	0.118	0.126
-544.281	800.000	0.043	-0.126
-543.266	7.838	-0.279	0.213
-542.252	324.884	0.017	0.033
-541.237	197.739	-0.126	0.196
-540.223	-79.680	-0.194	0.066
-539.208	715.479	-0.147	0.396
-538.193	-168.665	0.279	0.011
-537.179	-200.000	-0.010	0.088
-536.164	280.579	-0.211	0.384
-535.150	-99.636	-0.309	-0.079
-534.135	392.129	-0.063	-0.132
-533.121	56.386	-0.031	-0.031
-532.106	270.260	0.102	-0.182
-531.091	-170.876	0.229	-0.008
-530.077	800.000	0.067	-0.283
-529.062	354.797	0.075	-0.151
-528.048	-200.000	0.008	-0.149
-527.033	-200.000	0.025	-0.228
-526.018	11.227	-0.212	-0.165
-525.004	-41.001	-0.313	0.164
-523.989	183.822	0.071	0.106
-522.975	4.715	0.135	0.101
-521.960	-130.106	0.052	-0.007
-520.945	-200.000	-0.019	-0.119
-519.931	-200.000	-0.013	-0.122
-518.916	270.775	-0.174	-0.312
-517.902	62.756	0.060	0.061
-516.887	58.425	0.213	-0.212
-515.872	-17.882	-0.286	0.182
-514.858	197.306	-0.082	0.128
-513.843	-82.454	0.033	0.011
-512.829	-200.000	0.043	0.380
-511.814	362.020	0.096	-0.196
-510.799	66.548	0.080	0.082
-509.785	-0.270	-0.186	-0.134
-508.770	-200.000	-0.067	-0.348
-507.756	-200.000	0.027	-0.201
-506.741	29.983	-0.137	0.118
-505.726	-200.000	-0.016	-0.103
-504.712	29.031	-0.210	-0.181
-503.697	283.801	0.068	-0.123
-502.683	-197.048	0.187	0.001
-501.668	484.550	-0.066	-0.153
-500.653	31.446	-0.062	0.054
-499.639	-200.000	0.019	0.168
-498.624	427.721	0.113	-0.247
-497.610	-29.287	0.216	0.126
-496.595	202.519	0.042	0.067
-495.581	42.890	0.155	0.144
-494.566	64.859	0.297	-0.304
-493.551	74.038	0.192	-0.205
-492.537	-200.000	-0.064	0.309
-491.522	-101.226	0.486	0.121
-490.508	-14.899	-0.076	-0.050
-489.493	-52.695	0.349	0.164
-488.478	-2.562	-0.188	-0.134
-487.464	233.364	-0.137	-0.229
-486.449	-35.129	0.373	-0.206
-485.435	-111.300	0.329	0.068
-484.420	9.793	-0.105	-0.080
-483.405	413.822	0.054	-0.117
-482.391	75.504	-0.158	-0.169
-481.376	39.822	0.299	-0.272
-480.362	17.025	-0.102	0.082
-479.347	-179.050	-0.237	-0.005
-478.332	-98.384	0.133	0.035
-477.318	800.000	-0.061	0.252
-476.303	-161.223	-0.350	-0.018
-475.289	-116.761	-0.245	0.046
-474.274	214.468	0.069	-0.110
-473.259	120.471	-0.187	-0.236
-472.245	43.021	0.059	-0.055
-471.230	-79.015	0.082	-0.028
-470.216	-90.799	0.321	-0.094
-469.201	-85.805	-0.203	0.064
-468.186	5.816	-0.069	0.052
-467.172	410.489	-0.038	-0.082
-466.157	-106.667	0.246	0.055
-465.143	295.595	0.035	-0.065
-464.128	-200.000	-0.020	-0.144
-463.113	-200.000	0.002	-0.019
-462.099	-15.763	0.202	0.131
-461.084	392.532	-0.115	-0.243
-460.070	59.245	-0.115	-0.115
-459.055	-99.872	0.182	-0.046
-458.040	-200.000	-0.008	0.288
-457.026	-79.783	-0.164	0.056
-456.011	142.598	-0.160	-0.215
-454.997	-200.000	-0.037	-0.232
-453.982	-119.728	0.171	-0.030
-452.968	-12.115	-0.206	-0.137
-451.953	-83.792	0.110	0.036
-450.938	-114.763	-0.323	-0.063
-449.924	0.785	-0.206	-0.150
-448.909	-200.000	0.013	-0.125
-447.895	800.000	-0.020	0.077
-446.880	-48.793	0.182	-0.089
-445.865	-98.835	0.133	0.034
-444.851	270.287	0.195	0.347
-443.836	121.326	-0.063	0.079
-442.822	-105.374	0.344	0.079
-441.807	-149.358	-0.272	-0.022
-440.792	-152.947	0.239	-0.017
-439.778	-51.435	0.167	-0.079
-438.763	65.179	-0.141	-0.144
-437.749	-162.178	0.315	-0.016
-436.734	800.000	0.027	-0.098
-435.719	-97.562	-0.057	-0.015
-434.705	210.566	0.142	0.227
-433.690	-200.000	0.029	-0.278
-432.676	368.955	0.133	0.273
-431.661	-30.062	0.237	0.137
-430.646	-103.969	0.306	-0.072
-429.632	-7.822	0.340	-0.232
-428.617	126.541	0.232	0.297
-427.603	-200.000	-0.047	0.328
-426.588	-200.000	-0.004	-0.026
-425.573	724.313	0.021	0.058
-424.559	410.804	-0.046	0.099
-423.544	-200.000	0.013	0.286
-422.530	-141.826	0.185	0.019
-421.515	113.528	0.078	0.096
-420.500	150.538	-0.178	0.244
-419.486	-200.000	0.009	0.113
-418.471	189.982	0.222	0.338
-417.457	39.123	0.090	0.081
-416.442	78.372	-0.253	0.273
-415.428	-24.034	0.255	-0.154
-414.413	-177.271	0.216	0.005
-413.398	-200.000	0.049	-0.464
-412.384	-10.407	-0.176	0.118
-411.369	800.000	-0.069	0.298
-410.355	-16.018	0.043	0.028
-409.340	-193.664	-0.460	-0.004
-408.325	59.888	0.090	-0.090
-407.311	422.282	0.062	-0.134
-406.296	136.789	-0.069	-0.091
-405.282	183.873	-0.205	-0.307
-404.267	-129.258	-0.393	0.055
-403.252	188.321	0.202	0.305
-402.238	390.482	0.073	0.154
-401.223	174.774	0.054	0.079
-400.209	-141.271	0.267	-0.027
-399.194	-200.000	0.270	0.001
-398.179	51.637	-0.193	0.186
-397.165	-49.871	0.123	0.059
-396.150	800.000	-0.111	-0.356
-395.136	-9.526	-0.235	-0.159
-394.121	129.289	-0.092	0.118
-393.106	-200.000	0.001	0.139
-392.092	-200.000	-0.009	0.077
-391.077	18.184	0.201	-0.162
-390.063	73.615	-0.152	-0.161
-389.048	800.000	-0.043	-0.123
-388.033	203.651	0.075	0.117
-387.019	118.770	-0.129	0.161
-386.004	-88.369	-0.162	-0.049
-384.990	-200.000	0.054	-0.292
-383.975	685.516	0.045	-0.119
-382.960	-133.554	0.190	0.024
-381.946	60.485	-0.147	-0.147
-380.931	-115.306	0.195	-0.037
-379.917	-200.000	-0.034	-0.333
-378.902	-8.789	-0.174	0.118
-377.888	470.259	0.100	0.228
-376.873	19.084	0.030	0.024
-375.858	-200.000	0.028	0.257
-374.844	800.000	0.042	0.126
-373.829	23.951	-0.085	-0.071
-372.815	-155.935	-0.207	-0.013
-371.800	-200.000	0.024	-0.116
-370.785	-200.000	0.033	-0.265
-369.771	-143.176	0.092	0.009
-368.756	-200.000	-0.025	0.115
-367.742	418.999	-0.133	0.287
-366.727	-200.000	-0.001	-0.214
-365.712	217.329	0.170	0.273
-364.698	-200.000	0.024	0.140
-363.683	-146.149	0.199	0.018
-362.669	-36.240	-0.154	-0.084
-361.654	81.171	-0.142	-0.155
-360.639	97.031	0.062	0.072
-359.625	-133.471	-0.105	0.013
-358.610	145.168	0.171	-0.231
-357.596	24.857	-0.058	-0.048
-356.581	298.671	-0.043	0.080
-355.566	-200.000	-0.005	-0.063
-354.552	-14.396	0.186	-0.121
-353.537	800.000	0.011	0.041
-352.523	-200.000	-0.009	0.432
-351.508	-115.947	-0.290	-0.055
-350.493	-33.257	0.303	-0.169
-349.479	-10.951	-0.288	0.192
-348.464	-174.870	-0.061	-0.002
-347.450	-86.878	-0.129	0.040
-346.435	-74.223	0.077	-0.028
-345.420	233.908	0.109	-0.181
-344.406	68.502	0.127	0.131
-343.391	-13.038	-0.216	0.141
-342.377	147.952	-0.087	-0.119
-341.362	461.740	0.131	0.295
-340.348	235.937	0.195	0.325
-339.333	-58.353	0.119	-0.052
-338.318	800.000	0.077	0.223
-337.304	-143.720	0.091	-0.009
-336.289	146.389	0.095	-0.129
-335.275	-56.571	-0.139	0.062
-334.260	800.000	-0.052	0.221
-333.245	204.198	0.079	0.124
-332.231	161.070	0.014	0.019
-331.216	-33.988	0.126	0.070
-330.202	-11.643	0.209	0.139
-329.187	800.000	0.122	0.411
-328.172	502.040	0.065	0.151
-327.158	800.000	0.015	-0.066
-326.143	-200.000	0.024	0.158
-325.129	-105.395	-0.220	0.050
-324.114	-109.417	-0.259	0.055
-323.099	-155.599	0.255	-0.017
-322.085	-200.000	-0.015	0.071
-321.070	451.431	0.058	0.130
-320.056	-200.000	-0.047	-0.399
-319.041	-33.135	0.072	0.040
-318.026	-200.000	0.047	0.404
-317.012	-5.136	0.095	0.066
-315.997	-5.121	-0.084	-0.058
-314.983	40.299	0.163	0.148
-313.968	-6.834	-0.265	0.182
-312.953	22.638	-0.226	-0.186
-311.939	-62.943	-0.152	-0.063
-310.924	-138.233	0.088	-0.010
-309.910	767.001	-0.115	-0.314
-308.895	313.082	0.111	-0.210
-307.880	656.311	0.027	-0.069
-306.866	191.354	0.152	-0.231
-305.851	238.570	-0.088	-0.147
-304.837	132.943	0.065	-0.085
-303.822	800.000	0.041	0.128
-302.807	301.493	0.143	0.265
-301.793	800.000	0.082	-0.304
-300.778	-38.819	0.327	0.174
-299.764	-120.237	-0.164	-0.028
-298.749	-154.019	0.101	0.007
-297.735	-121.301	-0.179	-0.030
-296.720	-150.170	-0.130	0.010
-295.705	459.796	-0.017	0.038
-294.691	322.862	0.159	-0.305
-293.676	800.000	0.079	-0.222
-292.662	301.600	0.087	-0.162
-291.647	800.000	0.082	0.274
-290.632	-51.719	0.098	0.046
-289.618	8.672	0.220	-0.167
-288.603	632.622	0.066	0.167
-287.589	-200.000	-0.019	0.167
-286.574	-69.561	0.341	-0.131
-285.559	53.785	0.232	-0.224
-284.545	-38.692	-0.069	0.037
-283.530	-8.415	0.183	0.124
-282.516	-8.708	-0.111	-0.075
-281.501	-145.725	-0.072	-0.006
-280.486	-67.649	0.257	-0.101
-279.472	37.069	-0.239	0.213
-278.457	-20.968	-0.118	-0.073
-277.443	522.404	0.073	0.171
-276.428	-153.620	-0.253	-0.018
-275.413	800.000	-0.114	-0.387
-274.399	301.028	-0.169	-0.314
-273.384	25.465	0.370	-0.310
-272.370	289.264	-0.128	0.233
-271.355	-200.000	0.036	-0.397
-270.340	78.798	0.109	-0.118
-269.326	-61.660	-0.425	0.179
-268.311	-40.834	-0.438	0.228
-267.297	146.414	-0.224	0.302
-266.282	-92.598	-0.313	0.088
-265.267	21.317	-0.300	-0.245
-264.253	301.112	0.155	0.288
-263.238	-73.707	-0.247	-0.091
-262.224	66.198	0.115	-0.117
-261.209	-168.290	-0.199	0.008
-260.195	-200.000	0.044	0.213
-259.180	222.259	-0.226	-0.366
-258.165	-66.074	0.071	-0.029
-257.151	-94.228	0.313	-0.086
-256.136	-117.288	0.100	0.018
-255.122	-51.910	0.078	0.037
-254.107	-163.653	-0.114	0.005
-253.092	-200.000	0.016	-0.244
-252.078	-200.000	0.019	-0.305
-251.063	-42.754	0.271	0.138
-250.049	416.579	0.059	-0.127
-249.034	182.681	-0.158	0.234
-248.019	-122.016	0.141	0.023
-247.005	-116.252	-0.127	-0.024
-245.990	-88.526	-0.265	0.080
-244.976	47.973	0.047	0.044
-243.961	-121.451	0.351	-0.059
-242.946	50.397	-0.228	0.217
-241.932	-18.491	-0.025	0.016
-240.917	92.709	0.177	0.201
-239.903	-200.000	-0.036	-0.207
-238.888	34.272	-0.104	0.091
-237.873	535.844	-0.087	0.208
-236.859	-42.429	-0.299	0.153
-235.844	412.836	0.063	-0.134
-234.830	-200.000	0.057	-0.396
-233.815	-112.835	0.197	-0.039
-232.800	2.182	0.162	0.118
-231.786	-50.191	-0.397	-0.189
-230.771	-76.972	-0.065	-0.023
-229.757	-54.227	0.056	-0.026
-228.742	-87.701	0.355	0.108
-227.727	191.698	0.116	0.176
-226.713	-79.482	0.259	0.088
-225.698	85.948	0.127	-0.141
-224.684	800.000	-0.051	0.168
-223.669	-56.140	-0.262	-0.117
-222.655	59.717	0.137	0.136
-221.640	-200.000	0.044	-0.204
-220.625	-19.475	-0.293	0.182
-219.611	-200.000	-0.003	0.130
-218.596	-135.327	-0.284	0.034
-217.582	8.438	0.159	0.120
-216.567	-45.814	-0.140	-0.069
-215.552	-136.654	-0.164	-0.019
-214.538	79.978	-0.097	-0.104
-213.523	-51.801	-0.129	0.060
-212.509	8.155	0.514	-0.388
-211.494	137.174	0.081	0.107
-210.479	-200.000	-0.023	0.455
-209.465	-200.000	0.013	-0.194
-208.450	-200.000	0.035	-0.328
-207.436	800.000	-0.032	-0.127
-206.421	-78.387	-0.108	0.037
-205.406	-135.371	0.267	-0.032
-204.392	217.939	-0.042	0.067
-203.377	50.277	-0.232	0.220
-202.363	-101.069	0.223	0.055
-201.348	-111.205	-0.438	-0.090
-200.333	-32.934	-0.222	0.124
-199.319	483.216	-0.003	-0.007
-198.304	-16.362	-0.286	0.182
-197.290	-57.010	-0.227	0.100
-196.275	241.323	0.118	-0.197
-195.260	-150.697	0.052	0.004
-194.246	-200.000	0.034	0.369
-193.231	498.004	0.102	-0.235
-192.217	800.000	-0.070	0.222
-191.202	34.410	-0.130	-0.114
-190.187	-200.000	-0.047	0.215
-189.173	-37.851	-0.255	-0.136
-188.158	-71.128	-0.310	-0.117
-187.144	662.404	-0.113	-0.293
-186.129	29.482	-0.108	-0.092
-185.114	-80.755	0.103	0.034
-184.100	2.860	-0.145	0.105
-183.085	-200.000	-0.061	-0.346
-182.071	660.719	0.086	-0.221
-181.056	-79.005	-0.148	0.050
-180.042	-11.450	0.102	0.067
-179.027	-50.893	-0.163	0.077
-178.012	21.846	0.144	-0.118
-176.998	-200.000	0.041	-0.194
-175.983	276.358	0.077	-0.138
-174.969	-148.209	0.254	0.021
-173.954	-60.033	-0.335	-0.143
-172.939	-54.127	-0.142	-0.065
-171.925	-115.796	-0.100	0.019
-170.910	-200.000	-0.041	0.247
-169.896	-200.000	0.042	-0.310
-168.881	-200.000	0.024	0.166
-167.866	99.148	-0.018	-0.021
-166.852	-27.759	-0.177	-0.103
-165.837	186.506	0.111	-0.165
-164.823	-149.056	-0.082	0.007
-163.808	-55.699	0.233	-0.104
-162.793	-134.081	0.375	-0.046
-161.779	98.345	0.290	0.334
-160.764	-135.108	0.194	0.023
-159.750	-200.000	0.003	-0.029
-158.735	-200.000	-0.089	-0.476
-157.720	-200.000	0.045	-0.329
-156.706	43.412	0.223	-0.204
-155.691	-137.927	-0.292	0.033
-154.677	-97.336	-0.192	-0.050
-153.662	-65.897	-0.262	-0.105
-152.647	-200.000	0.057	-0.269
-151.633	-200.000	0.030	0.217
-150.618	5.042	0.036	-0.027
-149.604	-20.196	-0.325	-0.201
-148.589	6.270	0.302	0.224
-147.574	-200.000	0.005	-0.071
-146.560	-200.000	-0.013	0.157
-145.545	71.596	-0.048	0.050
-144.531	136.252	0.077	0.100
-143.516	-136.471	-0.216	-0.025
-142.502	-86.010	0.348	-0.108
-141.487	268.518	-0.047	-0.083
-140.472	800.000	-0.082	0.244
-139.458	135.870	0.182	-0.237
-138.443	-200.000	0.091	0.552
-137.429	-94.564	0.157	0.043
-136.414	-133.440	-0.298	0.037
-135.399	26.004	0.067	0.056
-134.385	-79.053	-0.533	-0.181
-133.370	627.243	-0.036	-0.091
-132.356	800.000	0.075	-0.261
-131.341	-102.390	-0.270	-0.065
-130.326	159.397	-0.184	0.256
-129.312	-87.887	-0.167	-0.050
-128.297	-200.000	-0.023	-0.144
-127.283	-1.732	-0.069	-0.049
-126.268	-141.587	-0.139	-0.014
-125.253	-73.364	-0.109	0.040
-124.239	800.000	0.115	0.339
-123.224	25.705	0.081	0.068
-122.210	168.940	-0.194	-0.277
-121.195	48.156	0.118	0.110
