DTS Sentinel unit serial number:	SN413079Multiplexer serial number:	ORYXHardware model number:	OX4-SRSoftware version number:	ORYX F/W v4.00 Oryx Data Collector v3.7.2.0data status	okinstallation	princeton_trtdifferential loss correction	single-endedforward channel	channel 4reverse channel	N/Adate	2019/09/16time	15:49:35forward acquisition time	60.00reverse acquisition time	0.00gamma	496.2192k internal	0.2288k external	0.2288temperature offset calibration	0.9938default loss term (dB/km)	0.3790temperature slope calibration	1.0000multiplexer offset coefficient	1.0000multiplexer slope coefficient	1.0000fibre end	0.00T internal ref (°C)	41.12T ext. ref 1 (°C)	14.81T ext. ref 2 (°C)	36.06length (m)	temperature (°C)	Stokes	anti-Stokes-747.200	515.960	-0.060	-0.143
-746.185	71.441	-0.048	-0.051
-745.171	16.055	-0.205	-0.166
-744.156	173.377	-0.156	0.231
-743.142	-200.000	0.018	-0.248
-742.127	118.567	0.139	0.176
-741.112	800.000	-0.009	0.027
-740.098	800.000	-0.080	0.325
-739.083	-200.000	-0.008	-0.043
-738.069	32.771	-0.189	0.167
-737.054	800.000	0.047	-0.209
-736.039	-118.272	-0.520	-0.095
-735.025	-34.489	0.285	0.160
-734.010	90.010	0.389	-0.445
-732.996	217.552	-0.152	-0.249
-731.981	-100.317	-0.278	0.071
-730.966	-200.000	0.026	-0.247
-729.952	143.833	-0.085	0.116
-728.937	-99.314	-0.051	0.013
-727.923	364.176	0.066	-0.137
-726.908	-200.000	0.066	-0.405
-725.894	-98.143	-0.356	-0.094
-724.879	-66.328	-0.061	-0.025
-723.864	-50.199	-0.228	-0.111
-722.850	-115.965	-0.255	-0.049
-721.835	124.873	0.093	-0.120
-720.821	471.811	-0.050	0.116
-719.806	800.000	0.035	0.148
-718.791	47.357	0.174	0.166
-717.777	7.948	-0.420	0.323
-716.762	323.921	0.175	0.342
-715.748	-200.000	0.104	0.000
-714.733	44.787	-0.082	0.077
-713.718	188.243	-0.102	-0.155
-712.704	-60.927	-0.111	0.048
-711.689	89.026	0.021	0.024
-710.675	-37.036	-0.100	-0.055
-709.660	-67.891	-0.158	0.063
-708.645	-200.000	-0.019	-0.208
-707.631	-182.113	-0.152	0.003
-706.616	-41.408	-0.236	0.124
-705.602	395.799	-0.076	-0.163
-704.587	-41.491	0.060	0.032
-703.572	318.127	-0.085	-0.165
-702.558	16.422	-0.034	-0.027
-701.543	391.571	0.110	0.235
-700.529	-82.829	0.059	0.020
-699.514	-68.317	-0.483	-0.192
-698.499	-68.708	0.315	0.125
-697.485	-129.624	0.281	0.040
-696.470	650.305	0.051	-0.135
-695.456	-200.000	0.064	-0.291
-694.441	154.927	0.070	-0.098
-693.426	37.169	0.313	0.284
-692.412	-200.000	-0.038	0.377
-691.397	-101.040	-0.229	0.057
-690.383	-200.000	-0.051	-0.279
-689.368	182.810	-0.198	-0.299
-688.354	155.773	-0.052	-0.074
-687.339	-200.000	0.004	0.131
-686.324	-58.829	-0.118	-0.052
-685.310	-200.000	-0.247	-0.001
-684.295	-78.094	-0.185	-0.065
-683.281	-200.000	-0.045	0.228
-682.266	-26.564	0.108	0.065
-681.251	-200.000	0.020	0.461
-680.237	113.094	-0.081	0.100
-679.222	464.988	-0.122	0.279
-678.208	-200.000	-0.003	0.029
-677.193	-63.141	-0.238	0.100
-676.178	-71.037	-0.167	-0.064
-675.164	94.107	0.129	0.149
-674.149	102.518	0.306	-0.366
-673.135	157.344	-0.109	-0.154
-672.120	-200.000	-0.017	-0.165
-671.105	97.626	-0.146	0.171
-670.091	234.803	-0.092	-0.155
-669.076	-74.149	0.087	-0.032
-668.062	261.578	-0.059	-0.105
-667.047	278.369	0.038	0.068
-666.032	-32.667	0.223	-0.127
-665.018	800.000	-0.056	-0.185
-664.003	800.000	0.102	0.355
-662.989	307.156	-0.022	0.042
-661.974	181.589	-0.041	0.062
-660.959	-200.000	-0.012	-0.246
-659.945	73.708	-0.060	-0.064
-658.930	800.000	-0.078	-0.225
-657.916	471.086	0.051	-0.116
-656.901	317.772	0.098	0.190
-655.886	-200.000	-0.015	-0.197
-654.872	800.000	-0.080	-0.226
-653.857	-50.070	-0.533	0.258
-652.843	-200.000	0.080	-0.433
-651.828	74.731	-0.138	0.149
-650.814	-200.000	-0.043	0.236
-649.799	-9.825	0.136	-0.093
-648.784	61.534	-0.081	-0.082
-647.770	314.337	0.087	-0.167
-646.755	-200.000	0.093	-0.444
-645.741	-21.713	0.321	-0.200
-644.726	794.795	-0.033	-0.094
-643.711	-1.385	0.364	-0.262
-642.697	800.000	-0.010	0.028
-641.682	59.838	0.125	-0.126
-640.668	-200.000	0.005	-0.082
-639.653	-94.121	-0.249	-0.070
-638.638	65.574	-0.220	0.227
-637.624	-200.000	0.001	-0.234
-636.609	-80.906	-0.315	-0.107
-635.595	-129.205	-0.079	-0.011
-634.580	-66.952	-0.333	-0.134
-633.565	119.170	0.140	-0.177
-632.551	-200.000	-0.025	-0.219
-631.536	-200.000	0.022	0.164
-630.522	-200.000	-0.019	-0.342
-629.507	105.559	0.092	-0.111
-628.492	-161.199	-0.225	0.012
-627.478	800.000	0.038	-0.154
-626.463	37.555	-0.304	-0.276
-625.449	-115.040	-0.183	0.035
-624.434	339.067	0.189	0.377
-623.419	-200.000	0.077	0.349
-622.405	-200.000	-0.013	-0.458
-621.390	23.248	-0.076	0.064
-620.376	-136.721	-0.160	-0.019
-619.361	-60.517	0.234	-0.101
-618.346	-200.000	-0.022	-0.111
-617.332	-170.872	-0.107	0.004
-616.317	-128.815	-0.403	0.058
-615.303	7.950	0.140	-0.107
-614.288	338.205	0.106	-0.210
-613.273	-66.059	0.292	-0.119
-612.259	-200.000	0.012	0.073
-611.244	-200.000	-0.020	0.142
-610.230	386.990	0.166	-0.350
-609.215	289.342	0.065	0.121
-608.201	461.472	0.036	0.082
-607.186	36.470	-0.191	-0.172
-606.171	-15.367	-0.193	0.126
-605.157	101.070	0.133	0.158
-604.142	-119.523	-0.180	-0.032
-603.128	108.500	-0.153	0.186
-602.113	72.157	0.205	0.218
-601.098	363.768	-0.179	0.367
-600.084	800.000	-0.037	0.139
-599.069	77.618	0.258	-0.280
-598.055	-35.481	0.233	-0.129
-597.040	-38.559	-0.213	0.115
-596.025	800.000	0.035	-0.141
-595.011	-120.743	0.074	0.013
-593.996	800.000	-0.039	-0.156
-592.982	222.547	-0.037	0.060
-591.967	800.000	0.108	0.306
-590.952	87.136	-0.096	0.108
-589.938	-200.000	0.069	-0.458
-588.923	-165.125	-0.266	0.012
-587.909	37.321	-0.204	0.185
-586.894	133.080	-0.091	0.120
-585.879	65.540	-0.090	0.093
-584.865	189.953	-0.120	-0.184
-583.850	-89.811	0.287	-0.085
-582.836	5.430	-0.250	-0.188
-581.821	-15.044	0.132	-0.086
-580.806	145.510	-0.061	0.083
-579.792	503.151	0.051	0.120
-578.777	648.832	0.139	-0.362
-577.763	-159.958	-0.293	-0.016
-576.748	-6.093	-0.120	0.083
-575.733	-140.385	-0.306	0.033
-574.719	-177.257	-0.119	0.003
-573.704	-54.208	0.230	-0.106
-572.690	800.000	0.025	0.081
-571.675	17.017	-0.262	0.212
-570.661	553.390	-0.091	0.223
-569.646	-71.341	0.199	0.076
-568.631	7.357	0.077	0.059
-567.617	-91.799	-0.418	0.121
-566.602	-127.718	0.233	0.034
-565.588	108.849	0.101	0.122
-564.573	676.580	-0.027	-0.073
-563.558	270.166	-0.137	0.245
-562.544	-26.797	0.272	-0.162
-561.529	-39.398	-0.142	0.076
-560.515	-200.000	-0.033	0.213
-559.500	144.886	0.210	-0.285
-558.485	209.159	0.174	-0.278
-557.471	76.437	0.258	-0.278
-556.456	-101.725	-0.170	0.042
-555.442	179.034	-0.121	0.179
-554.427	419.022	-0.069	0.151
-553.412	516.406	0.131	-0.311
-552.398	184.203	0.189	-0.285
-551.383	157.429	-0.174	-0.246
-550.369	-200.000	-0.004	0.165
-549.354	-42.155	-0.073	0.038
-548.339	-78.339	-0.236	-0.082
-547.325	302.949	-0.050	0.094
-546.310	298.479	-0.355	-0.664
-545.296	-49.439	0.233	0.113
-544.281	-55.417	0.053	-0.024
-543.266	266.099	0.037	-0.065
-542.252	-83.669	0.083	0.027
-541.237	800.000	0.026	-0.107
-540.223	-200.000	-0.025	0.253
-539.208	-93.593	-0.182	0.051
-538.193	-200.000	0.074	-0.329
-537.179	800.000	-0.026	0.089
-536.164	-200.000	0.007	0.355
-535.150	117.279	-0.093	0.116
-534.135	83.230	0.118	0.131
-533.121	-138.079	0.049	0.006
-532.106	-200.000	0.002	-0.233
-531.091	689.854	0.141	0.374
-530.077	-122.027	-0.101	-0.017
-529.062	30.696	-0.144	-0.125
-528.048	750.132	-0.090	-0.246
-527.033	20.090	0.153	-0.125
-526.018	300.775	-0.114	-0.214
-525.004	158.220	0.214	-0.302
-523.989	69.866	0.024	-0.025
-522.975	-30.905	0.361	0.207
-521.960	-103.193	0.209	0.050
-520.945	-63.777	0.416	0.173
-519.931	173.668	0.085	-0.124
-518.916	-200.000	-0.007	0.188
-517.902	-200.000	-0.019	-0.121
-516.887	395.372	-0.165	-0.350
-515.872	337.529	0.161	0.318
-514.858	-115.505	0.058	-0.011
-513.843	322.437	0.094	-0.181
-512.829	-200.000	-0.067	0.505
-511.814	-200.000	0.012	0.168
-510.799	-16.408	-0.237	-0.153
-509.785	166.008	-0.076	-0.110
-508.770	-102.384	-0.322	0.078
-507.756	-200.000	-0.052	-0.294
-506.741	-200.000	-0.001	-0.121
-505.726	800.000	-0.055	0.154
-504.712	-200.000	-0.011	0.086
-503.697	-200.000	-0.006	0.062
-502.683	-0.204	-0.144	0.104
-501.668	-47.773	0.166	0.082
-500.653	-200.000	-0.005	-0.193
-499.639	31.814	-0.029	0.026
-498.624	-0.298	-0.213	-0.154
-497.610	-5.993	0.131	-0.091
-496.595	131.736	-0.056	0.073
-495.581	230.850	0.011	-0.018
-494.566	-111.606	-0.563	-0.116
-493.551	-13.964	-0.062	0.040
-492.537	-200.000	0.008	-0.111
-491.522	9.062	-0.310	0.237
-490.508	-6.275	0.223	0.154
-489.493	109.647	-0.123	-0.149
-488.478	129.345	-0.183	-0.237
-487.464	-123.843	0.109	0.018
-486.449	163.831	0.030	0.043
-485.435	524.537	0.081	-0.193
-484.420	-178.219	0.145	-0.003
-483.405	-120.331	-0.131	0.023
-482.391	515.517	-0.034	0.081
-481.376	-200.000	-0.068	0.306
-480.362	-65.311	0.100	-0.041
-479.347	-75.654	0.171	-0.061
-478.332	306.634	-0.133	0.251
-477.318	800.000	-0.021	-0.062
-476.303	92.789	0.143	0.164
-475.289	-200.000	0.016	-0.275
-474.274	-26.327	-0.305	0.182
-473.259	169.951	0.067	-0.098
-472.245	290.876	-0.051	-0.094
-471.230	-200.000	0.005	0.273
-470.216	-143.181	-0.198	0.019
-469.201	113.484	0.226	0.279
-468.186	221.941	0.012	-0.019
-467.172	-200.000	0.019	0.250
-466.157	318.764	-0.152	0.292
-465.143	-106.065	-0.318	-0.073
-464.128	-200.000	-0.217	0.001
-463.113	800.000	-0.047	0.157
-462.099	-151.589	0.217	0.016
-461.084	-139.857	0.140	-0.015
-460.070	-69.723	0.037	-0.014
-459.055	762.096	0.018	0.050
-458.040	146.125	-0.186	0.252
-457.026	-3.274	-0.272	-0.192
-456.011	3.760	0.216	-0.160
-454.997	-200.000	0.010	0.046
-453.982	-200.000	-0.005	-0.115
-452.968	270.709	0.075	-0.134
-451.953	-183.265	-0.231	0.004
-450.938	264.572	0.060	-0.106
-449.924	307.434	0.064	-0.121
-448.909	-200.000	0.006	0.040
-447.895	44.358	-0.288	-0.268
-446.880	-4.013	-0.065	0.046
-445.865	-159.836	0.178	0.010
-444.851	742.915	-0.085	0.232
-443.836	151.225	-0.116	-0.159
-442.822	142.325	-0.078	0.105
-441.807	103.597	0.071	-0.085
-440.792	-111.944	-0.052	-0.011
-439.778	40.763	-0.124	-0.113
-438.763	38.507	-0.239	0.216
-437.749	-200.000	0.002	0.125
-436.734	16.247	0.104	0.083
-435.719	-77.140	0.188	0.066
-434.705	110.741	0.078	0.095
-433.690	17.174	-0.092	-0.074
-432.676	-117.540	-0.149	0.027
-431.661	-56.758	0.151	0.068
-430.646	-200.000	-0.032	0.330
-429.632	665.836	0.015	0.040
-428.617	45.191	-0.115	-0.107
-427.603	800.000	-0.100	-0.300
-426.588	469.769	0.016	0.037
-425.573	130.034	0.139	0.181
-424.559	126.261	-0.158	0.202
-423.544	800.000	-0.052	0.153
-422.530	331.541	-0.083	-0.162
-421.515	-89.937	-0.137	0.040
-420.500	9.960	0.125	0.096
-419.486	21.530	-0.216	0.177
-418.471	-169.162	-0.250	0.009
-417.457	-200.000	-0.002	0.167
-416.442	800.000	0.036	0.152
-415.428	-31.988	-0.136	-0.077
-414.413	131.982	-0.075	-0.098
-413.398	-46.769	-0.221	-0.109
-412.384	-9.808	-0.171	0.115
-411.369	-19.411	-0.240	0.150
-410.355	800.000	-0.055	-0.165
-409.340	-13.900	-0.263	0.172
-408.325	-200.000	0.058	0.540
-407.311	-153.885	-0.044	0.003
-406.296	667.844	-0.015	0.040
-405.282	-14.410	0.154	0.100
-404.267	-26.645	0.009	0.006
-403.252	75.954	0.161	-0.172
-402.238	457.757	0.133	0.300
-401.223	800.000	0.046	-0.197
-400.209	55.963	0.283	0.278
-399.194	-200.000	0.076	0.359
-398.179	800.000	-0.033	0.094
-397.165	-11.273	-0.020	-0.013
-396.150	-57.974	-0.153	0.068
-395.136	72.755	-0.094	0.099
-394.121	-39.148	-0.290	-0.154
-393.106	800.000	0.105	-0.359
-392.092	392.003	0.068	0.143
-391.077	-189.848	0.456	-0.005
-390.063	30.924	-0.086	-0.074
-389.048	5.126	0.068	0.050
-388.033	-74.915	-0.177	0.064
-387.019	-41.128	0.467	0.244
-386.004	727.198	0.088	0.237
-384.990	-82.570	0.192	-0.063
-383.975	-44.785	-0.146	-0.074
-382.960	44.962	0.072	0.067
-381.946	102.737	-0.110	-0.130
-380.931	28.190	-0.214	0.183
-379.917	279.093	-0.027	0.049
-378.902	9.984	-0.096	0.073
-377.888	-44.167	0.049	-0.025
-376.873	473.754	-0.128	-0.292
-375.858	-53.025	0.196	-0.091
-374.844	57.700	0.228	-0.225
-373.829	800.000	0.019	-0.066
-372.815	-200.000	0.038	-0.226
-371.800	-80.333	0.017	-0.006
-370.785	800.000	0.059	0.242
-369.771	151.378	-0.012	0.016
-368.756	-14.160	-0.154	0.100
-367.742	120.218	-0.100	0.125
-366.727	205.372	0.112	0.176
-365.712	-31.716	0.124	-0.070
-364.698	-33.890	-0.063	0.035
-363.683	800.000	-0.092	0.298
-362.669	-200.000	0.011	-0.135
-361.654	58.019	-0.067	0.066
-360.639	-4.828	-0.135	-0.094
-359.625	214.554	-0.028	-0.044
-358.610	31.840	-0.070	-0.061
-357.596	-200.000	-0.036	0.218
-356.581	-42.590	0.104	-0.054
-355.566	-131.257	-0.137	0.018
-354.552	251.680	0.061	0.105
-353.537	484.722	-0.131	0.302
-352.523	-33.075	-0.059	0.033
-351.508	-4.694	0.071	0.049
-350.493	-74.775	0.218	-0.079
-349.479	-8.590	0.149	0.101
-348.464	192.107	0.152	0.231
-347.450	179.901	-0.036	0.053
-346.435	-200.000	0.015	0.177
-345.420	101.282	0.164	0.193
-344.406	-95.484	0.267	0.072
-343.391	-164.909	-0.316	0.014
-342.377	727.842	-0.068	0.182
-341.362	-92.464	-0.275	0.078
-340.348	176.484	-0.122	0.179
-339.333	-147.561	0.338	0.029
-338.318	141.451	0.208	-0.277
-337.304	154.899	-0.128	-0.178
-336.289	-200.000	-0.022	-0.129
-335.275	-200.000	-0.032	-0.255
-334.260	-24.777	-0.074	-0.045
-333.245	260.425	0.148	0.258
-332.231	-137.232	0.366	0.042
-331.216	316.313	0.059	-0.113
-330.202	38.297	-0.149	-0.134
-329.187	-186.912	-0.225	0.003
-328.172	-179.319	0.155	-0.003
-327.158	800.000	-0.043	0.155
-326.143	-61.613	-0.090	-0.038
-325.129	-200.000	-0.048	0.225
-324.114	800.000	-0.051	0.220
-323.099	-63.006	0.370	0.154
-322.085	-200.000	-0.007	-0.159
-321.070	73.476	0.118	0.125
-320.056	800.000	-0.042	0.155
-319.041	188.144	0.216	-0.325
-318.026	-148.803	-0.187	-0.015
-317.012	75.552	-0.180	-0.192
-315.997	4.132	-0.250	0.184
-314.983	-104.005	0.195	-0.046
-313.968	304.688	0.060	-0.112
-312.953	800.000	-0.063	-0.179
-311.939	-114.503	-0.380	-0.074
-310.924	-82.107	-0.399	-0.131
-309.910	-60.553	-0.125	0.053
-308.895	-200.000	-0.015	-0.087
-307.880	730.161	0.089	-0.241
-306.866	-47.661	-0.220	-0.107
-305.851	17.186	-0.078	-0.063
-304.837	45.627	0.032	-0.030
-303.822	-32.681	0.472	0.264
-302.807	140.891	0.319	-0.425
-301.793	434.908	0.096	-0.210
-300.778	-178.276	0.202	0.005
-299.764	-164.205	0.109	-0.005
-298.749	101.318	-0.147	0.173
-297.735	274.646	-0.061	0.108
-296.720	577.841	0.030	-0.075
-295.705	-72.377	0.410	0.153
-294.691	-56.731	-0.176	0.078
-293.676	352.162	0.237	0.473
-292.662	800.000	-0.064	0.198
-291.647	-51.912	-0.042	-0.020
-290.632	-89.834	-0.223	0.066
-289.618	-158.538	-0.208	0.012
-288.603	114.212	0.148	-0.182
-287.589	-200.000	-0.023	-0.247
-286.574	-15.139	-0.065	0.042
-285.559	-200.000	0.063	-0.343
-284.545	-107.771	-0.033	-0.007
-283.530	752.081	0.128	0.348
-282.516	-138.606	0.065	-0.007
-281.501	-78.504	0.102	-0.035
-280.486	55.136	-0.255	-0.248
-279.472	-110.214	0.099	0.021
-278.457	-17.475	0.125	0.079
-277.443	-88.276	0.231	0.070
-276.428	-138.911	-0.237	-0.026
-275.413	-200.000	-0.016	-0.165
-274.399	-107.793	0.161	0.035
-273.384	-39.278	0.258	-0.136
-272.370	-200.000	-0.046	0.401
-271.355	-127.619	0.209	-0.030
-270.340	-200.000	-0.018	-0.274
-269.326	260.062	-0.031	-0.054
-268.311	-200.000	-0.287	-0.000
-267.297	247.020	-0.128	-0.217
-266.282	-131.243	0.318	0.042
-265.267	-151.249	0.154	-0.012
-264.253	100.007	0.225	0.262
-263.238	27.375	0.133	-0.112
-262.224	-200.000	0.043	-0.271
-261.209	-71.269	0.142	0.054
-260.195	34.519	-0.298	-0.262
-259.180	-99.611	0.192	0.048
-258.165	214.195	-0.199	-0.317
-257.151	-102.114	0.136	0.033
-256.136	800.000	-0.088	0.304
-255.122	74.747	-0.251	0.266
-254.107	82.039	0.295	-0.321
-253.092	800.000	-0.049	-0.150
-252.078	800.000	0.007	0.019
-251.063	-17.858	-0.237	0.150
-250.049	-153.391	-0.217	0.015
-249.034	67.422	0.108	0.111
-248.019	28.716	-0.204	-0.173
-247.005	57.271	-0.057	-0.056
-245.990	190.547	0.073	0.111
-244.976	800.000	-0.165	0.476
-243.961	-70.007	0.305	-0.117
-242.946	29.247	0.116	-0.099
-241.932	504.207	0.140	0.327
-240.917	-200.000	-0.096	0.447
-239.903	-85.969	-0.167	-0.052
-238.888	-200.000	0.022	0.124
-237.873	-70.906	0.116	0.044
-236.859	394.062	0.075	-0.157
-235.844	-174.948	0.333	0.009
-234.830	-87.624	0.049	0.015
-233.815	-140.940	-0.159	-0.016
-232.800	14.190	-0.219	-0.172
-231.786	-150.395	0.095	-0.007
-230.771	800.000	0.056	0.198
-229.757	-200.000	0.027	-0.131
-228.742	155.153	0.094	0.130
-227.727	30.137	-0.257	0.221
-226.713	223.641	-0.190	-0.309
-225.698	-200.000	-0.011	0.264
-224.684	-120.144	0.208	0.036
-223.669	325.366	-0.085	0.163
-222.655	143.120	0.237	0.316
-221.640	800.000	0.033	0.129
-220.625	-148.372	0.119	-0.010
-219.611	-200.000	-0.030	-0.291
-218.596	-200.000	0.004	-0.179
-217.582	-88.756	0.123	0.037
-216.567	193.816	0.199	-0.302
-215.552	-200.000	0.072	-0.321
-214.538	125.655	-0.202	-0.256
-213.523	-200.000	0.005	0.192
-212.509	-133.688	-0.091	-0.011
-211.494	-130.771	-0.165	0.022
-210.479	-126.550	0.148	-0.022
-209.465	-200.000	0.015	-0.187
-208.450	-20.532	-0.143	0.088
-207.436	-200.000	-0.029	-0.243
-206.421	46.838	0.137	-0.128
-205.406	-140.193	0.170	-0.018
-204.392	-127.493	-0.162	-0.024
-203.377	453.152	0.106	-0.235
-202.363	82.799	0.200	-0.218
-201.348	-125.139	0.498	-0.077
-200.333	-1.999	0.187	-0.132
-199.319	-67.837	0.352	-0.138
-198.304	-200.000	-0.006	0.066
-197.290	-55.239	0.069	-0.031
-196.275	-17.116	0.092	0.058
-195.260	-200.000	0.063	-0.426
-194.246	-20.783	-0.029	0.018
-193.231	45.374	0.280	-0.259
-192.217	-200.000	0.017	0.224
-191.202	800.000	0.121	-0.342
-190.187	559.779	-0.157	-0.381
-189.173	143.981	0.200	0.268
-188.158	-200.000	-0.078	0.361
-187.144	-16.238	-0.109	0.070
-186.129	42.289	0.162	0.148
-185.114	800.000	-0.007	-0.021
-184.100	50.171	-0.059	-0.056
-183.085	-200.000	-0.037	-0.219
-182.071	-184.391	-0.256	-0.004
-181.056	-200.000	0.020	0.182
-180.042	24.566	-0.411	0.341
-179.027	-74.459	-0.034	-0.012
-178.012	349.437	-0.100	0.197
-176.998	-133.585	0.296	-0.037
-175.983	-31.393	0.067	0.038
-174.969	41.442	0.063	-0.057
-173.954	793.746	0.079	-0.219
-172.939	144.987	-0.245	0.329
-171.925	-200.000	0.023	0.431
-170.910	-124.677	-0.228	0.035
-169.896	0.224	0.434	-0.310
-168.881	800.000	-0.070	-0.245
-167.866	165.316	-0.007	0.010
-166.852	378.203	0.133	-0.272
-165.837	-200.000	0.012	-0.170
-164.823	655.273	0.074	-0.190
-163.808	108.462	-0.128	0.154
-162.793	-1.608	-0.103	0.073
-161.779	140.063	0.249	-0.329
-160.764	-71.267	-0.234	0.088
-159.750	800.000	0.039	-0.151
-158.735	212.371	0.069	0.110
-157.720	-200.000	0.024	0.194
-156.706	-118.698	0.226	-0.040
-155.691	-106.554	0.270	-0.060
-154.677	528.681	0.166	0.392
-153.662	39.842	-0.078	-0.070
-152.647	270.133	-0.118	0.209
-151.633	162.050	0.179	0.251
-150.618	-139.478	-0.093	0.010
-149.604	366.026	0.059	0.120
-148.589	-55.311	0.157	-0.071
-147.574	-187.790	-0.195	-0.003
-146.560	267.793	-0.095	-0.166
-145.545	129.268	0.050	0.063
-144.531	-64.539	0.174	-0.071
-143.516	800.000	-0.070	0.300
-142.502	482.917	-0.008	-0.019
-141.487	-46.980	0.143	0.070
-140.472	20.936	0.080	0.065
-139.458	-65.700	0.160	-0.064
-138.443	77.423	0.204	-0.217
-137.429	57.576	-0.026	0.026
-136.414	-200.000	-0.031	-0.189
-135.399	-0.520	0.247	-0.175
-134.385	6.576	-0.112	0.083
-133.370	206.245	0.238	0.370
-132.356	-139.898	0.317	-0.034
-131.341	23.331	-0.056	0.046
-130.326	381.752	0.163	0.336
-129.312	66.809	0.101	-0.103
-128.297	800.000	-0.030	-0.118
-127.283	-81.706	0.250	0.082
-126.268	-200.000	0.022	0.199
-125.253	800.000	0.048	-0.141
-124.239	235.573	0.127	0.209
-123.224	-49.541	0.275	-0.131
-122.210	800.000	-0.116	-0.469
-121.195	211.818	0.171	0.269
