DTS Sentinel unit serial number:	SN413079Multiplexer serial number:	ORYXHardware model number:	OX4-SRSoftware version number:	ORYX F/W v4.00 Oryx Data Collector v3.7.2.0data status	okinstallation	princeton_trtdifferential loss correction	single-endedforward channel	channel 4reverse channel	N/Adate	2019/09/12time	19:28:18forward acquisition time	15.00reverse acquisition time	0.00gamma	496.2192k internal	0.2309k external	0.2309temperature offset calibration	1.0151default loss term (dB/km)	0.3790temperature slope calibration	1.0000multiplexer offset coefficient	1.0000multiplexer slope coefficient	1.0000fibre end	0.00T internal ref (°C)	32.31T ext. ref 1 (°C)	3.28T ext. ref 2 (°C)	26.85length (m)	temperature (°C)	Stokes	anti-Stokes-747.200	-82.977	-0.414	-0.136
-746.185	-158.811	-0.601	-0.035
-745.171	267.773	-0.403	-0.716
-744.156	-27.878	0.244	0.144
-743.142	0.253	-0.717	-0.520
-742.127	-154.167	-0.240	-0.017
-741.112	21.118	-0.206	-0.170
-740.098	-200.000	-0.097	-0.582
-739.083	-47.543	-0.107	0.053
-738.069	71.791	-0.323	0.341
-737.054	-18.683	0.611	0.387
-736.039	373.757	0.145	-0.300
-735.025	343.819	0.609	1.213
-734.010	800.000	0.041	0.123
-732.996	-114.575	0.367	-0.071
-731.981	33.587	0.481	-0.424
-730.966	87.713	-0.474	-0.533
-729.952	49.093	0.320	-0.305
-728.937	226.786	0.193	-0.318
-727.923	800.000	0.109	-0.357
-726.908	382.850	-0.350	-0.730
-725.894	-200.000	-0.167	-0.900
-724.879	44.742	-0.553	-0.517
-723.864	-200.000	0.023	-0.493
-722.850	68.194	-0.256	0.266
-721.835	-57.748	-0.225	0.100
-720.821	-106.932	-0.369	-0.083
-719.806	800.000	-0.150	0.427
-718.791	-91.378	-0.547	0.159
-717.777	-64.083	-0.542	0.224
-716.762	-82.265	0.316	-0.104
-715.748	-110.003	1.299	-0.276
-714.733	-200.000	0.072	-0.506
-713.718	800.000	-0.092	0.289
-712.704	800.000	-0.128	0.405
-711.689	-111.077	0.254	-0.053
-710.675	107.096	0.272	-0.328
-709.660	57.360	0.170	0.168
-708.645	800.000	-0.096	0.418
-707.631	-36.006	0.714	0.392
-706.616	14.709	0.536	0.425
-705.602	69.660	0.255	0.266
-704.587	-54.808	-0.609	-0.279
-703.572	-101.819	0.736	0.181
-702.558	-200.000	0.039	-0.647
-701.543	-200.000	-0.077	0.660
-700.529	-11.191	-0.292	-0.195
-699.514	238.795	-0.273	-0.461
-698.499	55.907	0.311	-0.306
-697.485	-86.208	-0.167	0.052
-696.470	800.000	0.397	-1.438
-695.456	-178.378	-0.374	-0.009
-694.441	26.989	0.489	0.416
-693.426	109.970	-0.361	0.440
-692.412	48.213	-0.454	0.431
-691.397	-27.178	-0.452	-0.267
-690.383	477.042	-0.105	-0.241
-689.368	-168.037	-0.193	0.008
-688.354	-200.000	0.059	-0.968
-687.339	-47.339	0.218	-0.108
-686.324	-111.905	-0.756	-0.155
-685.310	428.291	-0.205	0.450
-684.295	-91.536	-0.876	-0.253
-683.281	-24.335	-0.266	-0.161
-682.266	800.000	-0.068	0.212
-681.251	248.493	0.386	-0.663
-680.237	-149.918	0.130	0.010
-679.222	800.000	-0.100	-0.390
-678.208	405.038	0.352	-0.752
-677.193	-116.563	0.288	-0.054
-676.178	-111.512	-0.301	0.062
-675.164	135.898	0.172	-0.228
-674.149	60.465	-0.102	0.103
-673.135	800.000	-0.033	-0.114
-672.120	-45.920	0.331	0.165
-671.105	800.000	0.162	0.493
-670.091	-44.299	0.178	0.090
-669.076	68.530	0.096	-0.100
-668.062	129.935	-0.424	-0.550
-667.047	-89.076	-0.734	0.220
-666.032	800.000	0.135	-0.522
-665.018	-125.990	0.723	-0.110
-664.003	-200.000	0.909	0.001
-662.989	-97.436	-0.678	-0.179
-661.974	719.520	0.151	-0.408
-660.959	-200.000	0.028	-0.284
-659.945	-149.211	-0.822	0.067
-658.930	800.000	0.181	-0.714
-657.916	-200.000	0.067	-0.331
-656.901	-200.000	-0.169	0.930
-655.886	-200.000	-0.047	-1.107
-654.872	43.479	0.702	-0.650
-653.857	19.789	-0.252	-0.206
-652.843	59.226	0.972	-0.969
-651.828	-84.073	-0.322	-0.104
-650.814	-200.000	-0.182	1.225
-649.799	27.949	-0.524	0.447
-648.784	58.957	0.154	-0.153
-647.770	800.000	0.201	-0.599
-646.755	15.645	-0.178	-0.141
-645.741	-114.602	0.498	0.097
-644.726	385.973	0.081	0.170
-643.711	88.281	-0.049	0.056
-642.697	126.918	0.166	0.212
-641.682	7.620	0.334	-0.253
-640.668	-43.694	-0.506	0.258
-639.653	1.974	0.628	0.459
-638.638	-86.845	1.049	-0.324
-637.624	-200.000	-0.055	0.619
-636.609	89.975	-0.390	0.440
-635.595	-100.334	-0.272	-0.068
-634.580	151.981	0.245	0.337
-633.565	-16.259	0.347	-0.223
-632.551	138.333	0.450	-0.597
-631.536	-200.000	0.011	-0.123
-630.522	-200.000	-0.118	0.657
-629.507	-110.671	0.565	-0.118
-628.492	-115.193	-0.907	-0.174
-627.478	-200.000	0.615	-0.002
-626.463	800.000	-0.150	-0.557
-625.449	-131.990	0.164	-0.022
-624.434	-55.517	0.433	0.196
-623.419	118.906	-0.312	0.390
-622.405	-141.642	-0.526	0.054
-621.390	-119.223	-0.446	0.079
-620.376	102.719	-0.298	0.353
-619.361	-144.939	-0.127	0.012
-618.346	-175.560	0.659	-0.018
-617.332	-61.283	0.236	-0.101
-616.317	27.437	-0.597	0.508
-615.303	-108.466	-0.760	0.165
-614.288	-200.000	-0.114	-0.592
-613.273	-200.000	-0.135	-0.732
-612.259	-200.000	-0.046	-0.883
-611.244	-200.000	-0.006	0.075
-610.230	-65.835	0.487	0.197
-609.215	-41.302	-0.989	-0.515
-608.201	51.885	0.060	0.057
-607.186	-79.701	-0.175	-0.060
-606.171	453.381	0.311	0.695
-605.157	-25.022	-0.275	-0.165
-604.142	215.511	-0.220	0.352
-603.128	241.039	0.185	-0.313
-602.113	-7.635	0.948	0.647
-601.098	-91.473	0.408	-0.118
-600.084	-148.420	0.440	0.036
-599.069	-41.208	0.497	0.259
-598.055	800.000	0.091	0.294
-597.040	800.000	-0.267	0.827
-596.025	136.581	-0.111	-0.147
-595.011	-133.137	-0.555	-0.071
-593.996	-6.314	0.729	0.503
-592.982	-44.691	-0.528	0.266
-591.967	-113.884	0.459	0.090
-590.952	183.610	0.238	0.356
-589.938	-147.910	-0.819	-0.069
-588.923	394.541	-0.434	-0.914
-587.909	385.123	0.344	-0.717
-586.894	284.271	0.417	0.758
-585.879	122.078	0.336	0.424
-584.865	-122.895	0.151	0.025
-583.850	392.912	0.032	0.067
-582.836	284.116	-0.081	0.147
-581.821	20.777	-0.952	-0.779
-580.806	800.000	-0.039	-0.110
-579.792	-51.224	-0.693	-0.328
-578.777	45.430	-0.218	-0.203
-577.763	755.345	-0.239	0.652
-576.748	58.206	0.310	0.306
-575.733	-92.065	-0.117	0.033
-574.719	138.535	0.351	0.466
-573.704	-30.498	-0.796	-0.455
-572.690	44.168	0.244	-0.226
-571.675	-115.463	-0.539	0.103
-570.661	-13.141	-0.443	-0.290
-569.646	-5.927	0.638	-0.440
-568.631	-176.607	-0.539	-0.014
-567.617	113.120	-0.274	0.336
-566.602	-200.000	0.105	0.777
-565.588	-195.717	-0.298	-0.002
-564.573	-119.336	-0.142	0.025
-563.558	-14.174	-0.320	0.208
-562.544	-200.000	-0.019	0.325
-561.529	-24.626	-0.292	0.175
-560.515	-79.265	-0.632	0.216
-559.500	-58.148	0.343	0.151
-558.485	164.335	-0.429	0.610
-557.471	127.755	-0.329	0.422
-556.456	-142.442	0.226	0.022
-555.442	132.094	-0.126	0.164
-554.427	-21.460	-0.459	0.282
-553.412	-142.188	0.329	0.033
-552.398	39.860	0.048	-0.043
-551.383	-122.471	-0.386	-0.063
-550.369	96.651	-0.596	0.688
-549.354	36.098	0.423	0.376
-548.339	88.240	-0.326	0.365
-547.325	402.576	0.090	0.191
-546.310	17.614	-0.484	0.388
-545.296	-45.806	0.190	-0.094
-544.281	111.463	-0.222	0.270
-543.266	800.000	-0.088	-0.341
-542.252	-82.042	0.586	-0.193
-541.237	512.387	-0.272	-0.639
-540.223	469.711	0.378	-0.855
-539.208	-150.257	0.238	-0.019
-538.193	800.000	0.097	-0.362
-537.179	486.178	0.103	-0.237
-536.164	74.443	-0.150	-0.159
-535.150	-18.872	0.114	-0.072
-534.135	800.000	0.140	-0.591
-533.121	-39.980	-0.414	0.218
-532.106	-159.763	-0.178	-0.010
-531.091	-200.000	0.015	-0.099
-530.077	-136.327	-0.677	0.079
-529.062	-133.770	0.895	-0.112
-528.048	-30.822	-0.467	0.266
-527.033	77.966	0.315	-0.338
-526.018	397.631	0.186	0.391
-525.004	800.000	0.298	0.994
-523.989	-105.688	0.882	-0.201
-522.975	369.242	0.214	0.436
-521.960	131.093	0.232	-0.300
-520.945	-63.131	0.199	-0.083
-519.931	-141.006	-1.189	0.123
-518.916	-200.000	-0.088	-0.665
-517.902	-200.000	-0.068	-0.317
-516.887	-200.000	0.065	-0.561
-515.872	57.037	0.412	0.405
-514.858	-89.573	-0.473	-0.140
-513.843	82.908	0.177	-0.194
-512.829	-200.000	-0.014	0.548
-511.814	-200.000	-0.024	0.299
-510.799	-200.000	0.066	-0.918
-509.785	203.260	0.268	0.417
-508.770	-200.000	0.017	1.236
-507.756	-121.517	0.403	-0.067
-506.741	-200.000	0.048	0.402
-505.726	62.338	0.576	-0.579
-504.712	-200.000	-0.089	0.502
-503.697	800.000	0.108	0.361
-502.683	266.429	0.305	0.537
-501.668	-73.029	-0.531	-0.196
-500.653	-200.000	0.027	0.538
-499.639	174.004	0.365	0.531
-498.624	-200.000	-0.172	0.879
-497.610	-200.000	0.143	0.683
-496.595	454.681	-0.117	0.261
-495.581	800.000	-0.128	-0.416
-494.566	279.057	0.301	-0.540
-493.551	11.880	-0.253	-0.196
-492.537	-8.648	-0.161	-0.108
-491.522	-103.400	-0.147	0.035
-490.508	177.263	-0.045	-0.065
-489.493	95.708	0.199	-0.229
-488.478	800.000	-0.130	-0.415
-487.464	-144.717	-0.401	-0.037
-486.449	-146.915	-0.152	0.013
-485.435	-200.000	-0.013	-0.608
-484.420	2.091	-0.422	-0.307
-483.405	338.155	-0.190	0.372
-482.391	588.095	0.162	-0.402
-481.376	-42.452	0.492	-0.252
-480.362	4.885	1.089	0.805
-479.347	25.679	0.413	-0.346
-478.332	157.587	-0.221	0.308
-477.318	279.808	0.303	0.544
-476.303	72.685	-0.139	0.146
-475.289	122.300	0.483	-0.607
-474.274	130.335	-0.441	-0.567
-473.259	-200.000	0.010	-0.605
-472.245	241.841	0.398	0.668
-471.230	-200.000	-0.137	-0.931
-470.216	-79.977	-0.602	-0.203
-469.201	459.348	-0.231	0.517
-468.186	465.536	-0.329	-0.741
-467.172	115.341	-0.330	0.405
-466.157	66.311	0.196	0.200
-465.143	-133.959	-0.765	-0.095
-464.128	800.000	-0.247	-0.865
-463.113	800.000	0.083	0.353
-462.099	-200.000	0.021	-0.532
-461.084	-93.330	-0.725	-0.202
-460.070	-153.143	-0.778	0.055
-459.055	33.484	-0.479	0.418
-458.040	-80.884	0.699	-0.233
-457.026	-100.558	-0.748	-0.186
-456.011	305.509	-0.375	-0.701
-454.997	-127.327	0.522	0.076
-453.982	-62.878	-0.617	0.257
-452.968	-200.000	0.005	-0.414
-451.953	-114.882	-0.539	-0.103
-450.938	800.000	0.133	0.405
-449.924	-111.598	-0.721	0.147
-448.909	-200.000	-0.006	0.471
-447.895	800.000	0.110	0.409
-446.880	-126.111	0.321	-0.048
-445.865	800.000	-0.199	0.757
-444.851	687.171	-0.090	0.237
-443.836	364.867	0.348	-0.703
-442.822	-11.082	0.303	0.201
-441.807	-14.107	-0.011	0.007
-440.792	-200.000	0.111	0.536
-439.778	-44.254	0.387	0.195
-438.763	-67.130	0.370	0.146
-437.749	460.657	0.276	-0.618
-436.734	46.008	-0.566	-0.526
-435.719	67.771	-0.652	0.669
-434.705	671.044	0.323	0.839
-433.690	116.091	0.295	0.362
-432.676	61.369	-0.199	0.198
-431.661	117.382	0.113	-0.140
-430.646	162.189	-0.389	-0.547
-429.632	-152.918	0.886	0.063
-428.617	61.504	0.178	0.178
-427.603	-37.967	0.336	0.179
-426.588	-200.000	-0.078	-0.893
-425.573	8.076	-0.099	-0.074
-424.559	-110.545	0.452	-0.094
-423.544	-200.000	0.035	0.205
-422.530	-31.692	0.471	-0.265
-421.515	658.284	-0.246	0.634
-420.500	-123.859	0.577	-0.091
-419.486	558.060	0.275	-0.666
-418.471	339.874	0.154	-0.300
-417.457	-93.957	-0.782	0.216
-416.442	341.897	-0.359	-0.704
-415.428	800.000	0.109	0.404
-414.413	277.504	-0.191	0.341
-413.398	-89.112	0.525	-0.156
-412.384	45.997	-0.195	0.181
-411.369	800.000	0.233	0.715
-410.355	-57.323	-0.509	0.224
-409.340	-29.919	0.501	-0.286
-408.325	152.878	-0.278	0.380
-407.311	191.300	-0.521	-0.787
-406.296	-180.028	0.196	0.004
-405.282	-67.078	0.499	0.197
-404.267	-163.572	0.700	-0.033
-403.252	-171.381	0.493	-0.017
-402.238	167.533	0.342	-0.488
-401.223	63.204	0.064	-0.064
-400.209	-200.000	0.025	-0.344
-399.194	592.835	0.416	1.030
-398.179	-37.288	-0.796	0.426
-397.165	800.000	-0.141	-0.593
-396.150	251.978	-0.058	0.098
-395.136	800.000	0.139	0.540
-394.121	87.003	0.203	-0.224
-393.106	25.343	0.292	0.244
-392.092	-200.000	-0.080	-0.408
-391.077	547.639	0.098	0.235
-390.063	800.000	0.154	-0.671
-389.048	21.261	-0.929	0.756
-388.033	225.753	0.108	0.175
-387.019	-200.000	-0.498	0.001
-386.004	800.000	0.126	-0.543
-384.990	-200.000	-0.014	0.068
-383.975	-134.999	0.524	-0.063
-382.960	-138.898	0.773	-0.084
-381.946	335.846	0.083	-0.161
-380.931	698.825	-0.209	0.549
-379.917	-72.538	-0.200	0.074
-378.902	-63.211	0.164	0.068
-377.888	21.304	-0.782	0.636
-376.873	-82.270	0.454	0.148
-375.858	-54.610	0.847	0.384
-374.844	-116.923	-0.756	0.138
-373.829	-200.000	0.015	-0.244
-372.815	-55.079	0.823	0.371
-371.800	-69.669	0.758	0.290
-370.785	-50.343	0.645	-0.305
-369.771	99.911	-0.207	-0.240
-368.756	631.665	-0.125	-0.317
-367.742	291.822	-0.504	0.918
-366.727	-77.865	-0.370	0.128
-365.712	-104.363	0.128	-0.030
-364.698	-200.000	-0.108	0.539
-363.683	97.146	-0.271	-0.311
-362.669	79.852	-0.311	-0.334
-361.654	15.780	0.237	0.187
-360.639	538.674	-0.353	0.841
-359.625	255.350	0.175	-0.301
-358.610	-200.000	-0.036	0.351
-357.596	-71.936	0.920	-0.343
-356.581	-200.000	-0.095	-0.764
-355.566	76.498	-0.481	0.510
-354.552	2.816	0.860	-0.624
-353.537	244.124	-0.465	-0.781
-352.523	800.000	-0.133	-0.389
-351.508	-124.477	0.383	-0.060
-350.493	-200.000	0.012	-0.258
-349.479	-45.383	-0.823	-0.408
-348.464	-84.554	-0.281	-0.089
-347.450	79.620	0.178	0.191
-346.435	-80.565	-0.564	-0.188
-345.420	-25.567	0.501	-0.296
-344.406	-200.000	0.123	-0.590
-343.391	745.803	-0.090	-0.241
-342.377	12.216	-0.321	-0.247
-341.362	-89.089	-0.369	-0.109
-340.348	-50.664	1.109	0.522
-339.333	-103.771	-0.447	-0.105
-338.318	-89.329	-0.433	-0.127
-337.304	751.680	0.049	0.133
-336.289	-24.050	0.495	0.296
-335.275	800.000	-0.230	0.699
-334.260	203.061	-0.492	-0.761
-333.245	-70.406	0.602	-0.228
-332.231	800.000	0.060	-0.260
-331.216	67.254	-0.489	-0.499
-330.202	-78.949	-0.744	0.253
-329.187	8.610	-0.126	0.095
-328.172	-76.481	0.055	0.019
-327.158	-200.000	-0.030	-0.237
-326.143	584.814	0.176	-0.433
-325.129	-200.000	-0.027	-0.875
-324.114	152.421	0.405	-0.553
-323.099	162.844	-0.555	0.779
-322.085	-200.000	-0.075	-0.515
-321.070	-137.002	0.554	0.063
-320.056	58.265	0.313	0.307
-319.041	-200.000	-0.031	0.235
-318.026	31.018	-0.483	-0.414
-317.012	-138.583	0.712	0.078
-315.997	-200.000	0.069	-0.443
-314.983	39.806	-0.786	-0.704
-313.968	154.090	0.299	-0.410
-312.953	-149.210	-0.421	0.034
-311.939	98.257	0.386	-0.444
-310.924	142.249	-0.300	0.398
-309.910	51.405	-0.181	0.172
-308.895	-106.989	0.880	0.194
-307.880	161.219	0.403	0.563
-306.866	84.884	-0.309	0.338
-305.851	39.872	0.419	-0.376
-304.837	800.000	0.193	-0.660
-303.822	-200.000	-0.044	-0.460
-302.807	-74.321	0.866	-0.312
-301.793	-27.237	0.514	-0.299
-300.778	-121.843	-0.564	0.093
-299.764	-80.373	0.158	0.053
-298.749	53.561	0.584	0.560
-297.735	-200.000	-0.056	-0.250
-296.720	-42.886	-0.513	-0.260
-295.705	-16.629	0.524	0.331
-294.691	110.704	-0.546	-0.655
-293.676	-89.502	0.838	-0.246
-292.662	-42.987	0.669	0.339
-291.647	671.914	-0.220	-0.570
-290.632	-19.262	0.887	0.549
-289.618	-200.000	-0.056	0.612
-288.603	-104.766	-0.911	0.209
-287.589	-200.000	-0.056	0.686
-286.574	800.000	-0.240	-1.046
-285.559	-79.754	0.131	-0.044
-284.545	-56.407	0.601	0.266
-283.530	-155.629	0.303	0.019
-282.516	9.915	-0.839	0.635
-281.501	238.872	-0.307	0.509
-280.486	177.959	-0.145	0.211
-279.472	140.398	0.226	0.298
-278.457	111.345	0.386	0.464
-277.443	94.538	0.253	-0.287
-276.428	142.586	0.377	0.500
-275.413	317.087	0.208	0.393
-274.399	193.435	0.279	0.422
-273.384	-200.000	0.035	-0.682
-272.370	413.934	0.105	-0.223
-271.355	800.000	-0.251	0.836
-270.340	278.151	-0.134	-0.237
-269.326	254.034	-0.333	0.568
-268.311	245.853	-0.162	0.273
-267.297	-66.776	0.282	-0.111
-266.282	-200.000	0.006	0.398
-265.267	-119.478	-0.854	0.148
-264.253	-55.576	0.248	-0.111
-263.238	-15.605	0.509	-0.324
-262.224	147.550	0.502	0.674
-261.209	-200.000	0.074	0.419
-260.195	-122.759	0.379	-0.061
-259.180	17.755	0.378	-0.300
-258.165	394.945	-0.066	-0.137
-257.151	-3.130	-0.443	-0.308
-256.136	133.292	-0.359	0.462
-255.122	351.811	0.195	-0.384
-254.107	-28.536	-0.388	-0.223
-253.092	-23.197	0.412	0.247
-252.078	201.377	0.218	-0.335
-251.063	90.436	-0.336	-0.375
-250.049	-122.513	0.445	-0.072
-249.034	-90.911	0.233	-0.067
-248.019	800.000	0.079	0.298
-247.005	-87.376	0.660	-0.199
-245.990	-38.731	0.478	-0.251
-244.976	-21.024	0.486	-0.296
-243.961	-91.131	-0.604	-0.173
-242.946	-200.000	-0.021	-0.465
-241.932	-200.000	0.517	0.001
-240.917	-85.217	-1.050	-0.327
-239.903	-3.255	0.528	0.366
-238.888	800.000	-0.404	-1.114
-237.873	-200.000	0.001	-0.036
-236.859	-110.293	-0.287	-0.060
-235.844	168.457	0.463	0.657
-234.830	2.693	0.608	0.439
-233.815	27.801	-0.280	-0.235
-232.800	-200.000	0.032	0.251
-231.786	-200.000	0.021	-0.368
-230.771	-45.140	-0.292	-0.145
-229.757	-87.914	0.400	-0.120
-228.742	-95.165	0.331	-0.089
-227.727	597.206	0.188	-0.463
-226.713	-122.537	-0.612	0.099
-225.698	-200.000	-0.087	-0.649
-224.684	-71.407	-0.424	-0.158
-223.669	127.864	0.365	0.462
-222.655	-200.000	-0.095	-0.787
-221.640	151.490	0.163	-0.221
-220.625	291.584	0.231	0.419
-219.611	-192.464	0.543	0.005
-218.596	-198.139	-0.200	-0.001
-217.582	83.182	0.171	0.185
-216.567	-49.404	-0.823	0.391
-215.552	800.000	-0.125	0.421
-214.538	-65.382	-0.260	0.104
-213.523	134.472	-0.402	-0.519
-212.509	440.768	-0.255	0.555
-211.494	238.592	-0.424	-0.701
-210.479	-131.097	0.549	0.073
-209.465	-47.699	0.919	-0.444
-208.450	-45.898	-0.868	-0.426
-207.436	59.035	-0.439	0.430
-206.421	-40.792	0.468	0.241
-205.406	-43.736	0.164	0.082
-204.392	49.480	-0.596	-0.558
-203.377	84.475	-0.469	0.510
-202.363	-197.820	0.306	-0.002
-201.348	120.099	0.293	0.361
-200.333	-200.000	0.010	-0.310
-199.319	71.962	-0.180	-0.186
-198.304	-200.000	-0.033	-0.806
-197.290	179.548	-0.236	-0.344
-196.275	122.591	-0.199	0.247
-195.260	-200.000	0.054	0.290
-194.246	186.228	-0.323	-0.477
-193.231	-13.161	-0.201	0.130
-192.217	-106.016	0.063	0.014
-191.202	109.477	-0.195	0.232
-190.187	-33.582	0.251	0.138
-189.173	-99.244	-0.712	-0.179
-188.158	180.636	-0.182	-0.266
-187.144	-190.071	-0.537	-0.006
-186.129	-112.352	0.335	-0.067
-185.114	-200.000	0.010	-0.242
-184.100	-188.993	0.460	0.006
-183.085	-200.000	0.025	0.257
-182.071	-72.758	-0.377	0.138
-181.056	4.372	0.215	0.157
-180.042	-87.395	-0.377	-0.114
-179.027	75.741	-0.613	-0.644
-178.012	-59.845	0.447	-0.190
-176.998	-48.509	-0.927	-0.443
-175.983	-200.000	-0.168	-0.904
-174.969	-162.723	0.781	-0.038
-173.954	-60.777	-0.977	-0.411
-172.939	324.621	-0.150	-0.285
-171.925	-200.000	-0.022	0.140
-170.910	-200.000	0.041	-0.220
-169.896	-154.442	0.532	0.035
-168.881	-33.193	0.148	-0.081
-167.866	34.705	-0.215	0.187
-166.852	-200.000	-0.005	0.995
-165.837	-200.000	0.145	0.715
-164.823	85.411	0.358	-0.390
-163.808	-151.035	-0.526	-0.039
-162.793	800.000	0.193	0.567
-161.779	618.816	-0.464	1.157
-160.764	126.520	0.482	-0.605
-159.750	261.225	0.165	-0.283
-158.735	-200.000	0.078	-0.452
-157.720	-169.784	0.760	-0.027
-156.706	754.976	0.102	-0.275
-155.691	-59.490	0.468	0.200
-154.677	675.432	0.140	0.361
-153.662	-120.867	-0.455	-0.076
-152.647	784.784	-0.148	-0.402
-151.633	4.276	-0.710	0.516
-150.618	800.000	-0.149	-0.439
-149.604	89.191	-0.323	0.358
-148.589	-30.096	-0.478	-0.270
-147.574	232.543	-0.099	-0.162
-146.560	800.000	0.132	-0.553
-145.545	-200.000	-0.068	0.443
-144.531	-75.664	0.390	0.137
-143.516	391.405	0.238	-0.490
-142.502	-112.599	0.708	0.140
-141.487	603.832	-0.460	1.136
-140.472	93.202	-0.341	0.382
-139.458	22.214	0.509	-0.412
-138.443	17.893	0.833	-0.658
-137.429	-49.783	0.519	-0.245
-136.414	-28.048	-0.188	0.108
-135.399	-21.894	0.716	-0.432
-134.385	-157.294	-0.687	-0.041
-133.370	116.429	-0.178	-0.217
-132.356	-83.924	0.359	-0.113
-131.341	-59.725	0.851	-0.362
-130.326	453.610	-0.126	0.278
-129.312	-44.673	0.304	0.151
-128.297	-200.000	-0.059	0.362
-127.283	727.526	0.321	-0.850
-126.268	-200.000	-0.045	-0.673
-125.253	-46.182	0.312	0.152
-124.239	-200.000	-0.041	-0.196
-123.224	-81.276	0.190	-0.062
-122.210	433.942	-0.244	-0.526
-121.195	41.835	-0.394	-0.354
