DTS Sentinel unit serial number:	SN413079Multiplexer serial number:	ORYXHardware model number:	OX4-SRSoftware version number:	ORYX F/W v4.00 Oryx Data Collector v3.7.2.0data status	okinstallation	princeton_trtdifferential loss correction	single-endedforward channel	channel 4reverse channel	N/Adate	2019/09/14time	15:57:35forward acquisition time	60.00reverse acquisition time	0.00gamma	496.2192k internal	0.2293k external	0.2293temperature offset calibration	1.0136default loss term (dB/km)	0.3790temperature slope calibration	1.0000multiplexer offset coefficient	1.0000multiplexer slope coefficient	1.0000fibre end	0.00T internal ref (°C)	38.62T ext. ref 1 (°C)	5.09T ext. ref 2 (°C)	32.97length (m)	temperature (°C)	Stokes	anti-Stokes-747.200	86.243	-0.099	-0.111
-746.185	113.018	0.088	0.109
-745.171	682.587	0.064	-0.172
-744.156	85.515	0.172	-0.193
-743.142	-6.798	0.274	0.191
-742.127	33.715	-0.092	0.082
-741.112	800.000	0.047	-0.150
-740.098	369.397	0.137	0.284
-739.083	-200.000	-0.008	-0.055
-738.069	109.350	0.229	0.281
-737.054	48.413	-0.043	-0.041
-736.039	-62.426	-0.131	0.056
-735.025	-66.407	0.295	-0.120
-734.010	-23.891	-0.377	-0.231
-732.996	-56.126	-0.581	-0.265
-731.981	-110.635	-0.385	0.081
-730.966	-86.880	0.226	0.070
-729.952	2.906	0.169	-0.126
-728.937	18.306	-0.058	0.047
-727.923	-76.033	0.181	0.066
-726.908	-128.286	-0.141	0.021
-725.894	565.628	0.158	-0.393
-724.879	-200.000	0.031	0.329
-723.864	63.298	0.292	-0.299
-722.850	385.797	-0.079	0.167
-721.835	208.657	-0.055	-0.088
-720.821	38.277	-0.216	0.197
-719.806	112.888	-0.169	0.209
-718.791	-99.324	0.425	-0.110
-717.777	-89.650	-0.030	0.009
-716.762	-152.973	0.113	-0.008
-715.748	-160.401	-0.208	-0.011
-714.733	-200.000	0.012	-0.074
-713.718	-3.100	0.178	0.127
-712.704	44.073	-0.196	-0.184
-711.689	448.385	0.073	-0.165
-710.675	2.992	-0.093	-0.069
-709.660	-200.000	0.010	0.081
-708.645	77.912	-0.139	0.151
-707.631	-61.588	-0.265	0.114
-706.616	-200.000	-0.006	0.059
-705.602	-200.000	-0.038	0.277
-704.587	-137.364	0.257	-0.030
-703.572	-200.000	0.039	0.260
-702.558	44.330	0.080	-0.075
-701.543	-144.550	-0.207	0.020
-700.529	27.790	-0.101	-0.087
-699.514	-200.000	-0.007	-0.224
-698.499	-12.975	-0.258	0.172
-697.485	45.558	0.130	-0.123
-696.470	195.692	0.128	0.198
-695.456	800.000	0.088	-0.250
-694.441	-74.740	0.128	-0.047
-693.426	-200.000	-0.006	-0.280
-692.412	223.254	-0.110	0.182
-691.397	310.180	0.146	0.279
-690.383	-104.926	0.145	-0.034
-689.368	-26.337	0.287	-0.172
-688.354	85.309	0.174	0.195
-687.339	357.506	-0.102	-0.207
-686.324	-200.000	0.002	-0.068
-685.310	-52.201	-0.367	-0.174
-684.295	800.000	-0.062	-0.197
-683.281	-23.931	0.168	-0.103
-682.266	-200.000	-0.030	-0.311
-681.251	-94.167	-0.184	0.051
-680.237	-200.000	0.046	-0.366
-679.222	237.907	-0.106	-0.180
-678.208	249.537	-0.119	0.205
-677.193	-105.234	0.238	0.055
-676.178	-93.382	-0.207	-0.059
-675.164	475.106	-0.064	0.147
-674.149	-19.564	0.123	-0.078
-673.135	-42.744	-0.340	-0.176
-672.120	-200.000	0.000	-0.033
-671.105	15.922	-0.077	-0.061
-670.091	62.035	0.262	-0.266
-669.076	-200.000	-0.059	0.264
-668.062	115.947	0.385	-0.481
-667.047	39.228	-0.072	0.066
-666.032	5.596	-0.341	-0.257
-665.018	33.109	-0.115	0.102
-664.003	-200.000	0.028	0.360
-662.989	-2.699	-0.140	-0.100
-661.974	-200.000	0.021	0.100
-660.959	50.996	0.192	0.185
-659.945	-200.000	-0.019	0.169
-658.930	-32.603	-0.133	0.075
-657.916	197.500	0.174	-0.271
-656.901	57.133	-0.121	-0.121
-655.886	800.000	-0.072	-0.271
-654.872	-55.147	0.104	0.048
-653.857	-89.451	0.119	-0.036
-652.843	-49.716	-0.036	0.018
-651.828	166.538	0.058	0.084
-650.814	-200.000	0.010	-0.070
-649.799	7.292	0.102	-0.077
-648.784	112.524	0.106	0.131
-647.770	56.536	-0.222	0.220
-646.755	-63.630	-0.207	-0.087
-645.741	5.242	0.207	0.156
-644.726	502.298	-0.077	0.181
-643.711	753.416	0.048	0.132
-642.697	-200.000	0.002	0.013
-641.682	-139.683	-0.347	0.038
-640.668	-200.000	0.032	0.350
-639.653	16.511	-0.082	0.066
-638.638	-200.000	0.022	-0.267
-637.624	-151.010	0.367	-0.028
-636.609	-120.891	-0.254	0.044
-635.595	-93.002	-0.235	0.067
-634.580	-200.000	-0.046	0.208
-633.565	111.870	-0.072	0.088
-632.551	-200.000	-0.097	-0.534
-631.536	-200.000	-0.042	0.224
-630.522	-200.000	-0.053	0.279
-629.507	132.807	0.071	-0.093
-628.492	-68.779	-0.178	-0.070
-627.478	61.111	-0.162	0.163
-626.463	-6.003	0.195	-0.136
-625.449	88.406	0.053	-0.059
-624.434	800.000	-0.088	-0.257
-623.419	-109.090	-0.166	0.036
-622.405	-200.000	-0.039	0.391
-621.390	-120.486	0.121	0.021
-620.376	53.615	-0.075	0.073
-619.361	-165.821	-0.161	-0.007
-618.346	-67.481	0.096	-0.038
-617.332	430.228	-0.127	-0.280
-616.317	760.014	-0.022	-0.062
-615.303	-7.505	-0.087	0.060
-614.288	-98.921	-0.267	0.069
-613.273	-200.000	-0.012	0.167
-612.259	-78.018	0.137	0.048
-611.244	800.000	0.023	0.100
-610.230	308.715	-0.028	-0.053
-609.215	-200.000	0.015	-0.067
-608.201	-173.880	0.271	0.008
-607.186	148.669	-0.090	-0.124
-606.171	112.828	0.068	-0.084
-605.157	309.722	-0.069	-0.132
-604.142	-200.000	0.012	0.183
-603.128	-122.762	0.037	-0.006
-602.113	94.985	-0.270	-0.312
-601.098	-137.947	-0.202	0.023
-600.084	-200.000	0.014	-0.118
-599.069	150.944	-0.118	-0.163
-598.055	551.404	-0.045	0.110
-597.040	-22.616	-0.206	0.127
-596.025	-111.264	-0.171	-0.036
-595.011	447.236	-0.049	-0.109
-593.996	313.848	-0.036	-0.069
-592.982	373.974	-0.109	0.225
-591.967	800.000	0.048	0.164
-590.952	800.000	0.086	-0.247
-589.938	-200.000	0.009	0.166
-588.923	-25.980	0.185	0.111
-587.909	704.395	-0.046	0.124
-586.894	-158.775	0.577	0.034
-585.879	149.942	0.311	-0.428
-584.865	127.609	0.190	0.246
-583.850	-200.000	0.004	-0.032
-582.836	-76.318	0.074	0.026
-581.821	69.740	0.128	0.134
-580.806	-116.829	-0.231	0.043
-579.792	22.780	0.134	-0.111
-578.777	270.804	-0.044	0.079
-577.763	62.971	0.070	-0.071
-576.748	77.722	0.201	-0.218
-575.733	-91.296	0.102	-0.030
-574.719	-80.010	-0.197	-0.067
-573.704	-112.431	-0.256	0.052
-572.690	-200.000	-0.003	-0.083
-571.675	370.153	-0.021	0.042
-570.661	-30.789	0.155	0.089
-569.646	-116.031	0.165	0.031
-568.631	478.883	-0.082	-0.189
-567.617	-8.513	-0.150	0.103
-566.602	200.030	0.080	-0.125
-565.588	-108.477	-0.377	-0.082
-564.573	-76.139	0.167	-0.060
-563.558	-113.652	0.195	0.039
-562.544	-15.323	-0.136	0.089
-561.529	-200.000	0.011	0.223
-560.515	195.707	-0.144	-0.222
-559.500	-101.846	0.100	-0.025
-558.485	-13.609	0.256	-0.169
-557.471	-200.000	0.029	-0.305
-556.456	-25.852	0.073	0.044
-555.442	-38.107	0.115	0.062
-554.427	800.000	0.100	-0.365
-553.412	-185.455	0.153	0.002
-552.398	167.191	0.175	0.253
-551.383	77.042	-0.105	0.113
-550.369	285.919	-0.173	-0.317
-549.354	-75.861	0.143	-0.052
-548.339	800.000	-0.079	-0.223
-547.325	-161.555	-0.060	-0.003
-546.310	-28.024	-0.274	0.161
-545.296	-1.713	0.185	0.132
-544.281	316.577	-0.165	-0.316
-543.266	-66.405	-0.323	-0.130
-542.252	141.021	0.203	0.272
-541.237	-158.930	-0.288	-0.017
-540.223	193.181	-0.010	-0.016
-539.208	-19.466	0.236	-0.148
-538.193	59.695	0.017	0.017
-537.179	-155.148	-0.248	-0.016
-536.164	-78.775	-0.234	-0.081
-535.150	716.573	0.022	0.059
-534.135	-8.499	-0.201	0.137
-533.121	-200.000	0.031	-0.394
-532.106	-111.954	0.304	-0.062
-531.091	29.970	0.106	0.092
-530.077	-200.000	0.029	-0.152
-529.062	50.890	0.157	0.151
-528.048	-200.000	0.006	0.180
-527.033	-96.297	0.355	-0.095
-526.018	608.626	0.071	0.179
-525.004	-200.000	-0.052	-0.278
-523.989	246.042	-0.257	-0.439
-522.975	92.696	0.135	-0.155
-521.960	-108.480	0.219	0.048
-520.945	91.955	0.079	-0.090
-519.931	171.450	-0.138	-0.201
-518.916	400.441	-0.112	-0.238
-517.902	-173.304	-0.098	0.003
-516.887	-200.000	0.027	-0.135
-515.872	800.000	0.035	-0.120
-514.858	181.274	-0.219	-0.326
-513.843	-83.660	-0.152	0.049
-512.829	800.000	-0.060	-0.263
-511.814	157.401	0.067	0.094
-510.799	-45.833	-0.052	0.026
-509.785	217.040	0.128	0.206
-508.770	81.689	-0.202	-0.222
-507.756	-96.457	0.075	0.020
-506.741	800.000	-0.065	-0.209
-505.726	-12.133	0.172	0.114
-504.712	249.666	0.207	0.356
-503.697	376.971	-0.147	-0.305
-502.683	-68.707	0.228	0.090
-501.668	220.908	-0.095	-0.154
-500.653	309.212	0.059	-0.112
-499.639	51.908	-0.132	-0.128
-498.624	288.030	-0.080	-0.147
-497.610	-122.970	0.168	-0.027
-496.595	36.513	0.297	0.266
-495.581	-200.000	-0.029	-0.216
-494.566	-70.121	-0.158	-0.061
-493.551	-51.832	0.303	0.143
-492.537	218.680	-0.280	-0.454
-491.522	-117.109	-0.090	-0.017
-490.508	-32.203	-0.091	0.052
-489.493	173.504	-0.137	0.200
-488.478	37.603	0.191	-0.171
-487.464	156.406	0.235	0.328
-486.449	398.814	0.083	-0.176
-485.435	-17.019	0.134	0.086
-484.420	800.000	-0.077	0.314
-483.405	-163.992	-0.282	0.013
-482.391	-84.488	-0.115	-0.037
-481.376	-200.000	0.068	0.402
-480.362	-79.781	-0.199	-0.068
-479.347	-39.859	-0.161	0.085
-478.332	-47.512	-0.191	-0.094
-477.318	-200.000	0.009	-0.100
-476.303	173.758	0.068	-0.099
-475.289	-57.317	-0.115	-0.051
-474.274	1.743	0.089	0.065
-473.259	256.667	0.073	0.128
-472.245	122.041	-0.182	-0.230
-471.230	5.033	-0.157	-0.117
-470.216	362.706	0.140	-0.284
-469.201	10.965	-0.139	-0.108
-468.186	-71.051	-0.260	0.099
-467.172	800.000	-0.050	0.200
-466.157	-67.665	0.159	-0.063
-465.143	-200.000	-0.024	-0.303
-464.128	-149.355	0.028	-0.002
-463.113	-94.222	-0.241	0.067
-462.099	-80.050	0.219	0.074
-461.084	-200.000	0.007	-0.268
-460.070	-200.000	0.010	0.266
-459.055	121.252	0.296	0.373
-458.040	84.254	0.143	-0.158
-457.026	20.538	-0.107	0.087
-456.011	-200.000	0.071	-0.338
-454.997	-170.560	-0.146	-0.005
-453.982	-98.933	0.303	0.078
-452.968	-200.000	0.058	-0.415
-451.953	37.976	0.065	0.058
-450.938	-91.323	-0.207	0.060
-449.924	-73.486	0.123	0.045
-448.909	-151.892	0.157	0.012
-447.895	-48.783	0.064	-0.031
-446.880	-59.857	0.304	0.132
-445.865	353.801	0.101	0.203
-444.851	-127.474	-0.123	-0.018
-443.836	-200.000	-0.026	0.155
-442.822	-150.163	0.118	0.009
-441.807	-103.961	-0.181	0.043
-440.792	-93.327	0.056	-0.016
-439.778	-200.000	0.033	0.265
-438.763	93.966	-0.238	-0.272
-437.749	-200.000	-0.035	-0.312
-436.734	-59.769	-0.186	0.081
-435.719	800.000	0.020	-0.081
-434.705	-200.000	0.022	-0.108
-433.690	-23.179	0.064	-0.039
-432.676	-200.000	-0.032	0.330
-431.661	129.387	0.225	-0.290
-430.646	329.681	0.066	-0.129
-429.632	143.105	0.129	0.174
-428.617	800.000	-0.079	-0.242
-427.603	-113.904	0.028	-0.005
-426.588	-122.555	0.208	-0.034
-425.573	42.141	-0.073	0.067
-424.559	-95.206	-0.105	0.029
-423.544	-105.587	0.254	0.058
-422.530	118.567	-0.146	0.182
-421.515	45.213	0.214	-0.200
-420.500	-49.689	-0.109	-0.052
-419.486	-52.716	0.286	0.133
-418.471	800.000	0.065	-0.226
-417.457	-200.000	0.032	0.170
-416.442	237.570	0.035	0.059
-415.428	-118.601	-0.165	-0.029
-414.413	-200.000	-0.030	-0.298
-413.398	-200.000	-0.012	-0.310
-412.384	-180.228	-0.089	-0.002
-411.369	800.000	0.065	0.256
-410.355	-47.918	-0.043	-0.021
-409.340	800.000	-0.068	-0.208
-408.325	-68.560	0.198	0.078
-407.311	800.000	-0.023	-0.071
-406.296	94.661	0.122	-0.140
-405.282	-6.906	-0.370	0.254
-404.267	-200.000	0.015	-0.155
-403.252	-10.755	-0.204	0.136
-402.238	-17.468	-0.186	-0.118
-401.223	259.674	-0.108	-0.188
-400.209	-107.951	-0.187	-0.041
-399.194	233.700	-0.104	0.173
-398.179	800.000	-0.067	0.208
-397.165	48.980	0.096	-0.091
-396.150	-200.000	0.053	0.273
-395.136	102.377	-0.172	0.203
-394.121	56.238	-0.100	-0.098
-393.106	338.903	-0.056	0.110
-392.092	237.134	-0.075	-0.126
-391.077	682.397	-0.075	-0.197
-390.063	-114.196	0.307	0.060
-389.048	-200.000	0.038	0.229
-388.033	-110.175	0.182	0.038
-387.019	-200.000	0.014	-0.133
-386.004	-116.850	0.260	-0.048
-384.990	93.584	-0.248	0.284
-383.975	-77.450	-0.200	0.070
-382.960	-200.000	0.005	-0.082
-381.946	50.944	-0.194	-0.185
-380.931	-69.802	-0.166	0.064
-379.917	-111.065	0.193	-0.040
-378.902	420.692	-0.032	0.070
-377.888	-23.810	0.272	-0.165
-376.873	800.000	0.062	-0.183
-375.858	204.500	0.102	-0.160
-374.844	-200.000	-0.013	0.081
-373.829	-200.000	0.020	-0.234
-372.815	-200.000	0.092	0.453
-371.800	72.677	0.083	0.087
-370.785	215.042	-0.061	-0.098
-369.771	11.049	-0.264	0.204
-368.756	-200.000	0.012	-0.198
-367.742	-115.545	-0.424	0.080
-366.727	345.172	-0.163	-0.323
-365.712	-200.000	-0.016	-0.071
-364.698	108.900	-0.124	0.149
-363.683	800.000	-0.030	-0.102
-362.669	-164.703	0.173	-0.008
-361.654	-65.510	-0.422	-0.171
-360.639	-13.068	0.156	0.102
-359.625	-200.000	0.021	0.191
-358.610	-44.364	-0.177	0.090
-357.596	303.156	-0.128	-0.240
-356.581	-15.222	-0.220	-0.142
-355.566	66.465	-0.270	0.277
-354.552	800.000	-0.058	-0.190
-353.537	-145.370	0.259	0.024
-352.523	466.098	0.052	-0.118
-351.508	-17.244	-0.061	-0.039
-350.493	170.228	-0.105	-0.151
-349.479	169.387	-0.233	-0.335
-348.464	-200.000	-0.003	0.090
-347.450	-88.632	0.169	0.051
-346.435	161.558	-0.104	0.146
-345.420	323.725	0.113	0.217
-344.406	-171.540	0.080	-0.003
-343.391	-200.000	-0.019	-0.322
-342.377	-84.721	-0.293	-0.093
-341.362	419.800	0.070	-0.152
-340.348	-200.000	-0.075	-0.551
-339.333	-200.000	-0.042	-0.232
-338.318	768.659	0.078	0.213
-337.304	216.846	0.021	-0.033
-336.289	-115.615	0.187	-0.035
-335.275	-51.145	0.038	0.018
-334.260	53.165	0.274	0.264
-333.245	63.807	-0.023	-0.023
-332.231	-154.419	0.044	0.003
-331.216	67.789	-0.094	0.096
-330.202	800.000	0.024	-0.093
-329.187	-91.598	-0.155	-0.044
-328.172	-41.527	0.381	-0.197
-327.158	-87.401	0.317	0.097
-326.143	800.000	0.056	-0.215
-325.129	56.219	-0.128	-0.125
-324.114	253.334	0.154	-0.265
-323.099	-69.533	0.172	0.066
-322.085	-56.301	0.150	-0.067
-321.070	-53.758	0.288	-0.133
-320.056	-23.186	-0.113	-0.069
-319.041	-133.790	0.295	-0.037
-318.026	-200.000	-0.007	0.185
-317.012	800.000	0.082	0.282
-315.997	-35.450	-0.058	0.032
-314.983	384.419	0.130	0.269
-313.968	142.304	-0.221	0.295
-312.953	58.669	-0.217	-0.214
-311.939	-48.217	0.209	0.101
-310.924	-131.699	-0.083	-0.011
-309.910	-18.090	-0.402	0.253
-308.895	673.632	0.150	0.393
-307.880	72.395	0.179	0.187
-306.866	9.952	0.222	0.170
-305.851	-200.000	-0.011	-0.191
-304.837	190.705	-0.152	-0.229
-303.822	-90.245	-0.452	0.132
-302.807	-125.589	0.274	-0.042
-301.793	50.516	-0.083	-0.079
-300.778	59.880	0.227	-0.226
-299.764	-139.869	0.099	0.011
-298.749	59.146	-0.134	-0.132
-297.735	800.000	-0.090	-0.287
-296.720	-153.402	0.267	-0.019
-295.705	614.230	-0.088	-0.221
-294.691	-200.000	-0.002	0.068
-293.676	-200.000	0.012	-0.190
-292.662	140.952	-0.110	-0.147
-291.647	450.929	-0.150	0.333
-290.632	-18.638	0.218	-0.137
-289.618	173.856	-0.155	-0.225
-288.603	-70.947	0.125	-0.047
-287.589	800.000	-0.056	-0.208
-286.574	-25.290	-0.190	0.113
-285.559	358.038	-0.052	-0.105
-284.545	560.567	-0.161	-0.391
-283.530	-163.655	0.009	0.000
-282.516	-132.623	0.258	-0.033
-281.501	191.832	0.273	0.414
-280.486	60.879	0.316	0.315
-279.472	11.124	0.260	0.200
-278.457	-167.294	-0.148	0.006
-277.443	287.684	0.128	0.232
-276.428	-57.348	-0.162	0.071
-275.413	-107.955	0.255	-0.056
-274.399	-200.000	0.030	0.188
-273.384	72.525	-0.058	-0.061
-272.370	800.000	-0.092	0.380
-271.355	800.000	-0.087	0.297
-270.340	391.446	0.067	0.140
-269.326	717.798	0.063	-0.168
-268.311	-126.246	0.294	-0.044
-267.297	-200.000	0.037	0.211
-266.282	-77.955	0.064	-0.022
-265.267	-200.000	0.025	-0.138
-264.253	-145.233	0.196	0.018
-263.238	300.454	0.051	-0.094
-262.224	800.000	0.022	-0.092
-261.209	-21.496	-0.128	0.078
-260.195	288.537	-0.129	0.234
-259.180	121.651	-0.179	0.224
-258.165	597.366	0.144	-0.358
-257.151	-100.773	0.242	0.060
-256.136	114.465	-0.118	0.144
-255.122	385.348	-0.190	-0.394
-254.107	35.077	-0.162	0.142
-253.092	800.000	-0.044	-0.136
-252.078	72.899	-0.057	0.059
-251.063	-112.965	-0.345	0.068
-250.049	-72.494	0.298	0.110
-249.034	800.000	-0.115	0.356
-248.019	167.342	-0.107	0.152
-247.005	-6.980	0.518	-0.353
-245.990	468.601	0.045	0.101
-244.976	56.769	-0.178	-0.174
-243.961	637.061	0.081	-0.206
-242.946	145.333	-0.186	0.250
-241.932	800.000	0.098	0.336
-240.917	-36.883	0.092	0.049
-239.903	-121.442	-0.194	-0.032
-238.888	800.000	-0.078	-0.319
-237.873	86.291	-0.304	-0.336
-236.859	-105.093	-0.441	-0.101
-235.844	-185.669	0.229	0.003
-234.830	-200.000	-0.002	0.012
-233.815	-79.635	-0.259	-0.088
-232.800	133.759	0.112	0.146
-231.786	478.590	-0.033	0.074
-230.771	53.991	0.247	-0.238
-229.757	-67.030	-0.409	0.162
-228.742	-200.000	-0.040	0.210
-227.727	-200.000	0.008	-0.196
-226.713	-94.233	0.055	0.015
-225.698	-136.558	0.071	-0.008
-224.684	237.276	-0.179	0.297
-223.669	800.000	-0.024	-0.102
-222.655	57.709	-0.163	0.160
-221.640	-127.208	0.303	-0.044
-220.625	208.911	0.076	-0.120
-219.611	-200.000	-0.003	-0.079
-218.596	383.698	0.114	-0.235
-217.582	-166.902	-0.262	-0.011
-216.567	-37.592	0.359	0.192
-215.552	-139.606	-0.206	-0.022
-214.538	-137.164	-0.264	0.030
-213.523	-54.183	-0.199	0.090
-212.509	-200.000	-0.371	0.001
-211.494	279.325	0.067	0.121
-210.479	-88.587	0.603	0.180
-209.465	455.762	0.099	0.219
-208.450	615.078	0.039	-0.097
-207.436	258.067	-0.089	0.154
-206.421	66.587	0.081	0.082
-205.406	-200.000	0.064	0.334
-204.392	125.684	-0.181	0.229
-203.377	211.103	0.075	0.118
-202.363	201.782	-0.124	-0.192
-201.348	48.265	-0.152	-0.143
-200.333	433.283	0.072	0.157
-199.319	-200.000	-0.044	-0.273
-198.304	53.868	0.240	-0.231
-197.290	177.492	-0.073	-0.107
-196.275	-139.619	-0.284	0.030
-195.260	-67.144	-0.208	-0.082
-194.246	-102.511	-0.105	0.025
-193.231	219.361	0.297	0.476
-192.217	-200.000	-0.013	0.342
-191.202	-92.937	0.209	0.058
-190.187	15.643	-0.322	-0.254
-189.173	-42.329	-0.118	0.060
-188.158	8.889	0.274	0.207
-187.144	800.000	-0.066	-0.201
-186.129	439.071	0.109	-0.239
-185.114	256.061	-0.148	-0.255
-184.100	800.000	-0.066	0.228
-183.085	-30.530	0.216	0.123
-182.071	-200.000	-0.002	-0.155
-181.056	338.414	0.013	-0.026
-180.042	204.146	-0.182	0.283
-179.027	152.033	0.123	0.168
-178.012	800.000	0.028	-0.120
-176.998	-51.505	-0.170	-0.079
-175.983	-31.427	0.041	-0.023
-174.969	228.532	0.157	0.256
-173.954	-200.000	-0.002	0.060
-172.939	-200.000	0.063	0.312
-171.925	719.622	0.160	0.426
-170.910	800.000	0.090	0.278
-169.896	-200.000	0.010	0.128
-168.881	-48.356	0.016	-0.008
-167.866	17.588	0.293	0.233
-166.852	-182.055	0.029	-0.001
-165.837	-77.863	0.202	0.070
-164.823	-115.954	0.295	0.055
-163.808	-115.473	0.332	0.062
-162.793	-200.000	-0.014	0.357
-161.779	-200.000	-0.073	0.378
-160.764	-104.439	0.111	-0.026
-159.750	409.875	-0.151	0.319
-158.735	58.872	-0.084	0.083
-157.720	569.577	0.106	0.258
-156.706	447.535	-0.107	-0.236
-155.691	575.374	-0.076	-0.186
-154.677	-174.688	0.082	-0.002
-153.662	-84.610	0.193	0.061
-152.647	-154.847	0.249	-0.016
-151.633	-200.000	-0.022	0.335
-150.618	214.829	0.166	-0.264
-149.604	-34.773	-0.233	-0.127
-148.589	243.323	-0.068	-0.114
-147.574	-160.725	0.076	-0.004
-146.560	-19.904	0.195	-0.120
-145.545	-109.375	0.175	-0.037
-144.531	-200.000	-0.041	0.185
-143.516	111.246	0.200	-0.241
-142.502	-200.000	0.232	-0.001
-141.487	-135.685	-0.162	0.019
-140.472	-68.243	-0.357	-0.139
-139.458	126.395	0.140	0.178
-138.443	800.000	0.101	0.404
-137.429	340.705	0.055	0.108
-136.414	124.281	-0.089	0.112
-135.399	169.799	0.081	0.115
-134.385	-5.558	0.094	0.065
-133.370	-148.808	-0.237	-0.019
-132.356	-20.885	0.242	0.148
-131.341	-49.190	0.309	0.148
-130.326	284.538	0.071	0.128
-129.312	105.993	0.103	-0.122
-128.297	-152.438	-0.311	0.022
-127.283	-94.969	0.028	0.008
-126.268	-149.110	-0.269	0.022
-125.253	201.880	-0.125	-0.192
-124.239	221.207	-0.225	0.361
-123.224	237.004	-0.110	0.182
-122.210	-45.845	-0.342	-0.169
