DTS Sentinel unit serial number:	SN413079Multiplexer serial number:	ORYXHardware model number:	OX4-SRSoftware version number:	ORYX F/W v4.00 Oryx Data Collector v3.7.2.0data status	okinstallation	princeton_trtdifferential loss correction	single-endedforward channel	channel 4reverse channel	N/Adate	2019/09/17time	23:09:35forward acquisition time	60.00reverse acquisition time	0.00gamma	496.2192k internal	0.2331k external	0.2331temperature offset calibration	0.9996default loss term (dB/km)	0.3790temperature slope calibration	1.0000multiplexer offset coefficient	1.0000multiplexer slope coefficient	1.0000fibre end	0.00T internal ref (°C)	24.62T ext. ref 1 (°C)	0.17T ext. ref 2 (°C)	17.69length (m)	temperature (°C)	Stokes	anti-Stokes-747.200	260.000	0.067	0.117
-746.185	-115.959	-0.186	-0.035
-745.171	-50.489	0.171	0.081
-744.156	542.855	-0.087	0.209
-743.142	-12.417	0.241	0.158
-742.127	486.858	-0.141	0.324
-741.112	170.385	0.106	0.153
-740.098	-2.606	-0.308	0.217
-739.083	197.488	-0.169	0.259
-738.069	56.161	-0.365	0.357
-737.054	-26.996	-0.171	0.101
-736.039	-152.496	0.187	0.013
-735.025	-85.958	0.319	-0.099
-734.010	-130.947	-0.407	-0.055
-732.996	-53.013	-0.282	0.131
-731.981	-200.000	-0.083	0.535
-730.966	-86.718	-0.274	-0.084
-729.952	800.000	-0.068	-0.238
-728.937	-69.625	0.134	0.051
-727.923	436.484	0.036	0.079
-726.908	25.009	0.192	0.161
-725.894	-21.386	-0.042	0.026
-724.879	117.127	0.022	0.027
-723.864	-200.000	0.017	0.280
-722.850	800.000	-0.038	0.145
-721.835	744.376	-0.057	0.155
-720.821	-200.000	-0.028	-0.124
-719.806	-200.000	0.076	-0.422
-718.791	800.000	0.079	-0.296
-717.777	-200.000	-0.009	-0.046
-716.762	358.881	0.141	0.283
-715.748	-61.378	-0.103	-0.043
-714.733	-200.000	0.040	-0.302
-713.718	-138.846	0.233	-0.025
-712.704	-52.533	-0.099	0.046
-711.689	-30.895	-0.131	-0.075
-710.675	366.646	-0.156	-0.317
-709.660	-122.360	-0.236	0.039
-708.645	99.636	-0.111	-0.129
-707.631	257.766	0.205	-0.354
-706.616	65.601	-0.385	-0.392
-705.602	282.838	0.137	-0.247
-704.587	82.852	0.095	-0.104
-703.572	-183.403	-0.186	-0.003
-702.558	57.325	0.202	0.198
-701.543	215.084	-0.061	-0.096
-700.529	-106.310	0.159	-0.036
-699.514	57.868	-0.208	-0.205
-698.499	-151.471	-0.156	-0.012
-697.485	-200.000	-0.057	0.305
-696.470	-102.325	0.121	0.029
-695.456	-63.303	-0.257	-0.106
-694.441	34.654	0.194	-0.170
-693.426	-200.000	-0.004	0.054
-692.412	800.000	-0.045	-0.171
-691.397	-200.000	0.001	-0.186
-690.383	217.640	-0.108	-0.173
-689.368	800.000	0.072	0.267
-688.354	-95.593	-0.207	-0.056
-687.339	-43.418	0.205	0.104
-686.324	316.822	-0.034	-0.065
-685.310	800.000	0.049	0.212
-684.295	741.212	-0.068	-0.184
-683.281	-84.451	-0.217	-0.069
-682.266	-96.294	0.194	-0.052
-681.251	-200.000	0.145	-0.000
-680.237	653.429	-0.100	-0.257
-679.222	364.234	0.160	-0.323
-678.208	-200.000	0.032	-0.232
-677.193	106.818	-0.109	0.130
-676.178	551.257	-0.033	0.078
-675.164	146.838	-0.185	0.249
-674.149	231.439	0.040	-0.065
-673.135	101.395	0.031	0.036
-672.120	-84.919	-0.441	-0.139
-671.105	-95.067	-0.176	0.048
-670.091	346.884	0.041	-0.081
-669.076	800.000	-0.063	0.192
-668.062	69.807	-0.146	-0.151
-667.047	-34.689	-0.256	-0.140
-666.032	-200.000	0.034	-0.151
-665.018	-36.368	0.172	-0.093
-664.003	800.000	-0.098	0.275
-662.989	-119.049	0.157	0.028
-661.974	629.159	0.069	-0.175
-660.959	-102.259	0.118	-0.028
-659.945	-200.000	-0.006	0.134
-658.930	157.350	0.198	0.275
-657.916	-144.623	0.140	0.013
-656.901	28.354	-0.121	-0.103
-655.886	399.819	0.048	-0.101
-654.872	3.163	-0.249	-0.181
-653.857	-158.579	0.090	0.005
-652.843	-23.958	0.288	0.173
-651.828	210.967	0.138	-0.217
-650.814	-85.182	-0.116	0.036
-649.799	800.000	0.052	-0.156
-648.784	511.895	-0.032	-0.074
-647.770	-82.932	-0.218	-0.071
-646.755	44.907	-0.049	-0.045
-645.741	-200.000	-0.001	0.055
-644.726	-71.203	-0.041	0.015
-643.711	-137.955	0.200	0.022
-642.697	-29.448	0.161	-0.092
-641.682	-173.711	0.239	0.007
-640.668	519.661	0.071	-0.168
-639.653	-71.948	-0.095	0.035
-638.638	63.292	0.262	0.264
-637.624	-157.543	-0.228	0.014
-636.609	158.626	0.318	-0.443
-635.595	108.329	0.337	-0.403
-634.580	66.609	-0.257	-0.262
-633.565	-115.220	-0.075	-0.014
-632.551	800.000	0.122	0.446
-631.536	-26.429	0.113	-0.066
-630.522	-121.970	-0.200	-0.033
-629.507	-63.361	-0.277	0.114
-628.492	-200.000	0.039	-0.297
-627.478	163.187	-0.150	-0.211
-626.463	-200.000	0.007	-0.191
-625.449	340.353	0.093	0.183
-624.434	-124.014	-0.265	0.042
-623.419	-120.501	0.443	-0.075
-622.405	-117.008	-0.166	-0.030
-621.390	383.024	-0.022	0.045
-620.376	58.160	-0.181	-0.177
-619.361	-75.625	-0.185	-0.066
-618.346	-143.873	-0.069	0.007
-617.332	-68.015	-0.242	-0.095
-616.317	84.490	-0.315	-0.345
-615.303	-40.781	0.012	-0.006
-614.288	-200.000	-0.001	0.100
-613.273	-200.000	0.052	-0.298
-612.259	-200.000	0.035	-0.271
-611.244	721.801	0.090	-0.240
-610.230	-133.241	-0.180	-0.023
-609.215	-135.081	-0.212	0.026
-608.201	-44.759	-0.210	0.105
-607.186	800.000	0.039	0.158
-606.171	-102.743	-0.297	0.071
-605.157	606.982	-0.141	0.353
-604.142	483.316	-0.083	-0.188
-603.128	-72.092	0.587	0.218
-602.113	-200.000	0.028	0.198
-601.098	-30.582	0.158	-0.090
-600.084	-151.020	-0.230	-0.017
-599.069	32.186	-0.174	0.150
-598.055	183.141	-0.082	0.121
-597.040	87.194	-0.043	0.047
-596.025	-21.617	-0.104	-0.063
-595.011	175.120	-0.172	-0.249
-593.996	287.228	-0.105	-0.189
-592.982	800.000	0.039	0.132
-591.967	-78.474	0.240	-0.082
-590.952	-200.000	0.005	0.043
-589.938	-44.863	0.129	0.064
-588.923	800.000	-0.108	0.340
-587.909	-99.411	0.209	-0.053
-586.894	-200.000	-0.038	0.227
-585.879	654.091	0.064	0.165
-584.865	170.953	0.229	-0.328
-583.850	-200.000	-0.021	0.401
-582.836	77.793	-0.061	-0.065
-581.821	-119.014	0.217	-0.038
-580.806	-80.022	0.129	-0.043
-579.792	-22.323	-0.183	-0.111
-578.777	39.609	0.275	-0.246
-577.763	139.828	-0.211	-0.278
-576.748	72.433	-0.186	-0.194
-575.733	-200.000	-0.003	-0.043
-574.719	104.040	0.049	0.058
-573.704	-86.089	0.508	-0.157
-572.690	353.984	-0.120	-0.238
-571.675	-200.000	-0.083	-0.379
-570.661	-9.085	0.360	-0.241
-569.646	-200.000	0.014	-0.146
-568.631	1.529	0.100	-0.072
-567.617	-59.650	0.064	0.027
-566.602	-38.982	-0.107	-0.056
-565.588	-200.000	-0.018	0.102
-564.573	-34.894	0.015	0.008
-563.558	-49.894	0.180	0.085
-562.544	181.275	0.042	0.062
-561.529	342.153	-0.039	0.077
-560.515	105.293	0.044	0.051
-559.500	69.104	-0.249	0.255
-558.485	-66.022	-0.343	0.137
-557.471	33.186	-0.166	0.144
-556.456	800.000	0.074	-0.274
-555.442	70.216	-0.277	-0.285
-554.427	800.000	0.025	0.110
-553.412	38.664	0.255	-0.227
-552.398	800.000	0.017	0.063
-551.383	103.206	-0.085	0.099
-550.369	586.492	0.077	-0.188
-549.354	-16.603	0.218	0.138
-548.339	24.996	-0.260	0.215
-547.325	257.362	-0.117	-0.201
-546.310	-130.019	-0.262	-0.036
-545.296	238.744	0.037	0.062
-544.281	634.616	-0.097	0.245
-543.266	-46.597	-0.322	0.157
-542.252	-200.000	-0.027	-0.331
-541.237	-97.488	0.097	0.025
-540.223	800.000	0.093	-0.338
-539.208	-11.209	-0.178	-0.117
-538.193	-91.594	0.367	-0.104
-537.179	800.000	0.106	0.351
-536.164	800.000	-0.030	0.096
-535.150	-26.020	-0.217	-0.127
-534.135	53.281	0.133	0.127
-533.121	93.138	-0.168	-0.189
-532.106	-63.592	0.149	0.061
-531.091	108.409	0.179	0.213
-530.077	380.606	-0.012	0.025
-529.062	-164.776	-0.099	-0.004
-528.048	471.867	-0.066	-0.149
-527.033	-51.392	0.070	-0.033
-526.018	-115.931	-0.284	0.053
-525.004	657.372	0.119	0.306
-523.989	148.622	0.198	0.267
-522.975	800.000	0.038	0.149
-521.960	800.000	0.095	0.379
-520.945	155.483	-0.097	0.133
-519.931	-92.039	0.153	0.043
-518.916	-32.876	0.226	-0.125
-517.902	-200.000	0.011	-0.050
-516.887	249.285	0.055	0.093
-515.872	320.069	0.205	0.389
-514.858	-7.497	0.256	0.173
-513.843	36.250	-0.255	0.224
-512.829	530.279	0.086	-0.203
-511.814	-62.560	-0.113	0.047
-510.799	33.473	0.490	0.425
-509.785	497.868	-0.131	-0.302
-508.770	-157.768	0.333	-0.020
-507.756	169.858	-0.130	0.185
-506.741	10.697	-0.159	0.121
-505.726	-34.662	-0.176	0.096
-504.712	322.701	-0.065	0.123
-503.697	-15.006	0.135	-0.086
-502.683	-36.037	-0.161	-0.087
-501.668	-156.937	-0.099	-0.006
-500.653	-156.466	-0.121	-0.008
-499.639	52.762	-0.088	-0.084
-498.624	-200.000	0.052	0.285
-497.610	-169.186	0.192	-0.007
-496.595	116.441	0.048	0.058
-495.581	-23.938	0.171	-0.102
-494.566	13.493	-0.260	0.201
-493.551	-200.000	-0.028	0.145
-492.537	-148.326	-0.506	0.042
-491.522	144.775	0.182	-0.243
-490.508	800.000	0.044	0.136
-489.493	-106.441	-0.267	0.059
-488.478	300.697	0.140	-0.257
-487.464	207.184	0.078	0.121
-486.449	-200.000	0.033	-0.157
-485.435	468.559	0.136	-0.303
-484.420	-200.000	-0.023	0.386
-483.405	-81.248	-0.374	0.123
-482.391	-200.000	0.034	-0.265
-481.376	-90.587	0.118	0.034
-480.362	800.000	-0.111	-0.459
-479.347	37.226	0.212	0.187
-478.332	131.171	-0.136	0.174
-477.318	147.532	-0.092	-0.123
-476.303	26.465	0.177	-0.147
-475.289	30.849	0.247	-0.210
-474.274	-178.272	-0.254	0.006
-473.259	-96.113	-0.051	-0.014
-472.245	-200.000	0.006	-0.166
-471.230	-200.000	0.002	-0.167
-470.216	729.230	0.055	-0.146
-469.201	354.605	0.088	0.173
-468.186	165.880	-0.092	0.130
-467.172	800.000	-0.088	-0.266
-466.157	-200.000	0.022	0.123
-465.143	800.000	0.027	0.075
-464.128	-78.374	-0.219	0.075
-463.113	-200.000	-0.031	0.210
-462.099	732.238	-0.059	0.157
-461.084	-133.262	-0.181	-0.023
-460.070	24.140	-0.079	-0.065
-459.055	-200.000	-0.008	-0.075
-458.040	219.424	-0.219	0.349
-457.026	147.020	0.108	0.145
-456.011	-19.047	0.273	0.169
-454.997	324.712	0.074	0.141
-453.982	-61.919	-0.193	0.080
-452.968	142.960	0.094	0.124
-451.953	-102.427	0.159	0.038
-450.938	191.207	0.044	-0.066
-449.924	-9.521	-0.423	-0.281
-448.909	800.000	0.057	0.172
-447.895	-200.000	-0.067	-0.386
-446.880	-59.456	-0.273	0.117
-445.865	-200.000	0.002	-0.041
-444.851	15.712	-0.070	-0.055
-443.836	-53.400	-0.206	0.094
-442.822	203.341	-0.096	-0.147
-441.807	-151.339	-0.274	0.020
-440.792	52.138	-0.296	-0.281
-439.778	-142.154	0.340	0.034
-438.763	57.852	-0.160	-0.156
-437.749	306.643	0.056	-0.104
-436.734	-123.367	-0.210	0.033
-435.719	553.139	-0.023	0.055
-434.705	27.478	0.154	0.129
-433.690	-152.342	-0.203	0.015
-432.676	-200.000	-0.044	0.281
-431.661	5.623	-0.199	0.146
-430.646	-21.680	0.353	-0.214
-429.632	-200.000	-0.069	-0.341
-428.617	-200.000	-0.010	-0.145
-427.603	-108.975	0.195	-0.041
-426.588	-66.708	-0.069	-0.027
-425.573	-156.336	0.274	0.017
-424.559	-200.000	0.041	-0.409
-423.544	-127.335	0.322	-0.047
-422.530	-179.206	-0.112	-0.002
-421.515	341.981	-0.077	-0.149
-420.500	484.281	-0.069	-0.157
-419.486	-118.924	-0.169	-0.029
-418.471	-157.203	-0.018	0.001
-417.457	190.972	-0.174	0.260
-416.442	185.716	0.118	-0.174
-415.428	-44.522	0.371	-0.184
-414.413	-44.684	0.187	-0.093
-413.398	-200.000	-0.023	-0.168
-412.384	-4.360	-0.078	0.054
-411.369	-123.321	-0.194	0.031
-410.355	-23.867	-0.214	0.128
-409.340	189.897	0.175	0.260
-408.325	52.545	-0.271	-0.257
-407.311	43.388	0.208	0.188
-406.296	-142.639	0.209	-0.020
-405.282	-56.698	-0.086	0.038
-404.267	-66.000	-0.111	-0.044
-403.252	208.918	0.233	-0.362
-402.238	246.598	-0.044	0.074
-401.223	-56.847	0.200	0.088
-400.209	182.144	0.065	0.095
-399.194	103.126	0.124	-0.144
-398.179	800.000	-0.043	-0.178
-397.165	249.627	0.133	-0.224
-396.150	-200.000	-0.010	0.048
-395.136	-95.432	-0.219	-0.058
-394.121	-200.000	-0.014	-0.186
-393.106	-35.478	-0.194	0.105
-392.092	-71.570	0.221	0.082
-391.077	-105.126	-0.167	0.038
-390.063	-125.691	-0.257	0.039
-389.048	1.847	-0.073	0.052
-388.033	-77.525	0.278	-0.096
-387.019	173.297	0.049	0.070
-386.004	185.793	0.188	-0.277
-384.990	295.972	0.113	0.206
-383.975	-122.995	-0.267	0.043
-382.960	696.854	-0.024	0.062
-381.946	4.466	-0.372	0.271
-380.931	689.627	0.117	0.304
-379.917	-200.000	-0.006	-0.072
-378.902	800.000	-0.097	-0.278
-377.888	-200.000	0.016	0.185
-376.873	-200.000	-0.016	0.264
-375.858	138.044	-0.082	-0.107
-374.844	-102.705	0.227	-0.054
-373.829	-157.858	-0.353	-0.021
-372.815	132.927	0.162	0.207
-371.800	-200.000	0.013	-0.387
-370.785	796.819	-0.055	-0.151
-369.771	-44.410	-0.109	0.054
-368.756	543.406	0.086	0.203
-367.742	-44.394	-0.285	-0.141
-366.727	-200.000	-0.008	-0.219
-365.712	122.032	0.105	0.130
-364.698	-108.558	0.152	-0.032
-363.683	747.661	-0.024	-0.064
-362.669	-138.605	-0.124	-0.013
-361.654	-193.652	0.110	0.001
-360.639	71.731	0.158	-0.162
-359.625	-49.083	0.240	-0.114
-358.610	-200.000	0.089	0.484
-357.596	173.486	-0.113	0.161
-356.581	-187.770	0.035	0.000
-355.566	-16.172	0.147	-0.092
-354.552	-65.116	-0.138	0.055
-353.537	-113.113	-0.199	-0.039
-352.523	800.000	0.065	0.241
-351.508	-127.887	-0.351	0.050
-350.493	-11.841	-0.277	-0.180
-349.479	-200.000	0.005	0.049
-348.464	-200.000	0.006	-0.042
-347.450	140.462	0.342	0.448
-346.435	26.475	-0.076	-0.063
-345.420	-70.520	-0.175	-0.065
-344.406	-168.798	0.210	-0.008
-343.391	-147.401	-0.233	-0.020
-342.377	-139.423	0.274	0.029
-341.362	48.127	0.094	-0.087
-340.348	107.052	-0.079	-0.093
-339.333	800.000	-0.031	-0.094
-338.318	-50.148	0.259	0.121
-337.304	-51.336	-0.252	-0.117
-336.289	-19.820	0.079	-0.048
-335.275	-154.729	-0.192	0.013
-334.260	-106.662	0.075	-0.016
-333.245	-160.777	0.292	0.015
-332.231	-200.000	-0.012	0.106
-331.216	-200.000	0.060	0.291
-330.202	-60.111	0.310	0.131
-329.187	681.995	-0.062	-0.161
-328.172	-122.565	0.067	0.011
-327.158	-71.006	-0.235	-0.087
-326.143	800.000	-0.077	0.281
-325.129	237.647	-0.183	0.300
-324.114	-33.811	-0.415	0.227
-323.099	800.000	-0.065	0.216
-322.085	284.809	-0.089	0.158
-321.070	800.000	0.050	-0.191
-320.056	-53.770	0.218	-0.098
-319.041	-98.850	0.259	-0.065
-318.026	381.335	-0.143	-0.291
-317.012	-21.601	-0.021	0.013
-315.997	279.340	-0.119	0.210
-314.983	-79.949	0.226	-0.075
-313.968	-86.398	0.248	0.075
-312.953	269.134	0.039	0.068
-311.939	33.564	0.240	0.206
-310.924	176.170	0.189	-0.271
-309.910	367.567	-0.111	-0.223
-308.895	142.940	-0.239	0.314
-307.880	-200.000	0.031	0.164
-306.866	-8.201	0.202	0.135
-305.851	195.395	0.151	0.227
-304.837	-96.414	0.187	-0.049
-303.822	-26.905	-0.104	-0.060
-302.807	-200.000	0.005	-0.150
-301.793	-86.715	0.228	0.069
-300.778	-128.763	0.187	-0.026
-299.764	62.911	-0.171	-0.169
-298.749	-96.072	0.245	-0.064
-297.735	-12.032	0.218	0.141
-296.720	10.136	0.144	-0.108
-295.705	-200.000	0.028	0.303
-294.691	-200.000	0.049	0.230
-293.676	-59.835	0.298	-0.126
-292.662	-162.189	0.145	0.007
-291.647	-169.612	-0.037	-0.001
-290.632	69.084	0.145	0.147
-289.618	111.649	-0.230	0.274
-288.603	-200.000	-0.009	-0.049
-287.589	-74.215	-0.343	-0.123
-286.574	-105.669	0.265	-0.059
-285.559	-89.841	0.205	-0.059
-284.545	800.000	0.032	-0.092
-283.530	434.143	0.029	-0.063
-282.516	-117.367	-0.336	-0.060
-281.501	110.273	-0.259	0.307
-280.486	-57.583	0.257	0.111
-279.472	108.324	-0.135	-0.159
-278.457	193.452	0.053	-0.079
-277.443	465.286	-0.169	-0.374
-276.428	-200.000	0.010	0.185
-275.413	-200.000	0.014	-0.108
-274.399	-136.824	-0.166	0.019
-273.384	126.841	-0.053	-0.067
-272.370	-9.056	-0.162	0.107
-271.355	-200.000	0.046	0.266
-270.340	800.000	-0.056	0.213
-269.326	167.320	0.075	0.106
-268.311	-77.994	-0.211	-0.072
-267.297	164.758	-0.259	-0.362
-266.282	800.000	-0.028	-0.114
-265.267	-12.876	0.324	-0.208
-264.253	800.000	0.183	-0.558
-263.238	-87.273	-0.449	-0.135
-262.224	184.749	-0.082	-0.120
-261.209	142.086	-0.120	0.157
-260.195	108.027	0.274	0.322
-259.180	-89.841	-0.058	-0.017
-258.165	-197.242	-0.077	0.000
-257.151	171.161	0.090	0.127
-256.136	254.764	0.038	0.065
-255.122	-99.438	0.274	0.068
-254.107	699.119	0.064	0.167
-253.092	-154.430	-0.161	-0.011
-252.078	800.000	0.071	0.291
-251.063	800.000	-0.020	-0.054
-250.049	-149.024	-0.055	0.004
-249.034	800.000	-0.090	0.287
-248.019	-153.646	-0.192	0.013
-247.005	-56.328	0.224	-0.098
-245.990	52.076	-0.129	-0.122
-244.976	-81.698	0.394	-0.127
-243.961	-164.276	-0.297	-0.013
-242.946	-107.385	0.314	0.068
-241.932	-148.440	-0.227	-0.018
-240.917	43.512	-0.247	-0.222
-239.903	706.155	-0.128	-0.335
-238.888	358.590	0.057	-0.112
-237.873	-180.697	-0.120	0.002
-236.859	-146.996	0.270	0.023
-235.844	800.000	0.030	-0.112
-234.830	-200.000	0.029	-0.168
-233.815	-124.908	0.275	0.042
-232.800	-200.000	0.013	-0.070
-231.786	666.593	0.033	-0.084
-230.771	800.000	-0.045	0.168
-229.757	-200.000	-0.015	0.161
-228.742	19.169	-0.229	0.181
-227.727	36.019	0.267	0.231
-226.713	800.000	0.084	-0.289
-225.698	-153.950	-0.296	0.020
-224.684	-98.465	-0.276	-0.070
-223.669	33.003	-0.227	-0.194
-222.655	-86.058	0.135	-0.041
-221.640	-61.349	0.084	0.035
-220.625	-200.000	0.027	0.370
-219.611	241.294	0.229	-0.376
-218.596	-200.000	0.056	0.340
-217.582	124.231	-0.070	0.087
-216.567	32.525	0.209	-0.178
-215.552	-88.086	-0.180	0.053
-214.538	800.000	-0.031	0.125
-213.523	800.000	0.142	0.402
-212.509	-200.000	-0.495	0.001
-211.494	-180.136	0.361	-0.008
-210.479	1.019	-0.217	-0.154
-209.465	-158.907	0.643	0.036
-208.450	-25.707	-0.235	-0.136
-207.436	800.000	-0.038	-0.148
-206.421	-126.331	0.429	-0.063
-205.406	-18.921	-0.270	0.166
-204.392	-187.387	0.077	-0.001
-203.377	-39.857	0.132	-0.068
-202.363	-157.647	-0.146	0.009
-201.348	170.799	0.023	0.033
-200.333	-47.587	0.290	-0.139
-199.319	-200.000	-0.098	0.427
-198.304	-130.184	0.022	-0.003
-197.290	-20.198	-0.137	0.083
-196.275	164.832	0.066	-0.092
-195.260	800.000	-0.038	-0.159
-194.246	20.455	-0.119	0.095
-193.231	-9.350	0.104	-0.068
-192.217	-80.896	0.324	-0.106
-191.202	-89.295	-0.237	0.069
-190.187	-200.000	0.026	-0.114
-189.173	231.521	-0.147	-0.238
-188.158	89.669	0.062	-0.068
-187.144	35.785	-0.095	0.083
-186.129	-122.265	0.190	-0.031
-185.114	-129.188	-0.103	-0.014
-184.100	89.366	0.105	-0.116
-183.085	231.232	0.225	0.363
-182.071	-114.030	0.176	-0.034
-181.056	-200.000	-0.001	-0.114
-180.042	106.174	-0.090	0.105
-179.027	-200.000	-0.009	0.114
-178.012	-200.000	0.025	0.111
-176.998	240.484	0.144	-0.236
-175.983	79.171	-0.148	-0.156
-174.969	-96.654	0.266	-0.069
-173.954	86.690	-0.010	0.010
-172.939	-200.000	0.051	0.272
-171.925	800.000	0.058	0.222
-170.910	800.000	-0.119	0.389
-169.896	569.900	-0.023	0.054
-168.881	365.933	0.102	0.203
-167.866	304.682	0.124	0.227
-166.852	-144.257	0.249	0.023
-165.837	227.627	0.098	-0.157
-164.823	117.655	-0.165	0.200
-163.808	-60.256	-0.210	0.088
-162.793	257.351	0.163	-0.276
-161.779	210.961	-0.120	-0.185
-160.764	85.857	-0.091	0.099
-159.750	-6.881	-0.122	-0.082
-158.735	-93.433	-0.114	0.031
-157.720	78.417	-0.296	-0.311
-156.706	98.595	-0.123	0.140
-155.691	-55.273	-0.089	-0.039
-154.677	169.322	-0.056	0.079
-153.662	-19.100	0.163	0.099
-152.647	-22.525	0.223	0.132
-151.633	-107.688	0.358	-0.077
-150.618	-29.405	-0.105	0.059
-149.604	-200.000	-0.017	-0.205
-148.589	-2.461	0.116	0.080
-147.574	-200.000	-0.027	0.131
-146.560	-99.526	0.441	0.109
-145.545	141.949	-0.021	0.028
-144.531	-35.656	0.179	-0.096
-143.516	156.718	-0.100	0.136
-142.502	-200.000	-0.014	0.432
-141.487	-200.000	-0.002	0.025
-140.472	-30.304	-0.083	-0.046
-139.458	-200.000	-0.167	-0.001
-138.443	418.509	-0.069	-0.145
-137.429	-188.973	-0.212	-0.003
-136.414	-200.000	-0.033	-0.501
-135.399	480.595	0.120	-0.267
-134.385	-77.500	0.239	0.082
-133.370	-18.835	0.155	-0.095
-132.356	33.915	-0.155	-0.132
-131.341	-71.802	0.210	0.077
-130.326	63.354	0.147	-0.145
-129.312	469.984	0.020	-0.044
-128.297	224.668	-0.048	0.076
-127.283	-61.175	-0.423	-0.175
-126.268	296.096	-0.123	-0.221
-125.253	-39.637	0.151	0.078
-124.239	-83.057	0.298	-0.094
-123.224	-115.517	0.172	-0.032
-122.210	-0.998	0.236	-0.164
