DTS Sentinel unit serial number:	SN413079Multiplexer serial number:	ORYXHardware model number:	OX4-SRSoftware version number:	ORYX F/W v4.00 Oryx Data Collector v3.7.2.0data status	okinstallation	princeton_trtdifferential loss correction	single-endedforward channel	channel 4reverse channel	N/Adate	2019/09/19time	08:25:35forward acquisition time	60.00reverse acquisition time	0.00gamma	496.2192k internal	0.2339k external	0.2339temperature offset calibration	1.0022default loss term (dB/km)	0.3790temperature slope calibration	1.0000multiplexer offset coefficient	1.0000multiplexer slope coefficient	1.0000fibre end	0.00T internal ref (°C)	20.50T ext. ref 1 (°C)	0.57T ext. ref 2 (°C)	16.22length (m)	temperature (°C)	Stokes	anti-Stokes-747.200	-0.206	-0.331	-0.236
-746.185	707.048	0.043	-0.114
-745.171	800.000	0.053	0.196
-744.156	-58.921	0.241	0.105
-743.142	169.418	0.311	-0.445
-742.127	189.559	-0.104	0.156
-741.112	-200.000	-0.010	0.083
-740.098	-200.000	0.002	0.177
-739.083	-101.612	0.200	-0.049
-738.069	-200.000	-0.063	0.460
-737.054	35.535	-0.205	-0.180
-736.039	800.000	-0.144	-0.410
-735.025	-69.236	0.077	-0.030
-734.010	477.802	0.068	0.153
-732.996	51.510	0.174	-0.166
-731.981	62.963	-0.299	0.300
-730.966	19.505	-0.311	-0.251
-729.952	115.884	0.362	-0.445
-728.937	9.220	-0.296	-0.224
-727.923	-58.555	-0.281	0.122
-726.908	800.000	0.034	0.143
-725.894	-51.482	-0.213	-0.100
-724.879	242.663	0.040	0.067
-723.864	-150.926	-0.311	-0.024
-722.850	-73.019	-0.203	0.075
-721.835	-9.015	0.021	-0.014
-720.821	85.956	-0.208	-0.229
-719.806	149.318	0.101	-0.137
-718.791	147.467	-0.050	-0.068
-717.777	800.000	-0.081	-0.294
-716.762	-34.312	-0.128	0.070
-715.748	59.742	-0.065	0.064
-714.733	-200.000	0.048	0.292
-713.718	327.688	0.067	0.130
-712.704	88.148	-0.180	-0.200
-711.689	-135.884	-0.188	0.022
-710.675	98.856	-0.085	-0.098
-709.660	-23.535	-0.091	0.055
-708.645	22.818	0.268	-0.220
-707.631	531.305	-0.066	0.157
-706.616	130.488	-0.179	-0.229
-705.602	-151.825	0.075	0.006
-704.587	-33.614	0.178	0.098
-703.572	-95.796	-0.118	-0.032
-702.558	-200.000	-0.015	-0.139
-701.543	-94.196	0.226	0.062
-700.529	-95.812	-0.396	0.106
-699.514	-62.409	-0.170	-0.071
-698.499	-119.803	-0.243	0.042
-697.485	-70.317	0.102	0.039
-696.470	-106.007	-0.180	0.040
-695.456	800.000	0.017	0.069
-694.441	250.427	0.147	-0.251
-693.426	721.625	0.049	0.131
-692.412	-200.000	-0.017	-0.337
-691.397	-53.443	-0.149	0.068
-690.383	-20.107	-0.121	-0.074
-689.368	-83.996	-0.416	-0.132
-688.354	496.308	-0.076	-0.174
-687.339	800.000	0.036	0.117
-686.324	42.236	-0.124	0.113
-685.310	-92.503	-0.135	0.038
-684.295	800.000	0.070	0.276
-683.281	-110.373	-0.221	-0.046
-682.266	311.359	0.098	0.184
-681.251	-103.615	-0.292	-0.068
-680.237	159.974	-0.098	-0.137
-679.222	-160.540	0.292	0.016
-678.208	537.093	0.018	-0.042
-677.193	-153.159	0.277	0.019
-676.178	89.531	-0.042	0.047
-675.164	-147.326	-0.384	-0.033
-674.149	-129.493	-0.179	0.025
-673.135	54.105	0.244	0.235
-672.120	800.000	0.040	-0.133
-671.105	-147.042	0.298	0.026
-670.091	562.753	0.032	-0.077
-669.076	-200.000	-0.036	0.158
-668.062	-117.422	-0.222	-0.040
-667.047	-175.523	-0.086	-0.002
-666.032	800.000	-0.041	0.119
-665.018	18.410	-0.146	-0.117
-664.003	204.251	0.159	0.246
-662.989	-130.075	-0.114	0.016
-661.974	-39.841	-0.322	-0.168
-660.959	80.518	0.106	-0.114
-659.945	-200.000	0.001	0.429
-658.930	-101.361	-0.074	0.018
-657.916	4.726	-0.044	-0.032
-656.901	-200.000	0.044	-0.205
-655.886	148.880	-0.201	0.271
-654.872	19.108	-0.058	0.047
-653.857	487.602	-0.049	-0.111
-652.843	-49.439	-0.273	0.130
-651.828	-200.000	0.021	-0.167
-650.814	240.106	-0.187	0.311
-649.799	58.654	0.093	-0.091
-648.784	639.787	-0.076	-0.192
-647.770	-100.707	-0.323	0.079
-646.755	147.813	0.103	0.138
-645.741	62.138	0.075	-0.074
-644.726	-200.000	-0.016	-0.319
-643.711	-59.582	0.292	-0.125
-642.697	249.696	-0.059	-0.100
-641.682	-7.532	-0.134	0.090
-640.668	235.357	-0.026	0.043
-639.653	189.266	0.078	0.117
-638.638	329.285	-0.174	-0.334
-637.624	70.163	-0.151	0.156
-636.609	216.477	-0.132	0.209
-635.595	-18.215	0.097	0.060
-634.580	-145.229	-0.184	0.017
-633.565	502.917	0.089	-0.206
-632.551	-182.202	0.192	0.004
-631.536	-95.455	-0.208	-0.056
-630.522	-200.000	0.043	0.252
-629.507	-200.000	-0.004	0.126
-628.492	398.413	-0.136	0.284
-627.478	800.000	-0.137	-0.387
-626.463	604.993	-0.122	0.304
-625.449	800.000	-0.074	0.316
-624.434	-10.829	0.241	-0.159
-623.419	-154.560	-0.112	0.007
-622.405	-84.327	0.162	0.051
-621.390	698.990	-0.131	0.343
-620.376	-200.000	-0.007	0.100
-619.361	800.000	0.056	0.220
-618.346	800.000	0.027	0.099
-617.332	359.279	-0.056	-0.111
-616.317	94.550	-0.115	0.130
-615.303	418.217	0.058	0.123
-614.288	-22.533	0.343	0.207
-613.273	-53.164	-0.070	-0.032
-612.259	353.377	-0.060	0.119
-611.244	267.885	-0.050	-0.087
-610.230	-66.398	0.017	0.007
-609.215	-102.600	-0.085	-0.020
-608.201	-45.498	-0.101	0.050
-607.186	303.221	-0.124	0.230
-606.171	800.000	0.030	-0.125
-605.157	-131.156	0.372	0.049
-604.142	27.546	0.190	0.160
-603.128	145.635	-0.117	0.157
-602.113	-52.891	-0.294	-0.135
-601.098	179.277	-0.170	-0.248
-600.084	-115.158	0.112	-0.021
-599.069	281.974	-0.074	-0.133
-598.055	800.000	-0.102	-0.347
-597.040	9.016	0.144	-0.108
-596.025	732.707	-0.134	-0.358
-595.011	-200.000	-0.015	-0.158
-593.996	-108.379	0.172	0.037
-592.982	375.808	0.132	0.268
-591.967	397.624	-0.117	-0.243
-590.952	411.344	0.050	0.105
-589.938	-200.000	-0.016	-0.188
-588.923	647.309	0.072	0.183
-587.909	83.900	0.130	-0.141
-586.894	-116.178	0.533	-0.099
-585.879	-122.218	-0.207	0.034
-584.865	-47.809	-0.262	-0.127
-583.850	674.433	-0.116	-0.301
-582.836	194.538	0.035	0.052
-581.821	-200.000	-0.050	0.468
-580.806	-88.686	-0.361	-0.107
-579.792	-200.000	-0.035	-0.195
-578.777	800.000	-0.059	-0.206
-577.763	-154.120	-0.404	-0.027
-576.748	-200.000	-0.028	-0.192
-575.733	-200.000	-0.002	-0.227
-574.719	-101.589	-0.190	-0.046
-573.704	-28.595	0.085	0.049
-572.690	-2.403	0.113	0.079
-571.675	-183.390	-0.127	-0.002
-570.661	121.755	0.268	-0.333
-569.646	-146.711	-0.219	0.019
-568.631	800.000	0.097	0.341
-567.617	-20.755	0.109	-0.067
-566.602	101.776	0.208	-0.242
-565.588	38.579	-0.321	0.285
-564.573	-200.000	-0.041	0.251
-563.558	-7.860	0.159	0.107
-562.544	-200.000	0.009	-0.113
-561.529	-200.000	-0.035	-0.330
-560.515	182.055	-0.130	-0.190
-559.500	2.584	0.204	-0.147
-558.485	-107.705	0.153	-0.033
-557.471	-24.850	0.037	0.022
-556.456	-74.348	-0.289	0.104
-555.442	-17.899	-0.102	-0.064
-554.427	492.844	0.038	0.086
-553.412	-200.000	-0.007	-0.194
-552.398	-89.983	0.431	0.125
-551.383	86.528	-0.136	-0.150
-550.369	800.000	0.034	0.137
-549.354	151.972	-0.227	0.309
-548.339	-16.596	0.180	-0.114
-547.325	800.000	0.021	0.060
-546.310	-119.971	0.213	0.036
-545.296	-8.442	-0.135	0.090
-544.281	30.837	-0.299	0.255
-543.266	-155.079	0.520	-0.034
-542.252	800.000	0.021	0.087
-541.237	533.913	-0.111	-0.261
-540.223	-23.099	0.357	-0.214
-539.208	500.293	-0.080	0.184
-538.193	-200.000	0.063	-0.390
-537.179	15.587	-0.123	-0.096
-536.164	-82.242	-0.042	0.014
-535.150	-85.491	0.235	-0.073
-534.135	273.910	0.191	-0.337
-533.121	-7.028	0.067	0.045
-532.106	79.072	-0.188	-0.200
-531.091	-46.515	0.179	-0.088
-530.077	15.127	0.094	0.074
-529.062	-38.552	-0.238	0.125
-528.048	800.000	-0.070	-0.228
-527.033	212.294	0.106	-0.167
-526.018	-35.349	0.102	-0.055
-525.004	-120.871	0.006	-0.001
-523.989	-4.657	-0.188	0.129
-522.975	-27.732	0.128	-0.074
-521.960	23.873	-0.326	-0.268
-520.945	-20.116	-0.167	-0.102
-519.931	-115.659	-0.151	0.028
-518.916	262.673	-0.080	0.138
-517.902	800.000	0.094	0.388
-516.887	38.284	0.132	-0.117
-515.872	-200.000	-0.094	-0.541
-514.858	115.628	-0.043	0.052
-513.843	-200.000	-0.026	-0.210
-512.829	800.000	0.011	0.047
-511.814	157.367	0.075	0.103
-510.799	28.671	0.184	0.154
-509.785	169.574	0.295	-0.418
-508.770	-200.000	-0.060	0.291
-507.756	-132.975	0.271	0.034
-506.741	-23.203	0.120	-0.072
-505.726	313.669	0.109	-0.204
-504.712	2.728	-0.164	-0.118
-503.697	142.548	-0.220	0.291
-502.683	440.038	0.305	0.662
-501.668	800.000	-0.017	-0.055
-500.653	-111.806	0.201	-0.040
-499.639	678.183	-0.059	0.153
-498.624	0.770	0.185	0.132
-497.610	660.830	0.071	-0.180
-496.595	-200.000	-0.048	-0.268
-495.581	-200.000	-0.069	0.455
-494.566	12.795	-0.242	0.186
-493.551	800.000	-0.125	0.414
-492.537	800.000	-0.082	-0.291
-491.522	-144.729	-0.079	-0.007
-490.508	-200.000	0.022	-0.170
-489.493	-3.147	0.179	-0.124
-488.478	682.602	0.186	0.481
-487.464	85.970	0.082	-0.090
-486.449	800.000	-0.014	0.061
-485.435	9.654	0.054	0.041
-484.420	-200.000	-0.017	0.077
-483.405	299.344	0.291	0.532
-482.391	-109.571	-0.326	0.068
-481.376	-108.122	0.279	-0.060
-480.362	-200.000	-0.034	-0.363
-479.347	119.455	0.223	0.274
-478.332	-137.582	-0.179	0.020
-477.318	800.000	-0.016	-0.044
-476.303	-200.000	0.042	0.275
-475.289	-147.884	-0.220	-0.018
-474.274	57.874	0.199	0.193
-473.259	114.989	-0.293	-0.355
-472.245	-200.000	-0.003	0.181
-471.230	95.488	-0.117	-0.132
-470.216	-200.000	0.018	-0.096
-469.201	-200.000	-0.003	0.051
-468.186	413.859	0.057	-0.121
-467.172	-140.047	0.345	0.036
-466.157	-146.336	0.197	0.017
-465.143	-200.000	0.039	-0.235
-464.128	-40.457	0.199	-0.102
-463.113	216.418	-0.199	-0.314
-462.099	-107.106	-0.384	0.084
-461.084	-25.475	-0.018	0.011
-460.070	29.490	-0.014	-0.011
-459.055	-40.495	-0.042	-0.021
-458.040	-22.722	-0.243	0.145
-457.026	22.607	0.100	0.081
-456.011	-53.914	-0.198	-0.089
-454.997	-200.000	-0.039	0.298
-453.982	-36.891	0.159	0.085
-452.968	-57.370	-0.316	0.138
-451.953	268.543	-0.101	0.175
-450.938	800.000	-0.041	-0.158
-449.924	-89.622	0.130	0.038
-448.909	-113.955	-0.116	0.022
-447.895	399.067	0.116	0.240
-446.880	-200.000	-0.014	0.208
-445.865	-56.092	0.324	0.143
-444.851	-104.381	0.078	0.018
-443.836	-200.000	0.002	-0.505
-442.822	-200.000	-0.011	0.057
-441.807	88.272	-0.140	-0.154
-440.792	-165.250	0.251	-0.011
-439.778	-200.000	-0.004	-0.073
-438.763	-79.977	-0.140	-0.047
-437.749	-2.903	0.110	0.076
-436.734	374.479	-0.126	-0.253
-435.719	-79.821	-0.356	0.119
-434.705	-157.606	0.333	-0.020
-433.690	-43.419	0.164	0.082
-432.676	210.716	-0.130	0.202
-431.661	800.000	-0.096	-0.368
-430.646	59.444	-0.083	0.081
-429.632	221.212	0.204	0.324
-428.617	252.638	-0.078	0.133
-427.603	800.000	0.029	0.098
-426.588	-53.382	0.011	-0.005
-425.573	401.521	0.126	-0.263
-424.559	-10.464	-0.233	-0.153
-423.544	105.807	0.237	0.278
-422.530	-195.005	-0.218	0.002
-421.515	-135.880	0.294	-0.034
-420.500	-200.000	-0.026	-0.273
-419.486	-71.783	-0.295	-0.109
-418.471	31.017	-0.200	-0.169
-417.457	-200.000	-0.022	0.145
-416.442	192.439	0.232	0.347
-415.428	-28.700	-0.121	0.069
-414.413	61.353	-0.142	0.140
-413.398	-144.263	0.139	-0.013
-412.384	-148.031	0.186	-0.015
-411.369	-93.361	0.189	0.052
-410.355	119.369	0.170	0.208
-409.340	80.477	0.283	-0.301
-408.325	800.000	-0.084	0.258
-407.311	-83.104	-0.323	0.103
-406.296	-6.294	-0.304	-0.206
-405.282	123.706	-0.046	0.057
-404.267	-60.458	0.123	0.052
-403.252	-200.000	-0.013	-0.085
-402.238	-23.561	0.175	-0.104
-401.223	-130.833	-0.285	0.038
-400.209	146.465	0.327	-0.435
-399.194	-200.000	0.095	-0.429
-398.179	-2.981	-0.221	0.152
-397.165	60.941	0.049	-0.048
-396.150	407.508	0.079	-0.165
-395.136	-105.937	0.209	-0.047
-394.121	-104.540	-0.077	-0.018
-393.106	197.337	-0.064	-0.096
-392.092	800.000	0.025	-0.099
-391.077	193.235	0.240	0.359
-390.063	-105.976	0.125	0.028
-389.048	111.859	0.163	0.195
-388.033	193.564	0.143	0.214
-387.019	235.824	0.026	-0.042
-386.004	-56.959	0.243	0.106
-384.990	-2.464	-0.144	-0.100
-383.975	-124.408	0.121	-0.019
-382.960	-129.646	0.122	0.017
-381.946	-88.250	-0.187	-0.055
-380.931	74.785	0.120	-0.125
-379.917	-200.000	-0.035	0.160
-378.902	-200.000	-0.047	0.240
-377.888	-200.000	0.017	0.168
-376.873	-70.489	0.447	-0.167
-375.858	-139.403	-0.017	0.002
-374.844	-77.586	-0.207	0.071
-373.829	-200.000	0.321	0.000
-372.815	-110.069	-0.241	0.050
-371.800	-124.605	-0.181	-0.028
-370.785	58.698	-0.032	-0.031
-369.771	-82.027	-0.201	-0.065
-368.756	-200.000	0.386	-0.001
-367.742	800.000	-0.109	0.351
-366.727	800.000	0.057	-0.169
-365.712	800.000	-0.063	0.226
-364.698	57.514	0.120	-0.116
-363.683	-153.466	0.214	0.015
-362.669	110.443	-0.179	0.212
-361.654	1.094	0.146	0.104
-360.639	-59.069	0.240	-0.102
-359.625	-64.164	-0.289	0.117
-358.610	-13.435	-0.115	0.074
-357.596	-200.000	0.024	0.529
-356.581	-38.641	0.188	-0.098
-355.566	29.334	0.396	-0.332
-354.552	66.008	0.172	0.172
-353.537	-136.526	0.199	-0.023
-352.523	16.984	-0.224	0.175
-351.508	34.908	-0.032	0.028
-350.493	-90.227	-0.190	-0.055
-349.479	-37.121	-0.337	0.178
-348.464	337.300	0.065	0.125
-347.450	28.565	0.255	-0.213
-346.435	-92.597	0.219	0.061
-345.420	297.028	0.170	0.309
-344.406	420.574	-0.088	-0.186
-343.391	-32.031	0.124	-0.069
-342.377	319.251	0.011	0.021
-341.362	-12.709	-0.171	-0.110
-340.348	374.074	-0.125	0.252
-339.333	-120.473	0.136	-0.023
-338.318	531.899	0.012	-0.028
-337.304	72.890	0.146	0.151
-336.289	-200.000	-0.027	0.232
-335.275	104.906	-0.152	-0.176
-334.260	27.877	0.295	-0.246
-333.245	-200.000	0.045	0.278
-332.231	403.264	-0.096	-0.200
-331.216	800.000	0.104	-0.328
-330.202	-138.837	-0.339	0.036
-329.187	-200.000	-0.027	0.157
-328.172	385.476	0.089	-0.181
-327.158	-147.494	0.196	0.016
-326.143	-58.408	-0.178	0.076
-325.129	-70.076	-0.370	-0.139
-324.114	318.561	-0.149	0.279
-323.099	40.490	-0.245	-0.218
-322.085	-103.444	-0.270	-0.063
-321.070	-103.189	0.190	-0.044
-320.056	296.526	-0.095	-0.172
-319.041	-10.216	0.184	-0.121
-318.026	-141.027	0.135	-0.014
-317.012	353.685	0.156	0.306
-315.997	-77.796	-0.002	0.001
-314.983	-40.347	-0.011	0.006
-313.968	800.000	-0.037	-0.135
-312.953	-200.000	0.028	0.312
-311.939	196.572	0.068	-0.102
-310.924	-93.258	0.125	-0.034
-309.910	63.581	0.145	-0.143
-308.895	13.857	0.152	0.117
-307.880	55.443	-0.111	-0.106
-306.866	144.842	0.148	0.195
-305.851	58.792	-0.081	0.078
-304.837	-137.480	-0.147	0.016
-303.822	-9.969	-0.070	0.046
-302.807	-200.000	0.002	0.106
-301.793	-102.624	0.155	-0.036
-300.778	53.359	0.123	-0.116
-299.764	100.635	-0.040	-0.045
-298.749	458.048	-0.183	0.401
-297.735	-200.000	-0.303	0.001
-296.720	-117.556	0.097	0.017
-295.705	239.258	0.031	0.050
-294.691	-46.812	0.049	-0.024
-293.676	79.510	-0.114	0.121
-292.662	-70.722	-0.360	0.134
-291.647	-3.858	0.181	0.124
-290.632	-200.000	0.152	0.000
-289.618	312.917	0.161	-0.299
-288.603	-10.853	-0.255	-0.166
-287.589	-200.000	0.008	0.235
-286.574	190.387	0.107	-0.158
-285.559	118.961	-0.117	0.142
-284.545	-63.303	-0.158	0.064
-283.530	-200.000	0.035	0.238
-282.516	-200.000	-0.092	0.436
-281.501	-12.633	0.369	-0.237
-280.486	103.706	-0.082	0.095
-279.472	800.000	0.173	-0.471
-278.457	-200.000	0.007	0.205
-277.443	334.140	-0.043	-0.082
-276.428	331.593	0.167	-0.317
-275.413	268.590	0.214	-0.369
-274.399	-66.525	-0.146	-0.057
-273.384	-200.000	-0.039	0.224
-272.370	-45.776	0.408	0.198
-271.355	8.225	-0.286	-0.212
-270.340	41.429	0.207	0.184
-269.326	399.186	-0.083	-0.171
-268.311	158.167	-0.192	-0.262
-267.297	-41.554	0.228	-0.115
-266.282	120.775	-0.110	0.135
-265.267	-17.868	0.062	-0.039
-264.253	-12.639	-0.308	-0.198
-263.238	-48.249	-0.142	-0.068
-262.224	278.414	0.204	0.358
-261.209	-17.892	-0.361	0.223
-260.195	800.000	-0.043	0.151
-259.180	224.811	-0.150	-0.238
-258.165	-120.060	-0.327	-0.055
-257.151	-140.909	0.112	0.011
-256.136	117.477	-0.170	-0.206
-255.122	800.000	-0.067	-0.252
-254.107	800.000	-0.087	-0.366
-253.092	139.324	0.132	0.171
-252.078	-31.043	-0.112	-0.062
-251.063	800.000	-0.041	-0.116
-250.049	317.832	0.159	-0.295
-249.034	-46.632	0.242	0.117
-248.019	177.659	-0.082	0.118
-247.005	215.525	-0.085	-0.133
-245.990	746.521	-0.113	0.299
-244.976	97.915	-0.170	0.193
-243.961	-50.524	0.190	-0.088
-242.946	479.455	0.161	0.359
-241.932	134.574	-0.289	-0.369
-240.917	-123.264	0.196	0.031
-239.903	-145.589	0.192	0.017
-238.888	-140.039	0.325	0.034
-237.873	-200.000	-0.011	0.164
-236.859	-200.000	0.044	0.262
-235.844	-96.630	-0.263	-0.068
-234.830	-19.134	-0.232	-0.142
-233.815	800.000	-0.031	0.104
-232.800	26.819	-0.081	-0.067
-231.786	-13.729	0.109	-0.069
-230.771	800.000	-0.062	0.231
-229.757	-98.381	0.326	0.082
-228.742	-113.309	0.277	0.054
-227.727	38.439	-0.149	-0.130
-226.713	486.769	0.100	-0.225
-225.698	-181.398	-0.114	-0.002
-224.684	800.000	0.068	-0.232
-223.669	-73.495	-0.113	0.041
-222.655	654.953	-0.065	0.164
-221.640	-101.006	-0.173	-0.042
-220.625	-19.652	-0.173	0.105
-219.611	-52.517	-0.179	-0.081
-218.596	-200.000	-0.020	0.101
-217.582	-40.799	-0.238	0.121
-216.567	-176.647	-0.295	0.007
-215.552	-48.862	0.148	-0.070
-214.538	24.587	0.043	-0.035
-213.523	13.143	0.083	-0.063
-212.509	-49.921	0.261	0.122
-211.494	-167.874	-0.310	-0.012
-210.479	-50.854	0.187	0.086
-209.465	80.529	-0.096	-0.102
-208.450	-72.274	0.179	0.065
-207.436	726.472	0.128	0.335
-206.421	800.000	0.053	-0.165
-205.406	786.739	0.163	-0.440
-204.392	147.998	-0.143	-0.189
-203.377	-50.050	-0.161	-0.075
-202.363	18.267	-0.162	0.127
-201.348	-200.000	-0.065	0.414
-200.333	-56.739	0.193	0.084
-199.319	-61.973	0.198	-0.081
-198.304	162.409	-0.020	0.028
-197.290	-4.467	-0.163	-0.111
-196.275	-6.306	0.074	0.049
-195.260	294.611	-0.105	-0.188
-194.246	-1.447	-0.079	-0.055
-193.231	-200.000	0.056	-0.347
-192.217	-77.558	-0.270	0.092
-191.202	-112.886	0.284	-0.055
-190.187	-200.000	-0.003	0.021
-189.173	120.885	-0.017	0.020
-188.158	235.838	0.216	-0.351
-187.144	-176.518	0.135	0.003
-186.129	-200.000	0.025	0.205
-185.114	194.795	-0.072	0.107
-184.100	85.821	-0.176	-0.190
-183.085	-200.000	0.023	-0.206
-182.071	800.000	-0.065	0.219
-181.056	727.856	-0.118	0.309
-180.042	-69.009	-0.365	-0.138
-179.027	167.534	-0.197	-0.275
-178.012	-96.107	-0.190	0.050
-176.998	-200.000	0.044	-0.231
-175.983	158.525	-0.053	-0.072
-174.969	-200.000	-0.043	-0.233
-173.954	-200.000	0.037	0.249
-172.939	-5.931	0.288	0.193
-171.925	189.685	0.143	0.210
-170.910	-159.390	0.292	-0.016
-169.896	96.269	0.153	0.172
-168.881	141.224	-0.073	0.094
-167.866	198.449	-0.197	-0.295
-166.852	291.916	-0.032	-0.056
-165.837	-141.498	0.140	-0.014
-164.823	800.000	-0.049	0.140
-163.808	410.797	-0.063	0.132
-162.793	800.000	0.029	-0.084
-161.779	-200.000	0.036	0.205
-160.764	64.237	-0.171	0.169
-159.750	-200.000	0.009	0.180
-158.735	188.537	-0.060	-0.087
-157.720	763.629	0.031	0.083
-156.706	-200.000	-0.026	-0.212
-155.691	-200.000	0.045	-0.413
-154.677	122.497	0.073	-0.089
-153.662	-5.413	-0.281	-0.189
-152.647	108.436	-0.235	-0.275
-151.633	45.789	-0.154	0.140
-150.618	282.565	-0.010	0.017
-149.604	-200.000	0.009	0.206
-148.589	800.000	-0.066	-0.283
-147.574	800.000	-0.095	0.260
-146.560	-161.617	0.033	0.002
-145.545	123.534	0.060	0.074
-144.531	-60.653	0.173	-0.072
-143.516	220.772	-0.144	0.226
-142.502	-85.661	0.186	0.056
-141.487	-50.072	0.300	-0.139
-140.472	-168.448	-0.217	-0.008
-139.458	-200.000	0.003	-0.192
-138.443	-200.000	0.012	0.204
-137.429	139.346	0.196	-0.252
-136.414	208.752	-0.154	0.236
-135.399	-200.000	0.009	-0.112
-134.385	-200.000	0.023	0.289
-133.370	800.000	0.034	0.118
-132.356	-168.836	-0.157	0.006
-131.341	120.292	-0.065	0.079
-130.326	-200.000	0.001	0.026
-129.312	-200.000	-0.008	0.201
-128.297	-158.888	0.258	0.014
-127.283	-85.579	-0.316	0.096
-126.268	92.942	0.084	-0.093
-125.253	-45.347	0.184	0.089
-124.239	64.621	0.303	0.299
-123.224	-104.874	0.273	0.061
-122.210	96.005	0.082	-0.091
-121.195	-200.000	0.062	-0.273
