DTS Sentinel unit serial number:	SN413079Multiplexer serial number:	ORYXHardware model number:	OX4-SRSoftware version number:	ORYX F/W v4.00 Oryx Data Collector v3.7.2.0data status	okinstallation	princeton_trtdifferential loss correction	single-endedforward channel	channel 4reverse channel	N/Adate	2019/09/18time	04:29:35forward acquisition time	60.00reverse acquisition time	0.00gamma	496.2192k internal	0.2332k external	0.2332temperature offset calibration	0.9993default loss term (dB/km)	0.3790temperature slope calibration	1.0000multiplexer offset coefficient	1.0000multiplexer slope coefficient	1.0000fibre end	0.00T internal ref (°C)	23.39T ext. ref 1 (°C)	0.17T ext. ref 2 (°C)	17.58length (m)	temperature (°C)	Stokes	anti-Stokes-747.200	-129.592	-0.284	-0.039
-746.185	800.000	0.075	-0.226
-745.171	225.134	0.273	-0.444
-744.156	15.576	0.074	0.058
-743.142	506.479	0.103	-0.241
-742.127	234.957	0.157	0.261
-741.112	279.090	0.116	0.209
-740.098	800.000	0.123	0.468
-739.083	-134.957	0.241	0.029
-738.069	245.243	0.199	0.337
-737.054	-115.020	-0.063	-0.012
-736.039	56.447	-0.152	0.148
-735.025	-0.254	0.388	0.277
-734.010	797.408	-0.032	0.088
-732.996	265.054	0.160	-0.280
-731.981	-200.000	-0.007	0.167
-730.966	117.370	-0.056	-0.070
-729.952	367.187	-0.041	0.083
-728.937	-7.704	0.086	-0.058
-727.923	544.140	-0.034	-0.080
-726.908	95.299	-0.149	-0.171
-725.894	129.279	-0.189	0.242
-724.879	800.000	-0.028	-0.102
-723.864	-200.000	-0.055	-0.245
-722.850	285.703	-0.063	-0.114
-721.835	274.106	-0.170	0.302
-720.821	545.259	-0.132	-0.317
-719.806	178.586	0.048	-0.070
-718.791	244.558	-0.061	-0.103
-717.777	70.961	-0.052	-0.055
-716.762	87.599	-0.316	0.351
-715.748	-200.000	-0.007	-0.122
-714.733	238.252	-0.133	-0.222
-713.718	232.284	-0.073	0.120
-712.704	-200.000	0.038	-0.316
-711.689	662.968	-0.022	-0.057
-710.675	-200.000	0.002	0.158
-709.660	47.045	0.121	0.113
-708.645	143.373	0.053	-0.071
-707.631	240.350	0.063	-0.106
-706.616	-200.000	0.014	-0.262
-705.602	-200.000	0.004	-0.124
-704.587	800.000	0.018	0.080
-703.572	-200.000	-0.009	-0.118
-702.558	-200.000	0.033	0.188
-701.543	800.000	0.071	-0.234
-700.529	47.970	-0.138	-0.129
-699.514	547.113	-0.063	-0.153
-698.499	-200.000	-0.047	-0.303
-697.485	75.106	-0.232	0.245
-696.470	-130.979	-0.046	0.006
-695.456	-126.050	-0.231	-0.035
-694.441	-13.498	0.400	0.260
-693.426	-200.000	-0.009	-0.299
-692.412	-3.747	-0.048	-0.034
-691.397	-108.632	-0.130	-0.028
-690.383	400.653	0.117	-0.246
-689.368	277.924	0.010	-0.018
-688.354	-200.000	0.064	-0.298
-687.339	279.316	-0.058	0.104
-686.324	800.000	-0.020	-0.058
-685.310	99.510	-0.248	-0.288
-684.295	173.842	-0.093	-0.135
-683.281	31.605	-0.171	0.147
-682.266	-106.416	0.281	0.063
-681.251	-129.255	0.259	-0.036
-680.237	60.537	-0.095	0.094
-679.222	28.366	0.014	0.012
-678.208	-200.000	-0.007	0.273
-677.193	800.000	0.053	0.153
-676.178	681.088	0.082	0.215
-675.164	485.992	0.205	0.468
-674.149	-124.593	-0.232	0.036
-673.135	-69.260	-0.251	0.097
-672.120	-200.000	0.018	0.108
-671.105	327.133	-0.030	0.058
-670.091	-41.470	-0.216	-0.111
-669.076	-62.269	-0.565	0.236
-668.062	-200.000	-0.101	0.455
-667.047	-48.495	0.358	-0.173
-666.032	-75.515	-0.121	-0.043
-665.018	79.460	-0.085	-0.092
-664.003	-80.426	0.271	0.091
-662.989	-200.000	0.005	0.033
-661.974	-77.403	0.138	-0.048
-660.959	315.666	-0.007	0.012
-659.945	-132.241	0.181	-0.023
-658.930	-155.658	-0.153	0.010
-657.916	13.864	0.207	-0.162
-656.901	-134.353	-0.231	0.028
-655.886	-126.195	-0.229	-0.034
-654.872	658.389	0.088	0.226
-653.857	-26.140	-0.146	-0.086
-652.843	480.699	0.074	-0.168
-651.828	150.172	-0.033	0.044
-650.814	-113.388	0.086	-0.017
-649.799	-92.516	0.313	0.088
-648.784	434.607	0.131	0.285
-647.770	47.084	0.103	-0.096
-646.755	-37.634	-0.264	-0.141
-645.741	-69.501	-0.310	0.119
-644.726	-200.000	0.020	-0.151
-643.711	-78.932	0.124	-0.042
-642.697	800.000	0.023	-0.076
-641.682	800.000	0.060	0.196
-640.668	-200.000	-0.014	0.154
-639.653	70.015	-0.241	0.249
-638.638	-200.000	0.063	0.278
-637.624	-178.272	0.288	0.007
-636.609	-90.113	-0.201	-0.059
-635.595	418.381	-0.094	0.201
-634.580	-75.056	0.206	-0.074
-633.565	800.000	0.055	0.179
-632.551	-60.602	0.284	0.121
-631.536	-138.433	-0.240	0.026
-630.522	-161.289	-0.293	-0.015
-629.507	800.000	-0.132	-0.432
-628.492	263.711	-0.093	-0.161
-627.478	48.828	-0.088	0.083
-626.463	-51.549	-0.283	0.132
-625.449	-45.553	-0.183	0.091
-624.434	-89.066	0.421	-0.125
-623.419	229.442	-0.211	0.345
-622.405	342.490	0.143	-0.281
-621.390	-14.565	-0.420	-0.270
-620.376	-35.820	-0.171	-0.093
-619.361	356.523	-0.023	-0.046
-618.346	-200.000	0.031	0.202
-617.332	45.562	0.157	0.145
-616.317	-143.014	-0.190	0.018
-615.303	800.000	0.103	-0.309
-614.288	-134.289	0.131	-0.016
-613.273	149.146	-0.082	-0.111
-612.259	-101.768	-0.310	-0.075
-611.244	-79.408	-0.079	-0.027
-610.230	-200.000	-0.019	0.239
-609.215	38.920	-0.099	0.089
-608.201	-58.821	-0.253	0.109
-607.186	381.164	-0.114	-0.233
-606.171	144.682	0.153	0.205
-605.157	-113.628	-0.163	0.032
-604.142	-123.505	-0.260	-0.041
-603.128	800.000	-0.096	-0.275
-602.113	65.621	0.128	0.130
-601.098	800.000	-0.021	0.081
-600.084	-79.215	0.275	0.093
-599.069	-41.948	-0.266	0.136
-598.055	-56.502	-0.043	0.019
-597.040	62.632	-0.271	-0.271
-596.025	116.488	-0.124	0.152
-595.011	-5.542	-0.182	-0.125
-593.996	800.000	0.027	0.102
-592.982	-181.324	0.153	-0.003
-591.967	-124.763	-0.189	-0.029
-590.952	-200.000	0.065	0.416
-589.938	373.595	-0.036	0.072
-588.923	79.526	-0.118	-0.126
-587.909	800.000	0.076	-0.250
-586.894	-119.708	-0.135	0.023
-585.879	-94.736	-0.022	-0.006
-584.865	-130.413	0.222	0.030
-583.850	0.306	0.212	-0.151
-582.836	304.610	-0.174	-0.324
-581.821	800.000	-0.024	0.099
-580.806	-16.928	-0.068	-0.043
-579.792	-200.000	0.017	0.129
-578.777	-126.932	-0.244	-0.036
-577.763	-114.526	-0.093	-0.018
-576.748	-200.000	0.434	0.001
-575.733	113.020	-0.171	0.207
-574.719	-104.816	0.038	0.009
-573.704	57.034	-0.129	-0.126
-572.690	-59.582	0.100	-0.043
-571.675	800.000	-0.087	-0.374
-570.661	-19.054	0.156	0.097
-569.646	-200.000	-0.005	-0.228
-568.631	-71.495	-0.414	-0.155
-567.617	105.054	-0.264	-0.311
-566.602	54.119	-0.096	-0.092
-565.588	-92.296	0.238	-0.067
-564.573	-140.093	0.154	-0.016
-563.558	-44.344	0.149	0.075
-562.544	800.000	-0.110	-0.349
-561.529	144.415	-0.131	0.174
-560.515	5.072	-0.234	0.172
-559.500	-200.000	0.027	-0.274
-558.485	22.481	-0.152	-0.124
-557.471	-51.324	0.185	-0.086
-556.456	56.014	0.176	0.171
-555.442	111.819	-0.148	0.178
-554.427	-0.646	-0.341	0.241
-553.412	-200.000	0.014	-0.324
-552.398	23.048	0.147	0.121
-551.383	-200.000	-0.027	0.167
-550.369	-112.111	-0.180	0.036
-549.354	-145.808	-0.390	-0.035
-548.339	-164.198	0.178	-0.008
-547.325	-200.000	-0.043	-0.306
-546.310	126.610	0.109	0.138
-545.296	332.046	0.037	0.072
-544.281	-119.301	-0.171	-0.030
-543.266	-118.568	0.111	0.020
-542.252	800.000	0.166	-0.518
-541.237	15.223	-0.071	-0.056
-540.223	-200.000	-0.024	0.289
-539.208	269.131	-0.179	-0.314
-538.193	800.000	-0.106	0.305
-537.179	-40.568	0.243	-0.126
-536.164	-200.000	0.004	0.213
-535.150	-91.606	-0.163	0.046
-534.135	-25.932	0.317	-0.186
-533.121	-200.000	0.015	0.069
-532.106	110.437	0.245	0.293
-531.091	7.342	0.152	0.113
-530.077	194.850	-0.162	0.245
-529.062	-38.200	0.102	0.054
-528.048	24.549	0.200	-0.165
-527.033	-139.349	-0.042	-0.005
-526.018	167.136	-0.168	-0.238
-525.004	11.738	-0.150	-0.115
-523.989	-91.512	0.162	-0.046
-522.975	-200.000	-0.008	-0.180
-521.960	471.197	0.089	-0.200
-520.945	82.098	-0.100	-0.108
-519.931	128.565	-0.065	0.082
-518.916	105.744	-0.185	0.218
-517.902	-134.882	-0.196	0.024
-516.887	-113.519	0.306	0.060
-515.872	247.348	-0.120	-0.203
-514.858	-200.000	0.008	0.118
-513.843	800.000	-0.039	0.136
-512.829	499.073	0.052	-0.119
-511.814	-15.430	0.104	0.067
-510.799	800.000	-0.084	0.250
-509.785	221.843	0.098	-0.156
-508.770	-53.758	-0.256	0.116
-507.756	-200.000	0.006	0.204
-506.741	-200.000	0.042	0.378
-505.726	-114.210	-0.117	-0.023
-504.712	57.313	0.285	-0.278
-503.697	-200.000	0.018	0.228
-502.683	-130.409	-0.209	-0.028
-501.668	-96.592	0.201	-0.053
-500.653	-185.748	-0.470	0.007
-499.639	800.000	0.032	0.137
-498.624	72.748	-0.134	0.140
-497.610	66.787	-0.158	0.161
-496.595	12.726	0.192	-0.148
-495.581	-50.628	-0.054	0.025
-494.566	-99.066	-0.164	-0.041
-493.551	-174.735	0.280	-0.008
-492.537	-36.511	-0.329	-0.176
-491.522	-200.000	-0.003	0.078
-490.508	-200.000	-0.040	-0.339
-489.493	-103.991	-0.077	0.018
-488.478	-200.000	0.065	-0.416
-487.464	695.377	-0.047	0.123
-486.449	-1.447	-0.092	-0.065
-485.435	478.156	0.095	0.214
-484.420	800.000	0.072	0.307
-483.405	-188.515	0.116	0.001
-482.391	-200.000	0.007	-0.260
-481.376	537.967	0.048	-0.113
-480.362	163.636	-0.182	-0.255
-479.347	163.514	-0.172	-0.241
-478.332	-200.000	-0.048	-0.230
-477.318	-156.240	-0.100	-0.006
-476.303	-30.786	0.368	-0.207
-475.289	-200.000	-0.037	0.287
-474.274	-89.133	0.211	-0.062
-473.259	-38.863	-0.145	-0.076
-472.245	146.492	-0.165	-0.221
-471.230	253.902	-0.234	-0.399
-470.216	9.123	-0.308	0.232
-469.201	-200.000	-0.014	-0.167
-468.186	90.160	0.326	-0.363
-467.172	-112.229	-0.177	-0.035
-466.157	-151.640	0.273	0.020
-465.143	-89.641	0.182	-0.053
-464.128	550.861	-0.100	0.239
-463.113	12.539	-0.105	0.081
-462.099	-144.640	-0.265	-0.024
-461.084	181.323	0.081	-0.119
-460.070	-166.322	0.015	0.001
-459.055	106.122	-0.021	-0.025
-458.040	119.010	0.247	0.303
-457.026	800.000	0.052	-0.165
-456.011	-44.442	-0.230	-0.115
-454.997	800.000	0.042	-0.167
-453.982	-76.917	-0.173	-0.060
-452.968	-104.705	0.138	-0.032
-451.953	35.736	-0.072	-0.063
-450.938	144.775	0.056	0.075
-449.924	430.552	-0.065	0.140
-448.909	-200.000	-0.030	0.299
-447.895	-18.214	0.109	0.068
-446.880	90.577	-0.090	0.100
-445.865	63.363	-0.074	-0.074
-444.851	-159.897	0.134	-0.007
-443.836	800.000	0.127	-0.369
-442.822	-149.024	-0.307	0.025
-441.807	49.966	0.182	-0.171
-440.792	-32.635	0.172	0.095
-439.778	800.000	-0.136	0.555
-438.763	200.717	-0.034	-0.051
-437.749	800.000	0.026	0.088
-436.734	-35.936	-0.300	0.162
-435.719	78.010	0.098	-0.104
-434.705	800.000	0.033	-0.126
-433.690	-200.000	-0.034	0.367
-432.676	-47.693	-0.257	0.124
-431.661	23.054	0.158	0.129
-430.646	759.950	-0.052	0.141
-429.632	37.201	-0.242	-0.213
-428.617	268.276	-0.045	-0.079
-427.603	-144.641	-0.172	0.016
-426.588	-166.618	0.292	-0.012
-425.573	78.634	0.077	0.082
-424.559	-111.972	0.262	0.052
-423.544	2.414	-0.055	-0.039
-422.530	465.781	0.100	0.222
-421.515	86.254	-0.128	-0.140
-420.500	746.173	-0.085	0.228
-419.486	29.751	0.287	0.243
-418.471	306.101	-0.205	-0.380
-417.457	141.746	0.136	0.179
-416.442	-28.231	-0.021	0.012
-415.428	-106.125	0.126	0.028
-414.413	800.000	0.112	-0.311
-413.398	-200.000	-0.001	0.222
-412.384	-200.000	0.005	-0.140
-411.369	-200.000	0.060	-0.327
-410.355	333.197	-0.086	-0.165
-409.340	-118.055	0.209	0.037
-408.325	-138.387	-0.128	0.014
-407.311	-200.000	-0.003	-0.140
-406.296	-64.990	-0.126	-0.050
-405.282	-69.281	0.271	0.104
-404.267	419.090	0.050	0.106
-403.252	-200.000	0.034	0.197
-402.238	100.511	0.299	-0.345
-401.223	800.000	-0.051	0.209
-400.209	213.912	0.086	-0.135
-399.194	800.000	0.071	0.241
-398.179	-154.318	0.110	0.007
-397.165	0.329	-0.178	0.126
-396.150	-38.667	0.233	-0.122
-395.136	-200.000	0.027	-0.273
-394.121	-178.882	-0.088	-0.002
-393.106	288.484	0.133	-0.239
-392.092	22.391	0.198	-0.160
-391.077	-5.692	-0.215	0.146
-390.063	174.740	0.248	0.356
-389.048	-127.657	-0.014	-0.002
-388.033	84.032	0.035	-0.038
-387.019	45.704	-0.275	-0.252
-386.004	-155.471	0.086	-0.006
-384.990	-129.432	-0.369	-0.051
-383.975	-131.344	-0.184	-0.024
-382.960	-151.964	0.282	-0.020
-381.946	787.135	-0.166	0.451
-380.931	57.641	0.086	0.083
-379.917	-71.679	-0.100	-0.037
-378.902	-200.000	-0.040	-0.295
-377.888	-200.000	-0.011	-0.156
-376.873	-53.810	-0.161	-0.073
-375.858	264.007	0.057	0.098
-374.844	220.543	0.097	-0.155
-373.829	-114.390	0.550	0.105
-372.815	-2.895	-0.133	0.092
-371.800	-200.000	0.037	0.178
-370.785	646.283	-0.025	-0.064
-369.771	62.265	-0.185	-0.183
-368.756	43.866	0.041	0.037
-367.742	-200.000	0.040	-0.251
-366.727	37.717	-0.106	-0.093
-365.712	-71.332	-0.091	-0.034
-364.698	-148.986	-0.202	-0.016
-363.683	97.045	0.086	-0.097
-362.669	-200.000	0.014	-0.140
-361.654	40.150	-0.127	-0.113
-360.639	175.368	0.108	-0.155
-359.625	484.815	0.148	0.334
-358.610	-96.540	0.224	0.059
-357.596	800.000	0.049	-0.187
-356.581	407.052	0.212	0.444
-355.566	800.000	-0.009	0.026
-354.552	-48.146	0.157	-0.075
-353.537	-200.000	0.027	0.232
-352.523	800.000	0.051	0.189
-351.508	-200.000	0.035	-0.412
-350.493	-97.920	0.329	0.084
-349.479	-200.000	0.052	0.333
-348.464	-200.000	0.001	0.164
-347.450	-191.924	-0.051	-0.000
-346.435	-142.579	-0.083	-0.008
-345.420	326.690	-0.069	0.130
-344.406	-66.607	0.104	-0.041
-343.391	15.744	-0.362	0.282
-342.377	144.231	0.150	-0.198
-341.362	70.335	0.142	0.145
-340.348	-31.053	-0.071	0.040
-339.333	800.000	0.055	-0.236
-338.318	115.616	-0.136	-0.165
-337.304	382.414	-0.032	0.064
-336.289	-45.180	-0.351	-0.173
-335.275	182.250	0.081	-0.118
-334.260	45.018	-0.035	0.032
-333.245	-108.363	-0.275	0.059
-332.231	252.567	-0.203	0.343
-331.216	282.360	-0.110	-0.195
-330.202	118.126	0.163	0.199
-329.187	-33.412	0.368	0.201
-328.172	-18.540	0.265	0.164
-327.158	800.000	-0.055	0.195
-326.143	-128.366	0.422	0.059
-325.129	121.568	0.040	-0.049
-324.114	106.245	0.036	-0.042
-323.099	-46.338	-0.244	-0.119
-322.085	17.740	0.316	0.249
-321.070	385.869	-0.083	0.170
-320.056	-200.000	-0.033	-0.230
-319.041	-200.000	-0.038	0.199
-318.026	308.052	-0.093	-0.171
-317.012	-32.072	-0.030	0.017
-315.997	45.455	0.233	-0.213
-314.983	-6.467	-0.070	-0.047
-313.968	-200.000	0.143	0.672
-312.953	73.382	0.237	0.245
-311.939	36.686	0.247	0.216
-310.924	-116.682	0.079	-0.014
-309.910	-116.103	-0.173	-0.032
-308.895	-25.807	0.024	0.014
-307.880	35.962	0.124	0.108
-306.866	-200.000	0.027	-0.149
-305.851	33.600	0.385	0.331
-304.837	-200.000	0.005	0.060
-303.822	-200.000	0.445	-0.001
-302.807	57.113	-0.192	-0.185
-301.793	800.000	0.063	-0.235
-300.778	-84.240	0.390	0.122
-299.764	645.983	-0.060	-0.151
-298.749	84.319	-0.216	-0.233
-297.735	-152.484	0.384	-0.027
-296.720	-56.621	0.105	-0.046
-295.705	324.871	0.180	0.340
-294.691	-200.000	0.004	0.404
-293.676	280.291	-0.095	-0.168
-292.662	-45.180	0.284	-0.139
-291.647	-200.000	0.022	-0.505
-290.632	-9.864	0.213	0.140
-289.618	800.000	-0.016	0.044
-288.603	-167.575	-0.250	-0.010
-287.589	-2.712	-0.219	-0.151
-286.574	-18.041	-0.165	-0.102
-285.559	18.646	0.254	-0.201
-284.545	-200.000	-0.029	-0.257
-283.530	800.000	0.046	0.181
-282.516	-200.000	-0.020	0.191
-281.501	-139.382	-0.048	0.005
-280.486	-84.313	0.344	0.107
-279.472	800.000	-0.048	0.169
-278.457	-34.757	-0.080	-0.043
-277.443	-107.114	-0.121	-0.026
-276.428	-200.000	-0.055	-0.261
-275.413	-105.375	0.153	-0.034
-274.399	69.081	-0.261	-0.265
-273.384	-200.000	0.022	0.255
-272.370	307.475	-0.063	0.116
-271.355	240.834	0.107	0.176
-270.340	-200.000	0.013	-0.077
-269.326	-120.482	0.163	-0.027
-268.311	-27.821	0.057	-0.032
-267.297	-6.924	0.435	0.292
-266.282	-82.667	0.245	-0.078
-265.267	-200.000	-0.025	0.472
-264.253	-149.250	0.210	0.017
-263.238	-200.000	-0.006	-0.305
-262.224	675.666	0.186	-0.477
-261.209	-62.551	-0.041	0.017
-260.195	-67.752	-0.287	0.111
-259.180	-93.486	-0.108	-0.029
-258.165	31.551	-0.162	-0.137
-257.151	-35.202	-0.274	-0.147
-256.136	185.636	0.184	-0.269
-255.122	89.072	-0.143	0.157
-254.107	158.493	-0.202	0.276
-253.092	-175.310	-0.177	0.005
-252.078	594.773	0.050	-0.121
-251.063	602.130	0.091	0.223
-250.049	469.807	-0.085	0.189
-249.034	-59.229	-0.100	-0.042
-248.019	-28.423	-0.231	-0.131
-247.005	-95.217	-0.048	0.013
-245.990	-200.000	0.011	-0.110
-244.976	58.325	-0.090	0.087
-243.961	-0.463	-0.235	0.164
-242.946	-114.638	-0.246	0.046
-241.932	-200.000	-0.046	0.218
-240.917	-17.232	-0.246	0.153
-239.903	151.222	-0.075	0.101
-238.888	-200.000	0.036	-0.163
-237.873	-5.645	0.247	0.167
-236.859	118.098	0.056	-0.068
-235.844	-79.298	0.162	-0.054
-234.830	457.683	-0.178	0.389
-233.815	166.041	0.164	-0.229
-232.800	244.229	0.080	0.133
-231.786	-96.542	0.030	0.008
-230.771	-104.454	-0.163	-0.037
-229.757	40.184	-0.283	-0.251
-228.742	-101.583	-0.158	-0.038
-227.727	-21.085	0.259	-0.156
-226.713	209.907	-0.098	0.152
-225.698	262.387	0.094	-0.161
-224.684	-200.000	0.008	-0.087
-223.669	800.000	0.064	-0.212
-222.655	-18.205	0.192	0.118
-221.640	-200.000	-0.031	-0.234
-220.625	-200.000	-0.015	-0.181
-219.611	27.390	-0.121	0.100
-218.596	-200.000	0.016	-0.109
-217.582	59.076	0.287	0.278
-216.567	121.143	0.172	0.211
-215.552	-85.257	0.148	-0.046
-214.538	800.000	0.136	-0.371
-213.523	247.249	0.123	0.205
-212.509	-200.000	-0.036	0.281
-211.494	800.000	-0.044	0.171
-210.479	721.456	-0.093	-0.244
-209.465	-161.139	0.266	-0.014
-208.450	363.400	-0.200	-0.396
-207.436	53.837	0.125	-0.118
-206.421	190.472	-0.144	-0.214
-205.406	-136.590	0.224	-0.026
-204.392	266.229	0.012	-0.021
-203.377	-200.000	-0.018	-0.229
-202.363	800.000	0.067	-0.186
-201.348	116.109	0.181	-0.218
-200.333	165.830	0.102	0.143
-199.319	-76.619	-0.099	-0.034
-198.304	-200.000	0.027	0.173
-197.290	254.049	-0.151	0.255
-196.275	-200.000	-0.025	-0.331
-195.260	800.000	0.029	0.087
-194.246	23.853	-0.236	0.191
-193.231	-200.000	-0.008	-0.116
-192.217	-94.803	0.313	0.084
-191.202	499.320	0.079	0.180
-190.187	-1.075	-0.227	-0.158
-189.173	-90.910	-0.122	-0.035
-188.158	271.721	-0.032	-0.055
-187.144	468.947	-0.076	-0.167
-186.129	450.552	-0.135	0.293
-185.114	-47.732	-0.167	0.080
-184.100	265.932	-0.029	0.049
-183.085	144.334	0.097	0.128
-182.071	-200.000	0.028	0.225
-181.056	-165.247	0.059	-0.003
-180.042	357.864	0.178	-0.349
-179.027	134.258	-0.080	0.102
-178.012	-105.357	-0.286	0.064
-176.998	-200.000	-0.000	-0.299
-175.983	410.741	-0.086	0.179
-174.969	281.750	0.101	0.178
-173.954	532.082	0.135	0.313
-172.939	71.233	-0.132	0.134
-171.925	314.316	0.143	-0.264
-170.910	-72.821	0.363	0.131
-169.896	19.586	0.260	0.206
-168.881	-70.130	-0.203	-0.076
-167.866	20.585	-0.049	-0.039
-166.852	-62.680	0.164	0.067
-165.837	220.014	-0.092	0.145
-164.823	36.726	0.335	0.291
-163.808	-150.099	0.220	0.017
-162.793	-96.949	-0.148	0.038
-161.779	800.000	-0.141	-0.404
-160.764	-162.237	0.218	-0.011
-159.750	154.531	0.138	-0.186
-158.735	800.000	-0.040	0.130
-157.720	392.248	-0.087	-0.177
-156.706	54.683	-0.018	-0.017
-155.691	-121.784	-0.128	-0.021
-154.677	-200.000	-0.016	-0.100
-153.662	-200.000	-0.008	0.293
-152.647	301.835	0.077	0.140
-151.633	245.972	0.017	0.027
-150.618	746.684	0.112	-0.296
-149.604	-200.000	0.031	-0.193
-148.589	-200.000	-0.064	0.346
-147.574	186.910	0.325	0.477
-146.560	-200.000	-0.042	0.253
-145.545	-200.000	-0.121	0.546
-144.531	580.904	-0.072	0.174
-143.516	369.875	0.113	0.225
-142.502	208.607	-0.095	0.146
-141.487	-200.000	-0.018	0.271
-140.472	-200.000	-0.014	0.235
-139.458	167.553	0.179	0.250
-138.443	-200.000	-0.026	0.290
-137.429	-2.671	0.096	0.066
-136.414	797.195	-0.036	0.096
-135.399	26.269	0.277	0.228
-134.385	-200.000	0.027	0.223
-133.370	-35.975	-0.127	-0.067
-132.356	52.932	-0.061	0.057
-131.341	-51.959	0.372	-0.170
-130.326	-65.744	0.291	0.115
-129.312	-19.321	-0.061	-0.037
-128.297	-134.635	0.097	0.012
-127.283	263.680	0.078	-0.133
-126.268	-191.922	0.160	-0.002
-125.253	-104.383	0.194	-0.044
-124.239	-109.903	0.163	-0.034
-123.224	204.719	-0.043	0.066
-122.210	-30.525	-0.235	-0.131
