DTS Sentinel unit serial number:	SN413079Multiplexer serial number:	ORYXHardware model number:	OX4-SRSoftware version number:	ORYX F/W v4.00 Oryx Data Collector v3.7.2.0data status	okinstallation	princeton_trtdifferential loss correction	single-endedforward channel	channel 4reverse channel	N/Adate	2019/09/12time	12:19:11forward acquisition time	60.00reverse acquisition time	0.00gamma	496.2192k internal	0.2289k external	0.2289temperature offset calibration	1.0074default loss term (dB/km)	0.3790temperature slope calibration	1.0000multiplexer offset coefficient	1.0000multiplexer slope coefficient	1.0000fibre end	0.00T internal ref (°C)	40.62T ext. ref 1 (°C)	2.02T ext. ref 2 (°C)	35.19length (m)	temperature (°C)	Stokes	anti-Stokes-747.200	-150.332	0.310	0.024
-746.185	258.877	-0.080	0.141
-745.171	-12.502	-0.160	-0.107
-744.156	800.000	0.032	-0.120
-743.142	-134.536	-0.121	-0.015
-742.127	-75.251	-0.225	-0.082
-741.112	-139.796	0.151	-0.016
-740.098	83.591	-0.277	0.309
-739.083	-200.000	-0.006	-0.055
-738.069	800.000	0.054	0.197
-737.054	-92.996	-0.314	0.090
-736.039	-106.133	-0.311	0.072
-735.025	800.000	0.082	0.295
-734.010	800.000	-0.070	0.265
-732.996	800.000	0.053	0.203
-731.981	266.592	0.230	-0.412
-730.966	-21.266	-0.167	0.105
-729.952	-200.000	-0.034	-0.257
-728.937	-200.000	0.027	0.210
-727.923	-48.006	-0.061	-0.030
-726.908	-162.759	-0.343	-0.017
-725.894	-200.000	-0.060	-0.284
-724.879	339.438	0.178	-0.355
-723.864	800.000	0.021	-0.070
-722.850	-140.419	0.118	0.013
-721.835	-200.000	-0.009	-0.122
-720.821	28.804	0.227	-0.197
-719.806	241.601	0.064	0.110
-718.791	-200.000	0.008	-0.240
-717.777	-200.000	-0.024	0.135
-716.762	-17.650	0.168	-0.108
-715.748	-38.030	-0.033	0.018
-714.733	63.011	-0.098	-0.101
-713.718	-128.475	-0.243	-0.035
-712.704	-196.662	0.303	-0.002
-711.689	-91.501	0.281	0.082
-710.675	59.469	0.054	-0.055
-709.660	484.776	0.115	-0.268
-708.645	337.269	-0.176	-0.350
-707.631	-6.034	-0.022	-0.016
-706.616	36.584	0.262	-0.237
-705.602	63.046	-0.088	-0.090
-704.587	800.000	0.020	0.081
-703.572	507.146	0.037	-0.087
-702.558	21.050	-0.144	-0.120
-701.543	-200.000	0.442	-0.002
-700.529	-45.485	-0.197	-0.100
-699.514	-140.497	-0.215	-0.023
-698.499	800.000	0.059	0.254
-697.485	-103.404	-0.165	0.040
-696.470	155.559	0.185	-0.260
-695.456	-200.000	-0.035	-0.155
-694.441	-200.000	0.013	0.144
-693.426	15.823	-0.021	-0.017
-692.412	3.579	0.136	0.102
-691.397	350.230	0.053	0.107
-690.383	231.611	0.169	0.283
-689.368	164.328	-0.096	-0.139
-688.354	180.661	0.092	-0.138
-687.339	-137.021	0.382	0.045
-686.324	297.773	-0.079	0.149
-685.310	92.883	-0.116	-0.135
-684.295	800.000	0.060	-0.240
-683.281	2.006	-0.163	-0.120
-682.266	-190.520	0.068	0.001
-681.251	-186.647	0.158	-0.002
-680.237	-200.000	0.015	-0.077
-679.222	363.243	-0.062	0.127
-678.208	-16.528	-0.054	-0.035
-677.193	800.000	0.049	0.191
-676.178	-65.895	-0.115	0.047
-675.164	-1.782	0.095	0.068
-674.149	80.269	-0.114	0.125
-673.135	166.851	-0.110	0.160
-672.120	-154.910	0.277	0.019
-671.105	341.850	0.117	0.233
-670.091	-76.199	-0.234	-0.084
-669.076	-51.561	-0.304	0.145
-668.062	99.349	-0.103	0.122
-667.047	29.583	-0.183	0.159
-666.032	-31.394	-0.100	-0.057
-665.018	58.398	0.252	-0.252
-664.003	-71.723	0.234	-0.089
-662.989	-32.472	0.116	-0.066
-661.974	800.000	-0.060	-0.195
-660.959	768.067	-0.146	0.406
-659.945	382.226	-0.077	-0.161
-658.930	-200.000	0.001	-0.110
-657.916	-143.959	0.256	-0.025
-656.901	-148.020	0.206	0.017
-655.886	170.354	-0.148	0.216
-654.872	-73.147	-0.115	-0.043
-653.857	-200.000	-0.011	-0.126
-652.843	-96.655	-0.123	0.033
-651.828	-57.435	-0.156	-0.070
-650.814	-200.000	-0.018	-0.210
-649.799	-200.000	0.049	0.430
-648.784	-136.036	-0.182	-0.022
-647.770	-54.224	0.102	-0.047
-646.755	-85.259	-0.147	0.047
-645.741	152.523	-0.091	0.127
-644.726	42.872	-0.299	0.278
-643.711	-189.829	0.076	-0.001
-642.697	174.143	-0.145	0.213
-641.682	-122.342	0.109	0.018
-640.668	-176.367	-0.147	-0.004
-639.653	76.320	-0.202	0.219
-638.638	-5.025	-0.146	0.103
-637.624	-5.298	0.344	-0.241
-636.609	642.080	-0.034	0.089
-635.595	-200.000	-0.020	0.175
-634.580	506.864	0.067	0.159
-633.565	800.000	-0.102	0.331
-632.551	36.596	-0.247	0.223
-631.536	-200.000	-0.014	-0.274
-630.522	-200.000	0.063	-0.353
-629.507	23.654	-0.270	0.227
-628.492	449.177	0.112	0.251
-627.478	-88.709	0.121	0.037
-626.463	513.038	0.095	0.225
-625.449	258.856	0.211	-0.372
-624.434	800.000	-0.082	0.236
-623.419	800.000	-0.023	-0.071
-622.405	-63.511	-0.248	-0.104
-621.390	132.153	-0.183	0.241
-620.376	-200.000	-0.051	0.261
-619.361	9.474	0.166	0.128
-618.346	-9.111	-0.301	0.205
-617.332	93.599	-0.046	-0.053
-616.317	68.051	0.166	-0.173
-615.303	150.216	-0.076	0.105
-614.288	800.000	-0.089	-0.370
-613.273	-200.000	0.044	-0.314
-612.259	51.853	-0.117	-0.113
-611.244	-40.000	-0.493	0.262
-610.230	-16.097	-0.145	-0.094
-609.215	654.266	0.040	-0.104
-608.201	547.245	0.106	-0.260
-607.186	326.371	-0.049	0.095
-606.171	-200.000	-0.005	-0.180
-605.157	65.398	0.252	0.260
-604.142	526.871	0.025	-0.061
-603.128	90.193	0.187	-0.213
-602.113	285.626	-0.094	0.172
-601.098	-101.977	-0.088	-0.022
-600.084	-200.000	-0.002	-0.350
-599.069	80.947	0.103	-0.113
-598.055	580.015	0.036	0.089
-597.040	133.435	0.011	0.015
-596.025	112.663	-0.228	-0.281
-595.011	751.927	-0.016	0.044
-593.996	-33.368	-0.060	-0.034
-592.982	800.000	0.060	-0.207
-591.967	169.510	0.191	-0.278
-590.952	-116.537	-0.234	0.044
-589.938	230.068	-0.062	-0.104
-588.923	23.864	0.144	-0.121
-587.909	-46.559	-0.155	-0.078
-586.894	239.046	-0.075	0.127
-585.879	206.329	-0.200	-0.317
-584.865	-67.521	0.155	0.062
-583.850	-36.833	0.165	0.090
-582.836	-99.252	-0.146	-0.038
-581.821	-21.909	-0.243	-0.150
-580.806	-73.120	0.044	0.016
-579.792	-55.507	-0.122	-0.056
-578.777	122.774	-0.065	0.083
-577.763	-117.388	0.253	0.047
-576.748	-0.993	0.148	0.107
-575.733	241.282	0.130	0.221
-574.719	-43.192	-0.060	-0.031
-573.704	-49.980	-0.237	-0.114
-572.690	-28.338	-0.103	0.061
-571.675	10.814	-0.229	-0.178
-570.661	-81.602	0.241	0.081
-569.646	44.710	-0.267	0.250
-568.631	-97.643	-0.434	0.114
-567.617	-126.678	0.146	0.022
-566.602	597.606	-0.129	-0.326
-565.588	-47.397	-0.096	0.048
-564.573	-82.296	0.467	-0.155
-563.558	45.124	0.139	-0.130
-562.544	29.296	0.172	0.149
-561.529	62.130	0.078	-0.080
-560.515	-103.339	-0.319	-0.077
-559.500	69.562	0.031	0.033
-558.485	-61.275	-0.206	0.088
-557.471	282.280	-0.090	0.164
-556.456	-48.486	-0.025	-0.012
-555.442	-200.000	-0.008	-0.051
-554.427	-200.000	-0.007	-0.190
-553.412	2.415	0.292	0.215
-552.398	276.852	-0.057	-0.103
-551.383	2.602	-0.073	-0.054
-550.369	800.000	0.048	0.208
-549.354	800.000	-0.012	0.035
-548.339	284.207	0.113	-0.206
-547.325	536.902	-0.165	-0.398
-546.310	515.140	-0.159	0.377
-545.296	-121.203	0.299	0.051
-544.281	347.235	-0.077	-0.154
-543.266	697.298	0.105	-0.280
-542.252	-4.604	0.309	-0.217
-541.237	-28.232	0.225	0.132
-540.223	-28.278	-0.096	-0.056
-539.208	-89.319	0.153	0.046
-538.193	23.752	-0.142	-0.119
-537.179	-50.984	-0.220	0.105
-536.164	-200.000	0.037	-0.212
-535.150	-37.046	-0.127	-0.069
-534.135	800.000	-0.030	-0.086
-533.121	90.469	0.166	0.189
-532.106	-131.616	-0.358	0.048
-531.091	341.823	0.192	0.381
-530.077	194.229	0.265	0.408
-529.062	-87.748	0.194	0.059
-528.048	-59.610	0.230	-0.100
-527.033	-52.663	-0.206	-0.097
-526.018	-200.000	0.006	-0.121
-525.004	227.075	-0.122	0.201
-523.989	800.000	-0.045	0.184
-522.975	-32.076	-0.089	-0.051
-521.960	43.963	0.180	0.168
-520.945	284.723	-0.141	0.258
-519.931	-104.413	0.374	-0.088
-518.916	147.418	0.042	-0.057
-517.902	11.164	0.144	-0.112
-516.887	78.115	-0.046	0.050
-515.872	800.000	-0.122	-0.486
-514.858	15.189	0.131	0.104
-513.843	-200.000	-0.028	-0.229
-512.829	56.068	-0.202	-0.199
-511.814	-200.000	0.005	-0.191
-510.799	-138.212	0.080	-0.009
-509.785	36.784	0.040	0.036
-508.770	-107.365	-0.262	0.058
-507.756	85.022	-0.038	0.042
-506.741	800.000	0.082	-0.251
-505.726	-200.000	-0.047	0.402
-504.712	-33.873	-0.090	-0.050
-503.697	-61.192	0.206	0.088
-502.683	-200.000	0.009	0.262
-501.668	-14.138	-0.327	0.214
-500.653	-92.947	0.254	0.072
-499.639	187.425	0.177	-0.269
-498.624	-154.258	0.017	0.001
-497.610	-200.000	-0.017	0.111
-496.595	-200.000	0.041	0.425
-495.581	-40.264	0.238	0.126
-494.566	800.000	0.081	-0.245
-493.551	724.180	-0.011	-0.030
-492.537	231.663	-0.034	-0.057
-491.522	-16.576	-0.330	-0.212
-490.508	-149.200	0.154	-0.013
-489.493	-78.087	0.239	0.084
-488.478	113.875	-0.076	0.093
-487.464	-200.000	0.029	0.151
-486.449	15.233	0.111	0.088
-485.435	339.602	0.077	-0.153
-484.420	197.290	-0.091	0.142
-483.405	-28.655	0.076	0.044
-482.391	800.000	0.067	-0.203
-481.376	143.937	-0.051	0.069
-480.362	552.006	0.163	0.398
-479.347	-75.913	0.075	-0.027
-478.332	-200.000	-0.063	-0.657
-477.318	583.917	-0.104	-0.260
-476.303	232.208	-0.079	0.132
-475.289	58.375	0.161	0.160
-474.274	27.708	0.128	-0.109
-473.259	800.000	-0.067	0.204
-472.245	-99.974	-0.059	0.015
-471.230	-42.641	0.487	0.252
-470.216	-200.000	-0.062	-0.276
-469.201	-200.000	-0.021	0.264
-468.186	800.000	0.047	-0.158
-467.172	-59.983	0.008	-0.003
-466.157	-124.905	-0.159	0.025
-465.143	318.011	0.134	0.257
-464.128	777.196	0.004	0.010
-463.113	-172.268	0.251	0.008
-462.099	407.399	-0.049	-0.105
-461.084	-138.886	-0.351	0.039
-460.070	-165.377	-0.079	0.004
-459.055	-37.818	0.211	0.114
-458.040	83.658	0.089	-0.098
-457.026	-102.494	-0.170	-0.041
-456.011	-149.226	-0.380	0.031
-454.997	-145.515	-0.199	-0.018
-453.982	-102.350	0.277	-0.067
-452.968	91.909	-0.142	0.162
-451.953	468.223	0.077	-0.174
-450.938	38.322	-0.241	0.217
-449.924	-17.207	-0.252	-0.161
-448.909	-200.000	-0.015	0.082
-447.895	-85.539	0.162	-0.051
-446.880	-78.867	-0.349	0.121
-445.865	-176.335	-0.195	0.005
-444.851	644.238	-0.056	-0.144
-443.836	-120.722	0.320	0.055
-442.822	162.874	0.190	0.270
-441.807	-109.576	-0.300	-0.064
-440.792	-69.567	0.239	0.093
-439.778	522.652	0.114	-0.271
-438.763	308.523	-0.206	-0.390
-437.749	-137.332	0.161	0.018
-436.734	414.508	-0.038	0.083
-435.719	-200.000	-0.004	0.258
-434.705	29.198	-0.091	-0.078
-433.690	800.000	0.075	0.230
-432.676	200.341	0.150	-0.234
-431.661	-98.893	0.456	-0.117
-430.646	-200.000	-0.077	0.525
-429.632	-107.775	0.201	0.044
-428.617	800.000	-0.152	0.434
-427.603	20.237	-0.090	0.074
-426.588	-35.051	-0.167	0.092
-425.573	53.784	0.111	0.108
-424.559	-88.456	0.169	-0.051
-423.544	661.322	0.020	-0.053
-422.530	-43.303	0.132	0.068
-421.515	-44.600	0.223	-0.113
-420.500	-200.000	0.036	-0.206
-419.486	-147.542	0.284	-0.024
-418.471	-200.000	-0.031	0.253
-417.457	13.026	-0.230	0.180
-416.442	42.774	0.149	0.137
-415.428	-26.991	0.115	-0.068
-414.413	-109.787	-0.218	-0.046
-413.398	71.557	-0.365	0.383
-412.384	-17.616	-0.152	-0.097
-411.369	478.358	0.070	-0.161
-410.355	15.166	-0.090	-0.071
-409.340	305.612	-0.027	-0.051
-408.325	503.047	0.066	0.154
-407.311	-104.858	-0.298	0.069
-406.296	-22.476	0.158	0.097
-405.282	-112.757	0.221	0.044
-404.267	65.705	-0.034	-0.035
-403.252	-44.090	-0.101	0.051
-402.238	800.000	0.031	-0.127
-401.223	-25.990	-0.167	0.100
-400.209	312.304	0.082	-0.156
-399.194	114.983	0.056	-0.070
-398.179	-144.948	0.175	-0.016
-397.165	262.208	-0.057	-0.100
-396.150	-200.000	-0.015	-0.083
-395.136	-200.000	0.037	0.235
-394.121	182.200	0.152	0.227
-393.106	250.391	-0.035	0.061
-392.092	-35.448	-0.063	0.035
-391.077	-91.941	0.100	0.029
-390.063	198.788	0.112	0.173
-389.048	-94.018	0.372	-0.103
-388.033	-200.000	0.054	-0.300
-387.019	164.498	-0.194	-0.277
-386.004	-200.000	-0.005	-0.055
-384.990	183.835	0.166	0.248
-383.975	30.378	0.164	-0.141
-382.960	-198.661	-0.350	-0.002
-381.946	-141.050	-0.543	0.056
-380.931	-141.026	0.316	-0.033
-379.917	-59.998	0.225	-0.097
-378.902	208.323	-0.078	-0.124
-377.888	-24.438	0.362	0.218
-376.873	49.593	-0.354	0.337
-375.858	-88.135	-0.125	0.038
-374.844	79.978	-0.100	0.109
-373.829	800.000	-0.007	0.033
-372.815	259.024	-0.216	-0.375
-371.800	-192.020	0.198	0.002
-370.785	-136.940	0.306	-0.035
-369.771	90.475	0.037	0.042
-368.756	25.519	0.305	0.256
-367.742	-200.000	-0.004	-0.059
-366.727	-5.242	0.453	0.314
-365.712	-53.511	-0.251	-0.116
-364.698	-130.899	0.094	0.013
-363.683	434.003	-0.088	0.192
-362.669	-84.986	-0.197	0.063
-361.654	136.586	-0.161	0.212
-360.639	8.546	-0.133	0.101
-359.625	-78.959	0.092	-0.032
-358.610	-124.120	0.105	-0.017
-357.596	-167.036	-0.281	0.012
-356.581	53.312	0.145	0.140
-355.566	-0.348	0.407	-0.292
-354.552	-39.891	-0.360	-0.190
-353.537	147.088	-0.117	-0.160
-352.523	-89.854	0.135	-0.040
-351.508	84.405	0.183	-0.202
-350.493	-74.340	0.351	0.128
-349.479	-121.470	0.162	0.027
-348.464	-36.017	-0.066	0.036
-347.450	5.249	-0.190	-0.141
-346.435	800.000	0.071	-0.219
-345.420	40.218	0.081	-0.074
-344.406	71.816	-0.103	0.108
-343.391	-200.000	-0.033	0.208
-342.377	51.079	0.116	0.111
-341.362	63.071	-0.080	-0.080
-340.348	-13.615	-0.193	-0.126
-339.333	-51.655	0.077	-0.036
-338.318	-9.521	0.024	0.016
-337.304	800.000	-0.073	-0.308
-336.289	70.305	0.038	-0.040
-335.275	-200.000	0.017	-0.305
-334.260	63.625	-0.269	0.273
-333.245	145.561	-0.236	0.319
-332.231	-200.000	-0.020	0.129
-331.216	182.864	0.142	0.211
-330.202	-200.000	0.005	-0.077
-329.187	267.254	-0.024	0.042
-328.172	-109.325	0.111	-0.024
-327.158	181.163	0.071	-0.106
-326.143	-120.164	0.186	0.032
-325.129	45.942	0.110	-0.103
-324.114	-49.822	0.182	-0.087
-323.099	-71.568	0.272	-0.102
-322.085	-126.428	0.085	-0.013
-321.070	737.882	-0.104	-0.280
-320.056	-142.773	-0.419	0.041
-319.041	-72.544	0.059	0.022
-318.026	43.764	-0.298	0.275
-317.012	221.348	-0.085	0.137
-315.997	546.179	0.131	-0.315
-314.983	-43.685	-0.310	-0.157
-313.968	2.244	0.057	-0.041
-312.953	-200.000	-0.053	0.449
-311.939	-15.851	0.059	-0.038
-310.924	-200.000	-0.008	-0.036
-309.910	10.195	-0.163	-0.125
-308.895	327.366	-0.120	-0.232
-307.880	-200.000	0.013	-0.094
-306.866	-81.015	-0.088	-0.029
-305.851	26.694	-0.182	-0.154
-304.837	-54.114	0.318	-0.146
-303.822	-200.000	0.009	-0.172
-302.807	800.000	0.047	0.185
-301.793	76.808	-0.257	0.275
-300.778	39.188	-0.068	-0.061
-299.764	-66.909	-0.182	-0.073
-298.749	114.824	-0.022	-0.027
-297.735	23.533	-0.088	-0.073
-296.720	-16.139	0.332	-0.212
-295.705	-53.345	-0.089	0.041
-294.691	800.000	0.069	-0.301
-293.676	-4.418	0.009	-0.006
-292.662	-200.000	-0.001	-0.247
-291.647	-200.000	-0.010	0.120
-290.632	512.413	0.245	0.575
-289.618	-71.776	0.241	-0.090
-288.603	800.000	0.035	-0.141
-287.589	-200.000	-0.041	0.239
-286.574	82.076	-0.032	0.035
-285.559	800.000	0.056	-0.170
-284.545	-200.000	-0.011	-0.048
-283.530	800.000	-0.034	0.103
-282.516	-115.305	-0.363	0.069
-281.501	72.388	-0.159	-0.167
-280.486	-200.000	0.008	-0.083
-279.472	-9.286	-0.166	0.111
-278.457	246.953	0.073	-0.125
-277.443	265.267	-0.191	-0.336
-276.428	89.496	-0.193	-0.217
-275.413	323.933	0.225	0.432
-274.399	800.000	0.058	-0.221
-273.384	33.494	0.122	0.107
-272.370	-200.000	-0.005	0.064
-271.355	-107.605	0.459	-0.101
-270.340	-200.000	-0.004	0.113
-269.326	394.648	-0.142	0.297
-268.311	261.358	0.088	0.153
-267.297	-109.972	-0.223	-0.047
-266.282	-200.000	0.048	-0.232
-265.267	-15.377	0.417	0.268
-264.253	56.359	-0.135	-0.132
-263.238	-60.910	-0.301	-0.128
-262.224	-153.387	-0.197	0.014
-261.209	-70.762	0.160	-0.061
-260.195	653.940	-0.112	-0.289
-259.180	68.370	-0.165	0.170
-258.165	-200.000	-0.053	-0.250
-257.151	409.096	-0.073	0.155
-256.136	56.188	-0.343	0.335
-255.122	-47.188	0.125	-0.061
-254.107	8.883	0.243	0.184
-253.092	491.574	0.099	0.229
-252.078	56.168	-0.090	-0.088
-251.063	-200.000	0.036	-0.356
-250.049	334.208	-0.098	0.190
-249.034	293.620	-0.132	0.242
-248.019	220.512	-0.085	0.138
-247.005	224.755	0.056	-0.091
-245.990	-200.000	-0.092	0.436
-244.976	80.986	0.052	-0.057
-243.961	95.173	-0.029	0.034
-242.946	229.260	-0.101	0.165
-241.932	353.884	-0.167	-0.333
-240.917	65.433	0.113	-0.115
-239.903	-95.689	-0.579	-0.156
-238.888	-90.949	-0.078	0.022
-237.873	15.263	-0.266	-0.210
-236.859	-200.000	0.008	0.364
-235.844	-125.209	-0.095	-0.015
-234.830	-79.891	-0.297	-0.100
-233.815	-34.928	0.166	0.091
-232.800	800.000	0.054	0.158
-231.786	13.563	0.133	0.104
-230.771	101.173	0.190	0.223
-229.757	741.563	-0.107	0.290
-228.742	329.883	-0.116	0.225
-227.727	-200.000	0.051	-0.227
-226.713	-106.642	0.417	-0.093
-225.698	530.268	-0.098	-0.232
-224.684	72.650	-0.052	-0.054
-223.669	-48.136	-0.189	0.092
-222.655	7.694	-0.134	-0.101
-221.640	-100.942	0.340	-0.084
-220.625	-200.000	0.007	-0.151
-219.611	-83.491	0.290	0.093
-218.596	-13.062	0.221	-0.144
-217.582	-200.000	0.013	-0.150
-216.567	-200.000	-0.023	0.218
-215.552	-200.000	-0.019	-0.134
-214.538	311.524	-0.142	0.268
-213.523	60.648	-0.293	-0.292
-212.509	292.192	0.133	-0.243
-211.494	-200.000	0.075	0.450
-210.479	-101.728	0.143	0.035
-209.465	56.436	-0.193	-0.188
-208.450	-148.568	0.202	-0.017
-207.436	659.028	0.086	0.222
-206.421	-200.000	-0.005	-0.226
-205.406	30.021	-0.142	-0.122
-204.392	-30.176	0.221	-0.126
-203.377	76.642	0.065	-0.069
-202.363	-107.677	-0.096	-0.021
-201.348	800.000	0.097	-0.296
-200.333	-6.633	0.076	-0.052
-199.319	-200.000	0.035	-0.358
-198.304	15.590	0.009	0.007
-197.290	141.554	0.100	0.133
-196.275	-200.000	-0.006	0.026
-195.260	3.256	0.175	-0.128
-194.246	-200.000	-0.006	0.037
-193.231	209.530	-0.049	0.078
-192.217	-96.825	0.234	-0.062
-191.202	-200.000	-0.018	-0.229
-190.187	302.177	0.009	-0.016
-189.173	-16.542	0.186	0.118
-188.158	57.675	-0.338	-0.331
-187.144	-116.441	0.056	-0.010
-186.129	185.242	-0.032	-0.048
-185.114	-200.000	-0.038	-0.268
-184.100	-200.000	-0.026	0.170
-183.085	12.482	-0.430	0.333
-182.071	438.178	-0.040	-0.087
-181.056	-200.000	-0.007	0.106
-180.042	109.258	0.106	-0.127
-179.027	11.364	0.105	-0.081
-178.012	-11.607	-0.434	-0.286
-176.998	127.692	-0.214	-0.273
-175.983	424.574	0.170	-0.366
-174.969	35.997	-0.070	0.061
-173.954	-24.685	0.033	-0.020
-172.939	-94.868	0.259	0.070
-171.925	-20.376	-0.162	0.100
-170.910	-200.000	0.015	-0.123
-169.896	-200.000	-0.005	-0.217
-168.881	252.233	-0.211	0.360
-167.866	296.618	0.228	0.419
-166.852	-133.694	0.418	-0.052
-165.837	-34.417	0.474	-0.260
-164.823	-200.000	0.012	-0.156
-163.808	800.000	0.035	0.110
-162.793	-200.000	-0.006	0.292
-161.779	800.000	-0.107	-0.353
-160.764	27.684	-0.034	-0.029
-159.750	-55.848	0.307	0.138
-158.735	-200.000	0.017	0.311
-157.720	-200.000	-0.034	-0.239
-156.706	-116.409	0.307	-0.057
-155.691	199.703	0.204	0.313
-154.677	90.154	0.145	-0.163
-153.662	216.349	0.065	-0.103
-152.647	163.326	-0.026	0.037
-151.633	-42.930	0.109	-0.055
-150.618	-64.313	0.217	-0.089
-149.604	-200.000	-0.005	0.057
-148.589	-77.918	0.349	0.120
-147.574	-68.671	-0.052	0.020
-146.560	800.000	-0.108	-0.312
-145.545	261.060	-0.057	0.100
-144.531	800.000	0.099	0.358
-143.516	168.631	0.156	0.222
-142.502	565.790	0.084	0.203
-141.487	-83.975	0.220	0.070
-140.472	311.168	0.053	-0.100
-139.458	377.470	0.089	-0.183
-138.443	-59.623	-0.261	0.112
-137.429	-200.000	-0.012	-0.165
-136.414	491.541	0.125	-0.287
-135.399	-154.011	0.145	0.010
-134.385	82.949	0.156	-0.170
-133.370	12.082	-0.111	0.086
-132.356	-200.000	-0.038	-0.174
-131.341	-200.000	-0.002	-0.204
-130.326	-1.873	0.151	0.106
-129.312	-132.326	-0.075	-0.010
-128.297	800.000	0.081	-0.280
-127.283	800.000	-0.059	0.220
-126.268	-27.266	-0.083	0.048
-125.253	269.776	-0.037	-0.064
-124.239	-106.738	0.069	0.015
-123.224	800.000	-0.018	0.075
-122.210	95.648	0.243	-0.277
-121.195	-53.343	0.126	-0.058
