DTS Sentinel unit serial number:	SN413079Multiplexer serial number:	ORYXHardware model number:	OX4-SRSoftware version number:	ORYX F/W v4.00 Oryx Data Collector v3.7.2.0data status	okinstallation	princeton_trtdifferential loss correction	single-endedforward channel	channel 4reverse channel	N/Adate	2019/09/14time	03:37:35forward acquisition time	60.00reverse acquisition time	0.00gamma	496.2192k internal	0.2322k external	0.2322temperature offset calibration	1.0134default loss term (dB/km)	0.3790temperature slope calibration	1.0000multiplexer offset coefficient	1.0000multiplexer slope coefficient	1.0000fibre end	0.00T internal ref (°C)	26.62T ext. ref 1 (°C)	3.30T ext. ref 2 (°C)	21.60length (m)	temperature (°C)	Stokes	anti-Stokes-747.200	420.121	-0.032	0.069
-746.185	-68.788	-0.243	-0.095
-745.171	115.783	-0.265	0.328
-744.156	222.268	0.049	-0.079
-743.142	-75.650	0.208	-0.075
-742.127	-75.389	0.048	0.017
-741.112	145.263	-0.087	0.118
-740.098	-200.000	-0.028	-0.128
-739.083	210.861	0.066	0.104
-738.069	411.471	-0.019	0.042
-737.054	15.933	0.095	-0.076
-736.039	12.085	-0.220	-0.171
-735.025	-135.532	0.116	-0.014
-734.010	292.187	-0.196	-0.361
-732.996	-51.761	-0.346	-0.163
-731.981	-105.719	-0.217	0.049
-730.966	251.609	0.087	0.149
-729.952	-200.000	-0.003	0.127
-728.937	-200.000	0.031	-0.288
-727.923	93.438	-0.200	0.228
-726.908	-125.649	0.186	0.028
-725.894	-200.000	0.028	0.292
-724.879	-85.953	-0.198	-0.062
-723.864	-102.890	-0.076	-0.018
-722.850	-32.259	0.159	0.090
-721.835	-84.293	0.070	-0.022
-720.821	800.000	-0.077	-0.221
-719.806	418.531	0.116	0.251
-718.791	143.821	0.103	-0.138
-717.777	96.938	0.216	0.250
-716.762	800.000	0.043	0.166
-715.748	715.553	0.019	-0.050
-714.733	-85.840	-0.251	-0.079
-713.718	-114.301	-0.310	-0.060
-712.704	298.650	0.162	-0.300
-711.689	-92.943	-0.257	0.072
-710.675	800.000	-0.087	0.266
-709.660	50.381	0.200	-0.190
-708.645	-73.279	-0.067	0.025
-707.631	-57.091	-0.074	0.033
-706.616	446.127	-0.038	-0.085
-705.602	-56.720	0.234	-0.104
-704.587	-200.000	-0.020	-0.195
-703.572	800.000	0.050	-0.216
-702.558	-37.371	-0.010	-0.005
-701.543	32.375	-0.225	-0.196
-700.529	90.305	-0.145	-0.163
-699.514	106.869	0.188	-0.225
-698.499	-143.555	-0.245	-0.024
-697.485	-200.000	0.005	-0.376
-696.470	-14.079	0.545	-0.355
-695.456	-67.940	-0.406	-0.160
-694.441	261.008	0.136	0.238
-693.426	-115.416	-0.355	0.067
-692.412	-76.526	-0.160	0.057
-691.397	800.000	-0.193	0.664
-690.383	-200.000	0.002	-0.216
-689.368	502.277	0.101	0.234
-688.354	681.853	0.076	-0.200
-687.339	-200.000	0.051	0.273
-686.324	115.313	-0.082	-0.101
-685.310	238.239	-0.107	-0.179
-684.295	-200.000	0.108	-0.482
-683.281	800.000	-0.066	-0.252
-682.266	-18.486	-0.203	0.128
-681.251	-143.710	-0.230	-0.022
-680.237	370.586	-0.146	-0.298
-679.222	299.576	0.034	-0.063
-678.208	-200.000	0.023	0.272
-677.193	516.262	-0.188	0.444
-676.178	-10.888	0.249	0.165
-675.164	-20.064	0.138	-0.086
-674.149	-100.866	0.098	0.024
-673.135	-58.051	0.217	0.095
-672.120	152.935	-0.150	0.206
-671.105	162.163	-0.054	0.076
-670.091	-200.000	0.013	0.225
-669.076	-100.637	-0.277	0.069
-668.062	-137.836	0.220	-0.025
-667.047	-73.776	-0.079	-0.029
-666.032	-3.712	-0.252	0.176
-665.018	-31.752	-0.227	0.128
-664.003	800.000	0.088	-0.361
-662.989	260.155	-0.219	-0.381
-661.974	-2.197	0.044	0.031
-660.959	23.460	-0.156	-0.129
-659.945	-200.000	0.051	-0.355
-658.930	800.000	-0.060	0.259
-657.916	-10.232	-0.273	-0.183
-656.901	7.130	-0.365	-0.274
-655.886	243.929	-0.147	-0.248
-654.872	-89.494	-0.298	0.088
-653.857	-200.000	0.003	0.153
-652.843	10.335	0.211	-0.162
-651.828	4.925	0.204	-0.151
-650.814	-112.214	0.122	0.025
-649.799	27.589	0.111	0.094
-648.784	-25.411	-0.219	0.130
-647.770	-101.445	0.369	-0.090
-646.755	-67.638	-0.154	0.061
-645.741	9.388	-0.287	-0.218
-644.726	-137.815	-0.134	0.015
-643.711	800.000	-0.062	0.239
-642.697	-200.000	0.004	-0.219
-641.682	-200.000	-0.001	0.287
-640.668	-200.000	-0.012	0.105
-639.653	-103.793	0.459	-0.108
-638.638	46.542	-0.210	0.196
-637.624	58.550	0.232	-0.229
-636.609	643.752	0.055	-0.140
-635.595	-200.000	0.007	0.089
-634.580	170.207	0.215	0.310
-633.565	-67.596	0.124	-0.049
-632.551	-7.924	-0.359	-0.244
-631.536	7.925	0.263	0.198
-630.522	-200.000	-0.035	-0.169
-629.507	-125.372	-0.094	0.014
-628.492	800.000	0.052	0.189
-627.478	-152.191	0.155	0.011
-626.463	-178.939	0.108	0.002
-625.449	-200.000	0.009	-0.343
-624.434	-6.947	0.113	-0.077
-623.419	154.560	0.154	-0.213
-622.405	-32.033	-0.080	0.045
-621.390	36.266	0.153	0.135
-620.376	-51.203	-0.262	-0.124
-619.361	-87.737	-0.097	-0.029
-618.346	-139.612	0.102	-0.011
-617.332	-146.575	-0.347	0.030
-616.317	78.273	-0.146	0.157
-615.303	53.282	-0.145	-0.140
-614.288	354.948	0.129	-0.258
-613.273	800.000	-0.074	-0.213
-612.259	86.519	-0.182	-0.202
-611.244	-11.571	-0.379	-0.250
-610.230	273.685	-0.031	0.056
-609.215	-200.000	0.033	0.275
-608.201	-181.706	0.302	-0.006
-607.186	-46.839	0.239	-0.117
-606.171	-151.300	0.094	0.007
-605.157	-200.000	0.040	0.364
-604.142	-36.120	-0.242	-0.131
-603.128	140.788	0.096	-0.128
-602.113	267.526	0.061	0.108
-601.098	-83.964	-0.103	0.033
-600.084	-200.000	-0.031	-0.176
-599.069	800.000	-0.061	-0.231
-598.055	-200.000	0.004	0.101
-597.040	254.544	-0.168	-0.288
-596.025	131.333	0.101	0.130
-595.011	-65.278	0.162	-0.065
-593.996	679.994	0.084	-0.220
-592.982	55.514	0.012	-0.012
-591.967	268.254	0.135	-0.238
-590.952	-24.250	-0.175	-0.105
-589.938	800.000	0.072	-0.267
-588.923	-157.366	-0.135	-0.008
-587.909	311.071	-0.080	0.151
-586.894	194.998	-0.174	-0.266
-585.879	41.746	0.068	-0.062
-584.865	-200.000	0.013	0.133
-583.850	392.987	-0.105	0.220
-582.836	294.500	-0.127	0.232
-581.821	800.000	-0.073	0.291
-580.806	0.326	0.228	0.164
-579.792	249.280	0.031	0.052
-578.777	245.677	0.130	-0.220
-577.763	532.146	0.168	-0.398
-576.748	-103.649	-0.217	-0.051
-575.733	800.000	0.086	-0.298
-574.719	50.262	0.049	-0.047
-573.704	-9.945	-0.189	0.126
-572.690	-200.000	-0.030	0.165
-571.675	-131.051	0.133	0.018
-570.661	402.956	0.069	0.146
-569.646	1.656	0.064	-0.046
-568.631	459.709	0.074	-0.165
-567.617	146.439	0.037	-0.050
-566.602	800.000	0.036	-0.112
-565.588	-52.448	-0.111	-0.051
-564.573	82.292	-0.098	-0.106
-563.558	201.263	0.111	-0.172
-562.544	-69.648	-0.223	0.086
-561.529	345.655	-0.109	0.215
-560.515	-75.638	0.083	-0.030
-559.500	68.928	-0.031	0.032
-558.485	-102.338	0.243	-0.058
-557.471	237.475	-0.116	-0.194
-556.456	-200.000	0.031	0.146
-555.442	-103.547	0.290	0.068
-554.427	-200.000	-0.024	0.189
-553.412	-95.468	-0.345	0.093
-552.398	-151.391	0.300	-0.022
-551.383	170.577	-0.151	-0.217
-550.369	-200.000	0.036	0.178
-549.354	-166.227	0.170	0.007
-548.339	-58.868	-0.135	-0.059
-547.325	-200.000	-0.054	0.288
-546.310	-163.207	-0.339	-0.016
-545.296	-200.000	-0.035	0.367
-544.281	464.451	0.037	0.082
-543.266	197.228	-0.149	0.228
-542.252	-38.215	0.061	0.033
-541.237	-200.000	-0.070	0.403
-540.223	-2.370	-0.265	-0.186
-539.208	242.135	-0.111	0.186
-538.193	-66.968	0.076	0.030
-537.179	-18.639	0.199	0.124
-536.164	75.478	0.179	-0.189
-535.150	-200.000	-0.011	-0.169
-534.135	-29.796	-0.237	0.135
-533.121	185.394	0.017	0.025
-532.106	132.905	0.149	0.192
-531.091	-79.044	0.174	-0.059
-530.077	99.912	-0.079	0.091
-529.062	-175.072	-0.243	0.007
-528.048	-109.256	-0.164	0.035
-527.033	-200.000	-0.009	0.205
-526.018	-103.595	-0.146	0.034
-525.004	183.391	0.050	-0.073
-523.989	123.339	0.105	-0.132
-522.975	-162.314	-0.207	0.010
-521.960	-41.316	0.164	-0.085
-520.945	800.000	0.117	-0.465
-519.931	194.307	0.101	0.153
-518.916	-77.136	-0.288	0.101
-517.902	-135.063	-0.259	-0.031
-516.887	285.013	0.138	-0.249
-515.872	800.000	-0.081	0.287
-514.858	537.715	-0.093	-0.222
-513.843	97.731	0.250	0.288
-512.829	231.257	0.015	-0.025
-511.814	-127.342	-0.225	-0.033
-510.799	-178.143	-0.305	0.007
-509.785	-144.514	0.240	-0.022
-508.770	-158.697	-0.200	-0.011
-507.756	800.000	-0.034	-0.143
-506.741	-81.790	0.312	-0.102
-505.726	-134.638	0.253	0.031
-504.712	-94.420	0.067	0.018
-503.697	89.530	0.240	-0.268
-502.683	202.420	-0.165	-0.255
-501.668	242.381	-0.086	0.144
-500.653	-200.000	-0.011	0.089
-499.639	-95.660	0.146	0.039
-498.624	-49.255	0.167	0.080
-497.610	-1.232	-0.178	0.126
-496.595	-200.000	-0.079	0.000
-495.581	198.419	0.119	-0.182
-494.566	-200.000	-0.005	-0.270
-493.551	462.075	-0.104	-0.231
-492.537	594.910	-0.107	-0.264
-491.522	-200.000	0.006	-0.112
-490.508	412.332	-0.127	0.269
-489.493	-67.025	-0.197	-0.078
-488.478	23.628	-0.248	-0.204
-487.464	408.471	-0.078	-0.165
-486.449	-200.000	0.030	0.496
-485.435	-200.000	-0.050	0.316
-484.420	369.611	0.066	-0.133
-483.405	231.293	0.137	0.224
-482.391	119.259	-0.153	-0.189
-481.376	26.014	0.152	-0.127
-480.362	138.815	-0.066	-0.087
-479.347	-1.609	-0.322	0.227
-478.332	-7.723	-0.178	0.120
-477.318	800.000	0.010	-0.035
-476.303	666.100	0.100	0.259
-475.289	-125.327	-0.291	-0.044
-474.274	-37.677	0.160	-0.085
-473.259	-200.000	0.014	0.090
-472.245	557.493	0.117	-0.282
-471.230	16.032	-0.090	0.071
-470.216	187.621	-0.058	-0.086
-469.201	-43.386	0.292	-0.148
-468.186	-132.725	-0.141	-0.018
-467.172	-200.000	0.035	0.400
-466.157	68.294	0.148	-0.151
-465.143	-155.628	0.331	0.021
-464.128	-81.830	-0.026	-0.009
-463.113	-200.000	-0.055	-0.258
-462.099	-200.000	0.043	-0.233
-461.084	-152.470	-0.089	0.006
-460.070	-200.000	-0.030	-0.150
-459.055	-23.117	-0.286	-0.172
-458.040	84.347	0.364	0.398
-457.026	-10.817	-0.251	0.166
-456.011	181.165	-0.178	0.262
-454.997	-63.043	0.172	0.071
-453.982	-174.564	0.118	0.003
-452.968	287.343	0.203	0.366
-451.953	216.828	0.076	-0.121
-450.938	800.000	-0.040	-0.120
-449.924	-99.576	0.354	0.089
-448.909	79.718	0.200	-0.215
-447.895	-79.974	0.127	0.043
-446.880	-200.000	-0.039	0.176
-445.865	-59.375	-0.167	0.072
-444.851	-180.639	0.144	-0.003
-443.836	309.286	0.043	0.080
-442.822	-142.367	0.175	0.017
-441.807	-21.021	-0.111	0.068
-440.792	186.428	0.157	0.233
-439.778	-200.000	-0.004	-0.344
-438.763	-102.969	-0.244	-0.058
-437.749	-152.081	0.299	-0.022
-436.734	763.148	-0.060	0.164
-435.719	22.986	-0.110	0.090
-434.705	800.000	0.090	0.308
-433.690	67.744	-0.059	-0.060
-432.676	53.680	0.050	0.048
-431.661	96.357	0.186	-0.212
-430.646	-200.000	0.001	-0.240
-429.632	-200.000	-0.032	0.145
-428.617	800.000	-0.046	0.177
-427.603	119.074	0.200	0.247
-426.588	-17.012	0.184	0.116
-425.573	299.009	-0.026	-0.047
-424.559	-98.552	-0.170	0.043
-423.544	178.033	-0.085	0.123
-422.530	-173.859	-0.246	-0.007
-421.515	-200.000	-0.100	0.466
-420.500	220.174	-0.025	0.041
-419.486	172.397	-0.073	0.105
-418.471	-200.000	0.019	-0.113
-417.457	-200.000	-0.059	-0.360
-416.442	63.364	-0.124	0.124
-415.428	-200.000	-0.006	-0.238
-414.413	-200.000	-0.093	-0.450
-413.398	80.715	-0.144	-0.155
-412.384	37.807	-0.125	0.110
-411.369	183.901	-0.058	-0.086
-410.355	2.015	-0.127	-0.091
-409.340	-61.386	-0.073	-0.031
-408.325	-188.805	0.377	-0.005
-407.311	-16.761	0.116	-0.073
-406.296	150.521	0.124	0.168
-405.282	70.866	-0.128	-0.132
-404.267	4.499	-0.263	-0.192
-403.252	267.258	0.124	0.216
-402.238	221.142	0.120	0.192
-401.223	-35.352	0.068	0.037
-400.209	-153.606	0.298	0.020
-399.194	-74.585	-0.330	0.118
-398.179	-14.579	-0.033	0.021
-397.165	440.367	-0.068	-0.148
-396.150	-100.620	-0.182	-0.045
-395.136	-60.766	0.246	-0.104
-394.121	800.000	-0.018	0.069
-393.106	-200.000	-0.039	0.215
-392.092	52.806	0.086	-0.082
-391.077	-200.000	0.064	0.491
-390.063	-134.783	-0.147	0.018
-389.048	91.117	0.130	-0.146
-388.033	-105.353	-0.173	-0.039
-387.019	-154.158	0.155	-0.010
-386.004	74.423	0.141	-0.147
-384.990	-200.000	0.005	-0.140
-383.975	43.203	0.346	0.315
-382.960	-135.734	-0.304	0.036
-381.946	-148.599	-0.099	0.008
-380.931	800.000	-0.066	-0.194
-379.917	-124.850	0.319	0.049
-378.902	-95.800	0.114	0.030
-377.888	-88.625	-0.437	0.130
-376.873	-200.000	-0.004	-0.050
-375.858	-95.988	0.330	-0.088
-374.844	-200.000	0.016	-0.348
-373.829	148.935	-0.152	0.205
-372.815	-200.000	0.063	0.334
-371.800	800.000	-0.151	0.538
-370.785	135.451	-0.132	0.171
-369.771	348.078	-0.122	-0.240
-368.756	40.063	-0.129	0.116
-367.742	-121.237	-0.200	-0.033
-366.727	-10.785	-0.211	-0.139
-365.712	-88.085	-0.137	-0.041
-364.698	-172.200	-0.229	-0.007
-363.683	58.306	-0.043	-0.042
-362.669	256.224	-0.066	0.112
-361.654	154.772	-0.226	0.309
-360.639	426.324	-0.123	-0.264
-359.625	-61.387	0.146	-0.061
-358.610	198.869	-0.223	0.339
-357.596	800.000	-0.089	-0.287
-356.581	386.986	-0.052	-0.107
-355.566	-200.000	0.011	0.145
-354.552	800.000	0.081	-0.278
-353.537	-32.349	0.552	-0.307
-352.523	-109.701	-0.040	0.008
-351.508	-33.877	-0.064	0.035
-350.493	54.393	-0.099	0.094
-349.479	-103.470	-0.127	0.030
-348.464	-148.921	-0.064	-0.005
-347.450	-75.085	-0.120	-0.043
-346.435	-39.182	-0.297	0.155
-345.420	-200.000	0.053	0.242
-344.406	800.000	0.045	-0.150
-343.391	800.000	-0.041	-0.177
-342.377	461.538	0.084	-0.186
-341.362	29.238	0.307	0.259
-340.348	-22.216	0.179	0.108
-339.333	-137.711	-0.263	-0.029
-338.318	-200.000	-0.017	0.270
-337.304	-200.000	-0.000	0.193
-336.289	-200.000	-0.046	0.344
-335.275	-116.269	-0.248	0.046
-334.260	18.200	0.132	0.105
-333.245	800.000	-0.018	0.073
-332.231	32.646	-0.078	-0.067
-331.216	-200.000	0.019	-0.144
-330.202	-71.851	0.148	-0.055
-329.187	-200.000	0.007	-0.235
-328.172	800.000	-0.042	0.134
-327.158	-200.000	-0.031	0.301
-326.143	-200.000	-0.018	-0.274
-325.129	-200.000	-0.020	-0.275
-324.114	608.736	-0.052	0.130
-323.099	96.909	0.093	0.105
-322.085	309.359	0.175	0.325
-321.070	659.385	-0.078	-0.200
-320.056	-188.242	0.157	-0.002
-319.041	9.425	0.159	0.120
-318.026	173.794	-0.273	-0.392
-317.012	441.475	-0.086	0.186
-315.997	81.320	-0.063	0.068
-314.983	-200.000	0.025	0.121
-313.968	-123.692	0.457	0.072
-312.953	-50.592	-0.291	0.136
-311.939	-51.827	0.342	0.158
-310.924	-161.928	0.399	0.020
-309.910	380.799	-0.077	-0.157
-308.895	87.866	0.088	0.097
-307.880	-98.145	-0.096	0.025
-306.866	4.681	0.096	-0.070
-305.851	-51.339	0.282	0.131
-304.837	-121.656	0.313	0.051
-303.822	153.582	0.120	0.163
-302.807	190.085	-0.170	0.253
-301.793	800.000	0.059	0.170
-300.778	235.918	-0.163	0.267
-299.764	800.000	-0.052	-0.210
-298.749	-52.184	0.284	0.131
-297.735	481.239	-0.068	-0.154
-296.720	23.806	0.339	-0.278
-295.705	-24.475	-0.248	0.147
-294.691	300.375	0.186	-0.340
-293.676	-107.671	0.379	-0.082
-292.662	-200.000	0.007	-0.096
-291.647	800.000	-0.055	-0.182
-290.632	40.613	-0.154	0.138
-289.618	-80.548	0.218	-0.072
-288.603	-18.624	-0.094	0.058
-287.589	-198.960	-0.126	0.001
-286.574	-77.122	-0.127	0.044
-285.559	-116.397	-0.228	-0.042
-284.545	-51.782	0.222	0.102
-283.530	426.015	0.083	-0.177
-282.516	-200.000	0.016	-0.314
-281.501	441.597	0.010	-0.021
-280.486	-200.000	0.038	0.164
-279.472	17.983	-0.074	-0.059
-278.457	-106.039	0.378	0.084
-277.443	-25.269	0.246	-0.144
-276.428	143.176	-0.211	-0.279
-275.413	75.074	0.153	-0.160
-274.399	-63.984	0.312	-0.127
-273.384	-24.810	-0.208	-0.123
-272.370	-200.000	-0.039	-0.176
-271.355	92.107	-0.175	0.196
-270.340	111.857	-0.078	-0.094
-269.326	800.000	0.072	0.233
-268.311	-98.225	-0.217	0.055
-267.297	652.543	0.091	-0.230
-266.282	54.676	0.147	-0.141
-265.267	-200.000	0.017	0.120
-264.253	-65.056	0.252	-0.101
-263.238	35.990	-0.160	0.140
-262.224	-64.827	0.306	-0.123
-261.209	800.000	0.101	0.427
-260.195	-200.000	0.012	-0.261
-259.180	69.192	-0.132	0.134
-258.165	175.832	-0.247	-0.356
-257.151	-200.000	0.010	0.069
-256.136	-78.383	0.031	0.010
-255.122	521.270	-0.074	0.172
-254.107	800.000	0.032	0.102
-253.092	244.191	0.022	-0.037
-252.078	-133.627	-0.267	-0.033
-251.063	-200.000	0.022	0.367
-250.049	-71.419	0.324	0.120
-249.034	-2.165	0.352	-0.245
-248.019	-55.665	-0.203	-0.090
-247.005	-200.000	-0.023	-0.220
-245.990	-119.640	0.198	0.034
-244.976	242.538	0.074	-0.122
-243.961	229.587	-0.118	-0.191
-242.946	-142.573	0.360	0.035
-241.932	-200.000	-0.015	-0.150
-240.917	-148.203	0.251	-0.021
-239.903	-27.534	0.095	0.055
-238.888	800.000	0.052	0.188
-237.873	458.049	-0.125	-0.276
-236.859	800.000	0.033	-0.124
-235.844	295.398	-0.172	0.312
-234.830	-94.195	-0.114	0.031
-233.815	-88.966	-0.233	-0.068
-232.800	-200.000	-0.023	-0.211
-231.786	92.932	0.192	0.215
-230.771	419.268	-0.223	-0.472
-229.757	112.231	-0.048	0.057
-228.742	-5.871	-0.237	0.161
-227.727	-182.096	-0.039	-0.001
-226.713	-4.573	0.187	-0.128
-225.698	-200.000	0.004	0.034
-224.684	-89.899	-0.174	-0.050
-223.669	-140.689	0.207	0.021
-222.655	-30.866	0.258	0.144
-221.640	800.000	-0.124	0.463
-220.625	284.625	0.182	0.324
-219.611	-85.216	-0.242	-0.075
-218.596	23.103	-0.302	0.245
-217.582	-69.661	-0.089	-0.034
-216.567	-95.312	0.063	0.017
-215.552	-142.803	0.233	0.022
-214.538	213.315	0.195	-0.304
-213.523	-71.444	-0.141	0.052
-212.509	-124.834	-0.211	0.032
-211.494	129.484	-0.235	0.298
-210.479	102.960	0.227	0.263
-209.465	800.000	-0.073	-0.225
-208.450	-51.795	0.167	0.077
-207.436	-37.638	0.257	0.135
-206.421	425.390	0.037	0.078
-205.406	-200.000	-0.037	-0.302
-204.392	-200.000	-0.007	-0.200
-203.377	-88.234	-0.398	0.118
-202.363	81.697	0.175	0.187
-201.348	-13.844	-0.321	-0.205
-200.333	-200.000	0.036	0.232
-199.319	241.742	0.072	0.119
-198.304	144.660	0.053	0.070
-197.290	-13.954	-0.041	-0.026
-196.275	-200.000	0.032	0.191
-195.260	-80.226	0.225	0.074
-194.246	56.321	-0.200	0.192
-193.231	-7.104	0.113	0.076
-192.217	-4.612	0.302	-0.206
-191.202	-129.114	0.035	-0.005
-190.187	-120.346	-0.374	0.063
-189.173	-96.927	-0.027	-0.007
-188.158	514.814	0.150	0.345
-187.144	178.559	0.024	0.035
-186.129	-58.018	0.196	0.085
-185.114	249.216	-0.190	-0.319
-184.100	-200.000	0.029	-0.194
-183.085	-200.000	-0.021	0.180
-182.071	-59.819	0.119	-0.050
-181.056	-129.595	-0.126	-0.017
-180.042	90.412	0.101	0.111
-179.027	800.000	0.056	-0.161
-178.012	71.181	-0.072	-0.074
-176.998	-200.000	-0.080	-0.372
-175.983	-81.684	0.319	-0.103
-174.969	-200.000	-0.026	-0.217
-173.954	40.854	-0.151	0.135
-172.939	-134.986	0.165	-0.020
-171.925	80.467	0.106	0.113
-170.910	-114.744	-0.315	0.059
-169.896	-128.944	-0.099	-0.014
-168.881	-57.274	-0.365	0.158
-167.866	65.596	-0.127	0.127
-166.852	-200.000	0.001	0.169
-165.837	11.369	-0.325	-0.246
-164.823	88.586	-0.119	-0.130
-163.808	-112.841	0.191	-0.037
-162.793	657.455	0.040	-0.101
-161.779	232.939	0.176	-0.285
-160.764	157.100	0.176	-0.241
-159.750	159.531	-0.090	0.123
-158.735	-76.746	0.150	0.052
-157.720	195.600	0.194	-0.292
-156.706	17.288	0.146	-0.114
-155.691	88.854	-0.167	-0.184
-154.677	7.561	-0.041	-0.031
-153.662	-119.208	-0.173	-0.030
-152.647	55.504	-0.097	-0.093
-151.633	-200.000	0.047	-0.232
-150.618	7.828	0.173	0.128
-149.604	-200.000	-0.029	-0.161
-148.589	800.000	-0.051	-0.153
-147.574	183.661	0.059	-0.086
-146.560	800.000	0.027	-0.111
-145.545	-61.721	0.155	-0.064
-144.531	-41.829	0.024	0.012
-143.516	-122.745	-0.248	0.040
-142.502	-200.000	0.012	0.418
-141.487	800.000	0.056	-0.215
-140.472	800.000	-0.065	0.230
-139.458	800.000	-0.056	0.171
-138.443	800.000	-0.065	0.186
-137.429	-61.533	-0.416	-0.173
-136.414	-56.761	0.388	-0.169
-135.399	400.529	-0.076	-0.158
-134.385	-71.712	0.276	-0.101
-133.370	-200.000	0.010	-0.097
-132.356	244.388	0.128	-0.212
-131.341	22.409	0.456	0.368
-130.326	-86.433	-0.082	-0.025
-129.312	27.144	0.344	0.285
-128.297	-75.083	-0.275	0.097
-127.283	-26.699	-0.054	-0.031
-126.268	-200.000	0.029	-0.172
-125.253	-38.354	0.254	0.132
-124.239	101.874	-0.270	-0.311
-123.224	-200.000	-0.015	-0.164
-122.210	800.000	0.098	0.313
