DTS Sentinel unit serial number:	SN413079Multiplexer serial number:	ORYXHardware model number:	OX4-SRSoftware version number:	ORYX F/W v4.00 Oryx Data Collector v3.7.2.0data status	okinstallation	princeton_trtdifferential loss correction	single-endedforward channel	channel 4reverse channel	N/Adate	2019/09/16time	00:01:34forward acquisition time	60.00reverse acquisition time	0.00gamma	496.2192k internal	0.2322k external	0.2322temperature offset calibration	0.9963default loss term (dB/km)	0.3790temperature slope calibration	1.0000multiplexer offset coefficient	1.0000multiplexer slope coefficient	1.0000fibre end	0.00T internal ref (°C)	27.83T ext. ref 1 (°C)	9.39T ext. ref 2 (°C)	21.81length (m)	temperature (°C)	Stokes	anti-Stokes-747.200	103.796	0.312	0.370
-746.185	-76.041	-0.268	-0.096
-745.171	800.000	-0.051	0.148
-744.156	53.728	0.099	0.096
-743.142	25.042	-0.280	0.234
-742.127	91.956	-0.053	0.060
-741.112	458.866	0.117	0.264
-740.098	-200.000	-0.029	0.185
-739.083	-200.000	0.053	0.434
-738.069	44.099	0.351	0.325
-737.054	-101.928	0.150	-0.037
-736.039	91.086	0.108	0.122
-735.025	-200.000	-0.001	-0.007
-734.010	-22.924	-0.220	-0.134
-732.996	201.720	-0.192	-0.298
-731.981	800.000	0.035	-0.113
-730.966	-172.001	0.310	-0.010
-729.952	23.919	0.143	0.119
-728.937	-77.927	-0.100	-0.035
-727.923	-200.000	0.010	-0.152
-726.908	185.219	0.223	-0.334
-725.894	75.760	0.176	-0.188
-724.879	-143.327	-0.306	0.030
-723.864	427.084	0.125	-0.273
-722.850	-14.346	0.196	-0.128
-721.835	233.019	0.081	-0.135
-720.821	800.000	0.146	-0.419
-719.806	-200.000	0.014	-0.283
-718.791	34.729	0.060	-0.053
-717.777	657.653	-0.115	-0.299
-716.762	-125.347	0.228	-0.035
-715.748	-127.400	-0.094	0.014
-714.733	-86.435	0.189	0.058
-713.718	712.935	-0.121	0.322
-712.704	2.632	0.286	-0.209
-711.689	362.488	-0.116	-0.235
-710.675	-145.911	-0.357	-0.032
-709.660	322.567	-0.101	-0.194
-708.645	231.971	0.051	-0.084
-707.631	-97.039	0.276	0.073
-706.616	800.000	0.056	0.247
-705.602	707.048	0.049	-0.131
-704.587	47.938	-0.106	0.100
-703.572	-88.597	0.224	-0.067
-702.558	-200.000	-0.003	-0.046
-701.543	60.911	-0.046	-0.046
-700.529	132.571	0.157	0.204
-699.514	-200.000	-0.018	-0.265
-698.499	-200.000	-0.041	0.243
-697.485	-200.000	0.021	0.128
-696.470	311.054	-0.211	0.398
-695.456	-74.261	-0.241	0.088
-694.441	-139.341	-0.061	0.007
-693.426	230.411	-0.119	0.195
-692.412	-6.556	0.123	-0.085
-691.397	-200.000	0.026	-0.225
-690.383	34.631	-0.181	-0.160
-689.368	13.240	-0.165	0.129
-688.354	800.000	-0.023	-0.092
-687.339	-29.472	-0.057	0.033
-686.324	234.315	-0.121	0.201
-685.310	286.531	-0.152	-0.277
-684.295	85.221	0.120	0.133
-683.281	105.926	-0.171	-0.204
-682.266	-136.298	-0.232	0.027
-681.251	-41.029	-0.324	0.169
-680.237	-52.256	-0.263	-0.123
-679.222	800.000	-0.040	-0.133
-678.208	-11.377	-0.100	0.067
-677.193	93.311	0.063	-0.072
-676.178	-5.783	0.135	0.093
-675.164	-164.366	-0.020	0.001
-674.149	170.603	0.050	0.073
-673.135	14.942	-0.374	-0.295
-672.120	5.556	0.091	0.067
-671.105	31.050	0.112	0.097
-670.091	459.474	-0.032	-0.071
-669.076	-96.809	-0.210	-0.056
-668.062	589.885	-0.113	0.280
-667.047	-189.173	-0.206	-0.002
-666.032	-78.561	0.442	-0.152
-665.018	183.965	0.151	-0.225
-664.003	800.000	-0.108	0.319
-662.989	-18.513	0.268	-0.168
-661.974	16.421	0.103	0.082
-660.959	69.909	0.088	0.091
-659.945	69.808	0.075	-0.078
-658.930	-200.000	0.025	-0.357
-657.916	-161.767	0.167	0.009
-656.901	-200.000	-0.049	-0.353
-655.886	93.081	-0.050	-0.057
-654.872	-141.751	-0.465	-0.047
-653.857	528.641	0.067	0.158
-652.843	273.060	0.120	-0.213
-651.828	-1.144	-0.125	0.089
-650.814	126.483	0.116	0.147
-649.799	-108.795	-0.299	0.064
-648.784	294.794	-0.171	-0.316
-647.770	-158.797	-0.264	0.015
-646.755	174.354	-0.144	0.210
-645.741	57.201	0.160	-0.157
-644.726	-85.237	0.025	0.008
-643.711	-88.695	-0.183	0.055
-642.697	800.000	0.040	0.128
-641.682	17.393	-0.080	0.064
-640.668	200.815	0.231	0.357
-639.653	-200.000	-0.028	0.164
-638.638	-90.460	-0.127	-0.037
-637.624	370.357	-0.083	-0.169
-636.609	-110.980	0.263	0.054
-635.595	-106.127	-0.187	-0.042
-634.580	-88.283	0.281	-0.085
-633.565	-42.715	0.318	-0.163
-632.551	643.166	0.052	-0.133
-631.536	297.048	0.057	-0.106
-630.522	-59.828	-0.141	-0.061
-629.507	31.257	0.122	0.105
-628.492	-12.133	0.100	0.066
-627.478	-200.000	0.017	-0.357
-626.463	-96.359	-0.263	-0.070
-625.449	-135.741	-0.394	0.047
-624.434	60.834	-0.111	0.110
-623.419	-84.941	0.202	0.064
-622.405	100.648	0.070	-0.082
-621.390	196.691	0.247	-0.378
-620.376	-41.594	-0.119	-0.061
-619.361	-20.693	0.119	0.073
-618.346	-200.000	0.010	-0.126
-617.332	-109.635	-0.367	-0.078
-616.317	-99.474	-0.036	0.009
-615.303	-144.531	0.257	-0.024
-614.288	800.000	0.026	0.089
-613.273	152.408	-0.175	-0.240
-612.259	-200.000	-0.002	-0.254
-611.244	-84.053	-0.076	-0.024
-610.230	175.515	-0.072	0.105
-609.215	-151.863	0.440	-0.032
-608.201	-114.578	-0.196	0.038
-607.186	-146.531	-0.228	-0.020
-606.171	-3.289	-0.280	-0.196
-605.157	-96.699	0.027	0.007
-604.142	800.000	-0.051	-0.166
-603.128	800.000	-0.075	-0.215
-602.113	95.085	-0.133	0.152
-601.098	202.492	-0.156	0.242
-600.084	205.166	-0.144	-0.224
-599.069	-73.958	-0.219	-0.080
-598.055	-130.006	0.245	0.034
-597.040	106.511	-0.127	-0.151
-596.025	-200.000	0.021	-0.335
-595.011	362.075	-0.216	-0.435
-593.996	90.668	-0.118	-0.132
-592.982	-97.500	0.046	-0.012
-591.967	-94.461	0.184	0.050
-590.952	-35.933	0.243	-0.132
-589.938	15.700	0.142	-0.112
-588.923	644.703	0.066	-0.170
-587.909	364.203	0.165	-0.334
-586.894	-103.058	-0.117	-0.028
-585.879	-200.000	-0.037	-0.215
-584.865	16.976	0.108	-0.086
-583.850	-200.000	0.034	-0.375
-582.836	167.870	-0.087	-0.124
-581.821	-101.498	0.206	0.050
-580.806	169.924	0.083	-0.118
-579.792	202.401	-0.071	0.110
-578.777	-200.000	-0.014	-0.124
-577.763	-200.000	-0.003	-0.062
-576.748	-103.373	0.089	-0.021
-575.733	232.922	0.030	-0.049
-574.719	63.421	0.098	-0.098
-573.704	2.196	-0.048	0.035
-572.690	92.219	-0.048	0.055
-571.675	127.776	-0.041	0.052
-570.661	-94.464	0.226	0.062
-569.646	64.127	-0.080	-0.081
-568.631	-5.114	-0.210	-0.145
-567.617	-53.478	0.123	0.057
-566.602	89.479	-0.022	-0.024
-565.588	-98.559	-0.153	0.039
-564.573	-45.549	-0.343	-0.170
-563.558	10.612	-0.191	0.146
-562.544	51.114	-0.032	-0.031
-561.529	-127.087	0.081	-0.012
-560.515	-23.405	-0.407	-0.245
-559.500	-107.859	-0.148	0.032
-558.485	800.000	0.047	0.152
-557.471	-98.088	-0.019	-0.005
-556.456	-66.770	-0.167	0.066
-555.442	-102.757	0.086	0.021
-554.427	426.122	-0.011	0.023
-553.412	110.255	0.145	-0.174
-552.398	8.207	0.311	-0.234
-551.383	636.837	-0.111	-0.284
-550.369	-200.000	0.022	0.123
-549.354	-169.256	-0.223	-0.008
-548.339	-89.867	-0.184	0.054
-547.325	110.105	-0.118	-0.142
-546.310	370.293	-0.180	0.365
-545.296	-92.894	-0.285	-0.080
-544.281	15.778	-0.245	-0.193
-543.266	-75.028	0.069	-0.025
-542.252	-14.495	-0.149	0.096
-541.237	-200.000	-0.045	-0.234
-540.223	242.353	0.099	0.167
-539.208	-200.000	0.027	0.141
-538.193	-200.000	0.054	-0.293
-537.179	199.526	0.208	-0.320
-536.164	-98.041	-0.177	-0.046
-535.150	-0.258	-0.093	-0.066
-534.135	455.668	-0.151	0.336
-533.121	97.512	-0.043	-0.050
-532.106	37.141	-0.412	-0.366
-531.091	-13.024	-0.346	-0.226
-530.077	-200.000	0.007	0.186
-529.062	-200.000	0.037	-0.177
-528.048	800.000	0.047	-0.183
-527.033	800.000	-0.094	-0.273
-526.018	-115.858	-0.247	0.046
-525.004	245.906	-0.118	0.199
-523.989	487.808	0.135	-0.308
-522.975	-124.134	0.215	0.034
-521.960	-169.286	-0.171	0.006
-520.945	-65.424	0.033	0.013
-519.931	-114.312	0.050	0.010
-518.916	-200.000	-0.034	0.227
-517.902	-61.895	0.177	-0.074
-516.887	-178.810	0.076	-0.002
-515.872	214.921	0.120	0.191
-514.858	-19.380	0.368	0.228
-513.843	17.200	-0.206	-0.163
-512.829	-61.148	-0.191	0.081
-511.814	51.512	0.229	0.218
-510.799	-200.000	-0.055	-0.254
-509.785	423.196	-0.078	-0.168
-508.770	-84.586	-0.283	-0.089
-507.756	242.704	-0.071	0.118
-506.741	800.000	-0.086	0.240
-505.726	201.755	-0.003	-0.005
-504.712	-4.026	-0.135	0.094
-503.697	26.437	-0.145	0.121
-502.683	229.057	0.193	-0.315
-501.668	474.268	-0.124	-0.280
-500.653	586.740	-0.097	0.239
-499.639	-176.123	0.182	-0.005
-498.624	-175.547	-0.127	0.003
-497.610	-54.611	-0.038	-0.017
-496.595	-50.403	0.134	0.063
-495.581	-200.000	0.005	0.046
-494.566	65.620	-0.115	-0.116
-493.551	-106.672	0.232	0.052
-492.537	93.742	-0.175	0.199
-491.522	-200.000	0.005	0.328
-490.508	-200.000	-0.007	-0.298
-489.493	95.261	-0.108	-0.123
-488.478	40.409	0.312	-0.281
-487.464	800.000	0.056	-0.218
-486.449	17.815	-0.404	-0.322
-485.435	357.834	0.093	-0.185
-484.420	-53.225	0.045	0.021
-483.405	57.070	0.162	0.158
-482.391	-7.650	-0.086	0.058
-481.376	-18.632	-0.195	0.121
-480.362	169.841	0.117	-0.167
-479.347	-116.159	-0.246	0.046
-478.332	17.509	0.076	0.060
-477.318	-200.000	0.028	0.431
-476.303	524.307	0.202	0.475
-475.289	152.600	-0.049	0.067
-474.274	54.592	0.070	0.067
-473.259	-9.026	-0.182	0.122
-472.245	-12.339	0.259	-0.169
-471.230	-200.000	0.013	0.176
-470.216	-200.000	0.223	0.000
-469.201	412.946	-0.037	0.078
-468.186	-93.809	-0.082	0.023
-467.172	-56.094	0.233	-0.104
-466.157	-9.724	0.180	0.120
-465.143	-2.111	-0.262	0.184
-464.128	-200.000	0.024	0.206
-463.113	228.143	-0.150	-0.243
-462.099	-25.052	0.070	-0.042
-461.084	-139.262	-0.363	-0.039
-460.070	722.169	0.042	-0.113
-459.055	-171.265	0.254	0.009
-458.040	-200.000	0.054	0.295
-457.026	-9.711	-0.238	0.159
-456.011	-86.232	-0.109	-0.034
-454.997	-200.000	-0.002	0.043
-453.982	-127.475	-0.487	-0.071
-452.968	5.478	-0.303	-0.224
-451.953	-200.000	-0.038	0.213
-450.938	148.144	-0.086	-0.115
-449.924	-67.285	-0.466	-0.183
-448.909	-42.978	0.135	0.069
-447.895	652.723	0.133	0.340
-446.880	-72.170	0.110	0.041
-445.865	-7.228	0.092	0.062
-444.851	-87.726	-0.041	-0.012
-443.836	131.813	0.127	0.163
-442.822	232.265	0.110	-0.180
-441.807	267.106	-0.073	0.127
-440.792	91.038	-0.256	-0.286
-439.778	-103.355	-0.053	-0.012
-438.763	-94.256	-0.093	0.025
-437.749	-38.643	0.052	-0.027
-436.734	800.000	0.156	0.548
-435.719	187.055	-0.191	0.284
-434.705	-107.844	0.032	-0.007
-433.690	20.539	-0.125	-0.101
-432.676	94.226	-0.140	0.159
-431.661	-200.000	0.026	0.210
-430.646	-120.119	0.484	0.083
-429.632	-55.632	0.062	0.028
-428.617	800.000	-0.039	0.166
-427.603	68.158	0.192	0.196
-426.588	143.180	-0.082	0.109
-425.573	79.626	0.069	-0.074
-424.559	106.779	0.049	0.058
-423.544	-68.083	0.243	0.094
-422.530	-200.000	-0.013	-0.234
-421.515	162.395	0.039	0.054
-420.500	216.791	0.038	0.061
-419.486	-109.560	0.145	0.031
-418.471	-130.569	0.185	-0.025
-417.457	183.938	0.063	0.093
-416.442	-127.092	0.197	0.029
-415.428	67.627	0.039	0.039
-414.413	-141.797	0.311	-0.031
-413.398	12.767	-0.215	-0.166
-412.384	70.672	-0.142	-0.147
-411.369	-89.297	-0.435	0.128
-410.355	800.000	-0.092	0.355
-409.340	-27.318	-0.193	0.112
-408.325	-127.169	0.144	-0.021
-407.311	800.000	-0.087	-0.259
-406.296	-69.175	0.174	-0.067
-405.282	31.987	0.246	-0.211
-404.267	800.000	0.024	-0.081
-403.252	-20.870	-0.217	0.133
-402.238	104.571	0.175	-0.205
-401.223	800.000	0.004	-0.012
-400.209	419.377	-0.083	0.178
-399.194	-92.891	0.247	0.069
-398.179	358.498	0.055	0.109
-397.165	-183.344	-0.176	-0.003
-396.150	210.970	0.144	-0.226
-395.136	290.482	-0.081	0.147
-394.121	14.551	-0.173	0.134
-393.106	-200.000	0.048	0.251
-392.092	-83.463	0.236	-0.075
-391.077	800.000	-0.106	-0.324
-390.063	319.294	0.153	0.289
-389.048	277.914	-0.152	-0.270
-388.033	800.000	-0.069	0.231
-387.019	-113.753	-0.004	0.001
-386.004	-35.669	0.130	0.070
-384.990	598.371	-0.113	-0.280
-383.975	-69.537	-0.098	-0.037
-382.960	-40.998	0.227	0.117
-381.946	-96.393	-0.209	0.055
-380.931	6.357	-0.358	0.264
-379.917	77.318	-0.090	0.095
-378.902	800.000	-0.016	0.069
-377.888	32.707	-0.367	0.316
-376.873	800.000	-0.147	-0.411
-375.858	166.597	0.148	-0.209
-374.844	800.000	0.027	-0.091
-373.829	-46.074	0.156	0.076
-372.815	800.000	0.041	0.168
-371.800	203.465	0.129	-0.198
-370.785	800.000	-0.069	0.264
-369.771	-134.212	-0.092	-0.011
-368.756	-91.205	0.240	0.068
-367.742	21.564	0.290	0.234
-366.727	-93.253	-0.187	0.052
-365.712	-200.000	0.068	-0.411
-364.698	169.679	0.115	0.163
-363.683	-23.832	0.167	0.100
-362.669	189.665	0.164	0.245
-361.654	71.570	-0.056	0.058
-360.639	-57.813	0.203	0.089
-359.625	-88.030	0.025	0.007
-358.610	-200.000	-0.017	-0.077
-357.596	1.179	0.029	0.021
-356.581	21.563	0.343	-0.278
-355.566	692.858	0.191	0.499
-354.552	800.000	0.113	0.358
-353.537	296.608	0.099	-0.180
-352.523	179.658	0.186	-0.271
-351.508	152.727	0.114	-0.155
-350.493	28.302	0.360	0.303
-349.479	-89.086	-0.140	0.041
-348.464	68.514	-0.083	-0.085
-347.450	-92.219	0.125	0.035
-346.435	-34.688	-0.161	0.087
-345.420	76.644	-0.040	0.042
-344.406	249.286	-0.145	0.245
-343.391	521.270	-0.096	-0.224
-342.377	-86.810	-0.257	-0.078
-341.362	800.000	-0.065	0.224
-340.348	167.518	0.148	0.209
-339.333	59.750	-0.058	0.057
-338.318	-200.000	-0.013	0.061
-337.304	-79.794	0.119	-0.040
-336.289	134.480	0.125	0.161
-335.275	-200.000	0.015	-0.106
-334.260	800.000	0.025	0.098
-333.245	-200.000	0.025	0.301
-332.231	-200.000	0.113	0.596
-331.216	-137.677	-0.066	-0.007
-330.202	348.064	-0.030	-0.060
-329.187	-106.422	-0.035	-0.008
-328.172	128.004	0.088	0.111
-327.158	143.549	0.031	-0.041
-326.143	-20.433	-0.153	-0.094
-325.129	494.543	0.065	0.148
-324.114	113.165	0.028	0.034
-323.099	-59.008	0.233	0.100
-322.085	86.583	-0.196	-0.215
-321.070	-90.764	0.187	-0.054
-320.056	-24.697	0.335	-0.198
-319.041	-124.823	0.111	0.017
-318.026	800.000	0.118	-0.409
-317.012	-52.871	0.241	0.110
-315.997	1.283	-0.160	-0.114
-314.983	-130.004	-0.284	-0.039
-313.968	-200.000	-0.004	0.345
-312.953	-114.821	-0.175	-0.033
-311.939	-200.000	-0.002	0.146
-310.924	-200.000	-0.006	-0.198
-309.910	218.738	-0.129	0.205
-308.895	-200.000	0.057	0.462
-307.880	96.115	0.136	0.154
-306.866	-200.000	-0.011	-0.357
-305.851	-45.845	-0.121	0.059
-304.837	-125.775	-0.180	0.027
-303.822	-13.290	0.167	-0.108
-302.807	-200.000	0.009	0.050
-301.793	800.000	0.066	0.216
-300.778	800.000	-0.038	-0.130
-299.764	-200.000	0.045	-0.396
-298.749	327.425	-0.149	-0.283
-297.735	-156.047	-0.284	0.018
-296.720	93.989	-0.140	0.158
-295.705	66.062	0.066	-0.067
-294.691	800.000	-0.011	-0.041
-293.676	5.302	0.196	-0.143
-292.662	-200.000	-0.010	0.182
-291.647	-132.002	-0.088	0.011
-290.632	-200.000	0.041	-0.182
-289.618	-157.399	0.095	0.006
-288.603	-200.000	-0.011	0.162
-287.589	800.000	-0.104	0.357
-286.574	-37.501	-0.322	0.170
-285.559	800.000	0.076	0.310
-284.545	-83.051	-0.126	0.040
-283.530	-200.000	0.043	0.300
-282.516	641.398	0.120	0.303
-281.501	-60.427	0.181	0.076
-280.486	-137.184	0.160	0.018
-279.472	495.101	-0.022	-0.050
-278.457	-200.000	-0.002	-0.130
-277.443	31.936	0.324	0.277
-276.428	800.000	0.075	-0.284
-275.413	-128.009	0.386	-0.055
-274.399	31.398	0.182	-0.155
-273.384	-200.000	-0.006	-0.194
-272.370	-200.000	0.003	-0.151
-271.355	-59.465	-0.094	0.040
-270.340	-200.000	0.010	0.131
-269.326	800.000	0.028	-0.081
-268.311	-93.720	-0.055	0.015
-267.297	98.082	0.193	-0.221
-266.282	194.621	-0.027	0.041
-265.267	-18.935	0.253	0.156
-264.253	468.165	0.082	-0.181
-263.238	392.503	-0.057	-0.118
-262.224	-131.080	0.180	-0.024
-261.209	-157.278	-0.389	0.023
-260.195	800.000	-0.062	-0.193
-259.180	800.000	-0.091	-0.307
-258.165	325.172	0.150	-0.285
-257.151	100.057	-0.220	0.252
-256.136	602.967	0.071	0.176
-255.122	-96.751	0.209	0.054
-254.107	-8.985	-0.241	0.160
-253.092	-14.499	-0.154	0.098
-252.078	68.166	-0.109	0.111
-251.063	399.996	0.124	-0.258
-250.049	41.534	-0.112	-0.100
-249.034	-151.944	-0.321	-0.023
-248.019	-91.627	-0.188	-0.053
-247.005	504.874	-0.145	-0.333
-245.990	-54.174	-0.200	-0.090
-244.976	-185.492	0.232	-0.004
-243.961	-60.367	-0.309	-0.130
-242.946	-200.000	-0.008	0.266
-241.932	-70.891	0.076	0.029
-240.917	186.136	0.246	-0.362
-239.903	-200.000	-0.011	0.056
-238.888	-112.451	0.178	0.035
-237.873	-28.354	0.011	0.006
-236.859	-112.213	0.329	0.065
-235.844	156.403	0.019	-0.026
-234.830	800.000	-0.037	0.153
-233.815	-200.000	0.059	0.312
-232.800	-200.000	-0.054	-0.360
-231.786	-200.000	0.001	0.120
-230.771	43.950	0.042	0.038
-229.757	730.727	0.028	0.074
-228.742	259.784	0.064	0.110
-227.727	100.200	-0.031	0.035
-226.713	-62.291	0.134	-0.055
-225.698	800.000	-0.065	0.273
-224.684	-200.000	0.055	-0.284
-223.669	115.786	0.026	-0.032
-222.655	-95.244	0.080	0.021
-221.640	423.221	0.060	0.128
-220.625	-33.655	-0.134	0.073
-219.611	-36.234	-0.491	-0.262
-218.596	-200.000	0.105	-0.599
-217.582	-187.612	0.072	-0.001
-216.567	-28.486	0.072	-0.041
-215.552	33.037	-0.150	-0.129
-214.538	-200.000	-0.039	0.168
-213.523	-128.577	0.654	0.092
-212.509	-2.684	-0.151	0.105
-211.494	-41.620	-0.131	-0.067
-210.479	768.475	0.138	0.370
-209.465	9.278	-0.151	-0.113
-208.450	-46.468	-0.303	-0.147
-207.436	522.085	0.130	-0.302
-206.421	800.000	-0.111	0.475
-205.406	533.860	0.103	-0.242
-204.392	204.346	-0.023	0.035
-203.377	11.277	0.158	0.120
-202.363	-137.330	0.492	-0.055
-201.348	-200.000	0.065	-0.318
-200.333	-200.000	0.003	-0.073
-199.319	800.000	-0.041	-0.175
-198.304	-200.000	0.044	-0.202
-197.290	-163.284	0.173	-0.008
-196.275	-93.219	0.238	0.065
-195.260	-200.000	-0.042	0.482
-194.246	-16.047	-0.117	-0.074
-193.231	-90.323	0.359	0.103
-192.217	-200.000	0.003	0.091
-191.202	-200.000	0.005	-0.064
-190.187	221.406	0.095	-0.151
-189.173	-200.000	0.004	0.312
-188.158	-126.731	-0.103	0.015
-187.144	655.178	0.083	0.210
-186.129	-192.871	-0.210	-0.002
-185.114	-200.000	0.038	0.242
-184.100	118.215	0.114	-0.139
-183.085	105.984	0.109	0.127
-182.071	1.842	0.071	0.051
-181.056	-64.245	0.113	-0.045
-180.042	-175.770	-0.071	-0.002
-179.027	106.985	0.195	0.229
-178.012	-200.000	0.042	-0.342
-176.998	-151.575	-0.305	-0.022
-175.983	405.473	0.013	0.027
-174.969	-106.257	0.086	0.019
-173.954	-200.000	0.031	0.357
-172.939	96.510	0.080	0.091
-171.925	-170.054	-0.056	0.002
-170.910	-76.232	0.222	-0.077
-169.896	138.868	-0.246	0.320
-168.881	-76.745	0.244	-0.084
-167.866	-200.000	0.013	0.175
-166.852	-94.042	0.334	0.091
-165.837	2.639	-0.125	0.089
-164.823	-114.327	-0.134	-0.025
-163.808	-200.000	-0.044	-0.297
-162.793	-200.000	-0.020	-0.194
-161.779	-200.000	-0.038	0.270
-160.764	-74.644	0.248	0.088
-159.750	-149.857	-0.058	0.004
-158.735	-87.663	-0.288	0.086
-157.720	22.472	-0.065	-0.053
-156.706	74.135	0.500	0.518
-155.691	-114.018	0.061	0.012
-154.677	-41.629	0.059	-0.030
-153.662	-200.000	-0.023	-0.124
-152.647	506.323	0.127	-0.291
-151.633	452.780	-0.089	-0.194
-150.618	-153.532	-0.335	-0.023
-149.604	401.619	0.050	0.103
-148.589	125.787	0.211	0.263
-147.574	28.955	0.154	-0.129
-146.560	-200.000	0.003	0.165
-145.545	232.056	0.078	-0.127
-144.531	-81.802	0.132	-0.043
-143.516	-200.000	0.003	0.150
-142.502	196.662	-0.267	0.401
-141.487	-21.277	0.216	0.130
-140.472	41.010	0.180	-0.160
-139.458	-200.000	-0.028	-0.378
-138.443	-100.721	0.117	-0.028
-137.429	800.000	-0.075	-0.232
-136.414	800.000	-0.092	-0.254
-135.399	-200.000	-0.023	0.554
-134.385	150.505	0.283	-0.380
-133.370	25.507	0.133	0.109
-132.356	197.599	-0.128	0.193
-131.341	-200.000	-0.008	0.060
-130.326	-97.139	-0.252	-0.065
-129.312	-133.675	0.564	-0.069
-128.297	118.391	-0.149	0.181
-127.283	-200.000	0.070	-0.355
-126.268	230.169	0.014	0.022
-125.253	593.274	0.190	0.463
-124.239	800.000	-0.064	0.187
-123.224	42.577	-0.219	-0.197
-122.210	-76.961	-0.171	-0.059
-121.195	-31.232	0.270	-0.150
-120.180	800.000	-0.021	-0.088
