DTS Sentinel unit serial number:	SN413079Multiplexer serial number:	ORYXHardware model number:	OX4-SRSoftware version number:	ORYX F/W v4.00 Oryx Data Collector v3.7.2.0data status	okinstallation	princeton_trtdifferential loss correction	single-endedforward channel	channel 4reverse channel	N/Adate	2019/09/19time	11:17:35forward acquisition time	60.00reverse acquisition time	0.00gamma	496.2192k internal	0.2327k external	0.2327temperature offset calibration	1.0018default loss term (dB/km)	0.3790temperature slope calibration	1.0000multiplexer offset coefficient	1.0000multiplexer slope coefficient	1.0000fibre end	0.00T internal ref (°C)	25.19T ext. ref 1 (°C)	0.78T ext. ref 2 (°C)	20.83length (m)	temperature (°C)	Stokes	anti-Stokes-747.200	-48.277	-0.119	-0.058
-746.185	116.707	-0.127	0.158
-745.171	234.164	-0.217	-0.360
-744.156	-13.445	-0.221	0.144
-743.142	437.164	-0.126	-0.278
-742.127	747.161	-0.056	-0.153
-741.112	-130.534	-0.208	-0.028
-740.098	-200.000	0.001	0.070
-739.083	170.414	0.094	0.136
-738.069	371.665	0.091	0.186
-737.054	-45.107	0.330	-0.165
-736.039	16.455	-0.261	-0.208
-735.025	64.136	-0.045	-0.046
-734.010	-62.569	0.237	0.099
-732.996	75.837	-0.326	0.348
-731.981	800.000	-0.094	-0.303
-730.966	800.000	-0.034	0.144
-729.952	94.997	0.089	-0.102
-728.937	-48.846	-0.264	0.128
-727.923	-79.801	0.045	-0.015
-726.908	112.004	-0.038	-0.047
-725.894	800.000	0.038	0.108
-724.879	-200.000	0.026	0.482
-723.864	-200.000	0.038	-0.194
-722.850	-107.256	-0.290	0.064
-721.835	-96.016	-0.171	0.046
-720.821	-92.055	-0.083	-0.024
-719.806	68.410	0.028	-0.029
-718.791	68.328	-0.037	0.038
-717.777	-6.355	0.328	-0.226
-716.762	397.471	-0.224	-0.472
-715.748	-200.000	-0.026	-0.296
-714.733	-200.000	-0.015	-0.107
-713.718	21.151	-0.153	0.125
-712.704	165.807	0.008	0.012
-711.689	800.000	0.043	-0.148
-710.675	-27.681	-0.406	0.237
-709.660	-102.637	0.406	-0.097
-708.645	-200.000	-0.031	0.238
-707.631	-59.486	0.345	0.149
-706.616	-116.941	-0.125	-0.023
-705.602	18.246	-0.414	-0.333
-704.587	14.943	-0.238	0.188
-703.572	125.270	-0.193	-0.245
-702.558	-185.764	0.361	-0.005
-701.543	-44.849	0.028	-0.014
-700.529	800.000	-0.003	-0.010
-699.514	146.006	0.231	0.312
-698.499	47.043	0.256	-0.239
-697.485	-30.819	-0.144	-0.082
-696.470	-145.322	0.107	-0.010
-695.456	68.534	-0.135	-0.140
-694.441	800.000	0.025	0.105
-693.426	-20.317	0.103	-0.064
-692.412	283.031	-0.275	0.498
-691.397	-164.458	0.464	-0.021
-690.383	-200.000	-0.006	-0.059
-689.368	97.406	0.085	0.098
-688.354	26.696	0.156	0.131
-687.339	-111.542	0.102	-0.021
-686.324	-82.806	0.179	0.058
-685.310	29.444	-0.295	-0.253
-684.295	290.738	0.108	-0.197
-683.281	-125.781	-0.327	0.050
-682.266	-71.454	0.108	-0.041
-681.251	12.213	-0.158	0.123
-680.237	159.261	-0.071	-0.100
-679.222	512.164	-0.033	0.077
-678.208	126.754	-0.174	-0.221
-677.193	361.043	-0.045	0.090
-676.178	281.831	0.050	-0.090
-675.164	-104.527	-0.368	-0.085
-674.149	-200.000	0.029	0.333
-673.135	-109.987	-0.474	0.100
-672.120	-75.086	-0.314	0.113
-671.105	87.899	-0.092	0.102
-670.091	-28.957	0.350	-0.202
-669.076	-7.787	-0.106	0.072
-668.062	-92.639	0.023	0.006
-667.047	17.101	0.177	-0.141
-666.032	-117.767	-0.195	-0.035
-665.018	570.027	-0.086	-0.211
-664.003	800.000	-0.048	-0.162
-662.989	193.980	-0.106	-0.162
-661.974	-200.000	0.005	0.110
-660.959	-200.000	0.012	0.074
-659.945	3.618	0.277	0.203
-658.930	-200.000	0.052	0.285
-657.916	-200.000	0.044	-0.307
-656.901	-200.000	0.005	-0.063
-655.886	-34.960	-0.469	0.257
-654.872	-200.000	-0.001	-0.251
-653.857	231.967	-0.085	-0.140
-652.843	-90.942	-0.306	0.088
-651.828	-200.000	0.026	0.286
-650.814	46.290	-0.086	0.080
-649.799	800.000	-0.051	-0.157
-648.784	-80.904	-0.317	0.106
-647.770	-83.076	0.148	-0.048
-646.755	-133.100	0.214	-0.027
-645.741	389.790	0.090	0.188
-644.726	-200.000	-0.008	-0.254
-643.711	-191.879	-0.307	0.003
-642.697	-200.000	-0.034	-0.305
-641.682	-140.717	0.157	-0.016
-640.668	-200.000	-0.014	0.098
-639.653	401.417	0.162	-0.341
-638.638	-117.523	0.009	-0.002
-637.624	-152.093	0.366	0.027
-636.609	161.911	0.082	-0.115
-635.595	580.140	-0.024	-0.060
-634.580	-173.418	-0.076	-0.002
-633.565	-54.721	-0.276	0.125
-632.551	-20.447	0.288	0.177
-631.536	451.469	0.126	0.279
-630.522	-54.275	0.151	-0.069
-629.507	78.745	-0.270	-0.290
-628.492	270.584	-0.070	-0.123
-627.478	519.801	-0.041	0.097
-626.463	96.699	0.116	-0.133
-625.449	177.926	-0.084	0.124
-624.434	-200.000	0.013	0.232
-623.419	-56.372	-0.335	0.149
-622.405	800.000	0.057	0.179
-621.390	34.082	0.181	0.158
-620.376	0.989	-0.464	-0.334
-619.361	324.994	-0.123	-0.235
-618.346	67.285	-0.191	-0.196
-617.332	88.485	-0.123	0.137
-616.317	70.526	-0.234	-0.243
-615.303	-39.066	-0.382	-0.202
-614.288	-200.000	-0.013	-0.340
-613.273	800.000	-0.065	0.202
-612.259	296.742	0.114	0.209
-611.244	-200.000	-0.005	-0.538
-610.230	165.168	-0.062	0.088
-609.215	97.080	-0.072	0.083
-608.201	-6.860	0.223	0.152
-607.186	800.000	-0.030	0.089
-606.171	-95.636	0.118	0.032
-605.157	88.948	0.074	-0.083
-604.142	800.000	-0.096	-0.317
-603.128	3.501	-0.179	-0.131
-602.113	-200.000	-0.020	-0.202
-601.098	-200.000	-0.021	-0.402
-600.084	-200.000	0.001	-0.229
-599.069	-200.000	0.074	-0.337
-598.055	-67.947	0.089	-0.035
-597.040	800.000	0.030	-0.094
-596.025	-150.339	-0.390	0.030
-595.011	-116.442	0.086	0.016
-593.996	-200.000	0.008	-0.053
-592.982	158.148	0.056	0.078
-591.967	-200.000	-0.025	-0.354
-590.952	50.969	0.184	-0.175
-589.938	-34.258	0.008	0.004
-588.923	88.157	-0.045	0.050
-587.909	255.926	0.133	0.228
-586.894	-26.329	-0.240	-0.141
-585.879	-88.766	-0.332	-0.099
-584.865	286.144	0.050	0.091
-583.850	-70.800	0.280	-0.106
-582.836	731.275	0.023	0.061
-581.821	800.000	0.071	0.273
-580.806	800.000	-0.116	0.385
-579.792	36.637	0.083	0.073
-578.777	-106.456	0.212	0.047
-577.763	17.090	-0.186	0.148
-576.748	116.633	-0.130	0.160
-575.733	-91.124	0.208	-0.060
-574.719	-198.090	-0.143	-0.001
-573.704	34.610	0.229	-0.201
-572.690	-200.000	0.034	-0.237
-571.675	749.965	0.051	0.139
-570.661	202.948	-0.126	0.195
-569.646	-200.000	0.020	0.193
-568.631	209.351	-0.196	0.308
-567.617	-200.000	-0.033	0.174
-566.602	296.357	-0.142	-0.260
-565.588	-200.000	-0.035	0.158
-564.573	-105.765	0.329	0.074
-563.558	14.277	-0.255	0.199
-562.544	800.000	0.011	-0.048
-561.529	115.871	0.090	-0.110
-560.515	-114.746	0.424	0.081
-559.500	-127.417	0.188	-0.027
-558.485	-200.000	0.029	-0.136
-557.471	-140.009	-0.175	0.018
-556.456	300.113	0.229	0.423
-555.442	104.451	0.073	-0.086
-554.427	-200.000	0.008	-0.181
-553.412	-102.519	-0.184	-0.044
-552.398	-150.069	0.456	0.035
-551.383	199.653	0.207	0.318
-550.369	555.273	-0.103	-0.249
-549.354	-39.891	-0.137	0.071
-548.339	-200.000	0.021	0.359
-547.325	-95.728	0.042	0.011
-546.310	332.236	-0.043	-0.083
-545.296	-32.351	0.231	-0.129
-544.281	88.507	-0.135	-0.150
-543.266	-62.583	0.246	-0.102
-542.252	-5.239	-0.245	-0.169
-541.237	243.910	0.079	0.132
-540.223	800.000	-0.125	0.530
-539.208	800.000	-0.078	0.216
-538.193	-133.198	-0.029	0.004
-537.179	-80.320	0.068	-0.023
-536.164	87.337	-0.077	0.085
-535.150	-200.000	-0.001	0.043
-534.135	-25.227	-0.371	-0.220
-533.121	-46.345	-0.205	0.101
-532.106	-147.119	0.124	0.011
-531.091	154.202	0.204	-0.281
-530.077	-200.000	-0.014	-0.061
-529.062	123.039	0.156	-0.196
-528.048	-200.000	-0.010	-0.074
-527.033	83.275	-0.242	0.264
-526.018	-93.713	0.051	0.014
-525.004	-16.931	-0.042	-0.027
-523.989	362.246	0.084	-0.168
-522.975	666.160	-0.067	0.173
-521.960	139.660	0.183	0.242
-520.945	-17.304	-0.131	-0.082
-519.931	23.590	0.063	0.052
-518.916	68.976	-0.040	-0.041
-517.902	-91.864	0.161	-0.046
-516.887	130.565	0.129	0.165
-515.872	-192.865	-0.093	-0.001
-514.858	8.038	-0.262	-0.196
-513.843	-1.418	-0.123	0.086
-512.829	126.665	-0.103	-0.131
-511.814	-23.767	-0.137	-0.082
-510.799	321.706	0.052	-0.098
-509.785	-82.268	-0.167	-0.054
-508.770	377.373	0.184	-0.376
-507.756	800.000	-0.121	-0.368
-506.741	433.931	0.091	-0.198
-505.726	40.108	0.205	-0.184
-504.712	-200.000	-0.021	-0.175
-503.697	320.059	0.077	0.146
-502.683	-50.597	-0.239	-0.112
-501.668	-200.000	-0.016	-0.165
-500.653	-64.795	0.143	-0.058
-499.639	-200.000	0.008	-0.249
-498.624	75.416	0.135	-0.142
-497.610	-103.425	-0.361	0.085
-496.595	-200.000	0.003	-0.188
-495.581	359.191	0.039	0.079
-494.566	-90.954	0.266	0.076
-493.551	800.000	0.023	0.065
-492.537	-22.413	-0.217	0.131
-491.522	-37.869	0.110	0.059
-490.508	800.000	0.100	0.332
-489.493	159.745	-0.096	-0.134
-488.478	800.000	0.131	0.370
-487.464	-182.654	0.100	0.002
-486.449	-119.220	0.200	-0.035
-485.435	75.466	-0.141	0.149
-484.420	-200.000	0.037	0.378
-483.405	800.000	0.037	0.136
-482.391	773.550	-0.070	0.191
-481.376	-1.132	0.229	-0.161
-480.362	90.253	0.205	0.229
-479.347	130.118	-0.049	-0.062
-478.332	-200.000	-0.057	-0.293
-477.318	-24.272	-0.175	0.104
-476.303	27.018	0.057	0.047
-475.289	-3.437	0.257	0.179
-474.274	625.981	-0.124	-0.312
-473.259	-46.661	-0.317	-0.155
-472.245	-69.478	0.239	-0.091
-471.230	280.388	0.071	-0.127
-470.216	-200.000	-0.034	0.196
-469.201	-127.797	0.322	-0.046
-468.186	-124.312	-0.023	0.004
-467.172	-200.000	-0.027	-0.313
-466.157	-121.219	0.057	-0.010
-465.143	800.000	-0.043	0.187
-464.128	-4.581	0.362	-0.250
-463.113	13.751	-0.296	-0.230
-462.099	56.429	0.150	-0.146
-461.084	-200.000	-0.010	0.100
-460.070	-81.397	-0.261	-0.086
-459.055	-90.821	0.140	0.040
-458.040	-200.000	-0.071	-0.336
-457.026	341.700	0.107	-0.208
-456.011	-200.000	-0.013	-0.234
-454.997	-33.744	0.080	0.044
-453.982	-200.000	-0.004	0.130
-452.968	-200.000	-0.010	0.165
-451.953	-43.487	-0.281	-0.141
-450.938	-200.000	-0.027	0.131
-449.924	-24.517	0.045	0.027
-448.909	-106.472	0.190	-0.042
-447.895	-117.625	-0.253	-0.045
-446.880	9.479	0.063	-0.048
-445.865	-54.171	-0.587	0.266
-444.851	-87.814	0.446	-0.134
-443.836	-6.067	-0.199	0.136
-442.822	24.577	0.112	-0.092
-441.807	-120.004	0.148	0.025
-440.792	762.558	-0.043	0.116
-439.778	-43.762	-0.294	0.148
-438.763	97.977	-0.019	-0.021
-437.749	145.755	-0.056	-0.075
-436.734	800.000	0.094	-0.391
-435.719	-128.333	-0.298	-0.042
-434.705	464.699	-0.088	0.197
-433.690	35.891	0.107	0.094
-432.676	119.673	-0.024	0.030
-431.661	177.931	0.092	0.134
-430.646	52.595	-0.195	0.185
-429.632	21.486	-0.150	0.121
-428.617	89.122	-0.227	-0.252
-427.603	17.019	0.110	-0.087
-426.588	-140.911	-0.231	0.024
-425.573	50.596	-0.092	-0.087
-424.559	217.748	-0.196	0.312
-423.544	-133.306	0.121	0.015
-422.530	438.626	0.146	0.317
-421.515	-200.000	0.072	0.483
-420.500	-200.000	0.019	-0.169
-419.486	-13.695	0.507	-0.326
-418.471	-43.494	0.191	0.096
-417.457	800.000	0.044	-0.135
-416.442	-200.000	-0.002	-0.332
-415.428	-200.000	0.034	-0.186
-414.413	405.006	0.119	0.250
-413.398	800.000	0.048	0.166
-412.384	409.844	0.044	0.092
-411.369	-200.000	-0.002	-0.030
-410.355	0.113	0.168	-0.119
-409.340	-151.241	0.228	0.017
-408.325	208.811	0.092	-0.144
-407.311	-67.938	-0.062	0.024
-406.296	-114.482	-0.106	0.020
-405.282	-21.786	0.372	0.226
-404.267	-87.773	-0.195	0.059
-403.252	-12.521	0.196	-0.127
-402.238	-200.000	0.050	-0.262
-401.223	-200.000	-0.008	-0.081
-400.209	-54.531	-0.118	-0.053
-399.194	55.512	-0.100	-0.096
-398.179	-154.232	-0.168	0.011
-397.165	-200.000	-0.032	0.275
-396.150	48.013	0.217	-0.202
-395.136	-200.000	0.031	0.173
-394.121	-43.344	-0.337	0.170
-393.106	15.698	-0.117	-0.092
-392.092	-20.988	0.272	-0.166
-391.077	374.807	0.127	0.257
-390.063	21.635	-0.397	0.321
-389.048	108.700	0.132	0.157
-388.033	-135.577	0.260	0.031
-387.019	-33.307	-0.219	-0.121
-386.004	-200.000	0.012	-0.322
-384.990	-200.000	0.010	0.352
-383.975	-153.395	-0.333	0.023
-382.960	-200.000	-0.021	0.285
-381.946	-109.637	-0.119	-0.025
-380.931	636.760	-0.059	0.149
-379.917	-127.788	0.184	0.026
-378.902	30.520	0.165	0.140
-377.888	-200.000	0.022	0.110
-376.873	0.165	-0.040	0.029
-375.858	289.076	0.104	0.187
-374.844	27.486	-0.428	0.358
-373.829	-104.668	-0.134	0.031
-372.815	263.667	-0.061	-0.105
-371.800	-200.000	-0.025	0.124
-370.785	800.000	0.047	-0.164
-369.771	-12.156	-0.232	0.151
-368.756	465.676	-0.174	0.386
-367.742	5.151	0.186	0.136
-366.727	40.478	-0.361	-0.323
-365.712	280.394	0.016	-0.028
-364.698	-73.218	-0.335	0.122
-363.683	-200.000	-0.019	0.192
-362.669	-82.499	0.129	-0.042
-361.654	-121.948	0.269	0.044
-360.639	-200.000	0.021	-0.195
-359.625	-5.334	0.150	-0.103
-358.610	404.846	-0.031	0.065
-357.596	-78.040	0.307	0.105
-356.581	-147.018	0.213	0.018
-355.566	-58.387	-0.271	-0.117
-354.552	1.119	-0.121	0.086
-353.537	-65.608	0.066	0.026
-352.523	800.000	0.140	-0.408
-351.508	-200.000	-0.001	-0.162
-350.493	503.421	0.111	-0.254
-349.479	-23.416	-0.137	0.082
-348.464	344.882	0.133	0.259
-347.450	-110.865	-0.081	-0.017
-346.435	52.952	-0.345	0.328
-345.420	-200.000	0.050	0.283
-344.406	90.516	0.075	-0.083
-343.391	-120.377	0.175	0.030
-342.377	423.616	-0.036	-0.078
-341.362	800.000	0.021	-0.088
-340.348	800.000	0.109	0.400
-339.333	800.000	0.061	-0.225
-338.318	800.000	-0.077	0.259
-337.304	-200.000	0.006	-0.036
-336.289	-122.074	-0.342	-0.056
-335.275	800.000	-0.140	-0.402
-334.260	-121.643	-0.148	-0.024
-333.245	97.023	-0.301	-0.342
-332.231	-136.328	-0.237	-0.027
-331.216	-200.000	0.003	-0.018
-330.202	355.256	0.087	-0.172
-329.187	43.978	-0.189	-0.171
-328.172	-200.000	-0.002	0.241
-327.158	-200.000	-0.039	-0.195
-326.143	-200.000	0.005	-0.170
-325.129	150.330	0.061	0.082
-324.114	413.790	0.151	0.318
-323.099	0.386	0.142	0.101
-322.085	438.538	-0.115	-0.248
-321.070	142.338	0.098	0.129
-320.056	-200.000	-0.011	0.104
-319.041	-87.475	0.214	0.064
-318.026	800.000	-0.025	0.099
-317.012	501.068	0.154	0.352
-315.997	65.994	-0.005	-0.005
-314.983	800.000	-0.106	-0.331
-313.968	133.085	0.248	-0.317
-312.953	-68.818	0.279	0.107
-311.939	-117.395	0.265	0.048
-310.924	-107.652	-0.279	0.060
-309.910	775.220	0.033	-0.090
-308.895	800.000	0.052	-0.188
-307.880	-200.000	-0.018	-0.216
-306.866	-200.000	-0.020	0.159
-305.851	-200.000	0.013	0.238
-304.837	-200.000	0.001	-0.170
-303.822	-77.037	-0.061	-0.021
-302.807	800.000	0.072	-0.213
-301.793	426.886	-0.143	-0.306
-300.778	-200.000	-0.037	0.226
-299.764	219.953	-0.091	-0.144
-298.749	115.674	-0.075	0.091
-297.735	301.100	0.027	0.049
-296.720	-200.000	-0.039	0.221
-295.705	-200.000	0.022	0.288
-294.691	-94.706	0.176	0.047
-293.676	80.977	0.238	-0.255
-292.662	75.768	0.054	-0.056
-291.647	120.627	0.051	-0.063
-290.632	-200.000	0.001	0.222
-289.618	-200.000	-0.004	0.182
-288.603	800.000	0.050	-0.193
-287.589	-40.795	-0.224	-0.115
-286.574	-200.000	-0.019	0.201
-285.559	21.234	0.034	-0.027
-284.545	-200.000	0.005	0.104
-283.530	-108.237	-0.306	-0.066
-282.516	78.924	0.203	-0.215
-281.501	-175.268	-0.194	-0.005
-280.486	-200.000	0.041	0.236
-279.472	780.088	-0.135	0.365
-278.457	800.000	-0.032	-0.096
-277.443	39.074	0.150	0.133
-276.428	-166.495	-0.349	0.014
-275.413	666.727	0.073	-0.186
-274.399	-8.111	0.383	0.256
-273.384	-10.695	-0.099	0.065
-272.370	-55.690	-0.041	-0.018
-271.355	-115.672	-0.207	-0.038
-270.340	-95.308	0.247	0.066
-269.326	-200.000	-0.044	-0.292
-268.311	-120.469	0.155	0.026
-267.297	-143.708	0.025	-0.002
-266.282	-200.000	0.005	0.312
-265.267	-38.196	-0.192	-0.101
-264.253	-136.716	-0.080	-0.009
-263.238	63.017	0.148	0.147
-262.224	-85.190	-0.114	0.035
-261.209	-200.000	0.038	-0.292
-260.195	109.113	0.252	-0.298
-259.180	9.484	0.158	-0.119
-258.165	-72.623	-0.132	0.048
-257.151	-102.551	-0.251	-0.059
-256.136	-40.209	0.117	-0.060
-255.122	112.416	-0.310	0.371
-254.107	-43.350	-0.154	0.077
-253.092	-131.386	-0.119	0.016
-252.078	265.525	0.115	0.198
-251.063	-42.989	-0.263	0.132
-250.049	59.106	-0.153	-0.149
-249.034	800.000	-0.058	-0.191
-248.019	-117.283	-0.143	0.026
-247.005	800.000	-0.142	0.457
-245.990	800.000	0.105	0.289
-244.976	-64.524	-0.189	0.076
-243.961	-178.221	-0.164	-0.004
-242.946	-200.000	-0.005	-0.062
-241.932	-90.244	-0.312	0.090
-240.917	-200.000	0.012	0.162
-239.903	233.753	0.195	0.317
-238.888	-0.044	0.222	-0.156
-237.873	26.127	-0.038	-0.031
-236.859	-161.732	0.260	0.013
-235.844	-42.209	-0.188	-0.095
-234.830	-76.763	0.056	0.019
-233.815	-1.140	-0.102	0.071
-232.800	-91.739	-0.112	0.031
-231.786	-200.000	-0.021	0.147
-230.771	-88.549	0.271	-0.080
-229.757	-200.000	-0.024	0.452
-228.742	-200.000	0.069	-0.399
-227.727	125.321	-0.168	-0.210
-226.713	-48.612	0.165	0.078
-225.698	-175.297	-0.167	-0.005
-224.684	664.340	0.094	-0.240
-223.669	-46.835	-0.238	-0.115
-222.655	-200.000	0.035	-0.172
-221.640	-135.896	0.311	0.036
-220.625	29.254	0.306	0.257
-219.611	799.126	-0.082	-0.223
-218.596	-165.339	-0.074	-0.003
-217.582	352.664	0.061	0.119
-216.567	-28.147	-0.057	0.032
-215.552	19.744	0.252	0.200
-214.538	-127.199	0.293	-0.042
-213.523	368.641	0.034	-0.069
-212.509	17.076	0.083	0.065
-211.494	-197.394	-0.424	-0.003
-210.479	-200.000	-0.005	0.114
-209.465	233.449	0.181	-0.294
-208.450	495.712	0.052	-0.117
-207.436	-200.000	-0.015	-0.088
-206.421	493.368	-0.108	0.244
-205.406	-191.169	0.345	-0.004
-204.392	-173.095	0.349	0.011
-203.377	800.000	-0.119	0.328
-202.363	-200.000	0.011	0.300
-201.348	800.000	-0.109	-0.375
-200.333	-69.205	0.269	-0.102
-199.319	423.449	-0.050	-0.106
-198.304	-115.365	-0.280	0.052
-197.290	800.000	-0.096	0.358
-196.275	-128.301	-0.153	-0.022
-195.260	-114.830	-0.090	0.017
-194.246	690.383	0.046	0.119
-193.231	-151.584	0.192	-0.014
-192.217	272.469	0.083	-0.144
-191.202	197.982	-0.025	0.037
-190.187	-79.015	0.345	-0.116
-189.173	-158.407	0.182	0.010
-188.158	-111.106	-0.178	0.036
-187.144	64.747	0.138	0.138
-186.129	-151.610	0.340	0.025
-185.114	45.032	-0.196	0.179
-184.100	-87.777	-0.133	0.040
-183.085	71.447	-0.082	-0.084
-182.071	-197.711	0.188	-0.001
-181.056	17.063	-0.268	-0.210
-180.042	-90.241	0.377	0.108
-179.027	-96.653	0.052	0.013
-178.012	710.360	-0.057	0.148
-176.998	-200.000	0.024	0.141
-175.983	215.198	0.164	0.257
-174.969	-16.553	0.195	-0.122
-173.954	192.090	-0.123	0.183
-172.939	-96.504	0.040	-0.010
-171.925	360.171	-0.153	0.302
-170.910	-188.978	0.395	-0.005
-169.896	-22.147	0.315	-0.188
-168.881	-141.103	0.198	0.020
-167.866	800.000	0.053	-0.210
-166.852	-79.203	0.251	-0.084
-165.837	105.527	0.193	0.225
-164.823	-200.000	-0.007	0.156
-163.808	0.895	0.056	0.040
-162.793	-64.639	-0.030	-0.012
-161.779	-35.655	-0.316	-0.169
-160.764	-93.689	0.178	-0.048
-159.750	-19.778	0.140	-0.085
-158.735	-41.003	-0.370	0.188
-157.720	-200.000	0.041	-0.286
-156.706	-200.000	-0.037	-0.371
-155.691	-3.352	-0.283	-0.194
-154.677	-51.925	-0.106	-0.049
-153.662	260.817	-0.278	-0.474
-152.647	-57.211	0.206	-0.089
-151.633	-88.613	-0.169	-0.049
-150.618	659.521	-0.136	0.344
-149.604	-200.000	0.040	0.276
-148.589	553.642	0.129	0.305
-147.574	-200.000	0.041	-0.259
-146.560	-200.000	0.009	-0.105
-145.545	-106.335	-0.163	-0.036
-144.531	-52.065	0.421	0.192
-143.516	-200.000	-0.040	0.328
-142.502	324.211	-0.100	0.187
-141.487	-131.321	0.178	0.023
-140.472	460.843	-0.072	-0.159
-139.458	-200.000	0.043	0.239
-138.443	-117.080	0.362	0.065
-137.429	-97.736	-0.160	0.041
-136.414	-200.000	0.010	0.292
-135.399	-87.985	0.131	0.039
-134.385	-9.847	-0.162	-0.106
-133.370	13.233	0.184	0.140
-132.356	-200.000	-0.001	0.123
-131.341	-102.336	-0.267	-0.063
-130.326	-200.000	-0.010	0.401
-129.312	93.724	-0.337	0.376
-128.297	800.000	0.093	0.363
-127.283	-88.793	0.279	-0.081
-126.268	22.240	-0.358	-0.288
-125.253	-149.001	0.430	-0.034
-124.239	800.000	-0.025	0.075
-123.224	8.984	0.062	-0.046
-122.210	800.000	0.093	0.344
