DTS Sentinel unit serial number:	SN413079Multiplexer serial number:	ORYXHardware model number:	OX4-SRSoftware version number:	ORYX F/W v4.00 Oryx Data Collector v3.7.2.0data status	okinstallation	princeton_trtdifferential loss correction	single-endedforward channel	channel 4reverse channel	N/Adate	2019/09/19time	05:09:34forward acquisition time	60.00reverse acquisition time	0.00gamma	496.2192k internal	0.2340k external	0.2340temperature offset calibration	1.0029default loss term (dB/km)	0.3790temperature slope calibration	1.0000multiplexer offset coefficient	1.0000multiplexer slope coefficient	1.0000fibre end	0.00T internal ref (°C)	19.58T ext. ref 1 (°C)	0.61T ext. ref 2 (°C)	12.76length (m)	temperature (°C)	Stokes	anti-Stokes-747.200	-25.110	0.246	0.146
-746.185	203.209	-0.187	0.290
-745.171	18.695	-0.244	0.196
-744.156	-200.000	-0.001	0.103
-743.142	103.787	-0.021	0.024
-742.127	800.000	-0.047	0.131
-741.112	-200.000	0.013	0.153
-740.098	-90.135	0.138	0.040
-739.083	-152.284	0.283	-0.020
-738.069	-200.000	0.046	0.351
-737.054	101.892	-0.160	-0.187
-736.039	281.596	-0.092	0.164
-735.025	-200.000	0.064	0.364
-734.010	-38.741	-0.132	-0.070
-732.996	-119.874	-0.126	-0.022
-731.981	-138.706	0.069	-0.008
-730.966	-200.000	0.016	-0.305
-729.952	-2.768	-0.193	0.135
-728.937	800.000	0.089	-0.377
-727.923	800.000	0.051	-0.196
-726.908	-200.000	0.033	0.255
-725.894	800.000	0.075	-0.224
-724.879	412.408	-0.071	-0.151
-723.864	771.878	-0.052	-0.143
-722.850	-62.299	-0.150	0.062
-721.835	337.129	0.190	-0.370
-720.821	-65.841	0.270	-0.108
-719.806	-200.000	-0.077	0.507
-718.791	68.682	0.108	-0.111
-717.777	73.274	0.237	-0.248
-716.762	800.000	-0.116	-0.449
-715.748	-101.333	-0.410	-0.100
-714.733	-120.588	-0.245	0.042
-713.718	-200.000	-0.004	-0.164
-712.704	20.401	-0.165	-0.134
-711.689	800.000	0.041	-0.143
-710.675	-64.705	0.058	-0.024
-709.660	-38.148	0.110	0.058
-708.645	-93.820	0.148	0.041
-707.631	-200.000	-0.031	-0.148
-706.616	28.105	0.246	-0.208
-705.602	-200.000	0.004	0.023
-704.587	800.000	-0.033	0.113
-703.572	-200.000	0.040	-0.289
-702.558	709.587	0.024	0.062
-701.543	-200.000	0.021	0.283
-700.529	-52.486	0.023	0.011
-699.514	444.761	-0.031	0.067
-698.499	-67.878	-0.247	0.097
-697.485	800.000	-0.054	0.173
-696.470	19.004	-0.153	-0.123
-695.456	-114.503	-0.383	-0.073
-694.441	-86.855	-0.169	0.052
-693.426	265.796	-0.201	0.351
-692.412	-42.315	0.015	-0.008
-691.397	-74.453	-0.298	-0.108
-690.383	-36.400	-0.224	-0.121
-689.368	-122.176	0.050	0.008
-688.354	306.008	0.056	-0.104
-687.339	-200.000	-0.020	0.159
-686.324	-58.749	0.034	0.015
-685.310	-200.000	-0.015	0.196
-684.295	-3.963	-0.383	0.266
-683.281	-200.000	0.016	0.112
-682.266	59.923	0.119	-0.117
-681.251	94.431	0.140	0.159
-680.237	118.118	-0.077	-0.095
-679.222	800.000	-0.065	-0.266
-678.208	-81.554	0.138	-0.045
-677.193	-80.972	-0.375	0.124
-676.178	-25.002	0.174	-0.103
-675.164	800.000	-0.096	-0.339
-674.149	800.000	0.057	-0.241
-673.135	-200.000	0.026	-0.252
-672.120	800.000	-0.030	-0.101
-671.105	12.103	-0.100	-0.077
-670.091	-39.456	0.208	-0.109
-669.076	-59.114	-0.316	0.136
-668.062	-161.989	0.376	0.019
-667.047	-123.372	-0.101	0.016
-666.032	-59.034	-0.106	0.046
-665.018	-4.490	-0.069	0.047
-664.003	-131.861	0.216	0.028
-662.989	800.000	0.051	-0.176
-661.974	-200.000	0.044	-0.375
-660.959	-200.000	0.025	-0.132
-659.945	441.076	-0.137	0.299
-658.930	800.000	-0.066	0.218
-657.916	141.187	0.145	-0.192
-656.901	-5.286	0.143	0.098
-655.886	87.156	-0.151	-0.167
-654.872	553.211	-0.099	-0.237
-653.857	283.420	0.105	-0.189
-652.843	123.426	-0.148	-0.185
-651.828	-91.031	0.316	0.091
-650.814	800.000	0.034	-0.102
-649.799	177.585	-0.047	-0.068
-648.784	-56.916	-0.090	0.040
-647.770	731.362	0.115	0.306
-646.755	126.732	0.091	-0.115
-645.741	-200.000	0.048	0.281
-644.726	292.063	0.101	0.183
-643.711	-51.473	-0.102	0.048
-642.697	128.746	0.091	-0.116
-641.682	35.265	-0.310	-0.271
-640.668	-48.145	0.142	0.068
-639.653	-148.818	0.139	0.011
-638.638	247.823	0.018	0.030
-637.624	48.842	0.164	-0.153
-636.609	501.038	0.071	0.164
-635.595	-200.000	0.003	-0.057
-634.580	-12.329	-0.300	-0.196
-633.565	2.754	0.228	-0.165
-632.551	-200.000	-0.007	-0.124
-631.536	76.752	0.252	-0.266
-630.522	800.000	-0.040	-0.115
-629.507	-154.223	0.134	0.009
-628.492	381.695	0.134	0.275
-627.478	-92.103	0.229	-0.064
-626.463	-15.358	0.307	-0.196
-625.449	-107.164	-0.214	-0.047
-624.434	92.879	0.105	0.118
-623.419	-3.299	-0.174	-0.121
-622.405	32.461	0.060	-0.052
-621.390	-35.255	-0.084	-0.046
-620.376	99.946	-0.058	0.067
-619.361	-113.993	0.041	-0.008
-618.346	-56.625	-0.254	-0.112
-617.332	-200.000	-0.018	-0.274
-616.317	-127.687	0.171	-0.025
-615.303	200.868	-0.011	-0.016
-614.288	800.000	-0.078	-0.247
-613.273	-68.369	-0.382	0.148
-612.259	313.902	-0.109	0.204
-611.244	-200.000	0.007	-0.121
-610.230	-200.000	-0.036	-0.188
-609.215	-200.000	-0.020	-0.323
-608.201	207.242	-0.154	-0.240
-607.186	-3.360	0.147	0.102
-606.171	-80.013	-0.327	-0.109
-605.157	800.000	0.077	0.236
-604.142	-200.000	-0.003	-0.255
-603.128	-200.000	-0.049	0.258
-602.113	73.108	-0.081	0.084
-601.098	800.000	0.040	-0.147
-600.084	-41.255	-0.303	0.156
-599.069	-200.000	-0.037	-0.237
-598.055	-55.622	-0.320	-0.143
-597.040	68.491	0.083	0.085
-596.025	463.857	-0.078	-0.174
-595.011	104.537	-0.021	0.025
-593.996	242.978	-0.197	-0.328
-592.982	-55.658	-0.175	-0.078
-591.967	-72.393	-0.040	-0.015
-590.952	137.713	-0.046	0.059
-589.938	203.147	-0.099	-0.153
-588.923	-157.376	-0.298	-0.018
-587.909	-83.316	0.094	0.030
-586.894	-144.786	-0.253	0.023
-585.879	-200.000	0.009	0.163
-584.865	-151.207	-0.350	-0.026
-583.850	562.332	-0.098	0.237
-582.836	136.458	-0.123	-0.160
-581.821	443.134	0.139	-0.303
-580.806	-1.999	0.162	0.113
-579.792	14.387	0.105	-0.082
-578.777	95.642	-0.043	-0.049
-577.763	800.000	-0.104	-0.306
-576.748	-18.985	-0.314	0.195
-575.733	-200.000	-0.011	-0.285
-574.719	35.758	0.235	-0.206
-573.704	54.418	-0.131	0.126
-572.690	-48.293	-0.290	-0.139
-571.675	205.736	-0.201	-0.311
-570.661	-46.750	0.204	0.099
-569.646	147.125	0.182	-0.243
-568.631	103.119	0.180	0.210
-567.617	-123.979	0.326	-0.051
-566.602	-3.597	-0.251	0.173
-565.588	-161.017	0.506	0.026
-564.573	-153.425	-0.058	0.004
-563.558	632.340	-0.019	-0.049
-562.544	-23.078	-0.054	0.032
-561.529	-86.009	-0.220	-0.068
-560.515	-100.148	0.235	0.058
-559.500	-11.461	-0.186	0.122
-558.485	-93.675	0.327	0.090
-557.471	-143.895	-0.395	-0.037
-556.456	-200.000	-0.007	-0.431
-555.442	-128.514	0.180	-0.025
-554.427	-200.000	-0.012	0.162
-553.412	-146.942	0.235	0.020
-552.398	217.588	-0.156	-0.247
-551.383	58.266	-0.288	-0.281
-550.369	64.359	-0.181	-0.181
-549.354	-64.029	0.187	-0.076
-548.339	-39.951	-0.254	-0.132
-547.325	-200.000	-0.022	0.111
-546.310	-119.138	0.040	0.007
-545.296	3.427	-0.305	0.221
-544.281	58.634	-0.226	0.220
-543.266	712.425	0.124	0.328
-542.252	-120.773	-0.262	0.044
-541.237	-118.374	-0.129	-0.023
-540.223	-200.000	-0.024	-0.175
-539.208	78.116	-0.132	-0.140
-538.193	9.069	-0.159	0.119
-537.179	800.000	0.080	0.249
-536.164	10.742	-0.285	0.216
-535.150	25.737	-0.165	0.137
-534.135	88.965	0.134	-0.148
-533.121	800.000	-0.016	-0.053
-532.106	-200.000	-0.008	-0.062
-531.091	-152.820	-0.078	0.006
-530.077	-200.000	-0.030	-0.221
-529.062	-27.112	0.252	-0.146
-528.048	-154.923	-0.310	0.020
-527.033	160.864	-0.161	-0.224
-526.018	-25.135	-0.135	-0.080
-525.004	414.761	0.136	-0.288
-523.989	800.000	-0.018	-0.064
-522.975	608.662	0.038	-0.095
-521.960	-200.000	-0.006	-0.372
-520.945	-200.000	0.073	0.538
-519.931	-133.758	0.227	-0.028
-518.916	67.040	0.189	-0.191
-517.902	-200.000	-0.047	-0.418
-516.887	625.427	0.096	0.241
-515.872	-159.727	0.195	-0.011
-514.858	0.073	-0.096	-0.068
-513.843	800.000	0.049	0.152
-512.829	-112.822	-0.274	-0.054
-511.814	-109.289	0.260	0.055
-510.799	59.071	-0.191	0.187
-509.785	-126.766	0.130	-0.019
-508.770	-169.237	-0.084	-0.003
-507.756	-200.000	-0.002	-0.233
-506.741	-81.653	-0.104	-0.034
-505.726	63.063	-0.265	-0.263
-504.712	-84.116	0.084	0.026
-503.697	306.973	0.106	0.196
-502.683	-200.000	-0.022	0.158
-501.668	0.243	-0.132	-0.094
-500.653	65.935	-0.188	0.189
-499.639	-49.266	0.511	0.243
-498.624	12.758	-0.153	0.117
-497.610	-31.664	0.227	0.126
-496.595	147.332	0.094	0.126
-495.581	-142.186	0.187	0.018
-494.566	83.075	0.301	-0.325
-493.551	-4.968	-0.284	-0.194
-492.537	721.970	0.060	-0.159
-491.522	-128.083	0.227	-0.032
-490.508	19.911	0.267	-0.213
-489.493	99.383	-0.129	-0.148
-488.478	429.296	0.079	0.170
-487.464	-41.259	-0.376	-0.193
-486.449	-80.649	-0.135	0.045
-485.435	-200.000	-0.012	0.239
-484.420	353.489	-0.071	0.139
-483.405	-141.460	-0.250	0.025
-482.391	-200.000	0.051	-0.448
-481.376	83.786	-0.231	0.250
-480.362	91.001	0.094	0.105
-479.347	800.000	0.065	-0.202
-478.332	169.993	0.134	-0.190
-477.318	800.000	-0.072	0.246
-476.303	-200.000	0.092	0.407
-475.289	800.000	0.019	-0.064
-474.274	-57.950	0.063	-0.027
-473.259	-71.186	-0.179	-0.067
-472.245	118.875	0.096	0.118
-471.230	19.636	-0.196	-0.156
-470.216	-168.979	0.269	0.010
-469.201	-200.000	0.065	-0.437
-468.186	-6.665	0.145	-0.098
-467.172	161.324	0.138	-0.191
-466.157	-200.000	0.017	-0.263
-465.143	46.576	0.215	0.198
-464.128	-200.000	-0.002	0.104
-463.113	-200.000	-0.008	0.039
-462.099	800.000	0.008	-0.025
-461.084	-94.236	-0.238	-0.064
-460.070	62.370	-0.089	0.088
-459.055	-65.125	0.177	-0.071
-458.040	269.827	-0.194	0.338
-457.026	69.048	-0.100	-0.101
-456.011	-132.996	0.113	-0.014
-454.997	-69.671	0.048	-0.018
-453.982	-66.281	-0.201	0.079
-452.968	133.023	0.029	0.038
-451.953	23.121	-0.258	0.210
-450.938	-200.000	-0.116	0.516
-449.924	27.144	0.204	0.170
-448.909	-129.776	0.377	-0.051
-447.895	-136.874	0.171	-0.020
-446.880	-16.382	-0.026	-0.016
-445.865	-49.943	0.208	0.098
-444.851	-122.254	0.240	0.039
-443.836	102.948	0.158	-0.183
-442.822	-200.000	-0.040	0.309
-441.807	-80.237	0.098	-0.032
-440.792	-58.820	-0.111	0.048
-439.778	-200.000	0.030	0.138
-438.763	89.822	-0.062	0.069
-437.749	800.000	-0.118	0.349
-436.734	-47.792	0.210	0.101
-435.719	-71.564	0.145	0.054
-434.705	611.328	-0.090	-0.224
-433.690	-200.000	0.029	-0.155
-432.676	77.979	0.149	0.157
-431.661	-200.000	0.051	0.283
-430.646	800.000	-0.065	0.225
-429.632	800.000	-0.059	-0.207
-428.617	-193.442	-0.051	-0.000
-427.603	-200.000	-0.031	-0.205
-426.588	443.247	0.082	0.179
-425.573	33.647	0.153	0.131
-424.559	800.000	-0.031	0.092
-423.544	92.689	0.124	-0.138
-422.530	-50.310	-0.232	-0.109
-421.515	-113.428	-0.436	0.085
-420.500	42.343	0.077	-0.069
-419.486	-118.605	-0.170	0.030
-418.471	-106.556	0.141	-0.031
-417.457	-74.266	-0.209	0.075
-416.442	-104.029	-0.211	-0.049
-415.428	353.766	0.105	-0.206
-414.413	97.783	0.243	0.277
-413.398	298.070	-0.083	-0.151
-412.384	-200.000	-0.009	0.293
-411.369	108.857	0.284	-0.336
-410.355	-200.000	-0.003	0.017
-409.340	49.024	-0.031	-0.029
-408.325	-116.992	-0.062	0.011
-407.311	323.542	0.130	-0.245
-406.296	148.001	-0.219	0.292
-405.282	-72.612	0.085	0.031
-404.267	-16.682	-0.160	-0.100
-403.252	13.752	-0.041	-0.031
-402.238	1.091	-0.048	0.034
-401.223	268.587	0.093	0.161
-400.209	-62.601	0.250	0.103
-399.194	137.092	0.050	-0.064
-398.179	445.321	0.168	0.366
-397.165	800.000	0.055	0.178
-396.150	-200.000	0.022	0.125
-395.136	395.236	-0.151	0.311
-394.121	761.942	0.077	-0.207
-393.106	-200.000	-0.289	0.000
-392.092	264.466	0.086	-0.148
-391.077	-189.236	0.148	-0.002
-390.063	28.198	0.170	-0.142
-389.048	45.530	-0.218	-0.199
-388.033	-200.000	0.013	-0.138
-387.019	-52.528	0.141	0.065
-386.004	-200.000	-0.024	-0.418
-384.990	493.366	0.027	0.060
-383.975	-200.000	0.025	0.195
-382.960	-140.682	-0.023	-0.002
-381.946	724.079	-0.083	0.219
-380.931	-200.000	-0.010	0.302
-379.917	29.435	0.055	-0.047
-378.902	303.055	0.141	-0.258
-377.888	-19.584	-0.228	-0.139
-376.873	315.949	-0.087	-0.162
-375.858	-200.000	-0.073	-0.391
-374.844	-188.116	0.184	-0.002
-373.829	-15.081	0.367	0.232
-372.815	800.000	0.050	0.139
-371.800	-20.508	0.053	0.032
-370.785	89.332	0.169	0.187
-369.771	59.037	-0.228	0.222
-368.756	472.409	-0.054	0.121
-367.742	800.000	0.058	-0.203
-366.727	-30.301	-0.187	-0.105
-365.712	58.723	0.114	-0.111
-364.698	-200.000	-0.040	-0.283
-363.683	438.041	0.146	-0.314
-362.669	-39.613	-0.380	-0.196
-361.654	-0.714	0.287	0.201
-360.639	-169.839	-0.185	0.007
-359.625	36.036	0.153	0.133
-358.610	-37.205	0.218	0.115
-357.596	-155.188	-0.239	0.015
-356.581	-200.000	0.069	-0.400
-355.566	-55.974	-0.279	-0.123
-354.552	372.139	-0.189	0.378
-353.537	-106.073	-0.190	0.042
-352.523	51.235	-0.079	-0.074
-351.508	-35.203	-0.203	-0.109
-350.493	-145.941	-0.200	0.018
-349.479	-200.000	0.010	-0.123
-348.464	3.432	0.295	-0.212
-347.450	191.628	-0.137	0.203
-346.435	-200.000	0.005	-0.050
-345.420	-56.289	-0.384	-0.169
-344.406	-200.000	0.053	0.379
-343.391	-200.000	-0.076	0.478
-342.377	-108.021	-0.371	-0.080
-341.362	800.000	0.026	-0.077
-340.348	28.997	0.267	-0.224
-339.333	-91.195	0.231	-0.065
-338.318	211.902	0.186	0.290
-337.304	340.930	0.184	-0.354
-336.289	385.759	0.026	-0.054
-335.275	-147.571	0.236	0.020
-334.260	4.464	0.319	-0.231
-333.245	-15.820	-0.191	-0.120
-332.231	56.331	0.222	-0.213
-331.216	-89.353	-0.258	0.075
-330.202	-146.214	0.208	-0.018
-329.187	800.000	0.022	0.071
-328.172	51.335	-0.188	-0.177
-327.158	800.000	-0.010	0.027
-326.143	-107.482	0.110	-0.024
-325.129	-175.000	-0.404	0.011
-324.114	35.743	-0.327	-0.283
-323.099	-150.499	0.173	0.013
-322.085	113.475	0.228	0.272
-321.070	58.170	-0.318	0.307
-320.056	-200.000	-0.018	0.161
-319.041	245.942	0.107	0.177
-318.026	620.522	0.064	0.158
-317.012	3.505	-0.282	-0.202
-315.997	305.503	0.009	0.016
-314.983	-127.355	-0.321	0.046
-313.968	-35.102	0.223	-0.120
-312.953	-68.321	0.326	0.125
-311.939	70.638	0.052	-0.053
-310.924	83.868	-0.173	-0.186
-309.910	134.906	0.207	-0.266
-308.895	-151.652	-0.069	0.005
-307.880	800.000	-0.052	0.154
-306.866	-40.633	0.249	-0.127
-305.851	-200.000	0.019	-0.277
-304.837	-171.295	0.211	0.007
-303.822	-200.000	0.026	0.308
-302.807	352.200	0.042	0.082
-301.793	-69.807	-0.161	-0.061
-300.778	-200.000	0.069	-0.321
-299.764	-200.000	-0.018	-0.186
-298.749	6.163	0.038	0.028
-297.735	342.244	0.073	-0.140
-296.720	65.741	0.305	0.304
-295.705	-22.072	0.121	-0.072
-294.691	-70.237	0.430	0.161
-293.676	-112.861	-0.192	0.038
-292.662	15.826	-0.184	0.143
-291.647	-26.047	0.138	0.080
-290.632	800.000	0.025	0.084
-289.618	21.349	0.275	-0.220
-288.603	-163.028	0.352	0.017
-287.589	800.000	0.108	0.345
-286.574	-34.839	0.060	0.032
-285.559	267.116	0.181	-0.311
-284.545	-200.000	-0.059	-0.291
-283.530	-23.110	-0.116	0.069
-282.516	97.361	0.048	0.054
-281.501	38.136	-0.180	0.157
-280.486	-69.853	-0.155	-0.058
-279.472	-146.940	-0.083	0.007
-278.457	169.274	-0.089	-0.125
-277.443	-200.000	0.060	0.279
-276.428	-70.145	-0.119	0.045
-275.413	225.984	0.072	-0.115
-274.399	-47.133	0.226	-0.108
-273.384	-200.000	0.007	-0.046
-272.370	-200.000	-0.043	-0.217
-271.355	569.998	-0.047	0.112
-270.340	-199.279	0.112	-0.001
-269.326	186.464	0.140	0.205
-268.311	-68.996	0.082	0.031
-267.297	716.252	-0.018	-0.048
-266.282	-32.867	0.113	0.062
-265.267	201.040	0.167	0.253
-264.253	-128.413	-0.239	0.033
-263.238	202.551	0.194	0.295
-262.224	-200.000	-0.019	0.121
-261.209	-200.000	0.004	0.255
-260.195	-39.815	-0.231	-0.119
-259.180	800.000	0.053	-0.199
-258.165	-66.944	-0.068	0.026
-257.151	49.122	0.041	-0.038
-256.136	800.000	-0.088	-0.281
-255.122	-91.978	0.147	-0.041
-254.107	-57.859	0.081	0.035
-253.092	309.244	-0.043	-0.079
-252.078	405.328	-0.063	0.131
-251.063	-200.000	-0.010	-0.065
-250.049	-128.721	0.186	-0.026
-249.034	-83.331	-0.226	0.071
-248.019	-200.000	0.054	-0.645
-247.005	800.000	0.063	0.253
-245.990	8.728	0.186	0.138
-244.976	-84.984	-0.240	0.074
-243.961	800.000	0.076	0.274
-242.946	161.548	-0.060	0.083
-241.932	-85.784	0.384	0.117
-240.917	-200.000	-0.009	-0.076
-239.903	5.396	-0.127	0.092
-238.888	295.129	0.031	-0.056
-237.873	-103.497	0.203	0.047
-236.859	-137.794	-0.261	-0.029
-235.844	-107.330	0.108	0.023
-234.830	800.000	0.009	-0.027
-233.815	11.082	0.337	-0.253
-232.800	423.353	-0.015	-0.031
-231.786	143.113	0.157	-0.205
-230.771	114.770	-0.284	0.340
-229.757	364.751	-0.197	0.389
-228.742	188.618	-0.235	0.345
-227.727	-10.077	-0.235	-0.153
-226.713	153.538	-0.088	0.118
-225.698	-113.911	0.280	-0.054
-224.684	38.379	0.444	0.388
-223.669	-13.336	-0.165	-0.105
-222.655	800.000	-0.036	0.139
-221.640	-109.739	0.183	0.038
-220.625	266.104	0.097	0.167
-219.611	47.162	0.224	0.205
-218.596	-125.464	-0.107	-0.016
-217.582	800.000	0.066	0.206
-216.567	148.740	0.210	-0.278
-215.552	3.519	-0.095	-0.068
-214.538	-189.185	0.199	-0.002
-213.523	-112.636	-0.208	-0.041
-212.509	-121.600	-0.111	-0.018
-211.494	-115.155	-0.265	-0.049
-210.479	-200.000	0.012	-0.199
-209.465	42.057	0.072	-0.064
-208.450	-116.062	-0.103	-0.019
-207.436	-200.000	-0.008	0.353
-206.421	-78.673	-0.089	0.030
-205.406	-129.239	0.287	-0.039
-204.392	-144.863	-0.249	-0.022
-203.377	-200.000	-0.010	0.133
-202.363	-85.065	0.253	-0.078
-201.348	-102.727	-0.347	0.081
-200.333	206.558	-0.194	0.297
-199.319	-200.000	0.001	0.288
-198.304	238.070	0.028	0.046
-197.290	-63.560	0.130	0.052
-196.275	128.517	0.032	0.041
-195.260	457.251	-0.100	0.219
-194.246	248.462	-0.118	-0.197
-193.231	-79.879	-0.159	0.052
-192.217	-200.000	0.018	-0.313
-191.202	-92.232	-0.173	-0.048
-190.187	-43.786	-0.174	-0.086
-189.173	-200.000	-0.037	0.222
-188.158	-186.735	-0.405	-0.006
-187.144	60.246	0.302	0.293
-186.129	26.858	-0.231	0.190
-185.114	-22.248	-0.173	0.103
-184.100	-170.322	0.334	-0.012
-183.085	-48.213	-0.200	0.095
-182.071	-200.000	0.006	-0.085
-181.056	-84.260	0.088	0.027
-180.042	23.915	-0.177	0.143
-179.027	435.410	0.030	-0.063
-178.012	288.884	-0.029	-0.052
-176.998	28.183	-0.068	0.056
-175.983	-107.291	0.136	-0.029
-174.969	206.269	0.159	-0.243
-173.954	-200.000	-0.003	0.424
-172.939	-23.276	0.313	-0.184
-171.925	31.924	-0.075	0.064
-170.910	-13.978	0.281	-0.178
-169.896	162.936	-0.159	0.219
-168.881	79.065	-0.178	0.187
-167.866	11.541	0.253	-0.190
-166.852	-23.081	-0.056	-0.033
-165.837	-200.000	0.001	-0.358
-164.823	-200.000	0.025	-0.157
-163.808	-158.915	-0.288	0.016
-162.793	-84.929	0.191	-0.059
-161.779	-200.000	-0.015	0.296
-160.764	-16.506	-0.254	0.158
-159.750	-183.931	0.168	-0.003
-158.735	47.646	0.089	-0.082
-157.720	125.978	0.134	0.165
-156.706	454.937	0.097	0.211
-155.691	257.384	-0.055	0.093
-154.677	-25.516	0.266	0.154
-153.662	-137.897	0.181	0.020
-152.647	-43.523	0.238	0.118
-151.633	-200.000	-0.006	-0.032
-150.618	800.000	-0.034	0.130
-149.604	-37.813	0.101	-0.053
-148.589	-6.295	0.266	-0.178
-147.574	739.154	-0.105	0.276
-146.560	76.119	-0.251	0.260
-145.545	-200.000	0.032	-0.263
-144.531	-114.152	-0.097	0.018
-143.516	-60.623	-0.189	-0.079
-142.502	175.263	0.051	0.073
-141.487	-200.000	0.043	-0.300
-140.472	-91.919	0.294	0.082
-139.458	112.605	-0.443	0.525
-138.443	190.387	-0.076	-0.112
-137.429	106.823	-0.141	0.164
-136.414	-200.000	0.062	0.450
-135.399	-59.265	0.473	-0.199
-134.385	-12.498	0.169	0.108
-133.370	-118.427	0.344	0.060
-132.356	33.508	0.071	0.060
-131.341	321.650	0.049	0.092
-130.326	-103.218	-0.211	-0.049
-129.312	164.963	-0.085	0.118
-128.297	-12.197	0.364	-0.233
-127.283	24.126	-0.073	0.059
-126.268	297.084	-0.068	-0.122
-125.253	-200.000	-0.010	-0.054
-124.239	153.293	0.084	-0.113
-123.224	-112.472	-0.160	0.031
-122.210	390.130	-0.151	0.306
-121.195	20.476	0.216	0.171
