DTS Sentinel unit serial number:	SN413079Multiplexer serial number:	ORYXHardware model number:	OX4-SRSoftware version number:	ORYX F/W v4.00 Oryx Data Collector v3.7.2.0data status	okinstallation	princeton_trtdifferential loss correction	single-endedforward channel	channel 4reverse channel	N/Adate	2019/09/12time	18:39:18forward acquisition time	15.00reverse acquisition time	0.00gamma	496.2192k internal	0.2307k external	0.2307temperature offset calibration	1.0134default loss term (dB/km)	0.3790temperature slope calibration	1.0000multiplexer offset coefficient	1.0000multiplexer slope coefficient	1.0000fibre end	0.00T internal ref (°C)	33.12T ext. ref 1 (°C)	2.97T ext. ref 2 (°C)	27.68length (m)	temperature (°C)	Stokes	anti-Stokes-747.200	-200.000	-0.024	0.510
-746.185	-19.034	-0.542	0.343
-745.171	-180.057	0.508	0.011
-744.156	-156.805	-0.114	0.007
-743.142	-200.000	-0.029	0.223
-742.127	-200.000	-0.051	0.726
-741.112	-82.698	-0.907	0.298
-740.098	-31.350	0.406	-0.232
-739.083	152.832	-0.477	-0.663
-738.069	-135.226	0.487	-0.059
-737.054	137.798	-0.254	-0.338
-736.039	-102.756	0.173	-0.042
-735.025	-3.356	-0.738	0.522
-734.010	-200.000	-0.131	-0.613
-732.996	251.458	0.386	0.667
-731.981	-200.000	0.008	-0.178
-730.966	230.380	0.246	0.408
-729.952	-200.000	-0.009	-0.678
-728.937	113.512	-0.430	0.531
-727.923	-200.000	-0.084	0.735
-726.908	-12.416	0.313	0.208
-725.894	-121.534	-0.582	-0.098
-724.879	-74.635	-1.129	-0.413
-723.864	-55.487	-0.530	0.241
-722.850	-98.321	-0.878	-0.229
-721.835	126.167	0.299	-0.384
-720.821	-182.097	-0.294	0.006
-719.806	686.513	0.128	-0.339
-718.791	800.000	0.127	0.466
-717.777	-71.307	-0.511	0.195
-716.762	-105.279	-0.295	0.068
-715.748	-41.512	0.380	0.198
-714.733	114.431	0.218	-0.270
-713.718	-68.267	0.779	-0.307
-712.704	800.000	0.049	-0.213
-711.689	-146.891	1.023	0.089
-710.675	71.779	-0.339	-0.358
-709.660	-37.849	-0.324	0.175
-708.645	800.000	-0.220	0.619
-707.631	-200.000	-0.051	0.401
-706.616	-102.306	0.347	-0.085
-705.602	77.154	0.429	0.463
-704.587	134.414	-0.494	0.650
-703.572	27.110	0.141	-0.120
-702.558	131.924	0.601	0.785
-701.543	-77.932	0.200	0.070
-700.529	-171.368	0.994	-0.034
-699.514	-200.000	0.045	0.297
-698.499	-49.019	0.188	-0.091
-697.485	-5.766	0.709	0.493
-696.470	-200.000	-0.088	0.719
-695.456	-107.804	-0.265	0.059
-694.441	-200.000	-0.087	-0.474
-693.426	321.536	0.293	-0.565
-692.412	-159.176	0.412	0.024
-691.397	252.594	-0.443	0.766
-690.383	-115.776	0.830	-0.158
-689.368	555.048	-0.267	0.651
-688.354	-200.000	-0.052	0.561
-687.339	800.000	0.031	-0.107
-686.324	-200.000	-0.054	0.392
-685.310	-99.956	-0.839	0.212
-684.295	7.585	-0.678	-0.515
-683.281	800.000	0.443	-1.315
-682.266	-200.000	0.043	-0.366
-681.251	800.000	-0.162	-0.609
-680.237	2.383	-0.996	-0.731
-679.222	13.771	0.727	0.573
-678.208	-200.000	0.004	0.383
-677.193	-200.000	-0.083	-0.553
-676.178	738.781	-0.191	0.520
-675.164	-134.826	0.641	0.079
-674.149	-82.845	1.050	0.344
-673.135	800.000	-0.113	0.325
-672.120	265.791	-0.279	0.494
-671.105	384.395	-0.139	0.290
-670.091	800.000	-0.148	-0.522
-669.076	27.502	0.602	0.513
-668.062	256.946	-0.312	-0.543
-667.047	57.004	-0.633	-0.626
-666.032	-200.000	0.070	-1.033
-665.018	38.911	-0.298	-0.270
-664.003	-200.000	-0.068	-0.369
-662.989	143.845	-0.524	-0.708
-661.974	291.519	-0.335	-0.617
-660.959	-47.539	0.208	0.102
-659.945	694.801	-0.102	0.272
-658.930	192.965	0.157	0.240
-657.916	112.530	-0.283	-0.347
-656.901	89.605	0.193	0.219
-655.886	-7.061	-0.836	-0.575
-654.872	800.000	0.081	0.290
-653.857	-35.940	-0.437	-0.240
-652.843	-200.000	-0.096	0.925
-651.828	290.436	-0.152	0.280
-650.814	125.379	0.116	0.148
-649.799	55.659	0.456	-0.448
-648.784	197.900	-0.404	0.625
-647.770	-200.000	-0.001	-0.630
-646.755	-70.536	-0.173	0.066
-645.741	-200.000	-0.096	1.016
-644.726	800.000	-0.132	-0.444
-643.711	-176.908	-0.180	-0.005
-642.697	-197.228	-0.840	-0.005
-641.682	40.788	-0.175	0.160
-640.668	-200.000	0.035	0.204
-639.653	676.886	0.059	0.155
-638.638	467.365	0.123	-0.280
-637.624	116.637	0.502	-0.624
-636.609	-35.119	-0.201	0.111
-635.595	59.097	0.204	0.204
-634.580	-200.000	-0.066	0.322
-633.565	-140.613	0.464	-0.049
-632.551	-96.734	-0.466	0.124
-631.536	800.000	0.009	0.030
-630.522	800.000	-0.331	1.103
-629.507	800.000	-0.067	0.298
-628.492	-2.269	0.273	-0.194
-627.478	-200.000	-0.145	0.756
-626.463	-13.864	0.260	-0.170
-625.449	-4.179	-0.375	0.263
-624.434	-28.388	0.261	0.153
-623.419	-200.000	-0.259	-1.452
-622.405	14.757	-0.151	-0.120
-621.390	-200.000	-0.003	0.833
-620.376	-200.000	0.014	0.296
-619.361	-66.964	-0.739	-0.295
-618.346	-41.900	-0.434	0.225
-617.332	-169.781	0.361	-0.013
-616.317	-200.000	-0.134	-0.824
-615.303	-143.580	-0.717	0.069
-614.288	223.535	0.298	-0.487
-613.273	-119.457	-0.591	-0.104
-612.259	-45.090	-0.407	0.205
-611.244	-200.000	-0.200	1.061
-610.230	-200.000	0.122	0.776
-609.215	-178.384	0.587	-0.014
-608.201	178.692	-0.135	-0.200
-607.186	-138.197	0.383	0.043
-606.171	-67.303	0.487	-0.194
-605.157	218.048	0.251	0.406
-604.142	-54.305	-0.293	-0.135
-603.128	-63.236	-0.673	0.281
-602.113	-130.356	-0.460	-0.063
-601.098	-200.000	-0.087	-0.486
-600.084	43.673	0.231	0.213
-599.069	-11.460	-0.484	0.322
-598.055	-200.000	0.023	-0.167
-597.040	145.715	0.463	-0.627
-596.025	-114.465	-0.392	0.076
-595.011	-200.000	0.092	-0.715
-593.996	79.837	0.443	-0.481
-592.982	87.088	0.240	-0.269
-591.967	231.013	0.255	0.423
-590.952	-63.558	-0.337	-0.140
-589.938	69.562	-0.355	-0.370
-588.923	-200.000	0.125	0.819
-587.909	-5.916	-0.235	-0.162
-586.894	275.209	-0.216	-0.386
-585.879	-58.474	-0.608	-0.267
-584.865	483.167	-0.269	-0.619
-583.850	800.000	-0.321	0.977
-582.836	-113.585	-0.587	-0.116
-581.821	81.628	-0.314	0.343
-580.806	483.791	0.122	-0.279
-579.792	408.092	-0.054	-0.115
-578.777	-200.000	0.032	0.171
-577.763	29.387	-0.420	-0.361
-576.748	62.532	-0.717	-0.724
-575.733	-63.556	0.491	0.204
-574.719	3.411	0.296	0.217
-573.704	800.000	0.269	-0.834
-572.690	115.016	0.363	0.447
-571.675	-30.332	0.443	-0.254
-570.661	-24.162	0.707	0.426
-569.646	-81.346	0.337	-0.112
-568.631	-11.871	1.068	-0.707
-567.617	-132.870	-0.195	-0.025
-566.602	-200.000	0.043	0.625
-565.588	-189.158	-0.329	-0.004
-564.573	-48.005	0.052	0.026
-563.558	-200.000	-0.012	0.766
-562.544	-38.253	-0.329	-0.176
-561.529	298.864	-0.350	0.651
-560.515	-100.194	-0.598	0.150
-559.500	108.698	0.247	-0.298
-558.485	800.000	0.133	0.464
-557.471	201.774	-0.338	0.525
-556.456	-100.320	-0.493	0.123
-555.442	220.698	-0.340	0.550
-554.427	159.028	0.530	0.744
-553.412	-62.921	0.510	0.213
-552.398	159.529	-0.643	-0.903
-551.383	-43.876	-0.573	0.291
-550.369	66.748	-0.180	-0.185
-549.354	800.000	0.148	0.467
-548.339	14.933	0.359	0.284
-547.325	497.061	0.057	0.132
-546.310	19.001	0.503	-0.407
-545.296	-10.310	0.468	-0.313
-544.281	-200.000	0.017	-0.406
-543.266	-200.000	0.082	1.304
-542.252	17.766	-0.400	0.321
-541.237	77.602	-0.077	-0.082
-540.223	-12.073	-0.376	0.248
-539.208	-200.000	-0.017	-0.386
-538.193	-200.000	0.065	1.022
-537.179	-200.000	0.069	-0.435
-536.164	134.585	0.177	-0.232
-535.150	-200.000	-0.008	0.375
-534.135	-70.499	0.069	0.026
-533.121	232.038	-0.484	-0.800
-532.106	130.408	0.296	-0.383
-531.091	-200.000	0.082	0.363
-530.077	-80.233	-0.454	0.153
-529.062	800.000	-0.291	1.113
-528.048	-148.783	0.270	-0.022
-527.033	-119.161	-0.224	0.039
-526.018	70.455	0.350	-0.365
-525.004	-103.854	0.379	0.089
-523.989	100.931	-0.118	0.138
-522.975	395.847	0.167	-0.351
-521.960	199.007	-0.097	0.150
-520.945	600.838	-0.237	0.594
-519.931	-2.564	-0.547	0.386
-518.916	53.612	0.360	-0.348
-517.902	528.045	-0.022	0.051
-516.887	74.074	0.563	-0.595
-515.872	267.186	-0.173	-0.305
-514.858	-200.000	-0.075	-0.481
-513.843	-200.000	-0.048	-0.593
-512.829	134.233	-0.257	-0.336
-511.814	479.666	-0.221	-0.505
-510.799	109.187	-0.115	-0.139
-509.785	793.173	-0.104	0.289
-508.770	77.008	-0.197	-0.210
-507.756	-0.707	0.344	0.246
-506.741	62.833	-0.527	0.531
-505.726	219.310	-0.449	-0.724
-504.712	-200.000	0.002	0.112
-503.697	10.456	-0.921	-0.707
-502.683	-14.075	-0.590	-0.383
-501.668	34.296	0.557	0.490
-500.653	-113.391	-0.641	0.127
-499.639	-86.392	-0.228	-0.070
-498.624	-128.965	0.258	0.036
-497.610	-82.913	0.308	-0.100
-496.595	-89.431	0.149	0.044
-495.581	112.761	-0.617	-0.752
-494.566	-125.261	0.271	-0.042
-493.551	118.045	-0.271	0.337
-492.537	29.750	-0.266	-0.228
-491.522	-200.000	0.028	-0.141
-490.508	-113.153	-0.211	-0.042
-489.493	800.000	0.219	-0.720
-488.478	-200.000	0.109	0.711
-487.464	-160.442	-0.275	-0.015
-486.449	350.399	0.241	-0.480
-485.435	-152.378	0.710	-0.051
-484.420	-108.149	0.775	0.169
-483.405	-200.000	-0.004	-0.134
-482.391	-181.454	0.793	0.016
-481.376	800.000	-0.063	-0.192
-480.362	800.000	0.226	-0.775
-479.347	339.033	-0.268	0.525
-478.332	265.573	-0.257	0.451
-477.318	-141.927	0.320	0.032
-476.303	92.248	0.446	-0.505
-475.289	90.735	0.729	0.822
-474.274	800.000	0.194	-0.768
-473.259	-47.326	-0.359	-0.176
-472.245	-34.290	-0.551	0.304
-471.230	-200.000	0.148	0.690
-470.216	-200.000	0.086	0.804
-469.201	-7.164	-0.757	0.516
-468.186	-128.892	0.314	0.044
-467.172	58.849	0.322	0.319
-466.157	222.024	0.021	-0.034
-465.143	-14.750	0.283	0.183
-464.128	800.000	0.215	0.718
-463.113	-200.000	-0.038	-0.454
-462.099	7.450	-0.291	0.218
-461.084	-142.494	-0.748	-0.074
-460.070	-200.000	0.004	0.226
-459.055	47.072	-0.301	-0.282
-458.040	-94.008	0.861	-0.238
-457.026	4.109	-0.818	-0.602
-456.011	-200.000	0.040	-0.559
-454.997	222.628	-0.464	-0.751
-453.982	25.352	-0.366	-0.306
-452.968	-71.818	0.969	-0.363
-451.953	147.084	-0.386	0.522
-450.938	136.294	-0.306	-0.401
-449.924	-151.006	0.243	-0.018
-448.909	704.879	0.247	0.655
-447.895	-16.440	-0.450	0.287
-446.880	125.927	-0.683	0.867
-445.865	507.837	-0.060	-0.139
-444.851	96.972	0.338	-0.390
-443.836	-138.625	0.182	0.020
-442.822	16.679	0.338	-0.269
-441.807	-200.000	-0.136	-0.805
-440.792	-101.781	0.420	0.102
-439.778	121.758	0.286	0.358
-438.763	269.676	-0.175	0.308
-437.749	-57.774	0.393	0.173
-436.734	-200.000	-0.043	-0.547
-435.719	-200.000	0.106	-0.552
-434.705	-10.795	0.691	-0.459
-433.690	-200.000	-0.140	-0.760
-432.676	-177.682	-0.038	-0.001
-431.661	-200.000	0.040	-0.768
-430.646	121.168	0.165	-0.206
-429.632	223.806	0.348	0.563
-428.617	-200.000	0.015	0.073
-427.603	800.000	0.168	-0.702
-426.588	-95.218	0.536	-0.145
-425.573	28.045	0.523	-0.443
-424.559	-200.000	-0.052	0.381
-423.544	316.304	-0.187	0.355
-422.530	22.193	0.679	-0.557
-421.515	-200.000	0.008	-0.419
-420.500	-118.844	-0.189	-0.033
-419.486	-178.427	0.599	-0.014
-418.471	19.922	-0.379	0.307
-417.457	-13.724	0.575	0.374
-416.442	-119.079	-0.023	0.004
-415.428	-109.782	1.026	0.216
-414.413	-73.392	-0.360	0.132
-413.398	-83.332	0.423	-0.136
-412.384	520.664	-0.179	-0.420
-411.369	154.321	0.182	0.250
-410.355	24.881	0.473	0.393
-409.340	-200.000	0.249	1.280
-408.325	-54.166	0.413	0.189
-407.311	-159.290	0.283	0.016
-406.296	-2.410	0.084	0.059
-405.282	-76.415	-0.338	-0.119
-404.267	-200.000	0.069	-0.380
-403.252	-42.827	0.022	-0.011
-402.238	33.057	0.301	-0.262
-401.223	289.147	0.140	0.254
-400.209	-142.655	-0.557	-0.055
-399.194	-52.365	0.655	-0.304
-398.179	-200.000	-0.000	0.060
-397.165	-200.000	-0.030	-0.237
-396.150	24.034	0.165	-0.137
-395.136	-36.707	-0.437	-0.235
-394.121	170.617	-0.087	0.125
-393.106	-200.000	-0.008	0.183
-392.092	-200.000	0.045	-0.542
-391.077	135.409	-0.330	-0.430
-390.063	-45.930	0.054	0.027
-389.048	-200.000	-0.130	0.704
-388.033	45.737	-0.291	0.270
-387.019	-79.063	0.953	-0.325
-386.004	465.944	0.072	-0.161
-384.990	800.000	-0.078	0.307
-383.975	63.740	-0.072	-0.073
-382.960	80.115	-0.543	0.585
-381.946	31.653	0.431	0.371
-380.931	-143.243	0.706	-0.068
-379.917	-69.727	-0.497	-0.191
-378.902	-200.000	-0.020	-0.206
-377.888	18.149	-0.497	-0.397
-376.873	-128.383	0.695	0.099
-375.858	271.238	-0.322	0.569
-374.844	82.965	0.024	0.026
-373.829	-200.000	0.063	-0.464
-372.815	-200.000	0.051	-0.767
-371.800	-51.443	0.620	0.290
-370.785	-112.649	-0.313	-0.062
-369.771	528.392	0.143	0.339
-368.756	150.273	0.533	-0.725
-367.742	-75.452	-1.231	0.439
-366.727	37.912	-0.379	0.337
-365.712	80.935	-0.233	0.252
-364.698	108.892	-0.463	0.554
-363.683	91.984	0.273	0.308
-362.669	305.197	0.272	-0.506
-361.654	-120.038	-0.372	0.064
-360.639	-9.630	0.537	-0.358
-359.625	-200.000	-0.106	0.604
-358.610	-87.315	-0.288	0.087
-357.596	-134.294	-0.951	-0.117
-356.581	-25.281	-0.166	-0.098
-355.566	357.174	-0.274	-0.547
-354.552	-53.551	0.704	0.322
-353.537	-6.091	0.267	-0.183
-352.523	624.652	-0.114	0.288
-351.508	568.808	-0.194	-0.472
-350.493	30.529	0.295	-0.252
-349.479	784.716	0.176	0.483
-348.464	-200.000	-0.012	0.342
-347.450	61.613	0.633	-0.631
-346.435	-51.188	-0.382	-0.179
-345.420	800.000	0.230	-0.685
-344.406	-134.080	-0.625	-0.077
-343.391	111.440	-0.341	0.411
-342.377	-55.148	0.238	-0.107
-341.362	800.000	0.049	0.138
-340.348	92.673	0.376	-0.425
-339.333	97.461	-0.475	-0.546
-338.318	23.875	0.519	-0.428
-337.304	800.000	-0.089	0.250
-336.289	538.364	0.189	0.449
-335.275	-200.000	0.045	0.413
-334.260	110.699	0.401	-0.482
-333.245	-2.612	0.731	0.512
-332.231	800.000	-0.114	-0.449
-331.216	130.695	0.348	0.447
-330.202	30.092	-0.161	0.138
-329.187	-87.793	0.605	-0.182
-328.172	-87.125	-0.231	0.070
-327.158	-55.952	-0.602	-0.269
-326.143	-200.000	0.010	-0.176
-325.129	215.825	-0.130	0.207
-324.114	-200.000	-0.165	1.107
-323.099	-200.000	0.007	-0.282
-322.085	-200.000	0.036	0.962
-321.070	-30.557	-0.428	0.243
-320.056	-86.445	0.332	-0.102
-319.041	-200.000	-0.017	1.042
-318.026	46.720	-0.192	-0.179
-317.012	-114.763	-0.980	0.187
-315.997	800.000	0.233	0.674
-314.983	-28.785	-0.687	-0.395
-313.968	-131.591	0.301	-0.040
-312.953	59.906	-0.321	0.317
-311.939	-63.363	-0.482	-0.198
-310.924	-87.014	-0.749	-0.228
-309.910	252.758	-0.142	-0.243
-308.895	264.978	-0.172	0.300
-307.880	800.000	-0.061	0.246
-306.866	-118.244	-0.363	-0.065
-305.851	390.010	0.018	0.037
-304.837	59.915	-0.427	0.421
-303.822	213.280	-0.224	0.353
-302.807	-43.049	0.712	0.361
-301.793	-37.729	-0.339	-0.180
-300.778	205.288	-0.261	-0.405
-299.764	-62.061	-0.846	-0.353
-298.749	168.173	0.330	-0.470
-297.735	-200.000	0.104	-1.109
-296.720	221.608	0.238	0.382
-295.705	151.604	-0.355	-0.483
-294.691	41.397	0.489	0.442
-293.676	-200.000	-0.095	-0.563
-292.662	-200.000	0.111	0.522
-291.647	-163.771	-0.657	-0.031
-290.632	708.702	-0.186	-0.492
-289.618	800.000	0.314	-1.301
-288.603	-200.000	-0.002	0.162
-287.589	-146.330	0.470	0.041
-286.574	344.434	0.571	-1.119
-285.559	518.453	-0.183	0.428
-284.545	102.740	-0.363	0.424
-283.530	-78.820	0.370	-0.126
-282.516	57.963	0.348	-0.341
-281.501	23.658	0.698	-0.574
-280.486	-105.774	0.699	0.158
-279.472	-147.526	0.790	0.067
-278.457	-114.327	0.891	-0.171
-277.443	-87.105	-0.181	-0.055
-276.428	800.000	0.024	-0.089
-275.413	-95.685	-0.679	-0.181
-274.399	800.000	0.137	0.403
-273.384	173.072	-0.216	-0.311
-272.370	800.000	-0.181	-0.768
-271.355	-133.207	0.766	0.097
-270.340	47.832	-0.212	-0.198
-269.326	20.252	0.218	0.176
-268.311	800.000	-0.098	-0.284
-267.297	153.284	0.506	0.691
-266.282	21.193	0.228	0.185
-265.267	528.583	0.223	-0.525
-264.253	-94.293	-0.628	0.171
-263.238	800.000	-0.087	0.253
-262.224	-14.563	0.435	-0.279
-261.209	-200.000	-0.131	-0.815
-260.195	629.385	0.134	0.337
-259.180	-100.650	-0.481	0.118
-258.165	134.893	-0.342	0.443
-257.151	-128.159	0.282	0.040
-256.136	800.000	0.199	-0.706
-255.122	-119.642	-0.424	0.073
-254.107	-11.753	0.340	-0.222
-253.092	-155.747	-0.783	0.050
-252.078	-131.478	1.047	0.138
-251.063	-176.715	0.230	-0.006
-250.049	-19.994	0.577	0.355
-249.034	380.892	-0.192	0.393
-248.019	30.645	-0.444	-0.379
-247.005	-200.000	-0.006	0.109
-245.990	282.161	0.368	-0.658
-244.976	150.379	-0.315	0.426
-243.961	-122.281	0.755	0.123
-242.946	144.032	-0.233	-0.310
-241.932	-98.043	0.400	-0.103
-240.917	-2.010	-0.681	0.477
-239.903	75.104	-1.011	-1.063
-238.888	-73.035	-0.413	-0.151
-237.873	-19.171	0.704	-0.436
-236.859	66.199	-0.375	0.379
-235.844	-200.000	0.094	0.638
-234.830	1.488	-0.387	0.278
-233.815	-84.167	-0.496	0.157
-232.800	-200.000	-0.035	-0.313
-231.786	208.852	0.204	-0.317
-230.771	-200.000	0.090	-0.567
-229.757	-125.957	-0.503	0.075
-228.742	750.270	0.246	0.662
-227.727	-14.254	0.668	-0.429
-226.713	-141.972	0.589	0.059
-225.698	-200.000	-0.055	-1.073
-224.684	-200.000	0.096	0.570
-223.669	435.570	0.248	0.538
-222.655	168.996	0.427	-0.607
-221.640	-121.857	0.970	0.159
-220.625	-200.000	0.027	-0.293
-219.611	-68.572	-0.625	0.241
-218.596	-68.832	-1.104	-0.425
-217.582	-200.000	0.096	-0.634
-216.567	232.731	-0.195	-0.319
-215.552	800.000	0.203	0.778
-214.538	800.000	-0.075	-0.286
-213.523	744.768	0.156	0.417
-212.509	209.525	0.149	0.232
-211.494	-119.789	-0.888	-0.152
-210.479	800.000	-0.442	-1.222
-209.465	112.545	-0.415	0.500
-208.450	800.000	0.250	0.742
-207.436	-73.625	-0.602	-0.218
-206.421	229.617	0.269	0.437
-205.406	-24.734	0.648	0.383
-204.392	639.062	-0.356	0.902
-203.377	432.594	0.281	0.606
-202.363	-200.000	0.041	-0.631
-201.348	-200.000	0.052	-0.480
-200.333	51.417	-0.344	0.325
-199.319	443.909	-0.396	0.864
-198.304	456.615	0.375	-0.829
-197.290	98.658	0.311	0.357
-196.275	364.498	-0.209	0.418
-195.260	334.222	0.157	-0.303
-194.246	-93.602	0.399	-0.110
-193.231	39.043	0.481	-0.428
-192.217	800.000	-0.528	1.467
-191.202	-80.682	0.554	-0.183
-190.187	800.000	-0.104	-0.331
-189.173	-112.941	0.249	-0.049
-188.158	-200.000	-0.017	0.604
-187.144	153.421	-0.149	0.203
-186.129	223.647	-0.371	-0.596
-185.114	-110.426	0.623	-0.129
-184.100	-200.000	0.165	1.112
-183.085	-200.000	-0.133	0.830
-182.071	-92.814	0.062	-0.017
-181.056	-13.619	-0.451	-0.291
-180.042	166.160	0.242	-0.341
-179.027	174.557	0.311	-0.447
-178.012	-159.386	0.496	-0.028
-176.998	-15.821	0.735	-0.466
-175.983	72.065	0.187	0.194
-174.969	85.854	-0.302	0.331
-173.954	-151.367	-0.283	0.021
-172.939	-17.545	-0.300	0.188
-171.925	-124.478	-0.187	0.029
-170.910	170.915	0.228	0.325
-169.896	-104.174	0.474	-0.109
-168.881	171.321	-0.177	0.253
-167.866	-81.345	0.493	0.161
-166.852	767.960	-0.207	0.561
-165.837	-147.068	0.480	0.041
-164.823	-200.000	-0.106	0.622
-163.808	73.609	0.500	-0.520
-162.793	364.498	-0.108	0.216
-161.779	-1.583	-0.110	-0.077
-160.764	19.676	0.444	0.355
-159.750	-96.053	-0.628	-0.166
-158.735	-71.480	-0.696	0.259
-157.720	714.521	-0.084	0.220
-156.706	-90.807	0.827	-0.237
-155.691	-72.091	-0.527	0.195
-154.677	-33.937	0.430	-0.235
-153.662	32.087	-0.268	0.230
-152.647	-123.563	-0.495	0.078
-151.633	219.869	-0.547	-0.871
-150.618	-5.936	-0.117	0.080
-149.604	-73.870	-0.709	0.256
-148.589	22.694	-0.354	0.288
-147.574	-96.984	0.233	0.061
-146.560	-2.048	0.129	-0.090
-145.545	-78.702	-0.654	-0.222
-144.531	800.000	-0.328	1.338
-143.516	-29.035	0.154	0.088
-142.502	60.718	-0.182	-0.179
-141.487	246.951	-0.230	-0.385
-140.472	-122.581	-0.431	0.069
-139.458	-83.949	1.082	-0.342
-138.443	39.216	0.490	0.435
-137.429	608.118	-0.276	0.683
-136.414	18.098	-0.442	-0.350
-135.399	141.560	0.152	-0.200
-134.385	-200.000	-0.036	-0.959
-133.370	-200.000	-0.012	0.169
-132.356	-200.000	0.134	0.627
-131.341	-200.000	0.091	-0.840
-130.326	114.240	-0.143	-0.173
-129.312	30.516	-0.391	0.332
-128.297	-121.307	0.681	0.113
-127.283	528.692	0.412	-0.965
-126.268	-200.000	-0.006	0.303
-125.253	-200.000	0.035	-0.310
-124.239	-200.000	0.046	0.344
-123.224	-200.000	-0.095	-0.636
-122.210	-16.017	-0.346	-0.219
