DTS Sentinel unit serial number:	SN413079Multiplexer serial number:	ORYXHardware model number:	OX4-SRSoftware version number:	ORYX F/W v4.00 Oryx Data Collector v3.7.2.0data status	okinstallation	princeton_trtdifferential loss correction	single-endedforward channel	channel 4reverse channel	N/Adate	2019/09/16time	15:37:35forward acquisition time	60.00reverse acquisition time	0.00gamma	496.2192k internal	0.2287k external	0.2287temperature offset calibration	0.9940default loss term (dB/km)	0.3790temperature slope calibration	1.0000multiplexer offset coefficient	1.0000multiplexer slope coefficient	1.0000fibre end	0.00T internal ref (°C)	41.17T ext. ref 1 (°C)	14.74T ext. ref 2 (°C)	36.62length (m)	temperature (°C)	Stokes	anti-Stokes-747.200	-200.000	0.337	0.001
-746.185	-24.736	0.054	-0.033
-745.171	-87.894	-0.100	0.031
-744.156	498.774	-0.129	0.305
-743.142	133.805	-0.085	0.112
-742.127	588.225	-0.064	-0.160
-741.112	-45.223	-0.188	-0.096
-740.098	-200.000	-0.036	0.267
-739.083	-200.000	0.032	0.348
-738.069	-51.372	-0.452	0.217
-737.054	44.612	-0.057	0.053
-736.039	294.143	0.089	0.167
-735.025	800.000	-0.053	0.180
-734.010	-6.533	-0.187	-0.131
-732.996	800.000	0.062	0.264
-731.981	-92.334	0.290	-0.084
-730.966	129.170	0.032	0.042
-729.952	-200.000	-0.007	-0.441
-728.937	133.679	-0.122	-0.162
-727.923	421.959	-0.102	-0.224
-726.908	416.017	0.091	-0.198
-725.894	31.447	-0.133	-0.117
-724.879	-102.361	-0.159	-0.039
-723.864	800.000	0.056	-0.228
-722.850	40.875	0.199	0.184
-721.835	-65.719	-0.322	-0.132
-720.821	-121.221	-0.152	-0.026
-719.806	-126.375	0.144	-0.022
-718.791	724.374	0.035	-0.095
-717.777	-15.442	0.114	0.075
-716.762	-200.000	0.033	-0.304
-715.748	-200.000	-0.018	0.121
-714.733	800.000	0.121	0.442
-713.718	30.909	0.093	-0.082
-712.704	707.115	0.074	-0.201
-711.689	-69.415	-0.314	0.124
-710.675	-51.057	0.065	0.031
-709.660	168.511	-0.162	0.236
-708.645	-87.657	0.136	-0.042
-707.631	-95.890	0.223	0.061
-706.616	-200.000	-0.063	0.308
-705.602	-64.157	0.251	0.105
-704.587	110.387	-0.071	-0.087
-703.572	-47.009	-0.609	0.304
-702.558	800.000	-0.050	0.200
-701.543	-58.677	0.338	0.150
-700.529	114.690	-0.132	0.165
-699.514	-147.047	0.178	-0.016
-698.499	-36.956	-0.188	0.103
-697.485	-112.269	-0.216	0.044
-696.470	-200.000	0.042	-0.190
-695.456	-126.832	0.208	0.031
-694.441	-200.000	-0.036	0.268
-693.426	-121.654	0.180	-0.030
-692.412	123.125	0.082	-0.106
-691.397	-53.213	-0.281	-0.132
-690.383	99.355	0.200	-0.237
-689.368	16.000	0.081	-0.065
-688.354	-200.000	-0.003	-0.076
-687.339	312.652	0.077	0.147
-686.324	-200.000	-0.029	-0.158
-685.310	-69.886	0.290	0.113
-684.295	2.910	-0.070	-0.052
-683.281	-200.000	0.106	-0.509
-682.266	-100.466	-0.115	0.029
-681.251	-131.495	-0.369	0.050
-680.237	47.624	-0.169	-0.162
-679.222	261.763	0.149	-0.264
-678.208	-87.062	0.159	-0.050
-677.193	402.616	-0.042	0.090
-676.178	-71.948	-0.062	0.024
-675.164	-33.213	0.167	-0.094
-674.149	-200.000	0.028	-0.303
-673.135	288.515	-0.101	0.187
-672.120	79.355	0.227	0.249
-671.105	94.164	0.230	-0.267
-670.091	-70.101	0.347	-0.135
-669.076	-125.032	-0.293	-0.046
-668.062	424.222	-0.074	-0.162
-667.047	-165.367	0.219	-0.010
-666.032	-155.376	-0.266	-0.018
-665.018	-128.407	0.205	-0.030
-664.003	12.465	0.266	0.210
-662.989	-145.399	0.119	0.011
-661.974	-200.000	-0.015	0.134
-660.959	800.000	-0.085	0.276
-659.945	136.436	-0.226	-0.301
-658.930	-115.065	-0.359	0.070
-657.916	63.148	-0.165	-0.169
-656.901	84.403	0.122	-0.137
-655.886	-32.397	0.009	-0.005
-654.872	-152.167	-0.207	-0.015
-653.857	8.961	0.256	0.198
-652.843	-103.410	-0.331	-0.080
-651.828	-200.000	-0.002	0.257
-650.814	12.124	0.068	0.054
-649.799	-54.977	-0.385	0.177
-648.784	142.705	-0.107	-0.145
-647.770	361.061	-0.028	0.058
-646.755	224.620	0.067	0.111
-645.741	800.000	0.021	0.072
-644.726	498.114	-0.122	-0.286
-643.711	800.000	0.026	0.100
-642.697	-200.000	0.007	-0.156
-641.682	-172.106	0.167	0.005
-640.668	-200.000	0.031	-0.301
-639.653	126.383	-0.033	-0.043
-638.638	10.774	0.198	-0.154
-637.624	-131.639	0.117	-0.016
-636.609	-200.000	-0.028	-0.141
-635.595	800.000	-0.067	-0.285
-634.580	88.810	0.256	0.291
-633.565	-123.096	-0.176	0.029
-632.551	-105.846	-0.215	-0.049
-631.536	-49.754	0.335	-0.163
-630.522	41.362	0.070	0.065
-629.507	-96.232	0.116	-0.031
-628.492	-60.068	0.304	-0.133
-627.478	-130.718	-0.185	0.025
-626.463	-56.315	0.202	-0.092
-625.449	-86.766	0.264	0.082
-624.434	-30.541	-0.091	0.053
-623.419	-56.969	-0.123	-0.055
-622.405	73.104	-0.101	0.108
-621.390	87.866	0.087	0.098
-620.376	476.762	-0.012	0.028
-619.361	-120.975	0.149	0.026
-618.346	-184.007	-0.145	0.002
-617.332	-200.000	-0.042	-0.261
-616.317	42.615	0.400	-0.372
-615.303	-72.233	-0.327	0.124
-614.288	77.025	-0.209	0.227
-613.273	800.000	-0.008	0.027
-612.259	-15.868	-0.197	-0.128
-611.244	-34.211	0.193	0.108
-610.230	-41.714	-0.231	0.121
-609.215	430.095	0.017	-0.038
-608.201	-149.989	0.066	-0.005
-607.186	-147.778	0.353	0.030
-606.171	-27.963	-0.069	-0.041
-605.157	284.340	-0.059	-0.108
-604.142	180.792	-0.100	-0.150
-603.128	-149.402	-0.104	0.008
-602.113	-200.000	-0.046	0.207
-601.098	300.679	-0.082	-0.154
-600.084	189.644	-0.142	-0.217
-599.069	270.671	-0.011	-0.019
-598.055	-200.000	-0.007	-0.061
-597.040	38.162	-0.300	-0.273
-596.025	-43.577	-0.216	0.111
-595.011	-197.158	0.161	0.001
-593.996	-200.000	0.047	-0.250
-592.982	-51.891	0.246	0.116
-591.967	-103.754	0.147	-0.035
-590.952	-146.207	0.224	0.020
-589.938	-181.998	0.256	-0.005
-588.923	-200.000	0.083	-0.426
-587.909	-136.456	-0.213	-0.025
-586.894	-200.000	0.016	-0.124
-585.879	375.378	-0.078	-0.162
-584.865	800.000	0.069	0.298
-583.850	800.000	-0.030	-0.128
-582.836	-20.711	-0.134	0.084
-581.821	-30.116	0.196	0.114
-580.806	-56.352	-0.049	-0.022
-579.792	-29.126	0.182	-0.106
-578.777	-200.000	0.029	-0.533
-577.763	800.000	-0.104	0.334
-576.748	-37.068	-0.141	0.077
-575.733	88.653	-0.159	-0.180
-574.719	-79.419	0.182	-0.063
-573.704	25.530	-0.202	-0.172
-572.690	-7.965	-0.241	0.166
-571.675	73.280	-0.083	0.088
-570.661	373.770	-0.161	-0.333
-569.646	-139.847	-0.231	0.025
-568.631	-99.187	-0.075	0.019
-567.617	192.643	-0.084	0.129
-566.602	32.494	0.073	0.064
-565.588	102.339	0.087	-0.103
-564.573	107.429	0.068	-0.082
-563.558	-71.934	0.158	0.060
-562.544	-76.178	-0.317	-0.114
-561.529	-91.094	-0.303	-0.088
-560.515	800.000	0.025	0.074
-559.500	82.820	0.115	0.127
-558.485	-75.000	0.298	-0.109
-557.471	-94.713	0.133	-0.037
-556.456	128.408	-0.091	0.118
-555.442	281.239	0.194	0.354
-554.427	20.647	-0.122	-0.101
-553.412	421.508	-0.088	0.191
-552.398	484.717	-0.072	-0.168
-551.383	-109.716	-0.288	-0.062
-550.369	-200.000	0.041	0.372
-549.354	5.696	-0.164	-0.123
-548.339	-159.019	-0.139	-0.008
-547.325	66.726	-0.185	0.192
-546.310	306.204	0.031	0.058
-545.296	41.010	0.098	-0.090
-544.281	535.848	-0.174	0.420
-543.266	272.395	0.136	0.244
-542.252	22.302	-0.019	0.016
-541.237	-136.165	-0.122	0.014
-540.223	800.000	-0.074	-0.306
-539.208	125.569	0.191	-0.245
-538.193	-16.392	-0.309	0.199
-537.179	192.419	0.166	0.255
-536.164	-113.709	0.288	0.057
-535.150	800.000	-0.068	-0.216
-534.135	-2.998	-0.343	0.244
-533.121	-200.000	0.012	0.099
-532.106	-104.212	0.321	0.076
-531.091	-200.000	0.031	0.220
-530.077	158.224	-0.130	-0.183
-529.062	-200.000	-0.059	0.420
-528.048	-125.310	-0.055	-0.009
-527.033	-200.000	-0.027	0.187
-526.018	-80.389	-0.128	0.043
-525.004	-180.545	-0.377	-0.008
-523.989	34.886	0.145	0.129
-522.975	-13.107	0.051	-0.034
-521.960	123.213	-0.122	-0.155
-520.945	-113.777	-0.098	0.019
-519.931	-82.522	0.260	-0.086
-518.916	-137.657	0.105	-0.012
-517.902	-197.020	0.202	-0.001
-516.887	-129.932	-0.210	-0.029
-515.872	-111.390	-0.089	-0.018
-514.858	-91.631	0.154	0.045
-513.843	-140.002	0.234	0.025
-512.829	54.619	-0.151	0.148
-511.814	-200.000	0.010	0.215
-510.799	-200.000	-0.037	0.544
-509.785	173.977	0.256	0.377
-508.770	24.083	0.030	0.025
-507.756	800.000	0.074	-0.225
-506.741	-18.392	-0.212	-0.135
-505.726	-48.341	-0.283	-0.139
-504.712	-200.000	-0.049	-0.358
-503.697	-181.123	0.065	-0.001
-502.683	149.525	-0.026	-0.036
-501.668	-200.000	0.041	0.240
-500.653	200.549	0.133	0.208
-499.639	800.000	-0.071	-0.230
-498.624	-78.400	-0.404	-0.141
-497.610	-67.647	-0.252	0.100
-496.595	800.000	-0.040	0.123
-495.581	-45.330	-0.076	0.038
-494.566	-174.273	-0.250	0.007
-493.551	-49.877	-0.046	-0.022
-492.537	-97.802	0.299	0.078
-491.522	312.158	0.181	-0.344
-490.508	-88.675	0.185	0.056
-489.493	-151.465	-0.128	0.010
-488.478	800.000	0.034	0.095
-487.464	633.976	-0.110	-0.284
-486.449	800.000	-0.138	0.395
-485.435	-138.950	-0.300	-0.033
-484.420	800.000	0.120	0.474
-483.405	5.860	0.198	0.149
-482.391	-51.285	-0.094	-0.045
-481.376	174.137	-0.078	0.114
-480.362	78.370	-0.097	-0.106
-479.347	173.280	0.168	-0.245
-478.332	-46.458	0.068	0.034
-477.318	-50.513	0.039	-0.019
-476.303	-43.745	-0.233	-0.119
-475.289	187.043	-0.132	-0.200
-474.274	-200.000	0.036	-0.207
-473.259	-90.867	-0.198	0.058
-472.245	-104.545	-0.200	0.047
-471.230	438.710	-0.080	-0.176
-470.216	-200.000	-0.013	-0.150
-469.201	800.000	-0.070	0.222
-468.186	-90.197	-0.139	0.041
-467.172	287.834	-0.200	-0.366
-466.157	355.564	0.092	0.185
-465.143	-2.469	-0.112	-0.080
-464.128	-200.000	0.012	0.512
-463.113	133.241	0.046	0.061
-462.099	383.531	0.136	-0.284
-461.084	625.150	0.066	0.169
-460.070	262.864	0.243	-0.428
-459.055	-91.520	0.616	-0.178
-458.040	228.600	0.068	0.112
-457.026	141.526	-0.127	-0.171
-456.011	800.000	0.031	0.122
-454.997	246.372	0.111	-0.190
-453.982	38.835	-0.210	-0.191
-452.968	-145.122	-0.322	-0.030
-451.953	-200.000	0.010	-0.135
-450.938	218.273	0.011	0.018
-449.924	387.643	0.101	0.212
-448.909	-200.000	0.016	-0.187
-447.895	62.689	0.148	0.150
-446.880	129.098	0.067	-0.086
-445.865	-200.000	0.014	0.193
-444.851	101.811	-0.193	0.229
-443.836	-131.248	0.347	0.047
-442.822	-41.399	0.182	-0.095
-441.807	800.000	-0.039	0.115
-440.792	-200.000	-0.029	0.161
-439.778	89.129	0.121	-0.137
-438.763	14.179	-0.052	-0.041
-437.749	800.000	-0.027	0.079
-436.734	-161.111	-0.123	0.007
-435.719	-200.000	-0.030	0.194
-434.705	28.517	0.241	0.206
-433.690	-112.653	-0.150	-0.030
-432.676	-200.000	-0.016	0.073
-431.661	88.649	-0.051	-0.057
-430.646	-200.000	0.030	-0.198
-429.632	17.439	0.208	-0.167
-428.617	41.273	0.300	-0.275
-427.603	-134.503	0.203	-0.025
-426.588	428.990	0.014	0.031
-425.573	-155.756	-0.251	0.016
-424.559	210.008	-0.092	0.147
-423.544	286.395	0.061	0.111
-422.530	305.757	-0.069	-0.129
-421.515	181.186	-0.138	0.206
-420.500	16.429	0.342	0.274
-419.486	-92.687	0.095	-0.027
-418.471	-14.261	-0.089	-0.058
-417.457	-175.574	-0.328	0.009
-416.442	-26.689	0.192	-0.113
-415.428	-200.000	0.015	0.178
-414.413	568.686	0.155	0.381
-413.398	-4.731	-0.144	0.101
-412.384	-70.250	0.288	-0.111
-411.369	13.095	-0.192	0.151
-410.355	-179.467	0.287	-0.006
-409.340	251.000	0.065	-0.111
-408.325	392.443	-0.033	0.069
-407.311	24.724	-0.163	-0.137
-406.296	-137.251	-0.245	-0.028
-405.282	320.331	-0.150	-0.289
-404.267	-93.455	-0.057	0.016
-403.252	800.000	0.006	0.017
-402.238	-93.983	0.106	-0.029
-401.223	243.345	-0.189	-0.321
-400.209	-73.902	0.085	-0.031
-399.194	-91.919	0.502	-0.144
-398.179	1.655	0.115	0.084
-397.165	-200.000	0.032	-0.232
-396.150	-146.840	0.014	-0.001
-395.136	38.752	0.202	-0.182
-394.121	-164.095	-0.174	-0.008
-393.106	542.636	-0.108	0.261
-392.092	92.401	0.150	0.171
-391.077	113.853	0.226	-0.277
-390.063	-101.588	0.203	-0.050
-389.048	308.196	-0.106	0.201
-388.033	-200.000	-0.049	-0.268
-387.019	-76.422	0.154	-0.055
-386.004	200.913	-0.189	0.294
-384.990	-64.418	0.073	-0.030
-383.975	413.778	-0.063	-0.137
-382.960	-200.000	0.017	0.166
-381.946	484.324	-0.096	0.220
-380.931	-147.801	-0.355	-0.030
-379.917	-148.444	-0.256	-0.021
-378.902	-99.023	0.130	-0.033
-377.888	800.000	-0.074	-0.317
-376.873	202.437	0.117	-0.183
-375.858	168.045	-0.156	-0.224
-374.844	140.463	-0.187	0.250
-373.829	800.000	0.097	0.315
-372.815	142.909	-0.032	0.043
-371.800	-66.983	0.138	-0.055
-370.785	-31.168	0.230	-0.131
-369.771	-160.877	-0.576	0.031
-368.756	-152.140	-0.064	0.005
-367.742	-32.627	0.174	-0.098
-366.727	155.676	0.160	0.223
-365.712	209.634	0.347	0.549
-364.698	597.040	0.103	-0.258
-363.683	-63.752	0.042	-0.017
-362.669	-72.359	-0.298	-0.111
-361.654	-200.000	-0.008	-0.107
-360.639	-200.000	-0.006	-0.075
-359.625	21.071	0.276	0.226
-358.610	-43.447	0.026	-0.013
-357.596	-45.860	-0.131	-0.065
-356.581	96.526	-0.155	0.179
-355.566	800.000	-0.105	0.330
-354.552	-200.000	0.005	-0.269
-353.537	-103.812	-0.281	-0.066
-352.523	-41.624	0.244	-0.127
-351.508	-136.967	0.290	0.034
-350.493	660.493	0.094	0.244
-349.479	56.516	-0.251	0.246
-348.464	434.452	0.123	0.269
-347.450	360.004	0.113	-0.228
-346.435	-137.050	-0.056	-0.006
-345.420	307.964	-0.029	-0.055
-344.406	800.000	-0.053	-0.170
-343.391	-35.686	0.180	-0.098
-342.377	-200.000	-0.026	0.149
-341.362	-58.519	0.226	0.099
-340.348	800.000	0.040	-0.155
-339.333	-39.234	0.152	-0.080
-338.318	205.632	0.150	0.235
-337.304	716.148	0.023	-0.062
-336.289	322.743	0.020	-0.039
-335.275	-114.510	0.158	-0.031
-334.260	800.000	0.137	0.509
-333.245	-153.341	0.158	-0.011
-332.231	391.150	0.119	-0.249
-331.216	15.711	-0.090	0.072
-330.202	-200.000	-0.028	0.274
-329.187	137.931	-0.077	-0.102
-328.172	-200.000	-0.012	-0.125
-327.158	49.588	-0.024	0.022
-326.143	50.893	0.150	0.143
-325.129	32.981	-0.134	0.117
-324.114	75.694	0.107	-0.114
-323.099	-200.000	-0.045	-0.234
-322.085	-136.158	-0.255	-0.030
-321.070	41.904	-0.133	-0.121
-320.056	-105.940	0.194	-0.044
-319.041	-200.000	-0.009	0.140
-318.026	-200.000	-0.021	0.185
-317.012	-200.000	-0.005	-0.073
-315.997	-50.770	0.252	-0.119
-314.983	131.518	0.167	-0.217
-313.968	-126.114	-0.075	0.011
-312.953	40.359	0.198	0.179
-311.939	-102.943	0.243	0.058
-310.924	-155.267	-0.434	0.028
-309.910	800.000	-0.080	-0.239
-308.895	273.956	0.114	0.203
-307.880	66.463	-0.117	0.120
-306.866	-41.279	0.150	0.078
-305.851	-126.921	-0.030	0.004
-304.837	-112.168	-0.121	0.024
-303.822	-130.208	0.226	-0.031
-302.807	-200.000	0.005	-0.079
-301.793	373.829	-0.065	0.134
-300.778	-116.489	-0.080	0.015
-299.764	-200.000	0.002	0.061
-298.749	800.000	0.070	0.288
-297.735	353.321	-0.131	-0.262
-296.720	-200.000	0.034	-0.177
-295.705	-200.000	-0.032	-0.180
-294.691	11.624	-0.115	-0.089
-293.676	10.513	-0.213	0.164
-292.662	48.729	0.219	0.207
-291.647	-200.000	0.045	0.346
-290.632	-82.143	-0.208	0.068
-289.618	-200.000	-0.055	0.287
-288.603	15.343	-0.091	-0.072
-287.589	-200.000	0.004	-0.177
-286.574	-80.593	0.072	0.024
-285.559	-12.454	-0.098	-0.064
-284.545	-12.950	0.196	0.128
-283.530	-200.000	0.014	0.132
-282.516	129.437	-0.033	0.042
-281.501	-120.802	0.161	0.027
-280.486	-150.402	0.088	-0.007
-279.472	-86.889	-0.145	0.045
-278.457	-96.852	0.247	0.065
-277.443	-58.236	0.373	0.164
-276.428	-81.689	-0.279	-0.092
-275.413	-102.790	0.257	0.062
-274.399	-200.000	-0.001	0.107
-273.384	242.830	-0.056	-0.095
-272.370	61.143	0.313	-0.313
-271.355	-124.997	0.451	-0.070
-270.340	415.213	-0.109	0.234
-269.326	94.292	0.030	0.034
-268.311	-130.800	-0.190	0.026
-267.297	800.000	-0.061	-0.228
-266.282	6.694	-0.181	-0.135
-265.267	800.000	-0.059	-0.170
-264.253	-81.005	0.197	0.066
-263.238	-94.352	0.184	0.051
-262.224	-200.000	0.012	0.223
-261.209	18.780	0.075	-0.061
-260.195	176.026	-0.050	-0.072
-259.180	-29.173	-0.103	0.059
-258.165	800.000	-0.140	0.530
-257.151	56.404	-0.078	0.076
-256.136	62.972	0.021	0.021
-255.122	148.762	0.104	0.142
-254.107	800.000	0.006	-0.021
-253.092	757.187	-0.111	-0.301
-252.078	800.000	0.067	0.277
-251.063	-29.851	-0.192	0.110
-250.049	1.286	-0.187	-0.135
-249.034	288.512	-0.036	0.066
-248.019	32.138	0.230	-0.199
-247.005	-92.176	0.188	-0.053
-245.990	-109.820	-0.249	0.053
-244.976	800.000	-0.079	-0.317
-243.961	-103.513	0.193	-0.046
-242.946	-145.423	0.278	0.025
-241.932	40.440	0.025	0.023
-240.917	369.006	0.228	-0.464
-239.903	-120.964	0.338	-0.057
-238.888	800.000	-0.090	0.260
-237.873	-63.090	-0.203	0.084
-236.859	-200.000	0.026	-0.544
-235.844	56.040	-0.135	-0.132
-234.830	800.000	0.045	0.127
-233.815	800.000	0.040	-0.174
-232.800	124.628	-0.121	-0.153
-231.786	77.293	0.221	0.237
-230.771	-74.980	0.382	-0.138
-229.757	800.000	0.036	0.144
-228.742	-108.024	0.076	0.017
-227.727	-200.000	-0.027	0.229
-226.713	-88.057	0.064	-0.019
-225.698	800.000	-0.062	0.258
-224.684	-3.076	-0.076	0.053
-223.669	120.888	-0.114	-0.142
-222.655	-42.157	-0.317	0.163
-221.640	62.719	0.177	-0.178
-220.625	800.000	0.007	-0.023
-219.611	-44.225	-0.419	0.211
-218.596	-200.000	0.001	-0.507
-217.582	-200.000	0.046	0.320
-216.567	-200.000	-0.043	0.205
-215.552	-162.067	-0.135	-0.007
-214.538	447.612	0.042	-0.094
-213.523	-87.014	-0.191	-0.058
-212.509	-60.263	-0.216	-0.093
-211.494	4.117	-0.185	-0.136
-210.479	-0.204	-0.196	0.140
-209.465	-200.000	0.016	-0.116
-208.450	800.000	-0.082	-0.289
-207.436	1.928	0.212	-0.154
-206.421	-200.000	0.074	-0.365
-205.406	800.000	-0.016	0.053
-204.392	-55.504	0.092	0.041
-203.377	-103.153	0.308	-0.073
-202.363	-200.000	-0.211	0.000
-201.348	78.471	-0.108	-0.116
-200.333	142.633	0.129	0.172
-199.319	-200.000	0.045	-0.313
-198.304	-80.407	0.030	0.010
-197.290	45.205	-0.052	-0.048
-196.275	-39.089	-0.109	0.058
-195.260	524.298	-0.113	0.268
-194.246	800.000	-0.102	0.285
-193.231	-200.000	0.032	-0.311
-192.217	-127.026	0.249	-0.037
-191.202	800.000	-0.085	-0.273
-190.187	759.703	-0.086	-0.235
-189.173	87.450	0.232	0.258
-188.158	-200.000	0.017	-0.202
-187.144	208.545	0.164	-0.257
-186.129	159.209	-0.152	-0.212
-185.114	-97.091	-0.229	0.060
-184.100	-113.711	-0.127	0.025
-183.085	-73.963	-0.206	0.075
-182.071	-102.372	0.126	0.030
-181.056	-150.456	0.083	0.006
-180.042	-85.872	0.365	0.113
-179.027	-11.920	-0.233	0.153
-178.012	-129.725	0.223	0.031
-176.998	100.766	0.096	0.112
-175.983	497.334	-0.070	-0.162
-174.969	-127.164	-0.195	0.029
-173.954	-191.564	0.262	0.003
-172.939	-40.393	-0.213	0.111
-171.925	800.000	-0.107	-0.315
-170.910	518.127	-0.072	0.170
-169.896	60.190	0.202	0.200
-168.881	-91.849	-0.233	-0.066
-167.866	153.424	-0.112	0.154
-166.852	476.933	0.074	0.169
-165.837	800.000	0.094	0.319
-164.823	118.750	0.215	-0.266
-163.808	119.504	0.087	0.108
-162.793	-60.845	0.132	-0.056
-161.779	219.768	-0.111	0.179
-160.764	-200.000	0.057	0.262
-159.750	-94.176	-0.387	-0.106
-158.735	800.000	-0.107	-0.338
-157.720	19.894	0.095	-0.076
-156.706	237.479	0.099	-0.165
-155.691	-200.000	0.007	0.030
-154.677	800.000	0.080	0.282
-153.662	-58.138	-0.176	0.077
-152.647	625.551	0.052	-0.131
-151.633	-96.421	-0.276	-0.073
-150.618	-135.930	0.324	0.038
-149.604	95.547	-0.230	-0.262
-148.589	800.000	-0.050	-0.188
-147.574	800.000	-0.125	0.346
-146.560	-200.000	0.055	0.427
-145.545	800.000	0.031	-0.102
-144.531	-4.526	0.120	0.083
-143.516	-38.921	-0.221	-0.117
-142.502	-200.000	0.013	-0.318
-141.487	-200.000	-0.017	-0.212
-140.472	142.319	0.056	-0.074
-139.458	107.613	-0.174	0.207
-138.443	5.582	0.064	-0.047
-137.429	-39.903	-0.063	-0.033
-136.414	36.196	-0.259	0.228
-135.399	800.000	-0.020	0.086
-134.385	60.430	-0.223	0.221
-133.370	-87.804	0.290	0.088
-132.356	-68.946	0.086	0.033
-131.341	312.155	0.047	0.088
-130.326	262.614	0.088	0.152
-129.312	-51.691	0.115	-0.053
-128.297	76.069	0.362	-0.383
-127.283	-200.000	0.010	-0.236
-126.268	-82.772	0.359	0.116
-125.253	-26.716	0.158	0.093
-124.239	-4.551	-0.070	0.049
-123.224	-200.000	0.014	-0.201
-122.210	800.000	-0.042	0.125
