DTS Sentinel unit serial number:	SN413079Multiplexer serial number:	ORYXHardware model number:	OX4-SRSoftware version number:	ORYX F/W v4.00 Oryx Data Collector v3.7.2.0data status	okinstallation	princeton_trtdifferential loss correction	single-endedforward channel	channel 4reverse channel	N/Adate	2019/09/14time	00:41:35forward acquisition time	60.00reverse acquisition time	0.00gamma	496.2192k internal	0.2324k external	0.2324temperature offset calibration	1.0131default loss term (dB/km)	0.3790temperature slope calibration	1.0000multiplexer offset coefficient	1.0000multiplexer slope coefficient	1.0000fibre end	0.00T internal ref (°C)	26.44T ext. ref 1 (°C)	3.17T ext. ref 2 (°C)	21.03length (m)	temperature (°C)	Stokes	anti-Stokes-747.200	-200.000	-0.065	0.303
-746.185	-52.469	-0.333	0.155
-745.171	-84.984	0.169	-0.053
-744.156	-21.028	-0.065	0.040
-743.142	-50.594	0.456	-0.217
-742.127	72.652	-0.296	-0.312
-741.112	99.418	-0.053	0.062
-740.098	-200.000	-0.015	0.190
-739.083	1.850	0.282	0.205
-738.069	-51.012	-0.098	-0.046
-737.054	-200.000	-0.020	0.181
-736.039	-43.744	-0.165	0.084
-735.025	511.528	0.083	0.194
-734.010	-24.362	-0.433	-0.261
-732.996	178.209	-0.225	-0.332
-731.981	-135.367	0.049	-0.006
-730.966	425.928	-0.092	-0.200
-729.952	-200.000	-0.004	-0.060
-728.937	40.524	-0.265	-0.241
-727.923	800.000	0.133	-0.454
-726.908	-110.047	0.232	0.049
-725.894	220.789	-0.218	-0.353
-724.879	100.514	-0.037	0.043
-723.864	800.000	0.068	0.243
-722.850	-17.467	-0.120	-0.076
-721.835	54.044	-0.097	-0.094
-720.821	800.000	0.128	-0.401
-719.806	800.000	-0.035	-0.121
-718.791	226.669	0.113	0.184
-717.777	104.456	0.253	0.300
-716.762	-70.538	0.177	0.067
-715.748	-200.000	-0.008	0.113
-714.733	-134.814	-0.134	0.016
-713.718	529.081	0.085	0.201
-712.704	-52.215	-0.026	0.012
-711.689	160.749	-0.066	0.093
-710.675	-9.890	0.238	-0.160
-709.660	-129.619	-0.325	0.045
-708.645	18.263	0.266	-0.214
-707.631	88.894	-0.261	-0.293
-706.616	-200.000	-0.016	0.090
-705.602	-104.298	0.414	0.097
-704.587	12.458	-0.158	-0.123
-703.572	-200.000	-0.010	-0.057
-702.558	520.403	0.091	-0.216
-701.543	4.402	-0.127	0.094
-700.529	-50.497	0.057	0.027
-699.514	-200.000	0.017	-0.081
-698.499	-136.041	-0.115	-0.014
-697.485	-97.607	-0.088	-0.023
-696.470	0.436	-0.219	0.158
-695.456	-156.321	-0.138	-0.009
-694.441	295.626	0.145	0.267
-693.426	6.867	-0.017	-0.013
-692.412	6.790	-0.156	0.117
-691.397	85.735	0.341	0.378
-690.383	-159.306	-0.555	-0.031
-689.368	86.813	-0.306	-0.340
-688.354	800.000	-0.054	0.165
-687.339	234.667	0.133	0.220
-686.324	372.648	0.051	-0.104
-685.310	-123.538	0.313	-0.050
-684.295	-22.404	0.027	0.017
-683.281	-155.780	0.291	0.019
-682.266	-43.459	-0.031	0.016
-681.251	-38.502	0.211	-0.112
-680.237	-101.412	-0.099	0.024
-679.222	126.704	-0.210	0.268
-678.208	-104.146	0.123	-0.029
-677.193	-16.128	-0.117	-0.075
-676.178	-200.000	0.097	-0.452
-675.164	-200.000	0.063	-0.296
-674.149	-200.000	0.003	-0.265
-673.135	16.729	-0.159	0.127
-672.120	-44.606	-0.238	-0.120
-671.105	-200.000	-0.009	0.081
-670.091	800.000	-0.129	0.377
-669.076	-129.455	0.176	-0.025
-668.062	800.000	-0.085	0.301
-667.047	-56.464	0.357	0.160
-666.032	377.223	-0.103	-0.211
-665.018	100.951	0.153	0.179
-664.003	255.412	0.038	-0.066
-662.989	-73.222	-0.291	-0.107
-661.974	221.136	0.207	-0.335
-660.959	800.000	0.018	-0.078
-659.945	-60.130	-0.224	-0.096
-658.930	-6.639	-0.052	0.036
-657.916	-16.772	-0.245	-0.156
-656.901	-73.974	0.024	-0.009
-655.886	-92.355	-0.100	0.028
-654.872	-200.000	-0.018	-0.174
-653.857	-96.652	0.255	-0.068
-652.843	-11.775	-0.228	0.151
-651.828	-200.000	-0.002	0.061
-650.814	96.596	0.199	0.229
-649.799	-32.482	0.048	-0.027
-648.784	-200.000	-0.017	-0.226
-647.770	-109.272	0.270	0.058
-646.755	61.872	0.041	0.041
-645.741	-62.586	0.118	0.049
-644.726	800.000	-0.114	-0.392
-643.711	-200.000	0.051	0.278
-642.697	272.406	0.139	0.247
-641.682	750.435	-0.101	0.274
-640.668	-200.000	-0.024	-0.358
-639.653	-119.990	-0.049	0.008
-638.638	800.000	0.055	-0.155
-637.624	3.794	-0.114	-0.084
-636.609	-69.898	-0.046	-0.017
-635.595	121.996	0.157	0.197
-634.580	62.630	-0.347	-0.349
-633.565	-136.256	0.052	-0.006
-632.551	18.982	-0.154	0.124
-631.536	274.159	-0.113	-0.200
-630.522	-176.892	-0.094	0.002
-629.507	-97.722	-0.448	-0.117
-628.492	800.000	0.081	-0.249
-627.478	649.212	-0.052	0.133
-626.463	-161.907	0.244	-0.012
-625.449	42.876	-0.259	0.237
-624.434	-78.054	-0.176	-0.061
-623.419	-47.863	0.004	-0.002
-622.405	6.658	0.157	-0.117
-621.390	-200.000	0.086	-0.426
-620.376	-10.128	0.188	-0.126
-619.361	103.529	-0.210	-0.247
-618.346	99.919	0.248	-0.289
-617.332	-94.379	-0.243	0.067
-616.317	175.522	0.189	-0.275
-615.303	-103.954	0.253	0.059
-614.288	133.277	-0.179	-0.232
-613.273	-60.549	0.223	0.095
-612.259	18.641	-0.033	0.026
-611.244	-169.760	0.051	-0.002
-610.230	-200.000	-0.009	0.160
-609.215	-161.433	-0.185	0.010
-608.201	-168.675	0.051	0.002
-607.186	-131.248	-0.270	0.036
-606.171	800.000	-0.016	0.067
-605.157	-200.000	-0.002	0.227
-604.142	-200.000	0.000	-0.052
-603.128	-200.000	0.012	-0.097
-602.113	800.000	-0.048	0.188
-601.098	-160.667	-0.265	-0.014
-600.084	800.000	0.091	0.361
-599.069	-66.416	0.224	0.089
-598.055	-87.257	-0.190	-0.058
-597.040	196.935	0.189	0.289
-596.025	-110.733	0.300	-0.062
-595.011	47.319	0.169	-0.158
-593.996	-117.013	0.158	-0.029
-592.982	232.670	-0.146	-0.240
-591.967	800.000	-0.026	-0.113
-590.952	800.000	-0.097	-0.271
-589.938	-17.901	-0.145	0.091
-588.923	800.000	-0.079	-0.230
-587.909	-10.841	-0.306	-0.203
-586.894	-52.618	-0.136	0.063
-585.879	565.880	0.028	-0.068
-584.865	278.963	-0.110	-0.197
-583.850	226.489	-0.013	0.021
-582.836	107.800	-0.018	0.022
-581.821	-127.698	0.390	-0.056
-580.806	250.277	0.103	0.176
-579.792	-73.461	-0.236	-0.086
-578.777	86.044	0.178	-0.196
-577.763	-200.000	0.014	0.144
-576.748	-167.265	-0.177	0.007
-575.733	-64.867	0.158	0.064
-574.719	-111.938	-0.168	-0.034
-573.704	800.000	-0.044	0.166
-572.690	-142.296	-0.297	0.029
-571.675	-200.000	-0.055	-0.320
-570.661	4.960	0.205	0.151
-569.646	-43.109	-0.252	0.128
-568.631	116.462	0.089	-0.110
-567.617	129.849	-0.321	-0.411
-566.602	129.533	0.273	-0.350
-565.588	800.000	-0.064	-0.270
-564.573	-200.000	0.019	-0.142
-563.558	-88.357	0.230	0.069
-562.544	-158.365	0.146	-0.009
-561.529	111.282	-0.252	-0.304
-560.515	3.033	-0.202	-0.147
-559.500	526.358	0.144	-0.340
-558.485	-56.622	0.459	-0.204
-557.471	-65.672	-0.064	0.026
-556.456	296.112	0.156	-0.287
-555.442	-81.829	-0.046	-0.015
-554.427	-160.324	0.188	-0.010
-553.412	-78.935	-0.285	0.097
-552.398	174.783	0.079	0.115
-551.383	78.580	-0.120	-0.128
-550.369	17.635	0.333	-0.265
-549.354	-200.000	-0.030	0.163
-548.339	800.000	-0.051	-0.144
-547.325	431.907	0.102	0.221
-546.310	412.396	-0.139	-0.295
-545.296	1.508	-0.147	0.106
-544.281	-86.763	0.075	-0.023
-543.266	69.184	0.121	0.125
-542.252	-200.000	-0.034	0.276
-541.237	-76.408	-0.040	-0.014
-540.223	31.078	0.081	0.070
-539.208	-200.000	0.021	-0.254
-538.193	-151.684	-0.250	-0.018
-537.179	299.412	0.048	0.088
-536.164	-163.536	0.489	0.023
-535.150	-88.872	-0.174	0.052
-534.135	-155.442	-0.209	0.014
-533.121	-200.000	-0.022	0.228
-532.106	-200.000	-0.038	0.549
-531.091	-200.000	0.001	0.274
-530.077	-67.483	0.156	0.061
-529.062	597.508	0.126	0.314
-528.048	-62.295	-0.257	0.107
-527.033	800.000	-0.088	0.281
-526.018	-129.389	0.079	0.011
-525.004	246.478	0.161	-0.271
-523.989	-200.000	-0.010	0.281
-522.975	-47.119	-0.039	0.019
-521.960	-3.568	-0.231	-0.161
-520.945	-67.137	-0.218	0.086
-519.931	-53.208	-0.179	0.082
-518.916	50.894	0.125	-0.119
-517.902	-132.879	0.180	-0.023
-516.887	-200.000	-0.017	0.179
-515.872	-200.000	-0.038	0.283
-514.858	276.797	0.026	-0.046
-513.843	-138.033	0.222	-0.025
-512.829	37.459	0.133	0.118
-511.814	-103.067	0.142	-0.034
-510.799	-87.014	0.059	-0.018
-509.785	236.244	0.138	-0.228
-508.770	-64.251	-0.431	-0.176
-507.756	-55.215	0.104	0.047
-506.741	134.209	0.297	0.384
-505.726	-52.605	-0.152	-0.070
-504.712	-90.362	0.107	0.031
-503.697	800.000	-0.032	-0.103
-502.683	-200.000	0.007	-0.088
-501.668	-200.000	0.045	-0.213
-500.653	-49.484	0.015	-0.007
-499.639	149.663	-0.065	0.088
-498.624	-129.266	0.173	-0.024
-497.610	-123.984	0.475	0.075
-496.595	-95.388	-0.329	-0.089
-495.581	-156.800	0.379	0.023
-494.566	-67.275	-0.326	0.128
-493.551	30.770	0.126	0.108
-492.537	182.164	0.156	-0.230
-491.522	-181.009	-0.173	0.003
-490.508	-165.859	-0.207	-0.009
-489.493	-28.200	-0.125	-0.072
-488.478	-36.075	0.077	0.042
-487.464	-200.000	0.011	-0.074
-486.449	-31.210	0.248	0.140
-485.435	-200.000	-0.018	-0.117
-484.420	-1.955	-0.380	0.267
-483.405	-35.770	0.131	-0.071
-482.391	-81.854	0.361	-0.118
-481.376	-200.000	-0.012	-0.214
-480.362	198.184	-0.164	-0.250
-479.347	-200.000	0.033	0.152
-478.332	311.930	0.153	0.286
-477.318	-200.000	0.063	-0.354
-476.303	232.234	0.104	0.171
-475.289	-1.140	-0.225	-0.159
-474.274	90.379	-0.111	-0.124
-473.259	-80.223	-0.270	-0.090
-472.245	-50.753	-0.225	-0.106
-471.230	-63.364	0.183	-0.075
-470.216	-124.764	-0.160	-0.025
-469.201	800.000	-0.072	0.313
-468.186	-200.000	0.035	0.205
-467.172	177.224	-0.022	0.032
-466.157	777.039	-0.093	-0.255
-465.143	113.858	-0.115	-0.140
-464.128	-120.377	0.516	0.088
-463.113	-68.831	-0.384	0.148
-462.099	148.778	-0.032	0.043
-461.084	-200.000	0.026	0.225
-460.070	-154.619	0.381	-0.025
-459.055	-64.951	0.069	-0.028
-458.040	-190.577	-0.109	-0.001
-457.026	216.006	-0.202	0.321
-456.011	-81.035	-0.170	-0.056
-454.997	4.535	-0.090	-0.066
-453.982	-85.846	0.320	0.099
-452.968	239.260	-0.111	-0.185
-451.953	-82.058	0.318	-0.104
-450.938	-200.000	0.034	-0.296
-449.924	146.942	-0.122	0.163
-448.909	-9.861	-0.116	-0.077
-447.895	10.173	-0.094	0.071
-446.880	400.823	0.120	-0.251
-445.865	-41.339	0.356	0.183
-444.851	-154.694	-0.216	-0.014
-443.836	-200.000	0.103	-0.000
-442.822	45.323	-0.188	0.173
-441.807	162.653	-0.171	-0.239
-440.792	-200.000	0.052	-0.271
-439.778	94.926	-0.106	0.120
-438.763	65.541	0.189	0.191
-437.749	-200.000	0.047	-0.220
-436.734	-25.302	-0.284	-0.168
-435.719	-136.768	0.144	-0.017
-434.705	87.245	0.222	-0.244
-433.690	-66.437	-0.218	-0.086
-432.676	117.192	0.056	0.069
-431.661	-200.000	-0.019	-0.360
-430.646	34.983	0.171	0.149
-429.632	-38.384	0.328	-0.173
-428.617	-141.337	0.070	0.007
-427.603	-200.000	-0.011	0.379
-426.588	-37.581	0.207	-0.110
-425.573	-200.000	-0.017	-0.113
-424.559	-17.296	-0.088	-0.056
-423.544	290.354	0.148	0.268
-422.530	-14.651	-0.316	-0.202
-421.515	800.000	0.041	-0.149
-420.500	-142.682	-0.153	-0.015
-419.486	419.365	0.149	-0.317
-418.471	800.000	-0.055	0.206
-417.457	800.000	-0.087	0.364
-416.442	-200.000	0.017	0.178
-415.428	62.158	0.269	0.267
-414.413	-200.000	0.002	0.156
-413.398	-12.082	0.190	0.124
-412.384	800.000	-0.070	0.199
-411.369	-68.808	0.049	0.019
-410.355	-120.177	-0.051	0.009
-409.340	10.160	-0.084	-0.064
-408.325	568.769	-0.060	-0.145
-407.311	-42.572	-0.236	0.120
-406.296	-101.428	0.247	-0.060
-405.282	30.802	0.197	-0.168
-404.267	93.172	-0.203	-0.229
-403.252	-198.426	0.081	0.000
-402.238	-200.000	0.033	0.174
-401.223	-200.000	0.049	-0.282
-400.209	-69.499	0.187	0.071
-399.194	800.000	0.053	0.148
-398.179	-117.793	0.126	-0.022
-397.165	-46.814	0.397	0.193
-396.150	505.195	-0.110	0.254
-395.136	79.746	-0.155	-0.165
-394.121	44.021	0.312	0.285
-393.106	259.643	-0.139	0.240
-392.092	-200.000	0.035	-0.257
-391.077	351.123	-0.025	-0.050
-390.063	42.883	0.204	-0.185
-389.048	88.199	0.204	-0.225
-388.033	30.865	-0.144	0.123
-387.019	-14.087	-0.197	0.127
-386.004	-200.000	-0.022	0.304
-384.990	1.782	0.074	-0.053
-383.975	-102.329	-0.200	0.048
-382.960	-95.738	-0.056	-0.015
-381.946	-41.562	-0.389	-0.199
-380.931	-119.792	-0.268	-0.046
-379.917	23.395	0.305	-0.250
-378.902	-115.087	0.144	-0.027
-377.888	84.461	-0.096	-0.104
-376.873	775.940	-0.093	-0.253
-375.858	462.650	0.037	0.083
-374.844	596.601	0.021	-0.052
-373.829	590.065	-0.071	-0.174
-372.815	40.439	-0.237	0.212
-371.800	21.812	-0.105	-0.085
-370.785	-119.370	0.326	-0.056
-369.771	33.531	-0.181	-0.157
-368.756	-37.701	0.177	-0.094
-367.742	253.071	-0.137	0.233
-366.727	-95.852	0.489	0.130
-365.712	-123.647	-0.163	-0.026
-364.698	70.030	0.047	-0.048
-363.683	-26.610	0.136	0.079
-362.669	-145.706	0.084	0.007
-361.654	-125.156	0.149	0.023
-360.639	-93.093	-0.288	0.080
-359.625	-142.287	0.236	-0.023
-358.610	-122.624	-0.095	0.015
-357.596	-161.828	-0.151	-0.008
-356.581	-13.728	0.063	-0.040
-355.566	800.000	-0.060	0.199
-354.552	18.287	-0.249	0.198
-353.537	800.000	-0.111	0.338
-352.523	-200.000	0.050	-0.231
-351.508	-78.798	-0.096	0.033
-350.493	-125.392	-0.347	-0.053
-349.479	-132.217	-0.078	-0.010
-348.464	176.847	0.126	-0.182
-347.450	150.140	-0.194	0.262
-346.435	-200.000	-0.061	0.270
-345.420	26.291	0.220	-0.182
-344.406	40.229	-0.047	-0.042
-343.391	-148.214	-0.207	0.017
-342.377	-200.000	-0.004	-0.152
-341.362	460.431	-0.044	-0.098
-340.348	-70.330	0.195	-0.073
-339.333	-200.000	0.045	-0.399
-338.318	319.799	0.008	-0.015
-337.304	-200.000	-0.065	0.385
-336.289	-30.243	-0.097	0.055
-335.275	66.808	0.192	0.194
-334.260	-20.595	-0.064	0.039
-333.245	-34.883	-0.512	0.278
-332.231	17.224	-0.181	0.143
-331.216	-46.502	0.282	0.138
-330.202	192.637	-0.139	0.209
-329.187	800.000	0.028	0.116
-328.172	7.164	-0.154	-0.114
-327.158	-53.495	0.079	-0.036
-326.143	800.000	0.057	0.179
-325.129	57.955	0.108	-0.105
-324.114	583.974	-0.041	0.101
-323.099	-52.550	0.102	-0.047
-322.085	-29.725	-0.154	0.088
-321.070	151.191	0.156	0.210
-320.056	-64.348	-0.113	-0.046
-319.041	120.167	0.051	-0.063
-318.026	-107.982	-0.080	0.017
-317.012	425.938	0.087	0.187
-315.997	-184.443	0.081	-0.001
-314.983	-134.006	0.095	-0.012
-313.968	117.451	0.262	0.320
-312.953	-12.999	0.109	0.070
-311.939	-200.000	0.010	-0.084
-310.924	-71.911	-0.180	0.066
-309.910	-171.890	0.366	-0.012
-308.895	-174.666	-0.166	-0.005
-307.880	800.000	-0.037	-0.117
-306.866	210.678	-0.049	-0.077
-305.851	-68.863	0.220	-0.084
-304.837	-200.000	-0.018	0.120
-303.822	-200.000	0.025	-0.131
-302.807	14.060	0.247	0.191
-301.793	-29.667	-0.192	0.109
-300.778	106.981	0.311	-0.367
-299.764	722.372	0.146	-0.385
-298.749	112.583	0.099	-0.119
-297.735	-2.255	0.246	0.171
-296.720	-200.000	-0.019	-0.267
-295.705	800.000	-0.036	-0.154
-294.691	483.838	0.029	0.065
-293.676	-200.000	0.049	0.226
-292.662	567.223	-0.032	-0.076
-291.647	592.635	0.095	-0.233
-290.632	74.454	-0.126	-0.132
-289.618	31.318	-0.205	-0.175
-288.603	-5.741	-0.046	0.031
-287.589	156.479	-0.124	0.170
-286.574	-200.000	-0.005	-0.132
-285.559	-35.135	-0.101	0.055
-284.545	-111.980	-0.213	-0.042
-283.530	123.366	0.091	0.113
-282.516	73.483	0.155	-0.161
-281.501	477.274	-0.052	0.117
-280.486	526.127	-0.111	0.259
-279.472	-200.000	0.003	-0.072
-278.457	-200.000	0.003	-0.122
-277.443	-4.292	-0.137	0.094
-276.428	563.610	-0.163	0.392
-275.413	165.978	0.093	-0.131
-274.399	-200.000	-0.010	0.118
-273.384	42.764	-0.170	-0.154
-272.370	47.795	0.275	0.254
-271.355	800.000	0.073	-0.207
-270.340	71.100	0.248	0.255
-269.326	126.989	-0.048	0.060
-268.311	800.000	-0.061	0.168
-267.297	104.093	0.142	0.166
-266.282	-115.854	0.023	0.004
-265.267	197.929	-0.091	-0.138
-264.253	39.398	0.273	0.242
-263.238	-27.852	0.302	0.174
-262.224	-200.000	0.010	0.052
-261.209	-48.700	-0.417	0.199
-260.195	-30.326	-0.086	0.049
-259.180	556.464	0.146	0.349
-258.165	-130.938	0.213	0.028
-257.151	190.781	-0.146	0.218
-256.136	-8.493	0.272	-0.181
-255.122	-100.059	0.095	0.023
-254.107	-7.340	0.033	0.022
-253.092	206.382	0.099	-0.153
-252.078	-54.250	0.185	0.083
-251.063	506.459	0.083	-0.190
-250.049	-200.000	-0.007	-0.040
-249.034	-107.499	-0.285	0.062
-248.019	-51.634	0.025	0.011
-247.005	141.036	0.079	-0.104
-245.990	75.147	0.053	0.056
-244.976	187.362	-0.053	-0.078
-243.961	-200.000	0.027	-0.201
-242.946	-101.458	-0.053	-0.013
-241.932	-190.067	-0.101	-0.001
-240.917	34.425	-0.131	0.113
-239.903	-125.455	-0.288	-0.043
-238.888	-160.816	0.136	0.007
-237.873	-19.124	0.275	-0.169
-236.859	-200.000	-0.002	-0.102
-235.844	73.381	0.293	0.304
-234.830	-19.229	0.231	0.142
-233.815	-81.789	-0.463	-0.150
-232.800	9.896	0.026	0.020
-231.786	68.115	-0.186	-0.189
-230.771	-5.617	0.165	-0.112
-229.757	127.702	-0.204	-0.256
-228.742	-42.026	0.281	0.142
-227.727	37.140	0.214	-0.188
-226.713	-136.453	-0.438	0.050
-225.698	34.323	-0.155	0.134
-224.684	-59.470	-0.062	0.027
-223.669	72.772	-0.119	0.123
-222.655	247.854	0.166	0.278
-221.640	274.760	-0.239	0.418
-220.625	178.010	0.115	0.166
-219.611	-200.000	-0.025	-0.109
-218.596	-47.404	-0.301	-0.145
-217.582	800.000	0.047	0.201
-216.567	-47.795	0.292	-0.140
-215.552	45.905	0.108	-0.099
-214.538	-92.501	0.133	0.037
-213.523	800.000	-0.040	-0.150
-212.509	14.634	0.163	-0.126
-211.494	-86.401	0.046	-0.014
-210.479	52.578	-0.376	0.355
-209.465	130.010	0.169	0.213
-208.450	210.289	-0.028	0.044
-207.436	-32.629	0.234	0.129
-206.421	-37.338	-0.144	0.076
-205.406	-128.622	-0.173	0.024
-204.392	-200.000	-0.345	0.002
-203.377	-200.000	-0.034	0.251
-202.363	398.705	-0.002	-0.004
-201.348	103.854	0.124	-0.144
-200.333	-200.000	0.042	-0.193
-199.319	-158.338	-0.241	-0.014
-198.304	-184.227	0.117	-0.002
-197.290	-27.408	-0.323	-0.186
-196.275	-6.696	0.387	-0.260
-195.260	124.357	-0.185	-0.230
-194.246	-0.356	-0.144	0.101
-193.231	-112.621	0.120	-0.024
-192.217	-98.241	0.140	-0.036
-191.202	66.340	-0.172	-0.173
-190.187	-200.000	-0.021	0.215
-189.173	-26.353	-0.200	0.116
-188.158	800.000	0.011	0.030
-187.144	534.733	0.095	-0.221
-186.129	-200.000	0.002	-0.090
-185.114	800.000	-0.093	-0.266
-184.100	27.501	0.049	0.040
-183.085	5.154	0.114	-0.083
-182.071	-35.534	0.209	0.112
-181.056	-39.171	-0.241	0.125
-180.042	-200.000	0.008	0.227
-179.027	-200.000	-0.002	0.047
-178.012	-12.750	-0.116	-0.075
-176.998	-17.966	0.309	-0.192
-175.983	-94.211	-0.245	0.066
-174.969	-4.607	0.289	0.197
-173.954	-117.355	-0.106	-0.019
-172.939	77.932	0.188	-0.198
-171.925	-127.454	0.147	-0.021
-170.910	349.553	-0.009	0.017
-169.896	-92.492	0.184	-0.051
-168.881	232.528	-0.015	-0.024
-167.866	-127.348	-0.356	-0.051
-166.852	-116.931	0.058	-0.010
-165.837	-200.000	0.022	0.100
-164.823	104.730	-0.168	0.196
-163.808	-43.480	-0.291	0.145
-162.793	-200.000	-0.009	-0.251
-161.779	74.555	-0.273	-0.283
-160.764	361.296	-0.034	0.067
-159.750	800.000	-0.084	0.334
-158.735	-17.453	0.054	0.034
-157.720	275.396	0.152	0.266
-156.706	525.178	-0.088	0.205
-155.691	357.698	-0.080	-0.158
-154.677	230.119	-0.192	0.310
-153.662	-43.484	-0.132	0.066
-152.647	-114.363	0.209	-0.040
-151.633	-157.549	-0.186	0.011
-150.618	316.811	0.032	-0.059
-149.604	103.126	-0.306	0.354
-148.589	-200.000	-0.054	-0.279
-147.574	-144.272	0.093	-0.009
-146.560	-1.151	-0.117	-0.081
-145.545	800.000	0.156	-0.456
-144.531	40.549	-0.163	0.145
-143.516	-86.440	-0.361	-0.109
-142.502	171.598	0.244	0.346
-141.487	-53.690	0.069	0.031
-140.472	-200.000	0.018	-0.196
-139.458	-43.391	-0.280	0.140
-138.443	-117.612	0.476	-0.085
-137.429	-31.392	-0.099	0.055
-136.414	-200.000	-0.023	0.276
-135.399	-200.000	0.068	-0.000
-134.385	-128.252	-0.159	-0.022
-133.370	-195.010	-0.411	-0.003
-132.356	-75.648	0.126	0.044
-131.341	569.459	0.064	0.152
-130.326	63.725	0.197	0.195
-129.312	761.089	0.042	-0.111
-128.297	160.782	0.285	0.393
-127.283	-183.752	-0.134	0.002
-126.268	-200.000	0.042	0.292
-125.253	726.480	0.112	0.295
-124.239	228.787	-0.159	0.256
-123.224	323.238	0.115	0.216
-122.210	-200.000	-0.000	-0.032
