DTS Sentinel unit serial number:	SN413079Multiplexer serial number:	ORYXHardware model number:	OX4-SRSoftware version number:	ORYX F/W v4.00 Oryx Data Collector v3.7.2.0data status	okinstallation	princeton_trtdifferential loss correction	single-endedforward channel	channel 4reverse channel	N/Adate	2019/09/13time	11:45:34forward acquisition time	60.00reverse acquisition time	0.00gamma	496.2192k internal	0.2301k external	0.2301temperature offset calibration	1.0207default loss term (dB/km)	0.3790temperature slope calibration	1.0000multiplexer offset coefficient	1.0000multiplexer slope coefficient	1.0000fibre end	0.00T internal ref (°C)	33.19T ext. ref 1 (°C)	4.52T ext. ref 2 (°C)	30.23length (m)	temperature (°C)	Stokes	anti-Stokes-747.200	30.853	-0.070	0.061
-746.185	-31.416	0.171	0.098
-745.171	800.000	-0.039	0.121
-744.156	141.102	-0.439	0.592
-743.142	-89.345	-0.133	0.040
-742.127	724.255	0.078	0.213
-741.112	250.814	0.126	0.218
-740.098	221.711	0.206	0.338
-739.083	-108.949	-0.244	0.053
-738.069	-200.000	0.058	0.316
-737.054	-200.000	0.061	0.486
-736.039	-75.640	-0.224	0.081
-735.025	51.547	-0.151	0.146
-734.010	-200.000	-0.025	-0.240
-732.996	301.427	-0.047	0.088
-731.981	-123.709	0.090	-0.015
-730.966	-66.516	-0.239	-0.097
-729.952	-106.837	-0.201	0.045
-728.937	-162.142	-0.072	-0.004
-727.923	57.492	-0.264	0.263
-726.908	264.461	-0.092	-0.163
-725.894	335.556	-0.093	-0.183
-724.879	-58.517	-0.525	-0.232
-723.864	800.000	-0.156	-0.522
-722.850	690.742	0.062	-0.166
-721.835	-20.482	0.101	-0.063
-720.821	19.627	-0.289	0.237
-719.806	-200.000	-0.061	-0.353
-718.791	-47.695	-0.043	0.021
-717.777	45.641	0.408	-0.384
-716.762	0.610	0.133	-0.097
-715.748	52.234	0.283	-0.274
-714.733	162.383	-0.117	0.167
-713.718	-53.125	-0.176	0.082
-712.704	224.580	-0.067	0.110
-711.689	-200.000	0.050	0.277
-710.675	-104.578	-0.247	0.058
-709.660	-130.457	-0.032	-0.004
-708.645	-200.000	-0.021	0.105
-707.631	-111.372	0.322	0.067
-706.616	163.350	0.125	-0.178
-705.602	-87.761	0.215	0.066
-704.587	-10.505	0.302	-0.204
-703.572	-82.531	0.100	0.033
-702.558	-78.545	0.416	-0.145
-701.543	349.207	-0.050	0.101
-700.529	242.234	0.048	-0.082
-699.514	-131.213	-0.246	0.033
-698.499	-31.893	0.277	0.158
-697.485	-7.185	0.198	-0.136
-696.470	-145.348	-0.093	0.008
-695.456	-200.000	0.009	-0.131
-694.441	-39.668	0.212	0.113
-693.426	-133.792	-0.279	0.035
-692.412	522.604	-0.036	-0.085
-691.397	-72.950	0.255	-0.096
-690.383	57.406	0.108	0.108
-689.368	-110.274	-0.024	0.005
-688.354	-186.154	-0.233	0.003
-687.339	37.564	-0.250	-0.226
-686.324	-200.000	-0.080	-0.470
-685.310	117.889	-0.151	-0.190
-684.295	413.017	0.127	-0.275
-683.281	135.927	-0.191	0.253
-682.266	322.319	0.069	-0.133
-681.251	-9.774	0.113	-0.077
-680.237	-100.818	0.095	-0.024
-679.222	6.939	-0.308	-0.234
-678.208	-200.000	0.001	-0.130
-677.193	48.612	0.173	0.165
-676.178	-113.617	-0.276	-0.055
-675.164	204.161	-0.197	0.310
-674.149	800.000	-0.043	0.146
-673.135	-200.000	0.016	-0.090
-672.120	-17.168	-0.165	0.106
-671.105	-200.000	0.012	0.163
-670.091	-200.000	0.036	-0.305
-669.076	-1.592	0.141	-0.101
-668.062	134.340	-0.169	-0.222
-667.047	209.979	0.095	-0.152
-666.032	-6.138	0.190	-0.132
-665.018	-96.546	-0.050	-0.013
-664.003	-114.594	-0.452	0.088
-662.989	-200.000	-0.082	-0.422
-661.974	-200.000	0.039	-0.426
-660.959	-163.555	0.144	0.007
-659.945	69.636	-0.270	-0.282
-658.930	266.605	-0.100	0.178
-657.916	800.000	-0.075	-0.297
-656.901	-33.603	0.474	0.266
-655.886	631.974	0.089	0.228
-654.872	-47.746	-0.271	-0.134
-653.857	-124.150	0.262	0.042
-652.843	485.200	-0.087	0.201
-651.828	52.555	0.161	-0.156
-650.814	11.530	-0.160	0.124
-649.799	-10.588	-0.152	-0.102
-648.784	594.311	-0.041	0.103
-647.770	-76.761	0.212	0.075
-646.755	-140.939	-0.155	-0.016
-645.741	-134.002	0.129	0.016
-644.726	-200.000	0.016	-0.124
-643.711	-134.596	-0.223	-0.028
-642.697	-125.041	-0.069	0.011
-641.682	-143.587	0.337	-0.033
-640.668	3.801	0.178	0.132
-639.653	60.313	0.148	-0.149
-638.638	58.782	-0.096	-0.096
-637.624	109.553	0.096	-0.116
-636.609	-101.774	0.118	-0.029
-635.595	-200.000	-0.306	-0.001
-634.580	211.759	0.116	-0.186
-633.565	-141.038	0.048	-0.005
-632.551	31.703	-0.083	0.073
-631.536	-134.001	-0.292	0.037
-630.522	-106.316	0.230	0.052
-629.507	-200.000	0.064	-0.304
-628.492	-174.357	0.422	-0.012
-627.478	310.551	-0.048	-0.092
-626.463	-200.000	0.035	-0.310
-625.449	-126.576	-0.318	0.048
-624.434	41.954	-0.233	-0.214
-623.419	711.300	0.110	0.295
-622.405	-161.552	0.200	-0.010
-621.390	25.047	0.237	0.200
-620.376	-200.000	0.066	0.343
-619.361	47.587	0.198	0.187
-618.346	-200.000	0.020	0.458
-617.332	375.350	-0.163	0.338
-616.317	-182.160	-0.200	0.004
-615.303	734.996	0.096	-0.261
-614.288	-193.267	-0.178	0.002
-613.273	-200.000	0.014	-0.163
-612.259	-44.140	-0.202	-0.103
-611.244	396.568	0.017	0.035
-610.230	528.021	0.112	0.267
-609.215	-200.000	-0.042	-0.300
-608.201	800.000	0.074	0.286
-607.186	41.538	-0.095	-0.087
-606.171	131.039	0.085	-0.111
-605.157	235.096	0.147	-0.246
-604.142	800.000	-0.070	0.216
-603.128	-200.000	0.031	-0.233
-602.113	800.000	0.019	-0.074
-601.098	-59.592	-0.273	-0.119
-600.084	12.678	-0.370	-0.290
-599.069	560.233	-0.090	-0.221
-598.055	-158.412	-0.380	0.022
-597.040	166.817	0.034	-0.049
-596.025	800.000	-0.018	-0.060
-595.011	159.871	0.087	-0.123
-593.996	-92.059	0.526	-0.151
-592.982	-85.187	-0.362	0.115
-591.967	313.293	0.103	0.197
-590.952	-87.196	-0.176	0.054
-589.938	800.000	0.112	-0.353
-588.923	-71.707	-0.180	-0.068
-587.909	222.957	0.095	0.155
-586.894	-150.973	0.282	-0.022
-585.879	263.902	0.144	-0.253
-584.865	800.000	-0.164	-0.465
-583.850	-44.996	0.290	-0.146
-582.836	287.441	-0.152	-0.279
-581.821	50.368	-0.074	0.071
-580.806	19.987	0.265	0.217
-579.792	-121.067	-0.230	0.039
-578.777	-125.183	0.419	-0.065
-577.763	286.822	0.050	-0.091
-576.748	317.022	0.215	0.411
-575.733	48.978	-0.203	0.193
-574.719	800.000	0.059	-0.172
-573.704	-178.409	-0.426	0.010
-572.690	450.056	0.082	0.184
-571.675	61.834	0.057	0.058
-570.661	79.362	-0.113	-0.123
-569.646	-60.969	0.326	-0.140
-568.631	-200.000	0.007	-0.111
-567.617	-91.844	0.275	-0.079
-566.602	257.152	0.196	-0.341
-565.588	-44.277	-0.363	-0.184
-564.573	10.667	0.217	-0.167
-563.558	800.000	0.066	-0.290
-562.544	800.000	-0.073	0.253
-561.529	-200.000	-0.019	0.134
-560.515	-200.000	0.012	-0.220
-559.500	800.000	-0.110	-0.409
-558.485	-200.000	-0.010	0.221
-557.471	154.174	0.121	-0.168
-556.456	2.324	-0.075	-0.055
-555.442	-124.539	0.196	0.031
-554.427	533.187	0.132	-0.317
-553.412	-45.572	-0.411	-0.206
-552.398	-112.636	-0.108	-0.022
-551.383	-124.416	-0.181	0.029
-550.369	-47.364	-0.336	0.165
-549.354	-200.000	0.024	0.105
-548.339	61.610	0.328	0.331
-547.325	-21.234	-0.133	-0.082
-546.310	-200.000	-0.004	-0.040
-545.296	-10.235	-0.108	-0.072
-544.281	-200.000	0.027	-0.235
-543.266	-159.518	0.284	0.016
-542.252	31.498	0.118	-0.103
-541.237	-200.000	-0.011	0.514
-540.223	216.606	-0.104	-0.167
-539.208	-200.000	0.019	0.127
-538.193	-200.000	-0.008	0.055
-537.179	331.450	-0.066	-0.129
-536.164	-11.078	0.306	-0.204
-535.150	172.996	-0.077	0.113
-534.135	-50.665	0.176	0.084
-533.121	-200.000	0.003	-0.092
-532.106	80.287	-0.164	-0.178
-531.091	-166.949	0.248	-0.010
-530.077	-107.127	-0.042	-0.009
-529.062	-90.670	0.285	0.083
-528.048	-30.484	0.132	0.076
-527.033	332.377	0.084	-0.164
-526.018	13.510	0.185	-0.145
-525.004	-41.324	-0.218	0.114
-523.989	-124.725	-0.196	-0.031
-522.975	-200.000	0.014	-0.199
-521.960	-200.000	0.012	0.121
-520.945	-101.476	0.256	0.063
-519.931	-65.798	0.298	0.121
-518.916	-7.674	-0.245	-0.167
-517.902	-184.035	0.134	0.002
-516.887	37.209	0.158	0.141
-515.872	66.625	-0.216	-0.222
-514.858	-140.459	-0.066	0.007
-513.843	118.370	0.017	0.021
-512.829	154.160	-0.100	-0.139
-511.814	30.292	0.131	0.113
-510.799	800.000	-0.078	0.265
-509.785	-79.657	-0.108	-0.037
-508.770	32.103	0.311	-0.271
-507.756	177.813	-0.067	0.099
-506.741	156.747	-0.166	0.232
-505.726	412.419	-0.065	0.140
-504.712	552.305	0.087	-0.212
-503.697	8.828	0.223	-0.170
-502.683	0.290	0.218	-0.157
-501.668	-126.879	0.213	-0.032
-500.653	197.476	-0.164	-0.252
-499.639	-80.828	0.153	0.051
-498.624	-121.254	0.107	0.018
-497.610	-55.251	0.155	0.070
-496.595	-160.275	0.311	-0.017
-495.581	-45.194	-0.153	0.077
-494.566	379.406	0.028	-0.057
-493.551	110.829	-0.395	0.480
-492.537	523.964	0.074	-0.177
-491.522	-141.845	-0.058	0.006
-490.508	196.569	-0.048	-0.073
-489.493	376.580	-0.082	-0.168
-488.478	98.392	0.244	0.284
-487.464	102.085	-0.117	-0.138
-486.449	-82.572	0.067	0.022
-485.435	15.227	0.211	0.167
-484.420	-200.000	-0.022	-0.127
-483.405	688.879	0.044	-0.117
-482.391	-113.669	-0.273	-0.054
-481.376	-114.814	0.284	0.055
-480.362	511.778	0.027	-0.063
-479.347	111.212	0.158	-0.192
-478.332	-200.000	0.021	0.193
-477.318	5.579	-0.115	-0.086
-476.303	752.687	0.131	0.356
-475.289	-200.000	-0.011	0.164
-474.274	-84.899	-0.321	0.102
-473.259	-50.299	0.085	-0.041
-472.245	603.530	-0.098	-0.245
-471.230	-48.093	-0.091	0.044
-470.216	-18.950	0.175	-0.110
-469.201	-46.604	0.045	0.022
-468.186	590.764	0.077	0.193
-467.172	-145.789	-0.227	0.020
-466.157	800.000	-0.007	-0.026
-465.143	-17.260	-0.305	0.194
-464.128	-99.329	-0.131	-0.033
-463.113	-115.887	-0.228	0.043
-462.099	-200.000	-0.006	-0.087
-461.084	458.879	-0.028	0.063
-460.070	572.289	-0.060	-0.147
-459.055	-111.559	0.046	0.009
-458.040	-200.000	-0.005	-0.169
-457.026	-78.723	-0.154	0.053
-456.011	42.780	0.305	0.280
-454.997	800.000	-0.078	-0.320
-453.982	555.045	0.072	0.176
-452.968	-200.000	0.003	-0.140
-451.953	73.098	0.207	-0.218
-450.938	-200.000	0.058	-0.420
-449.924	-72.131	-0.355	0.133
-448.909	-140.334	0.157	0.016
-447.895	-82.628	-0.441	0.144
-446.880	-73.812	0.067	-0.025
-445.865	-163.713	-0.201	-0.010
-444.851	46.934	-0.252	-0.237
-443.836	-105.297	-0.106	0.024
-442.822	157.172	-0.243	0.339
-441.807	143.841	-0.121	0.162
-440.792	226.545	-0.035	-0.057
-439.778	-114.076	0.136	-0.027
-438.763	-128.492	-0.473	-0.068
-437.749	-200.000	0.001	-0.056
-436.734	-63.525	-0.462	0.191
-435.719	-20.052	-0.135	-0.084
-434.705	-200.000	-0.020	0.110
-433.690	-200.000	0.017	-0.097
-432.676	116.698	0.087	-0.108
-431.661	58.498	-0.039	0.039
-430.646	178.077	-0.065	-0.095
-429.632	-200.000	-0.072	-0.366
-428.617	103.002	0.366	0.431
-427.603	-200.000	0.054	-0.390
-426.588	-139.903	-0.296	-0.032
-425.573	-200.000	-0.039	0.285
-424.559	-97.315	0.185	0.049
-423.544	-75.386	0.100	0.036
-422.530	-187.281	0.188	0.003
-421.515	-93.934	0.299	-0.083
-420.500	-200.000	-0.013	-0.110
-419.486	81.828	0.114	0.124
-418.471	-20.725	-0.316	-0.195
-417.457	148.979	0.066	-0.090
-416.442	344.840	0.045	-0.088
-415.428	-65.970	-0.227	0.091
-414.413	-123.124	-0.076	0.012
-413.398	77.636	-0.270	0.290
-412.384	-136.470	-0.145	0.017
-411.369	336.791	-0.033	-0.065
-410.355	-147.050	-0.036	-0.003
-409.340	-200.000	0.037	-0.345
-408.325	-200.000	-0.009	-0.090
-407.311	346.130	-0.015	-0.030
-406.296	-200.000	-0.032	0.212
-405.282	549.499	-0.094	0.226
-404.267	-39.124	-0.264	-0.140
-403.252	34.177	-0.072	0.064
-402.238	800.000	-0.064	0.185
-401.223	50.621	-0.100	-0.095
-400.209	-44.617	-0.291	-0.146
-399.194	800.000	0.101	-0.288
-398.179	278.049	-0.074	-0.132
-397.165	-27.672	-0.126	0.074
-396.150	-123.350	0.285	-0.046
-395.136	67.731	0.151	0.155
-394.121	-21.938	0.255	-0.156
-393.106	398.736	-0.111	-0.233
-392.092	8.840	-0.267	0.202
-391.077	231.842	0.127	-0.210
-390.063	-45.849	-0.224	0.111
-389.048	273.030	0.052	0.093
-388.033	-33.840	0.285	0.158
-387.019	82.460	0.059	0.064
-386.004	800.000	0.038	0.160
-384.990	258.286	0.124	0.214
-383.975	397.629	0.046	0.096
-382.960	45.279	-0.122	0.113
-381.946	-200.000	0.019	0.264
-380.931	800.000	0.076	0.275
-379.917	-19.628	-0.030	-0.019
-378.902	-3.104	-0.245	-0.172
-377.888	-31.983	-0.129	-0.073
-376.873	-200.000	0.000	-0.195
-375.858	800.000	-0.034	0.134
-374.844	800.000	0.078	-0.250
-373.829	100.247	-0.035	-0.041
-372.815	593.601	-0.071	0.175
-371.800	18.274	-0.154	-0.123
-370.785	28.196	-0.112	-0.095
-369.771	-104.331	0.059	-0.014
-368.756	99.398	0.130	-0.151
-367.742	222.831	-0.051	-0.082
-366.727	215.051	-0.204	0.325
-365.712	337.735	0.055	-0.108
-364.698	-156.564	0.116	0.007
-363.683	84.189	0.154	0.169
-362.669	360.035	-0.041	-0.083
-361.654	-77.576	0.185	-0.064
-360.639	-99.443	-0.192	0.049
-359.625	-95.310	-0.481	-0.130
-358.610	-99.619	0.121	-0.030
-357.596	434.648	0.136	0.296
-356.581	396.593	0.310	0.650
-355.566	-189.729	-0.352	0.004
-354.552	800.000	0.035	-0.110
-353.537	-102.537	-0.087	-0.021
-352.523	798.243	-0.108	0.299
-351.508	-124.444	-0.385	-0.060
-350.493	570.114	-0.019	-0.047
-349.479	-43.080	0.086	-0.044
-348.464	227.372	-0.089	-0.145
-347.450	748.645	-0.053	-0.143
-346.435	-25.347	-0.392	-0.233
-345.420	-145.431	-0.134	-0.012
-344.406	-90.604	-0.114	0.033
-343.391	-125.459	0.237	0.036
-342.377	-200.000	0.030	-0.174
-341.362	800.000	-0.051	-0.142
-340.348	-165.932	0.058	0.002
-339.333	139.242	0.105	0.138
-338.318	-6.520	-0.108	-0.074
-337.304	800.000	0.058	-0.225
-336.289	-15.863	-0.156	0.100
-335.275	209.048	-0.092	0.145
-334.260	-187.068	0.122	-0.002
-333.245	-173.635	-0.258	0.008
-332.231	40.823	0.265	0.240
-331.216	-10.352	-0.078	0.052
-330.202	800.000	0.072	-0.264
-329.187	60.196	0.068	0.068
-328.172	-200.000	0.053	0.596
-327.158	-200.000	0.001	0.457
-326.143	323.123	0.108	0.206
-325.129	67.175	0.120	0.123
-324.114	-70.748	0.177	-0.067
-323.099	604.944	-0.106	0.266
-322.085	5.882	-0.253	0.187
-321.070	800.000	-0.059	0.168
-320.056	-89.463	-0.064	-0.019
-319.041	135.000	0.132	-0.172
-318.026	35.243	0.174	-0.153
-317.012	-173.136	0.210	-0.006
-315.997	27.195	-0.087	-0.073
-314.983	-48.238	0.080	-0.039
-313.968	800.000	-0.039	-0.171
-312.953	800.000	0.058	0.180
-311.939	-200.000	-0.008	-0.047
-310.924	-133.233	0.224	0.028
-309.910	-200.000	0.008	0.167
-308.895	-93.543	-0.202	-0.056
-307.880	-42.271	-0.148	-0.076
-306.866	-118.462	-0.178	-0.032
-305.851	-200.000	0.031	0.169
-304.837	84.871	0.227	0.249
-303.822	-150.411	-0.378	-0.029
-302.807	-151.796	0.447	-0.033
-301.793	-65.705	-0.349	0.140
-300.778	39.426	0.104	0.093
-299.764	41.898	-0.220	-0.200
-298.749	-71.651	-0.243	0.091
-297.735	-114.495	-0.332	-0.064
-296.720	-23.087	0.124	0.075
-295.705	65.888	0.172	0.175
-294.691	800.000	-0.054	-0.229
-293.676	-200.000	-0.030	0.138
-292.662	-200.000	-0.012	0.166
-291.647	-200.000	-0.010	-0.168
-290.632	-200.000	-0.049	0.254
-289.618	-175.474	0.246	-0.007
-288.603	3.526	-0.029	-0.021
-287.589	23.837	0.230	-0.190
-286.574	136.876	0.172	0.225
-285.559	-107.078	-0.064	0.014
-284.545	-80.425	0.268	0.089
-283.530	-49.413	0.207	-0.099
-282.516	-200.000	-0.025	0.179
-281.501	800.000	-0.091	-0.254
-280.486	-200.000	-0.094	0.479
-279.472	-200.000	-0.024	0.145
-278.457	-200.000	0.000	0.014
-277.443	9.638	-0.153	-0.116
-276.428	-80.544	0.171	0.057
-275.413	17.565	0.246	-0.196
-274.399	-89.767	-0.072	0.021
-273.384	188.258	-0.279	0.417
-272.370	800.000	-0.074	0.207
-271.355	-20.279	-0.216	0.133
-270.340	84.819	-0.192	0.211
-269.326	-200.000	0.010	-0.100
-268.311	-200.000	0.009	-0.124
-267.297	-176.916	-0.148	-0.004
-266.282	-97.797	0.249	0.065
-265.267	-39.575	0.149	0.078
-264.253	-20.148	0.035	-0.021
-263.238	800.000	0.046	0.187
-262.224	-200.000	-0.036	-0.234
-261.209	-200.000	0.011	-0.180
-260.195	-141.484	-0.136	-0.014
-259.180	-84.306	-0.183	0.058
-258.165	-65.061	0.207	0.083
-257.151	-139.273	0.050	-0.005
-256.136	111.211	0.149	0.180
-255.122	-98.925	0.222	-0.056
-254.107	-159.017	-0.038	-0.002
-253.092	-64.321	0.170	-0.069
-252.078	114.709	-0.031	0.038
-251.063	-200.000	-0.008	0.128
-250.049	256.952	0.134	0.230
-249.034	-200.000	-0.023	0.432
-248.019	-60.292	-0.141	-0.060
-247.005	-3.523	-0.143	0.099
-245.990	-22.206	-0.315	-0.191
-244.976	-169.235	0.340	0.013
-243.961	-200.000	0.039	0.340
-242.946	-130.264	-0.159	0.022
-241.932	50.887	0.248	-0.235
-240.917	211.709	0.200	-0.314
-239.903	-170.742	-0.154	-0.005
-238.888	52.993	-0.094	-0.090
-237.873	-80.997	-0.621	0.205
-236.859	15.561	0.088	-0.069
-235.844	-200.000	0.016	-0.088
-234.830	-200.000	0.066	0.457
-233.815	-200.000	0.009	0.179
-232.800	800.000	-0.046	0.179
-231.786	800.000	-0.039	0.116
-230.771	800.000	0.033	0.112
-229.757	-152.366	0.225	0.016
-228.742	-14.888	-0.367	-0.235
-227.727	366.206	0.227	-0.458
-226.713	-69.111	0.107	0.041
-225.698	-41.563	-0.160	0.082
-224.684	-47.244	-0.308	-0.150
-223.669	-89.189	-0.180	-0.053
-222.655	800.000	-0.030	-0.084
-221.640	-187.570	-0.119	-0.002
-220.625	800.000	0.083	0.286
-219.611	800.000	0.078	-0.227
-218.596	214.708	0.084	0.133
-217.582	297.584	-0.110	-0.201
-216.567	-14.443	-0.275	-0.177
-215.552	-123.297	0.181	-0.029
-214.538	-53.087	-0.109	0.050
-213.523	-154.634	0.014	0.001
-212.509	-200.000	0.046	0.253
-211.494	-182.175	0.208	0.004
-210.479	450.669	0.160	0.352
-209.465	-56.142	-0.101	0.045
-208.450	341.722	0.032	-0.062
-207.436	800.000	0.068	-0.272
-206.421	-38.086	0.283	0.150
-205.406	-200.000	0.011	-0.084
-204.392	-95.430	-0.253	-0.068
-203.377	127.061	0.123	-0.156
-202.363	4.187	0.299	-0.219
-201.348	-64.523	0.267	0.108
-200.333	293.993	-0.118	0.215
-199.319	352.072	0.068	-0.134
-198.304	-113.928	0.157	0.030
-197.290	800.000	-0.104	0.356
-196.275	-200.000	0.014	0.169
-195.260	2.380	-0.094	-0.068
-194.246	15.891	0.083	-0.065
-193.231	366.201	-0.101	0.203
-192.217	246.120	0.079	-0.132
-191.202	-128.797	-0.190	0.027
-190.187	9.887	0.066	0.050
-189.173	95.670	0.046	0.053
-188.158	13.390	-0.216	-0.167
-187.144	-123.101	0.060	0.010
-186.129	-199.277	0.159	0.001
-185.114	133.262	-0.130	-0.168
-184.100	-54.522	-0.186	-0.084
-183.085	-31.141	0.449	-0.253
-182.071	-200.000	0.024	-0.219
-181.056	250.705	-0.068	0.115
-180.042	-200.000	0.064	-0.335
-179.027	724.865	0.077	-0.205
-178.012	-200.000	0.035	-0.192
-176.998	800.000	0.086	0.268
-175.983	-69.543	0.159	0.061
-174.969	-33.146	0.113	-0.063
-173.954	24.148	0.284	0.234
-172.939	-121.124	-0.321	0.054
-171.925	-138.529	-0.266	0.029
-170.910	-23.718	0.149	-0.089
-169.896	81.625	0.219	-0.236
-168.881	54.734	-0.090	-0.087
-167.866	-18.131	-0.063	-0.039
-166.852	800.000	-0.082	-0.290
-165.837	800.000	-0.005	0.018
-164.823	800.000	-0.017	-0.060
-163.808	800.000	-0.031	0.132
-162.793	-16.335	0.157	-0.100
-161.779	78.459	0.102	0.108
-160.764	72.159	0.379	0.393
-159.750	-98.258	0.216	-0.055
-158.735	-107.005	0.303	0.067
-157.720	77.533	0.218	0.232
-156.706	-13.878	0.223	0.143
-155.691	49.736	0.164	0.154
-154.677	607.623	0.078	-0.194
-153.662	721.989	-0.091	-0.241
-152.647	-200.000	-0.026	-0.115
-151.633	387.570	-0.001	0.001
-150.618	-178.469	-0.036	-0.001
-149.604	-136.540	0.093	-0.011
-148.589	124.981	-0.201	-0.252
-147.574	224.797	0.252	-0.406
-146.560	800.000	0.040	-0.168
-145.545	175.046	-0.091	0.131
-144.531	-200.000	0.059	-0.272
-143.516	-42.762	-0.077	0.039
-142.502	-128.872	0.277	-0.039
-141.487	-129.650	-0.290	-0.040
-140.472	-200.000	0.024	-0.186
-139.458	-200.000	0.002	0.033
-138.443	266.908	-0.044	0.077
-137.429	21.491	0.381	-0.309
-136.414	-200.000	-0.048	-0.292
-135.399	-158.073	0.324	0.019
-134.385	403.331	-0.118	-0.247
-133.370	800.000	0.046	0.172
-132.356	155.364	-0.084	0.115
-131.341	800.000	0.023	0.067
-130.326	165.048	0.063	0.089
-129.312	-200.000	0.010	0.243
-128.297	-75.966	-0.247	0.087
-127.283	-10.026	-0.237	0.156
-126.268	66.121	0.069	-0.070
-125.253	-109.950	0.214	0.045
-124.239	-200.000	-0.015	0.282
-123.224	206.183	-0.206	0.319
-122.210	151.561	-0.033	-0.045
