DTS Sentinel unit serial number:	SN413079Multiplexer serial number:	ORYXHardware model number:	OX4-SRSoftware version number:	ORYX F/W v4.00 Oryx Data Collector v3.7.2.0data status	okinstallation	princeton_trtdifferential loss correction	single-endedforward channel	channel 4reverse channel	N/Adate	2019/09/17time	20:13:34forward acquisition time	60.00reverse acquisition time	0.00gamma	496.2192k internal	0.2319k external	0.2319temperature offset calibration	0.9985default loss term (dB/km)	0.3790temperature slope calibration	1.0000multiplexer offset coefficient	1.0000multiplexer slope coefficient	1.0000fibre end	0.00T internal ref (°C)	32.03T ext. ref 1 (°C)	0.22T ext. ref 2 (°C)	22.24length (m)	temperature (°C)	Stokes	anti-Stokes-747.200	-200.000	0.014	0.186
-746.185	281.243	0.195	0.354
-745.171	-116.069	-0.222	-0.042
-744.156	-2.041	-0.129	-0.092
-743.142	205.153	-0.079	-0.124
-742.127	60.086	-0.242	0.242
-741.112	401.682	0.113	-0.241
-740.098	-80.918	-0.183	0.061
-739.083	369.255	0.046	0.095
-738.069	19.231	-0.441	0.358
-737.054	449.156	0.034	-0.075
-736.039	-10.230	0.317	0.213
-735.025	-8.264	-0.026	0.018
-734.010	409.092	-0.078	0.167
-732.996	-30.727	-0.269	0.154
-731.981	-44.394	-0.172	0.087
-730.966	800.000	0.016	0.059
-729.952	27.069	-0.108	-0.091
-728.937	-149.415	0.252	0.020
-727.923	-11.764	0.235	-0.156
-726.908	567.289	-0.069	-0.169
-725.894	-200.000	0.022	-0.148
-724.879	-142.553	0.125	0.012
-723.864	-200.000	0.003	0.126
-722.850	-200.000	-0.014	0.091
-721.835	108.507	-0.112	0.135
-720.821	158.631	-0.090	0.127
-719.806	-200.000	0.016	0.164
-718.791	-78.394	-0.206	0.071
-717.777	36.986	-0.135	0.121
-716.762	-200.000	-0.016	-0.264
-715.748	-162.209	0.182	0.009
-714.733	166.730	0.196	0.280
-713.718	100.705	-0.151	0.178
-712.704	3.196	0.119	-0.088
-711.689	529.012	0.093	-0.221
-710.675	303.878	-0.135	0.252
-709.660	800.000	-0.042	-0.161
-708.645	160.004	-0.111	-0.157
-707.631	503.179	-0.048	-0.113
-706.616	241.921	-0.065	0.110
-705.602	-31.541	-0.078	-0.044
-704.587	25.717	-0.346	0.291
-703.572	-200.000	0.111	-0.000
-702.558	-200.000	-0.035	0.342
-701.543	-200.000	0.053	0.303
-700.529	19.558	-0.247	0.200
-699.514	-200.000	-0.039	-0.422
-698.499	-138.807	0.254	-0.028
-697.485	-200.000	-0.026	0.238
-696.470	83.807	0.188	0.207
-695.456	-58.972	0.244	-0.106
-694.441	64.720	-0.071	-0.073
-693.426	800.000	-0.054	-0.173
-692.412	-77.214	-0.258	0.091
-691.397	-200.000	0.008	0.166
-690.383	800.000	0.123	-0.353
-689.368	75.960	0.183	-0.196
-688.354	800.000	0.080	-0.317
-687.339	-95.677	0.100	0.027
-686.324	-177.343	0.088	0.002
-685.310	159.661	0.163	0.229
-684.295	146.761	-0.218	0.295
-683.281	350.336	-0.115	0.229
-682.266	-200.000	0.039	-0.365
-681.251	-199.651	-0.256	0.001
-680.237	254.391	-0.109	0.189
-679.222	258.199	0.072	0.125
-678.208	718.904	0.029	-0.078
-677.193	-200.000	-0.082	-0.562
-676.178	-10.606	-0.103	0.069
-675.164	143.853	0.082	-0.110
-674.149	-200.000	0.009	-0.158
-673.135	-61.041	-0.129	0.055
-672.120	-84.841	-0.287	0.091
-671.105	-31.451	0.039	-0.022
-670.091	36.789	-0.428	-0.382
-669.076	148.813	-0.134	-0.183
-668.062	-200.000	-0.006	-0.058
-667.047	-31.975	-0.155	0.088
-666.032	129.037	-0.075	0.096
-665.018	319.146	0.116	0.222
-664.003	-200.000	0.032	0.182
-662.989	771.395	-0.042	0.115
-661.974	-40.205	-0.236	-0.124
-660.959	-160.872	0.248	-0.013
-659.945	141.662	-0.072	-0.096
-658.930	110.179	-0.043	0.052
-657.916	-19.271	-0.142	0.089
-656.901	-106.271	-0.265	0.060
-655.886	108.137	-0.074	0.089
-654.872	-68.987	-0.227	0.088
-653.857	57.507	0.265	-0.261
-652.843	-200.000	-0.055	-0.305
-651.828	-171.144	0.273	0.009
-650.814	8.876	-0.100	0.076
-649.799	243.875	0.055	0.093
-648.784	-166.078	-0.356	-0.015
-647.770	-200.000	-0.007	0.119
-646.755	-200.000	0.087	-0.499
-645.741	-156.082	-0.080	-0.005
-644.726	-200.000	-0.022	0.205
-643.711	800.000	-0.050	-0.150
-642.697	-200.000	0.083	-0.000
-641.682	-200.000	-0.037	-0.176
-640.668	-26.836	-0.321	-0.189
-639.653	272.086	0.130	-0.231
-638.638	753.997	-0.141	0.385
-637.624	-200.000	-0.005	0.120
-636.609	55.369	0.044	0.043
-635.595	-49.855	0.385	0.184
-634.580	-24.374	-0.196	-0.118
-633.565	108.850	0.192	-0.231
-632.551	-189.336	-0.312	0.004
-631.536	-124.728	-0.091	-0.014
-630.522	264.716	-0.054	0.095
-629.507	108.258	0.095	-0.114
-628.492	133.773	-0.175	-0.228
-627.478	160.344	-0.146	0.205
-626.463	-159.409	0.119	-0.007
-625.449	-98.148	0.127	-0.033
-624.434	-90.257	-0.057	-0.017
-623.419	-200.000	-0.013	-0.154
-622.405	-200.000	-0.008	0.204
-621.390	305.397	0.128	0.239
-620.376	10.840	-0.280	-0.215
-619.361	-200.000	-0.003	0.135
-618.346	-83.665	-0.378	0.121
-617.332	800.000	0.108	0.306
-616.317	348.230	-0.131	-0.259
-615.303	71.244	0.161	-0.168
-614.288	-41.733	0.140	0.072
-613.273	86.425	-0.117	0.130
-612.259	293.744	0.236	0.434
-611.244	800.000	0.066	0.275
-610.230	-200.000	0.054	-0.252
-609.215	-65.360	-0.310	0.126
-608.201	800.000	0.024	0.069
-607.186	-200.000	-0.042	-0.440
-606.171	208.276	-0.173	-0.273
-605.157	95.710	0.138	-0.158
-604.142	-91.229	0.082	0.024
-603.128	-200.000	0.001	0.284
-602.113	-52.767	0.024	0.011
-601.098	190.675	0.140	0.212
-600.084	3.430	0.114	0.084
-599.069	-58.572	0.284	0.124
-598.055	-35.235	-0.080	0.044
-597.040	-94.438	0.069	0.019
-596.025	-200.000	-0.010	0.047
-595.011	99.487	-0.075	0.087
-593.996	-128.069	-0.208	0.030
-592.982	31.043	-0.331	-0.286
-591.967	-200.000	-0.059	-0.404
-590.952	177.823	0.125	-0.183
-589.938	-62.331	0.237	0.099
-588.923	3.971	0.280	0.206
-587.909	-34.990	-0.093	-0.051
-586.894	800.000	0.056	-0.200
-585.879	-200.000	0.050	-0.346
-584.865	-200.000	-0.097	-0.000
-583.850	-115.439	-0.307	0.058
-582.836	-200.000	0.018	-0.135
-581.821	68.211	-0.236	-0.243
-580.806	800.000	0.058	-0.194
-579.792	-200.000	-0.052	0.266
-578.777	-108.564	0.213	0.046
-577.763	-59.495	0.185	-0.080
-576.748	800.000	-0.082	-0.269
-575.733	800.000	0.035	0.127
-574.719	-3.190	0.028	0.019
-573.704	633.000	0.034	-0.087
-572.690	505.284	0.007	0.017
-571.675	29.342	0.255	0.217
-570.661	-36.998	-0.022	-0.012
-569.646	-200.000	-0.057	-0.305
-568.631	-103.075	-0.380	0.091
-567.617	800.000	-0.156	0.480
-566.602	-89.860	-0.206	0.060
-565.588	208.279	-0.281	0.441
-564.573	540.866	0.059	-0.142
-563.558	-200.000	-0.016	-0.370
-562.544	158.751	-0.056	-0.077
-561.529	800.000	0.125	-0.362
-560.515	359.993	0.095	-0.190
-559.500	-121.193	0.094	0.016
-558.485	113.655	-0.197	0.240
-557.471	-200.000	0.020	0.133
-556.456	282.465	0.112	0.202
-555.442	3.480	-0.129	0.094
-554.427	140.296	-0.109	-0.144
-553.412	69.491	-0.056	-0.057
-552.398	-200.000	-0.020	0.412
-551.383	-35.833	0.033	-0.018
-550.369	186.398	0.176	-0.263
-549.354	165.362	0.170	-0.241
-548.339	-110.824	-0.264	-0.055
-547.325	800.000	0.122	-0.364
-546.310	-98.049	0.327	0.085
-545.296	119.857	0.023	-0.028
-544.281	-185.958	0.302	-0.004
-543.266	122.332	-0.218	-0.273
-542.252	-22.836	0.083	0.050
-541.237	35.425	0.164	-0.145
-540.223	68.182	-0.045	0.046
-539.208	800.000	-0.101	0.293
-538.193	-200.000	0.005	-0.064
-537.179	-3.199	-0.361	0.253
-536.164	800.000	0.080	-0.272
-535.150	-83.232	-0.235	-0.076
-534.135	-142.134	0.123	0.012
-533.121	-200.000	0.001	-0.054
-532.106	193.661	-0.159	0.241
-531.091	3.105	0.176	-0.128
-530.077	-124.010	-0.159	0.025
-529.062	-200.000	0.036	-0.162
-528.048	800.000	0.072	0.220
-527.033	-200.000	0.011	0.073
-526.018	101.312	0.107	0.125
-525.004	-85.025	-0.324	0.102
-523.989	181.588	0.177	0.261
-522.975	-78.700	0.232	-0.079
-521.960	800.000	0.043	0.147
-520.945	-57.054	-0.130	0.058
-519.931	-9.811	0.044	-0.029
-518.916	15.363	-0.220	-0.173
-517.902	-8.833	0.191	0.128
-516.887	-104.252	0.062	0.014
-515.872	417.972	-0.020	0.042
-514.858	17.869	-0.162	0.129
-513.843	401.698	0.221	-0.465
-512.829	221.848	0.032	-0.052
-511.814	46.615	0.140	0.131
-510.799	352.884	-0.159	0.316
-509.785	121.884	-0.124	0.156
-508.770	316.712	0.075	-0.142
-507.756	179.098	-0.010	-0.015
-506.741	-55.379	0.103	0.046
-505.726	687.586	-0.066	0.174
-504.712	800.000	0.088	-0.286
-503.697	158.221	0.117	0.163
-502.683	-147.753	-0.265	0.022
-501.668	-200.000	-0.029	-0.216
-500.653	46.230	-0.069	0.064
-499.639	-65.896	-0.205	0.082
-498.624	-92.885	-0.186	-0.052
-497.610	121.794	-0.108	0.135
-496.595	800.000	0.038	0.105
-495.581	-132.894	0.249	0.032
-494.566	14.442	0.176	0.137
-493.551	-157.556	-0.148	0.009
-492.537	800.000	0.030	-0.119
-491.522	-200.000	0.013	0.210
-490.508	-200.000	0.011	-0.142
-489.493	-154.629	-0.153	0.010
-488.478	157.030	-0.097	-0.134
-487.464	-84.053	-0.164	-0.052
-486.449	390.993	-0.076	-0.158
-485.435	138.517	0.170	0.223
-484.420	800.000	0.119	0.514
-483.405	800.000	0.052	-0.152
-482.391	-16.842	0.226	0.143
-481.376	-15.638	-0.284	-0.181
-480.362	21.316	-0.213	0.173
-479.347	204.751	0.145	0.225
-478.332	-104.333	0.259	0.060
-477.318	-200.000	0.000	0.103
-476.303	-44.328	-0.286	-0.143
-475.289	76.734	0.389	-0.413
-474.274	-158.158	0.337	-0.020
-473.259	-50.332	0.116	0.055
-472.245	-200.000	0.019	-0.399
-471.230	12.103	-0.463	-0.357
-470.216	800.000	0.052	-0.160
-469.201	-37.427	-0.182	-0.097
-468.186	71.773	0.234	0.243
-467.172	14.617	0.189	0.147
-466.157	191.660	-0.118	-0.178
-465.143	-109.850	-0.556	-0.117
-464.128	207.310	0.047	0.073
-463.113	535.088	-0.104	0.246
-462.099	-21.497	0.150	-0.092
-461.084	118.720	-0.184	-0.228
-460.070	-43.268	0.150	-0.076
-459.055	-200.000	-0.035	-0.185
-458.040	164.523	-0.140	-0.197
-457.026	130.585	-0.160	-0.205
-456.011	95.365	-0.067	-0.077
-454.997	-62.383	0.321	0.134
-453.982	-149.815	0.117	-0.009
-452.968	-200.000	0.014	0.105
-451.953	41.869	0.141	0.128
-450.938	-197.226	-0.310	-0.002
-449.924	256.670	0.109	-0.186
-448.909	36.428	0.254	0.224
-447.895	-2.873	-0.109	-0.076
-446.880	-115.153	0.330	0.063
-445.865	-200.000	-0.037	0.231
-444.851	-152.248	-0.266	0.019
-443.836	-200.000	0.463	0.001
-442.822	-30.276	-0.126	0.071
-441.807	800.000	-0.020	0.074
-440.792	-200.000	-0.043	-0.248
-439.778	530.585	-0.008	0.019
-438.763	-38.244	-0.210	0.111
-437.749	800.000	0.077	-0.236
-436.734	-4.553	-0.141	0.097
-435.719	567.274	-0.063	-0.154
-434.705	74.547	0.184	0.193
-433.690	-103.637	0.203	-0.048
-432.676	-69.268	0.101	0.039
-431.661	-200.000	0.027	0.180
-430.646	-200.000	-0.026	-0.137
-429.632	-178.442	0.293	0.007
-428.617	25.246	-0.252	0.209
-427.603	-99.853	0.072	-0.018
-426.588	-81.111	-0.176	-0.058
-425.573	142.474	0.118	0.156
-424.559	-23.332	0.218	0.131
-423.544	22.982	-0.235	-0.192
-422.530	-46.893	0.152	-0.074
-421.515	-200.000	-0.014	0.433
-420.500	33.707	-0.125	0.108
-419.486	-94.550	0.135	-0.037
-418.471	-54.279	-0.216	-0.098
-417.457	60.930	0.056	-0.056
-416.442	-200.000	0.017	-0.110
-415.428	-86.758	-0.230	-0.070
-414.413	138.433	0.274	-0.360
-413.398	12.089	-0.131	0.101
-412.384	63.690	-0.179	0.179
-411.369	-26.879	0.283	-0.165
-410.355	-82.455	-0.149	-0.048
-409.340	-159.192	-0.219	0.012
-408.325	-1.092	0.165	0.116
-407.311	-200.000	-0.019	0.100
-406.296	-57.029	0.180	-0.079
-405.282	336.371	0.174	-0.337
-404.267	5.320	-0.078	-0.057
-403.252	224.441	-0.078	-0.125
-402.238	-200.000	-0.018	-0.105
-401.223	-115.367	0.290	-0.055
-400.209	65.210	0.079	-0.079
-399.194	800.000	0.045	-0.172
-398.179	-29.495	-0.106	-0.061
-397.165	-138.832	0.282	0.031
-396.150	-31.233	0.278	0.156
-395.136	77.489	-0.135	0.144
-394.121	688.018	-0.114	-0.298
-393.106	-1.986	-0.099	-0.069
-392.092	800.000	-0.007	0.026
-391.077	-64.423	-0.357	0.145
-390.063	-69.164	0.223	0.085
-389.048	800.000	0.077	0.280
-388.033	754.316	-0.032	-0.087
-387.019	75.269	0.198	-0.208
-386.004	-54.538	0.393	-0.178
-384.990	4.537	-0.180	-0.132
-383.975	407.921	-0.139	-0.294
-382.960	-60.808	-0.204	0.086
-381.946	800.000	0.069	0.190
-380.931	-172.098	-0.267	0.009
-379.917	-60.096	-0.030	0.013
-378.902	-168.968	0.393	0.015
-377.888	-146.604	-0.172	-0.015
-376.873	53.937	-0.091	0.087
-375.858	-200.000	-0.012	-0.638
-374.844	-69.163	-0.167	0.064
-373.829	337.879	0.123	0.238
-372.815	800.000	0.007	0.029
-371.800	67.300	-0.253	-0.258
-370.785	800.000	0.036	0.122
-369.771	-153.495	-0.154	0.011
-368.756	-90.136	-0.447	0.130
-367.742	8.889	-0.236	0.177
-366.727	-164.121	0.456	0.021
-365.712	-200.000	0.012	-0.178
-364.698	-200.000	0.021	-0.176
-363.683	538.135	-0.074	0.176
-362.669	120.798	-0.182	-0.226
-361.654	145.449	0.121	-0.161
-360.639	-14.770	0.096	0.062
-359.625	52.338	-0.120	-0.114
-358.610	-87.502	-0.075	-0.023
-357.596	468.164	-0.029	-0.065
-356.581	101.237	-0.077	0.090
-355.566	-88.324	0.191	0.057
-354.552	-21.655	0.065	0.039
-353.537	66.334	-0.135	-0.136
-352.523	-53.401	-0.261	0.119
-351.508	11.659	-0.097	0.074
-350.493	-183.652	0.217	0.004
-349.479	48.790	0.220	-0.205
-348.464	-45.585	0.550	0.271
-347.450	-87.607	-0.303	0.091
-346.435	42.253	0.362	-0.328
-345.420	239.497	-0.141	-0.234
-344.406	800.000	0.050	0.208
-343.391	-200.000	0.016	0.195
-342.377	-16.538	-0.105	-0.066
-341.362	800.000	0.126	0.350
-340.348	53.709	-0.096	0.092
-339.333	566.722	0.060	0.144
-338.318	-200.000	-0.071	-0.319
-337.304	9.565	0.330	-0.249
-336.289	-200.000	0.000	-0.097
-335.275	264.954	-0.116	-0.202
-334.260	-200.000	0.059	0.442
-333.245	800.000	0.046	0.132
-332.231	-70.378	-0.055	0.021
-331.216	0.802	0.261	0.186
-330.202	800.000	0.142	0.393
-329.187	-153.892	0.141	0.010
-328.172	-200.000	0.003	-0.172
-327.158	-200.000	-0.049	-0.342
-326.143	-171.242	0.080	-0.003
-325.129	-39.444	-0.138	-0.072
-324.114	-88.018	0.164	-0.049
-323.099	-200.000	-0.011	0.050
-322.085	-49.770	-0.108	0.051
-321.070	377.378	-0.105	-0.214
-320.056	-71.124	0.209	-0.078
-319.041	-200.000	-0.022	-0.319
-318.026	-157.973	-0.422	-0.025
-317.012	-200.000	0.055	0.268
-315.997	115.419	0.079	-0.096
-314.983	-200.000	0.014	-0.135
-313.968	-136.114	-0.165	0.019
-312.953	-43.745	-0.214	0.107
-311.939	101.831	-0.076	-0.088
-310.924	-4.053	-0.081	0.056
-309.910	-142.563	-0.266	0.026
-308.895	57.564	-0.429	0.417
-307.880	-200.000	-0.073	-0.328
-306.866	-102.071	0.295	0.071
-305.851	317.147	-0.032	0.060
-304.837	-200.000	-0.002	-0.304
-303.822	2.095	-0.109	0.078
-302.807	800.000	0.062	0.225
-301.793	-200.000	-0.003	0.132
-300.778	98.957	-0.136	0.156
-299.764	160.258	-0.044	-0.062
-298.749	-105.115	0.521	-0.118
-297.735	-51.435	0.181	0.084
-296.720	294.235	0.139	0.253
-295.705	-156.641	0.104	-0.006
-294.691	-200.000	0.007	-0.263
-293.676	-48.847	0.097	0.046
-292.662	59.010	-0.278	-0.272
-291.647	33.872	-0.027	-0.023
-290.632	-54.892	-0.137	0.062
-289.618	-128.991	-0.071	-0.010
-288.603	224.455	0.149	-0.240
-287.589	6.829	-0.217	0.160
-286.574	-200.000	-0.016	0.165
-285.559	70.499	-0.100	0.103
-284.545	-89.737	0.165	0.048
-283.530	-118.965	-0.430	0.075
-282.516	788.903	0.071	-0.194
-281.501	-113.214	0.080	0.016
-280.486	-200.000	0.063	0.423
-279.472	-49.313	-0.167	-0.079
-278.457	-95.485	-0.127	0.034
-277.443	-200.000	0.038	0.268
-276.428	-200.000	-0.002	-0.180
-275.413	143.081	0.256	-0.338
-274.399	153.779	-0.058	0.079
-273.384	-19.968	0.268	0.164
-272.370	-183.577	0.558	-0.010
-271.355	98.602	0.202	0.231
-270.340	452.731	0.014	0.031
-269.326	800.000	0.017	0.067
-268.311	-188.410	0.134	-0.002
-267.297	-5.209	-0.089	0.061
-266.282	-200.000	-0.044	-0.333
-265.267	-49.247	-0.295	0.140
-264.253	-146.191	0.255	-0.022
-263.238	-2.199	0.080	0.056
-262.224	666.612	-0.065	0.167
-261.209	27.188	-0.164	0.137
-260.195	547.369	0.174	0.413
-259.180	-114.386	0.244	-0.047
-258.165	-101.909	-0.235	0.056
-257.151	800.000	0.027	0.097
-256.136	369.692	-0.045	0.090
-255.122	239.377	0.244	0.403
-254.107	141.421	-0.164	-0.216
-253.092	-89.074	0.215	-0.063
-252.078	199.073	-0.060	-0.091
-251.063	-60.546	-0.278	0.117
-250.049	183.519	0.226	-0.332
-249.034	18.853	0.130	0.104
-248.019	34.438	-0.244	-0.211
-247.005	-96.923	-0.345	-0.090
-245.990	778.127	-0.113	-0.306
-244.976	441.849	-0.042	-0.091
-243.961	-23.582	-0.204	0.122
-242.946	-157.593	0.365	-0.022
-241.932	-193.001	-0.345	0.003
-240.917	-200.000	0.030	0.260
-239.903	-113.669	-0.110	-0.021
-238.888	35.575	-0.048	0.041
-237.873	-129.865	0.182	0.025
-236.859	800.000	-0.103	-0.371
-235.844	-200.000	0.036	0.388
-234.830	-7.015	0.315	-0.212
-233.815	-200.000	-0.071	0.361
-232.800	158.554	0.215	-0.296
-231.786	-67.316	0.285	0.111
-230.771	-200.000	0.002	0.013
-229.757	395.844	-0.087	-0.180
-228.742	123.796	0.089	-0.111
-227.727	-74.206	-0.081	-0.029
-226.713	589.041	-0.083	0.203
-225.698	-8.846	0.283	0.188
-224.684	297.876	0.115	-0.209
-223.669	-122.270	-0.153	0.025
-222.655	161.730	-0.184	0.255
-221.640	-3.839	0.344	-0.237
-220.625	30.544	0.243	0.206
-219.611	-86.644	-0.108	0.033
-218.596	-200.000	0.008	-0.191
-217.582	89.300	-0.303	0.335
-216.567	21.502	-0.045	0.037
-215.552	-62.773	-0.144	0.059
-214.538	-26.118	-0.237	0.138
-213.523	-27.363	-0.114	-0.066
-212.509	586.915	-0.179	0.437
-211.494	40.579	-0.368	0.328
-210.479	-75.750	0.201	-0.071
-209.465	21.951	-0.312	0.252
-208.450	-174.700	0.143	-0.004
-207.436	-88.451	0.527	0.156
-206.421	221.055	0.086	0.136
-205.406	-200.000	0.010	0.108
-204.392	-93.675	0.239	0.065
-203.377	191.349	0.109	0.163
-202.363	494.449	0.066	-0.149
-201.348	529.806	-0.026	-0.062
-200.333	800.000	-0.082	0.240
-199.319	600.377	0.017	-0.041
-198.304	-31.120	-0.148	0.083
-197.290	220.530	0.119	0.189
-196.275	-200.000	0.018	-0.185
-195.260	-200.000	0.032	-0.202
-194.246	84.060	-0.227	-0.246
-193.231	800.000	0.127	0.372
-192.217	800.000	0.099	-0.400
-191.202	-125.155	0.061	-0.009
-190.187	627.738	0.101	-0.253
-189.173	-69.312	-0.315	0.120
-188.158	-200.000	-0.048	-0.320
-187.144	352.002	0.033	-0.066
-186.129	-139.990	-0.179	-0.019
-185.114	195.572	-0.089	0.134
-184.100	-200.000	-0.031	0.244
-183.085	543.444	-0.159	-0.374
-182.071	468.028	0.052	0.115
-181.056	-181.870	-0.183	-0.003
-180.042	-200.000	0.008	0.307
-179.027	102.470	0.169	-0.195
-178.012	-166.363	0.228	0.009
-176.998	-85.661	-0.052	-0.016
-175.983	280.974	0.078	0.138
-174.969	466.537	-0.083	-0.183
-173.954	27.676	0.478	-0.398
-172.939	-133.578	-0.209	-0.026
-171.925	-8.698	0.132	-0.088
-170.910	-81.994	0.222	0.072
-169.896	-21.335	0.138	-0.083
-168.881	-23.833	-0.272	-0.161
-167.866	18.611	0.068	0.054
-166.852	-200.000	-0.003	0.044
-165.837	-2.078	-0.138	0.096
-164.823	-158.633	0.217	-0.012
-163.808	170.792	-0.088	0.124
-162.793	-46.971	0.431	0.208
-161.779	-44.085	0.036	0.018
-160.764	800.000	0.077	-0.267
-159.750	-77.011	0.255	-0.088
-158.735	-129.318	0.034	0.005
-157.720	-66.324	-0.187	-0.074
-156.706	800.000	-0.070	-0.277
-155.691	-105.745	-0.162	0.036
-154.677	-13.944	-0.163	-0.104
-153.662	800.000	0.046	0.140
-152.647	-79.012	-0.296	0.100
-151.633	-200.000	0.092	0.502
-150.618	-200.000	0.057	0.318
-149.604	-36.182	-0.172	0.092
-148.589	-131.226	-0.259	0.034
-147.574	279.365	-0.093	-0.164
-146.560	-174.988	-0.168	-0.005
-145.545	123.990	-0.211	-0.261
-144.531	-113.718	0.173	0.033
-143.516	82.612	0.072	-0.077
-142.502	237.401	-0.182	0.298
-141.487	83.697	0.085	-0.092
-140.472	215.774	0.075	-0.118
-139.458	151.125	-0.053	-0.072
-138.443	74.193	-0.151	-0.156
-137.429	-36.286	0.205	-0.109
-136.414	-200.000	0.030	0.293
-135.399	-112.377	-0.059	0.012
-134.385	800.000	-0.044	0.131
-133.370	-200.000	0.055	-0.321
-132.356	573.380	0.028	-0.068
-131.341	-85.022	0.104	-0.032
-130.326	-50.479	-0.146	0.068
-129.312	-26.361	-0.198	-0.115
-128.297	162.077	0.120	-0.166
-127.283	-94.232	0.191	0.052
-126.268	-200.000	0.031	0.352
-125.253	61.370	0.045	0.044
-124.239	-161.767	0.204	-0.010
-123.224	86.199	0.045	-0.049
-122.210	-200.000	-0.038	0.388
-121.195	50.207	-0.277	0.258
-120.180	-75.850	-0.191	-0.067
