DTS Sentinel unit serial number:	SN413079Multiplexer serial number:	ORYXHardware model number:	OX4-SRSoftware version number:	ORYX F/W v4.00 Oryx Data Collector v3.7.2.0data status	okinstallation	princeton_trtdifferential loss correction	single-endedforward channel	channel 4reverse channel	N/Adate	2019/09/14time	18:57:35forward acquisition time	60.00reverse acquisition time	0.00gamma	496.2192k internal	0.2301k external	0.2301temperature offset calibration	1.0099default loss term (dB/km)	0.3790temperature slope calibration	1.0000multiplexer offset coefficient	1.0000multiplexer slope coefficient	1.0000fibre end	0.00T internal ref (°C)	35.73T ext. ref 1 (°C)	4.88T ext. ref 2 (°C)	29.55length (m)	temperature (°C)	Stokes	anti-Stokes-747.200	-200.000	-0.021	-0.264
-746.185	-57.454	-0.037	-0.017
-745.171	-200.000	0.003	-0.114
-744.156	14.363	-0.345	0.275
-743.142	77.469	-0.069	0.075
-742.127	-85.001	-0.303	-0.097
-741.112	800.000	-0.079	0.318
-740.098	127.810	0.389	0.505
-739.083	-133.563	0.020	-0.003
-738.069	42.839	-0.159	0.148
-737.054	-200.000	-0.013	-0.196
-736.039	-7.900	-0.315	0.217
-735.025	-92.250	0.093	-0.027
-734.010	-116.149	-0.162	-0.031
-732.996	-6.686	-0.261	-0.181
-731.981	8.528	0.082	-0.063
-730.966	-200.000	0.018	-0.338
-729.952	128.706	-0.166	0.216
-728.937	-200.000	0.027	-0.270
-727.923	610.702	-0.083	-0.212
-726.908	-43.741	-0.214	-0.110
-725.894	-115.868	-0.265	-0.050
-724.879	-37.974	0.194	-0.105
-723.864	-200.000	-0.054	-0.327
-722.850	138.825	-0.113	-0.151
-721.835	-200.000	0.011	0.088
-720.821	593.888	-0.201	-0.507
-719.806	-42.221	-0.111	0.058
-718.791	51.749	-0.289	-0.280
-717.777	-74.703	-0.134	-0.049
-716.762	213.284	0.074	0.119
-715.748	-77.633	-0.143	0.050
-714.733	-7.964	0.164	-0.113
-713.718	-147.530	-0.085	0.007
-712.704	20.237	0.316	0.260
-711.689	169.788	-0.065	-0.095
-710.675	-75.652	0.163	-0.059
-709.660	800.000	0.032	-0.138
-708.645	-38.759	-0.376	0.202
-707.631	41.936	0.082	-0.076
-706.616	-200.000	0.015	-0.221
-705.602	-84.509	-0.174	-0.056
-704.587	-3.904	0.186	-0.132
-703.572	-200.000	-0.016	0.075
-702.558	123.457	0.143	0.182
-701.543	263.565	0.073	-0.128
-700.529	-78.474	0.043	-0.015
-699.514	485.692	0.113	-0.263
-698.499	800.000	0.075	-0.234
-697.485	-94.543	0.113	-0.031
-696.470	-133.039	-0.207	0.027
-695.456	800.000	0.037	-0.141
-694.441	365.920	0.138	-0.283
-693.426	-108.448	-0.111	0.024
-692.412	29.209	0.266	-0.230
-691.397	-43.934	0.093	-0.047
-690.383	117.823	-0.085	-0.107
-689.368	-200.000	-0.037	-0.190
-688.354	31.051	0.214	0.186
-687.339	47.434	0.044	-0.042
-686.324	-35.368	-0.128	-0.071
-685.310	-200.000	0.078	-0.382
-684.295	800.000	0.054	-0.175
-683.281	-2.735	-0.064	0.046
-682.266	-200.000	-0.010	0.068
-681.251	-157.132	-0.527	0.033
-680.237	-144.791	-0.327	0.031
-679.222	-6.103	-0.067	0.046
-678.208	-200.000	-0.013	-0.144
-677.193	494.288	0.038	-0.088
-676.178	201.552	-0.099	0.155
-675.164	-120.916	-0.177	-0.030
-674.149	299.228	0.056	0.105
-673.135	-108.790	-0.202	0.044
-672.120	330.344	0.103	0.201
-671.105	-45.851	-0.138	-0.069
-670.091	420.772	0.137	-0.299
-669.076	-81.671	0.082	0.027
-668.062	-93.668	-0.346	0.097
-667.047	-91.264	0.181	-0.053
-666.032	-83.066	-0.076	0.025
-665.018	336.861	-0.114	0.225
-664.003	-136.010	-0.352	-0.042
-662.989	547.009	0.045	-0.109
-661.974	220.354	-0.092	0.149
-660.959	-109.401	-0.252	-0.054
-659.945	-48.428	-0.082	-0.040
-658.930	528.344	0.149	0.358
-657.916	253.590	-0.107	0.185
-656.901	12.870	0.103	0.081
-655.886	-171.316	0.305	0.010
-654.872	12.153	-0.264	-0.206
-653.857	-54.577	0.308	-0.142
-652.843	140.400	-0.176	-0.237
-651.828	-27.000	0.274	0.162
-650.814	67.563	0.201	0.208
-649.799	-86.855	-0.217	-0.067
-648.784	426.620	0.029	0.063
-647.770	47.387	0.059	-0.056
-646.755	800.000	-0.058	0.180
-645.741	-200.000	-0.009	-0.165
-644.726	-0.977	-0.150	-0.108
-643.711	-23.428	-0.100	-0.061
-642.697	21.998	0.103	0.085
-641.682	233.704	-0.100	-0.168
-640.668	-22.740	-0.298	-0.182
-639.653	-100.038	0.050	-0.013
-638.638	-101.452	-0.271	0.067
-637.624	588.093	0.102	-0.255
-636.609	-158.630	0.170	-0.010
-635.595	-200.000	-0.055	-0.325
-634.580	113.159	-0.081	-0.099
-633.565	-200.000	0.063	0.307
-632.551	-55.954	-0.169	0.076
-631.536	-144.066	-0.147	0.014
-630.522	-200.000	-0.030	-0.308
-629.507	-43.697	-0.327	0.167
-628.492	-59.979	0.264	-0.114
-627.478	-200.000	0.015	-0.151
-626.463	-200.000	-0.054	-0.374
-625.449	243.095	0.169	-0.287
-624.434	501.912	-0.085	-0.199
-623.419	-48.281	-0.363	0.178
-622.405	-200.000	0.018	-0.248
-621.390	800.000	0.039	0.141
-620.376	-59.968	-0.153	0.066
-619.361	-8.805	-0.184	-0.125
-618.346	59.437	0.280	-0.280
-617.332	-70.652	-0.311	-0.119
-616.317	-200.000	-0.025	0.210
-615.303	-200.000	0.042	-0.199
-614.288	-45.593	0.199	-0.100
-613.273	142.259	0.134	0.181
-612.259	751.406	0.057	-0.157
-611.244	64.418	-0.106	0.108
-610.230	130.105	0.122	0.158
-609.215	571.020	0.046	0.113
-608.201	800.000	-0.040	-0.166
-607.186	26.636	0.169	-0.143
-606.171	800.000	0.066	-0.231
-605.157	12.653	0.099	0.078
-604.142	800.000	0.267	-0.765
-603.128	800.000	-0.011	-0.043
-602.113	-61.263	-0.356	-0.152
-601.098	-153.006	-0.208	0.015
-600.084	659.450	0.060	-0.157
-599.069	-200.000	-0.001	-0.051
-598.055	-200.000	0.003	-0.132
-597.040	-76.312	-0.180	-0.064
-596.025	192.913	0.200	0.306
-595.011	-116.171	-0.367	0.069
-593.996	-73.962	-0.321	-0.118
-592.982	-87.292	0.295	0.091
-591.967	469.653	0.105	-0.239
-590.952	173.953	-0.110	-0.161
-589.938	538.493	0.090	0.217
-588.923	135.196	-0.252	0.332
-587.909	48.584	-0.239	-0.227
-586.894	-173.431	0.193	-0.006
-585.879	56.486	0.045	-0.045
-584.865	800.000	-0.078	0.289
-583.850	-13.125	-0.267	-0.176
-582.836	800.000	0.111	-0.367
-581.821	-49.906	-0.186	0.090
-580.806	-200.000	0.019	0.206
-579.792	311.238	0.053	-0.100
-578.777	2.523	0.128	0.094
-577.763	-121.326	0.223	0.038
-576.748	-75.941	0.091	-0.033
-575.733	800.000	0.052	-0.198
-574.719	556.662	-0.087	-0.213
-573.704	800.000	0.057	-0.210
-572.690	391.517	-0.240	0.505
-571.675	-128.062	0.154	0.022
-570.661	-166.459	-0.329	0.014
-569.646	704.821	0.125	-0.334
-568.631	-59.649	0.184	-0.080
-567.617	800.000	0.047	0.154
-566.602	65.201	0.200	-0.205
-565.588	2.465	0.354	-0.260
-564.573	-114.914	-0.140	-0.027
-563.558	103.387	-0.161	-0.191
-562.544	30.765	0.181	0.157
-561.529	180.562	0.152	-0.226
-560.515	-151.267	0.307	-0.023
-559.500	-200.000	0.026	-0.369
-558.485	689.147	0.019	-0.049
-557.471	34.847	-0.129	0.114
-556.456	322.888	-0.025	0.049
-555.442	-175.390	-0.316	0.009
-554.427	199.367	0.080	0.124
-553.412	162.100	-0.068	0.096
-552.398	-200.000	-0.018	0.149
-551.383	500.758	-0.062	0.144
-550.369	242.485	-0.069	-0.117
-549.354	52.756	0.142	0.137
-548.339	-200.000	0.012	-0.086
-547.325	-88.161	-0.219	0.066
-546.310	-71.108	-0.118	0.045
-545.296	-165.469	-0.161	-0.007
-544.281	213.299	-0.054	-0.087
-543.266	10.592	-0.105	0.081
-542.252	-123.773	-0.136	-0.022
-541.237	-133.924	-0.167	0.021
-540.223	-200.000	0.057	0.283
-539.208	-200.000	0.027	0.157
-538.193	-200.000	-0.046	0.314
-537.179	34.851	-0.049	0.044
-536.164	-200.000	0.010	-0.286
-535.150	68.668	0.220	-0.228
-534.135	-83.488	0.339	0.110
-533.121	273.117	0.085	-0.151
-532.106	800.000	0.014	-0.049
-531.091	-171.060	0.108	0.004
-530.077	189.839	0.027	0.042
-529.062	-12.478	0.166	-0.109
-528.048	-109.732	-0.204	0.043
-527.033	-6.839	0.171	0.117
-526.018	-138.397	-0.221	0.025
-525.004	246.258	0.025	-0.042
-523.989	51.439	-0.158	0.152
-522.975	122.316	-0.093	0.117
-521.960	-200.000	-0.016	-0.249
-520.945	723.414	-0.041	0.110
-519.931	-200.000	0.004	0.024
-518.916	-87.774	0.371	0.113
-517.902	-63.440	-0.421	0.175
-516.887	122.747	0.222	0.281
-515.872	66.440	0.064	-0.066
-514.858	-15.648	0.331	-0.213
-513.843	-119.674	-0.182	0.032
-512.829	124.222	0.257	0.327
-511.814	655.361	0.043	0.112
-510.799	-120.837	0.161	-0.027
-509.785	182.161	-0.077	-0.114
-508.770	-99.043	-0.140	0.036
-507.756	-2.268	-0.084	0.059
-506.741	800.000	0.029	-0.104
-505.726	216.710	-0.104	-0.167
-504.712	-38.351	-0.283	0.151
-503.697	800.000	-0.036	-0.104
-502.683	-2.072	0.245	-0.174
-501.668	83.665	0.026	0.029
-500.653	-88.295	-0.643	-0.194
-499.639	-61.219	0.357	-0.152
-498.624	56.206	0.134	0.131
-497.610	800.000	0.013	-0.052
-496.595	-89.630	0.075	-0.022
-495.581	41.860	-0.085	-0.078
-494.566	48.528	-0.215	-0.203
-493.551	-200.000	-0.051	0.338
-492.537	2.931	-0.162	0.119
-491.522	800.000	0.025	-0.080
-490.508	123.881	0.073	0.093
-489.493	-10.740	0.326	-0.218
-488.478	-55.373	0.203	0.092
-487.464	-36.335	-0.193	0.105
-486.449	288.226	-0.142	-0.260
-485.435	250.771	0.065	-0.112
-484.420	202.292	-0.029	-0.046
-483.405	217.487	-0.170	0.273
-482.391	-200.000	0.022	-0.111
-481.376	-136.892	0.189	0.022
-480.362	-41.153	-0.188	-0.098
-479.347	152.361	-0.245	-0.338
-478.332	117.800	0.076	-0.094
-477.318	102.578	0.106	0.125
-476.303	191.247	0.215	0.327
-475.289	-176.735	0.139	0.004
-474.274	100.996	-0.268	-0.315
-473.259	308.158	-0.066	-0.124
-472.245	800.000	0.059	0.210
-471.230	-11.078	0.184	-0.122
-470.216	22.557	-0.216	-0.178
-469.201	500.484	-0.179	-0.415
-468.186	-105.563	-0.240	0.055
-467.172	-200.000	-0.021	0.118
-466.157	66.694	0.225	0.231
-465.143	3.059	0.172	-0.126
-464.128	-10.356	-0.181	-0.121
-463.113	800.000	0.069	-0.274
-462.099	-200.000	0.066	0.431
-461.084	-200.000	-0.000	-0.213
-460.070	124.707	0.109	0.139
-459.055	800.000	-0.138	-0.420
-458.040	-200.000	-0.007	-0.257
-457.026	-25.935	0.120	0.071
-456.011	10.226	0.094	0.072
-454.997	800.000	-0.062	0.242
-453.982	536.470	0.082	-0.196
-452.968	55.698	0.039	0.039
-451.953	274.845	0.157	0.280
-450.938	-83.173	0.155	0.050
-449.924	79.056	0.117	-0.126
-448.909	-29.261	-0.209	0.121
-447.895	20.608	-0.171	0.139
-446.880	800.000	-0.008	-0.024
-445.865	128.150	0.096	-0.124
-444.851	-97.168	-0.109	-0.029
-443.836	-200.000	-0.005	0.056
-442.822	265.705	0.097	0.170
-441.807	-128.005	-0.056	-0.008
-440.792	216.397	-0.038	0.061
-439.778	237.017	-0.208	-0.348
-438.763	184.875	0.134	-0.200
-437.749	88.046	-0.090	-0.101
-436.734	-16.993	0.243	-0.155
-435.719	-62.858	-0.303	-0.126
-434.705	-66.547	0.240	0.096
-433.690	-105.145	0.135	-0.031
-432.676	-152.012	-0.123	-0.009
-431.661	800.000	0.106	0.358
-430.646	-159.427	0.308	-0.017
-429.632	109.317	-0.119	0.144
-428.617	-62.904	-0.069	0.029
-427.603	-126.593	0.283	-0.042
-426.588	-157.128	0.401	-0.025
-425.573	49.169	-0.136	0.129
-424.559	4.077	0.271	-0.200
-423.544	-70.154	0.034	-0.013
-422.530	-200.000	0.050	-0.229
-421.515	-111.588	-0.176	0.036
-420.500	-117.183	-0.594	-0.109
-419.486	725.446	-0.034	-0.091
-418.471	-77.287	-0.033	-0.011
-417.457	1.886	0.130	-0.094
-416.442	37.302	0.018	0.016
-415.428	303.730	-0.075	0.140
-414.413	437.932	0.023	-0.051
-413.398	340.583	-0.191	0.375
-412.384	-200.000	-0.008	-0.276
-411.369	-22.264	0.211	-0.129
-410.355	-104.652	0.145	-0.034
-409.340	168.246	-0.030	0.043
-408.325	-200.000	-0.026	0.275
-407.311	-200.000	-0.012	0.142
-406.296	87.428	0.083	-0.093
-405.282	-200.000	0.012	-0.204
-404.267	1.324	-0.364	-0.263
-403.252	219.512	-0.129	0.207
-402.238	185.163	-0.148	0.222
-401.223	-200.000	0.007	-0.119
-400.209	41.691	-0.076	-0.070
-399.194	-200.000	0.059	0.395
-398.179	-200.000	-0.036	0.209
-397.165	184.264	0.169	0.251
-396.150	-21.811	-0.144	0.088
-395.136	800.000	0.054	-0.179
-394.121	800.000	0.038	-0.163
-393.106	-87.455	-0.220	0.067
-392.092	800.000	0.076	0.265
-391.077	800.000	-0.056	0.214
-390.063	390.795	-0.058	0.121
-389.048	-200.000	-0.033	0.446
-388.033	90.871	0.159	-0.180
-387.019	-200.000	0.016	0.161
-386.004	-114.998	-0.373	0.071
-384.990	457.753	-0.069	-0.153
-383.975	82.503	-0.127	-0.139
-382.960	9.254	0.310	0.235
-381.946	22.649	-0.180	-0.148
-380.931	-156.599	0.145	-0.009
-379.917	-134.646	-0.336	0.041
-378.902	222.960	0.118	-0.191
-377.888	65.549	0.066	0.067
-376.873	206.703	0.077	0.121
-375.858	275.310	-0.108	-0.193
-374.844	64.455	-0.137	0.139
-373.829	125.347	-0.270	0.342
-372.815	-100.700	-0.238	0.059
-371.800	354.693	-0.227	-0.453
-370.785	-63.139	-0.437	0.181
-369.771	45.216	0.067	-0.062
-368.756	705.935	0.047	-0.124
-367.742	-149.320	0.324	-0.026
-366.727	451.456	-0.062	0.138
-365.712	-78.784	-0.107	-0.037
-364.698	419.803	0.102	0.220
-363.683	143.991	0.151	-0.202
-362.669	51.005	0.113	-0.108
-361.654	92.274	0.027	0.030
-360.639	-200.000	-0.023	0.242
-359.625	-170.546	0.135	-0.005
-358.610	287.161	-0.098	0.178
-357.596	134.563	0.086	0.111
-356.581	301.679	-0.208	-0.387
-355.566	-41.309	-0.213	-0.110
-354.552	-1.508	0.244	0.173
-353.537	5.263	0.182	0.135
-352.523	40.213	-0.167	-0.151
-351.508	-108.380	-0.318	-0.069
-350.493	-121.514	0.117	0.020
-349.479	89.786	0.109	0.122
-348.464	350.456	-0.076	-0.151
-347.450	28.756	0.173	0.147
-346.435	-74.749	0.151	0.055
-345.420	-161.235	0.165	0.009
-344.406	583.447	0.151	-0.372
-343.391	321.354	0.084	0.159
-342.377	-66.737	0.219	-0.087
-341.362	-200.000	0.006	0.161
-340.348	-100.645	0.435	-0.108
-339.333	-147.782	0.018	0.001
-338.318	-32.666	-0.293	0.163
-337.304	107.330	-0.027	0.032
-336.289	-200.000	0.010	0.290
-335.275	800.000	-0.054	-0.165
-334.260	114.028	-0.190	0.232
-333.245	50.570	-0.025	0.024
-332.231	-138.038	0.188	-0.021
-331.216	-200.000	-0.035	-0.191
-330.202	-88.792	-0.326	0.097
-329.187	-120.825	0.216	0.036
-328.172	206.213	0.111	0.174
-327.158	580.668	-0.181	0.446
-326.143	800.000	-0.084	-0.354
-325.129	207.930	0.028	-0.043
-324.114	800.000	0.036	-0.113
-323.099	318.746	-0.045	0.085
-322.085	344.205	-0.106	0.209
-321.070	-13.612	0.249	0.161
-320.056	-200.000	0.007	-0.206
-319.041	94.742	0.127	0.144
-318.026	205.852	-0.226	-0.352
-317.012	800.000	-0.051	0.169
-315.997	-130.913	-0.208	-0.028
-314.983	24.539	0.164	0.136
-313.968	-200.000	-0.027	0.135
-312.953	-69.368	0.086	0.033
-311.939	-200.000	-0.009	0.288
-310.924	-92.748	0.512	-0.144
-309.910	104.002	0.209	0.247
-308.895	11.283	0.091	0.070
-307.880	-98.153	-0.220	-0.057
-306.866	20.306	0.129	0.105
-305.851	12.794	0.022	-0.017
-304.837	-200.000	0.001	0.246
-303.822	-82.691	-0.156	0.051
-302.807	9.026	-0.316	-0.239
-301.793	-174.498	0.263	0.008
-300.778	472.882	0.033	-0.074
-299.764	800.000	-0.146	-0.415
-298.749	10.426	-0.246	0.188
-297.735	-128.176	-0.230	0.033
-296.720	-34.520	-0.110	-0.060
-295.705	-98.039	0.196	-0.051
-294.691	-126.516	0.445	0.066
-293.676	-60.302	0.273	0.116
-292.662	800.000	0.017	0.070
-291.647	800.000	0.041	-0.152
-290.632	-174.096	0.273	-0.008
-289.618	3.901	0.168	-0.123
-288.603	289.494	0.024	-0.044
-287.589	800.000	0.053	0.152
-286.574	-94.102	-0.219	0.060
-285.559	195.263	0.040	0.061
-284.545	467.020	0.126	-0.283
-283.530	800.000	-0.061	0.174
-282.516	-75.662	0.294	-0.105
-281.501	-137.011	-0.211	0.024
-280.486	-150.401	0.004	0.000
-279.472	-200.000	0.085	0.457
-278.457	-52.021	-0.073	0.034
-277.443	-93.624	0.373	-0.103
-276.428	107.158	-0.162	0.193
-275.413	109.833	-0.100	0.120
-274.399	-58.226	0.296	-0.129
-273.384	800.000	-0.087	-0.327
-272.370	-96.475	-0.273	0.072
-271.355	-47.364	-0.025	-0.012
-270.340	-99.150	-0.081	-0.021
-269.326	-25.820	-0.133	0.078
-268.311	151.989	-0.135	-0.184
-267.297	140.482	0.108	-0.142
-266.282	800.000	0.030	0.125
-265.267	-41.540	-0.294	-0.151
-264.253	186.872	0.164	0.244
-263.238	514.686	0.166	0.386
-262.224	84.530	-0.223	-0.244
-261.209	-200.000	0.047	0.211
-260.195	476.411	0.026	-0.058
-259.180	383.526	-0.160	-0.329
-258.165	8.023	0.141	0.106
-257.151	-200.000	0.045	0.237
-256.136	-4.061	0.338	-0.234
-255.122	149.859	-0.202	0.274
-254.107	-78.015	-0.139	0.048
-253.092	-200.000	0.018	0.152
-252.078	427.507	0.097	-0.209
-251.063	800.000	-0.083	0.326
-250.049	410.088	0.070	0.149
-249.034	-63.400	0.313	0.129
-248.019	-4.598	-0.044	0.030
-247.005	102.249	-0.265	-0.310
-245.990	800.000	0.095	0.340
-244.976	-99.245	-0.141	-0.036
-243.961	108.753	0.090	-0.107
-242.946	-70.028	0.311	0.118
-241.932	-84.122	-0.207	0.066
-240.917	-200.000	0.016	0.201
-239.903	57.799	-0.397	0.388
-238.888	298.799	-0.060	0.110
-237.873	-46.494	0.190	-0.093
-236.859	-200.000	0.026	-0.122
-235.844	-166.749	0.183	-0.008
-234.830	-140.234	-0.251	0.026
-233.815	-200.000	-0.020	-0.175
-232.800	182.303	-0.047	-0.070
-231.786	530.597	-0.023	-0.055
-230.771	243.557	-0.180	0.302
-229.757	-163.483	0.300	-0.014
-228.742	-186.214	0.204	-0.003
-227.727	-88.570	-0.137	-0.041
-226.713	-92.378	-0.202	0.057
-225.698	205.137	-0.104	0.161
-224.684	800.000	0.074	0.281
-223.669	64.825	0.065	-0.066
-222.655	-25.314	0.199	0.118
-221.640	-84.923	0.054	-0.017
-220.625	51.197	0.137	0.130
-219.611	-65.982	-0.020	0.008
-218.596	-200.000	0.072	0.335
-217.582	-162.284	0.199	-0.010
-216.567	-120.563	0.229	-0.039
-215.552	-27.304	0.353	-0.205
-214.538	16.629	-0.086	0.068
-213.523	47.541	-0.147	0.137
-212.509	365.563	0.050	-0.101
-211.494	-110.674	0.188	-0.039
-210.479	149.349	-0.060	-0.081
-209.465	540.849	0.058	0.138
-208.450	424.425	0.199	-0.427
-207.436	44.851	0.103	-0.095
-206.421	-200.000	0.001	0.155
-205.406	-31.574	0.145	-0.081
-204.392	-110.439	-0.209	-0.043
-203.377	177.256	-0.131	0.190
-202.363	370.140	-0.041	-0.083
-201.348	-79.872	-0.135	-0.045
-200.333	-106.955	-0.163	-0.036
-199.319	-100.775	-0.194	0.048
-198.304	398.038	-0.097	0.202
-197.290	-150.295	-0.227	0.018
-196.275	129.696	0.171	0.218
-195.260	97.783	0.158	0.181
-194.246	800.000	0.101	-0.371
-193.231	-12.159	-0.126	0.082
-192.217	242.907	0.171	0.285
-191.202	75.349	-0.043	-0.045
-190.187	-150.921	-0.140	0.011
-189.173	-141.874	-0.036	0.004
-188.158	541.954	-0.116	-0.275
-187.144	204.467	0.141	0.218
-186.129	800.000	0.080	-0.239
-185.114	55.829	-0.074	0.072
-184.100	800.000	0.013	0.044
-183.085	-146.377	-0.192	-0.017
-182.071	-157.107	0.112	0.007
-181.056	-8.795	-0.234	-0.156
-180.042	104.608	0.066	-0.077
-179.027	-89.970	0.282	-0.082
-178.012	85.507	-0.074	-0.081
-176.998	-200.000	0.029	0.382
-175.983	-200.000	-0.030	0.383
-174.969	800.000	-0.046	-0.128
-173.954	62.085	0.165	-0.164
-172.939	-102.028	-0.193	-0.046
-171.925	46.805	0.148	0.137
-170.910	47.635	-0.186	-0.173
-169.896	44.536	-0.235	0.216
-168.881	240.139	0.167	0.278
-167.866	96.651	-0.010	0.011
-166.852	-185.386	0.330	0.005
-165.837	800.000	-0.018	0.068
-164.823	159.486	0.361	0.501
-163.808	226.640	0.098	-0.158
-162.793	-84.981	0.201	-0.063
-161.779	25.022	0.065	-0.054
-160.764	156.710	0.212	-0.291
-159.750	2.490	-0.365	-0.264
-158.735	45.516	0.147	-0.135
-157.720	-167.528	0.395	0.016
-156.706	-38.686	-0.354	0.186
-155.691	-162.089	0.169	-0.008
-154.677	-181.111	-0.178	-0.004
-153.662	-73.084	-0.078	-0.028
-152.647	273.209	-0.015	-0.027
-151.633	357.482	-0.101	-0.201
-150.618	-72.323	0.170	-0.063
-149.604	-108.480	-0.086	-0.018
-148.589	235.573	0.195	0.321
-147.574	-200.000	0.016	-0.134
-146.560	-200.000	0.011	-0.409
-145.545	-72.727	-0.244	0.089
-144.531	17.974	0.095	0.075
-143.516	160.904	-0.150	0.208
-142.502	-118.811	0.326	-0.057
-141.487	196.422	-0.193	-0.293
-140.472	52.266	-0.196	-0.186
-139.458	-120.214	-0.223	-0.038
-138.443	-110.657	0.195	0.040
-137.429	800.000	-0.029	0.115
-136.414	102.657	-0.222	0.258
-135.399	800.000	0.140	0.533
-134.385	-178.577	-0.265	0.006
-133.370	160.726	-0.204	0.283
-132.356	38.464	-0.059	-0.052
-131.341	11.196	-0.350	0.267
-130.326	70.488	0.095	-0.098
-129.312	-200.000	0.021	0.220
-128.297	-155.956	0.363	-0.023
-127.283	77.486	0.072	0.076
-126.268	111.168	-0.249	-0.298
-125.253	99.549	-0.060	-0.069
-124.239	-141.008	0.131	-0.013
-123.224	-200.000	-0.038	0.227
-122.210	142.972	0.136	-0.179
-121.195	158.137	-0.120	-0.166
-120.180	-95.853	0.222	0.059
