DTS Sentinel unit serial number:	SN413079Multiplexer serial number:	ORYXHardware model number:	OX4-SRSoftware version number:	ORYX F/W v4.00 Oryx Data Collector v3.7.2.0data status	okinstallation	princeton_trtdifferential loss correction	single-endedforward channel	channel 4reverse channel	N/Adate	2019/09/13time	17:45:34forward acquisition time	60.00reverse acquisition time	0.00gamma	496.2192k internal	0.2296k external	0.2296temperature offset calibration	1.0220default loss term (dB/km)	0.3790temperature slope calibration	1.0000multiplexer offset coefficient	1.0000multiplexer slope coefficient	1.0000fibre end	0.00T internal ref (°C)	35.67T ext. ref 1 (°C)	5.21T ext. ref 2 (°C)	29.23length (m)	temperature (°C)	Stokes	anti-Stokes-747.200	472.649	0.128	-0.294
-746.185	-200.000	0.016	0.126
-745.171	48.002	0.047	0.045
-744.156	-200.000	0.003	0.263
-743.142	-160.484	-0.079	-0.004
-742.127	800.000	0.051	-0.226
-741.112	-200.000	-0.005	0.516
-740.098	800.000	0.043	0.124
-739.083	42.661	-0.232	-0.216
-738.069	-112.615	-0.269	0.055
-737.054	281.330	0.078	0.143
-736.039	3.392	-0.272	-0.202
-735.025	-112.563	0.117	0.024
-734.010	38.991	-0.137	0.125
-732.996	-3.864	0.163	0.116
-731.981	-114.954	0.378	0.073
-730.966	-109.914	-0.398	-0.085
-729.952	-121.439	0.228	0.039
-728.937	250.515	0.047	-0.081
-727.923	-66.558	-0.192	-0.078
-726.908	-130.745	-0.150	0.021
-725.894	-50.285	-0.027	-0.013
-724.879	11.522	0.077	-0.060
-723.864	-21.650	-0.056	-0.035
-722.850	-6.218	-0.137	-0.096
-721.835	19.121	-0.263	-0.216
-720.821	186.934	-0.222	-0.338
-719.806	185.602	0.169	-0.256
-718.791	-46.082	-0.144	0.072
-717.777	-152.325	-0.142	-0.010
-716.762	513.212	0.138	-0.328
-715.748	661.599	-0.049	0.129
-714.733	-200.000	0.289	-0.001
-713.718	-200.000	-0.023	-0.133
-712.704	169.654	-0.097	-0.141
-711.689	335.273	0.043	-0.086
-710.675	-59.889	-0.147	0.064
-709.660	-134.272	0.267	-0.034
-708.645	94.783	0.095	0.110
-707.631	73.379	0.254	0.271
-706.616	147.671	0.117	0.160
-705.602	-27.200	0.035	0.021
-704.587	-130.835	-0.157	0.021
-703.572	118.219	-0.143	-0.180
-702.558	107.169	-0.294	-0.357
-701.543	-111.659	-0.052	0.011
-700.529	-100.196	0.309	-0.078
-699.514	-104.690	-0.105	0.025
-698.499	146.141	-0.304	-0.417
-697.485	-89.598	0.428	-0.128
-696.470	-31.835	-0.316	0.181
-695.456	-163.140	-0.164	-0.008
-694.441	714.523	0.048	0.131
-693.426	-99.251	-0.312	-0.080
-692.412	-116.382	-0.255	0.048
-691.397	-50.870	0.118	-0.057
-690.383	-102.322	-0.022	0.005
-689.368	151.188	-0.131	0.181
-688.354	-200.000	0.031	0.241
-687.339	-38.343	-0.124	0.067
-686.324	-88.802	-0.166	-0.050
-685.310	278.909	-0.125	0.227
-684.295	128.722	-0.284	-0.369
-683.281	-84.134	0.060	0.019
-682.266	-29.885	0.341	0.198
-681.251	-108.421	-0.185	0.041
-680.237	5.527	-0.185	-0.139
-679.222	-106.471	-0.131	0.030
-678.208	-200.000	0.043	-0.310
-677.193	800.000	-0.056	0.204
-676.178	-68.281	0.238	0.094
-675.164	682.687	0.109	0.289
-674.149	-200.000	0.006	-0.056
-673.135	60.050	-0.251	0.253
-672.120	399.347	-0.076	-0.162
-671.105	-200.000	0.037	0.234
-670.091	158.044	0.082	-0.115
-669.076	304.511	-0.174	-0.330
-668.062	571.565	-0.030	0.074
-667.047	800.000	0.039	-0.170
-666.032	501.747	0.109	-0.256
-665.018	-200.000	-0.013	-0.093
-664.003	120.075	-0.097	-0.123
-662.989	-200.000	-0.050	-0.329
-661.974	800.000	-0.032	-0.098
-660.959	-8.606	0.151	0.103
-659.945	265.689	0.054	0.096
-658.930	-163.376	-0.288	-0.014
-657.916	268.871	0.074	0.132
-656.901	12.685	-0.341	0.268
-655.886	-116.332	0.238	0.045
-654.872	-12.262	0.057	0.038
-653.857	88.508	0.178	0.201
-652.843	-69.226	0.116	0.045
-651.828	61.071	-0.166	0.167
-650.814	133.915	0.044	-0.058
-649.799	-27.459	-0.146	0.086
-648.784	-200.000	-0.010	-0.231
-647.770	-200.000	0.008	-0.038
-646.755	261.355	-0.105	-0.184
-645.741	-13.733	0.164	0.108
-644.726	-44.310	0.092	0.047
-643.711	-1.164	-0.028	0.020
-642.697	-126.997	0.161	-0.024
-641.682	-200.000	0.030	-0.172
-640.668	-200.000	-0.032	-0.443
-639.653	800.000	0.063	-0.196
-638.638	-200.000	0.025	0.248
-637.624	-54.964	-0.212	-0.097
-636.609	-83.245	-0.280	-0.092
-635.595	-91.375	0.392	0.114
-634.580	100.040	0.126	0.149
-633.565	154.125	0.009	-0.013
-632.551	289.788	-0.167	-0.309
-631.536	402.281	-0.081	-0.174
-630.522	800.000	0.064	-0.216
-629.507	-200.000	-0.009	-0.211
-628.492	800.000	-0.059	-0.204
-627.478	-182.020	-0.198	0.004
-626.463	170.477	-0.213	-0.310
-625.449	-98.234	-0.202	0.053
-624.434	-200.000	-0.002	0.088
-623.419	800.000	0.066	-0.188
-622.405	301.126	0.058	-0.108
-621.390	117.575	-0.133	-0.167
-620.376	-200.000	0.065	-0.296
-619.361	-200.000	-0.048	0.217
-618.346	-200.000	0.004	-0.495
-617.332	-151.743	-0.252	-0.019
-616.317	188.108	-0.094	0.143
-615.303	-200.000	0.008	0.188
-614.288	683.046	-0.132	0.349
-613.273	-200.000	0.010	-0.076
-612.259	39.312	-0.037	-0.034
-611.244	-200.000	-0.018	-0.139
-610.230	154.127	0.104	-0.144
-609.215	-22.936	-0.239	0.147
-608.201	19.926	-0.178	-0.146
-607.186	800.000	-0.062	0.249
-606.171	-46.245	0.089	-0.044
-605.157	-39.738	0.134	-0.071
-604.142	86.955	0.194	-0.218
-603.128	-200.000	0.023	-0.372
-602.113	176.758	0.183	0.270
-601.098	101.610	0.031	-0.036
-600.084	-33.421	-0.238	0.134
-599.069	-200.000	0.019	0.160
-598.055	800.000	0.035	0.105
-597.040	-24.653	0.057	-0.035
-596.025	123.949	-0.200	0.255
-595.011	-149.150	0.233	0.019
-593.996	499.990	0.074	0.173
-592.982	667.081	0.044	-0.116
-591.967	-50.742	-0.156	-0.074
-590.952	118.038	0.049	0.061
-589.938	800.000	-0.069	0.258
-588.923	706.261	0.076	-0.204
-587.909	-185.317	-0.404	0.006
-586.894	394.512	-0.158	-0.335
-585.879	-56.083	0.270	0.122
-584.865	495.806	-0.031	-0.072
-583.850	-1.655	-0.457	-0.327
-582.836	424.106	-0.080	0.175
-581.821	-87.249	0.238	-0.073
-580.806	45.220	-0.223	0.208
-579.792	800.000	0.061	-0.221
-578.777	-124.944	-0.088	0.014
-577.763	3.749	-0.110	0.082
-576.748	-136.436	0.197	0.023
-575.733	157.163	0.135	0.190
-574.719	773.566	-0.103	0.286
-573.704	4.669	0.184	0.137
-572.690	-1.628	0.099	-0.071
-571.675	-61.983	-0.217	0.092
-570.661	-200.000	-0.007	-0.210
-569.646	-74.509	-0.619	-0.226
-568.631	-200.000	-0.071	0.368
-567.617	349.769	0.061	0.122
-566.602	-92.938	-0.264	-0.075
-565.588	800.000	0.028	-0.096
-564.573	-72.203	0.122	0.046
-563.558	-165.297	-0.291	0.013
-562.544	199.422	0.237	-0.369
-561.529	684.579	-0.101	-0.268
-560.515	-79.699	0.237	-0.081
-559.500	11.778	-0.074	-0.057
-558.485	247.701	0.234	-0.401
-557.471	-186.516	0.188	-0.003
-556.456	-114.457	-0.130	0.025
-555.442	-93.896	0.192	0.053
-554.427	264.046	0.219	0.386
-553.412	-107.024	-0.276	0.062
-552.398	-200.000	0.061	0.352
-551.383	800.000	-0.023	-0.070
-550.369	67.712	-0.043	-0.045
-549.354	-2.603	0.009	-0.007
-548.339	800.000	-0.100	-0.282
-547.325	-23.545	-0.250	0.152
-546.310	54.036	0.193	-0.188
-545.296	-92.385	-0.149	-0.043
-544.281	35.760	-0.326	-0.290
-543.266	800.000	-0.041	0.131
-542.252	-149.580	-0.254	-0.020
-541.237	216.697	0.137	-0.221
-540.223	-22.077	0.222	0.136
-539.208	800.000	0.089	0.384
-538.193	24.886	-0.126	0.106
-537.179	-135.153	-0.217	-0.026
-536.164	240.222	0.120	0.203
-535.150	335.526	0.061	-0.120
-534.135	-68.355	-0.298	-0.117
-533.121	-128.804	0.427	0.061
-532.106	-113.595	0.394	-0.078
-531.091	800.000	-0.099	-0.319
-530.077	129.859	-0.184	0.238
-529.062	-200.000	0.014	0.186
-528.048	-59.451	0.119	-0.052
-527.033	-71.200	0.120	0.046
-526.018	-129.683	-0.370	-0.052
-525.004	86.700	-0.246	0.275
-523.989	-42.750	0.397	-0.204
-522.975	-112.525	-0.182	-0.037
-521.960	-200.000	0.003	0.252
-520.945	181.142	0.175	-0.261
-519.931	41.806	-0.102	0.093
-518.916	247.253	-0.096	0.165
-517.902	-54.575	-0.214	-0.098
-516.887	800.000	0.051	-0.203
-515.872	800.000	0.067	0.293
-514.858	-200.000	0.032	0.149
-513.843	-200.000	0.265	0.000
-512.829	183.087	0.045	-0.068
-511.814	-61.749	0.197	0.084
-510.799	103.300	-0.061	0.072
-509.785	-200.000	0.423	0.002
-508.770	-93.863	0.084	-0.023
-507.756	-7.448	0.069	0.047
-506.741	-131.108	0.112	0.015
-505.726	-94.563	-0.139	0.038
-504.712	-200.000	-0.043	0.200
-503.697	-73.911	0.405	-0.149
-502.683	-132.719	0.132	-0.017
-501.668	-90.910	-0.247	-0.072
-500.653	-136.957	0.175	0.020
-499.639	-126.774	-0.110	-0.017
-498.624	-95.877	0.152	-0.041
-497.610	74.545	-0.110	-0.117
-496.595	-8.503	0.199	0.135
-495.581	-80.869	-0.149	-0.050
-494.566	147.801	-0.167	-0.227
-493.551	-200.000	0.005	-0.509
-492.537	-5.204	-0.186	-0.129
-491.522	-165.574	0.079	-0.003
-490.508	-200.000	0.023	-0.311
-489.493	-43.557	-0.273	0.139
-488.478	275.290	0.130	-0.233
-487.464	13.693	-0.072	-0.057
-486.449	424.733	-0.109	-0.236
-485.435	800.000	0.110	-0.424
-484.420	-43.897	0.257	0.131
-483.405	800.000	0.102	-0.399
-482.391	800.000	0.145	0.433
-481.376	-100.285	-0.271	0.068
-480.362	186.707	0.037	-0.055
-479.347	-200.000	0.018	-0.208
-478.332	-58.361	-0.106	-0.047
-477.318	146.162	-0.112	0.152
-476.303	800.000	0.028	0.080
-475.289	41.438	0.050	0.045
-474.274	-7.740	0.061	0.042
-473.259	25.417	0.156	-0.131
-472.245	-82.047	-0.243	-0.080
-471.230	800.000	-0.133	-0.403
-470.216	-115.668	-0.408	-0.077
-469.201	36.710	0.154	0.138
-468.186	-106.415	-0.140	0.032
-467.172	273.129	-0.092	0.164
-466.157	800.000	-0.048	-0.144
-465.143	-200.000	0.022	0.242
-464.128	800.000	0.020	0.071
-463.113	322.344	0.154	0.296
-462.099	137.243	0.077	-0.101
-461.084	139.765	0.058	-0.078
-460.070	30.685	-0.065	0.056
-459.055	163.889	-0.188	0.268
-458.040	-63.292	0.041	0.017
-457.026	12.807	-0.192	-0.150
-456.011	487.620	-0.053	0.121
-454.997	109.109	-0.130	-0.158
-453.982	-200.000	-0.013	0.191
-452.968	207.096	0.139	-0.219
-451.953	95.146	0.258	-0.297
-450.938	-28.139	0.234	-0.137
-449.924	180.239	-0.059	0.087
-448.909	-200.000	0.007	-0.463
-447.895	365.933	0.082	0.168
-446.880	-8.740	-0.195	0.132
-445.865	30.742	-0.321	-0.278
-444.851	52.871	-0.117	0.113
-443.836	800.000	-0.060	-0.200
-442.822	-200.000	0.003	0.342
-441.807	-200.000	-0.031	-0.178
-440.792	800.000	0.014	0.057
-439.778	-200.000	-0.021	-0.127
-438.763	97.663	0.070	0.081
-437.749	-200.000	-0.044	0.269
-436.734	67.693	0.125	0.129
-435.719	308.738	0.048	0.091
-434.705	-129.772	0.077	0.011
-433.690	-51.592	0.081	0.038
-432.676	242.937	-0.092	0.156
-431.661	-98.227	0.458	0.119
-430.646	-95.637	-0.162	0.044
-429.632	-167.732	-0.246	-0.010
-428.617	800.000	-0.037	-0.162
-427.603	-75.880	-0.128	-0.046
-426.588	373.619	0.012	0.025
-425.573	-200.000	-0.062	0.294
-424.559	-200.000	-0.024	0.352
-423.544	800.000	0.027	0.092
-422.530	-200.000	-0.016	-0.119
-421.515	5.405	0.174	-0.129
-420.500	-45.870	0.216	0.108
-419.486	311.860	0.057	-0.108
-418.471	-141.978	-0.336	0.034
-417.457	-101.240	0.120	0.030
-416.442	223.386	-0.144	-0.235
-415.428	157.593	0.222	0.311
-414.413	17.362	0.218	0.174
-413.398	44.072	-0.298	0.275
-412.384	-200.000	0.091	-0.429
-411.369	800.000	-0.018	-0.054
-410.355	39.250	0.274	0.248
-409.340	800.000	-0.024	-0.104
-408.325	-63.621	0.247	-0.102
-407.311	-50.640	0.201	0.095
-406.296	-41.520	-0.241	0.125
-405.282	-200.000	-0.054	-0.279
-404.267	-175.200	0.119	-0.003
-403.252	24.888	-0.225	-0.188
-402.238	0.255	0.095	-0.069
-401.223	84.603	0.146	0.161
-400.209	-93.187	0.275	0.077
-399.194	481.595	0.122	0.279
-398.179	-200.000	0.015	-0.121
-397.165	800.000	0.035	-0.099
-396.150	-59.596	-0.203	-0.088
-395.136	-200.000	-0.070	0.341
-394.121	-86.460	-0.136	0.042
-393.106	23.024	0.280	-0.232
-392.092	-129.303	-0.137	0.019
-391.077	-51.113	-0.301	0.142
-390.063	21.090	0.140	-0.115
-389.048	-200.000	-0.013	0.057
-388.033	-86.196	-0.089	0.028
-387.019	-84.959	0.079	-0.025
-386.004	313.043	-0.110	-0.209
-384.990	-82.413	0.337	0.110
-383.975	-101.227	0.102	0.025
-382.960	75.217	0.099	-0.105
-381.946	-145.258	-0.096	-0.009
-380.931	-200.000	-0.054	0.320
-379.917	-107.797	0.244	0.053
-378.902	800.000	0.084	0.303
-377.888	674.973	-0.019	0.049
-376.873	-200.000	0.017	-0.189
-375.858	-200.000	-0.033	0.265
-374.844	76.878	-0.132	0.141
-373.829	-169.577	-0.282	0.010
-372.815	1.772	-0.073	-0.053
-371.800	-57.134	0.238	0.105
-370.785	-107.233	0.167	-0.037
-369.771	-200.000	-0.033	0.165
-368.756	-24.873	0.277	0.166
-367.742	-34.544	0.087	-0.048
-366.727	67.428	-0.245	-0.251
-365.712	-144.840	-0.189	-0.017
-364.698	41.849	-0.045	-0.041
-363.683	48.430	0.105	-0.099
-362.669	121.958	-0.293	0.368
-361.654	-30.653	-0.075	0.043
-360.639	-136.450	-0.097	-0.011
-359.625	-28.996	0.265	0.153
-358.610	248.896	0.059	0.101
-357.596	68.680	0.156	-0.161
-356.581	800.000	-0.042	0.153
-355.566	-79.154	-0.169	-0.058
-354.552	-71.870	-0.173	0.065
-353.537	800.000	0.006	0.024
-352.523	2.549	0.102	0.074
-351.508	-200.000	-0.063	-0.375
-350.493	-79.851	0.258	-0.087
-349.479	-55.352	0.038	-0.017
-348.464	800.000	-0.075	-0.243
-347.450	800.000	-0.083	0.330
-346.435	72.834	0.190	-0.200
-345.420	6.793	-0.174	0.130
-344.406	-165.405	0.351	-0.015
-343.391	82.469	0.171	0.186
-342.377	107.930	0.086	-0.103
-341.362	104.216	0.156	-0.185
-340.348	-93.025	0.378	0.106
-339.333	599.106	0.055	-0.138
-338.318	96.686	-0.158	0.182
-337.304	262.961	-0.043	-0.076
-336.289	388.201	-0.133	-0.277
-335.275	-200.000	-0.008	0.530
-334.260	-177.732	0.285	0.007
-333.245	51.924	0.159	-0.152
-332.231	-69.991	0.172	-0.066
-331.216	800.000	0.084	-0.248
-330.202	-130.339	-0.222	-0.030
-329.187	-112.004	0.202	-0.041
-328.172	-23.627	-0.383	-0.231
-327.158	53.293	0.207	0.199
-326.143	-54.396	-0.309	0.141
-325.129	-98.047	0.159	-0.041
-324.114	-138.603	-0.190	-0.021
-323.099	-129.444	0.196	0.027
-322.085	60.301	-0.267	0.266
-321.070	-200.000	-0.005	-0.046
-320.056	-75.463	0.112	-0.040
-319.041	-115.887	-0.136	0.025
-318.026	-90.070	0.226	0.066
-317.012	-196.464	-0.080	0.001
-315.997	-200.000	-0.040	-0.254
-314.983	48.196	-0.233	-0.219
-313.968	205.153	0.076	-0.118
-312.953	-200.000	-0.040	0.276
-311.939	-200.000	-0.002	0.056
-310.924	-84.089	0.251	-0.080
-309.910	366.685	-0.236	-0.479
-308.895	-128.030	0.143	-0.021
-307.880	72.101	0.138	-0.145
-306.866	513.980	0.063	0.148
-305.851	-104.677	0.216	0.050
-304.837	800.000	0.093	-0.281
-303.822	141.331	-0.061	0.081
-302.807	800.000	0.048	0.203
-301.793	53.476	0.165	0.159
-300.778	402.443	-0.178	0.376
-299.764	116.291	0.123	-0.151
-298.749	47.343	0.160	-0.150
-297.735	-18.233	0.033	-0.021
-296.720	-89.408	-0.332	-0.098
-295.705	-132.331	-0.122	-0.016
-294.691	-0.096	0.071	0.051
-293.676	-86.268	0.049	-0.015
-292.662	18.283	-0.159	0.127
-291.647	303.985	-0.043	-0.079
-290.632	-200.000	0.011	-0.057
-289.618	637.787	-0.102	0.261
-288.603	-83.532	-0.133	0.043
-287.589	253.240	-0.095	0.163
-286.574	-200.000	-0.013	0.100
-285.559	-118.019	-0.161	-0.029
-284.545	244.568	-0.140	0.236
-283.530	-200.000	0.012	0.121
-282.516	342.144	0.252	0.496
-281.501	800.000	-0.052	-0.167
-280.486	27.517	0.218	0.184
-279.472	334.559	-0.089	0.174
-278.457	800.000	0.123	-0.467
-277.443	-194.664	-0.213	-0.002
-276.428	-50.485	-0.262	0.124
-275.413	-94.498	0.411	-0.112
-274.399	800.000	-0.047	0.152
-273.384	276.112	-0.092	-0.163
-272.370	33.227	-0.124	-0.108
-271.355	102.752	-0.163	0.192
-270.340	76.376	0.234	0.248
-269.326	64.848	0.127	-0.128
-268.311	800.000	-0.055	-0.195
-267.297	131.538	0.118	-0.152
-266.282	60.723	-0.329	-0.327
-265.267	60.241	-0.156	-0.155
-264.253	800.000	0.077	0.235
-263.238	-157.907	-0.294	0.017
-262.224	3.458	-0.122	-0.089
-261.209	57.291	0.149	-0.145
-260.195	63.224	-0.057	0.058
-259.180	-200.000	-0.009	-0.148
-258.165	140.621	-0.190	0.251
-257.151	203.111	0.028	-0.044
-256.136	203.159	0.209	0.325
-255.122	800.000	-0.048	0.145
-254.107	115.904	-0.216	0.265
-253.092	-140.005	0.205	-0.022
-252.078	-200.000	-0.016	0.313
-251.063	-164.551	0.128	-0.006
-250.049	621.619	0.081	0.204
-249.034	800.000	-0.128	0.475
-248.019	-138.055	-0.294	-0.033
-247.005	-100.441	-0.132	-0.033
-245.990	-97.049	-0.156	-0.041
-244.976	-89.066	0.389	0.115
-243.961	800.000	0.058	-0.242
-242.946	-200.000	-0.002	-0.096
-241.932	19.489	0.321	0.258
-240.917	2.880	0.243	0.176
-239.903	-50.314	0.264	0.125
-238.888	218.929	0.138	0.220
-237.873	113.766	-0.015	-0.018
-236.859	-200.000	0.004	0.209
-235.844	-34.877	-0.072	0.039
-234.830	-81.825	0.063	-0.021
-233.815	-33.121	-0.060	-0.033
-232.800	-200.000	0.034	0.172
-231.786	-112.254	0.592	-0.119
-230.771	-87.242	-0.200	0.061
-229.757	800.000	0.031	-0.089
-228.742	-126.878	0.121	-0.018
-227.727	-200.000	0.021	-0.182
-226.713	-115.097	0.300	0.057
-225.698	284.774	0.025	0.045
-224.684	256.816	0.191	0.329
-223.669	800.000	-0.134	-0.423
-222.655	-108.025	0.189	0.041
-221.640	-135.715	0.152	0.018
-220.625	-23.401	0.194	-0.117
-219.611	427.955	-0.057	-0.123
-218.596	133.037	-0.272	0.351
-217.582	-200.000	-0.037	-0.256
-216.567	-21.650	-0.263	-0.160
-215.552	85.939	-0.006	0.006
-214.538	389.965	-0.064	0.134
-213.523	-101.427	0.240	0.059
-212.509	-165.270	-0.206	-0.009
-211.494	283.962	-0.169	-0.303
-210.479	-73.226	0.296	-0.109
-209.465	-71.066	-0.352	-0.132
-208.450	-200.000	-0.043	-0.423
-207.436	37.690	-0.259	0.230
-206.421	-135.672	-0.163	0.019
-205.406	-71.751	-0.056	-0.021
-204.392	14.633	-0.170	0.133
-203.377	204.185	-0.100	-0.155
-202.363	28.675	-0.095	0.081
-201.348	-124.829	-0.357	-0.055
-200.333	62.764	-0.248	0.248
-199.319	-59.426	0.240	-0.103
-198.304	-97.878	-0.293	0.076
-197.290	-200.000	-0.020	-0.187
-196.275	71.017	-0.091	-0.094
-195.260	268.416	0.154	0.269
-194.246	-200.000	-0.152	0.001
-193.231	-77.709	0.134	0.046
-192.217	-200.000	-0.043	0.286
-191.202	88.769	-0.183	-0.204
-190.187	-3.820	-0.141	-0.098
-189.173	-78.418	0.121	-0.042
-188.158	364.186	0.076	-0.153
-187.144	-51.623	-0.098	0.046
-186.129	-128.078	0.278	0.040
-185.114	-90.138	-0.329	0.096
-184.100	-106.868	-0.357	0.079
-183.085	-143.705	0.223	-0.021
-182.071	76.892	0.262	0.278
-181.056	-143.364	-0.255	0.024
-180.042	80.333	0.205	-0.220
-179.027	-113.374	0.295	-0.058
-178.012	423.136	-0.123	-0.265
-176.998	68.986	-0.097	-0.100
-175.983	276.348	0.062	0.110
-174.969	-156.319	0.081	-0.005
-173.954	-63.157	0.329	0.136
-172.939	58.483	0.291	0.285
-171.925	-134.952	0.230	-0.028
-170.910	800.000	0.068	-0.211
-169.896	-40.337	0.093	0.048
-168.881	147.400	-0.193	0.260
-167.866	-66.422	0.332	0.132
-166.852	-151.402	0.259	0.019
-165.837	-129.333	0.210	-0.029
-164.823	-145.263	-0.424	0.038
-163.808	339.230	0.103	-0.200
-162.793	356.057	-0.066	0.130
-161.779	-200.000	-0.000	-0.008
-160.764	-200.000	-0.003	0.259
-159.750	300.299	-0.091	-0.167
-158.735	-0.814	0.114	0.080
-157.720	-30.023	-0.250	0.142
-156.706	-166.267	-0.325	-0.014
-155.691	-67.228	0.186	-0.073
-154.677	-8.617	-0.100	0.067
-153.662	-98.127	0.106	-0.027
-152.647	-95.168	0.087	-0.023
-151.633	-93.026	0.174	-0.048
-150.618	-43.597	0.192	0.097
-149.604	7.983	0.142	0.107
-148.589	-173.759	0.348	0.010
-147.574	-179.386	-0.083	-0.002
-146.560	338.322	0.040	0.078
-145.545	-188.162	0.598	-0.008
-144.531	800.000	0.046	0.162
-143.516	160.551	-0.059	-0.082
-142.502	800.000	-0.051	-0.144
-141.487	-200.000	-0.022	-0.100
-140.472	-51.837	0.155	-0.072
-139.458	33.501	-0.066	-0.058
-138.443	359.568	0.085	0.170
-137.429	201.263	0.055	0.084
-136.414	-123.472	0.399	-0.063
-135.399	278.590	0.085	-0.152
-134.385	-200.000	-0.022	-0.198
-133.370	5.049	-0.255	-0.188
-132.356	-133.014	-0.339	-0.043
-131.341	438.273	-0.052	-0.114
-130.326	132.281	-0.150	0.193
-129.312	-59.795	0.271	0.116
-128.297	-22.371	0.180	0.108
-127.283	31.818	0.072	-0.062
-126.268	256.311	-0.246	-0.421
-125.253	-200.000	-0.015	-0.074
-124.239	14.949	0.126	-0.098
-123.224	-200.000	-0.036	-0.178
-122.210	-107.617	0.017	-0.004
-121.195	466.848	0.119	-0.267
