DTS Sentinel unit serial number:	SN413079Multiplexer serial number:	ORYXHardware model number:	OX4-SRSoftware version number:	ORYX F/W v4.00 Oryx Data Collector v3.7.2.0data status	okinstallation	princeton_trtdifferential loss correction	single-endedforward channel	channel 4reverse channel	N/Adate	2019/09/14time	04:09:35forward acquisition time	60.00reverse acquisition time	0.00gamma	496.2192k internal	0.2321k external	0.2321temperature offset calibration	1.0135default loss term (dB/km)	0.3790temperature slope calibration	1.0000multiplexer offset coefficient	1.0000multiplexer slope coefficient	1.0000fibre end	0.00T internal ref (°C)	26.69T ext. ref 1 (°C)	3.33T ext. ref 2 (°C)	21.83length (m)	temperature (°C)	Stokes	anti-Stokes-747.200	-87.123	0.095	0.029
-746.185	800.000	0.119	-0.414
-745.171	800.000	0.039	-0.124
-744.156	237.880	-0.219	0.366
-743.142	-173.717	0.305	-0.009
-742.127	-200.000	-0.012	-0.241
-741.112	20.532	-0.023	-0.019
-740.098	46.367	-0.312	0.293
-739.083	141.101	0.059	-0.078
-738.069	-26.631	-0.075	0.045
-737.054	17.888	0.104	-0.084
-736.039	90.323	0.210	0.237
-735.025	49.933	0.249	0.237
-734.010	3.746	-0.023	-0.017
-732.996	-200.000	0.004	-0.040
-731.981	491.776	0.066	-0.154
-730.966	-25.729	-0.149	-0.089
-729.952	-30.163	0.211	-0.121
-728.937	472.544	0.006	0.015
-727.923	-66.630	-0.118	-0.047
-726.908	67.718	0.254	0.262
-725.894	-91.187	0.256	-0.074
-724.879	-137.347	-0.257	-0.029
-723.864	-146.983	-0.138	-0.012
-722.850	800.000	-0.032	-0.103
-721.835	-200.000	-0.042	0.293
-720.821	284.724	0.121	0.220
-719.806	190.269	0.043	-0.065
-718.791	800.000	-0.099	-0.316
-717.777	781.787	-0.064	0.178
-716.762	52.608	-0.112	-0.108
-715.748	-86.432	0.286	-0.089
-714.733	379.215	0.072	-0.150
-713.718	-20.880	0.030	-0.018
-712.704	-112.433	-0.210	0.042
-711.689	-54.526	-0.225	-0.103
-710.675	198.067	0.273	-0.421
-709.660	11.369	0.121	-0.093
-708.645	-102.442	0.066	0.016
-707.631	88.769	0.029	-0.033
-706.616	-61.835	-0.303	-0.128
-705.602	800.000	-0.088	-0.274
-704.587	-162.175	0.120	0.006
-703.572	-100.981	0.150	-0.037
-702.558	498.356	0.060	-0.140
-701.543	-191.151	0.345	0.004
-700.529	223.231	0.171	0.279
-699.514	-154.981	-0.375	-0.025
-698.499	-200.000	-0.019	0.256
-697.485	177.488	-0.162	0.238
-696.470	486.959	0.115	-0.265
-695.456	119.847	0.036	0.045
-694.441	-16.005	-0.164	-0.105
-693.426	139.721	-0.215	-0.286
-692.412	-160.180	0.225	0.012
-691.397	-167.863	0.042	0.002
-690.383	107.429	-0.201	-0.241
-689.368	800.000	-0.119	0.379
-688.354	133.456	0.061	0.079
-687.339	0.649	-0.054	-0.039
-686.324	-200.000	-0.005	0.118
-685.310	-96.273	-0.077	0.020
-684.295	65.466	0.275	-0.281
-683.281	-80.216	-0.185	0.062
-682.266	-44.883	0.061	0.031
-681.251	-200.000	0.016	-0.072
-680.237	260.321	0.096	0.167
-679.222	-114.980	-0.204	0.039
-678.208	-200.000	-0.047	0.218
-677.193	229.418	-0.102	-0.168
-676.178	800.000	0.066	-0.205
-675.164	-200.000	-0.089	-0.428
-674.149	-44.923	0.143	0.072
-673.135	-95.286	-0.041	0.011
-672.120	86.389	0.024	0.027
-671.105	-200.000	-0.019	-0.133
-670.091	390.519	-0.009	0.018
-669.076	269.724	0.138	-0.244
-668.062	-117.358	0.181	0.033
-667.047	84.789	0.183	-0.202
-666.032	259.122	-0.099	-0.172
-665.018	-44.186	0.160	0.081
-664.003	12.954	-0.089	-0.070
-662.989	45.015	-0.089	0.082
-661.974	687.871	0.144	-0.379
-660.959	297.823	-0.088	0.162
-659.945	-69.546	0.020	-0.008
-658.930	103.786	-0.180	0.213
-657.916	-36.892	0.243	-0.131
-656.901	-97.865	-0.381	0.099
-655.886	-88.352	0.306	-0.092
-654.872	-84.320	-0.266	0.085
-653.857	303.130	-0.083	0.155
-652.843	-24.012	-0.414	-0.249
-651.828	343.069	0.113	-0.222
-650.814	179.093	-0.077	-0.113
-649.799	-54.816	-0.057	0.026
-648.784	-42.315	-0.397	0.204
-647.770	-28.003	-0.125	0.073
-646.755	534.547	0.101	0.241
-645.741	18.003	0.162	0.130
-644.726	-200.000	0.017	0.189
-643.711	84.410	0.166	0.182
-642.697	-52.823	0.087	0.040
-641.682	604.488	0.166	0.415
-640.668	-61.169	-0.254	-0.108
-639.653	-27.191	0.117	-0.069
-638.638	106.646	-0.097	-0.116
-637.624	723.133	-0.033	-0.088
-636.609	35.342	-0.113	0.099
-635.595	-200.000	-0.055	-0.274
-634.580	11.211	-0.220	0.170
-633.565	243.473	0.056	-0.095
-632.551	-108.705	-0.130	-0.028
-631.536	-143.237	-0.141	-0.014
-630.522	-52.113	-0.098	0.046
-629.507	275.302	0.069	0.122
-628.492	-118.740	0.062	0.011
-627.478	800.000	-0.039	-0.118
-626.463	736.282	-0.059	-0.159
-625.449	-91.939	-0.213	0.061
-624.434	538.314	-0.031	0.075
-623.419	800.000	-0.145	-0.414
-622.405	-200.000	-0.000	0.272
-621.390	477.960	-0.066	-0.150
-620.376	20.450	0.096	-0.078
-619.361	-103.796	0.319	0.075
-618.346	34.357	0.120	-0.105
-617.332	-50.301	0.244	0.116
-616.317	352.374	0.056	-0.112
-615.303	-115.122	0.190	0.036
-614.288	111.177	-0.241	0.292
-613.273	-56.175	-0.048	0.021
-612.259	-200.000	0.038	-0.366
-611.244	-37.906	-0.237	0.127
-610.230	13.666	0.123	0.096
-609.215	542.920	-0.015	-0.036
-608.201	141.861	-0.092	-0.123
-607.186	249.910	-0.086	-0.146
-606.171	110.723	0.107	0.129
-605.157	374.197	-0.033	-0.067
-604.142	22.799	-0.102	-0.084
-603.128	571.959	-0.183	0.448
-602.113	140.128	-0.049	-0.064
-601.098	7.198	-0.235	-0.177
-600.084	649.009	-0.155	-0.399
-599.069	-146.612	0.160	0.014
-598.055	370.560	0.068	0.138
-597.040	563.406	-0.123	-0.299
-596.025	-46.764	-0.105	-0.052
-595.011	-200.000	-0.004	-0.405
-593.996	800.000	0.072	0.214
-592.982	34.297	-0.175	0.153
-591.967	-200.000	0.025	0.208
-590.952	76.835	-0.114	-0.122
-589.938	29.533	0.258	-0.221
-588.923	-200.000	0.005	-0.249
-587.909	-20.080	0.171	-0.106
-586.894	2.499	0.180	0.131
-585.879	252.989	-0.100	-0.171
-584.865	61.589	0.247	-0.247
-583.850	311.129	-0.070	-0.132
-582.836	178.827	-0.225	-0.330
-581.821	207.681	0.058	0.091
-580.806	-51.161	-0.380	-0.179
-579.792	103.209	0.034	0.040
-578.777	-200.000	-0.010	-0.231
-577.763	800.000	-0.067	-0.235
-576.748	236.408	-0.049	0.082
-575.733	-138.474	-0.181	-0.020
-574.719	-147.644	-0.385	-0.032
-573.704	-200.000	0.010	0.098
-572.690	-200.000	-0.032	0.160
-571.675	-90.093	-0.249	-0.073
-570.661	-75.230	-0.197	0.071
-569.646	29.462	0.268	-0.228
-568.631	-200.000	-0.005	0.099
-567.617	150.146	0.150	-0.205
-566.602	43.514	-0.468	-0.429
-565.588	-200.000	-0.033	-0.158
-564.573	-109.842	0.240	0.051
-563.558	-200.000	-0.010	0.179
-562.544	800.000	0.106	-0.295
-561.529	163.011	-0.209	-0.295
-560.515	-184.204	-0.053	-0.001
-559.500	800.000	0.055	0.219
-558.485	-17.133	-0.114	-0.072
-557.471	-35.299	-0.358	0.196
-556.456	-64.313	-0.248	0.101
-555.442	19.631	-0.025	0.020
-554.427	-49.236	0.146	0.070
-553.412	45.807	-0.086	0.080
-552.398	247.020	-0.112	0.189
-551.383	-32.631	0.270	0.151
-550.369	42.789	0.107	-0.098
-549.354	-167.593	-0.311	-0.012
-548.339	-200.000	0.379	0.001
-547.325	153.299	0.068	0.093
-546.310	169.634	-0.136	0.195
-545.296	404.882	-0.024	0.051
-544.281	-66.921	0.286	-0.113
-543.266	14.246	-0.167	-0.131
-542.252	5.890	0.081	0.060
-541.237	-51.745	0.041	-0.019
-540.223	800.000	0.059	-0.255
-539.208	-96.621	-0.184	0.049
-538.193	-120.891	-0.220	-0.037
-537.179	525.808	0.127	-0.300
-536.164	800.000	0.085	0.235
-535.150	-30.311	-0.163	-0.093
-534.135	-56.277	0.369	0.165
-533.121	-138.186	0.202	-0.022
-532.106	71.745	-0.103	0.108
-531.091	570.840	-0.039	0.095
-530.077	143.821	-0.066	-0.088
-529.062	-134.277	-0.364	0.045
-528.048	50.345	0.350	-0.332
-527.033	-39.761	-0.154	-0.080
-526.018	43.185	-0.021	-0.019
-525.004	800.000	0.040	-0.156
-523.989	-123.697	-0.285	-0.045
-522.975	-137.343	-0.335	-0.038
-521.960	35.298	0.061	0.054
-520.945	1.149	0.120	-0.086
-519.931	25.651	-0.101	0.084
-518.916	-89.342	0.229	0.067
-517.902	-121.954	0.192	-0.032
-516.887	106.696	-0.195	-0.232
-515.872	-80.245	-0.335	-0.112
-514.858	-72.260	-0.464	0.172
-513.843	351.909	0.038	0.076
-512.829	-93.132	-0.411	0.115
-511.814	-12.377	-0.359	-0.235
-510.799	5.800	0.266	0.197
-509.785	-200.000	-0.044	0.196
-508.770	-10.292	-0.005	-0.003
-507.756	536.920	0.067	-0.159
-506.741	-64.871	0.174	-0.071
-505.726	365.151	0.162	-0.328
-504.712	800.000	-0.066	0.191
-503.697	372.337	-0.036	-0.073
-502.683	691.100	-0.016	-0.043
-501.668	274.861	-0.148	0.262
-500.653	-77.844	-0.141	-0.049
-499.639	60.849	-0.182	-0.181
-498.624	-200.000	-0.006	0.105
-497.610	-109.208	0.141	-0.030
-496.595	800.000	-0.030	-0.121
-495.581	-200.000	-0.041	0.321
-494.566	-200.000	0.025	-0.323
-493.551	-200.000	-0.020	-0.114
-492.537	-31.106	-0.014	0.008
-491.522	224.525	0.131	0.213
-490.508	219.364	-0.028	0.045
-489.493	-110.060	-0.048	-0.010
-488.478	-101.490	0.310	-0.075
-487.464	97.615	-0.017	-0.019
-486.449	-200.000	0.002	0.045
-485.435	-200.000	0.073	-0.348
-484.420	800.000	-0.144	-0.478
-483.405	-65.406	-0.286	-0.115
-482.391	134.202	-0.181	0.235
-481.376	800.000	-0.137	0.390
-480.362	-144.419	-0.333	-0.031
-479.347	-15.269	-0.202	-0.129
-478.332	731.791	-0.145	-0.387
-477.318	-65.975	-0.195	0.078
-476.303	-13.818	-0.195	0.126
-475.289	133.131	-0.147	-0.190
-474.274	-10.756	-0.155	-0.103
-473.259	-86.496	-0.254	0.078
-472.245	-113.629	0.206	-0.040
-471.230	41.562	0.252	0.228
-470.216	488.725	-0.063	-0.143
-469.201	-38.173	0.122	-0.065
-468.186	117.209	0.267	-0.328
-467.172	-44.922	0.076	0.038
-466.157	65.022	0.047	-0.047
-465.143	-152.423	-0.064	-0.005
-464.128	-79.191	0.110	0.037
-463.113	-60.318	-0.055	-0.023
-462.099	61.422	-0.169	0.168
-461.084	265.240	0.079	0.138
-460.070	-56.930	0.258	0.114
-459.055	-200.000	0.044	-0.196
-458.040	315.674	0.174	-0.328
-457.026	-5.251	-0.247	-0.169
-456.011	264.647	-0.027	0.047
-454.997	-49.630	0.173	-0.082
-453.982	149.759	0.086	-0.117
-452.968	465.982	0.066	0.147
-451.953	127.530	-0.174	0.221
-450.938	161.340	0.040	-0.056
-449.924	-200.000	0.035	0.240
-448.909	-114.197	-0.141	0.027
-447.895	147.440	-0.219	0.294
-446.880	39.815	-0.152	-0.136
-445.865	118.960	0.245	-0.302
-444.851	290.244	-0.143	0.260
-443.836	-32.562	0.314	-0.175
-442.822	-200.000	-0.023	0.231
-441.807	99.639	-0.197	0.228
-440.792	165.607	0.052	0.074
-439.778	207.231	-0.195	0.304
-438.763	-7.375	-0.138	-0.094
-437.749	800.000	0.088	0.290
-436.734	276.272	0.164	-0.290
-435.719	670.708	-0.087	-0.225
-434.705	-1.128	-0.185	-0.131
-433.690	531.166	0.135	-0.320
-432.676	177.068	0.068	0.099
-431.661	254.464	0.063	0.107
-430.646	-200.000	0.041	-0.326
-429.632	53.882	0.138	-0.132
-428.617	-49.813	0.190	-0.090
-427.603	-55.876	-0.334	-0.149
-426.588	161.129	0.223	0.310
-425.573	793.333	-0.068	-0.186
-424.559	123.624	0.065	0.082
-423.544	403.082	0.130	-0.274
-422.530	-200.000	-0.007	0.113
-421.515	170.582	0.097	0.138
-420.500	245.535	0.020	-0.034
-419.486	-155.708	-0.072	0.005
-418.471	-111.988	-0.165	0.033
-417.457	800.000	-0.063	0.211
-416.442	-104.123	-0.273	-0.063
-415.428	5.092	0.285	-0.210
-414.413	-1.860	0.258	-0.181
-413.398	138.018	-0.172	0.224
-412.384	-110.070	-0.094	-0.020
-411.369	800.000	0.071	-0.226
-410.355	800.000	-0.083	-0.235
-409.340	-106.625	0.189	-0.042
-408.325	-40.698	0.069	-0.036
-407.311	400.869	-0.025	0.052
-406.296	-176.438	0.190	0.005
-405.282	100.288	-0.295	-0.341
-404.267	-141.537	0.262	0.026
-403.252	14.765	-0.077	0.060
-402.238	-118.699	0.123	-0.022
-401.223	269.498	0.083	0.146
-400.209	71.031	-0.027	-0.028
-399.194	-31.698	-0.198	-0.111
-398.179	-200.000	-0.003	-0.214
-397.165	82.168	0.200	-0.216
-396.150	-200.000	0.289	0.000
-395.136	-69.827	-0.235	0.089
-394.121	68.036	-0.201	0.205
-393.106	246.171	0.132	0.221
-392.092	-69.084	0.165	0.063
-391.077	61.242	-0.062	0.061
-390.063	800.000	-0.068	0.283
-389.048	-126.016	0.476	-0.071
-388.033	-95.206	0.146	0.039
-387.019	-111.043	0.120	0.025
-386.004	-12.837	-0.119	0.078
-384.990	90.690	-0.073	0.081
-383.975	-170.403	0.212	-0.007
-382.960	14.157	0.295	-0.229
-381.946	-200.000	0.036	-0.318
-380.931	-125.477	0.285	-0.043
-379.917	-91.221	0.199	0.057
-378.902	-200.000	0.054	-0.276
-377.888	135.226	-0.185	0.240
-376.873	-5.492	0.178	-0.121
-375.858	-99.143	-0.199	-0.050
-374.844	-100.925	-0.241	0.059
-373.829	269.101	0.182	-0.318
-372.815	333.096	0.051	-0.098
-371.800	44.912	-0.134	0.122
-370.785	-200.000	-0.032	-0.179
-369.771	364.954	0.023	-0.045
-368.756	-200.000	-0.001	0.201
-367.742	-2.808	0.223	-0.155
-366.727	-200.000	0.022	-0.328
-365.712	-200.000	0.020	-0.138
-364.698	53.143	-0.118	0.113
-363.683	117.631	0.201	-0.247
-362.669	800.000	0.012	0.051
-361.654	-111.376	-0.208	0.042
-360.639	800.000	-0.137	0.442
-359.625	-137.783	0.052	-0.006
-358.610	-82.763	0.186	0.060
-357.596	283.903	0.115	-0.206
-356.581	-79.563	0.126	0.042
-355.566	-39.403	-0.031	0.016
-354.552	-200.000	0.042	0.208
-353.537	-2.860	-0.227	0.158
-352.523	800.000	-0.015	0.056
-351.508	56.983	-0.093	0.090
-350.493	471.949	0.134	-0.299
-349.479	256.112	0.062	-0.107
-348.464	193.260	-0.075	-0.113
-347.450	-200.000	0.039	-0.190
-346.435	-200.000	-0.003	0.183
-345.420	800.000	0.033	-0.116
-344.406	-200.000	-0.013	0.100
-343.391	24.237	-0.342	0.281
-342.377	294.992	0.063	-0.115
-341.362	197.951	-0.162	0.247
-340.348	-200.000	0.033	0.166
-339.333	82.622	0.062	-0.067
-338.318	-122.860	0.239	-0.038
-337.304	-125.348	0.303	-0.046
-336.289	-64.583	0.159	0.064
-335.275	489.813	-0.050	-0.115
-334.260	294.234	-0.051	0.092
-333.245	-52.599	-0.127	0.058
-332.231	-162.507	0.346	-0.017
-331.216	800.000	0.103	0.307
-330.202	-81.878	0.209	-0.068
-329.187	94.602	0.145	0.163
-328.172	121.248	-0.329	0.408
-327.158	-200.000	-0.005	0.065
-326.143	279.440	0.182	0.322
-325.129	39.910	0.111	0.099
-324.114	-200.000	-0.004	0.142
-323.099	-200.000	-0.007	0.341
-322.085	800.000	-0.083	0.247
-321.070	-55.232	0.014	0.006
-320.056	203.117	-0.056	0.086
-319.041	-71.401	0.350	-0.130
-318.026	-33.326	-0.102	0.056
-317.012	-1.759	-0.316	-0.221
-315.997	800.000	-0.071	0.200
-314.983	-24.915	-0.215	0.127
-313.968	198.146	-0.144	0.219
-312.953	378.559	-0.063	-0.128
-311.939	714.905	-0.068	-0.180
-310.924	532.462	0.031	0.073
-309.910	56.555	0.033	0.032
-308.895	-200.000	-0.014	-0.072
-307.880	144.654	0.142	0.189
-306.866	-32.347	-0.247	0.137
-305.851	-2.754	-0.094	0.065
-304.837	39.954	-0.117	-0.104
-303.822	-200.000	0.005	0.334
-302.807	-87.645	0.268	-0.080
-301.793	41.827	-0.259	-0.233
-300.778	276.168	-0.085	0.150
-299.764	-163.436	-0.264	0.012
-298.749	-200.000	0.018	-0.320
-297.735	-144.154	-0.145	-0.013
-296.720	-200.000	-0.026	0.453
-295.705	-200.000	0.027	0.297
-294.691	-55.342	0.170	0.076
-293.676	48.640	0.316	0.294
-292.662	26.824	-0.125	-0.104
-291.647	91.015	-0.230	-0.256
-290.632	40.808	0.151	-0.135
-289.618	-133.669	-0.159	0.020
-288.603	-54.813	-0.177	-0.079
-287.589	-61.347	-0.152	-0.064
-286.574	-34.921	-0.300	0.163
-285.559	-60.947	0.297	0.125
-284.545	-75.562	0.076	0.027
-283.530	18.896	-0.204	-0.163
-282.516	-95.580	0.130	-0.035
-281.501	-3.806	0.113	0.078
-280.486	-77.575	0.328	0.113
-279.472	-200.000	0.018	0.306
-278.457	800.000	0.053	-0.202
-277.443	-97.670	0.104	0.027
-276.428	49.111	0.127	-0.119
-275.413	-165.332	-0.312	-0.014
-274.399	356.191	-0.240	0.474
-273.384	-71.410	0.111	-0.041
-272.370	329.649	-0.118	0.225
-271.355	-87.525	0.182	-0.055
-270.340	20.322	-0.266	-0.213
-269.326	800.000	-0.036	0.116
-268.311	-200.000	0.057	0.312
-267.297	-90.856	-0.297	-0.085
-266.282	-70.923	0.308	0.115
-265.267	22.414	-0.254	0.206
-264.253	-104.369	0.470	0.108
-263.238	23.735	0.028	-0.023
-262.224	277.618	0.144	-0.254
-261.209	-200.000	0.010	-0.355
-260.195	-38.546	-0.246	-0.129
-259.180	176.785	-0.167	-0.241
-258.165	210.855	0.142	0.221
-257.151	-200.000	0.051	0.427
-256.136	-3.006	0.192	0.133
-255.122	384.982	0.028	-0.058
-254.107	79.318	-0.028	-0.030
-253.092	-45.767	-0.079	-0.039
-252.078	-53.979	0.275	-0.124
-251.063	82.472	-0.134	0.145
-250.049	800.000	-0.048	0.205
-249.034	-89.416	0.125	-0.036
-248.019	80.762	0.287	-0.306
-247.005	-13.589	-0.076	0.049
-245.990	-200.000	0.027	0.128
-244.976	-200.000	0.053	-0.322
-243.961	-200.000	0.011	-0.137
-242.946	-118.395	-0.156	0.027
-241.932	-200.000	-0.022	0.329
-240.917	435.306	-0.120	-0.258
-239.903	-136.873	0.082	-0.009
-238.888	15.468	0.102	0.079
-237.873	-200.000	0.002	0.230
-236.859	-200.000	-0.015	0.154
-235.844	-72.175	0.282	0.104
-234.830	800.000	-0.040	-0.148
-233.815	-130.931	-0.232	-0.031
-232.800	-121.887	-0.465	-0.076
-231.786	-200.000	-0.037	-0.201
-230.771	-164.976	0.040	-0.002
-229.757	96.325	-0.132	0.149
-228.742	0.412	0.330	0.233
-227.727	82.366	0.133	0.143
-226.713	-99.270	0.321	-0.080
-225.698	-96.306	-0.284	0.075
-224.684	90.745	0.089	0.098
-223.669	64.038	0.075	0.075
-222.655	-200.000	0.031	0.228
-221.640	170.552	-0.054	-0.076
-220.625	116.004	0.313	-0.380
-219.611	156.303	0.241	0.329
-218.596	-200.000	0.026	0.220
-217.582	-62.987	0.077	-0.031
-216.567	-118.966	-0.064	0.011
-215.552	-84.423	-0.214	0.067
-214.538	-120.380	0.225	0.038
-213.523	366.878	0.067	0.135
-212.509	-108.048	0.333	-0.071
-211.494	-200.000	-0.038	-0.340
-210.479	507.790	0.054	-0.124
-209.465	67.284	0.186	-0.188
-208.450	-143.048	-0.103	0.010
-207.436	-42.198	0.049	-0.025
-206.421	-200.000	-0.007	0.239
-205.406	-200.000	-0.003	0.288
-204.392	121.789	-0.150	-0.186
-203.377	-139.665	-0.158	-0.017
-202.363	23.684	-0.309	0.252
-201.348	-200.000	-0.045	0.260
-200.333	-200.000	-0.022	0.217
-199.319	-80.361	0.051	0.017
-198.304	11.498	-0.143	0.108
-197.290	49.627	-0.119	-0.111
-196.275	-200.000	0.050	-0.256
-195.260	-147.727	-0.161	-0.013
-194.246	42.788	-0.200	-0.180
-193.231	800.000	0.042	0.155
-192.217	345.540	0.139	0.270
-191.202	-200.000	-0.004	-0.190
-190.187	-118.998	0.302	-0.052
-189.173	248.930	-0.189	0.317
-188.158	5.527	0.201	0.147
-187.144	533.203	0.112	0.263
-186.129	160.356	0.186	-0.257
-185.114	-7.876	0.367	-0.245
-184.100	130.812	-0.029	0.037
-183.085	-182.501	0.065	-0.001
-182.071	6.478	0.122	-0.089
-181.056	-143.624	0.109	-0.010
-180.042	128.924	0.177	-0.224
-179.027	110.071	-0.031	0.037
-178.012	290.455	0.192	0.345
-176.998	2.895	0.152	0.109
-175.983	-200.000	-0.006	0.102
-174.969	-78.761	0.239	-0.081
-173.954	-122.597	0.472	0.076
-172.939	-200.000	0.052	-0.360
-171.925	-28.049	0.333	-0.191
-170.910	-200.000	0.009	-0.212
-169.896	-8.732	-0.224	-0.149
-168.881	800.000	0.088	0.252
-167.866	-200.000	0.034	-0.194
-166.852	0.646	-0.062	-0.044
-165.837	-143.882	0.368	0.034
-164.823	-200.000	0.012	0.323
-163.808	-200.000	-0.008	0.162
-162.793	-200.000	0.126	-0.000
-161.779	81.972	0.117	0.125
-160.764	82.905	0.188	-0.202
-159.750	201.428	0.135	-0.205
-158.735	-60.644	-0.436	0.183
-157.720	-200.000	0.000	-0.319
-156.706	289.807	-0.096	0.172
-155.691	-200.000	-0.012	0.077
-154.677	-4.810	0.120	-0.082
-153.662	-91.075	0.268	0.076
-152.647	-64.554	-0.311	0.125
-151.633	152.102	0.071	-0.095
-150.618	199.110	0.143	0.216
-149.604	-200.000	0.018	0.356
-148.589	800.000	0.082	0.337
-147.574	-1.384	-0.123	0.086
-146.560	64.834	-0.159	0.158
-145.545	287.748	0.069	0.124
-144.531	172.336	-0.198	0.281
-143.516	14.775	0.244	0.188
-142.502	-48.861	0.328	-0.155
-141.487	-200.000	0.001	0.336
-140.472	-83.018	-0.277	0.088
-139.458	-140.844	-0.206	0.021
-138.443	-200.000	0.004	0.068
-137.429	56.663	-0.300	0.288
-136.414	307.443	-0.230	0.423
-135.399	-79.939	0.090	-0.030
-134.385	-41.315	0.252	-0.128
-133.370	-200.000	0.013	0.358
-132.356	-13.984	-0.067	0.042
-131.341	800.000	0.085	0.234
-130.326	23.113	0.183	-0.148
-129.312	-60.725	-0.174	-0.073
-128.297	800.000	-0.097	0.307
-127.283	420.970	0.126	-0.266
-126.268	-200.000	0.003	-0.019
-125.253	463.070	0.150	-0.331
-124.239	62.259	-0.103	0.101
-123.224	-89.110	-0.357	0.104
-122.210	249.033	0.090	0.151
-121.195	800.000	-0.118	-0.369
-120.180	-200.000	0.036	0.202
