DTS Sentinel unit serial number:	SN413079Multiplexer serial number:	ORYXHardware model number:	OX4-SRSoftware version number:	ORYX F/W v4.00 Oryx Data Collector v3.7.2.0data status	okinstallation	princeton_trtdifferential loss correction	single-endedforward channel	channel 4reverse channel	N/Adate	2019/09/12time	09:47:11forward acquisition time	60.00reverse acquisition time	0.00gamma	496.2192k internal	0.2296k external	0.2296temperature offset calibration	1.0069default loss term (dB/km)	0.3790temperature slope calibration	1.0000multiplexer offset coefficient	1.0000multiplexer slope coefficient	1.0000fibre end	0.00T internal ref (°C)	35.94T ext. ref 1 (°C)	1.83T ext. ref 2 (°C)	32.56length (m)	temperature (°C)	Stokes	anti-Stokes-747.200	134.914	0.164	0.217
-746.185	47.311	-0.130	0.123
-745.171	373.695	-0.095	-0.197
-744.156	800.000	0.138	0.505
-743.142	-200.000	-0.039	0.338
-742.127	-155.299	-0.342	0.023
-741.112	-148.169	0.099	-0.008
-740.098	296.744	-0.063	0.118
-739.083	800.000	-0.085	-0.261
-738.069	-200.000	-0.031	-0.225
-737.054	345.490	0.032	-0.064
-736.039	-98.516	-0.261	0.068
-735.025	-200.000	-0.004	-0.068
-734.010	724.111	-0.134	-0.365
-732.996	-10.902	-0.183	-0.124
-731.981	-200.000	0.049	0.252
-730.966	179.294	0.065	0.098
-729.952	72.419	0.171	-0.182
-728.937	8.501	-0.079	-0.061
-727.923	687.651	0.031	0.084
-726.908	-185.101	-0.384	-0.006
-725.894	-135.997	-0.404	0.048
-724.879	275.648	0.217	-0.393
-723.864	-82.488	-0.378	0.125
-722.850	415.087	0.157	0.342
-721.835	-25.422	0.174	0.105
-720.821	173.455	-0.128	-0.188
-719.806	87.220	-0.195	-0.220
-718.791	-14.667	-0.142	0.093
-717.777	-66.814	-0.077	0.031
-716.762	204.626	0.175	0.276
-715.748	118.553	0.226	-0.285
-714.733	62.088	0.268	-0.273
-713.718	297.534	0.044	0.082
-712.704	-164.530	-0.264	0.012
-711.689	-200.000	0.035	0.162
-710.675	11.465	-0.168	-0.131
-709.660	30.852	-0.173	-0.151
-708.645	101.160	0.249	-0.296
-707.631	-76.685	0.114	-0.041
-706.616	-96.480	-0.151	0.041
-705.602	-195.624	-0.399	-0.003
-704.587	-195.730	-0.496	0.004
-703.572	75.508	-0.198	0.213
-702.558	-200.000	-0.076	0.415
-701.543	-63.893	-0.411	0.172
-700.529	-160.187	0.081	-0.005
-699.514	-32.044	-0.119	-0.068
-698.499	800.000	-0.097	-0.295
-697.485	-95.710	-0.086	0.024
-696.470	391.168	0.005	0.010
-695.456	33.660	-0.104	-0.092
-694.441	-21.389	0.408	0.254
-693.426	-99.722	0.197	0.050
-692.412	7.238	-0.143	-0.109
-691.397	-17.412	0.074	-0.048
-690.383	47.200	0.203	0.193
-689.368	131.014	0.167	-0.219
-688.354	242.561	-0.113	-0.194
-687.339	269.994	0.191	-0.343
-686.324	227.858	0.110	0.183
-685.310	550.186	0.108	-0.263
-684.295	-76.306	-0.257	-0.092
-683.281	-149.273	0.204	0.017
-682.266	660.597	-0.136	0.357
-681.251	-94.263	0.217	-0.060
-680.237	-97.665	-0.149	-0.039
-679.222	196.266	-0.100	0.155
-678.208	-79.370	-0.074	0.026
-677.193	-200.000	-0.013	0.396
-676.178	-70.700	-0.176	0.068
-675.164	287.531	0.149	-0.275
-674.149	268.849	0.058	-0.104
-673.135	-27.438	-0.117	0.069
-672.120	800.000	-0.057	-0.211
-671.105	-200.000	-0.027	-0.288
-670.091	-40.144	0.245	-0.130
-669.076	-94.126	0.028	-0.008
-668.062	110.194	0.056	-0.069
-667.047	477.169	-0.068	0.157
-666.032	132.759	-0.130	-0.170
-665.018	105.584	-0.077	-0.092
-664.003	54.498	0.176	-0.173
-662.989	155.662	0.120	0.169
-661.974	800.000	0.087	0.339
-660.959	359.921	-0.093	0.189
-659.945	-118.207	-0.355	-0.064
-658.930	-44.851	0.364	0.185
-657.916	-139.746	0.146	-0.016
-656.901	47.503	-0.138	-0.131
-655.886	113.409	-0.216	0.267
-654.872	800.000	0.058	-0.256
-653.857	-48.103	0.110	0.054
-652.843	247.276	-0.081	-0.138
-651.828	-124.256	0.263	-0.042
-650.814	27.297	0.190	-0.163
-649.799	79.352	0.039	-0.042
-648.784	351.657	0.187	0.377
-647.770	126.012	0.060	0.077
-646.755	-161.532	0.227	-0.012
-645.741	-60.813	-0.304	0.131
-644.726	-174.859	-0.264	-0.008
-643.711	-200.000	-0.018	-0.094
-642.697	-197.510	0.118	0.001
-641.682	-64.856	0.066	0.027
-640.668	800.000	-0.096	0.331
-639.653	-22.685	-0.077	0.048
-638.638	800.000	-0.038	-0.116
-637.624	-200.000	-0.045	-0.328
-636.609	-137.747	-0.228	-0.026
-635.595	-19.087	0.370	0.234
-634.580	-94.945	-0.321	0.088
-633.565	-80.746	-0.119	0.040
-632.551	-200.000	-0.038	-0.349
-631.536	528.681	-0.069	-0.166
-630.522	-200.000	-0.002	-0.012
-629.507	-15.320	-0.170	0.111
-628.492	-82.851	0.077	0.025
-627.478	67.888	0.152	0.159
-626.463	-88.294	-0.307	-0.094
-625.449	-200.000	-0.106	-0.514
-624.434	-79.570	0.135	-0.046
-623.419	422.248	0.127	-0.277
-622.405	-9.075	-0.188	0.128
-621.390	-160.701	-0.248	-0.013
-620.376	2.434	-0.123	0.091
-619.361	-49.466	-0.078	0.038
-618.346	-31.942	0.316	0.180
-617.332	257.574	0.169	-0.296
-616.317	-62.101	-0.304	0.129
-615.303	-200.000	0.002	-0.171
-614.288	800.000	0.064	0.213
-613.273	-200.000	0.002	-0.231
-612.259	11.482	0.255	0.199
-611.244	149.941	-0.197	-0.272
-610.230	-107.030	0.148	-0.033
-609.215	-44.608	0.050	-0.025
-608.201	-200.000	0.006	0.345
-607.186	413.548	-0.083	0.180
-606.171	-200.000	0.005	-0.198
-605.157	-200.000	-0.010	-0.110
-604.142	-147.432	0.186	0.016
-603.128	-115.837	-0.143	0.027
-602.113	19.444	0.106	0.087
-601.098	-200.000	0.011	-0.190
-600.084	800.000	-0.062	0.176
-599.069	800.000	-0.015	0.065
-598.055	-100.917	-0.305	-0.076
-597.040	800.000	0.037	0.158
-596.025	81.597	0.126	-0.139
-595.011	275.478	0.110	0.198
-593.996	800.000	0.012	0.038
-592.982	654.130	-0.062	0.162
-591.967	-37.806	-0.236	-0.128
-590.952	800.000	0.063	-0.210
-589.938	-200.000	-0.012	-0.369
-588.923	-5.255	0.326	0.228
-587.909	-200.000	0.046	-0.229
-586.894	-200.000	0.018	-0.250
-585.879	800.000	-0.075	-0.240
-584.865	-31.789	-0.077	0.044
-583.850	-165.313	-0.468	-0.021
-582.836	-16.007	0.180	0.116
-581.821	34.609	-0.157	-0.139
-580.806	-29.574	-0.155	-0.090
-579.792	-68.318	0.374	-0.148
-578.777	66.978	-0.175	0.181
-577.763	-200.000	0.018	-0.130
-576.748	134.136	0.125	0.164
-575.733	533.242	0.077	0.185
-574.719	-36.665	0.137	0.075
-573.704	38.666	-0.211	0.191
-572.690	-67.677	0.317	-0.126
-571.675	31.119	0.377	-0.328
-570.661	-200.000	-0.003	-0.112
-569.646	182.668	-0.259	-0.387
-568.631	800.000	0.037	0.104
-567.617	227.693	0.057	0.093
-566.602	-94.488	0.166	-0.046
-565.588	800.000	0.068	-0.195
-564.573	-115.872	-0.203	-0.038
-563.558	-200.000	-0.054	-0.493
-562.544	-79.419	0.259	0.089
-561.529	18.672	-0.047	-0.039
-560.515	-116.653	-0.157	0.029
-559.500	-174.716	-0.258	0.007
-558.485	800.000	0.017	-0.058
-557.471	531.431	0.065	-0.155
-556.456	131.212	-0.207	0.270
-555.442	-200.000	-0.005	0.188
-554.427	144.638	0.143	0.193
-553.412	-200.000	-0.002	-0.017
-552.398	800.000	-0.093	-0.361
-551.383	214.760	-0.076	-0.122
-550.369	-128.198	0.266	0.038
-549.354	150.221	-0.158	0.217
-548.339	800.000	-0.043	0.147
-547.325	-106.220	0.100	0.023
-546.310	-200.000	0.010	0.216
-545.296	-160.538	0.159	-0.009
-544.281	800.000	-0.073	-0.229
-543.266	-63.432	0.291	0.121
-542.252	37.037	-0.145	0.130
-541.237	194.133	0.100	0.153
-540.223	-200.000	-0.080	0.439
-539.208	175.475	0.137	0.202
-538.193	-82.693	-0.136	0.045
-537.179	-200.000	-0.004	0.162
-536.164	-128.276	-0.038	0.005
-535.150	-109.859	0.501	0.107
-534.135	800.000	0.017	0.073
-533.121	352.880	0.132	-0.266
-532.106	-147.142	-0.094	0.008
-531.091	799.643	-0.051	0.141
-530.077	-141.772	0.461	-0.047
-529.062	146.836	-0.126	-0.171
-528.048	488.125	0.042	-0.097
-527.033	649.956	0.020	0.053
-526.018	-59.584	0.272	-0.118
-525.004	44.442	-0.062	-0.058
-523.989	-42.208	0.182	-0.094
-522.975	800.000	-0.123	0.426
-521.960	84.857	0.081	0.090
-520.945	-200.000	-0.090	-0.619
-519.931	323.260	-0.156	-0.302
-518.916	27.467	0.170	-0.144
-517.902	-200.000	0.055	0.375
-516.887	-70.302	-0.218	0.084
-515.872	-28.778	0.296	0.172
-514.858	800.000	0.075	0.273
-513.843	45.274	-0.121	-0.113
-512.829	281.196	-0.163	-0.296
-511.814	-148.424	-0.074	0.006
-510.799	82.245	-0.172	-0.189
-509.785	-34.768	-0.384	0.212
-508.770	-200.000	0.033	-0.221
-507.756	-78.390	-0.163	0.057
-506.741	-200.000	0.015	-0.363
-505.726	52.466	-0.153	0.148
-504.712	496.721	-0.053	0.124
-503.697	765.647	0.031	0.086
-502.683	254.093	-0.139	-0.240
-501.668	32.721	-0.162	-0.142
-500.653	282.890	-0.105	-0.190
-499.639	389.424	0.042	0.089
-498.624	383.664	0.073	0.151
-497.610	-10.554	0.088	0.059
-496.595	800.000	-0.038	-0.107
-495.581	141.501	0.126	0.168
-494.566	122.642	0.166	0.210
-493.551	-200.000	-0.042	0.203
-492.537	99.854	-0.306	0.358
-491.522	-90.008	-0.211	0.062
-490.508	-200.000	0.025	0.501
-489.493	-94.963	-0.140	0.038
-488.478	407.005	0.047	-0.101
-487.464	69.734	-0.167	-0.174
-486.449	800.000	-0.033	-0.102
-485.435	-54.137	-0.032	0.015
-484.420	153.912	-0.083	0.115
-483.405	-114.358	0.125	0.024
-482.391	-100.500	0.225	-0.056
-481.376	74.179	0.104	0.110
-480.362	51.472	0.233	-0.224
-479.347	-200.000	0.071	0.000
-478.332	-70.855	0.152	-0.058
-477.318	-71.371	0.121	0.046
-476.303	-22.553	-0.008	0.005
-475.289	728.237	0.025	-0.068
-474.274	4.393	-0.108	-0.080
-473.259	-200.000	-0.009	0.183
-472.245	-43.473	-0.168	0.086
-471.230	66.837	0.292	0.300
-470.216	158.130	-0.141	0.198
-469.201	614.085	0.086	-0.217
-468.186	-129.198	0.328	-0.046
-467.172	-93.105	0.211	-0.059
-466.157	-186.267	0.112	0.002
-465.143	-88.847	0.287	0.086
-464.128	-200.000	0.041	-0.431
-463.113	-200.000	-0.025	-0.143
-462.099	-70.895	-0.303	-0.115
-461.084	190.368	-0.160	-0.242
-460.070	-18.893	-0.268	-0.169
-459.055	477.879	0.130	0.297
-458.040	-200.000	0.034	-0.319
-457.026	-13.988	-0.111	0.073
-456.011	-5.007	0.095	0.066
-454.997	-200.000	-0.051	0.430
-453.982	273.609	-0.070	0.126
-452.968	-123.881	0.196	-0.031
-451.953	-91.472	-0.243	-0.070
-450.938	-200.000	0.037	0.169
-449.924	-82.806	-0.222	0.072
-448.909	-129.348	-0.068	-0.010
-447.895	800.000	0.170	0.509
-446.880	-200.000	0.026	-0.136
-445.865	-93.551	-0.288	0.080
-444.851	-83.848	-0.418	0.135
-443.836	37.088	0.260	0.233
-442.822	-166.507	-0.089	-0.004
-441.807	800.000	-0.124	-0.397
-440.792	-4.605	0.044	-0.031
-439.778	407.761	-0.117	0.251
-438.763	52.994	-0.127	-0.123
-437.749	89.573	0.087	-0.098
-436.734	-200.000	-0.110	0.001
-435.719	-34.440	-0.121	0.067
-434.705	106.766	0.157	-0.188
-433.690	-42.144	-0.306	-0.158
-432.676	91.148	-0.086	0.098
-431.661	-200.000	-0.090	0.401
-430.646	-69.879	0.161	0.062
-429.632	-72.328	-0.279	-0.104
-428.617	-94.421	0.113	0.031
-427.603	76.599	-0.097	-0.103
-426.588	-122.149	0.253	0.042
-425.573	203.778	0.108	0.168
-424.559	272.889	-0.147	-0.262
-423.544	-92.020	-0.324	0.092
-422.530	-83.937	0.338	-0.109
-421.515	367.666	-0.135	0.276
-420.500	102.791	0.153	-0.181
-419.486	-200.000	-0.034	0.180
-418.471	-150.707	0.746	0.057
-417.457	108.459	0.386	0.465
-416.442	-141.227	-0.324	-0.033
-415.428	498.583	-0.114	-0.265
-414.413	-200.000	-0.037	0.434
-413.398	-200.000	0.003	0.153
-412.384	-200.000	-0.021	0.096
-411.369	-71.420	0.312	0.118
-410.355	-34.501	0.216	0.119
-409.340	65.552	0.265	-0.270
-408.325	9.297	-0.157	0.120
-407.311	-74.101	-0.166	0.060
-406.296	-71.564	-0.431	0.162
-405.282	-91.762	0.333	0.095
-404.267	-51.043	-0.207	0.098
-403.252	-103.195	-0.296	-0.071
-402.238	-114.442	-0.433	0.084
-401.223	81.479	-0.031	0.034
-400.209	-200.000	-0.001	0.157
-399.194	55.040	-0.171	0.166
-398.179	133.669	-0.068	-0.088
-397.165	-72.553	-0.251	0.093
-396.150	200.178	-0.080	0.124
-395.136	-150.752	-0.215	-0.016
-394.121	-67.180	0.203	-0.080
-393.106	54.887	-0.127	-0.124
-392.092	141.760	0.191	-0.254
-391.077	-30.874	0.195	0.111
-390.063	628.787	0.093	0.238
-389.048	369.011	-0.164	0.333
-388.033	311.487	0.103	0.195
-387.019	-200.000	-0.065	0.345
-386.004	-10.269	0.004	-0.003
-384.990	-100.527	-0.090	0.023
-383.975	-200.000	0.010	-0.143
-382.960	-108.357	-0.392	-0.085
-381.946	112.672	-0.078	-0.095
-380.931	-200.000	0.050	0.223
-379.917	-41.166	-0.189	-0.098
-378.902	24.436	-0.107	0.089
-377.888	800.000	0.072	-0.215
-376.873	-200.000	0.024	0.194
-375.858	-89.146	0.111	-0.033
-374.844	800.000	0.125	-0.371
-373.829	164.251	-0.093	0.133
-372.815	312.455	-0.058	0.109
-371.800	251.256	0.265	0.454
-370.785	22.748	-0.081	0.066
-369.771	800.000	-0.065	-0.283
-368.756	-200.000	-0.005	-0.049
-367.742	800.000	0.063	0.239
-366.727	66.813	-0.286	0.293
-365.712	-85.603	0.011	-0.003
-364.698	621.478	-0.119	0.301
-363.683	82.462	-0.151	0.165
-362.669	-39.115	-0.086	0.045
-361.654	-52.226	-0.225	0.105
-360.639	174.322	0.062	0.091
-359.625	800.000	0.096	0.298
-358.610	-120.876	0.132	-0.022
-357.596	800.000	-0.063	-0.180
-356.581	264.396	-0.246	-0.430
-355.566	-14.478	-0.254	-0.165
-354.552	-200.000	0.033	-0.158
-353.537	800.000	0.080	0.251
-352.523	306.952	0.100	0.188
-351.508	-128.312	-0.268	-0.038
-350.493	800.000	0.025	0.091
-349.479	95.835	-0.115	0.132
-348.464	51.927	0.150	0.143
-347.450	-95.669	-0.114	0.031
-346.435	8.789	0.192	-0.146
-345.420	-200.000	-0.008	0.309
-344.406	-180.105	0.237	-0.005
-343.391	546.080	0.160	0.385
-342.377	72.606	-0.177	0.186
-341.362	-27.420	-0.147	-0.086
-340.348	-38.802	-0.259	-0.137
-339.333	279.221	-0.199	-0.357
-338.318	16.546	-0.262	0.208
-337.304	429.401	0.074	-0.160
-336.289	-200.000	0.005	-0.059
-335.275	70.403	0.090	-0.094
-334.260	-200.000	-0.028	-0.261
-333.245	1.306	0.087	0.063
-332.231	29.728	0.148	0.126
-331.216	-40.652	-0.046	-0.024
-330.202	-3.107	0.091	0.064
-329.187	-200.000	0.028	-0.199
-328.172	-120.013	0.236	-0.041
-327.158	-30.953	-0.042	0.024
-326.143	-72.094	-0.158	-0.059
-325.129	-57.837	-0.336	-0.148
-324.114	-121.842	0.219	-0.036
-323.099	-1.169	0.210	-0.149
-322.085	-92.800	0.138	0.039
-321.070	11.080	0.148	-0.114
-320.056	-160.608	0.088	-0.005
-319.041	-70.203	0.091	-0.035
-318.026	59.619	0.309	-0.306
-317.012	635.814	0.176	-0.449
-315.997	27.517	0.299	-0.253
-314.983	-23.135	0.021	-0.013
-313.968	172.984	0.128	-0.186
-312.953	-200.000	-0.032	-0.265
-311.939	-1.663	0.278	-0.197
-310.924	-20.940	0.181	-0.111
-309.910	32.755	0.014	0.012
-308.895	414.428	-0.137	-0.294
-307.880	-200.000	0.037	0.214
-306.866	-115.749	0.217	0.041
-305.851	495.137	-0.137	-0.317
-304.837	-40.504	-0.136	-0.071
-303.822	13.323	0.099	0.077
-302.807	27.798	-0.056	-0.047
-301.793	-180.882	-0.073	-0.001
-300.778	2.629	-0.274	0.200
-299.764	-200.000	-0.065	-0.359
-298.749	-3.415	-0.259	0.181
-297.735	-6.684	0.115	-0.078
-296.720	-200.000	-0.013	-0.270
-295.705	382.557	-0.057	-0.117
-294.691	73.904	-0.132	-0.138
-293.676	-62.850	0.143	-0.059
-292.662	-6.853	0.171	-0.117
-291.647	318.673	0.059	0.113
-290.632	-91.634	-0.309	0.088
-289.618	378.786	-0.042	-0.086
-288.603	-200.000	0.033	0.191
-287.589	4.368	0.157	-0.116
-286.574	-145.796	-0.055	-0.005
-285.559	-200.000	-0.029	0.134
-284.545	800.000	0.059	-0.182
-283.530	-200.000	0.020	0.145
-282.516	417.937	-0.111	-0.239
-281.501	800.000	-0.102	-0.291
-280.486	-62.781	-0.371	-0.154
-279.472	-200.000	0.015	-0.125
-278.457	-200.000	-0.005	0.059
-277.443	70.583	0.198	0.206
-276.428	62.335	0.093	-0.093
-275.413	-57.676	0.127	-0.056
-274.399	33.258	-0.072	0.062
-273.384	800.000	-0.097	-0.324
-272.370	-101.487	0.368	0.090
-271.355	-17.386	-0.186	-0.117
-270.340	-200.000	-0.001	-0.068
-269.326	480.997	0.205	-0.466
-268.311	289.206	-0.134	-0.244
-267.297	503.619	-0.061	-0.142
-266.282	-200.000	0.032	0.000
-265.267	6.674	0.115	0.086
-264.253	395.623	-0.180	0.377
-263.238	800.000	0.013	-0.051
-262.224	-100.584	0.097	-0.024
-261.209	390.504	0.159	0.331
-260.195	154.605	0.153	-0.211
-259.180	330.921	-0.019	0.036
-258.165	49.124	0.102	-0.096
-257.151	-77.707	-0.276	0.096
-256.136	-29.391	0.076	0.044
-255.122	317.627	-0.068	0.129
-254.107	108.627	-0.176	-0.211
-253.092	800.000	-0.049	-0.142
-252.078	11.455	0.134	0.103
-251.063	-117.276	0.195	-0.036
-250.049	224.291	0.062	-0.100
-249.034	50.440	0.261	0.247
-248.019	-188.880	-0.349	0.004
-247.005	-42.714	0.332	-0.169
-245.990	-200.000	0.022	-0.164
-244.976	38.516	0.386	0.344
-243.961	-200.000	0.066	-0.000
-242.946	-200.000	0.021	0.456
-241.932	195.244	-0.093	-0.142
-240.917	-120.793	-0.385	-0.065
-239.903	109.251	-0.170	0.204
-238.888	37.115	0.066	-0.059
-237.873	609.475	-0.064	-0.160
-236.859	-64.002	0.063	-0.026
-235.844	-161.136	-0.103	-0.005
-234.830	31.924	0.268	-0.231
-233.815	-129.455	0.195	-0.027
-232.800	288.325	0.110	-0.199
-231.786	800.000	0.065	0.204
-230.771	800.000	-0.064	-0.179
-229.757	561.931	0.094	-0.228
-228.742	83.027	-0.129	-0.141
-227.727	800.000	0.062	0.232
-226.713	-5.638	-0.089	-0.061
-225.698	-200.000	0.018	-0.201
-224.684	157.844	0.052	0.072
-223.669	-183.360	0.411	-0.007
-222.655	-200.000	-0.040	-0.261
-221.640	694.718	-0.069	-0.182
-220.625	129.231	0.127	-0.162
-219.611	-3.037	-0.164	0.115
-218.596	63.398	-0.338	0.340
-217.582	-168.699	0.134	-0.005
-216.567	-200.000	0.062	-0.313
-215.552	-158.311	0.204	-0.012
-214.538	-39.227	0.369	0.194
-213.523	-156.620	-0.130	-0.008
-212.509	249.771	0.257	0.436
-211.494	-129.361	-0.178	0.025
-210.479	140.616	0.082	-0.109
-209.465	98.431	-0.215	0.248
-208.450	800.000	-0.016	0.061
-207.436	216.703	-0.274	-0.436
-206.421	-96.368	0.407	0.108
-205.406	-58.455	-0.471	-0.204
-204.392	-21.223	-0.054	-0.033
-203.377	-200.000	0.021	-0.576
-202.363	-22.062	-0.330	-0.201
-201.348	-0.099	-0.111	0.079
-200.333	-86.649	0.392	0.120
-199.319	-137.254	0.316	0.036
-198.304	-200.000	0.025	0.220
-197.290	-14.405	-0.173	-0.111
-196.275	-200.000	-0.156	0.000
-195.260	-77.393	0.267	0.093
-194.246	348.552	-0.216	0.426
-193.231	475.047	0.096	-0.217
-192.217	-79.614	0.117	0.039
-191.202	24.449	0.127	0.105
-190.187	-138.321	-0.446	0.049
-189.173	-131.522	0.271	-0.036
-188.158	361.026	-0.171	-0.342
-187.144	222.089	0.066	-0.106
-186.129	-25.048	0.255	0.151
-185.114	-200.000	0.024	0.181
-184.100	260.457	-0.142	-0.245
-183.085	-200.000	0.010	-0.187
-182.071	-49.406	-0.242	0.115
-181.056	-135.395	0.272	-0.033
-180.042	-86.644	0.488	-0.149
-179.027	323.618	0.252	0.481
-178.012	-34.090	0.289	0.159
-176.998	-3.603	-0.159	-0.110
-175.983	-70.255	-0.395	0.150
-174.969	-200.000	-0.002	0.106
-173.954	523.530	0.073	-0.171
-172.939	73.016	0.044	0.046
-171.925	-143.769	-0.086	0.008
-170.910	378.443	-0.015	0.032
-169.896	94.219	-0.218	-0.247
-168.881	33.841	-0.116	-0.101
-167.866	800.000	-0.041	0.169
-166.852	-200.000	-0.015	0.165
-165.837	-37.401	0.061	-0.032
-164.823	15.589	0.186	0.146
-163.808	187.751	-0.139	0.208
-162.793	90.275	0.189	0.211
-161.779	-35.144	-0.057	-0.031
-160.764	74.003	-0.153	0.160
-159.750	-105.692	0.049	-0.011
-158.735	478.345	-0.076	-0.173
-157.720	529.773	0.082	0.194
-156.706	-64.506	-0.143	-0.058
-155.691	4.666	0.357	0.262
-154.677	-27.870	-0.169	0.098
-153.662	274.165	0.169	-0.299
-152.647	-40.051	0.221	0.115
-151.633	-35.516	0.077	0.042
-150.618	-200.000	-0.025	-0.224
-149.604	800.000	-0.029	-0.083
-148.589	39.381	-0.113	-0.101
-147.574	152.428	0.029	-0.039
-146.560	31.968	-0.131	-0.113
-145.545	-65.892	-0.053	-0.021
-144.531	-200.000	-0.006	-0.160
-143.516	455.293	-0.092	0.204
-142.502	-200.000	0.043	0.314
-141.487	-118.635	0.055	-0.010
-140.472	-200.000	0.025	-0.149
-139.458	-101.032	-0.087	-0.021
-138.443	-82.806	0.151	-0.049
-137.429	-35.819	-0.086	-0.046
-136.414	-68.288	-0.331	0.128
-135.399	-200.000	0.084	0.418
-134.385	-200.000	-0.035	0.177
-133.370	762.874	-0.088	-0.238
-132.356	-100.363	0.405	-0.100
-131.341	-13.551	0.228	-0.147
-130.326	-200.000	-0.013	-0.351
-129.312	-98.350	-0.315	0.080
-128.297	-200.000	0.010	-0.195
-127.283	-200.000	0.006	-0.166
-126.268	242.967	0.171	-0.286
-125.253	-174.787	-0.168	-0.005
-124.239	95.560	0.098	0.112
-123.224	66.956	-0.016	0.017
-122.210	65.750	-0.217	0.219
-121.195	800.000	-0.066	-0.184
