DTS Sentinel unit serial number:	SN413079Multiplexer serial number:	ORYXHardware model number:	OX4-SRSoftware version number:	ORYX F/W v4.00 Oryx Data Collector v3.7.2.0data status	okinstallation	princeton_trtdifferential loss correction	single-endedforward channel	channel 4reverse channel	N/Adate	2019/09/14time	15:33:35forward acquisition time	60.00reverse acquisition time	0.00gamma	496.2192k internal	0.2292k external	0.2292temperature offset calibration	1.0143default loss term (dB/km)	0.3790temperature slope calibration	1.0000multiplexer offset coefficient	1.0000multiplexer slope coefficient	1.0000fibre end	0.00T internal ref (°C)	38.86T ext. ref 1 (°C)	5.16T ext. ref 2 (°C)	33.69length (m)	temperature (°C)	Stokes	anti-Stokes-747.200	127.046	-0.135	-0.175
-746.185	-0.573	-0.198	0.144
-745.171	-32.561	-0.193	-0.110
-744.156	800.000	-0.051	0.192
-743.142	533.378	-0.119	-0.289
-742.127	-200.000	0.047	0.347
-741.112	-148.487	-0.242	0.020
-740.098	-127.375	0.260	0.039
-739.083	-146.096	0.162	-0.015
-738.069	287.030	0.066	0.122
-737.054	261.709	0.216	-0.383
-736.039	800.000	-0.075	-0.218
-735.025	51.179	-0.048	-0.046
-734.010	250.004	-0.105	0.182
-732.996	-163.379	-0.515	-0.025
-731.981	-12.697	-0.138	-0.092
-730.966	800.000	-0.078	-0.253
-729.952	272.224	-0.195	0.351
-728.937	19.260	-0.164	0.135
-727.923	-5.947	-0.513	-0.359
-726.908	-62.128	-0.055	0.023
-725.894	-142.710	-0.296	-0.030
-724.879	-108.765	-0.454	-0.099
-723.864	634.936	-0.129	-0.333
-722.850	127.557	0.095	-0.124
-721.835	-2.243	0.213	-0.153
-720.821	376.524	-0.098	-0.205
-719.806	-186.690	-0.041	0.001
-718.791	-141.298	0.273	-0.028
-717.777	-43.438	-0.153	0.079
-716.762	-200.000	-0.019	0.101
-715.748	-12.873	0.233	0.155
-714.733	-200.000	0.024	-0.152
-713.718	800.000	-0.094	-0.360
-712.704	121.314	-0.126	-0.160
-711.689	-65.323	-0.398	-0.164
-710.675	44.180	-0.254	-0.238
-709.660	-200.000	0.040	-0.259
-708.645	55.176	0.115	-0.114
-707.631	588.083	-0.040	-0.102
-706.616	-99.995	-0.291	-0.074
-705.602	800.000	0.050	0.207
-704.587	709.993	0.063	0.170
-703.572	101.296	0.089	-0.106
-702.558	108.570	0.156	-0.191
-701.543	-200.000	-0.021	0.151
-700.529	297.945	-0.118	-0.222
-699.514	179.238	-0.159	-0.237
-698.499	-30.099	0.184	-0.107
-697.485	100.567	0.124	-0.148
-696.470	15.368	0.226	-0.181
-695.456	-37.098	-0.004	-0.002
-694.441	-59.302	-0.169	-0.074
-693.426	283.751	-0.182	-0.333
-692.412	-64.524	-0.266	0.110
-691.397	800.000	-0.076	0.338
-690.383	21.957	-0.230	0.192
-689.368	-151.788	-0.277	0.021
-688.354	-200.000	-0.005	-0.377
-687.339	52.593	-0.113	0.110
-686.324	-120.900	-0.286	0.049
-685.310	-200.000	0.016	-0.480
-684.295	28.458	0.241	-0.208
-683.281	-28.363	-0.198	0.117
-682.266	-120.532	-0.281	-0.049
-681.251	800.000	-0.031	0.090
-680.237	42.696	-0.050	0.047
-679.222	-110.653	-0.149	-0.031
-678.208	10.128	-0.177	-0.137
-677.193	-137.069	-0.228	-0.027
-676.178	-200.000	-0.015	0.069
-675.164	-189.311	0.271	0.003
-674.149	207.398	0.071	-0.112
-673.135	123.917	-0.102	-0.131
-672.120	-99.214	0.249	0.064
-671.105	-200.000	-0.012	-0.068
-670.091	-92.712	0.229	-0.066
-669.076	800.000	-0.029	0.111
-668.062	-74.964	-0.075	-0.028
-667.047	800.000	-0.022	0.066
-666.032	302.372	0.094	0.178
-665.018	800.000	-0.011	0.039
-664.003	-52.191	0.317	-0.150
-662.989	-10.821	0.251	-0.169
-661.974	37.157	0.208	-0.188
-660.959	-133.541	0.221	0.028
-659.945	127.823	0.141	0.182
-658.930	162.767	0.124	0.178
-657.916	-200.000	-0.023	0.373
-656.901	56.914	-0.186	-0.185
-655.886	366.705	0.072	-0.149
-654.872	800.000	-0.023	-0.087
-653.857	131.961	0.045	0.059
-652.843	-89.873	0.445	0.133
-651.828	235.559	0.274	-0.462
-650.814	35.863	0.054	-0.048
-649.799	343.075	-0.082	0.164
-648.784	800.000	0.033	-0.128
-647.770	-41.013	-0.387	-0.204
-646.755	34.194	0.259	0.230
-645.741	-80.191	0.302	-0.103
-644.726	154.086	-0.030	-0.041
-643.711	-4.869	0.147	0.103
-642.697	800.000	-0.064	0.283
-641.682	395.527	-0.120	-0.256
-640.668	56.502	-0.219	-0.217
-639.653	-57.366	-0.179	-0.080
-638.638	-62.987	-0.149	0.063
-637.624	18.864	-0.411	0.336
-636.609	-54.861	0.077	0.035
-635.595	234.704	-0.092	-0.154
-634.580	122.062	0.275	-0.351
-633.565	-200.000	-0.026	0.144
-632.551	800.000	-0.081	0.262
-631.536	-97.730	-0.081	0.021
-630.522	549.644	0.039	0.094
-629.507	437.331	-0.116	-0.258
-628.492	-52.091	-0.051	0.024
-627.478	-200.000	0.043	-0.330
-626.463	-22.061	-0.334	-0.206
-625.449	-200.000	-0.015	0.219
-624.434	187.033	0.174	-0.264
-623.419	514.222	-0.010	-0.023
-622.405	-200.000	-0.018	-0.275
-621.390	-24.615	-0.173	0.105
-620.376	38.915	-0.105	-0.095
-619.361	-82.055	-0.126	-0.042
-618.346	-200.000	0.037	-0.184
-617.332	-73.473	-0.323	0.120
-616.317	220.429	-0.086	-0.141
-615.303	39.595	-0.187	-0.171
-614.288	-12.060	0.214	0.143
-613.273	593.088	0.155	0.389
-612.259	-72.667	0.180	-0.068
-611.244	-200.000	-0.040	-0.202
-610.230	800.000	0.035	-0.141
-609.215	506.091	0.084	-0.199
-608.201	-179.486	-0.412	0.009
-607.186	-14.093	-0.341	-0.224
-606.171	800.000	0.011	0.034
-605.157	800.000	0.081	-0.353
-604.142	-28.476	-0.108	-0.063
-603.128	240.088	0.076	-0.129
-602.113	-35.088	-0.334	0.185
-601.098	-6.792	0.101	0.070
-600.084	-59.884	-0.243	-0.106
-599.069	-62.854	-0.148	-0.062
-598.055	-200.000	-0.006	0.129
-597.040	641.761	-0.029	-0.076
-596.025	8.937	0.127	0.098
-595.011	55.968	0.108	-0.106
-593.996	-196.087	-0.145	0.001
-592.982	-143.663	0.143	-0.014
-591.967	13.730	-0.261	-0.207
-590.952	-61.999	-0.106	-0.045
-589.938	-200.000	-0.048	-0.239
-588.923	-128.074	0.111	-0.016
-587.909	-51.963	-0.171	-0.081
-586.894	-200.000	0.063	0.448
-585.879	-200.000	0.018	-0.089
-584.865	-18.648	0.262	-0.166
-583.850	435.216	-0.060	0.133
-582.836	6.157	-0.091	-0.068
-581.821	-35.835	0.260	-0.143
-580.806	269.647	0.203	-0.363
-579.792	10.834	0.218	-0.169
-578.777	363.991	-0.010	-0.021
-577.763	-200.000	0.000	0.257
-576.748	291.865	-0.079	-0.146
-575.733	37.930	-0.106	0.096
-574.719	-75.683	0.115	-0.041
-573.704	800.000	0.052	0.157
-572.690	59.250	-0.078	-0.078
-571.675	-74.435	-0.308	0.113
-570.661	-11.458	-0.203	0.136
-569.646	-112.906	-0.409	-0.082
-568.631	-123.594	-0.478	-0.077
-567.617	5.058	0.188	0.141
-566.602	-30.364	0.150	-0.086
-565.588	-157.846	0.616	0.037
-564.573	-93.257	-0.239	0.068
-563.558	155.975	0.291	-0.408
-562.544	236.676	0.184	-0.309
-561.529	39.931	-0.224	0.204
-560.515	-4.651	-0.053	0.037
-559.500	-200.000	0.015	0.208
-558.485	47.678	-0.077	0.073
-557.471	-200.000	0.004	-0.286
-556.456	-27.481	0.277	0.164
-555.442	-93.603	-0.148	-0.042
-554.427	63.425	-0.101	0.103
-553.412	285.017	-0.115	0.210
-552.398	-200.000	-0.017	0.121
-551.383	800.000	-0.076	-0.287
-550.369	-61.953	-0.270	-0.115
-549.354	48.029	0.099	0.094
-548.339	730.997	-0.006	0.016
-547.325	6.188	0.127	0.096
-546.310	-126.530	0.074	0.011
-545.296	-200.000	0.013	-0.151
-544.281	-126.093	0.142	0.022
-543.266	-60.411	0.058	0.025
-542.252	244.246	-0.194	-0.330
-541.237	-144.720	0.097	0.009
-540.223	81.284	0.055	0.061
-539.208	201.743	-0.124	-0.194
-538.193	73.286	0.052	-0.055
-537.179	327.954	-0.133	-0.260
-536.164	-171.948	-0.098	0.003
-535.150	800.000	0.052	-0.187
-534.135	-189.135	-0.212	-0.003
-533.121	800.000	-0.042	-0.155
-532.106	130.665	-0.179	0.233
-531.091	-200.000	-0.051	-0.320
-530.077	55.939	0.070	-0.069
-529.062	-200.000	0.054	0.366
-528.048	-163.335	-0.348	0.017
-527.033	-38.312	-0.025	-0.013
-526.018	24.027	-0.126	-0.106
-525.004	-74.775	0.269	-0.098
-523.989	-96.828	-0.180	-0.048
-522.975	-48.599	-0.309	-0.151
-521.960	-30.811	0.067	0.039
-520.945	-200.000	-0.042	0.394
-519.931	-131.075	0.218	0.030
-518.916	800.000	-0.004	-0.011
-517.902	-200.000	0.020	-0.117
-516.887	105.368	0.077	0.092
-515.872	-57.015	-0.127	-0.057
-514.858	409.187	-0.142	0.305
-513.843	379.229	0.149	0.310
-512.829	-40.934	-0.248	0.130
-511.814	-58.408	-0.152	-0.067
-510.799	-134.955	0.422	-0.052
-509.785	-118.581	0.078	0.014
-508.770	-3.637	-0.162	0.114
-507.756	-37.752	0.164	-0.089
-506.741	-70.762	0.229	-0.088
-505.726	-200.000	-0.005	0.077
-504.712	800.000	-0.065	0.245
-503.697	-54.888	-0.192	0.088
-502.683	-116.600	-0.142	0.027
-501.668	-93.016	0.103	0.029
-500.653	-200.000	0.013	-0.208
-499.639	-68.759	-0.350	0.137
-498.624	32.062	-0.262	0.229
-497.610	-91.074	-0.074	-0.021
-496.595	162.046	0.055	-0.079
-495.581	64.972	-0.135	-0.138
-494.566	-200.000	0.015	-0.216
-493.551	170.362	-0.192	0.279
-492.537	-200.000	-0.006	0.352
-491.522	-58.861	-0.086	0.038
-490.508	-200.000	-0.002	0.038
-489.493	589.729	0.038	0.095
-488.478	-200.000	-0.015	-0.137
-487.464	-200.000	0.007	-0.061
-486.449	-81.288	-0.358	0.120
-485.435	27.129	0.046	0.039
-484.420	-53.306	0.222	0.103
-483.405	-92.086	0.299	0.086
-482.391	800.000	-0.048	-0.198
-481.376	-85.628	0.220	0.069
-480.362	38.243	0.045	-0.040
-479.347	427.441	0.162	0.354
-478.332	280.969	-0.137	-0.249
-477.318	-105.169	0.055	-0.013
-476.303	337.435	-0.145	-0.285
-475.289	-200.000	0.004	-0.063
-474.274	98.458	-0.187	0.219
-473.259	-200.000	0.070	-0.370
-472.245	800.000	-0.010	0.039
-471.230	364.698	0.106	-0.216
-470.216	220.748	-0.152	0.248
-469.201	-117.865	0.216	-0.039
-468.186	252.687	-0.141	-0.243
-467.172	-141.853	-0.267	-0.027
-466.157	-69.783	0.388	-0.150
-465.143	57.289	0.059	0.059
-464.128	126.823	0.308	0.395
-463.113	15.627	-0.104	-0.083
-462.099	800.000	0.077	0.293
-461.084	262.053	-0.114	0.200
-460.070	-200.000	-0.006	0.399
-459.055	-113.324	0.031	-0.006
-458.040	-200.000	0.018	-0.097
-457.026	-97.526	0.134	0.035
-456.011	353.195	0.071	0.143
-454.997	-144.883	0.449	-0.042
-453.982	-92.883	-0.140	-0.040
-452.968	-73.347	0.298	0.110
-451.953	-11.988	0.471	-0.312
-450.938	-125.558	0.202	-0.031
-449.924	-140.739	0.278	0.029
-448.909	-143.293	0.292	0.028
-447.895	-200.000	0.004	-0.106
-446.880	-154.154	0.247	0.017
-445.865	-200.000	0.012	0.116
-444.851	-200.000	-0.001	0.298
-443.836	-133.085	-0.461	-0.059
-442.822	23.489	-0.213	-0.178
-441.807	-137.353	0.105	-0.012
-440.792	-45.937	0.399	0.199
-439.778	-116.975	0.174	-0.032
-438.763	-186.076	-0.133	-0.002
-437.749	-101.081	0.149	0.037
-436.734	-141.192	0.251	-0.026
-435.719	67.318	-0.217	-0.224
-434.705	464.949	-0.050	-0.114
-433.690	-200.000	0.007	-0.038
-432.676	-83.556	-0.145	-0.047
-431.661	106.620	0.183	-0.219
-430.646	-200.000	0.006	-0.116
-429.632	-49.088	-0.318	-0.154
-428.617	-55.109	0.134	0.061
-427.603	22.469	0.133	0.110
-426.588	-4.759	0.205	-0.143
-425.573	800.000	-0.068	0.297
-424.559	800.000	-0.121	0.353
-423.544	-126.042	-0.179	-0.027
-422.530	-200.000	0.005	0.046
-421.515	-152.188	-0.207	-0.015
-420.500	88.558	-0.157	0.176
-419.486	-92.851	0.537	0.152
-418.471	-100.059	0.246	0.062
-417.457	-200.000	-0.006	-0.053
-416.442	181.716	-0.031	-0.046
-415.428	-123.961	-0.132	-0.021
-414.413	128.422	-0.154	-0.198
-413.398	15.509	0.085	0.067
-412.384	-149.621	-0.256	-0.020
-411.369	8.680	-0.099	-0.075
-410.355	-24.624	0.253	-0.152
-409.340	-18.591	-0.073	-0.046
-408.325	-136.099	-0.320	0.038
-407.311	-200.000	-0.022	0.240
-406.296	-68.441	-0.054	0.021
-405.282	-47.872	0.180	-0.088
-404.267	67.882	0.136	0.141
-403.252	79.264	0.166	0.180
-402.238	800.000	0.027	-0.112
-401.223	-200.000	0.012	0.000
-400.209	-89.012	0.111	0.033
-399.194	498.141	-0.099	-0.230
-398.179	-200.000	-0.020	-0.157
-397.165	364.135	-0.167	-0.339
-396.150	800.000	-0.101	0.310
-395.136	-2.219	-0.140	0.099
-394.121	12.846	0.155	0.121
-393.106	-75.644	0.611	-0.219
-392.092	9.174	0.203	0.155
-391.077	-200.000	-0.024	0.219
-390.063	56.900	-0.271	0.266
-389.048	357.220	0.057	-0.115
-388.033	2.961	-0.121	0.089
-387.019	-22.372	-0.269	0.165
-386.004	-19.862	-0.141	-0.088
-384.990	-140.025	-0.168	-0.018
-383.975	800.000	-0.048	0.211
-382.960	-46.781	0.407	-0.201
-381.946	392.769	0.135	0.283
-380.931	-120.676	0.203	0.035
-379.917	-200.000	0.054	-0.255
-378.902	-26.487	0.058	0.034
-377.888	800.000	0.084	-0.309
-376.873	-73.636	-0.393	0.144
-375.858	-58.091	-0.350	-0.154
-374.844	-200.000	-0.008	-0.079
-373.829	107.930	-0.024	-0.029
-372.815	-100.951	0.176	0.044
-371.800	1.224	0.185	0.134
-370.785	-42.790	-0.252	0.129
-369.771	90.066	0.150	-0.169
-368.756	-110.346	-0.083	0.017
-367.742	-55.451	0.290	0.131
-366.727	-200.000	-0.001	-0.191
-365.712	25.093	0.212	-0.177
-364.698	-44.752	0.191	0.096
-363.683	-80.587	0.026	-0.009
-362.669	800.000	-0.058	0.210
-361.654	-200.000	-0.021	-0.147
-360.639	60.543	0.172	-0.171
-359.625	45.250	0.032	-0.030
-358.610	56.685	-0.172	-0.169
-357.596	299.721	-0.092	0.172
-356.581	-118.019	0.122	0.022
-355.566	-144.212	-0.236	0.022
-354.552	419.236	-0.089	0.191
-353.537	319.190	0.112	-0.213
-352.523	-180.234	0.371	0.008
-351.508	-25.401	0.267	0.159
-350.493	-139.082	-0.306	-0.033
-349.479	-184.205	-0.247	0.004
-348.464	800.000	0.044	-0.166
-347.450	129.949	-0.067	0.086
-346.435	-200.000	-0.012	-0.410
-345.420	-200.000	0.003	-0.305
-344.406	-78.002	-0.235	0.082
-343.391	139.818	0.018	-0.023
-342.377	-48.936	-0.175	-0.084
-341.362	16.244	-0.213	-0.169
-340.348	-200.000	-0.016	0.269
-339.333	-200.000	-0.052	-0.296
-338.318	-4.170	-0.174	-0.121
-337.304	54.437	0.362	0.351
-336.289	-44.409	-0.283	-0.143
-335.275	775.037	-0.100	0.274
-334.260	485.413	-0.101	0.232
-333.245	-200.000	0.025	-0.114
-332.231	175.939	0.133	-0.195
-331.216	-91.996	-0.225	-0.064
-330.202	-4.441	-0.183	-0.127
-329.187	154.488	0.106	-0.146
-328.172	-6.975	-0.153	0.105
-327.158	-200.000	0.007	-0.200
-326.143	-200.000	0.006	0.146
-325.129	-104.018	0.377	0.088
-324.114	-34.029	0.009	0.005
-323.099	87.169	0.211	-0.235
-322.085	-30.443	-0.345	0.197
-321.070	-57.818	-0.172	0.076
-320.056	-200.000	-0.027	-0.209
-319.041	-200.000	0.011	-0.144
-318.026	197.818	0.190	0.292
-317.012	146.292	-0.168	0.227
-315.997	-98.037	0.232	0.060
-314.983	-200.000	0.016	0.140
-313.968	81.000	0.259	-0.281
-312.953	-4.207	-0.161	0.112
-311.939	11.209	-0.048	0.037
-310.924	-69.114	0.067	0.026
-309.910	800.000	-0.052	-0.171
-308.895	-25.670	-0.133	0.079
-307.880	-200.000	0.074	-0.336
-306.866	-92.353	-0.319	0.091
-305.851	-44.051	0.253	-0.128
-304.837	244.810	0.178	0.300
-303.822	-100.316	0.158	-0.039
-302.807	69.286	0.103	0.107
-301.793	78.902	-0.179	-0.193
-300.778	766.013	0.093	-0.254
-299.764	63.420	0.123	-0.124
-298.749	100.890	-0.207	0.243
-297.735	800.000	-0.036	0.126
-296.720	191.054	0.040	0.061
-295.705	-61.433	0.211	-0.089
-294.691	-58.396	-0.236	-0.103
-293.676	-18.518	0.088	0.055
-292.662	-4.334	0.148	-0.103
-291.647	-91.234	-0.096	0.028
-290.632	800.000	-0.043	-0.169
-289.618	9.241	0.127	-0.096
-288.603	-200.000	-0.066	-0.310
-287.589	-87.579	-0.034	-0.010
-286.574	684.479	0.106	0.278
-285.559	94.119	0.087	0.099
-284.545	800.000	0.016	0.067
-283.530	437.569	0.065	0.143
-282.516	-118.406	-0.197	-0.035
-281.501	-70.368	0.099	0.038
-280.486	-97.914	0.210	-0.054
-279.472	-118.719	-0.165	0.029
-278.457	-200.000	0.002	0.034
-277.443	71.353	-0.085	-0.088
-276.428	30.089	0.149	0.127
-275.413	-72.886	0.158	-0.058
-274.399	101.701	0.152	0.178
-273.384	72.838	-0.097	0.102
-272.370	-11.731	-0.082	-0.054
-271.355	224.810	-0.098	0.160
-270.340	187.542	0.132	0.198
-269.326	-114.245	0.098	-0.019
-268.311	-76.590	-0.309	0.109
-267.297	386.981	0.060	0.126
-266.282	-65.212	-0.203	-0.082
-265.267	-24.945	0.009	-0.005
-264.253	758.541	-0.078	0.212
-263.238	211.333	-0.127	-0.200
-262.224	-200.000	0.045	-0.606
-261.209	61.372	-0.060	0.060
-260.195	-68.871	-0.134	-0.052
-259.180	47.738	0.084	0.079
-258.165	-200.000	0.005	-0.216
-257.151	-46.913	0.184	0.090
-256.136	47.849	-0.057	0.053
-255.122	-200.000	-0.036	0.186
-254.107	800.000	-0.073	0.231
-253.092	-92.228	0.200	0.057
-252.078	-108.360	-0.113	0.024
-251.063	-66.815	-0.092	-0.037
-250.049	-200.000	0.050	-0.238
-249.034	579.892	0.069	-0.170
-248.019	-200.000	-0.012	-0.278
-247.005	-200.000	-0.000	0.102
-245.990	113.825	0.102	-0.125
-244.976	65.734	0.161	-0.163
-243.961	800.000	0.002	0.006
-242.946	-111.989	0.282	0.057
-241.932	-84.505	0.497	0.157
-240.917	4.824	-0.088	0.065
-239.903	-81.590	0.532	0.176
-238.888	-155.198	0.433	-0.028
-237.873	176.009	-0.267	-0.389
-236.859	-200.000	-0.045	-0.217
-235.844	-200.000	-0.023	-0.137
-234.830	800.000	-0.048	-0.198
-233.815	77.249	0.053	-0.056
-232.800	238.450	-0.107	0.178
-231.786	-200.000	-0.021	0.116
-230.771	60.025	0.234	0.232
-229.757	95.750	-0.061	0.069
-228.742	-200.000	-0.359	-0.000
-227.727	600.714	-0.189	-0.471
-226.713	-200.000	-0.006	0.164
-225.698	800.000	-0.022	-0.071
-224.684	-114.051	0.321	0.062
-223.669	-200.000	0.001	-0.043
-222.655	-51.095	-0.280	0.132
-221.640	45.636	0.294	-0.272
-220.625	29.699	-0.134	-0.115
-219.611	800.000	0.105	0.386
-218.596	165.341	0.093	0.131
-217.582	-95.749	-0.235	-0.063
-216.567	-48.152	-0.106	0.052
-215.552	218.286	0.151	0.242
-214.538	-10.716	-0.158	0.105
-213.523	-200.000	0.038	-0.175
-212.509	-96.471	0.283	0.075
-211.494	284.465	0.046	-0.083
-210.479	-110.317	-0.252	-0.053
-209.465	379.552	0.109	-0.224
-208.450	-12.421	-0.054	-0.035
-207.436	800.000	0.039	0.166
-206.421	800.000	0.025	-0.079
-205.406	-24.391	0.324	0.194
-204.392	-200.000	-0.054	0.298
-203.377	-200.000	-0.033	-0.256
-202.363	176.420	-0.137	-0.199
-201.348	-200.000	-0.010	0.211
-200.333	117.444	-0.052	-0.064
-199.319	-120.427	0.273	0.046
-198.304	-200.000	-0.029	0.263
-197.290	-114.158	-0.095	-0.018
-196.275	-94.911	-0.083	-0.023
-195.260	-200.000	0.051	0.240
-194.246	-134.584	0.101	-0.012
-193.231	6.055	0.204	-0.151
-192.217	-121.544	-0.084	-0.014
-191.202	-142.823	0.368	0.036
-190.187	-34.883	-0.178	0.097
-189.173	-21.093	-0.288	0.176
-188.158	-31.160	-0.347	0.196
-187.144	-25.435	0.247	-0.146
-186.129	-200.000	0.010	0.255
-185.114	800.000	-0.156	0.568
-184.100	-200.000	-0.007	0.238
-183.085	-94.161	-0.246	-0.068
-182.071	-200.000	-0.008	0.051
-181.056	800.000	-0.084	-0.293
-180.042	275.600	0.054	-0.095
-179.027	221.018	-0.098	0.158
-178.012	9.709	-0.162	-0.123
-176.998	-28.968	-0.054	0.031
-175.983	-102.682	0.058	0.014
-174.969	54.644	0.211	-0.203
-173.954	-200.000	-0.025	-0.195
-172.939	-200.000	-0.071	0.345
-171.925	313.153	0.192	0.361
-170.910	223.018	0.079	0.127
-169.896	-64.551	0.379	-0.154
-168.881	-22.701	-0.287	-0.174
-167.866	800.000	-0.064	-0.198
-166.852	384.782	-0.044	0.091
-165.837	96.070	0.101	0.115
-164.823	-200.000	0.001	0.476
-163.808	800.000	-0.056	0.217
-162.793	-51.457	-0.169	0.079
-161.779	39.940	0.294	0.264
-160.764	-29.220	0.300	-0.172
-159.750	488.552	0.165	-0.377
-158.735	-43.707	-0.211	0.106
-157.720	-74.810	0.176	-0.063
-156.706	-200.000	0.052	0.247
-155.691	115.605	0.044	0.053
-154.677	-53.557	0.155	0.071
-153.662	77.016	-0.013	-0.014
-152.647	-200.000	-0.048	0.213
-151.633	291.787	0.143	0.261
-150.618	-110.361	0.076	0.016
-149.604	-83.254	0.194	-0.062
-148.589	-108.325	-0.286	-0.062
-147.574	-40.270	0.265	-0.138
-146.560	-130.206	-0.069	-0.009
-145.545	-3.520	-0.102	0.071
-144.531	10.869	0.366	-0.280
-143.516	17.683	0.138	0.109
-142.502	8.486	-0.264	0.198
-141.487	-160.584	-0.259	-0.014
-140.472	-48.875	-0.101	0.048
-139.458	763.150	0.056	0.151
-138.443	-200.000	0.023	0.195
-137.429	-200.000	-0.031	0.309
-136.414	505.006	-0.038	-0.089
-135.399	130.939	0.207	-0.266
-134.385	-84.131	-0.513	0.163
-133.370	36.869	-0.021	0.019
-132.356	474.086	0.159	0.358
-131.341	-12.583	-0.127	0.083
-130.326	107.483	-0.140	0.166
-129.312	-151.715	-0.028	0.002
-128.297	-116.894	0.171	0.031
-127.283	-63.648	0.331	-0.136
-126.268	-18.979	-0.136	-0.085
-125.253	-200.000	-0.003	-0.195
-124.239	-200.000	0.006	0.255
-123.224	800.000	0.133	-0.374
-122.210	-200.000	0.001	-0.200
