DTS Sentinel unit serial number:	SN413079Multiplexer serial number:	ORYXHardware model number:	OX4-SRSoftware version number:	ORYX F/W v4.00 Oryx Data Collector v3.7.2.0data status	okinstallation	princeton_trtdifferential loss correction	single-endedforward channel	channel 4reverse channel	N/Adate	2019/09/11time	05:23:11forward acquisition time	60.00reverse acquisition time	0.00gamma	496.2192k internal	0.2316k external	0.2316temperature offset calibration	0.9945default loss term (dB/km)	0.3790temperature slope calibration	1.0000multiplexer offset coefficient	1.0000multiplexer slope coefficient	1.0000fibre end	0.00T internal ref (°C)	29.44T ext. ref 1 (°C)	-0.25T ext. ref 2 (°C)	23.44length (m)	temperature (°C)	Stokes	anti-Stokes-747.200	6.548	0.399	0.300
-746.185	-179.935	0.345	0.007
-745.171	-200.000	-0.021	0.140
-744.156	-200.000	0.059	-0.332
-743.142	800.000	0.170	0.502
-742.127	800.000	0.054	0.205
-741.112	-175.747	0.054	0.001
-740.098	-18.531	0.073	-0.046
-739.083	467.594	0.153	-0.347
-738.069	-98.935	-0.146	0.038
-737.054	-200.000	0.030	-0.321
-736.039	-78.631	-0.184	-0.064
-735.025	-37.512	0.114	0.062
-734.010	-86.133	0.188	0.059
-732.996	800.000	0.055	-0.179
-731.981	604.186	0.146	-0.367
-730.966	389.608	0.126	-0.264
-729.952	-200.000	0.008	-0.320
-728.937	-6.168	-0.137	0.094
-727.923	-149.843	-0.386	-0.031
-726.908	-49.889	0.171	0.082
-725.894	-200.000	0.005	-0.179
-724.879	-147.071	-0.169	0.015
-723.864	-77.533	-0.176	-0.062
-722.850	88.382	-0.181	0.204
-721.835	6.355	0.019	-0.014
-720.821	-200.000	0.038	-0.215
-719.806	21.731	-0.200	-0.165
-718.791	-200.000	0.036	-0.202
-717.777	795.102	0.237	-0.660
-716.762	-131.794	0.350	-0.046
-715.748	-91.309	-0.100	0.029
-714.733	-127.058	0.135	0.020
-713.718	157.859	0.123	-0.172
-712.704	67.064	-0.138	0.142
-711.689	-134.857	-0.289	-0.035
-710.675	-128.015	0.321	-0.047
-709.660	-200.000	0.003	-0.251
-708.645	-200.000	-0.046	-0.301
-707.631	113.844	0.110	0.136
-706.616	97.343	0.225	-0.262
-705.602	87.928	-0.094	-0.106
-704.587	78.822	-0.065	0.070
-703.572	-200.000	-0.024	-0.127
-702.558	-61.968	0.044	-0.019
-701.543	104.913	0.189	-0.226
-700.529	-147.976	-0.060	-0.005
-699.514	45.662	-0.051	-0.048
-698.499	-135.256	-0.224	-0.027
-697.485	-8.932	-0.127	-0.086
-696.470	-200.000	0.009	-0.126
-695.456	800.000	0.023	-0.093
-694.441	672.327	-0.112	0.295
-693.426	37.423	0.256	0.230
-692.412	-55.342	0.199	0.090
-691.397	-47.689	0.163	-0.080
-690.383	177.460	0.115	-0.169
-689.368	227.549	0.159	-0.262
-688.354	-162.165	0.134	0.007
-687.339	-109.474	0.195	-0.042
-686.324	12.014	0.312	-0.242
-685.310	-99.813	0.077	-0.019
-684.295	800.000	-0.133	-0.379
-683.281	186.996	-0.077	-0.116
-682.266	79.847	-0.145	0.158
-681.251	-200.000	-0.007	-0.100
-680.237	-99.563	-0.234	0.059
-679.222	738.189	-0.026	-0.071
-678.208	375.538	0.065	-0.134
-677.193	-14.890	0.432	-0.280
-676.178	-200.000	-0.019	-0.302
-675.164	-200.000	-0.007	0.109
-674.149	-129.639	-0.097	0.013
-673.135	415.055	-0.069	0.148
-672.120	-200.000	0.015	-0.136
-671.105	-200.000	0.019	0.219
-670.091	241.928	0.105	-0.177
-669.076	-200.000	0.007	-0.070
-668.062	38.524	0.231	-0.208
-667.047	-200.000	-0.024	0.156
-666.032	109.096	0.135	-0.164
-665.018	44.460	0.171	0.158
-664.003	-200.000	-0.003	0.045
-662.989	188.052	0.089	-0.135
-661.974	46.875	-0.070	-0.066
-660.959	631.644	0.195	0.499
-659.945	-200.000	-0.019	0.227
-658.930	800.000	0.048	0.156
-657.916	-15.889	0.276	-0.178
-656.901	94.078	-0.112	0.129
-655.886	31.579	0.086	-0.075
-654.872	211.800	-0.042	-0.066
-653.857	228.936	-0.091	0.150
-652.843	-54.719	0.211	0.096
-651.828	-0.650	0.042	0.030
-650.814	-94.958	0.310	-0.085
-649.799	764.596	0.048	-0.133
-648.784	227.539	0.127	-0.209
-647.770	90.218	0.135	-0.153
-646.755	-200.000	0.001	0.306
-645.741	-83.182	-0.166	-0.054
-644.726	800.000	0.053	0.216
-643.711	-200.000	-0.005	0.287
-642.697	800.000	-0.056	0.163
-641.682	-200.000	0.047	0.245
-640.668	-21.918	-0.171	0.105
-639.653	46.127	0.113	0.105
-638.638	168.989	-0.060	-0.087
-637.624	-200.000	-0.034	-0.302
-636.609	-200.000	0.017	-0.289
-635.595	-200.000	-0.038	-0.240
-634.580	347.913	0.085	0.168
-633.565	107.630	-0.049	0.058
-632.551	-200.000	0.010	0.360
-631.536	736.625	-0.021	-0.056
-630.522	800.000	0.088	0.260
-629.507	-26.832	0.086	0.051
-628.492	-114.558	-0.204	0.039
-627.478	-151.527	0.081	0.006
-626.463	-149.539	-0.053	-0.004
-625.449	86.468	0.133	-0.148
-624.434	-200.000	0.026	-0.286
-623.419	73.020	-0.211	-0.222
-622.405	-36.961	0.338	0.182
-621.390	-131.385	0.292	-0.039
-620.376	-200.000	-0.029	0.140
-619.361	118.783	0.270	0.336
-618.346	-132.614	-0.279	-0.036
-617.332	-200.000	0.378	0.001
-616.317	800.000	-0.085	-0.288
-615.303	25.509	-0.301	-0.252
-614.288	800.000	0.073	-0.300
-613.273	-143.390	0.171	-0.016
-612.259	-84.243	-0.184	-0.059
-611.244	-200.000	-0.036	0.196
-610.230	47.791	0.311	0.293
-609.215	-0.566	-0.054	0.038
-608.201	350.484	-0.039	-0.077
-607.186	-83.495	0.076	-0.025
-606.171	44.021	-0.219	0.202
-605.157	-181.325	0.179	0.004
-604.142	-56.620	-0.244	0.109
-603.128	-53.434	-0.234	-0.108
-602.113	132.785	-0.243	0.316
-601.098	3.425	-0.267	0.196
-600.084	-89.684	-0.299	-0.088
-599.069	-61.415	-0.251	0.106
-598.055	-56.809	-0.135	-0.060
-597.040	800.000	0.044	0.189
-596.025	378.668	-0.061	-0.125
-595.011	90.522	-0.184	-0.207
-593.996	-131.204	0.164	0.022
-592.982	-200.000	0.006	0.087
-591.967	161.836	0.118	-0.167
-590.952	-200.000	0.015	-0.296
-589.938	-79.769	0.186	-0.063
-588.923	-11.535	0.079	-0.052
-587.909	-54.982	0.225	-0.102
-586.894	-200.000	0.017	-0.218
-585.879	-3.332	0.148	0.104
-584.865	-152.858	0.212	-0.015
-583.850	-55.107	0.041	0.019
-582.836	378.146	-0.173	0.357
-581.821	38.091	-0.061	-0.054
-580.806	45.999	-0.113	-0.105
-579.792	240.568	-0.055	-0.093
-578.777	220.519	0.088	-0.142
-577.763	60.975	0.218	-0.218
-576.748	-13.353	0.216	0.141
-575.733	-47.664	0.340	0.166
-574.719	800.000	0.092	-0.310
-573.704	-31.600	0.135	0.077
-572.690	219.892	0.068	-0.110
-571.675	31.190	0.186	0.160
-570.661	-200.000	0.004	-0.117
-569.646	-60.220	0.409	-0.175
-568.631	42.442	0.314	0.287
-567.617	-200.000	-0.025	0.332
-566.602	79.002	-0.294	0.317
-565.588	-52.048	-0.198	0.093
-564.573	-141.658	0.084	-0.008
-563.558	508.426	0.132	0.309
-562.544	-77.448	-0.126	-0.044
-561.529	800.000	-0.095	0.308
-560.515	96.906	0.129	0.149
-559.500	-86.048	0.219	-0.068
-558.485	-45.010	0.265	0.133
-557.471	454.103	-0.004	-0.009
-556.456	-51.836	-0.066	0.031
-555.442	79.500	-0.334	-0.360
-554.427	-30.090	0.320	-0.183
-553.412	-84.497	0.366	-0.116
-552.398	36.198	-0.154	-0.137
-551.383	-13.505	0.063	0.041
-550.369	-112.203	-0.221	0.045
-549.354	-200.000	-0.017	0.098
-548.339	40.858	0.137	0.124
-547.325	76.651	-0.061	-0.065
-546.310	670.066	0.087	0.227
-545.296	150.835	-0.028	0.038
-544.281	662.959	-0.062	0.160
-543.266	-120.876	-0.216	0.037
-542.252	164.740	-0.269	-0.382
-541.237	54.542	0.115	0.111
-540.223	89.408	-0.229	-0.257
-539.208	399.381	-0.060	0.127
-538.193	-200.000	0.017	-0.122
-537.179	-200.000	-0.005	-0.171
-536.164	-36.910	-0.190	0.103
-535.150	243.250	-0.137	-0.232
-534.135	96.401	-0.031	0.035
-533.121	132.943	0.066	0.086
-532.106	425.234	-0.178	0.385
-531.091	-16.008	0.521	0.333
-530.077	41.824	-0.296	-0.269
-529.062	34.244	0.088	-0.077
-528.048	-138.477	-0.127	0.014
-527.033	194.617	0.110	0.167
-526.018	-139.725	0.326	0.035
-525.004	-113.771	0.168	0.033
-523.989	-23.265	-0.162	-0.098
-522.975	-142.526	-0.263	-0.026
-521.960	184.408	-0.072	-0.108
-520.945	-0.087	0.013	-0.009
-519.931	-125.781	-0.190	-0.029
-518.916	148.029	-0.091	-0.123
-517.902	-200.000	0.013	-0.116
-516.887	800.000	0.079	-0.225
-515.872	200.586	0.215	-0.332
-514.858	-43.098	0.250	-0.127
-513.843	800.000	-0.077	-0.290
-512.829	-135.794	0.051	-0.006
-511.814	-133.853	-0.136	-0.017
-510.799	-74.685	0.174	-0.063
-509.785	-143.922	-0.389	-0.037
-508.770	14.952	-0.241	-0.189
-507.756	-25.543	-0.219	0.130
-506.741	117.576	-0.066	-0.082
-505.726	-200.000	-0.008	0.183
-504.712	-117.429	-0.191	-0.035
-503.697	227.887	-0.126	-0.205
-502.683	-57.495	0.346	-0.152
-501.668	27.594	0.189	0.159
-500.653	-200.000	0.082	0.387
-499.639	-195.433	-0.261	-0.002
-498.624	-139.363	0.260	-0.028
-497.610	-75.166	-0.056	0.020
-496.595	-6.754	0.143	-0.098
-495.581	-71.698	-0.210	-0.079
-494.566	291.894	-0.095	-0.173
-493.551	-117.884	0.160	-0.029
-492.537	-174.257	-0.175	0.005
-491.522	85.756	0.199	-0.220
-490.508	-114.682	0.497	-0.095
-489.493	800.000	0.096	0.393
-488.478	-200.000	-0.044	-0.196
-487.464	-72.456	0.279	0.103
-486.449	800.000	-0.035	0.138
-485.435	135.955	0.134	-0.175
-484.420	6.386	-0.104	-0.077
-483.405	-200.000	-0.027	-0.145
-482.391	103.010	0.161	-0.190
-481.376	-73.556	-0.188	0.069
-480.362	3.916	-0.214	0.156
-479.347	-29.647	0.239	0.137
-478.332	800.000	-0.081	-0.301
-477.318	-45.350	0.132	-0.066
-476.303	-200.000	0.039	-0.280
-475.289	-122.395	0.048	-0.008
-474.274	-77.153	0.132	0.046
-473.259	71.961	-0.208	0.216
-472.245	-200.000	-0.009	-0.077
-471.230	-47.635	0.042	-0.020
-470.216	-84.193	0.259	-0.082
-469.201	-200.000	0.057	-0.344
-468.186	-172.433	-0.432	-0.014
-467.172	-61.446	0.192	-0.081
-466.157	614.000	-0.123	-0.307
-465.143	-138.422	-0.474	0.052
-464.128	236.168	-0.081	-0.134
-463.113	-117.462	0.059	0.011
-462.099	800.000	-0.049	0.206
-461.084	36.883	-0.143	-0.126
-460.070	268.676	0.057	-0.100
-459.055	-104.703	0.209	0.048
-458.040	800.000	0.101	0.336
-457.026	-59.993	0.251	0.107
-456.011	184.295	0.211	-0.313
-454.997	140.862	-0.136	0.181
-453.982	-200.000	0.010	0.118
-452.968	-200.000	0.001	0.044
-451.953	97.453	-0.042	0.049
-450.938	-117.467	-0.254	0.046
-449.924	16.623	-0.190	0.150
-448.909	-33.675	0.181	0.100
-447.895	379.546	-0.124	-0.255
-446.880	-101.400	-0.231	0.056
-445.865	-194.338	-0.214	-0.002
-444.851	235.059	0.121	-0.200
-443.836	-132.344	0.266	-0.034
-442.822	599.959	-0.167	-0.415
-441.807	171.279	0.082	-0.118
-440.792	800.000	0.074	0.299
-439.778	18.462	0.095	-0.076
-438.763	71.389	-0.183	-0.190
-437.749	524.603	-0.206	-0.485
-436.734	-111.018	-0.240	0.049
-435.719	-71.204	0.046	0.017
-434.705	-200.000	0.008	-0.132
-433.690	242.969	0.019	-0.031
-432.676	-17.188	-0.046	0.029
-431.661	-117.549	-0.107	0.019
-430.646	157.006	0.024	-0.034
-429.632	82.199	-0.208	-0.226
-428.617	800.000	0.039	0.119
-427.603	-112.977	-0.433	-0.086
-426.588	-200.000	0.016	0.079
-425.573	15.168	-0.125	-0.098
-424.559	205.527	-0.035	0.054
-423.544	-6.917	-0.236	-0.161
-422.530	31.209	0.222	-0.190
-421.515	28.664	-0.318	-0.269
-420.500	-115.521	-0.254	0.048
-419.486	168.380	0.267	0.380
-418.471	-200.000	0.032	-0.187
-417.457	185.980	0.047	0.070
-416.442	-48.435	-0.397	-0.191
-415.428	800.000	0.089	-0.347
-414.413	800.000	0.047	-0.176
-413.398	-200.000	0.055	0.255
-412.384	25.734	0.190	-0.159
-411.369	-45.889	0.027	-0.013
-410.355	-58.234	-0.302	0.131
-409.340	151.163	0.136	-0.185
-408.325	33.135	0.445	-0.386
-407.311	40.985	-0.435	-0.392
-406.296	110.474	0.122	-0.146
-405.282	-91.409	0.472	-0.135
-404.267	145.684	-0.223	0.298
-403.252	775.347	0.153	-0.417
-402.238	-200.000	0.021	-0.368
-401.223	-200.000	0.045	-0.233
-400.209	112.826	0.189	0.229
-399.194	704.088	0.070	0.184
-398.179	356.460	-0.054	0.108
-397.165	-200.000	-0.017	0.149
-396.150	44.915	0.129	-0.119
-395.136	-49.780	-0.052	0.025
-394.121	800.000	-0.034	-0.144
-393.106	-39.634	0.253	0.132
-392.092	219.984	0.099	-0.159
-391.077	543.447	0.016	-0.038
-390.063	-200.000	0.018	0.316
-389.048	-200.000	-0.007	0.208
-388.033	210.610	0.176	-0.276
-387.019	-200.000	0.001	-0.115
-386.004	-151.594	0.450	0.033
-384.990	276.536	0.077	0.136
-383.975	-182.777	0.140	-0.003
-382.960	-200.000	-0.005	-0.057
-381.946	-200.000	0.010	0.158
-380.931	-7.233	-0.101	-0.069
-379.917	56.783	0.058	-0.056
-378.902	-71.834	0.103	-0.038
-377.888	-183.506	-0.248	0.004
-376.873	-71.123	-0.301	-0.113
-375.858	-200.000	-0.018	0.261
-374.844	91.200	0.224	-0.251
-373.829	88.846	0.145	0.161
-372.815	-52.927	-0.117	-0.054
-371.800	-114.450	-0.031	0.006
-370.785	-39.329	-0.202	-0.106
-369.771	-200.000	-0.115	0.564
-368.756	-200.000	0.028	-0.169
-367.742	-91.153	0.195	0.056
-366.727	-180.085	-0.058	0.001
-365.712	-200.000	-0.011	-0.090
-364.698	527.829	-0.060	0.142
-363.683	200.356	0.134	0.205
-362.669	304.052	0.067	-0.124
-361.654	-111.982	-0.057	-0.011
-360.639	241.550	-0.026	0.043
-359.625	-10.559	0.170	-0.112
-358.610	-16.652	-0.046	-0.029
-357.596	29.350	-0.413	-0.350
-356.581	-200.000	0.059	-0.305
-355.566	-49.733	0.270	-0.128
-354.552	218.366	0.125	0.199
-353.537	-161.464	0.277	-0.014
-352.523	130.775	-0.202	-0.259
-351.508	-61.826	-0.365	0.152
-350.493	53.738	-0.157	-0.150
-349.479	95.013	-0.269	-0.306
-348.464	4.758	-0.240	0.176
-347.450	-200.000	-0.010	-0.191
-346.435	-200.000	-0.095	-0.455
-345.420	66.451	-0.183	0.186
-344.406	-178.210	0.368	0.009
-343.391	260.926	-0.177	0.305
-342.377	101.585	0.121	0.141
-341.362	360.907	-0.070	-0.139
-340.348	-10.281	0.281	0.186
-339.333	-30.701	0.095	0.053
-338.318	-60.187	-0.263	-0.112
-337.304	94.337	0.135	0.153
-336.289	-23.559	-0.288	0.172
-335.275	-19.841	-0.267	0.165
-334.260	317.866	-0.063	0.119
-333.245	-35.016	-0.478	0.260
-332.231	100.176	-0.075	0.087
-331.216	43.922	0.299	0.273
-330.202	-87.584	0.418	-0.126
-329.187	139.632	-0.179	0.235
-328.172	-171.023	0.067	0.002
-327.158	115.777	0.084	-0.102
-326.143	109.009	0.158	-0.188
-325.129	-158.483	-0.216	0.012
-324.114	129.884	0.075	0.096
-323.099	233.248	0.059	0.097
-322.085	-176.379	-0.351	0.009
-321.070	-200.000	-0.001	-0.203
-320.056	-30.520	0.126	-0.071
-319.041	-0.308	-0.090	-0.064
-318.026	21.137	0.140	0.113
-317.012	-103.402	0.030	-0.007
-315.997	-200.000	0.013	0.201
-314.983	64.940	0.180	0.181
-313.968	800.000	-0.058	0.226
-312.953	411.608	0.096	-0.204
-311.939	-50.323	0.170	-0.080
-310.924	-11.840	0.148	0.097
-309.910	2.859	-0.215	-0.155
-308.895	219.049	0.097	-0.154
-307.880	-134.439	0.172	-0.021
-306.866	163.599	-0.061	-0.086
-305.851	-200.000	-0.029	0.208
-304.837	-133.254	-0.418	-0.052
-303.822	457.311	0.092	-0.203
-302.807	800.000	0.113	-0.359
-301.793	-134.118	0.254	-0.031
-300.778	125.821	0.166	-0.209
-299.764	131.444	0.102	-0.131
-298.749	246.982	0.123	0.207
-297.735	78.182	0.067	-0.071
-296.720	14.220	-0.049	-0.038
-295.705	457.484	-0.094	0.209
-294.691	368.256	-0.084	0.169
-293.676	562.541	-0.041	-0.098
-292.662	-200.000	-0.032	0.267
-291.647	168.347	-0.061	0.087
-290.632	-200.000	-0.005	0.063
-289.618	14.094	-0.145	0.112
-288.603	-58.523	0.215	-0.093
-287.589	35.865	-0.202	0.177
-286.574	-83.642	0.173	0.055
-285.559	-63.604	-0.221	0.090
-284.545	-151.827	0.187	0.014
-283.530	-52.725	-0.059	0.027
-282.516	-200.000	0.009	0.049
-281.501	199.189	0.101	-0.154
-280.486	79.157	0.086	0.091
-279.472	-200.000	-0.003	0.239
-278.457	-81.876	0.312	0.102
-277.443	398.657	0.096	-0.201
-276.428	123.150	-0.062	0.077
-275.413	97.077	-0.189	0.215
-274.399	-4.427	0.237	0.163
-273.384	-124.354	-0.225	0.035
-272.370	1.503	0.133	0.095
-271.355	563.982	0.137	-0.330
-270.340	-121.653	0.441	0.073
-269.326	33.339	0.106	0.092
-268.311	690.383	0.041	0.108
-267.297	740.228	0.062	0.165
-266.282	546.138	-0.113	0.268
-265.267	331.390	0.137	-0.262
-264.253	-200.000	0.050	-0.251
-263.238	-134.430	0.086	0.010
-262.224	800.000	-0.028	-0.095
-261.209	-4.637	-0.148	0.101
-260.195	-34.763	0.031	0.017
-259.180	-189.715	0.239	0.003
-258.165	-53.037	-0.164	0.075
-257.151	131.792	-0.206	0.264
-256.136	28.038	0.045	-0.038
-255.122	-183.438	-0.097	0.002
-254.107	800.000	-0.107	0.345
-253.092	59.277	-0.062	0.061
-252.078	800.000	-0.106	-0.388
-251.063	334.616	-0.160	-0.309
-250.049	-181.840	0.196	-0.004
-249.034	86.730	-0.209	0.229
-248.019	-200.000	0.019	-0.129
-247.005	-200.000	0.007	-0.050
-245.990	707.922	-0.085	0.223
-244.976	218.880	-0.175	0.278
-243.961	252.960	0.144	-0.244
-242.946	-200.000	-0.008	0.089
-241.932	195.057	-0.060	0.091
-240.917	206.891	0.086	0.133
-239.903	-110.703	0.091	0.019
-238.888	800.000	0.084	-0.239
-237.873	-52.623	-0.392	0.180
-236.859	188.119	0.103	0.152
-235.844	-99.703	0.076	0.019
-234.830	121.546	-0.167	-0.206
-233.815	800.000	-0.022	-0.074
-232.800	69.318	-0.110	0.112
-231.786	554.618	-0.020	0.049
-230.771	-100.113	0.292	-0.072
-229.757	-28.709	0.153	0.087
-228.742	-200.000	0.025	0.113
-227.727	-200.000	-0.000	-0.048
-226.713	-8.206	0.220	-0.147
-225.698	-200.000	0.106	-0.000
-224.684	-135.195	-0.085	0.010
-223.669	-92.006	0.239	-0.067
-222.655	-200.000	-0.003	0.027
-221.640	121.107	-0.163	-0.202
-220.625	-35.464	-0.226	0.122
-219.611	415.587	0.040	0.085
-218.596	-58.477	-0.281	0.121
-217.582	-200.000	-0.003	-0.158
-216.567	-21.934	-0.420	-0.254
-215.552	-100.853	-0.049	-0.012
-214.538	800.000	-0.135	0.372
-213.523	-10.887	0.212	-0.139
-212.509	-92.376	0.178	0.050
-211.494	-33.192	-0.197	-0.108
-210.479	-129.247	-0.191	-0.026
-209.465	-121.886	0.273	0.045
-208.450	12.735	-0.036	-0.028
-207.436	240.970	-0.236	-0.390
-206.421	-32.991	0.202	-0.111
-205.406	724.807	0.094	-0.249
-204.392	230.694	-0.194	0.316
-203.377	-200.000	-0.090	0.426
-202.363	800.000	0.082	0.226
-201.348	800.000	-0.060	0.223
-200.333	11.185	0.084	-0.064
-199.319	463.533	-0.101	-0.224
-198.304	-200.000	0.003	0.313
-197.290	-200.000	-0.008	0.131
-196.275	62.233	0.032	0.032
-195.260	566.838	0.034	0.081
-194.246	-200.000	0.030	0.145
-193.231	35.643	0.296	0.258
-192.217	3.942	0.268	-0.194
-191.202	247.328	-0.051	-0.085
-190.187	54.818	-0.198	0.189
-189.173	-163.766	-0.414	0.019
-188.158	-40.863	0.063	0.033
-187.144	245.648	0.110	0.184
-186.129	-53.880	-0.218	0.098
-185.114	609.200	-0.112	0.278
-184.100	-200.000	0.035	0.167
-183.085	61.186	-0.151	-0.149
-182.071	-60.083	-0.297	0.125
-181.056	252.676	-0.129	0.218
-180.042	-200.000	0.005	0.143
-179.027	66.008	-0.086	-0.087
-178.012	97.318	0.222	0.253
-176.998	240.487	0.034	-0.057
-175.983	800.000	-0.056	0.204
-174.969	147.327	0.245	0.327
-173.954	420.329	-0.074	-0.157
-172.939	-0.330	-0.062	-0.044
-171.925	-148.404	0.136	0.011
-170.910	-52.271	-0.537	-0.246
-169.896	54.257	0.268	0.255
-168.881	800.000	0.059	0.187
-167.866	800.000	-0.012	0.047
-166.852	-200.000	0.019	0.136
-165.837	11.397	0.285	0.216
-164.823	-91.833	-0.204	-0.057
-163.808	71.942	-0.030	0.030
-162.793	-39.351	-0.091	-0.047
-161.779	-200.000	0.007	0.129
-160.764	-40.243	0.108	-0.056
-159.750	-200.000	0.032	0.142
-158.735	-0.742	0.195	-0.137
-157.720	57.119	-0.153	-0.148
-156.706	32.196	0.167	0.143
-155.691	286.683	-0.068	0.121
-154.677	297.645	0.147	0.268
-153.662	-162.125	-0.150	0.007
-152.647	-200.000	-0.063	-0.314
-151.633	155.664	-0.149	-0.204
-150.618	-114.584	-0.143	-0.027
-149.604	-179.757	-0.220	-0.005
-148.589	119.238	-0.067	-0.082
-147.574	800.000	-0.054	-0.232
-146.560	-200.000	-0.019	0.107
-145.545	-200.000	0.010	-0.065
-144.531	-200.000	-0.046	-0.493
-143.516	-60.511	-0.254	0.107
-142.502	-200.000	-0.031	0.275
-141.487	252.395	0.191	-0.322
-140.472	-139.580	0.328	0.035
-139.458	-67.617	-0.102	-0.039
-138.443	328.757	-0.163	-0.309
-137.429	98.149	0.351	0.399
-136.414	-200.000	0.003	0.265
-135.399	-200.000	-0.257	0.000
-134.385	-200.000	-0.018	-0.157
-133.370	-92.648	0.251	0.070
-132.356	498.596	0.097	-0.220
-131.341	75.864	-0.140	0.146
-130.326	800.000	0.136	-0.402
-129.312	800.000	-0.091	0.254
-128.297	-200.000	-0.029	0.247
-127.283	26.385	-0.148	-0.123
-126.268	25.616	0.258	0.212
-125.253	-200.000	0.043	-0.246
-124.239	-200.000	0.012	0.113
-123.224	-53.294	-0.211	-0.096
-122.210	-130.271	0.208	0.028
-121.195	324.433	0.042	-0.079
