DTS Sentinel unit serial number:	SN413079Multiplexer serial number:	ORYXHardware model number:	OX4-SRSoftware version number:	ORYX F/W v4.00 Oryx Data Collector v3.7.2.0data status	okinstallation	princeton_trtdifferential loss correction	single-endedforward channel	channel 4reverse channel	N/Adate	2019/09/17time	14:01:35forward acquisition time	60.00reverse acquisition time	0.00gamma	496.2192k internal	0.2296k external	0.2296temperature offset calibration	0.9985default loss term (dB/km)	0.3790temperature slope calibration	1.0000multiplexer offset coefficient	1.0000multiplexer slope coefficient	1.0000fibre end	0.00T internal ref (°C)	35.61T ext. ref 1 (°C)	0.40T ext. ref 2 (°C)	32.65length (m)	temperature (°C)	Stokes	anti-Stokes-747.200	-88.709	-0.225	-0.068
-746.185	-200.000	0.022	0.174
-745.171	800.000	-0.102	-0.428
-744.156	-119.471	-0.168	0.030
-743.142	494.299	0.133	-0.311
-742.127	59.751	0.243	-0.245
-741.112	159.474	0.085	0.121
-740.098	79.759	-0.325	0.357
-739.083	-160.305	-0.271	-0.015
-738.069	-13.335	-0.257	0.170
-737.054	-200.000	0.044	0.335
-736.039	-171.183	0.248	-0.009
-735.025	-4.820	-0.320	-0.225
-734.010	433.473	-0.072	0.161
-732.996	-115.415	-0.230	-0.044
-731.981	17.669	0.127	0.103
-730.966	599.088	-0.049	-0.124
-729.952	-200.000	-0.070	-0.328
-728.937	-15.781	0.156	0.102
-727.923	-200.000	-0.046	-0.406
-726.908	-12.063	0.130	0.087
-725.894	-134.449	-0.359	0.045
-724.879	40.090	-0.247	-0.226
-723.864	130.380	0.122	-0.160
-722.850	-3.654	-0.211	-0.150
-721.835	759.967	-0.025	0.068
-720.821	-200.000	-0.021	-0.112
-719.806	-26.143	-0.121	-0.072
-718.791	340.484	-0.070	-0.140
-717.777	-134.805	-0.096	0.012
-716.762	-200.000	-0.033	-0.161
-715.748	-11.802	-0.095	0.064
-714.733	-200.000	0.009	-0.130
-713.718	-27.116	-0.319	0.190
-712.704	80.307	0.321	-0.353
-711.689	-200.000	0.047	0.336
-710.675	-43.774	0.184	0.094
-709.660	-155.915	0.221	-0.014
-708.645	505.899	-0.073	-0.174
-707.631	-200.000	0.026	-0.122
-706.616	-200.000	-0.073	0.417
-705.602	800.000	0.060	-0.215
-704.587	123.241	0.228	0.291
-703.572	-200.000	0.034	0.235
-702.558	52.796	0.122	-0.119
-701.543	-23.266	0.193	0.119
-700.529	32.857	-0.100	0.088
-699.514	-5.550	-0.073	0.051
-698.499	220.343	-0.038	-0.062
-697.485	-200.000	-0.022	-0.337
-696.470	599.878	0.140	-0.355
-695.456	-89.965	-0.198	-0.059
-694.441	255.783	-0.056	0.097
-693.426	1.790	-0.249	-0.183
-692.412	-200.000	0.019	-0.451
-691.397	91.785	0.151	-0.173
-690.383	-17.941	0.121	-0.077
-689.368	-87.334	-0.427	0.132
-688.354	-6.318	-0.313	-0.218
-687.339	-200.000	-0.051	0.385
-686.324	745.191	0.061	-0.167
-685.310	156.547	-0.139	-0.195
-684.295	-200.000	0.001	0.024
-683.281	800.000	-0.133	-0.376
-682.266	185.023	-0.095	-0.144
-681.251	-200.000	0.118	-0.560
-680.237	-200.000	-0.029	0.212
-679.222	-11.972	0.092	-0.062
-678.208	-72.961	-0.068	0.025
-677.193	68.156	0.417	0.435
-676.178	-200.000	0.022	-0.181
-675.164	-200.000	0.071	0.420
-674.149	-140.769	0.329	0.035
-673.135	-26.282	-0.118	-0.070
-672.120	-82.777	-0.106	-0.035
-671.105	546.067	0.086	0.208
-670.091	-129.902	-0.091	-0.013
-669.076	-200.000	0.011	0.277
-668.062	-77.035	-0.120	-0.043
-667.047	800.000	-0.071	-0.283
-666.032	800.000	-0.117	-0.516
-665.018	685.195	-0.096	0.254
-664.003	-200.000	-0.056	0.283
-662.989	-76.320	0.235	0.084
-661.974	127.859	-0.181	-0.234
-660.959	5.841	-0.255	-0.192
-659.945	-70.103	-0.239	-0.093
-658.930	-145.167	0.052	0.005
-657.916	-77.955	0.106	-0.037
-656.901	154.897	0.013	0.018
-655.886	367.253	-0.142	-0.293
-654.872	-200.000	-0.019	-0.379
-653.857	-45.434	-0.075	-0.038
-652.843	-200.000	0.004	0.096
-651.828	-74.657	0.188	0.069
-650.814	-200.000	0.153	0.000
-649.799	-200.000	-0.043	-0.305
-648.784	-84.824	0.417	-0.134
-647.770	22.360	-0.360	0.299
-646.755	90.630	-0.173	0.197
-645.741	-144.392	-0.047	-0.004
-644.726	-73.718	0.193	0.071
-643.711	603.385	0.098	-0.248
-642.697	-127.476	-0.150	0.022
-641.682	291.743	0.165	-0.306
-640.668	-79.805	-0.275	0.094
-639.653	-120.364	0.193	0.033
-638.638	-109.704	0.281	-0.060
-637.624	451.569	-0.064	-0.144
-636.609	67.785	-0.226	-0.235
-635.595	-25.136	0.263	0.159
-634.580	-200.000	0.110	0.530
-633.565	-200.000	0.002	-0.052
-632.551	626.600	0.058	-0.150
-631.536	55.932	-0.205	0.202
-630.522	37.207	-0.065	0.058
-629.507	-37.977	-0.247	0.133
-628.492	-200.000	0.078	0.408
-627.478	-200.000	0.018	0.360
-626.463	511.339	0.022	-0.053
-625.449	42.658	0.097	-0.090
-624.434	-70.248	0.065	0.025
-623.419	56.913	0.167	-0.166
-622.405	-178.928	0.378	-0.009
-621.390	-198.088	0.043	-0.000
-620.376	-200.000	0.025	-0.175
-619.361	800.000	-0.090	-0.275
-618.346	239.952	0.300	-0.508
-617.332	-200.000	0.014	0.269
-616.317	-86.887	0.229	0.071
-615.303	-200.000	-0.017	-0.116
-614.288	-161.062	-0.514	0.027
-613.273	800.000	-0.112	0.353
-612.259	-82.003	0.022	-0.007
-611.244	516.820	-0.059	-0.140
-610.230	800.000	0.150	0.429
-609.215	-159.705	-0.191	0.011
-608.201	58.720	-0.020	-0.020
-607.186	134.178	-0.077	-0.102
-606.171	182.300	0.173	-0.259
-605.157	-154.704	-0.196	0.013
-604.142	-184.128	-0.109	0.002
-603.128	-86.401	-0.205	0.064
-602.113	-104.347	-0.244	0.058
-601.098	800.000	0.116	-0.452
-600.084	23.070	-0.163	0.136
-599.069	11.460	0.377	0.293
-598.055	339.821	0.062	0.123
-597.040	-112.492	-0.304	0.062
-596.025	-187.877	-0.039	0.001
-595.011	309.799	-0.075	-0.143
-593.996	-50.973	-0.141	0.067
-592.982	32.506	0.196	-0.172
-591.967	137.620	-0.037	0.049
-590.952	800.000	0.029	-0.114
-589.938	-167.675	0.167	0.007
-588.923	111.424	-0.184	0.225
-587.909	12.652	-0.105	0.082
-586.894	800.000	-0.042	-0.165
-585.879	-200.000	-0.016	0.141
-584.865	88.507	0.139	0.157
-583.850	-84.419	-0.216	0.069
-582.836	-106.542	0.116	0.026
-581.821	206.419	-0.136	-0.215
-580.806	-28.545	-0.320	-0.187
-579.792	-73.146	-0.272	-0.101
-578.777	-59.235	0.386	0.169
-577.763	-200.000	-0.041	0.227
-576.748	-116.057	-0.215	0.041
-575.733	-80.635	0.079	0.027
-574.719	-113.730	0.209	-0.041
-573.704	-144.800	-0.375	0.035
-572.690	-200.000	0.011	0.254
-571.675	-200.000	-0.095	0.456
-570.661	-18.460	0.232	-0.147
-569.646	800.000	-0.040	-0.133
-568.631	44.673	0.165	-0.154
-567.617	132.707	-0.113	-0.148
-566.602	368.508	-0.110	-0.226
-565.588	-148.154	-0.316	0.026
-564.573	158.037	-0.188	0.265
-563.558	327.034	0.058	-0.113
-562.544	149.203	0.086	0.119
-561.529	800.000	0.116	0.378
-560.515	-103.640	0.281	-0.067
-559.500	-114.565	0.097	0.019
-558.485	51.869	0.307	-0.296
-557.471	24.621	0.254	-0.213
-556.456	5.420	-0.167	0.125
-555.442	-9.123	-0.302	0.205
-554.427	-64.778	0.115	-0.047
-553.412	85.925	0.190	-0.212
-552.398	114.724	-0.114	-0.141
-551.383	431.048	-0.116	-0.254
-550.369	-43.516	0.033	-0.017
-549.354	318.244	0.083	0.159
-548.339	86.831	-0.272	0.304
-547.325	-200.000	-0.013	-0.262
-546.310	427.396	-0.108	-0.236
-545.296	800.000	-0.125	-0.366
-544.281	800.000	0.032	0.110
-543.266	-79.822	0.290	0.099
-542.252	118.311	-0.031	0.038
-541.237	389.275	-0.089	0.187
-540.223	744.188	-0.137	-0.374
-539.208	-134.832	0.161	0.020
-538.193	-127.913	-0.125	0.018
-537.179	155.702	-0.188	0.262
-536.164	-41.358	-0.425	0.222
-535.150	436.793	0.052	-0.116
-534.135	-200.000	0.027	0.146
-533.121	-200.000	0.022	0.323
-532.106	299.673	-0.151	0.281
-531.091	161.242	-0.093	-0.131
-530.077	-132.663	-0.140	0.018
-529.062	-43.044	0.135	-0.069
-528.048	-200.000	-0.036	-0.305
-527.033	800.000	0.164	-0.480
-526.018	-145.015	0.156	0.014
-525.004	800.000	0.036	0.139
-523.989	69.322	0.129	-0.134
-522.975	67.811	-0.347	0.359
-521.960	-200.000	-0.023	0.155
-520.945	195.661	0.100	-0.154
-519.931	-79.040	-0.213	0.073
-518.916	102.143	-0.044	-0.053
-517.902	-41.948	0.329	0.171
-516.887	137.988	-0.043	-0.058
-515.872	800.000	0.154	0.447
-514.858	-51.065	-0.335	0.159
-513.843	-137.390	-0.380	-0.044
-512.829	-200.000	0.012	-0.288
-511.814	76.954	-0.173	0.186
-510.799	148.900	-0.060	0.082
-509.785	15.379	-0.181	-0.144
-508.770	109.297	-0.020	-0.024
-507.756	414.916	0.070	0.151
-506.741	289.536	0.166	0.304
-505.726	12.086	0.291	-0.226
-504.712	538.486	-0.066	0.158
-503.697	-136.094	-0.197	0.023
-502.683	-10.172	-0.176	0.118
-501.668	122.444	0.210	0.265
-500.653	551.368	-0.025	-0.060
-499.639	216.905	0.118	0.190
-498.624	-28.965	-0.157	0.091
-497.610	-164.010	0.397	-0.019
-496.595	-200.000	0.040	0.208
-495.581	-115.489	-0.115	-0.022
-494.566	361.033	-0.021	0.043
-493.551	800.000	-0.063	-0.230
-492.537	206.858	0.096	0.152
-491.522	-47.942	0.153	0.075
-490.508	252.213	-0.193	0.332
-489.493	120.184	-0.195	-0.245
-488.478	222.585	0.058	-0.094
-487.464	124.188	0.284	-0.362
-486.449	62.969	-0.140	-0.142
-485.435	258.793	-0.030	0.053
-484.420	24.127	0.158	-0.132
-483.405	-200.000	-0.034	-0.215
-482.391	800.000	0.025	0.109
-481.376	-66.553	0.083	-0.033
-480.362	592.009	-0.062	-0.154
-479.347	800.000	-0.026	-0.076
-478.332	160.853	0.110	0.156
-477.318	265.109	-0.048	0.085
-476.303	209.488	0.223	0.353
-475.289	152.516	0.074	0.102
-474.274	115.239	-0.100	0.124
-473.259	681.848	0.105	-0.276
-472.245	-52.957	0.128	0.060
-471.230	-13.881	-0.187	0.122
-470.216	-193.309	-0.309	0.003
-469.201	416.419	-0.037	-0.080
-468.186	-159.489	-0.131	-0.007
-467.172	-103.692	-0.217	-0.051
-466.157	-26.805	0.236	-0.140
-465.143	93.528	-0.097	0.111
-464.128	-84.799	0.022	0.007
-463.113	329.895	0.079	-0.154
-462.099	350.387	-0.064	-0.128
-461.084	-200.000	-0.031	-0.230
-460.070	53.347	-0.301	-0.292
-459.055	-115.749	-0.210	0.040
-458.040	-200.000	-0.028	-0.154
-457.026	-200.000	-0.076	-0.352
-456.011	-200.000	-0.023	-0.124
-454.997	198.058	-0.074	-0.115
-453.982	-27.380	-0.465	0.273
-452.968	-102.546	-0.094	0.023
-451.953	-56.265	0.111	0.050
-450.938	226.310	-0.089	-0.146
-449.924	-151.452	0.139	0.010
-448.909	79.185	-0.127	-0.137
-447.895	800.000	0.002	-0.009
-446.880	-132.376	0.135	-0.018
-445.865	-118.640	-0.258	0.046
-444.851	229.261	-0.219	-0.360
-443.836	-28.330	0.181	0.105
-442.822	28.509	-0.246	0.210
-441.807	800.000	-0.094	-0.389
-440.792	-4.560	-0.152	0.106
-439.778	-5.859	0.089	0.062
-438.763	-16.907	0.134	-0.086
-437.749	73.565	-0.116	-0.123
-436.734	-96.960	0.531	0.141
-435.719	-53.958	0.242	0.111
-434.705	-200.000	-0.025	-0.247
-433.690	800.000	0.048	-0.188
-432.676	800.000	-0.098	0.368
-431.661	265.893	0.032	-0.057
-430.646	152.493	0.217	-0.299
-429.632	-37.661	-0.099	0.053
-428.617	-97.992	0.156	0.041
-427.603	666.473	-0.065	0.169
-426.588	-89.376	-0.207	-0.061
-425.573	162.508	-0.178	0.252
-424.559	-200.000	-0.009	-0.107
-423.544	37.239	-0.214	-0.191
-422.530	-55.044	-0.202	0.092
-421.515	-74.911	-0.127	0.046
-420.500	482.489	0.119	-0.273
-419.486	-67.527	0.107	-0.043
-418.471	54.168	0.209	-0.202
-417.457	-200.000	0.015	-0.153
-416.442	-141.371	0.123	-0.013
-415.428	-36.342	0.148	-0.080
-414.413	186.788	-0.166	-0.249
-413.398	147.375	-0.201	0.272
-412.384	-154.900	0.475	-0.032
-411.369	9.184	0.082	-0.063
-410.355	-28.663	-0.218	-0.127
-409.340	627.343	0.192	0.489
-408.325	-12.366	-0.360	-0.237
-407.311	-200.000	0.095	-0.438
-406.296	-200.000	0.000	0.224
-405.282	-142.368	0.065	-0.006
-404.267	-82.298	0.089	0.029
-403.252	549.248	-0.240	0.580
-402.238	-200.000	-0.053	0.339
-401.223	-76.009	0.253	0.090
-400.209	479.949	-0.136	0.311
-399.194	-200.000	-0.057	0.277
-398.179	-62.897	-0.054	0.022
-397.165	-200.000	-0.092	-0.524
-396.150	-200.000	0.011	0.102
-395.136	-84.978	0.073	-0.023
-394.121	-200.000	0.040	0.265
-393.106	-163.752	-0.362	0.017
-392.092	-167.701	0.239	0.010
-391.077	67.787	-0.201	0.207
-390.063	-27.770	0.093	-0.054
-389.048	800.000	-0.041	-0.179
-388.033	127.273	-0.152	0.194
-387.019	91.133	-0.238	0.270
-386.004	-200.000	-0.004	0.048
-384.990	-120.514	0.330	0.056
-383.975	117.999	0.034	0.043
-382.960	165.762	-0.258	0.368
-381.946	-200.000	0.048	0.262
-380.931	-67.076	0.223	0.088
-379.917	-200.000	0.007	-0.148
-378.902	-200.000	0.005	0.071
-377.888	227.248	0.100	-0.163
-376.873	264.136	-0.165	-0.289
-375.858	-68.256	0.093	0.036
-374.844	219.782	0.095	0.154
-373.829	11.627	0.263	-0.203
-372.815	-29.524	-0.145	-0.083
-371.800	-166.742	-0.099	-0.004
-370.785	800.000	0.065	-0.241
-369.771	30.682	0.118	0.102
-368.756	-200.000	0.013	-0.100
-367.742	-200.000	-0.423	-0.001
-366.727	800.000	0.087	0.271
-365.712	259.607	0.117	0.203
-364.698	29.444	0.182	0.155
-363.683	-146.824	0.274	0.024
-362.669	-96.209	-0.344	-0.092
-361.654	-200.000	-0.062	0.362
-360.639	467.181	-0.042	0.095
-359.625	77.088	-0.140	0.150
-358.610	-176.278	-0.105	-0.003
-357.596	-30.484	0.004	0.003
-356.581	-157.178	-0.366	-0.022
-355.566	-81.775	0.285	0.094
-354.552	-105.000	0.402	-0.093
-353.537	800.000	0.018	-0.080
-352.523	206.356	0.106	-0.166
-351.508	800.000	0.065	-0.247
-350.493	111.081	-0.046	-0.056
-349.479	-200.000	-0.011	0.101
-348.464	172.283	0.075	-0.108
-347.450	-35.816	-0.219	-0.119
-346.435	-157.782	-0.066	0.004
-345.420	173.958	0.024	-0.035
-344.406	168.680	0.174	-0.250
-343.391	-138.003	0.043	-0.005
-342.377	-15.614	0.075	0.048
-341.362	800.000	-0.059	-0.197
-340.348	-65.702	0.146	-0.059
-339.333	283.686	0.031	-0.057
-338.318	25.427	0.132	0.110
-337.304	-200.000	0.014	-0.080
-336.289	-200.000	0.023	-0.159
-335.275	470.222	0.136	-0.308
-334.260	74.772	-0.073	0.077
-333.245	-200.000	-0.014	-0.156
-332.231	-166.677	0.365	0.015
-331.216	-25.962	-0.148	-0.088
-330.202	109.191	0.087	-0.104
-329.187	278.853	-0.110	0.197
-328.172	-4.910	0.262	-0.182
-327.158	800.000	-0.065	0.232
-326.143	-19.131	0.129	0.080
-325.129	-35.387	-0.248	0.136
-324.114	-83.401	-0.249	0.080
-323.099	800.000	-0.051	-0.218
-322.085	25.612	0.311	0.260
-321.070	-200.000	0.068	0.477
-320.056	-45.804	0.332	0.165
-319.041	-24.741	-0.265	-0.158
-318.026	-140.725	0.059	0.006
-317.012	350.352	-0.068	0.134
-315.997	415.053	-0.059	0.126
-314.983	46.281	0.229	-0.213
-313.968	-200.000	0.005	-0.301
-312.953	-200.000	-0.026	0.128
-311.939	-124.862	-0.247	-0.038
-310.924	49.344	-0.181	0.171
-309.910	200.030	0.026	-0.039
-308.895	356.314	-0.054	-0.108
-307.880	255.202	-0.012	-0.020
-306.866	-98.018	-0.389	0.101
-305.851	29.005	-0.030	-0.026
-304.837	-92.657	0.185	0.052
-303.822	-79.771	0.116	0.039
-302.807	800.000	-0.051	0.167
-301.793	377.846	0.110	0.225
-300.778	-41.225	-0.099	-0.051
-299.764	800.000	0.116	0.477
-298.749	364.830	0.239	0.484
-297.735	499.501	0.086	0.199
-296.720	-200.000	0.003	0.073
-295.705	-139.384	0.253	-0.027
-294.691	-200.000	-0.045	-0.387
-293.676	-65.937	0.118	-0.047
-292.662	-200.000	-0.010	0.191
-291.647	-0.094	-0.332	0.237
-290.632	-76.684	0.343	-0.121
-289.618	-168.861	-0.206	0.008
-288.603	-62.478	-0.237	-0.099
-287.589	292.382	0.107	-0.196
-286.574	4.209	0.070	0.051
-285.559	800.000	-0.064	-0.219
-284.545	-118.133	-0.180	-0.032
-283.530	-10.576	0.119	-0.079
-282.516	406.391	0.080	0.170
-281.501	38.640	0.282	-0.253
-280.486	800.000	0.122	0.514
-279.472	96.258	0.079	-0.091
-278.457	63.496	-0.248	-0.249
-277.443	94.343	-0.116	-0.132
-276.428	17.556	0.204	-0.163
-275.413	-22.825	0.193	-0.117
-274.399	800.000	0.055	0.197
-273.384	-42.778	-0.175	-0.089
-272.370	800.000	-0.077	-0.290
-271.355	-61.800	-0.260	0.109
-270.340	115.407	-0.109	-0.134
-269.326	-115.331	0.363	0.069
-268.311	-92.919	-0.258	0.072
-267.297	215.436	-0.090	-0.143
-266.282	-48.473	0.268	-0.129
-265.267	-110.403	0.280	0.058
-264.253	132.727	-0.087	-0.112
-263.238	-129.488	-0.240	-0.033
-262.224	473.672	0.151	0.341
-261.209	-61.258	0.084	-0.036
-260.195	-200.000	0.007	0.130
-259.180	-32.195	0.262	0.147
-258.165	111.518	0.171	0.207
-257.151	-116.602	-0.353	-0.065
-256.136	-200.000	0.020	-0.090
-255.122	-10.287	-0.290	0.193
-254.107	507.017	0.131	0.304
-253.092	116.929	0.067	-0.082
-252.078	-200.000	0.013	-0.132
-251.063	-200.000	-0.032	-0.257
-250.049	-56.118	-0.214	0.096
-249.034	122.436	-0.051	-0.064
-248.019	-85.798	0.128	-0.040
-247.005	-37.492	-0.179	-0.096
-245.990	-200.000	0.002	0.229
-244.976	-200.000	-0.027	-0.230
-243.961	11.506	0.319	0.245
-242.946	-200.000	-0.020	-0.093
-241.932	-150.663	-0.104	-0.008
-240.917	800.000	0.096	-0.418
-239.903	149.475	-0.122	-0.165
-238.888	476.813	0.078	-0.176
-237.873	-21.899	0.100	-0.061
-236.859	601.387	0.112	-0.279
-235.844	219.334	-0.220	-0.352
-234.830	-200.000	-0.000	0.111
-233.815	800.000	0.020	-0.071
-232.800	-131.998	-0.278	0.036
-231.786	-117.358	-0.126	0.023
-230.771	800.000	0.104	0.383
-229.757	-85.788	-0.242	0.075
-228.742	23.932	-0.267	-0.220
-227.727	-200.000	-0.039	-0.484
-226.713	-44.027	0.270	-0.136
-225.698	-200.000	0.038	-0.470
-224.684	800.000	-0.076	-0.318
-223.669	116.978	0.072	-0.089
-222.655	267.104	-0.050	-0.088
-221.640	-200.000	-0.025	-0.140
-220.625	-82.201	0.123	0.040
-219.611	721.342	-0.041	0.110
-218.596	118.711	0.224	0.277
-217.582	800.000	-0.022	0.075
-216.567	248.572	-0.041	-0.070
-215.552	800.000	0.048	-0.161
-214.538	-38.087	0.337	-0.179
-213.523	-145.034	0.275	-0.025
-212.509	-49.686	0.084	0.040
-211.494	-79.105	-0.160	0.054
-210.479	-200.000	-0.026	-0.147
-209.465	800.000	0.087	-0.303
-208.450	-200.000	-0.024	0.124
-207.436	348.360	0.053	-0.104
-206.421	23.082	0.214	0.175
-205.406	230.688	0.174	0.285
-204.392	-26.374	-0.282	-0.165
-203.377	-200.000	0.057	0.266
-202.363	-75.488	-0.209	0.074
-201.348	393.929	0.143	0.298
-200.333	201.184	0.063	-0.097
-199.319	107.120	-0.136	0.162
-198.304	17.004	-0.070	0.055
-197.290	-1.516	0.200	0.141
-196.275	264.339	-0.246	-0.428
-195.260	-200.000	0.022	0.143
-194.246	41.720	0.124	0.113
-193.231	-116.853	-0.132	-0.024
-192.217	544.360	-0.034	0.080
-191.202	-89.768	0.103	-0.030
-190.187	205.726	-0.104	-0.161
-189.173	-200.000	-0.006	-0.263
-188.158	-128.971	0.426	-0.060
-187.144	-142.191	0.309	0.031
-186.129	-141.877	-0.075	-0.008
-185.114	272.684	-0.025	0.044
-184.100	357.835	-0.087	0.173
-183.085	-71.860	-0.160	0.060
-182.071	-57.625	-0.120	-0.053
-181.056	-105.728	0.133	0.030
-180.042	-200.000	0.011	0.116
-179.027	698.632	0.103	0.270
-178.012	800.000	0.038	0.147
-176.998	-99.251	0.185	0.047
-175.983	-159.502	0.405	-0.022
-174.969	-148.789	0.258	-0.021
-173.954	3.797	-0.114	0.083
-172.939	-200.000	-0.017	0.274
-171.925	-200.000	0.070	-0.316
-170.910	51.221	-0.083	-0.078
-169.896	800.000	0.097	-0.330
-168.881	19.313	0.106	-0.085
-167.866	-174.269	-0.028	-0.001
-166.852	129.096	0.030	-0.038
-165.837	-14.213	0.049	-0.032
-164.823	800.000	0.028	-0.090
-163.808	174.412	-0.202	0.291
-162.793	77.789	-0.060	-0.064
-161.779	-47.269	0.323	0.157
-160.764	337.587	-0.072	0.139
-159.750	-63.137	-0.101	0.042
-158.735	92.673	0.218	0.245
-157.720	27.476	0.244	-0.205
-156.706	-200.000	-0.082	-0.370
-155.691	-52.088	-0.188	-0.087
-154.677	-96.113	-0.030	0.008
-153.662	79.697	0.125	-0.134
-152.647	800.000	0.057	0.191
-151.633	260.469	0.082	-0.141
-150.618	43.752	-0.077	0.070
-149.604	-200.000	0.052	0.417
-148.589	-200.000	-0.060	0.371
-147.574	-200.000	0.062	0.293
-146.560	-200.000	-0.021	-0.219
-145.545	-112.882	0.052	0.010
-144.531	-200.000	-0.031	0.157
-143.516	-6.061	-0.007	-0.005
-142.502	138.403	-0.191	-0.251
-141.487	-200.000	0.071	-0.456
-140.472	-87.501	-0.199	-0.060
-139.458	-103.420	0.303	-0.071
-138.443	800.000	0.051	0.154
-137.429	-22.519	0.141	-0.085
-136.414	800.000	-0.051	0.140
-135.399	30.689	0.186	-0.159
-134.385	-200.000	-0.008	-0.060
-133.370	-123.505	0.228	-0.036
-132.356	800.000	-0.025	-0.086
-131.341	-62.975	0.077	0.032
-130.326	-200.000	-0.034	0.158
-129.312	-76.568	0.163	0.057
-128.297	84.458	0.148	0.162
-127.283	329.791	0.124	0.238
-126.268	-47.785	0.052	0.025
-125.253	152.726	0.093	-0.126
-124.239	242.274	-0.165	-0.276
-123.224	-99.795	0.268	-0.067
-122.210	516.511	0.032	0.075
