DTS Sentinel unit serial number:	SN413079Multiplexer serial number:	ORYXHardware model number:	OX4-SRSoftware version number:	ORYX F/W v4.00 Oryx Data Collector v3.7.2.0data status	okinstallation	princeton_trtdifferential loss correction	single-endedforward channel	channel 4reverse channel	N/Adate	2019/09/17time	01:53:34forward acquisition time	60.00reverse acquisition time	0.00gamma	496.2192k internal	0.2312k external	0.2312temperature offset calibration	0.9976default loss term (dB/km)	0.3790temperature slope calibration	1.0000multiplexer offset coefficient	1.0000multiplexer slope coefficient	1.0000fibre end	0.00T internal ref (°C)	29.62T ext. ref 1 (°C)	0.12T ext. ref 2 (°C)	24.59length (m)	temperature (°C)	Stokes	anti-Stokes-747.200	-200.000	-0.051	0.228
-746.185	376.836	-0.127	0.264
-745.171	74.680	0.119	0.127
-744.156	-10.650	0.363	0.244
-743.142	-99.588	0.197	-0.050
-742.127	28.243	-0.317	0.272
-741.112	73.366	0.191	-0.203
-740.098	-27.395	-0.264	-0.156
-739.083	-38.267	-0.173	0.093
-738.069	183.477	0.120	0.181
-737.054	8.461	0.245	0.187
-736.039	193.026	-0.128	0.197
-735.025	80.661	0.113	0.124
-734.010	-200.000	0.010	-0.231
-732.996	-200.000	-0.006	-0.184
-731.981	-82.463	0.170	0.056
-730.966	-27.906	-0.364	0.214
-729.952	-101.092	-0.163	-0.041
-728.937	-126.085	-0.212	-0.032
-727.923	450.822	0.015	0.034
-726.908	-152.936	-0.416	-0.030
-725.894	791.946	0.085	0.236
-724.879	257.608	-0.254	0.443
-723.864	-21.719	-0.299	0.184
-722.850	-131.425	-0.418	-0.056
-721.835	485.209	-0.078	0.180
-720.821	-46.617	-0.239	-0.119
-719.806	-200.000	0.011	-0.091
-718.791	145.239	0.069	-0.094
-717.777	-130.737	-0.269	-0.037
-716.762	-200.000	0.019	0.166
-715.748	-27.884	0.282	-0.166
-714.733	800.000	0.195	0.575
-713.718	-109.919	0.226	0.048
-712.704	-137.199	-0.370	-0.043
-711.689	-200.000	0.012	0.092
-710.675	-200.000	0.024	0.122
-709.660	315.629	0.039	-0.074
-708.645	337.926	-0.049	-0.096
-707.631	152.202	0.271	0.375
-706.616	-102.971	0.210	0.050
-705.602	581.643	-0.050	0.123
-704.587	316.867	-0.153	-0.294
-703.572	298.525	-0.092	-0.171
-702.558	-23.938	0.296	0.179
-701.543	-67.111	0.190	0.076
-700.529	36.809	-0.071	-0.064
-699.514	157.289	0.146	0.204
-698.499	136.185	0.035	0.046
-697.485	748.055	-0.063	-0.171
-696.470	-62.116	0.071	0.030
-695.456	-200.000	0.005	0.225
-694.441	-36.650	-0.194	-0.105
-693.426	-200.000	-0.019	-0.156
-692.412	-200.000	-0.022	-0.310
-691.397	411.918	0.160	-0.343
-690.383	-5.259	-0.285	0.198
-689.368	800.000	0.026	0.074
-688.354	-106.829	0.296	0.066
-687.339	800.000	0.089	0.355
-686.324	-28.930	-0.087	-0.051
-685.310	637.815	0.082	0.211
-684.295	-169.435	0.464	-0.017
-683.281	219.118	-0.101	-0.164
-682.266	103.128	-0.178	0.211
-681.251	-200.000	0.017	0.106
-680.237	800.000	0.072	0.215
-679.222	333.330	0.079	-0.155
-678.208	254.678	-0.051	0.088
-677.193	-1.013	-0.238	-0.171
-676.178	344.468	-0.069	0.137
-675.164	800.000	-0.095	-0.299
-674.149	-137.238	0.219	-0.025
-673.135	74.495	0.184	-0.195
-672.120	54.461	-0.055	0.054
-671.105	20.917	0.262	0.215
-670.091	-200.000	-0.005	0.260
-669.076	3.677	0.194	0.143
-668.062	-200.000	0.020	-0.213
-667.047	-112.848	0.204	-0.041
-666.032	-23.495	-0.249	-0.151
-665.018	164.856	0.091	-0.130
-664.003	53.636	0.099	-0.097
-662.989	25.408	-0.105	-0.088
-661.974	248.307	0.044	-0.076
-660.959	-125.524	-0.245	-0.038
-659.945	-96.189	-0.107	-0.029
-658.930	-200.000	0.006	0.115
-657.916	30.822	-0.162	-0.140
-656.901	-17.470	-0.308	-0.196
-655.886	-200.000	0.004	-0.331
-654.872	-3.540	0.195	-0.137
-653.857	35.298	-0.268	-0.238
-652.843	-85.228	-0.387	-0.122
-651.828	437.861	0.006	-0.014
-650.814	28.728	0.182	-0.156
-649.799	-97.903	0.215	0.056
-648.784	-68.029	0.364	-0.144
-647.770	41.258	-0.214	-0.195
-646.755	-119.135	0.195	0.034
-645.741	96.310	0.209	0.242
-644.726	-57.979	-0.388	0.171
-643.711	-200.000	-0.030	-0.192
-642.697	800.000	0.094	0.297
-641.682	800.000	-0.029	0.108
-640.668	-200.000	0.044	-0.272
-639.653	-163.025	0.097	-0.005
-638.638	-106.632	0.232	-0.052
-637.624	579.233	0.107	-0.265
-636.609	800.000	0.071	-0.291
-635.595	-57.842	-0.088	-0.039
-634.580	10.454	0.204	0.157
-633.565	-128.750	-0.184	-0.026
-632.551	-200.000	0.008	0.056
-631.536	-30.298	-0.090	-0.052
-630.522	335.167	-0.080	0.157
-629.507	-200.000	0.050	-0.000
-628.492	306.852	-0.131	0.246
-627.478	204.312	0.198	0.310
-626.463	-66.556	-0.232	-0.093
-625.449	-143.097	-0.113	-0.011
-624.434	35.808	0.101	0.090
-623.419	-82.218	0.336	-0.110
-622.405	-200.000	0.001	-0.245
-621.390	-117.068	0.040	-0.007
-620.376	13.485	0.046	-0.036
-619.361	-167.979	-0.135	0.005
-618.346	39.599	-0.142	-0.128
-617.332	-200.000	-0.008	-0.133
-616.317	-63.624	0.143	-0.059
-615.303	14.978	0.253	-0.200
-614.288	800.000	-0.055	-0.167
-613.273	-7.863	-0.171	0.117
-612.259	-5.959	-0.084	0.058
-611.244	-0.871	-0.344	-0.246
-610.230	2.796	0.226	0.165
-609.215	100.025	-0.257	-0.301
-608.201	37.967	-0.085	-0.076
-607.186	-126.161	0.214	-0.032
-606.171	352.047	-0.116	-0.232
-605.157	-14.264	-0.159	-0.103
-604.142	180.654	-0.056	0.083
-603.128	-186.202	0.160	0.002
-602.113	-24.589	-0.206	-0.124
-601.098	-23.321	0.427	0.259
-600.084	85.008	0.112	-0.124
-599.069	-5.868	0.149	0.103
-598.055	-200.000	-0.023	-0.145
-597.040	-200.000	0.012	-0.067
-596.025	-200.000	-0.073	-0.386
-595.011	800.000	-0.093	-0.338
-593.996	-155.163	0.215	0.014
-592.982	132.135	-0.033	-0.043
-591.967	-80.192	0.024	0.008
-590.952	233.845	-0.140	0.233
-589.938	-122.297	0.211	0.035
-588.923	-105.745	0.115	-0.026
-587.909	-200.000	0.027	0.259
-586.894	-134.814	0.286	0.035
-585.879	-17.263	0.190	0.121
-584.865	-200.000	-0.014	0.127
-583.850	-85.858	-0.196	0.061
-582.836	748.622	-0.041	-0.111
-581.821	800.000	-0.062	0.201
-580.806	-200.000	0.007	-0.268
-579.792	-200.000	0.057	0.286
-578.777	-135.968	0.069	0.008
-577.763	800.000	0.044	-0.131
-576.748	425.825	-0.140	-0.305
-575.733	-200.000	-0.010	-0.165
-574.719	-172.406	-0.333	-0.011
-573.704	-149.401	0.244	0.020
-572.690	-116.387	0.059	-0.011
-571.675	-200.000	-0.026	0.274
-570.661	-72.830	0.046	-0.017
-569.646	57.843	0.202	-0.199
-568.631	-110.666	-0.161	0.034
-567.617	-200.000	-0.012	-0.225
-566.602	-148.266	-0.384	-0.032
-565.588	14.412	-0.176	-0.138
-564.573	-44.342	0.071	-0.036
-563.558	-127.129	0.141	-0.021
-562.544	473.900	0.090	-0.204
-561.529	115.276	-0.151	-0.186
-560.515	419.602	0.111	-0.238
-559.500	11.215	-0.347	0.268
-558.485	-53.840	-0.091	-0.042
-557.471	-200.000	-0.021	0.216
-556.456	-200.000	0.034	-0.248
-555.442	70.745	-0.085	-0.089
-554.427	-30.268	0.098	-0.056
-553.412	-47.526	0.330	-0.162
-552.398	596.931	-0.039	0.097
-551.383	-148.138	-0.285	-0.024
-550.369	-134.746	-0.218	0.027
-549.354	97.463	-0.121	-0.140
-548.339	-70.299	-0.112	0.043
-547.325	-77.580	-0.056	0.019
-546.310	-36.158	0.266	-0.145
-545.296	-200.000	0.037	-0.331
-544.281	255.643	0.201	-0.347
-543.266	294.654	-0.127	-0.234
-542.252	-52.192	-0.144	0.067
-541.237	382.176	-0.075	-0.155
-540.223	-142.341	-0.091	-0.009
-539.208	451.209	0.114	-0.254
-538.193	410.765	-0.052	-0.111
-537.179	800.000	0.066	0.208
-536.164	380.372	0.024	0.050
-535.150	-34.097	-0.250	0.138
-534.135	181.190	0.191	0.283
-533.121	-101.679	0.315	0.077
-532.106	-200.000	-0.014	0.112
-531.091	-75.874	0.594	-0.212
-530.077	-119.500	-0.263	-0.046
-529.062	130.454	0.283	-0.365
-528.048	81.008	0.133	0.145
-527.033	-130.243	0.183	0.025
-526.018	106.024	-0.185	0.221
-525.004	614.265	-0.087	-0.219
-523.989	-165.296	0.194	0.009
-522.975	-157.175	-0.181	0.011
-521.960	-200.000	0.000	-0.066
-520.945	-83.693	0.038	-0.012
-519.931	800.000	0.086	0.262
-518.916	781.049	-0.046	-0.126
-517.902	-84.365	-0.172	-0.055
-516.887	-49.525	0.162	0.077
-515.872	-97.976	-0.311	0.081
-514.858	-131.640	0.213	-0.028
-513.843	800.000	-0.031	-0.099
-512.829	-86.946	0.108	-0.033
-511.814	-12.274	0.092	-0.061
-510.799	-136.895	-0.450	-0.052
-509.785	-95.427	-0.237	-0.064
-508.770	289.320	0.219	0.400
-507.756	800.000	0.028	-0.087
-506.741	-38.742	0.096	0.051
-505.726	-58.160	0.205	-0.090
-504.712	-120.921	0.022	-0.004
-503.697	-200.000	-0.034	-0.333
-502.683	-31.550	-0.155	0.088
-501.668	207.785	-0.081	-0.128
-500.653	-200.000	-0.026	0.230
-499.639	-11.410	0.128	0.085
-498.624	49.548	-0.073	-0.069
-497.610	78.443	0.134	-0.144
-496.595	-82.807	0.141	-0.046
-495.581	26.691	0.157	-0.132
-494.566	231.433	-0.026	-0.042
-493.551	-27.121	0.187	0.110
-492.537	154.411	0.103	-0.142
-491.522	197.621	0.104	-0.160
-490.508	-42.028	-0.091	-0.047
-489.493	109.681	-0.208	-0.251
-488.478	-20.494	0.210	0.130
-487.464	-18.067	0.216	-0.136
-486.449	99.962	-0.264	-0.307
-485.435	800.000	0.063	-0.214
-484.420	800.000	0.023	-0.088
-483.405	-28.245	-0.053	0.031
-482.391	-69.973	0.153	-0.058
-481.376	800.000	0.042	0.142
-480.362	800.000	0.013	-0.039
-479.347	-103.768	-0.228	-0.054
-478.332	-89.413	-0.394	0.116
-477.318	800.000	-0.029	-0.108
-476.303	-44.207	-0.115	-0.058
-475.289	-58.976	-0.274	0.119
-474.274	-200.000	0.015	0.402
-473.259	-200.000	-0.015	0.185
-472.245	-112.342	0.117	-0.024
-471.230	235.754	0.273	-0.452
-470.216	-119.738	0.119	0.021
-469.201	800.000	-0.029	-0.116
-468.186	800.000	0.057	-0.162
-467.172	-111.029	0.235	-0.048
-466.157	223.224	0.119	-0.192
-465.143	111.047	-0.270	0.326
-464.128	-67.966	-0.209	0.082
-463.113	-40.789	-0.041	-0.021
-462.099	43.206	-0.341	0.313
-461.084	-82.235	-0.272	0.089
-460.070	167.373	0.255	0.364
-459.055	-119.228	0.147	0.026
-458.040	76.080	-0.103	0.110
-457.026	-200.000	0.032	0.199
-456.011	144.065	0.090	-0.121
-454.997	-15.748	0.115	-0.073
-453.982	92.241	0.131	-0.148
-452.968	592.164	0.080	0.199
-451.953	-200.000	0.003	-0.111
-450.938	800.000	0.034	-0.149
-449.924	-200.000	0.046	0.280
-448.909	132.744	0.179	0.232
-447.895	71.758	0.122	-0.127
-446.880	291.069	0.080	0.146
-445.865	177.354	-0.150	-0.220
-444.851	-19.315	0.223	-0.139
-443.836	-200.000	-0.029	0.195
-442.822	57.946	-0.155	-0.152
-441.807	218.764	-0.162	0.260
-440.792	314.153	-0.081	-0.153
-439.778	235.543	0.307	-0.508
-438.763	-4.217	0.158	-0.110
-437.749	85.863	-0.127	0.140
-436.734	34.006	0.104	-0.090
-435.719	26.354	-0.117	0.098
-434.705	164.352	0.205	0.290
-433.690	800.000	0.032	0.095
-432.676	33.046	-0.141	-0.123
-431.661	800.000	0.015	0.044
-430.646	800.000	0.100	-0.392
-429.632	20.036	0.191	-0.154
-428.617	-200.000	0.004	0.246
-427.603	800.000	-0.067	-0.191
-426.588	185.308	0.062	0.092
-425.573	153.661	-0.106	-0.145
-424.559	-143.863	0.130	0.012
-423.544	-86.147	0.197	-0.061
-422.530	93.942	-0.162	0.184
-421.515	-200.000	0.074	0.438
-420.500	-200.000	-0.011	0.238
-419.486	-9.931	0.111	-0.074
-418.471	-89.738	-0.080	-0.024
-417.457	15.302	0.275	0.216
-416.442	-92.564	0.402	-0.113
-415.428	-70.074	0.278	-0.106
-414.413	-11.912	0.175	-0.115
-413.398	-200.000	-0.055	0.329
-412.384	-118.598	0.115	-0.020
-411.369	426.067	0.026	0.055
-410.355	100.348	0.198	0.231
-409.340	256.964	0.181	0.311
-408.325	494.191	0.156	-0.358
-407.311	38.240	-0.083	-0.074
-406.296	454.138	0.160	0.356
-405.282	-105.076	0.071	-0.016
-404.267	-118.034	0.044	-0.008
-403.252	142.141	0.048	-0.064
-402.238	800.000	-0.064	0.184
-401.223	309.349	0.149	-0.279
-400.209	-166.154	-0.398	0.017
-399.194	-200.000	-0.001	-0.156
-398.179	-200.000	-0.005	0.258
-397.165	66.945	-0.182	0.185
-396.150	800.000	0.049	0.179
-395.136	-200.000	-0.003	-0.062
-394.121	-33.872	0.340	0.187
-393.106	553.082	0.099	0.238
-392.092	-200.000	0.008	-0.104
-391.077	258.871	-0.116	-0.200
-390.063	346.009	0.057	0.112
-389.048	-200.000	-0.009	-0.310
-388.033	55.940	-0.088	0.085
-387.019	-52.213	-0.245	-0.114
-386.004	41.747	-0.099	-0.090
-384.990	-152.899	0.296	-0.021
-383.975	800.000	-0.071	-0.236
-382.960	-69.863	0.183	-0.070
-381.946	-28.768	-0.302	-0.174
-380.931	-152.258	0.146	-0.011
-379.917	-96.656	-0.232	0.061
-378.902	-40.525	-0.026	0.013
-377.888	-1.907	0.277	-0.195
-376.873	-52.740	-0.360	0.166
-375.858	-83.195	-0.266	0.086
-374.844	94.250	0.042	-0.047
-373.829	80.808	-0.160	0.172
-372.815	-151.657	-0.342	-0.025
-371.800	-117.997	0.117	-0.021
-370.785	7.362	-0.373	-0.279
-369.771	-44.409	-0.250	-0.125
-368.756	800.000	-0.078	-0.218
-367.742	256.062	-0.153	0.263
-366.727	-83.435	0.277	0.089
-365.712	-86.892	0.248	-0.076
-364.698	800.000	-0.046	0.170
-363.683	-123.462	0.254	0.040
-362.669	-116.529	-0.098	-0.018
-361.654	87.525	0.071	0.079
-360.639	-102.150	-0.176	-0.042
-359.625	-47.043	-0.199	0.097
-358.610	-200.000	0.018	-0.205
-357.596	-200.000	0.031	-0.134
-356.581	74.646	0.152	0.160
-355.566	-200.000	0.045	0.376
-354.552	164.805	-0.205	0.288
-353.537	-104.087	0.239	0.056
-352.523	-32.110	-0.239	0.134
-351.508	206.318	-0.097	-0.151
-350.493	32.385	0.191	-0.165
-349.479	-200.000	0.031	-0.186
-348.464	62.217	0.140	-0.140
-347.450	-50.859	0.204	-0.096
-346.435	28.199	-0.076	-0.064
-345.420	-120.944	0.327	0.055
-344.406	691.650	0.191	0.500
-343.391	-23.101	0.082	0.049
-342.377	-131.034	-0.182	-0.024
-341.362	24.589	0.088	-0.073
-340.348	-200.000	0.010	0.066
-339.333	-143.738	-0.215	0.020
-338.318	-200.000	-0.060	0.265
-337.304	36.858	-0.219	0.194
-336.289	-7.292	-0.052	0.035
-335.275	-43.895	0.194	0.097
-334.260	339.984	-0.141	0.275
-333.245	-9.345	0.193	-0.129
-332.231	-74.424	0.133	-0.048
-331.216	160.503	-0.154	0.215
-330.202	-33.409	0.242	-0.134
-329.187	-67.761	-0.295	-0.115
-328.172	728.595	-0.033	-0.088
-327.158	-200.000	0.021	0.235
-326.143	107.915	-0.133	-0.159
-325.129	26.760	-0.107	-0.089
-324.114	499.837	-0.070	-0.161
-323.099	-79.029	0.202	-0.069
-322.085	47.341	-0.127	0.118
-321.070	-34.723	-0.137	0.075
-320.056	-200.000	0.027	0.121
-319.041	-130.296	0.243	0.033
-318.026	-180.044	-0.096	0.002
-317.012	-76.783	-0.060	0.021
-315.997	45.020	-0.065	-0.060
-314.983	254.137	-0.149	-0.255
-313.968	71.262	0.250	-0.259
-312.953	95.783	0.123	-0.140
-311.939	22.500	0.143	-0.117
-310.924	481.603	-0.037	0.083
-309.910	-104.386	-0.171	-0.040
-308.895	-121.376	-0.269	0.045
-307.880	93.519	0.014	-0.016
-306.866	-39.626	-0.244	0.127
-305.851	29.206	-0.395	0.334
-304.837	-180.435	0.230	-0.005
-303.822	266.152	0.168	-0.292
-302.807	178.495	0.189	-0.275
-301.793	-129.950	-0.273	0.037
-300.778	-68.539	0.083	-0.032
-299.764	-13.417	0.165	-0.107
-298.749	-180.432	0.445	-0.009
-297.735	-200.000	0.011	-0.064
-296.720	98.970	0.121	0.139
-295.705	-200.000	0.015	0.106
-294.691	601.152	0.155	-0.384
-293.676	-167.216	0.306	-0.012
-292.662	167.713	0.147	-0.208
-291.647	-94.453	-0.253	0.069
-290.632	-22.184	-0.249	-0.151
-289.618	129.190	-0.104	-0.133
-288.603	-200.000	0.006	0.110
-287.589	106.844	0.058	-0.069
-286.574	390.454	0.116	-0.240
-285.559	-21.739	0.219	-0.133
-284.545	310.921	-0.061	-0.114
-283.530	55.510	-0.070	-0.067
-282.516	228.466	-0.095	0.155
-281.501	-2.797	0.252	-0.175
-280.486	800.000	0.054	0.160
-279.472	-200.000	0.021	0.161
-278.457	38.623	-0.153	0.136
-277.443	141.352	-0.210	-0.277
-276.428	-97.325	-0.213	0.055
-275.413	211.438	-0.135	-0.211
-274.399	188.840	0.102	0.153
-273.384	-200.000	0.015	0.100
-272.370	-200.000	-0.022	-0.223
-271.355	-68.059	0.047	0.018
-270.340	141.353	-0.169	0.223
-269.326	613.999	-0.035	-0.087
-268.311	145.204	-0.077	-0.102
-267.297	-80.739	0.146	0.048
-266.282	9.730	0.011	0.008
-265.267	363.032	-0.096	0.191
-264.253	-200.000	-0.036	0.464
-263.238	-82.716	0.115	0.037
-262.224	800.000	-0.096	0.315
-261.209	-58.969	-0.262	0.113
-260.195	24.607	0.034	-0.028
-259.180	343.571	0.275	0.536
-258.165	-107.629	-0.106	-0.023
-257.151	80.820	-0.148	-0.159
-256.136	-200.000	0.135	-0.000
-255.122	-105.121	-0.115	-0.026
-254.107	124.222	0.165	0.207
-253.092	-88.010	-0.110	0.033
-252.078	-105.786	0.276	-0.062
-251.063	-161.929	-0.319	-0.016
-250.049	-93.061	0.153	0.043
-249.034	800.000	0.029	0.085
-248.019	442.146	-0.097	0.212
-247.005	-60.430	0.146	-0.062
-245.990	-20.950	-0.210	0.128
-244.976	-73.325	0.270	0.098
-243.961	-131.696	-0.398	-0.052
-242.946	800.000	-0.068	0.195
-241.932	800.000	0.032	0.087
-240.917	-8.750	0.146	0.098
-239.903	-90.885	0.143	0.041
-238.888	352.658	-0.201	-0.397
-237.873	-200.000	0.018	-0.224
-236.859	372.409	0.099	-0.200
-235.844	-111.545	-0.136	0.028
-234.830	353.112	0.090	-0.177
-233.815	305.832	0.096	-0.177
-232.800	-5.086	-0.366	0.250
-231.786	11.624	-0.259	-0.198
-230.771	144.949	-0.112	0.149
-229.757	800.000	-0.079	0.273
-228.742	306.981	-0.085	0.158
-227.727	140.725	-0.014	0.018
-226.713	-65.019	-0.355	-0.142
-225.698	-8.063	-0.052	-0.035
-224.684	61.122	-0.094	0.092
-223.669	143.970	-0.136	-0.181
-222.655	127.205	-0.072	-0.090
-221.640	-103.484	-0.199	-0.047
-220.625	-148.632	-0.183	-0.015
-219.611	-92.876	0.395	0.110
-218.596	-140.524	-0.419	-0.043
-217.582	-200.000	0.028	0.225
-216.567	-122.971	0.223	0.036
-215.552	-60.588	0.309	-0.130
-214.538	-180.095	-0.227	-0.005
-213.523	57.431	0.100	0.097
-212.509	800.000	0.072	0.245
-211.494	-0.622	-0.453	0.320
-210.479	-200.000	-0.031	0.165
-209.465	-123.167	-0.440	-0.070
-208.450	-73.673	-0.126	0.045
-207.436	284.939	0.088	0.158
-206.421	583.586	-0.078	-0.190
-205.406	163.230	-0.147	0.206
-204.392	-108.444	0.197	0.042
-203.377	-135.077	-0.205	0.025
-202.363	681.413	0.123	-0.319
-201.348	-37.423	-0.092	0.049
-200.333	-62.500	-0.362	-0.149
-199.319	-200.000	0.015	-0.145
-198.304	-6.924	0.159	-0.107
-197.290	800.000	-0.079	0.255
-196.275	321.550	0.111	-0.210
-195.260	33.552	-0.341	0.294
-194.246	38.352	-0.096	0.085
-193.231	63.538	-0.149	0.149
-192.217	438.340	0.047	-0.102
-191.202	-200.000	-0.026	-0.115
-190.187	9.047	0.289	0.217
-189.173	685.638	0.023	0.059
-188.158	255.065	-0.021	-0.036
-187.144	-156.913	-0.241	0.015
-186.129	205.654	-0.059	-0.090
-185.114	800.000	0.080	-0.263
-184.100	69.885	0.141	0.144
-183.085	357.400	-0.055	-0.110
-182.071	226.450	-0.231	-0.373
-181.056	800.000	-0.062	0.202
-180.042	-8.490	-0.276	0.184
-179.027	-200.000	0.041	-0.408
-178.012	-200.000	0.064	0.298
-176.998	42.820	0.272	0.246
-175.983	265.245	0.257	0.445
-174.969	131.655	-0.131	-0.168
-173.954	-200.000	-0.014	0.216
-172.939	163.191	-0.192	0.267
-171.925	7.582	-0.300	0.223
-170.910	-200.000	-0.016	0.159
-169.896	6.090	-0.084	-0.062
-168.881	-16.953	0.109	0.069
-167.866	164.607	-0.284	0.398
-166.852	89.069	0.219	0.241
-165.837	518.480	0.044	0.103
-164.823	80.172	-0.183	-0.195
-163.808	-119.824	0.494	-0.084
-162.793	-168.137	0.231	-0.009
-161.779	165.212	0.102	0.143
-160.764	-49.293	0.179	0.085
-159.750	-152.657	0.191	-0.014
-158.735	99.528	-0.106	-0.122
-157.720	449.189	-0.064	0.140
-156.706	138.214	-0.124	0.161
-155.691	-105.731	0.272	0.061
-154.677	76.821	0.191	-0.201
-153.662	33.664	0.252	0.217
-152.647	6.329	-0.290	0.213
-151.633	-115.934	-0.268	-0.050
-150.618	-95.532	-0.287	0.076
-149.604	-200.000	0.012	0.180
-148.589	-155.704	0.114	0.007
-147.574	-32.723	-0.128	0.071
-146.560	-200.000	0.034	0.342
-145.545	-105.319	0.408	0.092
-144.531	47.787	-0.164	0.151
-143.516	-63.889	-0.220	0.089
-142.502	-200.000	-0.027	0.257
-141.487	-200.000	-0.014	0.134
-140.472	800.000	-0.035	-0.118
-139.458	258.008	0.168	-0.287
-138.443	128.846	0.140	0.177
-137.429	-200.000	-0.012	-0.128
-136.414	390.375	-0.049	0.101
-135.399	259.749	0.098	0.167
-134.385	800.000	-0.080	0.225
-133.370	800.000	-0.075	-0.317
-132.356	-67.912	-0.210	0.081
-131.341	-200.000	0.042	0.311
-130.326	22.375	0.156	0.126
-129.312	724.084	-0.109	0.287
-128.297	-110.578	0.051	0.011
-127.283	40.135	-0.071	-0.063
-126.268	-74.476	-0.138	0.049
-125.253	-34.937	0.118	0.064
-124.239	-46.425	0.102	0.050
-123.224	9.419	0.032	0.024
-122.210	-200.000	-0.057	0.306
-121.195	-105.661	0.259	0.058
