DTS Sentinel unit serial number:	SN413079Multiplexer serial number:	ORYXHardware model number:	OX4-SRSoftware version number:	ORYX F/W v4.00 Oryx Data Collector v3.7.2.0data status	okinstallation	princeton_trtdifferential loss correction	single-endedforward channel	channel 4reverse channel	N/Adate	2019/09/16time	16:05:35forward acquisition time	60.00reverse acquisition time	0.00gamma	496.2192k internal	0.2289k external	0.2289temperature offset calibration	0.9939default loss term (dB/km)	0.3790temperature slope calibration	1.0000multiplexer offset coefficient	1.0000multiplexer slope coefficient	1.0000fibre end	0.00T internal ref (°C)	40.87T ext. ref 1 (°C)	14.93T ext. ref 2 (°C)	35.05length (m)	temperature (°C)	Stokes	anti-Stokes-747.200	-200.000	0.004	-0.133
-746.185	-41.056	-0.220	-0.117
-745.171	64.867	0.104	-0.108
-744.156	800.000	-0.059	0.208
-743.142	-9.526	-0.307	0.210
-742.127	-110.839	-0.259	0.055
-741.112	587.926	0.058	0.147
-740.098	800.000	0.047	0.133
-739.083	108.169	0.131	-0.159
-738.069	-47.497	0.183	0.091
-737.054	-133.605	0.211	-0.027
-736.039	-117.828	-0.313	-0.058
-735.025	-38.815	-0.086	0.047
-734.010	118.051	-0.257	0.325
-732.996	42.038	-0.206	-0.192
-731.981	-27.243	0.282	-0.168
-730.966	-163.776	-0.123	0.006
-729.952	-66.962	0.359	-0.145
-728.937	800.000	-0.023	-0.091
-727.923	287.002	-0.064	-0.119
-726.908	-58.414	-0.201	-0.089
-725.894	159.714	0.101	0.144
-724.879	-6.055	0.131	-0.092
-723.864	-175.495	0.238	-0.007
-722.850	800.000	-0.091	0.319
-721.835	-49.024	-0.156	-0.077
-720.821	-200.000	0.029	-0.295
-719.806	-145.968	-0.207	-0.019
-718.791	320.999	-0.238	-0.463
-717.777	-129.560	0.279	0.039
-716.762	651.394	-0.055	0.145
-715.748	-200.000	0.013	-0.162
-714.733	-88.714	-0.180	-0.055
-713.718	-155.846	-0.077	-0.005
-712.704	-136.658	0.159	0.019
-711.689	468.180	0.085	0.194
-710.675	-187.003	0.272	0.004
-709.660	-22.121	0.395	0.245
-708.645	217.871	0.148	-0.241
-707.631	726.570	0.013	-0.037
-706.616	-200.000	-0.016	0.128
-705.602	53.565	-0.202	0.199
-704.587	445.475	-0.086	0.192
-703.572	-73.591	0.464	-0.173
-702.558	74.033	-0.293	-0.314
-701.543	59.063	0.307	0.309
-700.529	-94.720	0.117	0.032
-699.514	238.860	0.152	0.258
-698.499	249.113	0.112	0.195
-697.485	-200.000	0.016	-0.125
-696.470	134.991	-0.030	-0.040
-695.456	-200.000	-0.005	0.247
-694.441	525.528	-0.113	0.273
-693.426	-68.602	0.185	0.073
-692.412	440.499	0.195	-0.437
-691.397	244.094	0.112	-0.192
-690.383	98.408	-0.065	0.076
-689.368	-200.000	-0.057	0.392
-688.354	596.737	-0.052	-0.133
-687.339	-159.802	-0.258	-0.014
-686.324	800.000	-0.019	0.077
-685.310	97.429	-0.056	0.066
-684.295	65.225	-0.017	0.017
-683.281	107.092	0.187	-0.227
-682.266	-171.842	0.333	-0.011
-681.251	31.625	0.171	0.151
-680.237	-200.000	0.042	0.379
-679.222	100.625	-0.131	0.156
-678.208	346.286	-0.041	0.082
-677.193	347.988	-0.111	0.224
-676.178	-200.000	0.002	-0.046
-675.164	582.156	-0.202	-0.507
-674.149	124.635	0.064	-0.083
-673.135	-14.751	-0.150	0.098
-672.120	18.758	-0.162	-0.133
-671.105	-200.000	-0.002	-0.160
-670.091	354.214	0.193	0.393
-669.076	54.422	0.225	-0.222
-668.062	-91.623	-0.194	-0.057
-667.047	53.526	0.063	0.062
-666.032	-146.094	0.247	-0.022
-665.018	125.412	-0.039	0.050
-664.003	-200.000	-0.042	0.257
-662.989	25.273	0.022	0.019
-661.974	232.420	-0.030	0.050
-660.959	800.000	-0.082	-0.240
-659.945	-144.622	-0.279	-0.026
-658.930	176.611	-0.045	-0.066
-657.916	82.635	0.133	-0.148
-656.901	-124.140	-0.261	0.042
-655.886	239.938	-0.108	0.184
-654.872	58.773	-0.155	-0.155
-653.857	-20.117	0.111	-0.070
-652.843	628.527	0.037	0.097
-651.828	-200.000	0.005	0.117
-650.814	-119.059	0.098	0.018
-649.799	70.632	-0.068	0.072
-648.784	344.326	0.094	0.189
-647.770	-157.590	-0.277	-0.017
-646.755	800.000	0.052	0.161
-645.741	-145.321	0.334	0.031
-644.726	-200.000	0.020	0.103
-643.711	367.847	0.131	0.270
-642.697	-127.684	-0.318	-0.047
-641.682	-177.223	-0.071	-0.002
-640.668	503.994	-0.091	-0.214
-639.653	-195.105	0.323	0.003
-638.638	52.737	0.063	0.062
-637.624	61.527	-0.067	0.068
-636.609	300.741	-0.132	0.249
-635.595	-53.688	0.093	-0.043
-634.580	-64.448	-0.555	0.230
-633.565	52.354	-0.050	-0.049
-632.551	800.000	0.046	-0.134
-631.536	-200.000	0.014	0.096
-630.522	-129.364	0.211	0.030
-629.507	211.635	0.019	0.030
-628.492	800.000	0.064	0.202
-627.478	-23.591	0.223	-0.136
-626.463	366.773	0.112	0.230
-625.449	-123.100	-0.122	0.020
-624.434	229.218	-0.050	0.083
-623.419	-200.000	0.010	-0.160
-622.405	-82.162	-0.178	-0.059
-621.390	-13.115	0.097	-0.064
-620.376	-200.000	0.026	-0.187
-619.361	8.638	0.443	0.340
-618.346	-77.621	0.141	-0.050
-617.332	471.636	0.098	-0.224
-616.317	767.259	0.090	-0.249
-615.303	136.246	-0.108	0.143
-614.288	-200.000	0.009	0.085
-613.273	-186.963	-0.198	0.003
-612.259	-125.735	-0.198	-0.031
-611.244	-81.808	0.188	-0.063
-610.230	-70.201	0.325	-0.126
-609.215	-63.001	-0.434	-0.183
-608.201	-176.641	0.283	-0.007
-607.186	0.873	0.258	-0.188
-606.171	336.262	0.084	0.165
-605.157	-49.200	0.121	0.059
-604.142	-69.486	-0.333	-0.130
-603.128	-200.000	0.018	-0.181
-602.113	104.969	-0.203	-0.244
-601.098	800.000	-0.055	0.163
-600.084	-200.000	-0.018	0.267
-599.069	-200.000	-0.007	-0.233
-598.055	235.222	-0.154	-0.260
-597.040	109.397	-0.183	-0.224
-596.025	-200.000	-0.055	0.352
-595.011	86.523	0.170	-0.191
-593.996	5.925	0.174	-0.132
-592.982	-200.000	0.034	-0.210
-591.967	-115.129	0.468	-0.090
-590.952	115.882	0.034	-0.043
-589.938	-54.534	0.237	-0.109
-588.923	-6.110	-0.100	-0.070
-587.909	378.121	-0.132	0.275
-586.894	-139.381	-0.216	-0.024
-585.879	-200.000	-0.092	-0.457
-584.865	-39.526	-0.118	-0.063
-583.850	674.067	-0.047	0.124
-582.836	542.511	-0.046	0.112
-581.821	-85.063	0.098	-0.031
-580.806	-200.000	0.028	-0.181
-579.792	252.068	0.096	0.166
-578.777	328.028	0.090	-0.176
-577.763	-79.691	-0.285	0.098
-576.748	800.000	0.024	-0.071
-575.733	-200.000	-0.049	-0.233
-574.719	57.782	-0.181	0.180
-573.704	-200.000	0.008	0.371
-572.690	118.973	0.031	-0.038
-571.675	-200.000	0.024	0.216
-570.661	-120.445	-0.345	0.060
-569.646	52.355	-0.197	-0.191
-568.631	737.344	0.121	-0.331
-567.617	800.000	-0.045	-0.141
-566.602	-200.000	0.011	-0.212
-565.588	18.307	-0.221	-0.180
-564.573	-200.000	-0.032	-0.228
-563.558	-62.724	-0.246	-0.104
-562.544	-200.000	0.020	0.473
-561.529	138.468	0.179	-0.239
-560.515	297.948	0.053	-0.100
-559.500	-31.180	-0.200	0.115
-558.485	-63.880	-0.230	-0.096
-557.471	-34.065	0.103	-0.058
-556.456	671.566	-0.103	-0.272
-555.442	-34.967	-0.226	-0.125
-554.427	103.028	-0.113	0.135
-553.412	151.089	-0.102	0.141
-552.398	187.460	-0.228	0.346
-551.383	90.883	0.142	-0.162
-550.369	-132.400	-0.225	-0.030
-549.354	155.996	0.144	0.201
-548.339	57.519	0.116	0.116
-547.325	-139.821	0.055	-0.006
-546.310	-200.000	0.066	-0.319
-545.296	-200.000	-0.024	-0.230
-544.281	-112.164	-0.197	0.040
-543.266	-127.509	-0.145	0.021
-542.252	800.000	0.025	0.081
-541.237	274.457	-0.115	-0.206
-540.223	800.000	-0.044	0.147
-539.208	-102.750	0.263	0.064
-538.193	-92.458	0.427	-0.122
-537.179	800.000	0.063	-0.226
-536.164	-110.042	0.221	-0.047
-535.150	-1.916	0.270	0.193
-534.135	-149.648	-0.255	0.020
-533.121	-137.209	0.249	0.029
-532.106	-200.000	0.059	0.333
-531.091	268.274	-0.131	-0.233
-530.077	209.658	-0.137	-0.218
-529.062	97.726	-0.112	0.131
-528.048	472.849	-0.171	0.392
-527.033	158.388	-0.124	-0.175
-526.018	33.069	0.204	-0.179
-525.004	48.945	0.128	-0.122
-523.989	-173.538	-0.447	-0.014
-522.975	413.307	-0.097	-0.210
-521.960	-27.183	0.157	0.093
-520.945	-200.000	0.030	-0.193
-519.931	31.950	0.049	0.043
-518.916	166.211	0.211	0.303
-517.902	800.000	0.068	-0.284
-516.887	-200.000	0.054	0.331
-515.872	191.443	-0.170	-0.259
-514.858	-200.000	-0.036	0.190
-513.843	42.827	0.172	-0.160
-512.829	-200.000	-0.007	0.045
-511.814	37.927	-0.186	0.168
-510.799	-200.000	-0.007	-0.269
-509.785	309.635	0.075	0.142
-508.770	314.032	0.108	-0.206
-507.756	-29.057	0.322	0.188
-506.741	-39.615	0.302	0.160
-505.726	-71.918	0.233	0.088
-504.712	292.874	-0.062	-0.116
-503.697	-169.589	-0.373	0.014
-502.683	-138.204	0.112	0.013
-501.668	800.000	0.067	0.215
-500.653	-200.000	-0.088	-0.411
-499.639	-37.702	-0.299	-0.162
-498.624	90.817	-0.050	-0.057
-497.610	800.000	-0.026	-0.090
-496.595	-20.789	-0.087	0.054
-495.581	-69.724	0.216	0.084
-494.566	4.488	-0.090	-0.067
-493.551	218.758	-0.045	-0.072
-492.537	-200.000	-0.024	-0.127
-491.522	-200.000	0.003	-0.078
-490.508	-88.202	-0.400	0.122
-489.493	11.530	-0.127	-0.099
-488.478	-35.437	-0.039	-0.022
-487.464	12.695	0.084	-0.066
-486.449	-45.789	0.045	-0.023
-485.435	38.797	-0.334	0.302
-484.420	172.219	0.039	-0.057
-483.405	800.000	-0.058	0.206
-482.391	-200.000	0.027	-0.267
-481.376	-59.519	-0.174	0.076
-480.362	-133.451	-0.348	-0.044
-479.347	-72.776	0.285	-0.107
-478.332	106.513	-0.063	-0.075
-477.318	691.736	0.040	0.106
-476.303	-200.000	0.046	0.301
-475.289	-3.672	0.120	-0.085
-474.274	800.000	0.083	0.319
-473.259	-105.151	-0.385	0.089
-472.245	-13.425	-0.205	-0.135
-471.230	800.000	-0.149	-0.436
-470.216	-137.722	-0.226	-0.026
-469.201	-18.966	-0.302	0.190
-468.186	382.189	-0.130	0.271
-467.172	-50.647	-0.331	0.158
-466.157	-64.975	-0.301	0.123
-465.143	251.508	-0.073	0.127
-464.128	28.520	0.217	0.186
-463.113	-200.000	-0.047	0.364
-462.099	-88.116	0.095	-0.029
-461.084	575.973	-0.068	0.167
-460.070	193.413	0.104	-0.160
-459.055	-46.903	-0.163	0.081
-458.040	216.023	0.067	-0.108
-457.026	-23.389	-0.038	-0.023
-456.011	71.000	0.162	0.170
-454.997	-200.000	0.060	0.325
-453.982	60.438	-0.076	-0.076
-452.968	-200.000	0.007	-0.092
-451.953	800.000	0.064	0.214
-450.938	800.000	-0.109	0.427
-449.924	-107.056	-0.171	0.038
-448.909	-17.969	0.147	0.093
-447.895	24.255	-0.083	0.069
-446.880	-152.473	-0.192	-0.014
-445.865	800.000	0.066	-0.257
-444.851	100.781	-0.231	0.272
-443.836	290.892	0.205	-0.378
-442.822	800.000	0.066	-0.211
-441.807	30.263	-0.293	0.253
-440.792	-9.658	-0.052	0.035
-439.778	-66.475	-0.341	-0.137
-438.763	-59.954	0.271	0.117
-437.749	120.803	-0.132	0.167
-436.734	353.946	0.151	0.305
-435.719	-133.941	-0.153	0.019
-434.705	-111.354	-0.161	-0.033
-433.690	61.000	0.063	-0.063
-432.676	-200.000	0.004	-0.175
-431.661	-46.473	-0.345	-0.172
-430.646	800.000	0.044	-0.166
-429.632	744.629	0.163	0.443
-428.617	800.000	0.109	-0.409
-427.603	-44.421	0.255	-0.129
-426.588	224.121	-0.176	0.288
-425.573	-200.000	0.015	-0.158
-424.559	-58.494	0.544	-0.239
-423.544	-71.071	0.137	0.052
-422.530	-32.682	0.164	0.093
-421.515	-20.965	-0.265	-0.164
-420.500	-200.000	-0.330	-0.001
-419.486	88.580	0.148	-0.166
-418.471	266.477	0.053	-0.093
-417.457	800.000	0.015	0.054
-416.442	-51.448	0.213	0.101
-415.428	-174.457	-0.295	-0.009
-414.413	111.557	-0.072	-0.088
-413.398	-77.987	-0.097	-0.034
-412.384	-134.915	-0.168	0.021
-411.369	-139.969	-0.025	-0.003
-410.355	-164.586	0.300	0.014
-409.340	790.428	-0.040	0.111
-408.325	-200.000	-0.010	0.126
-407.311	57.643	0.222	-0.220
-406.296	800.000	-0.061	0.192
-405.282	800.000	0.037	-0.140
-404.267	156.216	-0.267	-0.373
-403.252	618.939	0.069	0.176
-402.238	800.000	0.068	0.202
-401.223	111.427	0.192	0.234
-400.209	-157.452	-0.152	-0.009
-399.194	431.753	-0.154	0.336
-398.179	297.107	0.082	-0.152
-397.165	542.327	-0.101	-0.242
-396.150	46.648	-0.154	-0.145
-395.136	17.310	0.229	0.184
-394.121	-188.212	0.394	-0.005
-393.106	-40.324	0.106	-0.056
-392.092	149.230	0.102	-0.140
-391.077	-54.554	0.018	0.008
-390.063	800.000	0.071	-0.199
-389.048	109.796	-0.197	0.239
-388.033	380.847	-0.038	0.079
-387.019	43.854	-0.029	-0.027
-386.004	-103.247	-0.106	0.025
-384.990	-30.106	-0.242	-0.139
-383.975	-200.000	-0.018	-0.280
-382.960	-112.769	-0.285	0.057
-381.946	-2.184	-0.251	-0.178
-380.931	-129.135	0.340	-0.048
-379.917	9.400	-0.022	0.016
-378.902	-200.000	0.022	0.102
-377.888	-11.122	0.145	-0.096
-376.873	428.164	-0.118	0.257
-375.858	-84.262	-0.227	0.073
-374.844	37.379	0.125	-0.112
-373.829	-200.000	0.021	0.343
-372.815	-200.000	0.063	0.503
-371.800	46.836	-0.113	-0.106
-370.785	-200.000	-0.017	-0.153
-369.771	-40.083	0.267	0.141
-368.756	277.872	-0.081	0.145
-367.742	-200.000	0.034	-0.185
-366.727	39.703	-0.347	-0.314
-365.712	-36.182	-0.200	-0.109
-364.698	-200.000	0.034	-0.188
-363.683	246.089	-0.030	-0.051
-362.669	-119.201	-0.238	0.042
-361.654	209.334	0.079	0.125
-360.639	-104.553	0.076	-0.018
-359.625	-200.000	0.017	0.247
-358.610	259.158	0.065	-0.113
-357.596	151.053	0.227	0.312
-356.581	-11.479	-0.295	0.196
-355.566	69.160	-0.063	-0.066
-354.552	-200.000	0.024	0.179
-353.537	800.000	0.041	-0.115
-352.523	800.000	0.103	-0.380
-351.508	-83.109	0.319	0.104
-350.493	-18.375	0.250	0.158
-349.479	-30.995	-0.458	0.261
-348.464	-37.031	-0.346	0.187
-347.450	158.760	0.084	0.118
-346.435	137.473	0.052	-0.069
-345.420	6.023	-0.289	-0.216
-344.406	687.135	-0.058	-0.154
-343.391	800.000	0.143	-0.421
-342.377	-40.749	0.272	0.142
-341.362	-79.781	0.170	-0.058
-340.348	-147.997	0.249	-0.021
-339.333	560.778	0.016	-0.039
-338.318	-76.447	0.144	0.051
-337.304	53.590	0.119	-0.115
-336.289	-200.000	0.029	0.138
-335.275	-200.000	-0.033	0.272
-334.260	-76.955	0.269	0.095
-333.245	8.742	0.126	0.096
-332.231	85.625	0.182	0.201
-331.216	105.247	0.298	0.355
-330.202	154.944	0.098	-0.135
-329.187	-200.000	0.001	-0.191
-328.172	242.243	-0.104	-0.175
-327.158	-16.570	-0.287	-0.183
-326.143	199.292	-0.111	0.172
-325.129	-64.375	-0.242	0.099
-324.114	-83.987	-0.387	0.124
-323.099	100.503	-0.112	0.131
-322.085	-200.000	0.044	-0.369
-321.070	-41.205	0.338	0.176
-320.056	-12.822	0.319	0.209
-319.041	-200.000	0.016	0.180
-318.026	-108.245	0.146	-0.032
-317.012	52.856	0.192	0.185
-315.997	-200.000	-0.030	-0.322
-314.983	-200.000	-0.091	0.405
-313.968	754.286	0.225	0.612
-312.953	-22.221	0.045	-0.027
-311.939	-200.000	-0.008	0.037
-310.924	-109.444	-0.092	0.020
-309.910	794.509	-0.047	0.130
-308.895	-112.567	-0.371	0.075
-307.880	-46.625	0.039	0.019
-306.866	35.773	-0.085	-0.076
-305.851	281.275	-0.093	-0.168
-304.837	-81.835	-0.266	-0.088
-303.822	-109.697	-0.240	0.051
-302.807	213.320	0.122	-0.194
-301.793	103.653	-0.058	0.068
-300.778	199.675	0.080	-0.123
-299.764	-127.471	-0.346	-0.051
-298.749	414.552	-0.019	0.041
-297.735	-200.000	-0.004	-0.048
-296.720	-32.959	-0.099	0.055
-295.705	-200.000	0.016	-0.249
-294.691	800.000	-0.094	-0.407
-293.676	-45.966	0.353	0.175
-292.662	-200.000	-0.005	0.039
-291.647	-200.000	0.002	0.024
-290.632	252.825	0.218	-0.374
-289.618	-27.450	0.250	-0.146
-288.603	-178.468	-0.304	0.007
-287.589	-102.115	0.232	0.056
-286.574	3.058	0.282	0.206
-285.559	-200.000	0.027	0.148
-284.545	-200.000	0.051	-0.248
-283.530	-135.142	-0.290	-0.035
-282.516	-200.000	-0.045	-0.312
-281.501	-132.627	-0.182	0.023
-280.486	-84.609	0.146	-0.046
-279.472	-196.537	0.148	-0.001
-278.457	-200.000	0.008	0.374
-277.443	736.116	0.047	-0.126
-276.428	-55.317	-0.238	-0.108
-275.413	755.697	0.110	-0.299
-274.399	-200.000	0.003	-0.100
-273.384	36.583	-0.085	-0.076
-272.370	-200.000	-0.029	-0.274
-271.355	-200.000	-0.008	-0.412
-270.340	102.801	0.094	-0.110
-269.326	-200.000	-0.031	-0.289
-268.311	119.179	0.052	0.064
-267.297	70.772	0.092	0.096
-266.282	800.000	0.153	0.475
-265.267	35.969	0.161	0.142
-264.253	-21.565	-0.044	0.027
-263.238	-22.141	0.347	0.212
-262.224	-200.000	-0.036	0.230
-261.209	-200.000	0.000	-0.302
-260.195	500.428	-0.185	-0.429
-259.180	-200.000	0.025	-0.298
-258.165	-200.000	0.053	0.237
-257.151	435.638	-0.113	0.247
-256.136	-42.252	-0.241	-0.124
-255.122	-48.893	-0.122	-0.059
-254.107	-33.569	0.152	0.084
-253.092	-47.950	-0.210	-0.102
-252.078	66.996	0.118	-0.121
-251.063	124.215	0.306	-0.386
-250.049	-22.011	0.114	0.070
-249.034	58.631	0.068	-0.067
-248.019	15.439	0.272	-0.215
-247.005	-68.093	-0.137	-0.054
-245.990	800.000	0.102	-0.304
-244.976	-39.038	0.418	0.221
-243.961	-200.000	0.004	-0.093
-242.946	100.166	0.165	0.192
-241.932	-200.000	-0.002	0.071
-240.917	40.721	0.288	0.261
-239.903	-200.000	-0.014	-0.141
-238.888	425.445	0.028	-0.061
-237.873	-154.487	0.351	-0.024
-236.859	483.772	0.039	-0.089
-235.844	-168.561	0.097	-0.004
-234.830	-126.780	0.234	-0.035
-233.815	-80.056	0.301	0.101
-232.800	33.649	0.263	-0.230
-231.786	-62.537	0.366	-0.153
-230.771	-196.727	0.128	-0.001
-229.757	-24.782	-0.143	-0.086
-228.742	-117.769	-0.263	-0.047
-227.727	200.841	-0.123	0.189
-226.713	-175.074	-0.102	0.003
-225.698	564.216	-0.042	-0.102
-224.684	103.977	0.179	-0.211
-223.669	343.389	-0.092	0.180
-222.655	-200.000	-0.015	-0.141
-221.640	214.567	-0.076	-0.121
-220.625	-200.000	-0.004	-0.044
-219.611	-18.328	-0.339	0.213
-218.596	-12.947	-0.239	0.156
-217.582	377.547	0.072	0.147
-216.567	-33.255	0.203	0.113
-215.552	138.964	0.194	0.256
-214.538	-10.097	-0.115	0.077
-213.523	-200.000	-0.035	0.363
-212.509	20.097	-0.085	-0.069
-211.494	-93.469	0.247	0.069
-210.479	-163.329	0.137	0.007
-209.465	-96.719	0.123	0.032
-208.450	-140.797	0.471	-0.049
-207.436	163.744	0.157	-0.222
-206.421	-111.086	-0.170	0.035
-205.406	-200.000	0.018	-0.157
-204.392	800.000	-0.048	-0.183
-203.377	388.611	-0.092	0.192
-202.363	-39.519	-0.195	-0.103
-201.348	-81.928	0.091	-0.030
-200.333	-98.565	0.377	0.097
-199.319	-200.000	-0.024	0.164
-198.304	71.166	-0.054	-0.056
-197.290	438.339	0.136	-0.297
-196.275	72.876	-0.089	-0.093
-195.260	108.088	-0.102	-0.122
-194.246	-86.071	-0.388	0.120
-193.231	23.768	-0.100	0.083
-192.217	96.431	0.331	0.380
-191.202	-106.425	0.186	-0.042
-190.187	7.456	0.121	-0.091
-189.173	547.418	-0.007	-0.018
-188.158	800.000	0.018	0.073
-187.144	585.548	0.068	0.167
-186.129	235.600	-0.177	-0.294
-185.114	-105.660	-0.312	-0.071
-184.100	506.969	-0.076	-0.176
-183.085	-153.552	0.216	-0.015
-182.071	301.439	0.193	0.357
-181.056	15.771	-0.061	0.048
-180.042	800.000	-0.068	0.279
-179.027	-200.000	-0.021	-0.121
-178.012	-19.031	0.225	-0.140
-176.998	-200.000	-0.055	-0.279
-175.983	-30.185	-0.150	-0.086
-174.969	82.045	-0.241	-0.262
-173.954	-200.000	0.023	0.289
-172.939	-191.727	0.073	0.001
-171.925	81.319	-0.045	0.049
-170.910	237.704	0.151	0.251
-169.896	800.000	0.031	0.105
-168.881	-29.134	0.062	-0.036
-167.866	227.035	-0.154	-0.250
-166.852	-200.000	-0.062	0.291
-165.837	-151.995	0.148	-0.011
-164.823	-56.118	0.033	-0.015
-163.808	-179.382	0.099	-0.002
-162.793	-108.989	0.156	-0.033
-161.779	35.316	-0.192	0.168
-160.764	10.579	0.189	-0.144
-159.750	-200.000	-0.491	-0.001
-158.735	123.385	0.160	-0.201
-157.720	-135.672	-0.045	0.005
-156.706	-200.000	0.089	0.453
-155.691	499.948	0.211	0.488
-154.677	-200.000	0.003	-0.096
-153.662	-200.000	0.018	0.200
-152.647	195.132	-0.122	0.185
-151.633	427.479	-0.084	0.181
-150.618	800.000	0.065	0.222
-149.604	367.165	-0.164	-0.332
-148.589	-142.389	0.128	-0.013
-147.574	189.254	-0.088	0.131
-146.560	-200.000	-0.046	0.458
-145.545	-200.000	-0.058	0.277
-144.531	41.700	0.099	0.090
-143.516	64.942	-0.229	-0.232
-142.502	800.000	-0.068	0.214
-141.487	432.063	-0.109	-0.236
-140.472	-152.631	0.465	-0.033
-139.458	-80.651	0.152	0.051
-138.443	800.000	0.130	0.411
-137.429	-47.839	-0.255	-0.124
-136.414	56.484	0.116	0.113
-135.399	0.512	-0.039	0.028
-134.385	-118.585	-0.088	0.016
-133.370	227.215	0.223	0.363
-132.356	-200.000	0.006	0.170
-131.341	-97.177	0.187	0.049
-130.326	556.984	0.046	-0.112
-129.312	-200.000	-0.036	0.206
-128.297	95.866	0.101	-0.116
-127.283	-105.296	0.035	-0.008
-126.268	-43.722	-0.125	0.063
-125.253	800.000	-0.027	-0.101
-124.239	546.361	-0.074	0.176
-123.224	56.534	-0.267	0.260
-122.210	662.220	-0.108	0.278
