DTS Sentinel unit serial number:	SN413079Multiplexer serial number:	ORYXHardware model number:	OX4-SRSoftware version number:	ORYX F/W v4.00 Oryx Data Collector v3.7.2.0data status	okinstallation	princeton_trtdifferential loss correction	single-endedforward channel	channel 4reverse channel	N/Adate	2019/09/11time	00:27:10forward acquisition time	60.00reverse acquisition time	0.00gamma	496.2192k internal	0.2318k external	0.2318temperature offset calibration	0.9949default loss term (dB/km)	0.3790temperature slope calibration	1.0000multiplexer offset coefficient	1.0000multiplexer slope coefficient	1.0000fibre end	0.00T internal ref (°C)	29.27T ext. ref 1 (°C)	-0.31T ext. ref 2 (°C)	22.85length (m)	temperature (°C)	Stokes	anti-Stokes-747.200	60.083	0.226	0.226
-746.185	-200.000	-0.008	0.249
-745.171	-171.961	0.216	0.007
-744.156	-136.711	-0.223	0.026
-743.142	-146.632	-0.197	0.017
-742.127	-113.833	-0.195	0.038
-741.112	184.877	0.074	0.111
-740.098	800.000	0.024	-0.092
-739.083	469.602	-0.081	0.185
-738.069	-141.981	-0.150	-0.015
-737.054	-5.857	-0.117	0.081
-736.039	-132.864	-0.191	-0.025
-735.025	-116.395	-0.162	-0.030
-734.010	-200.000	0.025	-0.352
-732.996	-158.052	-0.376	-0.022
-731.981	67.323	0.018	-0.019
-730.966	9.441	-0.202	-0.155
-729.952	800.000	-0.044	0.130
-728.937	484.166	-0.092	-0.211
-727.923	-142.629	0.074	0.007
-726.908	162.446	0.051	-0.072
-725.894	-51.949	-0.085	-0.040
-724.879	541.401	-0.143	-0.344
-723.864	-183.284	-0.112	-0.002
-722.850	22.216	-0.241	-0.199
-721.835	-4.757	-0.181	0.127
-720.821	800.000	-0.056	-0.220
-719.806	31.111	0.188	0.163
-718.791	45.321	-0.210	0.196
-717.777	19.450	0.300	-0.244
-716.762	130.634	-0.111	0.145
-715.748	-200.000	-0.200	0.001
-714.733	800.000	0.060	-0.179
-713.718	63.970	0.241	-0.245
-712.704	150.713	0.072	0.099
-711.689	13.094	0.251	-0.196
-710.675	-200.000	0.029	0.141
-709.660	658.932	0.089	-0.231
-708.645	-200.000	-0.002	-0.437
-707.631	-19.714	0.262	0.164
-706.616	-140.707	-0.285	0.030
-705.602	388.086	0.034	0.071
-704.587	288.472	0.141	-0.258
-703.572	-200.000	0.068	0.310
-702.558	182.643	0.153	0.228
-701.543	-120.540	-0.146	0.025
-700.529	800.000	0.099	-0.303
-699.514	-24.182	-0.178	0.107
-698.499	-94.112	0.238	-0.066
-697.485	169.677	0.262	0.378
-696.470	64.214	-0.226	-0.230
-695.456	-22.031	0.171	0.105
-694.441	747.818	-0.049	-0.134
-693.426	-38.785	0.042	-0.022
-692.412	428.751	-0.091	0.198
-691.397	-200.000	-0.006	0.282
-690.383	223.156	0.067	0.110
-689.368	9.610	0.187	0.143
-688.354	-200.000	0.021	0.360
-687.339	80.573	-0.109	-0.118
-686.324	-145.907	0.419	-0.038
-685.310	-59.412	0.270	-0.117
-684.295	-179.729	-0.197	0.004
-683.281	61.433	0.045	0.045
-682.266	139.498	-0.112	-0.148
-681.251	300.705	-0.211	-0.392
-680.237	-200.000	-0.006	0.247
-679.222	-48.132	0.187	0.091
-678.208	-113.243	-0.243	-0.048
-677.193	-122.144	0.247	-0.041
-676.178	183.261	-0.087	-0.130
-675.164	167.238	0.119	-0.170
-674.149	-96.915	0.055	0.015
-673.135	-157.173	0.308	-0.019
-672.120	-29.108	0.327	-0.189
-671.105	-182.982	-0.458	0.008
-670.091	-91.056	-0.106	0.031
-669.076	32.882	0.078	0.069
-668.062	-32.009	-0.056	0.032
-667.047	-133.642	-0.280	0.035
-666.032	-200.000	0.073	0.330
-665.018	-200.000	-0.006	-0.204
-664.003	-27.528	0.229	0.134
-662.989	800.000	-0.100	0.441
-661.974	45.660	-0.099	-0.092
-660.959	800.000	0.041	0.119
-659.945	12.432	-0.400	0.311
-658.930	342.921	-0.060	-0.119
-657.916	800.000	-0.044	0.129
-656.901	233.313	0.122	0.202
-655.886	-24.711	-0.280	-0.168
-654.872	151.122	-0.128	-0.176
-653.857	-134.684	-0.262	-0.032
-652.843	4.951	-0.101	0.075
-651.828	-30.859	-0.330	0.188
-650.814	-159.122	0.181	-0.010
-649.799	-40.916	-0.322	0.168
-648.784	-73.421	-0.351	0.129
-647.770	-20.016	0.206	-0.128
-646.755	-113.366	-0.372	-0.074
-645.741	75.046	0.147	-0.156
-644.726	-180.597	0.246	-0.005
-643.711	152.648	-0.040	0.055
-642.697	-39.189	-0.155	-0.082
-641.682	-52.277	0.029	-0.014
-640.668	-8.470	-0.248	-0.168
-639.653	-96.468	-0.075	0.020
-638.638	55.692	0.332	-0.324
-637.624	-152.263	0.250	0.018
-636.609	-71.649	0.323	0.122
-635.595	-30.911	0.237	0.135
-634.580	-62.335	-0.103	0.043
-633.565	-71.688	0.150	-0.056
-632.551	-4.194	-0.476	0.332
-631.536	800.000	-0.129	-0.373
-630.522	-150.828	-0.086	-0.007
-629.507	800.000	-0.065	-0.261
-628.492	-4.207	0.134	-0.094
-627.478	-118.972	-0.018	-0.003
-626.463	-200.000	-0.268	-0.001
-625.449	-120.576	-0.247	-0.042
-624.434	-86.057	-0.173	-0.054
-623.419	-13.772	0.131	-0.086
-622.405	187.787	0.063	-0.095
-621.390	-13.049	0.136	-0.089
-620.376	800.000	-0.007	-0.029
-619.361	-60.761	-0.141	0.060
-618.346	-39.580	0.239	-0.126
-617.332	-57.195	-0.210	0.093
-616.317	-88.613	-0.342	0.103
-615.303	-128.552	0.144	0.021
-614.288	-200.000	-0.037	-0.174
-613.273	-200.000	0.038	-0.392
-612.259	-146.533	-0.089	-0.008
-611.244	152.052	0.130	0.179
-610.230	-114.006	-0.139	0.027
-609.215	-200.000	0.016	-0.421
-608.201	-93.583	-0.090	-0.025
-607.186	572.496	-0.046	0.114
-606.171	-53.879	-0.268	0.123
-605.157	52.339	-0.270	-0.259
-604.142	-177.171	-0.169	0.004
-603.128	149.525	0.116	-0.158
-602.113	-200.000	0.028	0.138
-601.098	395.207	0.079	0.166
-600.084	368.732	-0.105	0.213
-599.069	800.000	-0.032	0.099
-598.055	371.793	0.161	0.329
-597.040	2.883	-0.328	0.240
-596.025	-36.129	0.099	0.054
-595.011	-140.741	-0.211	-0.022
-593.996	136.249	0.167	-0.219
-592.982	161.571	0.139	0.195
-591.967	270.791	0.102	0.180
-590.952	-33.558	-0.105	-0.058
-589.938	-66.771	0.162	-0.065
-588.923	800.000	0.068	-0.216
-587.909	-157.618	-0.154	-0.009
-586.894	-74.341	0.152	-0.055
-585.879	-174.583	-0.241	0.007
-584.865	166.977	-0.083	-0.118
-583.850	-200.000	-0.063	0.281
-582.836	-200.000	0.002	-0.051
-581.821	-200.000	-0.052	-0.442
-580.806	14.374	-0.185	0.145
-579.792	386.959	0.095	0.197
-578.777	-200.000	0.031	0.144
-577.763	96.730	-0.043	-0.049
-576.748	358.154	-0.036	0.073
-575.733	148.457	0.133	0.180
-574.719	-77.687	-0.176	-0.061
-573.704	16.105	-0.312	-0.247
-572.690	190.909	0.170	-0.256
-571.675	10.245	0.058	0.045
-570.661	-34.065	0.056	0.031
-569.646	57.141	0.145	-0.143
-568.631	392.649	0.061	-0.127
-567.617	-136.316	0.375	-0.044
-566.602	-91.337	-0.081	0.023
-565.588	-200.000	0.011	0.187
-564.573	-5.496	-0.049	-0.034
-563.558	-79.542	0.200	-0.068
-562.544	-75.022	-0.160	-0.058
-561.529	-46.694	-0.119	0.058
-560.515	800.000	0.071	-0.209
-559.500	800.000	-0.091	0.255
-558.485	117.846	0.341	0.421
-557.471	-88.631	0.291	-0.087
-556.456	-38.976	0.253	0.134
-555.442	17.018	-0.100	-0.080
-554.427	-95.708	0.171	-0.046
-553.412	581.364	-0.106	-0.260
-552.398	29.355	0.152	0.130
-551.383	-200.000	0.091	-0.405
-550.369	10.976	0.082	-0.063
-549.354	105.582	-0.177	-0.210
-548.339	185.792	0.126	0.188
-547.325	-99.482	0.190	-0.048
-546.310	747.326	0.117	-0.317
-545.296	-138.782	-0.376	0.041
-544.281	41.490	0.298	-0.271
-543.266	-200.000	-0.022	0.162
-542.252	-77.248	0.199	0.069
-541.237	42.517	0.131	-0.119
-540.223	-82.979	0.072	-0.023
-539.208	800.000	0.040	-0.134
-538.193	50.147	0.126	0.119
-537.179	-136.923	-0.224	-0.026
-536.164	-200.000	0.007	-0.052
-535.150	-200.000	0.022	0.301
-534.135	316.196	-0.089	0.169
-533.121	-200.000	0.027	-0.382
-532.106	-125.344	-0.116	0.018
-531.091	12.286	-0.084	-0.065
-530.077	-200.000	0.068	-0.381
-529.062	141.115	-0.187	0.249
-528.048	-200.000	0.006	-0.056
-527.033	-83.900	0.156	0.050
-526.018	-200.000	0.011	-0.100
-525.004	467.863	-0.062	0.139
-523.989	578.434	0.100	-0.245
-522.975	427.117	-0.034	0.075
-521.960	64.894	0.068	0.069
-520.945	349.852	-0.203	-0.403
-519.931	-200.000	-0.003	0.047
-518.916	-81.490	-0.135	0.045
-517.902	-200.000	-0.034	-0.191
-516.887	-38.159	-0.326	-0.173
-515.872	-165.739	-0.178	-0.008
-514.858	131.094	0.064	0.082
-513.843	-200.000	0.014	0.126
-512.829	-200.000	0.034	-0.247
-511.814	-6.259	-0.150	0.103
-510.799	-72.623	-0.349	-0.129
-509.785	800.000	-0.057	0.218
-508.770	-168.661	0.271	0.010
-507.756	-56.678	-0.181	-0.081
-506.741	270.071	-0.082	0.144
-505.726	116.491	-0.321	-0.395
-504.712	-144.729	0.153	-0.014
-503.697	-148.954	-0.205	0.017
-502.683	4.824	0.114	0.084
-501.668	-200.000	0.023	-0.127
-500.653	155.825	0.093	0.129
-499.639	-105.509	0.257	0.059
-498.624	284.664	0.160	0.288
-497.610	4.674	-0.216	-0.159
-496.595	-200.000	-0.015	-0.203
-495.581	307.020	0.106	0.199
-494.566	-129.033	-0.370	-0.052
-493.551	348.409	-0.058	0.115
-492.537	-18.735	0.224	-0.140
-491.522	523.044	0.071	-0.168
-490.508	-134.959	0.116	0.014
-489.493	800.000	0.062	0.213
-488.478	-130.238	-0.250	-0.034
-487.464	-200.000	0.018	-0.262
-486.449	557.794	0.039	0.094
-485.435	-1.054	-0.123	-0.087
-484.420	-40.873	0.302	-0.157
-483.405	144.826	-0.177	0.237
-482.391	-75.913	-0.280	0.099
-481.376	-184.685	-0.175	-0.003
-480.362	-200.000	-0.027	0.318
-479.347	535.408	0.077	-0.184
-478.332	-158.427	0.139	-0.008
-477.318	-162.793	-0.239	-0.012
-476.303	226.411	0.110	0.180
-475.289	489.024	0.091	-0.208
-474.274	-85.863	-0.070	0.022
-473.259	800.000	0.065	0.251
-472.245	-200.000	0.040	0.181
-471.230	-121.565	0.095	-0.016
-470.216	-22.577	-0.131	-0.079
-469.201	-10.073	-0.323	0.215
-468.186	-200.000	-0.056	0.452
-467.172	-200.000	0.014	0.276
-466.157	65.885	-0.136	0.138
-465.143	56.097	0.127	0.123
-464.128	-169.513	0.380	0.014
-463.113	-200.000	0.002	-0.126
-462.099	-200.000	-0.006	-0.040
-461.084	-144.377	-0.186	-0.017
-460.070	800.000	0.063	-0.191
-459.055	-72.662	0.190	0.070
-458.040	87.755	-0.094	0.104
-457.026	800.000	-0.098	0.300
-456.011	-191.344	-0.413	-0.004
-454.997	-114.720	0.445	0.085
-453.982	-8.602	0.280	-0.188
-452.968	211.043	-0.180	-0.283
-451.953	-11.266	-0.055	-0.036
-450.938	-135.406	0.138	-0.016
-449.924	-21.514	-0.076	0.046
-448.909	800.000	-0.072	-0.254
-447.895	-200.000	0.011	0.174
-446.880	-77.900	0.282	-0.097
-445.865	-54.070	-0.184	0.084
-444.851	633.140	-0.058	0.147
-443.836	224.043	0.248	0.400
-442.822	47.794	-0.243	0.227
-441.807	94.893	-0.067	-0.077
-440.792	-106.322	0.227	0.051
-439.778	-76.306	-0.079	-0.028
-438.763	-164.475	0.078	0.004
-437.749	209.290	0.072	-0.112
-436.734	-9.899	-0.161	0.107
-435.719	-67.880	-0.307	-0.120
-434.705	-105.376	-0.294	-0.067
-433.690	800.000	0.048	-0.154
-432.676	-200.000	0.007	-0.121
-431.661	-76.809	-0.195	-0.068
-430.646	-16.717	0.134	0.085
-429.632	-200.000	0.002	-0.198
-428.617	275.106	-0.074	-0.130
-427.603	116.309	0.150	-0.184
-426.588	-200.000	0.023	-0.111
-425.573	-200.000	0.067	-0.329
-424.559	-141.706	-0.282	0.028
-423.544	-128.243	0.105	0.015
-422.530	-200.000	-0.046	-0.242
-421.515	-200.000	0.036	-0.224
-420.500	-52.437	-0.266	0.123
-419.486	-122.369	0.528	0.086
-418.471	111.807	0.093	0.113
-417.457	404.006	0.045	0.095
-416.442	-125.248	-0.305	0.047
-415.428	-200.000	0.016	0.114
-414.413	-200.000	-0.011	-0.070
-413.398	248.354	-0.148	-0.250
-412.384	373.327	-0.175	0.356
-411.369	-200.000	0.032	0.288
-410.355	-200.000	0.009	0.139
-409.340	134.213	-0.066	0.086
-408.325	-160.404	-0.398	0.021
-407.311	-131.136	-0.415	-0.055
-406.296	89.529	0.257	-0.286
-405.282	-200.000	0.021	0.257
-404.267	76.384	0.241	0.256
-403.252	-200.000	0.020	-0.241
-402.238	-200.000	-0.020	0.142
-401.223	-70.555	-0.109	0.041
-400.209	183.412	0.126	0.187
-399.194	-27.009	0.026	0.015
-398.179	-113.152	-0.114	0.023
-397.165	211.962	0.110	-0.173
-396.150	-170.772	-0.337	-0.012
-395.136	-64.320	0.381	0.155
-394.121	-5.186	0.185	0.127
-393.106	-200.000	-0.046	-0.204
-392.092	-164.096	-0.109	0.005
-391.077	142.125	0.106	-0.140
-390.063	102.717	-0.276	0.323
-389.048	76.599	0.170	-0.179
-388.033	294.717	-0.279	-0.509
-387.019	2.854	0.128	-0.092
-386.004	-183.213	0.278	0.005
-384.990	-200.000	0.015	-0.473
-383.975	376.080	-0.028	0.057
-382.960	131.311	0.209	0.268
-381.946	132.789	0.179	0.230
-380.931	107.987	-0.163	-0.193
-379.917	137.989	0.035	-0.045
-378.902	72.628	0.308	0.320
-377.888	388.472	-0.159	-0.328
-376.873	-31.935	0.319	-0.178
-375.858	-134.690	-0.184	-0.022
-374.844	221.413	0.111	-0.177
-373.829	768.696	-0.106	0.287
-372.815	-189.828	0.371	-0.004
-371.800	238.835	0.078	0.129
-370.785	-39.582	-0.147	-0.077
-369.771	79.237	-0.058	0.062
-368.756	-190.337	0.222	-0.002
-367.742	800.000	-0.061	-0.234
-366.727	204.862	-0.198	0.306
-365.712	193.759	0.030	0.045
-364.698	-53.830	-0.240	0.109
-363.683	-200.000	0.054	0.326
-362.669	86.059	-0.115	-0.126
-361.654	-26.537	-0.230	0.134
-360.639	293.570	-0.102	-0.186
-359.625	462.203	0.105	0.235
-358.610	-94.041	0.177	-0.049
-357.596	39.613	0.169	-0.151
-356.581	-22.185	-0.238	-0.144
-355.566	162.403	0.123	-0.172
-354.552	-200.000	0.014	0.368
-353.537	251.522	0.157	0.267
-352.523	-120.809	0.216	-0.036
-351.508	-152.810	0.302	-0.021
-350.493	-36.677	-0.316	-0.169
-349.479	28.361	0.100	-0.084
-348.464	25.043	0.151	-0.125
-347.450	-124.595	-0.097	-0.015
-346.435	-140.751	0.335	0.034
-345.420	24.785	-0.160	0.132
-344.406	-60.113	-0.202	0.086
-343.391	225.980	-0.175	0.282
-342.377	800.000	-0.086	0.245
-341.362	-111.405	0.056	0.011
-340.348	-130.435	-0.158	0.021
-339.333	19.250	-0.070	0.056
-338.318	-56.951	-0.067	0.029
-337.304	-200.000	-0.001	0.131
-336.289	-141.467	0.220	0.022
-335.275	-30.123	0.242	-0.137
-334.260	-200.000	-0.010	-0.092
-333.245	-75.935	0.075	-0.026
-332.231	277.853	0.090	-0.159
-331.216	25.821	-0.414	0.344
-330.202	30.147	0.245	0.208
-329.187	-200.000	-0.008	0.220
-328.172	-17.194	0.204	0.128
-327.158	-200.000	-0.006	0.270
-326.143	90.884	-0.047	0.053
-325.129	11.794	-0.377	0.288
-324.114	-144.803	-0.075	-0.007
-323.099	-200.000	-0.001	0.064
-322.085	-200.000	0.023	-0.107
-321.070	-80.517	0.175	0.058
-320.056	187.574	0.083	0.123
-319.041	245.552	0.044	-0.074
-318.026	-62.610	-0.263	-0.109
-317.012	16.222	-0.273	-0.215
-315.997	318.401	-0.148	0.279
-314.983	36.244	0.301	0.264
-313.968	-141.497	0.187	0.019
-312.953	27.351	-0.076	0.064
-311.939	-113.606	-0.208	-0.040
-310.924	-61.531	-0.255	-0.107
-309.910	-200.000	-0.014	-0.074
-308.895	173.145	0.060	-0.086
-307.880	151.336	-0.200	0.271
-306.866	503.443	0.028	-0.063
-305.851	322.032	-0.063	0.118
-304.837	800.000	-0.120	-0.486
-303.822	428.860	0.032	-0.069
-302.807	265.891	-0.172	-0.298
-301.793	-134.359	0.168	-0.021
-300.778	-200.000	0.009	-0.211
-299.764	-200.000	-0.031	0.338
-298.749	-50.372	-0.034	-0.016
-297.735	411.060	0.062	0.130
-296.720	800.000	-0.046	-0.155
-295.705	449.598	0.074	-0.162
-294.691	-81.978	0.203	-0.066
-293.676	-94.280	0.272	-0.074
-292.662	440.712	-0.081	-0.175
-291.647	93.154	-0.212	-0.238
-290.632	-200.000	-0.087	-0.520
-289.618	-116.321	-0.174	0.032
-288.603	-14.107	-0.081	0.052
-287.589	-60.644	-0.042	0.018
-286.574	-118.108	0.141	0.025
-285.559	-94.340	0.457	0.124
-284.545	-200.000	0.018	0.166
-283.530	135.333	-0.056	0.072
-282.516	-200.000	-0.024	0.221
-281.501	58.905	0.262	-0.256
-280.486	-5.713	-0.170	0.116
-279.472	-93.774	-0.251	-0.069
-278.457	-200.000	-0.006	-0.053
-277.443	-200.000	0.021	-0.163
-276.428	55.722	-0.044	0.043
-275.413	-69.257	-0.285	-0.109
-274.399	54.786	0.209	-0.201
-273.384	800.000	0.018	-0.051
-272.370	171.715	-0.063	-0.090
-271.355	-200.000	0.043	0.290
-270.340	150.153	-0.056	-0.076
-269.326	440.226	0.055	0.120
-268.311	800.000	0.036	0.127
-267.297	556.535	-0.055	0.132
-266.282	103.900	0.262	0.306
-265.267	150.733	-0.174	0.235
-264.253	-200.000	-0.000	0.081
-263.238	-200.000	-0.017	-0.082
-262.224	-37.583	-0.020	0.011
-261.209	434.170	-0.143	-0.308
-260.195	800.000	-0.026	0.087
-259.180	800.000	0.028	-0.085
-258.165	683.307	-0.023	0.059
-257.151	-200.000	-0.007	0.195
-256.136	-200.000	0.014	0.161
-255.122	-132.208	0.233	0.030
-254.107	-34.281	-0.089	-0.048
-253.092	91.913	0.130	0.146
-252.078	-200.000	-0.053	-0.275
-251.063	52.877	0.332	0.315
-250.049	333.710	0.082	-0.157
-249.034	-200.000	0.004	0.216
-248.019	555.306	0.175	-0.418
-247.005	-106.558	0.255	0.056
-245.990	-130.100	-0.193	-0.026
-244.976	-200.000	-0.006	0.264
-243.961	14.957	-0.140	0.109
-242.946	-200.000	-0.020	0.263
-241.932	-60.313	-0.186	-0.078
-240.917	-14.285	0.225	-0.144
-239.903	38.535	0.075	-0.066
-238.888	337.386	0.057	-0.111
-237.873	-200.000	0.045	0.295
-236.859	15.510	0.060	-0.047
-235.844	72.845	-0.028	0.029
-234.830	-200.000	-0.012	0.099
-233.815	-156.361	0.215	-0.013
-232.800	462.056	-0.134	0.297
-231.786	-117.478	0.217	-0.039
-230.771	-164.729	-0.211	0.009
-229.757	-200.000	0.005	0.120
-228.742	25.839	-0.159	-0.131
-227.727	-200.000	0.020	0.087
-226.713	-20.375	-0.172	0.105
-225.698	193.869	-0.036	-0.055
-224.684	-200.000	0.042	0.260
-223.669	800.000	0.017	0.052
-222.655	-36.388	0.164	0.087
-221.640	619.772	0.124	-0.310
-220.625	-200.000	0.007	0.231
-219.611	-70.373	0.067	0.025
-218.596	75.224	-0.103	-0.108
-217.582	19.166	0.116	-0.092
-216.567	-200.000	-0.008	0.037
-215.552	-113.846	0.455	0.088
-214.538	267.876	0.170	-0.295
-213.523	-17.185	0.102	0.064
-212.509	800.000	-0.025	-0.073
-211.494	149.701	0.019	0.026
-210.479	300.792	0.101	-0.185
-209.465	195.550	0.088	-0.133
-208.450	56.038	0.129	-0.124
-207.436	-70.200	0.126	-0.047
-206.421	319.996	0.205	0.386
-205.406	139.899	0.122	0.160
-204.392	516.010	0.097	-0.224
-203.377	-200.000	0.028	0.497
-202.363	-200.000	-0.051	-0.373
-201.348	7.560	-0.081	-0.060
-200.333	-124.408	-0.180	0.028
-199.319	-160.400	0.170	0.009
-198.304	181.508	0.389	0.567
-197.290	60.299	-0.098	0.096
-196.275	-61.085	-0.281	-0.117
-195.260	-153.118	0.070	-0.005
-194.246	-29.673	0.147	-0.083
-193.231	-108.493	0.341	0.073
-192.217	-145.191	-0.419	0.038
-191.202	77.397	0.317	0.334
-190.187	-200.000	-0.002	-0.036
-189.173	-7.896	-0.309	-0.206
-188.158	800.000	0.099	-0.356
-187.144	800.000	-0.092	-0.313
-186.129	21.678	-0.044	-0.035
-185.114	-119.815	-0.334	-0.057
-184.100	-164.163	-0.158	0.007
-183.085	-3.083	-0.098	-0.068
-182.071	80.603	-0.136	-0.146
-181.056	-165.911	0.046	-0.002
-180.042	46.531	-0.239	0.220
-179.027	-200.000	0.018	0.185
-178.012	337.255	-0.080	0.153
-176.998	106.720	0.131	-0.153
-175.983	81.774	0.106	0.114
-174.969	-6.718	-0.149	0.100
-173.954	-200.000	0.392	-0.000
-172.939	37.076	-0.068	-0.060
-171.925	-200.000	0.001	-0.420
-170.910	-200.000	0.016	0.081
-169.896	-200.000	-0.005	-0.193
-168.881	62.493	0.079	-0.078
-167.866	95.442	0.090	0.102
-166.852	-115.372	0.251	0.047
-165.837	136.085	-0.292	0.377
-164.823	-200.000	0.040	0.216
-163.808	-93.993	0.031	0.008
-162.793	380.133	-0.187	-0.380
-161.779	60.255	0.207	0.203
-160.764	-132.069	0.145	0.019
-159.750	-148.995	0.141	0.011
-158.735	-13.721	0.258	0.165
-157.720	178.142	0.180	-0.261
-156.706	-132.999	-0.168	-0.021
-155.691	129.734	0.179	-0.227
-154.677	250.341	0.075	0.127
-153.662	56.857	-0.147	-0.142
-152.647	-200.000	-0.010	-0.086
-151.633	800.000	-0.082	-0.258
-150.618	800.000	-0.044	-0.162
-149.604	-37.882	0.106	0.056
-148.589	32.703	0.136	-0.117
-147.574	134.783	-0.185	0.238
-146.560	-200.000	0.018	0.080
-145.545	166.845	-0.094	0.132
-144.531	-120.011	-0.282	0.048
-143.516	-200.000	0.014	-0.204
-142.502	-13.103	0.196	0.126
-141.487	-135.794	0.149	0.017
-140.472	101.856	-0.113	0.130
-139.458	274.615	-0.143	0.250
-138.443	-16.833	0.144	0.090
-137.429	-143.335	0.154	-0.015
-136.414	-200.000	0.023	-0.415
-135.399	-200.000	-0.003	-0.045
-134.385	800.000	0.093	0.320
-133.370	-43.638	0.285	0.142
-132.356	-77.117	-0.336	-0.116
-131.341	-106.139	-0.301	-0.067
-130.326	-11.650	-0.275	0.179
-129.312	327.179	-0.185	0.351
-128.297	54.282	-0.094	-0.090
-127.283	85.028	-0.290	0.314
-126.268	-17.623	-0.359	0.223
-125.253	46.291	0.118	-0.108
-124.239	112.141	0.163	0.195
-123.224	6.430	0.209	-0.154
-122.210	-200.000	0.282	0.000
