DTS Sentinel unit serial number:	SN413079Multiplexer serial number:	ORYXHardware model number:	OX4-SRSoftware version number:	ORYX F/W v4.00 Oryx Data Collector v3.7.2.0data status	okinstallation	princeton_trtdifferential loss correction	single-endedforward channel	channel 4reverse channel	N/Adate	2019/09/13time	17:01:34forward acquisition time	60.00reverse acquisition time	0.00gamma	496.2192k internal	0.2294k external	0.2294temperature offset calibration	1.0207default loss term (dB/km)	0.3790temperature slope calibration	1.0000multiplexer offset coefficient	1.0000multiplexer slope coefficient	1.0000fibre end	0.00T internal ref (°C)	34.95T ext. ref 1 (°C)	4.84T ext. ref 2 (°C)	33.63length (m)	temperature (°C)	Stokes	anti-Stokes-747.200	29.754	-0.131	-0.114
-746.185	800.000	0.087	0.333
-745.171	86.614	-0.032	-0.036
-744.156	-200.000	-0.075	0.341
-743.142	57.802	-0.242	0.242
-742.127	40.825	0.033	0.031
-741.112	-111.391	0.195	0.041
-740.098	-83.201	0.220	0.072
-739.083	24.363	-0.155	-0.131
-738.069	800.000	-0.011	-0.042
-737.054	178.189	-0.237	-0.354
-736.039	-144.408	0.099	0.009
-735.025	-41.484	-0.130	0.068
-734.010	173.926	-0.074	0.109
-732.996	-69.834	-0.389	-0.152
-731.981	33.074	0.196	0.173
-730.966	110.904	0.187	0.230
-729.952	-21.318	-0.114	0.071
-728.937	360.457	-0.069	0.141
-727.923	-200.000	-0.003	0.103
-726.908	44.869	-0.230	-0.217
-725.894	111.206	0.133	-0.164
-724.879	398.372	-0.178	-0.381
-723.864	-54.489	0.202	0.093
-722.850	241.090	-0.088	0.150
-721.835	800.000	-0.036	-0.128
-720.821	-48.009	-0.201	-0.099
-719.806	29.394	-0.228	-0.198
-718.791	-25.533	-0.161	-0.097
-717.777	-137.418	0.295	0.034
-716.762	800.000	-0.057	-0.208
-715.748	-49.165	-0.146	-0.071
-714.733	-29.255	0.130	-0.076
-713.718	200.036	-0.060	-0.093
-712.704	76.084	-0.067	0.073
-711.689	58.245	-0.035	0.035
-710.675	800.000	0.060	-0.211
-709.660	-95.309	0.327	-0.090
-708.645	-93.584	0.306	-0.086
-707.631	-50.339	-0.078	0.038
-706.616	36.616	-0.157	0.142
-705.602	-76.681	0.416	0.149
-704.587	-76.272	-0.186	0.067
-703.572	800.000	0.027	-0.091
-702.558	432.419	-0.101	-0.225
-701.543	316.274	0.056	0.108
-700.529	-200.000	-0.041	0.242
-699.514	351.691	0.120	0.243
-698.499	-61.253	0.250	-0.107
-697.485	560.986	0.089	-0.220
-696.470	-200.000	0.015	-0.498
-695.456	65.439	-0.385	-0.398
-694.441	800.000	0.028	0.111
-693.426	-122.052	-0.140	0.023
-692.412	800.000	-0.058	-0.165
-691.397	10.349	-0.021	-0.016
-690.383	73.814	0.166	-0.178
-689.368	76.544	-0.259	0.281
-688.354	277.952	0.063	-0.114
-687.339	174.930	-0.210	0.311
-686.324	800.000	-0.062	0.201
-685.310	-98.340	0.191	0.050
-684.295	-73.498	-0.078	0.029
-683.281	-197.393	-0.380	0.002
-682.266	-90.091	0.180	-0.054
-681.251	-138.602	0.329	0.037
-680.237	-167.045	0.256	0.011
-679.222	117.378	-0.243	-0.304
-678.208	800.000	0.130	-0.370
-677.193	-181.360	0.211	-0.004
-676.178	63.428	0.149	-0.153
-675.164	-16.257	-0.273	-0.177
-674.149	204.103	-0.077	-0.122
-673.135	95.547	0.007	0.008
-672.120	463.299	-0.107	0.245
-671.105	-200.000	-0.082	-0.410
-670.091	-30.977	-0.179	-0.103
-669.076	-103.512	-0.388	0.093
-668.062	-84.937	-0.455	0.146
-667.047	629.046	0.115	-0.298
-666.032	49.481	-0.228	0.219
-665.018	-200.000	0.019	0.163
-664.003	65.337	0.063	0.064
-662.989	4.471	-0.207	0.155
-661.974	424.991	-0.032	-0.070
-660.959	-107.653	-0.330	-0.073
-659.945	336.446	-0.115	-0.228
-658.930	-45.674	0.177	0.089
-657.916	-14.230	-0.381	-0.250
-656.901	800.000	-0.092	0.386
-655.886	376.886	0.052	0.108
-654.872	-160.192	-0.337	0.019
-653.857	-200.000	-0.017	-0.290
-652.843	-119.343	-0.192	-0.034
-651.828	-0.762	0.160	-0.115
-650.814	-114.517	0.387	0.076
-649.799	-77.440	-0.344	0.122
-648.784	-173.547	0.152	0.005
-647.770	-200.000	0.029	-0.290
-646.755	-200.000	0.007	-0.204
-645.741	56.325	-0.091	-0.090
-644.726	-100.356	-0.229	-0.058
-643.711	239.495	0.065	0.110
-642.697	-200.000	-0.023	-0.180
-641.682	135.050	-0.254	0.336
-640.668	-200.000	-0.040	-0.289
-639.653	325.723	-0.253	0.493
-638.638	-73.184	-0.343	-0.128
-637.624	-30.488	0.140	0.081
-636.609	-200.000	0.227	0.000
-635.595	-200.000	-0.019	0.160
-634.580	120.391	0.154	0.195
-633.565	679.208	-0.084	-0.222
-632.551	51.366	-0.173	-0.167
-631.536	-64.473	-0.169	0.070
-630.522	-10.084	0.340	0.230
-629.507	84.924	-0.085	0.095
-628.492	-157.415	-0.284	-0.017
-627.478	-105.912	0.405	0.093
-626.463	-48.832	0.093	-0.045
-625.449	-200.000	0.012	-0.106
-624.434	800.000	0.053	0.187
-623.419	-200.000	0.003	-0.177
-622.405	-147.623	-0.115	-0.010
-621.390	418.688	0.004	0.008
-620.376	87.125	-0.303	-0.341
-619.361	-105.498	-0.152	0.035
-618.346	-29.499	-0.111	0.065
-617.332	590.423	-0.067	-0.168
-616.317	175.104	0.087	0.129
-615.303	-100.709	0.296	0.074
-614.288	29.775	0.042	0.036
-613.273	-14.933	0.497	0.324
-612.259	-200.000	0.023	0.365
-611.244	619.312	-0.025	0.063
-610.230	51.603	-0.160	-0.155
-609.215	62.592	0.162	-0.165
-608.201	-200.000	-0.021	-0.108
-607.186	121.823	-0.084	0.106
-606.171	-30.412	0.196	0.113
-605.157	-76.577	-0.087	0.031
-604.142	73.672	0.182	-0.194
-603.128	28.712	0.143	-0.123
-602.113	800.000	0.016	-0.053
-601.098	61.935	-0.384	-0.389
-600.084	-200.000	-0.014	-0.317
-599.069	-27.838	-0.222	-0.131
-598.055	-133.171	-0.087	0.011
-597.040	197.221	-0.132	-0.205
-596.025	121.534	-0.056	0.071
-595.011	62.626	0.021	-0.021
-593.996	-200.000	0.041	0.309
-592.982	-91.454	0.389	-0.113
-591.967	-131.462	-0.175	0.023
-590.952	-21.244	0.136	0.084
-589.938	-200.000	-0.074	0.491
-588.923	-200.000	-0.027	-0.159
-587.909	52.502	-0.099	0.096
-586.894	70.213	-0.074	0.077
-585.879	-200.000	-0.035	-0.280
-584.865	800.000	0.098	-0.329
-583.850	523.419	-0.093	0.222
-582.836	800.000	-0.064	-0.200
-581.821	-26.135	-0.135	0.080
-580.806	-121.281	-0.152	0.026
-579.792	-200.000	0.036	0.213
-578.777	-200.000	-0.062	0.279
-577.763	13.857	0.217	-0.171
-576.748	237.176	-0.028	0.048
-575.733	800.000	-0.054	-0.160
-574.719	189.320	0.099	-0.150
-573.704	-200.000	0.000	0.001
-572.690	50.896	-0.052	-0.050
-571.675	-200.000	-0.032	0.178
-570.661	-96.657	-0.273	-0.073
-569.646	275.336	0.027	0.049
-568.631	291.073	-0.061	0.112
-567.617	-74.308	0.228	0.084
-566.602	-55.446	-0.140	-0.064
-565.588	-200.000	-0.011	-0.258
-564.573	800.000	-0.052	-0.220
-563.558	312.627	-0.047	-0.090
-562.544	-140.728	-0.175	0.018
-561.529	-136.313	0.550	0.065
-560.515	-36.720	0.080	-0.044
-559.500	-200.000	0.007	-0.271
-558.485	-200.000	0.015	0.102
-557.471	-66.244	-0.410	0.166
-556.456	-200.000	0.029	0.397
-555.442	52.517	-0.143	0.139
-554.427	-115.299	-0.209	0.040
-553.412	8.435	-0.388	-0.296
-552.398	-200.000	0.001	-0.156
-551.383	113.317	-0.073	-0.089
-550.369	-1.154	0.132	-0.095
-549.354	-29.693	0.164	-0.095
-548.339	360.954	0.100	-0.204
-547.325	-41.289	-0.344	-0.180
-546.310	538.194	0.100	-0.242
-545.296	-73.642	0.177	-0.065
-544.281	169.644	0.198	-0.287
-543.266	-68.928	-0.112	-0.044
-542.252	-102.916	-0.156	-0.038
-541.237	116.106	0.069	0.085
-540.223	-200.000	-0.018	0.103
-539.208	139.472	-0.226	-0.301
-538.193	800.000	-0.034	-0.147
-537.179	479.212	-0.040	0.093
-536.164	652.418	0.025	-0.064
-535.150	-91.042	-0.244	-0.071
-534.135	-29.981	0.092	0.053
-533.121	332.950	-0.083	-0.164
-532.106	-43.098	-0.068	-0.035
-531.091	-36.364	0.060	0.033
-530.077	36.598	0.113	-0.101
-529.062	-200.000	0.013	0.342
-528.048	58.454	0.202	0.201
-527.033	6.681	0.298	-0.225
-526.018	405.687	0.100	-0.213
-525.004	-23.886	-0.033	0.020
-523.989	18.809	-0.166	-0.134
-522.975	54.110	0.074	-0.072
-521.960	-85.332	0.211	-0.067
-520.945	-55.034	-0.236	-0.108
-519.931	-7.345	0.380	-0.261
-518.916	2.833	0.275	0.202
-517.902	-98.503	0.190	0.049
-516.887	-200.000	-0.015	0.182
-515.872	-139.658	0.141	0.015
-514.858	132.541	-0.239	0.312
-513.843	-200.000	0.006	0.052
-512.829	-7.963	0.176	0.121
-511.814	-144.699	0.221	0.021
-510.799	227.972	-0.247	-0.408
-509.785	-200.000	0.001	0.224
-508.770	-200.000	0.008	0.084
-507.756	652.496	-0.098	-0.255
-506.741	63.857	0.127	-0.130
-505.726	-200.000	-0.052	0.284
-504.712	-19.237	0.307	-0.193
-503.697	271.214	-0.137	-0.244
-502.683	177.698	-0.129	0.190
-501.668	-70.426	-0.162	-0.062
-500.653	-107.809	-0.183	0.040
-499.639	-200.000	0.013	0.096
-498.624	191.355	0.198	-0.301
-497.610	-84.348	-0.104	-0.033
-496.595	38.857	0.196	-0.178
-495.581	128.728	0.091	-0.117
-494.566	-160.283	-0.048	-0.003
-493.551	16.614	0.224	-0.180
-492.537	-120.583	0.108	-0.019
-491.522	-200.000	0.029	0.183
-490.508	-152.911	-0.245	0.018
-489.493	-108.164	0.252	0.055
-488.478	-56.864	0.016	-0.007
-487.464	-200.000	-0.015	0.128
-486.449	800.000	-0.056	0.158
-485.435	-16.677	-0.098	-0.063
-484.420	-26.245	0.079	0.047
-483.405	434.390	0.083	0.183
-482.391	-55.075	-0.168	0.077
-481.376	37.477	0.088	0.079
-480.362	63.907	-0.495	0.503
-479.347	17.003	-0.165	0.132
-478.332	-200.000	0.000	0.209
-477.318	-39.470	-0.105	-0.055
-476.303	-77.279	-0.307	0.108
-475.289	-111.874	0.224	-0.046
-474.274	239.978	0.226	-0.380
-473.259	-78.782	-0.107	0.037
-472.245	351.499	-0.097	0.195
-471.230	-200.000	-0.003	-0.051
-470.216	671.521	-0.017	0.045
-469.201	82.355	0.225	-0.247
-468.186	800.000	-0.112	0.334
-467.172	800.000	-0.032	0.095
-466.157	-59.559	0.200	0.087
-465.143	49.666	0.128	-0.122
-464.128	800.000	-0.129	-0.382
-463.113	104.916	0.112	0.133
-462.099	199.024	0.156	0.242
-461.084	61.483	-0.143	0.144
-460.070	201.071	-0.105	-0.164
-459.055	-67.598	-0.288	-0.114
-458.040	-59.623	-0.069	-0.030
-457.026	-118.301	0.148	0.027
-456.011	22.897	-0.244	0.202
-454.997	411.346	0.108	0.232
-453.982	-200.000	-0.042	0.302
-452.968	-75.093	0.213	0.077
-451.953	92.508	0.281	-0.320
-450.938	-28.736	0.179	0.104
-449.924	-125.946	0.171	-0.026
-448.909	-64.330	0.075	0.031
-447.895	-200.000	0.000	-0.045
-446.880	-66.591	0.194	-0.078
-445.865	-52.144	0.204	0.096
-444.851	-200.000	-0.018	-0.281
-443.836	800.000	-0.098	0.299
-442.822	94.020	-0.053	0.061
-441.807	-200.000	-0.008	-0.058
-440.792	-6.390	-0.396	-0.273
-439.778	-132.469	-0.370	0.048
-438.763	29.600	-0.239	-0.205
-437.749	27.467	-0.104	-0.088
-436.734	-3.548	-0.236	0.166
-435.719	-46.407	-0.254	-0.126
-434.705	800.000	-0.107	-0.450
-433.690	247.506	-0.125	-0.213
-432.676	800.000	-0.054	-0.187
-431.661	449.181	0.085	-0.189
-430.646	87.496	-0.158	0.176
-429.632	-200.000	0.033	0.189
-428.617	-19.164	0.271	0.170
-427.603	18.893	0.098	0.079
-426.588	170.561	0.205	-0.296
-425.573	-140.157	0.340	0.036
-424.559	463.255	0.149	-0.335
-423.544	-200.000	-0.013	-0.270
-422.530	-200.000	-0.052	0.241
-421.515	-200.000	0.032	-0.141
-420.500	-55.408	-0.202	-0.092
-419.486	800.000	-0.033	0.119
-418.471	22.047	0.114	0.094
-417.457	-13.346	-0.306	-0.200
-416.442	101.972	-0.241	-0.284
-415.428	319.258	-0.167	-0.320
-414.413	326.982	0.074	-0.143
-413.398	800.000	0.066	0.244
-412.384	-67.135	0.193	-0.077
-411.369	800.000	-0.112	0.349
-410.355	-99.868	-0.157	-0.040
-409.340	-40.401	-0.046	-0.024
-408.325	-200.000	0.019	-0.123
-407.311	-102.984	-0.111	-0.027
-406.296	-24.883	-0.168	-0.101
-405.282	-184.305	-0.441	0.007
-404.267	-200.000	0.020	0.097
-403.252	-51.798	0.256	0.120
-402.238	800.000	0.025	-0.096
-401.223	538.197	-0.042	-0.100
-400.209	-34.613	-0.081	-0.045
-399.194	800.000	-0.069	0.238
-398.179	61.167	0.239	-0.240
-397.165	-200.000	-0.024	-0.329
-396.150	56.681	0.212	0.208
-395.136	800.000	-0.075	-0.300
-394.121	-88.286	-0.358	0.108
-393.106	-146.127	0.148	-0.013
-392.092	-121.387	0.174	-0.029
-391.077	800.000	-0.048	-0.204
-390.063	-71.896	-0.076	-0.029
-389.048	184.782	-0.135	0.202
-388.033	243.011	-0.220	0.372
-387.019	-152.323	-0.134	-0.010
-386.004	-57.952	-0.202	-0.089
-384.990	-37.915	0.236	-0.126
-383.975	45.718	-0.074	-0.069
-382.960	24.452	0.132	0.110
-381.946	-130.484	-0.211	-0.029
-380.931	800.000	-0.088	-0.245
-379.917	22.506	-0.199	-0.164
-378.902	-92.525	0.155	-0.044
-377.888	-178.650	-0.160	-0.004
-376.873	-90.536	0.093	-0.027
-375.858	800.000	0.053	0.194
-374.844	-122.899	-0.288	0.047
-373.829	-200.000	0.010	-0.137
-372.815	-200.000	0.003	0.105
-371.800	-200.000	-0.012	-0.169
-370.785	-50.185	0.363	-0.173
-369.771	-107.135	0.241	0.054
-368.756	-5.586	0.185	0.128
-367.742	-184.909	-0.112	-0.002
-366.727	260.534	0.102	-0.178
-365.712	-87.948	0.388	-0.117
-364.698	-2.258	-0.223	-0.158
-363.683	-139.684	0.191	-0.020
-362.669	-104.997	0.045	-0.010
-361.654	-83.016	-0.126	-0.041
-360.639	54.306	0.219	0.213
-359.625	410.921	0.073	0.156
-358.610	-136.083	0.209	0.025
-357.596	255.107	0.103	0.177
-356.581	12.612	-0.227	-0.177
-355.566	-200.000	-0.001	-0.112
-354.552	642.158	-0.083	0.213
-353.537	-200.000	-0.007	0.129
-352.523	217.326	0.117	0.188
-351.508	-82.303	-0.124	-0.040
-350.493	233.377	-0.156	-0.259
-349.479	5.717	-0.229	0.171
-348.464	481.808	-0.164	0.374
-347.450	-103.708	-0.262	0.062
-346.435	-4.795	-0.080	-0.055
-345.420	3.303	0.065	-0.048
-344.406	-86.423	0.113	0.035
-343.391	800.000	-0.056	0.232
-342.377	-200.000	-0.020	0.251
-341.362	80.194	0.216	0.234
-340.348	-89.712	-0.176	0.052
-339.333	168.646	-0.176	0.253
-338.318	-146.986	-0.046	-0.004
-337.304	362.852	-0.052	0.106
-336.289	-88.077	0.424	0.128
-335.275	-131.009	0.415	-0.056
-334.260	151.451	-0.138	0.189
-333.245	59.383	0.065	-0.065
-332.231	-51.762	0.017	0.008
-331.216	423.841	-0.088	0.191
-330.202	-200.000	-0.017	0.255
-329.187	-3.538	-0.296	-0.207
-328.172	800.000	0.013	-0.038
-327.158	800.000	0.075	-0.244
-326.143	23.985	0.098	-0.081
-325.129	-90.066	-0.220	-0.065
-324.114	800.000	-0.047	-0.185
-323.099	-103.498	-0.351	0.083
-322.085	-150.281	-0.257	-0.020
-321.070	-24.337	0.137	0.082
-320.056	-200.000	0.174	-0.000
-319.041	800.000	-0.042	-0.162
-318.026	800.000	-0.088	0.332
-317.012	123.137	-0.290	0.365
-315.997	42.135	-0.110	-0.101
-314.983	204.014	-0.143	0.223
-313.968	443.828	-0.196	0.433
-312.953	-76.619	0.249	0.088
-311.939	-105.061	-0.076	-0.017
-310.924	-64.084	-0.125	-0.051
-309.910	-25.481	0.124	0.074
-308.895	82.173	0.079	-0.087
-307.880	-52.619	0.082	-0.038
-306.866	660.322	0.130	0.335
-305.851	-7.216	-0.042	-0.028
-304.837	800.000	0.074	-0.312
-303.822	-200.000	0.025	0.240
-302.807	7.051	-0.102	-0.076
-301.793	-60.290	-0.327	-0.140
-300.778	559.105	-0.061	-0.148
-299.764	-55.687	-0.039	0.017
-298.749	-200.000	0.005	0.067
-297.735	-43.081	0.313	0.160
-296.720	183.458	-0.069	0.103
-295.705	-105.850	0.165	0.037
-294.691	800.000	0.127	0.379
-293.676	-117.472	0.157	-0.029
-292.662	693.216	0.024	0.062
-291.647	800.000	0.029	0.125
-290.632	-58.191	0.222	0.097
-289.618	-200.000	0.004	-0.061
-288.603	133.640	0.337	-0.438
-287.589	800.000	-0.048	-0.198
-286.574	151.932	-0.178	0.244
-285.559	800.000	0.010	0.038
-284.545	-40.172	-0.183	-0.096
-283.530	-200.000	0.020	0.231
-282.516	198.330	0.145	-0.223
-281.501	-70.353	0.314	0.120
-280.486	800.000	-0.107	0.306
-279.472	152.800	0.105	0.144
-278.457	25.045	0.121	-0.101
-277.443	-7.992	0.035	0.023
-276.428	-200.000	-0.008	0.141
-275.413	-62.810	0.044	-0.018
-274.399	-121.915	0.272	-0.045
-273.384	54.488	-0.202	-0.196
-272.370	-200.000	-0.009	-0.397
-271.355	158.665	0.254	-0.354
-270.340	-156.591	-0.628	0.039
-269.326	-200.000	0.045	-0.367
-268.311	172.949	-0.026	0.037
-267.297	18.060	0.271	-0.217
-266.282	-94.951	0.020	-0.005
-265.267	-65.732	0.063	-0.025
-264.253	800.000	-0.054	0.206
-263.238	-200.000	-0.022	-0.254
-262.224	-146.255	0.069	0.006
-261.209	-55.552	0.216	-0.097
-260.195	800.000	0.037	-0.153
-259.180	-200.000	-0.023	0.139
-258.165	406.596	0.056	-0.118
-257.151	-128.697	0.293	-0.041
-256.136	39.543	0.089	-0.080
-255.122	-200.000	0.054	-0.248
-254.107	316.926	-0.120	0.228
-253.092	-200.000	-0.029	-0.155
-252.078	-32.093	-0.270	0.152
-251.063	-45.782	-0.185	-0.092
-250.049	-28.483	-0.328	0.190
-249.034	-191.128	0.249	0.003
-248.019	-47.113	0.082	0.040
-247.005	-139.988	0.051	0.005
-245.990	-200.000	0.007	-0.130
-244.976	-76.354	0.287	0.101
-243.961	-69.965	-0.326	-0.125
-242.946	302.065	-0.190	0.353
-241.932	800.000	-0.064	0.243
-240.917	800.000	0.051	0.178
-239.903	-85.060	-0.286	0.090
-238.888	-200.000	-0.011	0.412
-237.873	-142.403	-0.057	0.006
-236.859	800.000	0.040	-0.124
-235.844	-118.349	0.276	-0.049
-234.830	140.086	-0.188	0.248
-233.815	-110.201	0.161	0.034
-232.800	113.084	-0.074	0.090
-231.786	-34.880	0.212	0.116
-230.771	-200.000	-0.038	-0.281
-229.757	125.489	-0.135	-0.171
-228.742	65.281	0.183	-0.186
-227.727	14.508	-0.250	0.195
-226.713	-200.000	-0.005	0.044
-225.698	8.658	0.134	0.101
-224.684	-80.166	0.215	-0.072
-223.669	-200.000	0.053	-0.245
-222.655	199.575	0.234	-0.360
-221.640	22.198	0.121	-0.099
-220.625	-126.491	0.067	-0.010
-219.611	800.000	0.148	-0.503
-218.596	-14.989	-0.396	0.254
-217.582	35.537	0.040	-0.035
-216.567	-28.857	0.018	-0.010
-215.552	-50.948	0.311	0.146
-214.538	61.529	-0.146	-0.146
-213.523	405.753	-0.077	-0.162
-212.509	125.704	0.145	0.184
-211.494	-51.335	-0.154	0.072
-210.479	800.000	0.105	-0.305
-209.465	103.047	0.148	0.174
-208.450	48.590	-0.130	0.122
-207.436	-77.949	0.157	0.054
-206.421	182.381	0.099	0.147
-205.406	187.753	0.033	-0.049
-204.392	24.325	-0.228	0.189
-203.377	-192.039	-0.152	0.001
-202.363	-200.000	0.032	-0.377
-201.348	800.000	-0.085	0.253
-200.333	-29.147	-0.142	0.081
-199.319	242.203	-0.099	-0.165
-198.304	-10.339	-0.024	-0.016
-197.290	212.110	0.062	-0.098
-196.275	-146.055	-0.106	0.009
-195.260	-101.679	0.214	-0.052
-194.246	-200.000	0.060	0.330
-193.231	15.970	0.217	0.171
-192.217	800.000	0.060	0.219
-191.202	-200.000	0.034	0.154
-190.187	800.000	-0.053	0.191
-189.173	26.671	0.068	-0.057
-188.158	152.428	0.230	-0.314
-187.144	-200.000	-0.072	0.367
-186.129	-141.801	-0.043	0.004
-185.114	-176.011	0.223	0.006
-184.100	83.245	0.141	-0.153
-183.085	-200.000	0.041	-0.274
-182.071	83.554	-0.151	-0.165
-181.056	-118.790	-0.146	0.026
-180.042	-179.619	0.309	0.007
-179.027	273.273	0.163	0.288
-178.012	-135.036	0.342	-0.041
-176.998	248.943	0.040	-0.068
-175.983	-26.881	0.370	-0.216
-174.969	200.842	0.127	-0.196
-173.954	-200.000	-0.014	0.132
-172.939	-200.000	-0.005	0.256
-171.925	-4.184	0.188	0.130
-170.910	-200.000	-0.015	0.457
-169.896	505.624	0.046	-0.107
-168.881	50.532	-0.146	0.138
-167.866	-102.610	0.048	-0.011
-166.852	147.071	0.079	0.106
-165.837	-200.000	-0.005	-0.191
-164.823	79.008	0.371	-0.397
-163.808	638.674	0.080	0.203
-162.793	-200.000	-0.058	0.379
-161.779	696.723	0.021	-0.055
-160.764	-58.401	-0.208	-0.090
-159.750	471.693	0.053	0.120
-158.735	-89.110	-0.079	0.023
-157.720	-74.557	-0.087	-0.031
-156.706	-200.000	0.020	0.280
-155.691	-91.194	-0.319	0.091
-154.677	-200.000	-0.000	0.239
-153.662	684.450	0.080	-0.209
-152.647	-104.882	0.151	0.035
-151.633	-200.000	0.015	0.182
-150.618	-105.027	0.090	-0.021
-149.604	-47.126	-0.066	0.032
-148.589	124.350	-0.101	-0.126
-147.574	-72.368	0.278	-0.103
-146.560	-117.033	-0.244	0.044
-145.545	-200.000	-0.003	0.014
-144.531	-177.103	-0.101	-0.003
-143.516	800.000	-0.096	0.293
-142.502	-200.000	-0.007	0.118
-141.487	218.296	0.125	0.199
-140.472	-200.000	-0.014	-0.183
-139.458	800.000	0.083	0.309
-138.443	-95.246	0.183	0.049
-137.429	144.034	-0.021	-0.028
-136.414	-200.000	0.030	-0.176
-135.399	800.000	-0.074	0.258
-134.385	-39.316	0.376	0.197
-133.370	47.775	-0.102	-0.095
-132.356	60.237	-0.111	0.109
-131.341	-120.806	0.461	0.078
-130.326	-159.432	-0.383	0.021
-129.312	-151.636	-0.255	-0.019
-128.297	789.344	0.170	-0.465
-127.283	86.847	0.237	-0.262
-126.268	-200.000	0.048	0.220
-125.253	-154.231	-0.186	0.013
-124.239	-78.109	-0.115	0.039
-123.224	800.000	-0.076	-0.307
-122.210	74.608	0.387	0.407
-121.195	-200.000	0.036	0.168
