DTS Sentinel unit serial number:	SN413079Multiplexer serial number:	ORYXHardware model number:	OX4-SRSoftware version number:	ORYX F/W v4.00 Oryx Data Collector v3.7.2.0data status	okinstallation	princeton_trtdifferential loss correction	single-endedforward channel	channel 4reverse channel	N/Adate	2019/09/13time	23:05:35forward acquisition time	60.00reverse acquisition time	0.00gamma	496.2192k internal	0.2322k external	0.2322temperature offset calibration	1.0133default loss term (dB/km)	0.3790temperature slope calibration	1.0000multiplexer offset coefficient	1.0000multiplexer slope coefficient	1.0000fibre end	0.00T internal ref (°C)	27.25T ext. ref 1 (°C)	3.21T ext. ref 2 (°C)	21.23length (m)	temperature (°C)	Stokes	anti-Stokes-747.200	372.334	0.156	0.320
-746.185	61.768	-0.253	0.255
-745.171	16.207	0.276	0.220
-744.156	57.608	-0.362	0.358
-743.142	127.526	0.169	0.217
-742.127	-200.000	-0.005	0.106
-741.112	56.111	-0.219	-0.215
-740.098	444.921	0.106	0.234
-739.083	-200.000	0.001	0.173
-738.069	-200.000	0.019	0.175
-737.054	800.000	0.097	0.321
-736.039	-61.915	-0.167	-0.071
-735.025	353.556	-0.059	0.118
-734.010	-34.722	-0.253	0.140
-732.996	2.703	-0.386	0.282
-731.981	-111.241	-0.346	0.072
-730.966	-97.992	-0.099	-0.026
-729.952	-1.460	-0.282	-0.201
-728.937	800.000	-0.107	-0.377
-727.923	186.177	0.104	0.156
-726.908	-150.676	-0.055	0.004
-725.894	36.147	-0.160	-0.142
-724.879	289.259	0.116	-0.211
-723.864	-135.555	-0.207	0.025
-722.850	29.723	-0.237	-0.203
-721.835	-119.685	-0.410	-0.072
-720.821	-157.989	-0.235	-0.014
-719.806	243.763	-0.187	-0.317
-718.791	-189.123	-0.167	0.002
-717.777	-200.000	-0.060	-0.346
-716.762	800.000	0.121	-0.483
-715.748	-55.792	-0.169	0.076
-714.733	61.353	-0.084	0.084
-713.718	-75.069	0.168	0.061
-712.704	53.648	0.097	0.094
-711.689	324.329	0.007	0.014
-710.675	35.305	-0.038	0.033
-709.660	-112.800	0.066	0.013
-708.645	-200.000	0.003	0.189
-707.631	-200.000	-0.002	-0.131
-706.616	-55.516	-0.078	-0.035
-705.602	-38.890	-0.264	0.140
-704.587	7.881	0.072	0.054
-703.572	211.170	-0.218	-0.347
-702.558	-66.544	0.440	0.176
-701.543	-89.796	0.232	0.069
-700.529	-106.188	0.049	-0.011
-699.514	800.000	-0.099	0.318
-698.499	-63.484	-0.396	-0.164
-697.485	-200.000	-0.034	-0.184
-696.470	-64.353	-0.452	-0.186
-695.456	800.000	-0.083	0.239
-694.441	486.387	0.218	0.501
-693.426	-200.000	-0.073	-0.466
-692.412	-119.647	0.036	-0.006
-691.397	331.664	0.021	-0.040
-690.383	-19.554	-0.197	0.123
-689.368	48.233	-0.187	-0.176
-688.354	-159.016	0.160	0.009
-687.339	-200.000	0.027	0.248
-686.324	-23.579	-0.316	-0.191
-685.310	-68.089	0.214	-0.084
-684.295	-95.572	0.263	-0.071
-683.281	-200.000	-0.105	0.551
-682.266	-10.461	-0.132	0.088
-681.251	-200.000	-0.191	0.001
-680.237	214.052	-0.118	-0.187
-679.222	518.749	0.082	-0.193
-678.208	209.510	-0.157	0.247
-677.193	-192.866	0.024	-0.000
-676.178	58.532	0.092	-0.091
-675.164	800.000	0.020	0.073
-674.149	-12.486	-0.078	0.051
-673.135	-200.000	0.031	-0.198
-672.120	574.354	0.126	-0.309
-671.105	363.485	0.146	0.295
-670.091	116.728	-0.218	0.269
-669.076	-200.000	-0.064	-0.357
-668.062	569.707	-0.123	0.300
-667.047	-200.000	-0.003	-0.060
-666.032	-174.849	0.499	-0.014
-665.018	800.000	-0.090	0.257
-664.003	4.966	0.062	-0.046
-662.989	439.593	-0.078	-0.171
-661.974	-26.528	-0.389	0.229
-660.959	-200.000	-0.045	0.229
-659.945	271.938	-0.101	-0.180
-658.930	-44.868	0.230	0.115
-657.916	150.291	-0.138	-0.189
-656.901	-48.990	0.326	-0.157
-655.886	800.000	0.064	-0.193
-654.872	21.354	0.028	0.023
-653.857	800.000	-0.063	-0.179
-652.843	-200.000	0.034	-0.447
-651.828	-173.545	0.351	0.011
-650.814	-107.565	0.276	-0.061
-649.799	-103.074	-0.309	0.074
-648.784	-101.045	-0.136	0.034
-647.770	317.629	-0.195	0.371
-646.755	800.000	-0.074	-0.258
-645.741	-26.693	0.252	0.148
-644.726	-200.000	-0.035	-0.237
-643.711	214.716	-0.059	0.095
-642.697	-143.804	-0.238	-0.023
-641.682	76.426	0.304	-0.325
-640.668	-200.000	0.041	-0.276
-639.653	49.325	-0.211	0.199
-638.638	-200.000	-0.033	-0.404
-637.624	320.356	-0.195	-0.372
-636.609	-194.170	-0.208	0.002
-635.595	-131.099	0.414	0.056
-634.580	326.406	-0.051	0.099
-633.565	-71.078	-0.204	-0.077
-632.551	9.396	0.182	0.138
-631.536	-200.000	0.056	0.255
-630.522	-196.696	-0.077	-0.001
-629.507	99.954	0.142	-0.165
-628.492	-200.000	0.003	0.175
-627.478	146.867	-0.128	-0.173
-626.463	243.471	-0.087	-0.147
-625.449	800.000	-0.056	-0.226
-624.434	-45.511	-0.197	0.098
-623.419	-99.747	-0.089	0.022
-622.405	37.287	-0.245	0.218
-621.390	-113.353	-0.136	0.027
-620.376	-4.928	-0.223	-0.155
-619.361	-158.926	-0.364	-0.021
-618.346	-42.986	-0.147	-0.075
-617.332	59.450	-0.056	-0.056
-616.317	-16.964	-0.220	-0.140
-615.303	72.999	-0.035	0.036
-614.288	-77.193	0.199	-0.070
-613.273	73.159	-0.173	-0.182
-612.259	-48.294	-0.169	0.082
-611.244	294.765	0.160	-0.295
-610.230	-200.000	-0.016	-0.207
-609.215	696.173	-0.097	0.257
-608.201	64.344	0.248	-0.251
-607.186	281.097	-0.106	-0.190
-606.171	-200.000	-0.337	-0.001
-605.157	-183.111	0.320	-0.006
-604.142	-73.115	0.063	0.023
-603.128	-200.000	-0.028	0.309
-602.113	189.876	-0.043	0.064
-601.098	-75.586	-0.187	0.067
-600.084	-200.000	-0.005	-0.034
-599.069	148.013	0.044	0.059
-598.055	-26.296	-0.263	-0.155
-597.040	168.924	-0.078	0.112
-596.025	103.243	0.112	-0.132
-595.011	-200.000	-0.023	0.322
-593.996	108.240	0.196	-0.234
-592.982	-200.000	-0.000	0.219
-591.967	800.000	0.069	0.260
-590.952	-116.986	0.049	-0.009
-589.938	-200.000	0.012	0.082
-588.923	800.000	-0.093	-0.346
-587.909	-32.331	0.242	-0.136
-586.894	47.614	0.200	0.188
-585.879	-200.000	0.019	-0.244
-584.865	-60.412	0.294	0.126
-583.850	97.632	0.122	-0.140
-582.836	-200.000	-0.068	-0.519
-581.821	-96.410	-0.288	0.076
-580.806	-32.385	0.093	-0.052
-579.792	68.992	-0.201	0.207
-578.777	-123.484	0.052	0.008
-577.763	-53.819	-0.047	-0.022
-576.748	70.254	-0.143	-0.148
-575.733	476.033	0.079	-0.180
-574.719	-70.699	-0.098	-0.037
-573.704	-69.793	-0.206	0.079
-572.690	426.734	0.063	0.137
-571.675	264.414	-0.154	-0.269
-570.661	33.586	0.067	0.058
-569.646	-26.155	0.065	0.038
-568.631	47.340	-0.035	-0.033
-567.617	374.626	-0.141	-0.288
-566.602	-177.485	-0.209	0.005
-565.588	-72.363	-0.218	-0.081
-564.573	244.721	-0.140	0.237
-563.558	-200.000	-0.001	-0.334
-562.544	800.000	-0.124	0.462
-561.529	-200.000	0.025	-0.246
-560.515	-14.940	0.244	0.157
-559.500	-123.554	0.184	-0.029
-558.485	80.341	0.280	0.302
-557.471	-19.167	0.298	0.186
-556.456	-120.873	-0.213	-0.036
-555.442	672.166	0.078	0.202
-554.427	800.000	0.089	0.327
-553.412	-200.000	-0.001	0.100
-552.398	-65.969	-0.379	-0.152
-551.383	-102.940	0.287	-0.068
-550.369	-14.856	0.237	0.152
-549.354	-133.733	-0.149	0.019
-548.339	-2.205	0.066	-0.047
-547.325	297.828	-0.094	-0.174
-546.310	492.459	-0.118	-0.272
-545.296	-121.766	0.143	0.024
-544.281	143.553	0.197	-0.263
-543.266	-155.718	0.253	-0.016
-542.252	86.213	0.138	-0.153
-541.237	-50.541	0.345	-0.163
-540.223	-110.999	0.378	0.078
-539.208	-200.000	-0.004	-0.153
-538.193	-200.000	-0.021	-0.139
-537.179	-2.046	-0.163	0.115
-536.164	-109.505	0.231	0.049
-535.150	210.474	-0.029	-0.046
-534.135	-200.000	-0.034	-0.200
-533.121	-91.721	0.286	-0.082
-532.106	800.000	0.107	0.395
-531.091	-200.000	-0.001	-0.202
-530.077	162.153	-0.181	0.254
-529.062	716.793	-0.071	0.190
-528.048	296.691	-0.095	0.175
-527.033	319.608	0.078	0.149
-526.018	-200.000	0.007	-0.212
-525.004	-20.094	0.079	0.049
-523.989	-73.303	0.194	-0.071
-522.975	564.633	-0.085	-0.207
-521.960	800.000	-0.018	-0.068
-520.945	-29.620	0.233	0.133
-519.931	24.280	-0.048	0.040
-518.916	35.137	0.175	0.154
-517.902	220.115	0.145	-0.232
-516.887	800.000	0.072	0.225
-515.872	53.282	0.203	0.195
-514.858	-200.000	0.034	0.222
-513.843	25.107	-0.098	-0.081
-512.829	210.468	0.098	0.154
-511.814	-63.113	-0.084	0.035
-510.799	29.535	0.246	0.210
-509.785	-23.315	-0.330	-0.199
-508.770	190.180	-0.056	0.084
-507.756	-200.000	0.012	0.108
-506.741	99.610	-0.191	0.222
-505.726	-200.000	0.038	-0.544
-504.712	-35.553	0.197	0.107
-503.697	254.388	0.045	0.076
-502.683	-131.015	0.400	-0.053
-501.668	-200.000	0.058	-0.270
-500.653	141.524	-0.176	0.234
-499.639	-89.704	-0.368	0.108
-498.624	-29.438	0.312	-0.179
-497.610	800.000	-0.104	-0.451
-496.595	-8.554	0.229	-0.154
-495.581	68.856	-0.064	0.065
-494.566	126.892	-0.019	-0.024
-493.551	34.028	0.226	-0.197
-492.537	800.000	-0.016	-0.050
-491.522	30.055	-0.337	-0.287
-490.508	-112.833	0.200	-0.040
-489.493	800.000	0.107	0.305
-488.478	-155.044	-0.114	0.007
-487.464	-200.000	0.075	0.384
-486.449	-91.815	0.288	0.082
-485.435	-200.000	0.012	-0.165
-484.420	-79.707	0.020	0.007
-483.405	226.404	0.036	-0.058
-482.391	800.000	-0.066	-0.207
-481.376	-38.619	0.273	-0.144
-480.362	274.979	-0.111	0.196
-479.347	-149.274	-0.507	0.040
-478.332	-64.717	-0.193	0.078
-477.318	146.259	0.197	-0.264
-476.303	-77.482	-0.173	-0.060
-475.289	18.610	-0.124	-0.099
-474.274	-126.058	0.074	-0.011
-473.259	172.719	0.041	-0.059
-472.245	800.000	-0.127	0.448
-471.230	-200.000	-0.073	-0.345
-470.216	-200.000	-0.000	-0.233
-469.201	74.272	-0.120	-0.127
-468.186	-200.000	0.025	-0.134
-467.172	307.816	0.071	0.132
-466.157	377.106	-0.013	-0.027
-465.143	61.237	-0.067	0.067
-464.128	508.593	0.053	-0.124
-463.113	-200.000	0.008	-0.145
-462.099	-200.000	-0.008	0.121
-461.084	241.343	-0.037	0.061
-460.070	278.904	-0.260	0.463
-459.055	195.857	-0.085	0.130
-458.040	110.461	0.187	0.225
-457.026	-200.000	0.040	0.000
-456.011	-200.000	-0.031	0.249
-454.997	800.000	0.072	-0.288
-453.982	362.182	0.077	-0.155
-452.968	-132.421	-0.335	0.043
-451.953	3.292	-0.212	-0.154
-450.938	18.663	-0.084	-0.067
-449.924	-0.718	0.203	0.144
-448.909	-179.422	0.232	-0.005
-447.895	568.365	0.103	0.251
-446.880	-200.000	-0.044	0.353
-445.865	-200.000	-0.012	-0.395
-444.851	426.835	-0.133	-0.286
-443.836	477.556	0.103	0.232
-442.822	-49.468	-0.090	-0.043
-441.807	-60.082	-0.173	0.074
-440.792	-200.000	0.023	-0.350
-439.778	800.000	0.036	0.135
-438.763	24.667	0.203	0.168
-437.749	-57.041	-0.229	-0.101
-436.734	-63.049	0.166	-0.068
-435.719	85.084	0.066	0.073
-434.705	-29.921	-0.213	0.121
-433.690	99.091	0.229	-0.264
-432.676	-29.373	-0.099	0.057
-431.661	88.550	0.267	-0.296
-430.646	-93.263	0.195	-0.054
-429.632	-103.799	-0.309	0.072
-428.617	71.104	-0.110	-0.113
-427.603	-42.989	-0.153	-0.078
-426.588	-200.000	0.055	-0.281
-425.573	800.000	-0.069	0.219
-424.559	248.282	-0.055	0.092
-423.544	113.505	0.116	-0.140
-422.530	255.437	0.148	-0.253
-421.515	78.947	-0.160	-0.171
-420.500	800.000	-0.066	0.243
-419.486	-69.017	0.124	-0.048
-418.471	800.000	-0.070	0.239
-417.457	-49.467	-0.187	-0.089
-416.442	-200.000	0.034	-0.314
-415.428	32.665	-0.189	0.163
-414.413	79.444	-0.146	-0.156
-413.398	42.035	0.411	0.372
-412.384	3.488	0.380	-0.276
-411.369	-200.000	-0.005	-0.123
-410.355	-116.235	-0.108	0.020
-409.340	271.839	-0.096	-0.169
-408.325	502.931	0.118	-0.272
-407.311	-98.423	0.069	-0.018
-406.296	-23.549	0.138	-0.083
-405.282	-45.791	-0.279	0.137
-404.267	405.205	-0.147	0.308
-403.252	-15.834	0.303	-0.192
-402.238	-200.000	0.025	0.156
-401.223	170.340	-0.170	0.242
-400.209	383.948	-0.206	0.422
-399.194	9.811	-0.139	0.105
-398.179	-80.466	-0.119	0.040
-397.165	-82.946	-0.261	-0.084
-396.150	-80.588	0.188	0.063
-395.136	-173.652	-0.157	0.005
-394.121	-128.374	0.344	-0.049
-393.106	-118.580	-0.279	0.049
-392.092	364.123	-0.094	-0.188
-391.077	-200.000	0.035	-0.242
-390.063	36.029	-0.097	-0.085
-389.048	800.000	-0.022	0.068
-388.033	267.102	-0.135	0.235
-387.019	10.913	0.187	-0.142
-386.004	248.623	-0.056	0.095
-384.990	83.938	0.288	-0.313
-383.975	-14.548	-0.224	0.144
-382.960	800.000	-0.109	0.301
-381.946	61.989	0.164	-0.162
-380.931	106.637	0.217	-0.257
-379.917	-200.000	-0.008	-0.133
-378.902	-13.399	0.177	-0.114
-377.888	-103.595	0.144	0.034
-376.873	654.812	-0.081	-0.206
-375.858	581.864	0.072	-0.176
-374.844	-200.000	0.116	-0.579
-373.829	-5.109	0.261	-0.179
-372.815	341.449	-0.190	0.371
-371.800	-200.000	-0.002	-0.078
-370.785	-38.868	-0.165	-0.087
-369.771	50.015	-0.133	-0.125
-368.756	85.646	0.158	0.173
-367.742	-17.992	-0.154	-0.096
-366.727	800.000	0.027	0.103
-365.712	800.000	0.019	-0.066
-364.698	403.427	-0.142	0.297
-363.683	163.815	-0.062	0.086
-362.669	-137.365	-0.187	0.021
-361.654	-124.158	0.333	0.052
-360.639	-72.185	-0.212	0.078
-359.625	800.000	-0.065	-0.232
-358.610	-200.000	-0.001	-0.008
-357.596	-83.232	-0.397	0.127
-356.581	-200.000	-0.013	-0.242
-355.566	-56.087	0.131	-0.058
-354.552	143.356	-0.198	0.262
-353.537	-37.800	-0.320	-0.169
-352.523	-198.554	0.276	-0.002
-351.508	-79.132	0.099	-0.033
-350.493	270.410	-0.160	-0.280
-349.479	28.067	-0.123	-0.103
-348.464	-60.190	0.640	-0.271
-347.450	-200.000	-0.022	0.133
-346.435	-106.328	-0.303	0.067
-345.420	175.056	-0.199	-0.287
-344.406	800.000	-0.037	-0.110
-343.391	-200.000	-0.058	-0.255
-342.377	41.152	0.048	-0.043
-341.362	-190.684	0.260	0.003
-340.348	-126.305	0.096	0.014
-339.333	-200.000	0.044	0.210
-338.318	215.301	-0.203	0.320
-337.304	800.000	0.079	0.276
-336.289	-48.903	-0.098	-0.047
-335.275	18.195	-0.301	0.239
-334.260	13.824	-0.144	0.111
-333.245	-200.000	0.079	-0.359
-332.231	-75.105	-0.124	0.044
-331.216	83.134	-0.039	-0.042
-330.202	-47.108	0.044	0.022
-329.187	82.176	0.288	0.311
-328.172	-110.437	-0.054	-0.011
-327.158	-150.877	0.131	0.010
-326.143	13.032	0.165	0.127
-325.129	-88.213	0.261	0.078
-324.114	59.853	0.124	0.121
-323.099	8.542	0.244	-0.183
-322.085	-124.349	-0.280	-0.044
-321.070	-47.503	0.062	-0.030
-320.056	-200.000	0.031	0.631
-319.041	311.942	-0.096	0.180
-318.026	-112.322	-0.259	-0.052
-317.012	22.832	0.222	0.180
-315.997	288.016	0.111	0.199
-314.983	-200.000	-0.012	0.079
-313.968	-1.641	0.133	0.093
-312.953	685.191	-0.042	-0.108
-311.939	800.000	-0.030	0.116
-310.924	75.605	-0.192	-0.201
-309.910	-82.485	-0.084	-0.027
-308.895	-19.261	0.039	0.024
-307.880	173.434	-0.027	-0.039
-306.866	-49.617	-0.303	0.143
-305.851	16.262	-0.135	-0.106
-304.837	-112.559	0.123	-0.024
-303.822	-161.094	0.324	0.017
-302.807	412.919	-0.089	-0.188
-301.793	-8.595	0.138	0.092
-300.778	-138.767	0.214	0.023
-299.764	-62.631	0.137	-0.056
-298.749	-45.767	0.452	0.222
-297.735	58.375	0.298	0.290
-296.720	800.000	-0.033	0.105
-295.705	99.177	-0.142	-0.163
-294.691	382.049	-0.075	0.152
-293.676	-110.534	0.154	0.032
-292.662	5.017	-0.088	0.064
-291.647	800.000	0.070	0.274
-290.632	-200.000	0.001	-0.058
-289.618	-74.411	-0.294	-0.105
-288.603	-25.177	0.291	-0.171
-287.589	-10.885	0.088	0.057
-286.574	241.268	-0.074	-0.123
-285.559	-130.286	0.240	-0.032
-284.545	-123.564	-0.312	0.049
-283.530	21.963	-0.090	-0.073
-282.516	-200.000	-0.025	0.161
-281.501	-200.000	0.051	0.394
-280.486	800.000	-0.101	0.342
-279.472	-50.366	0.422	-0.198
-278.457	-144.290	-0.172	-0.016
-277.443	135.669	-0.072	-0.093
-276.428	-200.000	-0.014	-0.149
-275.413	-151.429	-0.283	0.021
-274.399	-191.239	0.093	-0.001
-273.384	680.094	0.047	-0.122
-272.370	157.061	0.102	-0.140
-271.355	800.000	-0.021	0.073
-270.340	726.446	-0.029	-0.076
-269.326	-200.000	-0.025	0.192
-268.311	-6.818	-0.169	0.114
-267.297	-200.000	-0.038	0.304
-266.282	145.114	0.265	0.351
-265.267	120.672	0.197	-0.243
-264.253	73.236	0.194	0.201
-263.238	-116.107	0.242	0.045
-262.224	56.233	0.123	0.118
-261.209	-200.000	-0.011	0.321
-260.195	406.803	-0.076	0.159
-259.180	155.456	0.203	0.277
-258.165	-200.000	0.006	-0.343
-257.151	-75.797	-0.113	-0.040
-256.136	-114.921	0.329	-0.062
-255.122	568.375	-0.119	-0.287
-254.107	71.916	-0.141	-0.146
-253.092	800.000	0.018	0.057
-252.078	493.588	0.030	0.068
-251.063	77.407	0.260	0.274
-250.049	-200.000	-0.008	-0.081
-249.034	-169.134	0.264	-0.010
-248.019	-115.923	0.250	-0.046
-247.005	-79.876	-0.359	0.120
-245.990	174.129	-0.141	-0.201
-244.976	-68.432	0.050	-0.019
-243.961	163.818	-0.048	-0.067
-242.946	-65.840	-0.277	0.110
-241.932	-200.000	-0.068	0.307
-240.917	102.659	-0.033	0.038
-239.903	-186.737	0.262	0.004
-238.888	-103.192	-0.262	0.061
-237.873	800.000	0.095	0.266
-236.859	-200.000	0.047	0.209
-235.844	-200.000	0.006	-0.065
-234.830	-15.818	0.303	-0.191
-233.815	-200.000	0.064	-0.282
-232.800	-107.463	-0.088	0.019
-231.786	59.668	-0.222	-0.217
-230.771	271.378	-0.036	-0.062
-229.757	800.000	-0.090	0.317
-228.742	800.000	-0.019	-0.080
-227.727	61.145	-0.135	0.133
-226.713	-14.712	-0.160	0.102
-225.698	-41.731	0.140	-0.071
-224.684	-30.953	0.266	0.149
-223.669	-200.000	-0.021	0.265
-222.655	422.792	0.036	-0.076
-221.640	-109.922	0.348	-0.072
-220.625	54.472	-0.145	0.139
-219.611	-200.000	-0.027	0.184
-218.596	-200.000	0.003	0.191
-217.582	-63.950	0.353	0.143
-216.567	182.319	-0.034	-0.049
-215.552	-81.864	-0.190	0.062
-214.538	-200.000	0.075	-0.333
-213.523	800.000	0.105	0.337
-212.509	-85.756	-0.272	0.084
-211.494	-84.815	-0.235	0.073
-210.479	-63.768	-0.049	0.020
-209.465	800.000	-0.060	0.187
-208.450	-200.000	0.004	-0.234
-207.436	-200.000	0.040	-0.318
-206.421	-200.000	-0.026	0.174
-205.406	800.000	-0.026	-0.105
-204.392	-123.930	-0.217	-0.034
-203.377	800.000	-0.084	-0.344
-202.363	-37.711	-0.078	0.041
-201.348	-200.000	-0.008	0.364
-200.333	393.811	0.090	-0.186
-199.319	53.610	0.034	0.032
-198.304	-82.078	-0.401	0.129
-197.290	-130.583	0.055	-0.007
-196.275	468.914	-0.015	-0.034
-195.260	800.000	-0.037	0.138
-194.246	45.401	0.023	0.021
-193.231	1.172	-0.078	-0.056
-192.217	39.060	0.219	-0.194
-191.202	-60.102	-0.266	0.112
-190.187	-77.832	0.245	-0.084
-189.173	800.000	0.096	0.316
-188.158	219.365	-0.137	0.216
-187.144	-22.439	0.230	-0.138
-186.129	-200.000	0.040	-0.220
-185.114	222.731	-0.226	-0.360
-184.100	3.552	0.113	0.081
-183.085	-98.696	-0.243	0.061
-182.071	800.000	0.047	0.142
-181.056	215.829	-0.220	0.345
-180.042	-200.000	0.055	-0.270
-179.027	193.841	0.107	0.160
-178.012	-143.223	-0.194	-0.018
-176.998	-200.000	-0.012	0.103
-175.983	-9.243	0.206	-0.136
-174.969	-102.831	0.277	-0.065
-173.954	-54.662	0.177	-0.079
-172.939	-200.000	-0.004	0.048
-171.925	-21.788	0.244	-0.147
-170.910	800.000	0.037	-0.110
-169.896	334.699	-0.143	-0.273
-168.881	-10.036	0.306	0.201
-167.866	-57.571	0.124	-0.054
-166.852	182.711	0.044	0.064
-165.837	607.279	0.170	0.420
-164.823	143.224	-0.169	-0.222
-163.808	63.311	-0.098	-0.097
-162.793	121.762	-0.133	-0.164
-161.779	234.162	0.075	-0.122
-160.764	-111.309	-0.109	-0.022
-159.750	328.719	-0.086	0.162
-158.735	583.236	-0.077	0.186
-157.720	-90.308	-0.385	0.111
-156.706	-156.891	-0.302	0.018
-155.691	160.787	0.192	-0.264
-154.677	84.332	0.114	0.124
-153.662	-127.069	-0.278	0.040
-152.647	34.623	0.238	0.205
-151.633	164.256	0.064	-0.089
-150.618	532.306	-0.112	0.262
-149.604	-118.780	0.056	0.010
-148.589	399.635	0.165	0.341
-147.574	130.213	-0.068	-0.086
-146.560	800.000	-0.136	0.392
-145.545	800.000	-0.095	0.307
-144.531	75.372	0.191	-0.199
-143.516	-176.605	0.155	0.004
-142.502	-17.685	0.118	-0.073
-141.487	-200.000	-0.080	0.394
-140.472	-66.385	0.185	0.073
-139.458	-144.595	-0.365	0.033
-138.443	73.926	-0.105	0.109
-137.429	8.135	0.212	0.157
-136.414	-8.340	-0.075	-0.050
-135.399	-21.178	0.074	-0.045
-134.385	-200.000	0.051	-0.275
-133.370	-200.000	-0.055	0.259
-132.356	-14.593	0.059	0.037
-131.341	-155.455	0.701	-0.045
-130.326	-59.532	0.343	0.145
-129.312	-108.037	-0.128	-0.027
-128.297	455.125	-0.147	-0.321
-127.283	596.203	0.052	-0.126
-126.268	25.298	-0.161	0.132
-125.253	-101.375	-0.263	0.063
-124.239	800.000	-0.061	-0.207
-123.224	39.406	0.157	0.139
-122.210	800.000	0.032	0.092
