DTS Sentinel unit serial number:	SN413079Multiplexer serial number:	ORYXHardware model number:	OX4-SRSoftware version number:	ORYX F/W v4.00 Oryx Data Collector v3.7.2.0data status	okinstallation	princeton_trtdifferential loss correction	single-endedforward channel	channel 4reverse channel	N/Adate	2019/09/14time	15:01:35forward acquisition time	60.00reverse acquisition time	0.00gamma	496.2192k internal	0.2290k external	0.2290temperature offset calibration	1.0141default loss term (dB/km)	0.3790temperature slope calibration	1.0000multiplexer offset coefficient	1.0000multiplexer slope coefficient	1.0000fibre end	0.00T internal ref (°C)	39.06T ext. ref 1 (°C)	5.08T ext. ref 2 (°C)	34.98length (m)	temperature (°C)	Stokes	anti-Stokes-747.200	-72.469	-0.234	-0.088
-746.185	-200.000	0.004	0.215
-745.171	-49.775	0.154	-0.075
-744.156	-200.000	-0.116	0.528
-743.142	20.447	0.187	0.155
-742.127	262.192	-0.195	0.347
-741.112	-121.241	0.185	0.032
-740.098	-154.227	0.467	-0.032
-739.083	-155.426	0.554	-0.037
-738.069	-112.807	0.100	0.020
-737.054	-73.106	-0.370	-0.139
-736.039	-148.152	-0.182	0.015
-735.025	1.276	0.078	0.057
-734.010	129.969	-0.286	-0.375
-732.996	112.945	-0.245	-0.304
-731.981	32.834	-0.303	-0.269
-730.966	-142.704	-0.257	0.026
-729.952	17.725	-0.285	-0.232
-728.937	76.254	0.310	-0.337
-727.923	-133.687	0.260	-0.033
-726.908	-126.446	0.185	0.028
-725.894	180.866	-0.218	-0.328
-724.879	168.222	-0.180	-0.263
-723.864	-51.976	0.023	0.011
-722.850	88.627	-0.197	0.224
-721.835	-200.000	-0.078	-0.400
-720.821	-122.282	0.456	-0.076
-719.806	-36.636	-0.360	-0.198
-718.791	145.648	0.287	-0.393
-717.777	800.000	-0.046	-0.145
-716.762	-200.000	-0.009	-0.161
-715.748	-103.546	-0.431	0.104
-714.733	173.143	-0.137	0.202
-713.718	-200.000	-0.012	-0.084
-712.704	-200.000	0.125	-0.000
-711.689	-200.000	-0.007	0.069
-710.675	85.467	0.229	-0.258
-709.660	721.249	-0.097	-0.264
-708.645	-167.281	-0.124	-0.005
-707.631	396.420	-0.068	0.145
-706.616	-147.801	-0.379	-0.032
-705.602	-97.022	-0.066	0.018
-704.587	-112.698	0.136	-0.028
-703.572	-53.710	-0.130	0.061
-702.558	-56.082	0.062	-0.028
-701.543	-200.000	0.003	0.254
-700.529	800.000	0.079	-0.238
-699.514	-200.000	0.039	-0.250
-698.499	400.255	0.036	-0.078
-697.485	-93.117	-0.505	0.144
-696.470	539.967	0.048	-0.116
-695.456	-200.000	-0.058	-0.269
-694.441	57.894	0.235	-0.235
-693.426	800.000	0.071	-0.278
-692.412	-42.266	-0.423	-0.221
-691.397	66.647	-0.142	0.148
-690.383	188.653	0.053	0.081
-689.368	-156.104	0.278	0.018
-688.354	65.553	0.008	0.008
-687.339	157.002	-0.194	-0.274
-686.324	642.944	-0.100	-0.260
-685.310	135.822	0.117	0.156
-684.295	-71.524	0.145	0.056
-683.281	473.068	0.112	-0.258
-682.266	6.615	0.078	-0.059
-681.251	21.565	-0.009	0.008
-680.237	-96.607	-0.414	0.111
-679.222	98.025	0.150	-0.176
-678.208	-54.460	-0.090	0.041
-677.193	290.174	0.231	-0.428
-676.178	433.533	-0.153	-0.340
-675.164	-156.977	-0.038	0.002
-674.149	106.334	-0.129	-0.156
-673.135	800.000	-0.059	-0.258
-672.120	227.242	-0.143	0.238
-671.105	142.323	0.144	0.196
-670.091	-72.591	-0.127	-0.048
-669.076	168.106	0.185	-0.268
-668.062	11.101	0.276	-0.215
-667.047	440.435	0.043	-0.095
-666.032	800.000	0.046	-0.170
-665.018	15.660	-0.279	0.224
-664.003	-200.000	-0.013	-0.255
-662.989	-96.246	-0.141	0.038
-661.974	-200.000	-0.036	0.214
-660.959	-50.135	0.353	0.171
-659.945	-30.142	0.146	-0.085
-658.930	-200.000	0.016	-0.363
-657.916	-68.881	0.142	-0.056
-656.901	310.207	-0.139	0.266
-655.886	-107.728	-0.264	-0.059
-654.872	797.698	-0.088	0.249
-653.857	344.614	-0.035	-0.070
-652.843	800.000	0.027	0.097
-651.828	174.719	-0.081	-0.119
-650.814	268.305	-0.070	0.125
-649.799	200.984	-0.099	0.155
-648.784	495.693	0.047	0.110
-647.770	148.835	0.168	-0.232
-646.755	197.387	-0.104	0.161
-645.741	-89.145	0.050	0.015
-644.726	-170.976	0.201	0.007
-643.711	-200.000	-0.022	0.228
-642.697	-175.866	-0.571	-0.016
-641.682	-67.686	0.059	-0.024
-640.668	-200.000	0.027	0.146
-639.653	-58.275	-0.212	0.094
-638.638	43.937	-0.082	-0.077
-637.624	-200.000	0.061	0.308
-636.609	-144.552	-0.239	-0.023
-635.595	-200.000	-0.026	0.201
-634.580	-200.000	0.008	0.131
-633.565	665.846	0.080	-0.211
-632.551	800.000	0.054	0.182
-631.536	-26.423	-0.141	-0.084
-630.522	46.391	-0.076	0.072
-629.507	800.000	0.051	0.169
-628.492	110.686	0.047	0.057
-627.478	-200.000	-0.012	-0.331
-626.463	149.742	0.066	-0.092
-625.449	77.333	0.055	-0.059
-624.434	-50.785	-0.192	0.092
-623.419	18.537	-0.280	0.228
-622.405	-194.161	0.234	0.002
-621.390	-200.000	0.003	0.191
-620.376	-39.794	0.067	-0.036
-619.361	113.732	-0.232	-0.287
-618.346	-200.000	0.066	-0.383
-617.332	642.995	0.116	0.301
-616.317	404.441	0.100	-0.216
-615.303	-151.502	-0.307	-0.023
-614.288	317.527	0.045	0.087
-613.273	-103.184	0.111	-0.027
-612.259	114.001	0.191	0.237
-611.244	-87.434	-0.436	-0.134
-610.230	203.740	0.088	0.139
-609.215	800.000	-0.083	-0.300
-608.201	-85.842	0.220	0.069
-607.186	7.058	0.355	0.269
-606.171	-49.722	-0.116	-0.056
-605.157	-21.663	0.101	-0.063
-604.142	-92.227	-0.322	-0.093
-603.128	148.981	-0.093	0.128
-602.113	-19.394	0.066	0.041
-601.098	-12.113	0.271	-0.181
-600.084	-118.715	-0.023	0.004
-599.069	-200.000	-0.029	0.451
-598.055	-200.000	0.032	0.371
-597.040	800.000	0.057	0.188
-596.025	337.038	0.055	0.109
-595.011	-131.290	-0.214	0.029
-593.996	-140.586	0.306	0.032
-592.982	-129.124	-0.032	0.005
-591.967	-33.867	0.207	0.116
-590.952	-158.900	-0.032	0.002
-589.938	-143.748	0.186	0.018
-588.923	138.880	0.123	-0.165
-587.909	-69.041	-0.208	0.082
-586.894	325.279	-0.232	-0.452
-585.879	-85.662	-0.374	0.118
-584.865	800.000	0.045	0.141
-583.850	75.577	-0.248	0.266
-582.836	-200.000	-0.037	0.299
-581.821	800.000	-0.037	-0.130
-580.806	-65.860	-0.143	-0.058
-579.792	61.240	0.042	0.042
-578.777	800.000	0.063	-0.220
-577.763	-200.000	-0.021	-0.110
-576.748	66.580	-0.158	-0.163
-575.733	-103.100	-0.104	0.025
-574.719	800.000	0.070	0.228
-573.704	406.201	0.065	-0.140
-572.690	-200.000	0.006	-0.571
-571.675	-200.000	-0.034	-0.319
-570.661	800.000	0.088	-0.294
-569.646	3.691	-0.150	0.111
-568.631	350.195	-0.101	0.204
-567.617	-22.843	-0.189	-0.116
-566.602	-1.392	0.205	-0.147
-565.588	-200.000	0.003	-0.319
-564.573	-200.000	0.032	0.189
-563.558	-121.886	-0.312	0.052
-562.544	454.650	0.022	-0.051
-561.529	93.860	0.210	-0.242
-560.515	800.000	-0.011	0.037
-559.500	162.938	-0.289	0.413
-558.485	91.510	-0.072	-0.082
-557.471	-200.000	0.009	0.100
-556.456	-19.313	-0.154	0.097
-555.442	-200.000	-0.047	-0.300
-554.427	-155.331	-0.295	0.019
-553.412	-11.806	0.220	0.147
-552.398	-83.385	-0.213	-0.069
-551.383	64.989	0.238	0.245
-550.369	-139.071	-0.165	-0.018
-549.354	110.579	0.156	0.191
-548.339	-24.365	-0.269	0.163
-547.325	489.209	-0.065	0.151
-546.310	-29.952	0.091	0.053
-545.296	161.266	0.272	-0.387
-544.281	-53.224	-0.170	0.079
-543.266	-200.000	0.043	0.293
-542.252	-200.000	0.024	-0.116
-541.237	97.416	-0.127	0.148
-540.223	800.000	-0.072	-0.250
-539.208	800.000	0.166	-0.528
-538.193	18.758	0.145	-0.118
-537.179	41.622	0.080	0.073
-536.164	153.968	0.124	0.172
-535.150	204.759	-0.148	-0.234
-534.135	-162.758	-0.371	0.018
-533.121	0.884	-0.140	0.102
-532.106	800.000	0.129	0.400
-531.091	-130.785	0.012	0.002
-530.077	194.864	0.134	-0.207
-529.062	-200.000	0.031	-0.141
-528.048	612.044	0.083	0.211
-527.033	119.335	-0.094	0.118
-526.018	282.108	-0.046	-0.083
-525.004	-34.014	0.287	0.160
-523.989	-101.629	0.293	-0.072
-522.975	258.475	-0.106	-0.185
-521.960	-200.000	0.011	0.130
-520.945	-10.332	0.343	0.231
-519.931	-106.723	-0.268	0.060
-518.916	-60.473	0.081	0.035
-517.902	79.026	0.193	0.210
-516.887	486.940	0.059	0.136
-515.872	-80.036	-0.221	0.075
-514.858	-47.805	0.144	0.071
-513.843	800.000	-0.138	0.528
-512.829	80.456	0.072	0.078
-511.814	446.379	0.067	0.149
-510.799	24.408	-0.188	0.158
-509.785	-118.391	-0.136	-0.025
-508.770	43.882	-0.118	0.109
-507.756	-40.841	0.134	-0.070
-506.741	171.325	0.196	-0.285
-505.726	705.094	-0.177	0.474
-504.712	290.956	0.186	-0.343
-503.697	-80.487	-0.140	-0.047
-502.683	30.792	-0.248	-0.215
-501.668	-200.000	0.016	-0.101
-500.653	-102.262	-0.279	0.068
-499.639	-200.000	0.057	-0.267
-498.624	-84.820	-0.173	0.055
-497.610	25.250	0.041	-0.035
-496.595	-108.240	-0.272	-0.060
-495.581	-200.000	-0.076	0.400
-494.566	-111.422	-0.363	-0.075
-493.551	-200.000	0.028	-0.229
-492.537	140.913	-0.110	0.147
-491.522	-51.221	0.089	0.042
-490.508	-31.228	-0.159	0.091
-489.493	-200.000	-0.060	0.326
-488.478	68.544	0.088	-0.091
-487.464	-154.889	-0.090	0.006
-486.449	74.965	0.197	-0.211
-485.435	-200.000	-0.038	-0.330
-484.420	800.000	0.051	-0.161
-483.405	20.483	-0.126	-0.103
-482.391	-70.048	0.248	-0.096
-481.376	281.852	0.050	0.091
-480.362	-2.899	0.132	-0.094
-479.347	368.841	-0.069	0.141
-478.332	-158.009	-0.122	0.007
-477.318	-8.719	0.230	-0.156
-476.303	22.904	0.266	-0.221
-475.289	168.640	0.092	0.133
-474.274	-6.163	-0.222	-0.154
-473.259	-120.777	-0.164	-0.028
-472.245	273.309	0.044	-0.079
-471.230	-69.211	0.457	0.178
-470.216	751.308	-0.085	-0.234
-469.201	-21.500	-0.357	-0.220
-468.186	-200.000	-0.001	-0.028
-467.172	-4.676	-0.383	0.268
-466.157	-135.534	-0.158	-0.019
-465.143	-200.000	0.001	-0.226
-464.128	-45.232	-0.234	0.118
-463.113	800.000	-0.053	0.220
-462.099	-128.125	-0.047	-0.007
-461.084	-44.440	-0.146	-0.074
-460.070	800.000	-0.033	-0.121
-459.055	-65.340	0.503	-0.205
-458.040	212.873	-0.141	-0.226
-457.026	-41.929	0.094	0.049
-456.011	-85.375	0.237	-0.075
-454.997	193.802	0.167	-0.256
-453.982	-113.298	0.322	-0.064
-452.968	-165.254	0.171	0.008
-451.953	-154.868	-0.293	0.020
-450.938	-200.000	0.030	-0.159
-449.924	-200.000	0.003	-0.124
-448.909	82.114	-0.150	0.165
-447.895	-133.111	0.363	0.047
-446.880	417.435	0.105	-0.228
-445.865	-77.640	-0.245	0.086
-444.851	341.471	-0.072	-0.142
-443.836	176.170	-0.165	-0.243
-442.822	-119.691	-0.458	0.080
-441.807	-73.578	-0.168	-0.062
-440.792	61.029	-0.153	0.153
-439.778	-91.193	-0.129	-0.037
-438.763	257.751	-0.066	0.115
-437.749	31.824	-0.135	0.118
-436.734	115.809	-0.139	0.172
-435.719	628.228	-0.048	0.124
-434.705	800.000	-0.018	-0.078
-433.690	175.222	-0.104	0.153
-432.676	-6.691	0.013	-0.009
-431.661	-130.595	0.172	0.023
-430.646	3.601	0.172	-0.127
-429.632	37.659	0.164	-0.147
-428.617	-10.745	0.402	-0.269
-427.603	-95.710	0.228	-0.062
-426.588	-120.902	0.191	-0.033
-425.573	-36.813	0.063	0.034
-424.559	800.000	0.076	-0.301
-423.544	166.054	0.170	0.244
-422.530	70.991	-0.215	0.226
-421.515	340.007	0.189	-0.374
-420.500	78.739	-0.071	0.076
-419.486	-200.000	0.012	0.104
-418.471	-95.984	0.042	-0.011
-417.457	-200.000	0.026	-0.297
-416.442	-125.154	0.094	0.015
-415.428	8.213	-0.092	0.070
-414.413	-170.975	-0.067	-0.002
-413.398	139.606	0.220	0.293
-412.384	-17.090	-0.270	-0.172
-411.369	-200.000	-0.037	-0.319
-410.355	-200.000	-0.012	-0.067
-409.340	-200.000	-0.027	-0.129
-408.325	-151.287	-0.246	0.019
-407.311	-68.665	0.283	-0.111
-406.296	196.714	0.118	0.183
-405.282	-116.206	0.280	0.053
-404.267	800.000	0.061	-0.197
-403.252	79.224	0.034	0.037
-402.238	494.607	-0.023	0.053
-401.223	20.509	0.413	0.337
-400.209	-126.847	-0.296	0.044
-399.194	235.243	0.208	-0.348
-398.179	-200.000	-0.017	0.152
-397.165	800.000	-0.066	0.261
-396.150	124.049	0.227	0.288
-395.136	-23.139	0.158	-0.096
-394.121	-76.448	0.257	-0.091
-393.106	415.360	0.080	-0.172
-392.092	52.767	-0.142	-0.138
-391.077	35.121	0.151	-0.134
-390.063	-63.165	0.347	-0.144
-389.048	-22.179	0.151	0.093
-388.033	102.570	-0.192	0.227
-387.019	-3.741	0.220	0.154
-386.004	-60.202	0.288	0.124
-384.990	800.000	-0.012	-0.049
-383.975	800.000	-0.022	0.072
-382.960	-0.945	0.195	0.139
-381.946	800.000	-0.060	-0.195
-380.931	57.012	0.088	-0.087
-379.917	-200.000	-0.015	-0.207
-378.902	-145.802	-0.079	-0.007
-377.888	-74.798	0.390	0.141
-376.873	40.781	-0.221	0.201
-375.858	-16.059	0.071	0.045
-374.844	-8.615	-0.415	0.282
-373.829	101.030	-0.144	0.170
-372.815	-139.874	0.422	-0.045
-371.800	85.235	0.195	-0.217
-370.785	-41.686	0.459	0.238
-369.771	788.096	-0.107	-0.298
-368.756	-200.000	-0.004	-0.112
-367.742	293.366	-0.097	0.179
-366.727	149.956	0.202	-0.277
-365.712	151.090	-0.184	-0.253
-364.698	800.000	-0.096	0.355
-363.683	-101.122	-0.399	-0.099
-362.669	-83.347	0.230	0.074
-361.654	799.569	0.078	0.217
-360.639	509.763	-0.026	0.062
-359.625	-22.882	0.196	0.119
-358.610	677.282	0.051	-0.133
-357.596	800.000	-0.014	-0.050
-356.581	-46.963	-0.045	-0.022
-355.566	-111.370	0.155	0.032
-354.552	94.096	0.106	0.121
-353.537	-3.342	0.294	0.207
-352.523	-102.314	-0.254	0.062
-351.508	-93.773	-0.081	-0.022
-350.493	31.583	0.075	-0.065
-349.479	-84.130	0.155	0.050
-348.464	-200.000	-0.038	0.186
-347.450	132.731	-0.111	-0.145
-346.435	-44.411	0.296	-0.149
-345.420	-190.615	0.296	-0.003
-344.406	-200.000	0.002	0.105
-343.391	-122.565	0.266	0.044
-342.377	-200.000	-0.034	0.177
-341.362	515.284	0.018	-0.043
-340.348	-200.000	-0.023	0.274
-339.333	-200.000	0.003	0.072
-338.318	-112.938	0.075	0.015
-337.304	-188.399	-0.113	-0.001
-336.289	-33.280	0.180	0.101
-335.275	-110.253	-0.263	-0.055
-334.260	-20.806	0.062	-0.038
-333.245	-200.000	0.068	-0.368
-332.231	-28.526	-0.123	0.072
-331.216	-116.181	-0.086	-0.016
-330.202	547.191	-0.045	0.109
-329.187	-200.000	-0.008	0.290
-328.172	237.284	0.132	-0.221
-327.158	343.979	-0.039	-0.077
-326.143	-121.719	-0.216	0.036
-325.129	-200.000	0.002	0.056
-324.114	213.848	0.225	0.359
-323.099	545.167	0.139	-0.334
-322.085	-200.000	-0.024	0.268
-321.070	149.353	0.120	0.164
-320.056	-200.000	-0.026	-0.225
-319.041	-140.597	-0.122	-0.013
-318.026	-19.393	0.081	-0.050
-317.012	434.969	0.022	-0.049
-315.997	-29.396	-0.105	-0.061
-314.983	94.236	-0.206	0.235
-313.968	800.000	-0.039	0.115
-312.953	27.281	0.234	-0.198
-311.939	-124.988	-0.565	-0.087
-310.924	-200.000	0.117	0.000
-309.910	-200.000	0.016	0.424
-308.895	141.233	-0.149	0.198
-307.880	-124.072	-0.075	0.012
-306.866	109.347	0.125	0.151
-305.851	-4.235	-0.186	-0.130
-304.837	29.597	-0.146	-0.125
-303.822	800.000	-0.063	-0.183
-302.807	-106.231	0.125	-0.028
-301.793	-81.093	-0.071	0.024
-300.778	-152.861	0.026	0.002
-299.764	46.208	0.125	0.117
-298.749	80.186	0.113	-0.122
-297.735	2.056	0.177	0.129
-296.720	800.000	0.015	0.053
-295.705	33.927	0.190	-0.166
-294.691	-200.000	0.027	0.154
-293.676	-183.707	-0.119	-0.002
-292.662	-69.295	-0.306	-0.118
-291.647	79.048	-0.140	0.150
-290.632	-100.465	-0.342	-0.085
-289.618	152.934	-0.110	0.151
-288.603	-69.311	0.297	0.115
-287.589	800.000	-0.073	0.216
-286.574	267.751	0.119	-0.210
-285.559	228.875	-0.184	-0.302
-284.545	57.448	-0.265	-0.260
-283.530	800.000	-0.101	-0.347
-282.516	-96.130	-0.160	0.043
-281.501	28.633	-0.149	-0.127
-280.486	49.640	-0.224	0.212
-279.472	-40.612	-0.216	0.113
-278.457	46.646	0.075	0.070
-277.443	131.937	-0.197	-0.255
-276.428	-105.950	0.208	0.047
-275.413	425.421	0.055	-0.120
-274.399	172.458	0.105	-0.151
-273.384	21.521	0.127	-0.104
-272.370	-15.140	-0.132	0.085
-271.355	-129.403	-0.060	-0.008
-270.340	188.973	0.099	-0.148
-269.326	302.614	0.034	-0.064
-268.311	35.373	0.263	0.232
-267.297	-200.000	-0.027	-0.132
-266.282	-0.108	0.083	-0.060
-265.267	-33.051	-0.133	-0.074
-264.253	14.538	-0.081	0.063
-263.238	-99.607	0.171	-0.043
-262.224	113.000	-0.036	-0.044
-261.209	-73.118	-0.163	0.060
-260.195	198.150	0.045	-0.070
-259.180	522.612	-0.206	-0.487
-258.165	-64.498	0.124	0.050
-257.151	-69.374	-0.252	0.097
-256.136	-33.657	-0.222	0.123
-255.122	800.000	0.069	-0.203
-254.107	-86.205	0.381	-0.118
-253.092	-135.259	-0.121	0.015
-252.078	-78.785	-0.088	0.030
-251.063	-200.000	0.034	0.406
-250.049	-200.000	0.015	-0.384
-249.034	390.976	0.186	0.388
-248.019	-100.602	0.042	-0.010
-247.005	-69.778	0.186	0.071
-245.990	-75.158	0.354	-0.127
-244.976	800.000	0.099	0.433
-243.961	-96.150	-0.290	0.077
-242.946	800.000	0.110	0.316
-241.932	-200.000	-0.032	0.320
-240.917	-29.940	0.049	-0.028
-239.903	800.000	0.078	-0.267
-238.888	-152.743	-0.154	0.011
-237.873	800.000	0.053	-0.151
-236.859	800.000	-0.059	-0.247
-235.844	-60.633	-0.371	-0.158
-234.830	-3.242	-0.116	0.081
-233.815	-26.212	0.172	0.101
-232.800	-126.850	-0.259	0.038
-231.786	558.424	-0.113	0.274
-230.771	-104.808	0.210	-0.048
-229.757	21.001	0.154	-0.125
-228.742	-118.978	0.225	0.040
-227.727	-55.782	0.240	-0.108
-226.713	-92.043	0.048	0.014
-225.698	2.217	0.288	-0.209
-224.684	103.627	-0.176	-0.207
-223.669	800.000	-0.077	-0.220
-222.655	70.295	0.095	-0.099
-221.640	-110.911	0.033	0.007
-220.625	-48.273	-0.095	-0.046
-219.611	25.477	-0.178	0.148
-218.596	132.622	0.092	0.119
-217.582	215.062	-0.022	0.036
-216.567	13.016	0.270	-0.210
-215.552	-132.083	-0.121	0.016
-214.538	-57.354	0.139	-0.061
-213.523	708.223	0.071	-0.189
-212.509	224.976	-0.051	-0.083
-211.494	86.170	-0.113	0.125
-210.479	800.000	-0.080	0.245
-209.465	-200.000	0.016	-0.196
-208.450	800.000	0.074	-0.254
-207.436	217.937	0.053	0.084
-206.421	182.064	-0.068	0.101
-205.406	-200.000	0.034	-0.341
-204.392	34.422	-0.329	-0.288
-203.377	17.052	-0.015	-0.012
-202.363	-97.995	0.302	0.078
-201.348	-50.666	0.351	0.166
-200.333	36.111	-0.170	0.150
-199.319	643.389	0.048	0.123
-198.304	-200.000	-0.029	-0.229
-197.290	-28.486	0.204	0.118
-196.275	-48.495	-0.028	0.014
-195.260	-200.000	-0.043	-0.373
-194.246	43.471	-0.068	-0.062
-193.231	50.616	-0.211	-0.200
-192.217	-47.604	0.221	0.108
-191.202	137.650	-0.278	0.364
-190.187	-17.812	-0.144	0.091
-189.173	467.664	0.048	-0.107
-188.158	-54.440	-0.046	-0.021
-187.144	28.213	0.327	0.277
-186.129	159.717	-0.142	-0.198
-185.114	-88.201	-0.074	-0.022
-184.100	99.202	-0.183	0.212
-183.085	597.392	0.165	0.409
-182.071	50.019	-0.329	0.312
-181.056	210.954	-0.069	0.109
-180.042	-200.000	0.009	0.222
-179.027	281.756	-0.076	0.137
-178.012	-22.238	0.231	-0.140
-176.998	-171.017	-0.258	0.009
-175.983	800.000	-0.044	0.194
-174.969	8.078	0.194	0.146
-173.954	800.000	0.024	0.085
-172.939	-62.335	0.125	-0.052
-171.925	113.449	0.209	-0.254
-170.910	-193.162	0.190	0.002
-169.896	-80.168	-0.222	0.075
-168.881	-39.611	0.159	0.084
-167.866	800.000	-0.047	0.130
-166.852	-200.000	0.018	0.101
-165.837	433.688	-0.014	0.030
-164.823	-158.599	-0.241	-0.014
-163.808	134.706	-0.167	-0.217
-162.793	104.816	0.221	-0.261
-161.779	-74.053	-0.392	-0.142
-160.764	-159.221	0.257	-0.014
-159.750	-42.514	-0.084	-0.043
-158.735	-200.000	-0.009	-0.386
-157.720	52.784	0.101	-0.097
-156.706	-9.177	-0.246	-0.165
-155.691	800.000	-0.012	-0.042
-154.677	-56.225	-0.309	-0.138
-153.662	800.000	0.071	-0.213
-152.647	-16.634	0.376	0.238
-151.633	-1.937	0.191	-0.134
-150.618	-200.000	-0.012	-0.196
-149.604	-50.783	-0.281	-0.132
-148.589	-154.917	-0.095	0.006
-147.574	106.759	0.092	-0.110
-146.560	588.534	-0.038	-0.094
-145.545	800.000	0.015	-0.047
-144.531	7.437	-0.123	0.092
-143.516	123.396	-0.166	0.208
-142.502	64.312	-0.141	-0.142
-141.487	-72.560	-0.177	-0.066
-140.472	64.628	-0.170	-0.171
-139.458	-137.029	0.156	0.018
-138.443	173.675	-0.170	0.245
-137.429	800.000	0.069	-0.259
-136.414	66.525	0.164	0.166
-135.399	-200.000	0.078	0.383
-134.385	97.508	0.139	-0.160
-133.370	-31.263	0.447	0.252
-132.356	800.000	0.014	-0.052
-131.341	407.071	-0.152	-0.322
-130.326	155.504	0.062	-0.085
-129.312	-82.637	-0.256	-0.083
-128.297	-200.000	0.075	0.378
-127.283	39.872	0.149	0.134
-126.268	254.292	-0.050	-0.085
-125.253	-65.480	-0.269	-0.108
-124.239	231.333	-0.049	-0.081
-123.224	107.936	0.183	-0.219
-122.210	-18.533	0.284	0.177
-121.195	357.018	-0.125	0.250
