DTS Sentinel unit serial number:	SN413079Multiplexer serial number:	ORYXHardware model number:	OX4-SRSoftware version number:	ORYX F/W v4.00 Oryx Data Collector v3.7.2.0data status	okinstallation	princeton_trtdifferential loss correction	single-endedforward channel	channel 4reverse channel	N/Adate	2019/09/11time	11:07:11forward acquisition time	60.00reverse acquisition time	0.00gamma	496.2192k internal	0.2293k external	0.2293temperature offset calibration	0.9968default loss term (dB/km)	0.3790temperature slope calibration	1.0000multiplexer offset coefficient	1.0000multiplexer slope coefficient	1.0000fibre end	0.00T internal ref (°C)	37.44T ext. ref 1 (°C)	0.17T ext. ref 2 (°C)	34.25length (m)	temperature (°C)	Stokes	anti-Stokes-747.200	-111.062	-0.354	0.074
-746.185	144.649	0.043	0.058
-745.171	-139.391	-0.127	0.014
-744.156	-98.630	0.197	-0.051
-743.142	800.000	-0.067	0.216
-742.127	74.069	-0.176	0.189
-741.112	-174.860	0.129	-0.004
-740.098	-5.698	0.053	0.037
-739.083	-200.000	0.016	-0.178
-738.069	-200.000	-0.238	-0.001
-737.054	-68.647	0.092	-0.037
-736.039	800.000	0.025	-0.083
-735.025	-13.017	0.231	-0.153
-734.010	-67.637	0.036	0.014
-732.996	176.840	-0.050	-0.074
-731.981	62.349	0.012	-0.012
-730.966	-142.242	-0.327	-0.033
-729.952	-121.431	-0.319	0.054
-728.937	-11.317	-0.159	0.107
-727.923	270.651	0.076	0.136
-726.908	-18.250	-0.128	0.082
-725.894	-56.271	-0.197	-0.089
-724.879	800.000	0.024	0.100
-723.864	-52.944	-0.284	0.134
-722.850	-200.000	-0.077	-0.393
-721.835	72.619	0.136	0.145
-720.821	-200.000	-0.036	-0.285
-719.806	-108.651	-0.342	0.075
-718.791	-44.206	-0.391	-0.201
-717.777	-200.000	-0.023	0.197
-716.762	135.708	0.094	-0.125
-715.748	178.619	0.178	0.266
-714.733	-97.378	-0.204	0.054
-713.718	-49.068	0.148	-0.072
-712.704	18.931	-0.048	0.039
-711.689	278.883	0.230	-0.420
-710.675	-139.447	0.371	-0.041
-709.660	800.000	-0.047	-0.172
-708.645	800.000	-0.052	-0.174
-707.631	310.272	0.063	-0.120
-706.616	-57.279	-0.218	-0.098
-705.602	257.376	0.071	-0.124
-704.587	225.957	-0.136	0.226
-703.572	-200.000	-0.019	0.173
-702.558	-2.728	0.150	-0.107
-701.543	31.808	0.154	0.135
-700.529	-200.000	-0.002	0.091
-699.514	25.557	-0.147	-0.125
-698.499	323.353	-0.199	0.388
-697.485	-79.542	0.198	0.068
-696.470	800.000	0.054	0.204
-695.456	-200.000	-0.053	-0.280
-694.441	85.262	0.186	0.208
-693.426	800.000	-0.065	0.222
-692.412	169.161	0.084	-0.122
-691.397	-159.189	0.223	0.013
-690.383	182.260	-0.152	-0.228
-689.368	-200.000	0.015	-0.186
-688.354	800.000	0.048	-0.157
-687.339	-200.000	0.015	0.342
-686.324	-102.818	0.380	0.092
-685.310	-152.208	-0.183	-0.014
-684.295	-183.557	-0.641	-0.011
-683.281	-75.885	0.315	-0.114
-682.266	256.723	-0.117	0.206
-681.251	800.000	-0.075	-0.283
-680.237	-24.667	-0.145	0.088
-679.222	800.000	0.094	0.269
-678.208	95.601	-0.062	0.072
-677.193	1.797	-0.228	-0.167
-676.178	-200.000	-0.016	-0.372
-675.164	-200.000	-0.020	0.212
-674.149	-185.538	-0.181	0.003
-673.135	731.837	-0.051	-0.138
-672.120	262.773	0.109	-0.193
-671.105	-95.438	0.156	-0.043
-670.091	-200.000	0.010	-0.075
-669.076	-200.000	-0.038	-0.257
-668.062	-200.000	0.022	-0.153
-667.047	330.254	-0.018	-0.035
-666.032	-43.832	0.222	-0.114
-665.018	79.355	-0.143	-0.156
-664.003	187.141	0.167	0.253
-662.989	-149.633	0.082	-0.007
-661.974	-200.000	-0.011	0.229
-660.959	-141.801	0.307	0.031
-659.945	550.822	-0.119	-0.292
-658.930	-79.150	-0.152	0.053
-657.916	-200.000	-0.041	-0.332
-656.901	-169.427	-0.078	0.003
-655.886	-109.877	-0.151	0.032
-654.872	84.474	-0.092	0.102
-653.857	-200.000	-0.026	-0.221
-652.843	4.350	-0.192	0.143
-651.828	-63.451	0.154	0.064
-650.814	-130.005	-0.161	-0.022
-649.799	18.451	0.050	-0.041
-648.784	-112.481	-0.207	0.042
-647.770	800.000	0.022	-0.085
-646.755	128.184	0.051	0.067
-645.741	-75.697	-0.149	-0.054
-644.726	57.754	-0.362	0.361
-643.711	470.549	-0.082	-0.189
-642.697	-100.211	-0.400	0.101
-641.682	-161.705	-0.222	0.012
-640.668	-48.075	0.283	-0.139
-639.653	-200.000	0.004	-0.027
-638.638	-91.667	-0.224	0.065
-637.624	-110.845	0.244	-0.051
-636.609	-45.008	0.218	-0.111
-635.595	-30.546	-0.160	-0.092
-634.580	165.318	0.063	0.091
-633.565	3.476	0.217	-0.161
-632.551	259.747	-0.177	0.311
-631.536	200.109	0.225	0.353
-630.522	-142.155	0.065	0.007
-629.507	-80.205	-0.077	-0.026
-628.492	175.729	0.249	0.368
-627.478	-200.000	0.050	0.298
-626.463	206.344	-0.030	-0.048
-625.449	11.216	-0.196	-0.152
-624.434	-200.000	-0.006	-0.068
-623.419	-200.000	-0.027	-0.176
-622.405	310.184	-0.183	-0.349
-621.390	-37.600	0.151	0.082
-620.376	-200.000	-0.006	0.198
-619.361	-70.552	-0.142	0.055
-618.346	-200.000	-0.009	-0.296
-617.332	-33.032	0.145	-0.082
-616.317	350.180	-0.045	-0.090
-615.303	-135.017	0.094	0.012
-614.288	-55.959	-0.399	0.181
-613.273	800.000	-0.060	0.184
-612.259	-200.000	-0.024	-0.293
-611.244	737.475	-0.093	-0.253
-610.230	-195.702	-0.194	0.001
-609.215	-3.306	0.179	0.127
-608.201	-200.000	-0.032	0.160
-607.186	180.401	0.223	0.333
-606.171	38.532	0.159	0.144
-605.157	-144.742	0.319	0.030
-604.142	95.216	-0.284	0.329
-603.128	239.327	0.118	-0.199
-602.113	-103.474	-0.452	0.108
-601.098	54.932	0.209	-0.205
-600.084	800.000	-0.115	0.376
-599.069	800.000	-0.085	0.263
-598.055	-53.410	-0.288	0.134
-597.040	-200.000	-0.044	0.238
-596.025	-115.838	-0.097	0.018
-595.011	47.806	-0.106	-0.101
-593.996	800.000	0.072	-0.273
-592.982	90.059	0.152	-0.173
-591.967	115.950	0.086	-0.107
-590.952	-113.206	-0.309	0.062
-589.938	-143.818	-0.385	-0.037
-588.923	372.019	-0.022	-0.046
-587.909	-186.278	0.268	0.004
-586.894	-107.824	0.057	-0.013
-585.879	117.333	0.188	0.235
-584.865	-200.000	0.013	-0.223
-583.850	-180.364	0.275	-0.006
-582.836	-178.467	-0.232	0.005
-581.821	61.189	-0.121	-0.122
-580.806	-91.051	0.232	-0.068
-579.792	-79.190	-0.113	0.039
-578.777	448.295	-0.133	0.297
-577.763	52.988	-0.320	-0.311
-576.748	800.000	0.057	-0.172
-575.733	-119.624	-0.082	0.014
-574.719	241.169	-0.028	0.048
-573.704	18.896	-0.124	-0.101
-572.690	307.500	-0.030	0.057
-571.675	523.426	-0.074	0.177
-570.661	-200.000	-0.027	-0.140
-569.646	-200.000	0.079	-0.415
-568.631	-155.279	-0.227	-0.015
-567.617	-98.409	-0.044	0.012
-566.602	-200.000	-0.013	0.061
-565.588	-200.000	0.042	-0.197
-564.573	-69.024	-0.110	0.043
-563.558	-150.922	0.169	-0.013
-562.544	-119.303	-0.145	-0.026
-561.529	487.565	0.025	-0.057
-560.515	800.000	0.024	-0.101
-559.500	9.514	-0.134	-0.103
-558.485	271.708	0.080	-0.144
-557.471	-166.184	-0.240	0.010
-556.456	354.911	0.017	0.034
-555.442	-138.011	-0.234	-0.026
-554.427	-143.151	0.177	-0.017
-553.412	-60.459	0.170	0.073
-552.398	160.886	0.245	-0.347
-551.383	74.780	0.133	-0.142
-550.369	38.880	0.134	-0.121
-549.354	-77.419	-0.249	-0.088
-548.339	48.322	-0.042	-0.040
-547.325	-90.473	0.200	-0.059
-546.310	325.003	-0.016	-0.030
-545.296	299.623	0.081	-0.152
-544.281	386.048	0.201	-0.421
-543.266	800.000	-0.068	0.265
-542.252	576.996	0.143	0.355
-541.237	-13.538	-0.102	-0.067
-540.223	-15.147	-0.022	0.014
-539.208	-63.252	-0.112	0.047
-538.193	243.155	0.134	0.227
-537.179	-36.046	-0.093	0.051
-536.164	121.013	0.157	-0.198
-535.150	247.609	-0.014	0.023
-534.135	-157.566	0.171	0.010
-533.121	-136.884	0.102	-0.012
-532.106	-200.000	-0.046	0.294
-531.091	216.371	0.171	-0.275
-530.077	37.263	-0.032	0.029
-529.062	259.290	0.062	0.108
-528.048	-73.063	-0.184	-0.068
-527.033	-122.093	0.150	-0.025
-526.018	398.383	-0.080	0.171
-525.004	800.000	-0.082	0.254
-523.989	386.835	-0.093	-0.194
-522.975	-200.000	-0.016	0.162
-521.960	20.948	-0.360	-0.296
-520.945	-40.556	0.244	0.128
-519.931	-154.170	0.391	-0.027
-518.916	-200.000	-0.027	0.388
-517.902	-180.713	0.308	-0.006
-516.887	800.000	0.064	0.182
-515.872	519.951	-0.083	-0.198
-514.858	56.292	-0.190	-0.187
-513.843	-200.000	-0.043	-0.342
-512.829	-35.281	-0.089	0.049
-511.814	50.525	-0.188	-0.181
-510.799	59.909	0.082	-0.082
-509.785	617.517	0.096	0.243
-508.770	23.337	-0.058	-0.048
-507.756	-200.000	-0.002	-0.057
-506.741	-191.290	-0.149	-0.002
-505.726	-43.001	0.172	0.089
-504.712	-24.528	-0.143	0.086
-503.697	22.383	-0.137	0.113
-502.683	197.520	-0.263	0.407
-501.668	-178.675	-0.159	0.004
-500.653	4.913	0.126	-0.094
-499.639	44.618	-0.124	-0.115
-498.624	59.533	-0.166	-0.166
-497.610	-139.723	-0.154	-0.017
-496.595	-40.379	-0.296	-0.156
-495.581	-95.188	0.282	-0.077
-494.566	-200.000	0.041	0.212
-493.551	-200.000	0.072	0.430
-492.537	56.118	-0.187	0.184
-491.522	800.000	0.071	0.201
-490.508	136.267	0.222	-0.293
-489.493	176.647	-0.273	0.403
-488.478	800.000	0.075	-0.239
-487.464	-71.530	-0.319	0.121
-486.449	-150.252	-0.222	-0.017
-485.435	-122.985	-0.266	-0.043
-484.420	151.783	0.225	0.310
-483.405	-84.830	-0.276	0.088
-482.391	-200.000	-0.031	-0.457
-481.376	-200.000	0.020	-0.228
-480.362	800.000	0.050	-0.155
-479.347	5.925	-0.142	-0.107
-478.332	198.383	-0.192	-0.297
-477.318	-130.654	0.271	0.037
-476.303	-200.000	-0.045	-0.299
-475.289	65.655	0.320	0.329
-474.274	-46.748	-0.169	0.084
-473.259	-77.432	-0.237	0.083
-472.245	-100.912	0.005	0.001
-471.230	-200.000	-0.014	0.096
-470.216	-117.086	0.134	-0.025
-469.201	-99.406	-0.280	0.071
-468.186	800.000	-0.027	0.114
-467.172	335.267	0.073	-0.142
-466.157	800.000	0.075	0.322
-465.143	800.000	0.106	0.457
-464.128	-0.251	-0.432	0.311
-463.113	193.536	-0.158	-0.243
-462.099	457.847	0.049	-0.110
-461.084	-200.000	0.021	-0.337
-460.070	56.028	-0.088	0.086
-459.055	-200.000	-0.026	0.144
-458.040	800.000	0.105	0.334
-457.026	120.053	-0.167	0.209
-456.011	243.980	-0.200	0.340
-454.997	113.257	0.155	-0.191
-453.982	800.000	-0.117	-0.337
-452.968	-40.163	-0.359	-0.189
-451.953	503.301	0.147	0.343
-450.938	-200.000	-0.021	0.216
-449.924	-126.174	-0.124	-0.019
-448.909	-122.809	-0.082	-0.013
-447.895	33.154	0.184	0.162
-446.880	-8.785	-0.033	0.022
-445.865	276.643	-0.154	0.277
-444.851	-4.505	-0.077	-0.054
-443.836	800.000	0.076	-0.241
-442.822	-91.750	0.223	-0.064
-441.807	289.266	0.158	0.290
-440.792	-65.035	-0.194	-0.079
-439.778	777.854	0.067	0.185
-438.763	-130.554	-0.123	-0.017
-437.749	412.270	0.052	-0.112
-436.734	-95.435	-0.221	0.060
-435.719	231.429	0.145	0.241
-434.705	185.647	0.062	-0.093
-433.690	517.680	-0.164	-0.389
-432.676	378.654	0.161	-0.333
-431.661	93.554	-0.270	-0.309
-430.646	800.000	0.058	-0.185
-429.632	196.219	-0.017	-0.026
-428.617	-45.633	0.129	0.064
-427.603	-57.889	0.252	0.111
-426.588	136.969	-0.132	-0.174
-425.573	-127.825	0.113	0.016
-424.559	-35.703	0.230	0.126
-423.544	383.553	0.075	-0.155
-422.530	65.241	0.187	-0.191
-421.515	-40.716	-0.282	-0.148
-420.500	-46.325	0.061	-0.030
-419.486	41.325	-0.168	-0.154
-418.471	-117.438	0.226	0.041
-417.457	-200.000	-0.011	0.137
-416.442	156.033	-0.094	-0.130
-415.428	-200.000	-0.003	-0.118
-414.413	-111.190	0.120	-0.025
-413.398	628.600	0.097	-0.247
-412.384	-2.348	0.146	-0.103
-411.369	-200.000	0.007	-0.167
-410.355	255.877	-0.045	-0.078
-409.340	-28.339	0.146	-0.085
-408.325	-200.000	-0.008	-0.345
-407.311	-115.090	0.253	0.048
-406.296	31.212	-0.091	-0.079
-405.282	-22.942	0.007	0.004
-404.267	-123.253	-0.163	0.026
-403.252	-48.569	0.429	-0.208
-402.238	-200.000	0.007	-0.253
-401.223	-80.393	0.122	0.041
-400.209	518.253	-0.067	-0.159
-399.194	74.140	-0.273	-0.290
-398.179	-75.476	0.248	-0.089
-397.165	38.865	-0.274	-0.247
-396.150	-67.128	0.278	0.110
-395.136	133.185	0.102	0.134
-394.121	-57.840	-0.474	0.209
-393.106	36.014	0.072	0.064
-392.092	139.408	0.090	0.119
-391.077	-128.875	0.304	0.043
-390.063	-29.859	0.210	-0.121
-389.048	-200.000	0.032	-0.153
-388.033	800.000	0.049	0.199
-387.019	-26.706	-0.301	0.178
-386.004	272.332	-0.161	0.286
-384.990	800.000	-0.043	0.152
-383.975	-105.126	-0.073	-0.017
-382.960	104.503	0.307	0.364
-381.946	64.049	-0.019	0.019
-380.931	39.959	0.038	0.034
-379.917	-89.187	0.282	0.084
-378.902	106.760	0.041	-0.049
-377.888	53.168	0.195	0.189
-376.873	-47.572	0.206	0.101
-375.858	248.447	0.180	0.307
-374.844	-200.000	-0.044	-0.381
-373.829	-19.371	-0.124	0.077
-372.815	-200.000	0.046	-0.327
-371.800	6.840	-0.245	-0.184
-370.785	-24.728	-0.201	0.121
-369.771	-200.000	0.049	-0.479
-368.756	386.267	0.027	-0.057
-367.742	-200.000	0.008	0.099
-366.727	-66.639	-0.272	-0.109
-365.712	101.465	0.145	-0.170
-364.698	-157.216	0.268	0.016
-363.683	-200.000	-0.022	0.164
-362.669	-177.900	-0.121	0.003
-361.654	-41.706	0.334	0.173
-360.639	-200.000	-0.053	-0.239
-359.625	800.000	0.084	0.322
-358.610	47.695	0.113	-0.106
-357.596	337.935	-0.057	-0.112
-356.581	-200.000	-0.021	0.276
-355.566	-0.662	0.228	-0.163
-354.552	-153.339	0.322	0.023
-353.537	-200.000	-0.015	-0.103
-352.523	-34.003	-0.005	-0.003
-351.508	-200.000	0.003	-0.137
-350.493	344.852	0.120	-0.236
-349.479	-200.000	0.009	-0.369
-348.464	-129.823	-0.186	-0.026
-347.450	203.312	-0.166	-0.259
-346.435	-63.398	0.230	-0.095
-345.420	-200.000	-0.069	-0.318
-344.406	-115.624	0.247	-0.047
-343.391	120.762	-0.058	-0.072
-342.377	-30.057	0.088	-0.051
-341.362	179.327	-0.228	-0.336
-340.348	-200.000	-0.099	0.475
-339.333	-87.445	0.200	-0.061
-338.318	518.333	-0.076	0.178
-337.304	-99.375	-0.223	-0.057
-336.289	-200.000	-0.037	0.219
-335.275	-43.520	-0.338	-0.172
-334.260	-121.626	-0.115	-0.019
-333.245	800.000	0.121	0.397
-332.231	-37.192	0.322	0.173
-331.216	625.854	-0.049	-0.124
-330.202	800.000	0.140	0.561
-329.187	-200.000	0.074	0.324
-328.172	-25.341	-0.248	0.148
-327.158	-87.760	0.267	-0.081
-326.143	-125.775	0.082	-0.013
-325.129	-94.933	0.096	-0.026
-324.114	-82.742	0.169	-0.055
-323.099	1.458	-0.257	0.186
-322.085	-96.460	-0.245	0.065
-321.070	138.749	-0.045	-0.060
-320.056	800.000	0.079	-0.323
-319.041	673.040	-0.099	-0.258
-318.026	-200.000	-0.004	0.252
-317.012	-132.560	0.202	-0.026
-315.997	-18.704	-0.372	-0.233
-314.983	800.000	0.067	0.187
-313.968	83.753	-0.167	-0.183
-312.953	-200.000	0.051	0.576
-311.939	-77.333	0.364	-0.127
-310.924	232.969	-0.205	-0.340
-309.910	-200.000	0.046	-0.213
-308.895	-200.000	0.021	-0.137
-307.880	284.506	-0.078	-0.142
-306.866	-179.592	-0.169	-0.004
-305.851	48.865	-0.237	-0.224
-304.837	-26.002	0.282	-0.167
-303.822	289.242	-0.034	-0.062
-302.807	-132.598	0.234	-0.030
-301.793	-200.000	0.002	-0.411
-300.778	18.013	0.351	0.281
-299.764	-78.348	0.517	-0.178
-298.749	7.920	-0.372	0.281
-297.735	92.287	-0.224	-0.254
-296.720	-200.000	0.013	-0.190
-295.705	165.342	0.150	0.213
-294.691	623.612	-0.068	-0.173
-293.676	21.393	-0.340	-0.277
-292.662	424.097	0.135	0.292
-291.647	-111.815	0.463	0.094
-290.632	-200.000	0.007	0.135
-289.618	-41.608	-0.150	-0.077
-288.603	800.000	0.039	0.157
-287.589	734.564	-0.020	0.055
-286.574	287.609	-0.067	0.122
-285.559	-133.395	0.295	-0.037
-284.545	-200.000	0.011	-0.171
-283.530	221.125	-0.175	-0.282
-282.516	-62.836	0.167	0.070
-281.501	800.000	-0.093	-0.263
-280.486	-129.392	-0.095	-0.013
-279.472	-200.000	0.004	-0.076
-278.457	-21.250	-0.263	-0.161
-277.443	275.331	0.085	0.152
-276.428	401.246	-0.092	0.194
-275.413	800.000	0.028	0.093
-274.399	-200.000	-0.023	0.334
-273.384	-128.931	0.188	0.026
-272.370	81.358	0.229	0.248
-271.355	-200.000	-0.016	0.129
-270.340	106.351	-0.036	-0.043
-269.326	-141.075	0.132	0.014
-268.311	254.672	-0.039	0.067
-267.297	-42.594	0.212	0.108
-266.282	126.990	-0.044	-0.056
-265.267	-151.956	-0.217	-0.016
-264.253	-10.386	0.243	0.162
-263.238	14.120	0.069	-0.054
-262.224	-200.000	0.002	-0.029
-261.209	101.848	0.146	-0.171
-260.195	458.870	-0.168	0.374
-259.180	430.122	-0.108	0.235
-258.165	273.166	0.176	0.312
-257.151	32.147	0.146	-0.127
-256.136	28.058	0.083	0.070
-255.122	-200.000	0.075	0.000
-254.107	624.583	0.082	0.207
-253.092	800.000	-0.070	-0.235
-252.078	-151.890	-0.048	-0.004
-251.063	-109.031	0.457	0.098
-250.049	458.844	0.031	-0.069
-249.034	800.000	0.032	-0.091
-248.019	800.000	-0.007	-0.022
-247.005	-158.844	-0.398	0.023
-245.990	-133.134	-0.341	0.043
-244.976	17.100	0.192	0.153
-243.961	-105.963	0.191	-0.043
-242.946	74.698	-0.021	-0.023
-241.932	50.028	-0.242	-0.229
-240.917	264.336	-0.056	-0.098
-239.903	34.864	-0.136	0.119
-238.888	788.893	-0.109	-0.299
-237.873	-103.631	0.013	0.003
-236.859	-200.000	-0.039	0.309
-235.844	694.116	0.093	0.245
-234.830	-200.000	0.024	0.196
-233.815	119.110	0.096	-0.119
-232.800	-29.132	0.213	0.122
-231.786	800.000	0.071	0.300
-230.771	64.679	0.126	-0.127
-229.757	800.000	0.066	-0.198
-228.742	122.292	0.196	-0.245
-227.727	-200.000	-0.002	0.071
-226.713	-2.255	0.356	0.251
-225.698	-200.000	0.003	0.169
-224.684	-55.357	-0.260	0.117
-223.669	-200.000	0.024	0.155
-222.655	-148.229	0.463	-0.038
-221.640	-96.224	-0.330	-0.088
-220.625	-98.087	-0.259	-0.067
-219.611	4.746	0.082	0.060
-218.596	300.610	0.052	-0.096
-217.582	-41.002	-0.391	-0.203
-216.567	-114.633	-0.092	0.018
-215.552	479.471	-0.199	0.452
-214.538	800.000	-0.148	-0.417
-213.523	-35.104	-0.252	-0.138
-212.509	800.000	0.135	0.403
-211.494	-60.610	-0.058	-0.024
-210.479	147.602	0.037	-0.050
-209.465	10.496	-0.355	-0.271
-208.450	208.839	-0.069	-0.109
-207.436	-28.320	-0.215	-0.124
-206.421	-58.833	-0.200	-0.087
-205.406	157.614	-0.168	-0.234
-204.392	188.111	-0.162	0.243
-203.377	166.728	0.094	-0.133
-202.363	446.326	0.065	-0.144
-201.348	123.079	-0.109	0.137
-200.333	-71.752	0.493	-0.184
-199.319	-51.919	0.119	0.055
-198.304	-23.559	-0.116	-0.069
-197.290	190.734	-0.033	0.050
-196.275	157.907	0.108	-0.151
-195.260	-200.000	0.007	-0.133
-194.246	800.000	0.065	0.187
-193.231	-200.000	-0.041	0.279
-192.217	-173.039	0.214	0.007
-191.202	69.193	0.101	-0.104
-190.187	-90.403	-0.090	0.026
-189.173	42.159	0.272	-0.248
-188.158	800.000	0.088	-0.363
-187.144	-91.832	0.198	-0.056
-186.129	-181.202	-0.288	0.006
-185.114	-29.405	0.377	-0.216
-184.100	25.037	0.092	0.076
-183.085	-21.221	-0.223	-0.136
-182.071	-42.570	0.186	0.095
-181.056	800.000	0.056	0.241
-180.042	-147.681	0.123	0.010
-179.027	800.000	0.040	0.150
-178.012	105.600	-0.149	0.177
-176.998	-64.078	0.158	0.064
-175.983	-110.702	0.330	0.068
-174.969	-80.266	-0.323	0.108
-173.954	98.149	-0.153	0.177
-172.939	-7.640	0.108	0.073
-171.925	-36.160	-0.200	-0.108
-170.910	-200.000	-0.058	-0.433
-169.896	800.000	0.105	0.386
-168.881	522.728	0.057	-0.135
-167.866	-44.735	0.231	0.115
-166.852	-43.876	-0.156	-0.078
-165.837	-200.000	0.008	0.243
-164.823	-105.052	0.225	-0.051
-163.808	6.901	0.071	-0.053
-162.793	-200.000	0.004	0.541
-161.779	167.065	-0.125	-0.178
-160.764	-101.365	-0.159	0.039
-159.750	-41.628	0.327	-0.168
-158.735	800.000	0.093	0.294
-157.720	4.160	0.414	0.303
-156.706	111.543	-0.116	0.140
-155.691	697.602	-0.095	0.249
-154.677	17.415	0.127	-0.101
-153.662	63.632	-0.285	0.286
-152.647	-91.260	0.210	0.060
-151.633	370.358	-0.010	-0.020
-150.618	212.447	0.061	-0.097
-149.604	151.722	0.124	0.168
-148.589	-37.695	0.074	-0.039
-147.574	-200.000	0.029	0.142
-146.560	91.726	-0.199	-0.224
-145.545	-33.689	-0.139	-0.077
-144.531	67.669	0.176	0.180
-143.516	-125.958	0.303	-0.046
-142.502	-200.000	0.010	0.176
-141.487	-19.784	-0.260	0.161
-140.472	375.734	-0.019	-0.038
-139.458	-200.000	-0.019	-0.265
-138.443	241.009	-0.150	-0.250
-137.429	-88.145	0.141	0.042
-136.414	-114.931	0.390	0.074
-135.399	91.635	0.061	-0.069
-134.385	-200.000	-0.013	0.228
-133.370	800.000	-0.048	-0.133
-132.356	-140.056	0.235	-0.025
-131.341	-15.391	0.188	0.120
-130.326	20.313	0.285	-0.230
-129.312	-29.888	-0.212	-0.120
-128.297	184.312	0.184	0.272
-127.283	-9.726	0.157	0.105
-126.268	262.066	-0.140	0.243
-125.253	-200.000	-0.050	0.330
-124.239	-5.643	-0.236	0.162
-123.224	671.454	-0.133	0.345
-122.210	120.577	-0.030	-0.037
