DTS Sentinel unit serial number:	SN413079Multiplexer serial number:	ORYXHardware model number:	OX4-SRSoftware version number:	ORYX F/W v4.00 Oryx Data Collector v3.7.2.0data status	okinstallation	princeton_trtdifferential loss correction	single-endedforward channel	channel 4reverse channel	N/Adate	2019/09/12time	21:17:35forward acquisition time	60.00reverse acquisition time	0.00gamma	496.2192k internal	0.2313k external	0.2313temperature offset calibration	1.0163default loss term (dB/km)	0.3790temperature slope calibration	1.0000multiplexer offset coefficient	1.0000multiplexer slope coefficient	1.0000fibre end	0.00T internal ref (°C)	30.61T ext. ref 1 (°C)	3.63T ext. ref 2 (°C)	25.19length (m)	temperature (°C)	Stokes	anti-Stokes-747.200	-200.000	-0.037	0.000
-746.185	332.589	-0.041	-0.081
-745.171	196.402	0.127	0.197
-744.156	-124.257	0.350	-0.055
-743.142	-102.032	0.243	0.059
-742.127	-114.317	0.064	0.012
-741.112	-141.969	0.233	0.024
-740.098	-74.431	-0.296	-0.108
-739.083	-94.308	0.050	-0.014
-738.069	4.468	-0.274	0.204
-737.054	36.798	-0.115	-0.103
-736.039	-75.721	-0.253	-0.091
-735.025	132.954	-0.107	-0.140
-734.010	-200.000	-0.009	-0.325
-732.996	99.903	-0.262	-0.308
-731.981	1.121	0.033	0.024
-730.966	-152.643	0.190	0.014
-729.952	81.984	-0.156	0.171
-728.937	-200.000	0.033	0.382
-727.923	69.066	-0.263	-0.274
-726.908	-148.319	-0.228	-0.019
-725.894	-83.333	-0.034	-0.011
-724.879	-154.314	0.067	0.005
-723.864	-200.000	0.005	-0.360
-722.850	-200.000	-0.006	-0.108
-721.835	74.922	0.228	0.243
-720.821	-159.427	0.126	-0.007
-719.806	-149.977	-0.362	0.029
-718.791	499.593	-0.089	-0.209
-717.777	-71.056	0.177	0.067
-716.762	-200.000	-0.032	0.274
-715.748	66.972	0.089	0.092
-714.733	28.724	0.129	-0.111
-713.718	-164.600	0.099	0.005
-712.704	-10.039	0.103	-0.070
-711.689	-200.000	0.012	-0.248
-710.675	127.320	-0.102	-0.131
-709.660	-59.945	-0.250	-0.108
-708.645	-200.000	-0.008	-0.080
-707.631	235.252	-0.050	0.083
-706.616	128.765	0.103	-0.133
-705.602	-19.515	-0.154	-0.097
-704.587	91.957	0.167	-0.190
-703.572	-1.493	0.279	-0.199
-702.558	-70.043	0.161	0.062
-701.543	36.060	0.222	0.198
-700.529	-62.039	-0.365	-0.154
-699.514	-104.583	0.087	0.020
-698.499	85.442	-0.084	-0.093
-697.485	-137.022	0.314	0.036
-696.470	-200.000	-0.052	-0.383
-695.456	-34.948	-0.190	-0.105
-694.441	-9.114	-0.245	-0.166
-693.426	-185.368	0.031	-0.000
-692.412	-200.000	-0.060	-0.279
-691.397	800.000	0.034	-0.106
-690.383	-200.000	0.001	0.197
-689.368	-34.598	0.081	0.045
-688.354	-30.164	-0.120	0.069
-687.339	47.524	0.073	0.069
-686.324	-67.417	0.163	0.065
-685.310	-112.545	-0.315	-0.063
-684.295	28.259	-0.297	0.253
-683.281	-200.000	0.010	0.169
-682.266	-64.753	-0.385	0.158
-681.251	405.850	-0.154	-0.329
-680.237	418.312	0.182	-0.393
-679.222	-200.000	0.028	-0.141
-678.208	136.933	0.071	0.094
-677.193	283.961	-0.085	-0.155
-676.178	-200.000	0.011	-0.109
-675.164	63.495	-0.064	0.064
-674.149	-76.209	-0.256	-0.091
-673.135	41.350	-0.003	0.003
-672.120	-65.334	-0.210	0.086
-671.105	546.028	0.081	-0.195
-670.091	-33.534	-0.078	0.044
-669.076	113.117	0.188	0.230
-668.062	-167.688	-0.263	-0.011
-667.047	-87.970	0.092	-0.028
-666.032	-0.496	-0.491	-0.352
-665.018	450.657	0.074	-0.164
-664.003	-200.000	0.023	0.304
-662.989	800.000	-0.047	0.178
-661.974	306.904	-0.024	0.045
-660.959	-140.848	-0.377	0.039
-659.945	-200.000	-0.020	0.123
-658.930	800.000	-0.135	0.424
-657.916	-200.000	-0.032	0.301
-656.901	84.135	0.132	0.146
-655.886	-93.823	-0.220	0.061
-654.872	-200.000	0.018	0.155
-653.857	-68.501	-0.287	-0.112
-652.843	-136.640	0.257	0.030
-651.828	-28.023	0.127	0.074
-650.814	-156.936	0.336	-0.021
-649.799	-200.000	-0.011	-0.095
-648.784	800.000	-0.058	0.224
-647.770	-170.248	0.461	0.016
-646.755	-78.323	-0.057	-0.020
-645.741	-200.000	0.061	-0.379
-644.726	359.308	0.166	-0.335
-643.711	-74.499	-0.218	0.079
-642.697	-116.404	0.088	-0.016
-641.682	18.705	0.146	-0.118
-640.668	-30.555	0.375	-0.215
-639.653	198.312	-0.199	0.307
-638.638	430.626	0.146	-0.318
-637.624	280.010	0.064	0.115
-636.609	-97.393	-0.238	-0.063
-635.595	74.688	-0.135	0.143
-634.580	800.000	-0.055	-0.241
-633.565	800.000	-0.097	0.313
-632.551	46.579	0.292	0.274
-631.536	-200.000	-0.029	-0.193
-630.522	210.912	0.214	-0.339
-629.507	-200.000	-0.059	-0.315
-628.492	-200.000	0.004	0.324
-627.478	339.543	-0.104	-0.206
-626.463	-1.823	-0.175	0.124
-625.449	-78.030	-0.324	0.113
-624.434	415.240	0.099	-0.213
-623.419	800.000	-0.108	-0.475
-622.405	-100.189	0.124	0.031
-621.390	389.257	-0.006	0.013
-620.376	800.000	0.056	0.166
-619.361	-200.000	-0.015	-0.126
-618.346	-49.087	-0.124	-0.060
-617.332	-21.825	0.185	0.114
-616.317	-4.035	-0.216	-0.151
-615.303	-200.000	0.002	-0.238
-614.288	-200.000	0.010	-0.132
-613.273	-20.090	0.107	-0.067
-612.259	-40.037	-0.080	-0.042
-611.244	-75.249	-0.261	-0.094
-610.230	-56.554	0.302	-0.135
-609.215	-58.406	-0.155	-0.068
-608.201	-3.973	0.026	0.018
-607.186	-88.827	0.035	0.010
-606.171	-79.999	0.318	0.108
-605.157	155.767	-0.208	-0.289
-604.142	-143.969	0.127	-0.012
-603.128	-7.965	-0.174	-0.118
-602.113	-167.615	-0.219	-0.009
-601.098	-200.000	-0.004	0.175
-600.084	42.475	0.182	0.167
-599.069	-123.302	-0.143	0.023
-598.055	-200.000	-0.021	-0.299
-597.040	800.000	-0.088	-0.257
-596.025	800.000	0.073	-0.241
-595.011	-38.405	0.111	-0.059
-593.996	-119.687	0.400	-0.070
-592.982	800.000	-0.031	0.104
-591.967	-200.000	-0.037	0.185
-590.952	50.199	0.251	0.239
-589.938	-174.897	0.316	-0.009
-588.923	-81.389	-0.129	-0.043
-587.909	201.800	0.138	-0.215
-586.894	35.975	-0.224	0.199
-585.879	380.327	0.132	-0.272
-584.865	-12.965	0.266	0.174
-583.850	-118.136	-0.217	0.039
-582.836	144.364	-0.102	0.137
-581.821	263.568	-0.147	-0.258
-580.806	-13.619	-0.168	-0.110
-579.792	-13.016	-0.136	-0.089
-578.777	72.344	0.056	0.058
-577.763	800.000	0.042	0.146
-576.748	514.407	-0.137	0.323
-575.733	-127.900	0.369	-0.054
-574.719	-74.350	0.150	0.055
-573.704	37.872	0.495	0.443
-572.690	-92.561	-0.343	0.097
-571.675	-102.837	-0.246	-0.059
-570.661	229.760	0.123	0.202
-569.646	-111.994	0.323	-0.066
-568.631	800.000	0.052	0.185
-567.617	800.000	-0.047	0.197
-566.602	-21.655	-0.092	0.057
-565.588	387.322	-0.103	-0.214
-564.573	-1.401	0.264	0.188
-563.558	163.337	-0.125	-0.177
-562.544	168.646	0.282	0.405
-561.529	59.668	-0.348	0.345
-560.515	-41.007	-0.257	-0.134
-559.500	800.000	-0.078	0.320
-558.485	-200.000	-0.010	0.223
-557.471	106.033	0.303	0.361
-556.456	99.433	0.130	0.152
-555.442	-6.975	-0.512	0.350
-554.427	-177.391	-0.079	-0.002
-553.412	55.137	-0.121	-0.117
-552.398	-189.611	-0.207	-0.002
-551.383	481.833	-0.018	0.041
-550.369	-157.605	-0.145	0.009
-549.354	-122.758	0.207	-0.034
-548.339	-65.571	-0.165	-0.066
-547.325	-3.348	-0.051	-0.035
-546.310	231.633	-0.047	-0.077
-545.296	96.717	-0.160	-0.185
-544.281	800.000	-0.033	-0.112
-543.266	-141.654	-0.165	0.017
-542.252	-200.000	0.016	0.150
-541.237	-200.000	-0.014	0.092
-540.223	-119.246	-0.302	0.053
-539.208	-68.428	0.287	0.112
-538.193	155.744	-0.130	0.180
-537.179	-90.745	-0.165	-0.048
-536.164	-115.060	-0.257	0.049
-535.150	800.000	-0.022	0.069
-534.135	226.439	0.070	0.115
-533.121	787.583	-0.042	0.115
-532.106	169.025	0.217	-0.312
-531.091	-200.000	0.023	-0.319
-530.077	159.481	-0.138	0.193
-529.062	800.000	-0.135	-0.376
-528.048	3.402	0.161	-0.118
-527.033	-16.288	-0.112	-0.071
-526.018	-200.000	-0.047	0.316
-525.004	-200.000	-0.072	-0.472
-523.989	58.756	-0.106	-0.105
-522.975	297.937	-0.040	-0.075
-521.960	-71.995	0.375	0.140
-520.945	-6.016	-0.363	-0.249
-519.931	-24.336	-0.095	-0.057
-518.916	-157.017	0.091	0.006
-517.902	-91.625	0.186	0.053
-516.887	570.572	0.075	0.183
-515.872	148.171	0.105	-0.142
-514.858	84.585	-0.046	0.051
-513.843	-95.917	-0.312	-0.083
-512.829	-80.769	-0.403	-0.134
-511.814	273.442	0.125	-0.222
-510.799	-96.926	-0.166	0.044
-509.785	616.805	-0.105	0.265
-508.770	224.940	0.077	0.125
-507.756	91.663	-0.015	0.017
-506.741	800.000	0.065	-0.232
-505.726	-200.000	-0.023	0.105
-504.712	800.000	0.056	-0.164
-503.697	165.111	0.172	-0.244
-502.683	641.536	0.031	0.079
-501.668	24.137	0.270	0.224
-500.653	512.170	0.074	-0.174
-499.639	114.537	0.246	-0.301
-498.624	25.007	-0.076	-0.063
-497.610	196.040	-0.036	-0.055
-496.595	-200.000	0.063	-0.367
-495.581	-200.000	-0.063	-0.351
-494.566	62.635	-0.205	0.206
-493.551	-138.152	-0.389	-0.043
-492.537	-117.839	-0.468	0.084
-491.522	-200.000	0.011	-0.103
-490.508	-31.464	-0.012	-0.007
-489.493	800.000	0.088	-0.280
-488.478	-49.569	0.054	0.026
-487.464	-200.000	0.003	-0.032
-486.449	-109.528	-0.249	0.053
-485.435	47.025	0.132	-0.123
-484.420	-115.512	0.382	-0.072
-483.405	123.214	0.148	0.186
-482.391	-200.000	-0.001	-0.250
-481.376	-138.177	-0.154	0.017
-480.362	-109.136	0.015	-0.003
-479.347	-75.966	0.422	-0.150
-478.332	-200.000	0.043	-0.288
-477.318	558.954	0.178	-0.430
-476.303	-200.000	0.035	0.277
-475.289	-88.648	-0.241	-0.072
-474.274	-96.101	0.177	-0.047
-473.259	-200.000	0.024	0.195
-472.245	217.870	0.252	-0.403
-471.230	-124.827	-0.276	0.043
-470.216	43.244	-0.376	-0.345
-469.201	-105.600	0.405	0.092
-468.186	120.864	0.139	-0.173
-467.172	-51.651	0.390	-0.183
-466.157	-79.247	-0.354	-0.121
-465.143	-58.405	0.243	-0.106
-464.128	-44.836	-0.096	-0.048
-463.113	-24.429	0.194	-0.116
-462.099	-196.642	-0.249	-0.002
-461.084	100.293	0.074	-0.087
-460.070	3.205	-0.245	0.179
-459.055	-62.415	-0.453	0.189
-458.040	4.060	0.178	-0.130
-457.026	-42.613	-0.180	0.092
-456.011	203.759	0.154	0.240
-454.997	17.344	0.220	0.175
-453.982	-200.000	-0.016	0.072
-452.968	83.578	0.067	-0.073
-451.953	89.344	0.265	-0.296
-450.938	35.269	-0.091	0.080
-449.924	800.000	-0.092	-0.331
-448.909	-94.769	-0.137	0.037
-447.895	-77.748	0.323	0.112
-446.880	-144.672	0.167	0.015
-445.865	-82.268	-0.015	0.005
-444.851	800.000	0.059	0.223
-443.836	-101.450	0.247	0.060
-442.822	-59.440	-0.274	-0.118
-441.807	39.079	0.107	0.096
-440.792	308.351	0.106	0.198
-439.778	800.000	-0.071	-0.209
-438.763	-200.000	0.087	-0.520
-437.749	97.461	-0.260	0.299
-436.734	-136.710	-0.157	0.018
-435.719	44.422	0.160	-0.148
-434.705	-200.000	-0.004	0.038
-433.690	1.502	0.091	-0.066
-432.676	-92.780	-0.233	0.065
-431.661	-49.616	-0.306	0.146
-430.646	85.029	-0.187	0.205
-429.632	-200.000	0.004	-0.077
-428.617	209.478	0.126	-0.197
-427.603	-200.000	0.017	0.104
-426.588	-107.228	0.226	0.050
-425.573	307.648	-0.051	0.096
-424.559	-200.000	-0.011	0.222
-423.544	518.966	0.035	-0.083
-422.530	211.421	0.072	-0.113
-421.515	372.589	0.022	-0.044
-420.500	256.193	0.104	0.179
-419.486	-115.535	0.315	0.059
-418.471	138.606	0.094	-0.123
-417.457	119.494	-0.118	-0.146
-416.442	-200.000	0.018	-0.425
-415.428	88.559	0.048	-0.054
-414.413	-200.000	-0.023	0.135
-413.398	-98.588	-0.263	-0.067
-412.384	113.917	-0.237	0.288
-411.369	-103.786	0.525	0.123
-410.355	-96.956	0.269	-0.071
-409.340	-200.000	0.008	-0.186
-408.325	-39.108	-0.433	0.228
-407.311	800.000	-0.031	0.121
-406.296	-71.628	-0.084	0.031
-405.282	-76.732	-0.065	0.023
-404.267	-63.490	0.164	-0.067
-403.252	-113.408	0.491	0.096
-402.238	137.750	-0.139	0.183
-401.223	800.000	0.018	-0.067
-400.209	78.418	0.138	-0.148
-399.194	100.021	0.149	0.172
-398.179	-200.000	0.049	-0.280
-397.165	419.439	-0.129	-0.275
-396.150	209.257	-0.134	0.209
-395.136	8.577	0.244	-0.184
-394.121	800.000	0.051	-0.148
-393.106	55.641	-0.168	-0.162
-392.092	233.412	-0.178	-0.292
-391.077	-150.443	-0.109	-0.008
-390.063	-200.000	-0.040	0.188
-389.048	800.000	0.131	0.382
-388.033	-200.000	-0.043	-0.341
-387.019	-91.977	0.094	0.027
-386.004	-200.000	0.010	0.204
-384.990	225.137	-0.143	0.232
-383.975	-15.145	0.109	-0.070
-382.960	-124.826	-0.183	0.028
-381.946	-125.090	-0.270	0.041
-380.931	-116.893	-0.262	0.048
-379.917	78.592	-0.229	-0.245
-378.902	-117.752	-0.287	0.052
-377.888	-117.528	-0.267	-0.048
-376.873	314.857	-0.052	0.098
-375.858	-53.610	0.218	0.099
-374.844	-17.786	0.226	0.142
-373.829	337.628	0.114	0.221
-372.815	-76.863	0.193	-0.067
-371.800	24.926	0.281	0.233
-370.785	-200.000	-0.009	0.074
-369.771	220.331	0.143	0.230
-368.756	800.000	0.105	0.428
-367.742	-109.578	-0.204	-0.043
-366.727	-200.000	-0.040	0.181
-365.712	-89.766	0.261	-0.076
-364.698	713.313	-0.065	-0.171
-363.683	317.499	0.041	0.077
-362.669	-15.169	-0.077	-0.049
-361.654	-90.996	-0.096	0.028
-360.639	-68.945	-0.084	-0.032
-359.625	-50.619	0.275	0.129
-358.610	-66.182	-0.097	-0.039
-357.596	204.162	0.080	0.124
-356.581	180.227	0.197	0.288
-355.566	124.226	-0.256	0.321
-354.552	800.000	-0.017	-0.058
-353.537	39.119	0.204	0.183
-352.523	51.261	0.270	0.256
-351.508	-200.000	0.034	-0.332
-350.493	112.023	-0.174	-0.209
-349.479	800.000	-0.037	0.111
-348.464	-8.446	-0.190	0.128
-347.450	800.000	-0.100	-0.289
-346.435	-200.000	0.054	0.316
-345.420	800.000	-0.077	0.282
-344.406	-200.000	-0.006	-0.080
-343.391	52.350	-0.214	-0.204
-342.377	-63.117	0.370	-0.153
-341.362	-102.859	0.509	0.121
-340.348	-83.342	0.299	0.096
-339.333	394.353	-0.169	0.352
-338.318	-200.000	0.034	0.395
-337.304	-146.293	-0.171	-0.015
-336.289	-180.586	0.254	-0.005
-335.275	-93.804	-0.173	0.048
-334.260	-115.502	0.175	0.033
-333.245	-31.574	0.248	-0.139
-332.231	20.534	-0.188	-0.151
-331.216	-5.828	0.174	0.119
-330.202	159.098	0.030	-0.041
-329.187	345.063	-0.071	-0.140
-328.172	-78.784	0.277	-0.094
-327.158	-99.604	0.286	0.072
-326.143	-116.984	0.289	0.053
-325.129	-151.401	-0.151	0.011
-324.114	458.405	0.191	0.424
-323.099	114.014	-0.134	-0.162
-322.085	-200.000	-0.077	0.408
-321.070	171.440	-0.088	-0.126
-320.056	83.387	-0.258	-0.281
-319.041	-200.000	0.076	-0.434
-318.026	-88.668	-0.178	0.053
-317.012	754.423	0.094	0.253
-315.997	-111.972	0.222	0.045
-314.983	-51.672	0.153	-0.071
-313.968	-11.106	-0.148	-0.097
-312.953	-160.565	-0.326	-0.017
-311.939	-154.338	-0.262	0.018
-310.924	140.962	-0.247	-0.325
-309.910	800.000	0.022	-0.083
-308.895	-74.198	-0.188	-0.068
-307.880	430.447	0.126	-0.272
-306.866	212.048	-0.025	-0.039
-305.851	250.229	-0.106	0.179
-304.837	777.543	-0.068	-0.185
-303.822	-200.000	0.032	0.235
-302.807	205.350	0.056	-0.086
-301.793	217.721	0.219	0.348
-300.778	28.125	-0.244	0.205
-299.764	-200.000	0.001	0.183
-298.749	-85.463	0.159	0.049
-297.735	432.828	-0.234	0.506
-296.720	800.000	0.031	-0.134
-295.705	75.299	-0.181	0.190
-294.691	-36.197	0.217	0.117
-293.676	-7.718	0.234	0.158
-292.662	110.747	0.245	0.293
-291.647	99.874	-0.100	-0.115
-290.632	37.955	0.148	-0.131
-289.618	11.433	-0.266	0.203
-288.603	37.221	-0.410	0.361
-287.589	-200.000	0.028	-0.348
-286.574	-200.000	-0.016	-0.281
-285.559	-127.994	-0.309	0.044
-284.545	-58.058	0.030	-0.013
-283.530	115.787	0.101	-0.123
-282.516	-94.224	-0.239	0.065
-281.501	-200.000	-0.012	-0.345
-280.486	-105.871	-0.216	0.049
-279.472	-200.000	-0.052	-0.333
-278.457	-30.887	-0.186	-0.105
-277.443	18.244	-0.084	0.066
-276.428	-200.000	0.008	0.108
-275.413	21.394	-0.112	0.091
-274.399	-200.000	-0.007	0.242
-273.384	346.292	0.153	0.300
-272.370	-176.518	-0.209	-0.005
-271.355	-69.004	-0.069	0.027
-270.340	-63.899	-0.162	-0.066
-269.326	-82.225	-0.159	0.052
-268.311	291.359	0.094	0.171
-267.297	596.391	-0.054	0.132
-266.282	538.517	0.089	-0.210
-265.267	171.848	-0.247	-0.353
-264.253	-19.498	0.066	0.041
-263.238	-86.351	0.113	0.035
-262.224	15.598	0.267	0.209
-261.209	-200.000	-0.006	0.112
-260.195	-78.497	0.183	0.062
-259.180	8.262	0.290	-0.217
-258.165	145.025	-0.021	-0.028
-257.151	-200.000	-0.043	-0.346
-256.136	-49.963	0.083	-0.039
-255.122	-47.194	0.251	0.122
-254.107	-97.139	-0.222	-0.058
-253.092	-91.020	0.456	-0.130
-252.078	-33.610	-0.120	0.066
-251.063	279.755	0.039	0.069
-250.049	-112.642	0.166	0.033
-249.034	247.673	-0.109	0.183
-248.019	-73.192	-0.201	0.073
-247.005	-112.839	-0.136	0.027
-245.990	53.757	-0.045	-0.043
-244.976	32.490	0.061	-0.053
-243.961	800.000	-0.026	0.077
-242.946	-160.079	-0.262	0.014
-241.932	436.315	0.072	-0.156
-240.917	-200.000	0.057	-0.313
-239.903	-117.895	0.241	-0.043
-238.888	225.027	-0.012	0.019
-237.873	773.792	0.040	-0.107
-236.859	-37.174	-0.363	-0.193
-235.844	-79.121	-0.341	0.115
-234.830	-60.407	0.283	-0.120
-233.815	-62.903	0.157	-0.064
-232.800	61.127	-0.213	0.210
-231.786	-43.566	-0.266	0.133
-230.771	223.172	-0.172	-0.275
-229.757	-141.655	0.169	-0.017
-228.742	-200.000	-0.018	0.099
-227.727	-200.000	-0.028	-0.152
-226.713	408.340	-0.222	0.466
-225.698	12.557	-0.221	0.169
-224.684	152.551	0.289	0.393
-223.669	34.286	0.106	0.092
-222.655	-59.266	-0.143	0.061
-221.640	-89.064	0.367	-0.108
-220.625	-200.000	0.032	0.230
-219.611	-121.005	0.166	-0.028
-218.596	-6.237	0.066	-0.045
-217.582	171.516	0.043	0.061
-216.567	-77.311	-0.405	0.140
-215.552	-77.705	0.358	-0.123
-214.538	-120.711	0.081	-0.014
-213.523	800.000	-0.056	-0.156
-212.509	365.890	0.041	0.082
-211.494	-172.570	-0.181	-0.006
-210.479	66.690	0.280	-0.282
-209.465	379.582	0.076	0.154
-208.450	-15.489	-0.276	0.175
-207.436	52.564	-0.230	0.218
-206.421	-200.000	-0.019	0.174
-205.406	-200.000	0.042	-0.341
-204.392	-76.301	0.211	-0.074
-203.377	95.693	-0.218	0.247
-202.363	-119.499	-0.234	-0.040
-201.348	-105.454	-0.044	0.010
-200.333	559.879	0.097	-0.232
-199.319	-94.273	-0.161	0.044
-198.304	-200.000	0.025	0.181
-197.290	47.155	0.063	0.058
-196.275	209.601	-0.036	-0.056
-195.260	3.346	0.086	0.062
-194.246	-66.177	-0.220	-0.087
-193.231	-85.315	0.097	-0.030
-192.217	313.097	-0.047	0.088
-191.202	-8.491	0.140	-0.093
-190.187	-200.000	0.016	0.185
-189.173	7.649	0.219	0.162
-188.158	253.015	-0.067	-0.113
-187.144	32.551	0.182	0.156
-186.129	128.563	-0.164	0.207
-185.114	-200.000	-0.002	0.079
-184.100	71.420	0.289	0.298
-183.085	-25.023	0.286	-0.168
-182.071	800.000	0.022	0.094
-181.056	-200.000	-0.012	-0.138
-180.042	56.464	0.357	-0.344
-179.027	122.969	0.215	-0.267
-178.012	407.432	-0.050	-0.105
-176.998	-175.823	0.241	-0.006
-175.983	37.685	0.203	0.179
-174.969	16.937	0.070	-0.055
-173.954	-68.870	-0.202	-0.077
-172.939	-28.821	0.060	-0.034
-171.925	188.013	0.105	-0.155
-170.910	800.000	-0.060	-0.236
-169.896	-150.457	-0.323	0.025
-168.881	0.295	0.335	-0.237
-167.866	-77.224	-0.161	-0.055
-166.852	-200.000	-0.009	0.328
-165.837	546.035	-0.033	-0.079
-164.823	-200.000	0.001	0.218
-163.808	128.196	-0.216	0.272
-162.793	-200.000	0.008	-0.291
-161.779	27.912	-0.006	-0.005
-160.764	-18.973	-0.065	-0.040
-159.750	-200.000	-0.017	0.085
-158.735	-13.149	-0.112	0.072
-157.720	-165.631	-0.072	0.003
-156.706	-184.787	-0.439	0.007
-155.691	-140.207	-0.190	-0.020
-154.677	-51.237	0.416	-0.193
-153.662	-71.805	0.246	0.091
-152.647	-67.398	0.139	0.054
-151.633	-161.895	-0.330	0.017
-150.618	-84.071	-0.063	0.020
-149.604	-200.000	0.001	-0.055
-148.589	-95.527	-0.187	0.050
-147.574	-96.995	-0.165	0.043
-146.560	-200.000	-0.022	-0.182
-145.545	26.295	-0.263	-0.218
-144.531	-125.019	-0.551	-0.084
-143.516	365.839	0.060	0.120
-142.502	-81.151	-0.210	-0.069
-141.487	-200.000	0.023	0.229
-140.472	800.000	-0.067	0.279
-139.458	800.000	-0.046	0.165
-138.443	507.201	0.113	-0.259
-137.429	-139.327	-0.406	0.043
-136.414	-129.301	-0.170	0.023
-135.399	43.050	0.217	0.196
-134.385	-200.000	0.012	-0.104
-133.370	-69.959	-0.085	0.032
-132.356	25.047	0.129	0.106
-131.341	-72.868	0.193	-0.070
-130.326	-135.289	0.163	-0.019
-129.312	323.395	-0.101	-0.191
-128.297	-135.833	0.307	0.036
-127.283	800.000	0.108	-0.334
-126.268	69.255	-0.043	-0.044
-125.253	-82.232	-0.028	0.009
-124.239	-96.793	0.193	-0.050
-123.224	-50.142	0.199	0.093
-122.210	73.411	-0.123	0.128
-121.195	-200.000	-0.023	-0.253
