DTS Sentinel unit serial number:	SN413079Multiplexer serial number:	ORYXHardware model number:	OX4-SRSoftware version number:	ORYX F/W v4.00 Oryx Data Collector v3.7.2.0data status	okinstallation	princeton_trtdifferential loss correction	single-endedforward channel	channel 4reverse channel	N/Adate	2019/09/15time	20:37:34forward acquisition time	60.00reverse acquisition time	0.00gamma	496.2192k internal	0.2315k external	0.2315temperature offset calibration	0.9934default loss term (dB/km)	0.3790temperature slope calibration	1.0000multiplexer offset coefficient	1.0000multiplexer slope coefficient	1.0000fibre end	0.00T internal ref (°C)	33.00T ext. ref 1 (°C)	7.87T ext. ref 2 (°C)	24.77length (m)	temperature (°C)	Stokes	anti-Stokes-747.200	-88.303	0.325	-0.098
-746.185	55.556	-0.262	0.257
-745.171	287.745	-0.044	-0.081
-744.156	-200.000	0.021	0.142
-743.142	586.040	-0.087	0.217
-742.127	733.800	0.016	0.042
-741.112	-15.613	0.384	-0.248
-740.098	111.443	-0.164	0.200
-739.083	-200.000	0.030	-0.249
-738.069	272.360	0.107	0.190
-737.054	-100.786	-0.380	-0.095
-736.039	221.838	0.042	0.068
-735.025	-101.673	0.124	0.030
-734.010	-200.000	0.020	-0.165
-732.996	-103.020	-0.273	-0.066
-731.981	-143.553	-0.118	0.011
-730.966	281.515	0.069	-0.126
-729.952	60.919	-0.290	-0.291
-728.937	-134.548	-0.409	-0.051
-727.923	-3.977	0.057	-0.040
-726.908	-5.958	-0.186	-0.129
-725.894	800.000	0.072	0.232
-724.879	30.735	-0.301	-0.261
-723.864	-60.924	0.045	-0.019
-722.850	-110.622	0.284	0.059
-721.835	470.313	-0.104	0.236
-720.821	797.801	0.107	-0.299
-719.806	141.806	-0.120	-0.161
-718.791	-9.721	-0.242	-0.163
-717.777	480.230	-0.047	-0.107
-716.762	29.368	-0.221	0.190
-715.748	-82.670	0.162	-0.053
-714.733	-1.215	-0.076	0.054
-713.718	153.770	0.221	0.307
-712.704	159.256	-0.158	-0.222
-711.689	130.507	-0.132	-0.171
-710.675	-200.000	0.028	-0.153
-709.660	748.142	0.044	0.119
-708.645	-146.665	0.250	-0.022
-707.631	268.716	-0.107	0.189
-706.616	631.870	-0.087	-0.223
-705.602	-200.000	0.022	-0.121
-704.587	800.000	-0.037	0.119
-703.572	-25.778	-0.174	-0.104
-702.558	43.217	0.234	-0.217
-701.543	-200.000	0.001	0.086
-700.529	-100.590	0.064	-0.016
-699.514	116.595	0.239	-0.297
-698.499	-28.359	-0.289	-0.169
-697.485	-99.438	0.348	0.089
-696.470	138.475	-0.257	-0.341
-695.456	-116.612	-0.096	-0.018
-694.441	-200.000	-0.028	-0.128
-693.426	-96.796	-0.414	0.110
-692.412	-113.409	0.483	0.096
-691.397	-200.000	0.024	-0.215
-690.383	-49.721	0.288	-0.139
-689.368	45.892	0.164	-0.154
-688.354	589.518	0.047	-0.118
-687.339	291.818	0.237	0.437
-686.324	44.885	-0.051	0.047
-685.310	-180.346	-0.153	0.003
-684.295	325.995	-0.149	-0.289
-683.281	-71.134	0.168	0.064
-682.266	-200.000	0.047	0.526
-681.251	-136.325	-0.212	0.025
-680.237	-64.149	-0.420	0.173
-679.222	-20.448	-0.115	0.071
-678.208	14.726	-0.147	-0.116
-677.193	24.897	0.087	-0.073
-676.178	-79.204	0.042	0.014
-675.164	-200.000	-0.013	-0.198
-674.149	-66.062	-0.324	0.131
-673.135	-200.000	-0.080	0.391
-672.120	-83.872	0.319	0.103
-671.105	723.651	-0.097	-0.260
-670.091	461.835	0.157	-0.355
-669.076	528.701	-0.058	-0.139
-668.062	99.639	-0.183	-0.214
-667.047	-54.542	-0.155	-0.071
-666.032	72.378	-0.395	-0.416
-665.018	-62.458	-0.313	-0.132
-664.003	703.535	0.099	-0.262
-662.989	132.420	-0.083	-0.108
-661.974	-5.569	-0.054	0.037
-660.959	-200.000	-0.041	-0.235
-659.945	-138.364	0.197	0.022
-658.930	-200.000	0.087	-0.518
-657.916	383.911	0.028	0.057
-656.901	-121.596	-0.282	-0.047
-655.886	-11.260	0.273	-0.181
-654.872	-200.000	-0.018	0.159
-653.857	344.075	-0.146	0.290
-652.843	20.204	-0.134	-0.109
-651.828	-5.488	0.313	0.217
-650.814	-200.000	-0.028	-0.324
-649.799	-200.000	0.039	-0.208
-648.784	-107.190	0.186	0.041
-647.770	-7.434	-0.212	0.145
-646.755	-66.559	-0.156	-0.062
-645.741	424.051	-0.108	-0.235
-644.726	-200.000	0.022	-0.223
-643.711	197.608	0.111	-0.172
-642.697	-90.007	-0.285	0.084
-641.682	488.369	0.075	0.172
-640.668	-25.548	-0.178	0.106
-639.653	-200.000	-0.011	-0.237
-638.638	800.000	-0.084	0.300
-637.624	-18.873	0.154	0.097
-636.609	-200.000	-0.023	0.225
-635.595	-69.196	0.330	0.128
-634.580	-138.728	-0.115	0.013
-633.565	-200.000	0.030	-0.165
-632.551	490.037	-0.135	0.311
-631.536	135.569	-0.180	-0.237
-630.522	331.864	-0.114	-0.221
-629.507	-151.664	-0.118	-0.009
-628.492	-200.000	-0.027	0.224
-627.478	-24.691	0.184	-0.111
-626.463	-50.830	0.206	0.098
-625.449	-23.304	0.361	0.219
-624.434	-157.544	0.186	0.011
-623.419	75.066	0.194	0.206
-622.405	83.910	-0.042	-0.046
-621.390	800.000	0.097	0.327
-620.376	-164.696	0.309	0.014
-619.361	800.000	0.078	0.232
-618.346	-68.918	-0.011	-0.004
-617.332	90.474	0.071	-0.080
-616.317	-150.238	-0.273	0.021
-615.303	-200.000	0.043	0.228
-614.288	-86.131	-0.236	-0.073
-613.273	-28.651	-0.067	-0.039
-612.259	7.746	0.199	-0.150
-611.244	397.198	0.077	0.162
-610.230	-200.000	0.024	0.384
-609.215	44.678	-0.178	0.165
-608.201	66.022	0.177	0.181
-607.186	415.294	0.082	-0.176
-606.171	661.025	0.158	-0.411
-605.157	-200.000	0.034	-0.221
-604.142	102.156	0.152	-0.179
-603.128	152.992	-0.159	-0.220
-602.113	613.123	0.107	-0.270
-601.098	-129.268	0.176	-0.025
-600.084	-200.000	0.010	-0.051
-599.069	121.940	0.197	-0.247
-598.055	-55.183	0.186	-0.084
-597.040	-128.477	0.214	0.031
-596.025	-200.000	-0.014	0.232
-595.011	-200.000	-0.042	-0.377
-593.996	163.849	-0.053	-0.076
-592.982	-179.153	-0.190	0.004
-591.967	-106.121	0.158	0.036
-590.952	322.176	-0.121	-0.232
-589.938	-110.509	-0.401	0.084
-588.923	45.952	0.054	0.050
-587.909	-111.561	0.108	-0.022
-586.894	800.000	0.116	-0.360
-585.879	-137.180	-0.373	-0.043
-584.865	189.091	0.062	0.093
-583.850	-4.149	-0.336	-0.234
-582.836	-200.000	-0.019	0.239
-581.821	600.908	-0.039	0.098
-580.806	-26.453	-0.272	-0.161
-579.792	-81.058	0.122	-0.041
-578.777	-200.000	0.052	-0.346
-577.763	133.679	0.184	-0.240
-576.748	-200.000	0.058	-0.295
-575.733	-200.000	0.034	-0.153
-574.719	192.957	-0.292	-0.445
-573.704	-200.000	-0.061	0.379
-572.690	-96.632	-0.267	-0.071
-571.675	-36.277	-0.062	-0.034
-570.661	128.610	0.201	-0.258
-569.646	-153.749	0.181	-0.012
-568.631	70.780	0.393	-0.409
-567.617	410.621	-0.128	-0.274
-566.602	221.728	-0.198	-0.320
-565.588	-138.370	0.042	0.005
-564.573	800.000	-0.041	-0.161
-563.558	-83.260	0.250	-0.081
-562.544	800.000	0.091	0.261
-561.529	800.000	0.059	0.211
-560.515	446.870	0.061	-0.135
-559.500	-91.121	0.103	0.030
-558.485	-94.069	-0.271	0.075
-557.471	-85.897	0.202	0.063
-556.456	118.317	-0.229	-0.284
-555.442	74.327	0.272	-0.287
-554.427	-105.280	0.469	-0.107
-553.412	-48.985	-0.117	0.056
-552.398	143.624	-0.162	-0.217
-551.383	-200.000	0.025	0.118
-550.369	27.577	-0.172	-0.146
-549.354	98.275	0.175	-0.203
-548.339	648.580	0.069	0.176
-547.325	3.792	0.309	-0.227
-546.310	-163.392	0.065	-0.003
-545.296	-200.000	-0.063	-0.313
-544.281	130.996	0.203	-0.262
-543.266	496.337	0.049	0.113
-542.252	79.283	-0.077	0.083
-541.237	-118.502	0.250	0.045
-540.223	33.114	-0.409	0.356
-539.208	-200.000	-0.025	-0.170
-538.193	86.003	-0.078	0.087
-537.179	578.852	0.069	-0.170
-536.164	101.301	-0.171	0.201
-535.150	400.043	-0.113	0.238
-534.135	243.802	-0.124	0.208
-533.121	133.819	0.099	-0.128
-532.106	-90.492	-0.254	-0.074
-531.091	45.468	-0.102	0.095
-530.077	-7.156	-0.139	0.095
-529.062	800.000	0.154	-0.510
-528.048	-105.143	0.042	-0.010
-527.033	-50.549	0.131	-0.062
-526.018	-50.132	-0.136	-0.065
-525.004	-23.460	-0.226	-0.136
-523.989	34.416	-0.005	-0.005
-522.975	189.844	0.122	-0.184
-521.960	-200.000	-0.010	-0.169
-520.945	-86.794	-0.249	0.076
-519.931	378.348	-0.038	-0.078
-518.916	-144.823	-0.299	0.028
-517.902	-69.656	-0.095	0.037
-516.887	-45.830	0.179	-0.089
-515.872	466.255	0.101	-0.228
-514.858	-200.000	-0.027	0.423
-513.843	546.614	0.067	0.161
-512.829	-111.080	0.495	-0.102
-511.814	-200.000	-0.015	0.313
-510.799	200.204	-0.165	-0.255
-509.785	62.643	-0.089	0.089
-508.770	58.027	-0.083	-0.081
-507.756	85.197	0.161	-0.177
-506.741	800.000	-0.033	-0.107
-505.726	800.000	-0.045	0.183
-504.712	280.738	0.021	-0.038
-503.697	-200.000	0.009	0.147
-502.683	-200.000	0.019	0.112
-501.668	68.707	-0.178	0.183
-500.653	127.735	-0.138	0.177
-499.639	509.356	0.007	0.015
-498.624	-81.938	-0.294	0.096
-497.610	-53.855	-0.269	0.123
-496.595	-200.000	0.014	-0.103
-495.581	123.025	-0.139	-0.175
-494.566	490.167	-0.088	-0.203
-493.551	-54.797	-0.226	0.102
-492.537	-91.632	0.330	0.094
-491.522	800.000	0.037	0.124
-490.508	-183.500	-0.272	0.005
-489.493	800.000	0.076	0.233
-488.478	334.504	-0.161	0.314
-487.464	198.553	0.075	0.116
-486.449	-200.000	-0.078	-0.519
-485.435	-146.223	-0.180	0.016
-484.420	-200.000	0.068	-0.305
-483.405	22.761	-0.206	-0.169
-482.391	53.659	0.186	-0.179
-481.376	800.000	-0.050	0.142
-480.362	337.792	0.092	0.180
-479.347	172.382	0.109	0.158
-478.332	-41.103	0.161	0.084
-477.318	43.779	-0.235	-0.216
-476.303	800.000	0.047	-0.167
-475.289	-43.995	-0.351	0.177
-474.274	800.000	0.027	0.093
-473.259	800.000	-0.029	-0.111
-472.245	16.106	0.248	0.196
-471.230	67.171	0.102	0.104
-470.216	800.000	0.074	0.260
-469.201	81.119	0.171	-0.185
-468.186	-82.338	-0.075	-0.024
-467.172	28.165	0.077	0.065
-466.157	486.733	0.114	-0.260
-465.143	301.372	0.050	-0.093
-464.128	-200.000	-0.004	0.316
-463.113	111.502	0.167	0.202
-462.099	800.000	0.083	-0.267
-461.084	-200.000	-0.022	-0.130
-460.070	-163.412	-0.190	-0.009
-459.055	-128.411	-0.257	-0.037
-458.040	-142.623	0.363	-0.036
-457.026	800.000	-0.083	0.289
-456.011	-200.000	-0.078	0.346
-454.997	529.958	0.067	0.158
-453.982	335.761	-0.108	0.210
-452.968	800.000	-0.076	0.289
-451.953	-60.157	-0.207	0.088
-450.938	-14.035	0.037	-0.024
-449.924	-200.000	0.016	-0.174
-448.909	784.735	-0.070	0.192
-447.895	216.363	0.026	-0.041
-446.880	-90.678	0.100	0.029
-445.865	-200.000	0.047	0.265
-444.851	-125.542	0.379	-0.058
-443.836	316.705	-0.068	0.128
-442.822	40.738	-0.143	0.130
-441.807	-200.000	-0.031	0.223
-440.792	182.656	-0.045	0.067
-439.778	260.493	-0.047	-0.081
-438.763	-68.298	-0.201	0.078
-437.749	-200.000	0.011	0.199
-436.734	125.532	-0.178	0.225
-435.719	382.531	0.040	-0.083
-434.705	-6.236	-0.165	0.113
-433.690	-60.843	-0.152	0.065
-432.676	-200.000	-0.071	-0.381
-431.661	-200.000	0.028	-0.257
-430.646	800.000	-0.023	0.101
-429.632	-71.330	-0.285	-0.107
-428.617	-200.000	0.083	-0.548
-427.603	-140.433	-0.135	-0.014
-426.588	-10.487	0.124	-0.082
-425.573	-55.451	-0.335	-0.150
-424.559	1.409	-0.413	0.298
-423.544	89.595	0.094	0.105
-422.530	-200.000	0.028	-0.179
-421.515	-93.356	0.134	0.037
-420.500	366.898	-0.174	-0.351
-419.486	-60.352	-0.151	0.064
-418.471	-118.161	0.293	0.052
-417.457	190.412	0.261	0.393
-416.442	-200.000	0.037	-0.414
-415.428	-95.054	-0.368	0.100
-414.413	16.560	0.286	-0.227
-413.398	-200.000	-0.085	0.412
-412.384	-124.538	0.127	0.020
-411.369	-164.616	0.236	-0.011
-410.355	-5.330	-0.073	-0.050
-409.340	39.344	0.057	0.051
-408.325	-200.000	-0.063	-0.278
-407.311	-151.576	0.165	-0.012
-406.296	98.222	0.028	0.032
-405.282	-110.693	-0.200	0.041
-404.267	-12.627	-0.112	0.073
-403.252	365.959	-0.028	0.057
-402.238	-200.000	-0.011	-0.102
-401.223	243.103	0.196	-0.329
-400.209	470.675	0.119	0.268
-399.194	-200.000	-0.065	0.393
-398.179	62.140	0.210	0.209
-397.165	22.652	0.079	-0.065
-396.150	800.000	-0.113	0.401
-395.136	800.000	-0.068	0.268
-394.121	-36.818	0.169	-0.091
-393.106	638.941	-0.139	0.354
-392.092	-200.000	-0.008	0.396
-391.077	13.023	-0.203	-0.157
-390.063	251.004	0.091	-0.155
-389.048	-148.525	0.179	0.015
-388.033	17.328	0.258	-0.205
-387.019	-112.506	0.394	-0.079
-386.004	48.317	-0.344	0.322
-384.990	-21.541	0.437	0.266
-383.975	184.983	0.067	0.099
-382.960	76.709	0.134	0.142
-381.946	-200.000	0.041	0.365
-380.931	6.858	0.227	0.169
-379.917	-200.000	-0.004	-0.144
-378.902	-163.735	-0.051	-0.002
-377.888	130.421	-0.023	0.030
-376.873	11.750	-0.074	0.057
-375.858	405.720	0.165	-0.349
-374.844	325.482	0.169	0.322
-373.829	8.910	0.142	0.107
-372.815	-200.000	0.055	0.247
-371.800	177.013	-0.214	0.310
-370.785	-101.553	0.227	-0.055
-369.771	-200.000	0.027	-0.358
-368.756	-68.737	-0.108	-0.042
-367.742	322.225	0.052	0.098
-366.727	800.000	0.028	-0.093
-365.712	-191.542	0.132	0.001
-364.698	169.939	0.235	-0.335
-363.683	259.970	0.086	0.149
-362.669	-57.162	-0.248	0.109
-361.654	-200.000	-0.014	0.145
-360.639	630.877	0.144	0.365
-359.625	-27.648	-0.080	-0.046
-358.610	-94.953	-0.245	0.066
-357.596	139.504	-0.063	0.083
-356.581	326.408	0.165	-0.316
-355.566	32.472	0.109	-0.094
-354.552	-40.869	-0.107	-0.055
-353.537	125.465	0.150	0.189
-352.523	-133.024	-0.152	0.019
-351.508	-162.378	-0.050	0.003
-350.493	68.456	-0.159	-0.162
-349.479	222.070	0.076	0.122
-348.464	433.329	0.005	0.011
-347.450	-52.240	-0.292	-0.135
-346.435	800.000	-0.022	0.087
-345.420	-9.198	0.232	0.155
-344.406	468.600	-0.100	0.225
-343.391	63.294	0.150	0.150
-342.377	185.104	-0.052	-0.078
-341.362	532.973	0.123	0.291
-340.348	800.000	-0.109	0.315
-339.333	-72.045	-0.492	0.182
-338.318	-47.181	0.261	-0.127
-337.304	-50.535	0.217	-0.102
-336.289	-48.179	-0.332	0.160
-335.275	-109.459	-0.099	-0.021
-334.260	-200.000	0.028	-0.304
-333.245	-21.843	0.260	0.158
-332.231	-41.507	-0.217	0.111
-331.216	33.282	0.306	0.265
-330.202	-123.446	-0.269	-0.043
-329.187	-102.496	0.247	-0.059
-328.172	-123.388	-0.237	-0.038
-327.158	-200.000	-0.049	0.253
-326.143	-73.345	0.079	0.029
-325.129	-11.068	-0.193	-0.127
-324.114	63.608	-0.273	-0.273
-323.099	-50.103	0.100	-0.047
-322.085	-22.548	0.166	0.100
-321.070	-200.000	-0.008	0.308
-320.056	60.982	0.075	-0.075
-319.041	-26.997	0.140	-0.082
-318.026	50.308	-0.215	-0.202
-317.012	-179.599	-0.095	0.002
-315.997	-80.608	0.273	-0.090
-314.983	701.242	0.032	0.085
-313.968	-93.414	0.150	0.041
-312.953	-30.539	0.086	0.049
-311.939	-28.260	0.087	0.050
-310.924	69.731	0.182	0.187
-309.910	-200.000	-0.073	0.393
-308.895	-103.424	-0.169	-0.040
-307.880	108.260	-0.129	-0.154
-306.866	-164.920	0.247	-0.011
-305.851	95.002	-0.024	-0.027
-304.837	61.759	-0.176	-0.175
-303.822	-37.546	0.152	0.081
-302.807	6.812	-0.183	0.136
-301.793	-149.458	-0.190	-0.015
-300.778	-123.520	-0.117	0.019
-299.764	-200.000	-0.025	-0.289
-298.749	-112.982	0.050	0.010
-297.735	-50.322	0.056	-0.027
-296.720	-8.123	-0.084	-0.056
-295.705	13.795	0.096	0.074
-294.691	800.000	0.024	-0.081
-293.676	132.399	-0.065	-0.083
-292.662	-200.000	-0.024	0.135
-291.647	-168.954	0.194	0.007
-290.632	-200.000	0.028	-0.155
-289.618	-104.623	-0.229	-0.053
-288.603	-200.000	0.047	-0.369
-287.589	53.598	-0.044	-0.042
-286.574	-85.026	-0.120	0.037
-285.559	800.000	0.050	0.161
-284.545	-184.044	-0.224	-0.004
-283.530	289.627	-0.163	-0.294
-282.516	-51.175	0.175	-0.082
-281.501	-200.000	0.062	0.323
-280.486	26.444	-0.214	-0.178
-279.472	17.177	-0.111	-0.088
-278.457	696.261	0.070	0.182
-277.443	-108.979	-0.144	0.031
-276.428	-59.477	-0.053	-0.023
-275.413	800.000	0.044	-0.178
-274.399	-200.000	-0.089	-0.425
-273.384	-164.131	-0.439	-0.020
-272.370	166.327	-0.043	0.061
-271.355	-93.233	-0.133	0.037
-270.340	110.055	0.142	0.169
-269.326	800.000	-0.100	-0.280
-268.311	363.589	0.080	0.160
-267.297	114.421	-0.161	0.195
-266.282	-200.000	0.021	0.270
-265.267	328.948	-0.086	0.164
-264.253	58.539	0.186	0.182
-263.238	134.638	-0.145	-0.187
-262.224	90.502	-0.310	-0.346
-261.209	-10.363	0.053	0.035
-260.195	-24.602	0.132	0.078
-259.180	97.190	-0.066	0.075
-258.165	-200.000	-0.019	-0.205
-257.151	-103.945	-0.378	0.088
-256.136	13.777	0.131	0.101
-255.122	-59.536	0.187	-0.080
-254.107	-200.000	-0.007	0.111
-253.092	-43.685	-0.270	0.135
-252.078	100.681	0.072	0.083
-251.063	171.954	-0.175	-0.249
-250.049	-200.000	0.010	0.127
-249.034	298.825	0.163	-0.297
-248.019	239.018	0.194	-0.321
-247.005	800.000	-0.088	0.294
-245.990	-62.952	-0.099	-0.041
-244.976	-143.170	0.220	0.021
-243.961	-29.907	0.478	-0.271
-242.946	111.781	-0.294	-0.352
-241.932	-74.284	-0.371	0.133
-240.917	800.000	0.050	0.181
-239.903	201.866	0.144	0.221
-238.888	-200.000	0.015	-0.134
-237.873	-22.426	0.103	0.062
-236.859	45.985	-0.016	0.015
-235.844	-56.300	0.077	0.034
-234.830	-136.176	0.219	-0.026
-233.815	172.002	-0.235	-0.335
-232.800	-61.436	0.150	-0.063
-231.786	74.159	-0.123	-0.128
-230.771	88.572	-0.153	0.169
-229.757	-24.611	0.217	0.129
-228.742	800.000	-0.057	-0.195
-227.727	373.219	-0.091	-0.184
-226.713	-129.461	-0.460	-0.063
-225.698	81.415	0.127	0.137
-224.684	-38.417	-0.229	-0.121
-223.669	13.559	-0.121	-0.093
-222.655	800.000	-0.009	0.026
-221.640	238.478	0.116	0.192
-220.625	199.147	0.099	0.150
-219.611	-103.662	-0.039	-0.009
-218.596	48.338	0.123	-0.114
-217.582	-33.603	-0.104	0.057
-216.567	-80.000	0.097	0.032
-215.552	38.546	-0.092	-0.082
-214.538	-200.000	0.090	-0.449
-213.523	80.339	-0.021	-0.022
-212.509	-13.309	0.154	0.099
-211.494	39.419	-0.244	0.217
-210.479	800.000	-0.086	-0.333
-209.465	-76.653	0.167	-0.058
-208.450	-200.000	0.014	0.334
-207.436	-75.605	-0.219	-0.077
-206.421	-100.078	0.108	-0.027
-205.406	-50.555	0.202	-0.094
-204.392	-53.979	-0.128	-0.058
-203.377	146.276	0.101	-0.134
-202.363	-146.962	0.418	-0.036
-201.348	-200.000	0.005	-0.099
-200.333	128.472	0.131	-0.165
-199.319	-200.000	-0.006	0.139
-198.304	-132.283	0.089	0.011
-197.290	14.608	0.187	-0.145
-196.275	212.737	-0.172	-0.270
-195.260	-200.000	-0.017	-0.117
-194.246	800.000	0.054	0.176
-193.231	346.421	-0.061	0.119
-192.217	72.228	0.047	-0.049
-191.202	482.412	-0.105	-0.236
-190.187	-150.601	-0.482	-0.036
-189.173	-140.480	-0.538	0.056
-188.158	-71.875	0.269	0.099
-187.144	-120.358	-0.065	0.011
-186.129	-78.621	0.261	0.088
-185.114	-39.198	0.142	0.074
-184.100	255.248	0.082	-0.140
-183.085	180.605	0.138	0.201
-182.071	-200.000	-0.013	0.182
-181.056	-96.706	-0.237	-0.062
-180.042	-44.116	0.268	-0.134
-179.027	-79.770	0.088	-0.030
-178.012	186.394	-0.126	-0.186
-176.998	134.025	0.284	-0.364
-175.983	-192.781	0.199	-0.002
-174.969	418.024	-0.029	-0.061
-173.954	-200.000	0.030	0.145
-172.939	-91.779	-0.086	0.024
-171.925	12.496	-0.144	0.110
-170.910	-23.744	-0.261	0.155
-169.896	-200.000	0.024	0.188
-168.881	323.284	0.117	0.221
-167.866	-0.445	0.136	0.096
-166.852	-102.354	0.420	0.100
-165.837	-200.000	-0.062	0.386
-164.823	-96.620	-0.116	-0.030
-163.808	-51.629	0.377	-0.174
-162.793	-200.000	0.006	-0.098
-161.779	565.150	0.092	-0.221
-160.764	338.443	-0.069	0.132
-159.750	212.151	0.079	-0.124
-158.735	800.000	0.093	0.381
-157.720	-200.000	0.026	0.221
-156.706	-54.526	0.202	-0.091
-155.691	-47.155	-0.165	-0.080
-154.677	-73.551	0.212	-0.077
-153.662	36.032	-0.155	-0.135
-152.647	2.540	-0.128	0.092
-151.633	51.376	0.236	0.222
-150.618	800.000	0.041	0.123
-149.604	-200.000	-0.028	0.221
-148.589	35.620	-0.205	-0.179
-147.574	-146.929	-0.240	0.020
-146.560	220.007	0.145	-0.230
-145.545	-151.301	0.128	0.009
-144.531	-30.412	0.044	-0.025
-143.516	62.138	0.243	-0.240
-142.502	88.134	-0.286	-0.314
-141.487	-89.439	-0.340	0.099
-140.472	-34.507	0.096	-0.052
-139.458	66.064	-0.216	0.217
-138.443	-119.370	0.257	0.044
-137.429	-124.243	-0.135	0.021
-136.414	-135.976	-0.356	0.041
-135.399	658.098	0.016	0.040
-134.385	14.609	-0.342	0.264
-133.370	-91.872	0.219	0.061
-132.356	-200.000	-0.012	0.264
-131.341	80.483	-0.357	0.380
-130.326	800.000	0.167	-0.563
-129.312	-200.000	0.016	-0.151
-128.297	-59.905	0.130	-0.055
-127.283	507.437	0.010	0.024
-126.268	270.403	0.045	0.078
-125.253	-34.097	0.233	0.127
-124.239	-139.691	0.313	-0.033
-123.224	-10.733	0.110	-0.072
-122.210	800.000	-0.088	0.278
-121.195	190.650	-0.031	0.046
