DTS Sentinel unit serial number:	SN413079Multiplexer serial number:	ORYXHardware model number:	OX4-SRSoftware version number:	ORYX F/W v4.00 Oryx Data Collector v3.7.2.0data status	okinstallation	princeton_trtdifferential loss correction	single-endedforward channel	channel 4reverse channel	N/Adate	2019/09/14time	21:33:35forward acquisition time	60.00reverse acquisition time	0.00gamma	496.2192k internal	0.2306k external	0.2306temperature offset calibration	1.0071default loss term (dB/km)	0.3790temperature slope calibration	1.0000multiplexer offset coefficient	1.0000multiplexer slope coefficient	1.0000fibre end	0.00T internal ref (°C)	32.87T ext. ref 1 (°C)	4.76T ext. ref 2 (°C)	27.74length (m)	temperature (°C)	Stokes	anti-Stokes-747.200	-61.692	0.168	0.071
-746.185	-121.734	0.475	0.080
-745.171	-200.000	0.012	0.131
-744.156	3.121	-0.449	0.332
-743.142	800.000	0.052	-0.202
-742.127	111.225	0.194	-0.238
-741.112	298.235	0.043	0.081
-740.098	-19.089	-0.396	0.250
-739.083	74.082	0.156	-0.167
-738.069	47.393	-0.182	-0.172
-737.054	14.036	-0.281	0.223
-736.039	103.197	-0.281	0.336
-735.025	-200.000	0.087	0.414
-734.010	-60.147	-0.143	0.062
-732.996	-33.882	-0.199	-0.111
-731.981	800.000	0.041	-0.130
-730.966	-50.512	0.279	0.134
-729.952	-43.717	0.325	0.166
-728.937	161.355	-0.131	0.186
-727.923	-63.063	-0.131	0.055
-726.908	138.291	-0.159	-0.212
-725.894	369.152	-0.048	-0.099
-724.879	302.711	0.107	-0.202
-723.864	-52.249	0.211	0.100
-722.850	-200.000	-0.014	-0.094
-721.835	-33.111	0.271	0.153
-720.821	58.694	-0.064	-0.064
-719.806	580.823	0.125	-0.312
-718.791	-200.000	0.022	-0.111
-717.777	-14.935	-0.112	-0.073
-716.762	284.756	0.063	-0.116
-715.748	-150.922	0.124	-0.010
-714.733	114.291	-0.206	0.255
-713.718	-150.125	-0.407	-0.032
-712.704	135.180	-0.012	0.015
-711.689	800.000	-0.016	0.062
-710.675	171.334	-0.247	-0.359
-709.660	-200.000	0.007	0.262
-708.645	-170.207	-0.051	0.002
-707.631	-200.000	0.025	0.274
-706.616	-64.871	-0.288	0.118
-705.602	-139.609	-0.032	-0.003
-704.587	-167.952	-0.118	-0.005
-703.572	-56.272	-0.107	0.048
-702.558	-200.000	0.015	-0.191
-701.543	-5.522	0.034	-0.024
-700.529	274.417	0.071	-0.128
-699.514	52.099	-0.014	-0.014
-698.499	-110.488	0.166	-0.035
-697.485	-200.000	0.001	-0.225
-696.470	800.000	0.113	-0.352
-695.456	-164.016	-0.221	-0.010
-694.441	-81.674	0.150	0.050
-693.426	-79.822	-0.243	-0.083
-692.412	800.000	0.016	-0.056
-691.397	20.600	-0.310	-0.255
-690.383	-200.000	0.001	-0.180
-689.368	-101.062	0.088	0.022
-688.354	-200.000	-0.031	-0.317
-687.339	143.221	0.094	-0.127
-686.324	51.450	0.063	0.061
-685.310	-125.011	0.176	-0.028
-684.295	800.000	0.063	0.197
-683.281	44.101	0.126	0.117
-682.266	149.519	-0.075	0.102
-681.251	-127.918	-0.387	-0.056
-680.237	-16.334	-0.162	0.104
-679.222	-200.000	0.017	-0.135
-678.208	-113.805	0.357	0.071
-677.193	85.289	0.164	0.182
-676.178	302.006	-0.053	0.099
-675.164	11.817	-0.257	-0.200
-674.149	-84.193	-0.252	-0.081
-673.135	-200.000	0.035	0.225
-672.120	-112.416	-0.316	0.064
-671.105	81.891	0.224	-0.246
-670.091	21.604	-0.038	-0.031
-669.076	47.547	0.159	-0.151
-668.062	-80.128	0.365	-0.124
-667.047	170.329	-0.238	-0.345
-666.032	-179.724	0.274	0.006
-665.018	384.132	0.142	0.296
-664.003	-151.449	0.072	0.005
-662.989	-159.160	0.054	0.003
-661.974	-200.000	-0.039	0.254
-660.959	114.040	0.260	-0.321
-659.945	85.399	0.127	0.141
-658.930	-200.000	-0.032	0.312
-657.916	319.002	0.047	0.091
-656.901	-127.178	-0.249	0.037
-655.886	-151.551	-0.210	0.016
-654.872	303.419	0.091	0.170
-653.857	190.167	-0.112	-0.171
-652.843	-60.882	-0.122	0.052
-651.828	-200.000	0.017	-0.257
-650.814	-8.047	-0.099	-0.068
-649.799	-8.602	0.096	0.066
-648.784	-1.324	0.186	0.133
-647.770	-84.990	0.270	-0.086
-646.755	-200.000	0.017	-0.258
-645.741	-62.073	0.077	0.033
-644.726	32.464	-0.097	0.085
-643.711	90.147	-0.113	0.128
-642.697	-25.931	-0.136	0.081
-641.682	112.160	0.127	-0.156
-640.668	-200.000	-0.047	0.285
-639.653	-73.156	-0.137	-0.051
-638.638	183.451	-0.125	-0.188
-637.624	-85.420	0.222	-0.070
-636.609	136.229	0.048	0.063
-635.595	50.829	-0.061	-0.059
-634.580	-200.000	-0.092	-0.497
-633.565	322.366	0.150	-0.289
-632.551	-13.193	0.254	0.167
-631.536	292.491	-0.117	0.215
-630.522	-17.836	0.090	0.057
-629.507	-182.225	-0.201	-0.004
-628.492	-200.000	0.044	0.358
-627.478	150.696	-0.163	0.225
-626.463	-200.000	0.021	-0.145
-625.449	548.963	-0.064	-0.155
-624.434	-5.049	0.104	-0.073
-623.419	-50.490	0.495	0.236
-622.405	-200.000	0.010	0.049
-621.390	-70.803	0.238	0.091
-620.376	-80.960	0.197	-0.066
-619.361	100.287	-0.080	0.094
-618.346	-200.000	0.010	-0.273
-617.332	-109.746	0.220	-0.047
-616.317	-81.305	-0.052	0.017
-615.303	-200.000	-0.029	-0.288
-614.288	-14.459	-0.138	0.090
-613.273	800.000	0.101	0.330
-612.259	426.757	-0.052	-0.114
-611.244	18.224	-0.092	-0.075
-610.230	-71.118	0.252	0.096
-609.215	124.444	-0.268	0.341
-608.201	-200.000	0.062	0.423
-607.186	292.151	-0.111	-0.204
-606.171	-200.000	0.010	-0.181
-605.157	47.999	0.183	-0.173
-604.142	445.441	-0.029	0.063
-603.128	420.646	0.073	-0.158
-602.113	-200.000	0.010	0.181
-601.098	-200.000	0.003	-0.088
-600.084	98.470	0.067	0.078
-599.069	207.267	0.033	-0.051
-598.055	-200.000	0.033	0.175
-597.040	-79.937	-0.138	0.047
-596.025	239.909	-0.082	0.138
-595.011	43.154	0.091	-0.084
-593.996	176.342	-0.112	-0.165
-592.982	-134.666	0.209	0.026
-591.967	421.384	0.216	-0.468
-590.952	148.394	0.185	0.253
-589.938	270.146	0.140	-0.250
-588.923	-39.889	-0.093	-0.049
-587.909	-200.000	0.025	0.173
-586.894	-177.786	-0.265	0.006
-585.879	22.659	-0.088	-0.073
-584.865	800.000	-0.071	-0.234
-583.850	546.745	0.151	-0.364
-582.836	-200.000	-0.011	-0.274
-581.821	176.291	-0.037	0.055
-580.806	128.217	0.068	0.087
-579.792	294.726	0.071	-0.132
-578.777	76.763	0.106	-0.114
-577.763	424.517	-0.093	0.203
-576.748	90.149	-0.346	0.391
-575.733	-4.314	-0.294	-0.206
-574.719	-200.000	0.002	0.020
-573.704	-119.966	-0.215	0.037
-572.690	-200.000	0.003	-0.209
-571.675	-97.472	-0.381	0.100
-570.661	-94.623	0.150	0.041
-569.646	140.919	0.019	0.025
-568.631	-200.000	0.040	0.220
-567.617	444.541	-0.090	-0.199
-566.602	-200.000	0.014	-0.264
-565.588	51.064	0.163	-0.156
-564.573	80.527	0.011	0.012
-563.558	401.065	-0.139	-0.295
-562.544	20.709	-0.078	-0.064
-561.529	13.251	-0.299	-0.234
-560.515	143.909	-0.079	0.106
-559.500	-89.669	-0.225	0.067
-558.485	42.052	-0.251	-0.230
-557.471	-200.000	0.023	-0.145
-556.456	125.343	0.095	-0.121
-555.442	251.519	-0.163	-0.279
-554.427	800.000	0.069	0.226
-553.412	499.700	0.062	0.145
-552.398	-1.496	0.395	-0.281
-551.383	-200.000	-0.045	-0.241
-550.369	-200.000	-0.023	0.111
-549.354	64.872	-0.093	-0.094
-548.339	-118.440	-0.059	-0.010
-547.325	-67.882	-0.220	-0.087
-546.310	29.458	-0.113	-0.097
-545.296	-125.388	0.406	0.062
-544.281	51.945	0.157	0.151
-543.266	-200.000	-0.021	0.142
-542.252	-14.293	-0.193	-0.125
-541.237	398.614	0.113	0.238
-540.223	95.143	-0.264	-0.303
-539.208	-136.072	0.378	-0.045
-538.193	800.000	-0.125	0.355
-537.179	197.480	0.145	-0.224
-536.164	158.448	-0.199	-0.279
-535.150	-147.695	0.106	0.009
-534.135	256.423	-0.139	0.241
-533.121	-200.000	-0.006	0.205
-532.106	-166.628	0.225	-0.009
-531.091	309.768	0.090	-0.170
-530.077	-200.000	0.021	-0.244
-529.062	-200.000	-0.034	0.243
-528.048	-184.101	0.120	-0.002
-527.033	-64.652	-0.315	-0.129
-526.018	138.306	0.039	-0.051
-525.004	-27.115	0.037	-0.022
-523.989	133.003	0.184	0.240
-522.975	-87.666	-0.189	-0.057
-521.960	800.000	-0.010	-0.041
-520.945	140.276	-0.048	0.064
-519.931	-23.239	0.277	-0.168
-518.916	189.661	-0.063	-0.095
-517.902	414.170	-0.071	-0.152
-516.887	-124.242	-0.212	-0.033
-515.872	-156.536	0.162	0.010
-514.858	-22.452	-0.261	-0.159
-513.843	182.097	0.149	-0.221
-512.829	-76.676	0.161	-0.057
-511.814	-141.185	0.327	-0.034
-510.799	-200.000	-0.008	-0.044
-509.785	122.338	-0.107	0.135
-508.770	22.870	-0.299	0.247
-507.756	-200.000	-0.016	-0.254
-506.741	-45.734	-0.155	-0.077
-505.726	303.620	0.020	0.038
-504.712	166.733	-0.106	-0.152
-503.697	-133.861	-0.082	0.010
-502.683	-53.751	-0.143	0.066
-501.668	132.661	-0.299	-0.389
-500.653	-22.683	0.272	-0.166
-499.639	134.421	0.145	0.190
-498.624	29.052	0.097	0.083
-497.610	342.621	-0.048	-0.095
-496.595	54.999	0.078	-0.076
-495.581	-200.000	0.012	-0.175
-494.566	-152.722	0.361	-0.026
-493.551	21.376	-0.187	-0.153
-492.537	30.665	-0.240	-0.207
-491.522	-200.000	-0.041	-0.309
-490.508	309.301	0.232	-0.437
-489.493	207.975	-0.119	0.188
-488.478	-55.737	0.260	-0.117
-487.464	-132.059	-0.387	0.051
-486.449	-135.717	0.326	0.039
-485.435	-200.000	-0.017	-0.354
-484.420	-200.000	0.076	0.000
-483.405	239.774	-0.121	0.203
-482.391	-41.781	-0.111	0.057
-481.376	-67.696	0.306	0.120
-480.362	163.975	-0.182	0.258
-479.347	-69.459	0.388	-0.150
-478.332	-200.000	-0.023	0.229
-477.318	-51.111	0.224	-0.106
-476.303	-163.306	-0.101	0.005
-475.289	158.279	0.124	0.173
-474.274	28.330	0.092	-0.078
-473.259	-2.376	-0.243	0.172
-472.245	498.087	-0.088	-0.203
-471.230	-108.475	-0.135	0.029
-470.216	174.424	0.091	-0.132
-469.201	-19.990	0.224	0.139
-468.186	-0.634	-0.152	0.109
-467.172	81.422	-0.112	-0.122
-466.157	283.753	-0.093	0.169
-465.143	-50.049	-0.141	-0.067
-464.128	-200.000	0.010	0.273
-463.113	72.313	-0.225	0.236
-462.099	-200.000	-0.001	-0.170
-461.084	-165.866	-0.056	0.002
-460.070	127.072	0.115	0.147
-459.055	800.000	-0.074	-0.281
-458.040	153.443	0.187	-0.257
-457.026	800.000	-0.073	-0.257
-456.011	-122.525	0.274	-0.045
-454.997	-66.100	0.090	-0.036
-453.982	800.000	0.033	0.126
-452.968	800.000	0.033	-0.130
-451.953	-21.250	0.191	0.117
-450.938	198.920	0.055	0.085
-449.924	65.956	0.267	-0.273
-448.909	-200.000	-0.039	-0.376
-447.895	-147.940	-0.111	0.009
-446.880	-86.189	0.355	0.110
-445.865	800.000	-0.004	0.019
-444.851	-103.760	0.091	0.021
-443.836	-83.092	-0.339	-0.110
-442.822	61.487	0.106	-0.106
-441.807	-200.000	-0.017	0.210
-440.792	163.567	0.234	-0.331
-439.778	-78.406	0.015	-0.005
-438.763	144.309	0.314	0.421
-437.749	77.828	-0.137	-0.147
-436.734	-69.142	0.268	-0.104
-435.719	244.639	0.176	0.298
-434.705	126.265	-0.185	0.235
-433.690	222.431	0.138	0.224
-432.676	-24.630	0.086	-0.051
-431.661	-7.620	0.306	-0.208
-430.646	-200.000	0.003	-0.241
-429.632	800.000	-0.143	-0.465
-428.617	-87.030	-0.376	0.115
-427.603	784.793	0.043	0.118
-426.588	-156.583	-0.225	0.014
-425.573	-200.000	0.031	0.190
-424.559	-41.729	-0.210	0.109
-423.544	800.000	-0.087	0.248
-422.530	-200.000	-0.010	-0.069
-421.515	-38.500	0.234	-0.124
-420.500	800.000	-0.054	0.201
-419.486	225.003	0.039	-0.064
-418.471	-186.476	-0.450	-0.006
-417.457	479.760	-0.129	-0.294
-416.442	-200.000	-0.065	-0.447
-415.428	-166.180	-0.088	-0.004
-414.413	231.346	0.229	0.376
-413.398	27.883	0.221	0.187
-412.384	167.559	0.104	-0.148
-411.369	-66.504	-0.138	0.055
-410.355	0.829	0.077	0.056
-409.340	-41.313	0.157	0.081
-408.325	800.000	0.051	0.166
-407.311	131.703	0.097	-0.125
-406.296	-200.000	0.016	0.257
-405.282	-39.544	-0.302	0.159
-404.267	800.000	0.044	0.178
-403.252	81.501	0.129	0.140
-402.238	800.000	0.075	0.315
-401.223	-29.646	0.548	0.314
-400.209	-122.335	-0.358	0.059
-399.194	-30.075	-0.145	0.083
-398.179	-200.000	0.008	0.472
-397.165	800.000	-0.029	0.126
-396.150	-113.219	0.082	-0.016
-395.136	422.475	-0.106	0.229
-394.121	800.000	0.052	-0.195
-393.106	-164.307	-0.391	-0.018
-392.092	-108.257	0.378	0.082
-391.077	268.939	-0.201	-0.354
-390.063	-148.054	-0.149	0.012
-389.048	-158.996	-0.119	0.007
-388.033	51.877	-0.141	0.135
-387.019	-22.366	0.291	-0.177
-386.004	319.600	-0.022	0.041
-384.990	249.952	-0.033	-0.056
-383.975	800.000	0.039	0.126
-382.960	199.257	0.186	-0.285
-381.946	-114.884	-0.344	0.066
-380.931	800.000	0.048	-0.135
-379.917	-177.952	0.120	0.003
-378.902	800.000	0.074	0.207
-377.888	40.794	-0.185	0.167
-376.873	39.504	-0.170	-0.153
-375.858	-144.795	-0.332	-0.031
-374.844	92.991	-0.017	0.019
-373.829	148.110	0.118	-0.159
-372.815	-3.761	0.172	-0.120
-371.800	800.000	-0.089	0.340
-370.785	800.000	-0.123	-0.436
-369.771	-200.000	-0.017	-0.085
-368.756	-118.077	-0.271	0.048
-367.742	134.211	-0.072	-0.093
-366.727	121.038	-0.166	0.208
-365.712	-200.000	0.061	0.273
-364.698	658.318	0.060	0.154
-363.683	241.313	-0.126	-0.211
-362.669	-200.000	-0.133	0.000
-361.654	-149.866	0.173	0.014
-360.639	-86.311	0.138	0.043
-359.625	413.421	0.015	0.032
-358.610	4.683	-0.091	0.067
-357.596	-50.278	-0.193	0.092
-356.581	205.436	0.199	-0.310
-355.566	-95.915	0.377	-0.101
-354.552	76.830	-0.051	-0.055
-353.537	-69.647	-0.351	-0.135
-352.523	83.958	0.079	0.087
-351.508	-154.725	-0.189	-0.013
-350.493	313.345	-0.202	0.381
-349.479	-89.168	-0.335	0.099
-348.464	276.990	0.079	0.142
-347.450	-46.112	-0.404	0.199
-346.435	-200.000	0.023	0.193
-345.420	-1.897	-0.112	0.079
-344.406	325.605	0.128	0.244
-343.391	90.354	0.291	-0.326
-342.377	-91.868	-0.094	0.027
-341.362	-200.000	0.041	0.220
-340.348	37.390	-0.176	-0.156
-339.333	604.451	0.187	-0.466
-338.318	9.158	-0.151	0.114
-337.304	-43.167	-0.144	-0.073
-336.289	-200.000	-0.005	-0.215
-335.275	-200.000	-0.021	-0.222
-334.260	191.447	-0.213	-0.321
-333.245	-89.282	0.173	0.051
-332.231	277.517	-0.116	0.207
-331.216	-38.275	0.395	0.209
-330.202	-66.455	-0.064	-0.025
-329.187	-200.000	-0.008	-0.057
-328.172	486.424	-0.042	-0.097
-327.158	395.701	-0.087	0.182
-326.143	800.000	0.116	0.498
-325.129	-74.979	-0.194	-0.069
-324.114	104.644	-0.147	0.173
-323.099	-60.170	-0.086	0.037
-322.085	662.441	-0.068	-0.177
-321.070	335.460	0.079	0.153
-320.056	-200.000	0.009	0.085
-319.041	381.648	0.118	-0.242
-318.026	326.128	0.094	-0.180
-317.012	-145.089	0.557	0.051
-315.997	-14.928	0.319	0.204
-314.983	130.424	-0.088	0.113
-313.968	-50.912	-0.266	-0.125
-312.953	-11.104	-0.102	0.067
-311.939	181.654	-0.091	-0.135
-310.924	-200.000	-0.001	0.092
-309.910	-71.634	0.100	0.037
-308.895	800.000	0.086	0.310
-307.880	800.000	-0.059	0.252
-306.866	154.403	0.032	0.044
-305.851	224.844	-0.120	-0.194
-304.837	-80.708	0.135	0.045
-303.822	96.776	0.143	-0.163
-302.807	71.935	-0.094	-0.097
-301.793	359.383	0.124	-0.248
-300.778	-78.516	0.034	-0.012
-299.764	-200.000	0.006	0.170
-298.749	-200.000	-0.006	0.406
-297.735	-159.764	-0.091	0.005
-296.720	748.638	0.048	-0.129
-295.705	800.000	0.111	-0.435
-294.691	269.372	0.052	-0.092
-293.676	38.428	0.204	-0.182
-292.662	-36.620	0.157	0.085
-291.647	-122.019	-0.227	0.037
-290.632	-8.041	0.261	0.176
-289.618	-200.000	-0.003	-0.137
-288.603	-98.892	0.231	0.059
-287.589	-200.000	-0.048	0.475
-286.574	-136.884	-0.107	0.012
-285.559	266.110	-0.176	-0.306
-284.545	716.455	-0.006	-0.016
-283.530	797.966	0.062	-0.170
-282.516	-200.000	-0.047	-0.390
-281.501	-195.705	0.425	0.003
-280.486	92.227	-0.053	0.060
-279.472	114.588	0.180	0.219
-278.457	40.374	0.204	-0.184
-277.443	800.000	0.062	-0.251
-276.428	101.066	0.097	0.113
-275.413	-89.976	-0.549	0.160
-274.399	-108.987	0.154	-0.033
-273.384	-39.682	-0.282	-0.148
-272.370	64.350	-0.131	0.132
-271.355	703.870	-0.026	-0.068
-270.340	99.837	-0.054	-0.063
-269.326	-78.445	-0.195	-0.067
-268.311	-200.000	0.042	-0.283
-267.297	800.000	-0.085	-0.322
-266.282	3.238	-0.231	0.167
-265.267	-200.000	0.011	0.243
-264.253	-57.222	0.270	0.119
-263.238	-0.218	0.280	0.199
-262.224	-200.000	0.015	0.210
-261.209	28.594	0.251	0.212
-260.195	74.263	0.285	0.298
-259.180	-42.223	0.169	0.086
-258.165	800.000	0.132	-0.387
-257.151	800.000	-0.050	0.160
-256.136	-162.768	-0.214	0.010
-255.122	47.416	0.212	0.197
-254.107	293.094	0.034	0.062
-253.092	71.850	-0.170	0.177
-252.078	-104.332	-0.210	-0.049
-251.063	800.000	0.079	0.233
-250.049	800.000	-0.067	0.245
-249.034	-200.000	0.014	-0.082
-248.019	121.083	0.104	0.129
-247.005	-109.226	0.369	0.078
-245.990	67.909	-0.229	-0.233
-244.976	-45.456	-0.135	0.067
-243.961	453.673	-0.123	-0.272
-242.946	-22.752	-0.152	-0.092
-241.932	-200.000	-0.027	-0.136
-240.917	-154.272	0.502	0.034
-239.903	-89.032	0.267	0.079
-238.888	-200.000	0.006	0.077
-237.873	-7.916	-0.029	0.020
-236.859	-106.905	0.050	0.011
-235.844	227.873	0.046	0.075
-234.830	-147.245	0.100	-0.009
-233.815	-115.421	-0.322	-0.060
-232.800	-92.322	0.119	-0.033
-231.786	800.000	-0.027	0.089
-230.771	108.635	-0.305	-0.364
-229.757	500.498	-0.023	-0.053
-228.742	800.000	0.050	0.212
-227.727	-200.000	-0.010	0.216
-226.713	-200.000	0.026	0.365
-225.698	2.740	-0.145	-0.105
-224.684	204.245	0.115	-0.178
-223.669	-13.497	0.182	0.118
-222.655	285.277	0.148	0.266
-221.640	146.959	0.075	0.101
-220.625	37.284	-0.063	0.056
-219.611	-200.000	-0.099	0.447
-218.596	-18.874	-0.114	0.071
-217.582	-200.000	-0.019	0.313
-216.567	329.062	-0.031	-0.059
-215.552	-200.000	0.014	-0.374
-214.538	800.000	-0.053	0.203
-213.523	320.366	-0.121	0.230
-212.509	10.215	-0.387	0.293
-211.494	2.102	-0.094	0.068
-210.479	800.000	-0.063	-0.185
-209.465	-200.000	0.002	0.083
-208.450	-200.000	-0.021	-0.298
-207.436	-200.000	0.064	-0.293
-206.421	205.108	0.141	-0.218
-205.406	237.193	-0.052	-0.086
-204.392	-159.018	0.207	0.012
-203.377	-100.466	0.262	-0.064
-202.363	800.000	0.107	-0.319
-201.348	96.267	0.013	0.014
-200.333	-200.000	-0.039	0.261
-199.319	-200.000	0.029	-0.140
-198.304	-112.581	-0.021	0.004
-197.290	357.205	-0.103	-0.205
-196.275	208.616	-0.152	0.237
-195.260	-83.736	0.109	0.034
-194.246	-68.829	0.242	0.093
-193.231	12.187	0.238	0.182
-192.217	800.000	-0.081	0.256
-191.202	800.000	-0.066	0.249
-190.187	96.336	0.084	0.095
-189.173	-40.653	-0.189	-0.097
-188.158	-98.285	0.339	0.086
-187.144	153.154	-0.126	-0.172
-186.129	37.795	0.081	0.071
-185.114	-75.686	-0.096	0.034
-184.100	177.116	-0.123	0.177
-183.085	81.561	-0.150	-0.162
-182.071	188.062	0.078	-0.116
-181.056	639.447	0.039	0.099
-180.042	-200.000	-0.003	0.024
-179.027	424.111	-0.110	0.236
-178.012	-153.504	-0.290	0.020
-176.998	-187.865	0.121	-0.002
-175.983	63.118	0.228	-0.227
-174.969	-192.798	-0.353	-0.003
-173.954	-131.401	0.275	0.036
-172.939	-57.102	0.130	-0.057
-171.925	96.144	-0.103	-0.117
-170.910	-48.458	-0.204	-0.098
-169.896	-4.134	0.042	0.029
-168.881	-145.262	0.298	-0.027
-167.866	371.027	-0.059	0.119
-166.852	-19.649	-0.071	-0.044
-165.837	189.046	-0.104	0.154
-164.823	104.519	0.082	-0.096
-163.808	800.000	0.017	-0.061
-162.793	-200.000	0.045	0.231
-161.779	-167.995	-0.288	-0.011
-160.764	55.395	-0.140	-0.135
-159.750	-136.890	-0.089	0.010
-158.735	-156.179	-0.044	0.003
-157.720	-148.362	-0.243	0.020
-156.706	562.435	0.100	-0.242
-155.691	87.765	-0.273	0.300
-154.677	641.216	-0.063	-0.159
-153.662	44.772	-0.145	0.133
-152.647	-26.847	-0.345	0.200
-151.633	-192.610	0.205	0.002
-150.618	-200.000	0.062	-0.293
-149.604	-200.000	-0.080	-0.362
-148.589	171.691	0.072	-0.103
-147.574	-200.000	-0.025	-0.135
-146.560	292.051	-0.227	0.411
-145.545	800.000	-0.061	-0.196
-144.531	-62.669	0.419	0.173
-143.516	-106.808	0.167	-0.037
-142.502	405.738	-0.100	-0.210
-141.487	24.314	0.166	0.136
-140.472	-200.000	0.028	-0.269
-139.458	49.006	-0.075	0.070
-138.443	310.193	0.280	-0.521
-137.429	-176.583	-0.295	0.008
-136.414	126.060	0.112	0.141
-135.399	-98.191	0.093	0.024
-134.385	73.411	-0.057	-0.059
-133.370	-200.000	0.038	-0.216
-132.356	800.000	-0.076	-0.292
-131.341	-57.157	-0.213	-0.093
-130.326	380.393	0.004	0.009
-129.312	44.197	-0.227	-0.207
-128.297	-149.115	0.075	0.006
-127.283	73.192	-0.251	-0.261
-126.268	109.350	-0.147	-0.175
-125.253	-71.501	-0.285	-0.106
-124.239	-200.000	-0.025	-0.194
-123.224	-8.785	-0.050	-0.033
-122.210	-200.000	-0.017	0.166
-121.195	-200.000	0.013	0.283
