DTS Sentinel unit serial number:	SN413079Multiplexer serial number:	ORYXHardware model number:	OX4-SRSoftware version number:	ORYX F/W v4.00 Oryx Data Collector v3.7.2.0data status	okinstallation	princeton_trtdifferential loss correction	single-endedforward channel	channel 4reverse channel	N/Adate	2019/09/18time	14:37:35forward acquisition time	60.00reverse acquisition time	0.00gamma	496.2192k internal	0.2300k external	0.2300temperature offset calibration	1.0001default loss term (dB/km)	0.3790temperature slope calibration	1.0000multiplexer offset coefficient	1.0000multiplexer slope coefficient	1.0000fibre end	0.00T internal ref (°C)	34.61T ext. ref 1 (°C)	0.70T ext. ref 2 (°C)	32.25length (m)	temperature (°C)	Stokes	anti-Stokes-747.200	270.104	-0.155	-0.278
-746.185	295.380	0.070	0.131
-745.171	135.839	-0.141	0.188
-744.156	800.000	0.044	0.180
-743.142	307.007	-0.131	0.249
-742.127	258.721	-0.131	0.230
-741.112	607.318	0.117	0.298
-740.098	-103.551	0.326	0.078
-739.083	-27.933	0.368	0.217
-738.069	7.389	0.289	0.220
-737.054	-28.465	0.066	-0.039
-736.039	-70.849	-0.560	-0.215
-735.025	-200.000	-0.026	-0.344
-734.010	19.240	-0.185	0.152
-732.996	573.009	-0.035	0.088
-731.981	67.949	-0.277	0.289
-730.966	-157.479	0.037	-0.002
-729.952	-108.834	-0.292	0.064
-728.937	-200.000	-0.009	-0.183
-727.923	-142.880	-0.076	-0.008
-726.908	98.142	-0.359	-0.421
-725.894	-118.696	-0.139	0.025
-724.879	27.504	-0.164	-0.140
-723.864	800.000	-0.061	0.187
-722.850	-125.049	-0.161	0.025
-721.835	-148.450	0.007	0.001
-720.821	-200.000	-0.031	0.276
-719.806	-118.821	-0.411	0.074
-718.791	189.182	0.089	-0.135
-717.777	-75.539	-0.241	0.088
-716.762	134.882	-0.037	0.049
-715.748	258.421	-0.228	-0.400
-714.733	-127.275	-0.354	-0.053
-713.718	-200.000	0.051	0.300
-712.704	-79.891	0.216	-0.074
-711.689	800.000	0.044	-0.130
-710.675	-200.000	0.081	-0.406
-709.660	-17.017	-0.071	-0.045
-708.645	230.995	0.103	-0.172
-707.631	800.000	-0.079	-0.266
-706.616	255.451	0.033	-0.057
-705.602	400.063	0.125	-0.267
-704.587	-200.000	-0.008	-0.239
-703.572	28.564	0.066	-0.057
-702.558	-120.453	0.168	0.029
-701.543	-16.604	0.268	0.173
-700.529	14.168	-0.125	0.100
-699.514	-33.739	0.129	0.072
-698.499	-200.000	-0.007	-0.185
-697.485	800.000	0.095	-0.269
-696.470	-120.401	-0.273	0.047
-695.456	48.931	0.108	-0.104
-694.441	-73.481	0.339	-0.126
-693.426	-67.586	0.210	0.084
-692.412	-11.334	-0.247	-0.166
-691.397	-124.480	-0.296	0.047
-690.383	-200.000	0.015	-0.204
-689.368	-200.000	-0.023	-0.124
-688.354	-92.599	-0.356	-0.102
-687.339	-200.000	-0.048	-0.223
-686.324	69.597	-0.057	-0.060
-685.310	-90.844	-0.107	0.031
-684.295	-200.000	0.017	0.279
-683.281	7.241	-0.181	-0.138
-682.266	227.131	0.073	-0.120
-681.251	-121.436	0.184	0.031
-680.237	3.602	0.257	0.191
-679.222	-120.711	-0.267	0.046
-678.208	146.062	0.106	0.144
-677.193	-73.256	-0.224	0.084
-676.178	581.968	0.097	-0.242
-675.164	655.518	0.078	-0.204
-674.149	508.252	-0.063	-0.149
-673.135	158.959	-0.154	0.218
-672.120	-199.652	0.318	-0.002
-671.105	-200.000	-0.016	-0.209
-670.091	-103.421	-0.135	0.032
-669.076	-134.538	0.617	0.077
-668.062	232.418	0.131	0.219
-667.047	-55.706	-0.317	-0.144
-666.032	-56.949	-0.228	-0.103
-665.018	46.115	-0.231	-0.218
-664.003	220.002	-0.075	-0.122
-662.989	-48.413	0.235	-0.115
-661.974	-156.263	-0.144	0.009
-660.959	65.134	0.176	-0.180
-659.945	-96.771	0.252	0.067
-658.930	83.240	0.152	0.168
-657.916	472.330	0.051	0.116
-656.901	-200.000	0.013	-0.367
-655.886	-200.000	-0.031	-0.340
-654.872	800.000	-0.063	-0.228
-653.857	-76.368	0.178	-0.064
-652.843	-51.851	0.127	0.060
-651.828	-200.000	0.028	0.359
-650.814	-200.000	-0.029	0.151
-649.799	42.942	-0.207	-0.192
-648.784	93.754	-0.074	0.085
-647.770	153.074	0.150	0.209
-646.755	24.635	-0.280	-0.236
-645.741	-200.000	-0.015	-0.219
-644.726	-14.720	0.533	-0.348
-643.711	23.410	-0.205	-0.171
-642.697	709.714	-0.046	-0.124
-641.682	-30.947	-0.096	0.055
-640.668	-92.128	-0.279	-0.080
-639.653	285.803	0.157	0.288
-638.638	93.105	0.082	-0.094
-637.624	-128.188	0.198	-0.029
-636.609	-112.270	0.247	-0.050
-635.595	348.017	0.124	0.248
-634.580	155.890	0.104	0.146
-633.565	16.875	-0.253	-0.203
-632.551	800.000	-0.109	-0.332
-631.536	60.028	0.138	0.138
-630.522	-24.963	0.169	-0.102
-629.507	60.292	0.043	0.043
-628.492	-200.000	0.051	0.635
-627.478	-171.352	-0.165	0.006
-626.463	71.063	-0.156	-0.164
-625.449	-200.000	0.059	0.323
-624.434	-200.000	0.039	-0.273
-623.419	-63.984	-0.117	-0.049
-622.405	224.127	-0.200	-0.328
-621.390	12.844	-0.086	-0.067
-620.376	-200.000	-0.033	-0.329
-619.361	800.000	0.060	0.194
-618.346	10.929	0.292	-0.226
-617.332	-72.404	0.320	-0.120
-616.317	-103.198	-0.184	-0.044
-615.303	-200.000	-0.028	-0.157
-614.288	784.763	-0.048	-0.135
-613.273	82.698	0.224	0.247
-612.259	-200.000	-0.005	0.126
-611.244	-22.456	0.346	-0.213
-610.230	-38.132	-0.138	0.074
-609.215	-34.334	-0.273	-0.152
-608.201	-153.185	-0.234	0.017
-607.186	215.504	0.049	0.079
-606.171	765.702	0.119	0.329
-605.157	-168.757	-0.112	0.004
-604.142	129.621	0.172	0.223
-603.128	-200.000	0.001	0.251
-602.113	-149.963	0.585	-0.046
-601.098	-123.097	-0.234	-0.038
-600.084	-200.000	0.015	0.251
-599.069	451.599	0.028	-0.064
-598.055	434.673	-0.027	0.060
-597.040	779.731	-0.100	-0.278
-596.025	-64.471	-0.143	0.059
-595.011	-55.982	0.067	0.030
-593.996	800.000	0.041	0.154
-592.982	-178.264	-0.292	0.007
-591.967	-141.442	-0.332	-0.034
-590.952	576.111	-0.059	-0.146
-589.938	64.284	0.090	0.092
-588.923	-200.000	0.023	-0.350
-587.909	-200.000	0.047	-0.433
-586.894	-113.050	-0.452	0.090
-585.879	-35.795	0.080	0.044
-584.865	-200.000	-0.010	0.202
-583.850	-147.066	0.250	-0.022
-582.836	-59.738	-0.009	0.004
-581.821	63.472	0.067	0.069
-580.806	800.000	-0.105	-0.363
-579.792	611.347	0.036	0.091
-578.777	800.000	0.029	-0.083
-577.763	220.189	0.187	-0.304
-576.748	-122.618	0.177	0.029
-575.733	46.117	-0.229	-0.214
-574.719	-48.735	-0.137	0.067
-573.704	-54.616	-0.069	0.032
-572.690	-79.487	-0.238	-0.082
-571.675	486.956	-0.080	0.186
-570.661	-117.274	0.153	-0.028
-569.646	800.000	-0.029	0.091
-568.631	41.688	-0.225	0.207
-567.617	44.538	-0.225	-0.210
-566.602	-181.905	-0.153	0.003
-565.588	33.046	-0.152	-0.133
-564.573	15.127	-0.210	-0.167
-563.558	-79.626	-0.298	0.102
-562.544	-155.407	0.215	-0.014
-561.529	-126.310	-0.112	-0.017
-560.515	-200.000	-0.019	0.275
-559.500	33.722	0.190	-0.167
-558.485	90.696	-0.144	-0.163
-557.471	-89.666	0.154	-0.046
-556.456	-6.414	0.225	-0.155
-555.442	142.363	0.186	-0.251
-554.427	-110.916	-0.088	0.018
-553.412	136.760	0.273	0.361
-552.398	361.238	0.107	-0.218
-551.383	-113.421	0.252	-0.050
-550.369	-200.000	-0.002	0.017
-549.354	800.000	0.116	0.344
-548.339	-5.796	0.150	0.104
-547.325	6.696	-0.175	-0.132
-546.310	-49.273	-0.330	0.160
-545.296	-143.359	-0.225	0.022
-544.281	-196.902	-0.026	-0.000
-543.266	800.000	0.060	-0.220
-542.252	-103.177	0.229	-0.055
-541.237	-34.406	-0.068	-0.038
-540.223	-80.039	0.152	-0.051
-539.208	800.000	-0.163	0.480
-538.193	-76.297	0.231	-0.082
-537.179	800.000	0.126	-0.372
-536.164	230.636	-0.286	-0.473
-535.150	-25.784	0.287	0.171
-534.135	122.397	0.051	0.065
-533.121	-106.690	0.195	-0.044
-532.106	-146.025	0.135	-0.012
-531.091	-86.338	0.153	-0.048
-530.077	-63.964	0.326	0.135
-529.062	-73.667	0.321	-0.118
-528.048	-200.000	-0.002	-0.233
-527.033	800.000	0.085	0.263
-526.018	291.889	-0.258	-0.476
-525.004	108.740	-0.197	-0.237
-523.989	-146.515	0.401	-0.035
-522.975	320.210	-0.112	0.216
-521.960	-175.084	-0.242	0.007
-520.945	-200.000	0.006	0.029
-519.931	-200.000	-0.035	-0.336
-518.916	-31.975	0.143	0.081
-517.902	345.681	0.112	-0.223
-516.887	-117.814	0.114	-0.021
-515.872	800.000	-0.028	-0.113
-514.858	-200.000	0.000	-0.140
-513.843	90.606	0.153	-0.174
-512.829	-92.637	0.226	-0.064
-511.814	73.239	-0.063	0.067
-510.799	569.274	0.095	-0.235
-509.785	33.041	0.150	-0.131
-508.770	556.113	0.028	-0.068
-507.756	-82.312	0.143	0.047
-506.741	82.027	0.224	0.245
-505.726	-22.684	0.346	0.211
-504.712	756.661	0.062	0.170
-503.697	-21.629	-0.153	-0.094
-502.683	-60.580	0.173	-0.074
-501.668	10.560	0.199	0.153
-500.653	791.231	-0.027	-0.074
-499.639	35.322	-0.143	0.127
-498.624	-40.723	0.302	0.158
-497.610	540.357	-0.087	0.209
-496.595	-110.342	0.244	0.051
-495.581	-17.584	0.154	-0.098
-494.566	-200.000	-0.004	0.222
-493.551	800.000	0.049	0.188
-492.537	-180.959	-0.014	-0.000
-491.522	-3.650	0.154	-0.108
-490.508	800.000	0.085	0.241
-489.493	119.288	0.158	0.198
-488.478	180.293	-0.069	-0.102
-487.464	-11.499	-0.110	0.073
-486.449	-23.206	0.204	-0.124
-485.435	37.289	-0.094	0.084
-484.420	-85.252	-0.240	-0.076
-483.405	131.527	-0.229	0.297
-482.391	-74.322	0.200	0.073
-481.376	-114.291	0.447	-0.087
-480.362	-126.438	0.202	0.030
-479.347	-200.000	-0.029	0.328
-478.332	-112.249	-0.350	0.071
-477.318	-54.606	0.401	-0.183
-476.303	230.502	-0.103	-0.170
-475.289	190.607	0.060	-0.091
-474.274	-200.000	0.022	-0.195
-473.259	13.974	0.094	-0.074
-472.245	12.264	-0.255	0.198
-471.230	32.174	-0.067	0.059
-470.216	568.517	-0.076	0.185
-469.201	354.665	-0.140	0.281
-468.186	37.602	0.077	-0.069
-467.172	-144.683	-0.169	-0.016
-466.157	-103.860	-0.159	-0.038
-465.143	800.000	0.071	-0.243
-464.128	-128.717	-0.291	0.041
-463.113	-200.000	0.084	0.412
-462.099	800.000	0.132	0.461
-461.084	568.343	0.120	-0.295
-460.070	-200.000	-0.013	-0.280
-459.055	-109.069	0.279	-0.060
-458.040	31.933	0.473	-0.411
-457.026	240.230	0.234	-0.393
-456.011	-36.375	0.115	0.063
-454.997	27.661	-0.124	-0.105
-453.982	101.552	-0.107	0.125
-452.968	-54.064	-0.223	0.102
-451.953	-168.867	0.129	0.005
-450.938	-34.585	-0.211	0.117
-449.924	-200.000	0.022	-0.106
-448.909	800.000	-0.129	-0.379
-447.895	263.762	0.099	0.174
-446.880	6.040	-0.229	0.171
-445.865	-200.000	-0.016	0.220
-444.851	-15.015	-0.392	0.253
-443.836	-200.000	-0.108	0.555
-442.822	-200.000	0.018	-0.255
-441.807	21.056	-0.232	0.190
-440.792	580.669	-0.053	-0.131
-439.778	800.000	0.022	-0.073
-438.763	773.213	-0.074	0.204
-437.749	-200.000	-0.009	-0.095
-436.734	800.000	-0.060	0.171
-435.719	-200.000	-0.056	0.370
-434.705	-200.000	-0.000	0.073
-433.690	-200.000	0.057	0.298
-432.676	-200.000	0.054	0.301
-431.661	800.000	0.060	-0.167
-430.646	72.688	0.243	0.255
-429.632	268.702	-0.035	0.062
-428.617	71.951	0.051	-0.054
-427.603	-200.000	0.011	-0.350
-426.588	-134.629	0.357	0.044
-425.573	800.000	0.090	0.271
-424.559	90.914	-0.184	-0.208
-423.544	-125.355	0.173	-0.027
-422.530	-57.296	0.192	0.085
-421.515	-20.305	0.096	0.060
-420.500	554.756	-0.123	-0.298
-419.486	143.083	0.123	0.164
-418.471	47.312	-0.136	0.128
-417.457	62.672	-0.071	0.071
-416.442	31.554	-0.065	0.056
-415.428	29.659	-0.184	-0.158
-414.413	19.329	0.132	0.106
-413.398	600.407	-0.127	-0.318
-412.384	800.000	0.060	-0.230
-411.369	305.950	-0.202	0.379
-410.355	-10.203	-0.184	0.123
-409.340	609.131	-0.130	-0.327
-408.325	800.000	0.028	-0.117
-407.311	323.080	-0.126	0.241
-406.296	-200.000	-0.012	-0.063
-405.282	800.000	0.048	-0.211
-404.267	-46.060	-0.091	0.045
-403.252	78.597	0.204	0.220
-402.238	165.297	0.073	-0.103
-401.223	-200.000	-0.050	0.358
-400.209	-200.000	0.013	-0.065
-399.194	-88.410	-0.143	0.043
-398.179	-200.000	-0.075	0.335
-397.165	-68.702	-0.067	0.026
-396.150	171.190	-0.114	-0.165
-395.136	-61.551	0.195	-0.082
-394.121	-113.567	-0.180	-0.035
-393.106	-16.185	-0.188	0.120
-392.092	127.798	0.107	0.136
-391.077	-190.999	0.070	-0.001
-390.063	114.562	-0.270	-0.331
-389.048	94.558	-0.211	-0.242
-388.033	10.599	0.158	0.121
-387.019	800.000	0.055	0.206
-386.004	800.000	0.057	0.167
-384.990	-6.122	0.119	0.082
-383.975	-164.046	-0.146	0.007
-382.960	93.563	0.205	0.233
-381.946	-200.000	0.061	0.341
-380.931	231.452	0.031	0.050
-379.917	66.346	-0.230	-0.235
-378.902	-61.463	-0.106	-0.045
-377.888	800.000	-0.028	-0.098
-376.873	-200.000	0.022	-0.210
-375.858	52.532	0.184	-0.176
-374.844	-187.321	0.164	0.002
-373.829	-123.134	0.102	0.016
-372.815	800.000	0.087	-0.309
-371.800	-66.178	0.107	0.043
-370.785	157.675	-0.329	-0.458
-369.771	-200.000	-0.021	0.268
-368.756	800.000	-0.063	0.227
-367.742	137.530	0.138	0.182
-366.727	-200.000	-0.027	0.162
-365.712	-105.885	0.116	0.026
-364.698	800.000	0.017	-0.073
-363.683	-125.050	0.160	0.025
-362.669	-200.000	-0.002	0.274
-361.654	-131.335	-0.353	0.047
-360.639	-80.665	-0.118	0.039
-359.625	800.000	-0.073	0.229
-358.610	-12.791	0.106	-0.069
-357.596	-106.564	-0.355	-0.080
-356.581	-200.000	-0.079	0.422
-355.566	-200.000	-0.035	-0.193
-354.552	-200.000	0.039	0.286
-353.537	358.144	0.133	-0.266
-352.523	-25.983	0.284	-0.168
-351.508	-51.560	-0.190	0.089
-350.493	88.370	-0.316	-0.353
-349.479	-200.000	-0.087	-0.414
-348.464	800.000	0.053	0.170
-347.450	165.282	-0.193	0.274
-346.435	-19.232	0.251	-0.157
-345.420	-3.338	-0.309	-0.216
-344.406	119.261	-0.083	-0.104
-343.391	800.000	-0.020	-0.069
-342.377	-140.783	-0.226	-0.023
-341.362	-86.554	-0.117	0.036
-340.348	183.127	-0.157	-0.233
-339.333	60.886	0.161	-0.160
-338.318	-159.449	-0.363	-0.020
-337.304	83.640	0.090	0.098
-336.289	-130.419	-0.336	-0.046
-335.275	-200.000	0.047	-0.336
-334.260	-200.000	0.033	0.159
-333.245	31.384	0.206	-0.178
-332.231	-200.000	0.056	-0.270
-331.216	82.805	-0.128	-0.140
-330.202	21.640	-0.155	-0.127
-329.187	44.305	0.107	0.098
-328.172	-8.409	-0.095	0.064
-327.158	-77.604	-0.283	0.098
-326.143	-94.820	-0.291	-0.079
-325.129	-200.000	-0.005	0.212
-324.114	51.084	-0.171	0.163
-323.099	54.797	0.072	-0.069
-322.085	234.455	-0.109	-0.181
-321.070	-3.395	0.291	-0.203
-320.056	163.674	-0.240	-0.339
-319.041	-15.077	0.313	-0.201
-318.026	354.915	0.106	-0.211
-317.012	-14.409	-0.175	-0.113
-315.997	800.000	0.059	-0.183
-314.983	245.782	-0.144	0.243
-313.968	800.000	0.058	0.194
-312.953	-130.018	-0.294	0.040
-311.939	116.461	0.059	0.073
-310.924	98.385	-0.157	-0.181
-309.910	19.635	0.088	-0.071
-308.895	-81.629	0.161	0.053
-307.880	115.817	0.163	0.200
-306.866	800.000	0.132	0.380
-305.851	800.000	0.045	0.141
-304.837	-71.910	0.518	-0.193
-303.822	-200.000	-0.014	0.283
-302.807	-129.312	-0.142	0.020
-301.793	800.000	-0.072	0.246
-300.778	800.000	-0.042	-0.117
-299.764	800.000	-0.035	-0.113
-298.749	22.619	0.302	0.248
-297.735	10.952	0.325	-0.249
-296.720	2.542	0.177	-0.128
-295.705	-200.000	0.012	0.275
-294.691	95.883	-0.137	0.156
-293.676	323.233	-0.116	0.221
-292.662	65.854	0.191	-0.194
-291.647	-171.179	-0.417	0.014
-290.632	20.317	0.346	0.280
-289.618	-200.000	0.012	-0.262
-288.603	29.040	0.059	-0.050
-287.589	-11.756	0.159	0.104
-286.574	-111.334	0.018	0.004
-285.559	441.515	-0.027	0.058
-284.545	29.021	0.065	-0.056
-283.530	-119.837	0.236	0.041
-282.516	800.000	-0.092	-0.285
-281.501	-16.608	-0.087	-0.055
-280.486	138.280	-0.109	-0.144
-279.472	-44.988	0.131	0.065
-278.457	-200.000	-0.025	0.372
-277.443	-89.221	0.267	0.079
-276.428	266.600	-0.170	0.297
-275.413	-13.376	-0.220	0.143
-274.399	-200.000	0.009	0.237
-273.384	-200.000	-0.006	-0.166
-272.370	800.000	-0.024	-0.089
-271.355	-103.722	-0.339	-0.080
-270.340	458.516	0.101	-0.224
-269.326	800.000	-0.126	-0.496
-268.311	-200.000	-0.056	-0.517
-267.297	413.367	0.088	0.186
-266.282	71.409	0.100	0.104
-265.267	195.360	0.249	-0.379
-264.253	375.793	-0.225	0.460
-263.238	-101.303	0.472	-0.115
-262.224	-42.297	0.147	0.075
-261.209	-43.414	0.313	0.159
-260.195	732.335	-0.070	0.187
-259.180	-103.329	-0.188	0.044
-258.165	88.129	0.092	0.102
-257.151	279.266	0.064	-0.113
-256.136	-30.870	-0.280	-0.158
-255.122	403.586	-0.078	0.163
-254.107	1.704	-0.157	0.113
-253.092	18.484	-0.284	0.227
-252.078	-200.000	-0.017	-0.094
-251.063	45.359	0.296	0.273
-250.049	-6.638	-0.114	0.078
-249.034	-82.644	-0.229	-0.074
-248.019	773.299	0.056	-0.154
-247.005	-200.000	-0.030	-0.225
-245.990	-38.892	-0.281	-0.148
-244.976	800.000	0.053	-0.186
-243.961	-200.000	0.029	-0.259
-242.946	-103.613	-0.255	-0.060
-241.932	3.667	-0.158	-0.116
-240.917	-39.036	-0.184	0.097
-239.903	250.601	0.056	0.096
-238.888	88.178	-0.284	0.315
-237.873	-91.536	0.078	0.022
-236.859	-84.988	0.171	-0.054
-235.844	-83.089	-0.447	-0.144
-234.830	-200.000	-0.056	0.277
-233.815	-24.849	0.302	0.179
-232.800	800.000	-0.025	0.079
-231.786	96.490	0.277	0.317
-230.771	-66.697	-0.206	-0.082
-229.757	373.838	-0.107	0.217
-228.742	800.000	0.030	0.083
-227.727	-62.451	0.174	-0.072
-226.713	-108.483	0.092	0.020
-225.698	-200.000	0.010	0.185
-224.684	-200.000	-0.375	-0.000
-223.669	-150.954	0.321	-0.024
-222.655	127.593	-0.222	-0.282
-221.640	10.181	0.108	-0.082
-220.625	-4.643	0.220	0.152
-219.611	-136.984	0.166	-0.019
-218.596	-57.740	0.253	-0.111
-217.582	-153.437	-0.120	-0.008
-216.567	800.000	-0.016	0.059
-215.552	32.317	0.125	-0.107
-214.538	339.133	0.133	-0.259
-213.523	-200.000	-0.017	-0.080
-212.509	-200.000	-0.006	-0.126
-211.494	800.000	-0.064	0.186
-210.479	272.687	-0.065	-0.115
-209.465	140.835	0.077	-0.102
-208.450	103.963	-0.026	-0.030
-207.436	-200.000	-0.058	0.346
-206.421	517.039	0.163	0.381
-205.406	-126.060	0.103	-0.015
-204.392	-14.235	-0.526	-0.338
-203.377	-200.000	0.010	-0.154
-202.363	-102.198	-0.187	0.045
-201.348	7.201	-0.122	0.091
-200.333	205.451	-0.139	0.216
-199.319	-57.981	-0.222	-0.097
-198.304	-30.236	-0.187	-0.106
-197.290	-200.000	0.019	0.412
-196.275	81.894	-0.037	-0.040
-195.260	-200.000	0.011	0.171
-194.246	-95.737	-0.098	0.026
-193.231	-1.925	0.117	-0.082
-192.217	-200.000	0.063	0.359
-191.202	129.755	0.125	-0.159
-190.187	-142.311	0.104	0.010
-189.173	-137.441	-0.153	0.017
-188.158	39.624	-0.169	-0.151
-187.144	7.965	0.104	0.078
-186.129	-142.026	-0.224	0.022
-185.114	800.000	0.033	-0.126
-184.100	-200.000	0.018	-0.208
-183.085	-118.664	0.316	0.056
-182.071	42.632	-0.257	-0.234
-181.056	114.511	-0.138	0.168
-180.042	373.834	0.080	0.162
-179.027	800.000	0.110	0.315
-178.012	353.736	0.068	-0.134
-176.998	-103.558	-0.282	-0.066
-175.983	80.863	-0.053	-0.057
-174.969	-200.000	-0.026	0.219
-173.954	-107.401	-0.199	0.044
-172.939	26.321	-0.128	0.107
-171.925	175.829	0.121	0.175
-170.910	-67.557	-0.090	0.035
-169.896	-17.901	0.329	-0.206
-168.881	800.000	-0.126	-0.351
-167.866	-200.000	-0.005	-0.244
-166.852	-75.543	-0.090	-0.032
-165.837	-59.873	-0.096	0.041
-164.823	800.000	0.086	0.310
-163.808	-36.657	0.045	0.024
-162.793	800.000	0.018	-0.058
-161.779	-200.000	-0.022	0.107
-160.764	-50.642	0.291	0.137
-159.750	-200.000	0.065	-0.287
-158.735	-61.664	0.080	0.034
-157.720	-113.527	0.081	-0.016
-156.706	-108.054	-0.137	-0.030
-155.691	85.904	-0.091	-0.100
-154.677	-200.000	-0.032	0.307
-153.662	-148.558	0.406	0.033
-152.647	302.464	-0.171	-0.314
-151.633	96.424	0.284	0.324
-150.618	-200.000	0.037	0.296
-149.604	314.203	0.136	0.255
-148.589	-200.000	-0.052	0.490
-147.574	-37.333	0.260	-0.138
-146.560	1.067	-0.080	0.058
-145.545	-200.000	-0.012	0.061
-144.531	-21.181	0.052	-0.032
-143.516	9.392	0.168	-0.127
-142.502	165.614	0.026	0.036
-141.487	292.476	0.112	0.204
-140.472	-71.911	-0.266	-0.099
-139.458	-32.775	-0.086	0.047
-138.443	-60.369	0.118	-0.050
-137.429	800.000	0.072	0.242
-136.414	-127.626	0.191	0.028
-135.399	380.846	0.039	-0.079
-134.385	81.616	0.114	-0.123
-133.370	273.366	0.122	-0.214
-132.356	-18.377	0.210	-0.131
-131.341	-117.487	0.164	0.030
-130.326	137.056	-0.262	0.341
-129.312	-5.190	0.118	0.081
-128.297	255.170	-0.138	0.235
-127.283	-200.000	-0.069	0.367
-126.268	800.000	0.020	-0.081
-125.253	-115.521	-0.308	0.058
-124.239	-17.857	-0.279	0.174
-123.224	35.951	0.158	0.139
-122.210	-47.415	0.062	-0.030
-121.195	-30.759	-0.271	0.152
