DTS Sentinel unit serial number:	SN413079Multiplexer serial number:	ORYXHardware model number:	OX4-SRSoftware version number:	ORYX F/W v4.00 Oryx Data Collector v3.7.2.0data status	okinstallation	princeton_trtdifferential loss correction	single-endedforward channel	channel 4reverse channel	N/Adate	2019/09/16time	06:37:35forward acquisition time	60.00reverse acquisition time	0.00gamma	496.2192k internal	0.2320k external	0.2320temperature offset calibration	0.9981default loss term (dB/km)	0.3790temperature slope calibration	1.0000multiplexer offset coefficient	1.0000multiplexer slope coefficient	1.0000fibre end	0.00T internal ref (°C)	27.37T ext. ref 1 (°C)	11.40T ext. ref 2 (°C)	21.90length (m)	temperature (°C)	Stokes	anti-Stokes-747.200	-160.034	-0.268	-0.015
-746.185	511.381	0.097	-0.227
-745.171	-149.858	0.212	0.017
-744.156	220.389	-0.219	0.354
-743.142	-126.146	-0.122	-0.019
-742.127	502.894	0.027	-0.064
-741.112	74.397	-0.169	0.179
-740.098	236.908	-0.079	0.132
-739.083	-66.395	0.324	-0.130
-738.069	133.938	0.089	-0.117
-737.054	145.519	0.036	-0.049
-736.039	-81.602	-0.286	0.095
-735.025	14.752	0.246	0.194
-734.010	-4.045	-0.206	-0.144
-732.996	-200.000	-0.008	-0.323
-731.981	-78.281	-0.223	-0.077
-730.966	-170.608	0.350	-0.012
-729.952	-200.000	-0.046	-0.236
-728.937	22.191	-0.551	0.455
-727.923	-18.569	0.405	0.255
-726.908	800.000	-0.031	-0.091
-725.894	-79.487	-0.454	0.155
-724.879	329.506	-0.119	-0.232
-723.864	752.033	-0.116	-0.318
-722.850	29.633	0.217	0.187
-721.835	2.054	0.183	-0.134
-720.821	-200.000	0.020	-0.211
-719.806	-200.000	0.044	-0.354
-718.791	112.604	0.214	-0.262
-717.777	177.341	0.097	-0.142
-716.762	164.863	-0.036	0.051
-715.748	86.545	-0.053	0.060
-714.733	-155.614	-0.235	-0.015
-713.718	799.398	0.044	0.123
-712.704	-34.337	0.037	-0.020
-711.689	800.000	-0.044	-0.157
-710.675	-122.953	0.202	-0.033
-709.660	-200.000	-0.015	-0.122
-708.645	65.174	0.251	-0.256
-707.631	23.877	-0.142	-0.118
-706.616	-200.000	-0.042	-0.335
-705.602	611.486	0.055	0.140
-704.587	-200.000	0.059	-0.325
-703.572	-161.593	0.228	-0.012
-702.558	-35.457	-0.100	-0.055
-701.543	-89.431	-0.307	-0.091
-700.529	46.982	-0.195	-0.183
-699.514	-23.499	-0.311	0.188
-698.499	800.000	0.094	-0.392
-697.485	-112.922	0.085	-0.017
-696.470	-200.000	0.008	-0.182
-695.456	266.686	0.002	-0.004
-694.441	27.365	-0.143	0.121
-693.426	335.871	0.111	-0.217
-692.412	-95.172	0.244	-0.066
-691.397	-16.363	-0.080	0.051
-690.383	30.577	-0.391	-0.338
-689.368	-82.254	0.254	0.084
-688.354	286.023	0.193	0.352
-687.339	-14.974	0.105	0.068
-686.324	-170.415	-0.354	0.013
-685.310	-8.487	-0.160	0.108
-684.295	-62.772	-0.265	0.111
-683.281	162.630	-0.214	0.303
-682.266	-177.934	-0.257	-0.006
-681.251	481.707	0.091	0.210
-680.237	-38.199	0.132	-0.070
-679.222	60.099	-0.047	0.047
-678.208	-138.701	0.085	0.009
-677.193	310.139	0.230	-0.434
-676.178	76.927	0.135	0.145
-675.164	777.848	-0.077	0.212
-674.149	91.253	0.052	-0.058
-673.135	-200.000	0.008	0.098
-672.120	-148.029	0.219	-0.018
-671.105	-44.335	-0.217	-0.110
-670.091	-19.766	0.333	0.207
-669.076	23.643	-0.241	-0.200
-668.062	60.996	0.142	0.142
-667.047	-29.595	-0.226	-0.130
-666.032	-200.000	0.026	-0.233
-665.018	-200.000	0.003	0.081
-664.003	-200.000	-0.003	-0.208
-662.989	26.982	0.209	0.177
-661.974	-200.000	0.005	0.164
-660.959	-200.000	0.062	-0.336
-659.945	-200.000	-0.030	-0.255
-658.930	-47.941	-0.016	0.008
-657.916	-64.245	0.190	0.078
-656.901	22.113	-0.216	0.178
-655.886	-116.383	0.345	-0.064
-654.872	-12.839	0.143	0.094
-653.857	123.750	0.053	-0.067
-652.843	-85.688	0.124	0.039
-651.828	-111.263	0.103	0.021
-650.814	147.708	-0.091	0.123
-649.799	189.361	0.107	-0.162
-648.784	-91.764	0.129	0.037
-647.770	-200.000	-0.005	0.035
-646.755	-101.602	-0.180	0.044
-645.741	534.447	0.064	-0.152
-644.726	-112.496	0.181	-0.036
-643.711	-126.356	0.263	0.039
-642.697	56.856	-0.201	-0.197
-641.682	-200.000	-0.002	-0.184
-640.668	800.000	0.077	-0.335
-639.653	377.371	-0.095	0.195
-638.638	125.865	-0.207	-0.263
-637.624	-135.518	-0.336	-0.040
-636.609	-11.315	0.100	0.066
-635.595	26.196	-0.244	0.205
-634.580	-200.000	0.004	0.189
-633.565	-151.329	-0.147	0.011
-632.551	-95.810	-0.176	0.047
-631.536	-71.612	0.132	-0.050
-630.522	310.249	0.074	0.140
-629.507	800.000	0.103	0.351
-628.492	-46.066	-0.131	-0.065
-627.478	142.280	-0.083	0.110
-626.463	-200.000	-0.004	0.091
-625.449	140.346	0.071	0.094
-624.434	-200.000	0.007	-0.236
-623.419	800.000	0.092	-0.284
-622.405	124.522	-0.032	0.040
-621.390	421.906	0.120	0.259
-620.376	121.068	0.068	0.085
-619.361	-175.898	-0.040	0.001
-618.346	114.279	-0.093	0.114
-617.332	800.000	-0.068	0.230
-616.317	-200.000	-0.038	-0.188
-615.303	-65.546	0.225	-0.091
-614.288	383.790	-0.081	0.167
-613.273	-109.374	-0.455	-0.097
-612.259	-53.688	-0.105	0.048
-611.244	-64.369	-0.094	-0.038
-610.230	-14.263	0.149	-0.097
-609.215	-13.781	-0.284	0.185
-608.201	-147.275	0.282	-0.024
-607.186	-158.649	-0.014	0.001
-606.171	344.080	0.105	-0.208
-605.157	166.544	-0.228	0.325
-604.142	-200.000	0.019	0.112
-603.128	-68.181	0.160	0.063
-602.113	-200.000	-0.062	-0.278
-601.098	-200.000	0.044	-0.433
-600.084	-19.836	0.273	0.170
-599.069	-69.669	-0.146	0.056
-598.055	2.303	0.198	-0.144
-597.040	-78.384	-0.254	0.088
-596.025	643.030	0.117	-0.299
-595.011	-22.970	0.147	0.089
-593.996	519.340	0.042	0.099
-592.982	800.000	0.017	-0.066
-591.967	800.000	-0.004	0.013
-590.952	-164.983	0.223	0.010
-589.938	-84.002	-0.202	-0.064
-588.923	-71.208	0.047	0.018
-587.909	-63.383	-0.117	0.048
-586.894	7.833	0.143	0.108
-585.879	-92.055	-0.121	-0.035
-584.865	800.000	0.100	0.319
-583.850	-157.366	0.199	0.012
-582.836	800.000	-0.077	0.335
-581.821	-116.364	0.266	0.049
-580.806	542.591	0.099	0.237
-579.792	-133.729	-0.160	0.020
-578.777	-75.528	0.119	0.043
-577.763	800.000	0.130	-0.378
-576.748	800.000	-0.032	0.119
-575.733	94.198	-0.307	-0.350
-574.719	-125.108	0.117	-0.018
-573.704	-117.884	0.163	0.029
-572.690	-163.427	-0.080	-0.004
-571.675	244.261	0.024	0.041
-570.661	-41.361	0.144	-0.075
-569.646	297.281	-0.104	0.191
-568.631	-10.916	0.098	0.065
-567.617	-200.000	-0.002	0.022
-566.602	-200.000	-0.007	-0.367
-565.588	-168.903	0.191	-0.007
-564.573	-10.044	0.046	-0.031
-563.558	800.000	-0.033	0.113
-562.544	128.755	-0.050	-0.063
-561.529	-186.079	-0.168	-0.002
-560.515	98.310	0.399	0.462
-559.500	-200.000	-0.013	-0.230
-558.485	-200.000	-0.004	-0.059
-557.471	-11.611	-0.137	0.091
-556.456	-15.632	0.256	-0.164
-555.442	13.264	-0.271	0.211
-554.427	151.266	-0.225	0.308
-553.412	-200.000	0.014	0.198
-552.398	156.293	-0.073	-0.102
-551.383	105.719	-0.152	-0.180
-550.369	-103.934	-0.245	-0.057
-549.354	-179.823	0.245	-0.005
-548.339	-50.627	0.211	-0.100
-547.325	-200.000	-0.016	0.074
-546.310	123.606	0.034	-0.043
-545.296	-200.000	0.006	0.108
-544.281	34.394	0.268	-0.235
-543.266	-5.009	0.114	0.079
-542.252	141.599	0.127	-0.169
-541.237	-73.706	0.154	-0.056
-540.223	337.317	-0.012	0.024
-539.208	-152.220	-0.152	0.011
-538.193	7.690	0.344	-0.259
-537.179	92.091	0.237	0.267
-536.164	153.959	0.130	-0.179
-535.150	-154.267	-0.146	-0.010
-534.135	800.000	-0.045	-0.136
-533.121	-200.000	-0.068	-0.395
-532.106	-50.418	-0.061	0.029
-531.091	-99.761	-0.262	0.066
-530.077	800.000	0.099	-0.344
-529.062	513.346	0.059	-0.138
-528.048	-26.625	0.043	0.025
-527.033	64.451	0.068	0.069
-526.018	-200.000	-0.005	0.337
-525.004	-91.283	-0.312	-0.089
-523.989	-96.678	-0.090	0.024
-522.975	800.000	-0.059	0.216
-521.960	-106.748	0.355	0.079
-520.945	-173.103	-0.185	0.006
-519.931	-106.205	-0.406	-0.091
-518.916	623.576	0.045	0.114
-517.902	-20.413	0.146	-0.090
-516.887	-69.163	-0.364	0.140
-515.872	146.332	-0.371	0.499
-514.858	66.584	0.223	0.227
-513.843	-157.045	0.209	0.013
-512.829	519.405	0.074	-0.174
-511.814	-23.537	0.151	0.091
-510.799	246.386	-0.007	-0.012
-509.785	-200.000	0.035	-0.238
-508.770	-166.680	0.180	0.007
-507.756	325.461	-0.091	-0.175
-506.741	-141.457	0.136	-0.014
-505.726	-200.000	-0.016	-0.272
-504.712	-128.258	-0.097	0.014
-503.697	43.729	-0.131	-0.120
-502.683	9.602	0.357	-0.271
-501.668	-155.683	0.202	0.013
-500.653	-200.000	-0.019	0.198
-499.639	-79.383	-0.238	-0.081
-498.624	209.660	-0.160	-0.251
-497.610	-143.402	0.092	0.009
-496.595	-200.000	-0.075	0.378
-495.581	-200.000	-0.030	0.292
-494.566	228.924	-0.083	-0.136
-493.551	-27.828	0.139	-0.081
-492.537	20.864	0.219	-0.177
-491.522	-200.000	0.016	0.134
-490.508	-105.468	-0.240	0.055
-489.493	800.000	0.061	0.224
-488.478	-12.620	-0.299	0.195
-487.464	-64.579	-0.320	0.130
-486.449	205.998	-0.117	0.182
-485.435	800.000	-0.076	0.326
-484.420	-133.454	0.058	0.007
-483.405	-191.713	-0.259	0.003
-482.391	196.184	0.078	0.119
-481.376	-7.804	-0.091	-0.061
-480.362	689.716	-0.037	-0.097
-479.347	12.097	-0.239	0.184
-478.332	-189.371	0.097	-0.001
-477.318	385.943	-0.091	0.188
-476.303	-13.563	0.143	0.092
-475.289	-200.000	0.036	-0.222
-474.274	17.132	0.145	-0.115
-473.259	25.863	0.111	0.093
-472.245	45.402	0.153	-0.141
-471.230	688.940	0.043	0.114
-470.216	-200.000	0.010	-0.099
-469.201	-22.528	0.182	0.110
-468.186	-17.848	0.259	0.163
-467.172	30.587	-0.213	0.183
-466.157	83.167	0.154	-0.167
-465.143	-200.000	-0.043	-0.241
-464.128	-131.298	-0.251	0.033
-463.113	-143.722	-0.311	-0.029
-462.099	-167.106	-0.101	-0.004
-461.084	362.195	-0.133	0.267
-460.070	-58.040	-0.128	0.056
-459.055	28.922	-0.113	-0.096
-458.040	-200.000	-0.004	-0.029
-457.026	-200.000	-0.002	0.252
-456.011	-170.734	-0.462	0.016
-454.997	-100.181	-0.425	-0.106
-453.982	-54.900	0.087	-0.039
-452.968	800.000	-0.116	0.357
-451.953	55.917	0.231	0.224
-450.938	-5.340	-0.151	0.104
-449.924	-47.909	0.151	0.073
-448.909	461.464	0.074	0.164
-447.895	699.591	0.058	-0.152
-446.880	-102.750	0.322	0.077
-445.865	-200.000	-0.040	-0.324
-444.851	800.000	0.071	-0.296
-443.836	-142.730	-0.223	0.022
-442.822	562.184	0.063	-0.153
-441.807	-200.000	-0.009	0.098
-440.792	-32.059	-0.298	-0.167
-439.778	-45.607	-0.238	0.118
-438.763	-200.000	0.008	0.285
-437.749	147.367	-0.175	0.235
-436.734	276.677	0.122	-0.217
-435.719	164.709	-0.197	0.278
-434.705	-87.428	-0.264	-0.080
-433.690	-14.793	0.133	0.085
-432.676	-166.782	0.267	0.011
-431.661	330.407	0.046	-0.088
-430.646	211.983	-0.095	-0.149
-429.632	-200.000	-0.060	0.338
-428.617	-200.000	-0.023	0.495
-427.603	120.591	-0.127	-0.158
-426.588	102.654	0.109	-0.128
-425.573	-200.000	0.021	0.214
-424.559	56.945	0.328	0.320
-423.544	-81.476	0.238	-0.078
-422.530	-117.574	-0.481	0.087
-421.515	79.448	0.160	0.172
-420.500	-200.000	-0.022	-0.102
-419.486	176.045	-0.055	-0.080
-418.471	800.000	0.026	0.107
-417.457	-200.000	-0.026	0.193
-416.442	800.000	0.054	-0.206
-415.428	161.490	-0.080	0.112
-414.413	-84.385	-0.274	-0.086
-413.398	-19.079	0.064	-0.040
-412.384	520.081	0.097	0.228
-411.369	800.000	-0.068	0.257
-410.355	438.382	-0.082	0.178
-409.340	156.002	0.194	-0.267
-408.325	103.681	-0.125	-0.146
-407.311	-83.831	0.093	-0.029
-406.296	-131.361	0.074	0.010
-405.282	-200.000	-0.006	-0.136
-404.267	171.063	0.070	0.101
-403.252	118.847	0.235	0.290
-402.238	30.588	0.205	-0.175
-401.223	75.519	-0.079	-0.083
-400.209	-31.417	-0.107	-0.060
-399.194	330.485	-0.040	0.077
-398.179	-20.497	0.151	0.092
-397.165	-152.905	0.194	0.014
-396.150	129.617	-0.156	-0.199
-395.136	-81.845	-0.165	-0.054
-394.121	-79.340	-0.056	-0.019
-393.106	-159.221	-0.094	-0.005
-392.092	535.539	-0.091	-0.215
-391.077	280.211	-0.084	-0.149
-390.063	-120.191	0.052	0.009
-389.048	-138.740	-0.180	0.020
-388.033	-152.533	0.391	0.028
-387.019	-200.000	-0.044	-0.237
-386.004	-6.668	-0.238	-0.162
-384.990	19.552	-0.208	-0.167
-383.975	25.194	0.056	0.047
-382.960	42.223	0.066	-0.060
-381.946	215.709	0.151	0.239
-380.931	119.347	0.116	0.143
-379.917	89.468	-0.146	-0.162
-378.902	-200.000	0.000	-0.126
-377.888	481.467	-0.276	-0.624
-376.873	273.105	0.196	0.345
-375.858	800.000	-0.096	0.270
-374.844	-126.825	0.080	-0.012
-373.829	-130.273	0.378	0.051
-372.815	-200.000	0.002	0.214
-371.800	800.000	-0.069	-0.246
-370.785	-20.782	-0.212	0.129
-369.771	-200.000	0.064	-0.418
-368.756	20.655	-0.011	0.009
-367.742	16.678	0.100	0.079
-366.727	-50.003	-0.179	0.084
-365.712	159.480	0.173	0.240
-364.698	-67.049	0.239	0.094
-363.683	-200.000	0.000	-0.040
-362.669	-29.654	-0.069	0.040
-361.654	-200.000	-0.022	-0.506
-360.639	-53.456	-0.048	0.022
-359.625	482.965	-0.082	-0.185
-358.610	-200.000	-0.011	0.055
-357.596	-108.510	-0.151	-0.032
-356.581	-200.000	0.018	-0.402
-355.566	184.813	0.095	0.140
-354.552	-83.584	0.065	0.021
-353.537	-123.247	0.025	-0.004
-352.523	-21.405	0.012	-0.007
-351.508	-200.000	0.024	0.131
-350.493	-200.000	0.030	0.223
-349.479	-200.000	0.049	0.324
-348.464	-200.000	-0.038	0.178
-347.450	-200.000	0.002	-0.243
-346.435	-52.334	0.201	-0.093
-345.420	207.579	-0.114	0.178
-344.406	800.000	-0.087	0.247
-343.391	-200.000	-0.063	0.378
-342.377	-107.497	0.111	-0.024
-341.362	-200.000	0.035	-0.331
-340.348	-41.083	0.226	-0.116
-339.333	-22.213	-0.137	0.083
-338.318	-133.737	0.175	-0.022
-337.304	-149.843	-0.370	0.029
-336.289	101.563	0.094	-0.109
-335.275	465.130	0.061	0.137
-334.260	-50.333	-0.248	0.117
-333.245	-79.171	-0.307	-0.104
-332.231	-193.467	0.696	0.006
-331.216	-116.310	-0.388	0.071
-330.202	57.357	0.073	-0.071
-329.187	479.116	-0.059	-0.132
-328.172	-200.000	-0.005	-0.041
-327.158	199.643	0.174	-0.266
-326.143	77.892	-0.143	-0.152
-325.129	74.484	0.152	-0.159
-324.114	-82.382	0.260	0.084
-323.099	41.229	0.193	-0.173
-322.085	466.502	0.038	-0.085
-321.070	487.474	0.096	-0.219
-320.056	38.231	0.093	-0.083
-319.041	216.811	0.080	-0.126
-318.026	-156.754	-0.100	0.006
-317.012	-43.083	-0.134	0.068
-315.997	19.054	0.122	0.098
-314.983	342.085	-0.041	0.079
-313.968	43.930	0.142	-0.129
-312.953	-200.000	0.043	0.219
-311.939	294.529	0.071	0.129
-310.924	390.868	-0.075	0.154
-309.910	302.040	-0.108	0.199
-308.895	-19.675	-0.057	0.035
-307.880	123.768	0.201	-0.251
-306.866	101.964	0.148	0.171
-305.851	-200.000	0.055	0.286
-304.837	11.534	-0.115	0.088
-303.822	-173.042	0.153	-0.005
-302.807	113.807	-0.117	0.141
-301.793	631.818	-0.052	-0.132
-300.778	762.624	-0.102	0.275
-299.764	153.588	-0.181	0.247
-298.749	-39.959	0.091	0.047
-297.735	-19.879	-0.119	-0.073
-296.720	19.375	-0.342	-0.273
-295.705	40.057	-0.216	0.193
-294.691	97.828	-0.064	0.073
-293.676	800.000	-0.021	0.058
-292.662	13.794	0.181	-0.140
-291.647	-15.408	0.384	-0.244
-290.632	-200.000	-0.007	-0.033
-289.618	-200.000	0.001	0.069
-288.603	-114.886	0.304	-0.058
-287.589	115.844	0.100	0.122
-286.574	781.383	-0.032	-0.087
-285.559	800.000	0.067	-0.261
-284.545	-109.925	0.108	0.022
-283.530	-18.681	0.286	0.177
-282.516	-131.913	-0.310	-0.040
-281.501	800.000	-0.075	0.248
-280.486	-135.289	-0.127	-0.015
-279.472	-24.052	-0.065	0.038
-278.457	-123.985	0.114	0.018
-277.443	649.931	-0.098	-0.249
-276.428	189.768	-0.132	-0.197
-275.413	-105.044	0.196	0.045
-274.399	-158.864	0.358	-0.020
-273.384	543.604	-0.106	0.251
-272.370	106.089	0.074	0.087
-271.355	-115.783	-0.288	-0.053
-270.340	-81.406	0.070	0.023
-269.326	83.549	-0.169	-0.183
-268.311	42.491	0.231	-0.208
-267.297	-120.574	-0.219	0.037
-266.282	236.126	-0.081	-0.133
-265.267	-149.524	0.075	-0.006
-264.253	800.000	0.141	-0.612
-263.238	112.120	0.171	0.205
-262.224	800.000	-0.087	0.300
-261.209	-28.169	0.300	0.172
-260.195	800.000	0.055	0.184
-259.180	-109.242	0.171	0.036
-258.165	62.482	-0.041	-0.041
-257.151	-29.095	0.109	0.062
-256.136	800.000	-0.114	0.373
-255.122	21.951	0.205	0.166
-254.107	-33.474	-0.159	-0.087
-253.092	-84.105	-0.137	0.043
-252.078	-200.000	0.158	0.001
-251.063	743.675	-0.072	0.191
-250.049	140.710	0.078	0.102
-249.034	45.212	-0.173	0.158
-248.019	586.132	-0.052	-0.126
-247.005	-200.000	-0.050	-0.311
-245.990	-200.000	0.053	-0.245
-244.976	-158.244	-0.203	0.012
-243.961	94.985	-0.235	-0.265
-242.946	0.848	-0.116	0.083
-241.932	-74.487	0.182	-0.065
-240.917	36.465	0.108	0.095
-239.903	-3.669	0.155	-0.106
-238.888	-124.450	-0.120	-0.018
-237.873	446.750	0.108	-0.235
-236.859	243.880	-0.182	-0.302
-235.844	-104.673	0.254	-0.058
-234.830	81.535	-0.073	-0.078
-233.815	343.880	-0.034	0.067
-232.800	-57.708	-0.104	0.045
-231.786	-34.534	0.362	-0.197
-230.771	-85.041	-0.400	-0.124
-229.757	800.000	0.063	0.201
-228.742	800.000	-0.055	0.159
-227.727	311.169	-0.088	0.164
-226.713	41.378	-0.113	-0.101
-225.698	800.000	-0.032	0.123
-224.684	550.032	-0.101	-0.239
-223.669	65.845	-0.290	-0.292
-222.655	169.644	-0.223	-0.315
-221.640	-200.000	-0.021	-0.135
-220.625	-95.925	0.286	-0.076
-219.611	86.203	0.173	-0.188
-218.596	-189.509	0.111	-0.001
-217.582	207.326	-0.118	-0.182
-216.567	-200.000	0.048	0.348
-215.552	-200.000	0.023	0.112
-214.538	-200.000	0.024	-0.188
-213.523	-200.000	0.025	-0.232
-212.509	-200.000	-0.005	0.025
-211.494	168.643	-0.059	-0.083
-210.479	81.433	0.073	0.078
-209.465	-161.299	0.271	-0.014
-208.450	130.357	-0.124	0.158
-207.436	-195.640	-0.159	-0.001
-206.421	13.313	0.176	-0.135
-205.406	106.536	0.160	0.188
-204.392	-77.187	0.277	-0.096
-203.377	31.718	0.197	0.168
-202.363	118.091	0.109	-0.133
-201.348	198.969	0.060	-0.091
-200.333	-200.000	-0.020	-0.283
-199.319	-38.981	-0.040	0.021
-198.304	134.149	-0.116	-0.149
-197.290	425.976	-0.101	-0.216
-196.275	800.000	-0.033	-0.139
-195.260	-143.558	0.330	-0.031
-194.246	-82.942	0.072	0.023
-193.231	-66.077	0.125	-0.049
-192.217	456.510	0.122	0.267
-191.202	716.700	-0.175	0.459
-190.187	-151.981	0.254	-0.018
-189.173	0.904	-0.297	-0.211
-188.158	219.084	0.250	-0.396
-187.144	242.040	0.111	0.184
-186.129	519.523	-0.091	-0.211
-185.114	-200.000	0.049	-0.310
-184.100	-175.696	-0.321	-0.009
-183.085	800.000	0.033	0.097
-182.071	-200.000	-0.004	0.250
-181.056	14.841	0.045	-0.035
-180.042	-102.899	-0.158	-0.037
-179.027	79.170	0.024	0.025
-178.012	84.037	-0.224	-0.242
-176.998	-91.953	-0.071	0.020
-175.983	-200.000	-0.053	0.289
-174.969	166.727	-0.192	-0.270
-173.954	372.763	-0.185	-0.371
-172.939	-79.076	0.306	-0.103
-171.925	386.389	-0.103	-0.211
-170.910	-109.248	0.056	0.012
-169.896	800.000	-0.075	0.217
-168.881	637.394	-0.034	-0.085
-167.866	248.361	-0.206	-0.345
-166.852	-145.072	-0.102	-0.009
-165.837	772.358	0.070	0.189
-164.823	-28.200	0.243	0.139
-163.808	65.074	-0.108	0.107
-162.793	-73.295	-0.073	0.026
-161.779	-32.724	0.174	-0.095
-160.764	-3.731	-0.243	0.167
-159.750	-200.000	-0.028	-0.406
-158.735	489.137	-0.085	0.193
-157.720	800.000	-0.039	-0.151
-156.706	-200.000	0.041	0.248
-155.691	800.000	0.106	0.314
-154.677	-200.000	-0.015	0.081
-153.662	446.490	-0.179	0.388
-152.647	-169.734	0.246	0.009
-151.633	88.635	0.214	-0.235
-150.618	-51.687	-0.236	0.109
-149.604	324.860	0.134	0.252
-148.589	-75.287	0.148	-0.052
-147.574	800.000	0.064	0.205
-146.560	800.000	-0.043	0.168
-145.545	10.885	-0.229	-0.172
-144.531	13.069	0.164	0.125
-143.516	800.000	0.022	-0.070
-142.502	-136.660	0.279	-0.032
-141.487	2.503	0.098	-0.070
-140.472	168.937	0.110	-0.155
-139.458	800.000	0.045	0.130
-138.443	23.970	-0.096	0.078
-137.429	200.101	-0.209	0.317
-136.414	6.268	-0.120	0.088
-135.399	-200.000	0.002	-0.068
-134.385	488.557	-0.024	0.054
-133.370	446.770	0.130	0.282
-132.356	-62.442	-0.269	0.110
-131.341	-42.241	-0.449	0.226
-130.326	2.050	0.056	0.040
-129.312	800.000	-0.023	0.072
-128.297	-200.000	-0.006	0.334
-127.283	253.462	0.115	0.193
-126.268	437.527	0.173	-0.371
-125.253	-200.000	0.041	-0.198
-124.239	-96.052	-0.178	-0.047
-123.224	-29.655	-0.156	0.088
-122.210	800.000	0.027	-0.104
-121.195	231.554	0.050	0.080
