DTS Sentinel unit serial number:	SN413079Multiplexer serial number:	ORYXHardware model number:	OX4-SRSoftware version number:	ORYX F/W v4.00 Oryx Data Collector v3.7.2.0data status	okinstallation	princeton_trtdifferential loss correction	single-endedforward channel	channel 4reverse channel	N/Adate	2019/09/13time	04:13:34forward acquisition time	60.00reverse acquisition time	0.00gamma	496.2192k internal	0.2322k external	0.2322temperature offset calibration	1.0193default loss term (dB/km)	0.3790temperature slope calibration	1.0000multiplexer offset coefficient	1.0000multiplexer slope coefficient	1.0000fibre end	0.00T internal ref (°C)	26.87T ext. ref 1 (°C)	4.06T ext. ref 2 (°C)	21.25length (m)	temperature (°C)	Stokes	anti-Stokes-747.200	37.451	-0.156	0.139
-746.185	106.461	0.187	0.224
-745.171	10.758	0.094	0.073
-744.156	-118.969	-0.202	0.036
-743.142	-81.636	0.437	0.145
-742.127	41.220	0.211	0.193
-741.112	5.524	-0.084	-0.063
-740.098	-101.698	-0.109	-0.027
-739.083	-17.863	-0.087	0.055
-738.069	453.925	-0.033	-0.075
-737.054	-200.000	0.019	0.096
-736.039	-200.000	0.064	-0.423
-735.025	-52.665	-0.159	-0.074
-734.010	-146.555	-0.265	-0.023
-732.996	-18.794	-0.117	0.073
-731.981	-200.000	-0.020	-0.149
-730.966	-74.739	0.297	0.108
-729.952	800.000	-0.061	0.242
-728.937	19.308	-0.207	-0.167
-727.923	-20.395	-0.136	-0.085
-726.908	3.654	-0.246	-0.181
-725.894	37.803	0.121	-0.108
-724.879	-27.156	-0.107	0.063
-723.864	-200.000	-0.018	0.198
-722.850	250.846	0.081	0.139
-721.835	148.365	-0.090	-0.122
-720.821	-6.951	-0.207	-0.142
-719.806	-58.301	0.222	0.097
-718.791	-80.078	-0.138	-0.047
-717.777	-116.973	-0.136	0.025
-716.762	317.111	0.132	-0.253
-715.748	-11.613	0.175	0.116
-714.733	-200.000	0.058	0.281
-713.718	-200.000	-0.006	-0.350
-712.704	-200.000	0.026	-0.177
-711.689	98.917	0.072	-0.084
-710.675	509.261	0.113	0.264
-709.660	704.945	-0.114	-0.302
-708.645	83.602	-0.201	-0.221
-707.631	215.260	0.182	-0.292
-706.616	800.000	0.037	-0.129
-705.602	332.067	0.109	-0.212
-704.587	-179.539	-0.080	-0.002
-703.572	-58.646	0.183	0.080
-702.558	800.000	-0.089	0.268
-701.543	17.191	0.191	0.153
-700.529	69.823	-0.048	0.050
-699.514	58.443	0.111	-0.110
-698.499	-200.000	0.014	0.077
-697.485	-115.368	-0.290	-0.055
-696.470	-200.000	0.012	-0.398
-695.456	-90.316	0.081	-0.024
-694.441	712.330	0.118	-0.316
-693.426	27.394	-0.129	0.109
-692.412	-1.273	0.027	0.019
-691.397	-107.111	-0.272	-0.061
-690.383	-190.651	-0.341	-0.004
-689.368	-42.796	-0.093	-0.047
-688.354	-124.915	0.193	-0.030
-687.339	-200.000	0.180	-0.000
-686.324	414.698	-0.043	0.093
-685.310	105.439	0.131	-0.156
-684.295	105.537	-0.108	-0.129
-683.281	96.006	0.128	0.147
-682.266	-191.111	-0.258	0.003
-681.251	-200.000	-0.008	0.052
-680.237	-80.755	-0.288	0.097
-679.222	92.511	0.113	-0.128
-678.208	-79.982	-0.258	-0.087
-677.193	93.067	-0.098	0.111
-676.178	490.178	-0.144	0.331
-675.164	-164.434	-0.038	0.002
-674.149	312.199	-0.075	0.142
-673.135	-200.000	0.006	0.265
-672.120	-200.000	-0.010	0.415
-671.105	800.000	0.102	-0.336
-670.091	232.573	0.144	0.239
-669.076	52.418	-0.148	0.142
-668.062	113.711	-0.093	0.113
-667.047	-90.717	-0.166	0.048
-666.032	800.000	-0.140	-0.406
-665.018	142.346	-0.184	-0.245
-664.003	-33.158	-0.134	0.075
-662.989	-95.050	0.237	-0.064
-661.974	-200.000	-0.003	0.019
-660.959	-81.870	-0.232	-0.076
-659.945	77.133	0.093	0.100
-658.930	800.000	-0.053	0.227
-657.916	-128.934	-0.229	0.032
-656.901	51.819	0.026	0.025
-655.886	40.819	-0.160	0.145
-654.872	-200.000	0.251	-0.001
-653.857	417.331	-0.081	0.174
-652.843	-32.661	-0.116	0.065
-651.828	-200.000	-0.005	0.124
-650.814	-63.365	-0.043	-0.018
-649.799	373.864	0.088	-0.180
-648.784	75.430	0.027	-0.029
-647.770	800.000	-0.009	-0.036
-646.755	-110.886	-0.228	0.047
-645.741	129.291	-0.146	-0.187
-644.726	-63.588	0.238	-0.098
-643.711	538.633	0.049	-0.116
-642.697	613.560	0.112	0.282
-641.682	-200.000	-0.028	0.217
-640.668	-200.000	-0.050	0.242
-639.653	-21.608	0.117	-0.072
-638.638	141.108	-0.019	0.025
-637.624	186.861	0.051	0.076
-636.609	-200.000	0.000	-0.213
-635.595	-200.000	0.003	0.122
-634.580	-100.544	0.320	-0.080
-633.565	301.372	-0.099	-0.184
-632.551	-74.172	-0.276	-0.101
-631.536	-200.000	0.004	0.058
-630.522	800.000	-0.052	0.218
-629.507	-200.000	-0.001	0.023
-628.492	-200.000	0.068	-0.341
-627.478	63.070	0.058	-0.058
-626.463	-121.504	0.163	0.027
-625.449	-12.299	0.101	0.066
-624.434	-200.000	0.006	-0.197
-623.419	800.000	0.051	-0.194
-622.405	-87.231	0.124	0.038
-621.390	-75.217	-0.257	-0.092
-620.376	-109.207	-0.186	0.040
-619.361	-40.545	0.053	-0.028
-618.346	-72.377	0.087	0.032
-617.332	-69.467	-0.183	-0.071
-616.317	-131.372	-0.176	-0.023
-615.303	201.982	-0.064	-0.099
-614.288	148.144	-0.132	0.179
-613.273	61.682	-0.150	-0.150
-612.259	50.541	-0.231	0.219
-611.244	-200.000	0.036	-0.224
-610.230	19.254	0.163	-0.131
-609.215	121.830	0.158	-0.198
-608.201	-35.472	-0.015	0.008
-607.186	-200.000	0.028	0.240
-606.171	328.523	0.183	-0.353
-605.157	214.722	0.251	-0.400
-604.142	212.670	-0.109	0.172
-603.128	115.958	-0.269	0.331
-602.113	-56.183	0.072	0.032
-601.098	116.479	-0.085	-0.104
-600.084	218.574	0.212	-0.341
-599.069	186.743	-0.187	-0.280
-598.055	-128.639	0.032	0.005
-597.040	-0.297	0.410	0.293
-596.025	800.000	-0.083	-0.277
-595.011	-17.630	0.182	-0.115
-593.996	-200.000	-0.003	-0.157
-592.982	407.117	0.157	0.333
-591.967	800.000	0.091	0.344
-590.952	-32.296	0.087	-0.049
-589.938	-54.011	0.183	-0.084
-588.923	-168.687	0.055	0.002
-587.909	61.852	-0.375	-0.375
-586.894	434.264	-0.116	0.252
-585.879	16.122	-0.182	0.144
-584.865	53.904	-0.245	0.237
-583.850	106.845	0.119	0.142
-582.836	429.062	-0.041	-0.088
-581.821	177.377	-0.076	0.111
-580.806	-200.000	0.035	-0.293
-579.792	800.000	0.066	-0.195
-578.777	162.900	0.046	0.065
-577.763	-159.499	0.193	0.011
-576.748	-50.058	0.068	-0.032
-575.733	-91.988	0.188	-0.054
-574.719	-69.209	0.215	-0.083
-573.704	200.363	-0.112	-0.172
-572.690	-164.595	-0.198	-0.009
-571.675	-79.038	-0.250	-0.085
-570.661	-161.765	0.163	0.008
-569.646	110.983	0.040	0.049
-568.631	156.189	0.080	-0.111
-567.617	479.266	0.064	-0.146
-566.602	754.703	-0.025	0.069
-565.588	-110.947	0.194	0.040
-564.573	-200.000	0.028	0.368
-563.558	-117.974	-0.076	-0.014
-562.544	96.108	-0.138	0.159
-561.529	-60.265	-0.123	0.053
-560.515	79.149	0.016	0.018
-559.500	-38.611	0.185	-0.098
-558.485	-136.600	-0.263	-0.031
-557.471	-200.000	-0.031	-0.328
-556.456	35.959	0.427	-0.377
-555.442	-145.646	-0.095	-0.008
-554.427	1.278	0.261	-0.188
-553.412	-200.000	0.035	-0.172
-552.398	12.728	-0.130	0.101
-551.383	53.143	0.308	0.296
-550.369	-200.000	-0.042	0.275
-549.354	800.000	0.058	0.193
-548.339	-44.472	-0.373	-0.187
-547.325	173.047	-0.075	0.108
-546.310	17.144	0.345	-0.275
-545.296	800.000	0.055	0.166
-544.281	-200.000	0.072	0.469
-543.266	310.852	-0.072	0.136
-542.252	365.176	-0.211	0.426
-541.237	275.507	0.045	-0.080
-540.223	-101.104	-0.097	-0.024
-539.208	4.800	0.279	0.206
-538.193	-200.000	0.010	0.352
-537.179	-16.319	0.037	-0.024
-536.164	51.884	-0.172	-0.164
-535.150	133.677	0.095	-0.123
-534.135	37.757	0.068	-0.060
-533.121	-160.779	-0.199	-0.011
-532.106	-104.752	0.426	0.098
-531.091	113.616	0.125	-0.152
-530.077	-142.684	-0.333	0.033
-529.062	-86.779	-0.192	-0.059
-528.048	79.995	0.304	-0.327
-527.033	144.064	-0.080	0.108
-526.018	800.000	0.072	-0.278
-525.004	100.703	-0.177	-0.206
-523.989	83.793	-0.065	0.071
-522.975	117.957	0.258	-0.319
-521.960	-119.634	-0.229	0.040
-520.945	-200.000	-0.057	0.381
-519.931	-200.000	0.021	0.403
-518.916	-73.385	0.414	-0.151
-517.902	-113.079	-0.179	-0.035
-516.887	-37.933	-0.198	0.106
-515.872	161.395	0.066	-0.092
-514.858	308.037	-0.114	0.213
-513.843	-200.000	-0.056	-0.266
-512.829	80.412	-0.071	-0.076
-511.814	-85.515	-0.200	-0.062
-510.799	81.122	0.295	0.319
-509.785	203.688	0.165	0.255
-508.770	403.713	0.122	0.257
-507.756	800.000	-0.104	-0.382
-506.741	428.480	0.200	-0.432
-505.726	-200.000	-0.026	0.227
-504.712	271.404	0.087	0.154
-503.697	-103.017	-0.268	0.064
-502.683	-62.738	0.035	-0.015
-501.668	-200.000	-0.011	-0.214
-500.653	-6.146	0.020	0.014
-499.639	136.741	0.074	0.096
-498.624	-79.564	-0.185	0.063
-497.610	800.000	0.124	0.387
-496.595	-76.868	-0.154	-0.054
-495.581	800.000	-0.055	-0.199
-494.566	560.685	0.079	-0.191
-493.551	-200.000	0.023	0.240
-492.537	800.000	-0.064	-0.218
-491.522	732.996	0.121	0.324
-490.508	55.066	0.326	0.315
-489.493	-120.550	0.336	0.057
-488.478	-10.785	-0.297	0.197
-487.464	44.828	-0.138	0.127
-486.449	-158.521	0.212	0.012
-485.435	381.186	-0.142	0.292
-484.420	-200.000	-0.006	-0.205
-483.405	461.305	-0.067	0.149
-482.391	-109.561	0.302	0.064
-481.376	623.853	0.091	-0.230
-480.362	239.823	0.146	0.242
-479.347	-115.071	-0.100	0.019
-478.332	-78.919	0.303	0.103
-477.318	-39.165	-0.141	-0.074
-476.303	42.898	0.227	-0.207
-475.289	11.683	0.044	0.034
-474.274	800.000	-0.084	0.269
-473.259	192.651	-0.132	-0.200
-472.245	-32.760	0.300	0.167
-471.230	600.939	0.089	0.221
-470.216	470.064	0.027	0.060
-469.201	-84.100	0.017	0.005
-468.186	-65.475	-0.272	-0.109
-467.172	-200.000	-0.018	-0.156
-466.157	-200.000	0.019	-0.285
-465.143	-87.479	0.216	-0.065
-464.128	800.000	0.051	0.159
-463.113	-200.000	0.006	0.079
-462.099	315.635	0.113	0.213
-461.084	-200.000	-0.019	0.198
-460.070	-200.000	0.004	-0.131
-459.055	7.107	-0.087	-0.065
-458.040	-148.296	-0.196	0.016
-457.026	-56.591	-0.125	0.055
-456.011	74.130	0.231	-0.243
-454.997	61.744	0.118	-0.117
-453.982	272.217	0.131	0.231
-452.968	-184.320	-0.200	0.003
-451.953	-179.718	-0.190	0.004
-450.938	800.000	0.071	-0.240
-449.924	-63.915	0.141	-0.058
-448.909	-30.268	-0.138	-0.078
-447.895	-92.769	0.162	0.045
-446.880	-200.000	-0.047	0.291
-445.865	-5.673	0.019	0.013
-444.851	-200.000	-0.020	0.184
-443.836	800.000	0.099	-0.286
-442.822	13.998	0.277	0.216
-441.807	253.696	-0.087	-0.148
-440.792	-125.165	-0.250	0.038
-439.778	-200.000	0.008	0.282
-438.763	-200.000	0.032	0.188
-437.749	154.059	-0.084	0.115
-436.734	85.335	0.135	0.148
-435.719	-65.102	0.184	0.074
-434.705	-185.877	-0.401	0.006
-433.690	-200.000	0.021	0.308
-432.676	-102.095	-0.259	-0.062
-431.661	13.595	0.017	0.013
-430.646	385.006	0.052	0.107
-429.632	30.399	0.192	-0.164
-428.617	-182.732	-0.067	0.001
-427.603	353.717	-0.094	-0.186
-426.588	-200.000	0.044	-0.201
-425.573	-0.488	-0.095	-0.068
-424.559	-8.048	-0.207	0.139
-423.544	-200.000	0.003	0.042
-422.530	-200.000	-0.045	0.225
-421.515	152.816	0.023	0.031
-420.500	-80.925	-0.499	-0.165
-419.486	45.989	-0.177	0.163
-418.471	304.393	0.071	-0.131
-417.457	-140.991	0.199	-0.020
-416.442	-101.740	0.249	-0.060
-415.428	-106.682	-0.328	0.073
-414.413	800.000	-0.070	-0.273
-413.398	-47.184	0.047	0.023
-412.384	389.270	0.150	0.311
-411.369	-40.942	0.091	0.047
-410.355	-80.920	-0.385	0.127
-409.340	-89.938	0.107	0.031
-408.325	3.817	-0.156	0.113
-407.311	450.448	-0.100	0.220
-406.296	-200.000	0.017	0.097
-405.282	-2.374	-0.193	-0.135
-404.267	102.114	0.040	0.046
-403.252	-200.000	-0.000	-0.071
-402.238	800.000	0.073	0.201
-401.223	-200.000	0.013	-0.111
-400.209	284.885	-0.098	-0.176
-399.194	-151.532	-0.449	0.033
-398.179	-167.418	0.212	0.008
-397.165	676.575	-0.100	-0.258
-396.150	117.481	-0.166	0.204
-395.136	-100.695	0.228	-0.056
-394.121	-183.071	-0.295	0.005
-393.106	645.380	-0.096	0.244
-392.092	-200.000	-0.011	-0.235
-391.077	-69.885	-0.214	-0.081
-390.063	16.156	0.256	-0.201
-389.048	-45.087	0.200	0.099
-388.033	-85.970	0.217	-0.067
-387.019	-200.000	0.051	-0.398
-386.004	800.000	0.082	-0.303
-384.990	211.897	-0.188	-0.295
-383.975	-200.000	-0.032	-0.220
-382.960	-41.864	-0.189	-0.097
-381.946	-135.537	0.182	-0.022
-380.931	-200.000	-0.008	0.127
-379.917	242.541	0.099	-0.166
-378.902	73.345	-0.026	-0.027
-377.888	-83.081	0.096	-0.031
-376.873	117.498	0.108	-0.132
-375.858	-110.128	0.327	0.068
-374.844	-148.785	-0.072	-0.006
-373.829	-200.000	0.028	0.157
-372.815	-88.806	-0.209	-0.062
-371.800	800.000	-0.144	0.555
-370.785	-157.162	0.312	-0.019
-369.771	-200.000	0.025	-0.281
-368.756	-200.000	0.035	0.165
-367.742	57.034	-0.192	0.186
-366.727	-142.622	0.181	0.018
-365.712	-162.054	-0.273	0.014
-364.698	-200.000	-0.004	0.211
-363.683	-200.000	0.051	0.315
-362.669	169.066	0.031	0.044
-361.654	179.541	-0.072	-0.106
-360.639	-168.282	0.381	0.015
-359.625	-200.000	-0.017	-0.102
-358.610	160.262	-0.105	-0.145
-357.596	-200.000	0.002	-0.474
-356.581	142.011	-0.342	0.452
-355.566	-200.000	0.011	-0.145
-354.552	-31.061	-0.188	-0.105
-353.537	12.779	-0.022	-0.017
-352.523	792.319	-0.070	-0.191
-351.508	-200.000	-0.002	-0.381
-350.493	346.065	-0.169	-0.330
-349.479	-99.080	0.178	0.045
-348.464	-40.145	-0.428	0.222
-347.450	-200.000	-0.009	-0.422
-346.435	68.870	-0.162	0.165
-345.420	-45.225	-0.163	0.080
-344.406	0.727	0.122	-0.087
-343.391	728.565	-0.190	-0.505
-342.377	-200.000	-0.052	-0.290
-341.362	-200.000	0.029	0.142
-340.348	-200.000	-0.066	0.405
-339.333	224.503	-0.097	-0.155
-338.318	10.884	-0.201	0.153
-337.304	774.754	0.186	0.504
-336.289	78.412	-0.284	-0.302
-335.275	148.490	0.155	0.208
-334.260	-200.000	-0.025	0.166
-333.245	98.309	0.266	-0.304
-332.231	-86.409	-0.059	-0.018
-331.216	45.504	0.161	-0.148
-330.202	57.588	0.075	0.073
-329.187	-200.000	0.029	0.250
-328.172	-122.170	0.323	-0.053
-327.158	59.811	0.152	-0.149
-326.143	-51.659	0.210	-0.097
-325.129	125.691	-0.101	0.127
-324.114	544.364	-0.077	0.183
-323.099	93.420	-0.224	-0.252
-322.085	-63.925	-0.266	-0.108
-321.070	98.155	-0.156	0.179
-320.056	-109.576	-0.195	0.041
-319.041	-102.135	0.126	-0.030
-318.026	-91.133	0.289	-0.082
-317.012	561.054	-0.058	0.138
-315.997	800.000	0.041	0.121
-314.983	-200.000	0.035	-0.395
-313.968	-200.000	-0.057	0.341
-312.953	36.721	0.169	-0.148
-311.939	328.739	-0.094	-0.179
-310.924	39.724	0.158	-0.141
-309.910	-200.000	-0.003	0.130
-308.895	-200.000	-0.014	-0.077
-307.880	163.919	0.116	-0.162
-306.866	-24.565	-0.094	0.055
-305.851	800.000	-0.109	0.315
-304.837	-104.194	0.153	-0.035
-303.822	-156.368	-0.328	-0.020
-302.807	-62.531	0.290	0.120
-301.793	-200.000	0.043	0.257
-300.778	-200.000	0.066	-0.331
-299.764	-118.240	-0.181	0.032
-298.749	800.000	0.088	0.335
-297.735	-200.000	0.014	0.457
-296.720	35.384	0.102	0.089
-295.705	206.553	0.262	-0.405
-294.691	154.553	-0.120	-0.163
-293.676	105.518	0.224	0.263
-292.662	-47.263	0.355	0.172
-291.647	-9.930	0.280	0.185
-290.632	742.863	-0.061	-0.163
-289.618	-53.042	0.140	-0.064
-288.603	800.000	0.091	-0.257
-287.589	118.795	-0.058	0.071
-286.574	27.036	0.306	0.254
-285.559	-200.000	-0.000	-0.150
-284.545	24.230	-0.121	0.099
-283.530	-92.680	0.106	0.030
-282.516	-200.000	0.004	0.069
-281.501	-19.643	0.060	-0.037
-280.486	800.000	0.022	0.080
-279.472	-200.000	0.042	0.243
-278.457	-61.076	0.316	-0.133
-277.443	-142.459	0.268	0.026
-276.428	164.638	0.099	0.139
-275.413	-200.000	-0.032	0.232
-274.399	135.469	-0.188	0.243
-273.384	-146.125	-0.129	-0.011
-272.370	15.423	-0.271	0.211
-271.355	2.385	-0.116	-0.083
-270.340	-200.000	0.011	-0.341
-269.326	131.749	-0.166	-0.211
-268.311	504.461	0.115	0.264
-267.297	175.865	0.217	0.312
-266.282	-71.671	-0.046	0.017
-265.267	800.000	-0.025	0.084
-264.253	-106.301	0.202	0.045
-263.238	-200.000	-0.014	-0.062
-262.224	-80.528	-0.010	0.003
-261.209	144.041	-0.050	0.066
-260.195	105.882	-0.138	-0.161
-259.180	-27.239	0.183	0.106
-258.165	-200.000	-0.024	0.173
-257.151	-78.587	-0.096	0.032
-256.136	-66.536	0.260	-0.102
-255.122	-86.008	0.286	0.088
-254.107	-129.704	-0.303	-0.041
-253.092	-2.120	-0.164	-0.114
-252.078	-199.792	-0.153	0.001
-251.063	-115.104	-0.363	0.068
-250.049	-122.047	-0.089	0.015
-249.034	800.000	-0.112	-0.368
-248.019	-82.683	-0.074	0.024
-247.005	-173.552	0.108	0.003
-245.990	102.218	0.211	0.244
-244.976	-200.000	-0.036	0.250
-243.961	-43.002	-0.348	-0.175
-242.946	-96.786	0.403	0.105
-241.932	-67.293	0.110	0.043
-240.917	-27.447	-0.019	-0.011
-239.903	-170.541	-0.171	-0.006
-238.888	510.321	-0.117	-0.270
-237.873	25.845	0.144	-0.119
-236.859	543.039	0.142	0.335
-235.844	-6.946	0.154	0.104
-234.830	176.089	0.052	0.075
-233.815	191.358	-0.285	-0.425
-232.800	-20.497	0.086	-0.052
-231.786	63.338	-0.113	-0.112
-230.771	490.270	0.059	0.134
-229.757	549.317	0.093	-0.221
-228.742	271.605	-0.209	-0.364
-227.727	62.012	0.090	0.089
-226.713	-200.000	-0.044	0.237
-225.698	514.688	-0.109	-0.252
-224.684	-68.580	-0.081	0.031
-223.669	-78.298	0.102	0.035
-222.655	480.334	0.193	-0.434
-221.640	601.935	-0.127	-0.313
-220.625	-200.000	0.017	-0.112
-219.611	-43.295	0.213	0.107
-218.596	-71.168	-0.228	0.085
-217.582	-200.000	0.049	0.219
-216.567	-200.000	-0.030	0.000
-215.552	-58.019	-0.037	0.016
-214.538	7.155	-0.226	0.167
-213.523	-151.368	-0.028	0.002
-212.509	-101.912	-0.277	0.066
-211.494	-29.707	-0.502	-0.283
-210.479	-64.374	-0.484	0.195
-209.465	117.476	-0.248	-0.302
-208.450	800.000	0.027	0.116
-207.436	431.615	0.095	0.203
-206.421	-200.000	-0.033	-0.202
-205.406	-96.083	0.213	0.056
-204.392	-195.025	-0.131	0.001
-203.377	8.534	0.125	0.093
-202.363	120.903	0.079	-0.098
-201.348	686.531	0.099	0.255
-200.333	-200.000	0.008	-0.123
-199.319	-89.057	-0.061	0.018
-198.304	3.710	0.115	0.083
-197.290	-174.489	-0.166	-0.005
-196.275	-200.000	-0.081	-0.504
-195.260	-64.639	0.257	0.103
-194.246	62.439	0.113	0.112
-193.231	-115.203	0.294	-0.055
-192.217	-137.099	-0.180	-0.020
-191.202	200.868	-0.166	0.252
-190.187	-64.064	-0.181	-0.073
-189.173	800.000	-0.048	-0.161
-188.158	-200.000	0.024	-0.437
-187.144	279.499	-0.114	0.200
-186.129	-159.451	-0.220	0.012
-185.114	-200.000	0.001	-0.124
-184.100	78.150	-0.039	-0.041
-183.085	800.000	0.053	0.175
-182.071	354.122	-0.072	-0.141
-181.056	800.000	0.010	0.032
-180.042	503.183	0.052	0.118
-179.027	-97.018	0.133	0.034
-178.012	740.611	-0.121	-0.322
-176.998	498.360	-0.060	-0.138
-175.983	64.662	0.122	-0.121
-174.969	52.047	-0.104	0.098
-173.954	-137.043	0.336	-0.038
-172.939	800.000	-0.026	0.073
-171.925	310.247	-0.178	0.328
-170.910	-41.403	-0.014	-0.007
-169.896	95.823	-0.159	-0.179
-168.881	330.581	0.093	0.177
-167.866	800.000	-0.034	0.111
-166.852	10.336	-0.197	-0.148
-165.837	-127.305	0.249	0.036
-164.823	-200.000	0.012	0.069
-163.808	-55.072	0.320	-0.142
-162.793	800.000	-0.071	-0.280
-161.779	-124.299	0.048	-0.007
-160.764	380.805	-0.113	0.228
-159.750	-200.000	0.024	-0.148
-158.735	-200.000	-0.010	-0.198
-157.720	453.072	-0.078	-0.170
-156.706	-82.616	-0.265	0.085
-155.691	-116.265	-0.284	-0.052
-154.677	-31.185	0.407	0.226
-153.662	-200.000	0.026	0.261
-152.647	-21.455	0.220	0.132
-151.633	-84.402	-0.226	-0.071
-150.618	-121.464	-0.090	-0.015
-149.604	-124.911	0.114	-0.017
-148.589	-78.822	0.253	-0.085
-147.574	-36.462	0.260	-0.138
-146.560	52.420	-0.102	0.096
-145.545	83.307	0.115	-0.124
-144.531	226.289	0.147	-0.235
-143.516	162.246	-0.077	0.106
-142.502	800.000	-0.097	-0.409
-141.487	-200.000	-0.083	0.389
-140.472	-171.436	0.104	0.003
-139.458	-200.000	0.044	-0.192
-138.443	37.890	0.106	0.093
-137.429	55.692	0.131	-0.125
-136.414	70.895	0.224	0.229
-135.399	454.397	-0.089	0.195
-134.385	-9.185	-0.098	0.065
-133.370	-200.000	0.007	0.057
-132.356	-147.381	0.131	0.011
-131.341	150.187	0.119	0.159
-130.326	-139.089	-0.107	-0.011
-129.312	96.870	0.190	-0.215
-128.297	-110.337	0.243	-0.050
-127.283	372.980	0.019	0.038
-126.268	800.000	-0.011	-0.034
-125.253	-200.000	0.082	-0.360
-124.239	-92.313	-0.084	0.023
-123.224	-64.685	-0.087	0.035
-122.210	-200.000	-0.007	-0.037
-121.195	-17.810	-0.086	-0.053
