DTS Sentinel unit serial number:	SN413079Multiplexer serial number:	ORYXHardware model number:	OX4-SRSoftware version number:	ORYX F/W v4.00 Oryx Data Collector v3.7.2.0data status	okinstallation	princeton_trtdifferential loss correction	single-endedforward channel	channel 4reverse channel	N/Adate	2019/09/18time	21:53:34forward acquisition time	60.00reverse acquisition time	0.00gamma	496.2192k internal	0.2332k external	0.2332temperature offset calibration	1.0031default loss term (dB/km)	0.3790temperature slope calibration	1.0000multiplexer offset coefficient	1.0000multiplexer slope coefficient	1.0000fibre end	0.00T internal ref (°C)	24.69T ext. ref 1 (°C)	0.83T ext. ref 2 (°C)	18.24length (m)	temperature (°C)	Stokes	anti-Stokes-747.200	183.734	-0.090	-0.134
-746.185	-80.189	-0.530	0.178
-745.171	-131.239	0.094	-0.013
-744.156	-154.829	-0.252	0.017
-743.142	-200.000	-0.036	0.272
-742.127	134.917	-0.247	0.322
-741.112	800.000	0.066	0.212
-740.098	88.583	-0.079	-0.089
-739.083	99.469	-0.137	-0.159
-738.069	82.649	-0.173	0.189
-737.054	-200.000	-0.043	0.227
-736.039	-171.239	-0.328	-0.011
-735.025	-126.264	0.191	0.029
-734.010	94.145	-0.090	-0.103
-732.996	800.000	-0.054	0.224
-731.981	-180.900	-0.066	-0.001
-730.966	-200.000	0.023	0.197
-729.952	-191.812	-0.390	0.004
-728.937	800.000	0.119	-0.351
-727.923	-37.901	-0.129	0.069
-726.908	66.156	0.191	-0.195
-725.894	-31.036	-0.364	-0.207
-724.879	57.615	-0.245	0.241
-723.864	312.230	-0.191	0.361
-722.850	-133.513	-0.289	-0.036
-721.835	145.815	-0.012	0.017
-720.821	637.231	-0.138	0.352
-719.806	800.000	0.105	0.324
-718.791	-35.786	-0.409	-0.223
-717.777	99.091	-0.131	-0.152
-716.762	2.358	-0.095	0.069
-715.748	90.951	-0.336	0.379
-714.733	800.000	0.030	-0.116
-713.718	-200.000	0.005	-0.056
-712.704	50.256	0.089	-0.084
-711.689	-40.963	-0.179	-0.093
-710.675	-132.340	-0.370	-0.048
-709.660	-93.363	-0.161	-0.045
-708.645	117.248	-0.065	0.081
-707.631	-155.562	0.192	0.012
-706.616	61.997	-0.343	0.343
-705.602	160.933	-0.088	0.123
-704.587	-200.000	0.029	0.172
-703.572	-12.889	-0.275	-0.180
-702.558	111.686	-0.085	0.103
-701.543	-200.000	0.003	-0.115
-700.529	-5.905	0.230	-0.158
-699.514	-200.000	0.018	-0.178
-698.499	-3.789	-0.126	-0.088
-697.485	800.000	-0.103	-0.340
-696.470	54.317	0.181	-0.175
-695.456	5.547	0.073	0.054
-694.441	-79.500	0.075	-0.025
-693.426	117.507	-0.326	0.403
-692.412	-200.000	0.022	0.200
-691.397	163.551	-0.063	0.089
-690.383	312.083	0.063	0.118
-689.368	98.718	-0.193	0.224
-688.354	800.000	-0.110	-0.312
-687.339	-20.117	-0.065	0.040
-686.324	-144.452	-0.109	0.010
-685.310	106.257	0.163	-0.194
-684.295	-11.850	-0.354	-0.233
-683.281	8.620	-0.187	-0.141
-682.266	71.285	-0.163	0.170
-681.251	-13.744	0.063	0.041
-680.237	-55.040	-0.430	-0.194
-679.222	186.119	0.175	0.261
-678.208	-39.971	0.174	-0.091
-677.193	67.065	0.196	-0.200
-676.178	109.547	0.039	-0.046
-675.164	-200.000	0.041	0.255
-674.149	99.060	0.159	0.184
-673.135	-41.349	-0.330	0.171
-672.120	-45.162	0.150	-0.075
-671.105	-126.155	0.110	-0.017
-670.091	-51.927	-0.204	0.095
-669.076	-200.000	0.036	0.165
-668.062	-113.239	0.063	0.012
-667.047	-98.349	-0.345	0.089
-666.032	301.055	-0.066	0.122
-665.018	224.608	0.212	-0.344
-664.003	164.724	-0.030	0.042
-662.989	-78.804	-0.400	-0.137
-661.974	503.545	-0.031	0.071
-660.959	-200.000	0.036	0.157
-659.945	80.021	0.087	-0.093
-658.930	800.000	-0.019	0.059
-657.916	127.927	-0.023	-0.029
-656.901	357.560	-0.102	0.205
-655.886	-72.748	-0.194	-0.072
-654.872	41.090	0.211	0.191
-653.857	532.537	0.131	-0.310
-652.843	-116.745	-0.228	0.042
-651.828	-70.950	0.121	-0.046
-650.814	28.864	0.143	-0.121
-649.799	-100.879	0.113	0.028
-648.784	305.281	-0.157	-0.293
-647.770	-15.036	0.250	0.160
-646.755	435.388	-0.092	0.200
-645.741	-200.000	0.013	0.345
-644.726	-200.000	-0.023	-0.165
-643.711	-31.267	0.128	0.072
-642.697	-68.650	0.163	0.063
-641.682	-94.048	-0.147	0.041
-640.668	-70.405	-0.347	-0.132
-639.653	70.117	0.037	-0.038
-638.638	194.379	-0.142	-0.216
-637.624	-200.000	-0.024	0.325
-636.609	36.575	-0.055	0.049
-635.595	272.040	-0.041	-0.072
-634.580	119.470	-0.043	-0.054
-633.565	219.603	0.093	-0.148
-632.551	36.436	-0.255	0.225
-631.536	133.526	-0.137	-0.177
-630.522	-144.589	0.247	-0.023
-629.507	223.019	0.132	0.213
-628.492	800.000	0.032	0.108
-627.478	244.939	-0.101	0.169
-626.463	-74.473	-0.501	-0.181
-625.449	254.546	-0.111	-0.191
-624.434	10.818	0.130	-0.099
-623.419	-200.000	0.021	0.154
-622.405	712.808	0.080	0.213
-621.390	-101.223	0.536	0.131
-620.376	105.751	-0.306	-0.362
-619.361	800.000	-0.056	-0.206
-618.346	-127.476	0.128	0.019
-617.332	757.599	-0.161	0.435
-616.317	-41.916	0.153	-0.078
-615.303	11.828	0.175	-0.135
-614.288	144.865	-0.116	-0.155
-613.273	-200.000	-0.085	-0.391
-612.259	-165.825	0.110	-0.005
-611.244	-58.545	0.131	-0.057
-610.230	-28.714	-0.172	0.099
-609.215	149.778	-0.169	0.229
-608.201	200.394	-0.068	-0.104
-607.186	-200.000	0.021	-0.235
-606.171	-2.253	0.139	-0.098
-605.157	181.067	-0.021	-0.031
-604.142	-126.934	-0.329	-0.048
-603.128	344.410	-0.073	-0.143
-602.113	-52.778	0.123	0.057
-601.098	738.810	-0.081	-0.218
-600.084	-12.950	0.058	0.038
-599.069	199.241	0.056	0.087
-598.055	212.636	0.144	-0.226
-597.040	-194.109	0.067	-0.001
-596.025	800.000	-0.052	0.174
-595.011	343.550	0.204	0.401
-593.996	-71.738	-0.404	-0.151
-592.982	-97.996	0.339	-0.087
-591.967	187.436	-0.109	-0.163
-590.952	-116.888	-0.064	-0.012
-589.938	-58.295	0.114	0.050
-588.923	661.581	0.130	0.336
-587.909	8.236	-0.135	0.102
-586.894	187.859	0.151	0.226
-585.879	69.848	-0.163	0.168
-584.865	-200.000	-0.007	0.122
-583.850	-73.232	-0.047	0.017
-582.836	-135.213	0.347	0.042
-581.821	-6.573	0.047	-0.032
-580.806	-79.004	0.311	-0.106
-579.792	6.002	0.110	-0.082
-578.777	502.527	-0.061	0.141
-577.763	800.000	-0.071	0.260
-576.748	74.915	-0.294	0.309
-575.733	-20.632	-0.210	-0.129
-574.719	374.884	-0.130	-0.264
-573.704	-126.907	-0.484	-0.071
-572.690	99.642	-0.263	-0.305
-571.675	247.889	0.222	0.374
-570.661	-53.598	0.152	0.069
-569.646	328.581	0.065	0.125
-568.631	-113.470	-0.093	0.018
-567.617	99.114	-0.148	-0.171
-566.602	336.757	-0.161	0.312
-565.588	64.657	-0.042	0.042
-564.573	800.000	-0.019	0.077
-563.558	-200.000	0.091	-0.419
-562.544	-200.000	-0.005	0.069
-561.529	-63.674	0.082	-0.034
-560.515	-200.000	0.007	0.054
-559.500	37.985	-0.211	-0.187
-558.485	800.000	0.098	-0.332
-557.471	-109.539	-0.195	-0.041
-556.456	-200.000	0.022	0.126
-555.442	630.493	-0.010	-0.026
-554.427	-130.613	0.239	0.032
-553.412	800.000	-0.085	-0.290
-552.398	365.009	-0.040	-0.080
-551.383	-124.024	0.169	-0.027
-550.369	319.382	0.064	0.121
-549.354	303.386	0.098	0.182
-548.339	309.767	-0.020	-0.038
-547.325	800.000	0.025	-0.069
-546.310	-40.357	-0.064	-0.033
-545.296	-122.312	-0.296	0.048
-544.281	-46.619	-0.273	-0.134
-543.266	193.476	0.295	-0.445
-542.252	800.000	-0.057	0.221
-541.237	-13.400	-0.240	0.156
-540.223	-110.709	0.340	0.070
-539.208	19.679	-0.014	0.011
-538.193	-171.986	0.186	-0.006
-537.179	800.000	0.108	-0.302
-536.164	-73.547	-0.064	0.023
-535.150	-30.848	0.301	0.170
-534.135	-140.077	0.127	-0.013
-533.121	-200.000	0.046	0.256
-532.106	-104.340	0.233	0.054
-531.091	196.968	-0.209	-0.318
-530.077	-58.593	0.018	-0.008
-529.062	800.000	-0.018	0.051
-528.048	335.235	-0.077	0.149
-527.033	-200.000	-0.001	0.041
-526.018	-126.289	0.311	0.046
-525.004	-136.355	0.265	-0.031
-523.989	800.000	-0.073	-0.280
-522.975	-200.000	-0.105	0.516
-521.960	800.000	-0.083	0.332
-520.945	800.000	0.057	-0.167
-519.931	48.567	0.105	-0.098
-518.916	150.164	0.115	0.156
-517.902	-135.066	-0.246	-0.030
-516.887	151.539	0.126	-0.171
-515.872	60.944	0.285	-0.282
-514.858	-200.000	-0.011	-0.302
-513.843	-102.564	0.137	-0.033
-512.829	-122.481	-0.242	0.039
-511.814	-200.000	-0.009	-0.075
-510.799	661.832	-0.119	0.307
-509.785	94.940	-0.101	-0.115
-508.770	-11.528	0.204	-0.134
-507.756	-148.378	0.249	-0.020
-506.741	-113.974	0.126	0.024
-505.726	82.543	0.046	-0.050
-504.712	-15.331	0.101	-0.065
-503.697	-86.147	-0.177	-0.055
-502.683	-1.442	-0.175	-0.123
-501.668	-6.113	-0.094	-0.064
-500.653	-81.727	0.093	-0.030
-499.639	91.253	0.191	0.214
-498.624	-48.892	-0.073	0.035
-497.610	-200.000	-0.017	0.098
-496.595	181.962	-0.206	-0.303
-495.581	20.117	0.235	-0.189
-494.566	-138.954	0.243	0.026
-493.551	-200.000	0.005	0.037
-492.537	-112.383	0.178	0.035
-491.522	-200.000	-0.024	0.255
-490.508	25.485	0.150	0.124
-489.493	11.937	0.044	-0.034
-488.478	-130.283	-0.186	0.025
-487.464	-200.000	0.013	-0.207
-486.449	800.000	0.052	0.189
-485.435	800.000	0.022	-0.071
-484.420	-71.633	-0.432	-0.161
-483.405	-200.000	-0.027	0.356
-482.391	-122.584	0.128	0.021
-481.376	-200.000	-0.056	0.329
-480.362	-163.411	0.150	-0.007
-479.347	35.210	-0.251	-0.219
-478.332	412.782	0.076	-0.161
-477.318	-200.000	0.007	-0.122
-476.303	-52.281	0.219	-0.101
-475.289	60.319	-0.086	0.084
-474.274	-183.312	-0.136	0.002
-473.259	-13.030	0.188	0.122
-472.245	-117.169	0.250	-0.045
-471.230	5.118	-0.030	0.022
-470.216	-24.889	-0.173	-0.102
-469.201	-200.000	0.018	-0.584
-468.186	800.000	0.048	-0.200
-467.172	-160.950	-0.111	0.006
-466.157	42.401	0.141	0.127
-465.143	-7.611	-0.103	0.069
-464.128	-200.000	0.018	-0.334
-463.113	-17.679	-0.156	0.097
-462.099	124.838	0.167	-0.210
-461.084	328.548	-0.159	-0.304
-460.070	-175.988	0.253	0.007
-459.055	800.000	0.051	0.162
-458.040	800.000	0.031	-0.109
-457.026	800.000	-0.110	-0.409
-456.011	-200.000	-0.095	-0.428
-454.997	-200.000	-0.013	-0.325
-453.982	-200.000	-0.031	-0.160
-452.968	418.074	-0.127	-0.270
-451.953	149.255	-0.044	-0.059
-450.938	800.000	-0.131	0.377
-449.924	-66.459	0.396	0.157
-448.909	-66.338	0.172	0.068
-447.895	760.366	0.102	-0.275
-446.880	-200.000	0.001	-0.127
-445.865	132.962	0.127	0.163
-444.851	-28.239	0.326	0.187
-443.836	18.143	-0.301	0.239
-442.822	-75.453	-0.365	-0.129
-441.807	800.000	-0.054	0.217
-440.792	153.424	-0.068	-0.093
-439.778	-122.438	0.212	-0.034
-438.763	42.261	-0.221	-0.200
-437.749	2.235	-0.187	0.135
-436.734	-67.963	0.193	0.075
-435.719	-191.691	0.150	0.001
-434.705	-200.000	-0.078	-0.465
-433.690	800.000	-0.045	-0.193
-432.676	298.952	-0.083	0.152
-431.661	775.200	0.065	-0.177
-430.646	-97.492	-0.377	0.097
-429.632	-113.525	-0.128	0.025
-428.617	800.000	-0.036	-0.151
-427.603	-14.877	0.336	0.214
-426.588	-33.567	0.113	0.062
-425.573	-150.494	0.049	-0.004
-424.559	-55.019	0.268	0.120
-423.544	-74.620	-0.123	-0.044
-422.530	-29.175	0.172	-0.098
-421.515	-48.665	0.223	-0.106
-420.500	-17.513	0.223	-0.140
-419.486	9.222	0.274	-0.206
-418.471	-200.000	0.038	-0.478
-417.457	-33.283	-0.316	-0.174
-416.442	85.477	-0.133	0.145
-415.428	28.500	0.057	-0.048
-414.413	48.744	-0.193	-0.180
-413.398	-49.759	-0.098	0.046
-412.384	-159.134	0.311	-0.017
-411.369	-200.000	0.044	0.426
-410.355	-81.045	0.288	-0.095
-409.340	800.000	-0.031	-0.131
-408.325	-200.000	0.010	0.160
-407.311	253.303	0.059	-0.101
-406.296	11.559	0.164	-0.125
-405.282	-41.032	0.222	0.114
-404.267	-106.923	-0.326	-0.072
-403.252	-147.690	0.235	-0.020
-402.238	387.484	0.112	-0.229
-401.223	60.476	0.296	-0.291
-400.209	220.777	0.199	0.318
-399.194	-79.661	-0.187	0.063
-398.179	242.672	0.089	0.148
-397.165	-22.894	0.154	0.092
-396.150	141.839	-0.137	0.181
-395.136	41.725	0.173	0.155
-394.121	-164.355	0.317	0.014
-393.106	-162.058	-0.344	-0.017
-392.092	524.255	-0.087	-0.202
-391.077	74.202	-0.124	0.129
-390.063	800.000	-0.020	-0.056
-389.048	-36.807	0.197	0.105
-388.033	44.768	-0.135	0.124
-387.019	-200.000	0.032	0.217
-386.004	80.859	-0.170	0.182
-384.990	-22.467	-0.204	0.123
-383.975	4.414	0.110	0.080
-382.960	504.042	0.137	-0.314
-381.946	-200.000	-0.022	-0.203
-380.931	634.479	-0.088	-0.221
-379.917	-87.830	0.285	-0.085
-378.902	120.407	-0.104	0.128
-377.888	113.546	-0.291	0.351
-376.873	-200.000	-0.015	0.073
-375.858	-200.000	-0.023	0.383
-374.844	67.501	-0.109	0.110
-373.829	-1.220	-0.061	0.043
-372.815	365.974	0.171	0.342
-371.800	1.487	-0.293	-0.209
-370.785	-200.000	-0.076	0.513
-369.771	-18.986	0.159	-0.098
-368.756	-200.000	0.021	-0.141
-367.742	-32.801	-0.117	-0.064
-366.727	800.000	0.118	0.462
-365.712	-22.738	-0.197	0.118
-364.698	162.237	-0.124	-0.173
-363.683	-200.000	0.050	-0.314
-362.669	-41.110	-0.058	-0.029
-361.654	800.000	-0.095	0.319
-360.639	-200.000	0.045	0.260
-359.625	-22.379	-0.165	0.099
-358.610	800.000	-0.118	0.354
-357.596	532.958	0.055	-0.130
-356.581	800.000	0.081	-0.315
-355.566	163.614	0.010	-0.014
-354.552	130.435	-0.035	0.045
-353.537	-200.000	0.016	-0.165
-352.523	800.000	-0.030	0.104
-351.508	-200.000	0.021	0.189
-350.493	-200.000	0.024	-0.452
-349.479	78.201	-0.111	-0.117
-348.464	49.179	-0.204	-0.190
-347.450	-17.016	0.140	-0.088
-346.435	209.205	-0.126	0.195
-345.420	103.997	-0.148	0.173
-344.406	27.684	0.012	0.010
-343.391	800.000	-0.034	0.145
-342.377	800.000	0.120	0.341
-341.362	-91.222	-0.166	0.047
-340.348	68.717	-0.155	0.158
-339.333	-200.000	-0.056	-0.353
-338.318	-194.910	-0.291	0.002
-337.304	-200.000	0.019	-0.127
-336.289	43.879	-0.150	0.136
-335.275	14.867	0.241	0.186
-334.260	-23.264	-0.090	-0.054
-333.245	125.576	-0.116	-0.145
-332.231	70.608	0.226	0.231
-331.216	101.056	-0.154	0.177
-330.202	-30.709	0.167	0.094
-329.187	128.834	-0.180	-0.227
-328.172	-38.503	0.133	0.070
-327.158	-85.770	-0.058	-0.018
-326.143	-38.352	0.080	-0.042
-325.129	-28.815	-0.267	-0.152
-324.114	98.480	-0.196	-0.223
-323.099	-200.000	-0.031	0.193
-322.085	-34.266	-0.527	-0.286
-321.070	170.517	-0.367	0.520
-320.056	739.289	-0.096	-0.256
-319.041	-14.500	-0.233	-0.148
-318.026	87.086	0.122	0.133
-317.012	-108.031	0.170	0.037
-315.997	800.000	0.105	-0.297
-314.983	36.362	-0.221	0.193
-313.968	800.000	0.053	0.171
-312.953	82.470	0.230	-0.247
-311.939	-200.000	0.037	0.210
-310.924	800.000	0.141	0.571
-309.910	37.997	0.309	0.272
-308.895	-103.281	0.163	0.038
-307.880	-3.642	0.142	-0.098
-306.866	-33.568	0.094	-0.051
-305.851	14.075	-0.073	0.056
-304.837	10.712	0.116	0.088
-303.822	494.829	0.055	0.124
-302.807	198.310	0.114	-0.172
-301.793	-138.466	0.116	0.013
-300.778	204.941	-0.075	0.115
-299.764	-196.981	0.323	-0.002
-298.749	-200.000	0.008	-0.093
-297.735	-200.000	0.011	0.071
-296.720	478.792	0.065	-0.145
-295.705	210.453	-0.065	-0.102
-294.691	-6.640	0.154	0.103
-293.676	800.000	0.076	-0.218
-292.662	800.000	0.057	-0.159
-291.647	196.976	0.097	-0.147
-290.632	128.949	0.127	0.160
-289.618	-200.000	-0.028	-0.224
-288.603	-200.000	0.002	-0.260
-287.589	800.000	0.072	-0.200
-286.574	-200.000	0.031	0.325
-285.559	-68.620	-0.172	0.066
-284.545	240.391	0.143	-0.235
-283.530	92.664	-0.139	-0.155
-282.516	42.674	-0.148	-0.133
-281.501	-200.000	-0.000	-0.047
-280.486	-77.272	-0.429	-0.147
-279.472	637.281	-0.072	0.180
-278.457	108.057	-0.120	-0.141
-277.443	332.138	0.048	-0.092
-276.428	-114.080	0.235	0.045
-275.413	74.365	0.128	0.133
-274.399	321.616	0.010	-0.020
-273.384	52.171	0.244	-0.230
-272.370	-123.210	0.157	0.025
-271.355	-200.000	-0.000	-0.088
-270.340	-55.029	0.272	-0.121
-269.326	179.866	-0.147	-0.212
-268.311	-21.199	-0.053	-0.032
-267.297	737.244	-0.092	0.243
-266.282	2.582	0.134	-0.096
-265.267	52.074	0.083	0.078
-264.253	-99.986	-0.073	-0.018
-263.238	-22.909	-0.051	0.030
-262.224	-44.067	0.260	0.129
-261.209	-26.347	0.149	0.087
-260.195	-32.899	-0.171	0.094
-259.180	72.063	-0.168	0.173
-258.165	-73.497	-0.073	0.026
-257.151	448.911	0.132	0.288
-256.136	72.166	0.129	0.133
-255.122	324.492	-0.049	0.092
-254.107	-68.038	-0.216	0.083
-253.092	-120.246	0.203	0.034
-252.078	262.734	-0.138	0.236
-251.063	-142.010	0.264	-0.026
-250.049	-29.530	-0.365	-0.206
-249.034	65.786	-0.206	0.206
-248.019	260.925	0.025	-0.043
-247.005	-29.410	0.017	0.010
-245.990	670.919	0.173	0.441
-244.976	207.450	-0.040	0.062
-243.961	320.112	0.135	0.253
-242.946	-111.316	0.308	0.062
-241.932	208.186	0.165	-0.255
-240.917	1.828	0.165	0.117
-239.903	569.179	-0.072	-0.173
-238.888	800.000	0.105	0.360
-237.873	204.077	-0.116	0.178
-236.859	303.178	0.135	0.246
-235.844	-141.382	-0.422	-0.042
-234.830	-200.000	0.012	-0.089
-233.815	130.807	-0.139	0.176
-232.800	-42.631	0.397	0.200
-231.786	574.879	0.011	0.026
-230.771	-133.343	0.165	-0.020
-229.757	135.670	-0.217	-0.278
-228.742	-61.230	-0.386	0.160
-227.727	157.192	-0.106	-0.145
-226.713	165.274	0.140	0.194
-225.698	-32.794	0.238	0.130
-224.684	800.000	-0.032	-0.122
-223.669	-200.000	-0.033	-0.176
-222.655	-200.000	0.018	0.176
-221.640	109.286	0.232	-0.274
-220.625	-200.000	-0.006	0.121
-219.611	207.587	0.216	0.333
-218.596	-200.000	0.018	0.125
-217.582	2.513	-0.232	0.165
-216.567	16.817	-0.277	-0.216
-215.552	-200.000	-0.029	-0.249
-214.538	-37.045	-0.272	-0.143
-213.523	233.428	0.127	-0.205
-212.509	-200.000	0.005	-0.250
-211.494	46.686	-0.096	-0.088
-210.479	144.848	-0.047	0.062
-209.465	178.270	-0.194	0.279
-208.450	-171.118	0.324	0.011
-207.436	-200.000	-0.124	0.626
-206.421	-200.000	0.015	0.186
-205.406	-113.501	-0.127	-0.024
-204.392	-161.275	0.064	-0.003
-203.377	-200.000	-0.002	0.041
-202.363	210.863	-0.148	-0.229
-201.348	122.294	0.249	-0.306
-200.333	9.182	-0.296	-0.220
-199.319	-19.224	0.154	-0.094
-198.304	-34.483	-0.264	0.143
-197.290	143.536	0.089	-0.117
-196.275	-35.945	-0.279	0.149
-195.260	-200.000	0.005	-0.186
-194.246	286.605	0.045	-0.080
-193.231	-200.000	-0.058	-0.405
-192.217	800.000	0.027	-0.093
-191.202	71.678	0.164	-0.168
-190.187	-200.000	0.036	0.209
-189.173	800.000	0.028	0.084
-188.158	-21.649	0.161	0.097
-187.144	623.749	0.075	0.187
-186.129	-110.686	0.437	-0.089
-185.114	-200.000	-0.025	-0.139
-184.100	-127.365	0.192	0.028
-183.085	-187.071	0.233	0.003
-182.071	-200.000	-0.020	-0.110
-181.056	212.427	-0.125	-0.194
-180.042	43.663	0.054	0.048
-179.027	-200.000	-0.039	-0.383
-178.012	800.000	0.032	-0.091
-176.998	54.793	-0.301	0.286
-175.983	-200.000	-0.013	-0.129
-174.969	-64.562	0.140	0.056
-173.954	-200.000	-0.111	0.496
-172.939	202.126	0.072	-0.110
-171.925	-200.000	-0.104	-0.520
-170.910	800.000	0.078	0.270
-169.896	-101.675	-0.316	0.075
-168.881	-142.946	-0.214	-0.020
-167.866	69.811	-0.210	0.213
-166.852	-93.551	0.266	-0.072
-165.837	-200.000	0.072	0.404
-164.823	-61.766	-0.356	-0.147
-163.808	221.327	-0.123	-0.194
-162.793	750.714	0.121	0.322
-161.779	-96.453	-0.143	-0.037
-160.764	-53.405	-0.312	0.140
-159.750	18.934	0.236	-0.186
-158.735	155.452	-0.064	-0.087
-157.720	96.151	0.306	0.344
-156.706	-101.080	-0.174	0.042
-155.691	-84.054	-0.360	-0.112
-154.677	-169.007	-0.265	-0.010
-153.662	19.323	-0.175	-0.138
-152.647	-128.784	0.058	0.008
-151.633	706.154	-0.074	0.192
-150.618	559.805	-0.088	-0.210
-149.604	-200.000	0.032	0.382
-148.589	-50.265	-0.096	-0.045
-147.574	145.795	-0.135	0.178
-146.560	-68.081	-0.062	-0.024
-145.545	-169.154	-0.276	-0.010
-144.531	-200.000	-0.055	0.247
-143.516	45.785	-0.462	-0.420
-142.502	25.535	0.175	0.143
-141.487	800.000	-0.057	-0.198
-140.472	548.221	-0.016	0.038
-139.458	-48.353	0.160	0.076
-138.443	-200.000	0.007	0.071
-137.429	700.708	0.052	-0.134
-136.414	800.000	0.103	0.348
-135.399	-9.115	0.059	-0.039
-134.385	800.000	-0.108	0.367
-133.370	-41.914	0.213	0.107
-132.356	267.908	0.186	0.320
-131.341	127.958	-0.176	0.220
-130.326	101.405	-0.169	-0.194
-129.312	30.236	0.130	0.109
-128.297	-62.934	0.161	0.066
-127.283	266.372	0.233	0.401
-126.268	-142.205	-0.282	0.027
-125.253	-160.804	-0.214	-0.011
-124.239	18.620	0.075	0.059
-123.224	-200.000	-0.024	-0.257
-122.210	-150.196	-0.241	-0.018
-121.195	800.000	-0.033	0.097
