DTS Sentinel unit serial number:	SN413079Multiplexer serial number:	ORYXHardware model number:	OX4-SRSoftware version number:	ORYX F/W v4.00 Oryx Data Collector v3.7.2.0data status	okinstallation	princeton_trtdifferential loss correction	single-endedforward channel	channel 4reverse channel	N/Adate	2019/09/13time	17:05:35forward acquisition time	60.00reverse acquisition time	0.00gamma	496.2192k internal	0.2292k external	0.2292temperature offset calibration	1.0205default loss term (dB/km)	0.3790temperature slope calibration	1.0000multiplexer offset coefficient	1.0000multiplexer slope coefficient	1.0000fibre end	0.00T internal ref (°C)	35.14T ext. ref 1 (°C)	4.82T ext. ref 2 (°C)	34.64length (m)	temperature (°C)	Stokes	anti-Stokes-747.200	-88.455	0.165	-0.050
-746.185	374.995	-0.051	0.106
-745.171	-200.000	-0.090	0.000
-744.156	-200.000	0.066	0.590
-743.142	-142.086	0.308	-0.031
-742.127	-200.000	0.059	0.374
-741.112	-31.689	-0.143	-0.082
-740.098	-82.537	-0.220	-0.073
-739.083	800.000	0.016	-0.060
-738.069	263.091	0.179	0.318
-737.054	-103.827	-0.328	0.078
-736.039	-153.192	-0.198	0.014
-735.025	-68.849	0.292	0.115
-734.010	-134.552	-0.061	-0.008
-732.996	584.225	-0.121	-0.305
-731.981	-37.679	0.083	-0.045
-730.966	-151.241	-0.310	0.024
-729.952	96.274	0.094	-0.110
-728.937	800.000	-0.049	-0.150
-727.923	760.596	-0.028	-0.077
-726.908	318.492	0.210	-0.406
-725.894	418.736	0.092	0.200
-724.879	205.294	0.068	-0.109
-723.864	166.567	0.205	-0.297
-722.850	-47.217	-0.167	-0.083
-721.835	250.932	-0.077	-0.134
-720.821	-200.000	0.018	0.138
-719.806	10.351	0.288	-0.224
-718.791	-200.000	0.049	0.224
-717.777	53.559	-0.263	0.258
-716.762	-10.203	0.099	0.067
-715.748	-96.623	-0.195	-0.053
-714.733	-165.516	-0.169	0.008
-713.718	123.467	-0.076	0.098
-712.704	-200.000	0.021	0.095
-711.689	608.786	-0.018	0.045
-710.675	28.089	-0.074	-0.064
-709.660	778.856	0.194	-0.541
-708.645	-6.064	-0.135	-0.094
-707.631	-82.260	-0.070	0.023
-706.616	-200.000	-0.002	0.023
-705.602	174.309	-0.113	-0.167
-704.587	40.327	0.154	0.142
-703.572	87.930	0.150	0.170
-702.558	-54.297	0.203	-0.094
-701.543	58.425	0.203	0.203
-700.529	297.254	-0.022	-0.041
-699.514	-91.145	-0.241	0.071
-698.499	-95.931	-0.063	0.017
-697.485	-13.511	-0.276	-0.182
-696.470	358.373	-0.132	-0.269
-695.456	-109.421	-0.430	-0.093
-694.441	97.801	-0.151	0.177
-693.426	-4.467	0.346	-0.244
-692.412	-92.531	-0.315	-0.090
-691.397	800.000	-0.071	-0.211
-690.383	-200.000	0.011	0.134
-689.368	-78.681	-0.104	-0.036
-688.354	1.652	0.074	-0.054
-687.339	80.388	-0.223	-0.246
-686.324	534.171	-0.077	-0.186
-685.310	-104.984	0.144	0.034
-684.295	161.517	-0.158	-0.226
-683.281	-66.800	0.206	0.083
-682.266	-200.000	-0.011	0.210
-681.251	-20.233	0.195	-0.123
-680.237	-141.265	-0.249	0.026
-679.222	116.945	-0.249	-0.312
-678.208	16.877	-0.079	-0.064
-677.193	800.000	0.068	-0.281
-676.178	500.143	0.078	0.183
-675.164	292.528	0.135	0.251
-674.149	-81.368	0.279	-0.094
-673.135	48.361	0.013	-0.013
-672.120	66.607	-0.264	0.274
-671.105	-84.684	0.369	0.119
-670.091	44.026	-0.298	-0.279
-669.076	441.021	-0.061	0.136
-668.062	323.841	0.091	0.178
-667.047	290.232	-0.053	0.098
-666.032	800.000	-0.037	0.129
-665.018	-45.394	-0.144	0.073
-664.003	-119.576	0.051	-0.009
-662.989	-200.000	0.017	-0.193
-661.974	-134.839	-0.302	0.037
-660.959	-87.739	-0.276	0.085
-659.945	-200.000	-0.058	0.291
-658.930	142.609	-0.107	0.144
-657.916	-3.336	0.064	0.046
-656.901	17.955	-0.131	-0.106
-655.886	-200.000	0.054	-0.334
-654.872	301.371	0.170	0.320
-653.857	324.464	0.063	-0.122
-652.843	68.967	-0.280	-0.293
-651.828	-72.754	0.133	0.050
-650.814	-200.000	0.018	-0.223
-649.799	800.000	-0.007	-0.024
-648.784	15.041	-0.105	-0.084
-647.770	-61.640	-0.212	0.091
-646.755	-8.610	0.255	0.174
-645.741	-200.000	0.034	-0.193
-644.726	-144.885	0.085	0.008
-643.711	-80.696	0.102	0.035
-642.697	81.912	-0.144	-0.159
-641.682	414.673	-0.043	0.092
-640.668	-200.000	-0.030	0.159
-639.653	436.070	0.082	-0.182
-638.638	-200.000	0.002	-0.222
-637.624	-87.569	0.173	0.053
-636.609	-28.463	0.322	-0.189
-635.595	-87.578	-0.218	0.067
-634.580	800.000	-0.018	0.073
-633.565	-37.729	-0.381	0.206
-632.551	800.000	0.109	0.388
-631.536	-200.000	0.008	-0.195
-630.522	-200.000	0.003	0.336
-629.507	-109.290	-0.053	0.011
-628.492	14.543	-0.088	0.070
-627.478	198.413	0.181	0.282
-626.463	500.968	-0.044	-0.104
-625.449	-54.949	0.191	-0.088
-624.434	-71.141	-0.255	0.098
-623.419	-20.497	0.065	0.040
-622.405	-55.199	0.140	0.064
-621.390	171.115	-0.142	-0.207
-620.376	10.624	-0.032	-0.025
-619.361	-159.644	-0.315	0.018
-618.346	202.611	-0.054	0.084
-617.332	-200.000	0.017	-0.173
-616.317	777.393	-0.057	-0.158
-615.303	214.902	-0.116	0.187
-614.288	-200.000	0.020	-0.467
-613.273	800.000	-0.023	0.090
-612.259	-124.284	-0.132	-0.021
-611.244	-29.810	0.401	-0.233
-610.230	229.728	0.147	0.244
-609.215	284.902	0.158	-0.290
-608.201	278.048	0.195	-0.354
-607.186	-116.026	0.113	0.021
-606.171	-79.476	-0.123	-0.042
-605.157	-24.300	0.086	0.052
-604.142	-192.431	0.289	0.003
-603.128	-150.899	-0.109	0.008
-602.113	574.401	0.131	0.325
-601.098	-200.000	0.007	0.196
-600.084	334.048	0.243	-0.479
-599.069	162.656	-0.070	0.101
-598.055	-200.000	-0.021	0.143
-597.040	-200.000	0.031	0.191
-596.025	39.844	-0.151	0.137
-595.011	-176.629	0.294	0.008
-593.996	-200.000	0.034	0.171
-592.982	-9.694	0.133	0.090
-591.967	99.059	-0.140	-0.165
-590.952	35.205	-0.091	0.081
-589.938	-99.939	0.260	-0.066
-588.923	-200.000	-0.007	-0.050
-587.909	-200.000	0.015	-0.112
-586.894	800.000	0.139	0.392
-585.879	-137.753	0.051	-0.006
-584.865	134.581	-0.337	0.445
-583.850	3.135	0.164	-0.122
-582.836	-67.876	-0.202	-0.080
-581.821	80.118	0.101	-0.111
-580.806	29.663	0.127	-0.110
-579.792	-112.553	-0.422	0.086
-578.777	-73.234	-0.198	0.074
-577.763	-58.327	0.258	0.114
-576.748	478.147	0.120	-0.277
-575.733	-200.000	0.063	-0.331
-574.719	-33.964	0.249	0.139
-573.704	-81.288	-0.244	0.082
-572.690	-133.819	-0.267	-0.034
-571.675	-91.173	-0.219	0.064
-570.661	371.342	-0.133	0.275
-569.646	800.000	-0.044	0.177
-568.631	-96.698	0.227	-0.061
-567.617	-200.000	0.007	-0.043
-566.602	-108.280	-0.109	-0.024
-565.588	800.000	0.062	0.212
-564.573	-177.464	0.150	-0.004
-563.558	-200.000	0.007	0.059
-562.544	40.511	-0.253	0.231
-561.529	-97.277	0.208	-0.055
-560.515	-57.053	-0.219	0.098
-559.500	-76.395	-0.059	-0.021
-558.485	156.497	-0.221	0.310
-557.471	32.846	-0.180	0.158
-556.456	135.675	-0.026	-0.034
-555.442	-200.000	0.038	0.228
-554.427	-43.191	0.112	-0.058
-553.412	-92.870	-0.339	-0.096
-552.398	250.930	0.112	-0.194
-551.383	15.506	0.047	0.037
-550.369	268.585	0.101	-0.179
-549.354	253.401	-0.098	0.170
-548.339	-33.767	-0.126	0.071
-547.325	267.401	0.039	0.070
-546.310	-118.348	-0.151	-0.027
-545.296	189.804	-0.195	0.297
-544.281	800.000	0.069	0.218
-543.266	800.000	0.053	0.181
-542.252	527.026	-0.029	-0.070
-541.237	369.128	0.138	-0.283
-540.223	85.496	0.272	-0.304
-539.208	188.988	-0.155	-0.236
-538.193	-200.000	0.013	-0.285
-537.179	2.425	-0.064	0.047
-536.164	-200.000	-0.011	-0.078
-535.150	-183.918	0.317	0.005
-534.135	-169.256	-0.130	0.005
-533.121	341.605	0.096	-0.191
-532.106	25.713	0.104	0.088
-531.091	247.090	-0.125	-0.215
-530.077	-3.629	-0.135	0.095
-529.062	800.000	0.091	-0.310
-528.048	674.091	-0.042	-0.109
-527.033	-119.724	-0.265	-0.046
-526.018	-155.841	-0.215	0.014
-525.004	127.705	-0.099	-0.127
-523.989	743.247	-0.122	-0.332
-522.975	-102.506	0.091	0.022
-521.960	53.750	0.060	-0.058
-520.945	-21.792	-0.560	-0.346
-519.931	-20.963	-0.338	-0.210
-518.916	-109.166	0.157	-0.034
-517.902	-200.000	-0.274	-0.000
-516.887	157.389	-0.104	-0.146
-515.872	-38.058	-0.083	0.045
-514.858	-200.000	0.022	0.308
-513.843	-58.373	-0.232	0.102
-512.829	289.242	-0.280	-0.516
-511.814	-41.219	-0.193	0.101
-510.799	195.950	0.175	0.270
-509.785	1.690	0.265	0.194
-508.770	-12.023	0.181	-0.121
-507.756	-48.702	-0.135	0.066
-506.741	-133.817	0.195	0.025
-505.726	-200.000	0.004	0.043
-504.712	-64.572	0.281	-0.116
-503.697	-200.000	-0.038	0.210
-502.683	-114.453	-0.055	0.011
-501.668	-180.486	0.129	-0.003
-500.653	154.687	-0.214	0.298
-499.639	-150.632	0.241	0.019
-498.624	-138.590	0.294	0.033
-497.610	800.000	-0.087	0.249
-496.595	381.840	-0.116	-0.242
-495.581	164.256	0.053	0.076
-494.566	-145.457	0.170	0.016
-493.551	-57.423	-0.040	0.018
-492.537	-86.220	-0.381	-0.119
-491.522	-56.843	-0.252	0.113
-490.508	302.271	0.151	0.284
-489.493	254.057	0.078	0.135
-488.478	-200.000	0.028	0.161
-487.464	-200.000	0.022	-0.247
-486.449	249.472	-0.236	0.406
-485.435	99.178	-0.361	0.423
-484.420	-84.640	0.294	-0.094
-483.405	156.251	-0.141	0.197
-482.391	-47.020	-0.210	0.104
-481.376	-200.000	-0.010	0.393
-480.362	175.815	-0.196	0.289
-479.347	211.908	-0.142	-0.226
-478.332	-3.782	0.206	-0.145
-477.318	-71.625	0.348	-0.132
-476.303	-34.233	-0.241	0.134
-475.289	-35.073	0.268	0.148
-474.274	288.511	0.040	-0.073
-473.259	171.081	0.187	0.272
-472.245	-200.000	-0.077	0.348
-471.230	-200.000	-0.048	-0.468
-470.216	-41.084	0.038	0.020
-469.201	-200.000	-0.010	-0.176
-468.186	-200.000	0.007	0.045
-467.172	-200.000	-0.031	-0.216
-466.157	-176.404	0.094	0.002
-465.143	800.000	-0.021	-0.061
-464.128	204.693	0.150	-0.235
-463.113	-200.000	-0.006	-0.188
-462.099	-200.000	0.022	0.131
-461.084	-173.993	-0.121	-0.004
-460.070	-31.987	0.141	0.080
-459.055	-122.793	-0.055	-0.009
-458.040	800.000	-0.048	-0.154
-457.026	-68.846	0.285	-0.111
-456.011	-44.784	0.224	-0.113
-454.997	800.000	-0.118	-0.486
-453.982	-77.892	0.339	-0.118
-452.968	397.772	0.106	-0.224
-451.953	-77.044	0.312	0.110
-450.938	193.400	-0.018	-0.028
-449.924	-111.419	0.147	0.030
-448.909	132.146	-0.116	0.151
-447.895	30.670	-0.169	0.146
-446.880	-34.497	-0.264	0.147
-445.865	-87.955	0.113	-0.034
-444.851	-132.324	0.101	-0.013
-443.836	800.000	0.065	0.193
-442.822	212.749	0.107	0.171
-441.807	-94.494	-0.191	0.053
-440.792	9.820	0.153	0.117
-439.778	-152.249	-0.117	0.009
-438.763	52.471	0.151	-0.146
-437.749	-94.337	0.205	-0.057
-436.734	7.566	-0.231	-0.175
-435.719	-115.170	-0.266	0.051
-434.705	800.000	0.012	-0.053
-433.690	-170.501	-0.132	-0.005
-432.676	-146.162	-0.111	0.010
-431.661	743.677	-0.060	0.164
-430.646	-200.000	0.029	0.321
-429.632	-181.057	0.274	-0.006
-428.617	41.526	0.235	0.215
-427.603	441.797	-0.016	-0.034
-426.588	800.000	0.043	-0.166
-425.573	14.109	0.308	-0.242
-424.559	-92.541	-0.179	-0.051
-423.544	573.213	-0.084	0.206
-422.530	-149.111	0.114	-0.009
-421.515	194.738	0.086	-0.132
-420.500	-29.262	0.240	0.139
-419.486	3.984	-0.034	-0.025
-418.471	-200.000	-0.014	0.378
-417.457	-96.383	0.106	-0.028
-416.442	-80.514	0.071	-0.024
-415.428	170.192	-0.216	-0.312
-414.413	-28.095	-0.135	0.079
-413.398	-139.537	0.363	0.039
-412.384	-152.203	-0.070	0.005
-411.369	-200.000	0.018	-0.084
-410.355	107.414	-0.179	-0.215
-409.340	800.000	-0.019	-0.054
-408.325	-110.354	-0.290	-0.061
-407.311	800.000	0.110	0.424
-406.296	434.647	-0.128	0.280
-405.282	-83.308	0.232	-0.075
-404.267	190.555	0.024	0.036
-403.252	-200.000	0.000	0.017
-402.238	529.509	0.017	-0.039
-401.223	13.275	-0.164	-0.129
-400.209	160.455	-0.138	-0.195
-399.194	339.201	-0.194	-0.382
-398.179	-5.338	0.406	-0.282
-397.165	66.258	-0.058	-0.059
-396.150	-200.000	0.022	-0.182
-395.136	-110.042	-0.198	0.042
-394.121	259.078	-0.147	-0.257
-393.106	-43.521	-0.125	-0.064
-392.092	281.212	-0.118	0.214
-391.077	391.194	-0.064	-0.134
-390.063	-94.625	0.326	0.089
-389.048	63.299	0.150	-0.152
-388.033	67.776	0.078	-0.080
-387.019	-200.000	-0.032	0.152
-386.004	-82.892	0.234	-0.076
-384.990	52.604	-0.206	-0.198
-383.975	-90.936	0.222	0.064
-382.960	-18.113	-0.174	-0.110
-381.946	194.455	0.309	-0.473
-380.931	-167.492	-0.182	-0.007
-379.917	142.328	-0.095	0.127
-378.902	-147.106	0.075	0.006
-377.888	-200.000	-0.030	0.376
-376.873	345.240	0.082	-0.163
-375.858	-102.791	0.205	-0.049
-374.844	23.274	-0.087	0.072
-373.829	-200.000	0.008	0.051
-372.815	-9.995	0.158	-0.106
-371.800	-14.958	-0.064	-0.042
-370.785	-46.912	-0.123	-0.061
-369.771	-200.000	-0.008	0.205
-368.756	-111.411	-0.313	0.064
-367.742	517.786	-0.072	-0.171
-366.727	-28.262	-0.140	0.081
-365.712	436.681	0.121	-0.266
-364.698	800.000	-0.086	0.253
-363.683	150.007	0.183	0.250
-362.669	-115.617	0.362	0.069
-361.654	-38.321	0.127	0.068
-360.639	139.629	0.068	0.090
-359.625	-33.061	0.278	-0.155
-358.610	-200.000	-0.007	-0.059
-357.596	-51.909	0.231	0.108
-356.581	0.425	0.213	-0.154
-355.566	-65.674	-0.300	-0.121
-354.552	-75.161	0.179	0.064
-353.537	464.287	0.129	0.291
-352.523	-130.581	0.330	0.045
-351.508	98.067	-0.160	-0.186
-350.493	103.248	0.126	0.149
-349.479	48.360	-0.189	-0.178
-348.464	-200.000	-0.028	-0.207
-347.450	-200.000	0.004	-0.071
-346.435	47.670	0.161	-0.151
-345.420	108.366	0.078	-0.094
-344.406	800.000	-0.052	-0.172
-343.391	-153.914	0.414	-0.028
-342.377	725.914	-0.053	0.142
-341.362	53.051	0.277	0.267
-340.348	-124.824	-0.281	-0.044
-339.333	-78.252	-0.146	-0.050
-338.318	-115.499	0.161	0.030
-337.304	-200.000	-0.012	0.064
-336.289	-40.418	-0.177	0.092
-335.275	-28.640	-0.193	-0.112
-334.260	86.586	0.075	-0.083
-333.245	173.621	-0.102	0.148
-332.231	156.363	-0.093	0.129
-331.216	-63.543	0.111	0.046
-330.202	-5.166	-0.210	-0.145
-329.187	-47.777	0.143	-0.070
-328.172	800.000	-0.066	-0.202
-327.158	-68.037	0.148	-0.058
-326.143	127.635	-0.108	0.138
-325.129	-18.231	0.186	-0.117
-324.114	-78.367	-0.199	0.069
-323.099	462.120	-0.162	-0.365
-322.085	-106.501	-0.338	0.076
-321.070	232.710	-0.054	-0.089
-320.056	-24.119	-0.117	0.070
-319.041	631.110	-0.068	0.174
-318.026	-71.209	-0.165	0.062
-317.012	-200.000	-0.034	-0.235
-315.997	-200.000	0.003	0.036
-314.983	206.803	0.075	0.117
-313.968	242.346	-0.166	0.279
-312.953	-106.497	-0.126	-0.028
-311.939	-3.484	0.281	-0.197
-310.924	331.509	-0.031	-0.060
-309.910	-200.000	-0.027	-0.173
-308.895	361.508	0.130	-0.262
-307.880	-134.530	-0.408	0.050
-306.866	245.735	-0.082	0.139
-305.851	-37.947	-0.164	0.088
-304.837	57.953	0.082	-0.081
-303.822	-23.925	0.189	-0.114
-302.807	238.497	0.092	0.153
-301.793	-76.635	-0.332	-0.117
-300.778	-176.282	-0.295	-0.008
-299.764	-30.804	-0.313	-0.178
-298.749	27.946	-0.077	-0.065
-297.735	650.580	-0.094	-0.241
-296.720	-39.822	-0.129	0.068
-295.705	800.000	0.073	0.245
-294.691	734.781	-0.086	-0.232
-293.676	-89.614	0.167	-0.049
-292.662	-52.536	-0.130	-0.060
-291.647	-26.381	-0.211	0.124
-290.632	-200.000	0.001	-0.177
-289.618	-0.071	-0.058	0.041
-288.603	-1.026	-0.223	0.158
-287.589	-14.898	-0.182	0.117
-286.574	-200.000	0.015	0.149
-285.559	-114.809	0.349	0.067
-284.545	53.169	-0.203	-0.195
-283.530	-131.464	-0.176	0.023
-282.516	415.115	-0.168	0.359
-281.501	87.849	-0.300	-0.335
-280.486	285.483	0.029	-0.053
-279.472	124.610	-0.305	-0.385
-278.457	58.873	-0.117	0.115
-277.443	262.129	0.070	0.123
-276.428	-158.168	-0.186	0.011
-275.413	43.292	-0.216	0.198
-274.399	-111.581	0.278	-0.057
-273.384	-200.000	-0.026	0.170
-272.370	-200.000	-0.001	0.057
-271.355	-200.000	-0.007	0.118
-270.340	-26.221	0.229	-0.135
-269.326	-200.000	0.182	0.001
-268.311	-23.208	-0.094	-0.057
-267.297	32.268	-0.175	0.152
-266.282	800.000	-0.033	-0.140
-265.267	-200.000	-0.027	-0.121
-264.253	-126.275	0.067	0.010
-263.238	9.203	0.116	0.088
-262.224	329.195	-0.110	-0.212
-261.209	-92.408	-0.075	0.021
-260.195	505.030	0.096	0.224
-259.180	187.021	-0.036	0.054
-258.165	36.737	-0.073	0.065
-257.151	-137.056	0.252	-0.029
-256.136	-46.332	-0.078	-0.039
-255.122	-200.000	0.001	-0.070
-254.107	-200.000	-0.042	-0.248
-253.092	75.287	0.159	0.168
-252.078	-9.991	-0.173	0.116
-251.063	385.478	0.031	0.064
-250.049	-85.205	0.233	-0.073
-249.034	-73.125	-0.336	-0.124
-248.019	793.098	-0.101	-0.279
-247.005	-163.812	0.206	-0.010
-245.990	-94.345	0.274	-0.075
-244.976	-128.247	0.226	0.032
-243.961	179.992	0.093	0.137
-242.946	109.851	-0.167	0.202
-241.932	596.735	0.014	-0.036
-240.917	-49.647	0.061	-0.029
-239.903	-200.000	-0.002	0.010
-238.888	662.870	0.017	0.044
-237.873	-130.872	-0.240	0.032
-236.859	543.038	0.130	0.311
-235.844	-146.089	0.135	0.012
-234.830	-99.897	0.050	0.013
-233.815	36.038	0.364	0.321
-232.800	190.126	-0.163	-0.245
-231.786	211.110	-0.045	0.070
-230.771	279.264	-0.113	-0.202
-229.757	101.821	0.226	0.264
-228.742	-200.000	-0.068	-0.391
-227.727	-91.801	-0.193	0.055
-226.713	-96.554	0.335	0.089
-225.698	-131.854	-0.206	0.027
-224.684	-200.000	0.014	0.253
-223.669	-96.302	-0.353	0.094
-222.655	-108.896	0.256	-0.055
-221.640	-120.711	0.088	0.015
-220.625	-48.552	0.293	0.141
-219.611	-4.859	-0.219	-0.151
-218.596	169.530	0.106	-0.152
-217.582	-72.379	-0.245	-0.091
-216.567	7.674	-0.076	-0.057
-215.552	-59.674	0.214	-0.092
-214.538	800.000	0.040	0.146
-213.523	-200.000	-0.004	0.163
-212.509	-63.850	-0.285	-0.117
-211.494	42.569	-0.041	-0.037
-210.479	800.000	-0.038	-0.150
-209.465	-55.659	-0.282	0.126
-208.450	800.000	-0.015	-0.062
-207.436	-38.823	0.288	0.152
-206.421	523.941	0.028	0.066
-205.406	47.729	0.318	0.297
-204.392	313.896	0.132	-0.250
-203.377	-200.000	0.040	0.318
-202.363	-75.716	0.236	0.084
-201.348	-135.047	-0.112	-0.014
-200.333	-125.037	0.266	0.041
-199.319	-32.922	0.100	0.056
-198.304	142.857	0.179	-0.239
-197.290	800.000	0.117	-0.407
-196.275	800.000	0.028	-0.118
-195.260	800.000	-0.052	0.162
-194.246	-153.966	0.222	-0.015
-193.231	800.000	0.083	-0.246
-192.217	-90.126	0.402	0.117
-191.202	65.468	0.187	0.190
-190.187	439.606	0.164	0.360
-189.173	-72.509	-0.158	0.058
-188.158	800.000	-0.088	-0.296
-187.144	-143.239	-0.107	-0.010
-186.129	296.522	0.135	0.248
-185.114	209.285	0.097	-0.152
-184.100	80.197	-0.196	0.211
-183.085	-26.566	-0.022	-0.013
-182.071	6.865	0.064	-0.047
-181.056	59.296	-0.101	0.100
-180.042	190.121	0.130	0.196
-179.027	-183.382	0.228	0.004
-178.012	-30.355	0.281	-0.160
-176.998	-33.209	-0.177	-0.098
-175.983	-33.498	-0.402	0.222
-174.969	-31.428	-0.201	-0.113
-173.954	-200.000	0.005	0.094
-172.939	30.456	0.184	0.158
-171.925	-135.072	0.036	0.004
-170.910	31.590	-0.217	-0.187
-169.896	800.000	-0.071	0.196
-168.881	72.977	0.237	-0.248
-167.866	800.000	0.030	-0.110
-166.852	730.361	-0.046	0.123
-165.837	304.317	0.061	-0.114
-164.823	105.477	0.144	-0.170
-163.808	800.000	0.025	0.093
-162.793	308.021	0.076	0.142
-161.779	-25.242	-0.144	0.085
-160.764	-43.298	0.071	-0.036
-159.750	240.061	-0.149	0.249
-158.735	-131.067	0.292	0.039
-157.720	800.000	-0.056	-0.161
-156.706	23.895	-0.250	-0.206
-155.691	143.319	0.164	-0.219
-154.677	-62.140	0.251	0.105
-153.662	43.690	-0.162	0.149
-152.647	61.183	0.206	-0.204
-151.633	-88.415	-0.182	-0.054
-150.618	-200.000	-0.024	0.224
-149.604	-118.003	0.276	0.049
-148.589	152.656	-0.215	0.293
-147.574	-136.016	-0.188	-0.022
-146.560	-88.544	0.106	-0.032
-145.545	-141.878	-0.171	-0.017
-144.531	26.893	-0.237	-0.199
-143.516	-31.833	-0.304	-0.170
-142.502	-63.449	0.176	-0.072
-141.487	800.000	0.043	-0.187
-140.472	751.386	0.089	0.241
-139.458	-200.000	-0.027	-0.200
-138.443	337.579	-0.133	0.258
-137.429	-200.000	-0.021	-0.273
-136.414	220.663	-0.090	0.144
-135.399	-200.000	-0.086	0.450
-134.385	-130.937	-0.220	0.029
-133.370	-44.149	-0.131	0.066
-132.356	-82.011	0.107	-0.035
-131.341	-89.015	0.097	-0.029
-130.326	-30.839	0.325	0.183
-129.312	-200.000	-0.001	0.245
-128.297	-99.091	-0.009	0.002
-127.283	-51.519	-0.050	-0.023
-126.268	-40.321	-0.084	0.044
-125.253	800.000	0.090	0.272
-124.239	-163.909	-0.239	-0.011
-123.224	-200.000	-0.011	0.120
-122.210	800.000	0.047	-0.161
-121.195	-200.000	-0.021	0.232
