DTS Sentinel unit serial number:	SN413079Multiplexer serial number:	ORYXHardware model number:	OX4-SRSoftware version number:	ORYX F/W v4.00 Oryx Data Collector v3.7.2.0data status	okinstallation	princeton_trtdifferential loss correction	single-endedforward channel	channel 4reverse channel	N/Adate	2019/09/14time	11:05:35forward acquisition time	60.00reverse acquisition time	0.00gamma	496.2192k internal	0.2294k external	0.2294temperature offset calibration	1.0148default loss term (dB/km)	0.3790temperature slope calibration	1.0000multiplexer offset coefficient	1.0000multiplexer slope coefficient	1.0000fibre end	0.00T internal ref (°C)	36.19T ext. ref 1 (°C)	4.41T ext. ref 2 (°C)	33.93length (m)	temperature (°C)	Stokes	anti-Stokes-747.200	184.906	0.110	-0.167
-746.185	-94.761	-0.077	-0.021
-745.171	363.232	0.105	-0.216
-744.156	326.376	0.132	0.259
-743.142	36.455	0.275	-0.248
-742.127	-96.407	0.256	0.069
-741.112	-68.922	0.306	0.121
-740.098	-79.684	0.087	-0.030
-739.083	74.466	-0.303	0.326
-738.069	-200.000	-0.030	0.253
-737.054	83.474	-0.072	0.081
-736.039	-200.000	0.012	0.194
-735.025	-200.000	0.076	0.353
-734.010	680.740	-0.011	-0.029
-732.996	271.889	-0.201	-0.362
-731.981	-120.195	0.268	0.047
-730.966	212.129	-0.102	-0.165
-729.952	-19.589	-0.241	-0.152
-728.937	221.586	0.017	-0.028
-727.923	-136.513	0.111	-0.013
-726.908	34.476	0.123	0.110
-725.894	134.774	0.116	-0.155
-724.879	-36.543	-0.224	-0.123
-723.864	-200.000	0.008	-0.082
-722.850	-200.000	-0.038	-0.218
-721.835	513.094	0.112	-0.267
-720.821	55.557	0.371	-0.367
-719.806	-200.000	0.027	-0.271
-718.791	92.259	0.115	-0.132
-717.777	265.810	0.110	0.196
-716.762	403.735	-0.191	-0.410
-715.748	-88.480	-0.318	0.097
-714.733	139.469	-0.102	-0.137
-713.718	-104.986	-0.163	-0.038
-712.704	-200.000	-0.021	0.197
-711.689	-43.284	0.250	0.129
-710.675	173.904	0.131	0.193
-709.660	-95.412	0.157	0.043
-708.645	214.045	0.065	-0.104
-707.631	-149.450	0.239	-0.019
-706.616	27.778	0.292	0.251
-705.602	-54.904	0.240	-0.111
-704.587	-109.105	-0.106	-0.023
-703.572	79.129	0.056	-0.061
-702.558	-189.875	-0.409	-0.005
-701.543	-84.197	0.278	0.090
-700.529	259.458	0.010	-0.018
-699.514	-72.018	-0.312	-0.118
-698.499	-46.001	-0.177	0.089
-697.485	-200.000	0.028	-0.191
-696.470	67.132	-0.068	-0.070
-695.456	196.387	-0.085	-0.132
-694.441	135.145	-0.251	-0.332
-693.426	294.001	0.185	0.345
-692.412	-48.134	0.232	0.114
-691.397	236.806	0.030	-0.050
-690.383	50.709	-0.055	-0.053
-689.368	-22.304	0.067	0.042
-688.354	-88.142	-0.122	-0.037
-687.339	-200.000	-0.090	-0.000
-686.324	800.000	-0.037	-0.120
-685.310	-200.000	-0.023	-0.145
-684.295	-138.752	0.097	0.011
-683.281	-127.599	-0.190	0.028
-682.266	800.000	-0.069	-0.266
-681.251	-14.187	0.103	-0.067
-680.237	581.983	0.097	0.243
-679.222	-13.820	-0.212	0.140
-678.208	-22.053	0.169	-0.105
-677.193	439.333	-0.080	0.179
-676.178	-178.896	-0.104	0.002
-675.164	-94.289	-0.102	0.029
-674.149	10.583	-0.139	0.108
-673.135	187.527	0.224	-0.341
-672.120	20.260	-0.105	-0.086
-671.105	398.311	-0.177	-0.377
-670.091	-93.049	-0.157	-0.044
-669.076	-90.403	0.143	-0.042
-668.062	58.037	-0.053	-0.053
-667.047	116.150	0.173	0.216
-666.032	-200.000	0.026	0.243
-665.018	-83.877	0.211	-0.069
-664.003	268.756	-0.068	-0.122
-662.989	-8.919	0.312	0.213
-661.974	264.872	-0.119	0.211
-660.959	-33.987	-0.258	0.145
-659.945	-162.648	0.107	0.005
-658.930	-110.127	-0.231	-0.049
-657.916	-135.506	-0.142	-0.017
-656.901	187.463	0.216	0.329
-655.886	-56.473	-0.408	-0.185
-654.872	-7.041	-0.156	-0.108
-653.857	800.000	0.042	-0.141
-652.843	-102.725	0.279	0.068
-651.828	-200.000	-0.028	-0.162
-650.814	-108.006	0.150	-0.033
-649.799	-96.884	0.313	-0.084
-648.784	199.254	0.181	-0.282
-647.770	39.582	-0.134	0.122
-646.755	762.485	0.035	0.096
-645.741	560.282	-0.139	-0.342
-644.726	-63.823	0.237	0.099
-643.711	-137.264	-0.072	-0.008
-642.697	-200.000	-0.014	0.096
-641.682	-200.000	0.024	-0.185
-640.668	210.427	0.065	-0.104
-639.653	196.725	0.185	-0.287
-638.638	579.355	-0.190	-0.474
-637.624	179.410	-0.098	-0.146
-636.609	-155.345	0.185	0.012
-635.595	1.049	0.237	0.173
-634.580	-61.121	-0.078	0.034
-633.565	471.634	-0.043	-0.098
-632.551	450.755	0.056	-0.127
-631.536	602.976	-0.159	0.401
-630.522	106.023	0.097	-0.117
-629.507	126.934	0.047	0.061
-628.492	-158.254	0.132	-0.008
-627.478	800.000	-0.028	0.110
-626.463	-200.000	-0.005	-0.087
-625.449	403.607	-0.085	0.182
-624.434	-200.000	-0.037	-0.262
-623.419	800.000	-0.041	0.171
-622.405	276.039	-0.115	-0.208
-621.390	-61.822	0.372	-0.159
-620.376	334.959	-0.015	-0.029
-619.361	-53.977	-0.384	-0.178
-618.346	800.000	-0.003	-0.012
-617.332	-164.109	0.176	-0.008
-616.317	399.520	-0.075	-0.161
-615.303	480.359	-0.071	-0.165
-614.288	-24.286	0.092	-0.056
-613.273	-139.400	-0.322	0.035
-612.259	-152.312	0.269	0.020
-611.244	-27.507	-0.210	-0.124
-610.230	294.485	-0.018	-0.033
-609.215	34.219	-0.252	0.224
-608.201	49.891	0.207	0.199
-607.186	425.088	-0.031	0.067
-606.171	-71.901	-0.193	0.073
-605.157	-109.556	-0.342	0.073
-604.142	556.943	-0.057	-0.139
-603.128	-86.011	0.323	0.101
-602.113	422.028	0.068	-0.148
-601.098	-81.499	0.246	-0.082
-600.084	800.000	-0.059	-0.227
-599.069	-111.187	-0.381	0.079
-598.055	781.857	0.126	0.350
-597.040	-200.000	0.041	0.278
-596.025	-6.664	0.138	-0.095
-595.011	-200.000	0.043	-0.234
-593.996	-78.038	0.238	-0.083
-592.982	580.572	-0.087	0.216
-591.967	64.920	-0.189	0.194
-590.952	-86.235	-0.044	0.014
-589.938	213.892	-0.266	0.428
-588.923	-63.528	0.101	0.042
-587.909	4.832	0.304	-0.227
-586.894	-19.904	-0.071	0.045
-585.879	-82.633	0.110	-0.036
-584.865	-95.210	-0.087	0.024
-583.850	23.583	-0.268	0.224
-582.836	-99.198	-0.135	-0.035
-581.821	-143.614	-0.221	-0.021
-580.806	-200.000	-0.033	0.221
-579.792	800.000	0.053	-0.180
-578.777	-29.101	-0.076	-0.044
-577.763	8.529	0.095	0.073
-576.748	-156.906	-0.181	-0.011
-575.733	-88.880	-0.078	0.024
-574.719	800.000	0.057	0.185
-573.704	22.461	0.121	-0.101
-572.690	394.067	-0.035	0.074
-571.675	101.651	-0.190	0.225
-570.661	-200.000	-0.010	0.142
-569.646	187.997	-0.164	-0.249
-568.631	-95.843	0.148	-0.040
-567.617	800.000	0.031	-0.117
-566.602	-200.000	-0.113	-0.516
-565.588	-200.000	0.035	0.295
-564.573	64.598	-0.104	0.107
-563.558	257.525	-0.033	0.057
-562.544	92.262	-0.140	-0.161
-561.529	-200.000	-0.020	-0.101
-560.515	173.104	-0.128	-0.187
-559.500	-120.088	-0.384	0.067
-558.485	45.517	0.141	0.132
-557.471	-200.000	-0.054	-0.293
-556.456	-200.000	0.124	0.001
-555.442	800.000	-0.101	0.333
-554.427	-117.963	0.109	0.020
-553.412	174.418	0.209	-0.307
-552.398	800.000	0.047	-0.207
-551.383	-83.499	0.563	-0.183
-550.369	-57.288	0.366	0.163
-549.354	800.000	-0.063	-0.196
-548.339	800.000	-0.095	-0.331
-547.325	-200.000	0.032	0.180
-546.310	184.828	0.224	-0.338
-545.296	519.922	0.059	0.140
-544.281	-89.016	0.181	-0.054
-543.266	-25.937	0.068	0.041
-542.252	-133.621	-0.271	-0.034
-541.237	360.566	0.067	-0.136
-540.223	425.895	-0.079	-0.173
-539.208	-200.000	0.010	-0.124
-538.193	-200.000	-0.028	-0.202
-537.179	800.000	-0.091	0.268
-536.164	-48.491	-0.195	0.095
-535.150	-200.000	0.013	-0.284
-534.135	-200.000	-0.003	-0.340
-533.121	-40.909	0.197	0.103
-532.106	-200.000	0.087	0.454
-531.091	-62.795	-0.186	0.078
-530.077	43.774	0.035	-0.032
-529.062	-21.798	0.132	0.081
-528.048	800.000	0.083	0.234
-527.033	-27.768	-0.337	0.198
-526.018	-96.923	-0.180	0.048
-525.004	-159.785	0.446	-0.025
-523.989	-17.317	0.158	0.101
-522.975	76.991	-0.031	-0.033
-521.960	-200.000	-0.005	-0.190
-520.945	64.568	-0.054	-0.055
-519.931	176.143	-0.235	0.346
-518.916	-30.948	0.127	0.073
-517.902	-42.235	0.160	0.083
-516.887	283.700	-0.124	0.226
-515.872	-154.824	-0.325	-0.022
-514.858	-64.433	-0.252	-0.104
-513.843	279.034	0.121	-0.220
-512.829	-32.941	-0.233	-0.131
-511.814	-45.237	-0.164	-0.083
-510.799	289.632	0.094	-0.174
-509.785	-200.000	0.458	-0.001
-508.770	596.216	0.018	-0.046
-507.756	-62.665	-0.241	-0.101
-506.741	-75.235	0.125	-0.045
-505.726	22.207	0.330	-0.273
-504.712	591.928	0.010	-0.025
-503.697	-91.550	-0.368	0.106
-502.683	376.473	0.053	-0.110
-501.668	620.678	0.116	0.295
-500.653	-200.000	-0.015	0.367
-499.639	6.010	-0.179	-0.134
-498.624	416.788	-0.036	0.077
-497.610	562.986	0.135	0.332
-496.595	23.116	-0.248	0.206
-495.581	800.000	0.036	-0.127
-494.566	30.243	-0.182	0.158
-493.551	-200.000	0.042	0.227
-492.537	156.993	-0.234	0.328
-491.522	296.765	-0.058	-0.108
-490.508	-200.000	-0.013	0.156
-489.493	-200.000	-0.024	0.341
-488.478	-200.000	0.012	-0.155
-487.464	-124.143	-0.166	-0.026
-486.449	765.930	-0.048	0.133
-485.435	161.579	-0.100	0.142
-484.420	-200.000	0.075	-0.428
-483.405	-24.430	-0.060	0.036
-482.391	10.964	0.184	-0.143
-481.376	800.000	0.051	-0.148
-480.362	800.000	-0.068	0.241
-479.347	8.981	0.160	-0.122
-478.332	-108.858	0.086	0.019
-477.318	-15.430	-0.158	0.102
-476.303	-121.101	0.268	-0.046
-475.289	794.851	-0.167	-0.464
-474.274	800.000	0.053	-0.210
-473.259	116.602	0.048	0.059
-472.245	-119.283	0.298	0.053
-471.230	132.443	0.103	-0.135
-470.216	-5.665	0.038	0.026
-469.201	-40.193	0.256	-0.135
-468.186	-200.000	-0.001	-0.279
-467.172	-200.000	-0.032	0.451
-466.157	362.993	0.182	0.370
-465.143	-107.991	0.255	-0.056
-464.128	356.876	-0.038	-0.077
-463.113	87.884	0.188	0.211
-462.099	-121.002	0.161	-0.027
-461.084	800.000	0.074	-0.254
-460.070	-140.623	0.286	0.030
-459.055	412.853	-0.174	-0.373
-458.040	-14.226	0.192	-0.125
-457.026	-80.026	0.382	-0.129
-456.011	-61.175	0.134	-0.057
-454.997	-103.759	-0.050	-0.012
-453.982	6.630	0.188	0.141
-452.968	49.937	0.149	-0.143
-451.953	-200.000	-0.054	-0.351
-450.938	800.000	0.030	-0.128
-449.924	-36.202	-0.281	-0.153
-448.909	219.615	-0.075	0.121
-447.895	800.000	0.094	0.374
-446.880	-200.000	0.008	-0.152
-445.865	305.758	-0.086	-0.161
-444.851	-61.986	-0.219	-0.093
-443.836	513.179	-0.080	0.188
-442.822	-150.084	0.259	-0.020
-441.807	48.493	-0.234	-0.221
-440.792	-200.000	0.013	0.233
-439.778	-200.000	-0.146	0.000
-438.763	-89.522	0.243	0.072
-437.749	-87.495	0.321	0.098
-436.734	-117.675	0.461	0.084
-435.719	-72.571	0.094	0.035
-434.705	-130.921	-0.238	0.032
-433.690	-200.000	-0.034	-0.271
-432.676	-153.586	-0.110	-0.008
-431.661	-113.148	0.230	0.046
-430.646	-1.642	0.162	-0.115
-429.632	505.098	0.136	-0.317
-428.617	96.156	0.116	0.134
-427.603	226.427	0.045	0.074
-426.588	82.822	0.071	0.077
-425.573	-119.276	-0.142	-0.025
-424.559	-200.000	0.002	0.361
-423.544	-29.953	-0.223	-0.128
-422.530	-133.211	0.322	-0.041
-421.515	800.000	-0.106	0.418
-420.500	19.291	0.080	0.065
-419.486	-38.771	-0.095	-0.051
-418.471	-200.000	-0.005	-0.060
-417.457	-18.078	0.393	-0.249
-416.442	800.000	-0.031	-0.129
-415.428	169.836	-0.030	-0.043
-414.413	30.441	-0.112	-0.097
-413.398	-192.193	0.205	0.002
-412.384	50.437	-0.202	0.193
-411.369	-200.000	-0.001	0.299
-410.355	784.351	0.078	0.215
-409.340	219.125	0.001	0.002
-408.325	-200.000	0.021	0.126
-407.311	276.249	0.055	0.099
-406.296	-133.109	-0.081	-0.010
-405.282	-60.021	0.252	0.109
-404.267	-29.169	-0.293	-0.170
-403.252	-64.911	-0.126	-0.051
-402.238	-116.017	-0.103	0.019
-401.223	-200.000	-0.003	-0.115
-400.209	-161.763	-0.236	-0.012
-399.194	248.129	0.131	-0.223
-398.179	-200.000	0.012	-0.430
-397.165	-102.527	-0.412	0.099
-396.150	264.926	-0.032	-0.057
-395.136	20.589	-0.157	-0.128
-394.121	800.000	0.021	0.073
-393.106	446.076	0.093	0.206
-392.092	174.535	-0.067	-0.098
-391.077	-116.117	-0.231	-0.043
-390.063	-140.436	0.271	0.029
-389.048	-58.555	-0.293	-0.128
-388.033	31.030	-0.172	0.149
-387.019	-64.387	-0.160	0.066
-386.004	800.000	0.038	0.134
-384.990	-160.474	-0.455	-0.025
-383.975	-69.875	0.094	-0.036
-382.960	-138.677	-0.226	0.025
-381.946	-39.567	0.225	0.119
-380.931	-200.000	-0.013	-0.130
-379.917	122.442	0.087	0.110
-378.902	-150.450	-0.101	-0.008
-377.888	-128.069	-0.422	-0.061
-376.873	-163.298	-0.158	0.008
-375.858	-44.310	-0.174	0.088
-374.844	643.501	0.107	0.275
-373.829	-61.239	-0.204	0.087
-372.815	-149.529	0.366	-0.029
-371.800	800.000	-0.037	-0.155
-370.785	172.316	0.060	0.088
-369.771	800.000	-0.025	-0.102
-368.756	-45.581	-0.024	-0.012
-367.742	-200.000	0.002	0.148
-366.727	108.681	-0.286	-0.344
-365.712	12.203	-0.060	0.046
-364.698	800.000	0.021	-0.072
-363.683	-200.000	-0.010	-0.094
-362.669	-162.919	-0.184	-0.009
-361.654	220.830	-0.068	-0.111
-360.639	58.192	-0.168	0.166
-359.625	-200.000	-0.068	0.317
-358.610	116.069	-0.217	-0.267
-357.596	-200.000	0.009	-0.228
-356.581	800.000	-0.056	0.240
-355.566	-17.616	-0.256	0.162
-354.552	-82.369	-0.200	0.065
-353.537	-107.365	-0.171	0.038
-352.523	-200.000	0.012	0.110
-351.508	90.232	-0.255	0.287
-350.493	55.455	-0.035	-0.035
-349.479	90.018	0.067	0.075
-348.464	705.203	-0.055	0.147
-347.450	800.000	0.041	-0.132
-346.435	-45.779	0.084	-0.042
-345.420	-21.174	-0.183	0.113
-344.406	-86.185	-0.174	-0.054
-343.391	-98.362	0.111	-0.029
-342.377	800.000	0.031	-0.110
-341.362	14.031	-0.131	-0.102
-340.348	-113.931	-0.177	-0.035
-339.333	5.821	-0.339	-0.252
-338.318	-33.165	-0.037	0.021
-337.304	-83.258	0.083	-0.027
-336.289	-124.967	-0.208	0.032
-335.275	37.774	0.099	-0.088
-334.260	33.055	0.176	0.154
-333.245	414.280	0.033	0.071
-332.231	510.428	0.104	0.245
-331.216	800.000	-0.060	-0.222
-330.202	-200.000	0.009	0.240
-329.187	-200.000	0.011	0.320
-328.172	-146.001	0.195	-0.017
-327.158	-108.702	0.332	0.072
-326.143	20.904	0.134	0.109
-325.129	113.180	0.115	-0.140
-324.114	-152.125	-0.237	-0.017
-323.099	-99.494	-0.209	0.053
-322.085	-200.000	0.249	0.000
-321.070	-200.000	0.023	0.200
-320.056	-200.000	-0.036	-0.317
-319.041	255.218	-0.184	-0.316
-318.026	470.133	-0.092	0.207
-317.012	-200.000	0.036	-0.223
-315.997	103.524	0.329	-0.388
-314.983	24.391	0.266	-0.221
-313.968	707.874	0.125	-0.331
-312.953	605.398	-0.071	0.177
-311.939	23.723	0.114	-0.094
-310.924	186.666	0.150	0.225
-309.910	112.155	-0.142	0.173
-308.895	11.197	0.198	0.153
-307.880	-98.352	0.288	-0.074
-306.866	56.659	-0.194	0.189
-305.851	0.293	0.195	0.140
-304.837	-87.397	0.155	-0.047
-303.822	82.207	-0.077	-0.084
-302.807	-200.000	-0.012	-0.070
-301.793	-64.745	-0.195	0.079
-300.778	423.102	0.055	-0.118
-299.764	-200.000	-0.043	0.334
-298.749	6.990	0.161	0.121
-297.735	404.188	0.038	0.080
-296.720	-32.781	0.127	0.071
-295.705	160.387	0.088	0.123
-294.691	-200.000	-0.029	-0.201
-293.676	46.604	0.284	0.265
-292.662	229.947	-0.178	0.292
-291.647	13.544	0.304	-0.237
-290.632	800.000	-0.063	-0.196
-289.618	800.000	0.053	0.179
-288.603	233.462	-0.084	0.139
-287.589	54.676	-0.071	-0.069
-286.574	-164.264	0.277	0.013
-285.559	143.580	0.087	0.116
-284.545	-8.299	0.094	-0.063
-283.530	-107.986	0.285	0.062
-282.516	-99.325	-0.101	0.026
-281.501	-64.039	-0.238	0.098
-280.486	800.000	-0.086	-0.240
-279.472	33.754	-0.120	0.105
-278.457	308.217	-0.134	-0.251
-277.443	577.299	0.112	0.276
-276.428	-44.614	-0.128	0.064
-275.413	296.974	0.093	0.172
-274.399	64.039	0.114	0.115
-273.384	94.891	0.166	-0.190
-272.370	800.000	0.064	-0.221
-271.355	-87.307	-0.330	-0.100
-270.340	103.203	0.152	0.178
-269.326	-93.274	0.217	0.060
-268.311	38.595	-0.230	-0.206
-267.297	-119.404	-0.333	0.058
-266.282	-200.000	0.010	-0.205
-265.267	94.198	-0.135	-0.154
-264.253	577.767	0.083	-0.204
-263.238	-200.000	0.015	0.226
-262.224	230.382	0.044	0.072
-261.209	-51.606	-0.220	-0.103
-260.195	542.858	0.094	-0.225
-259.180	-78.057	-0.160	-0.055
-258.165	565.887	-0.129	0.314
-257.151	89.924	-0.097	-0.109
-256.136	800.000	0.033	-0.112
-255.122	-200.000	0.008	0.276
-254.107	-72.746	0.197	-0.073
-253.092	66.551	-0.256	0.261
-252.078	506.865	0.099	0.230
-251.063	-68.054	-0.420	-0.164
-250.049	-200.000	-0.028	0.302
-249.034	-27.302	0.185	-0.108
-248.019	617.719	-0.116	-0.292
-247.005	-127.061	-0.268	-0.039
-245.990	17.163	0.090	-0.071
-244.976	-161.894	0.240	0.012
-243.961	-143.718	0.272	0.026
-242.946	-10.101	0.411	-0.274
-241.932	107.791	-0.160	-0.191
-240.917	725.535	-0.093	0.247
-239.903	-30.250	-0.190	-0.108
-238.888	-61.955	-0.445	-0.187
-237.873	-200.000	0.033	-0.145
-236.859	-153.085	-0.183	-0.013
-235.844	96.733	-0.177	0.203
-234.830	-34.319	0.294	0.162
-233.815	23.173	0.101	0.083
-232.800	81.460	-0.146	0.158
-231.786	-10.352	-0.255	0.169
-230.771	27.662	-0.044	-0.037
-229.757	-200.000	-0.007	-0.128
-228.742	23.131	-0.153	0.126
-227.727	-78.756	0.052	-0.018
-226.713	-84.104	-0.266	0.085
-225.698	27.584	0.228	0.192
-224.684	-66.648	-0.051	0.020
-223.669	44.409	-0.120	-0.110
-222.655	-102.621	-0.101	0.024
-221.640	-9.281	0.021	0.014
-220.625	-34.029	0.217	-0.119
-219.611	-136.148	-0.068	0.008
-218.596	348.914	0.069	-0.137
-217.582	-81.618	0.140	0.046
-216.567	-200.000	-0.029	-0.450
-215.552	-200.000	-0.026	-0.153
-214.538	49.251	0.231	0.218
-213.523	55.038	0.016	0.015
-212.509	278.840	-0.077	0.138
-211.494	-53.582	-0.177	-0.081
-210.479	8.669	-0.277	-0.209
-209.465	800.000	-0.070	-0.243
-208.450	-182.133	-0.136	0.003
-207.436	-124.232	-0.076	0.012
-206.421	758.121	0.068	0.185
-205.406	-101.571	-0.299	0.073
-204.392	-94.312	-0.036	-0.010
-203.377	-126.080	0.205	0.031
-202.363	-86.703	0.193	0.059
-201.348	73.000	-0.057	0.060
-200.333	402.941	0.057	-0.119
-199.319	-57.234	0.307	-0.135
-198.304	0.707	-0.082	-0.059
-197.290	13.633	0.153	-0.119
-196.275	-200.000	-0.085	0.000
-195.260	71.990	0.081	0.084
-194.246	-106.409	-0.160	-0.036
-193.231	87.245	0.113	0.126
-192.217	46.307	-0.111	-0.103
-191.202	135.585	0.116	0.151
-190.187	-200.000	0.004	0.326
-189.173	-40.800	-0.385	0.199
-188.158	-200.000	0.031	0.156
-187.144	7.465	0.081	-0.060
-186.129	145.980	-0.099	0.133
-185.114	1.670	0.155	-0.112
-184.100	9.823	0.050	-0.038
-183.085	108.801	0.302	0.361
-182.071	-69.636	-0.034	-0.013
-181.056	-200.000	-0.035	0.265
-180.042	731.251	0.034	-0.090
-179.027	-79.761	0.154	0.052
-178.012	496.824	-0.174	-0.400
-176.998	-97.326	-0.217	0.057
-175.983	-31.118	-0.234	0.132
-174.969	101.006	0.191	-0.222
-173.954	-20.917	0.240	0.147
-172.939	-200.000	-0.003	-0.127
-171.925	151.117	0.322	-0.438
-170.910	-200.000	0.010	0.095
-169.896	55.841	0.092	0.089
-168.881	-68.910	0.026	0.010
-167.866	-99.699	-0.113	-0.028
-166.852	-8.357	0.140	-0.094
-165.837	231.116	0.110	-0.180
-164.823	141.429	0.188	0.249
-163.808	104.465	0.103	0.121
-162.793	-52.466	0.143	-0.066
-161.779	4.995	0.099	0.073
-160.764	199.094	0.080	-0.123
-159.750	800.000	0.073	0.282
-158.735	561.069	-0.242	0.585
-157.720	1.418	0.136	-0.098
-156.706	35.287	0.138	-0.121
-155.691	150.244	-0.146	0.199
-154.677	-24.224	-0.049	-0.030
-153.662	-110.240	0.378	0.079
-152.647	36.496	0.008	0.007
-151.633	-70.902	0.200	-0.075
-150.618	800.000	-0.022	-0.090
-149.604	50.614	0.081	0.077
-148.589	-168.277	-0.416	0.016
-147.574	104.583	0.108	0.127
-146.560	-43.790	-0.204	-0.103
-145.545	-23.744	-0.301	-0.180
-144.531	427.366	-0.061	-0.132
-143.516	-200.000	-0.074	0.543
-142.502	584.767	-0.112	-0.276
-141.487	800.000	-0.072	-0.228
-140.472	118.104	-0.097	0.119
-139.458	1.636	-0.094	0.067
-138.443	-200.000	0.038	-0.217
-137.429	14.584	-0.180	0.140
-136.414	-43.881	0.083	0.042
-135.399	214.470	0.207	-0.327
-134.385	335.277	-0.039	-0.075
-133.370	-96.640	0.291	-0.077
-132.356	-51.679	-0.081	-0.038
-131.341	-46.852	0.420	0.205
-130.326	-103.104	0.131	0.031
-129.312	-86.267	-0.127	-0.039
-128.297	-200.000	-0.009	-0.133
-127.283	118.918	-0.094	0.116
-126.268	-127.249	0.168	0.025
-125.253	23.388	-0.184	-0.151
-124.239	-96.474	-0.153	0.040
-123.224	-98.967	0.086	-0.022
-122.210	-57.400	0.364	-0.159
-121.195	164.630	0.155	0.218
