DTS Sentinel unit serial number:	SN413079Multiplexer serial number:	ORYXHardware model number:	OX4-SRSoftware version number:	ORYX F/W v4.00 Oryx Data Collector v3.7.2.0data status	okinstallation	princeton_trtdifferential loss correction	single-endedforward channel	channel 4reverse channel	N/Adate	2019/09/14time	13:49:35forward acquisition time	60.00reverse acquisition time	0.00gamma	496.2192k internal	0.2293k external	0.2293temperature offset calibration	1.0150default loss term (dB/km)	0.3790temperature slope calibration	1.0000multiplexer offset coefficient	1.0000multiplexer slope coefficient	1.0000fibre end	0.00T internal ref (°C)	37.81T ext. ref 1 (°C)	4.97T ext. ref 2 (°C)	33.44length (m)	temperature (°C)	Stokes	anti-Stokes-747.200	-13.695	0.325	0.215
-746.185	800.000	0.095	0.322
-745.171	42.160	-0.190	0.176
-744.156	-93.485	-0.228	0.065
-743.142	223.570	0.304	-0.502
-742.127	-200.000	-0.021	0.248
-741.112	3.429	-0.084	-0.063
-740.098	800.000	-0.068	0.226
-739.083	55.564	0.251	-0.249
-738.069	-200.000	-0.061	0.484
-737.054	26.038	-0.216	0.184
-736.039	-200.000	0.014	-0.123
-735.025	-18.285	-0.228	-0.146
-734.010	-85.770	-0.197	-0.062
-732.996	115.319	-0.210	-0.262
-731.981	242.622	-0.243	-0.416
-730.966	-200.000	-0.004	-0.063
-729.952	36.506	-0.215	-0.194
-728.937	-30.604	-0.079	-0.046
-727.923	-200.000	-0.042	-0.363
-726.908	-151.928	0.029	0.002
-725.894	800.000	-0.054	-0.206
-724.879	800.000	-0.100	-0.302
-723.864	-126.429	-0.243	-0.037
-722.850	-200.000	-0.079	0.375
-721.835	-200.000	-0.025	0.146
-720.821	79.082	-0.178	0.194
-719.806	-200.000	0.008	0.149
-718.791	-19.488	-0.192	-0.122
-717.777	-105.997	0.109	-0.025
-716.762	-85.310	-0.394	0.126
-715.748	123.836	0.085	-0.109
-714.733	-153.850	-0.157	0.011
-713.718	312.700	-0.098	0.187
-712.704	57.916	0.121	-0.121
-711.689	-99.665	-0.171	0.044
-710.675	188.891	0.387	-0.592
-709.660	-145.687	0.184	0.017
-708.645	277.010	-0.090	0.164
-707.631	-14.501	0.016	-0.010
-706.616	-125.946	-0.184	-0.028
-705.602	136.753	0.173	-0.231
-704.587	-5.747	-0.273	0.191
-703.572	282.140	0.068	-0.125
-702.558	103.748	-0.140	0.168
-701.543	800.000	-0.055	0.216
-700.529	268.429	0.091	-0.163
-699.514	150.231	-0.031	-0.042
-698.499	-42.617	-0.260	-0.135
-697.485	-200.000	0.004	0.082
-696.470	800.000	-0.107	0.336
-695.456	74.046	-0.189	0.202
-694.441	218.721	0.115	-0.187
-693.426	-19.537	0.473	0.299
-692.412	800.000	0.015	0.053
-691.397	4.850	0.115	0.086
-690.383	-200.000	0.055	-0.258
-689.368	23.374	-0.214	0.180
-688.354	-200.000	-0.001	0.153
-687.339	401.384	0.050	0.107
-686.324	-172.518	-0.321	0.010
-685.310	-134.353	-0.131	-0.016
-684.295	122.731	-0.246	-0.315
-683.281	-186.265	-0.064	0.001
-682.266	124.757	0.124	-0.160
-681.251	626.001	0.147	0.379
-680.237	526.695	-0.048	-0.115
-679.222	30.342	-0.127	0.111
-678.208	109.227	-0.204	-0.250
-677.193	141.288	0.090	0.121
-676.178	-200.000	0.024	-0.326
-675.164	297.645	0.141	-0.264
-674.149	-44.301	-0.172	-0.088
-673.135	-92.245	0.165	-0.048
-672.120	305.742	-0.070	0.133
-671.105	-200.000	0.004	-0.203
-670.091	424.277	-0.061	-0.134
-669.076	800.000	0.073	0.279
-668.062	209.864	-0.054	-0.087
-667.047	321.446	-0.178	-0.345
-666.032	-200.000	0.031	-0.183
-665.018	34.211	-0.205	-0.182
-664.003	800.000	0.082	0.231
-662.989	-19.568	-0.299	0.189
-661.974	29.599	-0.114	0.099
-660.959	-145.352	0.135	-0.012
-659.945	800.000	-0.029	0.081
-658.930	800.000	0.038	-0.152
-657.916	153.301	0.102	0.142
-656.901	-90.019	0.180	0.054
-655.886	-200.000	0.017	-0.250
-654.872	-92.260	0.246	-0.071
-653.857	-106.927	-0.162	-0.037
-652.843	58.558	0.113	-0.113
-651.828	-76.748	-0.159	-0.057
-650.814	-55.754	0.188	0.086
-649.799	294.326	-0.050	-0.093
-648.784	472.523	0.114	0.262
-647.770	-102.728	-0.335	0.081
-646.755	12.109	-0.134	-0.105
-645.741	378.264	0.073	0.152
-644.726	-144.392	-0.330	-0.031
-643.711	-16.974	0.321	-0.207
-642.697	337.303	0.111	-0.220
-641.682	-84.547	0.152	-0.049
-640.668	74.770	0.101	-0.109
-639.653	-200.000	0.024	-0.145
-638.638	-95.711	0.138	-0.038
-637.624	63.038	-0.052	-0.053
-636.609	27.124	-0.134	-0.114
-635.595	-65.484	0.138	0.056
-634.580	-116.439	-0.410	0.077
-633.565	800.000	-0.081	-0.298
-632.551	336.501	0.090	-0.178
-631.536	241.374	0.137	0.233
-630.522	86.605	-0.187	0.211
-629.507	-200.000	0.016	-0.423
-628.492	-25.779	-0.199	-0.119
-627.478	-200.000	0.028	-0.235
-626.463	-180.641	-0.329	0.007
-625.449	-149.524	-0.194	-0.016
-624.434	-82.748	0.240	-0.079
-623.419	800.000	-0.116	0.354
-622.405	800.000	-0.087	0.252
-621.390	-111.289	-0.454	-0.095
-620.376	-24.597	0.059	0.036
-619.361	511.130	-0.200	-0.474
-618.346	800.000	-0.136	0.460
-617.332	46.943	0.066	-0.062
-616.317	-41.019	0.399	-0.210
-615.303	33.781	-0.324	0.287
-614.288	-97.679	0.276	-0.073
-613.273	-165.990	0.289	0.013
-612.259	44.504	-0.253	-0.237
-611.244	273.217	0.157	0.282
-610.230	-52.956	0.140	-0.066
-609.215	-13.335	-0.061	-0.040
-608.201	-200.000	0.013	-0.114
-607.186	-64.202	-0.117	-0.049
-606.171	-200.000	0.048	-0.385
-605.157	241.090	0.159	0.270
-604.142	-189.301	-0.177	0.002
-603.128	54.124	-0.192	0.188
-602.113	31.323	0.108	0.094
-601.098	-35.006	-0.044	-0.024
-600.084	122.883	-0.262	-0.333
-599.069	800.000	0.054	-0.190
-598.055	-18.783	-0.247	0.156
-597.040	-44.252	-0.136	0.069
-596.025	136.163	-0.168	0.222
-595.011	6.018	-0.016	-0.012
-593.996	71.500	0.192	-0.202
-592.982	251.950	-0.047	0.082
-591.967	83.224	-0.143	-0.158
-590.952	-152.368	0.181	-0.013
-589.938	800.000	-0.085	0.261
-588.923	150.064	0.112	0.154
-587.909	-200.000	-0.029	-0.210
-586.894	800.000	-0.120	-0.357
-585.879	-200.000	-0.026	0.244
-584.865	-107.301	0.145	0.032
-583.850	5.845	0.099	0.075
-582.836	-22.391	-0.112	0.069
-581.821	-126.661	-0.298	-0.045
-580.806	397.060	-0.083	0.176
-579.792	-23.467	0.189	-0.116
-578.777	-78.895	0.288	0.100
-577.763	-0.800	0.178	0.128
-576.748	-102.705	-0.184	0.044
-575.733	-25.764	0.194	-0.116
-574.719	99.469	0.228	-0.268
-573.704	133.022	0.134	0.175
-572.690	-103.095	0.254	0.061
-571.675	89.893	0.067	0.076
-570.661	-16.948	0.161	0.104
-569.646	-200.000	-0.025	-0.185
-568.631	-200.000	0.013	-0.373
-567.617	-31.934	-0.211	0.120
-566.602	253.396	-0.058	0.101
-565.588	-105.136	-0.266	-0.062
-564.573	-187.104	-0.226	-0.003
-563.558	-173.228	0.366	-0.011
-562.544	800.000	0.161	0.506
-561.529	497.432	-0.132	0.308
-560.515	-34.226	-0.126	0.070
-559.500	-7.108	-0.272	-0.187
-558.485	-29.658	0.029	-0.017
-557.471	142.021	0.062	0.084
-556.456	101.661	0.056	-0.066
-555.442	126.542	-0.286	-0.367
-554.427	800.000	-0.139	-0.417
-553.412	800.000	-0.066	-0.281
-552.398	-110.672	-0.192	-0.040
-551.383	-200.000	-0.006	-0.162
-550.369	-100.958	-0.355	-0.088
-549.354	-97.558	-0.292	-0.077
-548.339	800.000	0.045	0.128
-547.325	141.375	-0.180	0.242
-546.310	-200.000	-0.023	-0.163
-545.296	64.176	-0.153	-0.157
-544.281	-200.000	0.003	-0.114
-543.266	32.309	-0.091	-0.079
-542.252	421.924	0.185	-0.403
-541.237	-45.865	0.108	0.054
-540.223	131.301	0.043	0.056
-539.208	-163.552	-0.418	0.020
-538.193	-200.000	-0.012	0.156
-537.179	566.780	0.073	0.180
-536.164	-130.835	-0.189	0.026
-535.150	-151.611	0.167	0.013
-534.135	-17.776	-0.186	-0.119
-533.121	-162.562	0.185	0.009
-532.106	-61.888	0.266	-0.113
-531.091	-200.000	-0.061	0.285
-530.077	-144.184	0.166	-0.016
-529.062	-67.709	0.081	-0.032
-528.048	-25.321	-0.254	-0.152
-527.033	-200.000	-0.009	-0.071
-526.018	-200.000	0.016	-0.077
-525.004	-36.579	0.063	0.034
-523.989	-168.066	-0.082	0.003
-522.975	-200.000	0.025	-0.129
-521.960	-117.364	0.210	0.039
-520.945	-159.562	-0.101	0.006
-519.931	-155.580	0.314	-0.021
-518.916	-200.000	0.024	-0.194
-517.902	12.488	0.169	-0.133
-516.887	-120.841	-0.213	-0.036
-515.872	-200.000	-0.014	0.108
-514.858	-200.000	0.009	0.143
-513.843	58.091	0.205	0.203
-512.829	-73.435	0.095	-0.035
-511.814	10.554	0.074	0.057
-510.799	40.254	-0.061	-0.056
-509.785	603.924	-0.061	0.155
-508.770	2.942	0.354	-0.260
-507.756	46.158	-0.253	-0.238
-506.741	-41.185	-0.425	-0.223
-505.726	743.795	0.059	0.161
-504.712	270.860	0.039	0.069
-503.697	-81.393	0.194	0.065
-502.683	-200.000	-0.022	-0.099
-501.668	56.875	-0.157	0.155
-500.653	86.889	0.129	0.144
-499.639	792.408	-0.065	-0.181
-498.624	-20.836	0.494	0.307
-497.610	-185.779	0.423	-0.006
-496.595	-200.000	-0.007	0.127
-495.581	-8.380	-0.171	-0.117
-494.566	-71.754	-0.299	-0.113
-493.551	-200.000	-0.040	0.355
-492.537	47.246	0.128	0.120
-491.522	124.273	0.224	0.286
-490.508	426.068	-0.091	-0.199
-489.493	76.579	0.240	0.257
-488.478	800.000	0.044	0.128
-487.464	-120.409	-0.143	0.025
-486.449	-200.000	0.028	-0.179
-485.435	576.324	-0.056	0.137
-484.420	21.453	-0.219	-0.180
-483.405	-99.024	0.275	0.071
-482.391	427.829	0.119	-0.260
-481.376	28.691	0.222	-0.191
-480.362	800.000	-0.055	0.217
-479.347	110.495	-0.131	-0.160
-478.332	6.928	0.144	0.109
-477.318	-121.713	-0.167	0.028
-476.303	99.898	-0.062	-0.073
-475.289	-17.021	0.051	-0.033
-474.274	-131.981	0.055	0.007
-473.259	27.728	-0.052	-0.045
-472.245	-64.321	0.359	0.148
-471.230	-52.563	-0.130	-0.061
-470.216	-72.439	0.384	-0.144
-469.201	-200.000	0.022	-0.322
-468.186	29.777	0.237	-0.204
-467.172	209.688	0.113	-0.179
-466.157	-92.166	0.090	-0.026
-465.143	-64.795	0.231	-0.095
-464.128	26.973	-0.213	-0.181
-463.113	154.610	0.118	-0.165
-462.099	-35.567	-0.192	-0.105
-461.084	309.040	-0.064	0.122
-460.070	238.160	-0.017	-0.029
-459.055	83.260	-0.334	-0.368
-458.040	-49.480	-0.099	-0.048
-457.026	138.392	0.150	-0.199
-456.011	-131.898	-0.244	-0.032
-454.997	-167.185	0.305	-0.012
-453.982	16.145	-0.140	0.111
-452.968	-200.000	0.109	0.585
-451.953	374.872	-0.137	0.281
-450.938	-7.086	0.161	0.110
-449.924	468.824	0.139	-0.316
-448.909	-11.892	-0.176	0.116
-447.895	289.685	0.081	-0.149
-446.880	-200.000	-0.006	-0.210
-445.865	36.310	-0.118	-0.105
-444.851	-20.156	-0.109	-0.068
-443.836	-141.411	-0.193	-0.020
-442.822	-200.000	0.014	0.187
-441.807	406.545	0.109	-0.234
-440.792	-126.859	-0.388	0.058
-439.778	14.060	0.147	0.116
-438.763	-118.597	0.232	0.042
-437.749	-148.073	0.128	0.011
-436.734	195.745	-0.108	0.165
-435.719	-85.260	-0.045	-0.014
-434.705	800.000	-0.096	-0.394
-433.690	6.008	0.202	0.151
-432.676	-200.000	0.005	-0.128
-431.661	-200.000	0.029	0.330
-430.646	143.627	-0.187	0.252
-429.632	-104.839	0.045	0.010
-428.617	-141.297	-0.069	0.007
-427.603	615.536	-0.108	-0.274
-426.588	-37.649	0.067	0.036
-425.573	-191.922	-0.085	-0.001
-424.559	-176.738	0.385	0.010
-423.544	5.011	0.239	-0.178
-422.530	-8.904	-0.145	-0.098
-421.515	-200.000	0.023	0.120
-420.500	11.358	-0.196	0.151
-419.486	423.562	-0.042	0.091
-418.471	-140.715	-0.076	0.008
-417.457	800.000	-0.050	-0.177
-416.442	-200.000	-0.034	-0.229
-415.428	337.955	-0.037	0.073
-414.413	76.192	0.102	0.109
-413.398	145.819	-0.092	-0.125
-412.384	-200.000	0.054	0.315
-411.369	314.667	0.092	0.176
-410.355	181.900	0.228	-0.339
-409.340	258.361	0.116	-0.202
-408.325	-102.295	0.255	-0.062
-407.311	129.294	0.241	0.311
-406.296	474.048	0.151	-0.345
-405.282	-98.974	-0.295	0.076
-404.267	-47.946	0.177	0.087
-403.252	-200.000	0.010	-0.170
-402.238	77.534	0.256	0.275
-401.223	-122.870	0.324	-0.053
-400.209	-98.899	-0.142	-0.036
-399.194	190.781	0.115	0.175
-398.179	-35.014	0.084	-0.046
-397.165	-200.000	-0.020	0.188
-396.150	-200.000	0.010	0.260
-395.136	42.658	-0.084	0.077
-394.121	400.342	0.088	0.185
-393.106	-15.593	0.376	0.242
-392.092	-98.809	-0.225	0.058
-391.077	151.156	-0.274	0.376
-390.063	-99.755	0.199	-0.050
-389.048	-98.554	0.439	0.113
-388.033	17.600	-0.158	0.127
-387.019	-129.418	0.100	-0.014
-386.004	286.018	0.223	-0.407
-384.990	145.204	-0.269	0.363
-383.975	-7.504	0.245	0.167
-382.960	-140.144	0.331	-0.035
-381.946	-73.434	-0.190	0.070
-380.931	800.000	0.069	0.298
-379.917	-12.699	0.189	0.125
-378.902	141.831	-0.093	-0.124
-377.888	345.352	0.136	0.270
-376.873	246.606	0.125	0.213
-375.858	82.898	0.205	0.225
-374.844	-200.000	-0.023	0.320
-373.829	464.757	0.122	0.276
-372.815	800.000	0.059	-0.211
-371.800	-200.000	0.042	-0.199
-370.785	-67.905	0.181	-0.071
-369.771	109.011	0.136	-0.164
-368.756	-200.000	0.007	-0.098
-367.742	239.635	-0.053	0.089
-366.727	-123.642	0.149	0.024
-365.712	696.919	0.063	-0.166
-364.698	-180.029	-0.372	-0.008
-363.683	800.000	0.076	-0.327
-362.669	-78.307	0.149	0.051
-361.654	500.534	-0.133	-0.308
-360.639	156.047	-0.093	0.130
-359.625	18.578	0.158	0.127
-358.610	-200.000	-0.002	-0.031
-357.596	51.486	-0.057	0.055
-356.581	-89.197	-0.184	0.055
-355.566	69.014	-0.174	0.180
-354.552	-26.124	0.106	0.063
-353.537	-200.000	-0.006	-0.096
-352.523	-38.577	-0.221	0.118
-351.508	-200.000	0.002	0.233
-350.493	366.973	0.127	-0.258
-349.479	203.277	0.061	0.095
-348.464	-200.000	0.002	-0.072
-347.450	-200.000	0.019	0.302
-346.435	472.290	0.063	0.143
-345.420	50.139	-0.162	0.154
-344.406	34.250	0.172	0.151
-343.391	-117.623	0.320	-0.058
-342.377	-200.000	-0.007	-0.222
-341.362	-149.711	-0.065	0.005
-340.348	-119.698	-0.231	0.040
-339.333	169.911	-0.202	0.291
-338.318	-155.173	-0.098	0.006
-337.304	800.000	0.067	-0.245
-336.289	-65.798	-0.190	0.077
-335.275	-95.141	-0.236	0.064
-334.260	-41.102	0.117	-0.061
-333.245	-200.000	-0.002	-0.069
-332.231	405.877	0.089	0.188
-331.216	-200.000	-0.031	0.297
-330.202	-200.000	-0.190	0.001
-329.187	10.196	0.200	-0.153
-328.172	-98.324	-0.312	-0.081
-327.158	800.000	0.089	-0.388
-326.143	-200.000	-0.052	0.285
-325.129	-133.297	0.103	-0.013
-324.114	-50.641	-0.088	-0.042
-323.099	-39.924	-0.244	-0.128
-322.085	57.107	-0.134	0.132
-321.070	110.446	-0.199	0.241
-320.056	9.861	-0.115	-0.087
-319.041	343.757	0.104	0.205
-318.026	339.027	0.066	0.129
-317.012	17.870	0.070	0.056
-315.997	800.000	0.049	0.146
-314.983	393.928	-0.146	-0.306
-313.968	-32.654	-0.106	0.059
-312.953	-3.386	-0.443	0.310
-311.939	134.984	0.197	-0.257
-310.924	-200.000	-0.014	0.085
-309.910	199.362	0.159	0.246
-308.895	83.281	-0.228	0.250
-307.880	-200.000	-0.014	0.327
-306.866	-200.000	0.007	-0.380
-305.851	-5.086	-0.128	0.088
-304.837	-192.222	-0.205	-0.002
-303.822	-35.458	0.046	0.025
-302.807	800.000	-0.085	-0.319
-301.793	-102.022	0.072	0.018
-300.778	-144.605	-0.186	-0.017
-299.764	-200.000	0.009	-0.165
-298.749	-99.945	0.279	0.070
-297.735	800.000	0.060	-0.257
-296.720	-200.000	0.007	-0.082
-295.705	-180.543	-0.133	-0.003
-294.691	70.881	0.222	0.231
-293.676	12.614	0.207	-0.160
-292.662	153.915	0.212	-0.293
-291.647	-0.739	0.464	-0.331
-290.632	-142.670	0.159	-0.016
-289.618	800.000	-0.071	-0.227
-288.603	113.797	-0.083	0.101
-287.589	16.200	0.109	0.087
-286.574	159.390	-0.065	-0.091
-285.559	-23.067	-0.144	0.087
-284.545	-127.953	-0.320	0.046
-283.530	-17.245	0.035	0.022
-282.516	-15.965	-0.176	0.113
-281.501	-41.045	-0.210	-0.109
-280.486	800.000	-0.083	0.276
-279.472	-81.848	-0.299	-0.098
-278.457	-132.110	0.183	-0.024
-277.443	176.890	-0.067	0.097
-276.428	-88.353	-0.212	-0.064
-275.413	-132.288	0.065	-0.008
-274.399	17.654	-0.232	-0.185
-273.384	-200.000	0.072	-0.353
-272.370	325.966	0.132	0.255
-271.355	-200.000	-0.023	0.146
-270.340	-72.701	-0.123	-0.045
-269.326	-96.617	0.278	0.074
-268.311	-84.011	-0.199	0.064
-267.297	-16.552	-0.134	0.085
-266.282	71.984	-0.075	0.078
-265.267	-12.710	-0.227	-0.149
-264.253	-139.579	0.325	0.035
-263.238	-98.477	0.117	-0.030
-262.224	286.624	0.103	0.186
-261.209	-125.257	0.211	-0.032
-260.195	34.183	-0.184	0.161
-259.180	-30.247	0.214	0.122
-258.165	4.964	-0.102	0.076
-257.151	39.798	0.177	-0.160
-256.136	299.407	-0.070	-0.129
-255.122	-85.890	-0.266	0.083
-254.107	109.942	0.105	-0.127
-253.092	800.000	0.065	-0.235
-252.078	493.215	0.042	-0.097
-251.063	-200.000	-0.028	-0.181
-250.049	81.454	0.212	0.230
-249.034	800.000	-0.049	0.141
-248.019	-200.000	0.011	0.065
-247.005	4.258	-0.081	-0.059
-245.990	-104.979	0.166	0.038
-244.976	4.059	0.185	0.136
-243.961	-151.894	0.309	0.023
-242.946	86.544	0.118	0.130
-241.932	73.578	0.158	-0.166
-240.917	-80.397	-0.176	-0.059
-239.903	-103.226	-0.201	-0.048
-238.888	-111.148	0.104	-0.021
-237.873	-31.673	0.298	-0.168
-236.859	-54.907	-0.328	0.148
-235.844	127.980	0.118	0.150
-234.830	65.448	-0.111	0.113
-233.815	-75.188	0.227	-0.081
-232.800	-108.735	0.107	0.023
-231.786	-61.142	-0.528	0.223
-230.771	2.164	-0.096	0.070
-229.757	-68.568	-0.417	-0.162
-228.742	35.893	-0.076	0.067
-227.727	-47.106	-0.334	-0.163
-226.713	20.544	0.189	-0.153
-225.698	1.103	-0.159	-0.114
-224.684	800.000	0.118	-0.349
-223.669	-118.885	-0.316	0.056
-222.655	-30.370	0.098	-0.056
-221.640	785.740	-0.064	-0.176
-220.625	-82.607	0.076	-0.025
-219.611	-200.000	0.004	-0.123
-218.596	-41.130	-0.219	0.114
-217.582	800.000	-0.121	-0.340
-216.567	97.425	-0.085	-0.098
-215.552	399.080	0.085	0.179
-214.538	800.000	-0.030	0.084
-213.523	66.482	0.133	0.136
-212.509	27.725	-0.237	0.200
-211.494	211.167	-0.180	0.284
-210.479	-56.229	0.216	-0.096
-209.465	800.000	0.041	-0.114
-208.450	-89.103	0.385	-0.114
-207.436	43.341	-0.286	0.262
-206.421	800.000	0.013	-0.047
-205.406	-133.218	0.086	0.011
-204.392	330.089	0.076	0.146
-203.377	800.000	-0.051	-0.150
-202.363	-93.717	0.280	-0.077
-201.348	308.014	0.055	-0.103
-200.333	551.355	0.106	-0.255
-199.319	20.295	-0.150	-0.121
-198.304	-52.862	-0.140	-0.064
-197.290	-2.212	0.184	-0.129
-196.275	-61.876	-0.501	-0.210
-195.260	-200.000	0.013	-0.171
-194.246	-98.241	-0.169	-0.043
-193.231	278.353	0.102	-0.181
-192.217	-32.473	-0.249	0.139
-191.202	-77.324	-0.109	-0.038
-190.187	800.000	0.118	0.372
-189.173	-75.914	0.287	0.102
-188.158	777.278	0.092	0.251
-187.144	-127.452	-0.222	-0.032
-186.129	553.449	0.140	-0.336
-185.114	33.622	0.120	-0.104
-184.100	-200.000	-0.001	-0.060
-183.085	132.917	0.132	0.170
-182.071	-6.433	0.175	-0.120
-181.056	-69.714	0.185	-0.071
-180.042	74.526	0.058	0.061
-179.027	800.000	-0.021	-0.067
-178.012	-94.438	0.215	0.059
-176.998	-36.007	-0.221	-0.120
-175.983	-98.519	0.328	0.084
-174.969	119.709	-0.193	0.239
-173.954	102.195	-0.128	0.150
-172.939	18.646	0.186	0.149
-171.925	-200.000	0.043	0.285
-170.910	768.907	0.046	0.124
-169.896	7.467	0.157	0.117
-168.881	-171.697	-0.172	-0.006
-167.866	385.027	0.127	-0.263
-166.852	203.024	-0.066	0.103
-165.837	-137.581	-0.238	-0.027
-164.823	-116.632	-0.268	-0.049
-163.808	-101.229	-0.057	-0.014
-162.793	4.992	0.149	-0.110
-161.779	-200.000	-0.001	0.017
-160.764	795.185	0.089	0.246
-159.750	474.662	-0.171	0.386
-158.735	-147.013	-0.172	-0.015
-157.720	-4.025	0.166	0.115
-156.706	-200.000	0.004	-0.039
-155.691	442.709	0.047	0.103
-154.677	-172.410	0.057	-0.002
-153.662	-200.000	-0.064	-0.328
-152.647	-81.949	-0.058	-0.019
-151.633	-200.000	0.016	0.149
-150.618	259.705	0.157	0.270
-149.604	84.765	-0.199	0.218
-148.589	-200.000	0.047	-0.552
-147.574	-99.456	-0.217	-0.055
-146.560	114.811	-0.106	0.129
-145.545	-200.000	0.031	0.147
-144.531	48.351	-0.167	0.156
-143.516	76.816	0.212	-0.224
-142.502	51.024	-0.224	0.213
-141.487	-8.097	0.146	-0.098
-140.472	514.207	0.089	0.208
-139.458	54.701	0.219	-0.211
-138.443	-109.955	0.198	-0.041
-137.429	-98.564	0.152	0.039
-136.414	-200.000	0.098	0.000
-135.399	-179.028	0.163	-0.004
-134.385	800.000	0.062	-0.224
-133.370	101.378	-0.313	-0.364
-132.356	-68.006	-0.099	0.038
-131.341	-66.952	0.199	-0.078
-130.326	494.145	-0.040	0.093
-129.312	-200.000	0.073	0.330
-128.297	-72.734	0.222	0.082
-127.283	724.103	0.041	-0.109
-126.268	-82.695	-0.378	0.122
-125.253	-50.879	-0.409	-0.192
-124.239	-91.091	-0.296	0.085
-123.224	-200.000	0.071	0.315
-122.210	202.870	0.142	0.218
-121.195	-105.929	0.211	0.047
-120.180	-200.000	0.044	-0.300
