DTS Sentinel unit serial number:	SN413079Multiplexer serial number:	ORYXHardware model number:	OX4-SRSoftware version number:	ORYX F/W v4.00 Oryx Data Collector v3.7.2.0data status	okinstallation	princeton_trtdifferential loss correction	single-endedforward channel	channel 4reverse channel	N/Adate	2019/09/14time	07:05:35forward acquisition time	60.00reverse acquisition time	0.00gamma	496.2192k internal	0.2324k external	0.2324temperature offset calibration	1.0136default loss term (dB/km)	0.3790temperature slope calibration	1.0000multiplexer offset coefficient	1.0000multiplexer slope coefficient	1.0000fibre end	0.00T internal ref (°C)	26.19T ext. ref 1 (°C)	3.44T ext. ref 2 (°C)	20.97length (m)	temperature (°C)	Stokes	anti-Stokes-747.200	71.425	0.068	0.071
-746.185	800.000	-0.123	0.427
-745.171	233.240	0.147	-0.245
-744.156	266.316	-0.087	-0.153
-743.142	273.583	-0.049	-0.088
-742.127	-120.003	0.022	-0.004
-741.112	-200.000	-0.003	-0.017
-740.098	-200.000	-0.010	0.058
-739.083	-107.017	-0.263	-0.059
-738.069	45.244	-0.283	0.264
-737.054	472.022	0.062	0.140
-736.039	-200.000	0.007	-0.045
-735.025	-200.000	0.022	0.190
-734.010	390.044	0.161	-0.337
-732.996	800.000	-0.010	0.032
-731.981	-59.968	-0.065	-0.028
-730.966	487.184	-0.065	-0.150
-729.952	31.698	-0.197	-0.171
-728.937	-88.344	0.230	0.069
-727.923	-200.000	-0.009	-0.106
-726.908	13.098	0.016	0.013
-725.894	800.000	0.064	-0.189
-724.879	-155.814	-0.305	-0.020
-723.864	205.220	0.153	-0.239
-722.850	748.484	-0.093	-0.254
-721.835	-45.943	-0.184	-0.091
-720.821	33.933	-0.251	-0.220
-719.806	800.000	-0.058	0.241
-718.791	-68.134	0.346	0.136
-717.777	-33.019	-0.287	0.161
-716.762	490.311	-0.067	0.154
-715.748	-88.211	-0.212	0.064
-714.733	-47.167	-0.331	-0.163
-713.718	-43.050	0.191	0.097
-712.704	-200.000	0.009	-0.183
-711.689	262.552	0.189	-0.331
-710.675	-200.000	-0.020	0.197
-709.660	-161.684	-0.530	0.027
-708.645	-200.000	0.010	-0.246
-707.631	-43.701	0.244	-0.124
-706.616	-200.000	0.022	0.148
-705.602	47.331	0.151	0.142
-704.587	-69.988	0.473	-0.181
-703.572	-200.000	0.014	0.111
-702.558	-163.103	0.200	0.010
-701.543	-178.708	-0.340	-0.008
-700.529	-182.625	-0.134	0.002
-699.514	-136.853	0.207	-0.024
-698.499	-18.697	-0.137	0.086
-697.485	132.659	0.157	-0.205
-696.470	30.475	-0.053	-0.046
-695.456	-105.716	0.149	0.034
-694.441	58.845	0.230	0.228
-693.426	-94.973	-0.281	0.077
-692.412	-45.936	-0.492	-0.244
-691.397	4.230	0.153	-0.113
-690.383	-107.318	-0.308	0.068
-689.368	-200.000	0.028	-0.218
-688.354	68.589	-0.170	-0.175
-687.339	-58.356	-0.240	-0.105
-686.324	-200.000	0.031	-0.290
-685.310	-124.045	0.037	0.006
-684.295	4.224	0.236	-0.174
-683.281	-53.753	0.097	0.045
-682.266	-84.125	0.280	0.089
-681.251	-95.362	0.117	0.032
-680.237	61.841	0.085	-0.085
-679.222	-200.000	-0.055	-0.267
-678.208	-58.817	-0.199	-0.087
-677.193	445.941	-0.063	0.140
-676.178	341.187	-0.068	0.134
-675.164	5.363	0.067	0.050
-674.149	94.161	0.123	-0.140
-673.135	-117.808	-0.173	0.031
-672.120	190.191	-0.178	-0.269
-671.105	282.978	-0.058	-0.105
-670.091	-5.293	-0.146	0.101
-669.076	-20.062	-0.139	0.086
-668.062	-200.000	-0.035	0.218
-667.047	-200.000	-0.012	0.069
-666.032	-185.258	-0.272	0.004
-665.018	32.298	-0.141	-0.122
-664.003	59.536	-0.133	-0.132
-662.989	-141.481	-0.190	0.019
-661.974	313.091	0.147	0.277
-660.959	131.766	-0.177	-0.229
-659.945	-193.243	0.274	-0.002
-658.930	34.002	0.135	-0.118
-657.916	-135.234	-0.109	-0.013
-656.901	23.148	0.092	0.076
-655.886	89.344	-0.423	0.474
-654.872	21.610	-0.119	0.097
-653.857	800.000	0.046	-0.169
-652.843	79.283	-0.116	-0.125
-651.828	-78.432	0.271	0.093
-650.814	-145.769	0.194	0.017
-649.799	51.620	0.122	0.117
-648.784	-80.608	0.495	-0.166
-647.770	-200.000	0.077	-0.356
-646.755	149.086	-0.021	0.029
-645.741	282.828	0.045	0.080
-644.726	3.374	-0.119	-0.087
-643.711	-88.462	0.024	-0.007
-642.697	-84.498	0.326	-0.103
-641.682	-61.313	0.128	0.054
-640.668	479.159	0.107	-0.245
-639.653	800.000	0.109	0.398
-638.638	39.198	-0.256	-0.231
-637.624	219.602	0.156	-0.251
-636.609	238.933	0.200	-0.334
-635.595	69.970	-0.168	-0.174
-634.580	-63.874	-0.164	0.067
-633.565	-200.000	0.030	0.235
-632.551	-41.866	0.346	-0.178
-631.536	152.051	-0.117	-0.160
-630.522	40.675	-0.299	-0.271
-629.507	24.713	-0.055	0.045
-628.492	-57.627	0.032	0.014
-627.478	-113.702	0.329	-0.064
-626.463	45.595	0.081	-0.076
-625.449	376.882	-0.030	-0.062
-624.434	800.000	-0.073	0.258
-623.419	16.084	-0.020	-0.016
-622.405	-118.095	0.490	0.088
-621.390	145.895	0.070	0.094
-620.376	14.232	-0.134	0.105
-619.361	-69.494	-0.225	-0.086
-618.346	-94.875	0.098	0.027
-617.332	-24.452	-0.140	-0.084
-616.317	800.000	-0.060	-0.218
-615.303	-68.921	0.120	-0.046
-614.288	188.963	-0.140	0.211
-613.273	800.000	0.065	-0.196
-612.259	-98.457	0.336	0.086
-611.244	-61.084	0.130	0.055
-610.230	-87.848	0.074	-0.023
-609.215	52.004	0.109	0.104
-608.201	-81.294	0.160	-0.053
-607.186	182.390	0.066	0.098
-606.171	24.850	-0.036	0.030
-605.157	800.000	-0.125	-0.431
-604.142	195.807	-0.062	-0.095
-603.128	800.000	-0.092	0.343
-602.113	743.764	0.119	0.322
-601.098	-147.050	-0.498	0.043
-600.084	-200.000	-0.014	-0.391
-599.069	403.115	0.057	-0.121
-598.055	800.000	-0.048	0.208
-597.040	53.791	-0.103	-0.099
-596.025	178.865	0.253	-0.371
-595.011	-83.179	-0.177	-0.057
-593.996	253.914	0.125	0.215
-592.982	-18.912	0.119	0.074
-591.967	4.916	-0.227	0.167
-590.952	491.999	-0.113	-0.261
-589.938	311.212	0.133	-0.250
-588.923	-68.153	-0.089	-0.035
-587.909	-28.842	-0.331	-0.191
-586.894	66.006	0.100	0.102
-585.879	43.800	-0.270	0.248
-584.865	-92.302	0.250	0.071
-583.850	-200.000	0.022	0.472
-582.836	-19.458	0.078	0.049
-581.821	340.347	-0.074	0.145
-580.806	38.621	0.074	-0.066
-579.792	91.784	-0.084	0.094
-578.777	500.192	0.190	-0.439
-577.763	800.000	-0.017	0.059
-576.748	30.124	-0.086	0.074
-575.733	409.625	-0.071	-0.150
-574.719	82.779	-0.124	-0.135
-573.704	-21.630	0.188	0.115
-572.690	35.912	0.287	-0.253
-571.675	153.406	0.075	0.104
-570.661	368.951	-0.109	0.220
-569.646	-200.000	0.010	0.120
-568.631	4.620	-0.180	-0.132
-567.617	-55.511	0.103	-0.046
-566.602	-128.479	0.193	0.028
-565.588	21.796	-0.052	-0.043
-564.573	-36.428	0.006	-0.003
-563.558	-140.094	0.439	0.046
-562.544	-110.208	0.299	0.062
-561.529	-93.935	-0.379	-0.104
-560.515	74.991	-0.135	-0.143
-559.500	800.000	0.051	0.147
-558.485	-24.410	-0.101	-0.060
-557.471	-156.542	0.071	-0.004
-556.456	-73.477	0.149	0.055
-555.442	-200.000	-0.006	-0.060
-554.427	-79.602	0.219	0.074
-553.412	-93.326	0.266	-0.074
-552.398	-105.820	0.140	-0.032
-551.383	7.400	-0.188	0.141
-550.369	295.180	-0.078	-0.143
-549.354	62.998	-0.249	-0.250
-548.339	18.568	-0.290	-0.232
-547.325	92.748	0.110	-0.125
-546.310	-151.901	-0.509	0.037
-545.296	800.000	0.049	0.189
-544.281	-200.000	-0.138	0.001
-543.266	-29.887	-0.209	-0.119
-542.252	117.868	0.198	-0.244
-541.237	-200.000	-0.001	0.046
-540.223	193.037	0.078	0.118
-539.208	-200.000	0.011	-0.313
-538.193	-200.000	-0.068	-0.363
-537.179	170.458	-0.042	0.060
-536.164	-200.000	0.042	0.211
-535.150	320.234	-0.198	0.377
-534.135	800.000	0.061	-0.214
-533.121	157.089	-0.075	-0.104
-532.106	-67.150	-0.202	-0.080
-531.091	-31.850	0.250	0.140
-530.077	67.639	-0.126	0.129
-529.062	-80.622	-0.132	0.044
-528.048	387.810	-0.048	-0.099
-527.033	-14.165	0.208	-0.135
-526.018	-179.209	0.250	0.006
-525.004	-200.000	-0.005	0.388
-523.989	14.160	-0.335	-0.261
-522.975	-78.165	-0.314	0.108
-521.960	-200.000	-0.021	-0.137
-520.945	-200.000	0.026	-0.116
-519.931	-200.000	0.022	0.239
-518.916	-34.482	-0.293	0.161
-517.902	-100.162	-0.028	-0.007
-516.887	800.000	-0.051	0.165
-515.872	302.071	0.105	-0.194
-514.858	140.481	0.196	-0.258
-513.843	85.820	0.251	-0.276
-512.829	62.258	-0.326	0.325
-511.814	-51.921	0.167	0.078
-510.799	-122.232	0.222	0.036
-509.785	268.051	-0.049	0.086
-508.770	-77.229	-0.060	-0.021
-507.756	71.806	-0.164	0.171
-506.741	-98.133	0.297	0.077
-505.726	-200.000	-0.117	-0.000
-504.712	-200.000	0.055	-0.248
-503.697	23.824	-0.478	0.394
-502.683	12.086	0.147	-0.113
-501.668	431.856	0.040	-0.087
-500.653	241.587	-0.107	-0.179
-499.639	10.478	0.116	-0.089
-498.624	-200.000	-0.004	0.263
-497.610	-32.836	0.091	-0.050
-496.595	116.970	0.165	0.203
-495.581	-47.951	0.302	0.146
-494.566	-98.760	0.173	-0.044
-493.551	111.806	0.186	0.225
-492.537	-200.000	0.002	-0.049
-491.522	-85.033	0.262	0.082
-490.508	93.119	0.227	0.256
-489.493	800.000	-0.023	0.080
-488.478	309.457	-0.139	-0.260
-487.464	800.000	-0.043	0.171
-486.449	-59.389	0.219	0.094
-485.435	-200.000	0.002	0.344
-484.420	-200.000	-0.030	-0.393
-483.405	132.050	0.070	-0.090
-482.391	-46.273	0.160	-0.079
-481.376	236.517	-0.052	-0.086
-480.362	1.782	0.140	-0.100
-479.347	-200.000	-0.008	0.111
-478.332	67.832	0.082	0.084
-477.318	800.000	0.029	0.124
-476.303	334.396	0.226	0.437
-475.289	210.521	0.164	-0.258
-474.274	90.137	0.172	-0.192
-473.259	-75.369	-0.307	0.109
-472.245	13.552	-0.096	0.074
-471.230	325.665	-0.100	0.191
-470.216	61.866	0.132	-0.131
-469.201	-61.366	-0.159	-0.067
-468.186	-200.000	0.019	0.094
-467.172	-200.000	0.100	0.546
-466.157	-63.969	-0.140	0.057
-465.143	-77.560	-0.374	0.129
-464.128	251.244	0.005	-0.008
-463.113	-3.550	-0.248	-0.172
-462.099	-50.146	-0.220	-0.104
-461.084	-103.779	-0.294	-0.069
-460.070	-81.919	0.166	-0.054
-459.055	-162.181	0.334	0.017
-458.040	-151.660	0.095	0.007
-457.026	80.676	-0.028	0.030
-456.011	-27.988	0.319	-0.185
-454.997	800.000	0.003	0.009
-453.982	-39.795	-0.222	0.116
-452.968	-200.000	0.019	-0.216
-451.953	629.648	0.100	-0.252
-450.938	636.631	0.107	-0.271
-449.924	223.996	-0.086	-0.139
-448.909	800.000	-0.064	0.224
-447.895	7.988	0.152	0.113
-446.880	-64.792	-0.046	0.019
-445.865	122.760	-0.021	0.026
-444.851	-62.767	0.259	0.107
-443.836	48.695	-0.064	-0.060
-442.822	19.164	0.356	0.285
-441.807	-87.963	-0.155	0.047
-440.792	63.144	0.280	0.279
-439.778	-99.091	0.059	-0.015
-438.763	-81.905	0.102	-0.033
-437.749	-200.000	0.014	-0.079
-436.734	-200.000	0.053	-0.302
-435.719	-98.914	0.170	-0.043
-434.705	65.270	-0.053	-0.053
-433.690	125.336	-0.140	0.177
-432.676	800.000	-0.063	0.232
-431.661	107.438	-0.222	0.263
-430.646	-200.000	-0.027	0.156
-429.632	-200.000	-0.016	-0.147
-428.617	173.205	0.155	-0.223
-427.603	49.026	-0.169	0.158
-426.588	8.606	-0.227	-0.170
-425.573	-132.793	-0.113	-0.014
-424.559	-114.739	-0.238	-0.045
-423.544	-62.267	0.139	-0.058
-422.530	-200.000	-0.006	-0.239
-421.515	103.688	0.435	-0.509
-420.500	57.005	-0.276	0.268
-419.486	-200.000	0.092	0.532
-418.471	709.495	0.031	0.081
-417.457	336.660	0.133	-0.257
-416.442	-200.000	0.025	0.237
-415.428	38.452	0.195	0.173
-414.413	429.240	-0.035	-0.076
-413.398	240.238	-0.121	0.201
-412.384	800.000	0.051	0.217
-411.369	-43.486	0.242	-0.122
-410.355	21.191	-0.055	0.044
-409.340	14.688	-0.304	0.237
-408.325	354.933	0.015	-0.029
-407.311	-200.000	0.004	0.028
-406.296	-200.000	-0.040	-0.230
-405.282	569.629	-0.049	0.119
-404.267	610.430	-0.111	-0.276
-403.252	-150.707	0.350	-0.027
-402.238	800.000	-0.062	0.173
-401.223	56.444	-0.272	-0.263
-400.209	258.930	-0.053	0.090
-399.194	670.485	0.077	-0.198
-398.179	-148.859	-0.248	0.020
-397.165	73.711	-0.041	-0.043
-396.150	-145.057	-0.272	-0.025
-395.136	69.437	0.216	-0.221
-394.121	119.805	-0.155	-0.191
-393.106	-129.162	-0.042	-0.006
-392.092	-46.046	0.318	-0.156
-391.077	-3.606	-0.043	0.030
-390.063	-70.340	0.140	-0.053
-389.048	-29.311	-0.180	0.103
-388.033	800.000	0.083	-0.250
-387.019	31.198	-0.119	0.101
-386.004	-200.000	-0.088	0.487
-384.990	-150.127	-0.250	0.019
-383.975	157.440	-0.169	-0.233
-382.960	-200.000	0.014	0.164
-381.946	800.000	-0.081	0.250
-380.931	-64.585	0.281	0.113
-379.917	430.883	-0.062	0.134
-378.902	-200.000	0.003	-0.028
-377.888	-200.000	0.001	0.025
-376.873	800.000	0.049	0.190
-375.858	-141.491	-0.309	0.031
-374.844	-160.308	0.234	-0.013
-373.829	800.000	-0.030	0.093
-372.815	-142.371	0.361	0.035
-371.800	91.910	0.029	-0.033
-370.785	-93.862	0.510	0.140
-369.771	-105.830	-0.380	-0.085
-368.756	408.999	-0.122	-0.258
-367.742	-99.024	-0.276	-0.070
-366.727	-83.955	-0.278	0.088
-365.712	-91.768	0.259	0.073
-364.698	-169.556	-0.459	0.017
-363.683	-117.621	-0.078	-0.014
-362.669	202.539	0.067	-0.102
-361.654	-200.000	-0.005	-0.276
-360.639	-130.373	0.239	0.032
-359.625	-92.784	0.576	0.160
-358.610	-66.886	-0.202	0.079
-357.596	-200.000	0.016	-0.202
-356.581	369.367	-0.056	0.113
-355.566	-151.763	0.262	-0.019
-354.552	-18.341	0.039	-0.024
-353.537	235.224	0.144	-0.237
-352.523	89.843	0.112	-0.125
-351.508	-52.660	0.313	-0.144
-350.493	287.979	0.011	-0.020
-349.479	-31.849	-0.177	-0.099
-348.464	-200.000	0.017	0.174
-347.450	-68.111	0.367	0.142
-346.435	-99.389	0.251	-0.063
-345.420	596.843	-0.124	-0.306
-344.406	800.000	0.038	0.141
-343.391	-144.943	0.247	-0.022
-342.377	-200.000	-0.012	-0.100
-341.362	490.533	-0.065	-0.147
-340.348	-108.559	0.191	0.041
-339.333	119.703	-0.325	0.400
-338.318	-200.000	-0.020	0.437
-337.304	-200.000	0.001	-0.143
-336.289	-125.916	0.089	0.013
-335.275	-29.402	0.202	-0.115
-334.260	-77.431	-0.345	0.119
-333.245	-200.000	0.005	0.061
-332.231	228.642	-0.038	-0.062
-331.216	-35.024	-0.130	0.070
-330.202	169.562	-0.089	-0.126
-329.187	-47.682	-0.041	0.020
-328.172	800.000	-0.108	-0.391
-327.158	800.000	-0.077	-0.274
-326.143	102.686	-0.166	-0.193
-325.129	-100.702	0.138	-0.034
-324.114	-200.000	-0.052	0.254
-323.099	-163.312	0.229	-0.011
-322.085	-29.582	-0.304	-0.173
-321.070	800.000	-0.060	0.216
-320.056	-200.000	0.001	0.174
-319.041	-86.492	-0.099	-0.030
-318.026	597.855	0.166	-0.409
-317.012	423.006	0.059	-0.127
-315.997	-200.000	0.056	0.333
-314.983	-200.000	-0.033	0.172
-313.968	-200.000	0.029	-0.171
-312.953	-54.433	0.297	-0.134
-311.939	-89.853	-0.097	-0.028
-310.924	-200.000	0.036	-0.285
-309.910	-200.000	0.042	0.280
-308.895	-120.736	-0.258	0.043
-307.880	-118.501	-0.170	0.030
-306.866	17.578	0.178	0.141
-305.851	317.117	0.168	0.315
-304.837	-19.805	-0.342	0.210
-303.822	94.505	-0.148	-0.167
-302.807	403.558	0.069	0.145
-301.793	-152.937	0.150	0.011
-300.778	46.660	-0.186	0.171
-299.764	67.640	0.218	0.221
-298.749	-1.373	0.343	0.240
-297.735	550.446	-0.060	-0.142
-296.720	-200.000	0.002	0.126
-295.705	-66.534	0.167	0.066
-294.691	-97.691	-0.096	0.025
-293.676	-140.444	0.265	-0.027
-292.662	18.512	-0.325	-0.258
-291.647	-200.000	-0.022	0.157
-290.632	96.948	0.012	-0.013
-289.618	-200.000	0.087	-0.444
-288.603	160.587	-0.094	0.130
-287.589	325.046	-0.036	0.068
-286.574	800.000	-0.046	-0.131
-285.559	61.400	-0.183	0.181
-284.545	-94.632	0.200	0.054
-283.530	-89.421	-0.334	-0.097
-282.516	193.117	0.092	0.139
-281.501	373.807	-0.083	0.168
-280.486	-200.000	-0.002	0.064
-279.472	-200.000	-0.166	-0.000
-278.457	-37.672	0.240	0.127
-277.443	27.958	-0.217	-0.181
-276.428	-138.501	-0.252	-0.027
-275.413	800.000	-0.105	0.304
-274.399	85.060	0.176	0.191
-273.384	800.000	0.067	-0.218
-272.370	21.141	0.359	-0.288
-271.355	-103.673	0.235	-0.055
-270.340	-139.211	-0.277	0.030
-269.326	-121.829	-0.293	-0.048
-268.311	800.000	0.031	-0.123
-267.297	-65.507	-0.284	-0.113
-266.282	438.185	0.052	-0.112
-265.267	-123.882	-0.315	-0.049
-264.253	800.000	-0.112	0.322
-263.238	-10.384	-0.169	-0.111
-262.224	114.213	-0.099	0.119
-261.209	800.000	0.013	0.038
-260.195	-200.000	-0.015	-0.086
-259.180	-23.678	-0.285	0.169
-258.165	-71.383	0.103	0.038
-257.151	-37.675	0.387	0.204
-256.136	-200.000	-0.009	0.250
-255.122	-103.691	-0.226	0.052
-254.107	-64.325	-0.059	-0.024
-253.092	-157.892	0.058	-0.003
-252.078	-170.704	0.223	-0.008
-251.063	800.000	0.046	-0.160
-250.049	-82.777	-0.141	0.045
-249.034	13.145	-0.056	-0.043
-248.019	-106.754	0.272	0.060
-247.005	-36.392	-0.300	-0.160
-245.990	-200.000	-0.002	0.166
-244.976	390.940	-0.051	0.104
-243.961	-200.000	0.013	0.131
-242.946	-175.255	-0.238	-0.007
-241.932	800.000	-0.027	-0.099
-240.917	800.000	-0.090	0.271
-239.903	33.898	0.102	0.088
-238.888	275.635	0.100	0.175
-237.873	-53.478	0.206	0.093
-236.859	275.573	-0.217	0.380
-235.844	232.370	-0.066	-0.107
-234.830	246.798	-0.052	-0.087
-233.815	-200.000	0.016	-0.072
-232.800	-105.552	-0.191	-0.043
-231.786	-200.000	0.059	-0.310
-230.771	-170.926	-0.043	-0.001
-229.757	191.283	-0.193	0.288
-228.742	613.018	0.040	-0.099
-227.727	-200.000	0.004	0.040
-226.713	-200.000	0.002	-0.114
-225.698	142.314	-0.211	-0.277
-224.684	390.130	0.148	-0.304
-223.669	-168.950	-0.282	-0.010
-222.655	800.000	-0.077	-0.286
-221.640	626.965	-0.106	-0.264
-220.625	62.259	-0.189	0.187
-219.611	-200.000	0.015	-0.267
-218.596	506.299	-0.101	-0.232
-217.582	-136.077	0.173	0.020
-216.567	-24.949	-0.176	0.103
-215.552	-200.000	-0.052	0.248
-214.538	-162.108	-0.164	-0.008
-213.523	-200.000	-0.042	-0.218
-212.509	-123.934	-0.104	0.016
-211.494	-200.000	0.003	0.290
-210.479	-200.000	0.001	0.333
-209.465	-174.444	-0.164	-0.005
-208.450	168.066	-0.254	-0.357
-207.436	-25.160	0.243	0.142
-206.421	-148.505	-0.184	0.015
-205.406	-8.142	0.395	0.263
-204.392	800.000	0.130	0.520
-203.377	-200.000	-0.027	-0.203
-202.363	222.487	0.056	0.090
-201.348	-12.605	0.106	-0.068
-200.333	-39.444	-0.191	0.099
-199.319	-124.982	-0.042	-0.006
-198.304	767.018	-0.041	0.109
-197.290	-113.347	0.227	0.044
-196.275	10.426	0.175	-0.131
-195.260	-200.000	-0.021	-0.178
-194.246	780.184	0.023	0.063
-193.231	-94.694	-0.186	-0.050
-192.217	-144.779	0.371	-0.034
-191.202	3.687	0.179	0.129
-190.187	54.936	-0.112	-0.107
-189.173	-200.000	-0.020	-0.264
-188.158	160.552	0.042	0.058
-187.144	-79.111	-0.181	-0.061
-186.129	15.135	0.196	-0.151
-185.114	-138.251	-0.220	0.024
-184.100	800.000	-0.076	-0.311
-183.085	151.612	-0.222	0.299
-182.071	800.000	0.025	-0.093
-181.056	183.754	0.244	-0.357
-180.042	-200.000	-0.031	-0.144
-179.027	-200.000	-0.034	0.386
-178.012	-200.000	0.011	-0.249
-176.998	-33.562	-0.280	0.152
-175.983	-124.769	0.151	0.023
-174.969	-200.000	-0.004	-0.304
-173.954	469.095	0.025	-0.055
-172.939	-76.401	-0.109	-0.038
-171.925	-137.272	0.218	-0.024
-170.910	-1.127	0.079	0.055
-169.896	272.113	0.083	-0.145
-168.881	525.024	-0.045	0.104
-167.866	514.066	0.112	0.257
-166.852	-175.109	0.148	-0.004
-165.837	-200.000	-0.039	-0.207
-164.823	800.000	-0.104	0.376
-163.808	-200.000	-0.030	0.167
-162.793	-200.000	-0.043	-0.213
-161.779	-124.197	-0.303	0.047
-160.764	239.213	0.124	0.203
-159.750	115.984	-0.069	-0.083
-158.735	-200.000	-0.034	0.378
-157.720	40.178	-0.083	-0.073
-156.706	352.552	0.127	-0.249
-155.691	220.207	-0.089	-0.141
-154.677	62.315	-0.233	-0.229
-153.662	-102.088	0.113	-0.027
-152.647	-10.827	0.269	0.175
-151.633	-96.100	-0.095	0.025
-150.618	-111.570	-0.338	0.068
-149.604	113.344	-0.090	0.108
-148.589	-47.378	-0.269	0.129
-147.574	-64.334	0.365	0.146
-146.560	-200.000	-0.009	0.294
-145.545	401.969	-0.018	0.037
-144.531	-167.679	-0.188	0.007
-143.516	-35.883	0.372	0.199
-142.502	-200.000	-0.058	0.295
-141.487	-65.605	-0.255	0.101
-140.472	404.537	0.087	-0.180
-139.458	800.000	0.066	-0.186
-138.443	-6.087	-0.238	0.160
-137.429	-117.372	0.397	0.071
-136.414	-200.000	-0.003	-0.031
-135.399	-51.749	-0.138	-0.063
-134.385	-200.000	0.031	0.231
-133.370	-123.686	-0.252	-0.039
-132.356	-53.598	0.070	0.031
-131.341	94.618	-0.108	0.121
-130.326	-200.000	-0.006	0.276
-129.312	352.586	-0.098	-0.192
-128.297	96.675	0.134	0.151
-127.283	-13.400	-0.149	0.095
-126.268	-107.534	-0.287	-0.062
-125.253	19.063	0.205	-0.162
-124.239	785.036	0.115	-0.310
-123.224	-200.000	-0.015	0.295
-122.210	-9.083	-0.066	0.044
