DTS Sentinel unit serial number:	SN413079Multiplexer serial number:	ORYXHardware model number:	OX4-SRSoftware version number:	ORYX F/W v4.00 Oryx Data Collector v3.7.2.0data status	okinstallation	princeton_trtdifferential loss correction	single-endedforward channel	channel 4reverse channel	N/Adate	2019/09/14time	17:57:34forward acquisition time	60.00reverse acquisition time	0.00gamma	496.2192k internal	0.2296k external	0.2296temperature offset calibration	1.0112default loss term (dB/km)	0.3790temperature slope calibration	1.0000multiplexer offset coefficient	1.0000multiplexer slope coefficient	1.0000fibre end	0.00T internal ref (°C)	37.37T ext. ref 1 (°C)	4.98T ext. ref 2 (°C)	31.96length (m)	temperature (°C)	Stokes	anti-Stokes-747.200	91.133	-0.183	-0.210
-746.185	276.559	0.127	0.230
-745.171	135.905	0.222	0.296
-744.156	-200.000	-0.032	0.228
-743.142	656.478	-0.035	0.092
-742.127	800.000	-0.129	0.439
-741.112	800.000	-0.077	-0.231
-740.098	436.198	-0.040	-0.090
-739.083	-66.303	-0.136	-0.055
-738.069	-31.041	0.151	-0.087
-737.054	-44.128	-0.055	-0.028
-736.039	534.499	0.041	0.099
-735.025	-200.000	0.023	0.195
-734.010	-151.530	-0.133	0.010
-732.996	800.000	0.087	-0.269
-731.981	101.008	0.160	0.190
-730.966	10.257	-0.032	0.025
-729.952	153.926	-0.085	-0.120
-728.937	-55.561	-0.159	-0.073
-727.923	-89.030	-0.282	-0.085
-726.908	357.785	-0.054	-0.111
-725.894	-10.832	-0.108	-0.073
-724.879	-200.000	0.010	0.222
-723.864	-136.042	0.214	-0.026
-722.850	70.592	0.089	-0.094
-721.835	800.000	-0.096	0.308
-720.821	161.885	-0.208	-0.298
-719.806	-68.944	-0.175	0.069
-718.791	-109.213	-0.127	0.027
-717.777	-87.856	0.451	0.139
-716.762	-31.619	0.344	-0.197
-715.748	-200.000	-0.026	-0.234
-714.733	-109.972	0.066	-0.014
-713.718	-136.854	-0.405	-0.047
-712.704	541.044	0.062	0.151
-711.689	-7.500	0.216	-0.149
-710.675	-33.764	0.375	-0.211
-709.660	116.364	-0.176	-0.220
-708.645	800.000	-0.029	-0.108
-707.631	-126.923	-0.163	0.024
-706.616	-16.202	-0.264	-0.171
-705.602	766.840	0.118	0.328
-704.587	-191.155	0.197	-0.002
-703.572	-72.012	0.223	-0.084
-702.558	406.456	-0.075	-0.162
-701.543	-200.000	-0.008	0.205
-700.529	72.938	0.121	-0.129
-699.514	217.525	0.052	-0.084
-698.499	-53.137	-0.112	-0.052
-697.485	21.734	-0.119	-0.099
-696.470	157.744	0.155	0.218
-695.456	-200.000	0.053	-0.274
-694.441	800.000	-0.076	-0.262
-693.426	86.023	-0.036	0.041
-692.412	455.599	-0.055	0.124
-691.397	24.547	0.060	0.051
-690.383	-165.549	-0.341	0.015
-689.368	-70.487	-0.253	0.098
-688.354	-73.567	-0.240	-0.089
-687.339	143.923	-0.149	-0.203
-686.324	-200.000	0.005	0.469
-685.310	27.173	-0.110	-0.094
-684.295	800.000	-0.133	-0.520
-683.281	231.193	-0.044	-0.073
-682.266	-80.585	-0.236	-0.080
-681.251	-200.000	-0.017	0.107
-680.237	2.501	0.048	-0.035
-679.222	373.752	-0.140	0.289
-678.208	425.867	-0.057	-0.126
-677.193	-200.000	-0.013	-0.383
-676.178	-96.342	-0.213	-0.057
-675.164	90.225	0.115	-0.131
-674.149	100.994	0.256	0.303
-673.135	800.000	0.045	0.148
-672.120	-30.592	-0.225	0.130
-671.105	4.250	0.057	-0.043
-670.091	-44.668	0.174	0.089
-669.076	641.546	0.030	0.078
-668.062	-77.721	0.293	0.103
-667.047	800.000	-0.039	0.115
-666.032	67.461	-0.173	-0.180
-665.018	-58.303	0.164	-0.073
-664.003	54.449	-0.171	0.167
-662.989	-85.990	-0.147	-0.046
-661.974	142.205	0.186	0.251
-660.959	-200.000	0.022	0.215
-659.945	253.029	-0.058	-0.100
-658.930	139.633	0.099	-0.132
-657.916	-61.116	-0.085	0.036
-656.901	800.000	0.034	0.119
-655.886	-64.163	0.082	-0.034
-654.872	-33.724	0.089	0.050
-653.857	182.027	0.078	-0.118
-652.843	-200.000	-0.012	0.142
-651.828	-28.587	0.195	0.114
-650.814	-60.831	0.172	-0.074
-649.799	531.489	-0.076	-0.183
-648.784	337.180	-0.129	-0.255
-647.770	171.346	-0.152	-0.222
-646.755	91.912	0.129	-0.148
-645.741	99.562	0.238	0.280
-644.726	-83.539	-0.171	0.056
-643.711	57.478	0.191	-0.189
-642.697	-200.000	-0.032	-0.146
-641.682	-12.439	-0.281	0.187
-640.668	800.000	-0.029	0.122
-639.653	-200.000	0.012	0.066
-638.638	-3.889	-0.193	-0.136
-637.624	168.948	0.070	0.102
-636.609	308.661	-0.059	-0.113
-635.595	-200.000	-0.019	-0.122
-634.580	153.310	-0.142	-0.197
-633.565	800.000	-0.032	0.133
-632.551	-52.944	-0.175	-0.082
-631.536	8.611	-0.300	0.230
-630.522	-65.881	-0.120	-0.049
-629.507	1.843	-0.035	-0.026
-628.492	534.267	0.167	-0.402
-627.478	-200.000	-0.017	-0.169
-626.463	63.845	0.156	0.160
-625.449	-110.826	0.240	-0.050
-624.434	-80.957	-0.205	-0.069
-623.419	519.252	-0.071	0.169
-622.405	-61.125	0.166	0.071
-621.390	192.189	-0.180	-0.276
-620.376	31.770	-0.245	-0.215
-619.361	143.288	-0.104	0.141
-618.346	22.003	0.213	-0.176
-617.332	-24.291	-0.315	0.191
-616.317	217.540	-0.072	-0.116
-615.303	-43.093	0.095	-0.049
-614.288	-46.482	0.136	0.068
-613.273	7.019	-0.186	-0.141
-612.259	800.000	-0.015	0.051
-611.244	-139.637	-0.485	-0.052
-610.230	-72.071	-0.136	-0.051
-609.215	150.054	-0.235	0.324
-608.201	158.645	-0.085	0.120
-607.186	13.501	-0.188	0.148
-606.171	-47.302	0.168	-0.083
-605.157	-49.277	-0.154	-0.075
-604.142	-21.195	0.175	-0.109
-603.128	35.752	0.270	-0.241
-602.113	-44.338	-0.343	0.175
-601.098	-14.304	0.205	-0.134
-600.084	800.000	-0.058	-0.243
-599.069	-53.095	0.164	0.077
-598.055	377.753	-0.100	-0.208
-597.040	697.420	0.061	0.163
-596.025	193.267	-0.024	0.036
-595.011	-102.694	-0.092	0.022
-593.996	141.313	-0.084	0.113
-592.982	-144.584	0.335	0.031
-591.967	800.000	0.057	0.178
-590.952	139.842	-0.154	-0.207
-589.938	-200.000	-0.036	-0.209
-588.923	70.939	-0.135	-0.142
-587.909	-200.000	0.050	0.266
-586.894	149.777	0.027	-0.037
-585.879	63.035	0.161	0.164
-584.865	-12.729	-0.062	0.041
-583.850	72.344	-0.158	-0.167
-582.836	26.120	-0.161	0.136
-581.821	800.000	0.090	0.357
-580.806	-137.682	0.095	-0.011
-579.792	-5.174	0.321	-0.224
-578.777	-48.640	0.033	-0.016
-577.763	-143.711	0.092	0.009
-576.748	69.345	-0.164	-0.172
-575.733	12.759	0.220	-0.172
-574.719	521.988	-0.079	-0.188
-573.704	-26.712	0.117	0.069
-572.690	152.334	0.138	0.191
-571.675	328.727	0.040	-0.077
-570.661	-200.000	0.003	-0.160
-569.646	687.885	0.077	0.203
-568.631	245.946	-0.109	-0.186
-567.617	-72.418	-0.275	-0.103
-566.602	800.000	-0.073	0.253
-565.588	138.025	0.109	-0.145
-564.573	-41.791	0.345	-0.179
-563.558	251.913	-0.069	0.120
-562.544	-200.000	0.065	-0.318
-561.529	138.529	-0.049	-0.065
-560.515	-143.368	0.182	0.018
-559.500	800.000	-0.048	-0.185
-558.485	-14.783	-0.129	-0.084
-557.471	-29.834	0.088	0.051
-556.456	695.470	-0.201	0.535
-555.442	43.563	0.073	0.068
-554.427	-170.837	0.021	0.001
-553.412	506.927	0.085	0.200
-552.398	115.121	0.215	0.266
-551.383	-138.365	-0.304	0.034
-550.369	391.444	0.098	-0.207
-549.354	-200.000	-0.025	0.231
-548.339	64.293	0.153	0.156
-547.325	800.000	-0.021	-0.064
-546.310	-184.762	-0.274	-0.004
-545.296	-200.000	0.051	0.373
-544.281	376.477	-0.132	-0.273
-543.266	-166.666	-0.225	0.009
-542.252	601.090	0.016	0.040
-541.237	418.272	-0.129	-0.279
-540.223	800.000	0.076	0.220
-539.208	-91.842	0.352	-0.101
-538.193	12.449	0.409	-0.320
-537.179	54.999	-0.070	0.068
-536.164	35.669	0.297	-0.264
-535.150	-92.278	0.124	0.035
-534.135	607.485	-0.146	0.369
-533.121	-104.527	0.251	0.059
-532.106	115.924	0.008	0.010
-531.091	-40.237	0.168	0.089
-530.077	368.030	-0.165	-0.337
-529.062	-200.000	-0.016	0.227
-528.048	107.893	0.136	0.164
-527.033	-79.447	-0.211	0.072
-526.018	-50.965	0.129	0.062
-525.004	20.547	0.257	-0.211
-523.989	-72.711	-0.484	-0.181
-522.975	-200.000	0.025	0.113
-521.960	-200.000	-0.007	0.154
-520.945	-93.446	-0.049	-0.014
-519.931	-43.293	-0.331	-0.170
-518.916	-0.599	0.126	-0.090
-517.902	-137.241	0.126	-0.015
-516.887	248.673	0.046	0.078
-515.872	134.235	-0.143	0.188
-514.858	600.183	-0.092	0.232
-513.843	800.000	0.047	-0.170
-512.829	-117.520	0.474	-0.087
-511.814	141.724	0.153	-0.205
-510.799	-47.942	0.049	-0.024
-509.785	-45.619	-0.326	0.163
-508.770	800.000	0.010	-0.044
-507.756	523.429	0.104	-0.248
-506.741	37.349	-0.067	-0.060
-505.726	23.284	0.132	0.110
-504.712	132.579	-0.208	0.272
-503.697	-77.929	0.365	0.127
-502.683	-200.000	0.042	-0.278
-501.668	28.390	0.194	-0.166
-500.653	-170.958	0.235	0.008
-499.639	-10.655	0.269	0.180
-498.624	10.817	-0.243	-0.187
-497.610	235.456	-0.074	-0.124
-496.595	18.522	-0.199	0.161
-495.581	5.097	-0.028	0.021
-494.566	-10.353	-0.273	0.183
-493.551	-107.068	-0.172	-0.039
-492.537	-3.895	0.226	0.158
-491.522	-78.822	-0.266	-0.092
-490.508	-104.541	-0.064	-0.015
-489.493	-200.000	0.017	0.111
-488.478	800.000	-0.090	0.330
-487.464	800.000	-0.076	0.213
-486.449	171.238	-0.052	-0.075
-485.435	800.000	0.090	0.283
-484.420	-80.729	-0.059	0.020
-483.405	-200.000	0.011	-0.352
-482.391	418.080	0.081	-0.176
-481.376	-43.700	0.089	0.045
-480.362	-114.802	-0.280	0.054
-479.347	493.053	0.284	0.659
-478.332	-134.848	0.374	-0.046
-477.318	800.000	0.051	-0.148
-476.303	-14.096	0.082	0.054
-475.289	-200.000	-0.054	0.244
-474.274	-200.000	0.009	0.224
-473.259	72.627	0.142	-0.150
-472.245	-122.799	-0.100	0.016
-471.230	50.810	0.204	-0.195
-470.216	-154.899	0.299	0.020
-469.201	800.000	-0.049	-0.154
-468.186	-144.996	-0.368	0.034
-467.172	-143.168	0.079	0.008
-466.157	-200.000	0.044	-0.275
-465.143	24.827	-0.281	-0.235
-464.128	-73.421	0.222	0.082
-463.113	-64.039	-0.259	-0.107
-462.099	-83.282	0.036	-0.012
-461.084	-200.000	-0.019	0.219
-460.070	800.000	-0.079	0.247
-459.055	188.090	0.074	0.112
-458.040	-194.015	-0.218	-0.002
-457.026	129.298	-0.102	0.131
-456.011	140.524	-0.114	-0.153
-454.997	-97.975	0.315	-0.082
-453.982	800.000	-0.012	0.046
-452.968	-128.946	-0.281	0.040
-451.953	-19.052	-0.116	0.073
-450.938	-72.722	0.129	-0.048
-449.924	88.011	-0.189	0.211
-448.909	-200.000	-0.016	0.434
-447.895	-200.000	0.052	0.322
-446.880	45.685	-0.155	0.144
-445.865	800.000	-0.082	-0.240
-444.851	124.103	0.147	-0.186
-443.836	95.437	-0.220	-0.253
-442.822	143.710	-0.140	-0.189
-441.807	26.568	0.103	0.087
-440.792	-200.000	-0.001	-0.051
-439.778	46.960	0.087	-0.082
-438.763	-200.000	0.059	-0.370
-437.749	800.000	-0.045	0.139
-436.734	-200.000	-0.005	0.153
-435.719	688.162	0.051	-0.136
-434.705	800.000	-0.005	-0.019
-433.690	68.932	0.092	-0.096
-432.676	-48.212	0.180	0.088
-431.661	-170.927	0.165	-0.006
-430.646	4.034	0.255	0.188
-429.632	-200.000	-0.030	-0.326
-428.617	-200.000	0.001	0.119
-427.603	3.783	0.294	-0.217
-426.588	-60.770	0.083	-0.036
-425.573	-89.070	-0.086	0.026
-424.559	-61.631	-0.230	0.097
-423.544	36.584	-0.129	-0.115
-422.530	-170.301	-0.246	-0.009
-421.515	800.000	0.048	-0.185
-420.500	-200.000	-0.052	0.246
-419.486	403.774	0.055	0.117
-418.471	-24.858	0.039	0.023
-417.457	-44.344	0.140	0.071
-416.442	-140.825	0.056	0.006
-415.428	535.090	-0.134	0.321
-414.413	103.397	0.040	-0.047
-413.398	23.124	0.281	0.232
-412.384	21.261	-0.142	0.117
-411.369	378.682	0.092	-0.189
-410.355	-27.054	-0.088	-0.052
-409.340	-200.000	-0.028	-0.223
-408.325	368.505	0.099	-0.202
-407.311	386.571	0.021	-0.043
-406.296	800.000	0.041	0.147
-405.282	800.000	0.029	0.094
-404.267	-54.160	0.015	0.007
-403.252	800.000	-0.028	-0.124
-402.238	-200.000	0.002	-0.154
-401.223	-200.000	0.019	0.123
-400.209	800.000	0.009	0.038
-399.194	-134.428	-0.320	-0.039
-398.179	-200.000	-0.042	-0.594
-397.165	-21.528	-0.169	-0.104
-396.150	244.146	0.060	0.101
-395.136	-200.000	0.035	0.160
-394.121	-61.739	-0.187	-0.079
-393.106	0.887	-0.216	-0.156
-392.092	92.572	-0.026	0.030
-391.077	237.961	-0.085	0.142
-390.063	235.695	0.072	-0.119
-389.048	-48.607	-0.138	-0.067
-388.033	-200.000	0.011	0.062
-387.019	-17.295	-0.169	0.107
-386.004	-110.311	-0.472	-0.099
-384.990	-105.829	0.145	-0.033
-383.975	129.025	0.093	0.120
-382.960	-90.392	-0.178	0.052
-381.946	-78.004	0.242	0.084
-380.931	655.316	-0.091	-0.236
-379.917	-122.095	0.097	-0.016
-378.902	128.399	-0.047	0.061
-377.888	-163.061	-0.128	0.006
-376.873	-200.000	0.023	-0.106
-375.858	-200.000	-0.032	-0.158
-374.844	-47.703	0.333	0.163
-373.829	-200.000	-0.001	-0.335
-372.815	409.336	0.052	-0.111
-371.800	-80.529	0.054	-0.018
-370.785	-74.832	-0.288	0.104
-369.771	-37.219	-0.070	0.038
-368.756	-127.939	0.085	0.012
-367.742	-53.966	-0.341	-0.156
-366.727	353.861	-0.191	-0.382
-365.712	-200.000	0.003	0.085
-364.698	500.753	0.065	0.151
-363.683	-9.174	-0.203	-0.137
-362.669	-200.000	-0.013	-0.550
-361.654	-138.875	0.142	-0.016
-360.639	-8.867	0.065	0.044
-359.625	142.852	-0.073	-0.097
-358.610	713.257	-0.118	-0.315
-357.596	-200.000	-0.004	-0.078
-356.581	-103.481	0.078	-0.019
-355.566	69.133	-0.122	0.126
-354.552	-131.364	-0.229	-0.030
-353.537	-51.199	0.131	-0.062
-352.523	281.583	0.077	0.139
-351.508	72.568	0.047	0.049
-350.493	693.500	-0.044	-0.116
-349.479	-137.341	0.165	-0.019
-348.464	-111.599	0.241	0.049
-347.450	-94.799	0.110	0.030
-346.435	416.877	-0.076	0.163
-345.420	-19.883	0.190	0.118
-344.406	-82.815	0.139	0.045
-343.391	-120.299	0.300	0.051
-342.377	-74.076	-0.066	-0.024
-341.362	179.233	-0.030	0.045
-340.348	207.328	-0.142	-0.222
-339.333	266.964	0.080	0.141
-338.318	85.247	0.093	-0.103
-337.304	800.000	0.011	-0.050
-336.289	165.765	0.145	-0.206
-335.275	-200.000	0.024	0.190
-334.260	-40.433	0.414	0.216
-333.245	-200.000	0.035	0.199
-332.231	-126.115	-0.167	-0.025
-331.216	709.657	-0.193	-0.514
-330.202	-200.000	0.018	0.307
-329.187	-57.539	-0.291	0.128
-328.172	38.166	-0.164	-0.146
-327.158	-200.000	0.036	0.191
-326.143	65.473	0.097	0.099
-325.129	-136.122	-0.365	-0.043
-324.114	-60.041	0.152	-0.065
-323.099	225.335	-0.097	0.157
-322.085	11.144	-0.282	-0.216
-321.070	57.581	-0.212	0.209
-320.056	144.094	-0.113	0.152
-319.041	20.701	-0.091	-0.074
-318.026	-60.005	-0.142	-0.061
-317.012	-200.000	-0.021	-0.116
-315.997	159.964	-0.117	-0.163
-314.983	-73.572	-0.189	0.069
-313.968	800.000	0.089	0.267
-312.953	800.000	-0.074	-0.265
-311.939	800.000	-0.078	-0.232
-310.924	-200.000	0.001	-0.097
-309.910	-109.340	-0.212	0.045
-308.895	493.402	0.131	-0.301
-307.880	-174.474	-0.146	-0.004
-306.866	-98.346	0.212	0.055
-305.851	-51.451	0.142	-0.067
-304.837	9.270	-0.077	0.058
-303.822	447.810	-0.139	0.307
-302.807	-21.335	0.187	0.115
-301.793	464.052	-0.058	-0.131
-300.778	-91.077	-0.211	-0.061
-299.764	-101.433	-0.235	-0.058
-298.749	-73.896	0.217	-0.079
-297.735	143.368	-0.021	-0.028
-296.720	800.000	-0.073	0.233
-295.705	-200.000	0.017	0.077
-294.691	-64.557	0.020	-0.008
-293.676	-105.463	0.358	-0.082
-292.662	-109.048	-0.078	0.017
-291.647	-44.566	-0.166	-0.084
-290.632	2.202	0.043	-0.031
-289.618	-122.801	0.456	-0.074
-288.603	77.533	-0.044	-0.047
-287.589	-200.000	-0.010	0.187
-286.574	734.565	0.032	-0.086
-285.559	48.199	0.033	0.031
-284.545	-117.499	0.211	0.038
-283.530	-156.556	-0.160	-0.010
-282.516	478.209	0.152	0.345
-281.501	-108.040	-0.393	-0.086
-280.486	46.685	-0.129	0.121
-279.472	-109.539	-0.213	0.045
-278.457	-150.571	0.303	0.023
-277.443	-200.000	0.013	0.354
-276.428	-140.490	-0.126	-0.013
-275.413	5.250	0.267	-0.198
-274.399	800.000	0.099	0.376
-273.384	262.612	-0.087	0.152
-272.370	-31.796	-0.062	-0.035
-271.355	183.581	-0.063	0.093
-270.340	-10.924	0.113	0.075
-269.326	475.958	-0.085	-0.193
-268.311	-25.377	-0.157	0.093
-267.297	192.586	0.106	0.161
-266.282	-6.757	0.118	-0.081
-265.267	60.659	-0.116	0.116
-264.253	-132.478	0.208	0.027
-263.238	203.065	0.017	0.026
-262.224	343.482	0.092	0.180
-261.209	102.459	-0.100	0.117
-260.195	98.769	-0.109	0.126
-259.180	-102.203	0.158	-0.038
-258.165	109.220	0.125	-0.150
-257.151	161.290	-0.107	-0.149
-256.136	-200.000	-0.074	0.429
-255.122	-124.294	-0.137	0.021
-254.107	-109.672	0.466	0.098
-253.092	-200.000	-0.013	0.453
-252.078	-200.000	0.016	-0.190
-251.063	-10.674	0.146	0.097
-250.049	800.000	0.053	0.222
-249.034	100.231	-0.091	0.106
-248.019	8.811	0.207	0.156
-247.005	58.081	-0.147	-0.145
-245.990	17.481	0.247	-0.197
-244.976	-138.612	0.143	0.016
-243.961	-8.642	-0.241	-0.162
-242.946	147.065	-0.094	-0.126
-241.932	800.000	0.027	0.110
-240.917	-96.237	-0.022	0.006
-239.903	-93.653	-0.174	0.048
-238.888	65.894	-0.142	0.144
-237.873	88.376	0.338	-0.376
-236.859	-48.884	-0.188	0.090
-235.844	-200.000	-0.059	-0.348
-234.830	-77.686	0.256	-0.089
-233.815	-200.000	0.008	0.070
-232.800	-200.000	-0.022	0.162
-231.786	-200.000	0.010	0.184
-230.771	-66.504	0.112	0.045
-229.757	-80.722	-0.073	-0.024
-228.742	58.821	0.085	-0.083
-227.727	107.059	-0.158	-0.188
-226.713	-52.751	-0.128	-0.059
-225.698	127.451	0.203	0.257
-224.684	-200.000	0.009	0.051
-223.669	-200.000	0.061	-0.341
-222.655	156.997	0.094	0.131
-221.640	-0.293	0.171	0.122
-220.625	48.390	0.092	-0.086
-219.611	-36.212	0.446	-0.241
-218.596	9.378	-0.176	0.134
-217.582	-131.327	-0.287	0.038
-216.567	-111.095	0.331	0.068
-215.552	423.776	-0.049	-0.105
-214.538	667.228	-0.057	0.148
-213.523	-47.709	-0.316	-0.154
-212.509	-64.541	0.270	-0.110
-211.494	-48.923	-0.317	-0.152
-210.479	209.867	-0.067	0.105
-209.465	72.545	0.036	0.038
-208.450	-33.154	0.219	0.121
-207.436	-7.736	-0.229	0.155
-206.421	40.780	0.126	-0.114
-205.406	-173.495	0.344	0.010
-204.392	-200.000	0.001	-0.218
-203.377	336.675	0.082	-0.160
-202.363	558.505	0.128	-0.309
-201.348	-122.067	-0.054	0.009
-200.333	36.776	0.058	0.052
-199.319	6.721	-0.210	0.156
-198.304	-25.743	0.244	-0.144
-197.290	-77.726	-0.179	0.062
-196.275	-122.589	0.092	0.015
-195.260	-80.735	-0.131	0.044
-194.246	-46.691	0.383	-0.187
-193.231	15.628	0.126	-0.099
-192.217	70.307	0.207	0.214
-191.202	14.806	0.164	-0.128
-190.187	-104.374	0.211	-0.049
-189.173	36.748	-0.146	-0.129
-188.158	556.198	0.073	0.176
-187.144	-200.000	0.015	0.091
-186.129	316.538	-0.132	0.249
-185.114	159.799	0.112	-0.155
-184.100	-87.749	-0.068	-0.020
-183.085	800.000	-0.060	0.192
-182.071	-180.523	-0.060	-0.001
-181.056	-200.000	0.021	0.165
-180.042	60.975	-0.179	0.178
-179.027	-123.768	-0.221	0.035
-178.012	-200.000	-0.003	0.174
-176.998	-126.683	-0.263	0.039
-175.983	-200.000	0.048	-0.353
-174.969	-52.012	-0.205	-0.095
-173.954	100.552	0.117	-0.136
-172.939	-200.000	0.003	-0.048
-171.925	167.501	-0.140	0.199
-170.910	-200.000	-0.018	0.131
-169.896	-200.000	0.019	0.098
-168.881	-200.000	-0.010	0.102
-167.866	402.979	0.120	0.252
-166.852	369.928	0.065	0.131
-165.837	-34.861	0.300	-0.164
-164.823	-78.526	0.293	-0.100
-163.808	800.000	-0.050	0.183
-162.793	-53.107	0.190	-0.087
-161.779	-94.222	-0.313	0.086
-160.764	448.760	0.146	-0.322
-159.750	25.431	0.073	0.061
-158.735	390.995	0.173	0.360
-157.720	-115.427	0.256	0.048
-156.706	355.658	0.081	-0.161
-155.691	-40.994	-0.146	0.076
-154.677	77.818	0.157	0.167
-153.662	-163.196	-0.118	-0.006
-152.647	-35.361	0.086	-0.047
-151.633	-200.000	0.029	-0.202
-150.618	33.793	0.147	-0.128
-149.604	800.000	0.063	-0.220
-148.589	-117.965	-0.163	-0.029
-147.574	-82.951	0.076	-0.024
-146.560	800.000	-0.016	0.056
-145.545	-200.000	-0.012	0.186
-144.531	575.091	-0.028	-0.068
-143.516	-21.414	-0.320	0.195
-142.502	-40.591	0.262	0.136
-141.487	5.575	-0.175	-0.129
-140.472	-18.355	-0.136	-0.085
-139.458	65.207	0.056	0.057
-138.443	-127.677	-0.136	-0.020
-137.429	205.402	-0.078	-0.121
-136.414	-200.000	0.007	-0.435
-135.399	94.943	0.211	-0.240
-134.385	42.452	-0.148	-0.134
-133.370	-200.000	0.015	0.183
-132.356	800.000	0.064	-0.182
-131.341	-62.010	-0.370	0.154
-130.326	-142.554	0.496	0.048
-129.312	-74.000	0.229	-0.083
-128.297	81.823	0.062	-0.067
-127.283	9.777	-0.348	0.263
-126.268	800.000	0.060	0.221
-125.253	214.696	0.161	0.254
-124.239	800.000	-0.056	0.224
-123.224	160.686	-0.178	0.247
-122.210	67.589	-0.156	-0.159
-121.195	-193.435	0.337	0.003
-120.180	-138.693	-0.158	-0.017
