DTS Sentinel unit serial number:	SN413079Multiplexer serial number:	ORYXHardware model number:	OX4-SRSoftware version number:	ORYX F/W v4.00 Oryx Data Collector v3.7.2.0data status	okinstallation	princeton_trtdifferential loss correction	single-endedforward channel	channel 4reverse channel	N/Adate	2019/09/18time	09:13:34forward acquisition time	60.00reverse acquisition time	0.00gamma	496.2192k internal	0.2324k external	0.2324temperature offset calibration	0.9986default loss term (dB/km)	0.3790temperature slope calibration	1.0000multiplexer offset coefficient	1.0000multiplexer slope coefficient	1.0000fibre end	0.00T internal ref (°C)	25.62T ext. ref 1 (°C)	0.25T ext. ref 2 (°C)	23.02length (m)	temperature (°C)	Stokes	anti-Stokes-747.200	-193.627	-0.149	-0.001
-746.185	-47.676	0.183	0.090
-745.171	-81.586	0.212	0.070
-744.156	-1.370	0.118	0.084
-743.142	-200.000	0.004	0.259
-742.127	-200.000	-0.023	0.125
-741.112	348.015	0.205	0.408
-740.098	194.972	-0.425	0.652
-739.083	-153.023	0.483	-0.034
-738.069	56.053	0.126	-0.123
-737.054	-200.000	-0.036	0.210
-736.039	-200.000	0.054	0.274
-735.025	-26.758	0.091	0.054
-734.010	44.570	0.152	-0.141
-732.996	163.292	0.096	-0.136
-731.981	-26.117	0.463	-0.275
-730.966	108.743	-0.076	-0.091
-729.952	108.895	-0.118	0.142
-728.937	-25.694	-0.199	-0.119
-727.923	-200.000	-0.008	0.408
-726.908	-90.352	-0.359	-0.105
-725.894	-144.740	0.289	0.027
-724.879	-115.761	0.374	-0.071
-723.864	446.459	-0.092	-0.204
-722.850	-18.555	-0.254	-0.160
-721.835	-52.900	-0.275	-0.128
-720.821	-80.879	0.160	-0.053
-719.806	-200.000	-0.036	-0.246
-718.791	354.354	0.019	-0.038
-717.777	-114.731	-0.018	-0.004
-716.762	427.908	-0.196	-0.427
-715.748	-87.866	0.153	0.046
-714.733	-12.856	0.069	-0.045
-713.718	800.000	0.033	0.132
-712.704	-59.029	0.093	0.041
-711.689	-65.641	-0.092	0.037
-710.675	-3.526	0.173	0.121
-709.660	11.313	0.117	0.090
-708.645	-189.361	-0.054	0.001
-707.631	-117.643	0.151	0.027
-706.616	139.457	-0.136	0.181
-705.602	19.438	-0.172	0.139
-704.587	-143.121	0.162	0.016
-703.572	-54.717	-0.180	0.082
-702.558	-94.250	0.138	-0.038
-701.543	458.829	-0.073	-0.164
-700.529	320.429	-0.091	-0.175
-699.514	644.732	0.053	-0.135
-698.499	150.082	-0.039	0.053
-697.485	35.210	-0.037	0.033
-696.470	-200.000	-0.001	-0.172
-695.456	-89.899	-0.140	0.041
-694.441	-200.000	0.021	-0.216
-693.426	800.000	-0.045	0.151
-692.412	111.764	-0.110	0.134
-691.397	1.941	-0.159	0.115
-690.383	148.604	0.122	0.166
-689.368	122.320	0.113	0.143
-688.354	-200.000	-0.017	0.124
-687.339	73.853	-0.165	-0.175
-686.324	-200.000	0.012	0.287
-685.310	-81.233	-0.321	0.107
-684.295	60.800	-0.055	0.055
-683.281	-68.457	0.035	-0.014
-682.266	99.263	0.192	-0.224
-681.251	70.256	-0.028	-0.029
-680.237	-200.000	0.027	-0.189
-679.222	-105.726	-0.114	0.026
-678.208	-77.358	0.272	0.095
-677.193	704.399	-0.031	0.082
-676.178	351.071	-0.101	0.201
-675.164	167.259	-0.181	-0.259
-674.149	407.738	0.161	-0.344
-673.135	-200.000	-0.022	0.191
-672.120	10.924	-0.155	-0.119
-671.105	-100.165	0.237	0.059
-670.091	-69.897	0.363	-0.139
-669.076	-76.168	-0.019	-0.007
-668.062	-4.462	0.133	-0.093
-667.047	-200.000	0.006	0.047
-666.032	97.051	-0.233	0.269
-665.018	-123.577	-0.196	-0.031
-664.003	15.053	-0.105	-0.083
-662.989	171.204	-0.151	0.217
-661.974	492.688	-0.135	-0.311
-660.959	62.480	0.252	0.253
-659.945	-58.689	-0.315	-0.137
-658.930	800.000	0.098	-0.338
-657.916	682.082	0.157	-0.413
-656.901	-11.497	0.183	-0.121
-655.886	17.997	-0.110	0.088
-654.872	47.665	-0.155	0.146
-653.857	-200.000	-0.004	0.101
-652.843	800.000	0.036	-0.129
-651.828	-200.000	0.015	-0.159
-650.814	305.454	0.048	0.089
-649.799	7.396	0.254	0.191
-648.784	5.788	0.236	-0.176
-647.770	-119.953	-0.131	-0.023
-646.755	-87.209	-0.141	0.043
-645.741	-118.488	0.149	0.027
-644.726	800.000	-0.062	0.178
-643.711	141.732	-0.264	-0.352
-642.697	18.779	-0.084	-0.068
-641.682	-91.517	-0.144	-0.041
-640.668	800.000	-0.052	0.182
-639.653	-1.167	-0.034	0.024
-638.638	37.586	-0.090	0.080
-637.624	206.555	-0.099	-0.155
-636.609	299.837	0.041	0.076
-635.595	20.459	-0.179	-0.145
-634.580	13.301	-0.107	0.083
-633.565	171.786	0.219	0.316
-632.551	-38.360	0.066	-0.035
-631.536	40.352	-0.204	0.184
-630.522	172.737	-0.083	0.120
-629.507	-127.362	-0.184	-0.027
-628.492	-171.060	0.287	0.010
-627.478	266.202	0.075	-0.132
-626.463	16.426	-0.103	0.082
-625.449	348.651	-0.238	-0.473
-624.434	234.701	0.048	-0.079
-623.419	-53.621	0.430	-0.197
-622.405	398.720	0.053	0.112
-621.390	800.000	0.043	0.156
-620.376	800.000	-0.065	0.230
-619.361	131.698	0.104	-0.135
-618.346	-77.734	-0.235	-0.082
-617.332	556.300	0.174	0.420
-616.317	137.517	-0.081	-0.107
-615.303	-161.028	-0.215	0.011
-614.288	-96.674	-0.412	-0.109
-613.273	50.973	0.134	-0.127
-612.259	449.339	0.044	0.098
-611.244	800.000	-0.008	0.030
-610.230	-141.804	-0.448	0.045
-609.215	-200.000	0.029	0.216
-608.201	-108.431	0.219	0.047
-607.186	-178.347	0.204	0.005
-606.171	-17.990	-0.369	-0.232
-605.157	238.025	0.161	-0.269
-604.142	10.040	0.231	-0.176
-603.128	-127.199	-0.052	-0.008
-602.113	150.079	-0.260	-0.354
-601.098	-74.532	-0.161	-0.058
-600.084	15.126	0.201	-0.158
-599.069	14.720	0.233	-0.183
-598.055	463.401	0.120	0.268
-597.040	-200.000	-0.023	-0.382
-596.025	-200.000	0.015	-0.316
-595.011	209.408	-0.219	-0.344
-593.996	-200.000	-0.013	0.114
-592.982	48.464	-0.230	-0.216
-591.967	-33.943	0.235	0.130
-590.952	-90.260	0.279	0.081
-589.938	-45.414	-0.220	-0.110
-588.923	800.000	0.123	-0.481
-587.909	-154.461	0.011	0.001
-586.894	-66.600	0.213	-0.085
-585.879	170.238	0.127	0.182
-584.865	-74.891	-0.305	-0.110
-583.850	452.042	-0.078	0.174
-582.836	-52.580	-0.292	-0.135
-581.821	800.000	0.039	0.139
-580.806	12.479	-0.140	0.109
-579.792	-27.008	0.228	0.134
-578.777	548.168	-0.219	0.525
-577.763	331.550	0.101	0.195
-576.748	800.000	-0.036	-0.124
-575.733	-22.125	-0.077	-0.047
-574.719	-62.190	0.126	-0.053
-573.704	-62.435	-0.321	0.134
-572.690	422.119	0.142	0.305
-571.675	-113.939	0.222	0.043
-570.661	20.766	-0.114	-0.092
-569.646	-200.000	0.034	0.357
-568.631	121.890	0.094	0.118
-567.617	-119.829	-0.106	-0.018
-566.602	244.398	-0.112	-0.188
-565.588	-116.384	-0.353	0.065
-564.573	305.571	0.047	-0.088
-563.558	-200.000	0.095	0.495
-562.544	44.675	0.110	-0.102
-561.529	-72.162	0.155	-0.058
-560.515	-75.396	0.320	-0.114
-559.500	0.148	-0.233	0.167
-558.485	-130.982	-0.149	-0.020
-557.471	-200.000	0.003	0.463
-556.456	650.779	0.162	0.416
-555.442	-71.022	-0.071	0.027
-554.427	-184.090	-0.201	-0.003
-553.412	800.000	-0.023	0.095
-552.398	-126.731	-0.333	0.049
-551.383	800.000	0.074	-0.274
-550.369	-63.314	-0.250	0.103
-549.354	-16.068	-0.078	-0.050
-548.339	259.618	0.083	0.143
-547.325	-200.000	0.068	0.333
-546.310	-7.805	-0.252	-0.170
-545.296	216.342	-0.078	-0.125
-544.281	-18.980	-0.207	0.129
-543.266	-200.000	-0.066	-0.296
-542.252	-200.000	0.017	0.098
-541.237	141.601	0.167	-0.221
-540.223	-104.630	-0.082	-0.019
-539.208	-5.300	-0.122	0.084
-538.193	319.915	-0.088	0.168
-537.179	37.857	-0.185	0.164
-536.164	-142.226	0.128	0.013
-535.150	299.513	0.054	0.100
-534.135	-200.000	-0.029	-0.215
-533.121	-95.761	0.322	-0.086
-532.106	-200.000	-0.018	-0.273
-531.091	-133.395	0.360	0.045
-530.077	-179.207	0.169	0.004
-529.062	-200.000	-0.002	-0.264
-528.048	-105.806	0.253	0.057
-527.033	120.130	0.185	-0.230
-526.018	72.511	-0.110	0.115
-525.004	-45.632	0.145	0.072
-523.989	800.000	0.053	0.222
-522.975	-25.973	-0.100	0.059
-521.960	-144.567	-0.384	0.035
-520.945	6.623	-0.445	0.331
-519.931	-147.474	0.212	-0.018
-518.916	-124.729	-0.241	-0.037
-517.902	3.996	0.183	0.134
-516.887	-83.712	0.118	0.038
-515.872	108.678	-0.239	0.286
-514.858	-200.000	-0.040	-0.231
-513.843	385.878	-0.020	0.041
-512.829	-200.000	0.079	-0.349
-511.814	-107.582	-0.097	-0.021
-510.799	-26.564	-0.231	-0.135
-509.785	94.717	-0.276	-0.314
-508.770	-131.996	0.498	-0.065
-507.756	584.268	0.063	0.154
-506.741	-179.104	-0.146	0.003
-505.726	67.876	-0.141	0.144
-504.712	-200.000	0.018	-0.257
-503.697	123.652	-0.156	-0.196
-502.683	800.000	0.064	0.279
-501.668	-51.501	0.109	-0.051
-500.653	-119.087	-0.254	0.044
-499.639	-200.000	0.001	-0.208
-498.624	25.495	-0.162	-0.135
-497.610	429.096	-0.099	0.214
-496.595	-200.000	0.053	0.393
-495.581	-42.191	-0.206	-0.105
-494.566	-162.747	0.139	0.007
-493.551	-200.000	0.002	0.264
-492.537	-145.865	0.022	0.002
-491.522	-45.649	0.339	0.167
-490.508	9.083	0.177	0.133
-489.493	-120.715	0.266	0.045
-488.478	-42.994	-0.132	-0.067
-487.464	231.585	-0.122	-0.200
-486.449	-200.000	-0.035	0.281
-485.435	-135.072	-0.283	-0.034
-484.420	67.439	-0.056	0.057
-483.405	-37.908	0.290	0.154
-482.391	-176.834	0.216	0.005
-481.376	-200.000	-0.008	-0.173
-480.362	-124.935	-0.281	-0.043
-479.347	-200.000	0.022	-0.109
-478.332	-154.408	-0.453	0.030
-477.318	-65.311	0.081	0.032
-476.303	194.925	-0.131	-0.199
-475.289	-200.000	0.010	0.240
-474.274	-148.299	0.094	0.008
-473.259	-13.571	-0.052	-0.034
-472.245	-200.000	-0.017	-0.132
-471.230	-108.891	0.145	-0.031
-470.216	460.211	-0.116	-0.257
-469.201	288.889	-0.168	-0.304
-468.186	376.863	0.065	-0.132
-467.172	119.136	-0.132	-0.163
-466.157	-84.470	0.188	0.059
-465.143	-128.453	-0.204	0.029
-464.128	74.225	-0.084	0.088
-463.113	-77.084	-0.157	0.055
-462.099	40.675	0.150	-0.135
-461.084	-200.000	0.058	-0.354
-460.070	100.908	-0.073	-0.085
-459.055	49.793	-0.083	-0.078
-458.040	137.487	0.076	0.100
-457.026	260.743	-0.062	-0.108
-456.011	-23.734	0.053	-0.031
-454.997	-102.383	-0.338	-0.081
-453.982	-59.559	-0.143	-0.061
-452.968	-38.868	-0.148	0.078
-451.953	158.476	-0.019	-0.026
-450.938	-16.515	0.144	0.091
-449.924	349.240	0.010	0.019
-448.909	800.000	-0.082	0.253
-447.895	106.736	0.048	-0.057
-446.880	-101.309	-0.224	-0.055
-445.865	-113.998	-0.368	0.071
-444.851	-157.019	0.312	0.019
-443.836	191.099	0.121	0.181
-442.822	800.000	-0.005	0.017
-441.807	4.897	-0.148	0.109
-440.792	176.293	-0.113	0.164
-439.778	240.216	-0.121	0.201
-438.763	-163.488	0.233	0.011
-437.749	-61.065	0.246	0.104
-436.734	-107.650	-0.237	-0.052
-435.719	-144.192	0.021	-0.002
-434.705	-200.000	-0.007	0.067
-433.690	-123.896	0.108	0.017
-432.676	-82.764	-0.244	0.079
-431.661	131.101	0.234	0.300
-430.646	172.164	-0.181	0.259
-429.632	-129.180	0.350	-0.049
-428.617	-189.946	0.123	0.001
-427.603	-114.354	-0.024	0.005
-426.588	-24.044	0.267	-0.159
-425.573	-112.195	0.110	0.022
-424.559	217.407	0.117	0.186
-423.544	800.000	-0.078	0.246
-422.530	75.470	0.215	-0.226
-421.515	5.623	0.154	-0.114
-420.500	167.950	0.027	0.038
-419.486	85.778	-0.046	-0.050
-418.471	288.964	-0.087	-0.158
-417.457	-200.000	0.002	0.014
-416.442	174.118	-0.111	-0.160
-415.428	-200.000	-0.005	-0.340
-414.413	78.125	0.316	-0.336
-413.398	-49.641	0.204	0.097
-412.384	-62.487	0.275	0.114
-411.369	-91.086	0.237	-0.068
-410.355	17.409	0.334	0.264
-409.340	598.310	0.102	-0.252
-408.325	1.939	0.085	0.061
-407.311	-65.514	-0.109	0.043
-406.296	800.000	-0.085	0.248
-405.282	167.409	-0.228	0.323
-404.267	-103.378	0.432	-0.101
-403.252	25.629	-0.323	0.268
-402.238	423.893	0.084	-0.181
-401.223	-7.354	-0.341	-0.230
-400.209	-200.000	-0.037	-0.257
-399.194	142.424	-0.145	-0.191
-398.179	110.736	0.145	-0.174
-397.165	-53.862	0.031	0.014
-396.150	73.757	-0.155	-0.162
-395.136	-30.649	0.134	0.076
-394.121	-200.000	0.013	-0.307
-393.106	-141.035	0.131	-0.013
-392.092	-82.062	-0.166	0.054
-391.077	370.717	0.049	-0.099
-390.063	71.726	-0.105	0.108
-389.048	800.000	-0.056	-0.170
-388.033	800.000	0.044	0.192
-387.019	-200.000	0.047	-0.320
-386.004	-110.396	0.132	-0.027
-384.990	-108.203	0.119	-0.026
-383.975	-200.000	0.025	-0.149
-382.960	800.000	0.097	-0.317
-381.946	721.705	0.071	-0.187
-380.931	-68.259	-0.151	-0.058
-379.917	-27.151	-0.453	-0.263
-378.902	800.000	-0.095	0.260
-377.888	301.761	-0.078	0.143
-376.873	-23.681	-0.046	0.028
-375.858	334.770	-0.070	-0.134
-374.844	800.000	-0.077	-0.294
-373.829	-200.000	-0.019	-0.326
-372.815	-104.512	0.117	0.027
-371.800	101.739	-0.189	0.220
-370.785	24.759	-0.187	-0.154
-369.771	-200.000	0.010	0.102
-368.756	-106.661	-0.154	-0.034
-367.742	-200.000	-0.005	0.156
-366.727	462.308	-0.121	-0.268
-365.712	-140.651	0.355	-0.037
-364.698	40.477	-0.069	0.062
-363.683	431.965	-0.134	-0.289
-362.669	-23.191	0.219	-0.131
-361.654	-12.643	0.022	0.014
-360.639	799.570	-0.032	0.086
-359.625	-103.964	0.207	0.048
-358.610	-67.015	-0.244	0.096
-357.596	242.529	0.288	0.479
-356.581	-132.317	-0.194	0.025
-355.566	360.984	-0.062	0.124
-354.552	-40.479	-0.185	-0.095
-353.537	219.649	-0.194	0.309
-352.523	-129.904	-0.297	-0.040
-351.508	-200.000	-0.034	0.264
-350.493	675.913	0.013	0.034
-349.479	-47.133	0.149	-0.072
-348.464	71.795	-0.274	-0.283
-347.450	316.595	0.141	-0.264
-346.435	-60.804	-0.061	-0.026
-345.420	-84.814	-0.127	0.040
-344.406	-112.693	0.093	-0.018
-343.391	51.830	-0.176	0.167
-342.377	236.817	0.115	0.188
-341.362	617.134	-0.031	0.078
-340.348	63.818	-0.224	-0.223
-339.333	-200.000	0.022	0.421
-338.318	-111.907	-0.234	-0.047
-337.304	-113.073	-0.218	-0.043
-336.289	-119.904	-0.182	-0.031
-335.275	55.323	-0.436	-0.419
-334.260	-61.168	0.132	0.055
-333.245	-33.857	-0.218	0.119
-332.231	-168.537	0.106	0.004
-331.216	800.000	0.046	0.130
-330.202	-53.018	-0.520	-0.237
-329.187	9.510	0.100	-0.075
-328.172	-40.054	-0.082	0.042
-327.158	-82.453	-0.204	0.066
-326.143	665.428	-0.060	0.155
-325.129	-200.000	0.003	-0.056
-324.114	-74.574	0.277	-0.099
-323.099	-125.651	0.124	-0.019
-322.085	52.803	-0.200	-0.190
-321.070	800.000	0.077	-0.263
-320.056	-22.178	0.099	-0.060
-319.041	-59.427	0.134	0.057
-318.026	-58.360	-0.239	0.103
-317.012	-200.000	0.091	0.402
-315.997	-200.000	-0.015	0.158
-314.983	-200.000	0.017	-0.162
-313.968	-15.007	0.069	0.044
-312.953	-200.000	-0.001	0.021
-311.939	11.128	0.150	0.114
-310.924	444.446	0.008	0.018
-309.910	-200.000	-0.005	0.178
-308.895	-126.430	0.249	0.037
-307.880	-200.000	-0.038	-0.191
-306.866	-200.000	0.010	-0.145
-305.851	-200.000	0.023	0.346
-304.837	-109.384	0.045	-0.009
-303.822	70.219	0.045	0.046
-302.807	116.179	-0.173	-0.211
-301.793	166.686	-0.170	-0.240
-300.778	-93.490	-0.137	-0.038
-299.764	144.662	-0.025	0.034
-298.749	-77.449	0.018	-0.006
-297.735	-137.577	0.154	0.017
-296.720	-69.514	0.294	0.112
-295.705	-200.000	-0.032	-0.399
-294.691	455.613	0.106	-0.233
-293.676	-200.000	0.018	0.116
-292.662	647.402	0.159	0.404
-291.647	-134.719	-0.290	0.035
-290.632	147.305	0.156	0.208
-289.618	-16.225	0.135	-0.085
-288.603	-4.967	-0.180	0.123
-287.589	-133.958	0.147	0.018
-286.574	112.607	0.288	-0.346
-285.559	-200.000	0.006	-0.323
-284.545	181.878	0.192	0.281
-283.530	630.933	-0.120	-0.301
-282.516	-174.244	0.316	0.009
-281.501	-133.079	0.070	0.009
-280.486	301.214	0.109	-0.199
-279.472	21.741	-0.127	0.103
-278.457	-70.016	0.060	-0.023
-277.443	502.129	-0.030	0.069
-276.428	-91.506	0.242	-0.068
-275.413	458.561	0.167	0.367
-274.399	800.000	-0.080	0.238
-273.384	549.031	-0.064	0.152
-272.370	-84.329	-0.260	-0.081
-271.355	613.282	0.051	0.126
-270.340	-158.332	0.230	0.013
-269.326	-67.113	-0.172	-0.067
-268.311	-200.000	-0.074	-0.410
-267.297	91.234	0.118	-0.132
-266.282	-100.721	0.175	-0.043
-265.267	-4.504	0.214	-0.146
-264.253	-200.000	0.005	0.128
-263.238	202.497	0.132	0.201
-262.224	-109.633	-0.086	-0.018
-261.209	-200.000	-0.002	-0.010
-260.195	-6.597	-0.362	0.244
-259.180	-145.319	0.152	-0.014
-258.165	-128.364	0.227	0.032
-257.151	-62.667	0.277	-0.114
-256.136	149.473	0.150	0.202
-255.122	-39.381	-0.055	0.029
-254.107	-200.000	-0.184	0.001
-253.092	-31.753	0.317	-0.176
-252.078	-84.147	0.332	0.104
-251.063	-125.793	0.362	0.054
-250.049	179.721	-0.128	0.185
-249.034	800.000	-0.128	0.399
-248.019	-73.777	-0.413	0.149
-247.005	-7.915	0.161	0.107
-245.990	800.000	0.041	0.128
-244.976	-39.702	0.283	-0.147
-243.961	33.407	0.340	-0.292
-242.946	-200.000	-0.000	-0.169
-241.932	-200.000	0.286	-0.001
-240.917	-9.319	0.160	0.106
-239.903	-200.000	-0.022	0.295
-238.888	-16.884	0.370	0.231
-237.873	568.542	-0.130	0.311
-236.859	-200.000	-0.015	-0.124
-235.844	236.855	-0.107	-0.175
-234.830	-200.000	0.010	0.243
-233.815	235.807	0.065	-0.107
-232.800	46.863	-0.283	-0.260
-231.786	-51.543	-0.074	0.034
-230.771	36.319	-0.069	-0.060
-229.757	-12.971	-0.227	0.146
-228.742	-9.022	0.133	0.088
-227.727	45.463	0.110	0.101
-226.713	338.405	0.048	0.091
-225.698	31.563	-0.254	-0.216
-224.684	-74.074	-0.230	0.082
-223.669	372.140	-0.062	0.124
-222.655	180.392	0.141	-0.205
-221.640	-143.307	-0.399	0.038
-220.625	162.198	-0.171	0.237
-219.611	296.887	0.309	0.560
-218.596	800.000	-0.068	-0.280
-217.582	-179.535	-0.066	-0.001
-216.567	-140.226	-0.076	0.008
-215.552	-126.051	-0.160	0.024
-214.538	-129.798	0.357	-0.048
-213.523	800.000	-0.099	-0.311
-212.509	-200.000	0.037	-0.346
-211.494	153.328	-0.224	-0.303
-210.479	-70.137	0.237	-0.089
-209.465	800.000	0.070	0.253
-208.450	-101.660	0.096	0.023
-207.436	800.000	0.021	-0.085
-206.421	-8.469	0.101	0.067
-205.406	800.000	-0.032	0.131
-204.392	-91.737	-0.150	-0.042
-203.377	262.768	-0.126	0.217
-202.363	-200.000	0.017	0.165
-201.348	20.479	0.131	0.105
-200.333	-200.000	0.025	-0.347
-199.319	293.551	0.272	0.490
-198.304	800.000	-0.023	-0.078
-197.290	325.729	-0.078	0.147
-196.275	-88.185	0.266	0.079
-195.260	442.206	-0.147	-0.318
-194.246	475.869	-0.054	0.120
-193.231	-200.000	0.011	-0.086
-192.217	81.132	0.132	-0.141
-191.202	31.552	0.368	-0.313
-190.187	-200.000	0.023	0.443
-189.173	-200.000	0.003	0.354
-188.158	-65.401	-0.215	-0.085
-187.144	-200.000	-0.002	0.126
-186.129	32.282	0.022	-0.018
-185.114	90.302	0.300	-0.331
-184.100	-200.000	0.005	0.053
-183.085	-137.023	0.044	0.005
-182.071	4.109	-0.281	0.203
-181.056	349.401	-0.071	-0.138
-180.042	-114.962	-0.096	-0.018
-179.027	373.619	-0.085	-0.170
-178.012	-85.475	0.228	-0.070
-176.998	-200.000	-0.010	-0.099
-175.983	800.000	0.058	0.185
-174.969	-24.112	0.238	0.141
-173.954	286.775	0.119	0.213
-172.939	-148.762	-0.158	0.013
-171.925	-58.292	0.107	-0.046
-170.910	96.162	0.216	0.244
-169.896	24.204	0.215	-0.175
-168.881	373.521	-0.130	0.261
-167.866	61.918	0.200	0.197
-166.852	-140.461	0.116	-0.012
-165.837	-46.991	0.420	-0.202
-164.823	-200.000	-0.006	-0.158
-163.808	98.689	-0.116	0.132
-162.793	197.098	0.021	0.031
-161.779	-60.496	0.311	-0.130
-160.764	800.000	0.114	-0.376
-159.750	-145.504	0.196	-0.017
-158.735	789.122	0.010	-0.026
-157.720	-200.000	-0.019	0.202
-156.706	96.157	-0.183	0.206
-155.691	-200.000	-0.032	-0.197
-154.677	30.584	0.177	0.149
-153.662	-200.000	-0.058	-0.327
-152.647	-200.000	-0.008	-0.434
-151.633	-146.560	-0.074	0.006
-150.618	-153.888	0.273	0.018
-149.604	68.829	0.148	-0.150
-148.589	800.000	0.115	0.401
-147.574	2.666	0.102	-0.073
-146.560	352.293	-0.072	-0.140
-145.545	-81.435	0.151	-0.049
-144.531	-25.403	0.182	-0.106
-143.516	52.599	-0.100	0.095
-142.502	-123.558	0.310	0.049
-141.487	338.928	-0.052	-0.100
-140.472	-8.094	-0.204	0.135
-139.458	-170.612	-0.321	0.011
-138.443	174.475	0.118	0.168
-137.429	800.000	0.068	0.266
-136.414	77.704	0.218	0.229
-135.399	-200.000	-0.016	-0.136
-134.385	123.909	-0.143	0.177
-133.370	81.847	0.085	-0.091
-132.356	494.111	-0.107	0.242
-131.341	35.968	0.098	0.085
-130.326	60.924	0.122	-0.119
-129.312	-116.847	-0.103	-0.019
-128.297	-16.634	-0.360	-0.225
-127.283	-77.560	0.094	0.032
-126.268	278.941	-0.108	0.189
-125.253	31.595	-0.045	-0.038
-124.239	-13.356	0.036	-0.023
-123.224	-200.000	0.014	-0.067
-122.210	-200.000	0.045	0.340
-121.195	-44.996	0.196	-0.096
