DTS Sentinel unit serial number:	SN413079Multiplexer serial number:	ORYXHardware model number:	OX4-SRSoftware version number:	ORYX F/W v4.00 Oryx Data Collector v3.7.2.0data status	okinstallation	princeton_trtdifferential loss correction	single-endedforward channel	channel 4reverse channel	N/Adate	2019/09/19time	09:01:35forward acquisition time	60.00reverse acquisition time	0.00gamma	496.2192k internal	0.2338k external	0.2338temperature offset calibration	1.0017default loss term (dB/km)	0.3790temperature slope calibration	1.0000multiplexer offset coefficient	1.0000multiplexer slope coefficient	1.0000fibre end	0.00T internal ref (°C)	21.53T ext. ref 1 (°C)	0.59T ext. ref 2 (°C)	18.11length (m)	temperature (°C)	Stokes	anti-Stokes-747.200	-200.000	-0.024	0.137
-746.185	-200.000	0.004	0.331
-745.171	-200.000	-0.016	0.203
-744.156	800.000	-0.112	0.455
-743.142	-168.766	0.183	-0.007
-742.127	-7.878	-0.368	0.249
-741.112	-149.475	-0.106	-0.008
-740.098	-130.973	0.400	-0.054
-739.083	800.000	-0.021	-0.080
-738.069	800.000	-0.043	0.137
-737.054	-125.664	-0.183	-0.028
-736.039	309.129	-0.071	-0.133
-735.025	475.822	-0.135	-0.305
-734.010	800.000	0.096	-0.414
-732.996	-82.545	-0.097	0.031
-731.981	-75.908	-0.063	0.022
-730.966	179.847	-0.153	0.225
-729.952	800.000	-0.089	-0.290
-728.937	154.270	-0.068	0.094
-727.923	800.000	0.053	0.149
-726.908	34.735	-0.172	-0.151
-725.894	-200.000	-0.039	-0.173
-724.879	-200.000	0.006	0.169
-723.864	13.028	0.175	0.136
-722.850	16.848	0.085	0.068
-721.835	-68.138	0.135	-0.053
-720.821	800.000	-0.066	0.192
-719.806	594.921	0.073	0.180
-718.791	198.266	0.145	-0.223
-717.777	500.408	0.061	0.140
-716.762	221.990	0.078	0.125
-715.748	-9.011	-0.227	0.152
-714.733	44.084	-0.238	0.218
-713.718	-87.317	-0.206	0.063
-712.704	72.464	0.209	0.218
-711.689	-88.984	0.158	-0.047
-710.675	-35.737	-0.214	0.116
-709.660	-200.000	0.017	0.507
-708.645	1.558	-0.091	0.066
-707.631	142.156	0.059	0.079
-706.616	800.000	-0.032	-0.093
-705.602	-43.776	-0.092	0.046
-704.587	-200.000	-0.036	0.174
-703.572	-200.000	-0.001	0.332
-702.558	613.503	-0.076	-0.190
-701.543	-200.000	0.001	0.207
-700.529	-98.680	-0.237	0.060
-699.514	800.000	-0.118	-0.468
-698.499	-200.000	0.041	0.205
-697.485	-74.351	-0.315	0.114
-696.470	50.298	0.312	-0.296
-695.456	-8.530	-0.266	0.179
-694.441	192.986	0.253	-0.382
-693.426	-144.252	-0.590	0.055
-692.412	40.175	0.320	0.288
-691.397	-88.848	0.183	-0.054
-690.383	-113.859	0.293	-0.057
-689.368	-40.115	-0.145	-0.075
-688.354	364.327	-0.052	0.105
-687.339	800.000	0.052	0.186
-686.324	213.018	-0.116	-0.183
-685.310	-41.039	-0.212	-0.110
-684.295	-29.901	0.076	-0.043
-683.281	-28.609	-0.139	0.080
-682.266	289.789	-0.093	0.169
-681.251	-25.030	-0.260	-0.154
-680.237	-167.302	0.319	-0.013
-679.222	155.555	-0.003	0.004
-678.208	-120.433	0.119	0.020
-677.193	-116.467	0.294	0.054
-676.178	-154.719	-0.047	0.003
-675.164	41.569	-0.211	-0.191
-674.149	-200.000	0.051	0.250
-673.135	59.634	0.168	-0.165
-672.120	-16.693	0.276	-0.175
-671.105	-91.450	-0.202	-0.058
-670.091	-80.294	-0.147	-0.049
-669.076	800.000	-0.095	-0.285
-668.062	-38.910	-0.352	0.185
-667.047	761.479	0.075	-0.205
-666.032	349.511	-0.085	0.168
-665.018	-89.420	-0.237	0.070
-664.003	-59.625	-0.132	-0.057
-662.989	9.008	-0.430	0.325
-661.974	636.826	0.036	0.091
-660.959	56.651	0.164	0.160
-659.945	-45.191	0.103	-0.051
-658.930	-200.000	0.053	-0.322
-657.916	-91.679	0.340	0.097
-656.901	800.000	0.077	0.274
-655.886	266.821	-0.181	-0.316
-654.872	-16.680	-0.278	-0.176
-653.857	58.579	0.039	0.038
-652.843	-2.239	0.092	0.065
-651.828	307.016	-0.103	-0.191
-650.814	62.188	0.320	0.319
-649.799	109.171	-0.054	0.065
-648.784	-94.480	-0.247	-0.067
-647.770	46.515	0.090	0.083
-646.755	517.611	0.151	-0.352
-645.741	24.870	-0.133	0.110
-644.726	302.289	0.061	0.113
-643.711	2.479	-0.249	-0.180
-642.697	800.000	0.062	0.256
-641.682	167.483	-0.017	0.024
-640.668	-128.796	0.234	-0.033
-639.653	452.699	0.008	-0.019
-638.638	-200.000	-0.027	-0.273
-637.624	-97.373	0.006	-0.001
-636.609	-38.404	-0.262	0.138
-635.595	-200.000	-0.013	-0.269
-634.580	68.497	-0.300	-0.307
-633.565	236.715	-0.070	-0.116
-632.551	-200.000	-0.001	-0.160
-631.536	-200.000	-0.004	-0.120
-630.522	-116.385	-0.275	-0.051
-629.507	-119.664	-0.262	-0.045
-628.492	-92.020	-0.267	-0.076
-627.478	448.782	-0.099	-0.219
-626.463	-61.419	0.463	0.194
-625.449	-33.220	-0.030	0.016
-624.434	-133.431	-0.260	0.033
-623.419	47.562	-0.115	-0.107
-622.405	-200.000	0.023	-0.214
-621.390	373.945	-0.045	-0.091
-620.376	800.000	-0.062	0.192
-619.361	-70.513	0.197	0.075
-618.346	-200.000	-0.013	-0.059
-617.332	-162.137	-0.296	-0.015
-616.317	171.706	-0.125	-0.179
-615.303	-43.441	0.266	-0.134
-614.288	-48.867	-0.182	0.087
-613.273	-32.485	-0.081	-0.045
-612.259	0.805	-0.142	0.101
-611.244	-130.532	-0.216	-0.029
-610.230	-83.862	0.113	0.036
-609.215	-19.415	0.094	-0.058
-608.201	-15.115	0.247	-0.158
-607.186	-97.946	0.047	-0.012
-606.171	-200.000	-0.003	-0.021
-605.157	336.438	0.125	0.243
-604.142	-34.249	-0.206	-0.113
-603.128	800.000	-0.076	-0.220
-602.113	115.234	0.253	0.308
-601.098	800.000	0.109	-0.409
-600.084	-200.000	-0.010	-0.160
-599.069	-94.333	-0.148	-0.040
-598.055	93.421	-0.033	0.037
-597.040	-144.454	0.301	0.028
-596.025	-28.025	-0.390	-0.225
-595.011	-8.060	0.160	-0.108
-593.996	66.261	0.074	0.075
-592.982	262.984	-0.175	-0.303
-591.967	378.277	-0.157	-0.321
-590.952	98.889	0.118	-0.136
-589.938	-93.454	0.195	-0.054
-588.923	44.230	0.080	-0.074
-587.909	3.180	0.194	0.140
-586.894	-200.000	-0.004	0.199
-585.879	-92.762	-0.075	0.021
-584.865	59.723	0.252	-0.248
-583.850	216.014	0.130	-0.206
-582.836	-35.866	-0.137	0.074
-581.821	-200.000	0.033	-0.297
-580.806	-46.126	0.171	0.084
-579.792	-108.165	0.249	0.054
-578.777	-194.725	-0.154	0.001
-577.763	5.310	0.136	0.100
-576.748	-110.592	0.293	0.060
-575.733	-91.016	-0.071	-0.020
-574.719	-115.405	0.139	-0.026
-573.704	-21.615	-0.173	-0.105
-572.690	-78.894	0.164	0.056
-571.675	-200.000	0.041	-0.277
-570.661	393.951	0.045	-0.094
-569.646	648.409	-0.110	-0.281
-568.631	800.000	-0.065	0.282
-567.617	-85.435	0.197	-0.061
-566.602	498.181	-0.114	-0.261
-565.588	190.392	0.106	0.159
-564.573	-117.553	-0.218	0.039
-563.558	-123.273	0.302	0.048
-562.544	-200.000	0.062	0.345
-561.529	-200.000	0.026	0.296
-560.515	153.888	0.361	-0.493
-559.500	-20.473	-0.078	0.048
-558.485	-200.000	0.000	-0.109
-557.471	800.000	0.046	0.165
-556.456	-33.120	-0.288	0.159
-555.442	-80.270	0.074	0.025
-554.427	-51.880	0.399	-0.185
-553.412	60.289	-0.268	-0.265
-552.398	-200.000	0.036	0.194
-551.383	800.000	0.081	-0.236
-550.369	110.959	0.113	0.135
-549.354	-200.000	0.029	-0.243
-548.339	-68.041	0.249	-0.097
-547.325	-130.626	0.071	0.009
-546.310	236.790	-0.063	0.104
-545.296	26.440	0.137	0.114
-544.281	154.390	0.241	-0.329
-543.266	482.830	-0.153	0.346
-542.252	-131.518	0.104	-0.014
-541.237	-81.394	-0.200	-0.066
-540.223	129.197	0.146	-0.186
-539.208	-81.016	-0.123	0.040
-538.193	-200.000	0.041	-0.237
-537.179	-14.290	-0.045	-0.029
-536.164	200.645	-0.062	0.094
-535.150	-111.941	-0.071	0.014
-534.135	-72.103	-0.245	0.090
-533.121	-24.863	-0.201	0.119
-532.106	-200.000	-0.011	-0.073
-531.091	-200.000	0.022	0.291
-530.077	-200.000	-0.004	-0.072
-529.062	433.709	-0.074	-0.159
-528.048	-117.162	0.234	0.042
-527.033	86.885	-0.315	0.346
-526.018	17.600	0.150	0.119
-525.004	30.976	0.205	-0.175
-523.989	-200.000	-0.012	-0.143
-522.975	-200.000	0.047	-0.539
-521.960	-101.982	-0.073	0.018
-520.945	-49.853	-0.401	-0.189
-519.931	-200.000	0.003	-0.163
-518.916	-52.527	-0.245	0.113
-517.902	-62.073	-0.182	0.075
-516.887	-186.376	-0.167	0.002
-515.872	-200.000	-0.015	-0.546
-514.858	42.659	-0.253	0.229
-513.843	365.407	-0.183	0.366
-512.829	-184.994	0.219	0.003
-511.814	-5.113	-0.038	-0.026
-510.799	569.032	0.087	-0.211
-509.785	-200.000	-0.042	0.197
-508.770	-67.628	-0.126	0.049
-507.756	32.940	0.065	0.056
-506.741	85.880	-0.237	-0.259
-505.726	59.216	0.070	-0.069
-504.712	-126.598	-0.172	0.025
-503.697	-56.877	0.194	0.085
-502.683	-142.660	-0.425	-0.041
-501.668	-31.074	0.275	-0.154
-500.653	35.627	0.268	-0.234
-499.639	-200.000	0.032	0.199
-498.624	800.000	-0.088	-0.364
-497.610	227.494	-0.130	-0.210
-496.595	-32.711	0.123	0.068
-495.581	-200.000	-0.023	-0.135
-494.566	-22.027	0.065	0.039
-493.551	800.000	-0.096	0.270
-492.537	800.000	0.063	-0.185
-491.522	-177.490	0.312	0.008
-490.508	-149.495	-0.041	-0.003
-489.493	-58.139	0.248	0.107
-488.478	60.340	-0.222	0.218
-487.464	188.124	-0.124	0.184
-486.449	-153.769	-0.213	-0.015
-485.435	-43.381	0.184	0.092
-484.420	42.616	0.143	0.129
-483.405	44.341	-0.044	-0.040
-482.391	32.216	0.330	-0.283
-481.376	-98.034	-0.274	-0.070
-480.362	800.000	0.072	0.310
-479.347	-55.563	-0.367	0.163
-478.332	-200.000	0.014	-0.205
-477.318	-90.643	-0.151	0.043
-476.303	62.182	-0.101	0.101
-475.289	392.443	-0.055	0.114
-474.274	-114.172	-0.157	0.030
-473.259	344.746	-0.113	0.220
-472.245	-36.456	-0.398	0.213
-471.230	-89.598	-0.421	-0.123
-470.216	21.250	0.159	-0.128
-469.201	-138.410	-0.176	-0.019
-468.186	105.651	0.222	0.261
-467.172	-200.000	0.075	0.409
-466.157	8.990	-0.217	-0.163
-465.143	-200.000	0.069	-0.349
-464.128	84.449	0.168	-0.183
-463.113	524.810	-0.065	-0.153
-462.099	-185.288	0.349	0.005
-461.084	-152.706	0.097	0.007
-460.070	-16.930	-0.233	0.146
-459.055	330.166	-0.256	0.489
-458.040	-186.380	-0.188	0.003
-457.026	-24.976	-0.136	-0.080
-456.011	-102.922	0.303	0.071
-454.997	43.279	0.161	-0.146
-453.982	48.472	-0.129	-0.120
-452.968	-65.018	-0.195	-0.078
-451.953	-73.919	-0.108	0.039
-450.938	14.570	0.274	-0.212
-449.924	-200.000	0.007	0.203
-448.909	-97.278	-0.160	-0.041
-447.895	68.441	-0.085	0.086
-446.880	670.459	-0.099	0.255
-445.865	-11.733	0.451	-0.293
-444.851	14.523	-0.107	-0.083
-443.836	-85.473	0.225	0.069
-442.822	800.000	0.037	0.115
-441.807	-20.036	-0.280	0.171
-440.792	-160.191	-0.240	-0.013
-439.778	-99.341	0.072	-0.018
-438.763	559.219	0.114	0.272
-437.749	-28.024	0.412	0.237
-436.734	561.876	0.039	0.093
-435.719	12.479	0.081	0.062
-434.705	800.000	-0.004	-0.012
-433.690	-77.581	0.222	0.076
-432.676	800.000	-0.080	-0.256
-431.661	-50.811	0.240	0.112
-430.646	-200.000	0.022	0.146
-429.632	181.362	-0.146	0.212
-428.617	-12.585	0.331	0.214
-427.603	19.188	-0.164	0.130
-426.588	63.827	0.328	-0.327
-425.573	126.203	-0.207	0.259
-424.559	-65.366	0.097	-0.039
-423.544	189.686	-0.105	-0.156
-422.530	37.187	-0.219	0.192
-421.515	-111.621	0.127	0.026
-420.500	-19.149	-0.315	-0.194
-419.486	800.000	-0.036	-0.148
-418.471	-171.259	-0.250	0.008
-417.457	-155.572	-0.232	-0.015
-416.442	800.000	-0.023	-0.088
-415.428	-67.918	-0.316	0.122
-414.413	-87.281	-0.202	0.061
-413.398	84.041	-0.336	0.363
-412.384	800.000	-0.051	-0.161
-411.369	800.000	0.163	0.446
-410.355	-69.698	0.235	-0.089
-409.340	-22.677	0.196	-0.117
-408.325	-50.676	0.136	0.063
-407.311	-44.406	-0.146	0.072
-406.296	-111.747	0.133	-0.027
-405.282	372.786	0.081	-0.163
-404.267	51.055	0.196	0.184
-403.252	-93.173	-0.144	0.040
-402.238	22.882	0.066	0.054
-401.223	-200.000	-0.013	-0.289
-400.209	596.977	0.020	-0.050
-399.194	-165.866	0.317	-0.013
-398.179	-114.517	-0.248	-0.047
-397.165	-200.000	-0.015	-0.089
-396.150	-200.000	0.061	0.470
-395.136	-200.000	0.006	-0.335
-394.121	63.394	0.140	0.139
-393.106	-100.658	-0.181	0.044
-392.092	-124.257	-0.090	0.014
-391.077	266.615	0.123	0.212
-390.063	-200.000	-0.053	0.290
-389.048	-69.015	-0.098	-0.037
-388.033	-172.607	0.490	0.015
-387.019	30.328	0.127	0.107
-386.004	-58.895	0.367	-0.157
-384.990	-108.749	-0.159	-0.034
-383.975	81.278	-0.204	-0.218
-382.960	42.128	0.207	-0.186
-381.946	-101.054	-0.206	-0.050
-380.931	-60.090	0.093	0.039
-379.917	-200.000	-0.081	0.405
-378.902	-200.000	0.013	-0.074
-377.888	19.785	-0.214	0.171
-376.873	-161.583	-0.090	-0.005
-375.858	-200.000	0.000	0.107
-374.844	-200.000	-0.068	0.416
-373.829	197.110	0.184	0.278
-372.815	-200.000	-0.035	0.000
-371.800	218.335	-0.062	-0.097
-370.785	-200.000	0.011	-0.059
-369.771	800.000	0.063	-0.203
-368.756	338.718	-0.135	-0.261
-367.742	87.640	0.118	-0.130
-366.727	-23.646	0.047	0.028
-365.712	-80.849	0.288	-0.094
-364.698	-200.000	0.024	0.193
-363.683	83.798	-0.109	-0.117
-362.669	-200.000	-0.008	-0.040
-361.654	128.084	-0.050	0.063
-360.639	-75.909	-0.335	0.117
-359.625	-88.904	-0.475	0.139
-358.610	800.000	0.062	0.201
-357.596	-200.000	-0.008	0.042
-356.581	-18.211	0.253	0.157
-355.566	131.286	-0.229	0.290
-354.552	-122.778	0.068	-0.011
-353.537	-95.088	0.411	-0.110
-352.523	30.698	-0.140	-0.118
-351.508	301.600	0.138	0.252
-350.493	-77.989	-0.340	0.116
-349.479	147.962	0.149	0.199
-348.464	-182.309	-0.346	-0.006
-347.450	-70.273	0.204	-0.077
-346.435	313.076	0.081	0.150
-345.420	-51.151	0.241	-0.112
-344.406	-26.350	-0.347	-0.201
-343.391	-120.884	-0.099	0.016
-342.377	-38.753	0.132	0.069
-341.362	-4.214	-0.180	-0.123
-340.348	-101.223	-0.029	-0.007
-339.333	-49.110	0.153	0.072
-338.318	800.000	-0.029	-0.127
-337.304	-200.000	0.027	-0.213
-336.289	-200.000	-0.003	0.177
-335.275	26.670	-0.150	0.124
-334.260	396.737	-0.097	0.200
-333.245	800.000	-0.018	0.074
-332.231	-168.136	0.209	0.008
-331.216	462.053	-0.194	0.426
-330.202	-200.000	-0.033	0.184
-329.187	-27.410	0.158	-0.091
-328.172	-92.934	-0.026	0.007
-327.158	140.497	-0.049	-0.064
-326.143	137.138	0.103	-0.133
-325.129	-133.627	-0.226	-0.028
-324.114	266.888	0.122	-0.210
-323.099	42.179	0.033	-0.030
-322.085	78.641	0.141	0.149
-321.070	200.420	0.069	0.104
-320.056	800.000	0.073	0.218
-319.041	205.795	0.073	-0.112
-318.026	118.563	-0.275	0.336
-317.012	-83.783	0.223	-0.070
-315.997	-61.955	-0.243	-0.100
-314.983	-50.625	-0.105	0.049
-313.968	-200.000	0.041	0.193
-312.953	658.790	-0.062	0.157
-311.939	800.000	0.091	0.328
-310.924	90.581	0.341	0.377
-309.910	800.000	-0.061	0.187
-308.895	-99.249	-0.025	-0.006
-307.880	-162.655	0.251	-0.012
-306.866	48.694	0.118	0.109
-305.851	-83.925	0.247	0.078
-304.837	800.000	0.069	0.189
-303.822	112.418	-0.137	-0.163
-302.807	-200.000	0.012	-0.232
-301.793	97.972	0.058	-0.065
-300.778	800.000	0.077	-0.231
-299.764	307.844	-0.096	-0.177
-298.749	480.903	0.080	-0.180
-297.735	-200.000	0.024	0.185
-296.720	44.044	-0.234	0.212
-295.705	-200.000	0.056	-0.244
-294.691	-194.343	0.519	-0.004
-293.676	-167.443	0.056	-0.002
-292.662	-26.505	-0.160	0.093
-291.647	800.000	0.066	-0.191
-290.632	-200.000	-0.034	0.194
-289.618	23.103	-0.192	-0.155
-288.603	301.393	-0.123	-0.223
-287.589	-113.001	-0.283	0.055
-286.574	15.557	0.050	0.039
-285.559	-179.311	0.381	0.008
-284.545	800.000	0.033	-0.133
-283.530	800.000	0.114	-0.362
-282.516	245.886	0.346	-0.574
-281.501	-200.000	-0.005	-0.219
-280.486	-74.555	0.357	-0.127
-279.472	-77.210	0.166	0.057
-278.457	433.845	0.125	-0.267
-277.443	-55.605	0.172	0.076
-276.428	-85.792	-0.224	-0.068
-275.413	207.134	-0.330	0.508
-274.399	-200.000	-0.011	0.057
-273.384	-200.000	0.002	-0.066
-272.370	800.000	-0.090	0.264
-271.355	800.000	0.054	-0.172
-270.340	36.662	-0.261	-0.227
-269.326	-107.439	0.216	-0.047
-268.311	83.983	-0.090	0.097
-267.297	-196.905	-0.163	0.001
-266.282	-19.943	0.203	0.123
-265.267	-43.196	0.209	-0.104
-264.253	-4.752	-0.197	0.134
-263.238	-63.989	0.079	0.032
-262.224	-64.129	-0.284	0.114
-261.209	118.309	0.088	0.107
-260.195	-127.764	-0.174	0.025
-259.180	39.689	-0.115	0.101
-258.165	-136.416	-0.390	0.045
-257.151	-200.000	0.019	0.181
-256.136	-200.000	-0.006	0.068
-255.122	127.517	-0.078	-0.098
-254.107	800.000	-0.020	-0.082
-253.092	759.306	-0.126	0.337
-252.078	15.132	-0.235	-0.182
-251.063	23.385	0.135	-0.109
-250.049	689.774	0.075	-0.194
-249.034	-200.000	0.031	-0.204
-248.019	-111.311	0.207	0.042
-247.005	-98.759	0.074	-0.019
-245.990	-96.607	0.105	0.027
-244.976	-101.695	-0.208	-0.050
-243.961	43.777	-0.239	0.215
-242.946	-83.446	0.254	0.080
-241.932	-200.000	0.034	-0.229
-240.917	34.215	0.119	0.102
-239.903	-200.000	-0.052	0.270
-238.888	-184.585	-0.178	0.003
-237.873	52.111	-0.367	0.344
-236.859	-200.000	-0.004	0.064
-235.844	-96.308	0.146	-0.038
-234.830	-6.107	0.024	-0.016
-233.815	800.000	-0.026	0.095
-232.800	158.887	0.073	0.100
-231.786	-12.872	0.253	0.162
-230.771	798.907	-0.201	-0.545
-229.757	-144.459	-0.179	0.016
-228.742	-200.000	0.006	0.096
-227.727	15.460	0.268	-0.207
-226.713	-200.000	-0.030	0.369
-225.698	104.021	-0.178	-0.206
-224.684	111.428	0.146	0.173
-223.669	-200.000	-0.078	0.343
-222.655	800.000	-0.074	-0.247
-221.640	65.269	-0.309	-0.308
-220.625	-200.000	0.098	0.451
-219.611	110.278	0.039	0.046
-218.596	-4.861	0.355	0.240
-217.582	800.000	-0.093	0.290
-216.567	-89.991	0.363	0.104
-215.552	180.017	-0.129	0.186
-214.538	-52.744	0.380	-0.172
-213.523	160.667	-0.065	0.090
-212.509	134.444	0.127	-0.161
-211.494	-60.146	0.129	-0.054
-210.479	-200.000	0.007	-0.151
-209.465	-200.000	-0.013	-0.105
-208.450	148.226	0.089	0.118
-207.436	-77.341	-0.118	-0.040
-206.421	240.436	0.263	-0.430
-205.406	614.539	0.021	-0.052
-204.392	-13.790	-0.130	-0.083
-203.377	43.644	0.220	0.197
-202.363	800.000	0.033	-0.121
-201.348	800.000	0.089	-0.267
-200.333	508.040	0.191	-0.435
-199.319	172.521	0.200	-0.283
-198.304	-200.000	0.004	-0.180
-197.290	52.182	-0.094	-0.088
-196.275	-131.889	0.307	-0.039
-195.260	13.685	0.268	-0.205
-194.246	-200.000	0.019	-0.266
-193.231	-200.000	-0.001	-0.079
-192.217	105.340	-0.100	0.116
-191.202	-200.000	-0.003	0.123
-190.187	294.255	0.123	0.221
-189.173	800.000	-0.042	-0.163
-188.158	-38.254	0.254	0.132
-187.144	-200.000	0.050	0.293
-186.129	15.962	0.283	0.219
-185.114	33.811	0.100	0.086
-184.100	-171.147	-0.420	0.014
-183.085	-125.874	-0.212	0.031
-182.071	-83.564	0.216	-0.068
-181.056	38.915	-0.071	-0.063
-180.042	-200.000	0.013	0.256
-179.027	40.376	-0.188	0.166
-178.012	508.971	0.131	0.298
-176.998	-86.364	-0.253	0.076
-175.983	-139.509	-0.341	0.036
-174.969	-96.181	0.282	0.074
-173.954	279.696	0.092	-0.161
-172.939	800.000	-0.061	-0.208
-171.925	91.113	0.078	-0.086
-170.910	-200.000	0.008	-0.104
-169.896	56.932	0.363	0.347
-168.881	-53.360	0.141	0.063
-167.866	97.497	-0.142	-0.160
-166.852	-200.000	-0.049	0.282
-165.837	-127.908	-0.241	0.034
-164.823	-200.000	-0.162	-0.000
-163.808	-200.000	-0.020	0.331
-162.793	-32.358	0.224	0.123
-161.779	187.694	-0.059	-0.087
-160.764	30.374	-0.158	0.133
-159.750	133.781	0.208	-0.264
-158.735	-113.746	-0.139	-0.027
-157.720	63.171	0.210	-0.207
-156.706	-72.322	-0.178	-0.065
-155.691	-66.349	-0.333	-0.130
-154.677	31.791	0.090	-0.076
-153.662	276.713	-0.099	0.172
-152.647	-200.000	0.011	-0.281
-151.633	800.000	-0.073	-0.205
-150.618	-121.728	0.129	-0.021
-149.604	-76.804	-0.175	0.060
-148.589	-200.000	0.006	-0.196
-147.574	-0.847	-0.372	0.258
-146.560	-200.000	-0.019	0.239
-145.545	-200.000	0.026	-0.417
-144.531	-67.610	-0.174	0.067
-143.516	327.706	0.216	0.406
-142.502	-200.000	0.000	-0.167
-141.487	784.174	0.101	0.271
-140.472	-200.000	-0.020	-0.321
-139.458	-41.110	-0.290	-0.147
-138.443	281.723	-0.078	-0.138
-137.429	137.556	-0.074	0.095
-136.414	-200.000	-0.054	0.303
-135.399	-200.000	-0.067	0.385
-134.385	-200.000	0.005	0.078
-133.370	-98.446	-0.043	0.011
-132.356	-200.000	-0.045	0.378
-131.341	-99.382	0.046	-0.011
-130.326	-0.204	-0.254	-0.177
-129.312	-12.533	-0.117	0.075
-128.297	571.546	0.137	0.326
-127.283	137.608	-0.137	-0.175
-126.268	-25.623	-0.259	0.150
-125.253	-98.274	0.168	-0.042
-124.239	25.056	-0.246	0.200
-123.224	-144.721	0.215	-0.019
-122.210	-200.000	0.053	-0.389
-121.195	-144.518	0.120	0.011
