DTS Sentinel unit serial number:	SN413079Multiplexer serial number:	ORYXHardware model number:	OX4-SRSoftware version number:	ORYX F/W v4.00 Oryx Data Collector v3.7.2.0data status	okinstallation	princeton_trtdifferential loss correction	single-endedforward channel	channel 4reverse channel	N/Adate	2019/09/10time	17:27:11forward acquisition time	60.00reverse acquisition time	0.00gamma	496.2192k internal	0.2295k external	0.2295temperature offset calibration	0.9943default loss term (dB/km)	0.3790temperature slope calibration	1.0000multiplexer offset coefficient	1.0000multiplexer slope coefficient	1.0000fibre end	0.00T internal ref (°C)	37.69T ext. ref 1 (°C)	-0.30T ext. ref 2 (°C)	32.28length (m)	temperature (°C)	Stokes	anti-Stokes-747.200	182.914	-0.151	0.227
-746.185	-200.000	0.045	0.456
-745.171	46.756	0.348	0.331
-744.156	362.884	0.056	0.116
-743.142	39.721	0.245	0.225
-742.127	-23.696	-0.303	0.185
-741.112	-117.409	0.246	-0.045
-740.098	102.350	-0.291	0.347
-739.083	800.000	-0.083	-0.334
-738.069	-200.000	0.040	-0.294
-737.054	131.895	-0.119	0.157
-736.039	-130.034	0.049	-0.007
-735.025	-200.000	0.002	0.411
-734.010	316.591	0.068	0.131
-732.996	-191.988	0.212	0.002
-731.981	-11.549	-0.196	-0.131
-730.966	12.005	-0.099	0.078
-729.952	21.127	-0.220	-0.182
-728.937	267.991	0.064	-0.114
-727.923	-86.406	0.108	0.034
-726.908	-25.968	0.269	0.161
-725.894	-2.108	-0.076	-0.054
-724.879	-61.939	0.182	0.078
-723.864	800.000	-0.098	-0.304
-722.850	-200.000	-0.024	-0.111
-721.835	60.132	-0.343	0.346
-720.821	-12.754	-0.192	0.128
-719.806	9.740	-0.033	0.026
-718.791	-156.315	0.069	-0.004
-717.777	800.000	0.040	0.155
-716.762	-200.000	0.013	-0.114
-715.748	-96.611	0.176	0.047
-714.733	376.615	-0.147	-0.306
-713.718	39.581	-0.193	-0.176
-712.704	800.000	0.067	-0.234
-711.689	-86.391	0.061	0.019
-710.675	96.249	-0.125	-0.146
-709.660	-120.503	-0.398	0.069
-708.645	83.324	0.145	-0.161
-707.631	-159.727	-0.313	0.018
-706.616	-200.000	-0.042	-0.255
-705.602	-57.303	-0.080	-0.036
-704.587	-51.713	0.326	0.155
-703.572	150.902	-0.350	0.486
-702.558	477.587	-0.037	0.085
-701.543	-65.089	0.186	-0.077
-700.529	-96.599	-0.211	-0.057
-699.514	135.565	0.136	-0.180
-698.499	-91.767	-0.185	-0.054
-697.485	-23.436	0.175	0.107
-696.470	494.732	0.106	-0.249
-695.456	-200.000	0.045	0.360
-694.441	1.346	0.125	0.091
-693.426	582.566	-0.065	-0.162
-692.412	-58.773	-0.119	0.053
-691.397	-200.000	0.007	0.138
-690.383	-154.351	-0.169	0.012
-689.368	82.316	0.159	-0.176
-688.354	-200.000	-0.030	-0.448
-687.339	17.741	-0.190	-0.154
-686.324	-113.758	0.149	-0.030
-685.310	54.926	0.179	0.176
-684.295	564.342	-0.074	0.182
-683.281	-103.927	-0.179	0.042
-682.266	99.479	-0.059	0.070
-681.251	3.535	-0.438	0.325
-680.237	80.820	-0.144	-0.158
-679.222	800.000	-0.075	-0.253
-678.208	-200.000	0.017	-0.352
-677.193	19.861	0.015	0.013
-676.178	129.409	0.109	-0.142
-675.164	800.000	-0.034	0.095
-674.149	203.527	-0.067	0.106
-673.135	130.164	-0.135	-0.176
-672.120	335.816	0.057	-0.113
-671.105	23.886	-0.031	-0.026
-670.091	306.442	0.105	-0.199
-669.076	51.755	0.205	-0.198
-668.062	-89.437	0.336	-0.101
-667.047	-54.367	0.158	-0.073
-666.032	-200.000	-0.027	-0.217
-665.018	-187.644	0.129	0.002
-664.003	544.740	0.057	0.138
-662.989	45.254	-0.122	0.115
-661.974	165.484	-0.179	-0.258
-660.959	-51.554	0.215	0.102
-659.945	90.304	0.118	-0.134
-658.930	-78.483	-0.021	0.007
-657.916	-70.498	-0.127	-0.049
-656.901	-200.000	-0.043	0.312
-655.886	-200.000	-0.027	-0.442
-654.872	90.533	-0.102	-0.116
-653.857	-44.653	0.092	-0.047
-652.843	800.000	0.042	-0.171
-651.828	164.366	-0.195	-0.280
-650.814	128.709	0.333	-0.433
-649.799	-192.345	0.203	0.002
-648.784	298.865	-0.118	0.222
-647.770	-122.563	-0.205	0.034
-646.755	688.518	-0.138	-0.366
-645.741	-200.000	-0.017	-0.106
-644.726	-86.204	0.474	-0.149
-643.711	-200.000	0.034	-0.198
-642.697	157.104	0.131	0.184
-641.682	-200.000	0.011	-0.180
-640.668	44.010	-0.131	-0.122
-639.653	492.159	0.098	0.229
-638.638	36.242	0.074	0.067
-637.624	-144.438	-0.366	-0.035
-636.609	107.663	-0.368	0.446
-635.595	365.297	-0.168	-0.344
-634.580	-97.802	0.357	-0.094
-633.565	-23.722	-0.182	0.111
-632.551	-115.440	0.097	-0.019
-631.536	-200.000	-0.012	0.214
-630.522	594.367	-0.069	0.174
-629.507	4.786	0.099	0.074
-628.492	800.000	-0.042	-0.125
-627.478	-71.232	-0.204	0.078
-626.463	-94.370	-0.153	-0.042
-625.449	244.711	0.084	-0.143
-624.434	-4.763	0.194	0.136
-623.419	-131.572	0.182	0.024
-622.405	-70.939	-0.056	-0.021
-621.390	156.487	0.190	-0.267
-620.376	-115.491	-0.258	0.049
-619.361	-11.364	-0.208	-0.139
-618.346	-153.872	0.282	-0.020
-617.332	-144.940	0.364	0.034
-616.317	112.277	0.128	0.157
-615.303	-21.972	-0.077	0.047
-614.288	800.000	-0.043	-0.184
-613.273	-166.008	-0.322	0.014
-612.259	-90.665	-0.089	0.026
-611.244	429.998	-0.082	0.179
-610.230	119.110	-0.045	-0.057
-609.215	125.563	-0.136	-0.175
-608.201	67.170	-0.037	0.038
-607.186	124.297	0.168	0.215
-606.171	-26.151	0.110	0.065
-605.157	-71.217	-0.190	-0.072
-604.142	-200.000	-0.015	0.089
-603.128	-107.478	0.112	0.025
-602.113	30.132	0.029	-0.025
-601.098	-62.631	-0.247	0.104
-600.084	231.565	-0.106	-0.176
-599.069	-12.496	-0.043	0.029
-598.055	800.000	0.039	-0.168
-597.040	-159.384	-0.194	0.011
-596.025	-118.632	-0.201	0.036
-595.011	133.666	0.189	0.248
-593.996	-130.908	0.229	-0.031
-592.982	152.422	0.070	-0.097
-591.967	800.000	0.022	0.065
-590.952	-78.887	0.406	0.141
-589.938	25.426	-0.300	-0.254
-588.923	-30.033	-0.082	-0.047
-587.909	61.029	-0.162	0.164
-586.894	199.859	-0.078	-0.122
-585.879	76.455	0.136	-0.146
-584.865	-44.985	-0.201	-0.102
-583.850	43.191	0.191	-0.177
-582.836	-112.139	-0.329	-0.067
-581.821	776.827	0.130	-0.360
-580.806	-78.635	0.056	0.020
-579.792	-66.137	-0.337	-0.136
-578.777	193.644	-0.153	-0.235
-577.763	-111.760	-0.211	-0.043
-576.748	-20.140	0.189	0.118
-575.733	27.516	0.126	0.107
-574.719	-116.542	-0.316	0.059
-573.704	-12.535	-0.204	-0.135
-572.690	-31.325	0.055	-0.031
-571.675	-12.079	-0.140	0.093
-570.661	-131.959	-0.146	-0.019
-569.646	648.540	0.071	0.185
-568.631	-56.413	-0.040	0.018
-567.617	-11.009	-0.389	-0.260
-566.602	-200.000	0.016	-0.157
-565.588	-110.058	-0.282	0.060
-564.573	-69.785	0.093	0.036
-563.558	-47.299	-0.102	-0.050
-562.544	-200.000	0.022	-0.114
-561.529	53.247	0.096	-0.094
-560.515	-111.123	-0.160	-0.033
-559.500	102.968	-0.192	0.228
-558.485	-74.214	-0.102	0.037
-557.471	-50.514	0.145	-0.069
-556.456	800.000	0.055	0.170
-555.442	0.085	0.161	0.117
-554.427	-29.502	-0.214	-0.124
-553.412	800.000	-0.023	-0.083
-552.398	338.172	0.085	-0.167
-551.383	-200.000	-0.011	-0.354
-550.369	-36.422	0.417	0.228
-549.354	352.953	-0.205	0.412
-548.339	-108.042	-0.221	-0.049
-547.325	-42.484	-0.357	-0.185
-546.310	-200.000	0.016	-0.130
-545.296	-200.000	0.005	0.097
-544.281	237.213	-0.042	-0.070
-543.266	800.000	-0.107	0.405
-542.252	800.000	0.035	-0.149
-541.237	-200.000	-0.053	-0.280
-540.223	-200.000	-0.001	0.023
-539.208	24.212	-0.101	-0.085
-538.193	-200.000	0.004	0.230
-537.179	-101.632	-0.485	0.119
-536.164	136.416	-0.074	-0.098
-535.150	17.587	0.144	0.116
-534.135	-191.521	0.178	0.002
-533.121	-172.016	0.229	0.008
-532.106	-59.795	-0.086	0.037
-531.091	-200.000	-0.047	0.221
-530.077	-55.061	-0.178	-0.081
-529.062	800.000	-0.110	-0.339
-528.048	-175.657	0.223	0.006
-527.033	258.178	0.156	-0.271
-526.018	-65.146	-0.064	0.026
-525.004	-173.764	0.102	0.003
-523.989	58.932	0.288	-0.287
-522.975	-200.000	0.011	-0.095
-521.960	-108.721	-0.440	-0.095
-520.945	-4.402	0.331	-0.232
-519.931	-58.204	-0.110	-0.049
-518.916	-137.669	-0.193	-0.022
-517.902	-110.686	-0.219	-0.046
-516.887	-27.354	0.132	-0.078
-515.872	-200.000	-0.008	0.181
-514.858	-66.066	-0.265	0.107
-513.843	39.667	-0.151	-0.137
-512.829	-200.000	-0.043	-0.262
-511.814	-200.000	0.024	-0.187
-510.799	-43.377	0.205	0.105
-509.785	208.388	-0.117	-0.185
-508.770	800.000	0.093	-0.280
-507.756	-200.000	-0.016	-0.095
-506.741	800.000	-0.016	-0.056
-505.726	-44.038	0.305	-0.155
-504.712	688.597	0.040	0.105
-503.697	800.000	-0.063	0.240
-502.683	-123.315	-0.408	-0.066
-501.668	408.958	0.100	0.214
-500.653	753.959	0.176	0.482
-499.639	-183.281	0.077	0.001
-498.624	328.694	-0.070	-0.136
-497.610	37.421	-0.042	-0.038
-496.595	1.386	-0.310	-0.226
-495.581	-177.756	-0.242	-0.006
-494.566	2.553	-0.121	-0.089
-493.551	-39.903	-0.276	-0.146
-492.537	446.299	-0.055	-0.123
-491.522	124.508	-0.057	-0.072
-490.508	-20.257	-0.089	0.055
-489.493	52.118	-0.079	0.076
-488.478	128.848	-0.228	0.294
-487.464	-107.972	-0.272	0.060
-486.449	-200.000	0.027	-0.131
-485.435	-77.799	0.200	0.070
-484.420	-69.982	0.208	0.080
-483.405	301.521	-0.100	0.187
-482.391	-200.000	-0.064	0.293
-481.376	-200.000	-0.016	-0.154
-480.362	541.215	-0.211	-0.509
-479.347	-126.158	0.312	-0.047
-478.332	-153.213	-0.295	0.021
-477.318	469.368	0.094	0.214
-476.303	-94.443	0.246	0.068
-475.289	666.419	0.067	-0.175
-474.274	-109.805	-0.295	-0.063
-473.259	-73.255	-0.135	0.050
-472.245	-62.468	0.180	0.076
-471.230	-71.095	0.166	-0.063
-470.216	-73.569	0.166	0.061
-469.201	-39.531	0.462	-0.245
-468.186	93.177	-0.047	0.053
-467.172	8.920	-0.094	0.071
-466.157	244.374	0.107	-0.181
-465.143	145.601	-0.216	-0.292
-464.128	768.329	-0.063	-0.174
-463.113	-121.120	0.250	0.042
-462.099	-42.601	0.176	0.091
-461.084	205.613	-0.248	-0.389
-460.070	-67.660	0.288	0.114
-459.055	-50.368	-0.120	-0.057
-458.040	-59.833	-0.420	0.182
-457.026	51.114	0.110	0.105
-456.011	-200.000	-0.004	0.053
-454.997	43.971	0.498	0.462
-453.982	800.000	-0.018	0.049
-452.968	11.659	-0.257	-0.199
-451.953	83.150	-0.151	-0.166
-450.938	82.013	-0.171	-0.188
-449.924	-19.109	-0.183	0.115
-448.909	-118.918	0.032	-0.006
-447.895	513.860	0.073	-0.173
-446.880	800.000	0.061	-0.244
-445.865	-200.000	0.011	0.156
-444.851	800.000	-0.054	-0.173
-443.836	166.269	0.192	0.275
-442.822	86.800	0.125	-0.139
-441.807	-173.972	-0.186	-0.006
-440.792	22.915	0.246	-0.203
-439.778	177.803	0.018	-0.026
-438.763	-156.783	0.300	-0.019
-437.749	120.489	-0.207	0.260
-436.734	-200.000	-0.074	0.346
-435.719	-151.732	-0.260	-0.019
-434.705	750.712	0.083	0.225
-433.690	-200.000	0.079	0.516
-432.676	441.369	-0.102	0.225
-431.661	100.318	-0.080	0.093
-430.646	272.649	0.048	-0.085
-429.632	72.170	-0.068	-0.072
-428.617	-200.000	0.011	0.140
-427.603	580.281	0.017	-0.042
-426.588	800.000	-0.053	0.155
-425.573	16.655	-0.162	-0.129
-424.559	-75.932	-0.096	0.034
-423.544	-200.000	-0.017	-0.093
-422.530	-97.962	0.206	-0.054
-421.515	-145.503	0.181	0.016
-420.500	-200.000	0.266	0.001
-419.486	-144.333	0.277	0.026
-418.471	189.632	0.163	-0.246
-417.457	309.937	-0.134	-0.252
-416.442	-200.000	0.018	-0.106
-415.428	13.778	-0.036	-0.028
-414.413	80.610	-0.212	0.231
-413.398	-48.200	0.209	-0.102
-412.384	-26.709	0.175	0.103
-411.369	-113.902	-0.221	0.043
-410.355	-107.831	-0.138	-0.030
-409.340	575.120	0.085	-0.210
-408.325	-200.000	0.001	-0.092
-407.311	88.907	0.094	-0.106
-406.296	-3.879	0.154	-0.108
-405.282	39.298	-0.135	-0.122
-404.267	-200.000	-0.003	-0.136
-403.252	-55.727	0.142	-0.064
-402.238	-55.278	-0.099	-0.045
-401.223	153.915	0.075	-0.103
-400.209	-150.101	-0.166	-0.013
-399.194	-157.461	0.111	-0.007
-398.179	-74.165	0.245	0.089
-397.165	-200.000	-0.059	-0.267
-396.150	63.581	-0.082	-0.083
-395.136	179.985	0.199	0.294
-394.121	149.531	0.134	0.182
-393.106	-132.947	0.290	-0.037
-392.092	-23.400	0.096	0.058
-391.077	-159.642	-0.163	-0.009
-390.063	62.847	-0.219	-0.221
-389.048	-126.164	0.346	-0.052
-388.033	601.804	-0.041	0.104
-387.019	-57.321	0.026	0.012
-386.004	139.572	0.227	-0.301
-384.990	-50.181	-0.187	0.089
-383.975	139.542	-0.181	0.241
-382.960	119.101	-0.216	0.269
-381.946	-181.046	-0.361	0.007
-380.931	-200.000	0.030	0.344
-379.917	47.341	-0.039	0.036
-378.902	800.000	-0.041	-0.140
-377.888	800.000	-0.027	-0.116
-376.873	233.048	-0.067	0.111
-375.858	144.858	0.106	-0.143
-374.844	-115.201	0.362	-0.069
-373.829	-200.000	-0.004	-0.152
-372.815	800.000	-0.059	-0.244
-371.800	-84.182	0.154	0.049
-370.785	-110.338	0.104	-0.022
-369.771	800.000	0.025	0.073
-368.756	-36.113	0.172	-0.094
-367.742	-152.805	0.407	0.029
-366.727	39.034	-0.302	-0.272
-365.712	50.365	-0.148	0.140
-364.698	-52.227	0.154	0.072
-363.683	-200.000	0.013	-0.122
-362.669	-64.277	-0.080	0.033
-361.654	-200.000	-0.050	0.323
-360.639	800.000	0.102	0.391
-359.625	800.000	-0.044	0.128
-358.610	94.298	0.106	0.121
-357.596	102.018	-0.104	0.122
-356.581	390.833	-0.027	-0.056
-355.566	579.766	-0.034	-0.084
-354.552	-200.000	0.029	-0.368
-353.537	322.200	0.051	-0.098
-352.523	749.538	0.129	-0.351
-351.508	-144.376	-0.113	0.011
-350.493	-107.986	-0.281	0.061
-349.479	-115.914	-0.301	0.057
-348.464	629.698	0.067	-0.171
-347.450	69.993	-0.142	-0.147
-346.435	-43.514	-0.276	-0.140
-345.420	-51.149	0.103	0.049
-344.406	159.567	-0.170	0.237
-343.391	800.000	0.012	0.037
-342.377	-113.073	-0.284	-0.056
-341.362	-102.799	0.062	-0.015
-340.348	-200.000	0.007	0.200
-339.333	217.633	-0.102	-0.164
-338.318	11.897	-0.131	-0.101
-337.304	800.000	0.054	-0.170
-336.289	688.885	-0.143	-0.376
-335.275	-89.621	0.508	0.150
-334.260	-8.273	-0.133	-0.090
-333.245	-200.000	-0.328	-0.001
-332.231	-21.938	-0.251	0.153
-331.216	635.932	-0.036	0.092
-330.202	-170.220	0.533	0.019
-329.187	22.854	-0.247	0.204
-328.172	-36.568	0.140	-0.076
-327.158	-49.275	-0.179	0.086
-326.143	-68.068	-0.113	0.044
-325.129	-91.092	-0.334	-0.096
-324.114	-65.383	0.067	0.027
-323.099	297.441	-0.024	-0.044
-322.085	-200.000	0.013	-0.075
-321.070	-173.245	-0.204	0.006
-320.056	-101.179	-0.314	0.077
-319.041	-61.996	0.064	-0.027
-318.026	-21.694	-0.119	0.073
-317.012	-83.040	-0.195	-0.063
-315.997	800.000	-0.015	-0.050
-314.983	124.258	0.123	0.155
-313.968	511.000	0.070	0.163
-312.953	-126.014	-0.150	0.023
-311.939	-200.000	-0.181	-0.001
-310.924	-134.895	-0.223	-0.027
-309.910	394.307	0.031	-0.065
-308.895	606.379	-0.032	-0.081
-307.880	800.000	-0.027	-0.092
-306.866	-200.000	0.067	0.299
-305.851	-200.000	0.039	-0.186
-304.837	16.791	-0.104	-0.083
-303.822	800.000	0.122	-0.350
-302.807	-200.000	0.030	0.148
-301.793	800.000	0.020	-0.073
-300.778	746.662	0.034	0.092
-299.764	-118.694	0.262	0.046
-298.749	-4.654	0.349	0.242
-297.735	-120.970	0.114	0.019
-296.720	800.000	-0.040	-0.120
-295.705	800.000	0.116	0.351
-294.691	-72.667	0.036	0.013
-293.676	462.721	0.079	0.177
-292.662	-152.438	-0.216	0.016
-291.647	-200.000	-0.009	0.497
-290.632	96.794	-0.188	-0.216
-289.618	19.683	0.184	0.148
-288.603	-36.967	0.385	0.207
-287.589	78.127	0.106	-0.114
-286.574	-195.096	-0.120	0.001
-285.559	-4.858	0.032	0.022
-284.545	-74.438	-0.092	-0.033
-283.530	800.000	0.078	0.249
-282.516	25.380	0.179	0.149
-281.501	-82.617	-0.180	0.059
-280.486	8.948	0.308	0.233
-279.472	308.548	-0.105	-0.196
-278.457	-137.425	0.162	-0.018
-277.443	800.000	-0.045	-0.181
-276.428	-200.000	-0.083	-0.431
-275.413	-48.117	-0.199	-0.097
-274.399	-200.000	-0.012	0.122
-273.384	167.032	0.295	0.421
-272.370	-200.000	-0.030	-0.152
-271.355	208.190	0.157	0.246
-270.340	-107.880	0.120	-0.026
-269.326	-64.446	0.337	-0.137
-268.311	-153.482	-0.138	-0.010
-267.297	166.641	-0.286	-0.406
-266.282	48.280	0.145	-0.136
-265.267	800.000	-0.019	0.056
-264.253	52.127	-0.323	0.309
-263.238	342.804	-0.010	0.021
-262.224	-132.311	-0.009	0.001
-261.209	800.000	-0.029	0.110
-260.195	-74.247	0.214	-0.077
-259.180	30.431	0.227	-0.195
-258.165	121.974	-0.204	-0.256
-257.151	-200.000	0.046	-0.306
-256.136	-67.376	0.316	-0.125
-255.122	-200.000	-0.038	0.232
-254.107	-176.649	0.140	0.004
-253.092	56.047	-0.150	-0.146
-252.078	-2.536	0.141	0.099
-251.063	-200.000	-0.005	0.158
-250.049	800.000	0.079	-0.223
-249.034	267.269	0.251	0.440
-248.019	14.490	-0.184	-0.144
-247.005	-82.817	-0.208	-0.067
-245.990	-73.565	0.265	0.097
-244.976	481.063	0.167	0.379
-243.961	-32.407	-0.089	0.050
-242.946	115.660	0.200	0.245
-241.932	279.600	0.131	0.234
-240.917	-160.454	-0.140	0.008
-239.903	-159.137	-0.238	-0.013
-238.888	-200.000	-0.001	0.166
-237.873	-51.046	-0.193	0.091
-236.859	-200.000	-0.017	0.149
-235.844	-177.617	0.482	0.012
-234.830	-200.000	0.045	-0.446
-233.815	800.000	-0.046	0.168
-232.800	237.414	0.091	0.151
-231.786	642.262	0.073	0.187
-230.771	113.176	0.092	0.112
-229.757	-200.000	-0.003	-0.106
-228.742	383.585	0.078	-0.161
-227.727	304.964	0.244	-0.454
-226.713	-179.027	0.169	0.004
-225.698	-34.782	-0.154	-0.084
-224.684	-91.418	-0.230	0.066
-223.669	64.233	0.218	-0.220
-222.655	-27.996	0.048	-0.028
-221.640	-162.264	0.174	-0.009
-220.625	-54.784	0.107	-0.048
-219.611	-100.301	0.413	0.103
-218.596	800.000	0.098	0.376
-217.582	-200.000	-0.044	0.445
-216.567	-80.666	0.242	0.081
-215.552	-200.000	-0.023	0.224
-214.538	-200.000	-0.008	0.047
-213.523	-24.093	-0.183	-0.110
-212.509	615.894	-0.105	0.264
-211.494	-200.000	0.023	-0.267
-210.479	-5.790	-0.155	0.106
-209.465	800.000	0.046	0.196
-208.450	57.626	-0.191	0.187
-207.436	416.785	-0.078	-0.166
-206.421	-169.281	0.387	-0.014
-205.406	-200.000	0.028	0.124
-204.392	115.153	-0.106	0.130
-203.377	-46.978	-0.091	0.044
-202.363	-200.000	0.004	-0.292
-201.348	-200.000	0.057	0.453
-200.333	-200.000	-0.019	-0.096
-199.319	-160.207	-0.124	0.007
-198.304	800.000	-0.026	0.075
-197.290	106.981	0.023	-0.027
-196.275	-38.815	-0.064	0.034
-195.260	-45.942	0.151	-0.075
-194.246	88.911	0.291	-0.324
-193.231	-61.868	0.293	0.122
-192.217	17.979	0.071	-0.057
-191.202	-107.770	0.209	-0.045
-190.187	15.187	0.277	-0.217
-189.173	94.688	-0.209	-0.238
-188.158	-200.000	-0.004	-0.342
-187.144	116.403	0.072	-0.088
-186.129	791.993	-0.042	0.116
-185.114	-200.000	-0.003	0.071
-184.100	-200.000	-0.017	-0.233
-183.085	-200.000	-0.001	0.074
-182.071	-35.201	0.054	0.029
-181.056	-200.000	-0.033	0.221
-180.042	108.923	0.232	0.278
-179.027	-166.243	0.224	-0.009
-178.012	57.872	-0.077	-0.076
-176.998	-200.000	0.007	0.147
-175.983	-115.599	0.264	-0.050
-174.969	-79.706	-0.204	0.069
-173.954	-15.751	0.203	-0.130
-172.939	-200.000	-0.032	-0.167
-171.925	-49.144	0.137	0.066
-170.910	-27.102	-0.108	0.063
-169.896	-200.000	0.019	-0.104
-168.881	557.707	0.164	0.395
-167.866	29.698	0.081	-0.069
-166.852	37.408	0.074	-0.066
-165.837	800.000	0.070	-0.251
-164.823	-142.894	0.221	-0.021
-163.808	-138.236	0.172	0.019
-162.793	583.569	0.110	0.270
-161.779	-200.000	-0.040	0.194
-160.764	-80.377	0.094	-0.031
-159.750	26.594	0.371	0.310
-158.735	-20.122	-0.312	0.192
-157.720	27.947	-0.262	0.221
-156.706	184.256	-0.163	0.241
-155.691	-61.917	-0.074	0.031
-154.677	-175.131	0.113	0.003
-153.662	-74.099	-0.263	0.095
-152.647	-133.199	0.114	0.014
-151.633	-24.994	0.283	0.168
-150.618	295.716	-0.014	0.026
-149.604	-200.000	-0.051	0.230
-148.589	92.456	-0.075	0.085
-147.574	-94.023	0.189	-0.052
-146.560	-24.821	-0.385	-0.228
-145.545	-200.000	-0.001	-0.172
-144.531	-200.000	-0.008	0.162
-143.516	-123.880	0.337	-0.053
-142.502	129.160	0.198	-0.252
-141.487	800.000	-0.088	-0.316
-140.472	-200.000	0.076	-0.425
-139.458	276.639	-0.086	-0.152
-138.443	15.711	0.116	0.091
-137.429	-84.777	0.126	-0.039
-136.414	557.854	0.102	-0.246
-135.399	-110.364	0.124	0.026
-134.385	-96.157	0.245	0.065
-133.370	428.686	-0.034	-0.074
-132.356	800.000	-0.072	-0.214
-131.341	-45.313	0.153	-0.076
-130.326	721.065	0.037	0.097
-129.312	209.260	0.092	0.144
-128.297	107.460	0.091	-0.108
-127.283	159.198	-0.052	-0.071
-126.268	34.611	0.354	-0.308
-125.253	-71.400	-0.221	-0.083
-124.239	-121.001	0.090	0.015
-123.224	-19.277	-0.037	-0.023
-122.210	135.306	-0.078	-0.101
