DTS Sentinel unit serial number:	SN413079Multiplexer serial number:	ORYXHardware model number:	OX4-SRSoftware version number:	ORYX F/W v4.00 Oryx Data Collector v3.7.2.0data status	okinstallation	princeton_trtdifferential loss correction	single-endedforward channel	channel 4reverse channel	N/Adate	2019/09/12time	23:57:35forward acquisition time	60.00reverse acquisition time	0.00gamma	496.2192k internal	0.2316k external	0.2316temperature offset calibration	1.0176default loss term (dB/km)	0.3790temperature slope calibration	1.0000multiplexer offset coefficient	1.0000multiplexer slope coefficient	1.0000fibre end	0.00T internal ref (°C)	28.69T ext. ref 1 (°C)	3.79T ext. ref 2 (°C)	23.41length (m)	temperature (°C)	Stokes	anti-Stokes-747.200	-200.000	0.041	-0.202
-746.185	193.837	0.037	0.056
-745.171	-200.000	0.001	-0.310
-744.156	-179.785	0.212	0.005
-743.142	-200.000	-0.003	-0.060
-742.127	-200.000	-0.048	0.309
-741.112	-109.388	0.327	-0.070
-740.098	8.072	-0.408	0.310
-739.083	800.000	-0.033	-0.118
-738.069	57.817	-0.421	0.417
-737.054	-198.566	-0.266	0.002
-736.039	-69.509	-0.193	0.075
-735.025	-200.000	-0.075	0.426
-734.010	300.769	0.041	-0.076
-732.996	-70.192	-0.125	-0.048
-731.981	-41.263	-0.293	0.153
-730.966	38.746	0.039	-0.035
-729.952	-84.304	-0.357	-0.114
-728.937	-181.136	0.054	0.001
-727.923	-35.440	-0.218	0.120
-726.908	-115.848	-0.207	0.039
-725.894	-10.898	-0.040	0.026
-724.879	-200.000	0.007	-0.065
-723.864	-200.000	0.021	-0.112
-722.850	-200.000	0.007	-0.115
-721.835	-200.000	-0.055	0.253
-720.821	-66.964	0.177	-0.071
-719.806	-200.000	-0.021	0.206
-718.791	106.860	0.073	-0.088
-717.777	-200.000	-0.031	-0.208
-716.762	235.393	0.172	-0.288
-715.748	-50.002	0.061	-0.029
-714.733	113.287	0.056	0.069
-713.718	137.113	-0.216	0.286
-712.704	-117.545	-0.340	-0.062
-711.689	-184.755	-0.203	0.003
-710.675	-200.000	0.046	0.236
-709.660	-37.262	0.229	0.124
-708.645	800.000	-0.054	-0.184
-707.631	322.462	-0.071	-0.136
-706.616	-18.950	0.192	-0.121
-705.602	27.689	0.069	-0.058
-704.587	-57.584	0.171	-0.076
-703.572	-163.260	0.166	0.008
-702.558	-200.000	0.040	-0.201
-701.543	-89.926	0.117	0.035
-700.529	-107.833	-0.234	0.051
-699.514	140.721	0.069	0.092
-698.499	82.795	-0.313	-0.344
-697.485	-104.609	0.342	-0.080
-696.470	-47.756	0.086	0.042
-695.456	16.099	-0.225	-0.179
-694.441	86.119	-0.179	-0.200
-693.426	504.209	-0.115	0.268
-692.412	166.408	-0.031	0.044
-691.397	126.042	0.294	0.375
-690.383	-76.336	-0.318	-0.113
-689.368	-22.949	0.217	0.132
-688.354	-143.985	-0.439	-0.042
-687.339	-1.240	0.349	0.249
-686.324	-200.000	-0.013	-0.118
-685.310	-146.121	-0.133	-0.012
-684.295	-148.660	-0.580	-0.048
-683.281	-59.604	0.195	-0.084
-682.266	-200.000	-0.019	-0.294
-681.251	-62.603	-0.306	0.128
-680.237	-20.922	-0.101	0.062
-679.222	-13.352	0.237	0.156
-678.208	38.285	0.166	-0.149
-677.193	227.634	0.089	-0.146
-676.178	-200.000	0.017	-0.171
-675.164	158.554	-0.261	-0.366
-674.149	-107.121	-0.251	-0.056
-673.135	-106.870	0.087	-0.019
-672.120	800.000	-0.009	0.033
-671.105	178.900	0.141	-0.209
-670.091	50.007	-0.051	-0.049
-669.076	22.985	0.239	-0.198
-668.062	537.793	-0.082	-0.197
-667.047	221.879	-0.090	-0.146
-666.032	-42.740	-0.216	-0.111
-665.018	232.771	-0.098	0.163
-664.003	638.281	0.081	-0.209
-662.989	-200.000	0.030	0.154
-661.974	-62.694	-0.157	0.066
-660.959	101.171	0.093	-0.109
-659.945	-33.853	0.121	0.067
-658.930	-200.000	0.002	0.109
-657.916	-33.918	0.164	0.091
-656.901	43.495	-0.134	-0.123
-655.886	498.081	0.040	0.094
-654.872	-200.000	-0.020	0.165
-653.857	-71.518	-0.188	-0.071
-652.843	80.819	-0.100	0.109
-651.828	162.473	-0.074	0.105
-650.814	62.680	-0.269	-0.271
-649.799	-94.102	-0.314	-0.087
-648.784	146.869	-0.050	0.067
-647.770	17.611	0.067	-0.054
-646.755	99.361	-0.207	-0.242
-645.741	35.871	0.114	-0.101
-644.726	367.388	0.043	-0.087
-643.711	-108.133	-0.127	-0.028
-642.697	-158.711	0.128	-0.007
-641.682	-153.367	-0.163	0.011
-640.668	74.398	0.139	-0.147
-639.653	-115.149	-0.298	0.057
-638.638	107.844	-0.227	-0.272
-637.624	800.000	0.006	0.025
-636.609	-120.225	-0.184	-0.032
-635.595	-11.350	0.173	0.115
-634.580	-200.000	0.013	0.063
-633.565	81.136	-0.080	0.088
-632.551	-79.008	-0.098	-0.033
-631.536	92.112	0.049	-0.055
-630.522	9.591	0.143	-0.109
-629.507	440.263	0.055	-0.121
-628.492	212.489	-0.090	-0.144
-627.478	156.726	-0.256	-0.357
-626.463	-11.691	0.214	0.142
-625.449	-111.349	-0.418	-0.086
-624.434	48.598	-0.098	-0.093
-623.419	-30.209	0.070	-0.040
-622.405	-200.000	-0.027	-0.161
-621.390	-200.000	-0.031	-0.206
-620.376	208.843	0.174	-0.275
-619.361	800.000	-0.041	0.134
-618.346	-39.881	-0.141	0.074
-617.332	800.000	0.076	-0.213
-616.317	-43.090	-0.074	0.038
-615.303	-200.000	0.022	-0.298
-614.288	800.000	0.061	-0.180
-613.273	91.355	-0.083	-0.094
-612.259	-200.000	-0.022	0.210
-611.244	117.068	-0.106	-0.132
-610.230	198.747	0.105	-0.162
-609.215	800.000	0.021	-0.089
-608.201	-200.000	-0.000	0.121
-607.186	800.000	0.089	-0.264
-606.171	130.662	0.163	0.211
-605.157	30.985	0.260	-0.224
-604.142	-200.000	-0.004	0.243
-603.128	-110.274	0.361	-0.076
-602.113	521.822	0.156	0.370
-601.098	448.397	0.035	-0.078
-600.084	800.000	-0.016	-0.055
-599.069	-4.115	0.082	0.057
-598.055	93.061	0.116	-0.132
-597.040	-200.000	-0.001	-0.134
-596.025	22.618	-0.156	-0.128
-595.011	24.674	-0.135	-0.112
-593.996	-59.419	-0.353	-0.153
-592.982	-92.825	-0.283	0.080
-591.967	-120.797	0.105	-0.018
-590.952	110.762	-0.146	0.177
-589.938	396.711	0.114	0.239
-588.923	-64.006	-0.173	-0.071
-587.909	800.000	0.064	-0.183
-586.894	86.212	0.196	-0.217
-585.879	-111.976	-0.183	0.037
-584.865	36.233	0.235	-0.209
-583.850	201.140	0.064	-0.098
-582.836	-0.701	0.228	0.163
-581.821	-91.545	0.071	0.020
-580.806	-200.000	0.026	0.292
-579.792	-78.058	-0.168	0.058
-578.777	-200.000	-0.011	-0.263
-577.763	-200.000	-0.015	0.329
-576.748	50.989	-0.201	0.192
-575.733	606.378	0.035	0.088
-574.719	800.000	0.051	-0.151
-573.704	-53.813	0.384	-0.176
-572.690	-127.466	-0.435	-0.064
-571.675	-45.784	0.157	0.078
-570.661	353.916	-0.044	0.087
-569.646	-179.921	-0.082	-0.002
-568.631	-67.176	0.067	-0.026
-567.617	-4.623	-0.120	0.083
-566.602	-200.000	-0.006	0.321
-565.588	-43.986	0.318	0.161
-564.573	-200.000	-0.053	0.251
-563.558	-200.000	0.030	0.251
-562.544	580.812	-0.053	0.130
-561.529	68.675	-0.192	-0.198
-560.515	-200.000	0.016	0.129
-559.500	204.984	-0.126	-0.197
-558.485	-26.424	-0.096	0.056
-557.471	-2.182	0.190	-0.134
-556.456	79.025	-0.115	0.124
-555.442	110.996	-0.154	0.186
-554.427	486.754	-0.041	-0.094
-553.412	59.494	-0.271	0.268
-552.398	48.734	-0.041	0.038
-551.383	738.269	-0.021	0.056
-550.369	-166.376	-0.485	0.020
-549.354	176.231	-0.266	0.389
-548.339	800.000	-0.024	0.072
-547.325	315.314	0.092	-0.175
-546.310	289.374	-0.106	-0.192
-545.296	-200.000	0.002	0.195
-544.281	-200.000	0.013	-0.090
-543.266	123.098	0.161	-0.203
-542.252	37.889	-0.187	0.167
-541.237	294.846	-0.079	-0.145
-540.223	80.241	0.146	0.158
-539.208	399.440	-0.109	0.229
-538.193	691.515	-0.065	-0.171
-537.179	-200.000	0.021	0.134
-536.164	-200.000	0.002	-0.211
-535.150	14.220	0.102	-0.080
-534.135	-139.142	-0.275	0.030
-533.121	58.459	-0.069	-0.068
-532.106	-65.709	-0.443	-0.178
-531.091	268.340	0.158	0.279
-530.077	20.043	-0.252	-0.204
-529.062	528.928	-0.069	-0.164
-528.048	332.221	-0.057	0.111
-527.033	-131.555	0.326	-0.043
-526.018	-31.758	0.177	-0.100
-525.004	638.029	0.024	0.060
-523.989	629.890	0.030	-0.076
-522.975	-108.426	-0.217	-0.047
-521.960	158.753	-0.160	-0.223
-520.945	81.979	0.083	-0.091
-519.931	232.109	-0.033	0.055
-518.916	-200.000	-0.001	0.243
-517.902	575.684	-0.088	0.215
-516.887	49.596	-0.148	-0.140
-515.872	722.918	-0.067	0.179
-514.858	-20.432	-0.270	0.167
-513.843	16.434	-0.078	0.062
-512.829	633.846	-0.106	0.269
-511.814	-52.790	0.084	0.039
-510.799	-200.000	0.061	-0.299
-509.785	-44.072	-0.174	-0.088
-508.770	-200.000	0.274	-0.000
-507.756	365.165	0.096	-0.194
-506.741	800.000	0.047	0.197
-505.726	-109.185	-0.185	-0.040
-504.712	296.640	0.145	-0.267
-503.697	-53.960	0.147	0.067
-502.683	19.109	-0.176	0.142
-501.668	-200.000	0.027	-0.197
-500.653	-200.000	0.053	-0.285
-499.639	-83.350	-0.252	-0.081
-498.624	-42.890	-0.069	0.035
-497.610	79.574	-0.180	-0.193
-496.595	645.322	0.080	-0.204
-495.581	-32.265	0.204	0.114
-494.566	86.740	0.194	-0.215
-493.551	164.554	-0.302	-0.427
-492.537	-51.080	0.092	-0.043
-491.522	800.000	-0.064	0.185
-490.508	465.320	0.129	-0.290
-489.493	-13.101	-0.226	-0.147
-488.478	175.801	-0.156	0.227
-487.464	16.416	-0.246	-0.195
-486.449	15.941	0.053	-0.042
-485.435	-200.000	0.002	0.316
-484.420	800.000	0.092	0.290
-483.405	18.190	-0.215	0.172
-482.391	39.891	-0.112	0.101
-481.376	-162.294	-0.162	-0.008
-480.362	-101.158	0.294	-0.072
-479.347	-107.525	-0.107	0.023
-478.332	24.939	-0.216	-0.179
-477.318	278.990	0.142	-0.254
-476.303	800.000	0.028	0.093
-475.289	-109.874	-0.270	0.057
-474.274	2.770	0.115	-0.084
-473.259	-60.979	0.181	-0.077
-472.245	800.000	0.052	0.167
-471.230	575.195	-0.031	0.075
-470.216	335.376	0.033	0.065
-469.201	-182.550	-0.127	-0.002
-468.186	-200.000	-0.041	-0.222
-467.172	800.000	0.046	-0.132
-466.157	-200.000	-0.046	-0.323
-465.143	-126.506	0.400	-0.060
-464.128	61.997	-0.182	-0.182
-463.113	-200.000	0.019	0.306
-462.099	156.832	-0.135	0.186
-461.084	-81.096	0.345	-0.114
-460.070	-200.000	-0.018	0.122
-459.055	253.002	-0.181	0.309
-458.040	266.920	-0.149	0.260
-457.026	299.703	0.016	-0.029
-456.011	-193.881	0.192	-0.002
-454.997	13.856	-0.149	0.116
-453.982	-137.282	-0.264	-0.030
-452.968	-200.000	-0.013	0.436
-451.953	-200.000	0.008	0.157
-450.938	123.007	0.126	0.158
-449.924	333.817	0.176	0.342
-448.909	-1.077	0.353	-0.250
-447.895	111.153	-0.123	-0.148
-446.880	-173.356	-0.204	-0.006
-445.865	-47.115	0.147	0.072
-444.851	800.000	-0.058	0.236
-443.836	100.658	-0.150	-0.175
-442.822	228.342	0.086	-0.141
-441.807	-29.314	-0.200	-0.115
-440.792	68.728	0.045	0.046
-439.778	-200.000	0.017	-0.423
-438.763	118.614	-0.046	-0.057
-437.749	6.672	-0.074	-0.055
-436.734	-48.971	0.364	0.175
-435.719	-200.000	-0.002	0.008
-434.705	-15.184	-0.257	-0.164
-433.690	33.692	-0.235	-0.204
-432.676	-200.000	0.045	-0.212
-431.661	433.065	-0.120	-0.261
-430.646	36.359	0.146	0.129
-429.632	800.000	-0.042	-0.178
-428.617	360.715	0.142	-0.285
-427.603	-76.093	0.242	-0.086
-426.588	-158.569	-0.446	-0.026
-425.573	-113.171	0.065	-0.013
-424.559	-52.858	0.150	-0.069
-423.544	92.421	-0.055	-0.062
-422.530	-124.231	-0.483	0.076
-421.515	-200.000	-0.020	0.438
-420.500	-190.452	-0.386	0.004
-419.486	-200.000	-0.032	0.265
-418.471	-33.254	0.191	0.106
-417.457	-118.037	-0.056	-0.010
-416.442	20.657	0.071	-0.057
-415.428	110.095	0.165	0.198
-414.413	-200.000	0.011	0.085
-413.398	-200.000	0.055	0.316
-412.384	262.552	-0.080	0.138
-411.369	-112.936	0.179	0.035
-410.355	-200.000	-0.022	-0.160
-409.340	-200.000	0.019	0.145
-408.325	-167.689	0.291	-0.012
-407.311	-98.706	0.116	-0.030
-406.296	210.109	-0.063	-0.099
-405.282	21.179	0.207	0.168
-404.267	9.464	-0.034	-0.025
-403.252	-200.000	0.011	0.138
-402.238	800.000	0.051	0.180
-401.223	-188.856	-0.295	0.004
-400.209	-200.000	-0.046	-0.450
-399.194	-115.517	-0.090	-0.017
-398.179	156.968	0.036	-0.050
-397.165	8.946	-0.074	-0.056
-396.150	-28.939	0.188	-0.108
-395.136	-187.059	-0.139	-0.002
-394.121	610.593	-0.028	0.070
-393.106	-19.067	0.137	-0.085
-392.092	-90.427	-0.191	0.055
-391.077	-106.909	-0.426	0.094
-390.063	51.338	0.169	0.160
-389.048	-200.000	0.024	0.123
-388.033	-151.199	-0.331	0.025
-387.019	800.000	-0.046	0.144
-386.004	142.827	0.077	-0.102
-384.990	325.214	0.069	-0.132
-383.975	-104.901	0.086	-0.020
-382.960	495.693	0.053	0.121
-381.946	151.915	-0.062	-0.084
-380.931	-135.575	0.292	-0.035
-379.917	6.955	-0.069	-0.051
-378.902	6.152	0.226	-0.167
-377.888	-200.000	-0.013	0.124
-376.873	-200.000	-0.060	-0.273
-375.858	-200.000	0.015	0.159
-374.844	23.943	0.129	-0.106
-373.829	209.198	0.142	0.221
-372.815	-200.000	0.001	-0.257
-371.800	209.427	-0.171	-0.268
-370.785	369.262	-0.058	-0.117
-369.771	85.434	0.175	-0.192
-368.756	350.049	0.044	-0.087
-367.742	-62.101	0.200	-0.083
-366.727	-142.774	-0.284	0.028
-365.712	266.691	-0.155	-0.270
-364.698	571.393	0.088	-0.213
-363.683	-75.755	-0.264	-0.093
-362.669	-9.728	0.112	-0.075
-361.654	-200.000	0.007	-0.337
-360.639	-126.567	0.209	0.031
-359.625	384.578	0.089	-0.183
-358.610	91.077	0.013	-0.014
-357.596	-104.897	-0.131	-0.030
-356.581	101.820	0.058	0.067
-355.566	-18.969	0.330	0.205
-354.552	180.793	-0.096	0.140
-353.537	79.271	-0.162	-0.174
-352.523	-66.765	-0.282	-0.111
-351.508	-51.041	0.187	-0.087
-350.493	153.869	0.168	-0.230
-349.479	205.696	0.115	-0.179
-348.464	800.000	-0.043	0.122
-347.450	-169.484	-0.117	-0.004
-346.435	-100.752	-0.076	0.019
-345.420	-127.984	0.194	0.028
-344.406	-15.626	-0.205	-0.130
-343.391	-13.372	-0.157	0.102
-342.377	291.850	0.186	-0.337
-341.362	-41.031	0.130	0.067
-340.348	76.396	-0.123	0.130
-339.333	2.359	0.051	-0.037
-338.318	-115.236	0.354	0.067
-337.304	10.309	-0.338	0.256
-336.289	-200.000	-0.023	-0.273
-335.275	321.036	-0.090	-0.171
-334.260	-120.801	0.226	-0.038
-333.245	800.000	-0.094	0.337
-332.231	-200.000	-0.005	0.037
-331.216	-115.568	0.144	-0.027
-330.202	-57.934	-0.136	-0.059
-329.187	-186.207	0.126	0.002
-328.172	5.146	-0.079	0.058
-327.158	37.574	-0.099	-0.087
-326.143	207.299	-0.218	0.339
-325.129	-70.152	0.316	-0.120
-324.114	-183.493	0.509	0.009
-323.099	-88.914	-0.412	-0.122
-322.085	-131.782	-0.232	0.030
-321.070	800.000	0.072	-0.214
-320.056	-116.882	-0.246	0.045
-319.041	-63.792	0.113	0.046
-318.026	-200.000	0.027	0.290
-317.012	108.031	0.084	-0.099
-315.997	78.299	-0.184	0.195
-314.983	632.017	-0.012	-0.031
-313.968	-145.343	-0.016	-0.001
-312.953	-200.000	-0.033	-0.155
-311.939	-12.808	-0.368	-0.239
-310.924	-126.592	0.437	0.065
-309.910	-200.000	0.001	-0.073
-308.895	800.000	-0.058	0.237
-307.880	-200.000	0.017	0.224
-306.866	-200.000	-0.002	0.100
-305.851	79.210	-0.132	0.141
-304.837	-116.248	-0.107	-0.020
-303.822	701.807	-0.033	0.086
-302.807	-16.659	0.093	0.058
-301.793	800.000	0.032	0.105
-300.778	353.646	-0.007	-0.015
-299.764	-200.000	-0.076	0.454
-298.749	-200.000	0.018	0.190
-297.735	800.000	-0.019	-0.053
-296.720	-127.146	0.213	0.031
-295.705	18.509	0.116	0.092
-294.691	-99.321	0.591	0.148
-293.676	-119.486	0.268	-0.046
-292.662	-101.559	0.132	0.032
-291.647	-134.675	0.197	0.024
-290.632	737.057	0.074	-0.198
-289.618	-200.000	0.054	-0.408
-288.603	-97.167	0.380	-0.099
-287.589	-200.000	-0.014	0.096
-286.574	800.000	0.079	0.250
-285.559	144.464	-0.178	-0.236
-284.545	289.333	-0.124	-0.224
-283.530	-200.000	-0.045	-0.220
-282.516	116.503	-0.094	-0.115
-281.501	452.525	0.044	-0.096
-280.486	115.215	-0.120	-0.146
-279.472	800.000	0.040	-0.113
-278.457	-138.485	0.320	0.035
-277.443	-68.586	-0.131	0.051
-276.428	-89.200	-0.356	-0.105
-275.413	102.535	-0.302	-0.351
-274.399	-200.000	-0.008	0.084
-273.384	-200.000	0.010	-0.149
-272.370	155.336	0.073	-0.100
-271.355	344.640	-0.109	0.213
-270.340	800.000	-0.039	0.122
-269.326	-51.119	0.248	0.115
-268.311	-57.770	-0.050	-0.022
-267.297	-97.329	-0.069	-0.018
-266.282	-169.574	0.298	-0.011
-265.267	-32.043	0.100	-0.056
-264.253	-111.251	-0.115	0.023
-263.238	125.738	0.068	-0.086
-262.224	-4.866	0.171	0.117
-261.209	-77.860	-0.247	-0.085
-260.195	-88.582	0.229	0.068
-259.180	800.000	-0.023	-0.084
-258.165	800.000	-0.099	0.305
-257.151	144.373	0.086	0.114
-256.136	-118.497	0.293	-0.052
-255.122	-128.049	-0.189	-0.027
-254.107	-77.409	0.468	-0.162
-253.092	246.315	-0.114	0.192
-252.078	-200.000	0.036	0.297
-251.063	800.000	0.144	0.497
-250.049	-200.000	0.037	0.424
-249.034	11.221	-0.271	-0.206
-248.019	800.000	-0.104	0.378
-247.005	-200.000	0.037	-0.457
-245.990	84.898	0.247	-0.269
-244.976	-18.485	-0.094	-0.058
-243.961	649.150	0.051	0.130
-242.946	515.404	0.150	0.348
-241.932	59.451	0.026	0.026
-240.917	-9.015	-0.068	-0.045
-239.903	-124.433	0.055	-0.009
-238.888	-104.451	-0.420	-0.096
-237.873	331.870	0.031	0.060
-236.859	-39.687	-0.168	0.087
-235.844	-200.000	0.013	-0.283
-234.830	78.888	-0.190	-0.202
-233.815	58.796	0.081	-0.079
-232.800	-200.000	-0.064	0.467
-231.786	800.000	0.071	0.195
-230.771	301.818	-0.109	-0.200
-229.757	-47.038	0.137	0.066
-228.742	800.000	-0.077	-0.299
-227.727	-200.000	0.016	-0.141
-226.713	-200.000	0.017	-0.414
-225.698	-12.237	-0.260	-0.169
-224.684	218.959	-0.019	-0.030
-223.669	-161.818	0.178	-0.009
-222.655	-200.000	0.015	-0.176
-221.640	22.918	0.370	0.301
-220.625	-131.850	0.250	-0.032
-219.611	50.796	-0.082	-0.077
-218.596	659.611	0.056	-0.144
-217.582	102.766	0.301	0.349
-216.567	-200.000	0.043	0.204
-215.552	-47.926	0.319	-0.153
-214.538	54.518	0.221	0.211
-213.523	-200.000	-0.021	0.400
-212.509	-51.598	-0.207	-0.096
-211.494	-160.601	-0.104	0.006
-210.479	165.610	0.224	0.314
-209.465	800.000	0.048	0.193
-208.450	99.752	0.183	-0.210
-207.436	-27.749	0.043	-0.025
-206.421	-61.794	0.439	-0.182
-205.406	-105.455	0.277	-0.063
-204.392	466.276	-0.168	0.373
-203.377	-200.000	-0.012	-0.057
-202.363	-130.411	-0.449	-0.060
-201.348	-200.000	0.000	-0.081
-200.333	800.000	-0.052	-0.218
-199.319	-200.000	0.011	-0.119
-198.304	104.295	0.259	0.303
-197.290	111.921	-0.130	0.156
-196.275	41.231	-0.097	-0.087
-195.260	-93.721	0.139	0.038
-194.246	-170.444	-0.128	-0.004
-193.231	35.271	-0.115	0.100
-192.217	709.271	-0.061	-0.159
-191.202	-200.000	-0.017	0.403
-190.187	-62.573	0.332	0.137
-189.173	317.498	-0.126	0.236
-188.158	800.000	-0.009	-0.024
-187.144	-200.000	-0.034	0.325
-186.129	-140.613	0.244	-0.025
-185.114	-161.056	0.166	0.009
-184.100	800.000	0.065	-0.228
-183.085	-117.259	-0.116	0.021
-182.071	159.516	0.166	0.229
-181.056	105.068	0.103	-0.121
-180.042	26.056	0.155	0.128
-179.027	-59.174	0.152	0.065
-178.012	507.982	-0.045	-0.104
-176.998	593.942	0.086	0.209
-175.983	265.284	0.128	-0.221
-174.969	-200.000	-0.031	0.435
-173.954	129.976	0.100	0.127
-172.939	-200.000	0.001	0.184
-171.925	45.658	0.170	0.156
-170.910	56.623	-0.054	-0.052
-169.896	-25.836	0.171	-0.100
-168.881	-200.000	-0.003	0.070
-167.866	-166.150	-0.078	0.003
-166.852	-84.183	-0.023	0.007
-165.837	331.358	0.140	0.268
-164.823	52.257	0.111	0.105
-163.808	184.134	-0.057	0.083
-162.793	8.380	0.087	0.065
-161.779	-107.888	-0.120	0.026
-160.764	24.319	-0.307	0.251
-159.750	800.000	-0.065	0.186
-158.735	780.097	-0.053	-0.144
-157.720	-200.000	0.023	0.125
-156.706	123.080	0.152	0.188
-155.691	-200.000	-0.018	0.224
-154.677	-29.456	0.233	-0.132
-153.662	151.892	0.155	0.209
-152.647	295.125	-0.159	-0.289
-151.633	-70.827	0.212	0.079
-150.618	327.767	-0.250	0.475
-149.604	-200.000	0.082	0.395
-148.589	-150.521	-0.261	-0.020
-147.574	174.141	-0.078	0.112
-146.560	57.578	-0.174	0.168
-145.545	-60.951	0.237	-0.099
-144.531	250.906	0.071	-0.120
-143.516	-200.000	0.012	0.160
-142.502	-18.813	0.489	0.301
-141.487	-165.186	0.169	-0.007
-140.472	51.540	-0.226	-0.213
-139.458	751.284	-0.119	-0.319
-138.443	-33.199	-0.378	-0.207
-137.429	10.371	0.026	0.020
-136.414	-200.000	-0.039	-0.225
-135.399	-104.366	-0.202	-0.046
-134.385	192.615	0.139	0.207
-133.370	206.423	-0.102	0.158
-132.356	-200.000	0.034	-0.277
-131.341	275.740	0.064	-0.111
-130.326	-200.000	-0.000	0.344
-129.312	22.671	-0.370	-0.300
-128.297	-52.902	-0.210	-0.095
-127.283	-28.053	-0.306	0.175
-126.268	-200.000	0.004	0.045
-125.253	800.000	-0.089	0.291
-124.239	229.864	-0.113	-0.182
-123.224	360.779	-0.113	-0.223
