DTS Sentinel unit serial number:	SN413079Multiplexer serial number:	ORYXHardware model number:	OX4-SRSoftware version number:	ORYX F/W v4.00 Oryx Data Collector v3.7.2.0data status	okinstallation	princeton_trtdifferential loss correction	single-endedforward channel	channel 4reverse channel	N/Adate	2019/09/16time	01:01:35forward acquisition time	60.00reverse acquisition time	0.00gamma	496.2192k internal	0.2324k external	0.2324temperature offset calibration	0.9968default loss term (dB/km)	0.3790temperature slope calibration	1.0000multiplexer offset coefficient	1.0000multiplexer slope coefficient	1.0000fibre end	0.00T internal ref (°C)	27.31T ext. ref 1 (°C)	9.75T ext. ref 2 (°C)	21.41length (m)	temperature (°C)	Stokes	anti-Stokes-747.200	-200.000	0.011	-0.157
-746.185	-200.000	-0.009	0.142
-745.171	-200.000	0.010	0.130
-744.156	-200.000	-0.025	0.284
-743.142	105.304	-0.172	-0.205
-742.127	4.867	-0.308	0.229
-741.112	-200.000	0.159	0.000
-740.098	-82.169	0.072	-0.024
-739.083	-19.548	-0.223	-0.139
-738.069	-200.000	0.013	-0.089
-737.054	341.659	-0.040	-0.079
-736.039	630.680	-0.138	-0.352
-735.025	374.918	-0.039	0.080
-734.010	703.700	0.116	-0.309
-732.996	413.046	-0.084	-0.181
-731.981	40.972	0.179	-0.163
-730.966	-200.000	-0.017	0.320
-729.952	163.018	0.138	-0.196
-728.937	658.095	-0.122	0.315
-727.923	-58.124	-0.241	-0.106
-726.908	39.183	0.193	-0.174
-725.894	9.067	-0.163	-0.124
-724.879	-117.345	0.139	-0.025
-723.864	-113.742	-0.569	-0.112
-722.850	-137.534	0.269	-0.031
-721.835	-33.122	-0.219	-0.123
-720.821	-49.717	-0.199	0.096
-719.806	194.519	-0.212	0.324
-718.791	144.592	-0.266	-0.358
-717.777	78.243	0.220	-0.237
-716.762	523.008	0.131	-0.311
-715.748	-58.210	0.078	-0.034
-714.733	800.000	-0.020	-0.081
-713.718	56.693	0.011	0.011
-712.704	178.420	-0.236	-0.348
-711.689	-139.820	-0.356	0.038
-710.675	-200.000	-0.026	-0.297
-709.660	420.994	-0.152	-0.329
-708.645	-94.078	-0.401	-0.111
-707.631	-174.376	-0.118	-0.003
-706.616	-35.761	0.074	0.040
-705.602	-67.724	-0.152	-0.060
-704.587	-3.810	-0.182	-0.128
-703.572	-200.000	0.162	0.001
-702.558	30.754	-0.193	-0.167
-701.543	800.000	0.057	-0.244
-700.529	-42.321	0.172	0.089
-699.514	222.151	0.205	-0.332
-698.499	800.000	-0.047	-0.140
-697.485	-36.832	-0.191	0.103
-696.470	239.317	-0.143	0.240
-695.456	62.701	-0.275	0.277
-694.441	-152.466	0.167	-0.012
-693.426	-64.350	-0.470	0.193
-692.412	-200.000	0.011	0.148
-691.397	-73.330	-0.072	-0.027
-690.383	102.823	-0.161	-0.190
-689.368	-90.627	-0.472	-0.137
-688.354	-54.555	-0.096	-0.044
-687.339	-173.687	-0.310	0.009
-686.324	-0.619	0.266	-0.190
-685.310	-89.896	0.147	-0.043
-684.295	-200.000	-0.153	-0.001
-683.281	-38.383	-0.162	0.086
-682.266	-200.000	0.020	-0.118
-681.251	-139.679	0.394	0.042
-680.237	-3.603	-0.256	0.179
-679.222	-130.252	0.129	-0.018
-678.208	-93.429	-0.412	0.115
-677.193	-155.169	0.237	-0.016
-676.178	-200.000	0.010	-0.269
-675.164	94.393	-0.107	0.122
-674.149	21.456	-0.264	-0.216
-673.135	35.737	0.097	-0.086
-672.120	243.333	-0.169	0.285
-671.105	-200.000	0.001	0.254
-670.091	-39.445	-0.248	-0.131
-669.076	800.000	0.034	0.122
-668.062	800.000	0.027	0.098
-667.047	256.374	-0.081	-0.141
-666.032	121.391	-0.169	0.212
-665.018	329.397	0.032	0.061
-664.003	738.567	0.067	-0.182
-662.989	36.587	-0.357	-0.317
-661.974	-82.027	-0.328	-0.108
-660.959	-200.000	0.029	-0.291
-659.945	-1.953	0.125	0.088
-658.930	-169.452	-0.487	0.018
-657.916	800.000	0.018	0.049
-656.901	58.085	-0.275	-0.271
-655.886	-35.600	0.182	0.100
-654.872	-84.961	0.144	0.045
-653.857	-176.371	0.099	-0.003
-652.843	77.847	-0.079	-0.085
-651.828	-55.250	-0.294	0.133
-650.814	74.198	0.162	0.171
-649.799	-121.537	-0.235	0.039
-648.784	-200.000	-0.009	0.228
-647.770	216.551	-0.021	0.034
-646.755	-167.397	0.268	0.011
-645.741	-14.136	-0.303	-0.196
-644.726	251.790	-0.083	-0.142
-643.711	117.737	0.169	-0.210
-642.697	85.405	0.291	-0.322
-641.682	-200.000	0.019	-0.231
-640.668	-18.434	-0.407	-0.256
-639.653	174.854	0.249	-0.362
-638.638	-200.000	0.037	-0.284
-637.624	-118.903	-0.340	-0.060
-636.609	51.135	-0.072	-0.069
-635.595	-125.723	-0.169	0.026
-634.580	800.000	0.034	0.126
-633.565	-117.429	0.231	0.042
-632.551	-200.000	-0.014	-0.145
-631.536	-200.000	-0.016	0.272
-630.522	592.054	0.064	-0.159
-629.507	-36.620	-0.218	0.118
-628.492	278.098	-0.211	0.378
-627.478	800.000	-0.065	0.207
-626.463	19.326	-0.370	0.298
-625.449	79.972	0.182	-0.196
-624.434	-123.589	0.201	-0.032
-623.419	-200.000	0.020	-0.252
-622.405	-171.501	0.133	0.004
-621.390	4.942	0.063	0.046
-620.376	251.001	0.073	0.124
-619.361	611.218	-0.049	0.122
-618.346	7.216	0.161	0.121
-617.332	-38.868	0.018	0.009
-616.317	73.612	-0.230	0.242
-615.303	78.115	-0.125	-0.134
-614.288	-200.000	0.004	-0.130
-613.273	800.000	-0.017	-0.050
-612.259	-200.000	0.000	-0.163
-611.244	800.000	-0.018	-0.054
-610.230	270.170	-0.058	-0.103
-609.215	800.000	-0.015	0.064
-608.201	8.713	-0.239	-0.181
-607.186	283.065	-0.210	-0.378
-606.171	-145.246	0.222	0.020
-605.157	-185.800	0.291	-0.004
-604.142	-82.910	-0.303	0.098
-603.128	-149.272	0.234	-0.019
-602.113	-26.508	0.055	-0.032
-601.098	-200.000	-0.031	0.243
-600.084	-200.000	0.019	0.146
-599.069	-28.849	0.137	-0.079
-598.055	-100.903	-0.360	0.089
-597.040	-86.518	-0.188	0.058
-596.025	-200.000	0.002	-0.048
-595.011	-159.694	0.437	-0.024
-593.996	-200.000	0.011	0.079
-592.982	405.300	-0.080	-0.169
-591.967	-200.000	0.019	-0.236
-590.952	10.696	-0.289	-0.221
-589.938	-84.287	0.065	0.021
-588.923	32.433	-0.108	0.094
-587.909	-40.414	0.241	-0.126
-586.894	86.859	0.092	-0.102
-585.879	180.982	-0.038	0.056
-584.865	-200.000	0.084	0.421
-583.850	164.762	-0.097	-0.138
-582.836	-46.976	0.300	-0.147
-581.821	-13.753	-0.108	0.070
-580.806	67.737	-0.028	0.028
-579.792	-200.000	-0.053	0.264
-578.777	-200.000	-0.004	-0.036
-577.763	-18.752	0.222	-0.139
-576.748	-200.000	-0.001	0.300
-575.733	199.222	0.181	0.278
-574.719	480.497	0.163	-0.372
-573.704	-23.953	0.270	0.162
-572.690	-139.626	-0.105	-0.011
-571.675	87.364	0.070	0.078
-570.661	92.949	-0.074	-0.084
-569.646	-147.374	-0.469	0.040
-568.631	-71.057	0.087	0.033
-567.617	-200.000	0.046	-0.283
-566.602	-111.321	-0.110	-0.022
-565.588	-200.000	-0.018	-0.161
-564.573	-21.865	0.144	0.088
-563.558	71.120	-0.182	0.189
-562.544	-74.100	0.041	0.015
-561.529	800.000	0.072	0.275
-560.515	22.481	0.144	0.118
-559.500	-177.922	-0.205	-0.005
-558.485	-47.487	0.123	-0.060
-557.471	-11.149	-0.112	-0.074
-556.456	-69.977	-0.148	-0.057
-555.442	-52.720	-0.189	0.087
-554.427	-104.490	-0.252	0.058
-553.412	18.353	-0.322	0.258
-552.398	-107.070	-0.136	0.030
-551.383	89.106	-0.234	-0.262
-550.369	-63.718	0.408	0.168
-549.354	235.043	0.098	0.163
-548.339	147.296	0.089	-0.120
-547.325	-9.339	-0.401	-0.268
-546.310	213.710	0.077	-0.122
-545.296	-103.474	0.062	-0.015
-544.281	-200.000	-0.051	0.248
-543.266	-81.545	-0.185	0.061
-542.252	-71.786	-0.024	0.009
-541.237	15.228	-0.280	0.220
-540.223	-24.540	0.500	-0.298
-539.208	-151.945	0.205	-0.015
-538.193	-200.000	0.007	-0.075
-537.179	-158.962	-0.115	-0.007
-536.164	55.881	0.168	-0.164
-535.150	5.440	-0.307	0.227
-534.135	-89.396	0.025	-0.007
-533.121	17.938	-0.067	0.054
-532.106	127.427	-0.072	-0.092
-531.091	16.579	-0.007	0.005
-530.077	-200.000	-0.015	-0.179
-529.062	-136.262	-0.179	-0.021
-528.048	39.992	-0.123	0.110
-527.033	-200.000	0.049	-0.352
-526.018	-144.064	0.261	0.025
-525.004	306.638	0.077	-0.143
-523.989	143.440	-0.101	-0.135
-522.975	-122.482	0.333	0.054
-521.960	39.008	-0.299	0.267
-520.945	322.317	0.211	0.402
-519.931	57.416	-0.133	0.130
-518.916	131.948	0.228	0.293
-517.902	-132.445	-0.366	-0.047
-516.887	-23.138	0.180	-0.108
-515.872	-187.285	0.235	-0.003
-514.858	800.000	-0.085	-0.302
-513.843	-157.616	0.220	0.013
-512.829	-137.526	0.146	-0.016
-511.814	-139.498	-0.245	0.026
-510.799	-17.562	0.210	0.132
-509.785	77.460	0.157	0.167
-508.770	80.236	-0.034	-0.036
-507.756	-36.587	-0.086	-0.046
-506.741	-200.000	0.016	0.336
-505.726	-200.000	0.014	0.367
-504.712	201.334	-0.269	0.415
-503.697	-150.270	0.463	-0.036
-502.683	45.726	-0.164	-0.152
-501.668	-178.430	-0.341	0.008
-500.653	-94.473	0.290	-0.079
-499.639	430.527	-0.100	0.216
-498.624	-200.000	0.015	0.391
-497.610	98.776	0.077	0.089
-496.595	-68.593	0.136	0.053
-495.581	251.769	0.240	-0.409
-494.566	-109.666	0.335	0.071
-493.551	516.659	-0.094	-0.219
-492.537	8.635	0.060	0.045
-491.522	-30.497	-0.192	-0.109
-490.508	-200.000	0.030	-0.377
-489.493	-126.434	0.052	0.008
-488.478	139.345	-0.089	-0.117
-487.464	-4.654	0.225	-0.155
-486.449	-23.466	-0.282	-0.169
-485.435	-193.130	-0.076	0.001
-484.420	-78.016	0.177	0.061
-483.405	-80.204	-0.477	0.159
-482.391	-200.000	0.082	0.482
-481.376	-200.000	-0.014	-0.096
-480.362	-200.000	0.007	0.074
-479.347	-46.100	-0.200	-0.098
-478.332	800.000	-0.051	-0.202
-477.318	-200.000	-0.002	-0.455
-476.303	-73.029	0.107	0.039
-475.289	43.125	0.298	-0.272
-474.274	-73.672	0.321	-0.117
-473.259	-200.000	-0.119	-0.530
-472.245	161.345	0.157	0.219
-471.230	788.252	-0.114	0.313
-470.216	407.043	-0.102	0.214
-469.201	-200.000	-0.046	-0.332
-468.186	-200.000	-0.010	0.104
-467.172	-20.870	-0.028	-0.017
-466.157	-200.000	-0.023	0.111
-465.143	800.000	-0.077	0.248
-464.128	149.699	-0.125	-0.169
-463.113	13.005	0.114	-0.088
-462.099	141.252	0.074	-0.098
-461.084	-143.521	-0.382	-0.036
-460.070	-61.266	-0.233	0.098
-459.055	-162.871	0.355	-0.017
-458.040	-100.082	0.284	0.071
-457.026	111.961	0.189	-0.228
-456.011	375.718	0.071	0.144
-454.997	525.283	-0.130	0.305
-453.982	10.983	0.232	-0.177
-452.968	11.771	0.214	-0.164
-451.953	173.083	0.197	0.283
-450.938	800.000	0.012	-0.042
-449.924	-5.726	0.233	0.159
-448.909	-25.630	-0.227	0.133
-447.895	800.000	-0.042	-0.159
-446.880	-145.474	0.125	0.011
-445.865	800.000	0.103	0.310
-444.851	800.000	0.027	-0.106
-443.836	-38.386	0.070	0.037
-442.822	800.000	-0.065	0.221
-441.807	800.000	-0.024	-0.072
-440.792	371.494	-0.088	-0.179
-439.778	-16.500	-0.064	-0.040
-438.763	8.868	-0.192	0.144
-437.749	95.441	0.111	0.126
-436.734	542.036	-0.122	-0.290
-435.719	-200.000	-0.061	0.000
-434.705	6.779	0.080	0.060
-433.690	235.027	-0.195	-0.322
-432.676	-197.040	-0.312	0.002
-431.661	-109.283	0.062	-0.013
-430.646	800.000	0.072	-0.228
-429.632	0.637	-0.218	-0.155
-428.617	82.184	-0.178	0.192
-427.603	56.626	0.106	-0.103
-426.588	65.060	0.187	0.188
-425.573	29.518	-0.147	-0.125
-424.559	265.834	0.083	-0.144
-423.544	-117.579	0.203	0.037
-422.530	-48.188	0.155	-0.075
-421.515	-60.878	-0.223	0.094
-420.500	-111.552	-0.296	-0.060
-419.486	800.000	0.025	-0.071
-418.471	128.194	0.112	-0.142
-417.457	-153.958	0.044	-0.003
-416.442	-56.713	-0.190	-0.084
-415.428	800.000	-0.107	-0.398
-414.413	-106.243	-0.388	-0.087
-413.398	37.247	0.132	-0.117
-412.384	-114.914	-0.112	-0.021
-411.369	800.000	-0.009	0.036
-410.355	-200.000	0.022	0.198
-409.340	30.778	-0.062	-0.053
-408.325	-181.083	-0.212	-0.004
-407.311	-148.897	-0.276	-0.022
-406.296	2.591	-0.244	0.176
-405.282	173.331	-0.116	-0.166
-404.267	-5.523	-0.387	-0.265
-403.252	-200.000	-0.018	-0.139
-402.238	652.831	0.100	-0.255
-401.223	800.000	0.085	-0.304
-400.209	7.636	-0.098	-0.073
-399.194	800.000	0.123	-0.487
-398.179	-200.000	0.034	-0.316
-397.165	69.790	-0.151	-0.155
-396.150	-64.569	0.261	-0.106
-395.136	-125.501	-0.184	-0.028
-394.121	800.000	0.069	0.200
-393.106	-142.899	0.137	-0.013
-392.092	594.471	-0.008	0.020
-391.077	-200.000	-0.005	0.115
-390.063	76.314	0.123	-0.129
-389.048	-159.975	0.090	0.005
-388.033	537.142	-0.131	0.310
-387.019	45.908	0.151	-0.139
-386.004	-167.778	0.164	-0.006
-384.990	226.678	0.054	-0.087
-383.975	-200.000	0.052	0.352
-382.960	-200.000	0.011	0.157
-381.946	-74.534	-0.058	-0.021
-380.931	-200.000	0.019	0.312
-379.917	-59.490	-0.301	-0.129
-378.902	473.524	-0.251	-0.563
-377.888	94.152	0.021	0.024
-376.873	-155.450	-0.157	-0.010
-375.858	605.666	-0.108	0.268
-374.844	-200.000	-0.024	-0.208
-373.829	59.993	0.138	0.135
-372.815	-200.000	0.030	-0.221
-371.800	-182.654	-0.103	0.002
-370.785	-144.144	0.073	0.007
-369.771	-90.128	-0.156	-0.045
-368.756	197.538	-0.249	-0.378
-367.742	336.507	0.036	0.070
-366.727	65.707	0.051	-0.052
-365.712	-20.828	-0.074	-0.045
-364.698	86.991	-0.052	-0.057
-363.683	-124.779	-0.231	0.036
-362.669	-60.038	-0.102	-0.043
-361.654	800.000	0.054	-0.183
-360.639	44.747	0.232	0.213
-359.625	513.152	-0.058	0.134
-358.610	-49.088	0.115	0.055
-357.596	329.828	0.168	0.321
-356.581	41.531	-0.202	0.182
-355.566	105.528	0.192	0.225
-354.552	11.542	0.103	0.079
-353.537	-33.688	0.308	-0.169
-352.523	-200.000	0.013	0.159
-351.508	13.560	-0.052	0.040
-350.493	-150.357	-0.151	0.012
-349.479	126.469	-0.088	0.110
-348.464	600.070	-0.122	-0.302
-347.450	776.394	-0.075	-0.205
-346.435	191.989	-0.071	0.106
-345.420	800.000	-0.037	0.132
-344.406	-139.397	0.200	-0.021
-343.391	-50.342	-0.049	-0.023
-342.377	76.496	0.232	0.244
-341.362	-26.252	-0.153	-0.089
-340.348	-200.000	-0.001	-0.442
-339.333	598.678	0.079	0.194
-338.318	357.666	0.188	0.373
-337.304	30.491	0.158	0.134
-336.289	12.356	0.102	-0.078
-335.275	16.258	-0.272	-0.213
-334.260	-200.000	-0.026	0.184
-333.245	-91.733	-0.589	0.166
-332.231	-89.118	0.206	-0.060
-331.216	-19.564	-0.073	0.045
-330.202	131.280	0.084	0.107
-329.187	800.000	-0.073	0.212
-328.172	198.185	-0.067	-0.102
-327.158	-26.849	-0.198	0.115
-326.143	176.473	0.081	-0.117
-325.129	719.883	-0.116	-0.306
-324.114	-111.253	0.111	0.023
-323.099	249.518	-0.067	0.112
-322.085	288.531	0.039	-0.070
-321.070	341.320	0.121	0.236
-320.056	-93.656	0.106	0.029
-319.041	800.000	0.077	0.309
-318.026	-52.275	-0.284	0.131
-317.012	78.251	-0.202	0.214
-315.997	-7.162	0.305	0.205
-314.983	-134.970	0.222	0.027
-313.968	-196.299	0.259	0.002
-312.953	-113.003	-0.143	0.028
-311.939	-23.284	0.086	-0.051
-310.924	-67.403	-0.130	0.051
-309.910	800.000	-0.111	0.372
-308.895	-59.292	-0.122	-0.052
-307.880	429.707	0.078	0.167
-306.866	-200.000	0.061	-0.289
-305.851	351.883	0.055	-0.108
-304.837	800.000	-0.047	0.202
-303.822	-200.000	0.028	-0.149
-302.807	19.468	0.186	-0.148
-301.793	-20.118	0.174	-0.107
-300.778	-71.532	0.214	-0.079
-299.764	-200.000	0.043	0.322
-298.749	81.564	-0.125	-0.134
-297.735	-10.889	-0.312	-0.205
-296.720	-200.000	0.026	-0.178
-295.705	-200.000	0.020	-0.088
-294.691	-29.465	0.338	0.192
-293.676	-105.316	-0.154	-0.035
-292.662	-2.305	-0.198	-0.138
-291.647	800.000	-0.075	-0.224
-290.632	131.529	-0.126	0.161
-289.618	249.045	0.110	-0.185
-288.603	-69.228	-0.176	0.067
-287.589	-123.049	-0.341	-0.054
-286.574	10.202	0.153	-0.115
-285.559	-199.586	0.172	0.001
-284.545	-200.000	0.017	-0.130
-283.530	-38.379	0.165	0.087
-282.516	-79.541	-0.369	-0.124
-281.501	70.217	-0.112	0.115
-280.486	92.855	-0.071	-0.080
-279.472	-65.577	-0.301	-0.120
-278.457	-111.903	0.274	0.055
-277.443	89.311	0.401	0.443
-276.428	-153.648	-0.131	-0.009
-275.413	86.287	-0.211	-0.231
-274.399	-200.000	-0.037	0.168
-273.384	159.852	-0.139	0.192
-272.370	37.331	0.327	0.288
-271.355	604.110	-0.041	-0.100
-270.340	76.885	0.390	0.411
-269.326	123.923	0.159	-0.198
-268.311	-90.537	0.260	0.074
-267.297	-115.525	-0.432	0.081
-266.282	12.461	-0.124	-0.095
-265.267	23.301	-0.236	0.192
-264.253	-52.718	0.223	0.102
-263.238	-138.035	-0.361	0.040
-262.224	-200.000	0.029	-0.159
-261.209	-200.000	-0.004	-0.038
-260.195	-200.000	-0.029	-0.350
-259.180	-139.858	-0.014	0.001
-258.165	-119.018	0.376	-0.065
-257.151	-200.000	-0.020	0.425
-256.136	232.033	-0.142	0.230
-255.122	-162.657	0.213	0.010
-254.107	-26.736	0.141	-0.082
-253.092	800.000	-0.026	-0.107
-252.078	44.325	0.071	-0.065
-251.063	-15.042	-0.087	0.055
-250.049	-200.000	-0.060	0.293
-249.034	-200.000	0.007	-0.068
-248.019	104.616	-0.074	-0.086
-247.005	-94.211	-0.057	-0.016
-245.990	-149.277	0.421	-0.033
-244.976	800.000	0.028	-0.097
-243.961	-54.481	-0.164	0.073
-242.946	-200.000	0.011	0.063
-241.932	356.433	-0.049	0.097
-240.917	800.000	0.069	-0.239
-239.903	-22.440	-0.192	-0.115
-238.888	305.876	-0.062	-0.114
-237.873	-151.244	0.159	-0.012
-236.859	786.894	-0.053	-0.144
-235.844	545.156	0.012	0.028
-234.830	61.917	0.101	0.100
-233.815	800.000	-0.068	-0.222
-232.800	107.850	-0.178	-0.210
-231.786	-85.833	0.134	0.041
-230.771	800.000	0.003	-0.009
-229.757	30.463	-0.238	0.201
-228.742	800.000	0.076	0.239
-227.727	-200.000	0.028	-0.226
-226.713	197.710	-0.126	-0.190
-225.698	270.716	0.097	0.168
-224.684	-143.541	-0.204	0.019
-223.669	800.000	-0.110	0.365
-222.655	170.995	0.180	0.255
-221.640	36.732	-0.260	0.227
-220.625	161.281	0.084	-0.117
-219.611	299.519	0.078	0.142
-218.596	110.200	0.134	0.159
-217.582	-46.379	-0.073	-0.036
-216.567	-200.000	0.009	0.145
-215.552	369.092	-0.108	0.217
-214.538	38.355	-0.168	0.148
-213.523	56.380	0.186	0.179
-212.509	87.811	-0.175	0.192
-211.494	-55.876	0.219	-0.097
-210.479	-167.067	0.239	0.010
-209.465	124.919	-0.025	0.031
-208.450	-200.000	0.043	-0.203
-207.436	-2.058	0.081	-0.057
-206.421	-155.413	0.225	-0.014
-205.406	-65.856	-0.181	0.071
-204.392	146.898	-0.138	-0.183
-203.377	244.895	0.117	0.195
-202.363	223.800	-0.122	0.195
-201.348	113.337	0.065	0.078
-200.333	547.856	-0.095	-0.225
-199.319	-200.000	-0.030	0.280
-198.304	-17.690	0.155	-0.096
-197.290	-72.403	0.359	-0.131
-196.275	97.634	-0.185	0.210
-195.260	-200.000	0.022	0.230
-194.246	-76.188	0.215	0.075
-193.231	-11.587	0.161	-0.104
-192.217	249.635	-0.051	0.086
-191.202	151.748	-0.106	0.142
-190.187	800.000	0.092	-0.347
-189.173	66.434	0.265	-0.266
-188.158	-123.011	0.246	-0.039
-187.144	17.586	-0.080	-0.063
-186.129	-66.461	0.114	-0.045
-185.114	395.026	-0.072	0.148
-184.100	-68.086	-0.201	-0.077
-183.085	-200.000	-0.005	0.057
-182.071	575.067	0.120	-0.288
-181.056	-4.748	0.031	-0.021
-180.042	301.844	-0.028	0.052
-179.027	-126.186	0.381	-0.056
-178.012	-83.825	-0.309	-0.097
-176.998	-94.734	0.118	-0.032
-175.983	-3.220	0.289	-0.199
-174.969	-91.425	0.271	0.076
-173.954	-126.046	-0.260	-0.039
-172.939	-200.000	-0.022	-0.346
-171.925	-62.369	0.366	0.150
-170.910	-108.533	0.299	-0.064
-169.896	800.000	0.010	-0.043
-168.881	94.278	-0.238	0.266
-167.866	-11.959	-0.179	-0.116
-166.852	69.017	0.189	-0.192
-165.837	-108.897	0.058	0.012
-164.823	800.000	0.042	-0.133
-163.808	200.550	-0.012	0.019
-162.793	-57.314	0.195	-0.084
-161.779	-200.000	-0.004	0.402
-160.764	786.330	-0.174	0.470
-159.750	-83.868	0.274	0.086
-158.735	375.963	-0.201	-0.404
-157.720	-95.702	0.305	-0.080
-156.706	-93.664	0.313	0.085
-155.691	53.265	0.153	0.145
-154.677	201.281	0.131	0.199
-153.662	800.000	0.037	0.111
-152.647	-157.886	-0.192	-0.011
-151.633	130.515	-0.145	0.184
-150.618	-181.578	0.228	-0.004
-149.604	-162.855	0.447	-0.022
-148.589	-29.821	0.193	-0.109
-147.574	-200.000	-0.019	0.105
-146.560	-200.000	-0.015	-0.363
-145.545	-120.450	-0.096	-0.016
-144.531	-7.836	-0.179	0.119
-143.516	-138.711	0.323	0.035
-142.502	190.814	0.063	-0.093
-141.487	-155.339	-0.257	0.016
-140.472	-97.210	0.170	0.044
-139.458	-120.837	0.312	0.052
-138.443	-44.899	0.233	-0.114
-137.429	30.695	0.285	0.241
-136.414	141.426	0.056	0.073
-135.399	-200.000	-0.016	-0.249
-134.385	-102.239	0.152	0.036
-133.370	603.724	-0.098	-0.240
-132.356	800.000	-0.028	0.078
-131.341	-92.279	0.207	-0.058
-130.326	-200.000	0.046	0.299
-129.312	-10.365	-0.225	0.147
-128.297	-137.184	0.096	-0.011
-127.283	33.927	-0.077	-0.066
-126.268	80.769	-0.134	-0.142
-125.253	-27.926	0.233	0.133
-124.239	-200.000	0.012	-0.158
-123.224	-78.172	-0.104	-0.035
-122.210	-200.000	-0.016	-0.106
