DTS Sentinel unit serial number:	SN413079Multiplexer serial number:	ORYXHardware model number:	OX4-SRSoftware version number:	ORYX F/W v4.00 Oryx Data Collector v3.7.2.0data status	okinstallation	princeton_trtdifferential loss correction	single-endedforward channel	channel 4reverse channel	N/Adate	2019/09/13time	23:41:34forward acquisition time	60.00reverse acquisition time	0.00gamma	496.2192k internal	0.2323k external	0.2323temperature offset calibration	1.0138default loss term (dB/km)	0.3790temperature slope calibration	1.0000multiplexer offset coefficient	1.0000multiplexer slope coefficient	1.0000fibre end	0.00T internal ref (°C)	26.69T ext. ref 1 (°C)	3.17T ext. ref 2 (°C)	20.99length (m)	temperature (°C)	Stokes	anti-Stokes-747.200	191.409	0.142	0.215
-746.185	134.971	0.097	-0.128
-745.171	800.000	0.058	0.243
-744.156	566.735	-0.129	0.315
-743.142	233.705	-0.079	-0.131
-742.127	-174.977	-0.665	0.019
-741.112	-77.133	0.406	-0.143
-740.098	208.538	-0.337	0.532
-739.083	-52.992	-0.088	-0.041
-738.069	35.965	-0.248	0.220
-737.054	364.927	-0.047	0.096
-736.039	-200.000	-0.019	-0.403
-735.025	-28.469	0.082	0.048
-734.010	800.000	-0.042	0.129
-732.996	-43.352	-0.228	-0.116
-731.981	-32.853	-0.057	-0.032
-730.966	-15.979	-0.197	-0.127
-729.952	-113.770	-0.147	-0.029
-728.937	-156.191	-0.073	-0.005
-727.923	-137.702	-0.182	-0.021
-726.908	-67.415	0.240	-0.095
-725.894	800.000	0.135	-0.462
-724.879	123.374	-0.058	-0.073
-723.864	-87.132	-0.160	-0.049
-722.850	451.138	-0.020	0.045
-721.835	-3.878	-0.121	-0.085
-720.821	-133.578	0.319	0.040
-719.806	-200.000	0.009	-0.052
-718.791	-30.544	-0.208	0.119
-717.777	-64.313	0.093	0.038
-716.762	-10.018	-0.289	0.194
-715.748	-116.778	-0.123	-0.023
-714.733	-200.000	-0.007	0.116
-713.718	800.000	0.055	-0.185
-712.704	-45.289	-0.417	-0.209
-711.689	111.304	-0.271	-0.329
-710.675	-29.207	0.419	-0.242
-709.660	83.215	-0.044	0.049
-708.645	800.000	-0.032	0.110
-707.631	-200.000	0.048	-0.260
-706.616	202.054	0.215	0.334
-705.602	85.099	-0.070	-0.077
-704.587	-104.658	0.203	0.047
-703.572	326.543	0.075	-0.145
-702.558	-51.189	0.145	-0.068
-701.543	-54.344	0.141	0.064
-700.529	-200.000	-0.054	-0.274
-699.514	445.449	-0.020	-0.045
-698.499	510.235	0.057	0.133
-697.485	-200.000	0.025	-0.172
-696.470	800.000	0.034	0.126
-695.456	137.182	-0.117	-0.154
-694.441	-54.243	-0.173	0.079
-693.426	800.000	0.080	0.229
-692.412	392.894	-0.178	-0.372
-691.397	274.553	-0.012	0.021
-690.383	135.815	-0.149	0.196
-689.368	-88.915	0.140	0.042
-688.354	63.043	-0.153	-0.155
-687.339	-115.330	-0.018	0.003
-686.324	800.000	0.022	0.084
-685.310	-200.000	0.065	-0.353
-684.295	-57.332	-0.152	-0.067
-683.281	270.383	-0.030	-0.052
-682.266	-46.792	-0.178	0.088
-681.251	526.807	0.151	-0.358
-680.237	540.640	0.061	0.146
-679.222	32.428	-0.149	0.130
-678.208	11.162	-0.376	-0.289
-677.193	567.824	-0.093	0.227
-676.178	372.428	0.093	-0.190
-675.164	-141.344	0.225	-0.023
-674.149	718.906	-0.058	0.155
-673.135	-118.489	-0.089	0.016
-672.120	124.411	0.171	0.217
-671.105	5.516	0.117	-0.087
-670.091	-200.000	0.099	0.000
-669.076	35.911	-0.124	0.110
-668.062	-169.806	0.321	0.012
-667.047	-200.000	-0.023	0.105
-666.032	37.157	0.088	-0.078
-665.018	527.139	-0.078	-0.184
-664.003	-149.720	0.214	0.017
-662.989	800.000	-0.074	-0.241
-661.974	222.041	-0.032	0.052
-660.959	98.960	-0.099	0.115
-659.945	-35.481	0.159	-0.087
-658.930	197.068	-0.157	-0.242
-657.916	144.784	-0.206	0.278
-656.901	267.887	0.148	0.261
-655.886	106.818	-0.201	0.240
-654.872	60.453	-0.084	-0.084
-653.857	-200.000	-0.026	-0.161
-652.843	-35.790	-0.244	-0.133
-651.828	-72.970	0.080	0.030
-650.814	29.166	0.069	0.059
-649.799	753.926	-0.056	-0.152
-648.784	800.000	0.039	-0.129
-647.770	-140.513	0.183	-0.019
-646.755	-29.827	-0.167	0.096
-645.741	800.000	-0.062	-0.189
-644.726	-3.791	-0.007	0.005
-643.711	-140.281	0.016	-0.002
-642.697	523.221	-0.097	-0.229
-641.682	800.000	-0.047	-0.202
-640.668	2.478	-0.323	-0.235
-639.653	-84.177	0.416	0.133
-638.638	-49.070	0.123	0.059
-637.624	-36.809	-0.365	-0.197
-636.609	496.781	-0.031	0.071
-635.595	800.000	0.159	-0.451
-634.580	-200.000	-0.035	-0.262
-633.565	6.562	-0.232	-0.173
-632.551	-40.984	0.211	-0.110
-631.536	800.000	-0.057	0.222
-630.522	-200.000	-0.014	0.322
-629.507	42.991	0.170	-0.156
-628.492	800.000	0.119	-0.382
-627.478	381.184	0.091	-0.187
-626.463	242.716	0.177	-0.298
-625.449	-200.000	-0.369	-0.001
-624.434	-106.247	-0.129	0.029
-623.419	26.104	0.121	0.101
-622.405	132.039	0.273	-0.353
-621.390	-200.000	0.019	0.193
-620.376	96.403	-0.164	-0.189
-619.361	-43.915	-0.121	-0.061
-618.346	319.167	0.224	0.426
-617.332	-200.000	0.007	-0.032
-616.317	-27.405	0.348	-0.203
-615.303	-20.347	0.078	0.048
-614.288	-200.000	0.006	0.308
-613.273	-29.704	0.269	0.154
-612.259	380.087	-0.054	-0.110
-611.244	225.674	-0.014	-0.023
-610.230	-200.000	-0.014	-0.108
-609.215	-78.441	-0.038	-0.013
-608.201	-95.729	0.189	0.051
-607.186	-19.320	0.162	0.101
-606.171	-73.779	-0.052	0.019
-605.157	800.000	-0.042	0.149
-604.142	-98.238	0.105	0.027
-603.128	-84.319	0.158	-0.050
-602.113	-101.441	-0.220	-0.054
-601.098	-200.000	-0.021	-0.256
-600.084	259.458	0.087	0.151
-599.069	-12.940	-0.208	0.136
-598.055	-158.228	0.132	-0.008
-597.040	-96.462	-0.262	0.070
-596.025	-200.000	-0.025	0.187
-595.011	800.000	0.036	-0.099
-593.996	-96.950	-0.328	0.086
-592.982	-200.000	-0.067	-0.340
-591.967	-188.224	-0.143	-0.002
-590.952	-200.000	-0.037	-0.266
-589.938	-21.633	0.421	-0.257
-588.923	45.292	0.170	-0.158
-587.909	-118.363	0.460	-0.082
-586.894	-200.000	-0.011	0.330
-585.879	-145.811	0.388	0.035
-584.865	-87.027	-0.152	-0.046
-583.850	-102.280	0.236	0.057
-582.836	-18.117	0.126	0.079
-581.821	227.722	-0.155	0.252
-580.806	-200.000	0.036	0.176
-579.792	83.117	0.309	-0.338
-578.777	-113.561	0.043	-0.009
-577.763	800.000	0.126	0.405
-576.748	290.189	0.180	-0.328
-575.733	-107.307	0.116	-0.026
-574.719	-5.381	-0.209	-0.144
-573.704	98.421	-0.273	-0.316
-572.690	88.383	-0.058	-0.064
-571.675	174.557	-0.171	-0.248
-570.661	234.372	0.073	-0.120
-569.646	-200.000	-0.011	-0.202
-568.631	79.167	-0.172	-0.185
-567.617	-155.812	0.337	0.022
-566.602	227.063	-0.079	0.129
-565.588	-200.000	-0.018	-0.293
-564.573	-130.972	0.092	-0.012
-563.558	-25.787	0.264	0.156
-562.544	656.125	0.061	0.158
-561.529	-55.507	0.122	0.055
-560.515	-82.436	-0.346	-0.113
-559.500	21.072	-0.110	-0.090
-558.485	-136.874	-0.190	0.022
-557.471	800.000	-0.041	0.152
-556.456	800.000	0.120	0.334
-555.442	-200.000	0.048	0.319
-554.427	358.170	0.217	-0.434
-553.412	-200.000	-0.065	-0.374
-552.398	-12.711	-0.259	-0.169
-551.383	48.371	-0.052	0.049
-550.369	-38.345	-0.123	-0.065
-549.354	-200.000	0.005	-0.194
-548.339	-139.577	-0.112	0.012
-547.325	72.549	0.114	-0.119
-546.310	681.561	0.067	0.174
-545.296	-97.548	0.184	-0.048
-544.281	131.649	0.354	0.456
-543.266	-27.765	0.096	-0.056
-542.252	-200.000	0.001	-0.005
-541.237	16.238	-0.205	0.162
-540.223	73.636	0.152	-0.159
-539.208	552.896	-0.069	0.166
-538.193	390.706	0.175	-0.364
-537.179	-126.881	-0.362	0.053
-536.164	-78.830	-0.099	-0.034
-535.150	-72.007	0.197	-0.073
-534.135	-163.285	-0.292	-0.014
-533.121	14.873	-0.285	-0.223
-532.106	62.872	-0.169	0.170
-531.091	-104.666	0.140	-0.032
-530.077	-83.330	-0.080	0.026
-529.062	-36.402	-0.064	0.034
-528.048	-103.001	-0.346	0.082
-527.033	-40.292	-0.377	0.197
-526.018	136.186	0.359	-0.468
-525.004	64.779	-0.091	0.092
-523.989	-90.350	-0.219	-0.064
-522.975	-119.135	-0.303	-0.053
-521.960	-52.069	-0.194	0.090
-520.945	-59.182	-0.215	0.093
-519.931	-14.305	-0.351	0.226
-518.916	112.204	0.024	0.029
-517.902	123.547	0.127	-0.160
-516.887	-83.618	-0.184	0.059
-515.872	-90.517	0.348	0.101
-514.858	-175.746	-0.214	0.006
-513.843	121.192	0.117	0.146
-512.829	-200.000	0.013	-0.100
-511.814	-23.851	-0.286	-0.171
-510.799	324.744	0.038	-0.074
-509.785	-200.000	0.033	-0.261
-508.770	452.364	0.107	-0.237
-507.756	19.099	0.109	0.088
-506.741	132.137	-0.228	0.293
-505.726	67.490	0.094	-0.096
-504.712	337.950	0.089	0.173
-503.697	315.772	0.019	-0.035
-502.683	114.299	-0.092	-0.112
-501.668	399.234	-0.072	0.151
-500.653	93.913	0.248	0.281
-499.639	24.457	0.206	-0.171
-498.624	-145.787	-0.119	0.011
-497.610	-32.521	-0.316	0.176
-496.595	-190.243	-0.179	-0.002
-495.581	211.245	0.177	-0.278
-494.566	-6.556	0.173	-0.118
-493.551	-24.981	0.098	-0.058
-492.537	800.000	0.112	-0.429
-491.522	-29.820	-0.382	0.218
-490.508	45.988	-0.243	0.225
-489.493	800.000	0.039	0.107
-488.478	432.582	-0.125	-0.272
-487.464	-26.024	-0.357	-0.210
-486.449	142.451	-0.266	-0.353
-485.435	-114.740	-0.042	-0.008
-484.420	760.143	-0.079	0.215
-483.405	340.488	0.137	-0.267
-482.391	-114.343	-0.398	-0.077
-481.376	129.373	-0.127	0.162
-480.362	-6.295	-0.049	0.034
-479.347	-109.552	-0.371	0.078
-478.332	205.335	0.112	0.173
-477.318	-139.051	0.613	0.066
-476.303	5.731	0.295	-0.218
-475.289	57.336	0.093	0.090
-474.274	54.918	-0.085	-0.082
-473.259	-178.125	0.348	0.008
-472.245	-67.041	0.080	-0.031
-471.230	-131.736	0.314	-0.041
-470.216	280.412	0.078	0.139
-469.201	-200.000	-0.004	-0.077
-468.186	35.559	0.206	-0.180
-467.172	-127.995	-0.485	-0.070
-466.157	800.000	0.079	0.236
-465.143	83.650	-0.012	0.013
-464.128	170.221	-0.083	0.119
-463.113	27.159	-0.402	-0.337
-462.099	-188.144	0.259	-0.003
-461.084	-130.209	-0.500	-0.068
-460.070	-200.000	0.025	-0.136
-459.055	128.183	0.109	0.138
-458.040	-200.000	0.017	0.102
-457.026	-116.448	-0.261	0.048
-456.011	92.659	-0.082	0.093
-454.997	-200.000	-0.016	0.280
-453.982	-91.049	-0.230	0.066
-452.968	-49.617	-0.126	-0.060
-451.953	210.732	0.156	-0.245
-450.938	210.713	-0.173	0.271
-449.924	195.448	0.179	-0.271
-448.909	-200.000	0.061	-0.304
-447.895	-200.000	-0.020	-0.180
-446.880	99.522	0.031	0.036
-445.865	-136.964	0.131	0.015
-444.851	-186.303	-0.087	-0.001
-443.836	-200.000	-0.015	0.176
-442.822	316.629	-0.066	-0.124
-441.807	-178.435	0.203	0.005
-440.792	-78.605	-0.121	-0.041
-439.778	-19.549	0.041	-0.025
-438.763	149.783	-0.054	-0.073
-437.749	86.985	-0.180	0.199
-436.734	-79.123	-0.131	0.044
-435.719	4.722	0.179	-0.132
-434.705	93.349	-0.041	0.046
-433.690	-200.000	0.268	-0.001
-432.676	119.233	0.213	0.262
-431.661	-200.000	0.077	-0.473
-430.646	149.580	-0.193	-0.260
-429.632	-35.956	0.405	0.219
-428.617	28.982	-0.060	-0.051
-427.603	-27.947	-0.129	0.075
-426.588	-58.165	0.124	0.054
-425.573	-5.633	-0.137	0.094
-424.559	-200.000	-0.017	-0.321
-423.544	161.536	-0.033	0.046
-422.530	763.833	0.041	0.110
-421.515	-87.927	0.229	0.069
-420.500	-33.082	0.342	-0.189
-419.486	190.550	-0.074	-0.111
-418.471	-81.576	-0.137	-0.045
-417.457	213.976	-0.150	0.236
-416.442	267.311	-0.068	-0.119
-415.428	43.428	-0.315	-0.287
-414.413	800.000	0.044	-0.132
-413.398	-77.450	-0.062	0.021
-412.384	35.642	0.303	-0.266
-411.369	-29.627	0.202	-0.115
-410.355	30.396	0.097	0.083
-409.340	-105.139	-0.177	-0.040
-408.325	-42.648	0.133	-0.068
-407.311	14.100	-0.400	0.311
-406.296	492.316	-0.048	0.109
-405.282	55.495	0.047	-0.046
-404.267	22.075	0.049	-0.040
-403.252	94.075	-0.170	-0.193
-402.238	-20.851	0.362	-0.221
-401.223	-121.211	-0.273	-0.045
-400.209	124.598	0.114	-0.143
-399.194	204.436	-0.041	-0.063
-398.179	20.052	-0.249	0.200
-397.165	-153.525	-0.151	-0.010
-396.150	-4.888	-0.236	0.162
-395.136	-107.814	0.249	-0.054
-394.121	720.402	-0.045	0.118
-393.106	-6.107	-0.106	-0.072
-392.092	-130.951	0.369	0.049
-391.077	-200.000	-0.021	0.159
-390.063	17.697	-0.134	0.106
-389.048	-73.019	0.114	0.042
-388.033	-200.000	-0.006	-0.035
-387.019	-61.553	-0.035	-0.015
-386.004	-87.178	0.083	-0.025
-384.990	800.000	0.102	0.392
-383.975	103.631	0.156	0.182
-382.960	-37.240	-0.202	0.107
-381.946	-30.545	-0.303	0.171
-380.931	208.139	0.053	0.082
-379.917	-108.712	-0.112	0.024
-378.902	-81.701	0.560	0.183
-377.888	800.000	0.053	-0.187
-376.873	-60.772	0.124	-0.052
-375.858	-200.000	-0.023	0.256
-374.844	-1.054	-0.122	-0.086
-373.829	131.039	-0.023	-0.030
-372.815	84.967	-0.019	-0.021
-371.800	89.864	-0.192	0.214
-370.785	-27.505	0.118	0.068
-369.771	800.000	0.026	-0.087
-368.756	-200.000	-0.002	0.068
-367.742	111.030	0.235	0.282
-366.727	-38.045	0.168	0.089
-365.712	-200.000	0.045	-0.240
-364.698	-12.777	0.172	-0.112
-363.683	185.931	-0.107	-0.159
-362.669	-200.000	-0.038	-0.176
-361.654	59.776	0.183	-0.180
-360.639	-200.000	0.045	-0.283
-359.625	-18.883	0.220	-0.136
-358.610	62.400	-0.113	-0.113
-357.596	505.948	-0.107	-0.248
-356.581	-34.620	-0.198	0.108
-355.566	100.912	-0.126	-0.146
-354.552	800.000	0.053	-0.199
-353.537	-200.000	0.017	0.254
-352.523	-146.343	0.319	-0.028
-351.508	-90.183	0.319	0.092
-350.493	128.718	-0.078	0.099
-349.479	-200.000	0.006	-0.261
-348.464	-29.438	-0.261	-0.149
-347.450	-131.619	-0.123	0.016
-346.435	-138.743	0.254	0.028
-345.420	800.000	0.009	-0.032
-344.406	2.263	0.373	-0.268
-343.391	98.844	0.166	0.190
-342.377	-159.428	-0.313	-0.017
-341.362	-200.000	0.087	-0.397
-340.348	800.000	0.122	-0.345
-339.333	399.215	-0.189	-0.393
-338.318	38.464	-0.115	0.102
-337.304	25.773	0.099	-0.082
-336.289	122.683	-0.087	0.108
-335.275	800.000	0.048	0.174
-334.260	546.193	0.077	0.184
-333.245	-111.690	0.091	-0.018
-332.231	60.303	-0.120	0.118
-331.216	-115.059	0.016	0.003
-330.202	800.000	-0.071	0.244
-329.187	392.374	0.138	0.285
-328.172	50.813	0.194	-0.183
-327.158	62.134	0.056	-0.055
-326.143	-141.778	-0.180	-0.018
-325.129	-200.000	0.082	0.384
-324.114	168.843	-0.123	-0.174
-323.099	13.426	0.160	-0.124
-322.085	116.221	-0.252	0.307
-321.070	223.393	0.129	0.207
-320.056	-44.686	0.324	-0.161
-319.041	-151.649	0.303	0.022
-318.026	-128.899	-0.257	0.036
-317.012	-57.316	0.117	-0.051
-315.997	146.597	0.130	0.174
-314.983	-143.215	0.232	0.022
-313.968	511.387	-0.056	0.129
-312.953	63.146	-0.214	0.213
-311.939	381.009	-0.063	0.128
-310.924	-18.172	-0.217	0.135
-309.910	-15.529	0.116	-0.074
-308.895	119.988	0.295	-0.364
-307.880	0.648	-0.313	0.222
-306.866	800.000	0.128	-0.371
-305.851	5.464	-0.270	-0.198
-304.837	-175.953	0.374	0.010
-303.822	177.175	0.120	-0.173
-302.807	800.000	-0.045	0.123
-301.793	491.695	-0.105	0.239
-300.778	332.865	0.153	-0.294
-299.764	-200.000	0.016	-0.144
-298.749	-99.226	-0.137	-0.034
-297.735	423.010	-0.085	0.182
-296.720	36.096	-0.062	-0.054
-295.705	-126.301	0.169	-0.025
-294.691	-127.431	0.426	-0.061
-293.676	-55.550	0.200	0.089
-292.662	39.177	-0.354	-0.314
-291.647	800.000	-0.020	-0.064
-290.632	316.516	0.020	-0.038
-289.618	-20.070	0.201	0.123
-288.603	159.456	-0.105	0.145
-287.589	711.833	-0.099	0.260
-286.574	296.160	0.131	0.238
-285.559	498.702	-0.119	0.272
-284.545	338.156	0.150	0.290
-283.530	-97.431	-0.067	0.017
-282.516	768.618	0.094	0.252
-281.501	-38.462	-0.058	0.030
-280.486	154.891	0.028	0.039
-279.472	1.791	0.057	0.040
-278.457	74.746	-0.141	-0.147
-277.443	16.346	0.091	0.071
-276.428	75.359	0.202	0.211
-275.413	-49.823	-0.171	0.080
-274.399	297.477	-0.148	0.269
-273.384	800.000	0.061	-0.182
-272.370	-200.000	0.074	0.509
-271.355	-75.513	-0.160	0.056
-270.340	-2.484	0.198	0.137
-269.326	80.630	-0.020	0.022
-268.311	-110.602	0.386	-0.079
-267.297	800.000	0.090	0.248
-266.282	-126.098	0.335	0.050
-265.267	-15.865	0.206	0.130
-264.253	-39.027	-0.068	-0.036
-263.238	-111.822	-0.168	0.034
-262.224	-62.510	0.360	0.148
-261.209	-200.000	0.037	-0.816
-260.195	298.454	-0.120	-0.219
-259.180	-67.041	0.191	-0.075
-258.165	-200.000	0.013	0.250
-257.151	-103.781	-0.130	0.030
-256.136	26.547	-0.252	0.209
-255.122	-200.000	-0.054	-0.236
-254.107	-103.929	-0.195	0.045
-253.092	138.298	-0.031	0.041
-252.078	-31.320	-0.420	0.234
-251.063	46.749	0.065	-0.060
-250.049	33.554	0.246	0.212
-249.034	-200.000	0.052	-0.373
-248.019	-200.000	-0.012	0.184
-247.005	800.000	0.084	-0.249
-245.990	-102.358	0.312	0.074
-244.976	-200.000	-0.002	0.049
-243.961	93.474	-0.208	-0.233
-242.946	-177.062	-0.028	0.001
-241.932	31.300	-0.143	-0.122
-240.917	-200.000	-0.014	0.178
-239.903	-200.000	0.064	0.523
-238.888	-200.000	-0.041	-0.203
-237.873	800.000	-0.044	0.126
-236.859	-200.000	-0.047	0.241
-235.844	-107.501	-0.261	0.057
-234.830	190.359	0.069	0.103
-233.815	-64.145	0.055	0.022
-232.800	126.896	-0.204	0.256
-231.786	-23.208	-0.322	-0.192
-230.771	410.808	0.071	0.149
-229.757	120.762	-0.273	-0.336
-228.742	-200.000	-0.044	-0.327
-227.727	-18.651	-0.077	-0.047
-226.713	800.000	0.031	-0.098
-225.698	118.123	-0.197	0.240
-224.684	-200.000	-0.007	0.036
-223.669	151.216	-0.016	0.021
-222.655	27.053	-0.282	0.234
-221.640	-101.951	-0.123	0.029
-220.625	-56.158	-0.344	0.152
-219.611	-112.009	-0.215	-0.043
-218.596	389.981	0.168	0.344
-217.582	-54.147	-0.128	-0.058
-216.567	-143.172	0.460	0.044
-215.552	-113.931	-0.213	0.041
-214.538	421.603	0.092	-0.194
-213.523	13.180	-0.264	0.203
-212.509	-155.132	-0.335	-0.022
-211.494	-154.699	0.299	0.020
-210.479	-200.000	0.005	-0.090
-209.465	419.187	-0.054	-0.114
-208.450	338.250	0.064	0.122
-207.436	800.000	0.110	-0.361
-206.421	-200.000	-0.006	-0.120
-205.406	229.609	0.064	-0.103
-204.392	268.859	0.063	-0.109
-203.377	-150.706	-0.194	0.015
-202.363	800.000	-0.027	0.076
-201.348	-155.582	0.155	0.010
-200.333	-77.632	0.150	-0.051
-199.319	-200.000	-0.032	0.157
-198.304	29.055	0.081	-0.068
-197.290	559.687	-0.129	0.309
-196.275	-112.114	0.147	-0.029
-195.260	-200.000	0.003	-0.131
-194.246	35.625	-0.070	0.061
-193.231	-40.367	-0.134	-0.069
-192.217	800.000	-0.062	0.230
-191.202	-113.773	0.205	0.039
-190.187	800.000	-0.059	0.179
-189.173	48.104	-0.124	-0.115
-188.158	707.663	-0.101	0.264
-187.144	-89.277	0.303	0.088
-186.129	-37.273	-0.290	0.153
-185.114	800.000	-0.037	0.112
-184.100	149.795	-0.176	0.235
-183.085	441.620	0.078	0.168
-182.071	468.722	0.047	0.104
-181.056	75.762	-0.110	0.114
-180.042	44.225	0.303	0.275
-179.027	-90.624	-0.221	0.063
-178.012	-50.085	0.148	-0.069
-176.998	-41.855	0.232	-0.118
-175.983	-83.311	0.122	0.039
-174.969	230.492	0.097	0.157
-173.954	-69.805	-0.292	-0.110
-172.939	-200.000	-0.019	0.211
-171.925	800.000	0.020	-0.064
-170.910	-106.124	0.136	0.030
-169.896	-99.361	-0.327	0.081
-168.881	155.384	0.112	0.152
-167.866	297.862	0.104	0.189
-166.852	688.934	-0.070	0.180
-165.837	253.453	0.054	-0.091
-164.823	-12.829	-0.041	-0.027
-163.808	-200.000	0.005	0.163
-162.793	286.442	0.064	0.114
-161.779	800.000	-0.033	0.097
-160.764	-22.784	0.326	0.194
-159.750	-200.000	-0.055	-0.281
-158.735	10.112	0.211	0.159
-157.720	-21.690	0.262	0.157
-156.706	-89.351	-0.249	-0.072
-155.691	-200.000	0.013	0.291
-154.677	-31.858	-0.176	-0.097
-153.662	-0.128	-0.153	0.108
-152.647	412.985	0.056	0.117
-151.633	157.636	-0.096	-0.132
-150.618	235.507	-0.139	-0.227
-149.604	-150.080	0.148	0.011
-148.589	-22.255	0.141	0.085
-147.574	39.845	0.069	-0.061
-146.560	-106.837	0.321	0.070
-145.545	87.747	0.035	0.039
-144.531	-39.153	-0.474	0.246
-143.516	12.686	-0.053	0.041
-142.502	800.000	0.047	-0.191
-141.487	71.849	-0.266	-0.273
-140.472	-92.700	0.116	-0.032
-139.458	0.482	-0.226	-0.159
-138.443	-57.069	0.059	0.026
-137.429	800.000	-0.060	-0.202
-136.414	-200.000	0.013	0.131
-135.399	-200.000	0.057	-0.297
-134.385	18.032	0.081	-0.063
-133.370	-200.000	0.023	0.205
-132.356	-200.000	-0.040	-0.177
-131.341	184.046	0.076	-0.112
-130.326	800.000	0.028	0.090
-129.312	800.000	0.036	0.143
-128.297	296.033	0.064	-0.115
-127.283	460.269	0.144	0.317
-126.268	-17.148	-0.140	0.087
-125.253	-200.000	0.004	0.159
-124.239	26.765	0.084	0.069
-123.224	-200.000	0.017	0.191
-122.210	-53.686	-0.130	-0.058
-121.195	152.329	0.115	-0.155
