DTS Sentinel unit serial number:	SN413079Multiplexer serial number:	ORYXHardware model number:	OX4-SRSoftware version number:	ORYX F/W v4.00 Oryx Data Collector v3.7.2.0data status	okinstallation	princeton_trtdifferential loss correction	single-endedforward channel	channel 4reverse channel	N/Adate	2019/09/18time	11:21:34forward acquisition time	60.00reverse acquisition time	0.00gamma	496.2192k internal	0.2312k external	0.2312temperature offset calibration	0.9984default loss term (dB/km)	0.3790temperature slope calibration	1.0000multiplexer offset coefficient	1.0000multiplexer slope coefficient	1.0000fibre end	0.00T internal ref (°C)	30.03T ext. ref 1 (°C)	0.42T ext. ref 2 (°C)	27.65length (m)	temperature (°C)	Stokes	anti-Stokes-747.200	319.316	0.048	-0.092
-746.185	19.856	-0.195	-0.159
-745.171	-88.870	-0.177	0.053
-744.156	-36.999	-0.427	0.232
-743.142	639.018	0.023	-0.059
-742.127	-89.721	-0.338	0.100
-741.112	-141.478	0.298	0.031
-740.098	-42.449	-0.490	0.254
-739.083	-22.198	0.274	0.169
-738.069	155.382	-0.129	0.180
-737.054	-149.122	0.078	0.006
-736.039	-48.400	-0.277	-0.135
-735.025	-19.573	0.382	0.240
-734.010	-1.354	-0.161	-0.116
-732.996	277.971	-0.216	-0.390
-731.981	-96.706	-0.221	0.059
-730.966	100.331	0.264	-0.310
-729.952	-124.639	-0.089	-0.014
-728.937	-30.303	-0.107	0.062
-727.923	243.185	-0.188	0.319
-726.908	98.941	-0.074	0.086
-725.894	-49.949	-0.102	-0.049
-724.879	-200.000	0.009	0.056
-723.864	-70.884	-0.305	0.116
-722.850	760.101	0.069	-0.189
-721.835	-24.754	-0.193	-0.117
-720.821	-200.000	0.086	-0.453
-719.806	439.281	-0.124	-0.274
-718.791	-200.000	0.046	0.295
-717.777	-18.884	-0.234	0.148
-716.762	212.747	0.082	0.131
-715.748	216.765	0.155	-0.249
-714.733	161.313	-0.341	-0.483
-713.718	-24.779	-0.132	-0.079
-712.704	-111.391	-0.043	0.009
-711.689	9.461	0.239	-0.183
-710.675	800.000	0.045	0.166
-709.660	-43.530	0.246	-0.126
-708.645	800.000	0.136	0.480
-707.631	189.930	0.050	-0.077
-706.616	4.769	-0.136	0.102
-705.602	193.303	-0.193	0.296
-704.587	304.980	-0.136	-0.255
-703.572	-103.561	0.208	-0.050
-702.558	-72.231	-0.184	0.069
-701.543	-66.800	0.077	-0.031
-700.529	-73.710	0.068	0.025
-699.514	17.104	-0.122	-0.098
-698.499	800.000	0.040	0.138
-697.485	127.012	0.092	-0.119
-696.470	668.270	0.050	0.130
-695.456	800.000	0.061	-0.213
-694.441	800.000	0.036	0.111
-693.426	37.742	0.196	-0.176
-692.412	-56.836	-0.053	0.024
-691.397	-37.496	-0.171	-0.092
-690.383	255.895	0.146	-0.253
-689.368	482.214	-0.225	-0.517
-688.354	-0.351	0.160	-0.115
-687.339	306.944	0.192	0.363
-686.324	79.015	0.283	-0.307
-685.310	24.895	0.205	0.172
-684.295	-117.649	0.431	0.079
-683.281	-200.000	0.024	0.186
-682.266	-200.000	0.008	0.297
-681.251	-90.923	0.092	-0.027
-680.237	-37.255	0.239	-0.130
-679.222	-200.000	0.018	-0.165
-678.208	327.913	0.078	-0.152
-677.193	-200.000	0.070	0.314
-676.178	800.000	-0.015	-0.049
-675.164	-39.919	0.144	0.076
-674.149	-200.000	0.022	-0.459
-673.135	557.065	-0.085	-0.207
-672.120	-200.000	-0.035	-0.222
-671.105	-18.536	-0.221	0.140
-670.091	-151.776	0.123	0.009
-669.076	459.993	-0.093	-0.209
-668.062	-200.000	-0.013	-0.124
-667.047	-28.364	0.152	-0.089
-666.032	-200.000	-0.011	0.099
-665.018	133.153	-0.079	-0.103
-664.003	366.574	0.071	-0.145
-662.989	-104.869	0.204	-0.047
-661.974	-20.551	-0.266	-0.165
-660.959	23.625	-0.132	0.110
-659.945	80.419	-0.168	0.183
-658.930	168.963	0.121	-0.175
-657.916	-17.164	0.114	0.073
-656.901	-192.090	0.196	0.002
-655.886	-200.000	-0.009	-0.113
-654.872	-28.305	0.136	0.079
-653.857	17.875	-0.123	0.099
-652.843	499.654	-0.111	-0.259
-651.828	-134.761	0.031	-0.004
-650.814	6.764	-0.330	-0.249
-649.799	-25.537	-0.035	-0.021
-648.784	-116.731	0.383	-0.071
-647.770	92.237	-0.296	-0.337
-646.755	186.829	-0.086	-0.130
-645.741	-105.757	-0.233	0.053
-644.726	-200.000	0.020	-0.189
-643.711	-200.000	0.029	-0.211
-642.697	338.904	0.260	0.513
-641.682	-106.046	0.178	-0.041
-640.668	800.000	-0.104	-0.400
-639.653	128.658	-0.085	0.109
-638.638	39.845	0.091	0.082
-637.624	110.255	0.153	-0.186
-636.609	-113.261	-0.190	-0.038
-635.595	800.000	0.125	-0.366
-634.580	-158.461	-0.304	0.018
-633.565	-34.485	0.031	-0.017
-632.551	497.869	0.057	0.133
-631.536	15.075	-0.075	0.059
-630.522	40.323	-0.129	-0.118
-629.507	29.162	0.071	-0.061
-628.492	621.221	0.081	-0.206
-627.478	-200.000	0.011	-0.218
-626.463	-88.163	0.232	-0.070
-625.449	-73.623	-0.127	-0.047
-624.434	37.996	-0.260	0.234
-623.419	-200.000	0.018	-0.229
-622.405	616.929	0.048	0.122
-621.390	-67.000	0.339	0.135
-620.376	-90.010	0.154	0.045
-619.361	-138.315	-0.014	-0.002
-618.346	-105.163	0.096	0.022
-617.332	142.574	0.054	0.072
-616.317	-53.795	-0.090	0.041
-615.303	-200.000	-0.043	-0.444
-614.288	800.000	0.050	0.160
-613.273	-137.307	-0.252	0.029
-612.259	217.398	-0.087	-0.141
-611.244	-112.054	0.058	-0.012
-610.230	-186.699	0.126	-0.002
-609.215	-171.159	0.154	-0.005
-608.201	33.173	0.257	0.225
-607.186	-169.995	0.361	0.013
-606.171	-92.337	-0.355	-0.101
-605.157	-121.754	-0.062	-0.010
-604.142	332.106	-0.070	-0.137
-603.128	-200.000	0.048	0.263
-602.113	-32.404	0.267	0.150
-601.098	-200.000	-0.016	-0.165
-600.084	-21.137	0.198	-0.122
-599.069	-93.620	0.393	-0.110
-598.055	-200.000	0.022	0.162
-597.040	54.880	0.235	-0.228
-596.025	680.128	-0.063	-0.165
-595.011	-77.055	-0.067	-0.024
-593.996	-200.000	-0.015	-0.287
-592.982	96.774	0.079	-0.091
-591.967	-20.139	-0.224	0.139
-590.952	232.640	-0.054	0.090
-589.938	-84.230	0.240	-0.077
-588.923	50.699	0.125	-0.119
-587.909	681.621	-0.072	0.190
-586.894	129.607	0.204	0.263
-585.879	57.473	0.119	0.117
-584.865	-200.000	0.048	-0.359
-583.850	91.640	-0.136	0.154
-582.836	37.210	-0.266	-0.237
-581.821	-200.000	-0.011	0.227
-580.806	800.000	-0.050	0.158
-579.792	-200.000	0.199	-0.000
-578.777	-11.744	-0.363	0.240
-577.763	-200.000	0.035	-0.177
-576.748	-70.295	-0.434	0.166
-575.733	210.460	-0.294	-0.466
-574.719	-92.309	0.203	-0.058
-573.704	773.211	-0.047	0.128
-572.690	306.365	0.141	0.265
-571.675	-200.000	-0.009	-0.240
-570.661	800.000	-0.022	-0.070
-569.646	-54.148	0.225	0.103
-568.631	-200.000	0.005	0.028
-567.617	3.702	-0.334	-0.245
-566.602	-88.718	-0.055	0.017
-565.588	-115.488	-0.256	-0.049
-564.573	-142.637	0.123	0.012
-563.558	2.515	0.174	0.127
-562.544	-48.804	0.108	0.052
-561.529	22.780	-0.333	0.275
-560.515	108.747	0.195	-0.235
-559.500	185.505	-0.183	-0.274
-558.485	768.887	-0.013	0.035
-557.471	800.000	0.087	0.301
-556.456	702.583	-0.055	0.146
-555.442	-120.772	0.139	-0.024
-554.427	-128.816	-0.251	-0.036
-553.412	-91.177	-0.112	-0.032
-552.398	-200.000	-0.025	-0.172
-551.383	150.541	0.222	0.304
-550.369	-14.622	-0.045	0.029
-549.354	22.878	0.149	-0.123
-548.339	-200.000	0.018	-0.284
-547.325	-75.152	-0.204	-0.073
-546.310	-143.456	0.139	-0.013
-545.296	94.057	-0.078	-0.089
-544.281	540.891	0.131	0.314
-543.266	240.312	0.029	-0.048
-542.252	189.953	-0.156	0.236
-541.237	374.130	0.143	-0.292
-540.223	-111.847	-0.285	0.058
-539.208	163.280	0.168	0.238
-538.193	249.874	0.092	-0.157
-537.179	-135.405	-0.200	-0.024
-536.164	-200.000	-0.021	-0.282
-535.150	104.541	0.057	0.067
-534.135	-105.773	-0.387	0.088
-533.121	103.153	-0.214	-0.253
-532.106	96.149	-0.124	-0.142
-531.091	-200.000	-0.017	0.212
-530.077	-190.791	-0.241	-0.003
-529.062	313.203	-0.049	-0.092
-528.048	299.148	0.235	-0.435
-527.033	800.000	-0.095	-0.368
-526.018	-12.272	0.217	-0.143
-525.004	15.325	-0.092	0.072
-523.989	-87.795	-0.327	0.099
-522.975	746.827	0.122	0.332
-521.960	-124.646	-0.302	-0.047
-520.945	800.000	-0.057	-0.196
-519.931	-82.002	0.003	-0.001
-518.916	67.482	0.072	0.074
-517.902	28.238	0.188	-0.160
-516.887	-200.000	0.037	0.369
-515.872	-62.967	-0.468	0.194
-514.858	-3.760	0.231	-0.161
-513.843	26.847	-0.382	0.322
-512.829	208.620	0.153	0.241
-511.814	26.021	-0.371	0.311
-510.799	474.104	0.084	0.190
-509.785	61.087	0.158	0.158
-508.770	-168.827	0.383	0.015
-507.756	59.072	-0.088	-0.088
-506.741	-21.823	-0.113	-0.069
-505.726	100.063	0.159	-0.186
-504.712	-200.000	-0.004	-0.118
-503.697	6.135	0.297	0.221
-502.683	-142.463	0.100	0.010
-501.668	-119.607	-0.045	-0.008
-500.653	-200.000	0.022	-0.269
-499.639	98.572	-0.247	-0.287
-498.624	26.725	-0.208	0.175
-497.610	-55.976	0.234	0.105
-496.595	-99.460	0.221	0.056
-495.581	-200.000	0.022	0.100
-494.566	-200.000	0.038	-0.169
-493.551	-102.864	-0.328	0.078
-492.537	10.288	0.143	0.109
-491.522	-59.956	-0.061	0.026
-490.508	-0.333	-0.123	0.088
-489.493	800.000	-0.017	0.056
-488.478	-88.180	0.157	-0.047
-487.464	7.727	-0.134	0.100
-486.449	649.114	0.011	-0.029
-485.435	318.210	0.158	-0.301
-484.420	22.792	-0.230	0.189
-483.405	-45.882	0.012	-0.006
-482.391	262.818	0.106	-0.185
-481.376	423.663	-0.206	-0.444
-480.362	175.609	0.212	-0.308
-479.347	800.000	0.107	-0.399
-478.332	800.000	-0.049	-0.136
-477.318	-68.435	0.238	-0.093
-476.303	-66.360	0.037	-0.015
-475.289	-16.902	-0.151	-0.096
-474.274	-200.000	0.006	0.147
-473.259	-59.640	-0.200	0.086
-472.245	139.520	0.187	0.248
-471.230	38.571	-0.079	-0.070
-470.216	-120.357	0.329	0.056
-469.201	-21.871	0.160	0.098
-468.186	129.849	-0.248	-0.319
-467.172	-56.983	-0.122	-0.054
-466.157	89.155	-0.139	0.155
-465.143	-87.250	-0.216	0.066
-464.128	59.622	0.087	0.086
-463.113	-88.401	-0.182	-0.055
-462.099	-200.000	0.007	-0.145
-461.084	-95.854	0.215	-0.058
-460.070	97.497	-0.358	0.413
-459.055	-104.358	0.347	0.081
-458.040	391.001	0.123	-0.255
-457.026	-200.000	0.000	0.206
-456.011	358.400	0.125	0.250
-454.997	800.000	0.192	0.554
-453.982	-200.000	-0.011	0.090
-452.968	800.000	-0.082	0.312
-451.953	-9.133	0.189	0.127
-450.938	542.876	-0.047	0.113
-449.924	-200.000	0.004	-0.196
-448.909	3.583	0.245	0.179
-447.895	-151.110	-0.350	0.026
-446.880	-200.000	0.022	0.105
-445.865	-137.654	-0.423	-0.048
-444.851	51.566	-0.148	-0.141
-443.836	46.317	0.318	-0.296
-442.822	-6.897	-0.263	-0.179
-441.807	212.401	-0.097	-0.153
-440.792	-27.747	-0.100	0.058
-439.778	149.688	0.148	0.201
-438.763	-200.000	-0.003	0.273
-437.749	83.050	0.183	-0.200
-436.734	124.792	-0.304	-0.384
-435.719	89.837	0.206	-0.231
-434.705	-135.007	0.227	0.028
-433.690	-94.376	-0.017	-0.005
-432.676	-200.000	0.030	0.180
-431.661	-18.525	0.293	0.183
-430.646	-156.053	0.209	-0.013
-429.632	194.277	0.123	-0.187
-428.617	232.164	0.108	-0.177
-427.603	-200.000	-0.002	-0.059
-426.588	800.000	-0.023	0.083
-425.573	800.000	-0.073	0.313
-424.559	-200.000	-0.003	0.094
-423.544	40.178	-0.126	-0.114
-422.530	82.630	-0.122	0.133
-421.515	-117.916	-0.069	-0.012
-420.500	99.241	-0.182	0.210
-419.486	-200.000	0.026	0.173
-418.471	-108.965	-0.067	-0.014
-417.457	-200.000	0.012	-0.090
-416.442	-200.000	0.055	0.323
-415.428	-48.465	0.092	0.044
-414.413	-200.000	-0.014	-0.408
-413.398	359.499	0.104	0.209
-412.384	-104.718	-0.148	-0.034
-411.369	645.258	-0.139	0.355
-410.355	-7.139	0.200	0.136
-409.340	542.869	-0.074	0.176
-408.325	20.235	0.086	-0.070
-407.311	-57.000	0.173	0.077
-406.296	98.943	0.164	0.190
-405.282	-68.579	-0.097	-0.038
-404.267	-176.347	-0.167	-0.004
-403.252	-1.577	0.174	0.123
-402.238	-8.584	-0.090	0.061
-401.223	-58.896	-0.185	-0.080
-400.209	0.027	0.175	-0.125
-399.194	234.887	0.218	0.361
-398.179	-154.717	-0.323	0.021
-397.165	-200.000	-0.016	0.229
-396.150	-90.643	-0.166	-0.048
-395.136	7.844	0.224	-0.168
-394.121	-48.128	-0.303	0.146
-393.106	-110.671	-0.336	0.070
-392.092	-135.652	-0.436	0.052
-391.077	180.047	-0.174	-0.256
-390.063	-103.348	0.407	-0.096
-389.048	-107.299	-0.410	-0.090
-388.033	-200.000	0.068	0.488
-387.019	-68.155	-0.049	-0.019
-386.004	-95.524	0.515	0.138
-384.990	-104.782	-0.335	0.077
-383.975	-200.000	-0.022	-0.147
-382.960	800.000	-0.071	-0.212
-381.946	235.797	0.041	-0.067
-380.931	-200.000	0.020	0.208
-379.917	210.176	0.104	-0.163
-378.902	-200.000	0.051	0.234
-377.888	-47.789	0.272	-0.132
-376.873	-42.122	0.102	0.052
-375.858	-76.306	-0.167	0.059
-374.844	192.194	0.089	0.134
-373.829	-44.038	-0.147	-0.074
-372.815	-200.000	-0.056	-0.248
-371.800	-106.080	-0.156	0.035
-370.785	-99.722	-0.179	0.045
-369.771	-2.076	-0.269	0.189
-368.756	169.635	-0.050	-0.071
-367.742	-200.000	0.019	0.495
-366.727	-200.000	-0.029	0.454
-365.712	91.249	0.115	0.129
-364.698	414.086	0.031	0.065
-363.683	-53.535	0.364	0.166
-362.669	-70.641	-0.280	0.106
-361.654	454.078	0.049	0.109
-360.639	257.030	0.103	0.177
-359.625	-200.000	0.010	0.171
-358.610	-153.416	-0.213	0.015
-357.596	-73.571	0.045	0.017
-356.581	400.455	0.103	0.217
-355.566	290.964	-0.083	0.150
-354.552	-34.323	-0.027	0.015
-353.537	347.637	0.045	-0.088
-352.523	114.799	0.263	0.321
-351.508	-106.905	-0.159	0.035
-350.493	-200.000	-0.000	-0.139
-349.479	-200.000	-0.336	0.001
-348.464	376.990	0.165	-0.337
-347.450	-7.038	0.338	0.229
-346.435	24.572	-0.182	0.150
-345.420	-151.226	-0.187	-0.014
-344.406	2.792	-0.082	-0.059
-343.391	-200.000	-0.008	0.285
-342.377	13.785	-0.221	0.172
-341.362	-200.000	0.053	-0.375
-340.348	173.024	0.062	-0.090
-339.333	185.287	-0.072	0.107
-338.318	-56.762	0.262	0.116
-337.304	470.651	0.078	0.176
-336.289	289.661	0.071	0.128
-335.275	800.000	0.141	-0.422
-334.260	420.725	-0.153	-0.328
-333.245	-190.353	0.443	0.005
-332.231	-68.386	0.301	-0.117
-331.216	-149.857	-0.251	0.020
-330.202	106.013	-0.163	0.193
-329.187	-200.000	-0.024	0.115
-328.172	-170.598	-0.273	0.009
-327.158	219.239	-0.234	-0.374
-326.143	-174.010	0.481	-0.014
-325.129	-97.436	-0.285	-0.074
-324.114	-65.739	-0.013	-0.005
-323.099	55.501	0.274	-0.265
-322.085	-67.810	-0.046	-0.018
-321.070	346.296	0.179	-0.351
-320.056	7.766	0.230	0.172
-319.041	-200.000	0.021	0.336
-318.026	-200.000	0.025	0.284
-317.012	-106.996	0.460	0.101
-315.997	-81.870	-0.318	0.104
-314.983	45.512	0.270	-0.249
-313.968	452.036	-0.061	-0.134
-312.953	-200.000	-0.058	-0.324
-311.939	-85.455	0.183	-0.057
-310.924	226.611	0.115	-0.186
-309.910	-101.508	0.047	-0.011
-308.895	800.000	0.076	-0.227
-307.880	102.222	-0.248	0.289
-306.866	-200.000	0.016	-0.433
-305.851	59.383	0.085	0.084
-304.837	-200.000	-0.017	-0.100
-303.822	-154.096	0.114	0.008
-302.807	-200.000	-0.078	-0.546
-301.793	74.730	-0.262	-0.275
-300.778	132.988	-0.060	-0.077
-299.764	-103.541	0.084	-0.020
-298.749	-56.046	-0.094	0.042
-297.735	-177.223	-0.143	0.004
-296.720	-34.275	-0.061	-0.033
-295.705	-149.084	0.046	-0.004
-294.691	170.690	0.223	0.318
-293.676	-13.676	0.144	-0.093
-292.662	-160.805	0.082	-0.004
-291.647	297.831	0.076	-0.140
-290.632	285.589	0.109	-0.195
-289.618	35.235	-0.214	-0.187
-288.603	800.000	0.080	-0.261
-287.589	-126.455	-0.381	-0.056
-286.574	-56.287	-0.211	-0.094
-285.559	-12.020	-0.121	-0.079
-284.545	-34.690	-0.190	-0.104
-283.530	337.947	-0.050	0.098
-282.516	-160.243	0.181	0.010
-281.501	800.000	0.059	0.200
-280.486	-163.617	-0.426	-0.020
-279.472	-61.169	0.240	0.101
-278.457	-115.771	-0.123	-0.023
-277.443	38.048	-0.123	0.109
-276.428	-75.599	-0.043	0.015
-275.413	-142.974	0.272	0.026
-274.399	-200.000	0.019	-0.192
-273.384	-184.822	-0.233	0.004
-272.370	360.869	-0.061	0.122
-271.355	800.000	0.041	0.148
-270.340	393.742	-0.080	-0.166
-269.326	-71.396	-0.166	0.062
-268.311	97.817	0.045	0.052
-267.297	-127.861	0.113	-0.016
-266.282	-200.000	-0.002	0.229
-265.267	-59.937	0.158	0.067
-264.253	8.820	-0.365	0.274
-263.238	-53.263	0.174	0.079
-262.224	800.000	-0.056	0.210
-261.209	-200.000	0.006	0.084
-260.195	151.819	0.247	0.335
-259.180	800.000	0.119	-0.386
-258.165	393.264	-0.134	-0.277
-257.151	28.262	0.084	-0.071
-256.136	-75.810	0.117	0.041
-255.122	323.763	-0.097	-0.184
-254.107	264.819	0.142	0.246
-253.092	-57.037	0.257	0.113
-252.078	292.703	0.088	0.160
-251.063	-200.000	-0.011	-0.115
-250.049	-8.448	0.225	-0.151
-249.034	-200.000	0.087	-0.512
-248.019	-28.218	0.224	0.129
-247.005	-200.000	0.007	-0.068
-245.990	514.370	0.061	-0.141
-244.976	-57.585	-0.127	-0.055
-243.961	-110.804	0.349	0.072
-242.946	65.773	-0.101	-0.101
-241.932	32.178	-0.285	0.245
-240.917	800.000	-0.044	-0.164
-239.903	79.493	0.066	-0.070
-238.888	800.000	0.038	-0.103
-237.873	-72.691	-0.305	-0.112
-236.859	-183.733	0.209	0.004
-235.844	143.279	0.226	-0.300
-234.830	117.094	0.103	-0.126
-233.815	667.640	-0.057	-0.146
-232.800	-74.126	-0.296	-0.107
-231.786	-200.000	-0.073	-0.329
-230.771	31.867	0.056	-0.048
-229.757	80.952	0.158	0.170
-228.742	-200.000	-0.031	-0.269
-227.727	-200.000	-0.018	-0.409
-226.713	486.458	-0.090	0.204
-225.698	0.722	0.198	0.141
-224.684	-10.774	-0.254	-0.167
-223.669	800.000	0.133	0.477
-222.655	462.682	-0.066	-0.146
-221.640	-200.000	-0.037	0.218
-220.625	30.425	0.383	-0.326
-219.611	-200.000	-0.006	-0.316
-218.596	140.521	0.059	-0.077
-217.582	-52.719	0.233	0.107
-216.567	22.933	-0.222	-0.181
-215.552	800.000	0.049	0.181
-214.538	-200.000	0.002	0.101
-213.523	-22.274	-0.083	0.050
-212.509	16.930	0.179	-0.141
-211.494	-35.665	-0.129	-0.070
-210.479	374.048	-0.194	0.393
-209.465	-123.905	-0.279	0.044
-208.450	-200.000	-0.015	-0.147
-207.436	-104.364	-0.386	0.089
-206.421	-156.675	-0.308	0.019
-205.406	-30.954	0.039	0.022
-204.392	656.007	-0.129	0.329
-203.377	127.928	-0.039	0.050
-202.363	-8.181	0.158	-0.105
-201.348	99.696	-0.127	-0.146
-200.333	800.000	0.071	0.237
-199.319	526.055	0.169	-0.395
-198.304	614.273	-0.122	0.303
-197.290	50.814	0.055	-0.052
-196.275	523.981	-0.224	0.524
-195.260	-43.005	0.310	-0.156
-194.246	-78.535	0.185	-0.063
-193.231	-200.000	-0.014	0.208
-192.217	154.450	0.117	-0.159
-191.202	-200.000	-0.001	-0.110
-190.187	9.846	0.138	-0.104
-189.173	-200.000	0.010	0.367
-188.158	210.874	-0.171	-0.266
-187.144	800.000	-0.112	0.341
-186.129	-4.361	0.173	0.119
-185.114	-200.000	-0.022	-0.160
-184.100	610.513	-0.124	-0.308
-183.085	-79.888	0.189	0.063
-182.071	-121.902	-0.103	0.017
-181.056	225.378	-0.184	0.296
-180.042	84.536	-0.115	-0.125
-179.027	-28.056	0.145	-0.083
-178.012	-49.704	0.225	0.106
-176.998	776.008	0.191	0.516
-175.983	-200.000	0.012	-0.084
-174.969	138.451	0.092	0.120
-173.954	-72.780	0.081	0.030
-172.939	-4.333	-0.156	0.107
-171.925	-51.478	-0.047	-0.022
-170.910	427.423	-0.070	-0.150
-169.896	-73.788	-0.211	0.076
-168.881	241.153	0.063	-0.105
-167.866	30.765	-0.095	-0.081
-166.852	105.998	0.150	0.176
-165.837	-58.528	-0.043	0.019
-164.823	153.368	0.174	0.237
-163.808	-200.000	-0.006	-0.143
-162.793	83.367	-0.070	0.075
-161.779	-110.288	0.044	0.009
-160.764	-161.777	-0.237	0.012
-159.750	-29.658	-0.314	-0.178
-158.735	-200.000	0.030	0.471
-157.720	800.000	-0.043	-0.124
-156.706	-66.432	0.135	-0.053
-155.691	-141.189	0.376	0.038
-154.677	-200.000	-0.011	-0.088
-153.662	287.430	0.037	-0.066
-152.647	-75.306	0.371	0.131
-151.633	-200.000	-0.028	-0.154
-150.618	-100.596	-0.244	-0.060
-149.604	-9.542	0.131	-0.086
-148.589	352.081	-0.038	-0.074
-147.574	800.000	-0.082	0.285
-146.560	-87.473	-0.217	-0.065
-145.545	-200.000	-0.001	0.348
-144.531	19.755	0.201	0.160
-143.516	800.000	0.060	-0.181
-142.502	-16.622	0.192	-0.121
-141.487	-200.000	-0.038	0.277
-140.472	-140.327	-0.069	-0.007
-139.458	110.128	-0.251	-0.299
-138.443	678.062	-0.047	0.121
-137.429	-200.000	-0.010	-0.152
-136.414	-92.976	0.179	-0.050
-135.399	-27.729	0.178	0.102
-134.385	84.523	0.148	0.161
-133.370	90.770	-0.186	0.206
-132.356	-200.000	0.109	0.000
-131.341	-48.424	-0.208	-0.099
-130.326	800.000	0.127	-0.350
-129.312	-28.792	-0.171	-0.097
-128.297	286.700	-0.070	-0.125
-127.283	180.293	0.198	0.288
-126.268	-63.975	0.602	0.244
-125.253	54.947	-0.103	-0.099
-124.239	-25.740	0.174	-0.102
-123.224	-183.639	0.296	0.005
-122.210	43.869	0.169	-0.154
-121.195	-81.740	-0.391	0.127
