DTS Sentinel unit serial number:	SN413079Multiplexer serial number:	ORYXHardware model number:	OX4-SRSoftware version number:	ORYX F/W v4.00 Oryx Data Collector v3.7.2.0data status	okinstallation	princeton_trtdifferential loss correction	single-endedforward channel	channel 4reverse channel	N/Adate	2019/09/13time	12:33:34forward acquisition time	60.00reverse acquisition time	0.00gamma	496.2192k internal	0.2296k external	0.2296temperature offset calibration	1.0215default loss term (dB/km)	0.3790temperature slope calibration	1.0000multiplexer offset coefficient	1.0000multiplexer slope coefficient	1.0000fibre end	0.00T internal ref (°C)	34.45T ext. ref 1 (°C)	4.61T ext. ref 2 (°C)	31.67length (m)	temperature (°C)	Stokes	anti-Stokes-747.200	-200.000	-0.069	0.320
-746.185	-24.316	0.204	-0.124
-745.171	-200.000	0.037	0.310
-744.156	-52.132	-0.191	0.091
-743.142	166.701	-0.129	0.186
-742.127	228.040	-0.170	0.283
-741.112	570.598	-0.089	-0.221
-740.098	-54.743	0.087	0.040
-739.083	-200.000	-0.029	0.133
-738.069	-122.641	-0.304	0.050
-737.054	654.337	0.145	0.380
-736.039	35.455	-0.137	0.122
-735.025	626.200	-0.123	0.317
-734.010	15.220	-0.233	-0.186
-732.996	-38.687	-0.452	0.244
-731.981	136.854	-0.182	-0.243
-730.966	129.596	-0.255	-0.333
-729.952	-200.000	0.007	-0.098
-728.937	-200.000	0.004	-0.158
-727.923	-153.337	-0.123	0.009
-726.908	114.675	0.094	0.117
-725.894	-200.000	0.068	0.333
-724.879	-200.000	-0.071	0.327
-723.864	-18.913	-0.230	-0.146
-722.850	-188.459	0.068	0.001
-721.835	-1.347	-0.364	-0.262
-720.821	800.000	-0.031	0.092
-719.806	-200.000	0.033	-0.351
-718.791	-142.716	-0.073	-0.007
-717.777	-24.831	-0.114	-0.069
-716.762	129.011	0.115	0.150
-715.748	-27.098	0.193	0.115
-714.733	-12.819	-0.151	0.100
-713.718	-13.832	-0.267	-0.176
-712.704	351.741	-0.090	-0.181
-711.689	-112.800	0.216	0.044
-710.675	-127.404	-0.056	0.008
-709.660	800.000	0.075	0.288
-708.645	-117.926	0.144	-0.026
-707.631	153.070	-0.139	-0.193
-706.616	800.000	0.090	-0.279
-705.602	-112.073	0.267	-0.055
-704.587	-200.000	0.015	0.133
-703.572	-200.000	-0.067	-0.470
-702.558	336.675	0.100	0.199
-701.543	-114.771	0.097	-0.019
-700.529	-111.551	0.592	0.123
-699.514	-84.413	0.087	0.028
-698.499	409.991	0.063	-0.136
-697.485	535.670	-0.122	-0.296
-696.470	-48.557	-0.066	0.032
-695.456	-117.297	-0.307	0.057
-694.441	9.750	-0.225	0.174
-693.426	44.751	-0.204	-0.191
-692.412	170.973	0.086	-0.125
-691.397	146.002	-0.020	-0.027
-690.383	370.834	-0.046	-0.094
-689.368	-81.209	-0.077	0.026
-688.354	-80.902	0.161	-0.054
-687.339	-52.011	0.251	0.119
-686.324	-182.387	-0.245	-0.005
-685.310	-70.538	-0.097	-0.038
-684.295	-7.834	0.140	0.096
-683.281	356.418	0.046	-0.094
-682.266	-11.496	-0.054	-0.036
-681.251	-67.317	0.094	0.038
-680.237	-200.000	-0.028	-0.304
-679.222	800.000	-0.042	0.125
-678.208	57.074	0.094	0.093
-677.193	-46.481	-0.057	-0.028
-676.178	-117.182	0.360	0.067
-675.164	-105.260	-0.284	0.066
-674.149	-200.000	0.001	-0.084
-673.135	-200.000	-0.009	-0.167
-672.120	-28.679	-0.189	0.111
-671.105	-17.455	-0.302	-0.193
-670.091	-8.337	-0.246	0.169
-669.076	33.084	0.184	0.162
-668.062	-103.856	-0.133	-0.032
-667.047	582.069	-0.036	-0.090
-666.032	800.000	0.062	0.198
-665.018	-117.365	0.125	-0.023
-664.003	-68.883	-0.144	0.057
-662.989	-65.824	-0.141	0.057
-661.974	115.417	0.045	0.056
-660.959	-90.156	0.170	0.051
-659.945	248.005	-0.090	0.155
-658.930	-200.000	-0.048	0.237
-657.916	-200.000	0.007	-0.069
-656.901	7.134	-0.263	0.200
-655.886	68.419	-0.213	0.222
-654.872	800.000	-0.072	-0.226
-653.857	417.931	0.015	0.032
-652.843	-13.496	-0.072	-0.048
-651.828	221.908	-0.173	0.284
-650.814	-200.000	0.001	-0.354
-649.799	338.450	-0.155	-0.308
-648.784	20.339	0.290	0.238
-647.770	293.920	-0.102	0.189
-646.755	-83.040	0.194	-0.064
-645.741	-25.283	0.261	-0.157
-644.726	800.000	-0.053	-0.186
-643.711	-47.734	-0.073	0.036
-642.697	40.439	0.103	0.094
-641.682	-2.069	0.056	-0.040
-640.668	800.000	-0.065	-0.243
-639.653	385.787	-0.123	0.257
-638.638	800.000	0.073	-0.225
-637.624	-200.000	0.013	0.073
-636.609	-200.000	0.021	-0.107
-635.595	171.908	-0.149	-0.217
-634.580	96.467	0.017	-0.020
-633.565	-28.834	-0.353	0.206
-632.551	-69.255	0.131	-0.051
-631.536	300.096	0.075	-0.140
-630.522	-200.000	-0.051	0.273
-629.507	51.243	-0.078	0.076
-628.492	-84.919	-0.378	0.121
-627.478	-30.635	-0.124	0.071
-626.463	-125.018	-0.080	-0.012
-625.449	-57.448	-0.063	0.028
-624.434	-101.543	0.236	0.058
-623.419	-45.473	-0.114	-0.057
-622.405	-138.716	-0.152	-0.017
-621.390	-120.247	-0.185	-0.032
-620.376	205.207	-0.014	-0.022
-619.361	-7.308	0.139	0.096
-618.346	124.325	0.146	-0.186
-617.332	116.515	0.123	-0.153
-616.317	-200.000	0.006	-0.044
-615.303	-200.000	0.033	-0.162
-614.288	-200.000	0.005	0.118
-613.273	535.664	-0.014	0.033
-612.259	-150.898	-0.060	-0.005
-611.244	69.318	-0.141	0.148
-610.230	-200.000	-0.017	-0.137
-609.215	-200.000	-0.006	0.088
-608.201	-200.000	-0.007	0.218
-607.186	-138.303	0.139	-0.016
-606.171	-185.559	0.251	-0.004
-605.157	-200.000	-0.375	0.001
-604.142	-61.892	-0.273	-0.116
-603.128	-200.000	0.026	-0.225
-602.113	77.293	-0.029	0.031
-601.098	-118.220	-0.185	0.033
-600.084	-200.000	0.017	0.182
-599.069	-10.654	0.191	-0.129
-598.055	119.996	-0.076	0.095
-597.040	49.107	0.230	-0.220
-596.025	-91.837	-0.175	-0.051
-595.011	149.632	-0.193	-0.265
-593.996	402.656	0.172	0.367
-592.982	266.811	-0.136	0.241
-591.967	-64.673	-0.148	0.061
-590.952	-90.575	0.155	-0.046
-589.938	-12.024	0.160	0.107
-588.923	223.796	0.032	-0.053
-587.909	-61.254	-0.407	-0.174
-586.894	-200.000	-0.023	0.182
-585.879	-200.000	-0.010	0.102
-584.865	329.430	-0.042	0.083
-583.850	-118.323	0.196	-0.035
-582.836	574.964	0.048	-0.118
-581.821	-127.119	0.324	-0.048
-580.806	706.960	0.121	-0.323
-579.792	-200.000	0.009	-0.155
-578.777	55.663	-0.057	0.056
-577.763	800.000	-0.051	0.167
-576.748	-200.000	-0.009	-0.205
-575.733	-110.212	-0.104	-0.022
-574.719	-93.333	0.158	0.044
-573.704	50.160	0.167	0.160
-572.690	-103.790	-0.138	-0.033
-571.675	172.672	0.107	-0.156
-570.661	651.314	0.025	-0.066
-569.646	-21.069	-0.292	0.182
-568.631	287.054	0.181	-0.333
-567.617	162.635	0.141	0.201
-566.602	-145.297	-0.478	0.044
-565.588	-78.015	-0.189	-0.066
-564.573	800.000	0.006	-0.024
-563.558	423.979	-0.129	-0.281
-562.544	338.004	-0.144	0.284
-561.529	-102.837	0.266	0.064
-560.515	50.601	0.199	0.191
-559.500	-24.781	-0.101	0.061
-558.485	-130.503	-0.093	-0.013
-557.471	34.827	-0.033	-0.029
-556.456	-66.413	0.269	-0.108
-555.442	-102.352	0.342	0.083
-554.427	-49.000	-0.129	-0.063
-553.412	519.418	0.045	0.107
-552.398	-200.000	0.002	0.058
-551.383	-25.681	0.072	0.043
-550.369	-25.458	-0.166	-0.099
-549.354	-26.531	0.304	-0.180
-548.339	-2.755	0.182	0.129
-547.325	-76.738	-0.109	0.039
-546.310	-115.879	-0.100	0.019
-545.296	22.350	-0.135	-0.112
-544.281	-86.059	0.292	-0.091
-543.266	-200.000	0.057	-0.330
-542.252	-200.000	-0.049	-0.508
-541.237	-82.533	-0.261	-0.086
-540.223	-47.036	-0.199	-0.099
-539.208	323.423	0.136	-0.264
-538.193	184.536	0.126	0.190
-537.179	-200.000	-0.061	-0.298
-536.164	-41.682	0.157	-0.082
-535.150	-97.367	-0.541	0.143
-534.135	-112.974	0.252	-0.051
-533.121	396.078	-0.099	-0.209
-532.106	86.395	-0.109	0.121
-531.091	-129.222	0.080	0.011
-530.077	7.513	0.211	-0.160
-529.062	332.297	0.232	0.455
-528.048	800.000	0.058	-0.166
-527.033	649.465	-0.091	-0.235
-526.018	-200.000	0.022	0.190
-525.004	-77.064	0.238	-0.084
-523.989	-75.169	0.191	0.069
-522.975	-200.000	-0.006	0.086
-521.960	92.409	0.159	-0.181
-520.945	373.803	0.091	-0.188
-519.931	161.809	-0.203	0.287
-518.916	420.600	-0.183	0.397
-517.902	123.526	0.098	-0.124
-516.887	-187.569	-0.079	-0.001
-515.872	800.000	-0.023	0.098
-514.858	-94.893	0.313	-0.086
-513.843	-122.726	-0.538	-0.088
-512.829	-57.446	-0.155	-0.069
-511.814	205.208	0.094	0.147
-510.799	288.122	-0.111	0.204
-509.785	-117.341	-0.258	-0.047
-508.770	403.940	0.148	0.315
-507.756	122.866	-0.097	0.123
-506.741	800.000	-0.046	0.201
-505.726	-200.000	-0.039	-0.357
-504.712	-200.000	-0.036	-0.367
-503.697	-8.249	-0.186	0.127
-502.683	-135.597	0.057	-0.007
-501.668	-200.000	0.008	0.091
-500.653	61.539	-0.100	0.101
-499.639	-121.272	-0.402	0.068
-498.624	-149.793	0.185	0.015
-497.610	-99.871	0.120	-0.030
-496.595	-141.155	-0.276	-0.028
-495.581	-59.484	-0.164	-0.071
-494.566	-112.243	-0.495	-0.100
-493.551	-114.785	-0.338	0.065
-492.537	363.523	-0.065	-0.133
-491.522	-200.000	0.060	-0.441
-490.508	329.088	-0.074	0.144
-489.493	-200.000	-0.062	0.295
-488.478	-32.994	-0.116	0.065
-487.464	-192.800	-0.163	-0.002
-486.449	443.201	-0.082	0.181
-485.435	43.878	-0.143	-0.133
-484.420	63.375	-0.213	0.216
-483.405	-200.000	0.053	0.317
-482.391	-36.046	0.041	0.023
-481.376	193.900	0.114	0.174
-480.362	311.624	-0.085	-0.161
-479.347	575.767	-0.078	0.194
-478.332	-53.332	0.194	-0.090
-477.318	-1.573	0.330	0.235
-476.303	-80.095	0.234	0.079
-475.289	-79.794	-0.244	0.083
-474.274	-160.255	-0.236	-0.013
-473.259	-51.284	0.068	-0.032
-472.245	-176.554	-0.269	-0.007
-471.230	338.780	-0.124	-0.245
-470.216	500.997	0.081	0.188
-469.201	-163.669	0.249	0.012
-468.186	248.824	0.130	-0.222
-467.172	800.000	-0.023	-0.076
-466.157	132.876	0.250	0.326
-465.143	-62.365	0.140	-0.059
-464.128	-111.712	0.488	-0.100
-463.113	48.972	0.132	-0.126
-462.099	-64.039	0.391	0.162
-461.084	-123.431	0.129	0.021
-460.070	-61.276	-0.329	0.140
-459.055	123.457	-0.110	0.140
-458.040	260.237	-0.126	-0.220
-457.026	800.000	-0.056	0.179
-456.011	-200.000	0.005	0.092
-454.997	6.510	0.200	0.150
-453.982	16.459	0.056	0.045
-452.968	-149.892	-0.324	0.026
-451.953	254.262	-0.214	-0.370
-450.938	-200.000	0.010	-0.126
-449.924	-118.910	-0.345	-0.061
-448.909	296.909	0.153	-0.284
-447.895	-200.000	0.010	-0.193
-446.880	147.647	-0.126	0.171
-445.865	-87.549	0.119	0.036
-444.851	170.841	-0.149	-0.216
-443.836	-191.056	0.059	-0.001
-442.822	264.346	-0.055	0.096
-441.807	276.894	-0.021	0.038
-440.792	7.736	0.253	0.191
-439.778	800.000	-0.100	0.355
-438.763	-75.638	-0.392	-0.141
-437.749	800.000	0.061	0.256
-436.734	418.485	0.084	-0.180
-435.719	-19.520	-0.020	-0.013
-434.705	-40.949	0.201	-0.105
-433.690	-29.180	-0.368	0.213
-432.676	-106.216	-0.172	-0.039
-431.661	-110.800	-0.212	0.044
-430.646	102.522	-0.117	0.138
-429.632	-200.000	0.009	-0.140
-428.617	115.452	-0.050	-0.061
-427.603	-200.000	0.022	-0.170
-426.588	-65.248	0.104	0.042
-425.573	169.256	0.216	-0.311
-424.559	-113.792	-0.190	0.037
-423.544	-109.158	0.406	0.087
-422.530	800.000	-0.071	0.250
-421.515	800.000	-0.104	0.377
-420.500	-111.687	-0.192	-0.039
-419.486	-200.000	-0.033	-0.261
-418.471	7.457	0.160	-0.121
-417.457	800.000	-0.070	0.235
-416.442	-200.000	0.013	-0.260
-415.428	-130.211	-0.218	-0.030
-414.413	-200.000	0.009	-0.099
-413.398	-200.000	0.102	0.000
-412.384	-200.000	-0.028	-0.164
-411.369	-147.883	0.451	0.038
-410.355	-200.000	0.106	0.587
-409.340	-59.474	0.354	0.154
-408.325	194.964	-0.117	-0.180
-407.311	-51.150	-0.252	-0.119
-406.296	-152.589	0.498	-0.036
-405.282	72.761	-0.279	-0.294
-404.267	-158.827	0.199	-0.011
-403.252	-114.673	-0.324	-0.062
-402.238	-147.472	-0.405	0.035
-401.223	186.509	-0.065	-0.097
-400.209	800.000	0.076	0.264
-399.194	17.712	-0.220	0.176
-398.179	-45.339	0.165	-0.083
-397.165	-200.000	-0.048	0.229
-396.150	-141.158	-0.341	0.035
-395.136	84.283	-0.103	0.113
-394.121	-76.388	-0.263	-0.093
-393.106	-103.890	0.285	-0.067
-392.092	-73.479	-0.082	0.030
-391.077	12.280	0.253	0.196
-390.063	800.000	-0.023	0.100
-389.048	94.022	0.093	0.107
-388.033	-40.409	0.152	-0.080
-387.019	-110.390	0.146	-0.031
-386.004	-87.899	-0.235	0.071
-384.990	73.923	-0.201	-0.212
-383.975	405.660	0.163	-0.346
-382.960	8.063	0.144	-0.109
-381.946	141.802	-0.114	0.153
-380.931	-200.000	0.045	-0.357
-379.917	-127.840	-0.158	0.023
-378.902	-200.000	-0.047	0.223
-377.888	32.102	0.097	0.084
-376.873	-27.423	-0.335	0.196
-375.858	62.899	-0.074	-0.074
-374.844	-116.589	0.262	0.049
-373.829	-132.863	-0.087	-0.011
-372.815	800.000	-0.039	0.136
-371.800	800.000	-0.066	0.185
-370.785	350.637	-0.108	-0.216
-369.771	183.981	0.129	-0.192
-368.756	279.054	-0.091	0.163
-367.742	800.000	-0.109	-0.308
-366.727	-200.000	0.039	-0.438
-365.712	-200.000	-0.057	-0.256
-364.698	-200.000	0.034	-0.244
-363.683	800.000	0.089	0.289
-362.669	494.623	-0.102	0.236
-361.654	331.586	0.075	-0.145
-360.639	128.280	-0.017	-0.022
-359.625	248.094	-0.023	-0.039
-358.610	-109.874	-0.295	0.062
-357.596	-140.514	0.051	0.005
-356.581	-33.960	-0.223	0.124
-355.566	682.856	-0.050	0.130
-354.552	689.368	-0.083	0.218
-353.537	-30.741	0.112	0.064
-352.523	-200.000	-0.017	0.268
-351.508	0.421	0.056	-0.040
-350.493	126.823	0.267	0.341
-349.479	-5.554	0.076	0.052
-348.464	-112.827	0.177	0.035
-347.450	-146.430	0.158	0.014
-346.435	-30.846	-0.174	0.099
-345.420	-97.989	0.383	0.099
-344.406	30.724	-0.266	0.229
-343.391	49.541	-0.180	0.170
-342.377	-200.000	-0.005	0.073
-341.362	-200.000	0.013	0.180
-340.348	-57.974	0.130	-0.057
-339.333	28.707	0.120	-0.103
-338.318	-36.135	0.288	-0.157
-337.304	-200.000	-0.012	0.241
-336.289	80.067	-0.295	0.319
-335.275	-26.435	0.433	0.256
-334.260	800.000	-0.061	0.247
-333.245	-200.000	0.044	-0.271
-332.231	7.071	0.190	0.143
-331.216	103.285	-0.046	-0.054
-330.202	-12.186	-0.174	-0.115
-329.187	-10.237	-0.116	0.077
-328.172	107.426	0.156	-0.187
-327.158	-200.000	0.044	-0.298
-326.143	800.000	-0.016	-0.061
-325.129	-29.249	0.104	0.060
-324.114	6.713	-0.121	-0.090
-323.099	12.322	-0.096	-0.074
-322.085	-23.291	0.275	0.166
-321.070	-200.000	-0.010	0.361
-320.056	86.025	0.152	0.169
-319.041	71.627	0.230	-0.240
-318.026	144.871	-0.082	-0.110
-317.012	-200.000	0.004	0.224
-315.997	-99.305	0.110	0.028
-314.983	63.704	-0.044	0.044
-313.968	-200.000	-0.009	0.099
-312.953	-117.876	0.102	-0.018
-311.939	-126.823	0.281	0.042
-310.924	97.960	-0.092	0.106
-309.910	-0.626	0.199	-0.142
-308.895	216.972	0.113	-0.180
-307.880	2.295	0.218	-0.158
-306.866	800.000	0.044	-0.173
-305.851	-46.642	0.090	-0.044
-304.837	64.975	-0.152	0.154
-303.822	135.285	0.107	0.140
-302.807	18.460	-0.170	0.136
-301.793	39.072	0.062	-0.056
-300.778	-120.642	0.127	-0.022
-299.764	-48.570	-0.397	0.191
-298.749	81.439	-0.247	0.268
-297.735	-41.379	-0.240	0.124
-296.720	-121.248	0.384	-0.064
-295.705	-192.635	0.189	0.002
-294.691	-125.479	0.250	-0.038
-293.676	800.000	-0.016	0.061
-292.662	420.407	0.081	-0.174
-291.647	-146.466	-0.349	-0.031
-290.632	800.000	-0.020	-0.082
-289.618	-200.000	0.020	-0.191
-288.603	-13.659	0.141	-0.092
-287.589	521.655	-0.036	-0.084
-286.574	-200.000	-0.034	-0.198
-285.559	800.000	0.075	0.307
-284.545	8.367	-0.156	-0.118
-283.530	86.321	0.143	-0.159
-282.516	-200.000	-0.022	-0.216
-281.501	617.715	0.122	-0.308
-280.486	330.567	0.147	0.284
-279.472	-27.134	-0.027	-0.016
-278.457	160.281	0.164	0.229
-277.443	-200.000	0.020	0.155
-276.428	165.239	0.044	0.062
-275.413	425.333	0.101	-0.219
-274.399	44.325	-0.090	-0.083
-273.384	66.145	0.223	-0.227
-272.370	40.381	0.145	0.131
-271.355	-200.000	0.020	-0.100
-270.340	800.000	0.070	0.212
-269.326	331.465	-0.080	0.155
-268.311	-155.973	-0.177	-0.011
-267.297	800.000	-0.055	-0.152
-266.282	-169.724	-0.225	-0.008
-265.267	-132.724	0.028	0.004
-264.253	25.639	0.238	0.198
-263.238	414.791	0.040	0.084
-262.224	9.358	-0.057	-0.043
-261.209	-95.049	-0.251	0.068
-260.195	-81.811	-0.048	-0.016
-259.180	125.617	0.280	0.354
-258.165	-75.373	0.248	0.089
-257.151	800.000	0.101	-0.362
-256.136	-200.000	0.071	0.437
-255.122	266.857	-0.048	0.083
-254.107	-121.453	-0.018	0.003
-253.092	-200.000	-0.015	-0.267
-252.078	-163.942	0.054	-0.003
-251.063	-103.566	0.262	-0.062
-250.049	-124.702	0.237	-0.037
-249.034	-1.072	0.381	0.270
-248.019	-46.618	0.278	0.137
-247.005	320.206	0.065	-0.123
-245.990	64.680	-0.318	-0.322
-244.976	-142.245	-0.130	-0.013
-243.961	117.471	-0.056	0.069
-242.946	19.744	0.186	0.150
-241.932	-200.000	0.026	0.177
-240.917	-200.000	-0.030	-0.175
-239.903	-188.128	-0.114	0.001
-238.888	-143.238	-0.055	0.005
-237.873	-112.062	0.051	-0.010
-236.859	-3.833	0.098	-0.068
-235.844	-76.563	-0.278	-0.098
-234.830	-200.000	-0.032	-0.154
-233.815	-60.340	0.169	-0.072
-232.800	147.877	-0.170	0.230
-231.786	85.905	-0.138	-0.152
-230.771	20.268	-0.098	-0.080
-229.757	168.406	0.057	0.081
-228.742	-113.382	-0.093	0.018
-227.727	298.973	0.107	0.196
-226.713	8.528	-0.197	-0.149
-225.698	-76.255	0.249	-0.088
-224.684	-77.132	0.192	-0.067
-223.669	-110.307	0.227	-0.047
-222.655	-151.851	-0.238	0.017
-221.640	79.173	0.165	0.177
-220.625	-10.908	-0.269	0.178
-219.611	155.156	0.195	0.269
-218.596	93.984	0.148	0.168
-217.582	-200.000	-0.034	0.187
-216.567	262.721	-0.095	-0.166
-215.552	-99.349	0.259	0.065
-214.538	182.536	0.161	-0.237
-213.523	27.576	-0.256	-0.216
-212.509	-200.000	-0.006	-0.433
-211.494	800.000	-0.028	0.081
-210.479	-200.000	0.012	-0.108
-209.465	-126.410	0.162	0.024
-208.450	-85.238	-0.281	0.088
-207.436	168.917	-0.205	0.293
-206.421	-98.859	0.213	-0.054
-205.406	2.254	-0.106	-0.076
-204.392	-92.346	0.088	-0.025
-203.377	800.000	-0.022	0.079
-202.363	800.000	-0.141	-0.424
-201.348	62.667	0.062	0.062
-200.333	-28.097	-0.215	0.124
-199.319	-153.267	0.138	0.010
-198.304	341.201	-0.179	0.350
-197.290	-130.632	-0.191	0.026
-196.275	-39.095	0.061	-0.032
-195.260	-21.414	-0.195	-0.119
-194.246	518.252	-0.041	0.096
-193.231	-28.430	0.129	-0.074
-192.217	78.851	-0.125	-0.134
-191.202	-0.079	0.045	0.032
-190.187	800.000	-0.079	0.263
-189.173	-100.035	0.070	0.017
-188.158	44.479	0.111	0.102
-187.144	351.208	-0.099	-0.195
-186.129	-200.000	-0.015	-0.205
-185.114	-4.678	0.096	0.066
-184.100	-79.495	0.174	0.059
-183.085	-200.000	-0.036	0.261
-182.071	-200.000	-0.000	0.044
-181.056	116.147	-0.067	0.082
-180.042	-76.359	0.031	-0.011
-179.027	-200.000	-0.013	-0.117
-178.012	-131.292	0.356	0.047
-176.998	45.727	-0.187	0.173
-175.983	-99.388	0.402	-0.101
-174.969	-15.465	0.019	0.012
-173.954	-29.784	0.069	-0.040
-172.939	-200.000	-0.017	-0.455
-171.925	-36.275	-0.185	-0.100
-170.910	683.139	-0.141	-0.369
-169.896	-35.155	-0.245	-0.133
-168.881	-17.286	0.283	-0.178
-167.866	800.000	-0.036	-0.155
-166.852	373.400	-0.157	0.318
-165.837	69.858	0.089	0.091
-164.823	-119.923	0.148	-0.025
-163.808	-150.707	-0.095	0.007
-162.793	-112.015	0.140	-0.028
-161.779	-39.605	0.242	-0.127
-160.764	-127.840	0.249	-0.036
-159.750	-187.221	-0.293	0.004
-158.735	139.310	-0.110	-0.145
-157.720	-200.000	0.055	-0.254
-156.706	800.000	-0.107	-0.319
-155.691	-93.789	0.184	-0.051
-154.677	508.015	-0.095	0.220
-153.662	-200.000	-0.026	-0.216
-152.647	-193.003	0.130	0.001
-151.633	189.856	-0.045	-0.067
-150.618	-200.000	0.002	0.013
-149.604	224.741	0.097	0.157
-148.589	596.245	-0.033	-0.081
-147.574	697.295	-0.080	-0.211
-146.560	-65.939	-0.173	-0.069
-145.545	181.248	-0.196	0.287
-144.531	128.334	-0.367	0.466
-143.516	75.799	0.201	-0.212
-142.502	-54.444	0.355	-0.161
-141.487	525.669	-0.046	-0.108
-140.472	-79.343	0.442	0.149
-139.458	-200.000	0.012	-0.104
-138.443	-59.906	0.219	-0.093
-137.429	70.511	0.177	0.183
-136.414	50.182	0.074	-0.069
-135.399	-142.658	-0.316	-0.031
-134.385	-200.000	-0.007	0.033
-133.370	-153.012	0.065	0.005
-132.356	170.943	0.162	0.231
-131.341	-15.532	-0.275	-0.175
-130.326	-38.357	0.154	-0.081
-129.312	-148.929	0.103	0.008
-128.297	-94.374	-0.102	-0.028
-127.283	-162.456	0.190	-0.009
-126.268	98.810	-0.125	-0.143
-125.253	285.773	-0.117	-0.211
-124.239	63.688	0.290	0.291
-123.224	-200.000	0.036	0.424
-122.210	-61.801	0.267	0.112
