DTS Sentinel unit serial number:	SN413079Multiplexer serial number:	ORYXHardware model number:	OX4-SRSoftware version number:	ORYX F/W v4.00 Oryx Data Collector v3.7.2.0data status	okinstallation	princeton_trtdifferential loss correction	single-endedforward channel	channel 4reverse channel	N/Adate	2019/09/17time	21:21:34forward acquisition time	60.00reverse acquisition time	0.00gamma	496.2192k internal	0.2327k external	0.2327temperature offset calibration	0.9992default loss term (dB/km)	0.3790temperature slope calibration	1.0000multiplexer offset coefficient	1.0000multiplexer slope coefficient	1.0000fibre end	0.00T internal ref (°C)	27.56T ext. ref 1 (°C)	0.19T ext. ref 2 (°C)	19.47length (m)	temperature (°C)	Stokes	anti-Stokes-747.200	-115.614	-0.200	0.038
-746.185	-109.142	-0.456	0.098
-745.171	-26.379	-0.324	-0.191
-744.156	-139.576	0.234	-0.025
-743.142	467.578	-0.017	0.037
-742.127	-51.510	-0.089	-0.042
-741.112	800.000	0.046	0.194
-740.098	-48.345	-0.268	0.130
-739.083	-200.000	-0.004	-0.033
-738.069	800.000	-0.135	0.573
-737.054	800.000	0.060	0.249
-736.039	-168.230	-0.239	0.009
-735.025	36.640	-0.170	0.152
-734.010	-129.546	-0.136	-0.019
-732.996	-200.000	-0.060	0.291
-731.981	259.978	-0.044	0.076
-730.966	-200.000	0.047	0.267
-729.952	507.657	0.052	0.122
-728.937	67.431	0.258	0.266
-727.923	137.060	0.204	-0.269
-726.908	-200.000	0.050	-0.397
-725.894	-15.842	0.127	0.081
-724.879	-200.000	-0.011	-0.269
-723.864	634.673	-0.051	-0.131
-722.850	205.267	-0.122	-0.191
-721.835	56.286	0.299	0.293
-720.821	-125.332	0.088	0.014
-719.806	-129.657	0.081	-0.011
-718.791	67.158	0.041	-0.042
-717.777	-111.170	-0.066	0.014
-716.762	-0.381	0.212	0.152
-715.748	-37.668	-0.292	-0.157
-714.733	-200.000	0.044	-0.305
-713.718	65.464	0.294	0.300
-712.704	-156.901	-0.125	0.008
-711.689	-200.000	0.006	-0.125
-710.675	-34.527	-0.237	-0.130
-709.660	74.430	0.138	-0.146
-708.645	195.913	-0.178	-0.273
-707.631	-200.000	0.011	-0.218
-706.616	-159.549	-0.149	0.008
-705.602	-16.028	0.161	0.103
-704.587	-75.623	0.321	-0.115
-703.572	187.829	0.190	-0.285
-702.558	-23.125	-0.415	-0.252
-701.543	-200.000	0.007	-0.193
-700.529	-33.623	0.228	-0.127
-699.514	-186.062	-0.201	-0.003
-698.499	145.142	-0.159	-0.214
-697.485	105.885	-0.047	0.056
-696.470	-151.350	0.095	-0.007
-695.456	18.183	0.219	-0.176
-694.441	-200.000	0.002	-0.181
-693.426	-101.645	-0.501	-0.122
-692.412	172.173	0.069	0.099
-691.397	358.800	0.045	-0.091
-690.383	41.283	0.275	0.250
-689.368	65.091	-0.106	0.108
-688.354	81.094	-0.081	-0.088
-687.339	800.000	-0.091	0.341
-686.324	-113.655	0.154	0.030
-685.310	508.090	-0.104	-0.243
-684.295	-57.370	-0.152	-0.067
-683.281	519.929	-0.034	-0.079
-682.266	-200.000	-0.010	-0.089
-681.251	-200.000	0.064	0.417
-680.237	24.836	0.161	0.135
-679.222	-200.000	-0.018	-0.195
-678.208	409.453	-0.130	0.277
-677.193	127.702	0.017	0.021
-676.178	79.974	-0.067	0.073
-675.164	101.080	0.274	-0.320
-674.149	-200.000	-0.015	0.193
-673.135	69.650	-0.140	-0.145
-672.120	-78.067	-0.089	-0.031
-671.105	-105.273	-0.178	-0.041
-670.091	23.162	-0.013	-0.011
-669.076	-32.374	0.239	-0.134
-668.062	-84.207	-0.333	-0.106
-667.047	-173.378	0.258	0.008
-666.032	556.520	-0.117	-0.284
-665.018	-119.459	-0.222	0.039
-664.003	-200.000	0.031	0.163
-662.989	166.925	0.134	-0.191
-661.974	800.000	-0.032	0.134
-660.959	460.982	-0.073	-0.164
-659.945	17.022	-0.166	0.132
-658.930	306.031	-0.164	-0.306
-657.916	56.341	-0.269	-0.263
-656.901	-79.256	0.245	0.083
-655.886	287.737	0.140	0.255
-654.872	-125.430	-0.158	-0.024
-653.857	-61.234	-0.189	-0.080
-652.843	-9.376	-0.150	-0.101
-651.828	-144.839	0.096	-0.009
-650.814	800.000	-0.042	0.136
-649.799	-200.000	0.055	0.332
-648.784	229.594	-0.245	0.402
-647.770	-15.434	-0.210	0.134
-646.755	-200.000	-0.057	-0.253
-645.741	411.247	-0.091	-0.194
-644.726	-200.000	-0.213	0.001
-643.711	-169.027	-0.328	-0.012
-642.697	800.000	-0.008	-0.025
-641.682	-18.374	0.050	-0.031
-640.668	451.695	-0.139	0.309
-639.653	31.738	0.216	0.187
-638.638	-16.443	-0.061	-0.039
-637.624	190.173	-0.134	0.202
-636.609	575.571	-0.120	-0.295
-635.595	40.257	0.140	-0.127
-634.580	59.648	0.106	-0.105
-633.565	41.600	-0.015	0.014
-632.551	-85.473	-0.112	-0.035
-631.536	-89.445	0.257	0.076
-630.522	234.236	-0.186	-0.307
-629.507	67.212	-0.168	0.172
-628.492	-138.979	-0.396	-0.043
-627.478	-80.528	0.035	0.012
-626.463	553.877	0.093	0.224
-625.449	-94.919	-0.068	0.019
-624.434	-200.000	-0.005	0.069
-623.419	-100.248	-0.217	-0.054
-622.405	493.881	0.106	-0.244
-621.390	405.197	0.142	-0.301
-620.376	800.000	0.105	-0.353
-619.361	14.910	-0.103	-0.081
-618.346	15.260	-0.097	0.077
-617.332	55.322	-0.228	0.221
-616.317	-200.000	0.008	-0.148
-615.303	-104.522	0.128	-0.030
-614.288	789.804	-0.125	0.345
-613.273	561.883	0.137	-0.332
-612.259	-66.970	0.269	0.106
-611.244	243.942	0.130	0.218
-610.230	256.070	0.160	0.276
-609.215	-12.082	-0.089	0.058
-608.201	-121.766	-0.233	-0.039
-607.186	-95.302	-0.300	-0.081
-606.171	800.000	-0.035	-0.137
-605.157	30.617	-0.396	-0.340
-604.142	-132.588	-0.243	0.031
-603.128	-200.000	-0.028	-0.142
-602.113	-1.943	-0.224	-0.158
-601.098	-143.256	0.083	-0.008
-600.084	-111.426	0.167	0.034
-599.069	160.484	-0.056	-0.079
-598.055	60.056	0.111	0.110
-597.040	-69.222	-0.140	-0.054
-596.025	-200.000	0.021	-0.176
-595.011	-0.408	-0.181	0.129
-593.996	254.032	0.098	-0.167
-592.982	645.606	0.056	-0.142
-591.967	-200.000	0.033	0.299
-590.952	142.358	0.157	0.209
-589.938	511.180	-0.162	-0.378
-588.923	-200.000	0.057	0.254
-587.909	99.274	-0.187	0.217
-586.894	800.000	0.091	0.279
-585.879	324.231	0.071	-0.137
-584.865	263.667	0.125	-0.217
-583.850	-100.076	0.404	-0.101
-582.836	154.444	-0.081	-0.112
-581.821	-83.643	-0.377	-0.121
-580.806	800.000	0.106	-0.402
-579.792	-21.333	-0.127	0.078
-578.777	-200.000	-0.001	-0.021
-577.763	411.019	0.053	0.114
-576.748	25.495	-0.056	-0.046
-575.733	-16.336	-0.193	-0.123
-574.719	-94.700	0.230	0.063
-573.704	160.772	0.209	0.292
-572.690	96.312	0.309	0.354
-571.675	-140.040	-0.053	0.006
-570.661	-200.000	-0.073	-0.516
-569.646	10.773	-0.169	0.129
-568.631	-192.394	0.156	-0.001
-567.617	-200.000	-0.220	0.000
-566.602	-200.000	0.040	-0.290
-565.588	16.274	-0.230	-0.182
-564.573	-145.126	-0.470	0.043
-563.558	-67.303	0.421	-0.166
-562.544	348.976	0.188	0.372
-561.529	541.359	-0.062	-0.149
-560.515	399.981	-0.051	0.107
-559.500	138.077	-0.146	-0.192
-558.485	-145.496	-0.038	-0.003
-557.471	48.590	-0.079	-0.074
-556.456	100.277	-0.091	0.105
-555.442	-200.000	-0.009	-0.052
-554.427	76.893	-0.335	-0.356
-553.412	77.508	-0.130	-0.138
-552.398	304.887	0.190	-0.352
-551.383	597.227	0.063	-0.156
-550.369	-200.000	0.018	-0.223
-549.354	115.248	0.168	0.206
-548.339	173.008	0.149	0.215
-547.325	-61.385	-0.341	-0.144
-546.310	-200.000	0.014	-0.189
-545.296	-30.053	-0.082	-0.047
-544.281	-200.000	-0.057	0.375
-543.266	-50.595	0.296	0.140
-542.252	-81.842	-0.156	0.051
-541.237	386.784	0.065	-0.135
-540.223	561.518	-0.042	0.102
-539.208	-102.037	-0.227	0.055
-538.193	52.192	0.196	0.186
-537.179	-136.991	0.221	0.025
-536.164	-83.869	-0.443	-0.141
-535.150	119.648	0.171	0.212
-534.135	-128.978	0.054	0.008
-533.121	-112.694	-0.261	-0.052
-532.106	385.014	-0.043	-0.089
-531.091	-200.000	-0.033	0.213
-530.077	140.740	-0.251	0.331
-529.062	13.887	-0.175	0.136
-528.048	163.276	0.211	0.297
-527.033	74.616	-0.086	-0.090
-526.018	-55.453	-0.111	0.050
-525.004	-77.737	0.028	0.010
-523.989	128.685	-0.069	-0.088
-522.975	232.147	-0.067	0.110
-521.960	138.814	-0.172	-0.226
-520.945	-34.598	0.114	0.062
-519.931	-84.802	0.334	0.105
-518.916	313.258	0.099	0.186
-517.902	-87.192	0.090	0.027
-516.887	169.976	-0.116	-0.166
-515.872	-200.000	0.017	-0.242
-514.858	44.020	0.213	0.195
-513.843	800.000	-0.073	0.203
-512.829	603.108	-0.057	0.142
-511.814	226.359	-0.096	0.155
-510.799	-200.000	0.042	-0.187
-509.785	39.994	0.037	0.033
-508.770	-62.409	-0.137	0.057
-507.756	-26.896	0.063	0.037
-506.741	-107.507	-0.250	-0.055
-505.726	800.000	0.082	-0.261
-504.712	322.158	-0.118	-0.224
-503.697	-112.594	0.177	0.035
-502.683	-163.842	-0.371	-0.017
-501.668	-126.274	0.425	-0.063
-500.653	-87.702	-0.261	-0.079
-499.639	127.826	0.275	0.349
-498.624	123.374	0.050	-0.063
-497.610	268.184	0.066	-0.116
-496.595	231.955	0.105	-0.172
-495.581	269.079	0.038	0.066
-494.566	463.405	-0.051	-0.113
-493.551	-94.331	-0.571	0.156
-492.537	441.139	0.066	0.145
-491.522	-56.949	0.325	-0.143
-490.508	-30.248	0.082	-0.046
-489.493	-29.461	0.180	-0.103
-488.478	-200.000	0.024	0.184
-487.464	10.060	0.102	-0.077
-486.449	774.177	-0.068	0.184
-485.435	313.498	-0.214	0.402
-484.420	92.049	-0.123	0.138
-483.405	244.114	0.172	0.288
-482.391	226.671	-0.123	-0.199
-481.376	800.000	-0.080	0.254
-480.362	-42.863	0.227	0.115
-479.347	10.406	0.091	-0.069
-478.332	228.196	-0.059	-0.095
-477.318	-200.000	-0.015	0.225
-476.303	-110.695	0.461	0.095
-475.289	-200.000	-0.009	-0.115
-474.274	245.926	-0.130	-0.218
-473.259	54.191	-0.105	0.101
-472.245	-144.680	-0.026	0.002
-471.230	-27.994	0.201	-0.116
-470.216	199.152	-0.093	0.142
-469.201	-25.053	-0.281	-0.166
-468.186	-170.838	-0.308	0.011
-467.172	-172.394	0.388	0.012
-466.157	150.665	0.211	-0.286
-465.143	256.750	-0.042	0.073
-464.128	166.871	0.260	0.368
-463.113	-122.316	0.095	0.015
-462.099	-121.004	0.335	-0.056
-461.084	800.000	0.013	-0.044
-460.070	30.867	-0.222	-0.189
-459.055	-200.000	-0.017	-0.096
-458.040	800.000	0.069	-0.299
-457.026	317.306	-0.110	0.207
-456.011	-200.000	0.027	-0.178
-454.997	312.892	0.101	-0.188
-453.982	386.636	-0.108	-0.222
-452.968	369.632	-0.106	0.213
-451.953	66.747	-0.184	-0.187
-450.938	10.834	0.287	0.219
-449.924	777.558	0.056	-0.151
-448.909	426.529	-0.027	-0.057
-447.895	3.782	-0.225	0.164
-446.880	800.000	0.136	-0.411
-445.865	-148.329	0.034	-0.003
-444.851	361.072	0.085	0.170
-443.836	-180.415	0.315	0.007
-442.822	521.400	0.128	-0.298
-441.807	-27.940	0.009	0.005
-440.792	-31.602	0.231	0.129
-439.778	44.225	0.098	0.090
-438.763	-200.000	-0.036	-0.447
-437.749	800.000	0.055	-0.156
-436.734	-200.000	-0.008	-0.276
-435.719	176.532	-0.128	0.186
-434.705	117.382	0.183	-0.225
-433.690	-82.539	-0.295	0.095
-432.676	629.987	0.074	-0.186
-431.661	442.477	-0.059	0.130
-430.646	-200.000	-0.040	0.218
-429.632	-109.178	-0.433	0.092
-428.617	41.306	-0.141	0.127
-427.603	-200.000	0.004	-0.148
-426.588	-93.046	0.214	0.059
-425.573	-200.000	0.027	0.343
-424.559	-78.126	0.181	0.062
-423.544	72.000	-0.032	0.034
-422.530	721.533	0.107	-0.284
-421.515	-56.770	-0.290	0.127
-420.500	-66.827	-0.111	0.044
-419.486	41.925	0.170	-0.153
-418.471	48.848	-0.089	-0.083
-417.457	211.355	0.127	-0.198
-416.442	800.000	0.118	0.492
-415.428	639.930	0.103	-0.260
-414.413	-118.259	-0.222	-0.039
-413.398	-200.000	0.047	0.306
-412.384	401.139	0.095	-0.198
-411.369	800.000	0.027	-0.095
-410.355	144.118	-0.064	-0.085
-409.340	44.435	0.143	-0.131
-408.325	-200.000	0.013	-0.187
-407.311	27.953	-0.037	0.031
-406.296	9.772	-0.151	-0.114
-405.282	131.223	0.060	-0.077
-404.267	448.452	-0.073	-0.159
-403.252	454.212	0.066	0.145
-402.238	-200.000	0.018	0.102
-401.223	-93.833	0.202	-0.055
-400.209	-142.241	-0.127	0.012
-399.194	-37.084	-0.286	-0.152
-398.179	-97.168	-0.222	-0.058
-397.165	-200.000	0.050	-0.226
-396.150	-49.764	-0.178	-0.084
-395.136	40.780	-0.144	0.129
-394.121	-40.796	-0.142	0.073
-393.106	-200.000	0.033	0.257
-392.092	71.624	-0.341	-0.353
-391.077	-30.194	0.151	-0.086
-390.063	87.844	-0.165	-0.181
-389.048	714.096	0.101	0.266
-388.033	800.000	0.039	-0.145
-387.019	135.738	0.099	0.128
-386.004	800.000	0.015	0.053
-384.990	-0.535	-0.077	-0.054
-383.975	-103.451	-0.192	0.045
-382.960	-112.301	-0.336	0.067
-381.946	-200.000	0.069	0.370
-380.931	800.000	0.081	0.239
-379.917	-25.975	-0.097	-0.057
-378.902	48.813	-0.099	-0.092
-377.888	-43.809	-0.234	-0.117
-376.873	-92.008	0.145	0.041
-375.858	372.600	-0.077	0.156
-374.844	-200.000	-0.064	-0.306
-373.829	-137.447	-0.207	-0.023
-372.815	-200.000	0.041	0.187
-371.800	-83.250	-0.046	0.015
-370.785	-70.205	0.539	0.203
-369.771	-144.154	0.171	0.016
-368.756	716.666	-0.051	-0.135
-367.742	-200.000	0.051	-0.306
-366.727	303.620	0.064	-0.118
-365.712	701.353	-0.055	0.145
-364.698	-97.014	0.124	0.032
-363.683	-42.382	-0.321	0.163
-362.669	36.079	-0.179	0.156
-361.654	102.722	0.208	0.241
-360.639	-80.540	-0.361	-0.119
-359.625	226.379	0.183	0.295
-358.610	-200.000	-0.016	-0.154
-357.596	547.146	0.126	0.300
-356.581	73.141	-0.046	0.048
-355.566	-94.619	0.124	0.033
-354.552	280.780	0.067	0.119
-353.537	-68.715	0.487	0.187
-352.523	-200.000	0.079	0.392
-351.508	352.861	-0.182	0.359
-350.493	-90.600	0.425	-0.122
-349.479	244.377	0.102	0.171
-348.464	-67.060	-0.380	-0.149
-347.450	23.998	-0.145	0.119
-346.435	-200.000	0.014	-0.410
-345.420	-13.817	-0.433	0.278
-344.406	-90.133	0.201	0.058
-343.391	103.957	-0.158	-0.184
-342.377	-33.945	-0.249	0.136
-341.362	65.545	0.136	-0.136
-340.348	343.602	-0.081	-0.158
-339.333	800.000	0.035	0.142
-338.318	36.928	0.180	0.158
-337.304	-200.000	0.021	-0.133
-336.289	-122.573	0.155	-0.025
-335.275	-47.823	0.246	0.118
-334.260	437.606	-0.140	0.303
-333.245	800.000	0.032	0.093
-332.231	-97.398	0.028	-0.007
-331.216	-146.311	0.124	-0.011
-330.202	-57.172	-0.251	0.110
-329.187	-175.426	0.099	0.003
-328.172	44.748	0.225	-0.205
-327.158	-200.000	-0.009	0.155
-326.143	209.871	0.182	-0.284
-325.129	72.629	0.057	-0.059
-324.114	-200.000	-0.005	0.053
-323.099	-70.207	-0.056	-0.021
-322.085	20.812	0.283	-0.227
-321.070	-43.239	-0.102	0.051
-320.056	268.219	0.224	-0.388
-319.041	-122.825	-0.125	-0.020
-318.026	476.230	0.065	0.145
-317.012	316.918	-0.121	-0.227
-315.997	63.399	0.051	-0.051
-314.983	204.387	-0.070	0.107
-313.968	-200.000	-0.027	0.224
-312.953	-25.867	0.200	-0.117
-311.939	-200.000	-0.006	0.068
-310.924	-200.000	-0.032	-0.146
-309.910	-64.673	-0.232	-0.093
-308.895	-200.000	-0.005	-0.085
-307.880	72.232	-0.274	-0.283
-306.866	-154.969	0.444	0.029
-305.851	7.873	-0.115	-0.086
-304.837	11.822	-0.330	0.251
-303.822	-200.000	0.045	0.295
-302.807	96.415	0.139	-0.157
-301.793	274.071	0.019	-0.032
-300.778	-200.000	-0.012	-0.260
-299.764	-38.050	0.165	0.087
-298.749	211.469	0.035	-0.055
-297.735	54.142	0.177	-0.169
-296.720	-200.000	-0.005	-0.571
-295.705	-3.826	0.118	0.081
-294.691	-200.000	0.032	-0.282
-293.676	800.000	-0.047	-0.195
-292.662	-71.278	-0.474	0.176
-291.647	5.969	-0.327	-0.240
-290.632	54.507	0.194	0.185
-289.618	-94.589	-0.123	0.033
-288.603	-200.000	0.018	0.079
-287.589	-64.782	-0.137	-0.055
-286.574	-200.000	0.003	-0.309
-285.559	-63.740	0.195	0.079
-284.545	97.344	-0.262	0.297
-283.530	-94.747	0.215	0.058
-282.516	-152.514	-0.069	-0.005
-281.501	-200.000	-0.015	0.362
-280.486	691.323	-0.042	0.108
-279.472	800.000	-0.100	0.297
-278.457	800.000	-0.093	-0.300
-277.443	-200.000	-0.032	0.293
-276.428	-200.000	-0.103	-0.519
-275.413	-200.000	0.002	0.025
-274.399	20.947	0.254	0.204
-273.384	-200.000	0.007	0.083
-272.370	-30.714	-0.287	0.161
-271.355	-72.541	-0.097	0.035
-270.340	-103.177	-0.139	0.033
-269.326	800.000	0.038	-0.109
-268.311	-45.689	-0.282	0.138
-267.297	-19.654	-0.170	0.104
-266.282	22.186	-0.188	0.152
-265.267	-56.962	-0.142	-0.062
-264.253	201.400	-0.145	0.221
-263.238	-200.000	-0.038	-0.265
-262.224	-58.764	-0.225	-0.096
-261.209	-200.000	0.003	0.132
-260.195	28.134	0.101	-0.084
-259.180	-41.689	0.139	0.071
-258.165	-16.864	-0.155	0.097
-257.151	204.230	0.138	-0.212
-256.136	164.634	-0.075	0.105
-255.122	6.197	-0.122	0.090
-254.107	130.016	0.038	0.048
-253.092	-200.000	0.004	-0.337
-252.078	-200.000	0.024	-0.175
-251.063	800.000	-0.054	0.227
-250.049	18.654	-0.305	0.241
-249.034	-200.000	0.024	-0.129
-248.019	-200.000	0.019	0.130
-247.005	-76.073	0.513	0.179
-245.990	800.000	0.034	-0.097
-244.976	243.905	-0.152	0.251
-243.961	-94.821	0.105	0.028
-242.946	-23.230	0.124	-0.074
-241.932	211.987	-0.062	-0.097
-240.917	-94.762	0.156	-0.042
-239.903	800.000	0.037	-0.113
-238.888	287.682	0.119	-0.212
-237.873	-5.122	0.198	-0.134
-236.859	9.520	0.117	-0.087
-235.844	-200.000	-0.001	-0.207
-234.830	518.385	-0.072	-0.166
-233.815	-200.000	0.006	-0.118
-232.800	36.550	-0.038	-0.034
-231.786	-200.000	-0.003	-0.044
-230.771	116.324	0.109	-0.132
-229.757	-175.027	0.340	0.009
-228.742	-78.402	-0.118	0.040
-227.727	370.216	0.141	-0.282
-226.713	499.225	0.113	-0.257
-225.698	-111.856	-0.095	-0.019
-224.684	300.870	0.097	0.178
-223.669	157.109	0.114	0.155
-222.655	656.896	0.125	0.317
-221.640	800.000	0.054	-0.160
-220.625	79.884	0.155	0.164
-219.611	110.767	0.264	0.314
-218.596	-200.000	-0.003	-0.195
-217.582	800.000	0.065	0.234
-216.567	-178.611	-0.215	0.005
-215.552	223.234	0.152	-0.242
-214.538	-84.312	0.124	0.039
-213.523	439.376	0.092	-0.198
-212.509	452.256	0.023	-0.050
-211.494	-113.929	0.207	0.040
-210.479	-58.300	0.127	-0.055
-209.465	-59.179	-0.346	-0.147
-208.450	126.123	0.060	0.075
-207.436	-100.373	0.170	-0.042
-206.421	3.334	-0.282	0.203
-205.406	-78.118	-0.286	0.097
-204.392	-200.000	-0.010	-0.286
-203.377	-8.513	0.164	-0.108
-202.363	-200.000	0.076	0.402
-201.348	-200.000	0.004	0.093
-200.333	-98.005	0.178	-0.045
-199.319	-12.465	0.089	0.057
-198.304	-200.000	-0.044	0.269
-197.290	-134.663	0.232	0.028
-196.275	-136.429	-0.099	0.011
-195.260	800.000	0.051	-0.209
-194.246	-167.119	0.188	0.008
-193.231	231.485	0.126	-0.204
-192.217	-183.272	0.454	-0.008
-191.202	-189.848	0.091	-0.001
-190.187	-34.900	0.135	0.072
-189.173	-200.000	0.001	-0.286
-188.158	-200.000	-0.038	0.346
-187.144	-75.520	0.223	0.078
-186.129	120.626	0.347	0.425
-185.114	48.262	0.305	0.282
-184.100	599.842	0.072	-0.177
-183.085	-56.702	0.265	-0.116
-182.071	800.000	-0.035	-0.107
-181.056	64.696	-0.213	0.212
-180.042	633.879	0.071	-0.176
-179.027	38.204	0.099	0.087
-178.012	169.488	-0.334	-0.470
-176.998	800.000	-0.006	-0.019
-175.983	171.467	-0.117	0.165
-174.969	800.000	-0.060	-0.230
-173.954	75.524	0.174	0.181
-172.939	-200.000	-0.084	0.386
-171.925	-56.395	0.127	-0.056
-170.910	300.434	-0.154	-0.280
-169.896	-56.148	0.280	-0.123
-168.881	8.754	-0.253	0.188
-167.866	59.300	0.142	0.138
-166.852	-123.515	0.289	-0.045
-165.837	287.447	0.065	-0.116
-164.823	-200.000	-0.032	0.186
-163.808	800.000	0.078	0.259
-162.793	-155.632	0.253	0.016
-161.779	-200.000	-0.048	0.326
-160.764	-166.513	0.069	0.003
-159.750	-200.000	0.009	0.257
-158.735	-112.215	-0.188	-0.037
-157.720	800.000	-0.056	-0.154
-156.706	270.503	-0.048	-0.084
-155.691	120.030	-0.129	0.158
-154.677	-200.000	-0.004	0.047
-153.662	44.810	-0.059	0.053
-152.647	800.000	-0.083	0.278
-151.633	9.815	0.265	-0.198
-150.618	69.569	0.105	-0.107
-149.604	-37.119	0.084	0.044
-148.589	-172.332	0.117	-0.004
-147.574	-31.308	0.147	0.081
-146.560	-141.636	-0.223	0.022
-145.545	-200.000	-0.017	0.174
-144.531	730.199	0.050	-0.131
-143.516	235.819	0.130	-0.212
-142.502	457.390	-0.092	-0.202
-141.487	-171.924	0.361	-0.012
-140.472	800.000	-0.042	0.166
-139.458	-79.925	-0.061	-0.020
-138.443	-200.000	0.020	0.159
-137.429	-74.529	0.173	0.062
-136.414	73.194	-0.023	0.024
-135.399	-139.757	0.072	-0.008
-134.385	330.763	-0.066	0.125
-133.370	-111.673	-0.250	-0.050
-132.356	155.514	0.213	0.289
-131.341	-131.227	-0.424	0.055
-130.326	800.000	-0.086	0.284
-129.312	234.368	-0.174	0.283
-128.297	347.523	-0.073	-0.142
-127.283	39.803	0.039	0.035
-126.268	800.000	0.042	-0.153
-125.253	66.850	-0.143	0.143
-124.239	800.000	-0.091	0.304
-123.224	17.298	-0.072	-0.057
-122.210	191.826	-0.104	-0.154
-121.195	345.883	0.119	-0.230
