DTS Sentinel unit serial number:	SN413079Multiplexer serial number:	ORYXHardware model number:	OX4-SRSoftware version number:	ORYX F/W v4.00 Oryx Data Collector v3.7.2.0data status	okinstallation	princeton_trtdifferential loss correction	single-endedforward channel	channel 4reverse channel	N/Adate	2019/09/12time	18:06:19forward acquisition time	15.00reverse acquisition time	0.00gamma	496.2192k internal	0.2306k external	0.2306temperature offset calibration	1.0135default loss term (dB/km)	0.3790temperature slope calibration	1.0000multiplexer offset coefficient	1.0000multiplexer slope coefficient	1.0000fibre end	0.00T internal ref (°C)	33.69T ext. ref 1 (°C)	2.93T ext. ref 2 (°C)	28.09length (m)	temperature (°C)	Stokes	anti-Stokes-747.200	-200.000	-0.032	0.354
-746.185	15.323	-0.959	-0.765
-745.171	-76.649	-0.976	0.348
-744.156	-12.142	0.234	0.156
-743.142	36.449	0.512	-0.459
-742.127	-200.000	-0.067	-0.732
-741.112	800.000	-0.186	-0.675
-740.098	-152.077	0.519	-0.038
-739.083	800.000	0.034	-0.128
-738.069	269.706	0.222	0.397
-737.054	158.079	-0.778	-1.097
-736.039	68.478	-0.295	-0.307
-735.025	100.273	0.299	0.353
-734.010	800.000	0.305	0.866
-732.996	-39.319	-0.383	0.204
-731.981	680.390	0.224	-0.592
-730.966	100.482	-0.561	-0.662
-729.952	277.886	-0.289	-0.523
-728.937	-97.851	0.407	0.107
-727.923	26.440	-0.563	0.478
-726.908	246.204	-0.561	0.960
-725.894	582.260	-0.096	-0.239
-724.879	-80.535	0.153	-0.052
-723.864	-47.417	-0.489	-0.242
-722.850	90.355	0.643	-0.731
-721.835	152.413	-0.070	0.097
-720.821	-200.000	-0.067	-0.434
-719.806	-119.805	-0.706	-0.124
-718.791	73.050	-0.327	-0.347
-717.777	11.930	-0.372	-0.290
-716.762	313.086	0.421	0.804
-715.748	72.546	-0.608	-0.645
-714.733	5.525	-0.426	-0.319
-713.718	-65.257	0.479	0.196
-712.704	-144.992	-1.102	-0.102
-711.689	-159.858	-0.614	-0.034
-710.675	-57.175	-0.533	-0.238
-709.660	-87.252	-0.316	0.097
-708.645	12.311	-0.469	-0.367
-707.631	-7.032	-0.133	-0.091
-706.616	20.072	-0.435	0.357
-705.602	-107.272	0.590	0.132
-704.587	-79.697	-0.450	0.154
-703.572	-200.000	-0.024	0.111
-702.558	42.677	-0.157	-0.145
-701.543	-200.000	-0.101	-0.471
-700.529	-73.957	-0.789	-0.291
-699.514	-200.000	-0.051	-0.731
-698.499	-87.617	-0.371	0.114
-697.485	-0.765	0.631	-0.454
-696.470	637.039	0.369	-0.952
-695.456	-28.181	-0.222	0.130
-694.441	-126.443	0.316	0.048
-693.426	-125.508	-0.148	-0.023
-692.412	800.000	0.070	0.228
-691.397	196.364	-0.226	0.349
-690.383	-43.354	-0.573	0.294
-689.368	-51.472	-0.562	0.267
-688.354	-110.437	-0.454	-0.096
-687.339	800.000	0.105	-0.375
-686.324	-200.000	0.115	-0.553
-685.310	15.903	0.432	-0.345
-684.295	257.493	-0.316	0.552
-683.281	-172.446	-0.529	-0.017
-682.266	-200.000	-0.078	-0.553
-681.251	351.037	-0.152	0.304
-680.237	-57.010	0.525	-0.235
-679.222	448.384	0.398	-0.888
-678.208	-26.303	-0.504	0.300
-677.193	304.924	-0.174	-0.329
-676.178	101.187	0.484	0.571
-675.164	800.000	0.181	0.544
-674.149	-49.690	-0.511	0.246
-673.135	-81.400	-0.617	-0.206
-672.120	-55.333	-0.507	-0.231
-671.105	249.702	-0.218	0.375
-670.091	-151.670	0.015	-0.001
-669.076	-94.264	0.261	-0.072
-668.062	-111.307	-0.394	0.082
-667.047	-101.423	0.890	-0.220
-666.032	-137.230	-0.369	0.043
-665.018	-104.872	0.658	0.153
-664.003	344.641	0.480	0.955
-662.989	-200.000	-0.060	-0.410
-661.974	-200.000	0.037	0.214
-660.959	187.262	-0.297	-0.448
-659.945	800.000	-0.111	-0.468
-658.930	63.531	-0.388	0.395
-657.916	122.291	0.577	0.731
-656.901	-8.366	-0.606	0.413
-655.886	221.769	-0.153	-0.249
-654.872	-11.881	0.491	-0.327
-653.857	-73.244	-0.642	-0.238
-652.843	131.153	-0.441	-0.575
-651.828	-199.129	0.605	0.003
-650.814	-200.000	0.116	-0.618
-649.799	800.000	-0.159	-0.453
-648.784	-200.000	0.191	0.889
-647.770	767.859	0.201	-0.553
-646.755	-67.887	0.414	0.164
-645.741	-31.366	-0.023	-0.013
-644.726	65.454	0.588	-0.603
-643.711	-200.000	0.087	-0.544
-642.697	-63.646	0.546	-0.227
-641.682	-200.000	-0.006	-0.163
-640.668	109.536	-0.603	0.732
-639.653	800.000	0.229	-0.936
-638.638	-175.507	-0.562	-0.015
-637.624	-33.057	0.626	-0.352
-636.609	302.618	0.096	-0.181
-635.595	-200.000	0.024	0.130
-634.580	184.347	0.509	-0.763
-633.565	369.047	-0.403	0.827
-632.551	800.000	0.034	-0.118
-631.536	-200.000	0.009	-1.154
-630.522	-67.362	0.625	-0.249
-629.507	-200.000	0.064	0.360
-628.492	-60.662	0.394	0.169
-627.478	-106.450	0.266	-0.060
-626.463	72.895	-0.489	-0.517
-625.449	-200.000	-0.028	-0.179
-624.434	209.283	-0.183	0.290
-623.419	295.489	-0.081	-0.151
-622.405	157.465	-0.619	-0.868
-621.390	60.006	0.385	-0.385
-620.376	339.689	-0.383	-0.756
-619.361	800.000	0.087	-0.260
-618.346	282.564	-0.315	-0.572
-617.332	134.059	-0.357	0.469
-616.317	-200.000	0.111	0.843
-615.303	99.104	0.376	0.440
-614.288	-81.453	-0.423	-0.141
-613.273	-200.000	0.013	-0.734
-612.259	800.000	0.042	0.134
-611.244	800.000	-0.049	-0.164
-610.230	-67.022	-0.727	-0.290
-609.215	349.880	0.358	-0.717
-608.201	235.452	0.366	0.611
-607.186	-105.986	-0.208	-0.047
-606.171	599.408	-0.169	-0.425
-605.157	-200.000	0.016	-0.108
-604.142	-117.629	0.834	-0.152
-603.128	-200.000	-0.030	-0.179
-602.113	14.891	-1.018	0.806
-601.098	800.000	0.135	-0.440
-600.084	61.408	-0.279	0.281
-599.069	330.631	0.390	0.760
-598.055	-200.000	-0.000	-0.434
-597.040	-200.000	1.380	-0.000
-596.025	-60.569	0.387	0.166
-595.011	-85.264	0.469	-0.148
-593.996	-113.327	-0.188	0.037
-592.982	192.680	-0.430	0.656
-591.967	-200.000	0.032	0.322
-590.952	-200.000	0.002	0.627
-589.938	-111.385	-1.235	0.255
-588.923	-85.223	0.082	-0.026
-587.909	-89.873	0.450	-0.133
-586.894	-200.000	-0.002	0.977
-585.879	-42.429	0.136	-0.070
-584.865	-51.643	0.765	-0.360
-583.850	-57.650	0.792	0.351
-582.836	-158.336	-0.364	-0.021
-581.821	-18.569	0.343	0.217
-580.806	-101.291	0.174	0.043
-579.792	-103.687	-0.456	0.108
-578.777	-200.000	-0.074	0.628
-577.763	-200.000	0.160	0.908
-576.748	180.442	-0.254	0.377
-575.733	-200.000	0.002	-0.067
-574.719	-200.000	-0.051	-0.989
-573.704	361.623	-0.299	-0.606
-572.690	-115.871	-0.408	-0.077
-571.675	323.327	0.366	-0.706
-570.661	-53.386	-0.894	-0.414
-569.646	800.000	-0.177	0.583
-568.631	-109.992	-0.139	0.029
-567.617	140.480	-0.052	-0.070
-566.602	9.539	0.530	-0.406
-565.588	-200.000	-0.156	-0.757
-564.573	-78.995	-0.817	0.281
-563.558	-127.775	0.575	-0.084
-562.544	30.869	0.040	0.034
-561.529	-200.000	-0.012	-0.614
-560.515	-144.618	-0.299	0.028
-559.500	20.908	0.198	0.162
-558.485	-16.218	-0.686	0.440
-557.471	747.826	-0.265	0.721
-556.456	-135.435	-0.943	-0.114
-555.442	269.959	0.149	0.265
-554.427	800.000	0.128	0.475
-553.412	-200.000	-0.069	-0.366
-552.398	-200.000	-0.097	-0.474
-551.383	171.047	0.185	-0.268
-550.369	234.877	0.242	0.404
-549.354	26.034	0.389	0.328
-548.339	-200.000	-0.068	0.395
-547.325	683.708	-0.092	-0.242
-546.310	-105.316	0.551	-0.127
-545.296	-75.904	-0.196	0.070
-544.281	-200.000	0.060	-0.684
-543.266	404.426	0.360	-0.765
-542.252	9.404	0.293	0.224
-541.237	-200.000	0.007	0.666
-540.223	216.424	-0.359	-0.575
-539.208	22.876	0.706	0.584
-538.193	-5.313	-0.242	-0.168
-537.179	800.000	-0.180	-0.645
-536.164	-110.231	0.061	-0.013
-535.150	356.529	-0.168	-0.338
-534.135	-26.509	0.199	0.117
-533.121	-76.454	0.590	0.209
-532.106	-132.891	0.756	0.097
-531.091	-200.000	0.020	0.206
-530.077	-77.772	-0.232	0.081
-529.062	19.801	-0.190	0.155
-528.048	88.813	0.565	-0.634
-527.033	348.771	-0.619	-1.232
-526.018	94.336	-0.341	0.391
-525.004	-151.417	0.778	0.058
-523.989	276.191	0.341	0.610
-522.975	-84.539	-0.578	-0.184
-521.960	-118.202	-0.319	-0.057
-520.945	-22.314	0.555	-0.339
-519.931	-105.944	0.241	0.055
-518.916	396.838	-0.140	0.295
-517.902	23.444	-0.239	0.198
-516.887	82.413	-0.731	-0.800
-515.872	-13.268	-0.484	0.317
-514.858	350.460	0.373	-0.743
-513.843	31.392	0.349	-0.302
-512.829	153.413	0.404	0.557
-511.814	-130.531	1.068	-0.145
-510.799	-101.775	-0.645	-0.157
-509.785	-14.572	0.386	-0.250
-508.770	800.000	-0.187	0.646
-507.756	140.030	0.181	-0.241
-506.741	-158.377	-0.483	0.028
-505.726	-16.769	0.272	0.173
-504.712	511.808	0.146	0.342
-503.697	800.000	-0.221	0.866
-502.683	-13.559	0.429	0.280
-501.668	-4.943	-0.599	-0.416
-500.653	-95.731	-0.664	-0.179
-499.639	-200.000	-0.003	0.536
-498.624	-200.000	-0.099	0.891
-497.610	-200.000	0.042	-0.532
-496.595	153.505	-0.203	-0.280
-495.581	800.000	0.389	-1.165
-494.566	-200.000	-0.035	0.378
-493.551	-121.556	-1.303	0.218
-492.537	-147.971	0.541	0.045
-491.522	-24.245	0.461	-0.277
-490.508	-142.237	-0.451	-0.045
-489.493	-132.056	0.303	-0.040
-488.478	-15.373	0.646	-0.416
-487.464	-143.184	0.529	-0.051
-486.449	-109.672	0.652	0.138
-485.435	-200.000	-0.041	0.525
-484.420	-141.796	-0.440	0.044
-483.405	-48.305	-0.811	-0.394
-482.391	800.000	0.172	-0.747
-481.376	-76.333	0.389	-0.138
-480.362	465.937	-0.164	-0.370
-479.347	-74.787	-0.500	-0.181
-478.332	-125.249	-0.654	0.101
-477.318	-196.595	-0.431	-0.003
-476.303	800.000	0.207	-0.689
-475.289	443.693	-0.232	-0.512
-474.274	742.231	0.148	-0.401
-473.259	-200.000	-0.090	0.542
-472.245	-18.172	-0.343	0.216
-471.230	137.974	-0.603	0.795
-470.216	330.106	-0.431	-0.835
-469.201	-198.858	-0.165	-0.001
-468.186	-70.311	-0.281	-0.107
-467.172	-15.560	0.613	0.394
-466.157	88.922	0.335	0.375
-465.143	-200.000	0.074	0.530
-464.128	800.000	0.250	-0.783
-463.113	800.000	-0.124	-0.413
-462.099	13.801	-0.480	-0.376
-461.084	-86.302	0.614	-0.190
-460.070	437.809	-0.240	-0.527
-459.055	-19.028	-0.883	0.552
-458.040	-107.073	1.366	0.303
-457.026	226.207	0.081	-0.132
-456.011	-32.946	0.430	0.240
-454.997	68.497	-0.714	0.736
-453.982	-62.722	0.794	0.331
-452.968	88.155	-0.260	0.291
-451.953	-200.000	0.013	-0.332
-450.938	379.721	0.197	-0.406
-449.924	-200.000	0.001	0.113
-448.909	3.764	0.234	-0.172
-447.895	-115.900	0.325	-0.061
-446.880	-134.396	-0.611	0.075
-445.865	-83.788	-0.558	0.179
-444.851	-38.472	0.793	-0.422
-443.836	176.054	-0.316	0.461
-442.822	-200.000	0.079	-0.375
-441.807	-200.000	-0.050	0.465
-440.792	-200.000	0.077	0.637
-439.778	-87.274	-0.387	0.118
-438.763	-200.000	0.012	0.110
-437.749	61.309	-0.169	-0.169
-436.734	179.893	-0.789	-1.163
-435.719	-200.000	0.058	-0.426
-434.705	-49.011	-0.747	-0.360
-433.690	-0.976	0.322	0.229
-432.676	-94.296	0.101	0.028
-431.661	238.247	0.141	-0.235
-430.646	-200.000	0.067	-0.932
-429.632	-200.000	0.035	-0.460
-428.617	-46.740	0.401	-0.197
-427.603	-119.174	-0.548	-0.096
-426.588	-71.058	0.042	0.016
-425.573	49.939	-0.408	-0.386
-424.559	-101.223	-0.237	-0.058
-423.544	-60.257	0.724	-0.310
-422.530	-147.695	0.513	0.043
-421.515	-182.680	0.473	-0.009
-420.500	264.257	-0.091	0.158
-419.486	-200.000	0.019	0.311
-418.471	-200.000	-0.113	1.827
-417.457	-184.961	-0.371	0.006
-416.442	237.029	-0.421	-0.701
-415.428	-58.088	0.371	0.162
-414.413	-20.823	0.689	-0.424
-413.398	-95.214	-0.303	0.082
-412.384	69.294	-0.368	0.380
-411.369	94.824	-0.311	0.355
-410.355	800.000	0.070	-0.260
-409.340	254.777	-0.358	0.616
-408.325	-8.148	-0.418	0.283
-407.311	-200.000	0.001	0.084
-406.296	36.431	-0.340	-0.301
-405.282	-200.000	0.098	1.114
-404.267	450.773	-0.224	0.496
-403.252	-125.378	0.118	-0.018
-402.238	-200.000	0.007	0.471
-401.223	8.409	-0.152	0.114
-400.209	425.635	-0.186	0.402
-399.194	344.179	-0.527	1.038
-398.179	-200.000	0.028	1.141
-397.165	176.992	0.209	0.306
-396.150	-200.000	-0.088	-0.399
-395.136	13.539	0.028	-0.022
-394.121	-20.266	0.307	-0.190
-393.106	-175.043	-0.472	0.013
-392.092	-200.000	-0.003	-0.414
-391.077	21.244	0.120	0.098
-390.063	316.374	0.102	-0.193
-389.048	-152.421	-0.712	-0.051
-388.033	104.275	0.329	-0.388
-387.019	70.006	-0.439	0.455
-386.004	800.000	-0.192	0.564
-384.990	-144.790	-1.322	0.122
-383.975	-200.000	-0.004	0.733
-382.960	-200.000	0.014	-0.378
-381.946	136.549	-0.544	0.712
-380.931	-78.828	0.710	0.243
-379.917	505.144	-0.235	-0.545
-378.902	449.058	0.257	0.569
-377.888	-200.000	0.034	0.223
-376.873	800.000	0.178	0.574
-375.858	-111.945	0.536	0.109
-374.844	-39.212	-0.450	0.237
-373.829	124.529	0.581	0.733
-372.815	800.000	0.185	0.698
-371.800	-121.546	1.271	-0.212
-370.785	-41.507	0.513	-0.264
-369.771	181.140	0.221	0.326
-368.756	-4.767	0.321	0.222
-367.742	-200.000	0.177	1.157
-366.727	72.742	-0.399	-0.417
-365.712	800.000	0.128	0.553
-364.698	-188.062	0.782	-0.010
-363.683	630.954	0.245	0.621
-362.669	-127.353	-0.343	-0.050
-361.654	28.282	-0.598	0.507
-360.639	28.877	-0.146	-0.124
-359.625	217.877	0.532	0.850
-358.610	800.000	0.099	-0.329
-357.596	-138.290	-0.319	0.035
-356.581	257.351	0.503	0.867
-355.566	198.293	-0.518	0.794
-354.552	-200.000	0.058	-0.257
-353.537	-116.041	-0.346	-0.065
-352.523	-58.844	0.210	-0.091
-351.508	127.998	-0.630	-0.803
-350.493	637.449	0.295	0.750
-349.479	-88.144	-1.273	0.382
-348.464	-48.510	1.169	-0.563
-347.450	-140.523	0.282	-0.029
-346.435	227.062	-0.299	0.486
-345.420	-67.844	0.309	-0.121
-344.406	-119.354	-0.875	-0.152
-343.391	183.041	-0.501	-0.741
-342.377	-96.558	0.404	0.107
-341.362	-94.627	-0.567	-0.154
-340.348	800.000	-0.137	-0.450
-339.333	-108.091	-0.585	-0.127
-338.318	34.332	0.176	0.153
-337.304	-76.644	0.537	0.189
-336.289	800.000	0.187	0.735
-335.275	-98.601	0.129	0.033
-334.260	-18.919	0.515	0.321
-333.245	137.434	0.157	-0.206
-332.231	-200.000	0.017	0.139
-331.216	-200.000	-0.024	-0.453
-330.202	-44.240	-0.513	0.258
-329.187	-140.377	-0.608	0.064
-328.172	126.631	0.441	0.559
-327.158	-71.768	-0.250	0.093
-326.143	-200.000	0.111	-0.934
-325.129	238.374	0.146	-0.242
-324.114	53.732	-0.219	0.211
-323.099	105.473	-0.469	0.554
-322.085	800.000	0.173	0.580
-321.070	75.301	0.438	-0.462
-320.056	209.958	0.136	0.213
-319.041	-163.356	-0.515	-0.025
-318.026	-121.364	0.538	-0.090
-317.012	800.000	0.095	0.294
-315.997	78.305	0.594	0.635
-314.983	-81.211	0.504	-0.166
-313.968	800.000	-0.097	0.383
-312.953	501.083	0.223	-0.514
-311.939	32.278	-0.500	-0.432
-310.924	8.500	1.068	0.804
-309.910	148.189	-0.374	-0.505
-308.895	194.923	-0.411	-0.625
-307.880	-75.900	0.758	-0.268
-306.866	368.696	0.315	-0.636
-305.851	-86.806	-0.308	-0.094
-304.837	-200.000	-0.248	1.501
-303.822	-200.000	0.175	0.807
-302.807	-165.411	-0.393	-0.017
-301.793	361.296	-0.106	-0.213
-300.778	10.172	0.279	-0.212
-299.764	261.841	0.290	0.503
-298.749	-61.591	0.833	0.350
-297.735	186.054	0.505	0.751
-296.720	-192.191	-0.502	-0.005
-295.705	-113.744	-0.633	0.123
-294.691	194.558	-0.365	-0.553
-293.676	322.749	0.526	-1.003
-292.662	-131.068	-0.450	0.060
-291.647	205.468	-0.065	-0.101
-290.632	191.488	-0.271	-0.407
-289.618	-200.000	0.036	-0.222
-288.603	-3.747	-0.659	-0.457
-287.589	-49.151	-0.505	-0.242
-286.574	-154.742	0.079	-0.005
-285.559	47.178	-0.608	-0.565
-284.545	-68.754	-0.415	-0.160
-283.530	-150.541	-0.468	0.036
-282.516	-65.225	0.761	0.306
-281.501	-59.665	0.848	0.363
-280.486	-7.338	0.672	-0.455
-279.472	-66.146	0.281	0.112
-278.457	25.843	-0.156	-0.130
-277.443	-103.999	-0.860	0.200
-276.428	-82.656	0.655	0.212
-275.413	800.000	-0.131	-0.440
-274.399	50.585	0.356	-0.336
-273.384	566.426	-0.232	-0.563
-272.370	-192.242	-0.143	-0.001
-271.355	491.751	0.301	-0.689
-270.340	87.780	-0.123	0.136
-269.326	-152.875	0.279	0.020
-268.311	800.000	0.161	0.483
-267.297	-92.825	0.275	0.077
-266.282	194.661	-0.770	-1.166
-265.267	368.354	-0.203	-0.411
-264.253	-65.452	-0.694	0.278
-263.238	732.927	-0.192	0.513
-262.224	115.490	0.501	0.611
-261.209	-58.781	-0.318	0.137
-260.195	-200.000	0.049	-0.730
-259.180	-102.297	-0.502	0.120
-258.165	800.000	-0.208	-0.680
-257.151	578.564	0.298	-0.728
-256.136	-128.957	-1.119	0.157
-255.122	-173.570	0.296	0.009
-254.107	174.813	0.337	0.487
-253.092	125.173	-0.375	0.472
-252.078	21.772	0.214	-0.174
-251.063	-11.203	0.552	0.363
-250.049	-109.311	0.245	0.052
-249.034	86.203	0.455	-0.500
-248.019	-25.239	0.445	0.263
-247.005	-200.000	0.051	-0.327
-245.990	-98.001	-0.747	0.192
-244.976	113.063	-0.034	-0.041
-243.961	-169.967	-0.527	0.019
-242.946	-103.792	-0.111	0.026
-241.932	-200.000	0.006	0.566
-240.917	249.985	-0.302	0.512
-239.903	183.284	0.215	-0.317
-238.888	-55.453	0.357	-0.159
-237.873	-58.701	0.347	0.150
-236.859	58.774	0.416	0.408
-235.844	14.367	0.048	-0.038
-234.830	-200.000	-0.099	-0.820
-233.815	-9.249	0.327	-0.218
-232.800	-200.000	0.037	0.360
-231.786	86.433	0.613	-0.674
-230.771	719.354	0.114	-0.301
-229.757	-200.000	0.007	0.186
-228.742	-4.395	-0.488	0.336
-227.727	-127.255	-0.301	0.044
-226.713	-74.863	-0.306	-0.109
-225.698	800.000	-0.205	-0.570
-224.684	472.927	-0.408	-0.916
-223.669	48.752	0.250	-0.234
-222.655	17.896	0.547	0.434
-221.640	0.803	0.379	0.270
-220.625	800.000	-0.150	-0.452
-219.611	-59.561	-0.300	0.128
-218.596	262.656	-0.276	0.478
-217.582	-184.081	-0.318	0.005
-216.567	-50.357	-0.835	0.393
-215.552	518.483	0.310	0.724
-214.538	-93.597	-0.929	0.256
-213.523	551.788	-0.146	-0.348
-212.509	-200.000	0.120	-0.661
-211.494	-200.000	-0.007	0.111
-210.479	277.535	0.287	-0.508
-209.465	800.000	-0.258	0.879
-208.450	139.864	0.450	0.591
-207.436	-109.729	0.432	-0.091
-206.421	170.467	-0.253	0.361
-205.406	-200.000	0.035	0.612
-204.392	-200.000	-0.051	-0.629
-203.377	69.915	-0.145	0.149
-202.363	-162.140	-1.029	-0.051
-201.348	37.521	-0.247	0.218
-200.333	-86.505	0.359	-0.110
-199.319	-76.880	0.353	0.123
-198.304	-46.253	-0.373	-0.182
-197.290	-200.000	0.121	-1.085
-196.275	-96.147	-0.756	-0.200
-195.260	-200.000	0.009	0.732
-194.246	-194.881	-0.547	0.004
-193.231	-87.244	0.718	-0.217
-192.217	-44.035	0.583	0.291
-191.202	-61.762	0.281	0.117
-190.187	-16.152	0.663	-0.419
-189.173	800.000	-0.162	-0.445
-188.158	101.603	0.562	-0.652
-187.144	-99.481	0.239	-0.060
-186.129	-11.155	0.264	0.173
-185.114	64.681	0.361	0.363
-184.100	-85.143	-0.330	0.103
-183.085	-148.896	-0.356	-0.029
-182.071	-69.812	0.392	-0.149
-181.056	-108.887	0.455	0.097
-180.042	164.438	0.304	0.426
-179.027	-72.325	0.350	-0.129
-178.012	800.000	0.119	0.354
-176.998	-200.000	0.021	-0.544
-175.983	800.000	0.230	-0.832
-174.969	-27.709	0.204	-0.118
-173.954	-1.407	-0.921	0.647
-172.939	199.733	-0.507	-0.773
-171.925	43.150	0.455	0.413
-170.910	-85.925	0.492	0.151
-169.896	-121.807	-0.683	0.112
-168.881	-103.698	-0.491	0.114
-167.866	-82.419	-0.139	0.045
-166.852	-109.648	0.262	0.055
-165.837	-100.614	-0.228	0.056
-164.823	56.267	0.470	-0.455
-163.808	-55.030	0.444	0.199
-162.793	122.963	0.311	0.388
-161.779	800.000	0.079	-0.275
-160.764	47.644	0.104	-0.096
-159.750	-142.155	0.849	-0.084
-158.735	-98.255	-0.440	-0.112
-157.720	-200.000	0.042	0.265
-156.706	70.451	-0.390	0.401
-155.691	-161.344	-0.411	-0.021
-154.677	10.878	-0.453	-0.344
-153.662	32.242	0.171	-0.147
-152.647	49.991	0.627	-0.588
-151.633	-200.000	0.060	-0.771
-150.618	0.423	0.361	-0.256
-149.604	-71.798	-1.018	0.377
-148.589	-139.829	-0.228	0.024
-147.574	-38.130	0.712	0.375
-146.560	193.565	0.340	-0.511
-145.545	-45.557	0.178	-0.088
-144.531	357.747	-0.298	0.592
-143.516	-200.000	0.103	-0.476
-142.502	284.928	0.171	-0.306
-141.487	-106.874	-0.708	0.156
-140.472	274.315	-0.128	0.224
-139.458	-130.852	-0.842	-0.112
-138.443	27.290	0.154	0.129
-137.429	698.553	-0.164	-0.427
-136.414	-146.576	-0.755	0.065
-135.399	-81.880	0.455	0.148
-134.385	-13.472	-0.313	-0.202
-133.370	-200.000	-0.136	-0.682
-132.356	-29.201	0.447	0.255
-131.341	203.097	0.275	-0.422
-130.326	800.000	-0.191	0.691
-129.312	-24.895	-0.265	0.156
-128.297	-200.000	0.005	0.181
-127.283	-185.953	-0.129	0.002
-126.268	17.840	0.673	0.532
-125.253	-200.000	-0.103	0.741
-124.239	-85.373	-0.732	0.227
-123.224	-2.721	0.558	-0.388
-122.210	-63.261	1.097	0.449
