DTS Sentinel unit serial number:	SN413079Multiplexer serial number:	ORYXHardware model number:	OX4-SRSoftware version number:	ORYX F/W v4.00 Oryx Data Collector v3.7.2.0data status	okinstallation	princeton_trtdifferential loss correction	single-endedforward channel	channel 4reverse channel	N/Adate	2019/09/13time	14:37:35forward acquisition time	60.00reverse acquisition time	0.00gamma	496.2192k internal	0.2294k external	0.2294temperature offset calibration	1.0209default loss term (dB/km)	0.3790temperature slope calibration	1.0000multiplexer offset coefficient	1.0000multiplexer slope coefficient	1.0000fibre end	0.00T internal ref (°C)	35.36T ext. ref 1 (°C)	4.66T ext. ref 2 (°C)	32.62length (m)	temperature (°C)	Stokes	anti-Stokes-747.200	-200.000	0.002	-0.079
-746.185	3.874	0.267	0.200
-745.171	-69.603	-0.261	0.102
-744.156	131.038	-0.174	0.228
-743.142	751.993	-0.102	0.281
-742.127	221.717	-0.194	0.319
-741.112	429.818	0.129	0.285
-740.098	514.662	0.081	0.192
-739.083	-200.000	-0.034	-0.178
-738.069	177.883	0.214	0.319
-737.054	107.496	-0.084	-0.102
-736.039	-22.154	0.077	-0.048
-735.025	800.000	0.072	0.234
-734.010	-6.206	0.149	-0.104
-732.996	683.634	-0.080	0.212
-731.981	137.792	-0.104	-0.139
-730.966	-200.000	-0.004	0.371
-729.952	166.051	-0.095	-0.137
-728.937	57.802	-0.304	-0.304
-727.923	10.427	0.018	-0.014
-726.908	228.794	-0.223	0.372
-725.894	-93.400	0.142	0.040
-724.879	-200.000	0.034	0.159
-723.864	-58.155	0.139	-0.062
-722.850	-69.012	-0.315	0.124
-721.835	158.608	-0.112	-0.159
-720.821	800.000	-0.127	-0.361
-719.806	-44.711	-0.248	-0.127
-718.791	-34.205	-0.036	-0.020
-717.777	-200.000	0.002	0.181
-716.762	-30.258	0.025	-0.015
-715.748	122.723	0.164	-0.210
-714.733	-200.000	-0.079	0.377
-713.718	165.658	0.100	0.144
-712.704	114.951	-0.049	-0.061
-711.689	-99.507	-0.228	-0.058
-710.675	25.453	-0.118	0.100
-709.660	-200.000	-0.026	0.162
-708.645	-106.974	0.092	0.021
-707.631	-117.327	0.265	0.049
-706.616	-107.202	-0.084	0.019
-705.602	-36.780	-0.319	-0.175
-704.587	-84.380	0.190	-0.061
-703.572	-193.167	0.392	-0.004
-702.558	159.763	-0.205	-0.291
-701.543	-16.827	0.140	-0.090
-700.529	800.000	0.059	0.196
-699.514	166.671	-0.134	-0.194
-698.499	-200.000	0.054	-0.351
-697.485	-200.000	-0.014	-0.194
-696.470	-200.000	-0.012	0.084
-695.456	290.146	0.127	-0.236
-694.441	55.224	-0.185	-0.183
-693.426	-83.638	0.235	-0.077
-692.412	-189.590	-0.243	-0.003
-691.397	-200.000	0.008	-0.358
-690.383	147.734	0.150	-0.206
-689.368	-89.186	0.094	-0.028
-688.354	-110.118	-0.274	-0.058
-687.339	20.324	0.085	-0.070
-686.324	800.000	-0.038	-0.121
-685.310	800.000	0.060	0.225
-684.295	-107.433	0.055	-0.012
-683.281	800.000	-0.088	0.303
-682.266	-116.367	-0.263	0.050
-681.251	-13.805	-0.139	0.092
-680.237	-200.000	0.064	0.352
-679.222	125.094	-0.254	-0.326
-678.208	800.000	-0.066	-0.266
-677.193	-200.000	0.006	-0.060
-676.178	66.817	0.330	0.342
-675.164	-200.000	-0.043	-0.395
-674.149	719.399	0.045	-0.121
-673.135	-200.000	-0.006	0.157
-672.120	-67.597	-0.012	0.005
-671.105	22.158	-0.043	-0.036
-670.091	-200.000	0.016	0.203
-669.076	800.000	-0.088	-0.260
-668.062	17.550	-0.296	0.240
-667.047	-32.649	0.171	-0.097
-666.032	295.737	0.042	-0.079
-665.018	800.000	0.054	-0.162
-664.003	26.890	-0.119	0.102
-662.989	-121.220	0.066	-0.011
-661.974	-177.118	0.363	-0.009
-660.959	-200.000	0.022	0.187
-659.945	-22.038	0.185	-0.114
-658.930	162.825	0.158	-0.226
-657.916	-115.077	-0.172	0.033
-656.901	-108.535	0.089	0.019
-655.886	-119.812	-0.384	-0.067
-654.872	-200.000	-0.025	-0.136
-653.857	86.481	-0.127	0.143
-652.843	-200.000	-0.016	-0.147
-651.828	-103.861	-0.062	0.015
-650.814	800.000	-0.138	0.451
-649.799	179.193	0.044	0.066
-648.784	800.000	0.047	0.148
-647.770	95.948	-0.093	-0.108
-646.755	402.114	-0.096	-0.205
-645.741	-79.473	0.317	0.109
-644.726	-165.577	-0.255	0.011
-643.711	181.520	-0.055	0.082
-642.697	-195.315	-0.178	0.001
-641.682	-30.461	-0.169	0.098
-640.668	-18.316	-0.107	0.068
-639.653	-143.872	-0.249	-0.024
-638.638	-200.000	0.013	-0.121
-637.624	-44.311	-0.302	0.154
-636.609	-200.000	0.009	0.091
-635.595	75.867	0.155	0.167
-634.580	-108.441	0.280	0.061
-633.565	-33.583	-0.168	0.094
-632.551	-147.450	0.181	-0.016
-631.536	-42.733	0.127	0.066
-630.522	-6.349	-0.086	-0.060
-629.507	800.000	-0.030	-0.131
-628.492	94.787	0.067	-0.078
-627.478	-188.952	-0.196	-0.002
-626.463	-165.911	0.183	-0.008
-625.449	426.118	0.078	-0.170
-624.434	-122.649	0.082	0.014
-623.419	246.360	-0.081	-0.139
-622.405	25.146	-0.184	0.156
-621.390	-29.856	0.044	0.025
-620.376	-16.181	-0.088	0.057
-619.361	564.344	-0.083	0.205
-618.346	-56.118	0.136	0.062
-617.332	178.064	-0.167	0.247
-616.317	122.364	0.113	0.143
-615.303	469.099	-0.113	0.259
-614.288	14.838	-0.063	-0.050
-613.273	-98.399	0.317	0.082
-612.259	800.000	0.059	-0.170
-611.244	-81.251	-0.203	-0.068
-610.230	-200.000	-0.029	-0.203
-609.215	61.757	-0.213	-0.216
-608.201	6.798	0.048	0.037
-607.186	-200.000	0.055	-0.296
-606.171	-104.527	0.032	-0.007
-605.157	-200.000	0.105	0.509
-604.142	-50.168	-0.431	0.207
-603.128	722.917	-0.159	-0.430
-602.113	-107.664	0.138	-0.031
-601.098	-116.301	0.386	-0.073
-600.084	-0.161	-0.112	0.081
-599.069	-151.508	-0.238	0.018
-598.055	-200.000	-0.006	-0.143
-597.040	-10.579	0.016	0.010
-596.025	-106.407	0.028	0.006
-595.011	248.816	-0.090	0.155
-593.996	-200.000	-0.026	0.327
-592.982	-200.000	-0.055	-0.260
-591.967	-23.054	0.222	0.136
-590.952	651.417	0.064	-0.168
-589.938	800.000	0.036	-0.161
-588.923	-60.439	0.224	-0.097
-587.909	-200.000	0.026	-0.213
-586.894	-200.000	0.000	-0.027
-585.879	-18.146	0.079	-0.050
-584.865	-65.866	0.277	0.113
-583.850	29.976	0.140	-0.122
-582.836	780.320	-0.163	0.453
-581.821	-76.794	0.291	-0.104
-580.806	-143.468	0.211	0.020
-579.792	-47.979	-0.210	0.103
-578.777	-85.660	-0.106	-0.033
-577.763	37.940	0.183	0.165
-576.748	800.000	-0.130	0.537
-575.733	269.314	-0.107	-0.191
-574.719	-200.000	0.001	-0.264
-573.704	-68.435	0.113	0.045
-572.690	-39.998	-0.301	-0.159
-571.675	-200.000	0.008	-0.259
-570.661	-140.957	-0.054	0.006
-569.646	70.280	0.153	0.161
-568.631	-80.731	-0.222	-0.075
-567.617	-43.590	-0.281	0.144
-566.602	-62.253	-0.234	0.099
-565.588	-200.000	-0.042	0.191
-564.573	-53.863	0.033	0.015
-563.558	72.541	-0.191	0.202
-562.544	177.976	0.134	-0.199
-561.529	-200.000	0.013	-0.115
-560.515	-200.000	-0.006	0.105
-559.500	-200.000	0.010	0.097
-558.485	-107.104	0.096	0.021
-557.471	-200.000	0.018	-0.224
-556.456	-78.964	-0.332	-0.115
-555.442	118.315	-0.086	-0.108
-554.427	-115.599	0.084	0.016
-553.412	-138.876	-0.136	-0.015
-552.398	-74.288	-0.089	0.033
-551.383	-142.901	0.392	-0.039
-550.369	233.082	0.039	-0.065
-549.354	-200.000	-0.013	0.179
-548.339	-200.000	-0.050	-0.225
-547.325	800.000	-0.042	-0.160
-546.310	-27.826	0.200	-0.118
-545.296	-165.408	-0.094	0.004
-544.281	-200.000	0.066	-0.347
-543.266	-91.593	-0.426	-0.123
-542.252	800.000	0.083	0.250
-541.237	-149.135	-0.276	0.022
-540.223	-139.268	-0.311	0.034
-539.208	800.000	-0.053	0.231
-538.193	99.795	0.052	-0.061
-537.179	-134.512	-0.230	0.029
-536.164	-41.277	0.408	0.213
-535.150	-200.000	-0.013	-0.292
-534.135	-200.000	0.008	-0.045
-533.121	-15.718	0.172	-0.111
-532.106	60.696	0.227	0.228
-531.091	800.000	0.119	0.460
-530.077	17.895	-0.125	0.101
-529.062	-24.252	0.149	-0.090
-528.048	-157.606	0.287	-0.017
-527.033	16.578	0.092	-0.074
-526.018	453.173	-0.095	0.212
-525.004	-34.827	-0.120	0.066
-523.989	-200.000	0.009	-0.363
-522.975	324.084	0.020	-0.039
-521.960	120.278	-0.255	0.321
-520.945	-60.196	0.090	0.039
-519.931	43.068	-0.180	-0.167
-518.916	-200.000	-0.007	-0.046
-517.902	800.000	0.061	0.244
-516.887	-24.856	-0.090	-0.054
-515.872	656.361	-0.089	-0.231
-514.858	-200.000	-0.018	0.204
-513.843	-200.000	0.013	-0.291
-512.829	800.000	0.127	-0.500
-511.814	299.601	-0.140	-0.261
-510.799	99.840	0.070	-0.082
-509.785	422.650	0.081	-0.177
-508.770	149.844	0.218	0.300
-507.756	-200.000	-0.024	0.238
-506.741	-86.425	-0.093	0.029
-505.726	188.873	0.042	-0.064
-504.712	11.761	-0.112	-0.087
-503.697	-116.082	-0.304	-0.057
-502.683	-105.235	-0.135	-0.031
-501.668	-147.731	0.433	0.037
-500.653	561.389	-0.068	-0.167
-499.639	107.925	-0.182	0.219
-498.624	794.633	0.079	-0.219
-497.610	210.001	0.182	0.290
-496.595	-126.547	0.079	-0.012
-495.581	-34.850	0.174	-0.096
-494.566	148.512	0.075	-0.103
-493.551	-69.748	-0.113	0.044
-492.537	62.899	-0.117	0.119
-491.522	-88.032	0.061	-0.019
-490.508	217.651	-0.101	0.163
-489.493	-96.606	-0.284	0.076
-488.478	800.000	0.065	0.270
-487.464	70.251	-0.058	0.061
-486.449	-200.000	0.034	0.190
-485.435	-200.000	-0.009	-0.387
-484.420	-84.456	-0.105	-0.034
-483.405	15.140	-0.092	-0.073
-482.391	-200.000	0.036	0.246
-481.376	41.884	0.105	0.097
-480.362	-81.348	-0.385	-0.128
-479.347	497.878	0.078	-0.182
-478.332	800.000	0.013	-0.041
-477.318	187.087	-0.122	0.184
-476.303	-100.625	-0.235	0.059
-475.289	-45.453	0.221	-0.111
-474.274	184.927	0.014	0.020
-473.259	-123.615	-0.162	-0.026
-472.245	-42.958	-0.167	-0.086
-471.230	-177.868	-0.219	0.005
-470.216	-64.245	0.171	0.070
-469.201	-87.845	0.108	0.033
-468.186	800.000	0.011	-0.032
-467.172	-130.833	0.328	0.044
-466.157	381.900	0.083	0.172
-465.143	344.474	0.123	-0.243
-464.128	-200.000	-0.004	0.046
-463.113	226.987	0.151	0.248
-462.099	-4.513	-0.297	-0.208
-461.084	65.000	-0.284	0.290
-460.070	-14.579	-0.153	0.099
-459.055	-172.041	0.507	0.017
-458.040	27.507	-0.193	0.164
-457.026	-200.000	0.044	0.248
-456.011	800.000	0.020	-0.061
-454.997	72.473	0.080	-0.085
-453.982	517.815	0.133	-0.314
-452.968	-41.145	0.049	-0.026
-451.953	-200.000	-0.015	0.070
-450.938	-200.000	0.010	-0.319
-449.924	-130.965	-0.102	-0.014
-448.909	168.623	-0.061	-0.088
-447.895	-200.000	-0.055	-0.364
-446.880	75.711	-0.133	0.142
-445.865	-200.000	-0.026	-0.399
-444.851	-200.000	-0.015	-0.086
-443.836	-200.000	0.006	-0.165
-442.822	-200.000	0.027	-0.241
-441.807	-69.693	0.152	0.059
-440.792	800.000	-0.018	0.069
-439.778	800.000	-0.104	0.417
-438.763	-75.040	-0.256	0.092
-437.749	-160.203	-0.298	-0.016
-436.734	136.737	-0.075	0.099
-435.719	294.502	0.029	0.053
-434.705	258.605	-0.123	0.214
-433.690	800.000	-0.054	-0.239
-432.676	-200.000	-0.008	0.109
-431.661	-141.286	-0.182	0.019
-430.646	-200.000	0.022	-0.170
-429.632	-150.691	0.164	-0.013
-428.617	-21.135	0.218	-0.135
-427.603	100.647	0.181	0.213
-426.588	-110.267	0.117	0.025
-425.573	-107.846	0.238	-0.052
-424.559	800.000	0.063	0.210
-423.544	800.000	0.043	-0.163
-422.530	-12.565	0.216	0.143
-421.515	-35.833	-0.084	0.046
-420.500	134.765	-0.160	0.210
-419.486	-200.000	0.021	0.117
-418.471	-200.000	0.104	-0.000
-417.457	63.826	-0.221	0.225
-416.442	-43.263	0.489	0.250
-415.428	800.000	0.028	0.114
-414.413	167.054	-0.088	-0.127
-413.398	1.166	0.168	-0.122
-412.384	-21.176	0.155	0.096
-411.369	4.493	0.133	0.099
-410.355	-163.164	0.372	0.018
-409.340	161.168	-0.165	-0.233
-408.325	-200.000	-0.047	-0.359
-407.311	-97.591	0.123	0.032
-406.296	800.000	0.052	-0.156
-405.282	800.000	-0.108	0.321
-404.267	-104.752	0.208	-0.048
-403.252	-200.000	0.028	0.174
-402.238	-47.220	-0.047	-0.023
-401.223	249.634	0.109	-0.187
-400.209	57.915	0.080	-0.079
-399.194	47.114	-0.096	0.090
-398.179	-200.000	-0.084	-0.478
-397.165	-71.158	0.104	0.040
-396.150	182.156	-0.220	-0.327
-395.136	523.658	0.063	0.149
-394.121	2.160	-0.155	-0.113
-393.106	19.625	0.262	-0.213
-392.092	-35.330	-0.390	-0.214
-391.077	-141.862	-0.344	0.035
-390.063	238.542	-0.132	-0.222
-389.048	-122.393	0.211	0.035
-388.033	405.875	-0.081	-0.172
-387.019	202.288	0.063	-0.099
-386.004	297.466	-0.053	-0.097
-384.990	-200.000	-0.013	-0.285
-383.975	-161.874	0.082	-0.004
-382.960	-103.220	-0.164	-0.039
-381.946	-86.481	-0.417	-0.129
-380.931	-15.610	-0.060	-0.039
-379.917	-200.000	-0.013	-0.106
-378.902	97.055	0.191	-0.221
-377.888	28.645	0.205	0.175
-376.873	-138.112	-0.290	-0.032
-375.858	10.936	0.078	0.060
-374.844	-85.742	0.103	0.032
-373.829	522.840	0.101	0.240
-372.815	-129.754	0.228	0.032
-371.800	-200.000	0.041	-0.212
-370.785	452.929	0.073	0.162
-369.771	233.379	-0.111	0.183
-368.756	-48.180	-0.242	0.118
-367.742	800.000	0.093	0.268
-366.727	-84.965	0.428	0.135
-365.712	800.000	-0.043	-0.140
-364.698	3.781	-0.119	-0.088
-363.683	-3.226	-0.092	-0.065
-362.669	90.558	0.093	-0.105
-361.654	-200.000	0.002	0.209
-360.639	32.995	0.195	0.170
-359.625	-93.152	0.185	0.052
-358.610	457.189	-0.049	-0.109
-357.596	54.191	-0.044	0.043
-356.581	-34.374	-0.112	0.062
-355.566	238.191	0.189	-0.316
-354.552	-115.401	-0.221	-0.042
-353.537	-136.406	-0.174	-0.020
-352.523	369.669	0.081	-0.165
-351.508	145.136	0.200	0.270
-350.493	22.474	-0.063	0.052
-349.479	-200.000	-0.036	-0.161
-348.464	124.688	-0.093	0.118
-347.450	138.761	0.170	-0.225
-346.435	800.000	0.044	0.143
-345.420	732.095	0.062	-0.166
-344.406	-200.000	0.006	0.095
-343.391	-200.000	-0.007	-0.070
-342.377	287.619	0.045	-0.083
-341.362	-92.797	-0.056	-0.016
-340.348	10.784	-0.327	0.251
-339.333	780.291	-0.093	0.255
-338.318	16.864	-0.118	-0.094
-337.304	-157.775	-0.135	-0.008
-336.289	-68.288	-0.070	0.027
-335.275	313.155	-0.101	0.191
-334.260	800.000	-0.036	-0.132
-333.245	48.285	-0.218	-0.205
-332.231	-100.738	0.017	0.004
-331.216	-2.647	0.121	0.085
-330.202	-200.000	0.036	-0.194
-329.187	800.000	0.006	-0.018
-328.172	-25.865	-0.173	0.102
-327.158	-28.735	0.184	-0.107
-326.143	-78.982	0.122	0.042
-325.129	-67.103	0.132	0.053
-324.114	-115.456	0.149	0.028
-323.099	97.011	-0.187	0.215
-322.085	-85.098	0.239	0.075
-321.070	-23.416	0.321	-0.194
-320.056	-6.238	0.286	-0.196
-319.041	800.000	0.073	0.204
-318.026	677.671	-0.052	0.136
-317.012	-200.000	-0.007	0.210
-315.997	-114.580	0.204	-0.039
-314.983	83.026	0.102	-0.111
-313.968	-3.745	0.252	-0.176
-312.953	800.000	0.052	0.152
-311.939	-200.000	0.004	0.048
-310.924	327.788	-0.088	0.169
-309.910	73.109	-0.188	-0.197
-308.895	-62.621	0.104	-0.044
-307.880	-65.698	0.159	0.064
-306.866	-27.182	-0.051	-0.030
-305.851	583.013	0.077	0.191
-304.837	370.623	-0.167	0.339
-303.822	800.000	-0.066	0.227
-302.807	147.853	0.150	-0.204
-301.793	-55.028	-0.278	0.126
-300.778	-200.000	0.023	0.162
-299.764	-96.198	-0.129	0.034
-298.749	126.477	-0.043	0.055
-297.735	-200.000	-0.003	-0.024
-296.720	-200.000	0.049	-0.425
-295.705	-114.732	0.237	-0.046
-294.691	800.000	-0.080	-0.264
-293.676	-200.000	-0.005	-0.249
-292.662	-200.000	-0.018	-0.334
-291.647	-39.223	-0.127	-0.067
-290.632	30.386	-0.246	-0.211
-289.618	774.296	0.138	-0.378
-288.603	411.946	0.054	0.116
-287.589	-200.000	-0.007	0.068
-286.574	3.555	-0.381	-0.279
-285.559	-200.000	-0.003	0.021
-284.545	-22.357	-0.102	0.062
-283.530	217.291	0.164	0.262
-282.516	680.750	-0.044	0.116
-281.501	242.242	0.132	0.223
-280.486	197.747	0.064	0.098
-279.472	-132.743	0.112	0.014
-278.457	233.185	-0.077	0.127
-277.443	71.144	-0.169	0.175
-276.428	40.737	-0.236	-0.214
-275.413	-55.253	-0.061	-0.027
-274.399	-200.000	0.105	0.517
-273.384	36.503	0.255	-0.226
-272.370	-32.071	0.089	-0.050
-271.355	-101.447	-0.334	0.082
-270.340	277.421	-0.120	-0.215
-269.326	17.417	0.177	0.141
-268.311	56.221	0.152	-0.148
-267.297	-126.614	-0.348	0.052
-266.282	138.086	0.185	0.243
-265.267	-29.078	-0.230	0.132
-264.253	800.000	0.116	0.424
-263.238	69.728	0.086	0.089
-262.224	-174.946	0.263	0.007
-261.209	-123.531	-0.246	-0.039
-260.195	50.449	0.088	0.083
-259.180	55.373	0.158	0.154
-258.165	-119.645	0.218	-0.038
-257.151	800.000	0.032	0.102
-256.136	186.514	0.187	-0.279
-255.122	-200.000	-0.017	-0.298
-254.107	-163.779	-0.242	0.011
-253.092	-200.000	0.036	-0.209
-252.078	-136.719	-0.096	0.011
-251.063	-133.491	0.303	-0.038
-250.049	181.629	0.235	0.347
-249.034	-7.088	0.123	0.084
-248.019	-200.000	0.083	-0.406
-247.005	800.000	0.087	-0.278
-245.990	163.881	-0.016	0.023
-244.976	-13.461	0.313	-0.203
-243.961	800.000	0.006	-0.021
-242.946	-33.451	0.314	-0.174
-241.932	-200.000	-0.018	0.165
-240.917	183.291	0.108	-0.159
-239.903	127.498	0.088	0.112
-238.888	800.000	-0.094	-0.297
-237.873	-200.000	-0.024	0.197
-236.859	85.613	-0.143	0.157
-235.844	-91.259	0.197	-0.056
-234.830	-97.231	-0.179	0.047
-233.815	-49.079	0.213	0.102
-232.800	435.164	-0.047	-0.102
-231.786	-95.688	-0.319	0.085
-230.771	-74.733	0.124	0.045
-229.757	-47.241	0.230	-0.112
-228.742	-101.832	-0.393	-0.095
-227.727	306.249	0.095	0.177
-226.713	-161.401	0.344	0.018
-225.698	44.649	-0.272	0.250
-224.684	170.136	0.085	-0.122
-223.669	44.672	-0.133	-0.123
-222.655	-200.000	0.020	-0.185
-221.640	-87.138	-0.297	0.090
-220.625	118.440	0.089	-0.110
-219.611	-200.000	-0.013	-0.085
-218.596	800.000	0.044	-0.157
-217.582	800.000	0.088	-0.263
-216.567	-200.000	0.067	0.307
-215.552	-200.000	0.009	-0.057
-214.538	-26.480	0.312	-0.183
-213.523	800.000	-0.169	-0.505
-212.509	67.346	0.271	0.277
-211.494	-200.000	0.001	0.148
-210.479	-123.100	0.148	0.024
-209.465	522.837	-0.073	0.172
-208.450	-200.000	0.084	-0.369
-207.436	401.244	-0.114	-0.240
-206.421	-11.510	-0.125	0.082
-205.406	449.342	-0.134	0.295
-204.392	-188.679	-0.155	-0.002
-203.377	-92.028	-0.035	-0.010
-202.363	98.362	0.090	-0.104
-201.348	-167.419	-0.051	0.002
-200.333	-87.608	0.148	-0.045
-199.319	414.747	0.039	0.083
-198.304	-200.000	-0.021	0.117
-197.290	-136.023	-0.052	-0.006
-196.275	56.757	-0.056	-0.055
-195.260	-117.135	0.347	0.063
-194.246	-200.000	0.001	-0.028
-193.231	800.000	-0.070	0.215
-192.217	-164.941	-0.047	0.002
-191.202	-189.486	0.099	0.001
-190.187	-66.265	-0.221	0.088
-189.173	-126.317	-0.079	0.012
-188.158	-200.000	0.047	0.217
-187.144	-7.773	0.164	0.111
-186.129	-52.012	-0.233	0.108
-185.114	73.971	-0.073	-0.077
-184.100	-58.388	-0.230	0.100
-183.085	-91.899	-0.030	-0.009
-182.071	-200.000	-0.005	-0.132
-181.056	800.000	0.045	-0.129
-180.042	-147.832	-0.428	-0.036
-179.027	-38.931	0.462	-0.243
-178.012	-200.000	-0.025	0.237
-176.998	77.696	0.164	-0.175
-175.983	800.000	0.083	-0.292
-174.969	-200.000	0.008	-0.111
-173.954	-200.000	-0.021	0.166
-172.939	708.311	-0.057	0.151
-171.925	-100.469	-0.121	0.030
-170.910	214.072	0.155	-0.245
-169.896	-4.691	0.325	0.224
-168.881	-139.132	-0.236	0.025
-167.866	56.201	-0.079	0.077
-166.852	-166.036	-0.187	0.008
-165.837	-200.000	-0.013	-0.209
-164.823	3.140	-0.421	0.306
-163.808	258.322	-0.047	0.081
-162.793	-78.362	-0.022	0.008
-161.779	800.000	-0.083	0.345
-160.764	37.039	-0.202	0.178
-159.750	386.553	0.050	0.102
-158.735	-200.000	-0.004	0.452
-157.720	110.094	-0.078	-0.094
-156.706	-88.558	0.135	-0.040
-155.691	470.374	-0.080	0.179
-154.677	34.369	0.148	-0.129
-153.662	-7.207	0.153	0.104
-152.647	-200.000	-0.014	-0.068
-151.633	142.060	0.058	-0.077
-150.618	13.009	0.303	-0.234
-149.604	109.105	0.375	0.448
-148.589	-200.000	-0.024	0.175
-147.574	800.000	-0.047	0.163
-146.560	77.397	0.122	0.130
-145.545	800.000	0.036	0.121
-144.531	22.507	0.119	-0.097
-143.516	301.582	-0.060	-0.111
-142.502	12.492	-0.135	-0.104
-141.487	-172.243	-0.060	-0.002
-140.472	172.457	-0.182	0.262
-139.458	311.156	0.045	-0.084
-138.443	-200.000	-0.017	0.426
-137.429	-163.413	-0.238	0.011
-136.414	189.802	0.129	0.194
-135.399	-14.334	-0.205	-0.132
-134.385	377.784	-0.119	0.243
-133.370	95.312	0.283	-0.322
-132.356	-165.832	0.295	-0.013
-131.341	-169.398	-0.154	-0.006
-130.326	800.000	-0.019	-0.077
-129.312	-200.000	0.033	-0.312
-128.297	-51.266	0.137	-0.064
-127.283	-89.334	0.083	-0.024
-126.268	-43.740	-0.041	0.021
-125.253	-45.086	-0.277	0.137
-124.239	800.000	-0.040	0.169
-123.224	-119.884	0.094	-0.016
-122.210	58.881	0.143	0.141
