DTS Sentinel unit serial number:	SN413079Multiplexer serial number:	ORYXHardware model number:	OX4-SRSoftware version number:	ORYX F/W v4.00 Oryx Data Collector v3.7.2.0data status	okinstallation	princeton_trtdifferential loss correction	single-endedforward channel	channel 4reverse channel	N/Adate	2019/09/16time	01:21:35forward acquisition time	60.00reverse acquisition time	0.00gamma	496.2192k internal	0.2323k external	0.2323temperature offset calibration	0.9969default loss term (dB/km)	0.3790temperature slope calibration	1.0000multiplexer offset coefficient	1.0000multiplexer slope coefficient	1.0000fibre end	0.00T internal ref (°C)	27.25T ext. ref 1 (°C)	9.86T ext. ref 2 (°C)	21.88length (m)	temperature (°C)	Stokes	anti-Stokes-747.200	-45.400	-0.140	-0.070
-746.185	800.000	-0.172	0.685
-745.171	242.492	0.164	0.278
-744.156	29.517	-0.470	0.404
-743.142	-200.000	-0.015	0.172
-742.127	345.081	0.100	-0.199
-741.112	-25.488	0.412	-0.246
-740.098	126.248	-0.276	0.353
-739.083	800.000	0.053	-0.194
-738.069	800.000	0.099	0.336
-737.054	-63.687	0.100	0.041
-736.039	-76.178	-0.307	-0.109
-735.025	10.657	-0.294	0.227
-734.010	-171.443	-0.162	0.005
-732.996	79.928	-0.252	-0.274
-731.981	28.447	-0.155	-0.132
-730.966	45.202	0.178	-0.165
-729.952	800.000	-0.103	-0.394
-728.937	6.070	0.370	0.277
-727.923	-93.379	-0.113	-0.032
-726.908	-96.243	-0.325	-0.087
-725.894	-65.032	-0.225	-0.092
-724.879	147.373	0.251	-0.341
-723.864	-200.000	0.022	0.224
-722.850	-200.000	-0.021	-0.147
-721.835	70.657	-0.163	0.170
-720.821	-56.957	0.146	0.065
-719.806	800.000	-0.067	0.250
-718.791	34.839	-0.245	-0.216
-717.777	-65.551	-0.358	-0.145
-716.762	-200.000	-0.020	-0.184
-715.748	-100.611	0.235	0.059
-714.733	24.420	0.089	0.074
-713.718	163.850	-0.106	0.150
-712.704	243.415	-0.108	-0.183
-711.689	-37.053	0.189	0.102
-710.675	-200.000	-0.056	0.258
-709.660	-189.608	0.304	0.004
-708.645	-69.556	0.260	0.101
-707.631	-88.068	-0.043	-0.013
-706.616	22.897	0.332	-0.275
-705.602	-200.000	0.002	0.261
-704.587	-35.424	0.045	0.025
-703.572	-149.242	0.133	-0.011
-702.558	-135.764	0.095	0.011
-701.543	-17.409	0.189	0.120
-700.529	64.952	-0.114	0.116
-699.514	96.371	0.014	0.016
-698.499	-124.055	-0.198	0.031
-697.485	-135.788	0.146	-0.017
-696.470	-172.443	0.230	0.007
-695.456	339.256	-0.074	0.144
-694.441	-149.334	-0.112	0.009
-693.426	-21.593	0.271	-0.167
-692.412	-51.958	0.108	0.051
-691.397	151.283	-0.029	0.040
-690.383	185.252	0.063	-0.094
-689.368	-200.000	-0.021	-0.253
-688.354	-152.673	-0.288	0.021
-687.339	42.083	0.071	0.065
-686.324	82.574	-0.059	-0.065
-685.310	800.000	0.050	0.188
-684.295	762.650	0.078	0.213
-683.281	-101.808	0.202	0.049
-682.266	-74.005	0.390	0.142
-681.251	55.390	-0.154	-0.150
-680.237	800.000	-0.089	-0.255
-679.222	1.985	-0.213	0.155
-678.208	-71.995	0.244	-0.091
-677.193	280.738	0.152	0.273
-676.178	107.605	0.151	0.181
-675.164	30.483	-0.342	-0.294
-674.149	40.302	-0.187	0.169
-673.135	-94.137	-0.053	-0.015
-672.120	-200.000	-0.012	-0.342
-671.105	52.305	-0.050	0.048
-670.091	800.000	-0.078	-0.223
-669.076	800.000	-0.120	-0.344
-668.062	-200.000	0.016	0.103
-667.047	-200.000	0.073	0.447
-666.032	-200.000	-0.021	-0.310
-665.018	-96.172	-0.288	-0.077
-664.003	74.590	-0.210	-0.222
-662.989	-25.247	0.139	-0.083
-661.974	47.222	0.160	0.150
-660.959	800.000	0.052	-0.196
-659.945	25.412	-0.295	0.247
-658.930	-90.668	0.131	0.038
-657.916	379.801	-0.044	-0.092
-656.901	-61.116	0.057	0.024
-655.886	-66.255	0.188	-0.075
-654.872	-105.440	-0.196	0.045
-653.857	197.116	-0.131	-0.201
-652.843	163.583	-0.145	-0.206
-651.828	-162.728	0.150	0.007
-650.814	45.154	0.106	0.099
-649.799	216.886	0.150	-0.241
-648.784	-78.586	-0.313	0.108
-647.770	4.394	0.273	0.202
-646.755	-200.000	0.174	-0.000
-645.741	374.946	-0.047	-0.096
-644.726	800.000	-0.076	-0.235
-643.711	151.876	0.056	0.076
-642.697	344.389	0.162	0.319
-641.682	10.303	-0.131	-0.100
-640.668	-80.624	-0.267	-0.089
-639.653	31.100	0.129	-0.111
-638.638	-94.060	-0.140	0.039
-637.624	-200.000	-0.074	-0.344
-636.609	71.144	0.119	-0.124
-635.595	-200.000	0.013	0.165
-634.580	-200.000	0.036	-0.175
-633.565	-46.440	-0.145	0.072
-632.551	390.360	-0.139	0.289
-631.536	-200.000	0.030	0.179
-630.522	44.228	0.082	-0.075
-629.507	424.819	0.153	-0.332
-628.492	-4.127	-0.129	0.090
-627.478	-200.000	-0.000	-0.091
-626.463	-108.953	-0.187	-0.040
-625.449	-56.462	-0.075	-0.033
-624.434	-138.986	-0.213	0.023
-623.419	-61.935	0.072	-0.030
-622.405	-28.389	-0.237	-0.138
-621.390	800.000	-0.078	0.226
-620.376	-6.919	0.188	0.128
-619.361	-32.701	0.214	-0.120
-618.346	-51.442	-0.266	-0.125
-617.332	489.103	0.130	-0.298
-616.317	38.442	0.119	0.107
-615.303	463.512	-0.064	-0.144
-614.288	-63.482	0.339	-0.140
-613.273	-44.193	0.167	-0.084
-612.259	-170.564	-0.238	-0.008
-611.244	64.531	-0.191	-0.194
-610.230	469.010	0.042	-0.095
-609.215	137.865	0.143	-0.189
-608.201	0.202	-0.243	0.174
-607.186	229.224	-0.324	-0.530
-606.171	-98.496	0.107	-0.027
-605.157	195.217	-0.197	0.300
-604.142	-200.000	0.076	-0.448
-603.128	37.697	0.213	0.190
-602.113	-115.536	-0.032	0.006
-601.098	-26.040	-0.304	0.180
-600.084	800.000	-0.106	0.305
-599.069	-200.000	-0.005	0.081
-598.055	800.000	-0.059	-0.171
-597.040	800.000	0.028	-0.089
-596.025	-200.000	-0.032	0.513
-595.011	-200.000	0.023	0.247
-593.996	800.000	0.127	0.384
-592.982	43.345	-0.087	-0.080
-591.967	-138.152	-0.323	0.036
-590.952	-9.263	-0.192	0.129
-589.938	-200.000	-0.000	-0.159
-588.923	56.808	-0.345	0.338
-587.909	-75.041	0.231	0.083
-586.894	-200.000	-0.223	0.001
-585.879	-73.438	-0.193	-0.071
-584.865	-24.962	-0.454	0.270
-583.850	-68.726	0.208	-0.081
-582.836	-200.000	-0.029	0.178
-581.821	96.827	0.111	0.127
-580.806	-101.263	-0.342	0.084
-579.792	-133.976	0.176	0.022
-578.777	505.181	-0.050	-0.117
-577.763	151.447	-0.144	-0.197
-576.748	-131.714	-0.263	-0.035
-575.733	-21.224	0.386	-0.237
-574.719	-160.186	0.491	-0.027
-573.704	101.341	0.145	-0.169
-572.690	-42.387	-0.248	-0.127
-571.675	-70.578	0.122	0.046
-570.661	25.678	0.372	-0.311
-569.646	399.893	-0.070	0.147
-568.631	-113.118	0.305	-0.060
-567.617	-161.130	-0.199	-0.010
-566.602	-101.786	0.085	0.021
-565.588	-200.000	-0.049	0.232
-564.573	55.397	-0.045	0.044
-563.558	-87.729	-0.011	-0.003
-562.544	-84.266	-0.094	-0.030
-561.529	10.101	-0.197	0.150
-560.515	-186.758	0.234	-0.003
-559.500	249.549	-0.138	-0.235
-558.485	169.744	-0.083	0.118
-557.471	389.965	0.057	0.119
-556.456	-200.000	-0.001	0.098
-555.442	18.011	-0.124	0.099
-554.427	-12.140	0.116	0.076
-553.412	-36.643	-0.080	-0.043
-552.398	-49.107	-0.196	-0.094
-551.383	-72.208	-0.305	0.114
-550.369	-200.000	-0.062	0.302
-549.354	556.235	0.013	-0.032
-548.339	369.792	-0.126	0.255
-547.325	-146.720	-0.346	-0.030
-546.310	800.000	-0.081	-0.266
-545.296	-200.000	0.043	-0.313
-544.281	69.996	0.104	-0.108
-543.266	143.113	0.107	-0.143
-542.252	-200.000	0.023	0.311
-541.237	-139.657	0.329	0.035
-540.223	474.642	0.141	0.320
-539.208	-15.707	-0.167	0.107
-538.193	62.369	-0.204	-0.204
-537.179	112.019	0.083	-0.100
-536.164	35.706	-0.195	-0.172
-535.150	-113.953	0.326	0.063
-534.135	197.946	-0.123	0.189
-533.121	359.532	-0.016	0.033
-532.106	-123.901	-0.314	0.050
-531.091	800.000	0.059	-0.185
-530.077	-162.418	0.051	-0.003
-529.062	800.000	-0.088	0.251
-528.048	-33.226	0.163	-0.090
-527.033	-57.552	0.366	0.161
-526.018	31.501	0.094	-0.081
-525.004	-200.000	-0.021	-0.154
-523.989	648.652	0.252	-0.645
-522.975	-200.000	-0.025	-0.127
-521.960	156.048	-0.095	0.132
-520.945	511.276	0.086	-0.200
-519.931	-69.839	-0.083	-0.032
-518.916	259.490	-0.070	0.120
-517.902	738.920	-0.025	-0.067
-516.887	-200.000	0.007	-0.395
-515.872	42.097	0.144	0.131
-514.858	564.596	-0.066	-0.159
-513.843	-142.473	0.181	-0.018
-512.829	-115.593	0.279	0.052
-511.814	-79.179	-0.294	0.100
-510.799	-200.000	-0.019	-0.351
-509.785	8.259	0.442	-0.332
-508.770	36.848	0.112	0.099
-507.756	800.000	0.101	-0.381
-506.741	-95.110	0.136	-0.037
-505.726	-68.288	-0.677	0.263
-504.712	-79.200	-0.205	0.069
-503.697	402.216	0.157	-0.330
-502.683	800.000	-0.030	0.130
-501.668	96.000	-0.008	-0.009
-500.653	800.000	0.049	-0.186
-499.639	-6.717	-0.093	-0.063
-498.624	50.391	-0.109	-0.103
-497.610	-146.396	-0.206	0.018
-496.595	-200.000	-0.007	-0.034
-495.581	-155.458	0.205	-0.013
-494.566	800.000	-0.089	0.255
-493.551	-200.000	-0.021	0.250
-492.537	800.000	-0.115	0.341
-491.522	106.404	0.219	0.259
-490.508	8.268	0.134	0.100
-489.493	123.657	0.153	0.192
-488.478	17.226	-0.117	-0.093
-487.464	290.513	0.105	0.191
-486.449	-39.661	0.213	-0.111
-485.435	-200.000	-0.019	0.201
-484.420	800.000	0.076	-0.266
-483.405	27.099	0.229	-0.192
-482.391	-200.000	-0.002	0.131
-481.376	132.597	-0.016	0.021
-480.362	18.472	-0.294	0.235
-479.347	88.628	0.072	-0.080
-478.332	-87.955	0.358	-0.108
-477.318	-109.199	0.287	0.061
-476.303	-95.948	0.513	0.136
-475.289	-165.783	0.183	-0.008
-474.274	94.610	0.156	0.177
-473.259	800.000	0.044	-0.149
-472.245	45.024	-0.258	0.238
-471.230	-44.934	-0.140	0.070
-470.216	552.373	-0.089	-0.214
-469.201	151.075	0.239	-0.325
-468.186	-104.535	-0.360	0.083
-467.172	50.940	0.278	0.263
-466.157	19.328	0.165	-0.132
-465.143	570.054	0.110	-0.268
-464.128	800.000	-0.076	0.227
-463.113	255.055	-0.072	-0.123
-462.099	-200.000	-0.003	0.162
-461.084	-200.000	0.003	0.180
-460.070	-23.675	-0.114	0.068
-459.055	-200.000	0.010	-0.062
-458.040	148.727	-0.124	0.168
-457.026	-200.000	0.055	-0.291
-456.011	-72.359	-0.111	0.041
-454.997	-76.037	0.117	-0.041
-453.982	-78.976	0.213	0.072
-452.968	800.000	-0.075	0.264
-451.953	-33.666	0.155	0.086
-450.938	-130.172	0.031	0.004
-449.924	98.133	0.188	0.217
-448.909	-85.851	0.275	0.085
-447.895	-200.000	0.006	-0.116
-446.880	-175.368	-0.037	0.001
-445.865	70.823	0.181	0.187
-444.851	-39.184	0.058	-0.030
-443.836	12.363	-0.332	0.256
-442.822	-200.000	-0.007	0.207
-441.807	187.382	-0.036	-0.054
-440.792	800.000	0.132	-0.436
-439.778	-103.219	-0.106	-0.025
-438.763	187.025	-0.141	0.209
-437.749	-118.830	0.152	0.027
-436.734	149.303	0.019	-0.025
-435.719	406.238	-0.099	0.210
-434.705	800.000	-0.081	0.267
-433.690	-115.478	0.335	-0.063
-432.676	-200.000	0.014	0.276
-431.661	-200.000	-0.059	-0.281
-430.646	-147.096	-0.307	0.026
-429.632	208.713	-0.185	-0.290
-428.617	-105.959	0.126	0.028
-427.603	87.424	0.073	0.080
-426.588	36.169	0.108	0.095
-425.573	58.606	-0.140	0.137
-424.559	369.874	0.071	-0.143
-423.544	-163.624	-0.400	-0.019
-422.530	-82.086	-0.202	-0.066
-421.515	-62.469	-0.208	-0.086
-420.500	65.509	-0.071	-0.071
-419.486	-137.252	-0.103	0.012
-418.471	32.729	-0.086	0.075
-417.457	59.651	-0.247	-0.243
-416.442	83.421	-0.199	0.216
-415.428	-112.801	0.147	0.029
-414.413	-200.000	-0.033	-0.426
-413.398	-22.656	-0.154	0.093
-412.384	86.401	-0.113	-0.124
-411.369	-12.784	0.049	-0.032
-410.355	198.476	-0.077	-0.118
-409.340	15.103	0.203	-0.159
-408.325	800.000	0.020	-0.070
-407.311	56.041	-0.032	-0.031
-406.296	-109.098	0.408	-0.087
-405.282	-165.264	-0.061	-0.003
-404.267	-92.766	-0.556	0.155
-403.252	800.000	-0.063	-0.234
-402.238	-102.054	0.179	-0.043
-401.223	800.000	-0.009	0.033
-400.209	281.593	-0.149	-0.266
-399.194	63.017	0.041	-0.041
-398.179	-79.582	0.222	-0.075
-397.165	-161.423	-0.429	0.022
-396.150	-33.245	-0.121	0.067
-395.136	-156.544	0.168	-0.010
-394.121	46.604	0.110	-0.102
-393.106	-28.569	0.282	0.162
-392.092	242.093	0.133	0.221
-391.077	800.000	0.039	-0.151
-390.063	800.000	-0.065	0.217
-389.048	107.331	0.117	0.139
-388.033	-200.000	-0.014	0.086
-387.019	-73.779	-0.194	-0.070
-386.004	800.000	0.058	-0.224
-384.990	-27.357	-0.042	-0.024
-383.975	259.145	-0.028	0.048
-382.960	139.405	-0.192	-0.252
-381.946	284.288	0.172	-0.309
-380.931	245.660	0.028	-0.047
-379.917	-93.659	-0.111	-0.030
-378.902	800.000	0.066	-0.196
-377.888	-93.210	0.105	0.029
-376.873	800.000	0.076	0.328
-375.858	34.886	-0.208	0.181
-374.844	64.602	0.172	-0.172
-373.829	33.248	-0.205	0.177
-372.815	-123.666	-0.211	0.033
-371.800	800.000	0.046	0.180
-370.785	259.427	0.118	-0.203
-369.771	280.645	0.157	0.280
-368.756	-39.720	-0.192	-0.100
-367.742	-151.337	-0.228	-0.017
-366.727	-92.523	0.259	-0.073
-365.712	-115.325	-0.297	-0.056
-364.698	18.041	0.289	-0.230
-363.683	-92.547	0.136	0.038
-362.669	628.643	0.089	0.224
-361.654	255.043	-0.131	-0.224
-360.639	800.000	-0.030	0.106
-359.625	-200.000	0.005	-0.158
-358.610	432.418	-0.019	0.041
-357.596	800.000	0.020	0.058
-356.581	-200.000	0.003	-0.062
-355.566	402.980	-0.036	0.075
-354.552	51.605	0.229	0.217
-353.537	-123.990	-0.098	-0.015
-352.523	-87.186	-0.312	-0.094
-351.508	123.752	-0.213	-0.266
-350.493	144.579	0.099	0.131
-349.479	-101.616	-0.295	-0.071
-348.464	682.258	0.107	0.277
-347.450	39.036	0.103	-0.091
-346.435	-140.946	-0.274	0.028
-345.420	14.076	-0.114	0.088
-344.406	-16.174	-0.164	-0.104
-343.391	800.000	-0.068	-0.236
-342.377	167.135	0.093	0.131
-341.362	-28.963	0.145	-0.083
-340.348	176.823	0.141	0.204
-339.333	-200.000	-0.070	0.443
-338.318	345.356	-0.190	0.371
-337.304	800.000	-0.030	0.113
-336.289	-200.000	0.063	-0.402
-335.275	-65.681	0.115	-0.046
-334.260	-29.778	0.502	0.284
-333.245	800.000	0.037	-0.115
-332.231	265.143	0.088	0.152
-331.216	-139.917	0.381	-0.040
-330.202	-200.000	-0.009	0.121
-329.187	-200.000	-0.010	0.164
-328.172	6.417	0.139	0.102
-327.158	-111.471	0.097	0.020
-326.143	466.028	-0.106	-0.236
-325.129	-60.370	0.169	0.071
-324.114	-44.849	-0.617	-0.305
-323.099	-123.694	-0.107	-0.017
-322.085	386.281	-0.028	-0.058
-321.070	-6.677	0.058	-0.039
-320.056	381.472	0.087	0.178
-319.041	24.790	-0.498	-0.410
-318.026	721.541	-0.088	0.232
-317.012	31.654	0.067	0.057
-315.997	717.950	-0.057	0.151
-314.983	-200.000	-0.028	-0.353
-313.968	-19.363	-0.294	0.181
-312.953	-53.986	0.538	0.243
-311.939	-165.230	0.311	0.014
-310.924	-30.959	0.236	-0.132
-309.910	608.325	0.036	-0.088
-308.895	-14.175	0.298	-0.191
-307.880	-200.000	0.037	-0.234
-306.866	-200.000	-0.017	-0.501
-305.851	-165.969	0.165	-0.007
-304.837	-195.068	-0.564	0.004
-303.822	-200.000	0.054	0.297
-302.807	-200.000	-0.004	-0.244
-301.793	-200.000	0.055	-0.444
-300.778	406.579	-0.113	0.237
-299.764	-140.079	0.162	-0.017
-298.749	-69.483	-0.272	0.104
-297.735	-24.678	-0.226	-0.133
-296.720	-200.000	-0.055	-0.242
-295.705	575.246	-0.138	-0.335
-294.691	-132.009	0.382	0.049
-293.676	-77.034	0.197	-0.068
-292.662	306.529	0.084	-0.155
-291.647	-75.675	-0.266	-0.094
-290.632	-63.493	0.085	0.035
-289.618	25.690	-0.161	-0.133
-288.603	65.262	0.202	0.203
-287.589	-200.000	-0.032	-0.207
-286.574	-38.504	-0.087	0.046
-285.559	-200.000	0.011	0.417
-284.545	102.396	0.153	0.177
-283.530	-42.153	-0.185	-0.094
-282.516	665.284	-0.089	-0.228
-281.501	8.304	-0.181	-0.135
-280.486	182.821	-0.022	0.032
-279.472	-18.052	0.139	0.087
-278.457	800.000	0.084	-0.259
-277.443	1.842	-0.180	-0.128
-276.428	206.055	-0.210	-0.324
-275.413	540.478	0.119	-0.281
-274.399	-200.000	-0.002	0.297
-273.384	800.000	0.044	-0.126
-272.370	-117.518	-0.209	0.037
-271.355	-67.539	0.075	0.029
-270.340	-146.856	-0.162	-0.014
-269.326	-200.000	-0.011	0.256
-268.311	281.764	0.045	0.080
-267.297	125.473	-0.131	-0.164
-266.282	-15.061	-0.083	0.053
-265.267	800.000	0.070	0.252
-264.253	-200.000	-0.008	-0.253
-263.238	222.865	-0.088	0.140
-262.224	13.602	-0.193	0.148
-261.209	-200.000	0.547	0.000
-260.195	28.925	-0.102	0.086
-259.180	800.000	-0.057	-0.178
-258.165	465.507	-0.010	0.022
-257.151	259.176	0.110	-0.189
-256.136	-7.051	-0.253	0.170
-255.122	-90.405	-0.306	0.088
-254.107	-5.884	-0.113	-0.077
-253.092	-2.790	0.101	0.070
-252.078	-131.530	0.208	-0.027
-251.063	-10.825	0.228	0.149
-250.049	-14.827	0.153	-0.098
-249.034	-96.254	0.126	-0.033
-248.019	-200.000	0.016	-0.149
-247.005	142.176	0.205	-0.269
-245.990	-200.000	0.036	-0.190
-244.976	191.326	0.117	-0.174
-243.961	405.708	0.075	0.156
-242.946	-122.707	-0.239	-0.038
-241.932	12.569	-0.167	0.128
-240.917	-151.260	-0.300	0.022
-239.903	276.115	-0.196	0.344
-238.888	-81.861	-0.236	-0.077
-237.873	16.747	-0.130	-0.102
-236.859	233.928	0.121	0.197
-235.844	53.132	-0.091	0.087
-234.830	0.293	0.072	0.051
-233.815	-151.811	0.080	-0.006
-232.800	-169.792	0.211	0.008
-231.786	286.642	0.151	0.271
-230.771	-34.690	0.147	0.079
-229.757	-115.391	-0.180	-0.034
-228.742	-149.381	-0.235	0.019
-227.727	103.196	0.181	0.210
-226.713	-17.644	0.323	-0.201
-225.698	800.000	0.099	0.298
-224.684	-146.402	0.399	0.035
-223.669	16.932	0.340	0.266
-222.655	118.429	-0.090	0.109
-221.640	116.665	-0.091	0.111
-220.625	-42.702	0.064	0.032
-219.611	-101.031	-0.478	-0.116
-218.596	-69.226	0.094	0.036
-217.582	33.789	0.271	-0.233
-216.567	-133.769	0.380	-0.047
-215.552	174.819	-0.102	0.146
-214.538	483.864	0.046	-0.103
-213.523	-72.650	-0.137	0.050
-212.509	-200.000	-0.011	-0.103
-211.494	-27.558	0.079	0.045
-210.479	271.443	-0.121	0.210
-209.465	48.109	0.314	-0.290
-208.450	520.002	0.114	-0.265
-207.436	-200.000	0.006	-0.116
-206.421	-145.430	-0.262	-0.023
-205.406	555.052	0.038	-0.090
-204.392	-54.868	0.128	0.057
-203.377	16.239	-0.247	-0.193
-202.363	2.949	0.127	-0.091
-201.348	800.000	0.127	0.432
-200.333	242.606	0.058	0.096
-199.319	701.980	0.070	-0.183
-198.304	361.279	-0.075	-0.149
-197.290	-93.127	0.157	0.043
-196.275	238.715	-0.095	0.157
-195.260	-19.431	0.197	-0.121
-194.246	0.294	-0.230	0.162
-193.231	28.577	-0.206	0.173
-192.217	267.002	0.041	-0.070
-191.202	-112.427	0.166	0.033
-190.187	10.920	-0.373	-0.281
-189.173	318.912	-0.054	-0.101
-188.158	36.199	-0.121	0.105
-187.144	71.647	0.083	-0.085
-186.129	-91.220	-0.255	0.072
-185.114	296.353	0.055	-0.100
-184.100	-182.576	-0.050	-0.001
-183.085	140.963	-0.116	0.152
-182.071	-65.345	-0.063	0.025
-181.056	-64.121	-0.070	0.028
-180.042	800.000	-0.043	-0.177
-179.027	-200.000	0.003	-0.112
-178.012	-140.711	-0.016	0.002
-176.998	-200.000	0.034	0.235
-175.983	4.728	0.191	0.138
-174.969	95.019	0.205	0.231
-173.954	-200.000	-0.015	0.118
-172.939	800.000	0.052	-0.178
-171.925	-200.000	0.051	0.264
-170.910	56.262	0.258	0.247
-169.896	800.000	0.072	0.243
-168.881	-200.000	-0.033	0.383
-167.866	500.701	-0.102	-0.233
-166.852	256.362	0.031	0.053
-165.837	-158.428	0.319	-0.018
-164.823	-200.000	-0.047	0.214
-163.808	510.650	0.114	-0.262
-162.793	-17.599	0.023	0.014
-161.779	-86.906	-0.090	0.027
-160.764	13.612	0.050	-0.038
-159.750	192.297	0.042	-0.063
-158.735	1.502	-0.159	-0.113
-157.720	-47.516	0.218	0.105
-156.706	-200.000	-0.001	-0.077
-155.691	-87.501	-0.407	0.122
-154.677	800.000	0.118	0.330
-153.662	-165.833	0.158	-0.007
-152.647	129.005	0.207	0.260
-151.633	-116.380	0.495	0.090
-150.618	800.000	0.040	0.170
-149.604	450.504	-0.093	-0.203
-148.589	-200.000	-0.084	-0.474
-147.574	-200.000	0.010	-0.183
-146.560	-52.574	-0.212	-0.097
-145.545	-139.980	0.193	0.020
-144.531	-200.000	0.033	-0.150
-143.516	-67.176	0.029	0.011
-142.502	-75.552	-0.061	0.021
-141.487	-106.455	0.283	0.062
-140.472	-80.855	0.095	-0.031
-139.458	-200.000	0.001	-0.197
-138.443	-7.140	-0.056	0.037
-137.429	-42.420	-0.083	0.042
-136.414	-95.134	0.315	0.084
-135.399	800.000	-0.069	-0.222
-134.385	-96.186	0.246	-0.064
-133.370	658.989	0.094	-0.238
-132.356	-100.102	-0.233	0.057
-131.341	22.737	0.154	-0.124
-130.326	-52.298	0.144	-0.066
-129.312	-200.000	0.004	0.108
-128.297	-200.000	0.030	-0.195
-127.283	90.334	0.257	-0.283
-126.268	800.000	-0.091	-0.363
-125.253	-64.916	0.080	-0.032
-124.239	-200.000	0.048	-0.319
-123.224	-28.242	-0.194	-0.111
-122.210	19.056	0.201	0.159
-121.195	-115.648	0.257	-0.047
-120.180	-117.548	-0.187	0.033
