DTS Sentinel unit serial number:	SN413079Multiplexer serial number:	ORYXHardware model number:	OX4-SRSoftware version number:	ORYX F/W v4.00 Oryx Data Collector v3.7.2.0data status	okinstallation	princeton_trtdifferential loss correction	single-endedforward channel	channel 4reverse channel	N/Adate	2019/09/11time	03:39:11forward acquisition time	60.00reverse acquisition time	0.00gamma	496.2192k internal	0.2316k external	0.2316temperature offset calibration	0.9945default loss term (dB/km)	0.3790temperature slope calibration	1.0000multiplexer offset coefficient	1.0000multiplexer slope coefficient	1.0000fibre end	0.00T internal ref (°C)	29.52T ext. ref 1 (°C)	-0.28T ext. ref 2 (°C)	23.94length (m)	temperature (°C)	Stokes	anti-Stokes-747.200	-132.210	0.378	0.050
-746.185	407.960	-0.089	-0.192
-745.171	-200.000	0.014	0.115
-744.156	-200.000	-0.035	0.354
-743.142	-60.124	0.216	-0.094
-742.127	-93.066	-0.342	0.096
-741.112	31.950	-0.164	-0.143
-740.098	78.372	0.121	0.131
-739.083	264.859	-0.125	-0.220
-738.069	-140.129	0.058	0.006
-737.054	87.129	0.173	-0.193
-736.039	174.375	0.096	0.140
-735.025	101.695	0.157	0.185
-734.010	-181.607	-0.331	0.006
-732.996	-4.727	-0.409	0.286
-731.981	-59.215	-0.087	0.038
-730.966	-126.666	0.224	0.034
-729.952	-121.951	-0.100	0.017
-728.937	301.057	0.085	-0.158
-727.923	27.747	-0.209	-0.179
-726.908	-59.741	-0.237	-0.103
-725.894	-49.154	0.229	0.111
-724.879	-111.039	0.458	0.095
-723.864	-200.000	0.041	0.351
-722.850	800.000	0.080	-0.291
-721.835	-65.626	-0.272	-0.111
-720.821	-60.861	-0.046	-0.020
-719.806	-147.781	-0.187	0.016
-718.791	-99.878	0.094	-0.024
-717.777	-118.362	-0.323	-0.058
-716.762	-103.649	0.255	0.061
-715.748	6.560	-0.148	0.111
-714.733	-29.057	-0.290	0.169
-713.718	-102.196	0.103	0.025
-712.704	133.051	-0.264	-0.345
-711.689	-200.000	0.047	-0.260
-710.675	-144.406	-0.319	0.030
-709.660	-123.558	-0.129	-0.021
-708.645	-51.817	0.156	-0.074
-707.631	-75.945	-0.550	-0.197
-706.616	800.000	-0.034	0.105
-705.602	800.000	0.013	0.051
-704.587	-200.000	0.010	-0.226
-703.572	-86.771	-0.258	-0.080
-702.558	800.000	-0.110	-0.330
-701.543	32.712	-0.253	0.221
-700.529	-19.437	0.134	-0.084
-699.514	-200.000	-0.013	-0.178
-698.499	-12.574	-0.260	-0.172
-697.485	-125.841	0.249	0.038
-696.470	57.356	-0.136	-0.134
-695.456	-195.034	0.169	0.001
-694.441	-72.975	-0.263	0.098
-693.426	-43.851	-0.272	0.138
-692.412	-129.904	0.309	-0.043
-691.397	-200.000	-0.024	0.186
-690.383	332.760	-0.103	0.201
-689.368	800.000	-0.095	0.324
-688.354	682.455	-0.066	-0.174
-687.339	718.296	-0.013	0.035
-686.324	-49.791	0.060	-0.029
-685.310	-82.852	0.436	0.142
-684.295	-65.849	-0.427	-0.173
-683.281	13.594	-0.111	0.087
-682.266	212.668	-0.123	-0.197
-681.251	-57.315	-0.346	0.154
-680.237	-172.381	-0.406	0.013
-679.222	-200.000	0.051	0.251
-678.208	250.958	-0.154	0.264
-677.193	419.843	0.058	-0.126
-676.178	-200.000	0.041	0.185
-675.164	36.487	-0.111	-0.099
-674.149	-200.000	0.042	-0.226
-673.135	-185.453	0.213	-0.003
-672.120	671.083	-0.094	-0.246
-671.105	-113.913	0.219	-0.043
-670.091	159.057	0.040	-0.057
-669.076	655.535	0.146	-0.380
-668.062	-75.522	0.119	-0.043
-667.047	-200.000	0.025	0.260
-666.032	-59.576	0.376	-0.163
-665.018	342.501	0.064	0.126
-664.003	80.393	-0.108	-0.117
-662.989	111.390	-0.327	-0.398
-661.974	-200.000	0.001	-0.241
-660.959	-135.206	-0.155	0.019
-659.945	800.000	0.093	-0.339
-658.930	-93.667	0.212	0.059
-657.916	-200.000	-0.050	0.291
-656.901	-200.000	-0.017	-0.094
-655.886	-200.000	-0.010	0.269
-654.872	800.000	0.070	-0.301
-653.857	-49.169	-0.136	-0.065
-652.843	-109.366	0.176	-0.038
-651.828	800.000	0.048	-0.145
-650.814	-200.000	-0.026	-0.188
-649.799	58.541	-0.375	0.371
-648.784	-200.000	0.001	0.162
-647.770	-10.347	-0.291	0.195
-646.755	800.000	-0.012	-0.048
-645.741	0.850	0.245	-0.177
-644.726	329.964	-0.198	-0.384
-643.711	-155.168	-0.311	0.020
-642.697	129.393	0.085	-0.109
-641.682	50.549	0.156	-0.149
-640.668	10.595	-0.104	0.080
-639.653	81.494	0.180	0.196
-638.638	-94.832	-0.337	-0.092
-637.624	-78.480	-0.131	0.045
-636.609	-200.000	0.009	-0.462
-635.595	-6.726	0.153	-0.105
-634.580	202.668	0.019	-0.029
-633.565	476.891	-0.131	-0.300
-632.551	332.490	-0.117	-0.228
-631.536	46.260	-0.223	0.209
-630.522	252.977	0.184	-0.316
-629.507	-97.852	0.105	0.027
-628.492	209.260	-0.209	-0.330
-627.478	-160.211	0.328	-0.018
-626.463	-126.392	-0.170	0.026
-625.449	800.000	0.059	-0.170
-624.434	79.905	0.080	0.086
-623.419	-158.377	0.307	0.018
-622.405	-200.000	-0.344	-0.000
-621.390	-57.855	-0.253	0.112
-620.376	91.049	-0.061	0.069
-619.361	-200.000	0.046	-0.334
-618.346	167.046	-0.086	-0.123
-617.332	-200.000	-0.029	-0.321
-616.317	800.000	0.021	-0.089
-615.303	-102.619	0.273	0.066
-614.288	-145.370	-0.302	-0.027
-613.273	-109.112	-0.034	0.007
-612.259	-38.032	0.221	0.118
-611.244	469.397	-0.042	-0.095
-610.230	31.210	0.320	-0.277
-609.215	-56.833	-0.297	-0.132
-608.201	225.631	0.143	0.234
-607.186	83.628	0.089	-0.098
-606.171	70.229	0.160	0.166
-605.157	-54.852	-0.445	-0.202
-604.142	205.209	-0.203	-0.318
-603.128	742.013	0.073	-0.197
-602.113	402.163	0.133	-0.282
-601.098	152.247	0.083	-0.114
-600.084	91.615	-0.179	0.202
-599.069	-178.707	-0.091	0.002
-598.055	466.190	0.184	0.414
-597.040	800.000	0.058	0.212
-596.025	-5.315	-0.325	-0.225
-595.011	67.177	-0.043	0.044
-593.996	-200.000	0.003	0.218
-592.982	-153.427	-0.150	-0.010
-591.967	232.701	0.149	0.246
-590.952	46.734	-0.050	-0.046
-589.938	147.229	-0.124	-0.168
-588.923	-200.000	-0.012	-0.056
-587.909	62.914	-0.096	-0.097
-586.894	-200.000	0.017	0.087
-585.879	-45.389	-0.292	0.146
-584.865	-26.929	0.091	0.053
-583.850	117.162	-0.203	-0.251
-582.836	541.777	0.143	-0.344
-581.821	-70.588	-0.306	-0.116
-580.806	-114.557	0.220	-0.043
-579.792	-55.442	-0.169	-0.076
-578.777	-93.428	0.275	0.077
-577.763	-64.336	-0.174	-0.071
-576.748	-200.000	0.048	-0.324
-575.733	186.122	-0.145	-0.218
-574.719	-19.721	0.254	0.158
-573.704	-107.212	0.222	0.049
-572.690	449.266	-0.038	0.083
-571.675	800.000	-0.061	-0.222
-570.661	-134.347	-0.351	0.043
-569.646	-50.648	0.380	0.180
-568.631	800.000	0.047	-0.156
-567.617	-72.017	-0.162	-0.061
-566.602	-161.803	-0.441	0.023
-565.588	247.657	-0.223	-0.379
-564.573	-35.710	-0.144	-0.079
-563.558	27.944	0.217	-0.184
-562.544	-40.162	-0.097	-0.051
-561.529	-27.938	-0.123	-0.072
-560.515	131.817	0.237	-0.307
-559.500	67.878	-0.161	-0.166
-558.485	206.110	-0.110	-0.172
-557.471	800.000	0.099	0.306
-556.456	54.095	-0.155	0.150
-555.442	-158.835	0.251	-0.014
-554.427	-12.408	-0.196	0.129
-553.412	-200.000	-0.005	-0.189
-552.398	-102.473	0.085	-0.020
-551.383	287.605	0.166	0.302
-550.369	181.129	-0.143	-0.211
-549.354	155.051	0.035	0.048
-548.339	45.972	0.042	-0.039
-547.325	46.738	-0.270	0.252
-546.310	106.576	0.120	-0.143
-545.296	5.439	-0.177	-0.132
-544.281	-105.296	0.214	0.049
-543.266	518.678	-0.061	-0.143
-542.252	800.000	-0.110	-0.347
-541.237	-200.000	-0.030	0.148
-540.223	113.424	0.120	0.147
-539.208	-200.000	-0.044	-0.252
-538.193	646.595	0.014	0.035
-537.179	-200.000	-0.013	-0.064
-536.164	-189.785	0.166	-0.002
-535.150	-108.128	0.223	-0.049
-534.135	-82.160	0.148	0.048
-533.121	68.896	-0.036	0.037
-532.106	-62.440	-0.302	0.126
-531.091	800.000	0.071	-0.312
-530.077	161.971	0.213	-0.300
-529.062	-157.075	-0.191	0.012
-528.048	-35.214	-0.119	0.065
-527.033	-161.013	-0.254	-0.013
-526.018	-89.881	0.276	-0.081
-525.004	4.668	0.330	0.244
-523.989	174.068	0.085	-0.124
-522.975	279.694	-0.177	-0.318
-521.960	-160.306	-0.339	-0.018
-520.945	-134.464	0.270	0.033
-519.931	520.594	0.039	-0.092
-518.916	-120.107	-0.267	-0.046
-517.902	46.747	-0.226	0.210
-516.887	32.454	0.136	-0.118
-515.872	-32.470	-0.201	0.112
-514.858	-23.603	-0.097	-0.059
-513.843	-38.070	0.068	-0.036
-512.829	-24.854	0.053	0.032
-511.814	-62.043	-0.308	-0.129
-510.799	548.008	0.108	0.259
-509.785	603.123	0.105	-0.263
-508.770	-18.050	-0.122	0.077
-507.756	-33.546	-0.162	-0.090
-506.741	-0.635	0.036	0.025
-505.726	46.962	0.315	-0.294
-504.712	800.000	0.102	-0.375
-503.697	800.000	0.016	0.066
-502.683	-200.000	0.035	-0.252
-501.668	386.258	-0.129	0.266
-500.653	-200.000	-0.036	0.410
-499.639	800.000	-0.031	0.113
-498.624	-57.245	0.419	0.185
-497.610	-90.539	0.355	-0.103
-496.595	322.435	-0.121	0.230
-495.581	-10.899	-0.229	0.152
-494.566	-141.346	0.173	-0.018
-493.551	724.907	-0.086	0.230
-492.537	117.024	-0.227	-0.280
-491.522	-200.000	-0.011	-0.081
-490.508	-36.011	-0.266	0.144
-489.493	800.000	-0.081	0.296
-488.478	161.695	-0.063	0.088
-487.464	-108.376	-0.223	0.048
-486.449	375.299	0.106	0.218
-485.435	-118.928	0.086	0.015
-484.420	800.000	0.025	-0.088
-483.405	-200.000	-0.028	-0.416
-482.391	24.322	0.057	0.047
-481.376	-200.000	-0.018	0.092
-480.362	11.121	0.164	0.125
-479.347	-200.000	0.033	-0.185
-478.332	270.077	0.156	0.275
-477.318	-200.000	0.026	0.160
-476.303	800.000	0.059	-0.225
-475.289	-200.000	0.011	0.094
-474.274	-58.987	-0.209	0.091
-473.259	-118.345	-0.240	0.043
-472.245	-105.070	0.306	-0.070
-471.230	194.863	0.149	-0.227
-470.216	-200.000	-0.019	0.123
-469.201	391.489	-0.190	0.395
-468.186	-94.242	0.269	0.074
-467.172	-200.000	0.006	0.337
-466.157	-104.570	0.426	0.099
-465.143	-43.056	0.071	0.036
-464.128	-12.372	0.043	-0.028
-463.113	400.383	-0.118	-0.248
-462.099	-21.596	0.225	0.138
-461.084	137.662	0.062	0.081
-460.070	-4.226	-0.087	0.060
-459.055	800.000	-0.063	-0.220
-458.040	-138.666	-0.131	0.014
-457.026	102.855	-0.146	0.172
-456.011	-179.331	-0.320	0.007
-454.997	150.301	-0.099	-0.134
-453.982	-200.000	-0.023	-0.131
-452.968	-76.143	0.168	-0.059
-451.953	-3.266	-0.211	-0.147
-450.938	-200.000	0.032	0.438
-449.924	-200.000	0.018	-0.102
-448.909	542.933	0.125	-0.299
-447.895	-120.975	0.511	0.086
-446.880	500.553	-0.096	-0.223
-445.865	207.882	0.145	-0.227
-444.851	-200.000	0.026	0.193
-443.836	-48.016	-0.212	0.103
-442.822	2.610	-0.089	0.064
-441.807	800.000	0.055	0.183
-440.792	56.249	-0.120	0.117
-439.778	47.932	-0.131	0.123
-438.763	-200.000	0.011	-0.068
-437.749	-92.716	-0.033	0.009
-436.734	72.500	-0.104	0.109
-435.719	-200.000	-0.014	0.453
-434.705	-59.005	0.150	-0.065
-433.690	782.363	-0.101	-0.276
-432.676	-34.370	0.201	0.110
-431.661	263.259	-0.215	-0.373
-430.646	754.531	-0.052	0.142
-429.632	563.023	-0.036	0.087
-428.617	800.000	0.087	-0.348
-427.603	279.933	0.088	-0.157
-426.588	271.049	-0.068	-0.120
-425.573	382.748	-0.070	-0.143
-424.559	10.482	-0.153	0.117
-423.544	-20.505	0.208	-0.128
-422.530	800.000	-0.016	0.051
-421.515	757.802	0.050	0.137
-420.500	2.016	0.050	-0.036
-419.486	-33.651	0.348	-0.192
-418.471	192.052	0.207	0.312
-417.457	89.912	-0.155	0.173
-416.442	43.241	-0.032	-0.029
-415.428	-200.000	-0.060	0.286
-414.413	-10.266	0.275	-0.182
-413.398	-118.265	0.254	-0.045
-412.384	5.298	-0.134	0.099
-411.369	-31.742	0.321	0.180
-410.355	39.817	-0.064	0.057
-409.340	19.903	-0.080	0.065
-408.325	83.915	0.273	0.298
-407.311	-107.099	-0.317	-0.070
-406.296	-21.117	-0.277	0.169
-405.282	50.575	0.220	0.208
-404.267	6.801	-0.126	0.094
-403.252	245.366	-0.117	0.197
-402.238	-72.004	0.101	0.037
-401.223	-23.997	0.088	0.053
-400.209	-145.329	-0.156	-0.014
-399.194	800.000	0.115	-0.350
-398.179	-24.856	0.082	-0.049
-397.165	-56.098	0.105	0.047
-396.150	-106.825	0.193	0.043
-395.136	800.000	-0.036	-0.104
-394.121	-129.196	0.271	-0.038
-393.106	-158.076	0.266	-0.016
-392.092	-200.000	-0.019	0.247
-391.077	-142.103	0.329	-0.033
-390.063	-200.000	0.009	-0.205
-389.048	-200.000	0.018	0.214
-388.033	43.892	0.233	0.214
-387.019	-176.877	0.187	0.005
-386.004	198.894	-0.149	0.228
-384.990	82.778	0.087	-0.094
-383.975	-58.456	-0.192	-0.083
-382.960	-184.081	-0.185	0.003
-381.946	-166.338	0.343	0.014
-380.931	769.342	-0.138	0.377
-379.917	11.262	-0.098	0.075
-378.902	-176.226	0.141	0.004
-377.888	-116.422	0.224	0.041
-376.873	-200.000	-0.020	-0.101
-375.858	-10.989	-0.266	0.176
-374.844	-8.164	0.163	-0.110
-373.829	-88.850	-0.160	-0.047
-372.815	-102.896	0.193	-0.046
-371.800	-200.000	0.034	-0.200
-370.785	6.077	-0.164	-0.121
-369.771	-99.213	0.130	0.033
-368.756	34.667	0.094	-0.082
-367.742	800.000	0.103	0.371
-366.727	800.000	0.115	0.353
-365.712	-43.656	0.152	0.076
-364.698	21.744	-0.297	0.241
-363.683	-200.000	0.002	0.328
-362.669	-200.000	0.099	0.000
-361.654	597.843	-0.096	0.236
-360.639	-143.803	0.484	0.046
-359.625	5.189	0.169	-0.124
-358.610	642.933	-0.112	0.284
-357.596	-183.623	0.042	-0.001
-356.581	466.348	-0.060	-0.134
-355.566	800.000	0.063	0.211
-354.552	-75.714	-0.186	0.066
-353.537	344.212	-0.131	-0.257
-352.523	4.518	0.027	-0.020
-351.508	-200.000	0.009	-0.139
-350.493	26.932	-0.114	-0.095
-349.479	164.664	-0.091	-0.128
-348.464	-38.014	0.321	0.170
-347.450	-47.026	0.298	0.145
-346.435	-49.853	0.116	0.055
-345.420	141.804	-0.164	0.217
-344.406	43.737	-0.046	-0.042
-343.391	-37.589	0.279	-0.148
-342.377	49.299	0.155	0.146
-341.362	-200.000	-0.039	0.224
-340.348	-78.345	-0.255	-0.087
-339.333	-54.341	-0.039	-0.017
-338.318	-19.221	-0.168	0.104
-337.304	-31.682	-0.110	-0.061
-336.289	-200.000	-0.036	-0.173
-335.275	500.759	-0.078	0.180
-334.260	440.528	-0.116	0.253
-333.245	530.378	-0.145	-0.341
-332.231	800.000	0.031	-0.101
-331.216	-52.181	0.170	0.079
-330.202	-200.000	-0.020	-0.132
-329.187	-53.154	0.150	0.069
-328.172	-77.068	0.109	-0.038
-327.158	378.843	0.195	0.398
-326.143	-130.449	-0.085	-0.011
-325.129	181.260	0.138	0.202
-324.114	-59.602	-0.180	0.077
-323.099	-200.000	0.000	0.106
-322.085	211.983	-0.111	0.175
-321.070	119.916	-0.177	0.219
-320.056	321.611	0.053	0.100
-319.041	-43.930	-0.217	-0.109
-318.026	176.467	0.100	-0.145
-317.012	382.268	0.137	0.280
-315.997	797.572	0.056	-0.155
-314.983	-50.413	0.323	-0.152
-313.968	107.740	0.158	-0.187
-312.953	-75.394	-0.249	0.088
-311.939	259.843	-0.086	0.147
-310.924	800.000	0.054	-0.158
-309.910	-2.635	0.329	-0.230
-308.895	800.000	0.064	-0.258
-307.880	800.000	-0.076	-0.214
-306.866	166.059	-0.161	-0.227
-305.851	560.819	0.125	0.301
-304.837	-200.000	-0.029	0.431
-303.822	-124.098	0.282	0.044
-302.807	53.869	-0.215	-0.205
-301.793	46.973	0.064	-0.059
-300.778	87.155	-0.166	0.183
-299.764	-200.000	-0.017	-0.208
-298.749	-152.224	0.354	-0.025
-297.735	-200.000	-0.017	0.373
-296.720	-200.000	-0.005	0.111
-295.705	72.652	-0.108	-0.112
-294.691	-103.874	-0.090	-0.021
-293.676	-58.701	0.103	0.044
-292.662	56.955	-0.132	-0.128
-291.647	-105.800	0.237	0.053
-290.632	38.038	0.147	0.130
-289.618	800.000	0.088	0.316
-288.603	-200.000	0.006	-0.031
-287.589	-17.925	0.041	-0.026
-286.574	114.153	-0.146	-0.177
-285.559	-77.032	0.155	-0.054
-284.545	-171.633	-0.204	0.007
-283.530	-51.862	0.264	-0.122
-282.516	-97.850	0.285	-0.073
-281.501	275.327	-0.052	0.091
-280.486	-183.866	0.210	-0.004
-279.472	-200.000	-0.030	-0.338
-278.457	30.586	-0.166	-0.141
-277.443	-200.000	-0.057	-0.273
-276.428	100.485	-0.065	0.075
-275.413	800.000	0.110	0.310
-274.399	21.820	0.163	-0.132
-273.384	-113.240	0.375	-0.073
-272.370	-46.208	-0.083	-0.040
-271.355	17.704	0.173	-0.137
-270.340	-200.000	0.001	0.068
-269.326	-200.000	-0.012	0.325
-268.311	152.897	-0.188	0.256
-267.297	91.270	0.078	0.087
-266.282	-84.095	-0.292	-0.092
-265.267	-50.463	0.122	-0.057
-264.253	71.972	0.108	-0.112
-263.238	248.937	-0.074	-0.125
-262.224	-200.000	0.002	-0.140
-261.209	-132.371	0.149	0.019
-260.195	-200.000	0.029	0.171
-259.180	-29.141	-0.106	-0.061
-258.165	137.647	0.186	-0.243
-257.151	-73.158	-0.136	0.050
-256.136	-200.000	0.026	-0.228
-255.122	-11.583	-0.121	0.079
-254.107	-2.589	-0.210	0.146
-253.092	54.889	0.167	-0.160
-252.078	113.643	-0.158	-0.191
-251.063	800.000	-0.063	-0.177
-250.049	-115.068	-0.278	-0.052
-249.034	-200.000	0.037	0.196
-248.019	-41.445	-0.209	-0.107
-247.005	69.324	-0.177	0.181
-245.990	30.671	0.196	-0.166
-244.976	-74.887	-0.237	-0.085
-243.961	62.697	-0.081	-0.080
-242.946	800.000	0.122	-0.345
-241.932	-174.161	0.183	-0.005
-240.917	101.589	-0.234	0.270
-239.903	-76.686	-0.249	-0.087
-238.888	-146.600	-0.223	0.019
-237.873	-200.000	0.004	0.112
-236.859	-87.437	0.111	-0.034
-235.844	-84.900	-0.149	-0.047
-234.830	-50.662	-0.185	0.087
-233.815	19.785	0.057	0.046
-232.800	-200.000	-0.003	0.035
-231.786	-62.000	0.297	0.123
-230.771	-98.235	0.028	-0.007
-229.757	-165.678	0.592	-0.025
-228.742	-98.379	-0.073	-0.019
-227.727	-94.667	0.425	-0.115
-226.713	28.330	0.336	0.282
-225.698	-26.983	0.050	-0.029
-224.684	-158.782	-0.209	-0.012
-223.669	475.186	-0.075	0.169
-222.655	-123.141	-0.543	-0.086
-221.640	-112.510	0.151	0.030
-220.625	-200.000	0.020	-0.101
-219.611	670.768	0.097	-0.249
-218.596	254.352	-0.094	0.160
-217.582	-200.000	0.016	0.082
-216.567	-110.336	0.330	0.068
-215.552	-200.000	0.014	-0.469
-214.538	-113.628	0.277	0.054
-213.523	-200.000	-0.020	-0.118
-212.509	-200.000	-0.013	0.441
-211.494	800.000	0.121	0.379
-210.479	-5.121	-0.032	0.022
-209.465	0.553	-0.083	-0.059
-208.450	318.170	-0.059	0.111
-207.436	-200.000	0.013	-0.209
-206.421	-76.182	-0.117	-0.041
-205.406	-144.385	0.381	-0.035
-204.392	-113.267	0.216	0.042
-203.377	104.293	0.040	0.046
-202.363	-200.000	-0.059	0.287
-201.348	110.380	0.049	0.059
-200.333	-155.341	-0.281	0.018
-199.319	32.394	-0.205	0.175
-198.304	-81.012	-0.156	-0.051
-197.290	675.208	0.097	0.250
-196.275	39.500	0.120	0.107
-195.260	333.339	0.011	0.021
-194.246	-200.000	-0.083	-0.381
-193.231	-200.000	0.026	0.154
-192.217	-28.669	-0.161	-0.092
-191.202	-200.000	-0.035	-0.203
-190.187	118.541	0.181	0.222
-189.173	173.260	-0.237	0.338
-188.158	86.536	0.127	0.139
-187.144	384.869	0.046	-0.095
-186.129	-101.384	-0.352	-0.085
-185.114	201.997	0.199	0.305
-184.100	-200.000	-0.030	-0.147
-183.085	18.122	0.123	-0.097
-182.071	-96.672	-0.086	-0.023
-181.056	9.975	-0.107	0.081
-180.042	301.425	0.101	-0.186
-179.027	-69.628	0.225	-0.085
-178.012	800.000	0.054	-0.222
-176.998	-98.337	0.121	0.031
-175.983	155.901	-0.177	0.242
-174.969	201.761	-0.081	-0.123
-173.954	297.500	0.119	-0.216
-172.939	73.152	-0.291	-0.302
-171.925	-137.353	0.112	0.013
-170.910	-200.000	0.086	0.378
-169.896	-200.000	-0.015	0.231
-168.881	-200.000	0.000	-0.109
-167.866	-95.221	-0.366	-0.098
-166.852	-75.765	-0.165	-0.058
-165.837	170.516	-0.375	0.532
-164.823	22.367	-0.260	0.211
-163.808	557.842	0.072	0.171
-162.793	-92.637	0.058	0.016
-161.779	-200.000	-0.013	-0.065
-160.764	510.787	-0.083	0.191
-159.750	-19.948	-0.382	-0.233
-158.735	-200.000	0.019	-0.099
-157.720	-72.540	0.102	0.037
-156.706	-71.445	-0.192	0.071
-155.691	343.516	0.111	-0.215
-154.677	415.561	-0.114	-0.241
-153.662	-200.000	-0.050	0.304
-152.647	800.000	0.068	-0.231
-151.633	-70.319	-0.182	-0.068
-150.618	-42.411	-0.153	-0.077
-149.604	184.716	0.130	0.190
-148.589	326.352	0.100	-0.189
-147.574	-200.000	-0.025	-0.115
-146.560	542.894	0.043	-0.102
-145.545	-80.260	0.075	0.025
-144.531	10.149	0.085	-0.064
-143.516	66.382	0.239	0.240
-142.502	-9.313	0.175	0.116
-141.487	-133.410	-0.181	-0.023
-140.472	49.723	-0.068	0.064
-139.458	-2.284	0.289	0.201
-138.443	-89.408	-0.076	0.022
-137.429	32.258	-0.024	0.020
-136.414	-40.700	0.442	0.226
-135.399	-200.000	0.017	0.207
-134.385	-89.035	-0.202	-0.059
-133.370	654.957	-0.121	0.307
-132.356	25.426	0.376	0.309
-131.341	-151.348	0.423	-0.031
-130.326	130.380	0.069	0.087
-129.312	122.636	0.291	0.361
-128.297	-96.899	0.048	0.012
-127.283	30.538	-0.061	-0.052
-126.268	519.398	-0.139	-0.322
-125.253	-80.352	0.023	-0.008
-124.239	-187.481	-0.088	-0.001
-123.224	-52.913	0.294	-0.134
-122.210	18.360	-0.140	-0.111
-121.195	8.983	-0.276	0.206
