DTS Sentinel unit serial number:	SN413079Multiplexer serial number:	ORYXHardware model number:	OX4-SRSoftware version number:	ORYX F/W v4.00 Oryx Data Collector v3.7.2.0data status	okinstallation	princeton_trtdifferential loss correction	single-endedforward channel	channel 4reverse channel	N/Adate	2019/09/16time	02:29:34forward acquisition time	60.00reverse acquisition time	0.00gamma	496.2192k internal	0.2321k external	0.2321temperature offset calibration	0.9973default loss term (dB/km)	0.3790temperature slope calibration	1.0000multiplexer offset coefficient	1.0000multiplexer slope coefficient	1.0000fibre end	0.00T internal ref (°C)	27.67T ext. ref 1 (°C)	10.26T ext. ref 2 (°C)	22.67length (m)	temperature (°C)	Stokes	anti-Stokes-747.200	-88.429	-0.195	-0.059
-746.185	479.411	0.168	0.385
-745.171	89.388	0.101	0.113
-744.156	-116.356	-0.467	0.087
-743.142	800.000	0.093	0.268
-742.127	35.647	0.106	0.094
-741.112	620.215	0.055	0.139
-740.098	-200.000	-0.141	0.000
-739.083	-200.000	-0.026	0.190
-738.069	173.191	0.082	0.119
-737.054	800.000	0.073	-0.236
-736.039	-84.695	-0.455	0.145
-735.025	23.329	0.332	0.276
-734.010	39.925	-0.184	-0.167
-732.996	-17.890	-0.276	-0.175
-731.981	-160.792	-0.039	0.002
-730.966	-116.969	0.157	-0.029
-729.952	251.449	0.100	-0.172
-728.937	-27.651	0.074	0.044
-727.923	591.952	-0.175	-0.437
-726.908	517.105	0.194	-0.458
-725.894	-180.056	-0.068	-0.001
-724.879	21.823	0.324	0.267
-723.864	-130.706	-0.140	0.019
-722.850	800.000	0.005	-0.016
-721.835	-200.000	0.039	-0.239
-720.821	-27.023	-0.230	0.136
-719.806	-109.587	-0.129	-0.027
-718.791	92.818	-0.178	0.203
-717.777	-54.539	-0.133	0.061
-716.762	-200.000	-0.057	-0.272
-715.748	-48.610	-0.085	0.041
-714.733	-200.000	-0.001	-0.171
-713.718	-17.348	0.287	-0.183
-712.704	-92.390	-0.050	-0.014
-711.689	137.894	0.125	0.165
-710.675	-55.018	-0.108	-0.049
-709.660	-200.000	0.031	-0.185
-708.645	728.566	0.085	-0.230
-707.631	-7.268	-0.452	0.309
-706.616	91.200	0.157	0.178
-705.602	-200.000	-0.010	-0.171
-704.587	800.000	-0.056	-0.217
-703.572	-68.461	-0.097	-0.038
-702.558	800.000	0.045	-0.175
-701.543	-54.671	0.230	0.105
-700.529	-37.617	0.199	-0.107
-699.514	-99.824	0.247	0.062
-698.499	183.780	-0.052	-0.077
-697.485	-134.676	0.373	-0.046
-696.470	-121.043	0.495	0.084
-695.456	-61.185	0.099	-0.042
-694.441	-85.331	0.183	0.058
-693.426	34.942	0.129	0.114
-692.412	65.472	-0.111	-0.113
-691.397	203.971	0.135	-0.212
-690.383	57.904	0.011	-0.011
-689.368	70.755	0.034	0.036
-688.354	-122.026	-0.218	-0.036
-687.339	556.069	-0.119	0.290
-686.324	-65.207	0.131	0.053
-685.310	-200.000	0.004	-0.069
-684.295	-22.933	0.152	0.092
-683.281	-88.245	-0.213	-0.064
-682.266	693.772	0.056	-0.148
-681.251	150.731	0.092	-0.126
-680.237	15.610	0.130	0.103
-679.222	-141.727	-0.291	-0.029
-678.208	17.888	0.122	-0.098
-677.193	422.033	-0.119	-0.258
-676.178	-97.625	0.140	-0.037
-675.164	-85.187	0.282	-0.089
-674.149	140.488	0.092	0.123
-673.135	29.946	-0.140	-0.121
-672.120	30.588	-0.182	0.157
-671.105	-58.754	-0.317	0.138
-670.091	-120.194	0.195	-0.034
-669.076	175.909	0.060	-0.088
-668.062	-72.124	-0.044	0.016
-667.047	60.566	-0.013	-0.013
-666.032	-59.289	-0.208	-0.090
-665.018	194.227	-0.111	-0.169
-664.003	314.482	-0.051	-0.096
-662.989	-2.672	-0.238	-0.168
-661.974	-74.498	-0.139	0.051
-660.959	-200.000	-0.034	-0.155
-659.945	297.798	0.117	-0.216
-658.930	155.639	-0.125	0.173
-657.916	-120.752	-0.269	-0.046
-656.901	-79.818	0.076	-0.026
-655.886	-39.268	-0.234	0.124
-654.872	175.590	0.070	-0.102
-653.857	320.601	-0.144	0.275
-652.843	-145.755	0.181	-0.016
-651.828	-114.092	0.131	-0.026
-650.814	0.954	0.198	0.143
-649.799	-109.848	0.101	-0.021
-648.784	96.734	-0.148	0.170
-647.770	-200.000	-0.007	-0.045
-646.755	204.643	-0.043	0.068
-645.741	-68.831	0.273	0.106
-644.726	-172.903	0.279	-0.009
-643.711	-37.537	0.143	-0.077
-642.697	229.577	0.135	0.222
-641.682	145.048	-0.189	0.254
-640.668	-200.000	-0.004	-0.256
-639.653	-13.538	0.092	0.060
-638.638	40.956	0.099	0.090
-637.624	800.000	0.046	-0.170
-636.609	467.982	0.022	-0.051
-635.595	66.004	0.141	-0.144
-634.580	26.060	-0.051	0.043
-633.565	91.799	0.056	-0.064
-632.551	0.208	-0.074	0.053
-631.536	-200.000	0.061	0.434
-630.522	-200.000	-0.025	0.181
-629.507	-200.000	-0.009	-0.054
-628.492	-200.000	0.059	-0.335
-627.478	800.000	-0.119	0.346
-626.463	-21.653	0.143	0.088
-625.449	800.000	-0.074	0.216
-624.434	145.408	-0.119	-0.161
-623.419	211.964	-0.134	0.212
-622.405	-200.000	-0.007	-0.137
-621.390	31.156	-0.230	-0.198
-620.376	-166.329	0.337	0.014
-619.361	-45.457	0.322	0.160
-618.346	-200.000	0.000	-0.156
-617.332	90.587	-0.054	-0.060
-616.317	105.334	-0.034	-0.040
-615.303	-200.000	0.012	0.063
-614.288	230.250	0.092	-0.151
-613.273	-90.346	0.240	-0.070
-612.259	-200.000	0.012	-0.166
-611.244	-17.147	0.248	0.158
-610.230	800.000	-0.020	-0.089
-609.215	-90.430	-0.400	0.117
-608.201	-200.000	0.018	-0.080
-607.186	-200.000	0.032	-0.208
-606.171	-28.677	-0.368	-0.213
-605.157	800.000	-0.043	0.151
-604.142	84.908	-0.147	-0.162
-603.128	62.122	0.168	-0.169
-602.113	63.091	-0.173	0.174
-601.098	179.758	0.087	-0.128
-600.084	86.832	-0.151	0.168
-599.069	-133.544	0.089	0.011
-598.055	189.117	0.325	-0.490
-597.040	199.897	-0.130	-0.200
-596.025	238.857	0.094	-0.157
-595.011	800.000	-0.036	0.101
-593.996	-200.000	-0.028	-0.389
-592.982	-79.431	0.256	-0.087
-591.967	-200.000	-0.002	0.127
-590.952	-126.715	0.178	-0.026
-589.938	128.391	-0.120	0.153
-588.923	-131.059	0.100	0.013
-587.909	800.000	-0.025	-0.094
-586.894	206.191	-0.183	0.285
-585.879	6.966	-0.159	-0.119
-584.865	252.916	-0.061	-0.104
-583.850	-123.658	0.130	0.021
-582.836	40.544	0.078	-0.070
-581.821	134.722	-0.130	-0.169
-580.806	616.886	0.127	0.320
-579.792	313.068	-0.021	0.040
-578.777	-123.678	-0.306	-0.049
-577.763	297.748	0.118	0.217
-576.748	-200.000	0.011	0.150
-575.733	-151.160	-0.358	0.027
-574.719	-21.675	-0.089	-0.054
-573.704	-73.982	0.234	-0.085
-572.690	-169.818	0.380	0.014
-571.675	-73.789	0.099	-0.036
-570.661	-10.364	-0.332	-0.221
-569.646	-135.649	0.117	-0.014
-568.631	-148.840	0.110	-0.009
-567.617	-200.000	-0.066	0.305
-566.602	-116.939	-0.253	0.046
-565.588	-20.899	-0.222	0.137
-564.573	800.000	-0.070	-0.274
-563.558	-200.000	0.005	-0.035
-562.544	800.000	0.051	-0.148
-561.529	-200.000	-0.016	0.272
-560.515	54.309	0.302	0.292
-559.500	230.729	-0.219	0.359
-558.485	-68.755	-0.043	-0.017
-557.471	794.653	-0.044	0.121
-556.456	69.705	-0.277	-0.286
-555.442	18.759	-0.176	0.141
-554.427	-118.130	-0.257	-0.046
-553.412	292.331	-0.099	-0.182
-552.398	-61.317	-0.183	-0.077
-551.383	-200.000	-0.072	0.477
-550.369	-105.415	-0.258	-0.059
-549.354	-100.188	0.105	-0.026
-548.339	-76.786	-0.339	-0.119
-547.325	18.592	0.258	-0.207
-546.310	-99.423	-0.280	-0.071
-545.296	-19.536	-0.195	-0.121
-544.281	724.756	0.090	-0.242
-543.266	-189.947	-0.130	-0.001
-542.252	-200.000	0.066	0.401
-541.237	343.479	-0.187	0.368
-540.223	800.000	0.023	0.081
-539.208	226.482	-0.078	-0.126
-538.193	20.504	0.073	0.059
-537.179	800.000	-0.104	0.388
-536.164	-65.878	0.196	-0.079
-535.150	-132.183	-0.446	0.058
-534.135	-200.000	0.009	0.358
-533.121	102.390	0.221	0.259
-532.106	-47.063	-0.061	-0.030
-531.091	19.091	0.107	0.086
-530.077	-7.620	-0.273	0.185
-529.062	-17.702	0.215	0.136
-528.048	-39.377	0.148	-0.078
-527.033	-103.465	-0.206	0.048
-526.018	58.625	-0.225	0.222
-525.004	135.931	-0.274	-0.357
-523.989	-52.886	0.093	0.043
-522.975	-200.000	0.029	0.309
-521.960	-43.107	-0.165	0.084
-520.945	97.566	-0.047	-0.054
-519.931	-123.017	-0.339	-0.055
-518.916	60.736	0.046	-0.045
-517.902	-152.823	-0.224	-0.016
-516.887	791.958	-0.065	0.180
-515.872	-200.000	0.008	-0.288
-514.858	-109.925	-0.207	0.043
-513.843	-200.000	-0.040	0.189
-512.829	-61.842	0.283	-0.119
-511.814	28.294	0.234	0.198
-510.799	-200.000	0.053	0.240
-509.785	-136.499	-0.190	0.022
-508.770	-67.445	-0.131	-0.051
-507.756	127.483	-0.077	0.098
-506.741	64.723	-0.130	0.131
-505.726	60.219	0.136	0.134
-504.712	636.027	0.064	0.162
-503.697	-200.000	0.022	0.175
-502.683	91.962	0.165	0.185
-501.668	302.161	0.141	-0.262
-500.653	130.494	-0.208	0.267
-499.639	128.991	-0.152	0.195
-498.624	-55.943	-0.132	0.059
-497.610	-200.000	-0.007	0.095
-496.595	-175.317	-0.183	-0.005
-495.581	800.000	-0.044	-0.166
-494.566	-126.449	-0.132	-0.020
-493.551	800.000	-0.041	0.170
-492.537	-71.092	0.017	-0.006
-491.522	800.000	-0.081	-0.331
-490.508	87.796	0.250	0.278
-489.493	-42.119	-0.513	0.263
-488.478	456.037	-0.113	-0.251
-487.464	72.624	-0.080	-0.083
-486.449	800.000	0.041	-0.129
-485.435	70.515	0.304	0.314
-484.420	-41.536	-0.113	0.058
-483.405	-53.505	0.144	-0.066
-482.391	-45.556	0.199	-0.099
-481.376	-69.769	0.605	-0.231
-480.362	113.107	-0.190	0.230
-479.347	-25.468	0.152	-0.090
-478.332	-200.000	-0.013	-0.080
-477.318	800.000	-0.008	-0.024
-476.303	208.826	-0.095	0.149
-475.289	171.146	-0.193	0.277
-474.274	-50.581	0.231	0.109
-473.259	-76.503	-0.094	-0.033
-472.245	800.000	0.046	0.161
-471.230	115.448	-0.206	-0.252
-470.216	100.945	0.079	-0.092
-469.201	134.760	0.138	-0.179
-468.186	145.676	0.139	-0.187
-467.172	-196.399	-0.209	0.001
-466.157	169.306	0.099	-0.142
-465.143	-200.000	0.032	-0.278
-464.128	556.415	-0.078	-0.187
-463.113	-200.000	-0.048	-0.351
-462.099	67.651	-0.228	-0.232
-461.084	534.012	0.080	0.189
-460.070	239.884	0.135	-0.224
-459.055	-200.000	0.068	0.337
-458.040	800.000	-0.051	-0.201
-457.026	59.955	0.023	-0.023
-456.011	244.299	-0.224	-0.377
-454.997	800.000	-0.083	-0.232
-453.982	151.027	0.219	-0.298
-452.968	800.000	-0.057	-0.247
-451.953	-84.294	-0.279	-0.088
-450.938	800.000	-0.147	-0.445
-449.924	33.958	0.180	0.157
-448.909	-200.000	0.038	-0.193
-447.895	800.000	0.020	0.089
-446.880	71.017	-0.024	-0.025
-445.865	-196.215	0.212	-0.001
-444.851	162.263	-0.127	0.177
-443.836	0.750	0.261	-0.187
-442.822	-23.482	0.233	-0.140
-441.807	-200.000	-0.013	-0.234
-440.792	-120.126	-0.552	-0.094
-439.778	381.537	-0.060	-0.124
-438.763	167.942	-0.100	-0.141
-437.749	-85.656	-0.059	0.018
-436.734	-102.375	0.175	0.042
-435.719	-177.335	-0.380	0.009
-434.705	-93.764	-0.092	-0.025
-433.690	-58.781	-0.233	0.101
-432.676	397.807	0.085	-0.177
-431.661	-36.909	0.025	-0.013
-430.646	-200.000	-0.032	0.194
-429.632	352.727	-0.081	0.161
-428.617	-2.027	0.151	0.106
-427.603	-200.000	0.045	0.253
-426.588	800.000	-0.079	-0.234
-425.573	-97.824	-0.126	0.032
-424.559	-17.192	-0.441	0.278
-423.544	-84.762	0.228	-0.072
-422.530	-97.830	0.213	0.055
-421.515	-200.000	-0.001	-0.286
-420.500	-139.004	-0.121	-0.013
-419.486	78.707	0.217	-0.232
-418.471	-9.882	-0.028	0.019
-417.457	129.524	0.344	0.439
-416.442	217.907	0.039	0.062
-415.428	-119.149	0.167	0.029
-414.413	3.624	-0.318	-0.232
-413.398	48.403	-0.161	-0.150
-412.384	-108.554	0.241	0.052
-411.369	240.691	0.124	0.207
-410.355	230.230	0.078	-0.127
-409.340	80.468	-0.171	0.184
-408.325	-200.000	0.009	0.053
-407.311	-141.456	-0.271	-0.027
-406.296	5.073	0.313	0.230
-405.282	248.344	0.050	0.085
-404.267	800.000	0.025	0.100
-403.252	800.000	-0.097	0.339
-402.238	17.404	0.160	0.127
-401.223	-45.710	-0.339	-0.167
-400.209	396.948	-0.057	0.119
-399.194	-200.000	0.045	0.209
-398.179	783.569	0.107	0.293
-397.165	800.000	-0.036	0.122
-396.150	-125.053	0.224	-0.034
-395.136	65.668	-0.134	0.135
-394.121	-200.000	0.035	-0.268
-393.106	-200.000	0.076	0.394
-392.092	-145.463	-0.150	0.013
-391.077	181.284	-0.158	0.232
-390.063	-200.000	0.061	0.362
-389.048	-96.963	0.431	0.113
-388.033	413.762	-0.198	-0.421
-387.019	-190.688	-0.141	0.001
-386.004	324.588	0.139	0.265
-384.990	200.052	0.170	-0.260
-383.975	325.951	0.103	-0.197
-382.960	175.842	-0.100	0.145
-381.946	-51.867	0.123	0.057
-380.931	800.000	0.052	0.164
-379.917	800.000	0.049	-0.186
-378.902	-2.542	-0.042	0.029
-377.888	-57.731	-0.195	0.085
-376.873	-200.000	-0.004	0.187
-375.858	18.373	0.239	0.190
-374.844	800.000	0.056	-0.171
-373.829	-200.000	0.016	-0.253
-372.815	800.000	0.057	0.214
-371.800	-83.659	-0.176	0.056
-370.785	63.222	0.174	0.174
-369.771	800.000	0.106	-0.359
-368.756	31.851	0.045	-0.039
-367.742	-114.953	0.256	-0.049
-366.727	800.000	-0.042	0.129
-365.712	-60.919	0.150	-0.063
-364.698	-200.000	-0.005	0.038
-363.683	297.129	-0.109	0.200
-362.669	-200.000	-0.030	0.167
-361.654	-64.697	-0.071	0.029
-360.639	800.000	-0.033	-0.118
-359.625	518.788	0.109	0.255
-358.610	-26.928	-0.326	0.189
-357.596	800.000	-0.019	0.079
-356.581	-25.518	0.263	0.155
-355.566	360.397	0.135	0.268
-354.552	-200.000	0.023	0.134
-353.537	39.639	0.072	-0.064
-352.523	-88.230	-0.017	-0.005
-351.508	-154.927	0.315	-0.021
-350.493	3.942	-0.168	-0.122
-349.479	-200.000	-0.051	-0.270
-348.464	36.860	0.027	0.024
-347.450	52.883	-0.191	0.182
-346.435	-17.040	0.168	-0.105
-345.420	-33.122	-0.266	0.147
-344.406	800.000	-0.035	-0.130
-343.391	479.129	0.020	-0.046
-342.377	317.845	-0.061	0.114
-341.362	126.568	-0.180	0.226
-340.348	329.021	-0.066	0.126
-339.333	-83.642	-0.094	-0.030
-338.318	100.218	0.389	-0.448
-337.304	200.757	0.185	-0.283
-336.289	551.061	0.083	0.197
-335.275	-31.921	0.018	0.010
-334.260	473.608	0.078	-0.174
-333.245	231.344	0.102	0.167
-332.231	-82.211	0.210	-0.068
-331.216	198.367	-0.113	-0.172
-330.202	-100.280	0.030	-0.007
-329.187	-45.545	0.214	-0.106
-328.172	5.550	-0.294	-0.216
-327.158	543.247	0.058	0.138
-326.143	50.463	-0.179	-0.169
-325.129	-115.145	-0.306	0.058
-324.114	5.870	0.172	0.127
-323.099	-61.290	-0.135	0.057
-322.085	-93.446	-0.104	-0.029
-321.070	215.307	-0.335	0.529
-320.056	-103.540	-0.232	-0.054
-319.041	99.642	-0.191	-0.220
-318.026	-96.558	0.171	0.045
-317.012	286.024	0.109	-0.195
-315.997	44.252	-0.324	0.296
-314.983	-130.734	0.055	0.007
-313.968	-200.000	-0.014	0.468
-312.953	-130.159	0.149	0.020
-311.939	257.372	0.048	0.083
-310.924	-168.292	-0.392	-0.015
-309.910	-200.000	-0.046	-0.227
-308.895	-8.305	-0.166	-0.111
-307.880	-200.000	-0.004	0.204
-306.866	-59.815	0.293	0.125
-305.851	515.170	-0.033	0.077
-304.837	-78.129	-0.351	-0.120
-303.822	99.152	-0.201	0.231
-302.807	36.524	-0.145	-0.127
-301.793	29.479	0.333	-0.282
-300.778	-87.259	0.261	-0.079
-299.764	104.768	0.095	-0.112
-298.749	-200.000	0.014	-0.133
-297.735	334.277	-0.033	0.063
-296.720	-200.000	0.009	-0.134
-295.705	131.019	-0.201	0.256
-294.691	-75.764	-0.128	0.045
-293.676	62.217	0.034	-0.034
-292.662	-81.414	-0.086	0.028
-291.647	800.000	-0.039	-0.153
-290.632	-66.686	0.227	0.089
-289.618	-47.877	0.194	-0.093
-288.603	150.192	0.249	0.335
-287.589	-23.593	0.314	-0.187
-286.574	-45.313	0.377	-0.186
-285.559	263.323	0.065	0.111
-284.545	31.705	0.100	-0.085
-283.530	100.993	-0.153	0.177
-282.516	-72.989	-0.216	-0.079
-281.501	-200.000	0.009	-0.179
-280.486	-96.672	0.046	-0.012
-279.472	201.441	0.276	0.422
-278.457	-40.596	-0.289	-0.149
-277.443	-110.441	0.367	0.076
-276.428	-72.649	-0.040	0.014
-275.413	441.028	0.148	-0.322
-274.399	-20.125	0.092	-0.057
-273.384	124.817	0.042	-0.052
-272.370	-61.208	0.117	0.049
-271.355	-31.949	0.261	-0.145
-270.340	-200.000	-0.000	-0.077
-269.326	-152.065	-0.254	-0.018
-268.311	32.828	-0.167	-0.144
-267.297	481.786	-0.063	-0.142
-266.282	656.291	0.058	-0.147
-265.267	-4.040	0.075	-0.051
-264.253	-119.032	-0.338	-0.059
-263.238	800.000	0.058	0.183
-262.224	22.854	0.116	0.094
-261.209	-200.000	-0.243	-0.001
-260.195	706.792	-0.065	-0.170
-259.180	31.532	-0.082	0.070
-258.165	110.520	0.238	0.284
-257.151	-200.000	0.003	-0.173
-256.136	267.077	-0.102	0.177
-255.122	-108.869	-0.257	-0.054
-254.107	111.001	0.199	-0.238
-253.092	438.501	0.160	-0.347
-252.078	773.386	0.072	-0.193
-251.063	70.749	0.146	-0.150
-250.049	470.067	0.102	0.227
-249.034	-45.772	0.167	0.082
-248.019	141.014	-0.067	-0.088
-247.005	555.542	0.038	0.092
-245.990	-200.000	0.016	-0.247
-244.976	-200.000	0.015	0.165
-243.961	242.484	0.078	0.130
-242.946	27.426	-0.263	0.219
-241.932	-55.660	-0.237	0.105
-240.917	731.251	-0.070	-0.184
-239.903	96.477	0.125	0.142
-238.888	-200.000	0.022	-0.264
-237.873	-200.000	-0.049	-0.233
-236.859	-157.958	-0.170	0.010
-235.844	-107.499	-0.596	-0.129
-234.830	39.624	-0.194	-0.173
-233.815	41.800	-0.265	0.238
-232.800	13.686	-0.168	-0.129
-231.786	-9.407	0.094	0.062
-230.771	-181.185	-0.174	0.003
-229.757	-143.433	0.173	0.016
-228.742	800.000	-0.092	0.346
-227.727	146.157	0.139	0.185
-226.713	26.867	-0.162	-0.134
-225.698	-200.000	0.009	0.092
-224.684	800.000	0.082	-0.331
-223.669	-200.000	-0.045	-0.215
-222.655	413.997	0.094	0.197
-221.640	-167.378	0.337	-0.013
-220.625	77.302	-0.106	0.112
-219.611	-67.395	0.295	0.115
-218.596	84.589	0.086	-0.094
-217.582	800.000	-0.166	-0.540
-216.567	193.136	-0.165	0.247
-215.552	-143.555	0.219	-0.021
-214.538	140.730	-0.220	-0.288
-213.523	198.446	0.141	0.214
-212.509	550.303	-0.125	-0.297
-211.494	352.103	-0.100	-0.196
-210.479	-37.953	0.324	-0.171
-209.465	-72.001	0.119	-0.044
-208.450	-200.000	-0.010	0.192
-207.436	-75.357	-0.105	-0.037
-206.421	-76.303	0.069	0.024
-205.406	46.426	0.168	-0.154
-204.392	-200.000	-0.048	0.219
-203.377	35.608	-0.106	-0.092
-202.363	-113.022	0.492	-0.096
-201.348	460.617	-0.098	-0.217
-200.333	53.984	0.118	0.113
-199.319	-110.477	0.443	-0.091
-198.304	71.738	0.280	-0.288
-197.290	196.592	-0.096	-0.145
-196.275	138.228	0.189	-0.245
-195.260	-200.000	-0.032	0.567
-194.246	-14.714	0.223	0.142
-193.231	35.227	-0.185	0.161
-192.217	-168.238	0.171	0.007
-191.202	88.736	0.159	-0.174
-190.187	175.077	0.129	-0.185
-189.173	-200.000	-0.001	0.056
-188.158	-62.264	-0.131	0.054
-187.144	183.532	-0.051	-0.075
-186.129	-200.000	-0.038	-0.165
-185.114	800.000	0.054	-0.148
-184.100	-95.181	0.148	-0.040
-183.085	441.170	0.049	0.106
-182.071	-64.200	0.100	-0.040
-181.056	371.744	0.204	0.409
-180.042	-25.516	0.314	0.183
-179.027	159.957	0.180	0.248
-178.012	45.714	-0.303	-0.277
-176.998	-95.767	-0.183	0.048
-175.983	70.108	0.186	-0.190
-174.969	155.174	-0.112	-0.153
-173.954	735.831	0.037	0.098
-172.939	414.775	0.050	-0.106
-171.925	-200.000	-0.012	0.141
-170.910	541.514	-0.175	0.413
-169.896	126.737	0.046	-0.058
-168.881	-75.065	0.227	0.080
-167.866	800.000	-0.135	-0.446
-166.852	51.837	0.122	0.114
-165.837	-62.234	-0.069	0.028
-164.823	175.299	0.168	0.240
-163.808	573.938	-0.038	0.091
-162.793	800.000	0.046	-0.184
-161.779	800.000	0.067	-0.241
-160.764	100.104	-0.215	-0.247
-159.750	-40.754	0.241	0.123
-158.735	94.079	0.134	-0.150
-157.720	107.183	0.113	-0.133
-156.706	-200.000	0.026	-0.144
-155.691	-1.539	0.065	0.046
-154.677	-200.000	-0.001	0.196
-153.662	393.443	-0.145	-0.299
-152.647	-68.456	0.295	-0.113
-151.633	-200.000	-0.020	-0.292
-150.618	-87.800	0.152	-0.045
-149.604	30.237	-0.231	0.194
-148.589	800.000	-0.083	-0.310
-147.574	58.052	0.068	-0.066
-146.560	-106.569	0.250	-0.055
-145.545	-173.703	0.322	-0.009
-144.531	-200.000	-0.205	-0.001
-143.516	-200.000	0.016	0.248
-142.502	-154.547	-0.046	0.003
-141.487	-51.738	-0.051	-0.023
-140.472	134.637	0.127	-0.163
-139.458	332.071	0.102	0.193
-138.443	122.981	0.252	0.312
-137.429	-75.935	-0.113	-0.039
-136.414	-121.772	-0.131	0.021
-135.399	-120.161	-0.340	-0.057
-134.385	459.389	-0.066	0.144
-133.370	-2.206	-0.298	0.207
-132.356	800.000	0.049	-0.185
-131.341	-200.000	-0.009	0.135
-130.326	192.338	-0.121	0.181
-129.312	165.171	0.016	-0.023
-128.297	-36.740	0.164	-0.087
-127.283	106.252	0.067	-0.079
-126.268	-200.000	-0.061	-0.345
-125.253	205.673	0.247	0.379
-124.239	-62.343	0.259	0.106
-123.224	0.544	0.181	-0.128
-122.210	800.000	-0.113	0.429
-121.195	125.837	0.212	-0.265
