DTS Sentinel unit serial number:	SN413079Multiplexer serial number:	ORYXHardware model number:	OX4-SRSoftware version number:	ORYX F/W v4.00 Oryx Data Collector v3.7.2.0data status	okinstallation	princeton_trtdifferential loss correction	single-endedforward channel	channel 4reverse channel	N/Adate	2019/09/12time	04:55:10forward acquisition time	60.00reverse acquisition time	0.00gamma	496.2192k internal	0.2309k external	0.2309temperature offset calibration	1.0083default loss term (dB/km)	0.3790temperature slope calibration	1.0000multiplexer offset coefficient	1.0000multiplexer slope coefficient	1.0000fibre end	0.00T internal ref (°C)	31.69T ext. ref 1 (°C)	1.86T ext. ref 2 (°C)	27.14length (m)	temperature (°C)	Stokes	anti-Stokes-747.200	151.647	-0.105	0.145
-746.185	-121.205	0.159	-0.027
-745.171	-147.800	0.194	0.016
-744.156	800.000	-0.050	0.208
-743.142	28.737	0.127	0.109
-742.127	-200.000	-0.009	0.309
-741.112	-15.900	0.020	0.013
-740.098	-143.614	-0.183	0.018
-739.083	336.023	-0.162	0.320
-738.069	800.000	0.012	0.049
-737.054	-95.602	0.259	0.071
-736.039	4.091	-0.417	-0.310
-735.025	-200.000	-0.028	0.226
-734.010	89.577	-0.127	-0.144
-732.996	334.528	-0.145	-0.286
-731.981	168.342	-0.162	0.234
-730.966	40.359	-0.057	-0.052
-729.952	800.000	-0.054	-0.173
-728.937	-147.989	-0.258	-0.022
-727.923	44.208	0.181	0.168
-726.908	47.519	-0.330	0.312
-725.894	-200.000	-0.042	-0.331
-724.879	-95.507	0.157	-0.043
-723.864	17.354	0.165	-0.133
-722.850	148.235	0.229	0.314
-721.835	-7.362	-0.097	-0.067
-720.821	12.302	0.327	0.256
-719.806	-200.000	0.058	-0.290
-718.791	35.147	-0.238	-0.212
-717.777	-200.000	-0.018	-0.100
-716.762	84.562	-0.247	-0.274
-715.748	124.133	-0.075	0.096
-714.733	-23.586	-0.132	-0.080
-713.718	-5.626	0.144	0.100
-712.704	91.660	0.138	0.157
-711.689	-197.419	0.105	0.001
-710.675	-12.421	-0.117	0.077
-709.660	84.809	-0.194	0.216
-708.645	-23.619	0.325	-0.198
-707.631	245.862	0.277	-0.473
-706.616	-41.293	-0.162	-0.085
-705.602	270.254	0.193	-0.345
-704.587	800.000	-0.036	0.125
-703.572	-42.856	-0.045	0.023
-702.558	30.866	0.169	-0.147
-701.543	-138.190	0.152	-0.017
-700.529	-200.000	0.036	-0.367
-699.514	-200.000	-0.009	0.155
-698.499	-190.881	0.390	-0.004
-697.485	-167.777	-0.379	-0.015
-696.470	-200.000	-0.097	0.431
-695.456	-56.423	0.451	0.203
-694.441	-159.083	-0.194	-0.011
-693.426	-26.411	-0.288	-0.171
-692.412	-142.079	-0.044	-0.004
-691.397	48.988	0.110	0.105
-690.383	-61.196	-0.461	0.197
-689.368	-2.716	-0.066	0.047
-688.354	233.604	0.105	0.176
-687.339	-200.000	-0.004	0.155
-686.324	-149.393	0.087	-0.007
-685.310	604.206	-0.075	0.190
-684.295	178.622	-0.081	-0.119
-683.281	800.000	0.018	-0.081
-682.266	47.008	0.038	-0.036
-681.251	-75.969	0.256	0.092
-680.237	402.078	-0.028	0.061
-679.222	13.885	0.077	0.061
-678.208	215.032	0.079	0.126
-677.193	800.000	-0.063	0.233
-676.178	-200.000	0.013	0.206
-675.164	-200.000	-0.061	0.306
-674.149	5.683	0.083	-0.062
-673.135	158.625	0.252	0.355
-672.120	-30.279	-0.228	-0.131
-671.105	352.945	0.067	-0.135
-670.091	800.000	-0.081	0.331
-669.076	-23.019	0.219	-0.134
-668.062	-131.227	-0.286	-0.038
-667.047	-85.487	-0.374	0.118
-666.032	-17.109	-0.221	-0.141
-665.018	9.055	0.125	0.096
-664.003	-7.843	0.102	0.070
-662.989	14.161	-0.370	0.291
-661.974	-200.000	0.000	0.057
-660.959	-62.598	0.176	0.074
-659.945	-166.762	0.043	-0.002
-658.930	1.539	0.241	0.176
-657.916	800.000	-0.033	0.117
-656.901	-144.826	0.392	-0.036
-655.886	24.283	-0.096	-0.080
-654.872	-200.000	-0.005	0.169
-653.857	2.959	0.032	0.024
-652.843	79.734	-0.056	0.061
-651.828	-48.013	0.322	0.158
-650.814	-113.743	0.188	0.037
-649.799	-137.315	0.032	-0.004
-648.784	-103.800	0.208	-0.049
-647.770	-113.259	-0.344	-0.068
-646.755	50.958	-0.244	0.234
-645.741	407.966	0.068	-0.146
-644.726	-137.573	0.318	0.036
-643.711	800.000	-0.053	0.226
-642.697	-25.566	-0.326	-0.195
-641.682	109.832	-0.194	-0.235
-640.668	-200.000	0.012	-0.247
-639.653	-200.000	0.009	-0.069
-638.638	83.683	-0.249	-0.275
-637.624	-200.000	0.032	0.181
-636.609	-27.640	-0.079	0.046
-635.595	-200.000	-0.014	0.127
-634.580	-122.857	0.108	0.018
-633.565	-170.972	-0.116	0.004
-632.551	-200.000	-0.020	-0.237
-631.536	49.250	0.135	-0.129
-630.522	151.911	0.153	-0.211
-629.507	-93.884	0.021	-0.006
-628.492	-169.554	-0.304	0.011
-627.478	-7.694	0.193	-0.132
-626.463	-200.000	-0.009	0.160
-625.449	-56.782	-0.254	0.114
-624.434	507.295	-0.070	0.165
-623.419	-11.750	0.246	-0.164
-622.405	-200.000	0.005	-0.165
-621.390	-54.655	-0.280	-0.128
-620.376	-102.533	0.233	-0.056
-619.361	-14.801	0.263	-0.171
-618.346	67.472	-0.240	0.248
-617.332	98.436	0.019	-0.022
-616.317	-200.000	-0.007	-0.342
-615.303	180.572	0.161	-0.238
-614.288	22.999	-0.366	0.304
-613.273	218.050	0.214	0.345
-612.259	439.917	-0.080	0.176
-611.244	167.543	0.124	-0.178
-610.230	-128.483	0.091	-0.013
-609.215	-200.000	0.052	0.324
-608.201	-200.000	0.003	-0.169
-607.186	81.067	0.159	-0.173
-606.171	48.044	-0.030	-0.029
-605.157	-159.467	0.290	-0.016
-604.142	-105.773	-0.283	-0.065
-603.128	-17.864	-0.208	-0.132
-602.113	-40.817	0.229	0.120
-601.098	-81.335	-0.216	0.072
-600.084	-128.056	-0.282	0.041
-599.069	106.586	0.058	0.069
-598.055	213.904	-0.120	-0.192
-597.040	-200.000	-0.010	-0.047
-596.025	-128.967	0.225	0.032
-595.011	-200.000	-0.064	0.285
-593.996	45.723	0.015	0.014
-592.982	526.097	0.029	0.069
-591.967	-30.229	0.116	0.067
-590.952	-29.030	-0.101	0.058
-589.938	231.449	-0.107	0.177
-588.923	-47.087	-0.101	-0.050
-587.909	-14.997	0.233	-0.151
-586.894	223.835	-0.100	-0.163
-585.879	-78.272	-0.202	-0.070
-584.865	622.841	-0.062	0.158
-583.850	790.443	0.088	-0.244
-582.836	-92.937	-0.187	-0.053
-581.821	-94.052	0.099	0.027
-580.806	-40.525	-0.285	-0.149
-579.792	669.219	0.025	0.066
-578.777	800.000	-0.189	0.619
-577.763	800.000	0.024	0.091
-576.748	-154.787	0.095	0.006
-575.733	3.119	-0.156	-0.115
-574.719	60.643	-0.046	-0.046
-573.704	-75.931	-0.284	0.101
-572.690	-14.157	0.065	0.043
-571.675	344.093	0.103	-0.205
-570.661	-200.000	-0.055	0.308
-569.646	117.851	-0.206	0.256
-568.631	-139.287	-0.216	-0.023
-567.617	38.752	-0.117	-0.105
-566.602	-200.000	-0.066	0.366
-565.588	-78.022	0.130	-0.045
-564.573	-36.457	0.387	-0.210
-563.558	-79.719	0.200	-0.068
-562.544	-65.904	-0.210	0.085
-561.529	163.912	-0.063	-0.090
-560.515	-200.000	-0.046	-0.397
-559.500	-131.508	0.141	0.019
-558.485	-95.042	0.282	0.077
-557.471	-200.000	-0.047	0.251
-556.456	-200.000	0.032	-0.315
-555.442	-11.805	-0.200	-0.132
-554.427	-97.495	0.278	-0.073
-553.412	-66.847	-0.159	0.063
-552.398	95.640	-0.088	0.101
-551.383	-200.000	0.022	0.101
-550.369	-137.713	0.130	0.015
-549.354	24.545	0.313	0.261
-548.339	-54.155	0.261	0.119
-547.325	-85.611	0.194	0.061
-546.310	-45.564	-0.094	0.047
-545.296	-83.054	-0.195	0.063
-544.281	515.985	-0.084	-0.198
-543.266	-19.603	-0.131	0.081
-542.252	-46.113	0.103	0.051
-541.237	-123.775	0.135	-0.022
-540.223	-54.826	-0.200	-0.091
-539.208	800.000	0.111	-0.411
-538.193	205.807	-0.133	0.208
-537.179	-200.000	0.002	-0.031
-536.164	-57.566	0.130	-0.057
-535.150	-200.000	0.002	-0.223
-534.135	39.383	-0.167	-0.151
-533.121	-8.344	-0.129	-0.087
-532.106	54.236	0.063	-0.061
-531.091	-200.000	0.004	0.172
-530.077	-103.894	-0.226	-0.053
-529.062	-160.791	-0.168	-0.009
-528.048	-122.340	-0.282	0.046
-527.033	-45.521	0.080	0.040
-526.018	-151.646	0.225	0.017
-525.004	-135.448	0.241	0.029
-523.989	-168.927	-0.138	-0.005
-522.975	800.000	0.063	-0.178
-521.960	574.698	-0.034	0.083
-520.945	21.476	-0.099	-0.081
-519.931	90.234	0.209	-0.236
-518.916	-200.000	-0.002	0.178
-517.902	199.222	0.150	0.231
-516.887	800.000	-0.122	0.404
-515.872	-189.701	-0.257	-0.003
-514.858	-81.448	0.355	-0.118
-513.843	140.002	-0.066	-0.087
-512.829	800.000	-0.044	0.128
-511.814	-82.048	-0.130	0.043
-510.799	-102.878	-0.316	0.076
-509.785	61.794	-0.058	-0.058
-508.770	246.746	-0.045	0.076
-507.756	-200.000	0.029	-0.330
-506.741	-200.000	0.006	-0.038
-505.726	20.345	0.169	-0.137
-504.712	-106.877	-0.145	-0.032
-503.697	79.676	0.303	0.327
-502.683	-135.646	-0.073	-0.009
-501.668	111.589	-0.214	-0.260
-500.653	-96.506	-0.223	0.059
-499.639	498.757	0.098	-0.227
-498.624	800.000	0.038	0.168
-497.610	58.138	-0.115	0.114
-496.595	-200.000	0.028	-0.380
-495.581	208.047	-0.129	0.202
-494.566	-84.767	0.271	-0.086
-493.551	24.964	0.175	-0.146
-492.537	-58.397	-0.084	0.037
-491.522	30.883	-0.193	0.166
-490.508	87.208	0.067	-0.074
-489.493	-59.493	-0.226	0.098
-488.478	-60.412	0.189	-0.081
-487.464	800.000	-0.028	0.098
-486.449	679.354	0.101	-0.263
-485.435	-58.483	0.210	-0.092
-484.420	800.000	0.023	0.101
-483.405	-31.481	-0.141	0.079
-482.391	-61.185	0.046	-0.019
-481.376	-48.146	-0.190	0.092
-480.362	-175.029	0.124	-0.003
-479.347	-29.987	0.175	0.100
-478.332	-200.000	0.044	-0.275
-477.318	-79.274	0.335	0.114
-476.303	32.118	0.064	0.056
-475.289	64.645	-0.161	0.163
-474.274	-103.197	0.234	-0.056
-473.259	-200.000	0.001	0.183
-472.245	210.652	-0.062	0.099
-471.230	-200.000	-0.082	0.387
-470.216	-52.087	0.116	-0.054
-469.201	-22.410	0.150	-0.091
-468.186	-50.740	0.107	-0.051
-467.172	-88.553	-0.283	0.085
-466.157	800.000	0.142	-0.595
-465.143	32.350	0.181	0.157
-464.128	9.132	0.207	-0.157
-463.113	306.636	0.235	-0.439
-462.099	-55.319	0.117	0.053
-461.084	-162.148	-0.194	-0.010
-460.070	-200.000	0.005	-0.043
-459.055	74.040	-0.380	0.401
-458.040	-137.093	-0.263	0.030
-457.026	-134.738	0.345	-0.042
-456.011	-200.000	-0.001	0.198
-454.997	-68.784	-0.096	0.037
-453.982	335.846	-0.141	-0.275
-452.968	800.000	0.036	0.129
-451.953	-33.933	-0.358	0.198
-450.938	-107.086	0.287	0.064
-449.924	-103.101	-0.054	0.013
-448.909	-200.000	-0.006	0.185
-447.895	187.945	0.243	0.364
-446.880	55.354	-0.223	0.217
-445.865	-200.000	0.035	0.165
-444.851	-1.517	0.284	0.201
-443.836	-170.472	-0.218	-0.008
-442.822	800.000	0.078	-0.310
-441.807	122.163	-0.131	-0.165
-440.792	800.000	0.058	-0.185
-439.778	-78.242	-0.235	-0.081
-438.763	718.067	0.176	0.469
-437.749	-47.344	-0.115	0.056
-436.734	-129.138	0.146	0.020
-435.719	-200.000	-0.046	-0.228
-434.705	42.871	0.128	-0.117
-433.690	-28.484	-0.291	0.168
-432.676	-82.164	0.338	0.110
-431.661	-30.234	0.234	0.134
-430.646	144.043	-0.176	-0.235
-429.632	-13.072	-0.132	-0.086
-428.617	800.000	0.112	0.330
-427.603	-79.209	-0.288	0.098
-426.588	800.000	-0.085	0.261
-425.573	-17.527	0.238	-0.150
-424.559	135.669	-0.169	-0.221
-423.544	6.368	-0.308	-0.229
-422.530	36.373	-0.153	0.135
-421.515	1.765	0.215	-0.156
-420.500	37.744	0.267	-0.238
-419.486	800.000	-0.042	-0.124
-418.471	-45.902	0.249	-0.123
-417.457	444.128	-0.069	-0.153
-416.442	-181.632	0.015	0.000
-415.428	-47.721	0.050	0.024
-414.413	-200.000	-0.004	-0.047
-413.398	-192.790	-0.122	-0.001
-412.384	-200.000	-0.330	0.000
-411.369	117.015	0.038	-0.047
-410.355	51.518	-0.038	-0.036
-409.340	463.733	-0.132	0.296
-408.325	223.244	0.139	-0.224
-407.311	-59.515	-0.164	-0.071
-406.296	800.000	-0.043	0.128
-405.282	411.761	0.044	0.094
-404.267	-200.000	0.028	0.354
-403.252	-28.613	-0.120	-0.069
-402.238	-125.338	0.300	0.046
-401.223	41.460	0.261	-0.237
-400.209	-200.000	0.007	-0.074
-399.194	121.724	0.152	0.190
-398.179	-148.366	0.153	-0.013
-397.165	8.851	-0.230	-0.174
-396.150	-200.000	0.043	-0.335
-395.136	-11.034	0.216	0.143
-394.121	587.316	0.087	-0.215
-393.106	-200.000	-0.016	0.096
-392.092	-109.664	-0.237	-0.050
-391.077	-132.470	-0.242	-0.031
-390.063	-83.494	-0.181	0.058
-389.048	-16.942	0.396	0.250
-388.033	-200.000	0.051	0.244
-387.019	-46.343	-0.344	-0.170
-386.004	-200.000	-0.073	-0.329
-384.990	-200.000	-0.072	0.389
-383.975	-150.074	-0.295	0.023
-382.960	-155.103	-0.148	-0.010
-381.946	800.000	0.105	0.306
-380.931	-200.000	-0.013	0.184
-379.917	15.957	-0.264	0.208
-378.902	-200.000	0.008	-0.150
-377.888	440.107	-0.208	-0.455
-376.873	35.424	0.358	0.314
-375.858	61.280	-0.089	-0.089
-374.844	-70.697	0.194	-0.073
-373.829	800.000	0.018	-0.060
-372.815	-200.000	0.037	0.328
-371.800	-200.000	0.046	0.233
-370.785	460.818	0.021	-0.046
-369.771	275.737	-0.087	-0.155
-368.756	106.635	-0.208	-0.247
-367.742	333.433	0.055	-0.106
-366.727	167.797	-0.076	0.108
-365.712	9.332	-0.114	0.086
-364.698	-200.000	0.027	-0.345
-363.683	691.554	0.076	-0.200
-362.669	135.645	-0.168	-0.219
-361.654	-96.447	0.177	0.047
-360.639	800.000	-0.163	0.548
-359.625	-83.959	-0.208	0.066
-358.610	221.769	0.024	-0.039
-357.596	-200.000	0.034	-0.259
-356.581	28.142	-0.135	0.114
-355.566	-200.000	-0.005	-0.058
-354.552	-55.866	0.260	-0.116
-353.537	276.210	-0.135	0.240
-352.523	-72.931	0.350	-0.129
-351.508	23.054	-0.113	0.093
-350.493	-127.409	-0.232	0.034
-349.479	153.264	0.117	-0.161
-348.464	-200.000	-0.042	0.282
-347.450	104.232	-0.088	-0.104
-346.435	4.310	0.066	-0.048
-345.420	-165.641	0.164	0.007
-344.406	43.505	-0.142	-0.130
-343.391	99.892	0.165	0.192
-342.377	16.086	-0.210	0.166
-341.362	82.590	-0.078	-0.084
-340.348	437.056	-0.074	0.161
-339.333	-68.869	-0.145	0.056
-338.318	-7.798	-0.057	-0.039
-337.304	-39.529	-0.243	0.127
-336.289	-72.696	-0.250	-0.092
-335.275	638.623	0.050	0.127
-334.260	468.004	-0.076	-0.170
-333.245	3.817	0.091	0.067
-332.231	181.897	0.028	-0.041
-331.216	-200.000	-0.050	-0.229
-330.202	135.659	-0.218	0.284
-329.187	800.000	0.100	0.337
-328.172	742.638	-0.159	0.428
-327.158	319.455	-0.094	0.178
-326.143	619.358	-0.065	-0.163
-325.129	189.664	0.200	-0.300
-324.114	-200.000	-0.028	-0.264
-323.099	-200.000	-0.028	0.237
-322.085	37.213	0.167	-0.148
-321.070	-200.000	0.029	0.145
-320.056	296.489	-0.114	0.209
-319.041	-185.189	-0.086	-0.001
-318.026	-3.880	0.268	-0.186
-317.012	32.298	-0.087	0.075
-315.997	47.759	0.331	0.308
-314.983	-44.284	-0.338	-0.169
-313.968	204.819	0.011	0.017
-312.953	-10.180	-0.089	0.059
-311.939	-48.443	0.354	-0.170
-310.924	156.744	-0.268	-0.370
-309.910	-9.399	-0.305	0.203
-308.895	-200.000	-0.040	-0.327
-307.880	765.179	0.101	-0.274
-306.866	109.435	-0.124	0.148
-305.851	192.966	0.129	-0.194
-304.837	507.343	0.058	-0.134
-303.822	-200.000	-0.015	0.165
-302.807	-26.973	0.376	-0.219
-301.793	-194.486	0.195	0.002
-300.778	-52.194	0.038	0.018
-299.764	39.960	-0.051	0.045
-298.749	-200.000	-0.038	0.372
-297.735	-200.000	-0.064	-0.414
-296.720	800.000	0.086	-0.375
-295.705	-55.319	0.277	-0.124
-294.691	311.014	-0.135	0.253
-293.676	800.000	-0.057	0.198
-292.662	-94.565	0.284	0.077
-291.647	335.649	-0.021	-0.041
-290.632	800.000	0.122	-0.445
-289.618	-26.310	-0.346	0.203
-288.603	-16.372	0.172	-0.109
-287.589	-200.000	-0.014	0.278
-286.574	116.252	0.137	0.168
-285.559	-1.507	0.189	0.133
-284.545	611.337	0.008	-0.019
-283.530	112.279	0.201	-0.242
-282.516	-35.341	0.074	-0.040
-281.501	434.131	0.128	0.277
-280.486	800.000	-0.064	0.186
-279.472	-82.192	0.286	-0.093
-278.457	-200.000	0.014	-0.158
-277.443	-200.000	-0.020	-0.185
-276.428	-83.307	-0.063	-0.020
-275.413	741.302	-0.069	0.185
-274.399	-90.922	0.197	0.057
-273.384	128.644	-0.087	0.110
-272.370	-76.286	0.390	-0.137
-271.355	-78.349	0.103	-0.035
-270.340	197.963	-0.086	-0.131
-269.326	-152.145	0.298	0.022
-268.311	370.173	0.089	0.180
-267.297	-166.061	0.333	-0.014
-266.282	7.408	0.241	0.179
-265.267	-69.200	-0.195	-0.075
-264.253	-107.899	-0.165	-0.036
-263.238	-59.564	-0.297	-0.127
-262.224	-126.645	-0.300	-0.044
-261.209	136.937	0.098	-0.127
-260.195	-39.690	-0.187	-0.098
-259.180	-184.192	0.301	-0.005
-258.165	-67.538	-0.094	-0.037
-257.151	-200.000	-0.027	-0.148
-256.136	-100.956	0.187	-0.046
-255.122	284.026	-0.131	-0.235
-254.107	-123.859	0.390	-0.061
-253.092	-200.000	-0.048	0.492
-252.078	43.119	0.086	-0.079
-251.063	53.800	-0.087	-0.084
-250.049	11.900	0.098	-0.075
-249.034	800.000	0.080	0.230
-248.019	-200.000	0.078	-0.372
-247.005	-31.248	0.293	-0.164
-245.990	-132.378	0.106	-0.014
-244.976	58.711	-0.161	0.158
-243.961	580.240	-0.183	0.446
-242.946	-19.263	0.364	0.225
-241.932	-90.038	-0.190	-0.055
-240.917	-185.069	0.100	0.002
-239.903	35.673	-0.148	-0.130
-238.888	-50.398	-0.374	-0.176
-237.873	108.998	0.141	0.168
-236.859	641.673	-0.101	-0.256
-235.844	-64.127	0.260	0.106
-234.830	93.121	0.091	0.103
-233.815	-200.000	0.009	-0.121
-232.800	138.221	0.146	-0.191
-231.786	-127.339	-0.290	-0.042
-230.771	-16.744	-0.125	-0.079
-229.757	-200.000	-0.032	-0.217
-228.742	-131.562	0.239	0.031
-227.727	-96.765	-0.245	0.064
-226.713	-80.334	-0.241	0.080
-225.698	263.689	0.087	-0.150
-224.684	-200.000	0.049	-0.273
-223.669	800.000	-0.150	0.428
-222.655	-10.474	0.060	0.040
-221.640	-200.000	-0.028	0.266
-220.625	146.064	0.140	0.187
-219.611	181.343	0.137	-0.201
-218.596	262.255	-0.140	-0.241
-217.582	429.215	-0.054	-0.116
-216.567	-135.450	-0.064	-0.008
-215.552	354.175	0.050	0.099
-214.538	-113.023	0.453	-0.089
-213.523	-23.620	0.078	-0.047
-212.509	-169.239	-0.353	0.013
-211.494	-5.836	0.264	0.180
-210.479	29.179	-0.051	-0.043
-209.465	-200.000	0.003	0.015
-208.450	-200.000	0.003	-0.042
-207.436	-98.860	-0.010	0.003
-206.421	454.492	-0.108	0.239
-205.406	800.000	-0.067	-0.279
-204.392	7.652	-0.222	0.166
-203.377	-20.690	0.122	0.075
-202.363	800.000	-0.071	-0.245
-201.348	1.949	-0.394	-0.283
-200.333	234.356	-0.208	0.341
-199.319	-200.000	0.000	-0.167
-198.304	-182.969	-0.154	0.003
-197.290	-8.579	0.273	0.183
-196.275	-48.401	0.236	0.113
-195.260	605.989	0.058	0.144
-194.246	195.571	0.109	0.164
-193.231	-137.917	-0.366	0.041
-192.217	-197.122	-0.151	-0.001
-191.202	38.606	-0.237	0.210
-190.187	176.899	-0.078	-0.112
-189.173	93.208	-0.124	-0.140
-188.158	-112.094	0.425	0.085
-187.144	-200.000	-0.039	-0.448
-186.129	-73.066	0.299	0.109
-185.114	-182.577	0.358	0.007
-184.100	-76.859	0.227	0.079
-183.085	-150.389	0.085	0.007
-182.071	-40.321	-0.266	0.137
-181.056	-16.758	0.368	0.232
-180.042	346.274	-0.094	-0.184
-179.027	-200.000	-0.027	-0.278
-178.012	800.000	-0.063	0.266
-176.998	800.000	0.044	0.184
-175.983	-43.388	0.165	0.083
-174.969	775.901	-0.041	0.112
-173.954	-127.536	0.252	-0.036
-172.939	19.726	0.243	-0.194
-171.925	3.356	-0.120	0.087
-170.910	-200.000	0.016	0.164
-169.896	110.042	0.230	-0.274
-168.881	800.000	-0.058	-0.205
-167.866	436.791	-0.078	-0.169
-166.852	206.234	-0.195	-0.301
-165.837	-139.985	0.325	-0.034
-164.823	-43.757	0.348	0.174
-163.808	-200.000	-0.025	-0.132
-162.793	-60.296	-0.368	0.155
-161.779	-35.604	0.205	-0.110
-160.764	164.853	-0.202	-0.283
-159.750	-102.347	-0.112	0.027
-158.735	36.491	-0.056	0.049
-157.720	-200.000	-0.077	0.386
-156.706	-200.000	0.027	0.154
-155.691	103.842	0.081	0.095
-154.677	-133.701	-0.173	0.021
-153.662	-200.000	-0.007	0.173
-152.647	-139.553	0.078	0.008
-151.633	800.000	0.031	0.113
-150.618	-39.124	-0.299	0.156
-149.604	142.303	0.205	0.270
-148.589	196.257	0.138	-0.209
-147.574	-200.000	0.023	-0.237
-146.560	800.000	-0.026	-0.082
-145.545	-154.268	-0.189	0.013
-144.531	800.000	0.015	-0.049
-143.516	800.000	0.154	-0.534
-142.502	14.132	-0.339	-0.262
-141.487	-21.014	0.315	0.191
-140.472	73.547	-0.171	-0.178
-139.458	591.301	0.040	-0.098
-138.443	-20.732	-0.174	-0.106
-137.429	-119.461	0.211	-0.036
-136.414	-200.000	-0.027	0.118
-135.399	-26.294	-0.352	-0.205
-134.385	-27.852	0.068	0.039
-133.370	-33.107	0.273	-0.150
-132.356	-109.735	-0.038	-0.008
-131.341	-11.441	-0.077	-0.050
-130.326	-200.000	-0.003	-0.338
-129.312	337.569	0.111	0.214
-128.297	800.000	0.139	0.397
-127.283	-200.000	0.009	-0.154
-126.268	-103.128	0.102	0.024
-125.253	-84.283	0.415	-0.130
-124.239	-12.605	0.299	0.193
-123.224	-200.000	-0.001	-0.013
-122.210	-200.000	-0.002	0.090
-121.195	29.260	0.110	-0.093
