DTS Sentinel unit serial number:	SN413079Multiplexer serial number:	ORYXHardware model number:	OX4-SRSoftware version number:	ORYX F/W v4.00 Oryx Data Collector v3.7.2.0data status	okinstallation	princeton_trtdifferential loss correction	single-endedforward channel	channel 4reverse channel	N/Adate	2019/09/13time	05:33:35forward acquisition time	60.00reverse acquisition time	0.00gamma	496.2192k internal	0.2323k external	0.2323temperature offset calibration	1.0192default loss term (dB/km)	0.3790temperature slope calibration	1.0000multiplexer offset coefficient	1.0000multiplexer slope coefficient	1.0000fibre end	0.00T internal ref (°C)	26.25T ext. ref 1 (°C)	4.03T ext. ref 2 (°C)	20.90length (m)	temperature (°C)	Stokes	anti-Stokes-747.200	-94.868	0.145	0.040
-746.185	-72.729	0.340	0.127
-745.171	-68.175	0.330	-0.130
-744.156	80.412	-0.193	0.210
-743.142	-196.235	-0.338	-0.002
-742.127	800.000	-0.092	0.287
-741.112	800.000	-0.040	-0.118
-740.098	800.000	-0.121	0.342
-739.083	-18.625	0.328	0.207
-738.069	-91.296	0.205	0.059
-737.054	-45.804	0.080	-0.040
-736.039	800.000	-0.065	0.182
-735.025	37.575	0.103	-0.092
-734.010	-162.980	-0.358	0.017
-732.996	-61.657	-0.415	0.176
-731.981	16.346	-0.239	-0.190
-730.966	74.824	-0.060	0.064
-729.952	-4.873	-0.330	-0.229
-728.937	800.000	0.077	-0.229
-727.923	-148.851	-0.369	0.030
-726.908	-100.660	-0.152	-0.038
-725.894	-64.670	-0.221	0.091
-724.879	282.330	0.082	0.148
-723.864	662.929	0.110	0.286
-722.850	220.838	0.084	0.136
-721.835	800.000	-0.115	-0.362
-720.821	78.560	-0.070	-0.076
-719.806	501.326	-0.072	-0.168
-718.791	800.000	0.057	0.185
-717.777	205.067	0.100	0.157
-716.762	-36.972	-0.159	-0.086
-715.748	-30.324	-0.076	-0.043
-714.733	-200.000	0.002	-0.104
-713.718	138.653	-0.190	-0.252
-712.704	-200.000	0.043	-0.333
-711.689	-65.894	-0.187	0.075
-710.675	-200.000	0.014	-0.174
-709.660	-67.452	-0.408	-0.161
-708.645	800.000	-0.026	-0.108
-707.631	181.275	-0.134	0.199
-706.616	-200.000	0.053	0.256
-705.602	-35.175	0.184	-0.101
-704.587	402.783	-0.123	-0.260
-703.572	-200.000	-0.012	-0.212
-702.558	119.316	-0.257	0.320
-701.543	-87.339	0.156	0.048
-700.529	58.193	0.112	0.111
-699.514	-33.955	0.316	0.175
-698.499	-128.847	0.449	0.064
-697.485	70.030	-0.197	-0.205
-696.470	17.536	-0.206	0.165
-695.456	197.180	-0.077	-0.119
-694.441	58.714	-0.116	-0.115
-693.426	49.906	-0.163	0.155
-692.412	101.161	0.132	0.155
-691.397	119.184	-0.204	0.255
-690.383	800.000	-0.017	0.061
-689.368	-112.081	0.026	-0.005
-688.354	500.426	0.058	0.134
-687.339	-120.282	-0.194	0.033
-686.324	-200.000	0.025	0.111
-685.310	-68.559	-0.520	-0.203
-684.295	-78.197	-0.185	0.064
-683.281	-69.419	0.152	0.059
-682.266	-147.672	-0.210	0.018
-681.251	482.475	-0.024	-0.054
-680.237	-124.596	-0.218	0.034
-679.222	322.873	0.027	0.052
-678.208	-22.763	-0.138	-0.084
-677.193	800.000	-0.051	-0.215
-676.178	-32.237	-0.153	0.086
-675.164	-152.450	-0.129	-0.009
-674.149	19.338	-0.213	-0.172
-673.135	42.358	0.269	-0.246
-672.120	789.542	-0.036	-0.099
-671.105	193.389	0.100	0.152
-670.091	479.377	-0.119	-0.271
-669.076	-84.862	-0.314	0.099
-668.062	-200.000	0.017	-0.354
-667.047	-200.000	0.000	0.072
-666.032	190.570	-0.217	-0.328
-665.018	-200.000	0.062	-0.444
-664.003	172.753	0.172	0.249
-662.989	-165.301	0.452	0.020
-661.974	-69.196	-0.154	0.060
-660.959	-200.000	0.018	-0.335
-659.945	65.468	0.095	0.096
-658.930	104.755	0.069	0.082
-657.916	7.109	-0.122	0.092
-656.901	-46.737	-0.259	-0.128
-655.886	204.926	-0.129	0.201
-654.872	-13.853	-0.153	-0.100
-653.857	800.000	0.066	-0.258
-652.843	15.506	-0.136	0.107
-651.828	338.375	0.087	-0.171
-650.814	2.677	0.180	0.131
-649.799	312.743	-0.036	0.067
-648.784	800.000	-0.044	-0.171
-647.770	138.008	0.026	0.034
-646.755	91.880	-0.293	-0.331
-645.741	-77.700	-0.226	-0.079
-644.726	-34.866	0.282	-0.155
-643.711	-127.676	0.310	-0.045
-642.697	-171.650	-0.295	-0.010
-641.682	-27.082	0.490	-0.288
-640.668	41.654	0.087	-0.080
-639.653	-31.040	0.303	0.172
-638.638	55.533	-0.251	-0.244
-637.624	771.672	0.113	-0.311
-636.609	-200.000	-0.067	0.333
-635.595	-38.757	-0.387	0.205
-634.580	-116.196	0.334	-0.062
-633.565	212.994	0.311	-0.493
-632.551	-200.000	-0.014	-0.105
-631.536	-146.409	0.432	0.038
-630.522	-200.000	0.024	0.204
-629.507	195.651	-0.119	-0.182
-628.492	-52.557	0.149	0.069
-627.478	158.474	0.126	0.176
-626.463	83.922	0.158	0.173
-625.449	57.160	0.114	0.112
-624.434	3.402	0.298	0.218
-623.419	83.862	0.118	0.129
-622.405	4.960	0.252	0.186
-621.390	800.000	-0.067	0.257
-620.376	291.611	-0.104	0.190
-619.361	800.000	-0.067	-0.250
-618.346	-200.000	-0.017	-0.083
-617.332	-52.571	0.216	-0.100
-616.317	168.007	0.037	-0.053
-615.303	-142.588	0.208	-0.020
-614.288	-85.741	-0.163	0.051
-613.273	800.000	0.022	0.075
-612.259	800.000	-0.051	0.195
-611.244	800.000	-0.144	0.498
-610.230	-200.000	-0.029	-0.154
-609.215	328.996	0.061	0.117
-608.201	-200.000	0.037	-0.188
-607.186	247.375	-0.144	0.245
-606.171	-100.054	-0.373	-0.093
-605.157	70.657	0.121	0.125
-604.142	26.857	-0.375	0.316
-603.128	800.000	0.047	-0.145
-602.113	-198.529	0.181	-0.001
-601.098	-200.000	0.022	0.252
-600.084	77.636	0.299	0.320
-599.069	-88.166	0.207	0.062
-598.055	-130.967	-0.224	-0.030
-597.040	-191.789	0.359	-0.004
-596.025	-200.000	-0.033	-0.269
-595.011	472.831	-0.024	0.055
-593.996	-200.000	-0.004	0.120
-592.982	800.000	-0.089	-0.301
-591.967	-154.257	-0.385	-0.026
-590.952	-200.000	0.002	-0.141
-589.938	179.336	0.034	-0.050
-588.923	-43.461	-0.186	0.094
-587.909	-195.170	0.253	-0.002
-586.894	358.195	0.057	-0.114
-585.879	-200.000	0.013	-0.207
-584.865	-73.721	0.070	0.026
-583.850	225.155	0.048	0.077
-582.836	250.463	-0.046	-0.078
-581.821	-200.000	0.005	0.129
-580.806	-168.284	-0.295	0.011
-579.792	-118.311	-0.142	-0.025
-578.777	331.091	-0.218	0.421
-577.763	-200.000	-0.030	0.432
-576.748	5.111	-0.053	0.039
-575.733	-200.000	0.008	0.368
-574.719	-84.222	-0.367	0.117
-573.704	162.124	-0.121	-0.170
-572.690	99.499	-0.098	0.114
-571.675	74.855	-0.115	-0.121
-570.661	-31.256	-0.258	0.146
-569.646	45.005	0.162	0.150
-568.631	-99.167	-0.458	-0.116
-567.617	236.047	0.100	-0.165
-566.602	-111.674	0.215	-0.044
-565.588	-68.951	-0.067	0.026
-564.573	766.637	0.025	0.069
-563.558	-112.483	-0.095	0.019
-562.544	-98.481	-0.310	-0.080
-561.529	-169.572	-0.248	-0.009
-560.515	654.458	-0.017	0.043
-559.500	599.710	-0.127	0.315
-558.485	192.794	-0.107	-0.162
-557.471	196.479	0.275	-0.420
-556.456	-64.181	-0.113	-0.046
-555.442	74.405	-0.393	0.414
-554.427	-200.000	-0.021	0.137
-553.412	-66.761	-0.280	-0.111
-552.398	-200.000	0.002	0.112
-551.383	92.607	-0.233	-0.263
-550.369	-163.846	-0.168	0.008
-549.354	295.351	0.059	-0.108
-548.339	-32.248	0.111	-0.062
-547.325	95.185	0.207	-0.236
-546.310	266.319	0.103	0.181
-545.296	452.269	-0.070	0.156
-544.281	115.017	-0.080	0.098
-543.266	-22.737	-0.133	-0.081
-542.252	-43.092	-0.166	0.084
-541.237	5.414	-0.078	0.057
-540.223	87.112	-0.135	0.149
-539.208	586.199	-0.108	-0.267
-538.193	-200.000	0.004	-0.054
-537.179	-148.000	-0.144	0.012
-536.164	149.065	0.122	0.166
-535.150	68.434	0.204	-0.209
-534.135	2.210	-0.083	-0.060
-533.121	800.000	0.066	0.189
-532.106	-200.000	-0.075	0.350
-531.091	91.747	0.251	-0.282
-530.077	-200.000	0.002	-0.088
-529.062	320.066	0.079	0.150
-528.048	-200.000	-0.007	-0.043
-527.033	5.362	0.202	-0.149
-526.018	41.736	0.168	0.153
-525.004	-129.780	-0.360	0.050
-523.989	-51.807	-0.067	0.031
-522.975	-200.000	-0.001	-0.269
-521.960	676.031	-0.150	-0.390
-520.945	-35.824	0.253	-0.137
-519.931	206.960	-0.252	-0.393
-518.916	93.722	0.066	-0.075
-517.902	255.358	-0.177	-0.304
-516.887	-200.000	-0.007	0.058
-515.872	667.336	0.050	0.130
-514.858	-24.288	-0.298	-0.178
-513.843	638.937	-0.130	0.330
-512.829	-200.000	-0.013	-0.239
-511.814	-200.000	0.001	-0.040
-510.799	4.512	-0.212	-0.155
-509.785	-86.524	-0.061	0.019
-508.770	-57.904	-0.160	-0.070
-507.756	383.836	0.066	-0.135
-506.741	712.004	-0.191	-0.506
-505.726	-194.679	0.243	-0.002
-504.712	-38.483	-0.229	0.121
-503.697	-63.514	-0.152	0.062
-502.683	181.227	0.116	0.170
-501.668	800.000	-0.114	-0.317
-500.653	-17.830	0.244	-0.153
-499.639	124.757	0.187	-0.235
-498.624	800.000	0.019	0.076
-497.610	-200.000	0.040	-0.241
-496.595	22.638	-0.176	-0.144
-495.581	204.293	0.218	-0.338
-494.566	-200.000	-0.026	-0.177
-493.551	120.372	-0.054	0.067
-492.537	-200.000	-0.020	-0.172
-491.522	64.969	0.028	0.029
-490.508	334.648	-0.065	0.127
-489.493	181.237	0.039	-0.057
-488.478	231.445	-0.059	0.097
-487.464	-197.346	-0.309	0.002
-486.449	-112.608	-0.162	-0.032
-485.435	-200.000	-0.173	0.000
-484.420	-200.000	-0.046	0.360
-483.405	175.450	-0.192	-0.278
-482.391	-200.000	-0.002	0.368
-481.376	-178.943	0.165	0.004
-480.362	-7.331	-0.171	0.115
-479.347	800.000	-0.063	0.259
-478.332	-200.000	0.007	0.295
-477.318	-85.636	-0.162	-0.050
-476.303	-131.506	0.124	-0.016
-475.289	-91.278	-0.215	-0.062
-474.274	513.277	0.157	0.366
-473.259	282.887	0.066	-0.118
-472.245	447.307	-0.078	0.172
-471.230	-19.260	0.191	0.118
-470.216	128.519	-0.051	-0.065
-469.201	468.725	-0.035	-0.077
-468.186	212.987	-0.057	-0.090
-467.172	-200.000	0.001	0.090
-466.157	-124.530	-0.493	0.076
-465.143	-56.542	-0.168	-0.075
-464.128	133.623	0.062	0.080
-463.113	-12.847	0.151	-0.098
-462.099	303.510	-0.115	-0.214
-461.084	20.711	-0.110	-0.089
-460.070	391.906	-0.083	0.172
-459.055	126.279	-0.219	-0.276
-458.040	-0.739	0.150	-0.106
-457.026	6.446	0.240	-0.178
-456.011	14.753	-0.132	-0.103
-454.997	16.437	0.121	-0.096
-453.982	400.107	-0.103	-0.216
-452.968	256.622	-0.048	-0.082
-451.953	-62.282	-0.049	0.020
-450.938	-28.328	0.129	-0.074
-449.924	-200.000	-0.002	0.011
-448.909	-200.000	-0.001	-0.247
-447.895	-80.917	-0.118	-0.039
-446.880	-56.414	-0.014	0.006
-445.865	-200.000	-0.042	-0.426
-444.851	-200.000	-0.016	0.211
-443.836	-138.900	-0.052	0.006
-442.822	-86.524	0.104	0.032
-441.807	-72.287	-0.123	0.046
-440.792	-34.373	-0.280	0.153
-439.778	-200.000	0.001	0.395
-438.763	-65.436	0.207	0.083
-437.749	-116.728	0.299	-0.055
-436.734	-85.895	0.101	0.031
-435.719	800.000	-0.086	-0.256
-434.705	346.759	0.090	0.177
-433.690	47.183	0.101	-0.093
-432.676	297.093	0.069	0.126
-431.661	356.229	0.065	-0.130
-430.646	-200.000	0.012	0.103
-429.632	63.032	-0.076	-0.076
-428.617	129.414	0.083	-0.105
-427.603	32.100	0.255	0.220
-426.588	-128.126	0.223	0.032
-425.573	105.799	-0.105	0.124
-424.559	60.270	-0.140	-0.139
-423.544	-200.000	-0.024	0.109
-422.530	-56.780	0.080	0.035
-421.515	74.034	-0.104	-0.108
-420.500	-55.523	-0.161	0.072
-419.486	123.146	0.178	-0.222
-418.471	800.000	-0.053	-0.209
-417.457	-200.000	0.010	0.166
-416.442	203.047	0.100	-0.154
-415.428	-153.688	-0.173	-0.012
-414.413	334.834	-0.121	0.234
-413.398	-135.497	-0.095	-0.011
-412.384	62.578	0.158	0.157
-411.369	571.628	-0.054	0.130
-410.355	449.437	0.098	-0.215
-409.340	-200.000	0.067	0.385
-408.325	31.769	0.073	0.063
-407.311	28.771	0.212	-0.179
-406.296	-200.000	0.018	0.229
-405.282	-200.000	-0.333	0.001
-404.267	800.000	0.012	-0.051
-403.252	-119.440	-0.157	-0.027
-402.238	-200.000	0.045	0.203
-401.223	800.000	-0.029	0.082
-400.209	668.972	-0.128	-0.329
-399.194	-16.967	-0.327	-0.206
-398.179	586.111	-0.131	0.322
-397.165	-200.000	-0.049	0.220
-396.150	-200.000	0.024	-0.152
-395.136	-200.000	0.031	-0.246
-394.121	-137.473	0.107	0.012
-393.106	42.866	0.275	-0.250
-392.092	-200.000	-0.023	0.133
-391.077	30.825	-0.198	-0.169
-390.063	-44.114	0.051	0.025
-389.048	-142.088	-0.319	0.032
-388.033	236.269	0.078	-0.128
-387.019	5.284	0.183	0.134
-386.004	209.737	0.005	-0.008
-384.990	-31.124	0.528	0.296
-383.975	159.805	-0.262	-0.363
-382.960	-96.100	0.229	0.060
-381.946	-118.567	-0.136	-0.024
-380.931	-200.000	0.002	-0.080
-379.917	250.446	-0.139	0.235
-378.902	-200.000	0.026	0.133
-377.888	-200.000	-0.033	0.201
-376.873	14.309	-0.240	-0.186
-375.858	46.874	-0.154	0.142
-374.844	305.025	0.069	0.128
-373.829	208.160	-0.041	0.064
-372.815	367.139	-0.181	0.363
-371.800	-131.778	0.040	0.005
-370.785	159.671	0.041	-0.057
-369.771	-31.417	-0.071	0.040
-368.756	800.000	-0.084	-0.247
-367.742	67.479	-0.218	-0.221
-366.727	-88.579	-0.303	-0.090
-365.712	278.237	0.179	0.318
-364.698	87.249	-0.009	-0.010
-363.683	-83.653	0.014	-0.005
-362.669	128.785	-0.194	0.246
-361.654	44.193	0.271	0.248
-360.639	800.000	0.038	0.163
-359.625	-37.496	-0.501	-0.266
-358.610	68.170	-0.173	0.176
-357.596	258.608	-0.054	-0.093
-356.581	49.727	-0.030	0.028
-355.566	-47.185	0.221	-0.107
-354.552	-101.739	-0.057	-0.014
-353.537	-120.950	-0.037	0.006
-352.523	-26.801	0.281	-0.163
-351.508	-200.000	0.020	-0.238
-350.493	-15.410	-0.237	-0.151
-349.479	-200.000	0.080	-0.382
-348.464	125.857	-0.154	0.193
-347.450	-67.270	0.359	0.140
-346.435	-27.049	0.399	-0.231
-345.420	168.537	0.045	-0.064
-344.406	184.036	0.176	-0.259
-343.391	133.280	-0.023	0.030
-342.377	800.000	0.051	0.172
-341.362	800.000	0.067	-0.241
-340.348	782.495	-0.104	-0.284
-339.333	79.315	-0.105	0.112
-338.318	66.244	0.220	0.222
-337.304	-200.000	-0.013	0.274
-336.289	-8.310	0.226	-0.151
-335.275	130.451	-0.188	0.240
-334.260	-200.000	-0.074	-0.363
-333.245	-200.000	-0.012	-0.079
-332.231	-200.000	0.031	0.152
-331.216	280.606	0.033	-0.059
-330.202	554.258	-0.052	0.123
-329.187	406.272	0.076	0.159
-328.172	337.058	-0.085	-0.165
-327.158	45.034	0.257	-0.235
-326.143	579.324	0.100	-0.244
-325.129	-160.532	-0.072	-0.004
-324.114	33.484	0.140	-0.121
-323.099	-24.687	0.036	-0.021
-322.085	-200.000	0.002	-0.042
-321.070	-200.000	-0.042	-0.343
-320.056	-70.107	0.153	0.058
-319.041	114.029	-0.188	-0.228
-318.026	-200.000	-0.034	0.377
-317.012	214.622	-0.257	-0.404
-315.997	-200.000	-0.043	0.203
-314.983	45.413	-0.123	0.113
-313.968	800.000	-0.115	0.336
-312.953	70.340	0.135	-0.139
-311.939	12.650	0.015	-0.011
-310.924	-155.017	0.039	0.003
-309.910	800.000	-0.044	0.167
-308.895	-62.250	-0.230	0.095
-307.880	156.120	-0.064	-0.088
-306.866	800.000	0.051	0.197
-305.851	78.182	-0.151	-0.160
-304.837	-186.375	0.165	-0.002
-303.822	340.915	0.096	0.185
-302.807	294.841	0.063	0.114
-301.793	-166.872	-0.047	-0.002
-300.778	-20.087	0.247	-0.151
-299.764	800.000	-0.070	-0.217
-298.749	-40.168	0.159	0.082
-297.735	110.637	0.161	-0.193
-296.720	54.075	-0.200	-0.191
-295.705	-102.307	0.216	0.051
-294.691	56.148	0.174	0.168
-293.676	-151.996	0.369	-0.027
-292.662	432.746	0.063	-0.135
-291.647	550.586	0.215	0.512
-290.632	-200.000	-0.020	0.114
-289.618	249.353	-0.030	-0.050
-288.603	800.000	0.024	-0.095
-287.589	28.913	-0.029	-0.025
-286.574	110.803	-0.068	0.081
-285.559	-35.707	0.200	-0.108
-284.545	378.483	0.028	0.058
-283.530	-52.802	0.225	-0.103
-282.516	130.054	0.150	-0.190
-281.501	38.230	0.098	0.086
-280.486	194.058	0.016	0.024
-279.472	2.750	-0.318	-0.228
-278.457	-200.000	-0.096	0.553
-277.443	-100.955	0.416	-0.101
-276.428	800.000	-0.099	0.354
-275.413	800.000	-0.072	0.285
-274.399	-90.113	-0.339	0.098
-273.384	-30.761	-0.071	0.040
-272.370	-7.337	-0.129	0.087
-271.355	800.000	0.025	-0.096
-270.340	-25.649	-0.196	-0.114
-269.326	-83.209	0.039	-0.012
-268.311	126.568	-0.097	-0.121
-267.297	-200.000	-0.002	0.249
-266.282	-30.144	-0.135	-0.076
-265.267	-51.858	-0.219	-0.101
-264.253	-7.628	0.191	0.128
-263.238	-54.369	-0.358	0.161
-262.224	-200.000	-0.033	-0.402
-261.209	438.212	-0.142	0.306
-260.195	225.868	-0.134	0.215
-259.180	195.728	-0.060	0.091
-258.165	11.458	-0.110	-0.083
-257.151	-134.231	0.017	-0.002
-256.136	-200.000	0.003	0.425
-255.122	-200.000	-0.037	0.455
-254.107	183.790	0.199	0.292
-253.092	-154.716	0.169	0.011
-252.078	-59.810	-0.155	0.066
-251.063	212.294	0.161	-0.252
-250.049	35.496	0.066	0.057
-249.034	24.330	0.137	0.113
-248.019	800.000	-0.052	0.146
-247.005	104.775	-0.235	-0.275
-245.990	26.861	0.093	0.077
-244.976	120.607	0.102	0.126
-243.961	-173.083	0.472	-0.014
-242.946	-23.551	0.135	-0.080
-241.932	32.346	0.084	-0.072
-240.917	160.094	0.137	0.189
-239.903	800.000	0.041	-0.147
-238.888	-200.000	0.022	-0.230
-237.873	800.000	-0.101	0.364
-236.859	-34.302	0.173	0.094
-235.844	261.712	0.139	-0.239
-234.830	199.318	0.192	0.292
-233.815	-22.039	-0.191	-0.115
-232.800	117.991	0.158	-0.193
-231.786	800.000	-0.032	-0.105
-230.771	-200.000	0.026	0.160
-229.757	53.655	0.039	-0.037
-228.742	-79.313	0.251	-0.084
-227.727	-41.589	0.219	-0.112
-226.713	-5.003	-0.070	-0.047
-225.698	-200.000	-0.008	-0.131
-224.684	800.000	0.170	-0.481
-223.669	346.444	0.034	0.066
-222.655	11.195	0.148	0.112
-221.640	190.585	0.078	-0.116
-220.625	29.125	0.132	-0.110
-219.611	-28.399	-0.171	-0.098
-218.596	6.105	0.049	0.036
-217.582	57.185	0.175	-0.169
-216.567	-59.585	-0.082	-0.035
-215.552	-123.873	-0.286	0.045
-214.538	48.295	0.138	-0.128
-213.523	-94.715	0.318	-0.085
-212.509	800.000	0.080	-0.275
-211.494	-37.570	-0.290	0.153
-210.479	211.171	0.073	-0.114
-209.465	800.000	-0.045	0.165
-208.450	800.000	-0.053	-0.158
-207.436	-55.809	0.104	0.046
-206.421	-60.661	0.144	0.060
-205.406	-71.821	-0.159	-0.059
-204.392	21.459	0.289	0.232
-203.377	-200.000	-0.040	0.221
-202.363	-136.461	0.275	0.032
-201.348	-200.000	0.011	0.069
-200.333	-107.475	-0.347	-0.075
-199.319	73.933	-0.114	0.118
-198.304	58.378	-0.086	-0.083
-197.290	800.000	0.059	0.193
-196.275	-82.266	-0.114	-0.037
-195.260	103.324	0.213	0.247
-194.246	47.077	-0.005	0.004
-193.231	-9.856	0.067	0.044
-192.217	394.946	-0.096	-0.197
-191.202	142.160	-0.236	-0.309
-190.187	625.490	0.080	-0.198
-189.173	189.556	-0.084	0.124
-188.158	-200.000	0.043	0.240
-187.144	-200.000	0.015	-0.076
-186.129	-139.417	0.211	-0.022
-185.114	-200.000	-0.033	0.348
-184.100	-200.000	-0.125	0.000
-183.085	-71.748	0.131	0.048
-182.071	-90.638	0.168	-0.048
-181.056	-31.604	0.182	-0.101
-180.042	440.438	-0.048	-0.104
-179.027	-84.065	-0.253	0.079
-178.012	-87.440	0.220	-0.066
-176.998	-200.000	-0.029	0.156
-175.983	13.356	0.187	0.143
-174.969	-120.284	-0.068	0.011
-173.954	-158.605	-0.097	0.005
-172.939	-69.566	0.223	0.084
-171.925	-27.917	-0.098	-0.056
-170.910	27.969	0.059	-0.049
-169.896	800.000	0.066	0.226
-168.881	-124.151	0.332	-0.051
-167.866	9.165	0.256	0.191
-166.852	450.318	-0.062	-0.135
-165.837	-22.781	0.257	-0.153
-164.823	-52.184	-0.234	-0.107
-163.808	324.662	-0.147	0.277
-162.793	-147.312	0.493	0.041
-161.779	-200.000	0.003	-0.078
-160.764	-23.546	-0.142	0.084
-159.750	-51.055	0.079	0.036
-158.735	-1.321	0.294	-0.205
-157.720	185.369	-0.157	0.229
-156.706	154.109	0.271	-0.366
-155.691	98.910	-0.036	-0.040
-154.677	-55.698	-0.138	-0.061
-153.662	565.472	-0.038	0.092
-152.647	-28.506	0.177	-0.101
-151.633	-134.213	0.127	-0.015
-150.618	39.732	-0.147	-0.130
-149.604	-125.229	-0.236	-0.036
-148.589	99.446	-0.238	0.271
-147.574	196.035	-0.095	0.143
-146.560	310.647	-0.150	-0.277
-145.545	-127.108	-0.064	-0.009
-144.531	-8.528	0.156	-0.103
-143.516	97.817	0.125	0.142
-142.502	-177.610	0.217	0.005
-141.487	552.782	0.015	0.036
-140.472	-200.000	0.022	0.261
-139.458	-200.000	0.114	0.543
-138.443	800.000	0.097	0.380
-137.429	130.147	0.114	0.145
-136.414	677.671	-0.082	0.210
-135.399	175.725	0.352	0.503
-134.385	339.431	0.139	0.267
-133.370	-70.295	0.182	0.068
-132.356	-45.904	0.085	-0.041
-131.341	-47.706	0.059	0.028
-130.326	-26.237	0.217	0.126
-129.312	-188.153	0.342	0.004
-128.297	-200.000	0.001	-0.071
-127.283	-57.438	-0.062	0.027
-126.268	-200.000	0.004	0.085
-125.253	-55.038	-0.142	-0.063
-124.239	637.035	0.141	-0.353
-123.224	-85.015	-0.343	0.106
-122.210	-138.898	0.239	0.026
-121.195	-47.726	-0.209	0.100
-120.180	-26.317	-0.222	-0.129
