DTS Sentinel unit serial number:	SN413079Multiplexer serial number:	ORYXHardware model number:	OX4-SRSoftware version number:	ORYX F/W v4.00 Oryx Data Collector v3.7.2.0data status	okinstallation	princeton_trtdifferential loss correction	single-endedforward channel	channel 4reverse channel	N/Adate	2019/09/18time	18:41:35forward acquisition time	60.00reverse acquisition time	0.00gamma	496.2192k internal	0.2297k external	0.2297temperature offset calibration	1.0018default loss term (dB/km)	0.3790temperature slope calibration	1.0000multiplexer offset coefficient	1.0000multiplexer slope coefficient	1.0000fibre end	0.00T internal ref (°C)	37.77T ext. ref 1 (°C)	0.94T ext. ref 2 (°C)	28.78length (m)	temperature (°C)	Stokes	anti-Stokes-747.200	33.421	-0.142	0.126
-746.185	-62.612	-0.085	0.036
-745.171	65.663	-0.276	0.285
-744.156	216.648	0.133	-0.216
-743.142	-200.000	-0.008	-0.058
-742.127	-113.029	-0.120	-0.024
-741.112	-159.488	0.322	-0.018
-740.098	222.778	0.109	-0.179
-739.083	43.320	0.230	0.215
-738.069	-200.000	-0.060	0.409
-737.054	231.588	-0.076	0.128
-736.039	800.000	-0.036	0.152
-735.025	-27.919	0.118	0.070
-734.010	267.154	-0.136	-0.242
-732.996	-38.043	-0.308	0.167
-731.981	109.661	-0.041	-0.051
-730.966	-49.107	-0.307	-0.150
-729.952	-100.103	-0.123	0.031
-728.937	-200.000	-0.036	-0.211
-727.923	36.808	-0.297	-0.268
-726.908	-84.904	0.083	-0.027
-725.894	33.276	0.324	-0.287
-724.879	17.897	-0.265	0.215
-723.864	337.885	-0.206	-0.408
-722.850	552.300	-0.061	-0.150
-721.835	-200.000	-0.015	0.378
-720.821	145.663	-0.048	0.065
-719.806	-59.896	-0.248	-0.108
-718.791	-140.442	0.237	0.025
-717.777	-200.000	-0.027	0.194
-716.762	800.000	-0.057	0.192
-715.748	416.640	0.190	-0.413
-714.733	-128.137	0.129	0.019
-713.718	-122.704	0.231	-0.038
-712.704	78.229	0.122	-0.133
-711.689	36.416	-0.341	-0.307
-710.675	98.361	0.062	0.072
-709.660	-200.000	-0.489	0.001
-708.645	170.805	-0.153	0.223
-707.631	111.476	-0.170	0.209
-706.616	33.951	-0.223	-0.198
-705.602	-200.000	-0.046	0.234
-704.587	-48.355	0.189	-0.093
-703.572	800.000	-0.038	0.136
-702.558	86.143	-0.068	-0.077
-701.543	-200.000	-0.008	-0.089
-700.529	-51.274	0.303	-0.145
-699.514	-47.222	-0.082	-0.041
-698.499	350.605	0.006	-0.011
-697.485	423.296	-0.030	-0.067
-696.470	-49.443	-0.318	0.155
-695.456	-87.857	0.321	-0.099
-694.441	-43.791	0.224	-0.115
-693.426	-200.000	0.021	-0.104
-692.412	-62.902	-0.313	0.132
-691.397	-108.253	-0.071	0.016
-690.383	-1.886	-0.078	0.056
-689.368	-55.860	0.328	-0.149
-688.354	-200.000	-0.030	-0.169
-687.339	-195.619	-0.175	0.001
-686.324	137.657	0.085	-0.113
-685.310	-200.000	-0.012	0.336
-684.295	-108.694	-0.283	0.062
-683.281	-148.683	-0.339	-0.028
-682.266	-195.537	-0.142	-0.001
-681.251	800.000	0.042	-0.168
-680.237	-18.983	0.108	-0.068
-679.222	-16.597	-0.146	-0.094
-678.208	430.631	0.083	0.182
-677.193	-200.000	0.419	-0.002
-676.178	800.000	-0.068	-0.195
-675.164	-108.917	0.318	-0.069
-674.149	-78.682	-0.160	0.056
-673.135	-144.466	-0.115	-0.011
-672.120	-200.000	0.043	-0.196
-671.105	-91.527	-0.293	-0.085
-670.091	-143.290	0.226	0.022
-669.076	-200.000	-0.005	-0.215
-668.062	103.361	-0.325	-0.388
-667.047	-21.047	0.140	-0.087
-666.032	-200.000	-0.000	-0.030
-665.018	-200.000	-0.062	0.301
-664.003	-80.783	-0.326	0.110
-662.989	695.242	0.045	0.121
-661.974	-50.047	0.214	0.103
-660.959	-80.112	0.147	0.050
-659.945	70.841	0.123	0.129
-658.930	208.437	0.193	0.307
-657.916	612.957	-0.068	-0.174
-656.901	-18.583	0.105	0.067
-655.886	129.344	-0.205	0.267
-654.872	5.440	0.212	-0.159
-653.857	-29.662	0.195	-0.113
-652.843	-200.000	-0.036	0.205
-651.828	166.156	0.128	-0.184
-650.814	-52.149	-0.177	0.084
-649.799	-85.932	0.141	0.044
-648.784	-153.895	0.140	0.010
-647.770	684.423	0.161	0.426
-646.755	-57.346	0.141	-0.063
-645.741	345.392	-0.153	0.306
-644.726	800.000	0.019	0.084
-643.711	670.327	-0.049	0.130
-642.697	800.000	0.052	-0.201
-641.682	-94.399	-0.466	0.129
-640.668	-43.150	-0.104	-0.054
-639.653	-81.564	-0.093	0.031
-638.638	134.331	-0.099	-0.131
-637.624	-74.483	-0.075	-0.028
-636.609	263.733	0.176	0.312
-635.595	793.128	0.019	0.053
-634.580	-200.000	0.006	0.098
-633.565	753.979	0.057	0.157
-632.551	119.797	-0.100	0.126
-631.536	-142.352	-0.251	0.025
-630.522	95.126	-0.296	-0.343
-629.507	796.874	-0.070	0.196
-628.492	-133.543	-0.061	0.008
-627.478	-130.759	0.354	0.048
-626.463	-200.000	0.034	-0.158
-625.449	29.593	0.234	-0.202
-624.434	279.777	0.128	0.232
-623.419	-200.000	-0.040	-0.220
-622.405	-200.000	-0.108	0.000
-621.390	-200.000	0.006	0.188
-620.376	-158.899	0.220	0.013
-619.361	-200.000	-0.019	-0.134
-618.346	18.579	0.114	-0.093
-617.332	-36.632	0.276	-0.151
-616.317	-200.000	-0.006	0.119
-615.303	-114.117	-0.207	-0.041
-614.288	87.427	0.200	0.225
-613.273	-96.460	-0.245	-0.066
-612.259	-146.947	-0.489	-0.043
-611.244	-24.507	0.079	0.048
-610.230	42.961	-0.078	-0.072
-609.215	-200.000	-0.005	0.083
-608.201	-200.000	-0.028	-0.265
-607.186	84.393	0.234	0.259
-606.171	102.542	-0.066	0.079
-605.157	-200.000	0.037	0.224
-604.142	-53.994	-0.149	-0.069
-603.128	-143.736	-0.308	0.030
-602.113	-45.659	0.080	-0.040
-601.098	-27.273	0.110	-0.065
-600.084	262.306	0.119	0.210
-599.069	-200.000	-0.032	0.252
-598.055	793.185	0.024	0.066
-597.040	-25.095	-0.360	-0.217
-596.025	92.266	0.023	-0.026
-595.011	-157.128	0.051	-0.003
-593.996	-147.128	0.088	-0.008
-592.982	118.007	0.157	-0.196
-591.967	287.212	0.024	-0.044
-590.952	-54.962	-0.276	-0.126
-589.938	-141.440	-0.226	-0.023
-588.923	-118.859	-0.083	-0.015
-587.909	-95.786	-0.224	-0.061
-586.894	-200.000	-0.046	0.333
-585.879	155.130	0.147	0.205
-584.865	42.386	0.347	0.320
-583.850	-200.000	-0.033	-0.272
-582.836	242.932	-0.168	0.285
-581.821	-195.203	-0.053	0.000
-580.806	66.887	0.061	0.063
-579.792	291.373	0.148	0.272
-578.777	-57.515	0.381	0.170
-577.763	172.360	0.098	-0.143
-576.748	-38.371	-0.130	0.070
-575.733	-138.546	-0.296	-0.033
-574.719	-200.000	-0.018	-0.430
-573.704	-126.484	-0.042	-0.006
-572.690	-200.000	-0.024	0.265
-571.675	-191.557	0.157	0.002
-570.661	487.703	0.066	0.153
-569.646	-138.921	0.303	0.033
-568.631	-200.000	-0.047	-0.242
-567.617	555.671	0.030	0.072
-566.602	-200.000	0.042	-0.228
-565.588	199.364	-0.140	-0.218
-564.573	137.362	-0.091	0.121
-563.558	-200.000	-0.009	0.246
-562.544	-137.305	0.161	0.019
-561.529	99.588	0.173	-0.203
-560.515	15.345	0.124	0.099
-559.500	-200.000	-0.015	0.149
-558.485	8.099	-0.082	0.062
-557.471	-127.178	0.321	-0.048
-556.456	-169.019	0.176	0.007
-555.442	298.880	0.136	0.254
-554.427	127.863	0.062	-0.079
-553.412	-200.000	-0.045	-0.211
-552.398	-200.000	0.065	-0.451
-551.383	-200.000	0.027	0.225
-550.369	84.200	0.038	0.042
-549.354	-200.000	0.004	0.220
-548.339	-157.163	-0.075	-0.005
-547.325	385.564	-0.013	-0.028
-546.310	-200.000	0.017	0.089
-545.296	398.503	0.126	0.268
-544.281	470.065	-0.027	0.061
-543.266	-157.133	0.246	-0.015
-542.252	-200.000	0.013	0.412
-541.237	3.264	-0.139	0.102
-540.223	10.726	-0.193	0.149
-539.208	394.306	0.209	-0.440
-538.193	-200.000	-0.031	-0.201
-537.179	-21.055	0.121	-0.075
-536.164	437.905	-0.112	0.247
-535.150	-25.321	0.382	0.229
-534.135	-70.280	0.055	-0.021
-533.121	96.498	-0.087	0.101
-532.106	1.589	-0.186	-0.135
-531.091	156.247	-0.101	-0.141
-530.077	-33.047	-0.176	-0.099
-529.062	800.000	-0.116	-0.432
-528.048	-200.000	-0.007	-0.279
-527.033	-104.280	-0.143	-0.034
-526.018	-200.000	-0.002	0.069
-525.004	69.752	0.105	0.109
-523.989	611.665	-0.046	0.118
-522.975	13.283	-0.275	0.215
-521.960	294.563	0.145	0.269
-520.945	441.083	-0.109	0.242
-519.931	160.291	0.128	-0.181
-518.916	-0.494	0.186	0.134
-517.902	-200.000	-0.005	0.213
-516.887	23.669	0.303	0.253
-515.872	-121.165	-0.163	-0.028
-514.858	-63.210	0.122	0.051
-513.843	-92.140	-0.229	0.065
-512.829	-113.673	0.119	0.024
-511.814	74.027	-0.262	0.278
-510.799	-126.472	-0.345	-0.052
-509.785	67.779	0.184	0.190
-508.770	-119.757	-0.449	-0.078
-507.756	226.010	0.169	0.277
-506.741	712.877	0.018	0.049
-505.726	-108.562	-0.117	0.025
-504.712	-200.000	-0.021	-0.182
-503.697	268.572	-0.134	-0.238
-502.683	725.067	0.057	-0.155
-501.668	-58.890	0.140	0.061
-500.653	80.890	-0.200	0.218
-499.639	-137.470	0.226	0.026
-498.624	-131.054	-0.191	0.026
-497.610	800.000	0.060	-0.238
-496.595	-200.000	0.012	0.268
-495.581	-30.863	-0.140	-0.080
-494.566	94.941	-0.208	0.240
-493.551	-200.000	-0.015	0.128
-492.537	-37.069	0.176	-0.095
-491.522	74.666	0.139	0.147
-490.508	108.332	0.133	0.160
-489.493	766.831	-0.028	-0.077
-488.478	-200.000	0.009	-0.191
-487.464	-116.243	0.205	-0.038
-486.449	-200.000	-0.014	-0.213
-485.435	800.000	0.128	-0.418
-484.420	67.139	-0.190	-0.196
-483.405	17.600	0.233	-0.187
-482.391	-64.642	-0.112	0.046
-481.376	156.759	0.255	0.356
-480.362	586.080	-0.047	0.117
-479.347	420.905	0.122	-0.264
-478.332	-152.152	-0.267	0.020
-477.318	-77.357	-0.035	-0.012
-476.303	-109.849	0.040	-0.008
-475.289	-200.000	-0.001	-0.030
-474.274	-127.786	0.156	0.023
-473.259	-200.000	-0.013	0.348
-472.245	190.652	0.027	-0.041
-471.230	260.014	0.112	0.195
-470.216	-200.000	-0.028	-0.388
-469.201	-33.149	0.050	0.028
-468.186	-88.231	-0.086	-0.026
-467.172	-4.090	-0.303	-0.212
-466.157	-142.840	-0.484	-0.048
-465.143	-15.112	0.106	-0.068
-464.128	353.652	0.081	0.163
-463.113	-146.191	-0.073	0.007
-462.099	800.000	-0.024	0.066
-461.084	138.696	0.256	-0.340
-460.070	302.534	0.082	0.153
-459.055	-78.140	-0.221	-0.077
-458.040	-200.000	0.007	0.108
-457.026	417.324	-0.137	0.295
-456.011	-38.073	0.162	0.087
-454.997	800.000	-0.083	-0.248
-453.982	525.176	0.232	-0.552
-452.968	800.000	-0.087	-0.328
-451.953	161.342	-0.035	0.050
-450.938	32.697	0.338	-0.295
-449.924	113.917	0.070	-0.086
-448.909	31.608	0.139	0.121
-447.895	551.648	0.086	0.207
-446.880	-200.000	-0.051	-0.241
-445.865	59.426	0.160	-0.159
-444.851	-125.171	0.320	0.049
-443.836	-200.000	0.049	0.316
-442.822	-113.610	-0.173	0.034
-441.807	-200.000	0.009	0.127
-440.792	-79.087	-0.092	-0.031
-439.778	91.858	-0.060	-0.069
-438.763	-33.510	-0.087	-0.049
-437.749	-17.261	0.132	-0.084
-436.734	-17.563	-0.370	-0.235
-435.719	124.216	-0.121	-0.154
-434.705	-119.625	-0.327	0.057
-433.690	101.473	-0.159	0.187
-432.676	171.126	-0.128	0.185
-431.661	-78.416	0.147	-0.051
-430.646	-15.658	0.177	-0.114
-429.632	-102.505	0.200	0.048
-428.617	-149.820	-0.038	-0.003
-427.603	30.443	-0.078	-0.068
-426.588	253.116	0.104	0.179
-425.573	305.212	-0.222	-0.417
-424.559	-200.000	0.030	-0.150
-423.544	-200.000	0.058	-0.297
-422.530	-118.030	0.090	0.016
-421.515	28.095	0.105	-0.090
-420.500	538.934	0.059	-0.142
-419.486	-200.000	0.001	0.328
-418.471	-157.167	0.202	-0.012
-417.457	-65.556	0.165	0.067
-416.442	276.677	-0.046	-0.082
-415.428	40.920	0.105	-0.095
-414.413	99.143	0.144	-0.168
-413.398	259.542	-0.101	-0.175
-412.384	-200.000	-0.013	0.064
-411.369	-128.679	-0.168	0.024
-410.355	-59.318	-0.227	-0.098
-409.340	25.537	-0.280	-0.235
-408.325	117.745	0.077	0.096
-407.311	5.461	-0.186	0.138
-406.296	277.881	0.111	-0.199
-405.282	-150.233	-0.491	0.038
-404.267	-157.050	0.060	0.004
-403.252	601.926	-0.051	0.129
-402.238	220.945	-0.086	0.140
-401.223	577.158	0.198	0.487
-400.209	-103.865	-0.151	0.036
-399.194	-105.001	-0.109	0.025
-398.179	-74.421	-0.294	0.107
-397.165	-200.000	0.056	-0.319
-396.150	-200.000	-0.022	-0.235
-395.136	126.302	-0.157	-0.200
-394.121	800.000	-0.056	0.201
-393.106	4.266	-0.258	-0.190
-392.092	-167.602	-0.185	0.007
-391.077	-122.555	-0.294	0.048
-390.063	-200.000	-0.025	-0.213
-389.048	281.480	0.115	0.208
-388.033	-200.000	-0.049	-0.423
-387.019	-200.000	-0.014	-0.396
-386.004	-141.963	0.170	-0.017
-384.990	-131.891	0.321	-0.042
-383.975	-137.936	0.252	-0.028
-382.960	44.648	0.214	0.198
-381.946	500.806	-0.274	-0.637
-380.931	76.757	0.096	-0.103
-379.917	105.125	0.060	-0.071
-378.902	54.579	-0.198	0.192
-377.888	-182.655	-0.349	-0.006
-376.873	800.000	-0.075	-0.248
-375.858	13.194	0.259	-0.202
-374.844	415.798	-0.092	0.197
-373.829	265.624	-0.180	0.316
-372.815	139.555	-0.095	-0.126
-371.800	-53.564	-0.160	-0.074
-370.785	3.570	-0.342	-0.251
-369.771	-178.611	-0.307	0.007
-368.756	-200.000	0.045	-0.284
-367.742	494.410	-0.061	0.140
-366.727	11.936	0.086	0.066
-365.712	181.863	-0.066	0.098
-364.698	-200.000	0.069	0.319
-363.683	452.505	-0.138	0.307
-362.669	674.527	0.063	-0.165
-361.654	-23.209	0.212	0.128
-360.639	-200.000	0.013	0.261
-359.625	40.612	0.198	0.179
-358.610	-162.405	0.258	0.013
-357.596	-1.819	-0.197	-0.139
-356.581	-200.000	-0.057	-0.493
-355.566	800.000	0.070	0.204
-354.552	299.411	0.060	-0.111
-353.537	275.063	-0.047	-0.084
-352.523	-130.272	-0.160	-0.022
-351.508	-200.000	0.041	0.299
-350.493	34.387	-0.301	-0.264
-349.479	608.178	0.048	-0.120
-348.464	800.000	0.019	0.054
-347.450	-136.972	-0.284	-0.033
-346.435	-59.286	0.238	-0.103
-345.420	376.801	-0.209	-0.428
-344.406	800.000	-0.116	-0.351
-343.391	12.886	0.075	-0.058
-342.377	-93.599	0.210	0.058
-341.362	800.000	-0.083	0.303
-340.348	-91.290	-0.483	-0.139
-339.333	-200.000	0.255	-0.001
-338.318	678.234	-0.156	-0.408
-337.304	276.251	0.203	-0.363
-336.289	-200.000	-0.001	0.133
-335.275	314.319	-0.118	0.223
-334.260	-23.565	-0.068	-0.041
-333.245	-98.454	0.396	-0.102
-332.231	-8.252	0.179	0.121
-331.216	186.821	-0.198	-0.297
-330.202	800.000	-0.021	-0.085
-329.187	52.221	-0.175	-0.168
-328.172	-124.517	-0.146	0.023
-327.158	-94.342	0.195	-0.053
-326.143	645.125	-0.081	-0.207
-325.129	181.714	-0.043	0.064
-324.114	144.973	0.047	0.063
-323.099	-52.886	0.335	0.155
-322.085	-50.595	0.250	-0.118
-321.070	102.409	-0.098	0.115
-320.056	-113.936	-0.390	-0.076
-319.041	-94.646	0.066	0.018
-318.026	-136.265	0.321	0.038
-317.012	198.864	0.162	0.249
-315.997	-121.817	-0.097	-0.016
-314.983	-117.294	-0.176	-0.032
-313.968	20.331	0.198	0.161
-312.953	183.966	0.127	0.189
-311.939	800.000	0.027	0.113
-310.924	-92.347	0.280	-0.079
-309.910	-144.308	-0.077	-0.007
-308.895	368.072	0.264	-0.536
-307.880	800.000	-0.031	0.123
-306.866	746.986	-0.128	0.346
-305.851	800.000	0.020	-0.067
-304.837	-104.113	0.352	-0.082
-303.822	800.000	0.042	0.178
-302.807	-84.632	0.107	-0.034
-301.793	262.849	0.062	0.108
-300.778	-26.720	0.127	-0.075
-299.764	800.000	0.056	0.242
-298.749	-161.438	-0.281	-0.015
-297.735	121.725	0.186	-0.232
-296.720	-200.000	-0.052	0.229
-295.705	346.142	0.117	0.230
-294.691	-90.867	-0.036	0.010
-293.676	-66.661	-0.315	0.125
-292.662	322.091	-0.110	0.210
-291.647	-65.252	0.213	-0.086
-290.632	260.738	0.128	-0.222
-289.618	-105.834	-0.161	0.036
-288.603	-156.780	0.144	0.009
-287.589	215.364	-0.029	0.045
-286.574	-54.001	-0.333	-0.152
-285.559	281.732	0.116	-0.209
-284.545	-200.000	0.041	0.310
-283.530	366.477	-0.010	0.020
-282.516	138.566	0.267	0.351
-281.501	-200.000	-0.022	0.286
-280.486	-200.000	-0.022	0.200
-279.472	800.000	-0.057	0.159
-278.457	-138.869	-0.100	0.011
-277.443	-53.226	0.157	0.072
-276.428	115.044	-0.187	0.228
-275.413	-200.000	0.001	-0.083
-274.399	-200.000	0.001	-0.067
-273.384	-57.351	0.179	0.079
-272.370	800.000	0.077	0.311
-271.355	333.983	-0.117	0.227
-270.340	34.455	-0.232	-0.203
-269.326	-188.363	0.427	-0.005
-268.311	-200.000	0.041	-0.253
-267.297	-85.263	0.179	-0.056
-266.282	330.256	-0.101	0.194
-265.267	17.526	-0.145	0.115
-264.253	-134.586	0.219	-0.027
-263.238	800.000	-0.088	0.329
-262.224	-200.000	0.015	-0.152
-261.209	-59.177	0.089	-0.038
-260.195	-42.517	0.115	0.058
-259.180	17.127	0.329	-0.261
-258.165	-200.000	0.006	-0.079
-257.151	93.040	-0.053	0.061
-256.136	800.000	0.029	-0.111
-255.122	298.944	0.149	0.276
-254.107	-122.531	0.214	-0.035
-253.092	395.687	0.062	0.130
-252.078	244.666	0.033	-0.055
-251.063	731.734	0.053	0.142
-250.049	319.223	-0.101	0.192
-249.034	17.151	-0.103	0.082
-248.019	-86.830	-0.241	-0.074
-247.005	17.131	0.196	-0.156
-245.990	450.775	0.138	-0.306
-244.976	24.073	0.241	0.199
-243.961	84.488	0.184	-0.202
-242.946	114.644	0.211	0.257
-241.932	-200.000	-0.019	-0.182
-240.917	-4.492	-0.092	0.064
-239.903	236.317	-0.177	-0.293
-238.888	-37.251	-0.249	0.133
-237.873	-200.000	0.029	0.186
-236.859	-123.267	-0.145	-0.023
-235.844	-81.515	0.303	-0.100
-234.830	-16.227	0.231	-0.147
-233.815	-13.136	-0.114	-0.074
-232.800	-143.185	0.063	0.006
-231.786	248.694	-0.129	0.218
-230.771	-74.698	-0.264	0.095
-229.757	-200.000	-0.003	-0.087
-228.742	-83.658	-0.317	-0.101
-227.727	-39.644	-0.324	-0.170
-226.713	-200.000	0.312	0.001
-225.698	-157.692	0.045	-0.003
-224.684	-63.781	-0.192	0.079
-223.669	374.840	-0.045	-0.091
-222.655	-117.936	0.158	-0.028
-221.640	-200.000	0.044	0.233
-220.625	239.419	-0.022	-0.036
-219.611	800.000	0.061	-0.203
-218.596	-6.164	0.468	-0.320
-217.582	-104.306	-0.215	0.050
-216.567	81.126	0.094	0.102
-215.552	-164.673	0.328	0.015
-214.538	384.898	0.067	0.138
-213.523	-134.681	0.092	-0.011
-212.509	-40.269	-0.245	-0.128
-211.494	-142.007	0.152	0.015
-210.479	-27.304	-0.295	-0.172
-209.465	152.364	-0.191	0.261
-208.450	-45.392	0.026	-0.013
-207.436	800.000	-0.042	0.129
-206.421	800.000	0.069	-0.231
-205.406	-200.000	-0.026	0.178
-204.392	2.706	-0.167	0.121
-203.377	-47.185	0.200	-0.097
-202.363	115.192	-0.136	0.166
-201.348	800.000	0.030	0.125
-200.333	-28.323	0.119	-0.069
-199.319	800.000	0.131	0.401
-198.304	249.277	0.086	0.145
-197.290	59.952	-0.113	-0.112
-196.275	800.000	-0.049	0.157
-195.260	265.156	0.106	-0.185
-194.246	17.071	0.205	-0.162
-193.231	-200.000	-0.039	0.204
-192.217	34.869	0.219	0.191
-191.202	800.000	0.043	0.135
-190.187	-54.357	-0.235	-0.106
-189.173	-165.307	0.101	0.004
-188.158	800.000	0.103	0.380
-187.144	-200.000	0.006	-0.097
-186.129	383.622	0.075	-0.153
-185.114	210.506	-0.128	-0.200
-184.100	5.264	-0.150	-0.110
-183.085	-22.573	-0.243	-0.147
-182.071	56.275	0.187	0.182
-181.056	-188.209	0.037	-0.000
-180.042	800.000	-0.045	0.195
-179.027	-56.894	-0.220	0.097
-178.012	339.933	-0.114	-0.223
-176.998	80.983	0.093	-0.100
-175.983	179.884	0.086	0.126
-174.969	-120.016	0.402	-0.069
-173.954	-200.000	0.003	0.032
-172.939	-104.902	-0.341	-0.078
-171.925	-200.000	0.032	0.165
-170.910	-152.228	0.216	-0.016
-169.896	800.000	-0.126	-0.489
-168.881	-161.908	0.188	0.009
-167.866	-49.962	-0.243	-0.115
-166.852	800.000	-0.044	-0.124
-165.837	56.774	-0.101	-0.098
-164.823	-84.392	0.204	0.064
-163.808	-30.873	-0.101	-0.057
-162.793	4.493	-0.173	-0.127
-161.779	-200.000	-0.018	-0.137
-160.764	-56.339	-0.330	0.146
-159.750	-103.803	-0.151	-0.035
-158.735	597.348	0.072	-0.178
-157.720	800.000	0.059	0.212
-156.706	169.561	0.040	-0.058
-155.691	127.407	0.126	-0.159
-154.677	-81.085	-0.129	-0.043
-153.662	-200.000	0.034	-0.153
-152.647	800.000	-0.069	-0.214
-151.633	-80.508	0.124	0.041
-150.618	800.000	-0.065	0.201
-149.604	40.075	0.223	0.200
-148.589	500.604	-0.080	-0.185
-147.574	-200.000	-0.046	0.318
-146.560	282.014	-0.082	0.146
-145.545	529.314	-0.031	0.072
-144.531	-200.000	-0.006	-0.056
-143.516	800.000	-0.054	0.232
-142.502	-35.675	0.280	-0.151
-141.487	11.098	-0.081	0.062
-140.472	-67.897	-0.193	-0.075
-139.458	-200.000	-0.010	-0.055
-138.443	381.423	0.123	0.251
-137.429	54.373	0.352	-0.338
-136.414	-200.000	0.008	0.150
-135.399	-200.000	0.059	0.451
-134.385	85.668	0.242	0.265
-133.370	49.395	-0.166	0.156
-132.356	74.343	-0.131	0.138
-131.341	-200.000	-0.061	-0.329
-130.326	-200.000	0.039	-0.269
-129.312	560.888	-0.121	0.291
-128.297	-102.702	-0.109	-0.026
-127.283	304.030	0.098	-0.181
-126.268	-200.000	0.008	-0.097
-125.253	-42.509	0.256	0.130
-124.239	800.000	-0.077	0.250
-123.224	45.330	-0.267	-0.246
