DTS Sentinel unit serial number:	SN413079Multiplexer serial number:	ORYXHardware model number:	OX4-SRSoftware version number:	ORYX F/W v4.00 Oryx Data Collector v3.7.2.0data status	okinstallation	princeton_trtdifferential loss correction	single-endedforward channel	channel 4reverse channel	N/Adate	2019/09/18time	03:45:34forward acquisition time	60.00reverse acquisition time	0.00gamma	496.2192k internal	0.2333k external	0.2333temperature offset calibration	0.9995default loss term (dB/km)	0.3790temperature slope calibration	1.0000multiplexer offset coefficient	1.0000multiplexer slope coefficient	1.0000fibre end	0.00T internal ref (°C)	22.94T ext. ref 1 (°C)	0.17T ext. ref 2 (°C)	18.06length (m)	temperature (°C)	Stokes	anti-Stokes-747.200	-151.409	-0.388	-0.029
-746.185	44.314	0.111	0.102
-745.171	160.426	0.105	0.148
-744.156	12.728	-0.083	-0.065
-743.142	-101.763	-0.027	-0.006
-742.127	-78.813	0.101	0.035
-741.112	53.948	-0.161	0.156
-740.098	157.285	0.160	0.223
-739.083	375.909	-0.094	0.194
-738.069	-12.744	0.069	0.046
-737.054	9.697	-0.161	0.123
-736.039	-72.669	-0.252	-0.094
-735.025	-73.853	0.245	-0.089
-734.010	342.607	-0.176	-0.347
-732.996	-90.936	0.171	0.049
-731.981	800.000	-0.039	0.148
-730.966	175.288	0.078	-0.113
-729.952	-99.959	-0.070	0.017
-728.937	-13.287	-0.139	-0.091
-727.923	-48.542	-0.198	0.096
-726.908	-132.900	-0.011	-0.001
-725.894	152.662	0.049	-0.068
-724.879	386.574	0.092	0.190
-723.864	185.007	-0.226	0.337
-722.850	293.733	0.163	0.298
-721.835	800.000	0.028	0.083
-720.821	0.244	-0.265	-0.190
-719.806	56.866	-0.273	-0.267
-718.791	-194.963	-0.261	-0.002
-717.777	121.828	-0.098	0.122
-716.762	192.136	-0.149	-0.226
-715.748	404.976	-0.180	-0.381
-714.733	-163.933	-0.346	0.016
-713.718	-15.362	0.339	0.218
-712.704	-200.000	0.049	0.302
-711.689	-200.000	-0.034	0.300
-710.675	57.242	-0.210	-0.206
-709.660	-197.498	0.309	-0.002
-708.645	-63.155	-0.096	0.040
-707.631	16.960	-0.055	0.043
-706.616	-200.000	-0.003	0.082
-705.602	-200.000	-0.037	-0.208
-704.587	139.544	0.185	-0.245
-703.572	591.359	0.027	0.066
-702.558	-200.000	0.007	-0.108
-701.543	-165.744	0.318	-0.014
-700.529	740.802	-0.030	-0.080
-699.514	-70.476	-0.121	-0.046
-698.499	10.740	0.361	-0.277
-697.485	-115.537	-0.252	-0.048
-696.470	78.091	0.270	-0.289
-695.456	-200.000	-0.076	0.379
-694.441	79.997	0.093	0.100
-693.426	-74.489	-0.055	-0.020
-692.412	30.463	-0.110	-0.094
-691.397	800.000	-0.133	-0.434
-690.383	-200.000	-0.085	-0.391
-689.368	-11.158	0.472	-0.312
-688.354	90.809	-0.040	0.045
-687.339	800.000	-0.011	-0.043
-686.324	311.717	0.019	-0.036
-685.310	-136.851	-0.069	0.008
-684.295	800.000	-0.049	-0.198
-683.281	-71.793	-0.304	-0.114
-682.266	-90.908	-0.206	-0.060
-681.251	217.394	0.186	-0.297
-680.237	-84.706	0.088	-0.028
-679.222	9.103	-0.116	-0.088
-678.208	-200.000	0.011	-0.339
-677.193	-22.473	-0.189	-0.115
-676.178	800.000	0.116	-0.355
-675.164	403.846	0.054	-0.115
-674.149	468.089	-0.156	0.351
-673.135	-38.570	0.068	-0.036
-672.120	321.751	0.102	-0.195
-671.105	467.406	-0.101	0.226
-670.091	517.413	0.066	-0.156
-669.076	104.895	-0.210	-0.248
-668.062	-49.598	-0.424	0.202
-667.047	-200.000	0.019	0.220
-666.032	-73.382	-0.366	-0.134
-665.018	-100.624	0.202	-0.050
-664.003	-200.000	-0.035	-0.259
-662.989	800.000	0.022	-0.091
-661.974	16.085	-0.123	-0.097
-660.959	255.751	-0.105	-0.180
-659.945	279.558	0.125	-0.223
-658.930	734.577	0.061	-0.165
-657.916	-129.970	-0.178	0.024
-656.901	-200.000	-0.039	0.249
-655.886	23.641	-0.087	-0.072
-654.872	7.341	0.097	-0.073
-653.857	89.027	-0.278	-0.310
-652.843	-37.504	0.138	0.074
-651.828	-95.363	-0.258	0.069
-650.814	-200.000	-0.033	-0.154
-649.799	800.000	-0.035	-0.108
-648.784	-200.000	-0.035	0.209
-647.770	800.000	0.109	-0.307
-646.755	411.695	-0.144	-0.307
-645.741	800.000	0.079	0.259
-644.726	-53.139	-0.168	-0.077
-643.711	-57.546	-0.063	-0.028
-642.697	435.077	-0.049	0.106
-641.682	78.406	0.090	0.096
-640.668	-128.725	-0.210	-0.030
-639.653	370.269	0.100	-0.202
-638.638	-41.890	0.253	0.130
-637.624	-89.911	0.063	-0.018
-636.609	-54.518	-0.340	-0.154
-635.595	152.635	0.268	0.366
-634.580	213.271	0.036	-0.056
-633.565	32.968	-0.219	0.190
-632.551	-91.436	0.219	-0.063
-631.536	-200.000	0.005	-0.145
-630.522	795.271	0.107	0.294
-629.507	-150.325	0.097	0.007
-628.492	682.079	-0.152	-0.396
-627.478	-46.198	0.078	-0.038
-626.463	-142.304	0.279	0.028
-625.449	555.418	-0.037	-0.089
-624.434	-133.409	0.072	-0.009
-623.419	800.000	-0.075	-0.325
-622.405	800.000	0.005	0.019
-621.390	-24.771	0.224	0.133
-620.376	-11.121	-0.137	0.090
-619.361	-51.334	0.353	-0.165
-618.346	-127.934	0.141	0.020
-617.332	-200.000	-0.049	-0.297
-616.317	-22.137	0.154	0.093
-615.303	33.546	-0.215	0.187
-614.288	30.089	0.212	0.181
-613.273	2.030	-0.258	0.186
-612.259	271.579	0.139	-0.246
-611.244	-200.000	0.003	-0.136
-610.230	800.000	-0.051	-0.140
-609.215	-34.751	0.092	-0.050
-608.201	-200.000	0.035	0.309
-607.186	9.552	0.146	0.111
-606.171	3.122	0.240	0.174
-605.157	800.000	-0.065	0.193
-604.142	-200.000	-0.010	-0.160
-603.128	-121.695	0.216	-0.036
-602.113	173.814	0.191	-0.275
-601.098	-26.395	-0.252	-0.148
-600.084	243.260	0.254	0.427
-599.069	-100.597	-0.495	0.122
-598.055	247.324	0.113	0.191
-597.040	-200.000	0.002	0.107
-596.025	-200.000	0.006	-0.246
-595.011	800.000	0.081	-0.285
-593.996	562.298	0.024	-0.057
-592.982	-121.222	-0.133	0.022
-591.967	72.419	-0.045	-0.046
-590.952	-32.716	-0.077	-0.043
-589.938	135.422	0.156	0.203
-588.923	800.000	0.024	-0.097
-587.909	5.823	-0.221	0.163
-586.894	189.077	0.083	-0.125
-585.879	-200.000	-0.032	0.146
-584.865	-200.000	-0.009	0.141
-583.850	-45.458	-0.038	-0.019
-582.836	-200.000	0.010	-0.302
-581.821	-160.722	0.162	-0.009
-580.806	140.413	-0.189	0.250
-579.792	800.000	-0.083	0.234
-578.777	-106.955	-0.080	-0.018
-577.763	-200.000	0.071	-0.377
-576.748	601.364	-0.093	-0.231
-575.733	55.437	-0.211	0.204
-574.719	-79.092	0.245	-0.083
-573.704	291.539	-0.043	0.078
-572.690	-41.620	-0.281	-0.144
-571.675	800.000	-0.060	0.188
-570.661	-183.166	-0.180	0.003
-569.646	402.099	-0.176	0.370
-568.631	-77.331	0.408	0.142
-567.617	-200.000	0.020	0.200
-566.602	800.000	0.068	0.225
-565.588	-200.000	-0.001	0.307
-564.573	-74.466	0.090	-0.033
-563.558	458.708	0.089	0.198
-562.544	199.410	-0.036	-0.056
-561.529	-38.788	-0.256	-0.135
-560.515	-79.020	-0.272	-0.092
-559.500	-78.133	-0.071	-0.024
-558.485	33.545	-0.011	-0.009
-557.471	-108.241	-0.305	-0.066
-556.456	195.921	-0.023	0.035
-555.442	-60.454	0.024	-0.010
-554.427	93.268	-0.106	-0.120
-553.412	-97.557	0.262	0.068
-552.398	-36.372	0.242	-0.130
-551.383	-200.000	-0.025	-0.407
-550.369	126.737	-0.095	0.120
-549.354	-79.538	-0.182	-0.061
-548.339	800.000	0.075	-0.235
-547.325	529.622	0.088	0.207
-546.310	-94.814	-0.114	-0.031
-545.296	-53.272	-0.165	0.076
-544.281	-200.000	0.016	-0.340
-543.266	-200.000	-0.030	-0.305
-542.252	-97.781	0.366	0.094
-541.237	-124.621	0.219	-0.034
-540.223	-200.000	0.027	-0.271
-539.208	305.582	0.118	-0.219
-538.193	-200.000	-0.031	-0.136
-537.179	-200.000	-0.047	0.218
-536.164	147.855	0.189	0.254
-535.150	-200.000	0.034	0.345
-534.135	219.202	0.094	-0.150
-533.121	800.000	0.109	-0.303
-532.106	-89.526	-0.198	0.058
-531.091	-95.989	-0.282	-0.075
-530.077	280.847	-0.236	-0.421
-529.062	-200.000	-0.023	0.101
-528.048	37.896	0.415	0.368
-527.033	99.820	0.178	0.206
-526.018	-41.405	0.343	0.176
-525.004	18.146	-0.147	-0.117
-523.989	108.701	0.142	-0.169
-522.975	154.900	-0.105	-0.143
-521.960	33.355	0.140	0.121
-520.945	-200.000	0.063	0.427
-519.931	-9.327	-0.050	0.034
-518.916	-72.320	0.234	0.086
-517.902	29.160	-0.099	0.084
-516.887	-119.098	0.034	0.006
-515.872	122.991	0.123	0.153
-514.858	367.874	-0.090	0.182
-513.843	-179.523	0.548	-0.012
-512.829	-200.000	-0.022	-0.130
-511.814	-80.605	0.196	-0.065
-510.799	168.243	-0.034	-0.048
-509.785	800.000	-0.040	0.135
-508.770	13.597	0.051	0.039
-507.756	-200.000	0.009	-0.079
-506.741	7.953	0.125	-0.093
-505.726	15.512	0.207	0.162
-504.712	-200.000	0.004	-0.316
-503.697	-1.867	-0.259	-0.182
-502.683	406.695	-0.025	0.052
-501.668	353.373	0.155	-0.307
-500.653	-128.583	-0.153	-0.022
-499.639	-200.000	-0.001	-0.284
-498.624	-200.000	-0.001	0.281
-497.610	217.905	-0.183	0.291
-496.595	105.019	0.067	0.078
-495.581	112.273	-0.323	-0.389
-494.566	800.000	0.050	-0.147
-493.551	-200.000	0.003	0.046
-492.537	170.082	-0.115	-0.163
-491.522	-200.000	0.009	-0.285
-490.508	226.434	-0.017	-0.027
-489.493	88.110	0.063	-0.070
-488.478	394.591	-0.028	0.059
-487.464	-200.000	-0.034	-0.149
-486.449	-118.360	-0.060	0.011
-485.435	800.000	-0.056	-0.178
-484.420	-125.053	0.319	0.049
-483.405	77.593	-0.125	0.133
-482.391	-200.000	0.054	0.323
-481.376	-85.103	-0.144	-0.045
-480.362	458.616	-0.093	0.205
-479.347	-12.833	0.195	-0.127
-478.332	-200.000	0.006	-0.275
-477.318	417.999	0.142	0.302
-476.303	579.050	0.136	0.331
-475.289	-200.000	0.040	0.186
-474.274	-200.000	0.014	-0.105
-473.259	-200.000	0.024	0.347
-472.245	-56.620	0.262	-0.115
-471.230	-33.115	-0.209	-0.115
-470.216	-200.000	0.019	0.094
-469.201	-142.817	0.352	-0.034
-468.186	-145.653	-0.233	0.021
-467.172	153.894	0.087	0.119
-466.157	800.000	-0.032	-0.119
-465.143	-118.183	-0.138	0.025
-464.128	661.998	-0.077	0.198
-463.113	-115.670	-0.209	-0.039
-462.099	180.724	0.201	-0.294
-461.084	171.131	-0.177	0.252
-460.070	-80.354	-0.285	-0.095
-459.055	800.000	0.044	0.144
-458.040	-162.697	-0.204	0.010
-457.026	-45.620	-0.082	-0.040
-456.011	68.445	0.150	-0.153
-454.997	728.532	0.065	-0.172
-453.982	-114.995	-0.362	0.068
-452.968	-58.762	0.183	0.079
-451.953	800.000	0.050	0.194
-450.938	237.299	0.086	-0.142
-449.924	382.763	-0.098	0.201
-448.909	-200.000	-0.005	-0.057
-447.895	-84.949	-0.316	0.098
-446.880	-60.999	-0.213	-0.089
-445.865	-78.529	-0.085	0.029
-444.851	34.951	-0.208	0.181
-443.836	-200.000	0.006	-0.069
-442.822	-200.000	-0.002	0.020
-441.807	800.000	-0.118	0.460
-440.792	800.000	0.067	-0.278
-439.778	-89.288	-0.097	-0.028
-438.763	25.346	-0.034	-0.028
-437.749	4.128	-0.093	0.067
-436.734	-36.682	0.264	0.141
-435.719	192.977	-0.161	-0.242
-434.705	35.117	-0.139	0.121
-433.690	1.321	0.133	0.095
-432.676	800.000	-0.115	0.325
-431.661	800.000	0.038	0.142
-430.646	242.247	-0.134	-0.223
-429.632	798.116	-0.030	0.083
-428.617	456.980	-0.122	-0.270
-427.603	65.412	0.013	0.013
-426.588	-53.231	-0.325	-0.148
-425.573	-200.000	-0.035	-0.342
-424.559	13.907	-0.153	0.118
-423.544	-162.483	0.154	0.008
-422.530	63.842	-0.252	0.251
-421.515	-200.000	0.017	-0.139
-420.500	-61.045	0.146	0.061
-419.486	-200.000	0.021	-0.159
-418.471	45.233	0.080	0.073
-417.457	-69.677	-0.251	-0.095
-416.442	-89.521	0.202	0.059
-415.428	-37.283	-0.139	-0.074
-414.413	163.777	-0.051	-0.071
-413.398	-200.000	0.044	-0.225
-412.384	531.867	-0.120	-0.283
-411.369	800.000	0.061	-0.222
-410.355	675.591	0.060	-0.156
-409.340	52.926	-0.063	0.059
-408.325	-13.231	-0.193	0.125
-407.311	-45.417	0.444	-0.218
-406.296	-12.755	0.215	-0.139
-405.282	-39.459	-0.386	0.201
-404.267	761.837	0.094	-0.254
-403.252	243.984	0.155	-0.258
-402.238	-24.101	0.107	0.063
-401.223	-136.541	0.151	0.017
-400.209	209.960	0.137	-0.213
-399.194	-200.000	0.050	-0.278
-398.179	-200.000	-0.017	0.203
-397.165	-200.000	-0.038	-0.369
-396.150	800.000	0.122	0.520
-395.136	39.465	0.071	-0.063
-394.121	-200.000	-0.001	-0.073
-393.106	-107.677	0.104	-0.023
-392.092	-30.438	-0.343	0.193
-391.077	-34.022	0.204	-0.111
-390.063	-26.932	-0.270	0.156
-389.048	142.536	0.076	0.101
-388.033	-11.438	-0.088	-0.057
-387.019	-200.000	-0.294	0.000
-386.004	70.509	-0.109	-0.112
-384.990	-99.674	-0.348	0.087
-383.975	104.487	0.085	-0.099
-382.960	-143.397	0.427	0.040
-381.946	-105.089	0.314	-0.071
-380.931	47.021	-0.121	0.111
-379.917	-158.030	-0.143	0.008
-378.902	153.287	0.203	-0.275
-377.888	92.971	-0.143	0.160
-376.873	-150.387	-0.167	-0.013
-375.858	127.098	0.157	0.197
-374.844	358.876	0.062	0.123
-373.829	-200.000	-0.064	0.374
-372.815	-200.000	0.009	-0.051
-371.800	800.000	-0.110	-0.418
-370.785	800.000	0.027	-0.096
-369.771	-131.693	0.397	-0.052
-368.756	-200.000	-0.007	-0.295
-367.742	-62.082	0.228	0.094
-366.727	182.934	-0.151	-0.221
-365.712	52.840	-0.060	-0.057
-364.698	-61.424	0.287	-0.119
-363.683	-56.603	-0.034	0.015
-362.669	31.209	0.190	-0.161
-361.654	426.616	0.098	-0.209
-360.639	255.903	0.254	-0.432
-359.625	-72.249	0.133	0.049
-358.610	-84.461	-0.257	0.080
-357.596	-39.933	0.109	0.056
-356.581	-200.000	-0.044	0.327
-355.566	-1.553	0.168	0.117
-354.552	-200.000	0.021	0.164
-353.537	800.000	0.088	0.245
-352.523	-104.916	-0.220	0.050
-351.508	85.601	-0.103	0.112
-350.493	261.024	-0.027	-0.047
-349.479	-42.355	-0.066	0.034
-348.464	-8.859	-0.124	0.083
-347.450	-125.367	0.225	0.034
-346.435	70.375	-0.190	0.194
-345.420	-12.419	-0.305	-0.197
-344.406	208.072	-0.171	-0.264
-343.391	-200.000	0.007	0.146
-342.377	133.823	0.110	-0.141
-341.362	-200.000	0.039	0.279
-340.348	-166.146	0.152	-0.006
-339.333	-84.995	-0.240	0.074
-338.318	-200.000	-0.002	-0.217
-337.304	-62.639	-0.168	-0.069
-336.289	690.983	-0.044	-0.113
-335.275	-97.576	0.150	0.038
-334.260	-200.000	0.070	0.484
-333.245	83.943	0.105	-0.113
-332.231	156.819	0.077	0.105
-331.216	89.259	0.241	0.265
-330.202	280.782	0.232	-0.411
-329.187	-200.000	-0.017	-0.234
-328.172	68.269	-0.062	-0.063
-327.158	154.445	-0.271	0.368
-326.143	540.895	-0.107	-0.251
-325.129	-63.055	-0.308	0.126
-324.114	-151.143	-0.244	-0.018
-323.099	186.380	-0.140	-0.206
-322.085	-153.499	-0.149	0.010
-321.070	-78.272	-0.324	0.110
-320.056	800.000	0.035	-0.115
-319.041	-133.137	-0.249	-0.031
-318.026	106.007	0.093	0.109
-317.012	142.279	-0.148	-0.195
-315.997	218.160	-0.076	0.120
-314.983	83.572	0.119	-0.128
-313.968	114.406	0.076	0.091
-312.953	-200.000	0.060	0.314
-311.939	552.974	0.119	0.284
-310.924	8.283	0.060	-0.045
-309.910	-129.262	-0.289	0.040
-308.895	-200.000	-0.039	0.211
-307.880	255.692	0.142	0.241
-306.866	107.822	0.190	-0.224
-305.851	-178.810	-0.356	0.008
-304.837	-200.000	-0.004	0.226
-303.822	-157.542	-0.250	-0.015
-302.807	-118.719	0.310	-0.054
-301.793	-105.837	-0.286	-0.064
-300.778	-124.343	0.436	0.067
-299.764	23.896	-0.253	-0.206
-298.749	-127.744	0.213	-0.030
-297.735	800.000	-0.068	-0.218
-296.720	344.276	-0.052	0.101
-295.705	20.917	-0.380	-0.304
-294.691	-138.455	0.269	-0.029
-293.676	-0.848	0.091	-0.063
-292.662	101.847	0.241	0.278
-291.647	800.000	0.057	-0.174
-290.632	236.734	-0.150	-0.245
-289.618	-139.236	-0.188	-0.020
-288.603	-200.000	-0.038	0.328
-287.589	-75.896	-0.348	-0.122
-286.574	389.611	0.179	-0.367
-285.559	551.860	-0.126	-0.298
-284.545	283.791	-0.120	-0.214
-283.530	-9.570	0.056	0.037
-282.516	-67.906	0.374	-0.144
-281.501	304.811	0.149	0.273
-280.486	-200.000	-0.001	0.140
-279.472	13.201	0.191	-0.146
-278.457	-2.838	0.214	0.148
-277.443	186.597	-0.117	-0.172
-276.428	252.719	-0.119	0.200
-275.413	-79.398	0.166	-0.055
-274.399	147.143	0.115	0.153
-273.384	54.200	0.108	-0.103
-272.370	22.756	-0.293	0.237
-271.355	3.677	-0.126	-0.091
-270.340	-200.000	0.004	0.144
-269.326	-26.754	0.285	0.164
-268.311	-36.678	-0.180	0.095
-267.297	-141.917	-0.131	-0.013
-266.282	-98.107	0.135	-0.034
-265.267	-34.211	0.303	0.164
-264.253	-134.918	0.083	-0.010
-263.238	7.777	-0.189	-0.140
-262.224	-154.110	0.041	0.003
-261.209	-118.860	0.115	0.020
-260.195	-121.430	0.227	0.037
-259.180	-86.593	0.063	0.019
-258.165	33.508	-0.289	-0.248
-257.151	-200.000	-0.057	0.298
-256.136	-58.124	0.271	0.117
-255.122	-134.064	0.311	-0.038
-254.107	-15.341	-0.167	0.105
-253.092	-200.000	0.020	-0.390
-252.078	68.801	0.052	0.053
-251.063	-88.653	0.272	0.080
-250.049	393.416	0.199	-0.408
-249.034	-200.000	0.023	-0.175
-248.019	254.489	-0.124	-0.210
-247.005	318.553	0.161	0.300
-245.990	152.859	-0.280	0.377
-244.976	-200.000	-0.033	0.188
-243.961	34.128	-0.278	0.239
-242.946	800.000	0.035	0.116
-241.932	-119.531	-0.239	-0.041
-240.917	-129.424	0.139	-0.019
-239.903	-200.000	-0.024	-0.319
-238.888	-192.531	0.323	-0.003
-237.873	-200.000	0.012	0.067
-236.859	-84.898	-0.364	-0.113
-235.844	-5.374	-0.321	0.217
-234.830	219.733	0.080	-0.126
-233.815	263.148	-0.115	-0.197
-232.800	100.537	-0.123	0.140
-231.786	-129.490	0.136	-0.019
-230.771	-49.771	0.261	0.122
-229.757	-46.013	0.140	-0.068
-228.742	-18.541	-0.150	-0.092
-227.727	800.000	-0.044	0.179
-226.713	-183.459	0.486	0.008
-225.698	-158.226	-0.145	0.008
-224.684	-68.277	-0.313	0.120
-223.669	12.732	0.181	0.138
-222.655	82.978	-0.163	-0.174
-221.640	78.481	-0.139	0.146
-220.625	-16.545	-0.131	0.082
-219.611	800.000	-0.000	0.001
-218.596	452.383	-0.071	-0.154
-217.582	-141.140	-0.272	-0.027
-216.567	800.000	0.065	-0.254
-215.552	50.496	-0.110	0.102
-214.538	-48.167	-0.086	-0.041
-213.523	392.926	0.123	0.252
-212.509	800.000	-0.058	-0.157
-211.494	-200.000	0.023	-0.298
-210.479	-200.000	-0.007	-0.097
-209.465	139.356	-0.063	-0.082
-208.450	-200.000	0.079	0.352
-207.436	152.911	-0.211	-0.283
-206.421	-130.549	0.136	-0.018
-205.406	-3.890	0.097	0.066
-204.392	-176.146	0.086	-0.002
-203.377	-200.000	0.021	0.168
-202.363	179.569	0.268	0.386
-201.348	-71.512	-0.135	0.050
-200.333	10.180	-0.152	-0.114
-199.319	44.482	-0.399	-0.360
-198.304	410.233	-0.031	-0.065
-197.290	587.666	0.122	0.295
-196.275	-140.991	0.209	-0.021
-195.260	58.880	-0.216	-0.209
-194.246	-48.338	-0.085	-0.040
-193.231	299.862	0.074	0.134
-192.217	-179.562	0.414	0.009
-191.202	102.530	-0.146	0.168
-190.187	800.000	-0.030	0.130
-189.173	518.470	0.046	0.105
-188.158	-94.142	-0.090	0.024
-187.144	-110.087	-0.192	-0.039
-186.129	-49.248	-0.122	0.057
-185.114	-200.000	0.010	0.161
-184.100	591.388	0.039	0.095
-183.085	800.000	-0.064	-0.213
-182.071	-40.987	-0.207	-0.105
-181.056	-116.959	0.214	0.038
-180.042	-64.901	-0.062	0.025
-179.027	-98.546	-0.269	-0.068
-178.012	79.671	0.213	0.225
-176.998	85.001	0.088	0.095
-175.983	42.029	-0.265	-0.237
-174.969	-59.619	0.234	-0.099
-173.954	-5.025	0.315	0.213
-172.939	80.875	0.209	0.221
-171.925	-200.000	0.009	0.358
-170.910	-95.184	-0.149	-0.039
-169.896	-58.903	0.041	-0.017
-168.881	125.912	0.156	-0.194
-167.866	-131.448	0.113	0.015
-166.852	-5.032	-0.233	-0.158
-165.837	602.687	0.100	0.244
-164.823	-200.000	0.018	-0.230
-163.808	800.000	0.043	-0.132
-162.793	-139.684	0.246	0.026
-161.779	-39.530	0.097	0.050
-160.764	-32.905	-0.135	0.074
-159.750	-89.804	-0.236	0.068
-158.735	-77.903	0.213	-0.072
-157.720	-60.261	-0.060	0.025
-156.706	-110.867	0.202	0.041
-155.691	-140.442	-0.036	0.004
-154.677	339.229	-0.121	-0.231
-153.662	482.187	0.064	0.144
-152.647	-73.550	-0.190	0.068
-151.633	107.661	0.265	0.310
-150.618	-137.258	0.067	-0.008
-149.604	46.756	0.474	0.433
-148.589	-96.815	-0.396	-0.102
-147.574	31.690	0.250	0.212
-146.560	-65.745	0.103	0.041
-145.545	800.000	0.029	-0.079
-144.531	-54.454	-0.270	-0.120
-143.516	-200.000	0.007	-0.097
-142.502	140.139	-0.203	0.262
-141.487	-145.775	0.427	-0.037
-140.472	276.668	-0.087	0.152
-139.458	800.000	-0.024	-0.079
-138.443	50.044	-0.146	-0.136
-137.429	-138.418	-0.092	0.010
-136.414	-200.000	0.007	0.189
-135.399	32.733	-0.120	0.102
-134.385	61.990	0.267	-0.261
-133.370	269.734	-0.017	0.030
-132.356	-200.000	0.001	0.210
-131.341	546.138	-0.029	0.068
-130.326	10.479	0.380	-0.284
-129.312	219.641	-0.059	0.093
-128.297	60.019	-0.323	0.314
-127.283	-200.000	0.023	0.133
-126.268	45.730	0.080	-0.073
-125.253	401.311	-0.226	-0.465
-124.239	199.583	-0.072	-0.108
-123.224	102.022	-0.133	-0.152
-122.210	-139.914	-0.261	0.027
