DTS Sentinel unit serial number:	SN413079Multiplexer serial number:	ORYXHardware model number:	OX4-SRSoftware version number:	ORYX F/W v4.00 Oryx Data Collector v3.7.2.0data status	okinstallation	princeton_trtdifferential loss correction	single-endedforward channel	channel 4reverse channel	N/Adate	2019/09/16time	04:05:34forward acquisition time	60.00reverse acquisition time	0.00gamma	496.2192k internal	0.2320k external	0.2320temperature offset calibration	0.9979default loss term (dB/km)	0.3790temperature slope calibration	1.0000multiplexer offset coefficient	1.0000multiplexer slope coefficient	1.0000fibre end	0.00T internal ref (°C)	27.44T ext. ref 1 (°C)	10.73T ext. ref 2 (°C)	21.47length (m)	temperature (°C)	Stokes	anti-Stokes-747.200	800.000	0.057	0.235
-746.185	-10.274	-0.206	0.138
-745.171	800.000	-0.148	0.469
-744.156	40.648	0.194	0.177
-743.142	-7.351	-0.172	0.118
-742.127	-200.000	-0.017	0.514
-741.112	-56.510	0.099	0.045
-740.098	-94.342	-0.317	-0.087
-739.083	-16.650	0.029	0.019
-738.069	670.896	-0.023	0.060
-737.054	8.617	0.215	-0.164
-736.039	-146.642	-0.268	-0.024
-735.025	-200.000	0.447	-0.001
-734.010	172.430	-0.062	0.090
-732.996	-81.324	-0.302	0.101
-731.981	78.757	0.268	-0.290
-730.966	800.000	-0.076	-0.336
-729.952	17.283	0.330	0.265
-728.937	-12.375	-0.333	0.220
-727.923	73.518	0.047	-0.050
-726.908	213.540	0.128	0.204
-725.894	-42.456	-0.331	-0.171
-724.879	293.317	-0.164	-0.302
-723.864	486.541	0.054	-0.124
-722.850	152.473	-0.103	-0.142
-721.835	-64.031	0.306	0.126
-720.821	189.182	0.131	0.198
-719.806	733.541	0.051	0.138
-718.791	154.450	-0.037	0.051
-717.777	23.482	-0.246	-0.204
-716.762	276.937	0.081	0.146
-715.748	-159.964	-0.336	0.019
-714.733	-162.567	0.211	-0.010
-713.718	225.513	-0.112	-0.183
-712.704	-200.000	-0.017	-0.122
-711.689	-120.730	-0.193	-0.033
-710.675	-132.573	-0.328	-0.043
-709.660	452.440	0.035	-0.078
-708.645	-116.883	0.309	-0.057
-707.631	-200.000	-0.030	-0.170
-706.616	-154.836	0.202	-0.013
-705.602	-81.692	-0.321	-0.106
-704.587	-31.355	0.137	0.078
-703.572	39.155	-0.020	0.018
-702.558	-180.235	0.372	0.008
-701.543	-68.415	-0.122	-0.048
-700.529	800.000	0.073	0.317
-699.514	-84.605	0.223	0.071
-698.499	-126.460	-0.194	-0.029
-697.485	78.769	-0.294	-0.318
-696.470	800.000	0.041	-0.173
-695.456	-200.000	-0.024	0.112
-694.441	-86.075	-0.130	-0.040
-693.426	601.787	-0.033	0.083
-692.412	482.850	-0.124	0.284
-691.397	-79.305	-0.135	0.046
-690.383	8.101	0.263	-0.199
-689.368	-154.967	-0.418	0.028
-688.354	-200.000	-0.018	0.380
-687.339	-132.931	-0.137	-0.018
-686.324	253.737	-0.179	-0.308
-685.310	800.000	0.075	-0.209
-684.295	90.766	-0.121	0.136
-683.281	-14.423	-0.152	0.099
-682.266	-200.000	0.010	0.301
-681.251	-58.184	-0.104	0.046
-680.237	-49.444	-0.428	0.206
-679.222	-200.000	0.047	-0.254
-678.208	61.382	-0.145	-0.146
-677.193	-137.960	-0.259	0.029
-676.178	604.062	0.099	-0.249
-675.164	64.799	0.067	0.068
-674.149	351.116	0.151	-0.300
-673.135	-200.000	-0.002	-0.020
-672.120	-106.210	-0.230	0.052
-671.105	665.787	0.166	-0.433
-670.091	669.465	0.120	-0.314
-669.076	-200.000	-0.062	-0.321
-668.062	-101.904	0.589	-0.143
-667.047	38.362	-0.197	0.177
-666.032	-92.062	-0.121	-0.034
-665.018	-6.350	-0.261	0.180
-664.003	-111.996	0.242	0.049
-662.989	-56.375	-0.270	-0.121
-661.974	219.337	0.146	0.236
-660.959	514.298	0.263	0.619
-659.945	58.242	-0.092	-0.091
-658.930	-79.414	0.103	-0.035
-657.916	800.000	0.072	-0.287
-656.901	800.000	0.035	-0.143
-655.886	-76.412	-0.335	-0.119
-654.872	121.469	0.194	0.243
-653.857	-42.005	-0.267	-0.138
-652.843	-162.353	-0.126	-0.006
-651.828	-200.000	-0.018	0.108
-650.814	800.000	-0.095	-0.312
-649.799	-53.704	0.104	-0.048
-648.784	-39.271	-0.146	0.077
-647.770	753.365	-0.052	-0.142
-646.755	612.832	-0.177	0.446
-645.741	-169.661	-0.350	0.013
-644.726	148.261	-0.061	0.083
-643.711	9.547	-0.062	0.047
-642.697	-3.070	-0.230	-0.162
-641.682	743.994	0.021	0.057
-640.668	417.151	-0.100	-0.215
-639.653	-110.142	-0.182	-0.038
-638.638	-200.000	0.047	0.325
-637.624	40.101	0.070	-0.064
-636.609	21.652	-0.080	-0.066
-635.595	136.791	-0.035	0.046
-634.580	-139.253	-0.080	0.009
-633.565	-109.373	0.303	0.065
-632.551	-131.741	-0.143	-0.019
-631.536	734.959	-0.062	-0.168
-630.522	-110.679	0.438	-0.091
-629.507	-127.188	-0.430	-0.063
-628.492	-46.051	0.164	0.081
-627.478	-151.861	0.258	0.019
-626.463	0.013	0.176	-0.126
-625.449	231.301	0.079	-0.131
-624.434	-33.642	-0.273	-0.151
-623.419	800.000	-0.028	-0.101
-622.405	-7.296	-0.462	0.315
-621.390	131.699	0.013	0.017
-620.376	-120.128	-0.260	0.045
-619.361	-3.721	-0.057	0.040
-618.346	374.967	0.099	0.204
-617.332	29.627	-0.225	0.193
-616.317	53.344	-0.134	0.129
-615.303	194.908	-0.165	0.252
-614.288	56.168	0.109	0.107
-613.273	-200.000	0.013	0.098
-612.259	-200.000	0.013	0.495
-611.244	-155.588	0.146	-0.009
-610.230	-135.748	-0.286	-0.034
-609.215	-19.883	-0.017	-0.010
-608.201	294.780	0.055	-0.102
-607.186	-100.694	-0.413	0.102
-606.171	-89.466	0.374	-0.111
-605.157	-15.435	-0.040	0.026
-604.142	544.055	-0.043	-0.103
-603.128	-200.000	-0.073	-0.346
-602.113	-51.915	-0.147	-0.069
-601.098	244.730	0.088	-0.149
-600.084	-200.000	-0.007	-0.088
-599.069	59.077	0.151	-0.149
-598.055	120.982	0.180	0.226
-597.040	7.356	-0.154	-0.116
-596.025	-104.994	0.209	0.048
-595.011	800.000	-0.021	-0.067
-593.996	729.108	0.092	0.247
-592.982	-5.284	-0.116	0.080
-591.967	800.000	0.029	0.101
-590.952	131.021	0.109	-0.141
-589.938	45.272	-0.294	0.273
-588.923	34.491	-0.265	0.233
-587.909	422.930	-0.075	0.161
-586.894	800.000	0.069	0.208
-585.879	-36.731	-0.091	0.049
-584.865	-64.789	-0.087	-0.036
-583.850	91.436	0.156	-0.176
-582.836	-79.161	-0.177	0.061
-581.821	800.000	0.056	0.169
-580.806	-200.000	-0.064	0.432
-579.792	394.957	-0.137	0.286
-578.777	-200.000	0.004	-0.127
-577.763	800.000	0.098	0.296
-576.748	-61.386	-0.179	-0.076
-575.733	-64.940	0.262	-0.106
-574.719	197.962	0.164	-0.251
-573.704	114.229	0.166	-0.203
-572.690	255.688	-0.112	0.192
-571.675	527.367	-0.040	-0.095
-570.661	226.635	-0.048	0.079
-569.646	800.000	-0.053	0.198
-568.631	-200.000	0.038	0.179
-567.617	3.562	-0.129	-0.094
-566.602	-80.710	-0.189	-0.063
-565.588	266.885	-0.262	0.460
-564.573	-33.476	0.175	-0.097
-563.558	-200.000	0.050	-0.248
-562.544	-36.474	0.318	-0.172
-561.529	-41.844	-0.090	0.046
-560.515	-36.055	0.110	0.059
-559.500	-89.750	0.156	-0.046
-558.485	-121.769	-0.203	-0.034
-557.471	176.405	-0.081	0.118
-556.456	-200.000	-0.017	0.086
-555.442	-117.874	0.074	-0.013
-554.427	-200.000	0.023	-0.246
-553.412	795.845	0.054	-0.150
-552.398	162.052	-0.144	-0.202
-551.383	-200.000	-0.010	-0.158
-550.369	-14.937	-0.228	-0.147
-549.354	413.493	-0.009	0.019
-548.339	-200.000	-0.037	0.396
-547.325	-20.970	-0.122	-0.075
-546.310	-24.409	-0.310	0.186
-545.296	-200.000	-0.027	0.278
-544.281	-59.074	-0.180	-0.078
-543.266	-11.009	0.425	-0.282
-542.252	28.671	-0.268	0.228
-541.237	-10.055	-0.072	-0.048
-540.223	-131.297	0.175	-0.023
-539.208	-58.360	-0.087	-0.038
-538.193	-200.000	-0.022	0.154
-537.179	-20.065	-0.237	-0.147
-536.164	-200.000	0.034	-0.186
-535.150	-200.000	-0.036	-0.680
-534.135	107.140	0.046	-0.054
-533.121	800.000	0.034	0.135
-532.106	-200.000	-0.011	-0.171
-531.091	-8.375	0.052	0.035
-530.077	-118.742	-0.093	0.016
-529.062	129.330	0.044	-0.056
-528.048	85.125	-0.129	-0.142
-527.033	-187.653	0.243	-0.003
-526.018	-147.362	0.244	-0.021
-525.004	-200.000	0.015	0.105
-523.989	625.298	0.168	-0.424
-522.975	-100.284	0.382	-0.095
-521.960	-200.000	-0.017	0.075
-520.945	-200.000	0.000	0.158
-519.931	-200.000	-0.001	0.134
-518.916	-94.042	0.206	0.057
-517.902	-107.548	-0.251	0.055
-516.887	377.790	-0.163	-0.333
-515.872	-200.000	0.035	0.202
-514.858	-46.844	0.073	0.036
-513.843	-200.000	-0.003	0.271
-512.829	328.594	0.056	0.108
-511.814	-191.007	-0.188	0.002
-510.799	-200.000	-0.002	0.083
-509.785	142.271	-0.087	-0.115
-508.770	-25.972	-0.241	0.142
-507.756	104.190	-0.076	0.089
-506.741	3.615	0.135	-0.098
-505.726	171.374	-0.100	0.143
-504.712	800.000	-0.114	-0.331
-503.697	-146.867	0.243	0.021
-502.683	-46.730	-0.309	-0.152
-501.668	85.888	0.152	0.168
-500.653	-68.747	0.147	-0.057
-499.639	-113.556	0.596	0.117
-498.624	706.416	0.069	-0.182
-497.610	39.325	0.239	-0.214
-496.595	-37.353	-0.074	-0.040
-495.581	-21.837	0.131	0.080
-494.566	-200.000	-0.052	-0.319
-493.551	519.688	-0.106	-0.249
-492.537	800.000	-0.034	-0.115
-491.522	12.867	0.258	-0.199
-490.508	336.293	0.168	0.326
-489.493	105.922	0.054	0.064
-488.478	800.000	-0.069	0.204
-487.464	-200.000	0.050	-0.271
-486.449	32.112	-0.171	-0.148
-485.435	-84.638	-0.458	0.144
-484.420	-95.669	0.340	0.091
-483.405	-165.708	0.122	-0.005
-482.391	-56.040	-0.177	0.079
-481.376	-14.921	0.369	0.237
-480.362	-141.568	-0.174	0.018
-479.347	-12.673	-0.135	0.088
-478.332	124.570	-0.245	0.309
-477.318	-68.487	-0.169	0.066
-476.303	-109.063	0.200	0.043
-475.289	289.326	0.145	-0.263
-474.274	22.281	-0.158	0.129
-473.259	-119.918	0.088	0.015
-472.245	19.331	0.154	-0.124
-471.230	113.930	-0.117	-0.142
-470.216	800.000	-0.088	-0.248
-469.201	-200.000	-0.015	-0.334
-468.186	134.518	-0.118	-0.153
-467.172	800.000	0.111	-0.354
-466.157	800.000	0.020	-0.079
-465.143	-98.304	-0.032	-0.008
-464.128	226.436	0.126	0.205
-463.113	800.000	-0.028	0.116
-462.099	800.000	0.058	0.165
-461.084	375.133	0.122	-0.249
-460.070	-124.028	0.085	0.013
-459.055	-14.099	0.412	-0.266
-458.040	-30.092	-0.319	-0.181
-457.026	-0.070	-0.106	0.076
-456.011	-13.983	-0.111	0.072
-454.997	-143.539	-0.208	-0.020
-453.982	86.969	-0.148	-0.163
-452.968	800.000	-0.019	0.080
-451.953	37.476	0.235	0.208
-450.938	-200.000	0.008	-0.099
-449.924	263.993	0.141	0.246
-448.909	-78.130	-0.040	0.014
-447.895	-163.835	0.327	0.015
-446.880	-113.963	-0.160	0.031
-445.865	-5.381	-0.255	0.175
-444.851	136.434	0.111	-0.145
-443.836	106.605	-0.221	0.261
-442.822	-200.000	-0.065	-0.333
-441.807	423.686	0.124	-0.267
-440.792	158.036	-0.159	-0.220
-439.778	66.480	-0.254	0.258
-438.763	-122.643	-0.266	-0.043
-437.749	19.723	0.133	0.107
-436.734	23.102	0.193	-0.159
-435.719	-200.000	0.004	-0.192
-434.705	-34.672	-0.037	-0.020
-433.690	273.152	-0.150	-0.265
-432.676	-126.919	-0.140	0.021
-431.661	182.164	0.067	0.098
-430.646	-70.298	0.173	0.066
-429.632	800.000	0.031	0.116
-428.617	191.510	-0.141	-0.212
-427.603	-200.000	-0.098	-0.447
-426.588	-135.109	-0.351	0.042
-425.573	64.380	0.034	-0.035
-424.559	-142.091	0.143	-0.014
-423.544	-79.084	0.266	-0.090
-422.530	-12.610	-0.320	-0.208
-421.515	800.000	-0.045	0.187
-420.500	274.740	0.197	0.349
-419.486	18.893	0.120	-0.096
-418.471	-153.835	0.178	0.012
-417.457	614.814	-0.192	0.481
-416.442	-200.000	0.024	0.140
-415.428	199.456	0.171	0.262
-414.413	-111.042	-0.431	-0.088
-413.398	800.000	0.069	0.300
-412.384	211.415	0.120	0.189
-411.369	69.980	-0.038	0.039
-410.355	-7.058	0.121	0.082
-409.340	-200.000	0.045	0.384
-408.325	-200.000	0.048	0.244
-407.311	-3.708	0.144	0.100
-406.296	14.870	0.059	0.046
-405.282	-200.000	0.000	-0.236
-404.267	24.187	-0.260	-0.215
-403.252	5.951	0.167	0.124
-402.238	800.000	-0.032	-0.124
-401.223	-181.195	-0.054	0.001
-400.209	486.296	-0.087	-0.198
-399.194	-200.000	-0.017	-0.312
-398.179	-50.732	-0.043	0.020
-397.165	191.084	0.050	0.075
-396.150	-177.456	-0.038	0.001
-395.136	55.577	0.126	0.122
-394.121	-1.922	-0.134	0.094
-393.106	67.930	-0.171	-0.174
-392.092	-92.691	-0.162	-0.045
-391.077	109.670	-0.285	-0.340
-390.063	800.000	-0.051	0.180
-389.048	-111.298	0.067	-0.014
-388.033	-200.000	0.052	-0.401
-387.019	-57.357	0.118	0.052
-386.004	-60.235	0.190	-0.081
-384.990	14.816	0.288	0.225
-383.975	-22.413	-0.029	0.017
-382.960	102.646	0.426	-0.497
-381.946	-36.481	0.317	0.170
-380.931	-136.294	-0.362	-0.042
-379.917	-110.656	-0.157	0.032
-378.902	-80.397	0.227	0.076
-377.888	-7.858	0.124	0.084
-376.873	380.798	-0.136	0.278
-375.858	194.105	0.047	-0.071
-374.844	-113.792	0.336	0.065
-373.829	-34.505	0.085	-0.047
-372.815	-37.140	-0.211	-0.112
-371.800	-200.000	-0.007	-0.106
-370.785	509.244	-0.093	0.214
-369.771	156.831	0.074	0.102
-368.756	19.484	0.035	-0.028
-367.742	-200.000	0.006	0.124
-366.727	26.663	0.185	-0.154
-365.712	-104.860	-0.266	0.061
-364.698	800.000	-0.018	-0.054
-363.683	105.692	0.210	0.248
-362.669	-61.665	0.337	0.141
-361.654	-56.712	-0.196	0.086
-360.639	162.825	-0.189	0.264
-359.625	-200.000	-0.002	-0.028
-358.610	-200.000	-0.042	-0.214
-357.596	-200.000	0.010	0.059
-356.581	469.823	0.176	0.393
-355.566	-200.000	0.027	-0.315
-354.552	-5.978	0.163	-0.111
-353.537	550.571	-0.095	-0.227
-352.523	-132.886	-0.374	0.047
-351.508	-200.000	0.031	-0.157
-350.493	-86.477	0.106	0.033
-349.479	629.645	0.066	0.167
-348.464	800.000	-0.026	-0.078
-347.450	77.558	0.099	-0.105
-346.435	-159.673	-0.162	0.009
-345.420	227.550	0.041	0.067
-344.406	188.919	0.058	-0.086
-343.391	235.970	0.142	-0.233
-342.377	243.751	0.063	0.106
-341.362	-149.738	0.445	-0.035
-340.348	234.606	-0.140	0.229
-339.333	207.477	-0.063	-0.097
-338.318	156.316	-0.153	-0.211
-337.304	-45.540	-0.142	-0.070
-336.289	262.665	-0.096	-0.166
-335.275	-22.079	-0.453	-0.274
-334.260	-86.892	0.184	0.056
-333.245	-1.596	-0.086	0.061
-332.231	12.612	0.098	0.075
-331.216	31.168	0.120	-0.103
-330.202	-8.982	-0.215	-0.143
-329.187	-47.773	0.229	-0.111
-328.172	120.841	0.168	-0.208
-327.158	-200.000	0.000	0.174
-326.143	-47.554	0.070	-0.034
-325.129	-200.000	0.028	-0.226
-324.114	-34.609	-0.070	-0.038
-323.099	-61.749	-0.212	0.089
-322.085	-1.398	0.035	0.025
-321.070	800.000	-0.047	0.162
-320.056	-200.000	-0.031	-0.212
-319.041	252.454	0.165	-0.279
-318.026	104.195	0.319	-0.373
-317.012	25.692	0.172	-0.143
-315.997	-38.802	0.318	0.167
-314.983	408.589	-0.098	0.207
-313.968	-13.323	0.126	0.081
-312.953	-170.960	-0.215	0.007
-311.939	214.611	-0.123	-0.194
-310.924	-26.999	0.199	0.115
-309.910	342.138	0.112	-0.218
-308.895	-200.000	-0.007	-0.087
-307.880	174.523	0.198	-0.284
-306.866	-118.741	-0.206	0.036
-305.851	-173.049	-0.108	0.003
-304.837	-53.121	-0.278	-0.127
-303.822	-177.867	-0.210	-0.005
-302.807	-200.000	-0.016	-0.091
-301.793	-90.945	0.045	-0.013
-300.778	-57.642	0.170	-0.074
-299.764	-200.000	0.055	-0.254
-298.749	-9.461	-0.060	-0.040
-297.735	70.135	0.212	0.218
-296.720	-55.057	0.060	-0.027
-295.705	-200.000	0.005	-0.075
-294.691	-106.101	-0.068	-0.015
-293.676	638.968	0.053	0.133
-292.662	800.000	0.019	0.077
-291.647	-45.471	-0.213	-0.105
-290.632	-167.633	0.226	0.009
-289.618	213.255	-0.177	0.277
-288.603	800.000	-0.048	0.140
-287.589	800.000	0.063	-0.242
-286.574	-66.157	0.084	-0.033
-285.559	-200.000	-0.009	0.223
-284.545	-74.253	-0.230	0.083
-283.530	230.878	-0.029	0.048
-282.516	-200.000	-0.006	0.539
-281.501	147.664	0.265	-0.355
-280.486	355.789	-0.014	0.028
-279.472	-134.134	-0.131	0.016
-278.457	-30.520	-0.226	-0.127
-277.443	-200.000	-0.031	-0.288
-276.428	71.572	-0.207	-0.214
-275.413	-30.383	-0.158	-0.089
-274.399	-89.400	-0.199	-0.058
-273.384	131.088	0.088	-0.112
-272.370	-38.201	-0.032	0.017
-271.355	-147.373	0.188	-0.016
-270.340	-168.723	0.181	-0.007
-269.326	34.268	-0.123	0.106
-268.311	105.556	0.156	0.183
-267.297	275.601	-0.091	-0.161
-266.282	108.660	0.039	0.046
-265.267	800.000	-0.024	-0.067
-264.253	0.437	0.105	0.074
-263.238	-126.266	-0.095	0.014
-262.224	-200.000	0.012	-0.059
-261.209	43.849	0.188	-0.170
-260.195	515.185	-0.008	-0.018
-259.180	-100.406	0.162	0.040
-258.165	-186.461	0.358	0.005
-257.151	59.243	-0.287	-0.280
-256.136	-200.000	0.011	-0.266
-255.122	245.725	-0.149	0.248
-254.107	-173.374	0.272	0.008
-253.092	9.624	-0.238	-0.179
-252.078	-173.871	-0.118	0.003
-251.063	391.950	0.089	0.184
-250.049	-120.764	0.290	0.049
-249.034	-19.517	-0.214	-0.131
-248.019	-111.975	0.513	-0.103
-247.005	291.110	0.078	-0.140
-245.990	121.996	-0.132	0.163
-244.976	-200.000	-0.021	-0.133
-243.961	-86.870	0.170	-0.052
-242.946	-73.215	0.330	0.120
-241.932	-97.006	-0.390	-0.101
-240.917	-51.858	-0.248	-0.114
-239.903	235.497	-0.069	-0.114
-238.888	-200.000	0.043	0.337
-237.873	-200.000	-0.010	0.532
-236.859	141.551	0.091	-0.120
-235.844	800.000	-0.023	0.071
-234.830	800.000	-0.052	-0.151
-233.815	-124.481	-0.177	-0.027
-232.800	91.763	0.174	0.194
-231.786	-200.000	-0.090	0.480
-230.771	602.983	-0.154	-0.379
-229.757	43.001	0.036	0.033
-228.742	-48.203	0.227	0.109
-227.727	220.774	-0.126	0.201
-226.713	40.304	-0.227	-0.202
-225.698	94.910	0.223	-0.252
-224.684	-200.000	-0.000	0.087
-223.669	-142.682	0.347	-0.034
-222.655	-200.000	-0.032	-0.291
-221.640	709.537	-0.084	-0.219
-220.625	49.044	-0.105	0.098
-219.611	-65.437	-0.153	-0.061
-218.596	-84.602	-0.325	0.102
-217.582	378.475	0.200	0.406
-216.567	-200.000	-0.003	-0.045
-215.552	-21.744	0.097	-0.059
-214.538	-39.916	0.115	0.059
-213.523	-99.127	0.070	-0.018
-212.509	-16.497	0.112	-0.070
-211.494	161.249	-0.057	-0.079
-210.479	-83.727	-0.153	0.048
-209.465	-87.589	0.231	0.069
-208.450	-103.354	-0.220	0.051
-207.436	12.648	-0.331	0.253
-206.421	290.887	-0.127	0.229
-205.406	443.774	0.051	0.111
-204.392	-88.679	-0.176	0.052
-203.377	205.376	0.170	0.261
-202.363	-35.669	-0.262	-0.141
-201.348	-61.518	0.079	0.033
-200.333	-78.675	0.213	0.072
-199.319	663.538	-0.052	0.133
-198.304	-200.000	-0.030	0.208
-197.290	275.323	-0.065	0.115
-196.275	127.652	0.144	-0.181
-195.260	691.341	-0.049	0.126
-194.246	-200.000	0.013	-0.101
-193.231	35.209	-0.288	0.250
-192.217	800.000	-0.069	0.229
-191.202	-143.632	0.119	0.011
-190.187	800.000	-0.025	-0.088
-189.173	-110.252	0.042	0.009
-188.158	800.000	-0.052	-0.204
-187.144	-11.938	-0.171	0.111
-186.129	76.744	-0.422	-0.443
-185.114	-102.421	-0.134	-0.032
-184.100	-23.548	0.351	0.208
-183.085	-55.573	0.132	0.058
-182.071	800.000	0.023	-0.065
-181.056	550.159	-0.053	-0.126
-180.042	18.877	0.141	-0.112
-179.027	614.843	0.025	-0.061
-178.012	-92.954	-0.359	-0.099
-176.998	-29.828	-0.235	0.133
-175.983	800.000	-0.057	0.208
-174.969	800.000	0.069	0.290
-173.954	-36.532	-0.106	0.057
-172.939	336.915	-0.104	-0.200
-171.925	134.772	0.107	0.137
-170.910	137.539	0.121	0.156
-169.896	-36.126	0.269	-0.144
-168.881	-9.715	0.186	0.123
-167.866	-152.795	-0.304	-0.021
-166.852	163.325	0.140	-0.195
-165.837	246.307	-0.033	0.055
-164.823	-170.248	0.280	-0.010
-163.808	-35.287	0.360	0.194
-162.793	129.424	0.064	0.080
-161.779	-27.495	0.144	-0.083
-160.764	-173.621	0.267	0.008
-159.750	-147.444	0.298	0.025
-158.735	800.000	0.063	0.211
-157.720	96.607	-0.192	0.218
-156.706	-56.589	0.322	-0.141
-155.691	-40.905	0.134	-0.069
-154.677	-118.147	0.384	-0.068
-153.662	-111.869	0.208	-0.041
-152.647	320.724	0.170	0.320
-151.633	-200.000	-0.038	0.175
-150.618	-200.000	0.010	0.337
-149.604	292.489	-0.116	0.208
-148.589	800.000	0.054	-0.160
-147.574	22.687	-0.145	0.117
-146.560	-11.487	-0.135	0.088
-145.545	-200.000	-0.056	-0.273
-144.531	-200.000	0.056	0.269
-143.516	116.250	-0.427	0.516
-142.502	-200.000	0.047	0.206
-141.487	28.283	-0.047	0.039
-140.472	-73.577	0.253	-0.091
-139.458	-200.000	-0.028	0.223
-138.443	-200.000	-0.035	-0.158
-137.429	-200.000	-0.014	-0.312
-136.414	-139.210	0.255	0.027
-135.399	-65.594	0.257	-0.102
-134.385	-68.392	-0.148	0.057
-133.370	70.810	-0.182	-0.186
-132.356	69.749	0.242	0.246
-131.341	800.000	0.028	0.096
-130.326	-200.000	0.021	0.111
-129.312	109.480	0.345	0.408
-128.297	-138.125	-0.142	0.016
-127.283	-36.437	0.350	-0.186
-126.268	179.115	-0.149	-0.214
-125.253	22.115	-0.055	-0.044
-124.239	332.208	-0.124	-0.237
-123.224	-200.000	-0.009	-0.273
-122.210	-56.233	0.191	-0.084
