DTS Sentinel unit serial number:	SN413079Multiplexer serial number:	ORYXHardware model number:	OX4-SRSoftware version number:	ORYX F/W v4.00 Oryx Data Collector v3.7.2.0data status	okinstallation	princeton_trtdifferential loss correction	single-endedforward channel	channel 4reverse channel	N/Adate	2019/09/12time	19:19:19forward acquisition time	15.00reverse acquisition time	0.00gamma	496.2192k internal	0.2309k external	0.2309temperature offset calibration	1.0140default loss term (dB/km)	0.3790temperature slope calibration	1.0000multiplexer offset coefficient	1.0000multiplexer slope coefficient	1.0000fibre end	0.00T internal ref (°C)	32.44T ext. ref 1 (°C)	3.20T ext. ref 2 (°C)	26.99length (m)	temperature (°C)	Stokes	anti-Stokes-747.200	27.851	0.110	-0.094
-746.185	-91.715	0.152	0.044
-745.171	8.169	-0.217	0.165
-744.156	189.439	-0.369	0.561
-743.142	-17.310	0.272	0.174
-742.127	18.387	0.098	0.079
-741.112	-158.124	0.826	-0.049
-740.098	126.246	-0.374	-0.480
-739.083	-200.000	-0.103	0.820
-738.069	800.000	-0.185	0.591
-737.054	101.930	0.350	0.415
-736.039	174.239	0.118	0.173
-735.025	6.395	0.438	-0.330
-734.010	-80.044	-0.146	0.050
-732.996	-57.327	-0.905	-0.404
-731.981	-23.219	-0.264	-0.162
-730.966	-147.541	0.614	-0.053
-729.952	-11.386	0.173	-0.116
-728.937	343.268	-0.235	-0.467
-727.923	-44.741	0.637	0.323
-726.908	315.017	-0.266	0.509
-725.894	285.894	-0.225	-0.411
-724.879	-200.000	-0.572	0.001
-723.864	195.849	0.114	-0.177
-722.850	-200.000	0.106	-0.706
-721.835	-195.803	-0.564	0.004
-720.821	-200.000	-0.158	-0.901
-719.806	-84.697	-0.893	0.285
-718.791	-96.970	-0.572	-0.152
-717.777	-113.959	0.589	-0.116
-716.762	-77.329	-0.339	0.120
-715.748	-200.000	0.040	0.371
-714.733	209.890	0.103	-0.165
-713.718	-56.474	0.220	0.099
-712.704	800.000	-0.077	-0.287
-711.689	73.182	-0.629	0.667
-710.675	729.652	-0.174	-0.471
-709.660	338.156	0.603	1.191
-708.645	-140.151	0.855	0.091
-707.631	-47.774	0.259	0.127
-706.616	-42.643	-0.433	-0.224
-705.602	-200.000	-0.010	0.170
-704.587	-41.482	0.725	0.378
-703.572	226.951	-0.569	-0.937
-702.558	139.737	0.346	0.463
-701.543	168.631	0.081	0.116
-700.529	-81.264	-0.409	-0.137
-699.514	-53.335	-0.596	-0.277
-698.499	800.000	-0.309	0.939
-697.485	757.560	-0.049	0.134
-696.470	-200.000	0.014	0.597
-695.456	-82.103	-0.310	-0.102
-694.441	-50.372	0.191	0.092
-693.426	-200.000	0.049	-0.326
-692.412	-200.000	0.109	-0.901
-691.397	4.657	0.757	0.564
-690.383	-200.000	-0.139	-0.890
-689.368	-81.148	1.029	-0.345
-688.354	-127.643	0.411	-0.060
-687.339	-141.461	-0.406	-0.042
-686.324	-124.833	0.679	0.106
-685.310	800.000	0.116	0.371
-684.295	-21.268	0.252	0.156
-683.281	6.042	-0.366	0.275
-682.266	-200.000	0.133	0.606
-681.251	126.844	-0.120	0.154
-680.237	12.414	0.660	0.516
-679.222	646.620	0.114	0.296
-678.208	-46.615	-0.484	0.240
-677.193	116.895	-0.423	0.527
-676.178	-200.000	0.014	-0.246
-675.164	25.490	-0.278	-0.235
-674.149	-200.000	-0.046	0.473
-673.135	-200.000	-0.001	-0.057
-672.120	127.470	-0.523	0.672
-671.105	800.000	0.074	-0.215
-670.091	87.905	-0.461	0.518
-669.076	3.389	0.572	-0.422
-668.062	450.699	-0.123	-0.275
-667.047	-34.788	0.382	0.211
-666.032	134.690	0.150	-0.197
-665.018	-200.000	0.089	0.425
-664.003	800.000	0.109	0.422
-662.989	-33.113	0.094	0.053
-661.974	-2.122	0.087	-0.062
-660.959	232.614	0.366	0.609
-659.945	168.397	-0.172	0.249
-658.930	-200.000	0.138	0.836
-657.916	-89.245	-0.333	0.100
-656.901	-123.522	0.680	0.109
-655.886	-200.000	-0.104	-0.545
-654.872	-107.457	-0.536	0.119
-653.857	143.430	-0.695	-0.937
-652.843	-200.000	0.041	-0.188
-651.828	442.203	-0.229	-0.507
-650.814	630.388	-0.280	0.716
-649.799	-114.159	-0.753	-0.147
-648.784	33.044	0.946	0.830
-647.770	-166.205	-0.218	-0.009
-646.755	-43.180	-0.825	0.423
-645.741	-100.790	-0.317	0.079
-644.726	-200.000	0.104	0.000
-643.711	100.419	-0.136	-0.160
-642.697	-148.198	-0.477	0.040
-641.682	800.000	0.159	0.447
-640.668	-26.940	-0.162	-0.096
-639.653	-89.530	0.118	0.035
-638.638	-55.799	0.154	-0.070
-637.624	1.712	0.205	0.149
-636.609	12.589	-0.242	0.189
-635.595	472.472	0.354	0.807
-634.580	-200.000	0.029	0.182
-633.565	-200.000	0.011	-0.436
-632.551	-200.000	0.025	-0.426
-631.536	-200.000	-0.003	0.146
-630.522	-138.457	-0.734	0.082
-629.507	-43.847	-0.735	0.374
-628.492	-56.145	0.925	-0.417
-627.478	800.000	-0.185	0.646
-626.463	-200.000	-0.039	0.533
-625.449	233.083	-0.266	0.442
-624.434	-200.000	-0.092	0.555
-623.419	15.872	-0.665	-0.529
-622.405	800.000	-0.040	0.140
-621.390	302.676	-0.360	-0.674
-620.376	-157.017	-0.421	-0.026
-619.361	-95.003	0.468	-0.128
-618.346	226.072	-0.195	0.320
-617.332	210.693	-0.124	-0.197
-616.317	-91.469	0.767	0.221
-615.303	53.116	-0.403	-0.390
-614.288	198.401	0.257	0.398
-613.273	-34.352	0.345	0.191
-612.259	-167.139	-0.032	-0.001
-611.244	-192.555	-1.029	-0.010
-610.230	137.322	0.755	-0.999
-609.215	231.244	0.311	-0.515
-608.201	800.000	0.080	0.238
-607.186	55.086	-0.124	0.121
-606.171	117.461	-0.081	0.101
-605.157	800.000	-0.221	0.741
-604.142	-173.492	0.320	0.010
-603.128	-67.321	0.930	-0.370
-602.113	-23.512	0.237	-0.144
-601.098	800.000	0.053	0.180
-600.084	645.741	-0.421	-1.085
-599.069	-47.625	0.513	0.252
-598.055	800.000	0.112	0.328
-597.040	0.922	-0.116	-0.084
-596.025	-59.875	0.170	-0.074
-595.011	32.366	0.873	0.761
-593.996	-200.000	0.009	-0.341
-592.982	800.000	-0.072	-0.260
-591.967	-1.407	-0.345	-0.246
-590.952	-110.200	-0.272	-0.057
-589.938	139.003	0.186	0.246
-588.923	-39.889	-0.198	0.104
-587.909	-133.793	-0.629	0.079
-586.894	15.017	0.308	0.243
-585.879	-125.353	-0.250	0.039
-584.865	800.000	-0.085	-0.373
-583.850	-20.906	-0.798	0.494
-582.836	-34.307	-0.638	-0.353
-581.821	-97.609	-0.325	-0.085
-580.806	-200.000	-0.003	-0.018
-579.792	-38.168	0.537	-0.287
-578.777	-26.530	-0.050	0.030
-577.763	-200.000	0.045	-0.608
-576.748	179.165	-0.417	-0.616
-575.733	-30.691	0.086	0.049
-574.719	598.554	-0.268	-0.672
-573.704	-166.950	0.185	-0.008
-572.690	316.674	-0.343	0.654
-571.675	-200.000	0.007	-0.601
-570.661	664.546	0.039	-0.100
-569.646	800.000	0.090	-0.313
-568.631	-105.458	0.296	-0.068
-567.617	205.225	0.211	-0.331
-566.602	-200.000	-0.076	0.646
-565.588	-200.000	0.006	0.449
-564.573	161.498	0.283	-0.399
-563.558	-36.658	-0.098	-0.053
-562.544	-200.000	0.090	0.723
-561.529	-89.859	-0.179	-0.053
-560.515	357.559	-0.182	0.366
-559.500	10.223	-0.421	0.323
-558.485	119.042	-0.147	-0.183
-557.471	800.000	-0.110	0.338
-556.456	13.425	-0.459	-0.359
-555.442	227.825	-0.128	0.211
-554.427	800.000	0.017	-0.065
-553.412	-104.660	-0.546	0.127
-552.398	-103.307	0.490	0.117
-551.383	-200.000	0.105	-0.545
-550.369	-110.072	-0.252	-0.053
-549.354	13.876	0.585	-0.458
-548.339	-60.209	-0.442	0.190
-547.325	-11.591	1.195	0.792
-546.310	-142.659	-0.987	0.097
-545.296	800.000	-0.064	-0.240
-544.281	20.492	-0.543	-0.443
-543.266	800.000	-0.160	0.480
-542.252	238.117	-0.215	-0.360
-541.237	-153.108	1.142	-0.081
-540.223	-30.270	0.282	0.161
-539.208	-4.937	-0.523	-0.363
-538.193	-70.972	0.901	0.342
-537.179	-108.289	-0.345	-0.075
-536.164	-200.000	-0.088	0.435
-535.150	-32.904	-0.486	0.272
-534.135	-200.000	0.023	0.187
-533.121	-200.000	0.028	-0.591
-532.106	-87.723	0.383	-0.116
-531.091	134.909	-0.314	-0.412
-530.077	35.361	0.470	-0.416
-529.062	338.666	-0.102	0.200
-528.048	-79.470	-0.266	0.091
-527.033	12.104	0.323	-0.250
-526.018	28.937	-0.309	-0.264
-525.004	249.588	0.458	-0.782
-523.989	-72.773	0.713	0.264
-522.975	34.339	0.320	0.281
-521.960	-171.854	-0.285	0.009
-520.945	800.000	0.083	-0.329
-519.931	369.955	0.441	-0.899
-518.916	-38.013	0.372	-0.199
-517.902	7.663	-0.273	0.206
-516.887	-69.114	0.606	0.235
-515.872	51.623	0.471	0.451
-514.858	-200.000	0.009	-0.049
-513.843	-145.545	0.275	-0.025
-512.829	-84.278	-0.118	-0.038
-511.814	-96.965	-0.721	0.190
-510.799	-200.000	-0.021	-0.220
-509.785	193.154	0.239	0.363
-508.770	177.714	0.124	-0.181
-507.756	-22.619	0.687	0.418
-506.741	249.079	0.361	-0.615
-505.726	-76.071	0.481	-0.171
-504.712	549.645	-0.130	0.314
-503.697	-42.158	0.403	0.207
-502.683	265.852	0.268	-0.470
-501.668	-86.752	-1.116	-0.343
-500.653	135.639	0.441	0.577
-499.639	800.000	-0.274	-0.899
-498.624	-100.999	-0.577	-0.143
-497.610	26.384	0.350	0.294
-496.595	303.752	0.087	0.162
-495.581	343.403	-0.322	-0.634
-494.566	-48.724	-0.213	0.103
-493.551	-42.644	-0.441	-0.226
-492.537	-120.479	1.135	-0.194
-491.522	-115.424	-0.251	0.048
-490.508	-56.107	-0.421	0.189
-489.493	-2.163	-0.557	0.394
-488.478	-200.000	-0.164	-0.871
-487.464	592.364	0.165	0.411
-486.449	-100.922	1.218	-0.301
-485.435	133.419	-0.388	-0.504
-484.420	-181.318	-0.436	0.009
-483.405	-62.767	0.736	-0.307
-482.391	286.208	0.421	-0.763
-481.376	-137.156	-0.462	-0.053
-480.362	800.000	-0.119	0.488
-479.347	-200.000	0.002	0.266
-478.332	154.760	0.235	0.325
-477.318	104.000	0.506	-0.598
-476.303	-200.000	0.029	-0.494
-475.289	67.909	0.354	-0.364
-474.274	110.262	-0.754	-0.911
-473.259	-164.730	-0.468	0.021
-472.245	-200.000	0.151	0.773
-471.230	800.000	-0.156	0.662
-470.216	-30.044	0.317	0.181
-469.201	322.881	-0.192	0.368
-468.186	-83.486	0.490	-0.158
-467.172	147.397	0.353	-0.478
-466.157	-200.000	-0.002	0.035
-465.143	-146.690	-0.321	0.028
-464.128	-84.797	-0.633	0.200
-463.113	-88.682	0.082	-0.024
-462.099	-200.000	-0.041	-0.918
-461.084	-130.743	-0.451	-0.061
-460.070	53.017	0.253	0.243
-459.055	-200.000	-0.146	0.701
-458.040	60.903	-0.136	0.136
-457.026	-160.321	-0.829	0.045
-456.011	-52.751	-0.806	-0.373
-454.997	34.105	0.305	0.267
-453.982	-28.818	-0.337	-0.195
-452.968	-51.523	0.859	-0.403
-451.953	-56.818	0.322	-0.143
-450.938	-83.819	-0.456	-0.146
-449.924	800.000	0.287	0.798
-448.909	245.795	-0.128	0.216
-447.895	178.577	0.719	1.055
-446.880	385.935	0.251	0.521
-445.865	-200.000	0.019	0.140
-444.851	800.000	-0.095	0.417
-443.836	289.104	0.376	0.685
-442.822	-69.257	0.332	0.128
-441.807	-129.217	0.801	-0.112
-440.792	-200.000	-0.092	0.677
-439.778	81.089	0.677	0.733
-438.763	-200.000	0.034	0.235
-437.749	-59.645	-0.722	-0.311
-436.734	-106.075	-0.278	0.063
-435.719	800.000	-0.053	0.177
-434.705	-54.582	0.712	0.323
-433.690	-49.851	-0.081	-0.039
-432.676	-69.382	-0.689	-0.266
-431.661	-95.584	0.751	-0.202
-430.646	31.854	-0.185	0.160
-429.632	77.460	-0.559	0.597
-428.617	-3.008	-0.219	0.153
-427.603	510.214	-0.049	-0.115
-426.588	-37.470	-0.665	0.356
-425.573	-200.000	-0.003	-0.430
-424.559	-200.000	0.040	-0.321
-423.544	-200.000	0.046	-0.531
-422.530	-178.366	0.907	0.021
-421.515	-25.933	-0.365	-0.216
-420.500	33.491	-0.437	-0.381
-419.486	225.160	-0.097	-0.157
-418.471	403.871	0.458	-0.967
-417.457	800.000	-0.052	-0.151
-416.442	800.000	0.088	0.362
-415.428	311.375	-0.299	0.563
-414.413	-62.652	0.299	0.124
-413.398	-95.381	0.452	0.122
-412.384	216.818	0.322	-0.514
-411.369	-61.638	-0.646	-0.272
-410.355	-200.000	-0.077	-0.550
-409.340	-200.000	-0.024	-0.609
-408.325	-147.505	0.328	0.028
-407.311	-200.000	-0.085	0.458
-406.296	-200.000	0.028	0.520
-405.282	-102.060	-0.132	0.032
-404.267	-130.653	-0.269	-0.036
-403.252	-171.434	-1.027	0.034
-402.238	-200.000	-0.000	-0.885
-401.223	-200.000	0.022	-0.753
-400.209	-56.675	-0.284	-0.126
-399.194	340.583	0.107	0.209
-398.179	16.799	0.204	0.161
-397.165	-33.050	-0.080	0.045
-396.150	-200.000	-0.023	-0.375
-395.136	-200.000	-0.006	0.343
-394.121	2.732	-0.400	0.291
-393.106	163.113	-0.417	-0.587
-392.092	50.441	-0.229	-0.217
-391.077	-121.617	0.996	-0.165
-390.063	108.015	0.043	0.051
-389.048	-126.422	-0.479	-0.071
-388.033	116.712	-0.079	-0.097
-387.019	-44.532	-0.315	-0.158
-386.004	201.277	0.448	-0.691
-384.990	553.422	-0.224	0.539
-383.975	-200.000	-0.041	-0.473
-382.960	-200.000	-0.071	-0.398
-381.946	-90.571	1.444	0.418
-380.931	-81.116	0.293	0.097
-379.917	-27.042	-0.345	-0.201
-378.902	-126.363	-0.437	0.065
-377.888	-200.000	0.001	0.475
-376.873	-106.192	-0.612	0.138
-375.858	10.178	0.285	-0.217
-374.844	62.558	-0.258	-0.258
-373.829	155.466	0.422	-0.582
-372.815	79.404	-0.674	-0.723
-371.800	-79.765	-0.325	-0.110
-370.785	-9.648	0.657	-0.439
-369.771	-169.089	-0.460	0.017
-368.756	416.171	-0.053	-0.113
-367.742	612.760	-0.203	0.508
-366.727	-173.914	-1.019	0.030
-365.712	-200.000	0.027	-0.403
-364.698	689.565	0.050	-0.132
-363.683	599.343	-0.148	0.368
-362.669	352.487	-0.165	-0.327
-361.654	-80.677	-0.708	-0.236
-360.639	-200.000	-0.004	-0.161
-359.625	264.504	-0.355	-0.619
-358.610	344.662	-0.211	0.414
-357.596	-96.902	-0.583	0.153
-356.581	-93.933	1.215	0.334
-355.566	-30.712	0.410	0.232
-354.552	58.891	-0.382	0.376
-353.537	-105.564	0.380	-0.086
-352.523	457.891	0.169	0.377
-351.508	26.522	0.995	0.833
-350.493	134.354	0.183	-0.237
-349.479	-136.455	0.405	-0.047
-348.464	4.677	-0.499	-0.366
-347.450	-200.000	0.026	0.137
-346.435	45.493	-0.514	0.475
-345.420	671.603	0.368	0.954
-344.406	-200.000	-0.005	0.129
-343.391	408.876	0.288	-0.609
-342.377	418.952	0.103	0.221
-341.362	-200.000	0.043	0.481
-340.348	621.975	0.144	0.363
-339.333	-200.000	-0.117	0.655
-338.318	-84.211	-0.299	-0.095
-337.304	-200.000	-0.078	-0.351
-336.289	-104.960	0.382	0.088
-335.275	-122.377	0.752	-0.123
-334.260	587.217	0.251	0.617
-333.245	800.000	-0.123	0.452
-332.231	-67.770	0.446	0.175
-331.216	-121.307	-0.155	0.026
-330.202	-200.000	0.052	0.485
-329.187	800.000	-0.039	-0.138
-328.172	-200.000	-0.023	0.457
-327.158	-9.074	0.778	-0.521
-326.143	90.728	-0.180	0.201
-325.129	-123.918	-0.779	-0.123
-324.114	-13.307	-0.126	-0.082
-323.099	198.526	-0.180	0.275
-322.085	50.981	0.250	0.236
-321.070	-200.000	0.151	-1.096
-320.056	314.172	-0.112	0.211
-319.041	-43.065	-0.647	-0.328
-318.026	-29.011	-0.427	0.245
-317.012	139.843	0.448	0.590
-315.997	-10.480	-0.615	-0.407
-314.983	-75.639	-0.369	0.131
-313.968	313.195	0.072	-0.136
-312.953	-99.255	0.241	-0.061
-311.939	158.587	0.190	-0.263
-310.924	-139.995	0.486	-0.051
-309.910	200.639	0.297	0.456
-308.895	-100.699	-0.925	0.228
-307.880	88.985	0.422	0.469
-306.866	42.881	-0.654	-0.595
-305.851	-2.526	0.478	-0.334
-304.837	-145.329	-0.140	-0.013
-303.822	800.000	-0.203	-0.734
-302.807	97.914	0.289	0.332
-301.793	127.124	-0.475	-0.602
-300.778	800.000	0.085	0.334
-299.764	187.711	0.150	0.224
-298.749	-42.975	1.095	-0.555
-297.735	62.590	-0.326	-0.325
-296.720	-6.195	-0.441	0.301
-295.705	-32.712	-0.183	0.102
-294.691	-200.000	-0.040	0.360
-293.676	-19.114	-0.591	0.367
-292.662	-102.071	-0.392	-0.094
-291.647	49.613	-0.370	-0.348
-290.632	-183.450	-0.945	0.016
-289.618	664.647	0.300	0.774
-288.603	-200.000	-0.038	-1.039
-287.589	-200.000	0.109	0.702
-286.574	72.444	-0.831	-0.865
-285.559	-98.006	0.505	-0.130
-284.545	-200.000	-0.007	-1.337
-283.530	167.503	0.301	-0.426
-282.516	800.000	0.160	0.573
-281.501	182.884	0.164	-0.241
-280.486	800.000	-0.110	0.436
-279.472	-200.000	-0.078	1.157
-278.457	800.000	0.276	1.116
-277.443	-44.451	0.121	0.060
-276.428	-200.000	0.101	0.698
-275.413	-147.972	-0.135	0.011
-274.399	-44.382	0.709	-0.354
-273.384	58.744	0.447	0.438
-272.370	297.337	0.304	0.557
-271.355	751.250	0.158	0.427
-270.340	41.873	0.095	-0.086
-269.326	125.377	0.433	0.545
-268.311	-143.768	-0.155	0.015
-267.297	245.146	0.533	-0.894
-266.282	-44.003	0.465	0.233
-265.267	199.313	-0.542	0.829
-264.253	800.000	0.092	-0.298
-263.238	-43.133	0.223	-0.113
-262.224	52.352	0.420	0.400
-261.209	-168.360	0.513	-0.020
-260.195	51.006	0.270	-0.255
-259.180	800.000	-0.062	0.210
-258.165	0.947	-0.506	-0.362
-257.151	11.320	0.717	-0.548
-256.136	298.732	-0.461	0.846
-255.122	-177.046	0.607	0.015
-254.107	-45.742	-0.662	0.326
-253.092	-56.510	-0.511	0.226
-252.078	-99.866	0.406	-0.101
-251.063	-124.380	-0.376	0.058
-250.049	-125.548	-0.610	0.092
-249.034	800.000	-0.103	0.349
-248.019	530.065	0.167	0.394
-247.005	-96.513	-0.773	-0.203
-245.990	580.046	-0.329	0.802
-244.976	-200.000	0.015	0.108
-243.961	-170.773	0.850	-0.029
-242.946	-17.473	-0.309	0.194
-241.932	346.585	0.140	-0.275
-240.917	34.045	-0.136	-0.118
-239.903	12.871	0.461	-0.355
-238.888	-62.191	0.636	0.264
-237.873	-200.000	-0.130	0.923
-236.859	564.308	-0.233	-0.562
-235.844	70.678	0.232	-0.239
-234.830	800.000	0.215	0.694
-233.815	-200.000	0.036	-0.244
-232.800	-110.270	-0.911	-0.189
-231.786	-200.000	0.012	-0.374
-230.771	-133.366	0.710	0.089
-229.757	-84.561	0.252	-0.079
-228.742	294.950	-0.193	0.352
-227.727	-122.366	0.656	0.107
-226.713	-200.000	0.112	-1.028
-225.698	256.433	-0.348	-0.595
-224.684	21.610	0.612	0.496
-223.669	-127.564	-0.780	0.113
-222.655	263.981	-0.272	0.470
-221.640	-69.789	1.364	0.518
-220.625	20.378	0.248	0.200
-219.611	498.677	0.170	-0.390
-218.596	-52.648	-0.531	0.244
-217.582	411.779	-0.423	-0.894
-216.567	8.457	0.381	-0.286
-215.552	-141.725	-0.613	-0.061
-214.538	-81.890	0.357	-0.116
-213.523	-200.000	-0.047	0.461
-212.509	-96.870	-0.490	-0.128
-211.494	170.990	-0.312	0.445
-210.479	-200.000	-0.022	0.204
-209.465	103.237	0.388	-0.453
-208.450	-34.319	-0.551	-0.301
-207.436	-64.908	0.404	0.162
-206.421	262.605	0.278	-0.480
-205.406	-125.763	-0.495	-0.074
-204.392	-1.552	0.652	-0.457
-203.377	118.951	0.186	0.229
-202.363	-96.494	-1.074	0.282
-201.348	32.010	-0.293	-0.251
-200.333	-139.478	0.435	0.046
-199.319	800.000	0.066	-0.238
-198.304	-40.847	0.336	0.173
-197.290	-83.339	-0.553	0.177
-196.275	9.367	-0.447	-0.336
-195.260	800.000	0.189	-0.691
-194.246	45.833	-0.463	0.426
-193.231	311.273	0.138	0.256
-192.217	149.606	-0.516	0.695
-191.202	44.520	-0.334	0.305
-190.187	-200.000	-0.027	0.335
-189.173	-94.599	-0.886	-0.240
-188.158	93.087	-0.613	0.689
-187.144	-146.755	-1.039	0.089
-186.129	-71.275	0.744	-0.277
-185.114	800.000	-0.035	0.104
-184.100	794.671	0.120	0.327
-183.085	-17.921	0.419	-0.261
-182.071	-200.000	-0.119	0.635
-181.056	13.846	0.441	0.340
-180.042	-200.000	0.004	-0.224
-179.027	-173.792	0.597	-0.018
-178.012	-77.494	-0.042	0.015
-176.998	-200.000	0.225	-1.117
-175.983	800.000	-0.242	-0.688
-174.969	-149.446	0.243	0.019
-173.954	9.745	-0.495	-0.373
-172.939	-61.646	0.763	0.318
-171.925	26.379	-0.289	-0.240
-170.910	-200.000	0.148	-0.867
-169.896	37.928	-0.437	-0.386
-168.881	800.000	-0.173	-0.481
-167.866	12.244	0.429	-0.329
-166.852	-41.224	0.492	0.252
-165.837	-200.000	0.021	0.509
-164.823	-200.000	0.009	1.002
-163.808	50.493	-0.280	-0.263
-162.793	-200.000	-0.028	-0.298
-161.779	-200.000	0.056	0.420
-160.764	-107.937	0.503	0.109
-159.750	675.468	-0.206	-0.532
-158.735	-114.811	0.884	0.168
-157.720	-45.527	-0.598	-0.294
-156.706	-40.738	-0.117	0.060
-155.691	-200.000	0.169	-0.859
-154.677	290.189	0.114	-0.205
-153.662	-85.094	1.062	-0.330
-152.647	-35.188	0.631	0.341
-151.633	-200.000	0.018	-0.136
-150.618	-121.963	-0.896	0.146
-149.604	69.813	0.463	0.474
-148.589	27.397	-0.274	0.228
-147.574	161.496	0.505	-0.702
-146.560	800.000	0.036	0.131
-145.545	-6.603	-0.228	0.154
-144.531	-74.037	0.763	-0.275
-143.516	-143.157	0.696	-0.067
-142.502	50.726	0.615	-0.578
-141.487	607.485	0.281	-0.694
-140.472	-87.269	-0.519	0.156
-139.458	6.302	-0.628	0.462
-138.443	352.663	-0.266	0.524
-137.429	85.974	0.121	0.132
-136.414	800.000	-0.197	-0.625
-135.399	-88.916	0.814	-0.239
-134.385	-18.947	-0.160	-0.099
-133.370	249.344	0.190	-0.319
-132.356	2.839	0.261	0.188
-131.341	-61.468	-0.421	0.176
-130.326	-94.414	-0.523	-0.141
-129.312	800.000	0.134	0.429
-128.297	-130.729	-0.347	-0.046
-127.283	-200.000	0.050	-0.572
-126.268	-200.000	-0.134	1.040
-125.253	143.981	0.380	-0.502
-124.239	-24.912	-0.219	-0.129
-123.224	-5.430	-0.317	-0.216
-122.210	-200.000	0.012	-0.142
-121.195	-67.416	-1.012	0.394
