DTS Sentinel unit serial number:	SN413079Multiplexer serial number:	ORYXHardware model number:	OX4-SRSoftware version number:	ORYX F/W v4.00 Oryx Data Collector v3.7.2.0data status	okinstallation	princeton_trtdifferential loss correction	single-endedforward channel	channel 4reverse channel	N/Adate	2019/09/13time	21:37:34forward acquisition time	60.00reverse acquisition time	0.00gamma	496.2192k internal	0.2319k external	0.2319temperature offset calibration	1.0133default loss term (dB/km)	0.3790temperature slope calibration	1.0000multiplexer offset coefficient	1.0000multiplexer slope coefficient	1.0000fibre end	0.00T internal ref (°C)	28.19T ext. ref 1 (°C)	3.14T ext. ref 2 (°C)	22.82length (m)	temperature (°C)	Stokes	anti-Stokes-747.200	-154.265	0.092	0.006
-746.185	135.234	0.124	0.163
-745.171	453.355	0.102	-0.229
-744.156	-200.000	0.069	0.386
-743.142	-200.000	0.036	-0.282
-742.127	800.000	0.072	0.241
-741.112	800.000	-0.078	0.245
-740.098	275.988	-0.109	-0.195
-739.083	-163.259	0.250	-0.012
-738.069	-63.088	0.113	0.047
-737.054	-200.000	0.002	0.033
-736.039	218.834	-0.066	0.107
-735.025	-78.051	0.180	-0.063
-734.010	800.000	-0.130	0.414
-732.996	-172.368	-0.367	-0.012
-731.981	-61.767	-0.279	-0.118
-730.966	-83.266	0.210	-0.068
-729.952	40.889	-0.297	-0.271
-728.937	357.951	-0.046	-0.093
-727.923	800.000	-0.077	-0.264
-726.908	325.242	-0.158	0.306
-725.894	-200.000	-0.011	-0.170
-724.879	24.784	-0.090	-0.075
-723.864	-200.000	-0.024	0.145
-722.850	-58.800	-0.368	-0.161
-721.835	608.308	0.082	-0.208
-720.821	-60.127	0.213	-0.092
-719.806	800.000	0.064	-0.183
-718.791	-22.089	0.074	0.046
-717.777	-4.465	-0.166	-0.116
-716.762	-11.733	-0.290	0.192
-715.748	686.751	-0.053	0.141
-714.733	-200.000	-0.017	0.328
-713.718	-200.000	0.028	-0.308
-712.704	-10.541	0.085	0.057
-711.689	-160.939	0.099	-0.005
-710.675	-127.647	0.280	0.041
-709.660	-5.504	-0.232	-0.161
-708.645	-200.000	0.041	0.346
-707.631	366.198	-0.120	-0.245
-706.616	-98.480	0.351	-0.091
-705.602	800.000	0.049	-0.140
-704.587	-120.588	-0.048	0.008
-703.572	-23.466	0.248	0.151
-702.558	75.506	-0.147	-0.157
-701.543	-100.434	0.281	-0.070
-700.529	173.723	-0.103	-0.150
-699.514	-70.930	0.237	0.090
-698.499	36.493	0.164	0.146
-697.485	326.736	-0.134	-0.259
-696.470	14.892	-0.156	-0.123
-695.456	-94.879	-0.179	0.049
-694.441	66.475	-0.162	-0.166
-693.426	-70.648	0.179	0.068
-692.412	-97.052	0.088	-0.023
-691.397	248.874	0.100	-0.171
-690.383	-88.630	0.173	0.052
-689.368	-89.696	0.327	-0.097
-688.354	80.755	-0.026	-0.029
-687.339	-61.951	0.375	0.158
-686.324	-138.296	0.062	0.007
-685.310	140.626	-0.207	-0.276
-684.295	-20.752	-0.137	-0.085
-683.281	-165.746	-0.234	0.010
-682.266	424.622	0.198	-0.430
-681.251	-125.059	-0.152	-0.024
-680.237	-173.100	-0.384	0.012
-679.222	495.501	0.138	-0.320
-678.208	-200.000	-0.003	-0.121
-677.193	800.000	0.020	-0.084
-676.178	-118.673	-0.263	0.047
-675.164	749.842	-0.115	-0.312
-674.149	-81.861	-0.290	0.096
-673.135	800.000	0.015	0.043
-672.120	-180.945	0.060	0.001
-671.105	289.670	0.050	0.092
-670.091	-167.936	0.055	-0.002
-669.076	800.000	-0.102	-0.335
-668.062	-124.757	-0.247	-0.038
-667.047	-172.556	0.440	0.014
-666.032	-34.234	0.026	0.014
-665.018	-200.000	0.002	-0.029
-664.003	-27.221	0.161	-0.094
-662.989	-53.974	-0.360	0.165
-661.974	-126.788	-0.373	-0.056
-660.959	150.511	-0.054	0.074
-659.945	11.172	0.079	-0.061
-658.930	-200.000	0.032	-0.217
-657.916	181.779	0.159	-0.235
-656.901	610.288	0.065	-0.163
-655.886	-200.000	-0.009	0.270
-654.872	-11.314	-0.151	0.100
-653.857	396.944	0.187	-0.394
-652.843	344.386	0.130	-0.258
-651.828	156.280	-0.047	-0.066
-650.814	800.000	0.035	-0.113
-649.799	-200.000	0.039	0.498
-648.784	-16.612	-0.215	0.137
-647.770	-200.000	0.014	0.429
-646.755	-81.064	-0.370	-0.123
-645.741	20.687	-0.254	0.207
-644.726	-68.010	0.323	-0.127
-643.711	800.000	0.084	-0.350
-642.697	29.386	0.093	-0.080
-641.682	535.714	0.119	-0.284
-640.668	25.743	0.277	-0.232
-639.653	-81.970	0.450	-0.148
-638.638	-6.715	-0.252	-0.172
-637.624	-80.902	0.220	-0.074
-636.609	-200.000	-0.003	0.157
-635.595	79.536	0.243	0.263
-634.580	-200.000	-0.020	-0.150
-633.565	-172.231	0.297	-0.010
-632.551	-67.254	0.068	-0.027
-631.536	297.071	0.073	-0.136
-630.522	-74.442	0.179	0.065
-629.507	36.914	-0.157	0.140
-628.492	-94.582	-0.107	-0.029
-627.478	-88.354	0.296	0.089
-626.463	-21.835	-0.093	-0.057
-625.449	800.000	0.038	-0.137
-624.434	7.859	-0.193	0.146
-623.419	497.204	0.062	-0.143
-622.405	-14.007	-0.251	-0.163
-621.390	-102.154	0.218	0.053
-620.376	96.825	0.162	-0.187
-619.361	-103.560	0.169	0.040
-618.346	-178.054	-0.201	-0.005
-617.332	20.655	-0.252	-0.205
-616.317	-20.524	-0.114	0.070
-615.303	-200.000	-0.022	0.275
-614.288	367.114	-0.183	-0.371
-613.273	476.983	0.205	-0.467
-612.259	566.749	0.110	0.270
-611.244	255.733	-0.058	0.100
-610.230	-89.837	0.145	-0.043
-609.215	572.498	-0.104	0.255
-608.201	80.761	0.031	-0.034
-607.186	203.442	0.153	0.237
-606.171	-83.933	0.048	0.015
-605.157	-200.000	0.017	0.126
-604.142	546.989	-0.165	0.397
-603.128	8.594	0.202	-0.153
-602.113	-200.000	0.028	0.174
-601.098	-200.000	0.011	0.153
-600.084	-200.000	-0.014	0.259
-599.069	800.000	0.069	-0.269
-598.055	-47.741	0.253	0.124
-597.040	-163.367	-0.228	-0.011
-596.025	-148.840	-0.302	0.025
-595.011	-128.892	0.246	-0.035
-593.996	-200.000	-0.066	0.475
-592.982	-200.000	0.002	0.109
-591.967	-119.006	-0.071	0.013
-590.952	143.514	-0.101	0.135
-589.938	48.044	-0.054	-0.051
-588.923	381.719	0.159	0.328
-587.909	-51.338	-0.094	-0.044
-586.894	-200.000	-0.016	-0.202
-585.879	-51.465	0.206	0.097
-584.865	249.626	-0.080	-0.136
-583.850	-200.000	0.001	0.237
-582.836	-86.959	-0.201	-0.061
-581.821	103.368	0.151	-0.177
-580.806	-200.000	0.079	-0.382
-579.792	-200.000	-0.038	-0.230
-578.777	-125.219	-0.324	-0.050
-577.763	-76.099	-0.042	0.015
-576.748	-81.490	-0.077	0.025
-575.733	800.000	-0.067	0.201
-574.719	-200.000	0.000	0.153
-573.704	-200.000	0.004	0.109
-572.690	-167.055	-0.151	-0.006
-571.675	-16.126	-0.316	0.202
-570.661	-200.000	-0.025	0.182
-569.646	417.452	0.092	-0.196
-568.631	68.869	0.091	0.094
-567.617	-200.000	0.011	0.311
-566.602	748.433	-0.062	-0.167
-565.588	0.182	-0.192	0.138
-564.573	-200.000	0.013	-0.156
-563.558	-134.857	0.132	0.016
-562.544	-200.000	-0.021	0.105
-561.529	32.069	0.193	0.167
-560.515	328.167	-0.101	0.194
-559.500	4.465	0.189	0.139
-558.485	-126.583	0.198	-0.029
-557.471	-200.000	-0.051	-0.322
-556.456	-200.000	-0.006	0.071
-555.442	-200.000	-0.072	-0.440
-554.427	683.572	-0.143	-0.375
-553.412	129.755	0.252	-0.323
-552.398	65.417	0.092	-0.093
-551.383	279.299	0.021	0.038
-550.369	18.242	0.147	-0.118
-549.354	-200.000	-0.011	0.213
-548.339	-56.836	-0.239	-0.106
-547.325	115.450	-0.198	-0.242
-546.310	46.833	0.134	0.125
-545.296	525.622	0.061	0.143
-544.281	-138.359	0.061	0.007
-543.266	800.000	0.032	-0.100
-542.252	-5.084	-0.173	-0.120
-541.237	-130.083	0.135	-0.018
-540.223	11.745	0.077	0.059
-539.208	125.045	-0.146	-0.184
-538.193	371.505	0.080	0.163
-537.179	-62.821	-0.264	-0.110
-536.164	166.255	-0.107	0.152
-535.150	102.029	-0.073	0.085
-534.135	336.292	0.082	-0.159
-533.121	-24.458	0.355	0.212
-532.106	92.185	-0.072	-0.082
-531.091	-48.687	0.369	0.178
-530.077	148.943	-0.055	-0.075
-529.062	162.661	-0.082	0.116
-528.048	-200.000	-0.013	-0.061
-527.033	29.327	0.184	0.157
-526.018	-31.314	0.373	-0.211
-525.004	-99.077	-0.150	-0.038
-523.989	454.675	0.082	0.183
-522.975	-149.896	-0.243	0.019
-521.960	195.479	0.042	-0.065
-520.945	-191.486	0.068	0.001
-519.931	70.759	-0.120	-0.124
-518.916	30.201	0.283	-0.242
-517.902	800.000	0.133	-0.444
-516.887	-112.270	-0.225	-0.045
-515.872	66.605	0.079	0.080
-514.858	-151.088	-0.156	-0.012
-513.843	279.627	0.181	0.324
-512.829	440.302	0.117	0.257
-511.814	183.926	-0.144	-0.213
-510.799	-69.265	-0.113	-0.044
-509.785	95.026	0.253	0.288
-508.770	-120.281	0.384	-0.066
-507.756	-200.000	0.026	-0.371
-506.741	-139.047	0.058	0.006
-505.726	-102.250	0.191	0.046
-504.712	800.000	0.019	-0.069
-503.697	3.995	0.164	0.120
-502.683	-150.393	-0.122	0.009
-501.668	76.774	0.135	0.143
-500.653	238.686	0.046	0.076
-499.639	-44.775	-0.248	-0.124
-498.624	-6.556	0.222	-0.151
-497.610	800.000	-0.078	0.227
-496.595	200.472	0.105	0.162
-495.581	-51.803	0.343	0.160
-494.566	-6.034	0.181	0.124
-493.551	-105.307	0.155	-0.035
-492.537	-100.689	-0.283	-0.070
-491.522	800.000	0.053	-0.189
-490.508	32.043	-0.308	0.266
-489.493	-128.879	-0.173	0.024
-488.478	-200.000	-0.061	0.317
-487.464	-129.106	0.103	-0.014
-486.449	-200.000	-0.014	-0.306
-485.435	-91.521	-0.148	0.042
-484.420	-72.713	0.083	0.031
-483.405	210.981	0.103	-0.162
-482.391	-19.510	-0.286	0.177
-481.376	-87.568	-0.100	0.030
-480.362	-137.514	-0.266	0.030
-479.347	84.569	-0.151	-0.166
-478.332	-200.000	0.003	0.214
-477.318	-126.164	-0.347	-0.052
-476.303	46.626	0.139	-0.129
-475.289	-200.000	0.006	0.127
-474.274	-100.982	-0.305	0.075
-473.259	-200.000	-0.013	-0.177
-472.245	-200.000	0.004	-0.423
-471.230	139.900	-0.173	0.228
-470.216	-200.000	-0.017	-0.266
-469.201	800.000	-0.056	0.214
-468.186	212.624	0.119	-0.187
-467.172	800.000	-0.126	0.395
-466.157	-128.964	0.136	-0.019
-465.143	625.220	-0.038	-0.096
-464.128	13.785	0.156	-0.121
-463.113	18.715	0.130	-0.104
-462.099	207.056	0.084	-0.131
-461.084	33.613	0.172	0.150
-460.070	55.443	-0.093	-0.090
-459.055	606.108	0.152	-0.379
-458.040	56.197	0.084	-0.082
-457.026	455.123	-0.158	0.350
-456.011	-153.297	-0.298	-0.021
-454.997	-106.513	0.266	-0.059
-453.982	-200.000	-0.054	-0.297
-452.968	369.914	0.151	-0.305
-451.953	41.130	-0.238	-0.215
-450.938	-200.000	-0.021	0.327
-449.924	-200.000	-0.054	-0.251
-448.909	-152.423	0.387	-0.028
-447.895	-120.499	-0.099	0.017
-446.880	51.639	0.043	-0.041
-445.865	-45.863	-0.099	-0.049
-444.851	-90.541	-0.364	-0.105
-443.836	-200.000	-0.060	0.318
-442.822	135.691	-0.292	0.380
-441.807	-200.000	-0.046	0.206
-440.792	800.000	-0.050	-0.166
-439.778	-200.000	0.007	0.117
-438.763	-29.691	0.013	0.008
-437.749	272.995	-0.032	0.057
-436.734	-148.303	-0.134	0.011
-435.719	-153.863	0.194	-0.013
-434.705	9.872	-0.122	-0.092
-433.690	598.576	-0.067	-0.166
-432.676	-200.000	0.007	0.317
-431.661	800.000	-0.091	0.361
-430.646	404.796	-0.060	0.127
-429.632	-91.645	-0.247	0.070
-428.617	329.044	-0.145	0.278
-427.603	-68.078	0.269	-0.105
-426.588	-64.896	-0.366	-0.148
-425.573	373.517	0.019	-0.038
-424.559	-200.000	0.021	-0.150
-423.544	-131.326	-0.321	-0.042
-422.530	-54.463	0.026	-0.012
-421.515	388.831	-0.211	0.437
-420.500	290.749	0.157	-0.284
-419.486	-38.392	-0.178	-0.094
-418.471	-110.820	-0.109	-0.022
-417.457	-119.364	-0.247	-0.043
-416.442	-104.501	0.067	0.015
-415.428	-122.148	-0.154	-0.025
-414.413	128.724	-0.016	0.020
-413.398	-200.000	0.007	-0.139
-412.384	-119.814	0.122	-0.021
-411.369	44.390	-0.290	0.266
-410.355	-48.898	-0.362	-0.173
-409.340	-85.051	0.307	0.096
-408.325	-200.000	-0.023	-0.564
-407.311	-40.927	-0.376	-0.194
-406.296	240.717	-0.054	0.089
-405.282	-136.081	0.568	-0.066
-404.267	-200.000	-0.057	-0.367
-403.252	800.000	-0.109	-0.403
-402.238	-64.485	-0.142	-0.057
-401.223	-200.000	-0.004	-0.270
-400.209	-200.000	0.001	-0.285
-399.194	-100.388	0.339	-0.084
-398.179	800.000	-0.029	-0.090
-397.165	-41.146	-0.034	0.018
-396.150	64.101	-0.100	-0.101
-395.136	-76.810	-0.217	0.076
-394.121	458.312	-0.137	-0.304
-393.106	800.000	0.043	-0.177
-392.092	800.000	0.030	-0.132
-391.077	15.208	-0.185	0.145
-390.063	171.102	-0.135	0.193
-389.048	-73.538	0.205	-0.074
-388.033	-60.002	0.244	-0.104
-387.019	-200.000	-0.009	0.043
-386.004	800.000	-0.051	-0.176
-384.990	-143.369	-0.150	-0.014
-383.975	-16.362	0.221	0.140
-382.960	411.571	0.096	-0.204
-381.946	272.985	-0.053	-0.093
-380.931	10.058	0.162	0.122
-379.917	-2.090	-0.192	-0.134
-378.902	800.000	0.041	-0.144
-377.888	350.967	-0.206	0.407
-376.873	-42.977	0.120	0.061
-375.858	320.769	-0.154	0.292
-374.844	589.639	0.066	-0.162
-373.829	130.357	-0.051	-0.065
-372.815	-79.114	0.550	0.186
-371.800	-112.213	-0.139	0.028
-370.785	-92.463	0.248	0.070
-369.771	449.492	-0.194	0.427
-368.756	-151.224	-0.148	0.011
-367.742	51.481	-0.261	-0.247
-366.727	112.505	-0.185	-0.223
-365.712	-3.474	0.058	-0.040
-364.698	103.028	0.027	0.032
-363.683	396.180	-0.011	0.023
-362.669	9.667	0.192	-0.145
-361.654	-80.652	0.022	-0.007
-360.639	279.706	0.097	-0.172
-359.625	-59.882	0.313	0.134
-358.610	399.820	-0.235	0.490
-357.596	-102.505	0.281	0.067
-356.581	484.991	0.019	-0.043
-355.566	-84.761	0.061	-0.019
-354.552	-200.000	0.005	0.380
-353.537	-46.021	-0.296	-0.145
-352.523	800.000	-0.054	-0.217
-351.508	-200.000	0.042	0.231
-350.493	-200.000	-0.040	0.256
-349.479	-141.536	-0.309	-0.031
-348.464	-76.795	-0.239	-0.083
-347.450	-88.408	0.129	-0.038
-346.435	75.454	-0.067	-0.070
-345.420	-41.270	-0.074	-0.038
-344.406	-133.153	0.243	-0.031
-343.391	-131.767	0.337	0.044
-342.377	572.465	-0.138	-0.336
-341.362	-33.012	0.258	0.142
-340.348	-139.244	-0.310	-0.033
-339.333	-4.276	0.067	0.046
-338.318	-120.949	0.187	-0.031
-337.304	-164.247	0.189	0.009
-336.289	-92.095	0.065	0.018
-335.275	-200.000	0.003	-0.283
-334.260	-112.661	-0.373	0.074
-333.245	156.211	-0.256	0.351
-332.231	34.978	-0.113	-0.098
-331.216	-200.000	0.022	-0.174
-330.202	-62.541	0.357	-0.147
-329.187	-136.507	0.154	0.018
-328.172	-134.188	-0.026	-0.003
-327.158	-77.781	0.076	-0.026
-326.143	18.820	-0.181	0.145
-325.129	466.997	-0.143	-0.318
-324.114	800.000	-0.070	-0.232
-323.099	498.727	-0.104	0.239
-322.085	122.691	-0.129	0.161
-321.070	-200.000	-0.024	0.309
-320.056	-154.580	-0.206	-0.014
-319.041	11.585	0.206	-0.157
-318.026	284.780	0.205	-0.367
-317.012	800.000	0.013	0.042
-315.997	251.270	0.088	-0.148
-314.983	5.129	-0.088	-0.065
-313.968	10.266	-0.075	-0.057
-312.953	723.133	-0.016	0.041
-311.939	-200.000	-0.009	0.284
-310.924	194.879	0.142	0.214
-309.910	-83.779	-0.150	-0.047
-308.895	-200.000	-0.043	0.208
-307.880	-88.098	0.059	0.018
-306.866	400.783	0.080	0.166
-305.851	522.296	0.078	0.182
-304.837	-85.566	-0.166	0.051
-303.822	-50.299	0.185	-0.087
-302.807	-109.532	0.122	0.026
-301.793	18.096	0.097	0.077
-300.778	-61.096	0.197	0.082
-299.764	14.753	0.088	-0.068
-298.749	213.951	-0.133	-0.209
-297.735	-34.245	-0.338	-0.184
-296.720	84.989	-0.114	-0.124
-295.705	-17.827	0.344	0.214
-294.691	134.458	0.147	-0.189
-293.676	-93.040	-0.197	0.054
-292.662	-200.000	0.023	0.179
-291.647	-24.049	-0.132	0.079
-290.632	88.160	-0.147	-0.162
-289.618	-107.392	0.267	-0.058
-288.603	14.738	0.172	0.134
-287.589	-59.474	0.070	0.030
-286.574	-97.415	-0.064	-0.017
-285.559	-65.440	0.224	-0.089
-284.545	-93.207	-0.364	-0.100
-283.530	134.815	-0.126	0.163
-282.516	-67.068	-0.049	-0.019
-281.501	-200.000	-0.013	-0.146
-280.486	175.384	0.090	0.129
-279.472	200.659	0.087	-0.133
-278.457	52.799	0.025	0.024
-277.443	115.125	-0.089	-0.108
-276.428	57.937	-0.137	0.134
-275.413	800.000	0.111	0.473
-274.399	-200.000	0.007	0.287
-273.384	-117.176	0.316	0.057
-272.370	-200.000	-0.070	0.000
-271.355	-192.520	0.118	-0.001
-270.340	-71.099	-0.203	-0.076
-269.326	-80.508	0.054	-0.018
-268.311	455.744	-0.131	0.288
-267.297	207.757	-0.091	-0.142
-266.282	-154.178	0.277	-0.019
-265.267	800.000	0.062	0.229
-264.253	-148.250	-0.354	-0.029
-263.238	-164.100	0.024	-0.001
-262.224	-131.306	0.390	-0.051
-261.209	-98.645	-0.130	0.033
-260.195	200.926	0.074	-0.112
-259.180	800.000	0.024	0.092
-258.165	-200.000	-0.042	-0.250
-257.151	562.829	0.049	0.118
-256.136	772.674	-0.018	-0.050
-255.122	785.197	-0.100	-0.271
-254.107	372.796	-0.236	-0.475
-253.092	800.000	0.066	-0.276
-252.078	-71.911	-0.248	-0.091
-251.063	-77.386	0.167	0.057
-250.049	188.578	-0.125	-0.186
-249.034	-102.290	0.057	0.014
-248.019	764.096	-0.129	-0.348
-247.005	-162.874	-0.069	0.003
-245.990	-44.926	0.184	-0.091
-244.976	10.775	0.087	-0.066
-243.961	285.418	-0.099	0.177
-242.946	-46.367	-0.141	0.069
-241.932	800.000	-0.075	-0.239
-240.917	291.259	0.022	0.041
-239.903	-44.148	-0.241	0.120
-238.888	-13.265	-0.257	0.166
-237.873	-86.145	0.159	0.049
-236.859	-61.651	0.116	-0.048
-235.844	800.000	0.101	-0.277
-234.830	-51.125	-0.011	0.005
-233.815	800.000	0.024	0.079
-232.800	263.047	-0.125	0.215
-231.786	-8.802	0.076	0.050
-230.771	330.577	0.090	0.171
-229.757	-200.000	0.091	0.416
-228.742	317.167	0.209	0.392
-227.727	-21.988	0.050	-0.030
-226.713	-34.746	0.416	0.225
-225.698	89.897	0.056	-0.063
-224.684	164.476	0.203	0.284
-223.669	3.450	0.195	0.141
-222.655	3.773	-0.190	-0.138
-221.640	155.018	0.164	0.223
-220.625	-38.489	0.168	0.088
-219.611	-114.021	-0.218	-0.042
-218.596	-110.396	-0.155	-0.032
-217.582	-200.000	0.001	0.020
-216.567	-31.815	0.183	-0.102
-215.552	-200.000	-0.039	-0.285
-214.538	-57.689	-0.098	-0.043
-213.523	288.233	-0.042	-0.075
-212.509	800.000	-0.086	-0.357
-211.494	-200.000	0.054	0.470
-210.479	-200.000	0.009	0.303
-209.465	192.533	-0.233	0.348
-208.450	-7.813	-0.174	-0.116
-207.436	23.515	-0.219	-0.178
-206.421	256.658	-0.103	0.175
-205.406	-28.974	-0.195	-0.111
-204.392	-200.000	0.040	-0.356
-203.377	167.929	0.102	0.144
-202.363	171.886	0.215	0.306
-201.348	707.208	-0.131	0.343
-200.333	-4.270	0.169	0.116
-199.319	20.738	0.098	0.078
-198.304	-33.587	0.208	-0.114
-197.290	800.000	0.055	-0.163
-196.275	506.994	0.119	-0.272
-195.260	800.000	0.052	-0.199
-194.246	103.809	0.268	-0.312
-193.231	157.448	-0.089	0.122
-192.217	87.247	0.158	-0.173
-191.202	215.753	0.100	-0.157
-190.187	-200.000	-0.004	0.247
-189.173	-126.952	0.126	0.018
-188.158	-200.000	0.066	-0.313
-187.144	-129.892	-0.099	-0.013
-186.129	-93.080	0.163	-0.045
-185.114	-200.000	-0.015	-0.479
-184.100	95.617	-0.113	-0.127
-183.085	213.740	0.197	0.308
-182.071	-54.391	-0.263	0.118
-181.056	-122.743	0.276	0.044
-180.042	-143.689	-0.205	0.019
-179.027	-52.028	-0.174	-0.080
-178.012	-200.000	-0.019	0.136
-176.998	-24.917	-0.222	-0.130
-175.983	25.041	-0.022	-0.018
-174.969	-200.000	-0.012	-0.082
-173.954	-116.425	0.128	-0.023
-172.939	-69.546	0.184	-0.070
-171.925	-200.000	-0.005	0.082
-170.910	211.236	-0.084	-0.131
-169.896	-126.106	0.162	-0.024
-168.881	465.213	-0.158	0.350
-167.866	-200.000	-0.003	0.164
-166.852	800.000	-0.049	0.205
-165.837	-200.000	-0.039	0.278
-164.823	56.623	0.230	0.221
-163.808	-200.000	0.054	-0.318
-162.793	-66.664	0.200	0.078
-161.779	-200.000	0.001	-0.113
-160.764	-89.228	-0.180	0.052
-159.750	260.027	-0.047	-0.081
-158.735	367.230	0.125	0.250
-157.720	123.132	0.186	0.230
-156.706	112.398	0.190	0.228
-155.691	97.350	-0.104	0.118
-154.677	387.090	-0.061	-0.125
-153.662	459.038	0.072	0.159
-152.647	1.769	-0.271	-0.193
-151.633	-27.976	-0.150	-0.086
-150.618	-113.756	-0.137	0.026
-149.604	629.349	0.034	-0.086
-148.589	-49.785	0.249	-0.117
-147.574	800.000	0.076	0.316
-146.560	-30.848	0.301	0.168
-145.545	-200.000	-0.033	-0.338
-144.531	-200.000	0.023	0.143
-143.516	-44.149	0.282	-0.140
-142.502	-43.625	-0.241	-0.120
-141.487	-200.000	-0.027	-0.205
-140.472	135.059	-0.133	0.171
-139.458	800.000	0.085	-0.324
-138.443	123.786	-0.097	-0.121
-137.429	182.288	-0.161	-0.235
-136.414	214.924	0.116	0.181
-135.399	359.738	-0.118	-0.233
-134.385	148.394	-0.132	0.176
-133.370	-137.137	0.073	0.008
-132.356	28.751	-0.516	0.432
-131.341	-200.000	-0.001	0.127
-130.326	72.744	0.113	0.116
-129.312	312.123	-0.054	0.099
-128.297	800.000	-0.050	0.147
-127.283	-200.000	-0.002	0.069
-126.268	5.555	-0.174	-0.127
-125.253	612.984	0.076	-0.187
-124.239	271.213	0.091	0.158
-123.224	-143.599	0.318	0.030
-122.210	553.908	-0.054	0.128
