DTS Sentinel unit serial number:	SN413079Multiplexer serial number:	ORYXHardware model number:	OX4-SRSoftware version number:	ORYX F/W v4.00 Oryx Data Collector v3.7.2.0data status	okinstallation	princeton_trtdifferential loss correction	single-endedforward channel	channel 4reverse channel	N/Adate	2019/09/12time	12:27:11forward acquisition time	60.00reverse acquisition time	0.00gamma	496.2192k internal	0.2289k external	0.2289temperature offset calibration	1.0073default loss term (dB/km)	0.3790temperature slope calibration	1.0000multiplexer offset coefficient	1.0000multiplexer slope coefficient	1.0000fibre end	0.00T internal ref (°C)	40.53T ext. ref 1 (°C)	2.00T ext. ref 2 (°C)	35.01length (m)	temperature (°C)	Stokes	anti-Stokes-747.200	-200.000	0.006	-0.356
-746.185	-157.333	-0.102	-0.006
-745.171	35.793	0.110	-0.099
-744.156	44.795	-0.124	-0.117
-743.142	800.000	-0.006	0.019
-742.127	-82.916	0.355	-0.117
-741.112	-63.307	0.203	-0.086
-740.098	69.290	0.314	0.331
-739.083	-10.485	0.107	0.073
-738.069	-122.333	-0.079	-0.013
-737.054	-83.424	-0.193	0.063
-736.039	-200.000	-0.009	0.390
-735.025	-58.850	-0.154	0.068
-734.010	-163.904	-0.339	-0.016
-732.996	23.068	-0.153	-0.129
-731.981	-43.933	-0.329	0.169
-730.966	-28.308	-0.164	-0.097
-729.952	-185.088	-0.272	0.004
-728.937	-200.000	-0.028	-0.147
-727.923	40.862	-0.185	0.171
-726.908	-65.191	-0.302	0.125
-725.894	-185.881	-0.112	-0.002
-724.879	15.854	-0.097	0.078
-723.864	160.082	-0.160	0.228
-722.850	97.732	-0.186	0.219
-721.835	429.195	-0.029	-0.064
-720.821	1.411	-0.225	0.166
-719.806	-107.769	-0.172	-0.038
-718.791	349.906	0.047	0.096
-717.777	-200.000	0.031	0.151
-716.762	607.485	-0.046	-0.118
-715.748	-93.443	-0.247	-0.070
-714.733	524.444	-0.137	0.329
-713.718	27.594	-0.122	-0.105
-712.704	81.683	-0.286	-0.317
-711.689	-58.738	-0.439	-0.194
-710.675	-25.457	0.010	-0.006
-709.660	-130.962	0.281	0.038
-708.645	-42.475	-0.286	-0.149
-707.631	-200.000	0.062	0.344
-706.616	-112.429	-0.075	0.015
-705.602	-88.417	-0.277	-0.085
-704.587	-54.993	-0.098	-0.045
-703.572	-60.490	-0.144	-0.063
-702.558	800.000	-0.068	-0.224
-701.543	-200.000	-0.009	-0.302
-700.529	-133.352	-0.269	0.035
-699.514	-170.370	-0.266	0.010
-698.499	88.651	-0.057	0.065
-697.485	-169.586	-0.149	0.006
-696.470	726.953	0.085	-0.233
-695.456	800.000	0.067	-0.222
-694.441	-200.000	-0.037	-0.195
-693.426	-85.657	0.022	-0.007
-692.412	-122.835	-0.142	-0.023
-691.397	448.920	0.029	0.066
-690.383	353.456	-0.092	-0.187
-689.368	-200.000	0.030	0.420
-688.354	-35.106	0.315	0.175
-687.339	800.000	0.009	-0.031
-686.324	-118.995	0.089	-0.016
-685.310	-99.135	-0.062	-0.016
-684.295	-175.562	-0.421	-0.012
-683.281	2.477	-0.232	0.172
-682.266	-138.158	-0.153	0.017
-681.251	-87.011	0.386	-0.120
-680.237	-146.987	-0.405	0.036
-679.222	36.627	0.175	0.158
-678.208	-135.726	0.112	0.014
-677.193	-200.000	-0.009	-0.106
-676.178	-47.078	0.270	-0.135
-675.164	265.990	0.095	-0.169
-674.149	60.570	0.080	0.081
-673.135	136.574	-0.185	0.247
-672.120	-166.763	0.186	-0.008
-671.105	-200.000	-0.024	-0.220
-670.091	-61.689	-0.091	-0.039
-669.076	-108.400	-0.263	-0.058
-668.062	228.556	-0.088	-0.146
-667.047	51.367	-0.080	0.078
-666.032	800.000	0.039	0.140
-665.018	-39.799	-0.171	0.091
-664.003	-200.000	-0.002	0.079
-662.989	133.770	0.097	0.129
-661.974	-42.858	-0.262	-0.136
-660.959	206.362	-0.108	-0.171
-659.945	391.212	0.222	0.471
-658.930	245.816	-0.081	0.139
-657.916	131.756	-0.135	-0.178
-656.901	-72.810	-0.094	-0.035
-655.886	53.803	0.112	0.109
-654.872	592.596	0.108	0.273
-653.857	-200.000	-0.013	-0.307
-652.843	24.129	-0.163	0.138
-651.828	-45.893	0.105	0.053
-650.814	115.914	-0.115	0.144
-649.799	-35.913	0.200	0.110
-648.784	153.129	-0.040	0.056
-647.770	382.975	0.049	-0.103
-646.755	-81.186	0.357	0.120
-645.741	26.291	-0.137	0.116
-644.726	35.698	0.177	-0.159
-643.711	321.940	0.199	0.387
-642.697	251.454	-0.126	-0.219
-641.682	39.611	-0.412	-0.377
-640.668	72.123	-0.297	-0.316
-639.653	117.385	-0.158	-0.199
-638.638	-200.000	0.022	0.168
-637.624	649.201	-0.034	-0.089
-636.609	-187.312	0.348	0.005
-635.595	18.006	-0.317	0.258
-634.580	-144.799	0.244	0.023
-633.565	54.754	0.109	-0.107
-632.551	800.000	-0.053	-0.219
-631.536	137.798	0.188	-0.251
-630.522	-144.166	0.422	0.040
-629.507	-200.000	-0.016	0.111
-628.492	800.000	0.082	0.273
-627.478	-125.723	0.208	-0.032
-626.463	-129.373	-0.230	0.033
-625.449	41.711	-0.246	0.227
-624.434	-200.000	0.026	0.120
-623.419	-200.000	0.040	0.230
-622.405	737.046	-0.016	0.044
-621.390	511.508	-0.004	0.010
-620.376	-139.120	0.159	0.018
-619.361	235.485	-0.085	0.142
-618.346	-137.745	-0.307	-0.035
-617.332	-81.137	0.127	0.043
-616.317	179.964	0.161	0.241
-615.303	-200.000	0.021	0.208
-614.288	-200.000	0.011	0.360
-613.273	-200.000	-0.014	-0.122
-612.259	-55.908	-0.371	-0.169
-611.244	-91.147	-0.134	-0.039
-610.230	-200.000	-0.002	-0.181
-609.215	-200.000	-0.014	-0.449
-608.201	800.000	-0.153	-0.488
-607.186	-31.727	0.175	-0.100
-606.171	422.537	-0.090	0.198
-605.157	551.255	0.170	0.415
-604.142	800.000	0.097	-0.338
-603.128	138.850	0.040	0.054
-602.113	-164.820	-0.354	-0.016
-601.098	-200.000	-0.002	0.159
-600.084	800.000	0.109	-0.374
-599.069	-88.318	0.252	0.077
-598.055	-11.710	-0.150	-0.101
-597.040	-74.861	-0.109	0.040
-596.025	-38.398	-0.095	-0.051
-595.011	678.778	-0.077	-0.203
-593.996	625.127	0.199	-0.512
-592.982	626.205	0.072	0.185
-591.967	-200.000	0.067	0.303
-590.952	-200.000	-0.002	-0.072
-589.938	503.804	-0.115	0.271
-588.923	-200.000	-0.005	0.233
-587.909	-20.367	-0.142	-0.089
-586.894	210.458	-0.145	-0.231
-585.879	-4.490	-0.372	0.262
-584.865	166.651	-0.176	0.254
-583.850	133.626	0.118	-0.155
-582.836	-105.216	0.635	-0.148
-581.821	-131.911	-0.114	0.015
-580.806	2.747	-0.068	0.050
-579.792	-200.000	-0.001	-0.356
-578.777	-56.922	0.165	-0.074
-577.763	-70.716	-0.442	-0.170
-576.748	500.973	0.049	0.116
-575.733	292.971	0.070	-0.130
-574.719	192.479	-0.130	-0.200
-573.704	-148.721	0.350	0.029
-572.690	-108.160	0.247	-0.054
-571.675	-200.000	0.039	-0.202
-570.661	143.581	-0.020	-0.027
-569.646	192.384	0.099	-0.153
-568.631	-20.488	-0.275	-0.172
-567.617	76.307	-0.140	0.151
-566.602	800.000	-0.081	-0.269
-565.588	-200.000	0.053	-0.245
-564.573	-6.560	-0.088	-0.061
-563.558	-137.186	-0.192	-0.022
-562.544	273.016	-0.166	-0.299
-561.529	800.000	-0.039	0.139
-560.515	56.830	-0.143	0.142
-559.500	-200.000	0.045	-0.220
-558.485	298.401	-0.094	0.177
-557.471	59.285	0.212	0.213
-556.456	15.531	-0.047	0.037
-555.442	-78.100	0.481	0.168
-554.427	800.000	-0.021	0.069
-553.412	-12.015	0.131	-0.088
-552.398	800.000	-0.014	0.050
-551.383	630.894	-0.095	0.244
-550.369	-200.000	0.044	-0.305
-549.354	183.988	-0.049	0.073
-548.339	64.555	0.209	0.214
-547.325	-200.000	0.100	0.504
-546.310	-200.000	0.003	-0.119
-545.296	-2.922	0.178	0.126
-544.281	172.964	-0.159	0.232
-543.266	-43.845	-0.142	-0.073
-542.252	800.000	-0.063	0.253
-541.237	800.000	-0.135	0.382
-540.223	800.000	0.147	0.423
-539.208	-200.000	0.020	-0.202
-538.193	-93.089	0.311	-0.088
-537.179	772.941	0.096	0.266
-536.164	-104.591	0.319	0.075
-535.150	-200.000	-0.000	-0.092
-534.135	-200.000	0.005	-0.119
-533.121	-55.525	-0.518	0.236
-532.106	364.619	-0.077	0.158
-531.091	69.364	0.186	0.195
-530.077	-93.605	-0.089	-0.025
-529.062	525.914	-0.036	-0.085
-528.048	-72.927	0.245	-0.091
-527.033	800.000	-0.120	0.372
-526.018	13.425	-0.136	0.107
-525.004	-200.000	-0.030	-0.163
-523.989	-110.202	-0.260	-0.055
-522.975	-20.176	-0.159	-0.099
-521.960	77.110	0.113	0.122
-520.945	69.262	-0.217	-0.226
-519.931	-35.195	0.236	-0.130
-518.916	134.010	0.091	-0.120
-517.902	124.638	0.126	0.161
-516.887	-90.420	-0.019	-0.006
-515.872	455.752	0.114	-0.257
-514.858	-175.190	0.050	0.001
-513.843	800.000	0.015	-0.056
-512.829	558.170	-0.131	-0.320
-511.814	17.165	0.056	-0.045
-510.799	-165.942	-0.107	0.005
-509.785	-2.541	0.206	0.146
-508.770	-163.715	0.101	-0.005
-507.756	-109.006	0.284	0.061
-506.741	800.000	0.119	-0.345
-505.726	164.469	-0.160	-0.229
-504.712	-129.675	0.095	-0.013
-503.697	288.502	-0.155	-0.284
-502.683	-200.000	-0.003	0.281
-501.668	8.068	0.277	-0.211
-500.653	506.258	0.126	-0.296
-499.639	-135.436	0.359	0.044
-498.624	188.168	-0.193	-0.293
-497.610	-127.722	-0.110	0.016
-496.595	187.797	-0.012	-0.019
-495.581	-200.000	0.022	0.187
-494.566	-120.261	-0.585	-0.101
-493.551	14.610	0.274	-0.217
-492.537	-125.498	0.297	-0.046
-491.522	58.921	-0.117	-0.117
-490.508	-33.687	0.159	-0.089
-489.493	-86.798	0.313	0.097
-488.478	61.363	0.086	-0.087
-487.464	-100.791	-0.600	-0.150
-486.449	182.851	-0.046	0.069
-485.435	-46.164	0.201	-0.101
-484.420	800.000	-0.053	-0.219
-483.405	-57.236	0.098	0.044
-482.391	-200.000	0.002	-0.129
-481.376	161.542	-0.115	-0.163
-480.362	-144.897	0.160	0.015
-479.347	72.519	-0.080	0.085
-478.332	-189.282	0.167	-0.002
-477.318	-200.000	-0.022	-0.207
-476.303	-157.174	0.203	-0.013
-475.289	536.274	0.122	-0.293
-474.274	-200.000	-0.019	0.436
-473.259	-48.502	-0.233	-0.114
-472.245	165.514	-0.223	0.320
-471.230	84.268	-0.260	0.288
-470.216	-108.771	0.282	0.061
-469.201	-154.399	-0.146	-0.010
-468.186	287.448	0.059	-0.108
-467.172	84.471	-0.139	-0.154
-466.157	-60.626	0.147	0.063
-465.143	149.165	-0.235	-0.322
-464.128	-11.055	-0.099	0.066
-463.113	23.219	0.031	-0.026
-462.099	-200.000	0.021	-0.203
-461.084	-200.000	-0.005	-0.316
-460.070	-109.704	0.159	-0.034
-459.055	-190.046	0.313	-0.004
-458.040	142.369	-0.217	-0.292
-457.026	-200.000	0.016	-0.105
-456.011	-142.653	-0.146	-0.014
-454.997	800.000	-0.046	-0.189
-453.982	-6.759	-0.089	-0.061
-452.968	-123.671	0.314	-0.050
-451.953	-101.365	0.517	0.128
-450.938	-18.885	0.150	-0.095
-449.924	27.059	-0.171	0.145
-448.909	-200.000	0.012	0.214
-447.895	-168.431	0.314	0.012
-446.880	-200.000	-0.000	0.080
-445.865	-11.140	-0.014	0.009
-444.851	-200.000	-0.047	-0.312
-443.836	800.000	0.016	0.049
-442.822	-200.000	0.006	-0.249
-441.807	-200.000	-0.005	0.084
-440.792	-89.399	-0.128	0.038
-439.778	-200.000	0.047	-0.305
-438.763	39.318	-0.123	-0.112
-437.749	558.941	-0.156	0.381
-436.734	-13.536	0.162	0.106
-435.719	-200.000	-0.036	0.216
-434.705	-200.000	-0.015	-0.313
-433.690	800.000	-0.030	-0.084
-432.676	-55.760	0.091	-0.041
-431.661	-57.260	0.474	-0.211
-430.646	800.000	0.073	-0.311
-429.632	347.649	0.175	-0.348
-428.617	-69.175	0.070	-0.027
-427.603	-200.000	-0.000	-0.068
-426.588	-200.000	0.035	0.190
-425.573	137.343	0.142	0.189
-424.559	34.213	-0.163	-0.144
-423.544	-102.113	-0.549	-0.134
-422.530	-60.422	0.031	-0.013
-421.515	-126.484	0.361	-0.054
-420.500	41.905	-0.133	0.122
-419.486	201.075	0.074	-0.116
-418.471	-59.096	-0.283	0.123
-417.457	-77.108	0.223	0.079
-416.442	-114.152	-0.197	0.039
-415.428	724.309	0.162	-0.437
-414.413	155.723	-0.111	-0.155
-413.398	142.637	0.091	-0.122
-412.384	27.604	-0.093	-0.079
-411.369	459.571	0.082	0.184
-410.355	-1.955	-0.142	-0.101
-409.340	-30.397	0.101	0.058
-408.325	-86.828	-0.214	0.066
-407.311	-86.477	0.083	0.026
-406.296	-167.795	-0.259	-0.010
-405.282	64.914	-0.195	0.199
-404.267	800.000	0.083	-0.286
-403.252	-30.051	-0.124	-0.071
-402.238	58.049	0.192	-0.190
-401.223	1.919	0.191	0.139
-400.209	-200.000	-0.032	-0.245
-399.194	724.496	0.159	0.429
-398.179	163.570	-0.142	0.202
-397.165	800.000	0.086	0.345
-396.150	-113.598	-0.212	0.042
-395.136	74.768	0.233	-0.248
-394.121	-137.519	0.201	0.023
-393.106	-124.869	-0.109	-0.017
-392.092	4.474	-0.131	-0.097
-391.077	16.595	0.336	-0.269
-390.063	5.943	0.043	0.032
-389.048	-200.000	-0.007	0.129
-388.033	-19.607	0.302	-0.189
-387.019	50.748	0.086	0.082
-386.004	-36.045	-0.252	0.138
-384.990	185.968	-0.133	-0.200
-383.975	309.437	0.029	0.055
-382.960	10.250	0.345	-0.265
-381.946	124.299	-0.232	0.294
-380.931	-12.209	0.279	-0.184
-379.917	97.695	0.267	0.310
-378.902	-200.000	0.035	0.222
-377.888	-200.000	-0.016	0.076
-376.873	95.689	-0.070	0.080
-375.858	-64.089	-0.116	-0.048
-374.844	-89.605	-0.132	0.039
-373.829	42.500	0.220	0.202
-372.815	-76.380	-0.156	-0.056
-371.800	569.125	-0.052	-0.128
-370.785	1.351	0.132	0.096
-369.771	43.765	-0.235	-0.217
-368.756	-24.408	-0.163	0.098
-367.742	-200.000	-0.000	-0.071
-366.727	-56.192	0.277	0.124
-365.712	-97.004	0.065	-0.017
-364.698	-200.000	0.012	-0.107
-363.683	-15.244	0.188	0.121
-362.669	370.053	0.115	0.236
-361.654	-200.000	-0.023	0.175
-360.639	76.333	0.145	-0.155
-359.625	-200.000	0.030	0.484
-358.610	-44.257	-0.162	0.082
-357.596	800.000	-0.104	0.362
-356.581	-200.000	0.076	-0.335
-355.566	-99.719	-0.068	0.017
-354.552	18.634	0.161	-0.130
-353.537	-142.560	0.082	0.008
-352.523	-200.000	0.027	0.135
-351.508	800.000	-0.041	0.134
-350.493	478.363	0.106	0.243
-349.479	265.102	0.078	0.138
-348.464	291.564	-0.132	-0.243
-347.450	14.282	-0.105	-0.082
-346.435	24.360	0.093	-0.077
-345.420	15.017	0.069	0.055
-344.406	31.051	-0.279	-0.241
-343.391	-54.122	0.209	-0.096
-342.377	60.363	-0.196	0.196
-341.362	-23.957	0.206	0.124
-340.348	64.677	-0.085	-0.086
-339.333	44.411	0.073	0.068
-338.318	231.381	0.148	-0.245
-337.304	46.179	0.145	0.136
-336.289	-200.000	-0.090	-0.431
-335.275	-200.000	-0.027	-0.125
-334.260	-80.714	-0.373	-0.125
-333.245	20.126	-0.195	-0.159
-332.231	87.204	0.054	-0.060
-331.216	312.364	0.155	-0.294
-330.202	800.000	-0.067	0.248
-329.187	-200.000	-0.029	0.407
-328.172	-20.158	0.211	-0.131
-327.158	-106.616	-0.191	0.043
-326.143	-30.120	-0.118	0.068
-325.129	-148.982	-0.310	-0.025
-324.114	-154.640	-0.279	0.019
-323.099	3.531	-0.177	0.130
-322.085	21.730	0.277	0.227
-321.070	45.966	-0.427	0.398
-320.056	344.707	-0.258	0.510
-319.041	-85.025	-0.069	0.022
-318.026	-101.322	-0.232	-0.057
-317.012	-107.593	0.030	0.007
-315.997	-106.317	-0.118	0.027
-314.983	167.546	0.139	-0.199
-313.968	255.613	0.090	0.156
-312.953	-123.795	0.206	0.033
-311.939	-200.000	-0.032	0.248
-310.924	391.885	-0.186	0.389
-309.910	67.064	0.099	0.102
-308.895	-108.062	0.367	0.080
-307.880	102.793	-0.082	0.096
-306.866	-130.896	-0.308	0.042
-305.851	-200.000	0.083	0.473
-304.837	-200.000	0.010	0.369
-303.822	-92.620	-0.166	0.047
-302.807	-162.633	-0.463	0.023
-301.793	85.941	-0.130	-0.144
-300.778	183.529	-0.127	0.189
-299.764	-140.017	-0.352	0.037
-298.749	-200.000	0.003	0.040
-297.735	-200.000	0.005	0.118
-296.720	-129.955	-0.168	-0.023
-295.705	-32.801	-0.064	0.036
-294.691	114.479	0.128	-0.157
-293.676	190.254	-0.135	0.205
-292.662	-200.000	0.030	0.166
-291.647	719.212	-0.130	0.348
-290.632	193.551	0.208	0.316
-289.618	-60.138	0.384	0.165
-288.603	108.758	-0.142	-0.170
-287.589	433.004	-0.043	0.094
-286.574	256.564	-0.123	-0.212
-285.559	295.778	-0.095	-0.176
-284.545	-200.000	0.016	-0.314
-283.530	-126.928	0.133	-0.020
-282.516	-74.168	0.191	0.070
-281.501	-60.461	0.170	0.073
-280.486	158.351	0.067	0.094
-279.472	95.987	-0.051	-0.059
-278.457	-160.950	-0.062	0.003
-277.443	-200.000	-0.040	-0.384
-276.428	360.844	-0.044	0.089
-275.413	223.724	-0.093	-0.151
-274.399	85.537	-0.214	-0.236
-273.384	-200.000	-0.048	0.223
-272.370	231.221	0.109	0.179
-271.355	-19.643	-0.106	0.066
-270.340	800.000	0.063	0.244
-269.326	-21.821	0.185	-0.113
-268.311	732.958	-0.038	-0.103
-267.297	-116.881	0.249	0.046
-266.282	-131.268	-0.400	0.053
-265.267	-75.669	-0.035	-0.013
-264.253	35.095	0.248	0.219
-263.238	-12.366	-0.160	-0.105
-262.224	73.128	-0.047	0.050
-261.209	-152.272	-0.302	-0.022
-260.195	-114.887	0.310	0.059
-259.180	-179.142	0.181	0.004
-258.165	-118.465	-0.381	-0.068
-257.151	-109.645	-0.103	-0.022
-256.136	751.856	-0.075	0.204
-255.122	-29.441	0.166	-0.096
-254.107	622.218	0.069	-0.176
-253.092	-4.515	-0.193	0.134
-252.078	48.364	0.207	0.195
-251.063	73.632	-0.306	-0.322
-250.049	-200.000	0.002	-0.267
-249.034	164.083	-0.141	0.200
-248.019	714.226	-0.082	-0.219
-247.005	-67.880	0.271	-0.106
-245.990	-174.829	-0.156	-0.004
-244.976	43.361	-0.310	0.284
-243.961	800.000	-0.097	0.294
-242.946	170.186	0.101	0.145
-241.932	356.016	0.036	-0.072
-240.917	-150.914	0.114	-0.009
-239.903	-200.000	-0.004	0.469
-238.888	-200.000	0.003	0.431
-237.873	45.798	0.307	0.285
-236.859	-200.000	-0.055	0.419
-235.844	-99.601	0.087	-0.022
-234.830	-200.000	-0.020	-0.207
-233.815	142.503	-0.282	-0.376
-232.800	-44.871	-0.062	-0.031
-231.786	-59.778	0.085	0.037
-230.771	-60.802	-0.050	-0.021
-229.757	-140.365	0.052	-0.005
-228.742	-160.152	-0.346	0.019
-227.727	-18.545	0.247	-0.155
-226.713	70.093	-0.246	-0.255
-225.698	-200.000	0.007	-0.211
-224.684	-2.770	0.366	0.257
-223.669	-200.000	0.006	0.388
-222.655	-61.910	0.276	-0.116
-221.640	-115.260	-0.281	-0.053
-220.625	101.366	0.097	0.113
-219.611	245.326	-0.062	-0.104
-218.596	162.479	0.225	-0.317
-217.582	27.438	-0.160	-0.135
-216.567	-200.000	0.069	-0.363
-215.552	17.359	0.114	0.091
-214.538	-200.000	0.012	-0.191
-213.523	800.000	0.085	-0.358
-212.509	378.399	-0.032	0.065
-211.494	504.649	-0.147	0.343
-210.479	-200.000	-0.011	-0.151
-209.465	-25.370	-0.288	-0.171
-208.450	-40.316	0.345	0.180
-207.436	-100.120	0.165	-0.041
-206.421	-56.530	-0.096	0.043
-205.406	-46.619	0.211	0.104
-204.392	800.000	-0.098	0.351
-203.377	-200.000	0.005	-0.085
-202.363	260.695	0.108	-0.188
-201.348	-42.212	0.143	0.074
-200.333	-66.175	-0.288	0.115
-199.319	117.256	0.105	0.130
-198.304	-141.708	-0.293	0.030
-197.290	-200.000	-0.021	-0.138
-196.275	-114.501	0.165	0.032
-195.260	-105.522	0.140	-0.032
-194.246	-45.083	0.113	0.056
-193.231	255.182	-0.173	-0.297
-192.217	-72.902	-0.383	-0.141
-191.202	-143.303	-0.114	0.011
-190.187	-135.201	0.327	-0.039
-189.173	-200.000	0.006	0.103
-188.158	-58.675	-0.233	-0.101
-187.144	262.361	-0.222	-0.386
-186.129	-65.186	0.193	0.078
-185.114	-106.902	0.274	-0.061
-184.100	-200.000	0.023	0.270
-183.085	133.842	-0.217	0.282
-182.071	800.000	-0.050	-0.158
-181.056	-200.000	0.003	-0.055
-180.042	-81.507	-0.206	-0.068
-179.027	-133.119	0.309	0.039
-178.012	800.000	-0.118	0.354
-176.998	71.059	0.151	0.157
-175.983	-200.000	0.019	0.298
-174.969	-172.995	0.396	-0.012
-173.954	-200.000	0.004	-0.171
-172.939	480.767	0.047	0.106
-171.925	-68.138	-0.337	-0.131
-170.910	170.809	-0.141	0.202
-169.896	-49.528	-0.234	0.112
-168.881	13.097	0.187	0.145
-167.866	-104.793	0.504	-0.116
-166.852	-68.573	-0.208	-0.081
-165.837	-200.000	0.027	0.149
-164.823	-1.134	0.217	0.154
-163.808	800.000	-0.043	-0.164
-162.793	58.534	0.297	-0.292
-161.779	-126.475	-0.275	0.041
-160.764	-21.415	0.089	0.054
-159.750	133.921	-0.171	-0.222
-158.735	-200.000	0.009	-0.311
-157.720	-52.572	-0.325	0.150
-156.706	654.082	-0.146	-0.374
-155.691	-1.326	-0.194	-0.138
-154.677	-61.843	0.211	-0.088
-153.662	-163.649	0.327	0.015
-152.647	-22.725	-0.271	0.164
-151.633	-105.657	0.144	0.033
-150.618	-87.812	0.114	0.034
-149.604	-200.000	0.017	0.171
-148.589	-7.895	0.199	0.134
-147.574	785.648	0.063	-0.172
-146.560	234.233	0.081	0.133
-145.545	800.000	0.051	0.174
-144.531	80.071	0.030	0.033
-143.516	-200.000	0.044	0.395
-142.502	167.688	-0.098	0.140
-141.487	14.616	0.159	0.124
-140.472	-36.109	0.396	0.214
-139.458	418.407	0.081	-0.173
-138.443	800.000	-0.063	-0.187
-137.429	-97.410	0.528	0.138
-136.414	-200.000	-0.008	0.056
-135.399	153.058	0.245	0.335
-134.385	195.693	0.126	-0.192
-133.370	124.956	-0.075	-0.094
-132.356	-50.468	0.102	-0.048
-131.341	-199.882	0.426	0.002
-130.326	72.307	0.176	-0.184
-129.312	11.923	0.218	-0.167
-128.297	-200.000	0.022	-0.111
-127.283	23.492	-0.152	-0.125
-126.268	309.117	-0.074	-0.138
-125.253	-147.136	-0.276	-0.024
-124.239	-200.000	-0.043	0.259
-123.224	-200.000	-0.031	0.197
-122.210	535.673	0.106	0.253
