DTS Sentinel unit serial number:	SN413079Multiplexer serial number:	ORYXHardware model number:	OX4-SRSoftware version number:	ORYX F/W v4.00 Oryx Data Collector v3.7.2.0data status	okinstallation	princeton_trtdifferential loss correction	single-endedforward channel	channel 4reverse channel	N/Adate	2019/09/14time	18:09:35forward acquisition time	60.00reverse acquisition time	0.00gamma	496.2192k internal	0.2297k external	0.2297temperature offset calibration	1.0110default loss term (dB/km)	0.3790temperature slope calibration	1.0000multiplexer offset coefficient	1.0000multiplexer slope coefficient	1.0000fibre end	0.00T internal ref (°C)	37.14T ext. ref 1 (°C)	4.96T ext. ref 2 (°C)	31.41length (m)	temperature (°C)	Stokes	anti-Stokes-747.200	-126.110	-0.143	0.022
-746.185	-43.065	-0.125	0.065
-745.171	800.000	0.093	0.292
-744.156	255.582	-0.106	0.186
-743.142	-161.318	0.266	-0.014
-742.127	-93.935	0.040	-0.011
-741.112	-177.825	0.194	0.005
-740.098	181.738	-0.298	0.447
-739.083	659.964	-0.128	0.338
-738.069	-200.000	-0.051	-0.317
-737.054	4.011	-0.195	0.145
-736.039	800.000	-0.067	-0.256
-735.025	-52.949	0.180	0.085
-734.010	-7.343	0.263	-0.182
-732.996	800.000	0.124	-0.351
-731.981	-124.064	-0.162	0.026
-730.966	-57.399	0.201	-0.090
-729.952	253.086	0.124	-0.215
-728.937	312.945	-0.055	-0.105
-727.923	-200.000	0.045	-0.397
-726.908	-200.000	-0.029	0.163
-725.894	-114.947	-0.139	-0.027
-724.879	800.000	-0.047	0.170
-723.864	-200.000	-0.040	-0.422
-722.850	7.299	0.274	-0.209
-721.835	-129.156	-0.525	0.075
-720.821	173.209	-0.065	0.096
-719.806	-31.328	0.040	-0.023
-718.791	-33.685	0.174	-0.098
-717.777	176.306	-0.133	-0.197
-716.762	-79.016	-0.146	-0.051
-715.748	77.568	-0.030	-0.032
-714.733	-54.039	0.322	-0.150
-713.718	-132.150	0.318	-0.042
-712.704	800.000	0.037	0.139
-711.689	38.442	0.088	-0.080
-710.675	-160.599	-0.101	0.005
-709.660	-200.000	0.001	0.171
-708.645	-10.779	-0.056	-0.038
-707.631	-200.000	0.001	0.007
-706.616	289.373	-0.058	-0.108
-705.602	-200.000	0.048	-0.278
-704.587	800.000	-0.051	-0.188
-703.572	-94.428	-0.463	-0.129
-702.558	-115.902	0.350	-0.067
-701.543	-160.305	-0.165	0.009
-700.529	-63.673	-0.051	0.021
-699.514	-144.578	0.528	-0.050
-698.499	179.217	0.045	0.066
-697.485	-22.950	0.228	0.140
-696.470	80.360	-0.195	-0.214
-695.456	336.203	0.167	-0.330
-694.441	-200.000	0.019	-0.358
-693.426	157.607	-0.208	-0.294
-692.412	34.056	-0.243	0.216
-691.397	-180.250	-0.252	0.005
-690.383	450.384	-0.140	0.314
-689.368	30.001	-0.068	-0.059
-688.354	-47.695	-0.100	-0.049
-687.339	-200.000	0.058	-0.434
-686.324	-200.000	0.067	-0.474
-685.310	-104.316	0.394	0.093
-684.295	-200.000	-0.009	-0.185
-683.281	-18.409	0.201	-0.128
-682.266	-62.486	0.089	0.038
-681.251	-70.947	-0.331	-0.127
-680.237	800.000	-0.060	0.185
-679.222	32.144	0.211	0.186
-678.208	49.511	0.031	-0.029
-677.193	-108.126	-0.129	-0.028
-676.178	-80.189	-0.367	-0.125
-675.164	-1.062	0.176	-0.127
-674.149	-126.765	-0.365	0.055
-673.135	-200.000	0.017	-0.261
-672.120	-99.280	-0.606	-0.156
-671.105	-200.000	0.017	0.436
-670.091	-200.000	0.002	0.064
-669.076	800.000	-0.004	0.017
-668.062	-119.410	-0.226	0.040
-667.047	-176.374	0.222	-0.006
-666.032	-200.000	0.014	-0.339
-665.018	-89.975	-0.305	0.091
-664.003	-200.000	0.017	0.138
-662.989	121.182	-0.025	0.032
-661.974	781.660	0.009	-0.026
-660.959	2.767	0.093	-0.069
-659.945	800.000	0.046	0.154
-658.930	108.280	-0.177	0.215
-657.916	49.375	-0.127	0.122
-656.901	414.349	-0.047	-0.101
-655.886	-200.000	-0.033	-0.173
-654.872	700.150	0.055	-0.147
-653.857	255.891	-0.231	-0.404
-652.843	86.718	0.121	0.136
-651.828	-114.196	0.247	-0.048
-650.814	800.000	-0.049	0.193
-649.799	800.000	0.067	0.264
-648.784	123.264	0.142	0.181
-647.770	-56.545	-0.115	-0.052
-646.755	-200.000	0.017	0.098
-645.741	-106.099	0.048	-0.011
-644.726	-0.030	0.176	-0.127
-643.711	-200.000	-0.023	-0.119
-642.697	204.418	0.092	-0.146
-641.682	106.503	0.076	0.092
-640.668	-69.063	0.180	-0.071
-639.653	645.779	-0.094	-0.244
-638.638	-200.000	-0.006	-0.069
-637.624	665.045	0.055	-0.145
-636.609	202.322	-0.192	-0.302
-635.595	692.328	0.018	-0.049
-634.580	-72.707	-0.151	0.057
-633.565	-134.844	0.262	-0.032
-632.551	12.442	-0.099	-0.078
-631.536	418.730	-0.067	0.146
-630.522	55.682	-0.201	0.198
-629.507	-115.738	-0.261	-0.050
-628.492	-200.000	0.047	0.492
-627.478	65.261	-0.140	0.144
-626.463	-20.284	-0.181	0.113
-625.449	-39.710	0.268	-0.143
-624.434	-19.663	-0.342	0.215
-623.419	76.045	-0.179	-0.193
-622.405	800.000	0.058	-0.195
-621.390	110.959	-0.127	-0.155
-620.376	90.843	-0.192	-0.218
-619.361	-35.314	0.360	0.199
-618.346	-40.781	-0.174	-0.092
-617.332	-64.094	0.128	-0.053
-616.317	-91.189	-0.227	0.066
-615.303	-200.000	0.015	0.072
-614.288	-9.926	0.241	-0.163
-613.273	-124.603	-0.041	-0.007
-612.259	-83.135	0.150	-0.049
-611.244	-8.875	-0.343	-0.233
-610.230	-9.309	0.110	0.075
-609.215	232.861	0.070	0.117
-608.201	-42.304	0.032	0.017
-607.186	-17.976	-0.132	-0.084
-606.171	33.163	0.154	-0.136
-605.157	217.002	-0.199	0.323
-604.142	-93.932	-0.288	-0.080
-603.128	102.387	0.170	0.202
-602.113	398.985	-0.105	-0.223
-601.098	-24.642	-0.096	0.058
-600.084	800.000	0.029	0.082
-599.069	800.000	-0.096	0.416
-598.055	800.000	-0.017	-0.057
-597.040	141.368	0.218	-0.293
-596.025	-47.316	0.102	0.050
-595.011	227.421	0.135	0.223
-593.996	320.209	0.036	0.070
-592.982	103.418	0.086	-0.102
-591.967	-104.372	0.179	-0.042
-590.952	234.531	-0.280	0.468
-589.938	187.688	0.052	-0.079
-588.923	-49.689	0.033	-0.016
-587.909	-76.984	0.219	0.078
-586.894	28.227	-0.178	-0.153
-585.879	371.409	-0.048	0.099
-584.865	653.591	0.077	0.202
-583.850	-200.000	0.049	0.292
-582.836	26.830	-0.108	-0.092
-581.821	440.522	-0.067	-0.148
-580.806	730.886	0.017	-0.045
-579.792	-92.721	-0.006	-0.002
-578.777	-74.785	0.330	-0.120
-577.763	491.669	-0.080	-0.186
-576.748	-115.961	0.236	-0.045
-575.733	-153.235	-0.243	0.017
-574.719	112.970	-0.087	0.107
-573.704	323.676	-0.110	0.212
-572.690	-103.722	0.321	0.076
-571.675	16.364	0.267	0.214
-570.661	287.742	0.092	-0.168
-569.646	8.523	-0.264	-0.201
-568.631	-118.608	0.296	-0.053
-567.617	800.000	-0.043	-0.164
-566.602	-200.000	0.007	-0.096
-565.588	412.481	-0.149	0.320
-564.573	43.488	-0.136	-0.126
-563.558	-89.750	0.121	0.036
-562.544	233.300	0.196	0.327
-561.529	-103.469	-0.114	0.027
-560.515	-111.129	0.192	-0.040
-559.500	-200.000	-0.001	0.178
-558.485	142.803	0.053	-0.071
-557.471	483.278	-0.077	-0.176
-556.456	-171.176	-0.360	0.012
-555.442	-200.000	0.009	-0.088
-554.427	800.000	0.075	-0.297
-553.412	-124.533	0.050	-0.008
-552.398	-96.389	-0.274	-0.074
-551.383	-57.337	-0.199	-0.089
-550.369	72.793	0.034	-0.036
-549.354	209.797	-0.084	-0.133
-548.339	562.232	-0.028	-0.068
-547.325	728.917	0.062	0.168
-546.310	42.901	0.065	0.060
-545.296	19.184	0.221	0.180
-544.281	-60.368	0.260	0.112
-543.266	485.214	0.088	0.204
-542.252	38.596	0.226	0.204
-541.237	-200.000	-0.034	-0.206
-540.223	1.240	0.119	0.087
-539.208	-200.000	-0.009	-0.219
-538.193	-124.423	-0.295	-0.047
-537.179	-120.145	-0.281	-0.049
-536.164	121.258	-0.173	0.219
-535.150	3.833	-0.125	-0.092
-534.135	-31.265	0.147	0.084
-533.121	-44.789	-0.158	0.080
-532.106	-188.208	-0.206	-0.003
-531.091	-120.277	-0.051	0.009
-530.077	-200.000	-0.013	0.067
-529.062	-109.436	0.283	0.061
-528.048	-80.127	-0.174	-0.059
-527.033	-200.000	0.048	-0.227
-526.018	-148.197	0.301	0.025
-525.004	92.116	-0.038	-0.044
-523.989	-150.809	0.656	-0.050
-522.975	-105.764	-0.167	0.038
-521.960	8.701	0.070	0.053
-520.945	-55.691	-0.305	0.138
-519.931	41.471	-0.286	0.262
-518.916	320.697	0.065	-0.124
-517.902	-200.000	-0.010	0.075
-516.887	252.711	0.020	-0.035
-515.872	5.898	-0.073	0.055
-514.858	-178.530	0.192	0.004
-513.843	-200.000	-0.034	0.154
-512.829	-200.000	0.029	-0.244
-511.814	-110.813	-0.214	-0.045
-510.799	67.368	0.037	-0.038
-509.785	377.222	-0.043	-0.090
-508.770	-200.000	0.025	-0.124
-507.756	19.797	-0.407	0.331
-506.741	-77.399	-0.266	0.094
-505.726	154.610	-0.161	-0.223
-504.712	-154.185	-0.294	-0.020
-503.697	-200.000	0.011	0.123
-502.683	-93.256	-0.106	0.030
-501.668	148.046	0.100	0.137
-500.653	800.000	-0.144	0.479
-499.639	-142.338	0.058	0.006
-498.624	199.898	0.133	0.206
-497.610	136.098	0.197	-0.259
-496.595	-51.051	0.064	0.030
-495.581	-200.000	0.039	0.204
-494.566	207.963	-0.048	-0.076
-493.551	305.709	0.177	-0.333
-492.537	-200.000	-0.015	0.101
-491.522	800.000	0.062	0.192
-490.508	-58.928	-0.264	-0.115
-489.493	279.810	0.092	-0.167
-488.478	-113.340	-0.527	-0.105
-487.464	-200.000	-0.011	0.076
-486.449	-200.000	-0.004	0.038
-485.435	-101.015	0.124	-0.031
-484.420	11.854	0.157	-0.122
-483.405	-19.961	-0.253	0.158
-482.391	41.524	0.234	-0.214
-481.376	62.063	0.236	0.238
-480.362	204.052	-0.125	-0.196
-479.347	-200.000	0.001	-0.046
-478.332	-116.182	0.303	-0.057
-477.318	-106.070	-0.253	0.057
-476.303	-200.000	-0.001	-0.073
-475.289	-179.061	0.287	-0.007
-474.274	-53.470	0.069	0.032
-473.259	424.865	0.209	-0.455
-472.245	124.815	-0.061	0.077
-471.230	14.935	-0.164	-0.130
-470.216	249.305	0.046	0.078
-469.201	117.952	0.209	-0.260
-468.186	800.000	-0.073	-0.246
-467.172	-62.098	-0.219	0.092
-466.157	-118.863	0.144	-0.026
-465.143	-3.142	-0.136	0.096
-464.128	-200.000	0.001	-0.034
-463.113	11.625	0.286	-0.222
-462.099	-200.000	-0.016	-0.321
-461.084	-101.152	-0.038	-0.009
-460.070	163.542	-0.131	0.187
-459.055	-144.630	-0.355	-0.033
-458.040	-97.012	-0.110	-0.029
-457.026	134.607	0.030	-0.039
-456.011	269.513	0.110	-0.195
-454.997	-27.838	-0.238	-0.139
-453.982	-106.002	-0.418	0.095
-452.968	-200.000	0.049	-0.355
-451.953	69.725	0.142	0.147
-450.938	-106.537	-0.180	0.041
-449.924	114.333	-0.112	0.138
-448.909	-200.000	0.014	0.378
-447.895	800.000	0.012	-0.037
-446.880	800.000	-0.008	-0.028
-445.865	-200.000	-0.019	-0.136
-444.851	414.006	-0.058	-0.124
-443.836	-174.567	-0.285	0.008
-442.822	266.622	0.036	0.064
-441.807	-61.824	0.450	-0.190
-440.792	218.081	-0.204	0.329
-439.778	53.336	0.105	0.101
-438.763	51.791	0.144	-0.138
-437.749	303.816	0.059	0.111
-436.734	468.649	-0.112	0.253
-435.719	-55.436	-0.231	0.105
-434.705	-101.584	0.166	-0.041
-433.690	-129.121	-0.183	-0.026
-432.676	-11.958	-0.309	-0.204
-431.661	349.890	0.239	0.476
-430.646	-200.000	-0.034	-0.207
-429.632	133.531	0.149	-0.194
-428.617	800.000	0.108	-0.336
-427.603	-16.993	-0.303	0.193
-426.588	-94.997	-0.130	0.035
-425.573	82.148	-0.048	-0.052
-424.559	-12.362	0.244	-0.161
-423.544	-68.340	0.110	0.043
-422.530	15.619	-0.206	-0.163
-421.515	-84.172	0.332	-0.106
-420.500	-63.581	-0.237	-0.098
-419.486	-25.570	0.164	-0.097
-418.471	-113.445	-0.341	0.067
-417.457	468.749	-0.103	-0.233
-416.442	800.000	0.065	-0.203
-415.428	-29.183	0.145	-0.084
-414.413	-83.738	-0.203	-0.065
-413.398	-143.749	0.313	0.030
-412.384	-200.000	-0.019	-0.126
-411.369	-19.661	-0.161	-0.100
-410.355	-17.469	-0.180	0.114
-409.340	-110.696	0.134	0.028
-408.325	167.268	-0.050	-0.071
-407.311	-66.875	0.162	-0.065
-406.296	-108.239	0.246	-0.054
-405.282	-86.479	0.082	0.025
-404.267	-44.911	-0.220	-0.110
-403.252	800.000	-0.094	0.304
-402.238	159.261	0.164	0.230
-401.223	-200.000	0.091	0.417
-400.209	-75.913	-0.172	-0.061
-399.194	-67.542	-0.189	-0.075
-398.179	289.970	0.058	0.106
-397.165	85.199	0.060	0.067
-396.150	236.720	0.076	0.126
-395.136	-5.931	-0.090	-0.062
-394.121	-50.020	0.298	0.142
-393.106	800.000	-0.080	-0.248
-392.092	66.930	0.152	-0.155
-391.077	-46.225	0.148	0.073
-390.063	36.015	0.319	0.283
-389.048	-56.998	0.265	-0.118
-388.033	-35.415	-0.257	-0.141
-387.019	-200.000	-0.034	0.185
-386.004	45.454	-0.269	-0.250
-384.990	-61.159	0.271	0.115
-383.975	279.997	0.014	0.025
-382.960	-176.080	-0.271	-0.007
-381.946	666.574	-0.114	0.297
-380.931	-146.091	-0.273	-0.024
-379.917	-187.660	-0.302	0.004
-378.902	-200.000	0.080	0.521
-377.888	36.602	-0.177	-0.157
-376.873	800.000	-0.036	-0.119
-375.858	-200.000	0.020	0.101
-374.844	-24.848	-0.238	-0.143
-373.829	-200.000	0.021	0.412
-372.815	563.620	0.066	0.161
-371.800	-88.682	0.131	0.039
-370.785	48.034	-0.077	-0.073
-369.771	247.075	0.241	0.409
-368.756	509.766	0.050	-0.117
-367.742	0.289	-0.105	-0.075
-366.727	89.494	0.044	-0.049
-365.712	800.000	-0.066	-0.257
-364.698	-71.090	-0.223	0.084
-363.683	131.581	0.086	-0.111
-362.669	-137.976	-0.306	-0.034
-361.654	-200.000	0.031	-0.329
-360.639	800.000	0.047	0.165
-359.625	800.000	0.090	0.252
-358.610	59.018	0.098	-0.097
-357.596	-110.067	-0.337	0.071
-356.581	-107.507	0.098	0.022
-355.566	-200.000	-0.037	0.339
-354.552	-15.375	0.052	0.033
-353.537	23.130	-0.177	-0.146
-352.523	-139.941	0.178	0.019
-351.508	800.000	-0.069	-0.216
-350.493	142.831	0.087	-0.116
-349.479	800.000	-0.092	0.259
-348.464	63.611	0.168	0.170
-347.450	-200.000	0.074	-0.375
-346.435	-4.225	0.099	-0.069
-345.420	800.000	0.072	0.212
-344.406	231.749	-0.145	0.239
-343.391	-142.371	0.185	-0.018
-342.377	281.142	-0.119	0.214
-341.362	8.955	-0.080	0.060
-340.348	598.540	0.044	-0.110
-339.333	-108.687	0.265	-0.057
-338.318	-68.441	0.250	-0.098
-337.304	-200.000	0.007	0.422
-336.289	-200.000	0.013	0.211
-335.275	631.078	-0.024	0.061
-334.260	-200.000	0.006	0.090
-333.245	-200.000	0.009	-0.365
-332.231	-69.057	0.207	-0.080
-331.216	-200.000	0.011	0.150
-330.202	-0.224	0.135	0.096
-329.187	-200.000	0.005	-0.250
-328.172	800.000	0.070	-0.293
-327.158	242.792	0.173	0.291
-326.143	134.080	0.253	-0.329
-325.129	292.501	0.086	0.157
-324.114	-111.210	0.304	-0.063
-323.099	37.240	0.084	-0.075
-322.085	-25.526	0.229	-0.136
-321.070	-200.000	0.021	0.147
-320.056	-200.000	-0.014	0.123
-319.041	619.878	-0.137	-0.345
-318.026	415.540	-0.045	-0.096
-317.012	13.319	-0.105	0.082
-315.997	20.668	-0.155	0.126
-314.983	9.375	-0.364	0.276
-313.968	-69.025	0.166	-0.064
-312.953	-21.316	0.041	-0.025
-311.939	-25.838	-0.205	0.121
-310.924	-200.000	0.012	-0.062
-309.910	-75.201	-0.018	-0.007
-308.895	-200.000	0.006	0.216
-307.880	103.879	-0.199	0.235
-306.866	800.000	-0.080	-0.228
-305.851	246.548	0.066	0.113
-304.837	196.061	0.101	-0.154
-303.822	657.093	0.089	-0.229
-302.807	177.969	0.164	-0.240
-301.793	-78.184	-0.221	0.076
-300.778	4.607	-0.111	0.082
-299.764	-87.730	0.083	-0.025
-298.749	-105.642	-0.149	-0.034
-297.735	-63.925	-0.048	0.020
-296.720	-104.962	0.148	-0.034
-295.705	-4.431	0.166	0.115
-294.691	43.742	-0.078	-0.071
-293.676	-166.455	-0.142	0.006
-292.662	52.180	0.182	-0.174
-291.647	-118.416	-0.228	0.041
-290.632	-144.686	-0.297	0.027
-289.618	-6.363	-0.254	-0.174
-288.603	-200.000	0.012	0.112
-287.589	-122.061	-0.283	-0.047
-286.574	79.072	0.212	-0.228
-285.559	167.973	-0.063	-0.090
-284.545	-78.556	0.255	0.087
-283.530	-200.000	-0.004	0.023
-282.516	213.458	-0.230	-0.364
-281.501	-200.000	0.024	-0.318
-280.486	119.194	0.053	-0.065
-279.472	184.213	0.163	-0.242
-278.457	14.255	-0.102	-0.079
-277.443	-59.634	0.238	0.102
-276.428	-200.000	-0.007	0.235
-275.413	85.523	0.048	0.053
-274.399	729.446	0.083	-0.221
-273.384	-109.646	-0.340	-0.072
-272.370	-38.021	0.278	-0.148
-271.355	-200.000	-0.013	-0.259
-270.340	-151.277	0.054	0.004
-269.326	-144.424	0.270	0.025
-268.311	-58.548	-0.305	-0.133
-267.297	516.690	0.135	0.317
-266.282	464.691	0.137	0.308
-265.267	-144.180	-0.265	-0.025
-264.253	-46.793	0.151	-0.074
-263.238	800.000	0.058	0.219
-262.224	-42.806	-0.393	0.200
-261.209	126.764	-0.057	-0.072
-260.195	-149.425	0.063	-0.005
-259.180	-41.155	-0.094	-0.049
-258.165	-92.564	0.145	0.041
-257.151	-21.577	0.294	-0.179
-256.136	43.187	-0.232	-0.212
-255.122	-110.479	0.221	0.046
-254.107	212.761	-0.143	-0.226
-253.092	-77.735	0.183	-0.063
-252.078	638.114	0.161	0.410
-251.063	-41.457	0.230	0.118
-250.049	62.869	-0.091	0.091
-249.034	800.000	0.057	0.160
-248.019	-66.552	0.404	-0.160
-247.005	37.105	-0.107	0.095
-245.990	310.436	-0.163	0.305
-244.976	102.021	0.091	-0.107
-243.961	-108.683	-0.642	0.138
-242.946	555.041	0.138	0.332
-241.932	218.202	0.029	-0.047
-240.917	28.765	0.170	-0.144
-239.903	-200.000	-0.014	-0.171
-238.888	230.370	-0.037	-0.060
-237.873	-84.837	-0.088	0.028
-236.859	-81.027	-0.121	-0.040
-235.844	85.527	-0.091	-0.100
-234.830	108.916	0.047	-0.056
-233.815	-200.000	0.033	0.180
-232.800	-200.000	0.003	-0.094
-231.786	-21.882	-0.071	-0.043
-230.771	-120.472	-0.135	-0.023
-229.757	800.000	-0.049	-0.201
-228.742	378.417	-0.070	-0.144
-227.727	24.501	-0.162	-0.134
-226.713	401.023	-0.182	0.382
-225.698	-200.000	-0.067	0.324
-224.684	26.990	0.133	-0.111
-223.669	249.207	0.188	-0.318
-222.655	-24.618	-0.108	0.064
-221.640	-136.081	0.285	-0.033
-220.625	120.963	-0.064	0.080
-219.611	-34.900	-0.105	-0.057
-218.596	-91.875	0.229	0.065
-217.582	368.588	0.129	-0.260
-216.567	-33.330	-0.175	-0.097
-215.552	232.516	0.051	-0.083
-214.538	-200.000	0.011	-0.059
-213.523	69.092	-0.202	0.208
-212.509	417.471	0.105	0.223
-211.494	-24.693	0.335	0.199
-210.479	-124.513	-0.219	0.034
-209.465	-167.175	-0.274	0.011
-208.450	-106.109	0.288	-0.065
-207.436	20.936	0.191	-0.155
-206.421	-190.784	0.233	-0.002
-205.406	183.935	-0.091	-0.134
-204.392	-6.988	-0.111	0.076
-203.377	247.258	0.066	0.111
-202.363	-118.336	0.345	-0.061
-201.348	-92.835	-0.177	0.049
-200.333	800.000	0.018	0.054
-199.319	800.000	0.114	-0.406
-198.304	89.818	-0.146	0.163
-197.290	63.038	0.070	-0.070
-196.275	559.612	-0.112	0.269
-195.260	370.814	0.129	0.261
-194.246	-40.091	-0.288	0.150
-193.231	800.000	-0.058	-0.196
-192.217	-159.413	0.177	-0.010
-191.202	-55.528	0.203	-0.091
-190.187	100.927	0.251	0.292
-189.173	119.670	0.164	0.203
-188.158	35.370	0.081	0.071
-187.144	-10.720	0.194	0.128
-186.129	485.760	0.102	-0.232
-185.114	80.567	0.299	0.322
-184.100	-93.741	0.317	-0.087
-183.085	166.555	-0.054	-0.076
-182.071	64.899	0.100	0.101
-181.056	126.492	-0.094	0.119
-180.042	72.680	0.032	-0.033
-179.027	800.000	-0.092	0.347
-178.012	-200.000	-0.019	0.307
-176.998	-22.989	-0.138	-0.083
-175.983	-47.964	0.242	0.117
-174.969	800.000	0.076	0.330
-173.954	25.571	-0.276	-0.230
-172.939	-39.362	0.367	-0.192
-171.925	429.975	-0.062	0.134
-170.910	-200.000	0.013	0.239
-169.896	800.000	-0.024	0.097
-168.881	-24.553	0.112	0.067
-167.866	-136.951	-0.266	-0.030
-166.852	-65.505	0.146	-0.058
-165.837	-183.931	0.197	0.003
-164.823	-126.288	-0.483	-0.072
-163.808	800.000	0.043	-0.138
-162.793	-168.940	-0.083	-0.003
-161.779	34.009	-0.153	-0.133
-160.764	29.273	-0.068	-0.058
-159.750	800.000	-0.048	-0.210
-158.735	144.393	0.134	-0.179
-157.720	358.109	0.250	-0.498
-156.706	273.518	0.060	0.106
-155.691	74.677	-0.189	0.199
-154.677	121.968	0.011	-0.014
-153.662	399.569	-0.191	-0.400
-152.647	4.561	0.253	-0.186
-151.633	-78.989	-0.141	-0.048
-150.618	24.217	0.278	-0.229
-149.604	-15.000	-0.222	-0.142
-148.589	789.338	-0.066	-0.180
-147.574	113.281	0.129	0.156
-146.560	292.644	-0.121	0.220
-145.545	144.027	-0.213	0.284
-144.531	-12.608	-0.224	0.146
-143.516	-200.000	-0.000	0.108
-142.502	54.299	0.229	0.220
-141.487	69.497	0.103	0.106
-140.472	468.065	0.178	0.398
-139.458	-181.358	-0.403	0.008
-138.443	-179.893	0.181	0.004
-137.429	-22.635	0.332	0.200
-136.414	-52.633	0.110	-0.051
-135.399	159.346	-0.084	-0.117
-134.385	216.964	0.250	0.396
-133.370	-18.282	0.230	-0.144
-132.356	-8.988	-0.172	-0.115
-131.341	11.698	-0.208	0.160
-130.326	-185.755	-0.317	-0.005
-129.312	-200.000	-0.055	0.280
-128.297	800.000	0.051	0.213
-127.283	-198.726	-0.249	0.001
-126.268	-45.544	0.320	0.158
-125.253	-81.496	-0.309	-0.101
-124.239	-130.507	0.406	0.055
-123.224	135.016	-0.241	0.312
-122.210	800.000	0.101	0.424
-121.195	27.636	-0.333	0.280
