DTS Sentinel unit serial number:	SN413079Multiplexer serial number:	ORYXHardware model number:	OX4-SRSoftware version number:	ORYX F/W v4.00 Oryx Data Collector v3.7.2.0data status	okinstallation	princeton_trtdifferential loss correction	single-endedforward channel	channel 4reverse channel	N/Adate	2019/09/16time	07:33:34forward acquisition time	60.00reverse acquisition time	0.00gamma	496.2192k internal	0.2319k external	0.2319temperature offset calibration	0.9979default loss term (dB/km)	0.3790temperature slope calibration	1.0000multiplexer offset coefficient	1.0000multiplexer slope coefficient	1.0000fibre end	0.00T internal ref (°C)	27.69T ext. ref 1 (°C)	11.64T ext. ref 2 (°C)	24.11length (m)	temperature (°C)	Stokes	anti-Stokes-747.200	99.763	-0.235	-0.275
-746.185	-200.000	-0.021	-0.261
-745.171	147.990	-0.048	0.066
-744.156	-93.082	-0.291	0.082
-743.142	-134.693	-0.212	-0.026
-742.127	800.000	-0.049	0.143
-741.112	-22.012	0.208	0.128
-740.098	-15.430	-0.113	0.073
-739.083	-200.000	-0.066	-0.370
-738.069	800.000	-0.069	0.237
-737.054	123.889	0.022	-0.028
-736.039	-29.178	-0.449	-0.260
-735.025	129.456	0.234	0.303
-734.010	19.494	-0.282	0.230
-732.996	-200.000	-0.037	0.231
-731.981	72.170	0.177	0.187
-730.966	449.487	-0.104	-0.233
-729.952	-83.653	-0.196	0.063
-728.937	-129.056	-0.195	0.028
-727.923	800.000	-0.069	0.261
-726.908	203.337	-0.091	-0.142
-725.894	-127.418	-0.301	-0.044
-724.879	10.904	-0.064	0.049
-723.864	351.434	0.115	-0.230
-722.850	-101.009	0.251	0.062
-721.835	-5.226	0.245	0.170
-720.821	-58.414	0.153	0.067
-719.806	37.292	-0.148	-0.133
-718.791	-200.000	0.027	-0.231
-717.777	133.926	-0.156	-0.204
-716.762	-22.992	0.264	-0.161
-715.748	-87.821	0.154	0.047
-714.733	-162.600	0.178	-0.009
-713.718	122.443	-0.173	0.218
-712.704	-24.154	-0.219	-0.132
-711.689	34.066	-0.161	0.142
-710.675	-93.384	0.338	0.095
-709.660	-159.484	-0.247	0.014
-708.645	251.683	0.039	-0.067
-707.631	-43.379	0.060	-0.030
-706.616	800.000	-0.036	0.131
-705.602	-200.000	0.044	-0.218
-704.587	94.022	-0.187	0.214
-703.572	-70.140	0.128	-0.049
-702.558	-122.401	-0.184	0.030
-701.543	-200.000	0.018	-0.117
-700.529	-200.000	0.022	0.255
-699.514	224.520	0.115	-0.187
-698.499	232.056	0.235	0.389
-697.485	-108.300	0.106	-0.023
-696.470	800.000	-0.202	0.631
-695.456	79.152	-0.183	0.198
-694.441	216.823	-0.068	-0.109
-693.426	0.589	-0.291	0.210
-692.412	60.659	0.111	-0.111
-691.397	84.908	0.201	-0.222
-690.383	58.214	-0.132	0.130
-689.368	135.433	0.069	0.090
-688.354	-168.422	0.237	-0.009
-687.339	169.518	-0.046	0.066
-686.324	81.736	-0.228	-0.249
-685.310	292.641	0.045	0.083
-684.295	-200.000	0.018	0.176
-683.281	-146.015	0.119	-0.011
-682.266	69.732	-0.154	0.160
-681.251	-120.691	0.251	0.043
-680.237	-96.572	-0.073	-0.019
-679.222	343.225	-0.083	-0.165
-678.208	-200.000	0.007	-0.112
-677.193	90.050	-0.120	-0.136
-676.178	-47.299	0.145	0.071
-675.164	-200.000	-0.008	0.246
-674.149	32.008	0.182	0.158
-673.135	-200.000	0.061	0.374
-672.120	-200.000	-0.040	0.478
-671.105	800.000	-0.051	0.217
-670.091	-47.806	0.165	0.081
-669.076	298.301	0.186	-0.345
-668.062	-200.000	-0.065	-0.335
-667.047	-77.524	0.157	-0.055
-666.032	97.226	0.249	0.288
-665.018	800.000	-0.053	-0.230
-664.003	-140.697	0.327	-0.034
-662.989	319.031	0.164	-0.314
-661.974	-200.000	0.025	-0.134
-660.959	345.616	0.056	-0.112
-659.945	58.871	0.258	0.256
-658.930	-84.857	0.326	0.103
-657.916	-200.000	-0.062	-0.475
-656.901	-200.000	0.018	0.141
-655.886	-200.000	-0.005	-0.093
-654.872	655.666	0.073	-0.189
-653.857	-200.000	-0.060	-0.295
-652.843	121.178	-0.150	-0.188
-651.828	13.095	-0.297	-0.232
-650.814	19.689	0.218	0.177
-649.799	-73.635	-0.052	-0.019
-648.784	-200.000	0.014	0.211
-647.770	103.334	-0.150	0.178
-646.755	-61.559	0.356	-0.151
-645.741	-200.000	0.008	-0.172
-644.726	497.360	0.017	0.039
-643.711	-200.000	-0.046	0.357
-642.697	-0.816	0.055	0.039
-641.682	711.808	0.127	-0.339
-640.668	2.221	-0.290	0.211
-639.653	-200.000	0.044	-0.284
-638.638	-68.686	-0.159	0.062
-637.624	15.506	-0.270	0.214
-636.609	-28.388	0.226	-0.131
-635.595	30.979	0.171	-0.148
-634.580	443.292	-0.039	-0.086
-633.565	800.000	-0.036	-0.123
-632.551	416.882	0.089	0.191
-631.536	-108.440	0.096	-0.021
-630.522	800.000	-0.093	0.297
-629.507	323.996	-0.086	-0.166
-628.492	224.553	0.117	-0.190
-627.478	40.380	0.156	-0.142
-626.463	-122.381	-0.310	-0.051
-625.449	-200.000	0.070	-0.356
-624.434	-28.627	0.101	0.059
-623.419	-69.336	0.040	0.015
-622.405	-200.000	-0.012	0.125
-621.390	658.989	0.120	0.312
-620.376	-200.000	-0.002	0.273
-619.361	64.058	0.191	-0.194
-618.346	127.408	0.290	0.371
-617.332	800.000	-0.097	0.284
-616.317	-4.456	-0.339	-0.236
-615.303	-83.200	-0.056	0.018
-614.288	230.206	0.198	0.326
-613.273	-200.000	0.029	0.200
-612.259	-6.735	0.275	-0.189
-611.244	0.676	-0.160	-0.115
-610.230	-53.503	-0.202	0.093
-609.215	108.917	-0.177	-0.213
-608.201	-89.840	0.169	-0.050
-607.186	562.215	0.073	-0.178
-606.171	-122.108	0.281	0.046
-605.157	381.535	-0.172	-0.356
-604.142	-171.147	0.111	-0.004
-603.128	279.268	-0.141	0.254
-602.113	-145.371	0.416	0.038
-601.098	223.231	-0.015	-0.024
-600.084	462.402	-0.078	-0.175
-599.069	800.000	-0.057	-0.180
-598.055	61.506	-0.179	-0.180
-597.040	-200.000	0.001	0.095
-596.025	149.325	-0.047	0.064
-595.011	400.800	-0.165	-0.348
-593.996	249.369	0.177	0.301
-592.982	-32.779	0.132	-0.074
-591.967	18.956	0.312	0.252
-590.952	-53.279	0.199	-0.092
-589.938	-200.000	-0.018	0.107
-588.923	-95.423	-0.251	0.068
-587.909	243.272	-0.059	-0.099
-586.894	12.247	-0.513	0.397
-585.879	185.063	-0.057	-0.086
-584.865	-141.504	-0.305	0.031
-583.850	671.636	-0.057	-0.149
-582.836	-161.430	0.071	-0.004
-581.821	-137.988	-0.284	0.032
-580.806	43.701	0.113	0.104
-579.792	609.178	-0.099	-0.247
-578.777	86.130	-0.104	0.115
-577.763	-122.904	-0.255	0.041
-576.748	-143.141	0.193	0.019
-575.733	-27.392	-0.366	0.214
-574.719	-96.914	-0.135	-0.036
-573.704	-158.830	0.115	0.007
-572.690	37.766	0.133	-0.119
-571.675	-200.000	0.008	0.180
-570.661	-200.000	-0.026	-0.180
-569.646	-200.000	-0.009	-0.341
-568.631	-76.873	-0.170	-0.060
-567.617	86.505	0.124	-0.137
-566.602	-200.000	-0.110	-0.597
-565.588	796.151	0.084	-0.234
-564.573	150.595	-0.051	-0.069
-563.558	800.000	-0.071	-0.291
-562.544	217.937	0.131	-0.209
-561.529	-106.307	-0.114	-0.026
-560.515	-18.768	-0.381	0.238
-559.500	-64.648	0.253	-0.103
-558.485	144.335	-0.070	0.094
-557.471	-21.107	0.216	0.133
-556.456	-200.000	0.019	0.144
-555.442	-200.000	0.006	-0.143
-554.427	-25.325	0.048	0.028
-553.412	800.000	0.053	-0.157
-552.398	32.410	-0.306	-0.265
-551.383	800.000	-0.043	-0.177
-550.369	-28.568	-0.065	-0.038
-549.354	50.656	-0.206	0.196
-548.339	-88.691	-0.183	0.055
-547.325	349.064	0.096	-0.191
-546.310	-41.138	0.253	0.131
-545.296	54.345	-0.081	-0.079
-544.281	-14.465	0.127	0.082
-543.266	-170.394	-0.116	0.004
-542.252	307.822	-0.168	-0.315
-541.237	-96.402	-0.350	-0.093
-540.223	-144.007	0.054	0.005
-539.208	-36.283	-0.029	-0.016
-538.193	-68.466	-0.194	-0.076
-537.179	26.893	-0.074	-0.062
-536.164	-200.000	-0.009	0.227
-535.150	11.873	0.345	-0.266
-534.135	10.048	-0.196	0.149
-533.121	-150.068	0.474	0.037
-532.106	-200.000	0.030	0.203
-531.091	-22.649	-0.202	0.123
-530.077	-84.860	0.470	0.148
-529.062	-200.000	0.044	-0.283
-528.048	-104.961	-0.156	-0.036
-527.033	-9.238	0.428	0.287
-526.018	253.315	0.122	0.209
-525.004	-89.804	-0.157	-0.046
-523.989	-56.880	0.171	0.076
-522.975	457.222	-0.157	0.350
-521.960	654.097	-0.131	-0.336
-520.945	42.509	-0.297	-0.271
-519.931	-200.000	-0.055	0.280
-518.916	100.109	-0.043	-0.050
-517.902	-200.000	-0.021	-0.256
-516.887	-60.737	0.245	-0.104
-515.872	-200.000	-0.036	-0.313
-514.858	184.366	-0.087	-0.129
-513.843	50.437	-0.297	0.282
-512.829	-14.149	-0.451	0.292
-511.814	76.320	-0.129	0.137
-510.799	216.393	0.104	0.165
-509.785	-13.616	0.100	0.065
-508.770	800.000	0.039	0.141
-507.756	173.006	0.125	-0.180
-506.741	-200.000	0.035	-0.207
-505.726	-44.326	0.109	-0.055
-504.712	-121.732	0.202	-0.033
-503.697	3.898	-0.275	0.201
-502.683	-2.413	-0.365	-0.256
-501.668	-179.825	0.104	0.002
-500.653	-52.789	0.095	0.044
-499.639	800.000	-0.011	0.042
-498.624	317.309	-0.021	0.040
-497.610	-119.733	0.232	0.040
-496.595	103.850	-0.085	-0.100
-495.581	-200.000	0.014	0.107
-494.566	800.000	0.011	0.035
-493.551	800.000	-0.042	-0.175
-492.537	-181.533	-0.331	0.006
-491.522	-61.915	0.031	0.013
-490.508	-147.526	0.271	-0.023
-489.493	209.772	-0.073	0.115
-488.478	-90.611	-0.147	0.042
-487.464	-12.260	0.338	-0.221
-486.449	-73.135	0.129	-0.047
-485.435	-200.000	-0.061	-0.307
-484.420	800.000	0.030	-0.115
-483.405	-200.000	0.046	0.251
-482.391	-128.446	0.332	0.047
-481.376	-200.000	-0.075	-0.371
-480.362	-200.000	-0.001	-0.378
-479.347	-63.722	-0.183	0.075
-478.332	800.000	0.059	-0.192
-477.318	216.289	0.105	-0.166
-476.303	112.153	0.172	0.209
-475.289	-54.760	0.099	0.045
-474.274	-50.120	-0.168	-0.080
-473.259	540.569	0.027	0.064
-472.245	-12.408	-0.232	0.152
-471.230	-131.654	0.355	0.047
-470.216	800.000	-0.012	0.044
-469.201	-16.563	-0.217	-0.138
-468.186	800.000	0.084	0.270
-467.172	269.285	0.142	0.250
-466.157	77.987	-0.282	-0.301
-465.143	-200.000	-0.004	0.340
-464.128	-200.000	-0.045	0.263
-463.113	120.166	0.073	0.091
-462.099	800.000	-0.117	0.349
-461.084	-93.408	0.242	0.067
-460.070	416.940	0.037	0.080
-459.055	244.096	-0.095	-0.160
-458.040	-137.458	0.090	0.010
-457.026	800.000	0.095	0.384
-456.011	-106.103	0.110	0.025
-454.997	-200.000	0.003	0.067
-453.982	218.133	-0.148	-0.237
-452.968	-200.000	0.033	0.229
-451.953	-90.812	0.218	-0.063
-450.938	-120.638	0.184	0.031
-449.924	-14.853	-0.099	0.063
-448.909	-41.085	0.392	0.202
-447.895	-16.523	-0.080	-0.051
-446.880	-29.656	-0.198	0.113
-445.865	343.041	-0.053	0.104
-444.851	-107.083	-0.085	-0.019
-443.836	345.002	-0.065	-0.127
-442.822	-73.190	-0.107	0.039
-441.807	-200.000	0.018	-0.311
-440.792	-164.201	0.200	0.009
-439.778	102.686	0.118	-0.138
-438.763	-200.000	-0.060	0.293
-437.749	800.000	-0.043	-0.184
-436.734	-200.000	-0.036	0.199
-435.719	-200.000	0.014	-0.120
-434.705	-200.000	0.016	0.199
-433.690	-195.554	0.150	-0.001
-432.676	-72.971	-0.231	0.085
-431.661	-66.569	-0.171	0.068
-430.646	-16.968	-0.265	0.167
-429.632	-37.954	0.136	-0.072
-428.617	72.763	0.115	-0.120
-427.603	800.000	-0.047	-0.137
-426.588	10.036	0.110	-0.083
-425.573	434.425	-0.135	-0.293
-424.559	800.000	-0.039	0.163
-423.544	5.425	-0.130	-0.096
-422.530	-11.983	-0.171	0.112
-421.515	-136.567	0.106	-0.012
-420.500	-200.000	0.007	0.302
-419.486	-2.095	0.085	0.060
-418.471	-200.000	-0.034	-0.349
-417.457	131.013	0.087	0.111
-416.442	53.215	-0.109	-0.104
-415.428	-50.253	0.210	-0.099
-414.413	-32.472	-0.303	0.169
-413.398	-120.294	0.152	0.026
-412.384	-126.587	-0.294	-0.044
-411.369	15.725	-0.093	0.073
-410.355	800.000	0.072	0.304
-409.340	499.051	-0.100	0.230
-408.325	-29.794	-0.061	0.035
-407.311	-91.157	0.308	-0.088
-406.296	-60.252	-0.050	-0.021
-405.282	-77.297	0.034	0.012
-404.267	45.531	0.040	0.037
-403.252	-200.000	-0.099	0.526
-402.238	-106.182	0.139	0.031
-401.223	173.772	0.237	-0.342
-400.209	-124.890	0.253	0.039
-399.194	532.919	0.053	-0.124
-398.179	-200.000	-0.021	0.307
-397.165	-20.537	0.143	0.088
-396.150	-130.597	0.168	-0.023
-395.136	-40.844	0.126	0.065
-394.121	-167.789	0.260	0.010
-393.106	800.000	0.085	-0.253
-392.092	-10.468	0.174	-0.115
-391.077	110.119	-0.198	-0.237
-390.063	-42.886	0.253	0.128
-389.048	-37.382	0.214	0.114
-388.033	-192.932	-0.201	0.002
-387.019	-14.621	0.055	-0.035
-386.004	188.734	0.142	-0.213
-384.990	300.297	-0.215	0.396
-383.975	-195.601	-0.534	0.004
-382.960	-85.164	-0.223	-0.070
-381.946	-200.000	-0.008	0.088
-380.931	512.087	-0.082	-0.191
-379.917	800.000	0.018	-0.065
-378.902	-160.520	0.182	-0.010
-377.888	-200.000	0.000	-0.307
-376.873	288.409	-0.077	0.139
-375.858	154.387	0.057	0.077
-374.844	-84.963	-0.526	0.165
-373.829	-139.838	0.344	-0.036
-372.815	-106.010	-0.291	-0.065
-371.800	289.788	0.117	-0.211
-370.785	68.426	-0.092	-0.094
-369.771	-65.555	-0.402	0.161
-368.756	20.937	0.142	-0.115
-367.742	204.555	0.078	-0.121
-366.727	489.383	0.180	0.410
-365.712	800.000	-0.092	0.276
-364.698	406.125	0.046	-0.096
-363.683	203.892	0.070	0.108
-362.669	279.528	-0.089	-0.158
-361.654	800.000	-0.023	0.090
-360.639	26.519	0.153	-0.128
-359.625	-57.516	0.324	0.142
-358.610	342.163	-0.150	-0.291
-357.596	-197.968	-0.220	-0.001
-356.581	-82.823	0.274	-0.088
-355.566	-112.835	-0.144	0.028
-354.552	211.239	0.316	-0.496
-353.537	-136.709	-0.026	0.003
-352.523	85.816	0.104	0.114
-351.508	-200.000	-0.026	-0.326
-350.493	800.000	-0.015	0.065
-349.479	-167.484	0.241	-0.010
-348.464	502.562	0.032	-0.074
-347.450	-57.011	-0.123	0.054
-346.435	-200.000	0.058	-0.320
-345.420	221.372	-0.088	-0.141
-344.406	-200.000	0.029	-0.158
-343.391	-103.103	-0.136	-0.032
-342.377	-122.885	0.266	0.043
-341.362	-11.190	0.089	0.058
-340.348	171.221	-0.197	-0.282
-339.333	-121.008	-0.367	-0.061
-338.318	126.780	0.042	0.053
-337.304	334.126	0.187	-0.361
-336.289	208.802	0.009	-0.014
-335.275	18.818	-0.022	-0.017
-334.260	-55.275	0.207	-0.093
-333.245	-162.164	-0.188	0.009
-332.231	-156.129	0.443	0.028
-331.216	-115.563	-0.287	0.054
-330.202	800.000	0.087	-0.338
-329.187	-11.401	-0.395	-0.259
-328.172	78.780	-0.109	-0.116
-327.158	9.912	0.129	0.098
-326.143	-92.583	-0.091	0.025
-325.129	-19.876	-0.247	-0.152
-324.114	323.753	0.136	-0.259
-323.099	590.016	0.114	-0.279
-322.085	26.644	0.289	0.241
-321.070	38.685	-0.050	-0.044
-320.056	-200.000	-0.014	-0.116
-319.041	649.735	-0.044	0.113
-318.026	135.036	0.328	0.424
-317.012	192.341	0.073	-0.109
-315.997	31.426	0.244	-0.208
-314.983	-50.091	-0.077	-0.036
-313.968	-13.520	-0.228	0.147
-312.953	-79.096	0.389	-0.131
-311.939	-200.000	-0.021	-0.241
-310.924	320.130	0.122	0.230
-309.910	-34.782	-0.084	-0.045
-308.895	-120.552	0.501	0.085
-307.880	10.761	-0.184	-0.140
-306.866	800.000	-0.046	-0.130
-305.851	183.579	-0.117	0.172
-304.837	691.768	0.005	-0.013
-303.822	-26.954	-0.060	-0.035
-302.807	-39.165	0.132	-0.069
-301.793	-153.702	0.315	-0.022
-300.778	5.100	0.172	0.126
-299.764	-200.000	0.053	0.366
-298.749	-161.449	0.559	0.029
-297.735	-200.000	-0.010	0.283
-296.720	-200.000	-0.035	0.277
-295.705	800.000	0.038	-0.115
-294.691	-82.011	-0.075	-0.024
-293.676	-178.929	0.016	-0.000
-292.662	29.469	0.321	0.271
-291.647	81.623	0.142	-0.153
-290.632	36.049	-0.045	-0.039
-289.618	-200.000	0.028	-0.263
-288.603	-200.000	-0.077	0.339
-287.589	800.000	0.054	0.200
-286.574	-200.000	0.011	0.263
-285.559	-200.000	0.001	-0.231
-284.545	-200.000	0.003	-0.088
-283.530	184.296	-0.030	-0.044
-282.516	-163.812	-0.519	-0.024
-281.501	-191.781	-0.173	-0.002
-280.486	-200.000	0.055	0.311
-279.472	186.106	-0.063	0.093
-278.457	-200.000	-0.005	0.092
-277.443	468.220	0.146	0.325
-276.428	93.097	-0.366	-0.411
-275.413	39.768	-0.022	0.020
-274.399	-167.580	0.205	-0.008
-273.384	-200.000	-0.029	0.168
-272.370	-140.656	-0.169	0.017
-271.355	7.783	-0.065	-0.048
-270.340	-40.473	0.108	0.056
-269.326	203.500	-0.157	0.241
-268.311	-200.000	0.035	0.210
-267.297	-200.000	-0.001	0.281
-266.282	312.457	-0.055	-0.102
-265.267	39.360	-0.224	-0.199
-264.253	-69.006	0.368	-0.141
-263.238	-33.330	0.140	-0.077
-262.224	-200.000	0.025	-0.283
-261.209	499.166	0.142	0.325
-260.195	-117.190	0.097	0.018
-259.180	-38.582	-0.277	0.145
-258.165	-62.743	0.065	0.027
-257.151	-200.000	0.038	0.242
-256.136	-150.418	0.285	-0.022
-255.122	109.771	-0.217	0.258
-254.107	-200.000	-0.013	-0.175
-253.092	-42.753	-0.210	-0.106
-252.078	-56.418	-0.506	0.223
-251.063	-158.157	0.246	-0.014
-250.049	149.800	0.116	0.156
-249.034	-200.000	-0.037	-0.203
-248.019	-174.492	0.288	0.008
-247.005	-84.476	0.290	0.091
-245.990	36.665	-0.135	-0.118
-244.976	800.000	0.028	-0.112
-243.961	38.763	-0.059	0.052
-242.946	71.918	-0.064	0.066
-241.932	-73.033	0.170	0.062
-240.917	-110.507	-0.238	0.049
-239.903	412.184	0.077	0.161
-238.888	-75.521	-0.083	0.029
-237.873	271.041	0.038	-0.066
-236.859	800.000	0.022	0.081
-235.844	-143.219	-0.038	0.004
-234.830	54.966	-0.187	-0.179
-233.815	110.968	-0.074	0.088
-232.800	-58.539	-0.022	0.009
-231.786	-104.328	0.310	0.071
-230.771	-200.000	-0.065	-0.333
-229.757	-61.900	0.262	-0.108
-228.742	569.065	0.004	-0.009
-227.727	-200.000	-0.024	-0.115
-226.713	800.000	-0.044	0.124
-225.698	-200.000	-0.007	-0.181
-224.684	215.022	0.093	0.147
-223.669	-107.310	0.067	0.015
-222.655	800.000	0.070	0.204
-221.640	453.758	0.027	-0.060
-220.625	-99.613	-0.271	0.067
-219.611	18.278	0.061	0.048
-218.596	180.482	-0.057	0.083
-217.582	-45.717	-0.038	0.019
-216.567	124.301	-0.149	0.186
-215.552	-66.945	0.446	-0.175
-214.538	-80.467	-0.098	-0.032
-213.523	-200.000	0.001	-0.272
-212.509	-200.000	0.002	-0.158
-211.494	-48.680	-0.188	0.090
-210.479	352.274	0.090	-0.176
-209.465	8.314	-0.160	-0.119
-208.450	39.303	0.139	-0.123
-207.436	491.067	0.046	-0.105
-206.421	-155.487	-0.244	-0.016
-205.406	29.383	-0.086	0.073
-204.392	-116.256	-0.231	-0.042
-203.377	-200.000	-0.002	-0.446
-202.363	-200.000	0.015	0.244
-201.348	166.204	0.085	0.120
-200.333	11.280	-0.315	-0.239
-199.319	800.000	-0.083	-0.245
-198.304	-200.000	-0.022	0.189
-197.290	-102.722	-0.264	0.062
-196.275	-119.299	0.250	0.043
-195.260	188.083	0.057	-0.084
-194.246	-200.000	-0.007	-0.135
-193.231	-156.400	0.136	-0.008
-192.217	-200.000	-0.007	-0.243
-191.202	-133.990	-0.063	-0.008
-190.187	-200.000	0.006	-0.134
-189.173	800.000	-0.077	-0.217
-188.158	2.091	-0.178	0.128
-187.144	124.480	0.185	-0.231
-186.129	-200.000	-0.020	0.249
-185.114	281.319	0.124	-0.219
-184.100	-73.406	0.197	0.071
-183.085	-107.292	0.132	0.029
-182.071	800.000	0.033	-0.091
-181.056	-22.167	0.241	0.145
-180.042	-200.000	0.084	0.480
-179.027	500.459	-0.085	0.195
-178.012	-88.467	-0.284	0.084
-176.998	-200.000	0.000	-0.009
-175.983	382.653	0.083	0.168
-174.969	-52.760	0.183	0.083
-173.954	256.062	0.121	-0.205
-172.939	33.647	-0.128	-0.110
-171.925	610.385	0.066	0.163
-170.910	-200.000	0.013	0.142
-169.896	677.388	-0.022	-0.056
-168.881	-161.609	-0.208	0.011
-167.866	67.790	-0.091	0.092
-166.852	-200.000	-0.034	-0.210
-165.837	345.924	-0.095	0.186
-164.823	-200.000	0.002	0.040
-163.808	-200.000	-0.027	0.327
-162.793	800.000	-0.044	-0.151
-161.779	-41.498	0.116	-0.059
-160.764	-102.464	0.164	0.039
-159.750	-47.713	-0.114	0.055
-158.735	-107.613	-0.193	0.042
-157.720	800.000	-0.122	0.491
-156.706	42.900	0.056	0.050
-155.691	-116.491	-0.296	0.054
-154.677	52.592	-0.240	0.227
-153.662	767.050	-0.009	-0.025
-152.647	512.654	-0.094	0.217
-151.633	-96.394	-0.235	0.061
-150.618	625.075	-0.141	-0.352
-149.604	263.530	0.041	-0.070
-148.589	-189.745	0.510	-0.006
-147.574	-150.272	0.186	0.014
-146.560	-200.000	0.021	0.173
-145.545	-17.036	0.045	-0.028
-144.531	-25.505	0.127	0.074
-143.516	368.751	-0.103	0.205
-142.502	-138.560	0.204	0.022
-141.487	-200.000	-0.016	0.195
-140.472	800.000	0.093	0.322
-139.458	-172.334	-0.116	0.004
-138.443	142.697	-0.138	-0.181
-137.429	-50.840	0.198	0.092
-136.414	15.485	-0.137	0.106
-135.399	-106.339	-0.275	0.061
-134.385	744.827	-0.069	0.184
-133.370	330.558	0.121	0.231
-132.356	-27.441	-0.241	-0.139
-131.341	191.591	-0.143	-0.212
-130.326	494.685	-0.106	-0.241
-129.312	-200.000	0.039	-0.233
-128.297	145.362	-0.201	0.266
-127.283	800.000	0.039	-0.142
-126.268	800.000	0.070	0.294
-125.253	-200.000	0.014	0.505
-124.239	167.936	0.209	0.294
-123.224	-200.000	0.020	0.096
-122.210	310.829	-0.139	0.257
