DTS Sentinel unit serial number:	SN413079Multiplexer serial number:	ORYXHardware model number:	OX4-SRSoftware version number:	ORYX F/W v4.00 Oryx Data Collector v3.7.2.0data status	okinstallation	princeton_trtdifferential loss correction	single-endedforward channel	channel 4reverse channel	N/Adate	2019/09/19time	05:37:35forward acquisition time	60.00reverse acquisition time	0.00gamma	496.2192k internal	0.2340k external	0.2340temperature offset calibration	1.0032default loss term (dB/km)	0.3790temperature slope calibration	1.0000multiplexer offset coefficient	1.0000multiplexer slope coefficient	1.0000fibre end	0.00T internal ref (°C)	19.31T ext. ref 1 (°C)	0.59T ext. ref 2 (°C)	12.87length (m)	temperature (°C)	Stokes	anti-Stokes-747.200	-16.518	0.256	0.163
-746.185	800.000	-0.101	0.321
-745.171	161.122	0.176	0.247
-744.156	283.534	-0.202	0.363
-743.142	800.000	-0.027	-0.095
-742.127	49.168	-0.235	-0.221
-741.112	-79.177	0.148	0.050
-740.098	120.777	-0.320	0.399
-739.083	-86.213	0.295	0.091
-738.069	40.507	-0.322	0.291
-737.054	-47.841	0.199	0.097
-736.039	77.041	0.178	0.190
-735.025	66.138	0.157	-0.160
-734.010	556.052	-0.112	-0.271
-732.996	-200.000	-0.042	-0.215
-731.981	-18.168	-0.327	0.205
-730.966	-90.919	-0.131	0.038
-729.952	-200.000	0.023	-0.172
-728.937	123.951	-0.122	0.154
-727.923	-200.000	0.009	0.228
-726.908	-5.952	-0.183	0.125
-725.894	-57.246	0.337	-0.148
-724.879	800.000	-0.048	0.140
-723.864	-59.264	-0.164	0.071
-722.850	128.912	0.188	-0.241
-721.835	314.936	0.100	-0.189
-720.821	476.945	0.115	-0.260
-719.806	365.100	-0.128	-0.257
-718.791	131.985	-0.165	-0.213
-717.777	6.575	-0.221	0.165
-716.762	156.756	0.266	0.368
-715.748	371.860	0.029	0.060
-714.733	-200.000	0.010	-0.341
-713.718	753.448	0.049	-0.134
-712.704	-34.105	0.179	0.099
-711.689	-93.404	-0.265	0.073
-710.675	81.641	0.100	0.109
-709.660	-7.580	0.178	-0.121
-708.645	-111.660	-0.217	-0.044
-707.631	-45.561	-0.161	-0.080
-706.616	-166.800	0.307	-0.013
-705.602	171.741	0.100	0.144
-704.587	405.708	0.033	-0.070
-703.572	15.513	0.196	0.154
-702.558	-167.540	0.169	0.007
-701.543	-200.000	0.034	-0.187
-700.529	530.735	-0.179	-0.422
-699.514	-200.000	-0.010	-0.152
-698.499	-200.000	-0.019	0.294
-697.485	-200.000	0.004	0.186
-696.470	3.908	-0.144	-0.105
-695.456	339.715	-0.129	-0.252
-694.441	-31.610	-0.148	0.083
-693.426	-200.000	-0.028	-0.126
-692.412	-200.000	0.032	-0.145
-691.397	-136.178	-0.162	0.019
-690.383	-200.000	0.022	0.333
-689.368	120.331	-0.307	-0.381
-688.354	800.000	0.090	-0.292
-687.339	131.957	0.232	-0.299
-686.324	-144.473	0.113	-0.010
-685.310	9.315	-0.196	0.148
-684.295	129.199	-0.092	-0.117
-683.281	666.803	0.101	0.260
-682.266	129.844	0.017	0.021
-681.251	83.016	0.041	-0.044
-680.237	292.816	-0.095	0.173
-679.222	-162.465	-0.140	0.007
-678.208	-182.581	-0.109	-0.002
-677.193	147.151	0.145	-0.195
-676.178	294.656	-0.092	-0.168
-675.164	800.000	0.059	-0.225
-674.149	438.044	0.184	0.400
-673.135	144.707	-0.105	0.141
-672.120	-165.223	0.368	-0.016
-671.105	-129.058	-0.526	0.074
-670.091	800.000	-0.020	-0.083
-669.076	-82.656	0.159	0.051
-668.062	-104.095	-0.396	0.092
-667.047	347.027	0.032	-0.062
-666.032	55.898	0.071	-0.069
-665.018	99.604	0.122	-0.141
-664.003	-200.000	-0.033	-0.315
-662.989	-1.573	-0.207	-0.146
-661.974	800.000	0.201	-0.570
-660.959	-24.907	-0.128	-0.076
-659.945	-74.048	-0.158	0.057
-658.930	541.514	-0.133	0.316
-657.916	-4.157	-0.080	-0.055
-656.901	800.000	0.082	0.251
-655.886	178.237	0.253	0.368
-654.872	-140.252	-0.123	0.013
-653.857	-77.964	0.139	-0.048
-652.843	569.431	0.022	-0.053
-651.828	725.896	0.049	0.129
-650.814	800.000	-0.117	0.392
-649.799	-200.000	-0.018	-0.390
-648.784	127.930	0.183	-0.233
-647.770	354.180	-0.028	0.056
-646.755	-200.000	-0.007	-0.248
-645.741	-21.869	-0.135	0.082
-644.726	-0.259	-0.227	-0.161
-643.711	560.867	0.033	0.081
-642.697	-200.000	0.053	0.351
-641.682	-59.488	0.329	0.141
-640.668	-28.166	-0.297	-0.171
-639.653	205.499	-0.079	0.123
-638.638	52.541	0.186	0.177
-637.624	127.178	0.106	0.134
-636.609	348.990	-0.090	0.177
-635.595	-142.333	-0.103	0.010
-634.580	170.310	0.302	0.432
-633.565	39.406	0.158	-0.141
-632.551	-200.000	-0.061	-0.278
-631.536	244.476	-0.091	0.153
-630.522	-73.197	0.209	-0.077
-629.507	-200.000	-0.003	0.070
-628.492	42.604	-0.165	-0.149
-627.478	-110.519	0.278	-0.057
-626.463	-96.802	-0.370	0.097
-625.449	-119.615	-0.108	-0.019
-624.434	-43.731	0.256	-0.129
-623.419	800.000	-0.051	-0.205
-622.405	-200.000	-0.321	0.001
-621.390	794.023	0.061	-0.169
-620.376	93.474	0.219	0.247
-619.361	-136.476	0.198	0.023
-618.346	-200.000	0.046	0.233
-617.332	-89.068	0.240	0.071
-616.317	-36.111	0.183	-0.098
-615.303	-77.669	0.204	-0.071
-614.288	20.432	-0.261	0.211
-613.273	-92.331	-0.079	0.022
-612.259	-38.884	-0.142	-0.074
-611.244	-200.000	0.166	0.001
-610.230	543.724	-0.138	0.328
-609.215	769.444	0.169	-0.459
-608.201	-200.000	-0.049	0.219
-607.186	-200.000	-0.014	-0.080
-606.171	800.000	-0.083	0.274
-605.157	9.797	0.079	0.060
-604.142	800.000	-0.051	-0.180
-603.128	119.387	0.065	0.080
-602.113	-66.697	-0.391	-0.154
-601.098	-200.000	-0.063	-0.299
-600.084	-200.000	0.029	-0.265
-599.069	-75.730	-0.305	-0.108
-598.055	-200.000	0.004	-0.163
-597.040	161.819	-0.152	-0.212
-596.025	-200.000	-0.014	-0.069
-595.011	62.806	-0.067	-0.067
-593.996	-177.507	-0.136	-0.003
-592.982	492.503	0.021	0.048
-591.967	-101.046	0.119	0.029
-590.952	-200.000	0.031	-0.291
-589.938	-75.735	-0.081	0.029
-588.923	-130.579	0.111	-0.015
-587.909	3.830	-0.243	-0.177
-586.894	108.388	0.192	0.229
-585.879	-200.000	-0.004	-0.078
-584.865	-10.941	0.111	0.073
-583.850	382.144	0.205	-0.420
-582.836	800.000	-0.036	-0.114
-581.821	-200.000	-0.021	-0.229
-580.806	-200.000	-0.072	0.315
-579.792	800.000	0.055	0.201
-578.777	35.145	0.115	-0.101
-577.763	271.658	0.086	0.152
-576.748	-139.492	-0.054	0.006
-575.733	146.101	0.210	0.281
-574.719	47.298	-0.379	0.352
-573.704	-88.167	0.142	0.042
-572.690	168.573	0.055	-0.078
-571.675	-6.052	-0.282	-0.192
-570.661	35.224	-0.214	-0.187
-569.646	-200.000	-0.067	0.365
-568.631	-200.000	0.001	0.087
-567.617	800.000	-0.104	0.319
-566.602	-58.149	-0.437	0.190
-565.588	800.000	-0.060	-0.202
-564.573	-53.084	0.486	0.222
-563.558	800.000	-0.024	0.068
-562.544	-100.693	0.370	0.091
-561.529	408.758	0.101	0.213
-560.515	-200.000	0.033	0.201
-559.500	73.540	-0.212	-0.221
-558.485	-18.931	-0.384	-0.238
-557.471	-186.421	0.195	0.003
-556.456	-200.000	0.104	0.000
-555.442	663.172	0.051	0.131
-554.427	800.000	-0.078	-0.277
-553.412	-77.830	0.372	-0.128
-552.398	170.163	-0.131	-0.187
-551.383	-19.100	0.217	0.134
-550.369	-200.000	0.006	0.154
-549.354	576.232	-0.104	-0.252
-548.339	-138.773	-0.353	-0.038
-547.325	250.129	-0.007	-0.013
-546.310	-81.217	-0.220	-0.072
-545.296	165.143	-0.042	-0.059
-544.281	163.957	0.245	-0.342
-543.266	261.530	0.219	0.377
-542.252	-43.131	-0.152	-0.077
-541.237	-151.927	-0.261	0.019
-540.223	-200.000	-0.030	0.228
-539.208	-42.285	0.154	0.078
-538.193	-136.474	-0.522	0.060
-537.179	800.000	0.051	0.156
-536.164	800.000	0.178	-0.503
-535.150	54.986	-0.255	0.245
-534.135	4.758	0.105	-0.077
-533.121	159.136	-0.030	0.041
-532.106	-70.379	0.234	-0.088
-531.091	-200.000	-0.027	0.319
-530.077	210.064	0.124	-0.194
-529.062	141.798	-0.245	-0.322
-528.048	-134.853	-0.228	-0.028
-527.033	195.436	0.093	-0.141
-526.018	-145.744	-0.364	0.032
-525.004	-200.000	0.016	0.091
-523.989	-29.824	0.056	-0.032
-522.975	101.422	0.151	-0.174
-521.960	-68.508	0.242	-0.093
-520.945	61.037	-0.079	0.078
-519.931	-78.808	0.216	-0.073
-518.916	-200.000	0.036	0.190
-517.902	-177.279	-0.184	-0.005
-516.887	800.000	-0.057	-0.188
-515.872	-200.000	-0.017	0.297
-514.858	-200.000	0.005	-0.100
-513.843	-96.038	0.403	0.106
-512.829	800.000	-0.012	0.041
-511.814	173.685	-0.251	0.360
-510.799	142.495	0.061	-0.080
-509.785	-200.000	0.010	-0.137
-508.770	187.952	-0.119	-0.177
-507.756	111.861	0.083	0.099
-506.741	-170.006	-0.261	-0.009
-505.726	269.972	-0.029	-0.051
-504.712	-101.612	0.123	0.030
-503.697	-200.000	-0.015	-0.298
-502.683	-49.317	0.019	0.009
-501.668	414.618	-0.143	0.303
-500.653	-81.360	0.261	0.086
-499.639	-63.603	-0.368	0.150
-498.624	-200.000	-0.049	0.313
-497.610	800.000	0.028	0.076
-496.595	47.022	0.209	-0.193
-495.581	-83.012	-0.116	-0.037
-494.566	680.492	-0.110	-0.283
-493.551	100.246	0.053	0.061
-492.537	580.930	-0.115	0.280
-491.522	203.427	-0.029	0.044
-490.508	-102.915	0.292	0.069
-489.493	-200.000	-0.026	-0.374
-488.478	32.821	-0.263	-0.226
-487.464	-138.351	-0.284	-0.031
-486.449	-200.000	0.011	0.139
-485.435	-200.000	0.014	0.234
-484.420	-200.000	0.013	-0.065
-483.405	-138.178	0.099	0.011
-482.391	-200.000	-0.055	-0.293
-481.376	27.487	0.159	-0.133
-480.362	-47.759	-0.274	0.132
-479.347	800.000	-0.144	0.483
-478.332	-76.119	-0.148	-0.052
-477.318	70.810	-0.124	-0.127
-476.303	169.925	0.258	-0.366
-475.289	-33.917	-0.171	0.093
-474.274	-47.485	0.011	-0.005
-473.259	140.674	-0.194	0.254
-472.245	136.580	0.065	-0.084
-471.230	-190.789	0.121	0.001
-470.216	131.948	0.124	0.159
-469.201	512.936	0.098	-0.227
-468.186	-200.000	0.000	-0.184
-467.172	211.815	0.094	-0.146
-466.157	800.000	-0.025	0.094
-465.143	-145.510	-0.136	0.012
-464.128	-17.208	-0.105	-0.065
-463.113	-130.690	0.162	-0.022
-462.099	2.901	-0.532	0.383
-461.084	-102.246	-0.044	-0.010
-460.070	610.483	-0.112	0.279
-459.055	-115.616	-0.278	-0.052
-458.040	-132.264	-0.288	-0.037
-457.026	-57.427	-0.260	0.113
-456.011	72.606	0.094	0.097
-454.997	19.736	0.024	-0.019
-453.982	597.027	-0.077	0.189
-452.968	46.315	-0.302	0.277
-451.953	-200.000	-0.022	-0.293
-450.938	-87.815	0.071	-0.021
-449.924	-200.000	-0.001	-0.036
-448.909	-200.000	-0.004	0.231
-447.895	278.768	-0.268	-0.474
-446.880	258.612	0.108	-0.184
-445.865	313.455	-0.042	-0.078
-444.851	170.043	-0.355	-0.502
-443.836	-200.000	0.001	-0.013
-442.822	163.273	0.039	0.054
-441.807	-101.428	0.082	0.020
-440.792	586.569	0.076	0.184
-439.778	63.455	0.020	-0.020
-438.763	800.000	-0.064	0.182
-437.749	-111.590	-0.439	0.088
-436.734	-59.272	0.430	-0.183
-435.719	-43.902	0.280	0.139
-434.705	-40.109	0.161	0.083
-433.690	175.031	-0.128	-0.183
-432.676	96.681	-0.099	-0.112
-431.661	-200.000	0.007	-0.379
-430.646	-200.000	-0.007	-0.257
-429.632	486.563	0.048	-0.108
-428.617	12.109	0.048	0.037
-427.603	-200.000	-0.027	0.122
-426.588	-85.325	-0.007	-0.002
-425.573	-137.296	-0.202	-0.023
-424.559	-200.000	0.022	0.120
-423.544	26.783	-0.264	-0.219
-422.530	99.644	-0.159	0.183
-421.515	280.960	-0.096	0.170
-420.500	-21.839	-0.047	0.028
-419.486	-164.680	0.347	0.016
-418.471	419.588	0.121	-0.257
-417.457	30.659	-0.206	0.174
-416.442	74.861	-0.119	-0.124
-415.428	-200.000	0.019	0.090
-414.413	190.739	-0.044	0.066
-413.398	-54.904	-0.155	-0.069
-412.384	-68.521	0.261	0.100
-411.369	461.596	-0.071	-0.157
-410.355	-200.000	0.006	-0.077
-409.340	262.546	-0.121	-0.208
-408.325	-200.000	-0.035	-0.179
-407.311	55.082	0.190	0.182
-406.296	-145.301	-0.276	0.025
-405.282	251.014	0.159	-0.268
-404.267	-200.000	0.069	0.522
-403.252	27.999	-0.130	-0.109
-402.238	800.000	-0.079	-0.333
-401.223	-191.298	0.275	0.003
-400.209	3.117	-0.143	0.103
-399.194	-200.000	0.003	0.174
-398.179	353.365	0.207	-0.407
-397.165	-175.291	-0.178	0.005
-396.150	79.099	0.208	0.221
-395.136	-45.420	-0.241	0.118
-394.121	-200.000	-0.031	-0.178
-393.106	219.491	0.019	-0.030
-392.092	41.060	-0.303	0.270
-391.077	-121.040	0.151	-0.025
-390.063	162.550	0.174	0.241
-389.048	623.574	0.082	0.205
-388.033	233.056	-0.163	0.265
-387.019	612.187	-0.196	-0.484
-386.004	-83.646	-0.475	0.150
-384.990	-126.855	-0.134	0.020
-383.975	-200.000	-0.027	-0.262
-382.960	28.890	0.080	-0.067
-381.946	-130.039	-0.251	-0.034
-380.931	-200.000	0.035	0.217
-379.917	15.392	-0.150	-0.116
-378.902	48.711	-0.186	-0.172
-377.888	-42.393	-0.179	-0.090
-376.873	-170.495	-0.137	0.005
-375.858	152.866	-0.131	-0.176
-374.844	104.329	0.211	-0.245
-373.829	155.112	-0.072	0.098
-372.815	-8.593	0.311	0.206
-371.800	608.241	0.035	-0.086
-370.785	-101.763	-0.427	0.102
-369.771	-200.000	0.025	0.292
-368.756	-142.771	-0.058	0.006
-367.742	152.849	0.045	-0.061
-366.727	64.991	0.088	0.087
-365.712	169.703	0.072	-0.101
-364.698	-95.796	0.078	-0.021
-363.683	-104.506	-0.105	0.024
-362.669	-34.278	0.110	-0.060
-361.654	153.606	-0.214	0.290
-360.639	-52.903	-0.120	-0.055
-359.625	304.705	-0.067	-0.123
-358.610	-181.863	-0.270	-0.005
-357.596	-82.538	-0.395	0.127
-356.581	-131.346	0.172	-0.022
-355.566	-91.594	0.237	0.067
-354.552	-42.618	-0.073	-0.037
-353.537	246.742	-0.025	-0.041
-352.523	2.667	0.217	0.155
-351.508	-61.604	-0.124	-0.051
-350.493	188.873	0.136	-0.201
-349.479	11.907	0.252	0.191
-348.464	-169.416	-0.015	0.001
-347.450	150.829	0.259	-0.348
-346.435	800.000	0.059	-0.246
-345.420	-22.821	-0.319	0.190
-344.406	800.000	0.030	-0.117
-343.391	-200.000	0.012	0.145
-342.377	88.622	0.172	0.189
-341.362	-62.183	0.176	0.072
-340.348	800.000	0.012	-0.038
-339.333	-115.761	0.113	-0.021
-338.318	-200.000	-0.011	0.144
-337.304	800.000	-0.070	0.192
-336.289	163.633	0.043	-0.060
-335.275	40.719	-0.096	-0.085
-334.260	-50.288	-0.058	0.027
-333.245	-156.473	0.132	0.008
-332.231	-200.000	-0.025	0.384
-331.216	257.393	0.074	-0.125
-330.202	-121.609	-0.254	-0.042
-329.187	26.482	-0.101	-0.083
-328.172	9.599	-0.174	0.130
-327.158	129.688	0.050	-0.063
-326.143	-108.455	0.056	0.012
-325.129	-200.000	0.050	0.219
-324.114	-40.774	-0.177	0.090
-323.099	-131.211	-0.092	-0.012
-322.085	161.718	-0.155	0.214
-321.070	-200.000	-0.045	0.339
-320.056	20.367	0.090	-0.072
-319.041	-200.000	0.016	0.091
-318.026	71.802	0.288	0.295
-317.012	-61.496	0.286	0.118
-315.997	64.528	-0.098	0.098
-314.983	-200.000	0.000	-0.119
-313.968	140.880	-0.176	0.230
-312.953	-8.336	0.081	0.054
-311.939	129.643	0.199	0.251
-310.924	280.547	-0.208	0.367
-309.910	-200.000	-0.021	0.121
-308.895	-200.000	-0.010	0.051
-307.880	800.000	0.057	0.228
-306.866	353.787	0.013	0.026
-305.851	-200.000	-0.011	0.249
-304.837	-75.300	0.231	0.081
-303.822	477.289	0.072	0.160
-302.807	-79.568	-0.317	-0.105
-301.793	52.537	0.031	0.029
-300.778	-159.964	-0.133	-0.007
-299.764	-93.885	-0.173	0.047
-298.749	-117.080	0.406	-0.073
-297.735	-156.770	0.170	0.010
-296.720	70.246	0.196	-0.200
-295.705	-92.657	-0.254	0.070
-294.691	102.253	-0.172	-0.198
-293.676	-200.000	0.032	0.171
-292.662	-200.000	-0.022	-0.110
-291.647	800.000	0.083	-0.269
-290.632	-15.612	0.324	0.204
-289.618	-125.086	0.432	-0.065
-288.603	179.164	0.293	-0.422
-287.589	-163.745	0.261	-0.012
-286.574	-200.000	0.038	-0.202
-285.559	-161.535	0.464	-0.023
-284.545	-200.000	0.007	0.109
-283.530	-200.000	0.028	-0.174
-282.516	-200.000	-0.008	-0.267
-281.501	87.628	0.064	-0.070
-280.486	-200.000	-0.024	-0.148
-279.472	197.206	-0.217	0.327
-278.457	-102.204	0.237	0.056
-277.443	-73.856	0.262	-0.094
-276.428	212.550	0.178	0.276
-275.413	-76.372	0.087	0.030
-274.399	373.065	0.287	-0.573
-273.384	-200.000	0.009	-0.103
-272.370	-57.468	-0.255	-0.110
-271.355	6.160	-0.246	-0.179
-270.340	-73.558	0.351	0.126
-269.326	261.818	-0.104	0.178
-268.311	7.051	-0.183	-0.135
-267.297	-200.000	-0.001	-0.099
-266.282	-200.000	0.146	0.001
-265.267	-163.039	-0.197	-0.009
-264.253	-200.000	0.015	0.078
-263.238	800.000	0.158	-0.585
-262.224	-178.102	-0.156	0.004
-261.209	73.085	0.348	-0.357
-260.195	240.476	0.120	-0.196
-259.180	-101.404	0.202	-0.048
-258.165	510.447	0.022	0.050
-257.151	-15.892	0.114	-0.072
-256.136	85.309	-0.399	0.430
-255.122	369.144	-0.137	0.273
-254.107	800.000	-0.033	-0.106
-253.092	800.000	0.010	-0.034
-252.078	407.638	0.055	-0.114
-251.063	800.000	0.023	-0.072
-250.049	71.160	0.124	0.126
-249.034	3.441	0.115	0.083
-248.019	-200.000	-0.031	-0.236
-247.005	476.878	0.191	-0.424
-245.990	59.896	-0.124	-0.121
-244.976	16.934	-0.022	0.017
-243.961	287.258	-0.112	0.200
-242.946	-46.312	-0.201	0.097
-241.932	68.459	-0.128	-0.129
-240.917	30.466	0.187	0.157
-239.903	800.000	-0.076	0.275
-238.888	-82.583	0.206	-0.066
-237.873	211.256	0.110	-0.170
-236.859	-200.000	0.033	-0.390
-235.844	32.976	0.209	-0.178
-234.830	298.005	0.081	0.146
-233.815	85.008	-0.088	0.095
-232.800	336.816	0.062	-0.118
-231.786	-66.051	0.184	0.072
-230.771	-200.000	-0.011	0.184
-229.757	-22.735	0.156	-0.093
-228.742	42.659	0.155	0.139
-227.727	27.559	0.130	-0.107
-226.713	144.324	-0.093	0.122
-225.698	180.360	-0.057	0.082
-224.684	149.027	-0.181	-0.240
-223.669	13.443	0.323	-0.246
-222.655	-200.000	0.009	-0.185
-221.640	-103.375	0.268	0.062
-220.625	140.224	-0.091	0.118
-219.611	428.652	-0.073	0.155
-218.596	-165.536	0.096	0.004
-217.582	-200.000	0.009	-0.151
-216.567	-116.829	0.168	0.030
-215.552	-94.641	0.307	-0.082
-214.538	-98.020	-0.357	-0.090
-213.523	800.000	0.046	0.168
-212.509	-187.915	-0.411	-0.005
-211.494	197.645	-0.057	-0.085
-210.479	800.000	0.007	-0.026
-209.465	-200.000	0.025	0.273
-208.450	-73.839	0.126	-0.045
-207.436	31.860	-0.336	-0.284
-206.421	-10.444	0.175	0.114
-205.406	130.568	-0.161	-0.203
-204.392	800.000	0.030	0.118
-203.377	57.318	0.027	0.026
-202.363	-200.000	-0.017	0.269
-201.348	43.714	-0.046	-0.041
-200.333	286.576	0.149	0.263
-199.319	149.409	-0.170	0.226
-198.304	151.564	-0.120	-0.160
-197.290	-87.740	0.335	-0.099
-196.275	164.658	0.122	-0.169
-195.260	221.154	0.211	-0.333
-194.246	81.256	-0.074	0.078
-193.231	23.258	-0.217	0.175
-192.217	-200.000	0.010	-0.251
-191.202	-80.178	0.255	-0.084
-190.187	-56.010	0.151	-0.066
-189.173	800.000	-0.096	0.385
-188.158	31.609	0.303	-0.256
-187.144	166.945	-0.257	0.357
-186.129	-200.000	0.052	0.253
-185.114	-94.623	-0.129	0.034
-184.100	25.029	0.177	-0.144
-183.085	175.853	0.075	0.106
-182.071	-114.367	0.256	-0.048
-181.056	42.900	0.103	-0.092
-180.042	-96.112	0.099	-0.026
-179.027	-72.144	-0.142	0.052
-178.012	-124.440	0.142	0.022
-176.998	32.768	0.497	0.422
-175.983	-200.000	-0.000	-0.026
-174.969	-102.511	0.295	-0.069
-173.954	-35.114	0.094	0.050
-172.939	162.529	0.095	-0.131
-171.925	800.000	0.093	-0.263
-170.910	100.956	-0.072	0.082
-169.896	-200.000	-0.041	0.351
-168.881	94.262	0.049	-0.055
-167.866	245.846	0.185	0.305
-166.852	412.821	0.021	-0.045
-165.837	-104.285	0.306	-0.070
-164.823	800.000	-0.138	0.443
-163.808	-200.000	-0.057	0.357
-162.793	3.436	0.159	0.114
-161.779	14.607	-0.210	-0.161
-160.764	203.517	0.062	0.094
-159.750	-14.747	-0.216	0.136
-158.735	-200.000	0.018	0.113
-157.720	23.844	-0.197	-0.159
-156.706	-86.758	0.117	-0.035
-155.691	-200.000	-0.011	-0.481
-154.677	-87.892	-0.138	-0.041
-153.662	696.185	0.096	-0.247
-152.647	-35.935	-0.013	-0.007
-151.633	-200.000	0.022	0.206
-150.618	366.985	-0.071	-0.141
-149.604	110.010	0.053	0.062
-148.589	23.166	0.337	0.271
-147.574	148.015	-0.131	-0.174
-146.560	333.757	0.229	-0.434
-145.545	8.749	0.206	0.152
-144.531	-200.000	0.002	-0.084
-143.516	-40.873	-0.196	-0.099
-142.502	-114.039	0.222	-0.042
-141.487	-111.893	0.402	-0.079
-140.472	359.581	-0.075	-0.147
-139.458	-29.722	0.386	-0.216
-138.443	-101.907	0.280	-0.066
-137.429	44.528	0.074	-0.066
-136.414	-31.110	0.226	0.125
-135.399	604.635	-0.109	0.265
-134.385	270.341	0.077	0.132
-133.370	-15.142	0.104	-0.065
-132.356	-200.000	-0.024	-0.205
-131.341	800.000	0.004	-0.018
-130.326	-48.987	0.304	-0.143
-129.312	-142.289	0.197	0.019
-128.297	-2.954	0.127	-0.087
-127.283	101.020	0.055	0.063
-126.268	-179.892	0.237	-0.005
-125.253	101.952	-0.193	-0.220
-124.239	60.869	0.109	0.106
-123.224	-143.786	-0.250	0.023
-122.210	-200.000	0.005	0.547
-121.195	-23.160	-0.224	-0.132
