DTS Sentinel unit serial number:	SN413079Multiplexer serial number:	ORYXHardware model number:	OX4-SRSoftware version number:	ORYX F/W v4.00 Oryx Data Collector v3.7.2.0data status	okinstallation	princeton_trtdifferential loss correction	single-endedforward channel	channel 4reverse channel	N/Adate	2019/09/14time	13:01:35forward acquisition time	60.00reverse acquisition time	0.00gamma	496.2192k internal	0.2292k external	0.2292temperature offset calibration	1.0155default loss term (dB/km)	0.3790temperature slope calibration	1.0000multiplexer offset coefficient	1.0000multiplexer slope coefficient	1.0000fibre end	0.00T internal ref (°C)	38.00T ext. ref 1 (°C)	4.84T ext. ref 2 (°C)	33.04length (m)	temperature (°C)	Stokes	anti-Stokes-747.200	-116.929	0.048	-0.009
-746.185	422.540	-0.198	0.435
-745.171	377.842	-0.109	-0.229
-744.156	313.519	0.088	0.170
-743.142	55.620	-0.322	-0.319
-742.127	131.466	0.161	0.212
-741.112	271.673	-0.055	-0.099
-740.098	-87.738	0.128	0.040
-739.083	-3.439	0.305	-0.217
-738.069	188.030	-0.130	0.199
-737.054	453.746	-0.064	-0.146
-736.039	-153.236	0.124	-0.009
-735.025	-27.698	0.316	0.187
-734.010	288.137	-0.236	-0.438
-732.996	108.373	0.153	-0.187
-731.981	19.553	0.141	0.116
-730.966	-123.533	0.094	0.015
-729.952	-200.000	-0.022	-0.339
-728.937	38.958	-0.146	-0.134
-727.923	800.000	-0.068	0.218
-726.908	-149.517	-0.101	0.008
-725.894	24.263	0.246	0.208
-724.879	283.534	-0.044	-0.082
-723.864	800.000	0.039	0.164
-722.850	-143.904	-0.280	0.027
-721.835	307.353	0.076	-0.145
-720.821	-143.553	-0.229	0.022
-719.806	-28.782	0.114	-0.067
-718.791	-35.547	-0.174	-0.096
-717.777	86.165	-0.177	0.199
-716.762	800.000	0.074	-0.249
-715.748	-200.000	-0.063	-0.367
-714.733	160.017	0.049	-0.070
-713.718	-56.556	0.269	-0.122
-712.704	319.852	0.095	-0.184
-711.689	-107.885	0.182	-0.041
-710.675	289.373	0.054	-0.101
-709.660	282.509	-0.016	0.029
-708.645	-81.871	0.209	0.070
-707.631	653.190	-0.098	0.256
-706.616	561.188	0.051	-0.126
-705.602	59.296	0.155	-0.156
-704.587	-13.211	-0.584	-0.388
-703.572	202.699	0.081	-0.128
-702.558	73.887	-0.231	0.247
-701.543	280.438	0.031	-0.057
-700.529	39.575	0.245	0.225
-699.514	-57.495	0.246	0.110
-698.499	-152.163	-0.134	-0.010
-697.485	223.946	0.158	0.260
-696.470	-93.726	-0.110	0.031
-695.456	-77.497	0.427	-0.151
-694.441	56.714	0.135	0.134
-693.426	11.668	-0.363	0.284
-692.412	800.000	-0.057	-0.174
-691.397	-140.931	0.211	0.022
-690.383	92.746	0.155	0.179
-689.368	122.258	-0.239	-0.305
-688.354	278.969	0.084	-0.154
-687.339	-105.935	-0.023	0.005
-686.324	-125.945	-0.297	-0.046
-685.310	-57.936	-0.198	-0.088
-684.295	-200.000	0.023	-0.102
-683.281	126.675	-0.116	0.150
-682.266	-75.537	-0.110	0.040
-681.251	-86.018	-0.260	-0.082
-680.237	57.285	0.170	0.169
-679.222	-140.700	0.229	0.024
-678.208	147.073	-0.081	0.111
-677.193	127.350	0.078	-0.101
-676.178	28.473	0.382	-0.329
-675.164	87.039	0.248	-0.280
-674.149	-66.726	-0.307	-0.124
-673.135	-200.000	0.011	0.153
-672.120	224.912	0.117	-0.193
-671.105	303.808	-0.064	0.122
-670.091	207.029	-0.139	0.222
-669.076	-200.000	0.084	0.408
-668.062	-200.000	-0.025	-0.206
-667.047	-200.000	-0.055	-0.415
-666.032	405.512	-0.075	-0.162
-665.018	732.501	0.085	0.231
-664.003	260.878	0.082	-0.146
-662.989	59.565	0.118	-0.118
-661.974	211.327	-0.032	0.051
-660.959	-44.080	0.292	0.150
-659.945	-150.005	-0.177	0.014
-658.930	-37.621	-0.064	0.035
-657.916	-21.925	-0.206	-0.127
-656.901	364.762	-0.136	-0.280
-655.886	800.000	0.143	-0.412
-654.872	800.000	-0.076	-0.243
-653.857	337.074	0.077	-0.153
-652.843	46.406	-0.044	-0.042
-651.828	712.797	-0.069	-0.187
-650.814	800.000	0.056	-0.220
-649.799	-123.734	0.254	0.041
-648.784	227.714	-0.092	0.153
-647.770	-103.376	-0.203	0.049
-646.755	744.589	0.029	0.079
-645.741	-200.000	0.015	-0.173
-644.726	-94.001	0.083	0.023
-643.711	-81.087	-0.298	0.100
-642.697	573.592	0.039	0.098
-641.682	77.245	0.071	0.077
-640.668	-116.324	-0.441	0.083
-639.653	220.215	0.152	0.248
-638.638	148.304	-0.262	0.360
-637.624	-47.543	0.482	0.239
-636.609	-200.000	-0.028	-0.466
-635.595	121.107	0.202	0.256
-634.580	144.485	-0.147	-0.201
-633.565	153.035	0.108	0.151
-632.551	302.858	-0.046	0.086
-631.536	-55.585	-0.295	-0.135
-630.522	-184.440	-0.109	0.002
-629.507	199.583	-0.126	0.197
-628.492	-200.000	0.060	-0.401
-627.478	128.621	-0.188	0.244
-626.463	-119.653	-0.107	-0.019
-625.449	79.716	0.107	0.117
-624.434	800.000	-0.035	0.140
-623.419	114.075	-0.196	-0.243
-622.405	800.000	-0.061	0.263
-621.390	-6.623	0.125	-0.087
-620.376	-200.000	0.032	0.370
-619.361	-78.438	0.234	0.082
-618.346	-24.363	-0.295	0.179
-617.332	-164.641	0.109	-0.005
-616.317	-90.998	0.268	0.078
-615.303	-86.441	-0.323	-0.101
-614.288	800.000	0.088	-0.270
-613.273	-39.381	0.261	0.139
-612.259	-3.138	0.165	-0.117
-611.244	418.171	-0.169	-0.368
-610.230	800.000	0.024	0.080
-609.215	-190.637	-0.134	-0.001
-608.201	-85.385	-0.080	-0.025
-607.186	-200.000	0.005	-0.130
-606.171	800.000	-0.012	-0.050
-605.157	-130.151	-0.190	-0.026
-604.142	213.105	0.124	0.199
-603.128	-157.299	-0.171	0.011
-602.113	88.341	0.231	-0.261
-601.098	6.740	0.064	-0.049
-600.084	164.899	-0.033	-0.048
-599.069	-139.114	0.107	0.012
-598.055	354.994	-0.076	0.154
-597.040	1.973	0.190	-0.139
-596.025	-200.000	-0.025	-0.176
-595.011	-132.816	0.067	0.009
-593.996	-127.921	-0.040	0.006
-592.982	6.866	-0.120	-0.091
-591.967	-86.473	-0.209	-0.065
-590.952	800.000	0.027	0.081
-589.938	301.455	-0.051	0.097
-588.923	132.354	0.069	-0.091
-587.909	76.846	0.256	-0.277
-586.894	800.000	-0.109	-0.410
-585.879	-1.029	-0.286	-0.206
-584.865	-200.000	-0.039	0.256
-583.850	-34.109	-0.109	-0.061
-582.836	-200.000	-0.041	-0.236
-581.821	103.250	0.163	0.194
-580.806	44.774	-0.193	0.180
-579.792	-200.000	0.052	-0.310
-578.777	-103.037	0.276	0.066
-577.763	-130.328	0.463	0.064
-576.748	124.952	-0.155	-0.199
-575.733	353.005	-0.169	0.340
-574.719	-70.032	-0.166	-0.064
-573.704	800.000	0.092	0.268
-572.690	10.211	0.070	-0.054
-571.675	-136.837	-0.017	0.002
-570.661	-5.570	0.235	-0.164
-569.646	-43.796	-0.279	-0.143
-568.631	60.826	0.258	0.260
-567.617	800.000	-0.075	-0.262
-566.602	176.552	0.145	0.215
-565.588	-64.819	-0.015	-0.006
-564.573	-2.613	-0.281	0.200
-563.558	-69.031	0.230	-0.090
-562.544	-36.675	0.294	0.161
-561.529	800.000	-0.080	0.228
-560.515	80.934	0.044	-0.048
-559.500	-67.964	-0.095	-0.038
-558.485	-108.743	-0.048	0.011
-557.471	-113.737	-0.074	0.015
-556.456	-200.000	0.019	0.187
-555.442	800.000	-0.141	0.440
-554.427	313.743	-0.135	-0.257
-553.412	-8.786	0.114	0.078
-552.398	800.000	-0.095	0.389
-551.383	161.255	-0.092	0.131
-550.369	282.266	-0.029	0.052
-549.354	173.310	-0.189	-0.277
-548.339	129.721	0.167	-0.216
-547.325	-72.072	0.094	-0.035
-546.310	108.607	-0.098	0.119
-545.296	26.047	-0.228	0.193
-544.281	-100.132	-0.143	-0.036
-543.266	42.236	0.167	-0.154
-542.252	489.276	-0.058	-0.134
-541.237	-128.309	-0.215	0.031
-540.223	-64.106	0.172	-0.071
-539.208	-88.425	-0.048	0.015
-538.193	431.700	-0.118	-0.260
-537.179	339.864	-0.087	0.173
-536.164	211.604	0.118	-0.188
-535.150	26.240	0.276	-0.234
-534.135	-29.258	-0.099	-0.058
-533.121	620.739	0.092	-0.235
-532.106	-20.744	0.058	-0.036
-531.091	-192.601	-0.177	0.002
-530.077	241.855	-0.206	0.350
-529.062	393.379	0.078	0.165
-528.048	-200.000	-0.085	0.407
-527.033	12.759	0.188	0.147
-526.018	-5.397	0.197	-0.137
-525.004	-25.798	-0.078	-0.046
-523.989	-48.462	0.067	-0.033
-522.975	114.328	-0.102	0.125
-521.960	-6.614	-0.147	-0.102
-520.945	800.000	0.044	-0.154
-519.931	-84.504	0.176	-0.056
-518.916	-147.756	0.487	0.041
-517.902	404.313	0.142	0.303
-516.887	-185.481	0.366	0.006
-515.872	399.925	-0.179	-0.380
-514.858	-125.663	0.124	-0.019
-513.843	72.541	-0.175	-0.185
-512.829	143.991	-0.319	-0.432
-511.814	-200.000	0.049	0.283
-510.799	-17.691	-0.199	-0.127
-509.785	118.030	-0.195	0.244
-508.770	56.982	-0.202	0.199
-507.756	624.206	0.096	0.244
-506.741	-200.000	-0.008	0.207
-505.726	400.093	0.208	0.442
-504.712	106.028	0.107	0.128
-503.697	-170.288	-0.075	0.003
-502.683	-197.243	-0.419	0.003
-501.668	-18.498	0.150	-0.095
-500.653	800.000	0.059	-0.218
-499.639	3.246	-0.282	-0.208
-498.624	30.939	0.284	0.247
-497.610	-99.662	-0.118	0.030
-496.595	-10.330	-0.012	-0.008
-495.581	-200.000	-0.022	-0.134
-494.566	-126.291	-0.466	0.071
-493.551	-127.294	-0.059	0.009
-492.537	68.379	-0.164	-0.171
-491.522	-14.460	0.338	0.220
-490.508	-200.000	-0.001	-0.133
-489.493	-133.167	-0.053	0.007
-488.478	-114.696	-0.353	0.068
-487.464	-182.169	0.116	-0.002
-486.449	267.175	-0.099	-0.175
-485.435	800.000	0.017	0.056
-484.420	6.687	-0.213	-0.160
-483.405	-16.851	0.126	0.081
-482.391	-133.117	-0.071	0.009
-481.376	-9.379	0.223	-0.151
-480.362	-65.888	-0.302	0.122
-479.347	-11.606	0.232	-0.155
-478.332	372.000	-0.143	-0.295
-477.318	-12.106	0.129	0.085
-476.303	47.469	-0.112	-0.106
-475.289	-121.110	0.187	-0.032
-474.274	-130.850	-0.444	-0.060
-473.259	-179.101	-0.163	-0.004
-472.245	-41.436	-0.236	-0.123
-471.230	142.815	-0.144	-0.194
-470.216	-129.132	-0.222	-0.031
-469.201	-200.000	0.026	-0.198
-468.186	-99.584	-0.264	0.067
-467.172	-200.000	-0.005	-0.029
-466.157	-200.000	0.011	-0.167
-465.143	159.267	0.149	0.209
-464.128	-30.601	-0.177	0.102
-463.113	-77.373	-0.215	-0.076
-462.099	37.622	0.248	0.223
-461.084	6.709	-0.086	0.064
-460.070	-200.000	0.016	-0.181
-459.055	-3.166	0.191	-0.135
-458.040	561.486	0.052	-0.128
-457.026	61.059	-0.131	-0.132
-456.011	-200.000	0.031	-0.392
-454.997	800.000	-0.104	-0.399
-453.982	-1.118	-0.135	0.097
-452.968	-200.000	-0.005	0.024
-451.953	-151.306	-0.225	-0.017
-450.938	-114.562	-0.140	-0.027
-449.924	-200.000	0.017	0.287
-448.909	106.816	-0.186	0.224
-447.895	242.049	0.015	-0.025
-446.880	800.000	-0.075	0.266
-445.865	-118.766	0.024	0.004
-444.851	-200.000	0.019	0.085
-443.836	671.005	0.072	0.188
-442.822	-200.000	-0.080	0.518
-441.807	49.734	-0.092	-0.088
-440.792	4.265	0.154	0.114
-439.778	800.000	0.104	-0.341
-438.763	368.555	0.028	-0.057
-437.749	57.515	0.052	-0.051
-436.734	24.849	-0.102	0.086
-435.719	-29.484	0.077	0.045
-434.705	67.666	-0.082	0.085
-433.690	-8.785	-0.232	-0.157
-432.676	-109.243	0.208	0.045
-431.661	800.000	-0.047	0.190
-430.646	385.679	-0.163	0.341
-429.632	800.000	-0.065	-0.249
-428.617	204.501	0.077	0.120
-427.603	394.430	-0.042	0.089
-426.588	783.987	0.097	0.269
-425.573	174.248	-0.111	0.162
-424.559	512.811	0.074	-0.173
-423.544	-93.127	0.319	-0.090
-422.530	-30.457	-0.136	-0.078
-421.515	800.000	-0.070	-0.227
-420.500	31.932	-0.137	0.119
-419.486	-63.027	0.172	0.072
-418.471	-102.713	0.282	-0.068
-417.457	-92.962	-0.199	0.056
-416.442	800.000	0.050	-0.196
-415.428	169.998	-0.163	-0.236
-414.413	-133.938	0.097	0.012
-413.398	-200.000	0.066	-0.327
-412.384	46.865	-0.085	-0.080
-411.369	124.366	-0.278	0.353
-410.355	-66.271	0.140	-0.056
-409.340	0.682	0.131	-0.094
-408.325	575.660	-0.110	0.272
-407.311	800.000	-0.002	0.009
-406.296	66.609	0.048	0.050
-405.282	-101.537	0.141	-0.035
-404.267	8.427	0.034	0.026
-403.252	-193.287	0.130	-0.001
-402.238	-104.547	-0.208	0.048
-401.223	15.970	0.261	0.208
-400.209	16.287	-0.114	-0.091
-399.194	174.201	0.161	0.235
-398.179	-45.052	0.388	-0.195
-397.165	-200.000	0.026	-0.193
-396.150	-200.000	0.013	0.105
-395.136	-79.516	0.130	-0.044
-394.121	800.000	0.035	-0.134
-393.106	-79.302	-0.116	-0.040
-392.092	177.549	0.135	-0.198
-391.077	121.828	-0.133	-0.168
-390.063	-122.075	0.306	0.051
-389.048	-162.893	-0.254	0.012
-388.033	-6.528	0.139	-0.096
-387.019	-178.776	-0.336	0.008
-386.004	-200.000	0.002	0.378
-384.990	-67.646	0.265	0.105
-383.975	-137.447	0.161	0.018
-382.960	62.939	0.341	0.345
-381.946	800.000	0.009	-0.036
-380.931	-200.000	-0.012	0.072
-379.917	73.464	-0.161	-0.170
-378.902	-99.913	0.452	-0.114
-377.888	57.640	0.293	0.289
-376.873	-147.839	-0.308	0.026
-375.858	800.000	-0.048	-0.186
-374.844	-184.422	0.169	-0.003
-373.829	-104.027	0.103	0.024
-372.815	437.233	0.075	-0.164
-371.800	-179.110	-0.511	-0.012
-370.785	29.474	0.031	0.027
-369.771	-128.738	-0.092	-0.013
-368.756	493.792	0.140	0.325
-367.742	-89.291	-0.313	0.093
-366.727	-200.000	-0.007	-0.203
-365.712	624.378	0.101	0.256
-364.698	-200.000	-0.003	0.390
-363.683	-137.401	-0.108	0.012
-362.669	252.936	-0.126	-0.216
-361.654	270.784	-0.113	0.201
-360.639	-47.896	-0.246	0.120
-359.625	800.000	0.019	-0.069
-358.610	800.000	-0.107	-0.413
-357.596	18.353	-0.183	0.147
-356.581	-78.026	-0.190	0.066
-355.566	175.933	-0.104	0.152
-354.552	-200.000	0.021	0.270
-353.537	-72.189	-0.375	-0.140
-352.523	-111.259	0.242	-0.050
-351.508	800.000	-0.069	0.237
-350.493	41.427	-0.106	0.096
-349.479	-124.711	-0.309	0.048
-348.464	-62.272	-0.100	0.042
-347.450	47.319	-0.108	0.101
-346.435	46.714	0.250	-0.234
-345.420	-30.260	-0.039	0.023
-344.406	-44.770	0.154	-0.078
-343.391	31.887	0.179	-0.155
-342.377	-131.983	0.184	0.024
-341.362	65.532	0.251	-0.256
-340.348	-200.000	0.004	-0.274
-339.333	4.889	-0.097	-0.072
-338.318	-200.000	0.032	0.249
-337.304	-109.747	0.051	0.011
-336.289	-72.044	-0.338	0.126
-335.275	279.601	-0.177	-0.318
-334.260	800.000	0.028	0.082
-333.245	-200.000	-0.014	-0.129
-332.231	-74.172	-0.158	-0.057
-331.216	-25.365	0.225	-0.134
-330.202	-200.000	0.013	-0.094
-329.187	54.736	0.125	0.121
-328.172	222.805	0.051	-0.082
-327.158	182.022	-0.114	0.169
-326.143	800.000	-0.126	-0.405
-325.129	395.523	-0.094	-0.196
-324.114	-63.792	0.386	0.159
-323.099	43.352	-0.081	0.074
-322.085	52.615	-0.084	0.081
-321.070	-32.296	0.121	-0.068
-320.056	78.913	0.136	0.147
-319.041	-67.018	-0.286	0.114
-318.026	9.643	-0.222	0.170
-317.012	338.422	-0.064	-0.126
-315.997	-200.000	-0.012	-0.116
-314.983	-12.343	-0.061	-0.040
-313.968	-129.817	0.189	0.026
-312.953	-57.346	0.087	-0.038
-311.939	-127.970	0.335	-0.048
-310.924	-200.000	0.028	-0.316
-309.910	538.814	-0.029	0.071
-308.895	-200.000	0.046	-0.240
-307.880	-1.260	-0.327	-0.232
-306.866	-200.000	0.002	0.274
-305.851	-200.000	-0.043	0.344
-304.837	-200.000	-0.031	-0.141
-303.822	-16.547	0.360	-0.230
-302.807	102.268	0.209	-0.246
-301.793	-83.499	0.220	0.071
-300.778	800.000	0.026	-0.111
-299.764	32.604	-0.109	-0.095
-298.749	-200.000	0.022	-0.432
-297.735	-32.534	-0.177	-0.099
-296.720	800.000	0.066	0.245
-295.705	-200.000	-0.063	-0.282
-294.691	-17.441	-0.064	-0.041
-293.676	223.556	0.016	0.026
-292.662	-1.672	0.145	-0.103
-291.647	-200.000	0.013	-0.286
-290.632	-57.826	0.174	-0.076
-289.618	-79.918	0.182	0.062
-288.603	-106.543	0.232	0.052
-287.589	-175.631	0.165	0.004
-286.574	474.423	-0.110	-0.249
-285.559	99.507	0.081	0.094
-284.545	800.000	0.061	-0.204
-283.530	3.366	0.204	-0.149
-282.516	-93.070	-0.327	-0.092
-281.501	800.000	0.029	0.085
-280.486	76.228	0.085	-0.090
-279.472	-42.785	0.018	-0.009
-278.457	-200.000	0.000	-0.164
-277.443	71.583	0.243	-0.253
-276.428	-200.000	0.002	0.077
-275.413	-200.000	0.045	0.399
-274.399	340.321	0.063	-0.123
-273.384	-2.598	-0.092	-0.065
-272.370	56.264	-0.123	-0.120
-271.355	-69.812	-0.058	0.022
-270.340	-23.157	-0.298	0.180
-269.326	-4.730	-0.287	-0.199
-268.311	73.668	-0.119	0.126
-267.297	-200.000	-0.007	0.041
-266.282	95.568	-0.142	-0.163
-265.267	131.026	-0.240	-0.310
-264.253	-40.201	-0.079	0.041
-263.238	-1.159	0.148	-0.105
-262.224	-161.697	0.188	-0.010
-261.209	113.302	-0.209	0.255
-260.195	538.563	0.063	0.151
-259.180	294.315	-0.198	-0.364
-258.165	-200.000	0.012	0.401
-257.151	102.600	0.100	0.118
-256.136	-93.638	-0.034	-0.009
-255.122	-103.509	0.187	0.044
-254.107	-108.322	-0.320	-0.069
-253.092	24.475	-0.154	-0.128
-252.078	-59.369	-0.183	-0.079
-251.063	356.037	0.116	0.232
-250.049	-59.440	0.277	-0.120
-249.034	19.178	0.113	0.091
-248.019	693.954	0.084	0.222
-247.005	800.000	-0.037	0.139
-245.990	-23.360	0.234	-0.141
-244.976	-149.471	0.380	-0.030
-243.961	29.297	0.195	-0.166
-242.946	-200.000	0.034	0.184
-241.932	800.000	-0.048	0.140
-240.917	95.117	0.166	0.190
-239.903	-200.000	-0.018	-0.380
-238.888	657.256	0.104	-0.269
-237.873	4.512	0.145	0.107
-236.859	-200.000	-0.048	0.220
-235.844	800.000	-0.024	-0.094
-234.830	-20.051	0.307	-0.190
-233.815	-160.377	-0.299	-0.016
-232.800	40.295	0.162	0.147
-231.786	112.635	0.156	0.190
-230.771	512.559	-0.092	-0.214
-229.757	-200.000	0.006	-0.082
-228.742	259.846	0.178	0.309
-227.727	56.673	-0.087	-0.084
-226.713	-90.053	0.196	-0.057
-225.698	-200.000	0.019	0.153
-224.684	-179.534	0.093	-0.002
-223.669	-111.756	-0.142	-0.029
-222.655	0.122	0.266	-0.190
-221.640	-124.415	-0.286	0.045
-220.625	59.833	0.151	-0.149
-219.611	-200.000	0.003	0.244
-218.596	800.000	0.057	0.216
-217.582	-200.000	0.001	0.170
-216.567	-4.388	-0.073	-0.051
-215.552	64.966	-0.240	-0.243
-214.538	167.594	-0.133	0.189
-213.523	374.572	0.081	0.165
-212.509	318.101	-0.108	0.205
-211.494	-53.790	-0.120	-0.055
-210.479	227.128	-0.069	-0.112
-209.465	800.000	0.032	0.127
-208.450	800.000	-0.022	0.086
-207.436	-93.573	-0.204	0.056
-206.421	-66.408	0.291	0.116
-205.406	-200.000	0.026	0.185
-204.392	-200.000	-0.165	-0.001
-203.377	48.348	-0.265	0.248
-202.363	-200.000	0.035	-0.280
-201.348	16.387	-0.006	-0.004
-200.333	-200.000	0.029	0.238
-199.319	-58.715	0.059	0.026
-198.304	-21.048	-0.036	-0.022
-197.290	-123.382	0.179	-0.029
-196.275	101.514	0.208	-0.243
-195.260	13.594	0.194	-0.151
-194.246	32.888	-0.192	0.166
-193.231	-200.000	0.003	-0.094
-192.217	800.000	-0.054	0.223
-191.202	-40.491	-0.127	0.066
-190.187	-10.221	-0.095	-0.063
-189.173	360.624	-0.121	0.243
-188.158	-121.783	-0.181	-0.030
-187.144	-62.646	0.194	-0.081
-186.129	-200.000	-0.022	-0.102
-185.114	-47.941	-0.122	0.059
-184.100	-174.959	0.440	0.012
-183.085	284.157	-0.048	-0.087
-182.071	-200.000	0.001	-0.128
-181.056	-110.356	0.033	-0.007
-180.042	-126.541	0.159	0.024
-179.027	25.650	0.271	-0.226
-178.012	-51.885	0.475	0.221
-176.998	-111.111	0.213	-0.044
-175.983	104.898	-0.172	0.203
-174.969	800.000	-0.108	-0.430
-173.954	-64.826	-0.193	0.078
-172.939	-163.201	0.281	0.014
-171.925	308.069	0.175	0.327
-170.910	-200.000	0.020	0.173
-169.896	-76.399	0.083	0.029
-168.881	416.557	0.106	-0.225
-167.866	-24.317	0.383	0.229
-166.852	-132.281	-0.114	0.015
-165.837	703.374	-0.023	0.060
-164.823	-145.666	0.204	-0.018
-163.808	-59.333	-0.138	0.059
-162.793	-136.568	-0.184	0.021
-161.779	-68.176	-0.056	0.022
-160.764	169.108	-0.092	-0.132
-159.750	335.804	0.109	0.211
-158.735	-95.286	0.212	-0.057
-157.720	460.597	0.034	-0.076
-156.706	-48.537	0.183	-0.088
-155.691	-167.871	0.418	-0.016
-154.677	192.389	0.084	0.127
-153.662	111.765	0.033	-0.040
-152.647	-200.000	0.002	-0.181
-151.633	-138.941	-0.158	-0.017
-150.618	-27.438	0.061	-0.036
-149.604	-129.253	-0.272	0.038
-148.589	-26.553	-0.267	-0.157
-147.574	-200.000	-0.034	0.213
-146.560	-33.291	-0.165	-0.091
-145.545	-26.333	-0.267	-0.157
-144.531	186.330	0.186	-0.276
-143.516	793.031	-0.097	0.267
-142.502	179.127	0.077	0.113
-141.487	-200.000	-0.018	0.179
-140.472	192.021	0.098	0.148
-139.458	756.010	0.030	0.081
-138.443	-200.000	-0.033	0.275
-137.429	-53.611	-0.241	0.110
-136.414	-87.118	-0.137	-0.042
-135.399	-108.188	-0.301	-0.065
-134.385	-99.208	0.090	0.023
-133.370	800.000	0.045	-0.145
-132.356	800.000	-0.033	0.107
-131.341	95.173	-0.088	0.100
-130.326	373.453	-0.047	-0.096
-129.312	-200.000	0.016	-0.248
-128.297	-90.645	0.138	0.040
-127.283	1.857	-0.236	0.170
-126.268	368.366	0.141	0.284
-125.253	-160.051	0.197	0.011
-124.239	-98.693	0.083	-0.021
-123.224	-73.812	-0.124	0.045
-122.210	627.867	0.161	-0.407
-121.195	65.521	-0.104	-0.105
