DTS Sentinel unit serial number:	SN413079Multiplexer serial number:	ORYXHardware model number:	OX4-SRSoftware version number:	ORYX F/W v4.00 Oryx Data Collector v3.7.2.0data status	okinstallation	princeton_trtdifferential loss correction	single-endedforward channel	channel 4reverse channel	N/Adate	2019/09/17time	17:41:34forward acquisition time	60.00reverse acquisition time	0.00gamma	496.2192k internal	0.2278k external	0.2278temperature offset calibration	0.9980default loss term (dB/km)	0.3790temperature slope calibration	1.0000multiplexer offset coefficient	1.0000multiplexer slope coefficient	1.0000fibre end	0.00T internal ref (°C)	43.37T ext. ref 1 (°C)	0.34T ext. ref 2 (°C)	38.78length (m)	temperature (°C)	Stokes	anti-Stokes-747.200	-200.000	0.003	0.023
-746.185	51.740	-0.050	-0.049
-745.171	-44.565	0.091	-0.047
-744.156	-115.045	0.248	0.048
-743.142	-85.770	-0.104	0.033
-742.127	24.397	0.288	0.245
-741.112	800.000	0.143	0.533
-740.098	-54.349	-0.426	0.199
-739.083	61.471	0.078	0.080
-738.069	82.012	-0.243	0.271
-737.054	301.603	-0.113	0.216
-736.039	-94.956	-0.202	0.056
-735.025	-138.718	0.188	0.021
-734.010	-46.730	-0.346	0.174
-732.996	-195.623	-0.380	-0.003
-731.981	-11.000	0.174	-0.118
-730.966	-200.000	0.022	0.100
-729.952	283.092	0.105	0.195
-728.937	-51.980	0.238	0.114
-727.923	292.749	0.146	0.274
-726.908	800.000	-0.080	-0.259
-725.894	800.000	-0.043	0.152
-724.879	485.592	-0.112	0.264
-723.864	4.509	-0.137	0.103
-722.850	382.499	0.052	-0.111
-721.835	24.519	-0.240	0.204
-720.821	562.311	0.099	-0.247
-719.806	-171.716	-0.531	-0.018
-718.791	306.464	0.100	-0.191
-717.777	-143.735	-0.283	-0.028
-716.762	-88.554	-0.266	-0.081
-715.748	167.058	-0.140	-0.205
-714.733	-114.591	-0.141	-0.028
-713.718	-26.859	0.067	0.040
-712.704	-78.316	-0.015	-0.005
-711.689	-200.000	-0.028	-0.198
-710.675	-93.799	0.339	-0.096
-709.660	428.943	-0.157	-0.349
-708.645	9.757	-0.322	0.251
-707.631	-1.625	-0.023	0.017
-706.616	-16.397	-0.283	-0.185
-705.602	239.958	0.071	-0.121
-704.587	-136.439	0.118	0.014
-703.572	265.455	0.086	-0.154
-702.558	-73.529	0.206	0.077
-701.543	800.000	-0.111	-0.316
-700.529	-158.448	0.212	-0.013
-699.514	-200.000	0.024	0.195
-698.499	-133.329	-0.183	0.024
-697.485	800.000	0.053	-0.171
-696.470	-30.497	0.174	-0.101
-695.456	292.087	-0.021	0.040
-694.441	-200.000	0.028	0.210
-693.426	1.188	0.172	0.127
-692.412	800.000	0.027	-0.076
-691.397	-200.000	0.000	0.047
-690.383	-34.433	-0.195	0.110
-689.368	131.521	-0.223	-0.294
-688.354	-134.944	-0.302	-0.038
-687.339	800.000	-0.020	0.065
-686.324	-41.071	-0.345	-0.183
-685.310	-126.485	-0.102	0.016
-684.295	161.290	-0.010	0.015
-683.281	-151.228	-0.150	0.012
-682.266	-164.824	0.121	0.006
-681.251	-200.000	-0.035	-0.169
-680.237	94.144	0.021	0.025
-679.222	-156.086	0.191	0.012
-678.208	-200.000	0.046	0.300
-677.193	768.256	-0.053	0.148
-676.178	800.000	-0.097	-0.301
-675.164	-200.000	-0.016	0.075
-674.149	-181.893	-0.236	-0.005
-673.135	-150.548	0.126	0.010
-672.120	-41.008	-0.243	-0.129
-671.105	131.576	0.050	-0.066
-670.091	502.462	0.035	0.082
-669.076	-79.486	0.392	0.136
-668.062	170.807	0.147	0.216
-667.047	-137.922	0.217	-0.025
-666.032	94.015	-0.109	-0.127
-665.018	11.246	0.138	0.109
-664.003	52.467	-0.144	-0.141
-662.989	40.329	0.169	0.156
-661.974	59.546	-0.091	-0.092
-660.959	800.000	0.083	0.319
-659.945	-97.972	-0.139	-0.037
-658.930	-200.000	-0.027	0.185
-657.916	299.797	-0.234	-0.442
-656.901	300.643	-0.038	0.072
-655.886	719.647	0.099	-0.271
-654.872	-119.383	0.118	0.021
-653.857	-97.897	-0.246	-0.065
-652.843	-126.326	-0.182	-0.028
-651.828	56.131	-0.214	-0.214
-650.814	-15.823	0.297	0.194
-649.799	-200.000	0.003	-0.285
-648.784	-200.000	-0.069	0.360
-647.770	28.805	-0.208	0.181
-646.755	-187.083	-0.097	-0.001
-645.741	-8.363	-0.102	-0.070
-644.726	-8.131	-0.082	-0.057
-643.711	-95.191	0.264	-0.073
-642.697	-200.000	-0.028	-0.174
-641.682	17.684	-0.238	0.194
-640.668	128.121	-0.218	0.285
-639.653	-48.010	-0.166	0.082
-638.638	11.296	-0.138	0.108
-637.624	245.836	0.080	-0.139
-636.609	-200.000	0.008	0.223
-635.595	-78.132	-0.154	0.054
-634.580	-75.005	-0.135	0.049
-633.565	43.001	-0.186	-0.174
-632.551	800.000	-0.132	-0.450
-631.536	-200.000	-0.005	0.260
-630.522	41.552	-0.297	-0.276
-629.507	261.525	0.061	-0.108
-628.492	-135.838	-0.072	-0.009
-627.478	-78.215	-0.286	0.101
-626.463	-200.000	0.029	-0.408
-625.449	14.061	-0.270	-0.215
-624.434	-44.851	0.396	-0.202
-623.419	367.104	-0.013	0.028
-622.405	132.031	-0.257	-0.339
-621.390	561.382	-0.068	-0.168
-620.376	-31.901	0.180	-0.104
-619.361	-111.442	0.121	0.025
-618.346	638.081	0.116	-0.302
-617.332	800.000	0.056	0.234
-616.317	-200.000	-0.064	-0.292
-615.303	365.197	0.133	-0.274
-614.288	-200.000	-0.012	0.053
-613.273	383.567	-0.076	-0.160
-612.259	-149.412	0.160	0.013
-611.244	118.778	0.184	-0.232
-610.230	172.183	-0.232	-0.342
-609.215	-200.000	0.013	0.146
-608.201	-200.000	-0.008	-0.047
-607.186	-109.109	0.297	-0.065
-606.171	75.576	-0.135	-0.146
-605.157	41.654	-0.052	-0.049
-604.142	-200.000	-0.059	-0.302
-603.128	800.000	-0.045	0.195
-602.113	800.000	-0.057	0.227
-601.098	60.752	-0.044	-0.044
-600.084	-141.532	-0.278	0.029
-599.069	-51.911	0.186	-0.089
-598.055	-54.635	0.228	-0.106
-597.040	432.369	-0.090	-0.200
-596.025	-200.000	0.019	0.133
-595.011	184.757	0.137	-0.207
-593.996	77.897	0.194	-0.211
-592.982	345.714	0.047	-0.095
-591.967	728.974	0.096	-0.262
-590.952	-8.736	0.220	-0.151
-589.938	121.435	0.081	-0.103
-588.923	34.570	-0.260	-0.232
-587.909	52.426	0.030	-0.030
-586.894	-162.108	-0.265	0.014
-585.879	152.846	0.043	-0.060
-584.865	3.659	0.065	-0.048
-583.850	-9.192	-0.240	-0.164
-582.836	-117.782	-0.336	-0.062
-581.821	-182.695	0.054	0.001
-580.806	27.432	0.075	-0.065
-579.792	-136.962	0.234	0.027
-578.777	189.199	0.129	0.198
-577.763	-200.000	0.002	-0.470
-576.748	-200.000	0.031	0.255
-575.733	-4.423	-0.128	0.091
-574.719	-59.383	-0.116	0.051
-573.704	-98.915	-0.326	0.085
-572.690	-182.517	-0.290	0.005
-571.675	-99.462	-0.248	-0.064
-570.661	-112.275	0.193	-0.040
-569.646	-167.155	0.215	-0.009
-568.631	-26.567	0.195	-0.117
-567.617	-71.828	0.231	0.088
-566.602	-161.474	-0.196	0.010
-565.588	-71.297	-0.231	-0.089
-564.573	7.110	0.348	0.265
-563.558	265.137	0.042	0.075
-562.544	126.977	-0.170	-0.220
-561.529	-200.000	0.041	0.559
-560.515	-73.126	-0.122	0.046
-559.500	204.294	-0.122	0.194
-558.485	-166.697	0.206	0.009
-557.471	-16.560	0.348	-0.225
-556.456	-72.368	-0.176	-0.066
-555.442	110.457	0.073	0.090
-554.427	-200.000	0.052	0.247
-553.412	-200.000	0.027	-0.276
-552.398	177.381	0.307	-0.457
-551.383	-133.441	-0.214	0.028
-550.369	-135.143	0.268	-0.033
-549.354	351.146	0.145	0.294
-548.339	-78.483	-0.088	0.031
-547.325	800.000	0.159	-0.489
-546.310	4.315	-0.214	-0.160
-545.296	260.042	0.144	-0.254
-544.281	-144.500	-0.131	0.012
-543.266	-145.580	0.293	0.027
-542.252	-200.000	-0.049	0.225
-541.237	800.000	-0.031	0.118
-540.223	255.397	0.239	0.418
-539.208	311.826	0.053	-0.101
-538.193	-86.616	0.060	-0.019
-537.179	800.000	-0.011	-0.031
-536.164	126.146	-0.150	0.194
-535.150	800.000	-0.064	0.208
-534.135	139.730	-0.224	-0.301
-533.121	-98.148	-0.067	-0.018
-532.106	91.006	-0.306	-0.351
-531.091	-200.000	0.044	0.331
-530.077	-200.000	-0.014	0.107
-529.062	-85.255	0.184	-0.059
-528.048	-158.570	0.089	-0.005
-527.033	-149.329	0.108	-0.009
-526.018	-200.000	0.026	0.120
-525.004	-82.455	0.092	-0.031
-523.989	-25.776	0.121	-0.073
-522.975	228.215	-0.201	-0.334
-521.960	16.426	-0.234	-0.188
-520.945	-81.935	0.354	-0.118
-519.931	-78.774	-0.288	-0.100
-518.916	115.032	-0.136	0.169
-517.902	-20.433	-0.268	0.168
-516.887	313.054	-0.083	-0.159
-515.872	-35.129	0.064	-0.035
-514.858	-77.083	0.303	0.108
-513.843	408.515	0.243	-0.526
-512.829	-8.313	0.116	-0.079
-511.814	-67.275	0.256	-0.103
-510.799	-200.000	0.034	-0.294
-509.785	142.223	-0.075	0.102
-508.770	-93.065	-0.226	-0.064
-507.756	-103.101	0.177	-0.043
-506.741	83.690	0.265	0.295
-505.726	800.000	0.061	0.243
-504.712	29.734	0.120	-0.104
-503.697	-200.000	0.020	-0.193
-502.683	170.661	-0.045	-0.066
-501.668	583.736	-0.043	0.108
-500.653	-97.204	0.077	-0.020
-499.639	-73.996	0.209	0.077
-498.624	-200.000	0.003	-0.077
-497.610	800.000	-0.072	0.232
-496.595	57.641	-0.159	0.159
-495.581	126.275	-0.071	-0.092
-494.566	-163.580	-0.460	0.022
-493.551	-13.867	0.253	-0.167
-492.537	-100.443	0.255	0.064
-491.522	288.096	0.086	0.159
-490.508	-54.107	-0.519	0.241
-489.493	-200.000	-0.044	0.516
-488.478	546.451	-0.066	-0.161
-487.464	-200.000	-0.067	0.394
-486.449	77.650	0.117	0.128
-485.435	800.000	-0.006	0.023
-484.420	-22.312	-0.380	-0.235
-483.405	39.158	-0.114	0.104
-482.391	664.229	-0.049	-0.129
-481.376	-200.000	-0.108	-0.484
-480.362	-148.677	0.350	0.029
-479.347	102.740	0.198	-0.236
-478.332	-200.000	0.003	0.117
-477.318	-200.000	-0.011	-0.147
-476.303	-61.996	-0.119	0.051
-475.289	-121.916	-0.248	-0.042
-474.274	114.579	-0.189	0.235
-473.259	322.147	-0.161	-0.312
-472.245	-200.000	-0.022	0.128
-471.230	-200.000	0.001	-0.075
-470.216	-24.873	-0.167	-0.101
-469.201	800.000	0.084	0.248
-468.186	800.000	-0.026	0.095
-467.172	730.383	0.086	-0.234
-466.157	-200.000	-0.009	0.378
-465.143	-200.000	-0.001	0.098
-464.128	529.280	-0.046	0.112
-463.113	-200.000	-0.007	0.076
-462.099	-179.409	0.052	0.001
-461.084	-175.639	-0.300	0.008
-460.070	-108.859	0.178	-0.039
-459.055	29.638	0.250	0.217
-458.040	-62.505	-0.200	-0.085
-457.026	-200.000	0.033	-0.390
-456.011	-59.893	0.147	0.064
-454.997	-106.766	0.491	-0.111
-453.982	800.000	0.120	-0.341
-452.968	-200.000	-0.002	-0.115
-451.953	-42.603	-0.215	-0.111
-450.938	316.785	0.071	0.137
-449.924	26.263	0.395	-0.336
-448.909	-60.393	0.483	-0.209
-447.895	-145.421	0.435	0.040
-446.880	-200.000	-0.013	0.221
-445.865	319.605	0.024	0.046
-444.851	70.423	0.184	0.193
-443.836	-104.157	-0.034	-0.008
-442.822	122.344	0.161	0.205
-441.807	-135.996	-0.217	-0.026
-440.792	35.095	-0.078	0.069
-439.778	-200.000	-0.074	-0.409
-438.763	800.000	-0.131	-0.390
-437.749	-107.890	0.118	-0.026
-436.734	-200.000	0.011	-0.092
-435.719	-194.218	-0.497	0.004
-434.705	-178.103	0.226	0.005
-433.690	-137.724	-0.400	-0.046
-432.676	705.200	-0.114	0.305
-431.661	-81.764	-0.219	-0.073
-430.646	-91.334	0.282	0.082
-429.632	158.203	0.188	0.265
-428.617	-101.845	0.290	0.071
-427.603	500.610	-0.044	0.103
-426.588	-77.594	-0.163	0.057
-425.573	31.611	-0.246	-0.215
-424.559	-94.065	0.135	-0.038
-423.544	-122.390	0.112	0.018
-422.530	-200.000	0.010	-0.086
-421.515	-147.340	-0.102	-0.009
-420.500	800.000	-0.075	-0.252
-419.486	309.595	-0.150	-0.285
-418.471	96.220	-0.081	0.094
-417.457	40.586	-0.202	0.185
-416.442	-200.000	-0.011	-0.143
-415.428	343.544	0.058	0.116
-414.413	-12.036	-0.217	0.144
-413.398	167.491	0.189	0.274
-412.384	-150.710	-0.075	-0.006
-411.369	597.824	0.096	0.241
-410.355	-11.638	-0.217	0.145
-409.340	3.162	-0.198	0.147
-408.325	800.000	0.082	-0.255
-407.311	-91.530	0.165	0.048
-406.296	-156.090	0.411	-0.026
-405.282	290.681	-0.082	0.151
-404.267	-25.794	0.125	-0.075
-403.252	-11.574	0.264	0.176
-402.238	-200.000	0.027	-0.197
-401.223	218.995	0.092	0.150
-400.209	800.000	0.063	0.194
-399.194	585.340	0.114	0.284
-398.179	-75.616	-0.299	0.108
-397.165	-29.399	-0.236	-0.137
-396.150	-55.619	-0.236	-0.107
-395.136	64.449	0.100	0.102
-394.121	-12.577	0.154	0.102
-393.106	-200.000	-0.014	0.110
-392.092	55.975	-0.107	-0.105
-391.077	-108.049	-0.200	0.044
-390.063	-93.294	-0.123	0.035
-389.048	202.193	0.136	-0.214
-388.033	800.000	0.066	0.273
-387.019	-200.000	-0.000	0.276
-386.004	-125.335	-0.174	0.027
-384.990	116.373	-0.076	0.094
-383.975	-200.000	-0.010	-0.091
-382.960	-83.280	0.259	0.085
-381.946	26.595	-0.122	0.104
-380.931	-135.845	-0.089	0.011
-379.917	800.000	-0.049	0.187
-378.902	-114.676	0.102	0.020
-377.888	-149.501	0.205	-0.016
-376.873	-71.997	-0.322	-0.122
-375.858	105.538	0.172	0.206
-374.844	-200.000	0.034	-0.248
-373.829	81.872	0.047	0.052
-372.815	-200.000	0.009	-0.302
-371.800	111.462	0.075	-0.092
-370.785	129.275	0.197	0.256
-369.771	-200.000	0.000	0.061
-368.756	43.273	-0.050	-0.047
-367.742	-200.000	0.007	0.156
-366.727	800.000	-0.069	-0.284
-365.712	-80.971	0.146	-0.049
-364.698	109.047	0.112	0.136
-363.683	188.296	-0.077	0.117
-362.669	119.517	0.105	0.131
-361.654	359.744	-0.074	-0.150
-360.639	267.801	0.126	0.223
-359.625	22.253	0.203	0.168
-358.610	-177.456	0.237	0.006
-357.596	116.112	-0.090	-0.111
-356.581	183.608	0.208	0.313
-355.566	109.299	-0.097	0.118
-354.552	423.680	0.090	-0.196
-353.537	800.000	-0.013	0.054
-352.523	59.900	0.086	0.086
-351.508	-200.000	0.051	0.495
-350.493	-123.087	0.362	0.059
-349.479	312.426	0.022	-0.042
-348.464	87.761	-0.140	0.157
-347.450	-200.000	-0.026	0.430
-346.435	-65.919	0.029	0.012
-345.420	-92.663	0.273	0.078
-344.406	481.925	0.080	-0.183
-343.391	202.834	-0.145	0.227
-342.377	-114.385	0.036	0.007
-341.362	-109.601	0.237	-0.051
-340.348	19.425	0.021	0.017
-339.333	-111.065	-0.252	-0.052
-338.318	120.789	0.148	0.187
-337.304	-71.810	0.297	0.112
-336.289	83.506	0.190	0.210
-335.275	-200.000	0.019	0.127
-334.260	486.720	0.078	0.179
-333.245	-200.000	0.052	-0.419
-332.231	339.688	-0.124	0.245
-331.216	-105.120	0.242	0.056
-330.202	267.751	-0.188	0.333
-329.187	244.383	0.131	0.223
-328.172	-112.338	0.229	-0.046
-327.158	17.040	0.342	-0.275
-326.143	-182.432	-0.073	-0.001
-325.129	-6.463	0.031	0.021
-324.114	-96.038	-0.231	0.062
-323.099	-66.344	-0.295	0.119
-322.085	-128.853	-0.349	0.050
-321.070	-5.280	-0.055	0.038
-320.056	800.000	-0.072	0.255
-319.041	-48.418	0.107	0.052
-318.026	68.918	0.189	-0.197
-317.012	-127.129	0.094	0.014
-315.997	56.843	0.230	0.226
-314.983	68.964	0.110	-0.115
-313.968	-103.201	-0.305	0.073
-312.953	18.904	-0.237	0.192
-311.939	-200.000	-0.026	0.152
-310.924	-130.510	-0.268	-0.037
-309.910	800.000	0.066	0.293
-308.895	-164.596	0.162	-0.007
-307.880	324.522	0.086	-0.167
-306.866	800.000	0.042	0.177
-305.851	296.879	-0.178	-0.331
-304.837	800.000	-0.120	0.452
-303.822	-134.324	0.338	-0.042
-302.807	49.593	-0.179	-0.170
-301.793	-200.000	0.028	-0.243
-300.778	-200.000	0.041	-0.216
-299.764	-87.546	-0.160	0.049
-298.749	42.493	-0.201	-0.185
-297.735	800.000	0.040	-0.148
-296.720	-200.000	-0.004	0.082
-295.705	-129.292	0.361	-0.051
-294.691	-75.387	0.205	0.074
-293.676	-52.078	-0.107	0.050
-292.662	-200.000	0.384	-0.002
-291.647	-200.000	-0.048	-0.345
-290.632	25.112	-0.452	-0.379
-289.618	-143.734	-0.393	-0.038
-288.603	-200.000	-0.013	0.260
-287.589	-106.264	0.335	0.076
-286.574	233.972	-0.193	-0.321
-285.559	-40.857	0.163	-0.085
-284.545	-200.000	0.014	-0.104
-283.530	-189.593	-0.307	-0.004
-282.516	-89.522	0.123	0.036
-281.501	717.277	-0.093	-0.249
-280.486	293.409	0.083	-0.153
-279.472	-140.756	-0.054	0.006
-278.457	-200.000	0.016	0.077
-277.443	-115.781	0.256	0.048
-276.428	166.994	-0.125	-0.179
-275.413	-71.200	-0.103	-0.039
-274.399	-80.045	-0.235	0.080
-273.384	594.395	-0.046	-0.116
-272.370	223.713	0.129	0.211
-271.355	104.476	-0.065	0.078
-270.340	72.041	0.033	0.035
-269.326	-50.520	-0.225	0.107
-268.311	-200.000	0.020	-0.257
-267.297	750.694	0.092	-0.250
-266.282	-101.017	-0.258	0.064
-265.267	-96.133	-0.225	-0.060
-264.253	209.280	0.143	-0.227
-263.238	-92.964	0.301	-0.085
-262.224	525.055	-0.103	-0.246
-261.209	179.562	-0.112	-0.165
-260.195	800.000	-0.113	0.345
-259.180	282.883	-0.105	0.191
-258.165	-99.783	0.171	-0.043
-257.151	-200.000	0.000	-0.167
-256.136	1.861	0.115	0.084
-255.122	75.156	0.203	0.216
-254.107	51.589	-0.078	0.075
-253.092	389.352	-0.185	0.386
-252.078	42.271	-0.186	0.171
-251.063	105.279	0.192	0.229
-250.049	66.392	0.150	0.153
-249.034	-85.011	-0.305	-0.097
-248.019	-68.097	0.140	0.055
-247.005	-99.516	0.264	0.067
-245.990	-61.971	0.223	0.094
-244.976	-200.000	-0.033	-0.195
-243.961	-15.466	-0.184	-0.119
-242.946	-70.847	0.077	0.029
-241.932	215.686	-0.119	0.191
-240.917	-145.139	-0.116	0.011
-239.903	-200.000	0.002	0.032
-238.888	138.871	0.215	0.285
-237.873	594.790	0.047	-0.118
-236.859	-46.380	-0.227	0.113
-235.844	-103.323	0.340	0.081
-234.830	593.899	-0.145	0.361
-233.815	-75.966	0.252	-0.090
-232.800	-180.416	0.270	-0.006
-231.786	-151.905	-0.173	-0.013
-230.771	-27.820	0.268	-0.157
-229.757	-143.229	0.126	0.012
-228.742	3.583	0.160	0.118
-227.727	84.408	-0.257	0.284
-226.713	26.856	0.047	-0.040
-225.698	-113.767	-0.066	-0.013
-224.684	800.000	-0.068	-0.224
-223.669	-149.309	-0.044	0.004
-222.655	-113.272	-0.169	0.034
-221.640	-117.254	-0.322	0.059
-220.625	79.658	-0.051	0.056
-219.611	116.760	-0.276	0.341
-218.596	160.536	-0.098	-0.138
-217.582	-103.782	0.348	0.082
-216.567	-18.961	0.224	0.140
-215.552	-200.000	-0.019	0.244
-214.538	22.681	-0.124	0.102
-213.523	24.749	-0.201	-0.168
-212.509	-65.926	0.204	-0.082
-211.494	595.591	-0.045	-0.112
-210.479	291.495	-0.082	-0.150
-209.465	153.988	0.092	0.128
-208.450	-92.285	0.092	0.026
-207.436	-115.420	0.135	-0.026
-206.421	-163.530	-0.201	0.010
-205.406	-38.025	-0.223	-0.120
-204.392	27.967	0.170	0.145
-203.377	-95.530	0.193	-0.052
-202.363	800.000	-0.026	-0.103
-201.348	-136.191	-0.095	-0.011
-200.333	-168.683	-0.319	-0.012
-199.319	800.000	-0.080	0.244
-198.304	675.769	0.019	0.051
-197.290	-200.000	0.046	-0.225
-196.275	-94.586	-0.206	0.057
-195.260	21.803	0.104	0.085
-194.246	23.414	-0.128	0.106
-193.231	800.000	-0.061	0.175
-192.217	-12.655	0.112	0.074
-191.202	-108.204	0.126	0.028
-190.187	408.273	0.027	-0.058
-189.173	-29.226	0.370	-0.214
-188.158	-133.950	-0.261	0.033
-187.144	800.000	0.054	-0.158
-186.129	-32.793	0.247	0.139
-185.114	-200.000	0.000	-0.255
-184.100	505.268	0.021	-0.048
-183.085	277.113	-0.052	0.093
-182.071	507.974	-0.145	0.339
-181.056	486.787	-0.227	-0.522
-180.042	-65.679	0.097	0.039
-179.027	287.934	-0.142	-0.259
-178.012	470.985	-0.171	-0.388
-176.998	800.000	0.065	0.194
-175.983	-200.000	-0.014	-0.105
-174.969	-89.851	-0.296	-0.087
-173.954	-200.000	-0.212	0.000
-172.939	16.514	0.186	-0.148
-171.925	-33.455	0.193	0.108
-170.910	500.225	-0.097	0.224
-169.896	-64.480	0.247	0.101
-168.881	44.071	0.146	-0.135
-167.866	800.000	0.069	0.260
-166.852	-138.587	-0.305	-0.034
-165.837	-115.343	0.131	-0.025
-164.823	-43.287	-0.196	-0.100
-163.808	-140.823	-0.135	-0.014
-162.793	433.850	-0.136	0.296
-161.779	-128.983	-0.289	0.041
-160.764	-200.000	-0.032	0.154
-159.750	-200.000	-0.022	0.321
-158.735	32.728	-0.156	0.136
-157.720	-74.964	0.166	-0.060
-156.706	100.682	0.140	-0.164
-155.691	-69.923	0.085	-0.033
-154.677	170.681	-0.131	-0.189
-153.662	381.948	0.151	-0.312
-152.647	98.884	0.021	-0.024
-151.633	-20.288	0.128	-0.079
-150.618	18.180	0.241	0.194
-149.604	-200.000	0.019	-0.315
-148.589	-104.214	-0.258	-0.060
-147.574	61.246	-0.241	-0.241
-146.560	-114.016	0.403	0.079
-145.545	-51.698	-0.173	-0.081
-144.531	-200.000	0.012	0.072
-143.516	233.544	-0.129	0.213
-142.502	184.987	-0.100	-0.149
-141.487	257.058	0.113	-0.196
-140.472	-200.000	0.017	-0.084
-139.458	57.820	-0.085	0.084
-138.443	6.948	0.273	-0.205
-137.429	56.948	-0.194	0.190
-136.414	-37.662	0.162	-0.087
-135.399	180.113	0.084	0.124
-134.385	-200.000	-0.007	0.085
-133.370	21.893	-0.165	-0.135
-132.356	75.759	-0.154	0.164
-131.341	589.423	0.058	-0.145
-130.326	269.869	-0.164	-0.290
-129.312	-200.000	0.023	0.106
-128.297	-200.000	-0.015	-0.092
-127.283	268.893	0.055	0.097
-126.268	-85.821	0.257	-0.080
-125.253	800.000	-0.196	-0.612
-124.239	800.000	-0.159	-0.453
-123.224	-23.876	-0.167	0.100
-122.210	800.000	0.069	0.208
-121.195	-61.616	-0.140	0.059
