DTS Sentinel unit serial number:	SN413079Multiplexer serial number:	ORYXHardware model number:	OX4-SRSoftware version number:	ORYX F/W v4.00 Oryx Data Collector v3.7.2.0data status	okinstallation	princeton_trtdifferential loss correction	single-endedforward channel	channel 4reverse channel	N/Adate	2019/09/13time	16:37:35forward acquisition time	60.00reverse acquisition time	0.00gamma	496.2192k internal	0.2297k external	0.2297temperature offset calibration	1.0215default loss term (dB/km)	0.3790temperature slope calibration	1.0000multiplexer offset coefficient	1.0000multiplexer slope coefficient	1.0000fibre end	0.00T internal ref (°C)	35.06T ext. ref 1 (°C)	4.91T ext. ref 2 (°C)	29.85length (m)	temperature (°C)	Stokes	anti-Stokes-747.200	-83.442	0.089	-0.029
-746.185	66.441	-0.229	0.237
-745.171	6.757	0.195	0.148
-744.156	-42.019	0.062	0.032
-743.142	-10.882	0.426	0.287
-742.127	111.727	-0.145	0.179
-741.112	-78.792	-0.323	0.112
-740.098	-200.000	-0.011	0.371
-739.083	333.623	-0.105	-0.207
-738.069	-15.895	-0.050	0.033
-737.054	-200.000	0.044	0.322
-736.039	800.000	-0.023	0.069
-735.025	157.779	-0.073	0.104
-734.010	36.660	-0.182	-0.164
-732.996	-87.369	0.114	0.035
-731.981	-14.627	-0.145	-0.095
-730.966	158.641	-0.212	0.300
-729.952	-200.000	-0.048	-0.267
-728.937	-27.290	-0.247	-0.147
-727.923	-58.726	0.110	0.049
-726.908	87.229	0.100	-0.113
-725.894	497.660	0.040	0.094
-724.879	-87.765	0.356	-0.109
-723.864	89.231	0.035	0.040
-722.850	-200.000	0.028	-0.198
-721.835	-113.222	-0.183	0.037
-720.821	-200.000	0.039	-0.202
-719.806	222.701	-0.112	-0.184
-718.791	77.897	-0.012	0.013
-717.777	94.273	0.036	-0.041
-716.762	800.000	0.075	-0.290
-715.748	30.152	-0.178	-0.155
-714.733	-200.000	0.034	-0.211
-713.718	-200.000	0.024	0.261
-712.704	781.437	0.147	0.409
-711.689	124.398	-0.182	0.233
-710.675	15.874	-0.085	0.068
-709.660	533.947	-0.138	0.334
-708.645	510.986	-0.075	0.178
-707.631	25.494	-0.142	-0.121
-706.616	250.323	0.151	0.261
-705.602	-35.921	-0.197	0.109
-704.587	389.777	0.128	0.272
-703.572	-48.179	-0.198	0.097
-702.558	-200.000	0.030	-0.234
-701.543	51.722	-0.067	-0.065
-700.529	224.698	-0.108	0.178
-699.514	152.272	-0.036	-0.050
-698.499	302.985	0.146	-0.275
-697.485	-20.605	0.109	-0.068
-696.470	13.003	-0.166	-0.131
-695.456	-200.000	-0.008	-0.052
-694.441	-77.889	-0.171	0.060
-693.426	-129.850	-0.255	-0.036
-692.412	-126.214	0.506	0.077
-691.397	-162.153	0.135	0.007
-690.383	348.389	-0.125	-0.251
-689.368	117.752	0.210	-0.264
-688.354	486.467	0.072	-0.168
-687.339	293.396	-0.035	0.065
-686.324	-30.771	-0.316	-0.182
-685.310	800.000	0.023	-0.066
-684.295	288.391	0.145	-0.267
-683.281	-41.763	-0.042	-0.022
-682.266	-12.910	-0.076	0.050
-681.251	-200.000	0.002	0.086
-680.237	604.614	-0.062	-0.158
-679.222	-99.487	-0.216	0.055
-678.208	-144.731	-0.172	-0.016
-677.193	-47.920	-0.247	-0.122
-676.178	800.000	-0.050	0.168
-675.164	379.013	-0.162	-0.339
-674.149	-200.000	-0.070	0.396
-673.135	800.000	0.046	0.161
-672.120	166.105	0.100	0.144
-671.105	-103.626	-0.149	0.036
-670.091	-200.000	-0.040	0.392
-669.076	-200.000	-0.068	-0.331
-668.062	-69.272	0.038	0.015
-667.047	-17.343	-0.274	-0.176
-666.032	-149.879	-0.230	0.018
-665.018	-200.000	0.002	0.206
-664.003	-16.271	-0.125	0.081
-662.989	116.796	0.130	0.162
-661.974	-26.797	-0.105	-0.063
-660.959	-103.867	-0.240	-0.057
-659.945	800.000	-0.029	0.099
-658.930	341.462	-0.034	-0.067
-657.916	5.833	-0.306	-0.230
-656.901	-22.439	0.043	0.027
-655.886	36.399	0.060	-0.054
-654.872	-200.000	-0.021	0.095
-653.857	-84.531	-0.188	-0.060
-652.843	-58.076	-0.044	0.020
-651.828	343.360	-0.137	-0.273
-650.814	-7.569	0.232	-0.160
-649.799	-92.510	-0.234	0.067
-648.784	-4.025	0.201	0.142
-647.770	-74.035	-0.299	0.110
-646.755	-200.000	-0.015	-0.075
-645.741	800.000	-0.062	0.212
-644.726	-71.252	0.253	0.097
-643.711	-116.759	-0.150	0.028
-642.697	-81.878	-0.261	0.087
-641.682	269.362	0.120	0.215
-640.668	-69.555	-0.072	0.028
-639.653	27.533	0.204	-0.174
-638.638	46.457	0.151	0.143
-637.624	163.885	0.227	0.324
-636.609	633.449	-0.076	-0.197
-635.595	-200.000	-0.007	0.126
-634.580	411.969	0.119	-0.257
-633.565	-109.177	0.213	-0.046
-632.551	-4.357	-0.231	-0.162
-631.536	-128.836	-0.136	-0.020
-630.522	-171.692	-0.046	-0.002
-629.507	-200.000	-0.082	-0.476
-628.492	331.013	0.143	-0.280
-627.478	243.700	0.149	-0.255
-626.463	-161.117	-0.155	-0.008
-625.449	-63.728	0.160	0.067
-624.434	-200.000	0.020	-0.267
-623.419	631.990	-0.126	-0.325
-622.405	121.061	0.170	-0.215
-621.390	800.000	0.117	-0.495
-620.376	743.507	-0.103	-0.281
-619.361	800.000	0.067	-0.275
-618.346	-166.759	-0.026	-0.001
-617.332	4.497	0.042	-0.031
-616.317	20.283	-0.127	0.104
-615.303	-96.021	-0.179	-0.048
-614.288	-200.000	-0.014	0.071
-613.273	800.000	-0.022	0.069
-612.259	-90.906	0.217	-0.063
-611.244	-40.862	-0.072	-0.038
-610.230	7.071	-0.562	-0.426
-609.215	29.354	0.139	0.120
-608.201	65.241	0.074	0.076
-607.186	-200.000	-0.060	-0.314
-606.171	800.000	-0.049	0.207
-605.157	-66.813	-0.088	0.035
-604.142	-200.000	-0.006	0.055
-603.128	44.963	0.169	0.158
-602.113	160.354	-0.079	-0.112
-601.098	183.084	0.127	-0.190
-600.084	-200.000	0.010	-0.069
-599.069	-30.404	0.075	0.043
-598.055	-78.362	-0.465	0.162
-597.040	229.762	-0.182	-0.303
-596.025	-20.810	0.276	-0.172
-595.011	-121.648	-0.367	-0.062
-593.996	-200.000	0.012	-0.129
-592.982	154.745	-0.102	-0.142
-591.967	612.483	-0.081	-0.207
-590.952	-55.864	-0.284	-0.129
-589.938	-200.000	0.034	-0.286
-588.923	253.787	-0.151	-0.261
-587.909	-117.544	0.209	-0.038
-586.894	42.195	0.170	0.157
-585.879	-39.864	0.200	0.106
-584.865	-29.373	-0.304	0.177
-583.850	53.028	0.118	-0.115
-582.836	62.314	0.140	0.142
-581.821	-125.435	-0.214	-0.033
-580.806	110.576	-0.045	0.055
-579.792	753.111	0.100	0.275
-578.777	800.000	-0.043	0.169
-577.763	189.775	0.104	-0.159
-576.748	-135.582	0.359	-0.043
-575.733	209.005	-0.070	-0.112
-574.719	722.421	0.057	0.153
-573.704	800.000	-0.039	0.137
-572.690	-14.495	0.258	0.169
-571.675	-200.000	-0.086	-0.526
-570.661	268.936	0.054	0.096
-569.646	-8.648	0.113	0.077
-568.631	-81.659	0.126	0.042
-567.617	-103.694	-0.137	-0.033
-566.602	168.846	-0.084	-0.122
-565.588	-20.396	0.381	-0.238
-564.573	-200.000	-0.007	0.045
-563.558	54.563	0.089	0.087
-562.544	380.698	-0.121	-0.251
-561.529	-108.782	-0.358	-0.078
-560.515	800.000	-0.058	-0.182
-559.500	800.000	0.073	0.215
-558.485	76.317	0.112	-0.120
-557.471	5.117	-0.266	0.199
-556.456	41.561	-0.262	0.241
-555.442	-200.000	-0.039	0.287
-554.427	171.705	0.259	-0.376
-553.412	-163.296	-0.359	-0.017
-552.398	20.431	-0.305	0.250
-551.383	-109.675	0.217	0.046
-550.369	-200.000	0.001	-0.094
-549.354	74.404	-0.090	0.096
-548.339	41.742	-0.240	0.221
-547.325	54.220	-0.104	0.101
-546.310	800.000	0.068	-0.242
-545.296	-119.230	0.076	-0.013
-544.281	38.339	-0.109	-0.098
-543.266	439.112	0.155	0.344
-542.252	260.911	0.105	-0.184
-541.237	620.422	0.106	-0.271
-540.223	41.746	0.034	0.031
-539.208	-45.310	0.208	0.105
-538.193	-200.000	0.009	-0.176
-537.179	252.184	0.339	-0.585
-536.164	63.840	0.129	-0.132
-535.150	-124.931	-0.107	0.017
-534.135	217.182	-0.060	-0.097
-533.121	800.000	-0.059	0.246
-532.106	-91.246	0.063	-0.018
-531.091	-90.911	0.548	-0.160
-530.077	-200.000	0.006	0.080
-529.062	-104.371	-0.304	0.071
-528.048	40.293	-0.123	0.112
-527.033	-29.653	0.099	-0.057
-526.018	-97.921	0.158	0.041
-525.004	93.821	0.092	-0.105
-523.989	-59.721	-0.157	-0.068
-522.975	60.012	-0.230	0.230
-521.960	-122.287	-0.417	0.069
-520.945	-200.000	0.053	-0.239
-519.931	7.623	0.023	0.017
-518.916	-200.000	0.026	0.140
-517.902	-58.259	0.147	0.065
-516.887	66.628	-0.164	0.169
-515.872	-134.140	-0.113	0.014
-514.858	-79.925	-0.395	-0.134
-513.843	800.000	-0.021	0.063
-512.829	-38.019	-0.181	0.097
-511.814	396.825	0.179	-0.378
-510.799	-43.773	0.271	-0.138
-509.785	-200.000	-0.018	-0.098
-508.770	-200.000	0.045	0.243
-507.756	223.370	-0.038	0.063
-506.741	-200.000	-0.084	-0.425
-505.726	-200.000	0.018	-0.207
-504.712	-116.670	-0.289	-0.054
-503.697	-200.000	-0.036	0.254
-502.683	-29.047	-0.118	0.069
-501.668	-103.870	0.509	0.120
-500.653	78.805	-0.224	-0.243
-499.639	-60.085	0.112	0.048
-498.624	-80.445	-0.376	0.127
-497.610	325.045	-0.062	0.121
-496.595	131.459	-0.042	0.055
-495.581	145.858	-0.023	-0.031
-494.566	-200.000	-0.019	0.116
-493.551	-55.991	0.252	-0.114
-492.537	85.018	0.018	0.020
-491.522	307.951	0.121	0.228
-490.508	-200.000	-0.029	0.331
-489.493	85.360	0.258	0.286
-488.478	287.069	-0.210	0.385
-487.464	-113.841	0.117	0.023
-486.449	-200.000	-0.007	0.261
-485.435	-167.779	-0.199	-0.008
-484.420	-149.477	0.376	-0.030
-483.405	-83.990	0.295	0.095
-482.391	-200.000	-0.012	0.079
-481.376	343.250	0.121	-0.241
-480.362	57.894	-0.412	-0.408
-479.347	800.000	-0.036	-0.106
-478.332	29.187	-0.104	0.089
-477.318	145.907	0.116	-0.157
-476.303	-136.514	0.476	-0.056
-475.289	10.513	-0.253	0.195
-474.274	261.587	0.157	-0.274
-473.259	-154.128	0.272	-0.019
-472.245	-108.329	0.303	0.066
-471.230	61.851	-0.123	-0.123
-470.216	49.519	-0.205	-0.195
-469.201	-200.000	0.020	-0.162
-468.186	-144.755	0.159	-0.015
-467.172	-200.000	-0.043	-0.235
-466.157	-22.503	-0.106	0.065
-465.143	557.978	-0.132	-0.321
-464.128	-3.070	0.261	0.184
-463.113	-200.000	0.012	0.169
-462.099	-52.622	0.140	-0.065
-461.084	21.506	0.059	0.049
-460.070	-24.017	0.112	0.068
-459.055	39.249	-0.286	-0.259
-458.040	635.870	-0.044	0.113
-457.026	-200.000	-0.012	0.111
-456.011	-6.854	0.146	-0.100
-454.997	131.817	-0.113	-0.147
-453.982	-200.000	-0.026	-0.150
-452.968	-33.219	-0.197	0.110
-451.953	54.767	0.195	-0.190
-450.938	800.000	-0.077	-0.223
-449.924	156.665	0.067	-0.094
-448.909	308.022	0.100	0.188
-447.895	-83.651	0.248	0.080
-446.880	-123.449	-0.185	-0.030
-445.865	73.797	-0.113	-0.120
-444.851	-10.085	-0.168	0.113
-443.836	-44.294	-0.111	-0.056
-442.822	-117.724	-0.038	0.007
-441.807	624.095	0.120	-0.305
-440.792	-27.555	-0.274	0.161
-439.778	138.054	0.065	0.087
-438.763	52.686	0.009	-0.009
-437.749	-48.035	-0.144	0.070
-436.734	-98.919	-0.221	-0.057
-435.719	-200.000	-0.040	0.181
-434.705	290.001	0.043	-0.079
-433.690	93.137	0.190	0.217
-432.676	122.507	0.042	0.053
-431.661	-58.126	-0.273	-0.120
-430.646	-73.914	-0.198	0.072
-429.632	-72.683	-0.074	0.028
-428.617	27.430	0.305	-0.259
-427.603	227.090	0.117	-0.191
-426.588	-35.617	-0.090	0.049
-425.573	-17.032	0.267	0.170
-424.559	82.889	-0.022	-0.024
-423.544	800.000	0.099	0.301
-422.530	-103.069	-0.137	0.033
-421.515	-19.715	0.298	-0.186
-420.500	161.853	0.109	-0.154
-419.486	-0.062	-0.302	-0.217
-418.471	1.577	0.360	0.261
-417.457	387.303	0.038	0.078
-416.442	9.435	-0.244	0.186
-415.428	777.675	0.064	0.175
-414.413	16.448	-0.090	-0.072
-413.398	482.669	0.084	-0.191
-412.384	57.857	-0.127	-0.125
-411.369	-200.000	-0.015	-0.149
-410.355	-66.135	-0.170	-0.068
-409.340	-200.000	-0.003	0.038
-408.325	322.391	0.169	0.325
-407.311	50.220	0.258	0.246
-406.296	-95.256	-0.210	-0.057
-405.282	231.288	0.139	0.229
-404.267	-200.000	0.029	0.143
-403.252	800.000	-0.003	-0.014
-402.238	-58.715	-0.149	-0.065
-401.223	-150.903	-0.318	0.024
-400.209	-67.059	-0.129	-0.051
-399.194	38.813	-0.009	0.008
-398.179	-200.000	0.035	0.271
-397.165	115.254	-0.144	-0.178
-396.150	-200.000	0.014	0.097
-395.136	-200.000	-0.004	-0.094
-394.121	-86.307	0.325	-0.101
-393.106	-27.717	-0.167	-0.097
-392.092	500.693	-0.068	-0.159
-391.077	40.888	-0.137	0.125
-390.063	146.822	-0.072	-0.098
-389.048	-143.493	-0.225	0.022
-388.033	103.981	0.137	-0.162
-387.019	-200.000	0.058	0.311
-386.004	181.772	-0.135	0.201
-384.990	-108.786	0.320	0.069
-383.975	-200.000	-0.082	-0.000
-382.960	-185.004	-0.184	0.003
-381.946	-200.000	-0.029	-0.249
-380.931	-200.000	-0.001	-0.126
-379.917	166.055	-0.180	0.257
-378.902	-110.217	-0.204	-0.043
-377.888	-138.867	-0.272	-0.030
-376.873	67.707	0.157	0.161
-375.858	-99.037	-0.233	-0.059
-374.844	-148.944	0.346	-0.028
-373.829	-200.000	-0.011	0.297
-372.815	-62.221	0.153	0.064
-371.800	800.000	0.065	0.188
-370.785	-88.567	-0.262	0.078
-369.771	239.599	0.236	0.395
-368.756	-8.214	-0.297	0.202
-367.742	-157.778	-0.294	-0.018
-366.727	117.729	-0.012	0.015
-365.712	-104.227	0.273	-0.064
-364.698	567.062	-0.110	-0.268
-363.683	8.937	0.228	-0.173
-362.669	-139.904	-0.175	-0.019
-361.654	-200.000	-0.009	0.190
-360.639	76.075	0.111	-0.118
-359.625	73.090	-0.181	0.191
-358.610	800.000	0.057	-0.228
-357.596	-200.000	0.054	0.342
-356.581	-128.385	0.211	-0.030
-355.566	-41.295	0.311	-0.161
-354.552	800.000	-0.044	0.147
-353.537	800.000	-0.027	0.106
-352.523	-200.000	0.018	0.099
-351.508	-81.123	0.187	0.062
-350.493	-5.616	0.378	0.261
-349.479	157.923	0.112	0.156
-348.464	-14.174	0.236	-0.153
-347.450	-181.767	0.266	-0.005
-346.435	130.350	0.154	-0.198
-345.420	-7.914	0.147	-0.100
-344.406	513.892	0.110	-0.259
-343.391	800.000	0.063	-0.226
-342.377	-119.808	-0.426	0.074
-341.362	-200.000	0.026	0.340
-340.348	426.008	-0.098	0.212
-339.333	209.600	0.165	-0.260
-338.318	-78.524	0.377	0.130
-337.304	252.767	0.104	-0.178
-336.289	-136.342	-0.099	-0.012
-335.275	46.077	0.146	-0.136
-334.260	-200.000	0.057	0.313
-333.245	49.457	-0.073	-0.069
-332.231	1.560	-0.415	0.300
-331.216	-79.151	-0.151	-0.051
-330.202	122.215	-0.221	-0.278
-329.187	-172.009	-0.399	-0.013
-328.172	-21.300	-0.130	0.080
-327.158	-41.703	-0.201	-0.103
-326.143	78.032	-0.198	-0.212
-325.129	800.000	-0.034	0.147
-324.114	-95.873	-0.636	0.170
-323.099	-33.839	0.281	0.156
-322.085	-200.000	-0.024	0.203
-321.070	-26.606	0.200	-0.117
-320.056	800.000	0.091	0.311
-319.041	-12.823	-0.233	-0.153
-318.026	64.962	0.115	-0.117
-317.012	-110.682	-0.383	0.080
-315.997	97.419	0.022	-0.026
-314.983	-131.794	0.260	-0.034
-313.968	-151.980	0.252	0.018
-312.953	-67.804	-0.229	0.090
-311.939	499.181	-0.102	-0.237
-310.924	-104.292	0.027	-0.006
-309.910	800.000	-0.067	0.193
-308.895	-30.256	-0.235	0.134
-307.880	800.000	-0.133	0.425
-306.866	-32.757	-0.119	0.066
-305.851	800.000	-0.132	0.380
-304.837	-200.000	-0.029	-0.141
-303.822	164.168	0.244	0.346
-302.807	-91.547	0.118	0.034
-301.793	9.754	-0.029	-0.022
-300.778	6.042	-0.213	0.158
-299.764	-200.000	0.069	-0.321
-298.749	745.637	0.097	0.263
-297.735	109.080	-0.025	-0.030
-296.720	252.867	-0.051	0.088
-295.705	-130.404	0.160	-0.022
-294.691	-200.000	0.060	-0.392
-293.676	70.932	0.103	0.107
-292.662	800.000	-0.072	-0.236
-291.647	-200.000	-0.084	-0.502
-290.632	-34.657	-0.198	0.109
-289.618	10.211	0.236	0.180
-288.603	-60.159	0.270	0.115
-287.589	8.483	-0.250	-0.188
-286.574	91.080	0.110	-0.123
-285.559	-141.866	-0.277	-0.028
-284.545	30.850	-0.249	-0.214
-283.530	-200.000	0.003	0.036
-282.516	-159.620	0.372	0.021
-281.501	-69.641	0.234	-0.090
-280.486	-185.583	0.150	0.002
-279.472	-107.817	-0.349	-0.076
-278.457	800.000	0.015	-0.052
-277.443	-157.730	0.330	0.020
-276.428	-200.000	-0.042	0.202
-275.413	-200.000	0.082	0.404
-274.399	-92.701	0.041	0.012
-273.384	-117.340	-0.271	0.049
-272.370	-81.392	-0.168	0.055
-271.355	-122.528	0.412	-0.067
-270.340	-30.524	0.200	-0.114
-269.326	800.000	0.084	0.347
-268.311	800.000	-0.025	-0.072
-267.297	23.277	-0.346	-0.285
-266.282	291.050	-0.116	0.212
-265.267	-106.153	0.246	-0.055
-264.253	-53.998	-0.071	-0.032
-263.238	76.645	-0.127	0.134
-262.224	-61.163	-0.166	0.070
-261.209	-200.000	0.039	0.186
-260.195	141.125	0.061	-0.080
-259.180	800.000	0.049	-0.152
-258.165	211.539	0.181	-0.285
-257.151	-163.110	0.373	-0.018
-256.136	-200.000	0.040	0.277
-255.122	-50.136	-0.141	0.067
-254.107	334.823	0.171	-0.333
-253.092	33.465	-0.049	0.043
-252.078	433.602	0.070	0.152
-251.063	147.898	-0.117	0.158
-250.049	562.786	-0.132	0.319
-249.034	-138.389	0.290	0.032
-248.019	800.000	0.058	-0.163
-247.005	-200.000	-0.040	0.214
-245.990	-96.645	-0.289	0.076
-244.976	-156.185	-0.283	-0.018
-243.961	-73.630	-0.220	0.080
-242.946	-100.551	0.069	0.017
-241.932	-200.000	0.014	0.131
-240.917	-50.784	-0.055	0.026
-239.903	55.186	-0.081	-0.079
-238.888	-129.225	-0.106	0.015
-237.873	405.045	0.182	-0.384
-236.859	559.877	0.128	-0.310
-235.844	800.000	-0.043	0.145
-234.830	508.553	0.105	-0.245
-233.815	-144.821	-0.290	-0.027
-232.800	800.000	0.037	-0.116
-231.786	45.650	0.137	0.127
-230.771	-86.214	-0.083	-0.026
-229.757	-200.000	-0.014	0.146
-228.742	-80.774	-0.114	-0.038
-227.727	-200.000	-0.024	-0.121
-226.713	-33.505	0.295	0.163
-225.698	-120.808	-0.413	0.070
-224.684	139.725	-0.127	-0.167
-223.669	-50.957	-0.063	0.030
-222.655	-8.300	0.218	-0.147
-221.640	564.383	0.071	0.173
-220.625	-192.686	-0.264	-0.002
-219.611	800.000	0.171	0.562
-218.596	-17.788	-0.186	-0.117
-217.582	35.183	0.251	0.220
-216.567	-200.000	-0.005	-0.103
-215.552	431.219	0.183	-0.396
-214.538	-73.922	-0.080	-0.029
-213.523	395.706	0.049	-0.102
-212.509	-200.000	0.013	0.342
-211.494	555.322	0.083	0.199
-210.479	-10.865	0.147	-0.097
-209.465	56.137	-0.110	-0.107
-208.450	-200.000	0.021	0.460
-207.436	-78.694	0.266	0.091
-206.421	-50.110	-0.110	-0.052
-205.406	-142.579	-0.338	0.033
-204.392	103.116	0.210	0.246
-203.377	-200.000	-0.027	-0.291
-202.363	800.000	0.008	-0.030
-201.348	252.795	0.070	-0.119
-200.333	-73.751	-0.421	0.153
-199.319	192.335	0.154	0.233
-198.304	-58.361	-0.306	0.133
-197.290	19.054	-0.134	-0.108
-196.275	297.344	0.094	-0.172
-195.260	-105.351	-0.054	0.012
-194.246	328.399	-0.152	-0.292
-193.231	-38.684	-0.042	0.022
-192.217	290.884	0.155	0.281
-191.202	-179.922	0.407	-0.009
-190.187	-166.217	-0.304	0.013
-189.173	114.288	0.215	0.261
-188.158	800.000	0.073	-0.234
-187.144	-156.635	0.224	-0.014
-186.129	-28.266	0.249	-0.144
-185.114	800.000	0.044	-0.142
-184.100	-28.710	0.052	-0.030
-183.085	34.743	0.125	-0.109
-182.071	165.791	0.216	-0.305
-181.056	-200.000	0.168	0.001
-180.042	268.397	-0.198	0.348
-179.027	426.449	0.229	0.494
-178.012	-200.000	-0.049	0.391
-176.998	-200.000	-0.030	0.191
-175.983	800.000	-0.011	0.044
-174.969	800.000	0.063	-0.210
-173.954	-137.757	-0.056	-0.006
-172.939	525.201	-0.046	-0.108
-171.925	800.000	-0.059	0.190
-170.910	-26.819	0.266	0.156
-169.896	800.000	0.085	0.285
-168.881	-57.148	0.056	-0.025
-167.866	32.763	0.081	-0.070
-166.852	-184.127	-0.256	-0.004
-165.837	18.615	0.155	-0.124
-164.823	223.493	0.106	0.170
-163.808	117.689	0.235	-0.288
-162.793	-102.900	-0.388	0.092
-161.779	95.284	0.051	0.058
-160.764	132.102	0.137	-0.177
-159.750	-63.585	0.217	-0.089
-158.735	151.865	0.189	0.258
-157.720	-130.111	0.188	-0.026
-156.706	92.539	-0.140	0.158
-155.691	222.142	0.078	-0.125
-154.677	-200.000	0.031	-0.256
-153.662	33.111	0.143	-0.124
-152.647	-107.329	0.085	-0.019
-151.633	-81.178	-0.190	-0.063
-150.618	-8.610	0.092	0.062
-149.604	800.000	0.085	-0.285
-148.589	-200.000	-0.012	-0.333
-147.574	47.419	0.179	0.166
-146.560	-16.383	0.047	-0.029
-145.545	-180.465	-0.189	-0.004
-144.531	-48.948	0.157	-0.075
-143.516	-200.000	0.028	0.144
-142.502	160.370	0.156	0.217
-141.487	800.000	-0.028	-0.105
-140.472	-182.492	-0.326	0.006
-139.458	-200.000	0.003	0.105
-138.443	118.083	0.097	0.120
-137.429	-55.462	-0.269	-0.120
-136.414	326.880	0.009	0.017
-135.399	-200.000	0.032	0.406
-134.385	-5.041	-0.233	-0.160
-133.370	62.047	-0.066	-0.065
-132.356	83.719	0.256	0.278
-131.341	-117.968	-0.078	-0.014
-130.326	-46.520	-0.136	-0.067
-129.312	800.000	-0.006	0.023
-128.297	-122.429	-0.104	0.017
-127.283	-37.931	0.108	-0.057
-126.268	82.193	-0.114	0.123
-125.253	36.426	0.134	-0.118
-124.239	-200.000	-0.014	0.232
-123.224	-200.000	0.015	0.205
-122.210	399.606	-0.175	0.366
-121.195	-50.970	0.087	-0.041
