DTS Sentinel unit serial number:	SN413079Multiplexer serial number:	ORYXHardware model number:	OX4-SRSoftware version number:	ORYX F/W v4.00 Oryx Data Collector v3.7.2.0data status	okinstallation	princeton_trtdifferential loss correction	single-endedforward channel	channel 4reverse channel	N/Adate	2019/09/13time	00:49:35forward acquisition time	60.00reverse acquisition time	0.00gamma	496.2192k internal	0.2318k external	0.2318temperature offset calibration	1.0167default loss term (dB/km)	0.3790temperature slope calibration	1.0000multiplexer offset coefficient	1.0000multiplexer slope coefficient	1.0000fibre end	0.00T internal ref (°C)	28.17T ext. ref 1 (°C)	3.64T ext. ref 2 (°C)	22.66length (m)	temperature (°C)	Stokes	anti-Stokes-747.200	-200.000	0.059	-0.437
-746.185	-177.144	-0.491	-0.012
-745.171	-0.912	0.149	0.107
-744.156	-200.000	-0.035	0.231
-743.142	74.555	0.105	-0.112
-742.127	-44.329	-0.109	0.055
-741.112	733.640	0.027	0.073
-740.098	147.124	-0.180	0.244
-739.083	77.959	0.037	0.040
-738.069	682.429	0.222	0.586
-737.054	-200.000	0.012	-0.167
-736.039	-143.154	-0.333	0.033
-735.025	-200.000	-0.004	0.123
-734.010	-80.023	-0.237	0.080
-732.996	-200.000	-0.023	0.124
-731.981	131.133	-0.134	-0.174
-730.966	-200.000	0.057	-0.347
-729.952	237.618	-0.084	-0.141
-728.937	-124.092	-0.295	0.047
-727.923	-161.270	0.262	-0.014
-726.908	-200.000	0.025	-0.301
-725.894	-196.101	-0.216	0.002
-724.879	-200.000	-0.011	-0.103
-723.864	-20.052	-0.427	0.266
-722.850	293.201	-0.043	-0.079
-721.835	41.101	-0.182	0.166
-720.821	446.793	-0.104	0.231
-719.806	-8.375	-0.130	0.089
-718.791	225.148	-0.160	-0.262
-717.777	12.848	-0.272	0.213
-716.762	4.148	-0.138	-0.102
-715.748	-200.000	-0.039	-0.361
-714.733	313.405	-0.211	-0.402
-713.718	709.203	0.066	0.176
-712.704	145.325	-0.093	-0.126
-711.689	108.838	0.067	-0.081
-710.675	-1.494	-0.168	0.120
-709.660	38.835	0.123	0.111
-708.645	-93.291	-0.118	0.033
-707.631	-124.688	0.281	0.044
-706.616	-36.465	0.093	0.050
-705.602	55.886	-0.236	-0.231
-704.587	-200.000	-0.023	0.108
-703.572	96.441	-0.189	0.218
-702.558	662.983	0.021	-0.054
-701.543	7.412	-0.065	-0.049
-700.529	-127.705	-0.099	0.014
-699.514	-136.715	0.167	-0.020
-698.499	141.754	0.192	0.257
-697.485	12.567	0.236	-0.184
-696.470	32.005	0.159	-0.138
-695.456	113.129	-0.185	-0.227
-694.441	-200.000	0.002	0.073
-693.426	-80.605	-0.243	-0.082
-692.412	13.334	0.092	0.072
-691.397	200.594	-0.184	0.285
-690.383	82.303	0.287	-0.315
-689.368	-200.000	-0.023	0.377
-688.354	-200.000	-0.007	-0.195
-687.339	-125.569	0.180	0.028
-686.324	527.699	-0.171	0.407
-685.310	235.011	-0.140	0.233
-684.295	34.917	-0.133	0.118
-683.281	176.006	-0.052	0.077
-682.266	-200.000	-0.004	-0.026
-681.251	-200.000	-0.084	-0.431
-680.237	-124.294	0.112	0.018
-679.222	-31.395	-0.319	0.181
-678.208	-177.411	-0.050	-0.001
-677.193	-6.960	0.001	-0.001
-676.178	-7.557	-0.149	-0.102
-675.164	641.791	-0.118	-0.304
-674.149	800.000	-0.069	0.264
-673.135	52.006	0.075	0.072
-672.120	288.170	0.078	0.143
-671.105	-11.100	-0.343	0.228
-670.091	-200.000	-0.042	-0.205
-669.076	288.028	-0.127	-0.232
-668.062	-200.000	0.072	0.375
-667.047	-13.924	-0.329	0.215
-666.032	138.775	-0.086	-0.114
-665.018	800.000	0.094	-0.367
-664.003	239.857	0.184	-0.310
-662.989	-165.572	-0.183	0.008
-661.974	-200.000	-0.002	0.038
-660.959	800.000	-0.144	-0.437
-659.945	94.576	0.102	-0.117
-658.930	4.325	-0.207	-0.153
-657.916	-37.704	0.231	-0.124
-656.901	151.520	0.092	0.127
-655.886	800.000	0.067	-0.229
-654.872	392.493	0.108	-0.227
-653.857	800.000	-0.013	-0.039
-652.843	800.000	-0.083	-0.247
-651.828	-76.291	-0.099	-0.035
-650.814	-39.804	-0.218	0.115
-649.799	345.143	-0.189	-0.374
-648.784	-69.211	0.434	-0.168
-647.770	-153.912	0.070	-0.005
-646.755	-200.000	0.026	-0.371
-645.741	-106.497	-0.075	-0.017
-644.726	-200.000	-0.030	0.154
-643.711	-33.617	-0.103	0.058
-642.697	9.971	-0.144	0.110
-641.682	446.961	-0.089	0.197
-640.668	-44.276	-0.142	-0.072
-639.653	-200.000	-0.010	-0.156
-638.638	-85.568	-0.275	-0.086
-637.624	-72.550	0.281	-0.105
-636.609	137.472	0.122	0.161
-635.595	-96.907	-0.229	0.061
-634.580	-105.369	0.273	0.063
-633.565	-200.000	-0.004	0.033
-632.551	-19.287	-0.140	-0.088
-631.536	-200.000	0.010	-0.172
-630.522	-5.226	-0.198	-0.137
-629.507	-200.000	0.105	-0.000
-628.492	1.145	0.232	-0.168
-627.478	-200.000	-0.046	-0.233
-626.463	-129.588	-0.394	0.055
-625.449	-200.000	-0.033	-0.212
-624.434	800.000	0.036	-0.099
-623.419	-200.000	0.032	-0.201
-622.405	59.887	-0.084	0.084
-621.390	-83.598	-0.024	0.008
-620.376	85.510	-0.049	-0.055
-619.361	100.110	0.032	0.037
-618.346	128.741	0.254	-0.326
-617.332	-61.884	0.341	-0.144
-616.317	-45.641	0.281	-0.140
-615.303	368.322	0.090	-0.183
-614.288	-200.000	-0.009	0.103
-613.273	-82.127	-0.101	-0.033
-612.259	-200.000	0.032	-0.234
-611.244	100.043	-0.160	-0.186
-610.230	-200.000	0.006	0.066
-609.215	449.424	0.069	-0.154
-608.201	519.607	-0.024	-0.057
-607.186	-200.000	0.088	0.404
-606.171	-200.000	-0.016	0.133
-605.157	-200.000	0.004	-0.091
-604.142	800.000	0.056	0.182
-603.128	800.000	-0.091	0.309
-602.113	-200.000	0.075	0.403
-601.098	-52.957	0.167	-0.077
-600.084	-120.276	-0.299	-0.051
-599.069	-113.308	-0.366	0.072
-598.055	-129.891	0.048	0.007
-597.040	-76.098	-0.017	0.006
-596.025	-100.246	0.045	-0.011
-595.011	-187.362	0.212	-0.003
-593.996	-88.553	-0.517	-0.155
-592.982	244.186	-0.114	0.193
-591.967	80.765	-0.188	-0.203
-590.952	-11.015	-0.068	0.045
-589.938	93.293	0.091	0.103
-588.923	-76.809	-0.241	0.085
-587.909	351.369	0.022	0.044
-586.894	49.096	-0.118	-0.112
-585.879	-65.734	0.101	-0.041
-584.865	-2.939	-0.068	0.048
-583.850	87.463	-0.198	0.220
-582.836	173.045	-0.017	0.024
-581.821	800.000	0.047	-0.174
-580.806	453.838	0.085	-0.189
-579.792	372.743	0.105	-0.215
-578.777	-200.000	-0.215	0.000
-577.763	169.586	-0.034	0.049
-576.748	800.000	-0.014	-0.059
-575.733	-151.629	0.147	-0.011
-574.719	-105.884	0.155	-0.035
-573.704	54.053	-0.190	-0.184
-572.690	800.000	-0.035	-0.124
-571.675	-200.000	0.002	-0.140
-570.661	-54.692	-0.171	-0.078
-569.646	-18.686	0.103	0.065
-568.631	134.415	0.215	-0.280
-567.617	-96.880	-0.085	-0.022
-566.602	-8.820	-0.118	0.080
-565.588	-65.692	-0.371	-0.150
-564.573	-65.942	0.150	0.060
-563.558	-182.788	0.158	0.003
-562.544	-58.683	0.243	0.106
-561.529	-148.570	0.211	-0.017
-560.515	-200.000	0.101	0.454
-559.500	-34.331	0.200	-0.110
-558.485	-168.230	-0.094	0.004
-557.471	737.454	0.061	0.165
-556.456	800.000	-0.049	0.136
-555.442	-200.000	-0.081	0.483
-554.427	-45.652	0.168	0.084
-553.412	-141.871	-0.302	-0.030
-552.398	-200.000	-0.029	0.203
-551.383	-4.209	-0.278	-0.194
-550.369	-49.329	-0.213	0.102
-549.354	-36.065	0.302	-0.164
-548.339	-200.000	0.042	-0.239
-547.325	-200.000	-0.042	-0.201
-546.310	-200.000	-0.001	-0.205
-545.296	-200.000	0.022	-0.190
-544.281	204.274	0.098	-0.152
-543.266	800.000	-0.064	-0.212
-542.252	-40.376	0.239	-0.125
-541.237	-36.505	0.086	0.046
-540.223	-74.074	-0.120	-0.044
-539.208	-45.965	0.175	0.087
-538.193	800.000	0.054	0.184
-537.179	-200.000	0.021	-0.340
-536.164	132.112	0.158	0.204
-535.150	-35.908	0.157	-0.085
-534.135	-108.814	0.145	0.031
-533.121	-200.000	-0.004	-0.063
-532.106	-122.867	-0.280	0.045
-531.091	-113.302	-0.347	0.069
-530.077	-158.716	0.156	-0.009
-529.062	-112.779	0.093	-0.018
-528.048	-72.985	0.113	0.042
-527.033	-200.000	0.035	0.273
-526.018	-57.997	-0.357	0.156
-525.004	-88.640	0.117	0.035
-523.989	-106.121	-0.025	0.006
-522.975	800.000	0.074	0.229
-521.960	800.000	0.094	0.282
-520.945	-32.057	-0.295	-0.166
-519.931	181.337	-0.144	-0.213
-518.916	26.792	0.162	0.136
-517.902	800.000	-0.043	0.130
-516.887	-94.301	-0.041	0.011
-515.872	-169.311	0.230	-0.009
-514.858	-115.098	-0.293	-0.056
-513.843	-200.000	-0.003	-0.280
-512.829	-61.159	0.082	-0.035
-511.814	1.340	0.099	0.072
-510.799	-71.747	0.111	-0.041
-509.785	-94.958	0.234	-0.063
-508.770	35.188	0.056	-0.050
-507.756	-193.649	-0.149	0.001
-506.741	325.622	-0.122	0.234
-505.726	-200.000	0.016	0.075
-504.712	-200.000	0.012	0.106
-503.697	-132.957	-0.347	0.044
-502.683	-82.689	-0.019	0.006
-501.668	330.261	0.079	0.152
-500.653	-97.019	-0.215	0.057
-499.639	-200.000	0.067	-0.411
-498.624	-200.000	-0.077	-0.537
-497.610	649.264	-0.126	-0.324
-496.595	-200.000	0.000	0.189
-495.581	241.298	0.100	-0.168
-494.566	-200.000	0.002	0.086
-493.551	-58.641	0.073	0.032
-492.537	706.978	-0.107	-0.285
-491.522	-79.026	-0.113	-0.039
-490.508	-152.036	0.341	-0.025
-489.493	14.627	0.271	-0.212
-488.478	800.000	0.086	0.326
-487.464	-14.697	0.101	0.065
-486.449	472.805	0.063	-0.142
-485.435	-35.565	-0.218	-0.118
-484.420	30.452	0.105	-0.090
-483.405	-200.000	-0.048	-0.374
-482.391	-88.291	-0.178	-0.053
-481.376	133.393	0.066	0.085
-480.362	-87.867	0.269	0.081
-479.347	-56.199	0.177	0.079
-478.332	433.953	-0.208	-0.453
-477.318	-30.607	0.209	0.119
-476.303	291.115	-0.026	-0.046
-475.289	800.000	-0.044	-0.124
-474.274	800.000	0.122	-0.385
-473.259	33.712	-0.044	0.039
-472.245	232.918	-0.082	0.135
-471.230	-143.152	0.337	-0.033
-470.216	23.565	-0.149	-0.123
-469.201	-37.619	-0.206	-0.110
-468.186	-11.139	0.150	-0.099
-467.172	-113.694	0.131	-0.026
-466.157	496.705	-0.053	-0.121
-465.143	86.808	-0.088	-0.097
-464.128	507.463	-0.057	0.132
-463.113	-166.411	-0.129	0.005
-462.099	109.631	-0.144	-0.173
-461.084	-157.386	0.105	0.006
-460.070	800.000	-0.088	0.362
-459.055	560.951	-0.059	0.144
-458.040	438.960	-0.117	-0.256
-457.026	-200.000	0.041	-0.226
-456.011	53.195	0.079	-0.076
-454.997	-31.092	0.087	-0.049
-453.982	30.425	-0.137	0.117
-452.968	-200.000	0.008	0.074
-451.953	67.380	-0.038	-0.039
-450.938	-200.000	-0.005	0.131
-449.924	45.995	0.177	-0.164
-448.909	24.359	-0.143	-0.118
-447.895	381.271	0.094	-0.193
-446.880	428.723	-0.050	0.107
-445.865	-122.252	0.263	0.043
-444.851	302.326	0.106	-0.195
-443.836	-200.000	-0.113	-0.629
-442.822	792.458	0.014	-0.039
-441.807	-200.000	0.019	0.249
-440.792	-29.581	-0.356	0.203
-439.778	-43.378	0.247	0.125
-438.763	-114.980	-0.103	-0.020
-437.749	253.582	0.105	-0.179
-436.734	260.557	0.087	-0.150
-435.719	436.667	-0.016	-0.035
-434.705	-90.737	-0.116	-0.033
-433.690	-200.000	-0.027	0.220
-432.676	168.108	-0.185	-0.263
-431.661	-139.005	-0.121	-0.013
-430.646	271.309	0.045	0.080
-429.632	582.360	0.018	-0.044
-428.617	-89.733	-0.377	0.111
-427.603	11.767	-0.182	0.140
-426.588	800.000	0.064	-0.220
-425.573	272.566	-0.016	-0.029
-424.559	-127.886	-0.143	-0.021
-423.544	-200.000	-0.012	-0.279
-422.530	-18.397	-0.053	-0.033
-421.515	800.000	0.016	0.065
-420.500	-196.737	-0.032	-0.000
-419.486	23.230	0.199	-0.164
-418.471	-22.652	-0.077	-0.047
-417.457	-80.431	0.089	-0.030
-416.442	251.347	-0.061	-0.104
-415.428	-66.734	-0.224	-0.088
-414.413	-74.488	0.128	-0.046
-413.398	-75.713	-0.153	-0.054
-412.384	-59.933	0.181	0.077
-411.369	48.212	0.033	0.031
-410.355	-101.280	-0.243	-0.059
-409.340	-200.000	-0.024	0.182
-408.325	-63.945	0.234	0.095
-407.311	533.173	0.108	0.256
-406.296	501.673	-0.055	0.127
-405.282	-119.464	0.152	0.026
-404.267	121.442	0.232	-0.289
-403.252	800.000	-0.076	-0.326
-402.238	250.330	-0.104	0.177
-401.223	-200.000	0.002	0.077
-400.209	-31.258	0.261	-0.147
-399.194	92.202	-0.112	-0.126
-398.179	-0.699	-0.098	-0.069
-397.165	55.824	0.384	0.371
-396.150	189.008	0.087	-0.130
-395.136	70.652	-0.050	0.051
-394.121	376.086	0.115	0.235
-393.106	97.665	0.281	-0.323
-392.092	-67.558	-0.039	-0.015
-391.077	23.220	-0.174	0.142
-390.063	-200.000	0.016	-0.297
-389.048	233.261	0.165	-0.270
-388.033	135.773	0.206	-0.268
-387.019	-43.357	-0.240	-0.121
-386.004	410.906	-0.090	0.191
-384.990	-109.811	0.101	-0.021
-383.975	385.621	-0.124	0.255
-382.960	-137.953	-0.328	-0.037
-381.946	800.000	0.112	-0.448
-380.931	-113.784	0.173	-0.034
-379.917	61.326	0.188	-0.186
-378.902	84.280	-0.222	0.242
-377.888	-55.692	0.073	-0.033
-376.873	96.087	0.027	-0.031
-375.858	105.768	-0.328	0.387
-374.844	-118.142	0.166	0.030
-373.829	-157.995	0.339	0.020
-372.815	67.184	-0.061	0.062
-371.800	-200.000	0.013	0.075
-370.785	36.016	0.103	0.090
-369.771	800.000	-0.066	-0.182
-368.756	-53.289	0.229	0.105
-367.742	26.621	0.166	-0.139
-366.727	157.333	-0.140	0.193
-365.712	-24.243	0.264	0.157
-364.698	-200.000	-0.037	-0.303
-363.683	80.201	-0.139	-0.149
-362.669	-195.485	0.277	-0.002
-361.654	-30.108	-0.387	-0.219
-360.639	-200.000	-0.027	0.164
-359.625	97.413	0.072	0.083
-358.610	-42.555	0.090	-0.046
-357.596	284.889	0.222	-0.398
-356.581	-104.472	0.146	-0.034
-355.566	-111.508	-0.084	-0.017
-354.552	-200.000	-0.065	0.387
-353.537	745.095	-0.025	0.068
-352.523	-44.761	-0.074	0.037
-351.508	250.957	-0.232	0.393
-350.493	42.225	0.151	-0.136
-349.479	-83.272	-0.370	0.119
-348.464	-200.000	-0.010	0.076
-347.450	177.362	-0.156	0.227
-346.435	-44.147	0.321	-0.161
-345.420	-107.156	-0.273	-0.060
-344.406	-200.000	-0.007	-0.063
-343.391	-25.198	-0.116	-0.068
-342.377	800.000	-0.031	0.085
-341.362	-76.102	-0.257	0.090
-340.348	-200.000	0.000	-0.088
-339.333	75.287	0.200	0.211
-338.318	-91.294	-0.153	-0.044
-337.304	800.000	0.052	0.163
-336.289	182.089	-0.217	0.319
-335.275	-103.497	-0.333	-0.078
-334.260	-80.782	-0.047	0.016
-333.245	698.886	0.044	-0.116
-332.231	-200.000	0.037	-0.218
-331.216	403.957	-0.040	0.084
-330.202	-82.857	-0.115	-0.037
-329.187	372.988	0.101	-0.205
-328.172	-80.798	-0.196	0.065
-327.158	125.858	0.192	0.242
-326.143	-5.528	-0.127	0.087
-325.129	-200.000	-0.019	0.314
-324.114	-200.000	0.046	0.205
-323.099	306.688	-0.028	-0.053
-322.085	-94.511	0.356	0.097
-321.070	34.631	0.288	0.250
-320.056	-50.521	0.140	-0.066
-319.041	-200.000	-0.002	-0.143
-318.026	800.000	0.007	-0.028
-317.012	-200.000	0.044	0.273
-315.997	609.172	0.063	-0.157
-314.983	367.699	0.080	-0.161
-313.968	-21.637	-0.221	0.134
-312.953	221.291	0.077	0.123
-311.939	-200.000	0.020	-0.121
-310.924	52.855	0.203	0.194
-309.910	-55.059	-0.365	-0.164
-308.895	125.924	0.144	0.182
-307.880	-200.000	-0.024	0.321
-306.866	-62.703	-0.160	-0.066
-305.851	88.994	0.160	0.178
-304.837	25.608	0.227	-0.188
-303.822	-200.000	0.024	-0.216
-302.807	800.000	0.047	-0.185
-301.793	-7.550	-0.248	-0.167
-300.778	-145.042	-0.348	0.032
-299.764	-16.471	-0.221	0.140
-298.749	117.409	0.209	-0.256
-297.735	79.868	0.202	0.216
-296.720	372.723	-0.036	0.073
-295.705	50.355	-0.177	-0.166
-294.691	-52.783	-0.306	-0.140
-293.676	-200.000	0.001	0.199
-292.662	-200.000	0.006	-0.065
-291.647	90.707	0.069	0.077
-290.632	-91.428	0.093	0.026
-289.618	16.822	0.196	0.154
-288.603	-200.000	0.021	0.130
-287.589	800.000	-0.026	-0.091
-286.574	-74.844	0.216	-0.077
-285.559	-171.702	0.137	0.004
-284.545	130.964	-0.220	-0.280
-283.530	234.537	-0.278	0.456
-282.516	-173.350	0.036	-0.001
-281.501	591.510	-0.140	-0.344
-280.486	-98.941	0.229	0.058
-279.472	-80.584	-0.116	0.038
-278.457	800.000	-0.072	-0.224
-277.443	-193.234	-0.215	-0.002
-276.428	-61.118	0.220	-0.092
-275.413	246.525	-0.191	0.320
-274.399	-61.792	-0.050	0.021
-273.384	61.096	0.427	0.422
-272.370	29.215	0.089	0.075
-271.355	-96.897	-0.155	0.041
-270.340	-200.000	0.011	0.107
-269.326	-86.656	0.238	-0.072
-268.311	19.575	-0.130	0.104
-267.297	-47.897	0.152	0.073
-266.282	-23.731	0.131	0.078
-265.267	721.858	0.045	-0.119
-264.253	-200.000	0.037	0.240
-263.238	83.261	0.144	0.156
-262.224	800.000	-0.063	0.245
-261.209	-16.924	0.196	-0.123
-260.195	163.028	-0.190	0.266
-259.180	-117.259	-0.423	0.076
-258.165	-56.384	0.382	0.168
-257.151	-200.000	0.016	-0.242
-256.136	-200.000	-0.008	-0.038
-255.122	132.323	0.110	-0.140
-254.107	-121.259	0.260	0.043
-253.092	475.665	0.198	0.443
-252.078	16.990	-0.215	0.169
-251.063	-200.000	-0.025	-0.119
-250.049	462.935	-0.109	0.241
-249.034	409.672	-0.125	-0.263
-248.019	36.168	-0.139	0.121
-247.005	301.358	0.113	0.208
-245.990	-200.000	-0.012	0.227
-244.976	-76.448	0.379	0.132
-243.961	-200.000	0.029	-0.265
-242.946	137.785	0.144	0.188
-241.932	-115.791	-0.111	0.021
-240.917	5.484	-0.107	-0.078
-239.903	-92.666	-0.161	0.045
-238.888	276.315	0.246	0.434
-237.873	-171.318	0.247	-0.008
-236.859	-63.872	0.113	0.046
-235.844	-23.619	0.200	0.119
-234.830	68.197	-0.189	-0.192
-233.815	300.130	-0.054	0.098
-232.800	-86.732	0.099	0.030
-231.786	800.000	-0.064	-0.258
-230.771	800.000	-0.101	0.430
-229.757	195.552	-0.212	0.319
-228.742	-118.201	-0.076	-0.013
-227.727	-20.965	0.034	-0.021
-226.713	-125.650	-0.467	0.070
-225.698	800.000	-0.011	-0.036
-224.684	-200.000	-0.004	0.133
-223.669	800.000	-0.058	-0.172
-222.655	-8.114	-0.178	-0.119
-221.640	-200.000	0.043	0.260
-220.625	218.347	0.205	0.324
-219.611	-139.991	-0.257	-0.027
-218.596	-71.743	-0.190	0.070
-217.582	23.615	0.073	-0.059
-216.567	-200.000	-0.031	0.325
-215.552	-36.830	0.198	-0.106
-214.538	252.796	-0.127	-0.216
-213.523	800.000	0.008	0.035
-212.509	22.072	0.168	-0.136
-211.494	-156.707	-0.541	0.033
-210.479	157.676	0.235	-0.322
-209.465	783.302	-0.034	0.092
-208.450	-50.615	-0.395	0.185
-207.436	-200.000	0.055	-0.346
-206.421	-149.208	-0.160	0.013
-205.406	-188.395	-0.303	-0.004
-204.392	357.516	-0.130	0.258
-203.377	800.000	0.033	0.123
-202.363	256.715	-0.121	-0.206
-201.348	-200.000	-0.010	0.295
-200.333	-61.461	-0.145	-0.061
-199.319	-81.303	-0.125	0.041
-198.304	146.321	0.122	-0.162
-197.290	773.267	-0.055	0.149
-196.275	44.155	-0.144	0.131
-195.260	188.312	0.026	-0.039
-194.246	555.930	-0.105	0.250
-193.231	327.035	0.139	0.265
-192.217	-52.575	-0.127	0.058
-191.202	-101.441	0.445	-0.107
-190.187	-70.647	0.290	0.109
-189.173	-200.000	0.026	0.135
-188.158	715.772	0.061	-0.160
-187.144	123.765	-0.129	-0.161
-186.129	800.000	0.181	0.604
-185.114	-35.678	-0.451	0.242
-184.100	132.915	0.233	-0.298
-183.085	228.884	0.093	0.150
-182.071	33.082	-0.161	-0.138
-181.056	1.587	0.222	0.158
-180.042	-136.681	0.054	-0.006
-179.027	-110.707	0.106	0.022
-178.012	-9.071	-0.188	0.124
-176.998	57.122	0.220	0.213
-175.983	-105.920	0.229	-0.051
-174.969	-125.869	-0.095	-0.014
-173.954	510.865	0.022	0.051
-172.939	800.000	0.068	0.243
-171.925	88.771	0.192	-0.212
-170.910	25.768	-0.184	-0.152
-169.896	295.781	-0.033	0.061
-168.881	-0.680	0.149	0.105
-167.866	-3.528	0.101	-0.070
-166.852	630.503	0.051	-0.127
-165.837	-176.636	0.548	-0.014
-164.823	-200.000	0.010	-0.074
-163.808	30.248	-0.047	0.039
-162.793	39.490	0.104	0.092
-161.779	-128.309	-0.171	0.024
-160.764	-200.000	0.025	-0.329
-159.750	-200.000	-0.025	-0.183
-158.735	67.383	0.276	0.279
-157.720	-58.817	0.208	0.089
-156.706	-135.096	-0.105	0.013
-155.691	-200.000	-0.003	0.253
-154.677	517.530	0.088	-0.203
-153.662	800.000	-0.038	0.139
-152.647	-200.000	-0.012	-0.079
-151.633	-113.382	-0.194	-0.038
-150.618	29.458	0.301	-0.253
-149.604	-60.734	-0.266	-0.112
-148.589	681.273	-0.113	0.291
-147.574	-41.513	0.091	-0.046
-146.560	800.000	0.064	0.277
-145.545	-72.812	0.049	0.018
-144.531	104.749	0.228	-0.266
-143.516	281.679	-0.056	-0.100
-142.502	-200.000	-0.021	-0.164
-141.487	-200.000	-0.005	0.276
-140.472	-200.000	-0.006	-0.242
-139.458	-137.417	-0.307	-0.034
-138.443	-200.000	0.002	0.287
-137.429	-160.980	-0.108	-0.006
-136.414	-200.000	0.005	-0.279
-135.399	-200.000	0.003	-0.220
-134.385	135.070	0.118	0.152
-133.370	-58.663	0.210	0.090
-132.356	490.868	0.111	-0.251
-131.341	-170.187	0.324	0.011
-130.326	100.903	0.179	0.205
-129.312	-200.000	0.026	0.328
-128.297	73.829	-0.071	-0.074
-127.283	19.414	0.117	0.093
-126.268	-200.000	0.040	0.311
-125.253	35.448	0.101	0.087
-124.239	276.562	0.088	0.154
-123.224	117.119	-0.069	-0.084
-122.210	-134.436	0.275	-0.033
