DTS Sentinel unit serial number:	SN413079Multiplexer serial number:	ORYXHardware model number:	OX4-SRSoftware version number:	ORYX F/W v4.00 Oryx Data Collector v3.7.2.0data status	okinstallation	princeton_trtdifferential loss correction	single-endedforward channel	channel 4reverse channel	N/Adate	2019/09/18time	23:17:35forward acquisition time	60.00reverse acquisition time	0.00gamma	496.2192k internal	0.2333k external	0.2333temperature offset calibration	1.0033default loss term (dB/km)	0.3790temperature slope calibration	1.0000multiplexer offset coefficient	1.0000multiplexer slope coefficient	1.0000fibre end	0.00T internal ref (°C)	23.87T ext. ref 1 (°C)	0.78T ext. ref 2 (°C)	17.15length (m)	temperature (°C)	Stokes	anti-Stokes-747.200	-133.352	0.229	-0.029
-746.185	-200.000	-0.028	0.141
-745.171	-95.712	-0.235	0.063
-744.156	55.400	0.069	0.067
-743.142	14.128	-0.217	-0.170
-742.127	-147.345	-0.301	-0.026
-741.112	800.000	0.031	-0.133
-740.098	127.962	0.094	-0.121
-739.083	42.141	0.114	0.104
-738.069	-200.000	-0.051	0.397
-737.054	-15.324	-0.102	0.066
-736.039	44.467	-0.326	0.301
-735.025	800.000	0.097	0.299
-734.010	221.562	-0.113	0.183
-732.996	64.320	-0.061	-0.062
-731.981	-30.160	-0.066	0.037
-730.966	386.910	-0.140	0.291
-729.952	-200.000	-0.001	-0.069
-728.937	415.788	-0.066	-0.140
-727.923	-54.158	-0.264	0.120
-726.908	-145.563	-0.357	0.032
-725.894	-200.000	-0.082	0.559
-724.879	-144.859	-0.184	0.017
-723.864	800.000	0.048	-0.156
-722.850	-106.549	-0.279	0.063
-721.835	64.320	-0.451	-0.456
-720.821	30.272	0.225	-0.193
-719.806	-48.109	-0.045	-0.022
-718.791	141.071	-0.080	-0.106
-717.777	-114.760	0.501	0.096
-716.762	800.000	-0.128	-0.394
-715.748	800.000	0.087	-0.270
-714.733	575.058	0.069	0.170
-713.718	284.320	0.222	-0.402
-712.704	319.363	0.051	0.098
-711.689	-53.083	0.206	0.095
-710.675	-50.136	-0.247	0.117
-709.660	-152.004	-0.161	0.012
-708.645	572.247	0.020	0.048
-707.631	800.000	-0.080	-0.238
-706.616	215.233	0.081	-0.129
-705.602	-103.062	0.284	-0.068
-704.587	-200.000	-0.020	-0.464
-703.572	595.064	0.071	-0.176
-702.558	-96.261	0.181	-0.048
-701.543	-200.000	-0.011	0.255
-700.529	-100.559	-0.241	-0.060
-699.514	398.126	-0.031	-0.064
-698.499	-79.446	-0.101	0.034
-697.485	-78.748	-0.138	-0.047
-696.470	11.466	0.162	0.125
-695.456	90.148	-0.170	0.190
-694.441	31.312	-0.138	-0.119
-693.426	-78.237	-0.106	-0.037
-692.412	190.895	-0.194	-0.293
-691.397	-26.604	-0.314	-0.185
-690.383	-14.403	0.168	-0.109
-689.368	15.497	0.177	-0.139
-688.354	27.764	-0.254	-0.214
-687.339	-200.000	0.008	-0.252
-686.324	-37.118	0.026	0.014
-685.310	-200.000	0.016	0.202
-684.295	800.000	0.035	-0.151
-683.281	-65.950	0.353	0.141
-682.266	718.474	-0.128	0.340
-681.251	113.467	-0.231	-0.282
-680.237	33.884	0.080	-0.070
-679.222	-198.161	0.113	0.001
-678.208	-17.761	-0.111	-0.070
-677.193	-68.800	-0.243	-0.094
-676.178	-65.776	0.329	0.132
-675.164	-200.000	-0.025	0.248
-674.149	-59.095	0.124	0.054
-673.135	-109.848	-0.198	-0.042
-672.120	-89.361	0.205	0.060
-671.105	800.000	0.036	0.122
-670.091	325.070	0.109	-0.209
-669.076	800.000	0.112	-0.404
-668.062	44.627	-0.159	0.146
-667.047	-187.318	0.366	0.005
-666.032	800.000	0.065	0.206
-665.018	-200.000	0.000	0.261
-664.003	800.000	0.041	-0.118
-662.989	637.470	-0.096	-0.244
-661.974	-200.000	0.040	-0.221
-660.959	9.192	0.168	0.128
-659.945	-7.485	-0.268	-0.182
-658.930	800.000	0.108	0.371
-657.916	231.710	0.138	-0.228
-656.901	-200.000	-0.018	-0.085
-655.886	475.920	-0.006	-0.014
-654.872	-58.254	0.040	-0.017
-653.857	222.857	-0.128	0.207
-652.843	567.688	-0.033	0.080
-651.828	153.557	-0.101	0.139
-650.814	-200.000	0.024	0.409
-649.799	190.879	-0.095	0.142
-648.784	800.000	0.048	-0.158
-647.770	487.331	0.143	0.327
-646.755	97.599	0.159	-0.183
-645.741	-131.418	0.446	0.059
-644.726	-21.329	0.271	0.166
-643.711	-56.962	-0.350	0.155
-642.697	28.283	-0.173	0.146
-641.682	-24.969	0.183	-0.109
-640.668	-95.486	0.117	0.031
-639.653	-183.539	-0.197	-0.003
-638.638	-200.000	-0.027	-0.287
-637.624	-33.101	0.218	0.121
-636.609	345.773	-0.108	-0.212
-635.595	800.000	0.101	0.381
-634.580	186.177	0.238	0.354
-633.565	-200.000	0.043	-0.296
-632.551	-1.522	0.164	-0.116
-631.536	145.854	0.211	-0.283
-630.522	-184.448	0.041	-0.001
-629.507	-67.670	0.084	-0.033
-628.492	-104.551	0.200	-0.046
-627.478	-36.635	0.188	-0.101
-626.463	-89.375	-0.242	0.071
-625.449	63.415	0.152	0.153
-624.434	-41.906	0.177	-0.091
-623.419	36.492	-0.182	0.161
-622.405	17.520	-0.102	0.081
-621.390	-65.596	-0.198	0.079
-620.376	-200.000	-0.101	-0.485
-619.361	299.016	-0.160	-0.295
-618.346	-9.971	-0.122	0.081
-617.332	20.378	0.098	0.079
-616.317	-0.625	0.347	0.246
-615.303	-200.000	0.027	0.129
-614.288	800.000	0.122	0.534
-613.273	562.732	-0.148	-0.358
-612.259	210.747	-0.069	-0.109
-611.244	201.529	-0.073	-0.112
-610.230	-120.781	0.149	0.025
-609.215	460.940	-0.046	-0.102
-608.201	1.956	0.197	0.142
-607.186	278.393	0.050	0.090
-606.171	-26.711	-0.084	-0.049
-605.157	218.106	0.086	-0.137
-604.142	-200.000	0.009	0.090
-603.128	51.635	-0.187	-0.178
-602.113	211.093	-0.075	-0.118
-601.098	516.872	0.086	0.200
-600.084	800.000	0.033	-0.095
-599.069	-57.881	0.305	-0.133
-598.055	-200.000	-0.057	0.350
-597.040	-165.913	0.263	0.011
-596.025	-5.213	0.084	0.058
-595.011	800.000	-0.075	-0.240
-593.996	-180.669	-0.264	-0.005
-592.982	-58.854	-0.477	-0.206
-591.967	319.612	-0.043	0.082
-590.952	-200.000	-0.015	-0.197
-589.938	-159.896	-0.156	-0.009
-588.923	-83.332	0.115	-0.037
-587.909	800.000	-0.068	0.211
-586.894	-17.563	-0.337	0.212
-585.879	-79.571	0.387	0.131
-584.865	-85.330	0.219	-0.068
-583.850	651.908	0.043	0.111
-582.836	752.290	0.121	0.325
-581.821	-112.257	-0.209	-0.042
-580.806	-34.335	-0.237	-0.130
-579.792	118.112	-0.155	0.191
-578.777	163.282	0.212	0.298
-577.763	-102.080	0.346	-0.083
-576.748	177.629	-0.065	-0.095
-575.733	-98.289	-0.437	-0.112
-574.719	-200.000	-0.015	0.133
-573.704	-48.551	-0.196	-0.094
-572.690	-100.943	-0.099	0.024
-571.675	-69.834	-0.190	-0.072
-570.661	-104.310	0.170	0.039
-569.646	93.985	-0.090	0.102
-568.631	-24.085	0.052	0.031
-567.617	-6.161	0.129	-0.088
-566.602	-200.000	0.010	0.107
-565.588	626.105	-0.107	-0.271
-564.573	29.785	0.087	-0.074
-563.558	282.719	-0.059	-0.106
-562.544	-165.522	-0.150	-0.007
-561.529	388.829	0.089	0.184
-560.515	-200.000	0.048	0.392
-559.500	-200.000	-0.086	0.463
-558.485	199.429	-0.188	0.287
-557.471	299.525	-0.190	-0.349
-556.456	-26.820	0.223	-0.130
-555.442	492.696	-0.061	0.139
-554.427	-87.301	0.275	-0.083
-553.412	684.769	0.155	0.404
-552.398	800.000	-0.115	-0.330
-551.383	332.469	-0.031	-0.060
-550.369	-200.000	0.028	0.152
-549.354	-6.370	-0.094	0.064
-548.339	-19.053	-0.152	0.094
-547.325	275.920	0.272	0.482
-546.310	-127.451	0.160	0.023
-545.296	-84.595	-0.235	-0.074
-544.281	43.360	-0.122	-0.111
-543.266	-137.745	-0.264	0.030
-542.252	-135.753	0.130	-0.015
-541.237	-200.000	-0.011	0.228
-540.223	477.317	-0.083	0.187
-539.208	226.400	0.189	-0.306
-538.193	-87.391	0.168	0.051
-537.179	-62.337	-0.288	-0.120
-536.164	131.769	0.339	-0.435
-535.150	-200.000	0.002	0.027
-534.135	800.000	0.122	0.471
-533.121	-24.499	-0.270	-0.160
-532.106	-139.922	-0.017	-0.002
-531.091	159.526	-0.058	0.080
-530.077	89.727	0.089	-0.099
-529.062	26.256	0.314	0.261
-528.048	-142.948	-0.256	-0.025
-527.033	464.872	-0.047	-0.104
-526.018	-34.696	-0.033	-0.018
-525.004	-185.498	0.249	0.004
-523.989	144.756	-0.115	0.153
-522.975	-151.504	0.316	-0.023
-521.960	800.000	-0.024	0.097
-520.945	-18.502	0.163	-0.101
-519.931	150.334	-0.084	0.114
-518.916	680.478	0.038	0.098
-517.902	531.801	-0.148	-0.348
-516.887	39.440	0.105	0.093
-515.872	-200.000	-0.084	-0.584
-514.858	-17.847	-0.150	-0.094
-513.843	-200.000	0.003	-0.123
-512.829	-200.000	-0.047	-0.345
-511.814	800.000	-0.109	0.368
-510.799	-200.000	-0.009	0.197
-509.785	-94.034	0.143	-0.039
-508.770	19.197	-0.155	0.124
-507.756	-122.074	0.169	-0.028
-506.741	93.750	-0.107	-0.120
-505.726	18.331	-0.224	-0.178
-504.712	800.000	0.058	-0.223
-503.697	-37.319	-0.387	0.206
-502.683	136.044	-0.151	0.196
-501.668	-110.536	-0.338	0.070
-500.653	473.074	-0.067	0.149
-499.639	800.000	-0.068	-0.277
-498.624	-138.741	0.061	0.007
-497.610	96.774	0.270	-0.308
-496.595	-133.620	-0.155	-0.019
-495.581	101.425	-0.171	0.198
-494.566	44.408	-0.287	-0.262
-493.551	32.674	-0.174	0.150
-492.537	468.565	0.014	-0.031
-491.522	-200.000	0.022	-0.138
-490.508	174.040	-0.160	0.230
-489.493	-200.000	0.011	0.063
-488.478	-71.387	-0.242	-0.090
-487.464	-81.161	0.243	-0.080
-486.449	800.000	0.114	-0.350
-485.435	-104.993	0.192	-0.044
-484.420	-200.000	-0.009	-0.045
-483.405	299.791	0.213	0.390
-482.391	71.799	-0.348	0.360
-481.376	-155.003	-0.182	0.012
-480.362	45.075	-0.154	-0.141
-479.347	-148.500	0.166	0.014
-478.332	-154.852	-0.078	-0.005
-477.318	-105.197	0.155	0.035
-476.303	513.262	0.048	0.111
-475.289	-111.280	-0.258	-0.052
-474.274	50.450	0.127	0.119
-473.259	19.870	-0.460	-0.368
-472.245	118.149	-0.223	-0.273
-471.230	156.898	-0.149	-0.204
-470.216	-200.000	0.082	-0.377
-469.201	-5.486	-0.219	-0.149
-468.186	555.619	-0.120	0.288
-467.172	-200.000	-0.052	-0.245
-466.157	-61.436	-0.380	0.159
-465.143	-85.523	-0.084	0.026
-464.128	141.449	-0.134	0.176
-463.113	-93.568	-0.099	-0.027
-462.099	23.540	-0.151	0.124
-461.084	-123.522	-0.163	-0.026
-460.070	-32.977	-0.087	0.048
-459.055	62.476	0.247	-0.245
-458.040	25.733	-0.118	0.097
-457.026	226.715	-0.138	-0.223
-456.011	700.783	-0.094	0.246
-454.997	-190.537	0.126	0.001
-453.982	-76.585	0.157	-0.055
-452.968	-200.000	-0.013	-0.209
-451.953	780.212	-0.076	0.207
-450.938	-200.000	-0.027	-0.279
-449.924	-8.508	0.177	-0.118
-448.909	76.406	-0.187	-0.197
-447.895	-185.471	-0.239	-0.004
-446.880	226.598	-0.151	0.243
-445.865	-178.303	-0.099	0.002
-444.851	245.308	0.062	0.104
-443.836	-200.000	-0.026	-0.134
-442.822	300.771	0.062	0.113
-441.807	101.440	0.333	-0.386
-440.792	-65.810	0.209	0.083
-439.778	800.000	-0.059	0.244
-438.763	-19.182	-0.293	-0.181
-437.749	-170.582	0.165	0.006
-436.734	202.105	0.157	-0.241
-435.719	199.836	0.074	0.113
-434.705	-149.537	-0.296	0.023
-433.690	-142.870	0.340	-0.033
-432.676	-200.000	-0.017	0.264
-431.661	-40.613	-0.230	-0.119
-430.646	-69.112	0.274	-0.105
-429.632	-50.794	0.283	0.132
-428.617	-200.000	-0.014	-0.151
-427.603	-200.000	0.032	0.353
-426.588	-27.120	0.343	-0.199
-425.573	541.543	-0.035	-0.082
-424.559	-176.427	0.191	0.005
-423.544	637.830	-0.011	0.028
-422.530	-120.679	0.162	-0.027
-421.515	135.386	-0.070	-0.090
-420.500	170.480	-0.139	0.198
-419.486	-200.000	0.038	-0.172
-418.471	-200.000	-0.004	-0.031
-417.457	30.515	-0.225	-0.191
-416.442	-81.632	0.187	0.061
-415.428	-136.854	0.068	0.008
-414.413	-200.000	-0.027	-0.241
-413.398	-200.000	-0.018	-0.154
-412.384	-160.232	-0.201	-0.011
-411.369	-96.806	0.099	0.026
-410.355	35.238	0.098	-0.086
-409.340	-66.662	0.082	-0.032
-408.325	-200.000	-0.003	-0.168
-407.311	267.598	0.056	0.097
-406.296	177.999	0.166	-0.240
-405.282	325.096	0.103	-0.195
-404.267	-45.421	0.238	0.117
-403.252	-85.958	0.169	0.052
-402.238	-82.445	0.149	-0.048
-401.223	800.000	-0.133	0.413
-400.209	81.094	-0.263	0.282
-399.194	-77.388	-0.270	-0.093
-398.179	-74.191	-0.150	-0.054
-397.165	-52.600	-0.419	0.192
-396.150	-200.000	-0.013	-0.219
-395.136	800.000	0.052	0.144
-394.121	-200.000	0.001	0.136
-393.106	749.145	-0.096	-0.256
-392.092	-200.000	0.002	0.075
-391.077	-200.000	-0.021	-0.243
-390.063	-132.430	-0.253	-0.032
-389.048	-200.000	0.005	0.397
-388.033	-200.000	0.016	-0.103
-387.019	174.475	-0.110	0.157
-386.004	34.042	-0.245	-0.212
-384.990	-48.890	-0.099	0.047
-383.975	325.042	0.059	0.113
-382.960	-200.000	0.033	-0.204
-381.946	-105.019	-0.216	0.049
-380.931	349.085	0.170	0.332
-379.917	0.392	-0.242	-0.171
-378.902	291.101	0.043	-0.077
-377.888	-168.311	-0.263	-0.010
-376.873	79.138	-0.263	-0.279
-375.858	-200.000	-0.023	0.331
-374.844	396.213	-0.233	0.482
-373.829	-156.960	0.367	0.022
-372.815	-25.916	0.160	0.093
-371.800	10.745	-0.308	-0.233
-370.785	725.730	-0.090	-0.237
-369.771	-102.156	0.034	-0.008
-368.756	-200.000	-0.050	0.326
-367.742	-98.289	-0.217	-0.055
-366.727	639.222	0.050	0.126
-365.712	800.000	0.106	0.299
-364.698	-10.853	-0.304	0.199
-363.683	444.612	-0.086	-0.187
-362.669	220.779	0.051	0.081
-361.654	11.390	-0.247	-0.187
-360.639	211.671	-0.024	0.037
-359.625	-200.000	-0.031	0.444
-358.610	133.901	-0.082	-0.105
-357.596	-0.071	-0.306	0.216
-356.581	-121.828	0.297	0.049
-355.566	-200.000	0.005	0.194
-354.552	115.493	0.135	0.163
-353.537	-86.034	0.169	-0.052
-352.523	140.374	-0.037	-0.049
-351.508	-89.719	0.421	0.122
-350.493	25.570	0.167	-0.138
-349.479	-102.424	0.146	-0.035
-348.464	-200.000	0.068	-0.307
-347.450	174.074	-0.039	-0.056
-346.435	-104.747	-0.093	0.021
-345.420	-200.000	0.051	0.400
-344.406	-200.000	-0.005	-0.042
-343.391	143.562	0.080	0.105
-342.377	-165.520	-0.222	0.010
-341.362	249.399	-0.198	-0.333
-340.348	155.357	0.093	-0.126
-339.333	29.759	0.110	-0.093
-338.318	367.715	0.126	-0.252
-337.304	800.000	-0.057	-0.192
-336.289	466.303	-0.084	0.186
-335.275	-55.752	-0.252	0.111
-334.260	-143.823	-0.150	0.014
-333.245	280.377	0.261	-0.461
-332.231	-104.012	0.279	0.064
-331.216	-200.000	-0.058	0.441
-330.202	-98.274	0.294	-0.075
-329.187	-64.697	0.338	0.135
-328.172	154.851	0.126	-0.171
-327.158	-20.294	0.122	-0.074
-326.143	287.021	-0.154	-0.274
-325.129	-186.070	-0.123	0.002
-324.114	-31.393	0.208	-0.116
-323.099	-103.692	0.197	0.046
-322.085	800.000	0.027	0.083
-321.070	96.030	-0.231	-0.261
-320.056	49.412	-0.129	-0.120
-319.041	800.000	-0.081	-0.262
-318.026	391.404	-0.118	0.243
-317.012	-93.480	-0.151	-0.041
-315.997	-47.923	0.221	0.106
-314.983	317.627	-0.135	0.252
-313.968	56.737	0.300	0.288
-312.953	-35.450	0.316	0.170
-311.939	29.890	-0.197	-0.166
-310.924	-75.876	-0.078	0.027
-309.910	38.775	0.228	0.201
-308.895	186.187	-0.034	0.050
-307.880	66.210	0.180	0.180
-306.866	6.901	0.316	-0.233
-305.851	238.509	-0.167	0.274
-304.837	-26.893	-0.293	0.169
-303.822	-200.000	-0.037	0.183
-302.807	800.000	0.073	-0.244
-301.793	-164.399	-0.451	0.020
-300.778	-5.328	0.389	-0.264
-299.764	800.000	-0.070	-0.255
-298.749	800.000	0.175	0.511
-297.735	-66.405	0.137	-0.054
-296.720	-136.871	-0.123	0.014
-295.705	-58.495	0.064	-0.027
-294.691	131.349	-0.135	0.171
-293.676	339.060	0.151	0.290
-292.662	18.676	-0.175	0.138
-291.647	-200.000	0.026	0.238
-290.632	-45.691	-0.117	-0.057
-289.618	-69.534	0.191	-0.072
-288.603	425.478	-0.063	-0.134
-287.589	-200.000	-0.077	-0.440
-286.574	-143.695	0.103	0.010
-285.559	-200.000	0.042	0.292
-284.545	33.380	-0.111	0.095
-283.530	-200.000	0.030	0.267
-282.516	124.237	0.213	0.264
-281.501	-85.991	0.302	-0.092
-280.486	800.000	0.045	-0.156
-279.472	-192.209	-0.260	0.002
-278.457	-124.446	0.300	0.046
-277.443	545.210	-0.054	0.127
-276.428	-146.279	0.156	0.014
-275.413	-47.281	-0.304	-0.146
-274.399	1.774	0.167	-0.119
-273.384	2.985	-0.232	0.166
-272.370	143.781	0.146	-0.193
-271.355	-34.341	0.098	-0.053
-270.340	-81.452	0.325	-0.106
-269.326	163.258	-0.125	0.173
-268.311	-81.681	0.114	0.037
-267.297	-91.853	0.085	0.024
-266.282	13.929	0.234	0.180
-265.267	154.730	-0.061	0.083
-264.253	-200.000	0.083	-0.694
-263.238	-126.793	0.266	-0.039
-262.224	283.566	0.058	0.102
-261.209	-145.841	0.183	-0.016
-260.195	800.000	-0.062	0.198
-259.180	-200.000	-0.085	-0.543
-258.165	-0.506	-0.097	0.068
-257.151	-66.955	-0.177	-0.069
-256.136	32.981	-0.060	-0.051
-255.122	-61.267	0.346	-0.144
-254.107	-93.670	-0.109	-0.030
-253.092	158.254	-0.111	-0.151
-252.078	103.622	0.034	0.039
-251.063	621.119	-0.037	0.093
-250.049	2.706	0.129	0.092
-249.034	800.000	0.038	0.116
-248.019	-200.000	0.029	-0.282
-247.005	322.363	-0.102	-0.192
-245.990	-60.703	-0.049	-0.020
-244.976	640.220	-0.151	-0.380
-243.961	281.554	-0.106	0.187
-242.946	94.514	0.147	-0.165
-241.932	-23.883	-0.094	-0.055
-240.917	160.539	-0.094	-0.129
-239.903	18.909	0.234	0.185
-238.888	-200.000	0.006	0.195
-237.873	-0.623	-0.072	0.050
-236.859	-200.000	-0.042	-0.350
-235.844	800.000	0.025	0.086
-234.830	200.006	0.071	0.108
-233.815	379.611	-0.102	0.205
-232.800	190.437	-0.053	-0.078
-231.786	21.373	0.224	0.180
-230.771	-200.000	0.003	-0.114
-229.757	800.000	-0.057	0.157
-228.742	-69.813	0.228	-0.086
-227.727	-200.000	0.000	0.113
-226.713	-200.000	-0.002	0.394
-225.698	178.452	0.103	0.148
-224.684	15.811	0.191	-0.148
-223.669	187.243	-0.066	0.098
-222.655	120.500	-0.122	-0.150
-221.640	-125.726	-0.248	-0.037
-220.625	276.888	-0.183	-0.321
-219.611	57.904	-0.248	-0.239
-218.596	800.000	0.123	-0.456
-217.582	800.000	0.018	-0.068
-216.567	-200.000	-0.067	0.326
-215.552	-29.859	-0.276	0.155
-214.538	4.214	-0.092	-0.066
-213.523	107.542	-0.122	0.143
-212.509	6.678	-0.148	-0.109
-211.494	-57.133	-0.124	0.054
-210.479	-15.007	0.400	-0.253
-209.465	-179.703	-0.187	-0.004
-208.450	350.861	0.136	-0.264
-207.436	-200.000	0.027	-0.245
-206.421	179.070	-0.055	-0.079
-205.406	-134.424	-0.075	-0.009
-204.392	383.289	0.112	-0.226
-203.377	76.130	-0.064	-0.066
-202.363	-3.202	-0.105	0.072
-201.348	205.338	0.158	0.242
-200.333	-46.337	0.142	0.069
-199.319	470.149	0.082	-0.180
-198.304	-27.655	-0.332	0.190
-197.290	439.056	0.057	-0.122
-196.275	-57.245	0.217	0.094
-195.260	-139.862	-0.212	0.022
-194.246	800.000	0.059	-0.227
-193.231	-20.688	0.364	0.220
-192.217	-200.000	0.057	0.252
-191.202	-138.002	-0.553	-0.061
-190.187	333.392	0.179	-0.340
-189.173	-133.953	-0.091	-0.011
-188.158	139.853	0.141	-0.182
-187.144	-200.000	0.015	-0.200
-186.129	297.756	0.098	0.178
-185.114	-200.000	0.051	0.448
-184.100	-200.000	-0.035	-0.160
-183.085	800.000	-0.076	-0.213
-182.071	-200.000	0.049	-0.239
-181.056	-91.477	0.412	-0.116
-180.042	-82.060	-0.107	0.034
-179.027	-200.000	-0.016	0.130
-178.012	233.414	0.199	0.322
-176.998	25.413	-0.475	0.388
-175.983	-15.489	-0.058	0.036
-174.969	-25.518	-0.028	-0.016
-173.954	-36.733	-0.190	0.100
-172.939	41.412	-0.119	0.106
-171.925	800.000	-0.089	0.307
-170.910	596.639	0.075	-0.182
-169.896	800.000	0.074	-0.254
-168.881	-130.899	-0.145	0.019
-167.866	-200.000	-0.011	0.090
-166.852	800.000	0.102	0.294
-165.837	-113.259	0.177	-0.034
-164.823	-68.409	0.357	-0.136
-163.808	-145.746	0.442	0.039
-162.793	-16.685	0.230	-0.143
-161.779	155.351	0.125	-0.170
-160.764	-45.643	0.253	0.123
-159.750	179.652	0.102	-0.146
-158.735	-127.155	0.319	-0.046
-157.720	-26.342	-0.175	-0.101
-156.706	338.718	-0.078	0.150
-155.691	-50.286	0.113	-0.053
-154.677	-200.000	-0.005	0.025
-153.662	48.516	0.148	-0.137
-152.647	-200.000	-0.005	0.489
-151.633	-41.820	0.282	-0.142
-150.618	44.314	0.335	-0.302
-149.604	631.288	-0.053	0.133
-148.589	-106.261	0.247	-0.054
-147.574	268.092	-0.045	0.077
-146.560	800.000	-0.014	-0.053
-145.545	800.000	-0.086	-0.326
-144.531	491.457	-0.131	-0.295
-143.516	-200.000	0.001	-0.117
-142.502	800.000	0.039	0.115
-141.487	87.872	-0.145	0.158
-140.472	327.812	-0.123	0.231
-139.458	-200.000	0.055	0.388
-138.443	130.141	-0.063	-0.079
-137.429	342.497	0.092	-0.177
-136.414	-137.349	-0.266	-0.030
-135.399	800.000	-0.032	0.109
-134.385	-189.146	-0.128	0.001
-133.370	-26.088	-0.163	-0.094
-132.356	-85.496	-0.172	-0.052
-131.341	-23.290	-0.114	-0.067
-130.326	-67.196	0.070	0.027
-129.312	33.878	-0.053	-0.046
-128.297	-129.808	0.095	0.013
-127.283	202.805	0.081	-0.123
-126.268	143.946	-0.063	0.082
-125.253	67.102	0.194	-0.194
-124.239	167.106	-0.220	0.306
-123.224	800.000	0.043	0.127
-122.210	-68.629	-0.060	0.023
