DTS Sentinel unit serial number:	SN413079Multiplexer serial number:	ORYXHardware model number:	OX4-SRSoftware version number:	ORYX F/W v4.00 Oryx Data Collector v3.7.2.0data status	okinstallation	princeton_trtdifferential loss correction	single-endedforward channel	channel 4reverse channel	N/Adate	2019/09/11time	15:55:11forward acquisition time	60.00reverse acquisition time	0.00gamma	496.2192k internal	0.2277k external	0.2277temperature offset calibration	1.0011default loss term (dB/km)	0.3790temperature slope calibration	1.0000multiplexer offset coefficient	1.0000multiplexer slope coefficient	1.0000fibre end	0.00T internal ref (°C)	42.95T ext. ref 1 (°C)	0.99T ext. ref 2 (°C)	38.87length (m)	temperature (°C)	Stokes	anti-Stokes-747.200	257.235	-0.024	-0.043
-746.185	200.345	-0.131	0.207
-745.171	198.615	0.058	-0.091
-744.156	-143.444	-0.364	0.036
-743.142	546.020	-0.071	-0.175
-742.127	156.224	0.175	0.249
-741.112	-9.750	-0.287	0.197
-740.098	33.560	-0.231	0.207
-739.083	-200.000	-0.004	0.146
-738.069	78.141	-0.308	0.339
-737.054	-4.046	-0.046	-0.033
-736.039	57.449	-0.173	-0.174
-735.025	-92.553	0.198	0.057
-734.010	-79.674	-0.247	0.086
-732.996	64.826	-0.068	-0.071
-731.981	-74.609	0.056	0.021
-730.966	55.366	0.045	0.045
-729.952	-143.261	0.163	-0.016
-728.937	-200.000	0.013	-0.326
-727.923	-60.076	0.086	-0.038
-726.908	-120.288	-0.219	0.039
-725.894	61.727	-0.112	-0.115
-724.879	350.047	-0.080	-0.163
-723.864	162.822	-0.193	0.278
-722.850	-145.522	0.299	-0.028
-721.835	90.161	-0.160	-0.184
-720.821	-200.000	-0.009	-0.315
-719.806	-160.340	-0.428	0.024
-718.791	-200.000	-0.006	0.057
-717.777	-200.000	0.016	-0.161
-716.762	82.085	-0.100	0.111
-715.748	-112.146	-0.220	0.045
-714.733	36.587	-0.275	-0.250
-713.718	69.749	-0.227	-0.241
-712.704	800.000	0.100	-0.313
-711.689	670.158	-0.060	-0.159
-710.675	800.000	-0.116	-0.332
-709.660	267.521	-0.048	-0.086
-708.645	-135.696	-0.109	-0.013
-707.631	-200.000	-0.025	0.225
-706.616	800.000	-0.033	-0.105
-705.602	800.000	0.044	-0.132
-704.587	-200.000	-0.067	-0.548
-703.572	329.007	-0.057	0.112
-702.558	-200.000	-0.056	-0.429
-701.543	-14.761	-0.057	-0.038
-700.529	800.000	-0.051	0.186
-699.514	-90.240	-0.182	0.054
-698.499	-122.685	0.335	0.056
-697.485	-36.560	0.157	-0.087
-696.470	-78.987	-0.166	-0.058
-695.456	-95.112	-0.353	-0.098
-694.441	-56.594	-0.267	-0.122
-693.426	304.792	0.241	0.460
-692.412	-73.499	0.180	-0.067
-691.397	60.670	-0.141	-0.144
-690.383	49.505	-0.183	-0.177
-689.368	148.520	-0.154	-0.213
-688.354	-99.121	-0.251	-0.065
-687.339	15.500	0.168	-0.136
-686.324	-200.000	-0.004	0.111
-685.310	800.000	0.032	-0.121
-684.295	-19.652	-0.214	0.136
-683.281	113.799	-0.226	0.282
-682.266	-23.069	-0.124	0.077
-681.251	800.000	0.114	-0.416
-680.237	255.407	-0.205	-0.360
-679.222	171.754	-0.048	0.071
-678.208	-200.000	0.019	-0.214
-677.193	-187.850	0.255	0.003
-676.178	-86.678	-0.246	0.077
-675.164	15.976	-0.212	0.172
-674.149	73.601	-0.210	-0.226
-673.135	97.877	-0.067	0.079
-672.120	-200.000	0.044	0.203
-671.105	46.461	-0.264	-0.252
-670.091	-31.618	-0.112	-0.064
-669.076	-200.000	0.011	-0.340
-668.062	136.364	0.170	-0.228
-667.047	-9.016	-0.250	0.172
-666.032	353.630	-0.055	-0.113
-665.018	-12.207	0.042	-0.029
-664.003	800.000	0.016	0.061
-662.989	-200.000	0.011	0.224
-661.974	69.798	-0.202	-0.214
-660.959	-105.606	-0.205	-0.048
-659.945	705.858	-0.061	-0.165
-658.930	-95.765	-0.499	0.137
-657.916	-200.000	-0.000	0.039
-656.901	26.032	-0.154	0.132
-655.886	85.455	-0.130	-0.147
-654.872	459.127	-0.079	-0.180
-653.857	-102.287	-0.427	-0.105
-652.843	86.490	0.095	0.108
-651.828	-131.372	0.233	0.032
-650.814	-4.593	-0.325	0.230
-649.799	22.975	-0.186	0.157
-648.784	-43.620	-0.171	-0.089
-647.770	-45.351	-0.288	-0.147
-646.755	265.641	0.110	0.197
-645.741	294.147	0.120	0.226
-644.726	-200.000	-0.013	-0.175
-643.711	-4.812	-0.140	0.099
-642.697	-200.000	-0.001	0.133
-641.682	800.000	-0.017	-0.066
-640.668	25.398	-0.023	-0.020
-639.653	-159.520	-0.357	-0.020
-638.638	-103.157	-0.215	-0.052
-637.624	11.104	-0.093	-0.073
-636.609	-200.000	0.015	-0.291
-635.595	-19.760	0.131	0.083
-634.580	-67.430	-0.037	-0.015
-633.565	55.756	0.122	-0.121
-632.551	-151.188	0.260	-0.020
-631.536	-20.807	0.279	0.175
-630.522	-188.932	0.371	0.005
-629.507	-86.866	0.011	-0.003
-628.492	-23.132	-0.217	0.134
-627.478	-102.181	-0.136	0.034
-626.463	-72.781	-0.043	0.016
-625.449	800.000	-0.084	-0.378
-624.434	262.639	-0.142	0.253
-623.419	167.075	-0.226	0.329
-622.405	-35.931	0.023	-0.013
-621.390	-156.299	-0.213	-0.014
-620.376	269.492	-0.105	-0.188
-619.361	419.225	-0.069	0.151
-618.346	-100.554	-0.115	-0.029
-617.332	-48.538	0.216	-0.107
-616.317	155.820	-0.175	-0.248
-615.303	579.406	-0.067	-0.167
-614.288	207.792	0.111	0.178
-613.273	-200.000	0.063	0.367
-612.259	-33.044	0.226	0.128
-611.244	249.697	0.113	-0.196
-610.230	-1.460	-0.111	-0.080
-609.215	-115.519	-0.206	-0.040
-608.201	-9.954	0.148	-0.101
-607.186	-151.024	-0.060	0.005
-606.171	-11.565	-0.224	0.151
-605.157	-27.823	-0.113	0.067
-604.142	166.397	-0.042	-0.060
-603.128	-164.578	0.130	-0.006
-602.113	-92.493	0.026	0.007
-601.098	-20.819	0.292	-0.184
-600.084	-200.000	0.002	-0.249
-599.069	418.056	0.057	0.126
-598.055	-200.000	0.016	-0.184
-597.040	-200.000	-0.043	-0.285
-596.025	-46.548	0.130	0.065
-595.011	-92.762	-0.196	-0.056
-593.996	-200.000	-0.044	0.198
-592.982	-200.000	-0.043	0.327
-591.967	261.847	0.135	0.240
-590.952	800.000	0.073	0.208
-589.938	-122.633	-0.333	-0.055
-588.923	-15.421	-0.180	0.118
-587.909	-200.000	-0.002	0.208
-586.894	-48.826	-0.269	-0.132
-585.879	2.136	0.103	0.076
-584.865	-200.000	-0.079	-0.391
-583.850	800.000	-0.038	-0.169
-582.836	100.667	-0.133	0.159
-581.821	40.681	-0.088	-0.082
-580.806	-200.000	0.010	-0.281
-579.792	-64.936	-0.162	-0.067
-578.777	10.192	0.169	-0.131
-577.763	-14.808	-0.139	-0.091
-576.748	308.222	0.192	0.367
-575.733	20.557	-0.305	-0.253
-574.719	-144.551	-0.095	-0.009
-573.704	-163.437	-0.209	-0.010
-572.690	-197.114	-0.390	0.003
-571.675	-200.000	-0.013	-0.131
-570.661	800.000	-0.111	0.321
-569.646	131.744	0.179	0.236
-568.631	-86.183	-0.123	-0.039
-567.617	63.129	0.307	-0.315
-566.602	-200.000	-0.019	0.181
-565.588	800.000	0.128	0.488
-564.573	-32.615	-0.225	-0.128
-563.558	-198.314	-0.303	0.002
-562.544	7.141	0.089	0.068
-561.529	139.289	-0.141	0.190
-560.515	-158.311	-0.171	-0.010
-559.500	-200.000	-0.022	-0.156
-558.485	-40.675	0.184	0.098
-557.471	-23.480	-0.125	-0.077
-556.456	-68.615	-0.200	-0.079
-555.442	20.323	0.146	0.120
-554.427	1.442	-0.331	0.243
-553.412	-200.000	-0.005	-0.235
-552.398	27.057	0.090	0.077
-551.383	800.000	-0.077	-0.285
-550.369	800.000	-0.112	-0.368
-549.354	130.544	0.129	0.169
-548.339	-0.252	-0.109	0.079
-547.325	247.864	-0.126	0.218
-546.310	-200.000	0.003	-0.204
-545.296	-61.878	0.345	-0.148
-544.281	-6.134	0.405	-0.283
-543.266	-0.557	0.323	-0.234
-542.252	-127.671	0.396	-0.059
-541.237	-200.000	0.025	-0.195
-540.223	-161.332	0.117	-0.006
-539.208	-76.739	-0.158	-0.056
-538.193	-200.000	0.022	-0.212
-537.179	-41.233	0.161	-0.085
-536.164	-169.772	-0.083	-0.003
-535.150	-200.000	0.011	0.207
-534.135	289.531	0.170	0.316
-533.121	-200.000	-0.016	-0.125
-532.106	232.880	-0.147	-0.247
-531.091	-74.349	-0.428	-0.158
-530.077	-62.152	0.318	0.135
-529.062	110.956	0.091	-0.112
-528.048	42.803	0.072	-0.067
-527.033	-136.450	-0.343	0.041
-526.018	-200.000	-0.011	-0.072
-525.004	-36.486	-0.147	-0.081
-523.989	-5.776	0.072	0.050
-522.975	144.777	0.038	-0.052
-521.960	155.267	-0.232	-0.327
-520.945	-200.000	-0.037	0.273
-519.931	88.057	-0.044	0.050
-518.916	-195.891	-0.201	-0.001
-517.902	77.344	-0.302	0.328
-516.887	20.095	0.180	0.148
-515.872	-200.000	0.001	-0.632
-514.858	420.449	0.091	0.199
-513.843	-127.765	0.107	0.016
-512.829	-124.812	-0.072	0.011
-511.814	475.297	0.047	-0.109
-510.799	97.670	-0.094	-0.110
-509.785	-55.974	0.111	0.050
-508.770	-33.360	-0.040	-0.022
-507.756	-179.126	-0.261	0.006
-506.741	-200.000	0.020	0.183
-505.726	215.778	0.038	-0.062
-504.712	-200.000	0.002	-0.314
-503.697	87.294	-0.215	0.242
-502.683	-129.088	0.051	0.007
-501.668	156.628	-0.062	-0.088
-500.653	86.041	0.076	-0.085
-499.639	-52.492	0.338	0.160
-498.624	-131.987	0.293	-0.039
-497.610	-200.000	0.008	0.081
-496.595	-142.025	0.382	0.039
-495.581	382.980	0.025	0.052
-494.566	138.052	0.051	0.068
-493.551	73.618	0.309	-0.330
-492.537	318.405	0.035	-0.068
-491.522	48.785	0.061	-0.058
-490.508	31.070	0.225	-0.197
-489.493	205.396	-0.159	-0.252
-488.478	-104.382	0.130	0.031
-487.464	-6.591	-0.159	-0.110
-486.449	-143.649	0.155	0.015
-485.435	-99.407	0.143	0.037
-484.420	633.943	0.098	0.252
-483.405	-2.191	0.215	-0.154
-482.391	-39.870	-0.178	0.095
-481.376	800.000	0.040	0.126
-480.362	800.000	0.082	0.295
-479.347	800.000	0.071	0.247
-478.332	-126.372	0.218	-0.033
-477.318	-200.000	-0.011	-0.125
-476.303	-200.000	-0.030	-0.165
-475.289	-41.349	-0.194	-0.102
-474.274	120.369	0.125	-0.159
-473.259	65.112	0.093	0.096
-472.245	-6.445	-0.316	-0.220
-471.230	-45.516	-0.118	-0.060
-470.216	0.468	-0.378	0.275
-469.201	249.976	-0.035	0.061
-468.186	-32.751	0.327	0.185
-467.172	-6.652	-0.033	0.023
-466.157	-42.928	0.133	0.069
-465.143	-200.000	-0.033	0.167
-464.128	206.555	-0.191	-0.304
-463.113	800.000	0.133	-0.389
-462.099	-154.859	0.416	-0.028
-461.084	246.563	0.180	-0.310
-460.070	62.694	-0.017	0.017
-459.055	-150.363	-0.011	-0.001
-458.040	-90.998	-0.367	-0.107
-457.026	38.761	-0.115	0.104
-456.011	-200.000	-0.205	0.001
-454.997	-103.381	-0.120	0.029
-453.982	-90.355	-0.130	0.039
-452.968	-39.440	0.077	0.041
-451.953	-66.596	0.291	-0.118
-450.938	-38.898	0.277	-0.149
-449.924	56.149	-0.144	0.143
-448.909	800.000	0.028	-0.110
-447.895	81.095	-0.132	-0.146
-446.880	-107.676	-0.226	0.050
-445.865	-200.000	-0.001	0.286
-444.851	-162.387	-0.069	-0.004
-443.836	177.504	0.176	-0.261
-442.822	800.000	0.015	0.058
-441.807	2.280	0.069	0.051
-440.792	-189.289	0.139	0.002
-439.778	25.326	0.182	0.154
-438.763	308.520	-0.070	0.132
-437.749	-99.429	-0.196	-0.050
-436.734	14.598	0.158	0.126
-435.719	-12.271	0.285	0.190
-434.705	-37.340	0.147	0.080
-433.690	-38.107	-0.064	-0.035
-432.676	-71.987	0.163	-0.062
-431.661	-102.031	0.174	0.043
-430.646	382.745	-0.048	0.101
-429.632	-116.499	-0.240	0.045
-428.617	-90.491	-0.178	-0.053
-427.603	-200.000	-0.036	0.237
-426.588	-9.855	-0.084	0.057
-425.573	-200.000	-0.003	-0.092
-424.559	21.284	-0.138	-0.114
-423.544	800.000	-0.064	-0.256
-422.530	-2.988	0.069	0.049
-421.515	-54.768	0.258	-0.119
-420.500	195.493	0.013	0.020
-419.486	52.440	0.072	-0.070
-418.471	-200.000	-0.011	-0.364
-417.457	800.000	0.066	-0.238
-416.442	-109.289	-0.219	-0.047
-415.428	171.370	0.066	-0.097
-414.413	-37.619	0.328	0.178
-413.398	-200.000	0.020	0.116
-412.384	-69.462	-0.022	-0.009
-411.369	-88.388	-0.328	0.100
-410.355	47.634	0.116	0.110
-409.340	-176.275	0.407	0.011
-408.325	153.458	0.151	0.210
-407.311	-52.719	-0.105	0.049
-406.296	248.113	-0.222	0.381
-405.282	16.220	0.250	0.201
-404.267	800.000	-0.024	0.078
-403.252	-131.503	-0.219	-0.029
-402.238	-200.000	0.026	0.126
-401.223	-27.483	-0.151	0.089
-400.209	800.000	-0.061	0.219
-399.194	-200.000	0.066	-0.430
-398.179	7.006	-0.243	-0.184
-397.165	-97.657	-0.115	-0.030
-396.150	-200.000	0.034	-0.177
-395.136	25.383	-0.238	-0.201
-394.121	314.743	-0.219	0.420
-393.106	649.090	-0.105	0.273
-392.092	800.000	0.070	0.243
-391.077	-123.515	0.171	0.028
-390.063	3.306	-0.021	-0.015
-389.048	-131.055	0.167	0.023
-388.033	-200.000	0.012	-0.088
-387.019	599.813	0.092	-0.232
-386.004	-18.819	-0.063	0.040
-384.990	-200.000	0.023	0.261
-383.975	56.713	-0.256	0.253
-382.960	-200.000	-0.010	-0.048
-381.946	113.169	0.087	-0.107
-380.931	48.010	-0.078	0.074
-379.917	321.434	-0.092	-0.177
-378.902	800.000	-0.055	-0.215
-377.888	142.455	0.053	-0.072
-376.873	-108.728	0.295	-0.064
-375.858	-70.496	-0.072	-0.028
-374.844	800.000	-0.115	0.407
-373.829	-95.023	-0.187	0.051
-372.815	313.189	0.033	-0.062
-371.800	247.125	-0.068	-0.117
-370.785	-8.737	0.038	0.026
-369.771	-200.000	0.011	0.060
-368.756	-62.676	-0.272	0.114
-367.742	800.000	0.074	-0.235
-366.727	394.996	0.208	-0.441
-365.712	170.608	0.072	0.104
-364.698	-91.485	0.263	0.076
-363.683	81.641	0.085	-0.093
-362.669	267.562	0.090	0.160
-361.654	-200.000	0.002	-0.344
-360.639	-79.893	-0.382	0.130
-359.625	-112.208	-0.231	0.047
-358.610	78.459	-0.132	-0.143
-357.596	-200.000	-0.055	-0.273
-356.581	262.351	-0.181	0.319
-355.566	329.835	-0.062	0.120
-354.552	440.968	0.073	0.162
-353.537	117.946	0.267	0.334
-352.523	18.945	-0.176	-0.143
-351.508	-116.437	0.195	-0.037
-350.493	-113.032	0.233	-0.047
-349.479	783.390	-0.082	0.228
-348.464	-75.378	-0.114	0.041
-347.450	-128.101	-0.218	0.032
-346.435	137.557	0.095	0.126
-345.420	-103.772	0.178	-0.042
-344.406	-153.881	-0.188	0.013
-343.391	-60.112	0.095	-0.041
-342.377	-116.643	-0.175	0.033
-341.362	138.969	0.112	0.149
-340.348	67.957	0.233	-0.242
-339.333	622.650	0.033	-0.085
-338.318	-200.000	-0.059	0.412
-337.304	113.723	-0.177	-0.218
-336.289	-200.000	-0.004	0.128
-335.275	49.919	-0.251	0.240
-334.260	446.445	0.168	0.375
-333.245	-91.861	0.340	-0.098
-332.231	-30.632	0.073	-0.042
-331.216	800.000	0.129	-0.372
-330.202	71.277	-0.173	0.182
-329.187	-200.000	0.095	-0.529
-328.172	458.838	0.188	0.425
-327.158	-14.469	-0.144	0.094
-326.143	-163.242	0.283	-0.014
-325.129	176.358	0.128	0.189
-324.114	-57.092	0.043	0.019
-323.099	-9.598	-0.016	0.011
-322.085	-33.680	-0.248	0.139
-321.070	-200.000	0.013	-0.063
-320.056	-179.859	-0.069	0.001
-319.041	381.626	0.085	0.177
-318.026	90.435	-0.123	-0.139
-317.012	-110.072	0.078	-0.017
-315.997	-90.104	-0.223	0.066
-314.983	269.514	-0.248	0.440
-313.968	375.632	-0.176	0.363
-312.953	197.521	-0.132	0.204
-311.939	-39.530	-0.105	0.056
-310.924	-200.000	-0.005	0.154
-309.910	-86.358	-0.390	-0.121
-308.895	144.805	-0.113	-0.153
-307.880	-19.110	0.188	0.119
-306.866	-94.010	0.207	-0.058
-305.851	202.671	0.060	-0.094
-304.837	27.068	0.124	0.106
-303.822	-8.908	0.249	-0.169
-302.807	-200.000	0.013	-0.132
-301.793	73.795	-0.277	-0.294
-300.778	361.563	0.053	-0.108
-299.764	-107.401	-0.053	0.012
-298.749	328.166	-0.279	-0.543
-297.735	-23.756	-0.084	-0.051
-296.720	44.955	0.096	-0.089
-295.705	-89.826	0.084	-0.025
-294.691	303.283	-0.137	0.258
-293.676	-20.535	0.284	0.177
-292.662	88.331	0.095	0.107
-291.647	351.367	0.074	-0.149
-290.632	800.000	-0.021	-0.081
-289.618	-83.848	0.056	-0.018
-288.603	-10.213	0.164	0.110
-287.589	-62.954	0.030	0.012
-286.574	220.081	-0.164	-0.266
-285.559	-122.379	-0.448	-0.074
-284.545	11.152	0.280	-0.216
-283.530	12.675	0.195	-0.152
-282.516	-96.282	-0.267	0.072
-281.501	19.678	-0.080	0.065
-280.486	757.807	-0.132	0.362
-279.472	520.269	0.078	0.186
-278.457	39.230	-0.059	-0.054
-277.443	-60.849	0.221	-0.094
-276.428	227.342	0.132	0.218
-275.413	-200.000	-0.012	0.214
-274.399	-96.595	-0.433	-0.116
-273.384	687.701	-0.156	-0.411
-272.370	-42.432	0.224	-0.116
-271.355	731.545	-0.078	0.212
-270.340	800.000	0.102	-0.451
-269.326	165.116	-0.177	-0.253
-268.311	-20.408	0.286	0.178
-267.297	-27.024	0.341	-0.201
-266.282	800.000	0.005	0.016
-265.267	59.543	0.240	0.239
-264.253	-77.026	0.153	0.054
-263.238	-102.723	0.047	0.011
-262.224	-200.000	-0.003	0.094
-261.209	-61.460	-0.235	0.100
-260.195	693.276	-0.017	0.044
-259.180	223.527	0.151	-0.247
-258.165	-200.000	0.056	0.367
-257.151	-2.116	0.067	-0.048
-256.136	-200.000	-0.025	0.179
-255.122	64.612	-0.131	-0.134
-254.107	-200.000	0.069	-0.336
-253.092	308.486	-0.178	-0.335
-252.078	-200.000	0.045	-0.331
-251.063	-200.000	-0.009	-0.142
-250.049	-122.502	-0.129	-0.021
-249.034	-200.000	0.016	-0.182
-248.019	-67.192	0.303	0.121
-247.005	-200.000	0.012	-0.444
-245.990	-84.081	0.354	0.113
-244.976	-118.118	0.383	0.069
-243.961	-65.493	0.085	-0.034
-242.946	166.880	-0.097	0.139
-241.932	-116.444	0.132	0.025
-240.917	35.382	0.119	-0.105
-239.903	594.128	0.059	-0.146
-238.888	6.338	-0.208	0.156
-237.873	53.589	0.225	-0.218
-236.859	-200.000	-0.029	-0.379
-235.844	724.321	-0.083	0.223
-234.830	256.481	-0.104	0.180
-233.815	16.989	0.218	-0.175
-232.800	578.560	0.034	-0.085
-231.786	-102.534	0.119	-0.029
-230.771	-94.782	0.197	-0.054
-229.757	225.081	0.127	0.207
-228.742	-133.121	-0.218	0.028
-227.727	-200.000	-0.014	-0.113
-226.713	-160.732	0.312	-0.017
-225.698	399.566	0.147	0.310
-224.684	13.075	0.106	-0.083
-223.669	227.371	0.070	-0.115
-222.655	-100.852	0.249	0.062
-221.640	273.465	0.112	0.199
-220.625	-124.794	-0.089	-0.014
-219.611	94.917	-0.106	-0.122
-218.596	102.253	0.162	-0.191
-217.582	180.574	0.028	-0.041
-216.567	-156.617	0.182	-0.011
-215.552	-38.565	-0.311	-0.166
-214.538	442.068	0.095	0.211
-213.523	12.796	0.062	-0.048
-212.509	-111.150	0.198	0.041
-211.494	800.000	0.067	0.188
-210.479	-200.000	-0.053	-0.475
-209.465	171.423	-0.091	-0.132
-208.450	-39.241	0.090	0.048
-207.436	-176.267	0.285	-0.008
-206.421	-56.074	0.042	0.019
-205.406	-200.000	-0.018	0.217
-204.392	463.423	0.080	-0.180
-203.377	212.299	0.079	0.126
-202.363	-200.000	0.060	0.322
-201.348	-34.315	0.217	0.120
-200.333	90.145	0.267	-0.301
-199.319	79.722	-0.170	-0.184
-198.304	-200.000	-0.015	0.234
-197.290	135.546	-0.266	0.349
-196.275	-200.000	0.043	0.410
-195.260	572.466	-0.078	0.190
-194.246	84.244	0.155	-0.171
-193.231	-57.540	-0.159	-0.070
-192.217	-200.000	0.024	0.198
-191.202	23.850	-0.212	-0.176
-190.187	-200.000	-0.072	-0.320
-189.173	-138.246	-0.142	0.016
-188.158	800.000	-0.049	0.193
-187.144	-109.949	-0.122	-0.026
-186.129	-39.106	-0.120	-0.064
-185.114	-200.000	-0.045	0.345
-184.100	10.055	-0.182	0.139
-183.085	233.483	0.079	0.131
-182.071	-200.000	0.005	0.385
-181.056	28.830	0.076	-0.065
-180.042	17.186	-0.016	-0.013
-179.027	13.553	0.193	0.151
-178.012	-200.000	-0.016	-0.105
-176.998	65.957	0.130	-0.133
-175.983	168.012	-0.064	0.092
-174.969	99.570	0.304	-0.355
-173.954	-6.389	-0.088	0.060
-172.939	-90.136	0.200	-0.059
-171.925	-115.557	0.186	-0.035
-170.910	-128.254	-0.064	0.009
-169.896	4.080	-0.243	-0.179
-168.881	152.609	0.116	-0.159
-167.866	-6.079	-0.232	0.160
-166.852	-25.705	-0.080	0.048
-165.837	238.557	-0.173	0.290
-164.823	-200.000	-0.026	0.301
-163.808	-200.000	0.011	0.170
-162.793	117.736	-0.095	-0.117
-161.779	-8.516	-0.181	0.123
-160.764	19.643	-0.166	0.134
-159.750	-4.920	-0.173	-0.120
-158.735	-101.517	-0.162	0.040
-157.720	-64.973	-0.315	0.128
-156.706	-117.036	0.194	0.036
-155.691	-151.030	0.258	0.020
-154.677	-11.120	0.158	-0.105
-153.662	800.000	0.077	0.232
-152.647	-78.705	-0.197	0.068
-151.633	-42.660	-0.174	-0.089
-150.618	-171.322	0.230	0.008
-149.604	213.183	0.142	0.225
-148.589	-99.094	0.322	-0.082
-147.574	-17.240	-0.236	0.150
-146.560	280.354	0.091	0.164
-145.545	-24.711	0.209	0.125
-144.531	-200.000	0.031	0.172
-143.516	244.134	0.074	-0.126
-142.502	193.138	0.192	-0.293
-141.487	-200.000	0.018	-0.357
-140.472	50.399	0.124	-0.118
-139.458	-200.000	-0.011	0.328
-138.443	206.328	0.135	0.211
-137.429	62.223	-0.150	-0.151
-136.414	800.000	0.044	-0.160
-135.399	-15.777	-0.089	-0.057
-134.385	323.514	-0.147	0.283
-133.370	-200.000	0.268	-0.000
-132.356	-86.026	-0.196	0.061
-131.341	148.449	-0.185	-0.252
-130.326	-200.000	0.029	-0.131
-129.312	41.457	0.133	0.121
-128.297	-58.446	0.157	0.069
-127.283	800.000	-0.059	0.237
-126.268	-105.952	0.313	-0.071
-125.253	-110.209	0.020	-0.004
-124.239	77.545	0.094	0.101
-123.224	-49.159	0.224	-0.108
-122.210	371.838	-0.026	0.053
-121.195	-12.180	0.286	-0.188
