DTS Sentinel unit serial number:	SN413079Multiplexer serial number:	ORYXHardware model number:	OX4-SRSoftware version number:	ORYX F/W v4.00 Oryx Data Collector v3.7.2.0data status	okinstallation	princeton_trtdifferential loss correction	single-endedforward channel	channel 4reverse channel	N/Adate	2019/09/18time	03:21:34forward acquisition time	60.00reverse acquisition time	0.00gamma	496.2192k internal	0.2334k external	0.2334temperature offset calibration	0.9995default loss term (dB/km)	0.3790temperature slope calibration	1.0000multiplexer offset coefficient	1.0000multiplexer slope coefficient	1.0000fibre end	0.00T internal ref (°C)	22.75T ext. ref 1 (°C)	0.15T ext. ref 2 (°C)	16.95length (m)	temperature (°C)	Stokes	anti-Stokes-747.200	177.415	0.091	-0.133
-746.185	51.872	-0.194	0.186
-745.171	145.317	0.295	0.397
-744.156	565.589	0.153	0.372
-743.142	17.033	0.196	0.156
-742.127	-60.113	-0.416	0.178
-741.112	-38.753	-0.143	-0.076
-740.098	6.295	-0.373	0.279
-739.083	649.428	0.089	-0.229
-738.069	17.293	-0.430	0.343
-737.054	352.217	0.160	-0.319
-736.039	-28.466	0.039	-0.023
-735.025	-200.000	-0.016	0.105
-734.010	-16.423	-0.072	-0.046
-732.996	162.818	-0.059	-0.084
-731.981	-200.000	-0.003	0.052
-730.966	174.950	-0.101	0.147
-729.952	-200.000	-0.017	-0.105
-728.937	-200.000	-0.011	-0.130
-727.923	-87.994	-0.190	-0.057
-726.908	13.992	-0.094	0.073
-725.894	-149.898	0.136	0.011
-724.879	-200.000	-0.005	-0.053
-723.864	-46.386	-0.364	0.180
-722.850	-200.000	0.002	-0.147
-721.835	-15.493	0.015	-0.010
-720.821	-200.000	-0.031	-0.235
-719.806	149.448	0.213	0.290
-718.791	-200.000	0.034	-0.253
-717.777	-200.000	-0.028	-0.224
-716.762	49.800	0.183	0.173
-715.748	800.000	0.030	0.123
-714.733	-200.000	0.061	0.470
-713.718	132.719	-0.095	-0.123
-712.704	-18.762	0.103	-0.064
-711.689	232.095	0.053	-0.088
-710.675	-127.515	0.285	0.042
-709.660	-95.243	-0.097	0.026
-708.645	22.427	-0.236	0.194
-707.631	-200.000	0.024	0.114
-706.616	-126.016	0.198	0.030
-705.602	231.454	-0.178	-0.293
-704.587	59.927	0.123	-0.122
-703.572	-69.237	-0.185	-0.071
-702.558	800.000	0.107	-0.317
-701.543	-28.459	0.148	0.085
-700.529	-157.154	0.262	-0.016
-699.514	63.077	-0.131	0.132
-698.499	539.561	-0.071	-0.168
-697.485	800.000	0.072	0.264
-696.470	259.228	-0.091	0.158
-695.456	446.219	0.054	0.118
-694.441	-200.000	-0.029	0.349
-693.426	-118.485	0.053	0.009
-692.412	-37.032	0.204	-0.109
-691.397	254.659	-0.020	-0.034
-690.383	253.735	0.081	0.139
-689.368	324.049	-0.104	-0.200
-688.354	-200.000	-0.014	0.202
-687.339	209.645	0.155	-0.243
-686.324	107.877	-0.239	-0.286
-685.310	201.172	-0.106	0.163
-684.295	-200.000	0.022	0.218
-683.281	155.438	0.098	0.135
-682.266	-143.709	-0.089	0.008
-681.251	-134.743	-0.326	0.040
-680.237	252.296	0.024	0.041
-679.222	-117.537	-0.070	-0.013
-678.208	-200.000	-0.035	-0.171
-677.193	-200.000	-0.024	-0.176
-676.178	271.192	-0.034	-0.060
-675.164	-75.491	-0.209	0.075
-674.149	-91.020	-0.342	0.098
-673.135	-89.249	0.172	0.051
-672.120	-18.777	-0.119	0.075
-671.105	800.000	0.021	-0.079
-670.091	209.115	-0.131	-0.205
-669.076	214.260	0.046	-0.073
-668.062	-86.060	0.041	0.013
-667.047	-200.000	0.004	0.196
-666.032	466.626	0.074	-0.166
-665.018	111.201	-0.182	-0.220
-664.003	-150.091	0.162	0.013
-662.989	-49.942	-0.197	0.094
-661.974	-177.761	0.178	0.004
-660.959	-62.935	-0.254	-0.105
-659.945	-191.838	-0.153	0.001
-658.930	-196.555	0.087	0.001
-657.916	18.095	-0.265	0.212
-656.901	-135.749	0.026	-0.003
-655.886	155.403	-0.297	0.410
-654.872	85.087	0.131	-0.143
-653.857	-200.000	-0.067	0.351
-652.843	-53.044	0.286	0.132
-651.828	102.445	0.137	0.160
-650.814	-200.000	0.021	0.171
-649.799	-31.797	0.131	-0.074
-648.784	-15.556	0.084	-0.054
-647.770	-200.000	0.007	0.241
-646.755	162.055	0.066	-0.092
-645.741	37.256	0.046	-0.041
-644.726	-132.807	0.298	0.038
-643.711	-126.048	-0.134	-0.020
-642.697	-200.000	0.000	0.040
-641.682	-200.000	0.021	0.128
-640.668	100.839	-0.076	-0.088
-639.653	687.834	0.070	-0.182
-638.638	54.974	-0.114	0.110
-637.624	-56.939	0.178	0.079
-636.609	296.818	-0.140	0.258
-635.595	-116.552	0.133	0.024
-634.580	-2.284	0.201	0.141
-633.565	-74.580	-0.192	-0.069
-632.551	14.287	0.119	-0.093
-631.536	69.087	-0.115	-0.118
-630.522	-200.000	-0.002	-0.093
-629.507	-62.006	0.406	-0.170
-628.492	-200.000	0.002	-0.044
-627.478	-145.240	-0.286	-0.026
-626.463	-200.000	0.011	0.103
-625.449	-156.220	0.334	-0.021
-624.434	-32.273	-0.209	-0.117
-623.419	-17.708	0.280	-0.176
-622.405	-200.000	0.014	0.076
-621.390	737.761	-0.056	-0.150
-620.376	-108.516	-0.034	0.007
-619.361	-105.440	-0.251	-0.057
-618.346	-95.090	-0.036	0.010
-617.332	259.563	0.106	-0.184
-616.317	662.106	-0.065	-0.167
-615.303	28.748	0.260	-0.220
-614.288	-200.000	-0.001	0.268
-613.273	192.047	0.049	-0.074
-612.259	271.841	0.164	0.288
-611.244	584.072	-0.100	0.246
-610.230	-200.000	-0.003	-0.134
-609.215	800.000	-0.060	-0.199
-608.201	286.103	0.074	-0.133
-607.186	62.971	-0.227	0.227
-606.171	-58.990	-0.204	-0.088
-605.157	-125.786	0.268	0.040
-604.142	97.584	0.112	0.129
-603.128	-13.615	0.083	-0.054
-602.113	203.869	-0.203	-0.314
-601.098	-200.000	0.013	-0.086
-600.084	169.567	-0.085	-0.121
-599.069	112.032	0.112	-0.135
-598.055	234.804	0.041	0.068
-597.040	-40.473	-0.262	-0.136
-596.025	-72.182	0.214	-0.079
-595.011	-76.314	-0.353	-0.124
-593.996	-192.692	-0.242	0.002
-592.982	-200.000	-0.011	0.202
-591.967	5.463	0.152	-0.112
-590.952	-65.026	0.286	0.115
-589.938	-28.384	0.226	-0.130
-588.923	800.000	-0.008	0.031
-587.909	117.104	0.054	-0.066
-586.894	-115.529	-0.067	-0.013
-585.879	773.747	0.019	-0.053
-584.865	-108.198	-0.395	0.085
-583.850	-99.113	-0.281	-0.071
-582.836	-192.632	-0.191	-0.002
-581.821	346.534	0.045	-0.089
-580.806	482.854	0.076	-0.173
-579.792	-27.533	-0.105	-0.061
-578.777	-130.335	0.239	0.032
-577.763	-0.021	0.160	0.114
-576.748	705.267	0.104	0.274
-575.733	-145.665	0.121	-0.011
-574.719	-48.160	-0.124	-0.060
-573.704	-200.000	-0.025	0.139
-572.690	297.050	0.194	0.355
-571.675	-200.000	-0.024	-0.127
-570.661	-200.000	-0.015	-0.399
-569.646	-61.486	-0.208	0.087
-568.631	-122.230	0.159	-0.026
-567.617	-157.754	-0.425	-0.025
-566.602	502.060	0.118	-0.272
-565.588	-200.000	0.009	0.209
-564.573	61.012	-0.262	0.260
-563.558	-119.295	0.084	0.015
-562.544	800.000	-0.083	-0.281
-561.529	800.000	-0.045	-0.125
-560.515	638.657	-0.106	0.268
-559.500	274.628	0.084	0.148
-558.485	373.257	-0.144	-0.292
-557.471	800.000	0.085	-0.317
-556.456	122.876	0.102	-0.127
-555.442	-131.409	-0.183	0.024
-554.427	17.734	0.030	0.024
-553.412	357.666	0.092	0.183
-552.398	800.000	-0.036	-0.116
-551.383	293.971	0.262	-0.478
-550.369	374.756	-0.048	0.098
-549.354	287.574	-0.104	0.187
-548.339	124.115	0.232	0.290
-547.325	-133.472	0.347	-0.043
-546.310	679.733	-0.199	-0.516
-545.296	-200.000	-0.007	0.120
-544.281	-200.000	-0.044	0.468
-543.266	208.246	-0.060	0.093
-542.252	-200.000	0.026	0.242
-541.237	94.061	0.203	-0.230
-540.223	-11.036	0.437	0.288
-539.208	-161.844	0.085	0.004
-538.193	234.585	-0.184	-0.302
-537.179	692.923	0.096	0.252
-536.164	48.024	0.026	0.024
-535.150	-84.943	-0.273	0.086
-534.135	134.706	-0.200	-0.258
-533.121	-161.693	0.216	-0.011
-532.106	-32.300	0.432	0.240
-531.091	441.813	-0.113	0.247
-530.077	-89.285	0.071	0.021
-529.062	12.362	0.392	-0.301
-528.048	-200.000	-0.002	-0.173
-527.033	76.195	-0.093	-0.098
-526.018	-106.680	0.146	0.032
-525.004	-134.797	-0.215	-0.026
-523.989	800.000	0.096	-0.268
-522.975	-80.802	-0.055	0.018
-521.960	43.353	0.048	0.044
-520.945	-6.270	0.104	0.070
-519.931	-132.938	-0.261	0.033
-518.916	800.000	-0.084	0.267
-517.902	-90.629	-0.484	-0.139
-516.887	-44.737	0.139	-0.069
-515.872	-155.331	-0.041	0.003
-514.858	800.000	0.102	-0.392
-513.843	800.000	0.018	-0.061
-512.829	347.854	0.071	0.140
-511.814	800.000	0.040	0.166
-510.799	111.571	0.226	0.272
-509.785	547.554	-0.023	-0.054
-508.770	-147.886	0.280	-0.023
-507.756	259.266	-0.257	0.442
-506.741	800.000	0.120	0.331
-505.726	152.750	0.193	0.263
-504.712	-29.786	0.193	-0.110
-503.697	-200.000	-0.058	0.437
-502.683	-13.585	0.479	0.309
-501.668	-94.301	0.324	0.088
-500.653	-200.000	0.030	-0.206
-499.639	44.159	-0.114	0.104
-498.624	95.310	0.092	0.104
-497.610	-124.639	-0.103	0.016
-496.595	-200.000	0.002	0.062
-495.581	-155.123	-0.226	0.015
-494.566	-117.584	0.246	-0.044
-493.551	89.755	-0.086	-0.095
-492.537	-173.746	-0.345	-0.010
-491.522	800.000	0.083	-0.268
-490.508	-200.000	0.046	0.408
-489.493	800.000	-0.071	0.230
-488.478	-95.676	-0.358	-0.095
-487.464	-200.000	-0.042	-0.294
-486.449	619.188	-0.061	-0.153
-485.435	81.588	-0.148	-0.159
-484.420	-147.255	0.217	0.018
-483.405	76.484	0.060	0.063
-482.391	561.311	-0.016	0.038
-481.376	-53.684	-0.190	-0.086
-480.362	22.505	-0.092	0.075
-479.347	3.885	-0.085	-0.062
-478.332	-200.000	0.021	0.577
-477.318	-200.000	-0.011	0.063
-476.303	-200.000	-0.002	-0.065
-475.289	-182.332	-0.322	0.006
-474.274	444.067	-0.130	0.284
-473.259	95.083	0.114	-0.129
-472.245	-74.183	-0.400	0.144
-471.230	-200.000	-0.052	0.249
-470.216	-200.000	0.009	-0.116
-469.201	-200.000	0.017	-0.154
-468.186	-128.310	-0.264	0.037
-467.172	-87.241	0.147	-0.044
-466.157	-79.183	-0.301	-0.102
-465.143	-107.279	-0.223	-0.049
-464.128	-200.000	0.044	-0.478
-463.113	171.812	-0.118	-0.169
-462.099	-102.650	0.345	-0.082
-461.084	-200.000	0.018	-0.123
-460.070	-200.000	0.037	0.300
-459.055	3.804	0.102	0.074
-458.040	-200.000	-0.012	-0.222
-457.026	150.470	-0.024	0.033
-456.011	208.296	-0.129	0.200
-454.997	-200.000	0.008	-0.149
-453.982	-32.039	-0.178	-0.099
-452.968	36.704	0.176	0.154
-451.953	-44.222	-0.118	0.059
-450.938	-101.235	0.287	-0.070
-449.924	-74.607	-0.351	-0.126
-448.909	-174.296	-0.196	0.006
-447.895	-110.606	0.227	-0.047
-446.880	-1.173	0.163	-0.115
-445.865	164.448	-0.141	0.197
-444.851	-200.000	0.037	0.269
-443.836	-200.000	-0.048	-0.236
-442.822	85.601	-0.009	0.009
-441.807	-174.094	-0.260	0.008
-440.792	116.405	0.183	0.223
-439.778	800.000	-0.104	-0.294
-438.763	546.658	0.018	-0.043
-437.749	800.000	-0.095	-0.280
-436.734	746.385	-0.030	0.081
-435.719	-167.381	-0.052	-0.002
-434.705	-153.371	0.406	0.028
-433.690	135.154	-0.229	-0.295
-432.676	94.330	0.197	-0.222
-431.661	-200.000	-0.009	0.255
-430.646	-151.816	0.272	-0.020
-429.632	-39.496	-0.350	-0.182
-428.617	597.563	-0.189	-0.465
-427.603	11.270	-0.146	0.111
-426.588	-200.000	0.077	-0.529
-425.573	-200.000	0.027	-0.214
-424.559	-42.352	0.124	0.063
-423.544	269.541	-0.023	0.039
-422.530	103.074	-0.096	-0.111
-421.515	-200.000	-0.013	0.106
-420.500	-53.302	-0.193	-0.088
-419.486	164.669	-0.120	0.168
-418.471	30.046	0.113	-0.096
-417.457	91.766	-0.165	0.184
-416.442	78.120	-0.099	-0.104
-415.428	153.966	0.110	0.149
-414.413	-161.186	-0.232	-0.012
-413.398	261.159	-0.100	-0.172
-412.384	800.000	0.040	-0.139
-411.369	-116.179	0.229	-0.042
-410.355	-200.000	-0.039	0.177
-409.340	134.478	-0.084	-0.108
-408.325	800.000	-0.064	-0.276
-407.311	69.592	0.038	-0.039
-406.296	-200.000	-0.011	0.323
-405.282	-200.000	-0.025	-0.170
-404.267	-120.219	0.101	-0.017
-403.252	469.218	0.055	0.122
-402.238	-36.647	-0.363	-0.193
-401.223	-168.966	-0.316	-0.012
-400.209	116.147	0.190	0.231
-399.194	69.640	0.285	0.291
-398.179	27.844	-0.367	-0.307
-397.165	551.329	-0.107	0.254
-396.150	33.971	-0.080	0.069
-395.136	-14.512	0.136	-0.087
-394.121	-200.000	-0.033	0.260
-393.106	800.000	-0.087	0.359
-392.092	226.314	-0.194	-0.313
-391.077	-69.380	-0.132	-0.050
-390.063	229.184	0.162	-0.262
-389.048	-59.360	-0.318	0.135
-388.033	-60.636	-0.124	0.052
-387.019	-103.494	-0.435	-0.101
-386.004	-200.000	-0.005	0.114
-384.990	-72.426	0.084	0.031
-383.975	-200.000	0.006	0.114
-382.960	-65.851	0.055	-0.022
-381.946	14.434	0.096	-0.074
-380.931	32.613	0.012	-0.010
-379.917	-200.000	0.029	0.150
-378.902	524.288	0.043	-0.101
-377.888	-200.000	0.035	-0.201
-376.873	410.529	-0.022	0.046
-375.858	-78.889	-0.090	0.030
-374.844	800.000	0.052	-0.176
-373.829	-145.291	0.179	0.016
-372.815	740.985	0.113	-0.302
-371.800	14.224	-0.073	-0.056
-370.785	-200.000	-0.028	0.148
-369.771	-136.722	0.256	0.029
-368.756	-118.825	-0.112	0.020
-367.742	-9.606	-0.328	0.216
-366.727	295.414	-0.042	0.076
-365.712	-10.366	0.151	-0.099
-364.698	-200.000	-0.007	-0.238
-363.683	-200.000	-0.003	-0.059
-362.669	-12.543	-0.238	0.154
-361.654	-200.000	0.060	0.424
-360.639	-200.000	0.039	-0.230
-359.625	145.607	-0.128	0.170
-358.610	800.000	0.080	-0.291
-357.596	-105.601	-0.377	0.085
-356.581	-41.262	-0.088	0.045
-355.566	-200.000	-0.037	-0.236
-354.552	-200.000	0.025	0.121
-353.537	-200.000	0.061	0.314
-352.523	-40.300	0.222	0.114
-351.508	33.209	0.057	0.049
-350.493	-46.081	-0.147	-0.072
-349.479	-200.000	-0.035	-0.171
-348.464	-125.194	0.226	-0.034
-347.450	294.363	0.112	0.202
-346.435	48.506	0.157	0.146
-345.420	-200.000	0.022	0.141
-344.406	331.138	0.108	-0.207
-343.391	-13.074	0.481	-0.310
-342.377	-69.666	-0.175	0.066
-341.362	704.607	-0.067	0.175
-340.348	-141.392	0.464	-0.047
-339.333	65.899	-0.014	0.014
-338.318	800.000	0.041	-0.134
-337.304	379.010	0.203	-0.410
-336.289	-65.020	0.258	-0.103
-335.275	800.000	-0.071	0.221
-334.260	-200.000	-0.058	-0.490
-333.245	-94.281	-0.043	0.012
-332.231	149.297	0.077	-0.103
-331.216	64.609	-0.197	0.196
-330.202	800.000	0.012	-0.046
-329.187	-107.837	-0.206	0.044
-328.172	2.573	-0.269	-0.193
-327.158	383.982	-0.006	0.012
-326.143	-62.435	0.291	-0.119
-325.129	-143.683	0.344	-0.032
-324.114	78.196	0.171	0.180
-323.099	307.326	0.052	0.096
-322.085	-79.423	0.164	0.055
-321.070	36.500	-0.132	0.115
-320.056	800.000	0.057	-0.162
-319.041	-48.708	-0.141	-0.067
-318.026	77.467	0.096	-0.101
-317.012	1.498	-0.118	-0.084
-315.997	-200.000	-0.030	0.159
-314.983	800.000	0.116	0.345
-313.968	800.000	0.206	0.581
-312.953	-152.390	0.388	-0.028
-311.939	-170.607	-0.298	0.010
-310.924	-8.630	0.137	0.091
-309.910	79.377	-0.063	0.067
-308.895	-68.008	-0.165	-0.064
-307.880	-74.160	-0.143	0.051
-306.866	730.511	0.067	0.176
-305.851	800.000	0.037	0.132
-304.837	-200.000	-0.012	-0.293
-303.822	483.835	-0.186	-0.417
-302.807	800.000	0.089	-0.367
-301.793	-200.000	-0.068	0.421
-300.778	-200.000	-0.007	0.090
-299.764	-200.000	0.034	0.169
-298.749	-167.698	0.219	-0.009
-297.735	510.391	0.141	0.324
-296.720	-200.000	-0.042	0.248
-295.705	90.828	-0.176	0.195
-294.691	800.000	0.022	0.070
-293.676	30.955	0.007	0.006
-292.662	-200.000	0.056	-0.421
-291.647	799.808	-0.022	-0.061
-290.632	-168.708	-0.241	-0.009
-289.618	-121.921	0.228	0.037
-288.603	324.512	0.046	0.086
-287.589	-200.000	0.033	-0.153
-286.574	41.039	-0.071	-0.063
-285.559	-200.000	0.063	-0.419
-284.545	158.707	-0.140	-0.192
-283.530	-42.667	0.305	-0.153
-282.516	193.816	0.105	-0.157
-281.501	254.671	-0.136	-0.230
-280.486	-121.417	0.310	0.051
-279.472	87.979	-0.089	-0.097
-278.457	197.769	0.132	0.199
-277.443	-45.465	0.023	-0.011
-276.428	1.346	0.184	-0.130
-275.413	-104.420	0.156	-0.036
-274.399	800.000	-0.080	0.253
-273.384	-200.000	0.037	-0.265
-272.370	800.000	-0.026	0.089
-271.355	-200.000	-0.022	0.174
-270.340	-140.888	-0.191	0.019
-269.326	196.460	0.023	-0.035
-268.311	-200.000	-0.024	-0.132
-267.297	-98.580	-0.296	0.075
-266.282	-183.836	-0.019	0.000
-265.267	67.191	0.170	-0.171
-264.253	-200.000	-0.001	-0.108
-263.238	-65.458	-0.541	-0.214
-262.224	800.000	0.059	0.193
-261.209	-84.958	-0.028	0.009
-260.195	-55.850	0.224	-0.099
-259.180	-158.100	0.320	0.019
-258.165	355.865	-0.030	0.060
-257.151	-4.177	0.408	0.279
-256.136	4.175	0.199	-0.144
-255.122	-172.936	-0.131	0.004
-254.107	-200.000	0.026	0.173
-253.092	126.903	0.021	0.026
-252.078	78.249	-0.187	-0.197
-251.063	-151.218	0.058	-0.004
-250.049	-104.872	-0.220	0.050
-249.034	564.369	0.077	0.184
-248.019	-19.212	-0.173	0.106
-247.005	-200.000	-0.037	0.179
-245.990	210.075	0.118	0.183
-244.976	-200.000	0.023	0.238
-243.961	-200.000	-0.020	0.184
-242.946	57.392	-0.053	-0.051
-241.932	176.708	0.151	0.216
-240.917	-9.777	0.164	-0.108
-239.903	-200.000	0.043	-0.197
-238.888	-121.291	0.252	-0.042
-237.873	800.000	0.119	-0.344
-236.859	-115.961	-0.198	0.036
-235.844	-84.548	-0.307	0.095
-234.830	177.780	-0.060	-0.087
-233.815	-94.390	0.228	0.061
-232.800	-56.842	-0.204	-0.089
-231.786	800.000	-0.035	0.105
-230.771	-142.655	-0.132	0.013
-229.757	54.552	-0.117	-0.111
-228.742	-42.754	-0.213	-0.107
-227.727	-122.892	-0.205	-0.033
-226.713	-58.690	0.349	-0.149
-225.698	-97.401	-0.354	0.091
-224.684	-152.536	-0.128	0.009
-223.669	711.402	0.031	0.080
-222.655	-200.000	0.034	-0.308
-221.640	39.832	0.095	0.084
-220.625	-75.327	-0.136	0.048
-219.611	118.641	0.186	-0.226
-218.596	-200.000	0.025	-0.109
-217.582	-120.221	-0.109	-0.018
-216.567	151.555	0.187	0.250
-215.552	112.431	0.125	-0.149
-214.538	156.721	0.094	-0.127
-213.523	467.304	-0.088	-0.195
-212.509	800.000	-0.052	0.220
-211.494	-136.583	0.282	-0.032
-210.479	25.041	-0.055	-0.045
-209.465	23.750	-0.190	-0.154
-208.450	-151.345	0.329	0.024
-207.436	-200.000	0.009	0.129
-206.421	161.641	0.131	-0.180
-205.406	438.355	0.090	0.192
-204.392	-117.291	-0.152	-0.027
-203.377	-104.828	-0.098	0.022
-202.363	465.479	-0.112	-0.247
-201.348	25.842	0.152	-0.124
-200.333	-15.978	-0.170	0.106
-199.319	-0.225	0.240	0.168
-198.304	-200.000	0.002	-0.290
-197.290	430.721	-0.081	0.174
-196.275	151.726	-0.059	-0.079
-195.260	103.980	-0.069	0.080
-194.246	-124.488	-0.200	-0.031
-193.231	656.716	0.102	0.259
-192.217	74.803	-0.161	0.166
-191.202	-40.029	-0.117	0.060
-190.187	414.848	0.098	0.206
-189.173	-165.517	0.176	-0.008
-188.158	254.903	-0.153	0.257
-187.144	80.176	-0.131	0.139
-186.129	152.564	0.062	-0.084
-185.114	234.886	-0.027	0.043
-184.100	-96.379	0.258	0.067
-183.085	130.292	-0.109	-0.138
-182.071	-101.143	0.141	0.034
-181.056	-41.195	-0.246	-0.125
-180.042	800.000	0.049	-0.192
-179.027	193.019	0.223	-0.331
-178.012	-101.027	-0.302	0.073
-176.998	-99.361	0.199	-0.049
-175.983	-60.503	0.142	0.059
-174.969	406.480	-0.095	0.198
-173.954	-15.621	-0.104	0.065
-172.939	-23.586	0.126	0.075
-171.925	51.285	0.255	0.238
-170.910	194.395	-0.238	0.354
-169.896	-100.177	0.030	0.007
-168.881	-200.000	-0.022	-0.182
-167.866	740.396	0.077	-0.203
-166.852	800.000	0.123	0.429
-165.837	-97.879	-0.120	0.031
-164.823	91.806	-0.083	-0.092
-163.808	-158.562	0.173	-0.010
-162.793	-4.331	-0.368	0.250
-161.779	96.549	0.166	0.187
-160.764	-90.001	0.166	-0.048
-159.750	-200.000	-0.000	0.099
-158.735	344.585	-0.229	0.441
-157.720	323.841	-0.085	0.160
-156.706	-40.721	0.050	0.025
-155.691	-110.685	-0.164	0.033
-154.677	2.265	0.188	-0.133
-153.662	-144.560	-0.113	-0.010
-152.647	-91.436	-0.282	-0.079
-151.633	413.829	0.126	0.263
-150.618	-87.214	0.176	-0.052
-149.604	-136.254	-0.226	0.026
-148.589	-14.156	-0.341	0.216
-147.574	800.000	0.078	0.224
-146.560	189.141	-0.169	-0.248
-145.545	58.144	-0.225	0.216
-144.531	29.195	-0.126	0.105
-143.516	109.414	0.168	0.198
-142.502	-200.000	0.014	0.332
-141.487	53.368	-0.099	-0.094
-140.472	-31.804	-0.324	0.178
-139.458	-75.123	-0.189	-0.066
-138.443	-200.000	0.034	-0.157
-137.429	-83.535	-0.219	-0.069
-136.414	-93.418	-0.199	-0.054
-135.399	-39.103	0.261	0.134
-134.385	51.562	-0.291	-0.272
-133.370	8.318	0.309	0.228
-132.356	-120.197	-0.136	-0.023
-131.341	-99.025	-0.231	0.058
-130.326	71.890	-0.275	-0.280
-129.312	30.337	0.265	-0.222
-128.297	-108.626	0.269	-0.057
-127.283	-62.715	0.049	0.020
-126.268	-24.508	0.170	0.099
-125.253	-91.214	0.094	-0.026
-124.239	232.984	-0.087	-0.141
-123.224	-87.763	0.091	0.027
-122.210	24.703	0.115	0.093
