DTS Sentinel unit serial number:	SN413079Multiplexer serial number:	ORYXHardware model number:	OX4-SRSoftware version number:	ORYX F/W v4.00 Oryx Data Collector v3.7.2.0data status	okinstallation	princeton_trtdifferential loss correction	single-endedforward channel	channel 4reverse channel	N/Adate	2019/09/14time	13:09:35forward acquisition time	60.00reverse acquisition time	0.00gamma	496.2192k internal	0.2292k external	0.2292temperature offset calibration	1.0155default loss term (dB/km)	0.3790temperature slope calibration	1.0000multiplexer offset coefficient	1.0000multiplexer slope coefficient	1.0000fibre end	0.00T internal ref (°C)	37.94T ext. ref 1 (°C)	4.87T ext. ref 2 (°C)	33.93length (m)	temperature (°C)	Stokes	anti-Stokes-747.200	-200.000	0.037	-0.350
-746.185	-200.000	0.002	0.308
-745.171	740.193	0.041	-0.113
-744.156	542.701	-0.130	0.317
-743.142	286.606	-0.105	-0.194
-742.127	470.280	0.101	0.232
-741.112	-200.000	-0.025	-0.163
-740.098	-33.565	-0.303	0.171
-739.083	-104.838	-0.239	0.056
-738.069	62.137	-0.172	0.176
-737.054	-111.358	0.197	-0.041
-736.039	-61.817	-0.455	0.195
-735.025	-16.718	-0.261	0.169
-734.010	139.650	-0.060	0.081
-732.996	-123.279	-0.396	-0.065
-731.981	146.426	-0.116	-0.160
-730.966	-200.000	0.019	-0.087
-729.952	-114.868	0.164	0.032
-728.937	-200.000	-0.030	0.244
-727.923	-121.054	-0.154	-0.026
-726.908	-159.362	0.191	-0.011
-725.894	196.220	-0.118	-0.184
-724.879	530.595	-0.068	0.165
-723.864	606.228	-0.122	-0.311
-722.850	115.694	-0.087	-0.109
-721.835	-128.634	-0.489	-0.071
-720.821	-79.274	-0.135	-0.047
-719.806	-95.200	-0.300	0.083
-718.791	221.629	0.199	-0.328
-717.777	727.534	-0.045	-0.123
-716.762	329.847	0.115	0.225
-715.748	-42.285	-0.386	0.201
-714.733	-78.029	-0.034	0.012
-713.718	-65.447	0.162	0.067
-712.704	-113.628	-0.236	0.047
-711.689	-200.000	-0.015	0.102
-710.675	0.211	-0.030	-0.022
-709.660	83.689	-0.065	0.072
-708.645	-122.034	-0.172	0.029
-707.631	-116.764	0.074	-0.014
-706.616	-200.000	0.021	-0.131
-705.602	-50.307	0.289	-0.140
-704.587	-152.890	-0.243	0.018
-703.572	-180.287	0.052	0.001
-702.558	61.440	0.111	0.113
-701.543	-94.688	0.065	-0.018
-700.529	50.017	0.220	0.212
-699.514	-159.174	-0.349	0.020
-698.499	626.763	-0.073	0.187
-697.485	-200.000	0.041	-0.297
-696.470	69.353	-0.214	0.225
-695.456	-200.000	-0.019	0.096
-694.441	-200.000	0.001	-0.132
-693.426	-200.000	-0.019	-0.196
-692.412	84.387	-0.298	-0.333
-691.397	270.860	-0.123	-0.222
-690.383	-92.858	-0.179	-0.051
-689.368	-200.000	0.012	-0.241
-688.354	592.548	0.048	-0.121
-687.339	-89.285	0.120	-0.036
-686.324	349.328	-0.031	0.062
-685.310	62.026	-0.172	0.175
-684.295	87.157	-0.037	0.042
-683.281	800.000	-0.043	-0.153
-682.266	123.413	-0.117	0.149
-681.251	19.055	-0.087	0.071
-680.237	-39.367	-0.363	0.194
-679.222	-102.122	0.259	0.064
-678.208	-158.815	-0.194	0.011
-677.193	-57.060	0.281	-0.126
-676.178	77.231	-0.131	0.142
-675.164	800.000	-0.027	0.108
-674.149	1.979	-0.080	0.059
-673.135	-6.645	-0.039	-0.027
-672.120	105.735	-0.147	-0.177
-671.105	48.742	-0.038	0.036
-670.091	-173.359	0.037	-0.001
-669.076	-102.269	-0.316	0.078
-668.062	800.000	-0.047	-0.169
-667.047	336.446	0.072	-0.143
-666.032	217.203	0.207	-0.337
-665.018	486.302	-0.044	-0.102
-664.003	21.488	-0.213	-0.177
-662.989	-34.963	-0.148	-0.082
-661.974	200.576	0.105	-0.165
-660.959	-41.074	0.020	0.010
-659.945	30.260	0.192	0.167
-658.930	-87.621	0.144	-0.044
-657.916	-200.000	0.022	-0.299
-656.901	298.136	-0.076	0.143
-655.886	-12.113	0.303	-0.202
-654.872	-3.286	-0.177	-0.126
-653.857	-81.187	0.145	0.049
-652.843	-26.267	-0.013	0.008
-651.828	35.076	-0.130	0.117
-650.814	74.937	-0.100	-0.108
-649.799	-46.014	-0.301	-0.151
-648.784	-190.910	0.146	-0.002
-647.770	-165.307	-0.325	0.015
-646.755	189.497	-0.085	0.130
-645.741	-200.000	-0.029	0.241
-644.726	800.000	-0.088	0.280
-643.711	9.905	0.168	0.130
-642.697	-40.928	0.015	-0.008
-641.682	102.540	-0.174	-0.208
-640.668	-200.000	-0.005	-0.065
-639.653	204.259	-0.238	0.376
-638.638	613.962	-0.069	0.177
-637.624	-200.000	-0.025	-0.151
-636.609	-200.000	-0.024	0.137
-635.595	390.168	0.179	-0.379
-634.580	-200.000	0.006	-0.128
-633.565	-157.400	0.173	-0.011
-632.551	497.831	-0.064	-0.151
-631.536	-94.361	-0.129	0.036
-630.522	294.682	-0.200	-0.373
-629.507	-200.000	0.049	0.452
-628.492	9.027	-0.113	0.087
-627.478	-143.489	-0.054	0.005
-626.463	-98.022	-0.119	0.031
-625.449	-44.653	0.185	-0.094
-624.434	-200.000	-0.019	0.120
-623.419	-143.348	-0.206	0.020
-622.405	-5.841	0.113	0.079
-621.390	-11.328	0.235	-0.157
-620.376	-10.638	-0.203	0.137
-619.361	-110.791	0.099	-0.021
-618.346	37.557	-0.121	-0.110
-617.332	-200.000	-0.066	0.410
-616.317	-54.095	-0.233	-0.108
-615.303	90.695	0.268	0.306
-614.288	192.150	-0.044	-0.067
-613.273	-79.611	0.259	-0.089
-612.259	339.797	-0.022	0.043
-611.244	40.597	0.369	0.339
-610.230	368.734	-0.079	0.164
-609.215	41.141	0.088	-0.081
-608.201	-108.990	0.196	0.043
-607.186	189.836	-0.045	0.069
-606.171	-17.948	0.142	0.090
-605.157	800.000	-0.053	-0.166
-604.142	83.469	0.113	0.126
-603.128	-200.000	-0.012	-0.084
-602.113	-200.000	-0.009	-0.151
-601.098	-119.858	-0.289	0.051
-600.084	148.453	-0.149	0.204
-599.069	800.000	0.025	-0.104
-598.055	-101.107	-0.212	-0.053
-597.040	100.718	-0.027	-0.032
-596.025	-30.294	0.173	-0.100
-595.011	800.000	-0.150	-0.482
-593.996	-135.018	-0.408	-0.050
-592.982	263.534	-0.103	-0.182
-591.967	137.213	-0.181	0.241
-590.952	-200.000	-0.000	0.017
-589.938	-67.815	0.119	-0.047
-588.923	382.333	0.167	-0.348
-587.909	178.624	0.105	-0.156
-586.894	-200.000	0.038	-0.300
-585.879	-200.000	0.046	-0.346
-584.865	800.000	-0.089	0.373
-583.850	-102.193	0.111	0.027
-582.836	-47.120	-0.185	-0.092
-581.821	-200.000	0.011	0.059
-580.806	106.609	0.081	-0.098
-579.792	-200.000	0.020	0.187
-578.777	387.995	-0.065	-0.138
-577.763	197.314	0.028	0.043
-576.748	266.768	0.098	-0.175
-575.733	-182.899	-0.093	0.002
-574.719	-151.069	-0.169	0.013
-573.704	800.000	-0.081	0.233
-572.690	42.824	0.027	-0.025
-571.675	-33.535	0.295	-0.166
-570.661	800.000	-0.021	-0.082
-569.646	57.951	-0.054	-0.053
-568.631	473.842	0.050	-0.116
-567.617	27.309	0.273	0.233
-566.602	242.360	0.207	0.351
-565.588	196.445	0.064	0.099
-564.573	451.373	0.132	0.296
-563.558	62.407	-0.110	0.111
-562.544	185.209	0.226	-0.340
-561.529	308.544	0.115	0.218
-560.515	-114.144	0.099	0.019
-559.500	356.929	-0.074	0.149
-558.485	-122.952	-0.221	0.036
-557.471	800.000	-0.014	-0.043
-556.456	279.862	0.083	-0.151
-555.442	-33.915	-0.295	0.165
-554.427	-200.000	-0.002	-0.025
-553.412	-125.432	0.262	0.041
-552.398	327.696	-0.110	0.215
-551.383	-126.706	-0.250	0.038
-550.369	-95.727	0.131	0.035
-549.354	-152.733	-0.527	0.038
-548.339	-6.484	0.071	-0.049
-547.325	678.503	0.065	-0.171
-546.310	-110.871	0.131	0.027
-545.296	-61.762	-0.272	0.116
-544.281	-169.132	-0.198	0.007
-543.266	-61.436	0.216	0.092
-542.252	-56.676	0.178	-0.080
-541.237	-169.729	0.204	-0.008
-540.223	242.431	-0.074	-0.126
-539.208	-30.268	-0.149	-0.086
-538.193	-200.000	-0.048	0.264
-537.179	63.432	0.172	0.175
-536.164	-192.261	-0.266	0.003
-535.150	-10.515	0.309	0.208
-534.135	148.042	-0.115	-0.158
-533.121	401.188	-0.092	-0.195
-532.106	-16.216	-0.115	-0.074
-531.091	96.268	-0.140	0.163
-530.077	-39.749	-0.240	-0.128
-529.062	800.000	0.046	0.201
-528.048	64.529	0.091	0.093
-527.033	-31.367	0.113	0.064
-526.018	-32.044	0.190	-0.108
-525.004	80.825	-0.187	-0.205
-523.989	-72.564	0.169	-0.063
-522.975	584.093	0.183	0.457
-521.960	-62.960	-0.142	-0.060
-520.945	20.198	-0.276	-0.226
-519.931	156.360	-0.076	-0.106
-518.916	668.646	0.085	-0.224
-517.902	-111.559	-0.131	0.027
-516.887	-200.000	-0.060	0.273
-515.872	-57.011	0.205	-0.092
-514.858	-6.470	-0.104	-0.072
-513.843	-132.026	0.158	0.021
-512.829	800.000	-0.070	0.265
-511.814	647.138	-0.060	-0.156
-510.799	-113.700	0.082	-0.016
-509.785	-200.000	0.032	-0.159
-508.770	-200.000	0.010	0.187
-507.756	800.000	0.114	0.502
-506.741	-105.113	-0.233	0.054
-505.726	41.681	0.203	0.186
-504.712	-78.854	0.293	-0.101
-503.697	-200.000	-0.042	0.383
-502.683	204.899	0.062	0.098
-501.668	45.911	0.232	0.218
-500.653	-46.619	-0.152	-0.075
-499.639	-75.183	0.157	-0.057
-498.624	-162.068	-0.249	0.013
-497.610	800.000	-0.067	0.241
-496.595	278.000	-0.132	-0.238
-495.581	55.947	-0.235	-0.231
-494.566	-128.472	0.146	-0.021
-493.551	-122.638	-0.188	-0.031
-492.537	-37.603	0.033	0.018
-491.522	291.857	-0.074	0.137
-490.508	19.398	0.228	0.186
-489.493	-69.788	0.153	-0.059
-488.478	800.000	0.107	0.456
-487.464	-147.562	-0.272	-0.023
-486.449	-179.218	-0.187	0.004
-485.435	-200.000	-0.033	0.221
-484.420	387.579	-0.125	-0.261
-483.405	150.689	-0.214	0.295
-482.391	-142.652	0.228	-0.023
-481.376	236.888	0.118	0.198
-480.362	280.189	0.131	-0.237
-479.347	-164.097	0.315	-0.015
-478.332	-109.087	-0.194	-0.042
-477.318	323.021	-0.167	0.323
-476.303	-135.119	-0.160	-0.020
-475.289	800.000	-0.034	-0.127
-474.274	-118.077	0.176	-0.032
-473.259	-200.000	-0.033	-0.250
-472.245	-94.400	-0.111	-0.031
-471.230	-28.970	0.114	-0.066
-470.216	-5.851	-0.265	0.184
-469.201	-55.343	0.151	0.069
-468.186	-144.683	-0.252	0.024
-467.172	77.073	-0.024	0.026
-466.157	800.000	0.073	-0.321
-465.143	-200.000	0.007	-0.176
-464.128	267.941	-0.036	-0.064
-463.113	-200.000	-0.085	0.405
-462.099	-159.463	-0.293	-0.017
-461.084	-110.765	0.118	0.025
-460.070	-101.134	0.371	-0.092
-459.055	-139.785	-0.140	-0.015
-458.040	-200.000	-0.032	-0.259
-457.026	335.149	-0.096	0.187
-456.011	107.795	-0.062	0.075
-454.997	-200.000	-0.023	-0.234
-453.982	41.921	0.187	-0.172
-452.968	800.000	-0.077	-0.229
-451.953	-123.221	0.096	0.015
-450.938	-64.045	0.077	0.032
-449.924	-44.607	-0.165	0.084
-448.909	-64.276	-0.165	0.068
-447.895	-77.275	0.164	-0.058
-446.880	164.116	0.423	-0.603
-445.865	314.592	0.013	-0.024
-444.851	800.000	0.063	-0.199
-443.836	800.000	-0.157	-0.452
-442.822	-98.917	0.368	-0.094
-441.807	626.707	-0.043	-0.109
-440.792	-81.482	-0.312	-0.104
-439.778	800.000	0.079	-0.319
-438.763	-163.990	-0.204	-0.010
-437.749	-152.623	0.231	-0.017
-436.734	80.517	-0.265	-0.288
-435.719	-35.941	0.205	0.112
-434.705	-164.291	-0.389	-0.018
-433.690	-15.897	0.148	-0.095
-432.676	-200.000	0.005	0.193
-431.661	-165.669	0.350	0.015
-430.646	267.859	0.218	-0.387
-429.632	-200.000	-0.033	-0.196
-428.617	211.387	-0.210	0.334
-427.603	26.760	0.220	0.187
-426.588	307.689	-0.104	0.197
-425.573	-198.504	-0.115	0.001
-424.559	98.183	-0.109	0.127
-423.544	800.000	-0.149	-0.434
-422.530	800.000	-0.090	-0.293
-421.515	-200.000	-0.008	0.427
-420.500	-57.253	-0.138	-0.061
-419.486	724.013	0.037	-0.100
-418.471	-1.395	-0.384	0.274
-417.457	326.363	0.148	0.286
-416.442	-5.088	-0.120	-0.084
-415.428	-29.449	0.099	-0.057
-414.413	30.697	-0.026	0.022
-413.398	207.863	0.135	0.213
-412.384	326.560	0.057	0.111
-411.369	26.024	-0.383	-0.323
-410.355	46.089	-0.124	0.116
-409.340	-120.531	-0.120	-0.021
-408.325	137.813	-0.254	-0.337
-407.311	-93.300	0.377	-0.106
-406.296	-200.000	-0.021	-0.126
-405.282	152.600	0.066	-0.091
-404.267	-19.106	0.356	0.223
-403.252	-35.365	0.303	0.167
-402.238	-34.237	-0.334	0.185
-401.223	-200.000	-0.012	0.058
-400.209	58.736	0.170	0.168
-399.194	-85.919	0.156	0.049
-398.179	404.330	0.076	0.161
-397.165	-13.391	0.210	0.138
-396.150	-139.247	0.074	0.008
-395.136	547.537	-0.141	0.340
-394.121	-7.224	-0.110	0.075
-393.106	-200.000	-0.008	0.287
-392.092	-117.241	-0.367	0.067
-391.077	-27.230	0.156	0.092
-390.063	800.000	0.053	0.189
-389.048	-146.780	0.064	-0.006
-388.033	25.610	0.100	0.084
-387.019	-129.294	-0.048	-0.007
-386.004	-200.000	0.007	-0.210
-384.990	293.129	0.170	-0.314
-383.975	-200.000	0.009	0.051
-382.960	-46.700	0.113	-0.056
-381.946	542.194	-0.063	-0.153
-380.931	175.792	-0.184	0.270
-379.917	-200.000	-0.020	-0.324
-378.902	-200.000	0.000	-0.276
-377.888	-162.326	0.194	-0.010
-376.873	-132.272	-0.207	0.027
-375.858	-120.984	-0.225	-0.038
-374.844	5.001	0.159	0.118
-373.829	137.207	-0.106	0.139
-372.815	101.862	0.155	-0.182
-371.800	-87.169	-0.158	-0.048
-370.785	554.849	-0.076	0.185
-369.771	-57.996	-0.435	0.191
-368.756	736.896	-0.070	0.189
-367.742	664.673	-0.093	0.243
-366.727	66.254	-0.178	0.182
-365.712	139.266	-0.159	-0.211
-364.698	-200.000	-0.029	-0.148
-363.683	138.604	-0.194	-0.257
-362.669	800.000	-0.032	0.126
-361.654	-0.153	0.167	-0.120
-360.639	800.000	0.133	0.373
-359.625	614.369	0.054	-0.136
-358.610	800.000	0.092	-0.305
-357.596	120.263	0.039	0.049
-356.581	117.408	0.212	-0.263
-355.566	-16.274	0.104	-0.067
-354.552	-55.527	0.161	0.073
-353.537	261.259	0.098	-0.170
-352.523	105.429	-0.070	0.083
-351.508	208.714	0.072	-0.114
-350.493	-47.537	-0.333	-0.163
-349.479	407.849	-0.064	-0.137
-348.464	469.613	-0.081	0.184
-347.450	50.285	0.085	-0.081
-346.435	386.216	0.066	-0.138
-345.420	-116.881	-0.238	0.044
-344.406	-11.815	0.177	0.117
-343.391	-74.195	-0.238	-0.087
-342.377	-22.261	-0.379	0.232
-341.362	4.125	0.303	0.223
-340.348	-200.000	0.028	0.534
-339.333	800.000	0.038	0.110
-338.318	-200.000	-0.032	-0.162
-337.304	270.412	-0.184	-0.325
-336.289	237.782	0.141	-0.236
-335.275	-51.199	0.028	-0.013
-334.260	-27.078	-0.273	-0.160
-333.245	-28.059	-0.327	-0.191
-332.231	-138.455	-0.089	-0.010
-331.216	-31.103	0.306	0.174
-330.202	50.171	-0.285	-0.271
-329.187	-35.094	0.079	-0.044
-328.172	-66.070	-0.076	0.030
-327.158	123.450	-0.151	0.191
-326.143	188.584	-0.106	-0.160
-325.129	20.519	-0.268	0.219
-324.114	265.865	-0.118	-0.207
-323.099	153.135	0.052	0.072
-322.085	-32.283	0.248	-0.140
-321.070	579.776	0.080	-0.198
-320.056	168.900	-0.086	-0.124
-319.041	-77.328	0.053	0.018
-318.026	424.837	-0.040	-0.087
-317.012	114.915	-0.203	-0.249
-315.997	224.707	0.188	0.306
-314.983	-200.000	-0.068	-0.336
-313.968	19.885	-0.081	0.065
-312.953	9.659	-0.155	-0.118
-311.939	-68.496	-0.367	0.143
-310.924	698.202	0.134	0.355
-309.910	138.056	0.051	-0.067
-308.895	230.813	0.148	0.244
-307.880	79.539	0.293	0.316
-306.866	48.615	0.249	-0.235
-305.851	17.826	0.188	-0.151
-304.837	-91.995	0.467	0.133
-303.822	800.000	0.036	0.140
-302.807	181.065	0.138	0.204
-301.793	-200.000	0.011	-0.277
-300.778	617.696	-0.054	-0.137
-299.764	35.279	0.099	0.087
-298.749	-102.443	-0.241	-0.058
-297.735	102.577	-0.100	-0.118
-296.720	-162.346	0.312	0.016
-295.705	-200.000	0.033	-0.264
-294.691	-200.000	-0.004	0.163
-293.676	-200.000	0.007	-0.459
-292.662	6.405	0.221	-0.165
-291.647	-93.165	0.159	-0.044
-290.632	212.300	0.192	-0.304
-289.618	10.906	-0.078	0.060
-288.603	-200.000	0.030	-0.169
-287.589	800.000	0.038	-0.120
-286.574	-200.000	-0.003	0.048
-285.559	-118.222	0.185	0.033
-284.545	800.000	0.025	0.083
-283.530	297.959	0.093	0.171
-282.516	800.000	0.049	0.190
-281.501	-41.150	-0.211	0.109
-280.486	800.000	0.099	-0.321
-279.472	-200.000	0.023	0.267
-278.457	-78.725	-0.272	0.093
-277.443	228.407	0.105	0.172
-276.428	800.000	0.086	0.259
-275.413	138.506	-0.121	-0.160
-274.399	-26.956	0.096	-0.056
-273.384	-91.830	0.032	-0.009
-272.370	65.554	-0.168	-0.171
-271.355	-61.295	0.207	-0.088
-270.340	-200.000	-0.015	0.165
-269.326	-140.022	-0.321	0.034
-268.311	487.842	0.088	0.203
-267.297	305.952	-0.134	0.250
-266.282	124.332	0.202	0.255
-265.267	-200.000	-0.051	0.287
-264.253	226.100	-0.076	-0.124
-263.238	-93.743	0.307	-0.085
-262.224	-80.496	0.152	-0.051
-261.209	-140.100	0.117	0.012
-260.195	800.000	0.065	0.231
-259.180	-200.000	0.103	-0.628
-258.165	-200.000	0.017	-0.417
-257.151	800.000	-0.033	0.106
-256.136	-58.296	0.039	0.017
-255.122	561.244	0.100	0.242
-254.107	317.075	-0.148	0.281
-253.092	-34.581	0.130	0.071
-252.078	70.393	-0.148	-0.154
-251.063	800.000	0.013	0.041
-250.049	169.049	0.001	0.001
-249.034	-200.000	-0.016	0.120
-248.019	89.887	0.237	0.266
-247.005	-200.000	-0.015	-0.175
-245.990	-172.289	0.209	0.007
-244.976	43.769	0.043	-0.039
-243.961	-83.321	-0.239	0.077
-242.946	-133.094	0.355	0.045
-241.932	506.451	0.130	0.303
-240.917	-200.000	0.009	0.041
-239.903	353.927	-0.102	0.203
-238.888	252.368	0.008	-0.013
-237.873	-200.000	0.010	-0.392
-236.859	800.000	-0.077	0.277
-235.844	-136.683	0.071	0.008
-234.830	19.905	-0.198	0.160
-233.815	-96.520	0.334	0.088
-232.800	412.326	-0.124	-0.264
-231.786	-39.375	0.218	-0.115
-230.771	-36.952	-0.287	0.154
-229.757	-95.012	0.155	-0.042
-228.742	800.000	-0.043	0.152
-227.727	-43.423	-0.144	-0.073
-226.713	800.000	-0.102	-0.421
-225.698	-116.256	-0.050	0.009
-224.684	182.606	-0.100	-0.148
-223.669	-200.000	-0.026	0.213
-222.655	-14.590	-0.093	-0.060
-221.640	181.896	-0.142	-0.210
-220.625	177.851	-0.089	0.130
-219.611	-23.392	-0.244	0.147
-218.596	-35.268	0.132	-0.072
-217.582	-98.283	0.096	0.025
-216.567	-41.345	0.081	0.042
-215.552	-74.402	-0.044	-0.016
-214.538	81.376	-0.363	0.394
-213.523	-200.000	0.017	0.123
-212.509	212.759	0.034	-0.054
-211.494	-200.000	0.012	-0.077
-210.479	-140.165	-0.032	0.003
-209.465	404.497	-0.133	0.281
-208.450	-200.000	0.006	-0.248
-207.436	-164.986	0.240	0.011
-206.421	800.000	0.045	0.134
-205.406	362.200	0.133	0.267
-204.392	-200.000	0.013	-0.393
-203.377	800.000	-0.062	-0.193
-202.363	69.918	0.179	-0.185
-201.348	75.997	-0.083	-0.088
-200.333	475.934	-0.056	-0.126
-199.319	-41.420	0.258	-0.133
-198.304	-62.800	0.230	-0.095
-197.290	-91.066	-0.107	-0.031
-196.275	800.000	-0.125	0.459
-195.260	236.025	-0.253	0.419
-194.246	-125.869	0.153	0.023
-193.231	-200.000	0.051	0.260
-192.217	-75.674	0.295	0.105
-191.202	569.648	-0.062	0.150
-190.187	-168.995	0.398	0.015
-189.173	263.665	0.113	-0.197
-188.158	98.888	-0.056	-0.065
-187.144	-104.536	0.239	-0.055
-186.129	-98.164	0.170	-0.044
-185.114	-156.261	-0.476	-0.030
-184.100	-71.294	-0.191	0.072
-183.085	-52.035	-0.080	-0.037
-182.071	800.000	0.050	0.137
-181.056	298.330	-0.028	-0.052
-180.042	-200.000	-0.035	-0.232
-179.027	-32.829	-0.170	0.095
-178.012	36.774	-0.226	-0.200
-176.998	726.740	-0.045	-0.119
-175.983	-200.000	0.013	-0.074
-174.969	88.970	0.074	0.083
-173.954	41.798	-0.064	-0.058
-172.939	-86.840	-0.175	-0.054
-171.925	10.644	0.438	-0.335
-170.910	-0.923	0.296	0.210
-169.896	800.000	0.074	0.209
-168.881	-6.440	0.226	-0.154
-167.866	-200.000	0.015	0.174
-166.852	-188.078	0.124	-0.002
-165.837	115.538	-0.310	-0.380
-164.823	1.725	0.071	0.051
-163.808	-29.887	-0.235	-0.134
-162.793	101.510	0.060	-0.069
-161.779	-180.292	-0.109	0.002
-160.764	-98.437	0.344	-0.088
-159.750	586.753	-0.051	-0.125
-158.735	-36.596	0.153	0.082
-157.720	-199.090	-0.015	0.000
-156.706	-200.000	0.023	-0.112
-155.691	33.684	-0.154	-0.134
-154.677	127.059	0.141	0.179
-153.662	-30.250	0.251	-0.143
-152.647	309.314	0.228	-0.427
-151.633	220.124	0.071	-0.114
-150.618	541.133	-0.078	0.187
-149.604	-200.000	-0.021	-0.314
-148.589	-200.000	0.016	0.145
-147.574	-124.969	0.213	-0.033
-146.560	-153.602	-0.211	0.015
-145.545	-54.556	0.230	0.104
-144.531	-200.000	0.006	-0.167
-143.516	-200.000	-0.052	-0.522
-142.502	-87.500	0.097	0.029
-141.487	-5.992	-0.064	-0.044
-140.472	800.000	0.052	0.159
-139.458	93.637	-0.141	0.160
-138.443	-15.794	0.094	0.060
-137.429	-65.422	0.259	-0.104
-136.414	137.486	0.203	-0.266
-135.399	2.434	0.231	0.167
-134.385	-146.314	-0.133	0.012
-133.370	800.000	0.043	0.178
-132.356	-200.000	-0.017	0.090
-131.341	-141.898	0.276	-0.028
-130.326	800.000	-0.074	-0.288
-129.312	800.000	-0.038	0.155
-128.297	98.551	-0.113	0.131
-127.283	261.772	-0.069	0.119
-126.268	254.987	-0.227	-0.388
-125.253	-124.084	-0.235	-0.037
-124.239	-38.310	0.232	-0.123
-123.224	-95.886	0.242	0.064
-122.210	-26.189	0.179	-0.105
