DTS Sentinel unit serial number:	SN413079Multiplexer serial number:	ORYXHardware model number:	OX4-SRSoftware version number:	ORYX F/W v4.00 Oryx Data Collector v3.7.2.0data status	okinstallation	princeton_trtdifferential loss correction	single-endedforward channel	channel 4reverse channel	N/Adate	2019/09/13time	06:05:35forward acquisition time	60.00reverse acquisition time	0.00gamma	496.2192k internal	0.2323k external	0.2323temperature offset calibration	1.0198default loss term (dB/km)	0.3790temperature slope calibration	1.0000multiplexer offset coefficient	1.0000multiplexer slope coefficient	1.0000fibre end	0.00T internal ref (°C)	26.12T ext. ref 1 (°C)	4.08T ext. ref 2 (°C)	20.97length (m)	temperature (°C)	Stokes	anti-Stokes-747.200	-12.969	-0.226	-0.149
-746.185	-200.000	0.026	0.301
-745.171	-71.663	0.187	0.070
-744.156	43.100	-0.057	0.053
-743.142	-136.688	-0.088	-0.010
-742.127	47.074	0.044	-0.041
-741.112	3.911	0.194	0.143
-740.098	117.864	-0.268	-0.333
-739.083	-104.673	0.331	0.077
-738.069	-200.000	-0.040	0.471
-737.054	13.251	-0.108	0.085
-736.039	-73.363	-0.198	-0.073
-735.025	45.526	0.066	-0.061
-734.010	-155.826	-0.355	0.023
-732.996	4.923	0.237	-0.176
-731.981	759.364	-0.214	-0.584
-730.966	42.381	-0.409	-0.375
-729.952	-101.831	-0.156	-0.038
-728.937	29.370	-0.114	0.098
-727.923	-96.787	-0.259	-0.069
-726.908	-149.885	-0.170	0.013
-725.894	-135.454	-0.165	0.020
-724.879	184.698	-0.220	-0.330
-723.864	534.359	-0.141	0.336
-722.850	-175.591	-0.188	0.005
-721.835	-46.937	0.254	-0.125
-720.821	-200.000	0.029	0.369
-719.806	62.390	-0.025	-0.025
-718.791	31.446	-0.177	-0.153
-717.777	-200.000	0.001	-0.189
-716.762	-40.006	-0.067	0.035
-715.748	128.907	-0.222	-0.286
-714.733	-200.000	-0.021	-0.099
-713.718	-200.000	0.009	-0.223
-712.704	-57.527	-0.165	0.073
-711.689	-77.622	0.222	-0.078
-710.675	267.651	0.165	-0.291
-709.660	-200.000	-0.009	-0.053
-708.645	474.949	0.025	-0.058
-707.631	-200.000	0.010	0.057
-706.616	449.766	-0.043	0.095
-705.602	217.093	0.098	-0.158
-704.587	-87.699	-0.066	-0.020
-703.572	-200.000	0.005	-0.146
-702.558	-86.058	0.380	0.118
-701.543	278.979	-0.095	-0.171
-700.529	196.510	0.048	-0.074
-699.514	-200.000	0.030	0.204
-698.499	-200.000	-0.044	0.405
-697.485	33.347	-0.067	0.058
-696.470	-200.000	-0.012	0.156
-695.456	-84.382	0.268	-0.085
-694.441	191.686	0.046	0.070
-693.426	197.641	0.144	0.222
-692.412	-43.356	-0.067	0.034
-691.397	-129.752	-0.314	-0.044
-690.383	-5.066	-0.270	-0.188
-689.368	800.000	-0.087	-0.300
-688.354	-90.634	-0.282	0.082
-687.339	462.527	-0.124	-0.278
-686.324	-30.480	0.288	-0.165
-685.310	11.344	-0.305	-0.235
-684.295	337.315	-0.183	-0.357
-683.281	-22.598	-0.325	-0.198
-682.266	195.386	-0.115	0.177
-681.251	137.354	-0.181	0.239
-680.237	60.855	0.169	-0.169
-679.222	312.830	-0.161	-0.306
-678.208	-37.906	-0.363	-0.194
-677.193	684.187	-0.005	0.014
-676.178	-133.251	-0.433	0.055
-675.164	-93.815	-0.174	-0.048
-674.149	140.557	0.075	0.099
-673.135	-55.744	-0.325	-0.146
-672.120	-121.726	0.345	0.057
-671.105	-46.794	0.193	0.095
-670.091	-200.000	0.015	0.080
-669.076	27.453	-0.262	0.222
-668.062	-132.210	0.261	0.034
-667.047	-200.000	0.029	-0.273
-666.032	-160.415	0.084	0.005
-665.018	-200.000	0.023	-0.245
-664.003	-104.154	0.041	-0.010
-662.989	-5.354	-0.255	0.176
-661.974	-130.343	0.140	-0.019
-660.959	256.090	-0.197	-0.340
-659.945	312.035	-0.146	0.275
-658.930	288.860	-0.165	0.302
-657.916	-200.000	0.013	-0.195
-656.901	-200.000	0.037	-0.286
-655.886	-126.929	-0.144	0.021
-654.872	-91.513	-0.215	-0.062
-653.857	-183.772	-0.057	0.001
-652.843	210.854	0.102	-0.161
-651.828	85.854	0.158	-0.175
-650.814	681.623	-0.023	0.061
-649.799	-200.000	0.017	-0.435
-648.784	-200.000	0.053	-0.261
-647.770	-200.000	-0.028	0.162
-646.755	-140.754	-0.196	0.020
-645.741	-126.908	-0.192	0.028
-644.726	572.707	-0.044	0.108
-643.711	37.574	-0.374	0.333
-642.697	-200.000	-0.010	0.216
-641.682	106.113	-0.154	-0.184
-640.668	-19.241	-0.091	-0.057
-639.653	171.433	-0.045	0.065
-638.638	456.507	-0.120	0.267
-637.624	800.000	0.059	0.253
-636.609	70.113	-0.100	0.104
-635.595	43.350	-0.075	-0.069
-634.580	-85.127	-0.125	-0.039
-633.565	237.517	0.056	-0.094
-632.551	295.245	-0.128	-0.236
-631.536	-200.000	0.040	0.227
-630.522	523.601	0.100	0.237
-629.507	-18.886	-0.191	0.119
-628.492	-31.300	-0.231	-0.131
-627.478	-200.000	-0.009	0.418
-626.463	800.000	-0.112	0.391
-625.449	-200.000	0.010	0.055
-624.434	-200.000	-0.005	0.075
-623.419	-200.000	0.026	0.199
-622.405	-173.769	-0.398	0.012
-621.390	94.649	0.135	0.155
-620.376	89.476	-0.161	0.180
-619.361	522.752	-0.087	-0.206
-618.346	92.912	-0.027	-0.030
-617.332	-26.083	0.116	0.068
-616.317	-34.283	0.182	0.100
-615.303	-101.732	0.233	-0.057
-614.288	4.559	-0.224	-0.165
-613.273	-56.538	-0.168	-0.075
-612.259	-59.916	-0.208	0.089
-611.244	-64.199	-0.066	-0.027
-610.230	-200.000	0.075	-0.462
-609.215	-25.464	-0.333	0.198
-608.201	-57.496	-0.138	-0.061
-607.186	-193.546	0.593	0.005
-606.171	-45.206	-0.146	0.073
-605.157	206.057	-0.027	-0.042
-604.142	-114.532	0.228	0.044
-603.128	293.558	-0.130	-0.239
-602.113	-81.176	-0.218	0.072
-601.098	339.049	-0.243	-0.475
-600.084	39.004	0.126	0.113
-599.069	29.949	-0.214	0.183
-598.055	-200.000	0.003	0.130
-597.040	165.143	0.063	0.089
-596.025	-69.770	-0.353	0.135
-595.011	249.745	-0.078	0.133
-593.996	37.828	0.245	-0.219
-592.982	29.264	0.129	-0.110
-591.967	-21.663	-0.219	0.134
-590.952	-200.000	-0.005	-0.103
-589.938	-104.939	-0.257	-0.059
-588.923	-200.000	-0.007	-0.038
-587.909	-22.833	-0.156	-0.094
-586.894	149.853	-0.058	0.078
-585.879	800.000	-0.167	-0.510
-584.865	117.684	-0.095	-0.117
-583.850	25.505	-0.207	0.173
-582.836	225.293	0.103	-0.167
-581.821	70.190	0.122	0.126
-580.806	789.529	0.196	-0.542
-579.792	14.606	-0.127	0.100
-578.777	618.071	-0.130	0.328
-577.763	-156.238	-0.360	0.023
-576.748	71.399	0.079	-0.082
-575.733	-65.772	0.375	-0.150
-574.719	731.486	-0.028	0.076
-573.704	-200.000	0.051	0.252
-572.690	800.000	0.043	-0.163
-571.675	-200.000	0.002	0.329
-570.661	800.000	-0.076	0.309
-569.646	28.325	0.239	0.203
-568.631	-137.424	0.100	0.011
-567.617	800.000	0.094	-0.284
-566.602	470.560	-0.055	0.124
-565.588	-40.836	-0.066	0.034
-564.573	-200.000	-0.012	0.097
-563.558	800.000	-0.023	0.085
-562.544	138.020	-0.074	-0.097
-561.529	377.588	0.148	0.303
-560.515	45.451	0.280	0.259
-559.500	224.565	-0.168	0.272
-558.485	515.904	0.085	0.198
-557.471	-134.073	0.249	0.031
-556.456	175.600	0.135	0.196
-555.442	-145.578	0.144	0.013
-554.427	433.066	-0.093	-0.203
-553.412	40.374	-0.048	-0.043
-552.398	800.000	-0.095	0.395
-551.383	-122.994	0.168	-0.027
-550.369	-90.772	-0.019	-0.006
-549.354	-169.597	-0.184	0.007
-548.339	-12.610	0.106	-0.069
-547.325	-86.117	-0.159	-0.049
-546.310	-200.000	0.036	0.275
-545.296	-84.370	-0.272	-0.086
-544.281	-75.911	0.146	0.052
-543.266	-141.581	-0.286	0.029
-542.252	-39.213	0.325	-0.171
-541.237	-200.000	-0.022	0.430
-540.223	-200.000	0.040	-0.214
-539.208	800.000	-0.081	-0.288
-538.193	-102.907	0.418	-0.100
-537.179	-1.083	-0.170	0.121
-536.164	97.430	0.085	0.098
-535.150	690.572	-0.067	0.176
-534.135	-200.000	-0.040	-0.175
-533.121	-83.661	-0.179	0.057
-532.106	-200.000	0.012	-0.152
-531.091	-169.690	0.267	0.010
-530.077	25.567	0.170	0.141
-529.062	800.000	-0.104	0.301
-528.048	150.359	0.288	-0.392
-527.033	424.692	-0.113	-0.243
-526.018	-40.385	-0.190	-0.099
-525.004	74.872	0.156	-0.165
-523.989	-53.707	-0.022	-0.010
-522.975	-146.897	-0.188	0.016
-521.960	-86.631	0.336	-0.103
-520.945	-72.659	0.198	0.073
-519.931	-14.929	0.077	0.049
-518.916	157.373	0.187	-0.259
-517.902	-87.291	-0.132	0.040
-516.887	-188.440	0.198	-0.002
-515.872	-138.035	-0.067	-0.007
-514.858	-180.107	-0.089	-0.002
-513.843	58.596	0.187	0.183
-512.829	-136.922	0.097	0.011
-511.814	604.870	0.016	-0.039
-510.799	275.009	0.053	-0.094
-509.785	78.298	0.174	0.186
-508.770	-166.940	-0.225	0.009
-507.756	-200.000	0.274	-0.001
-506.741	800.000	0.019	-0.071
-505.726	146.050	-0.179	-0.241
-504.712	-27.489	0.210	-0.122
-503.697	-12.740	-0.162	0.106
-502.683	-135.561	0.140	-0.017
-501.668	-110.766	-0.039	0.008
-500.653	-63.664	-0.140	0.058
-499.639	-113.645	-0.184	-0.036
-498.624	-109.163	0.120	-0.026
-497.610	-6.599	0.102	0.069
-496.595	-135.145	0.072	0.009
-495.581	-55.621	-0.359	0.161
-494.566	72.063	0.153	-0.160
-493.551	-200.000	-0.016	0.186
-492.537	26.273	0.035	-0.029
-491.522	154.641	-0.146	-0.200
-490.508	-21.668	-0.065	0.040
-489.493	-200.000	0.024	0.226
-488.478	108.088	0.113	0.135
-487.464	630.534	-0.135	0.341
-486.449	50.741	0.285	-0.270
-485.435	75.465	-0.092	0.097
-484.420	-53.967	-0.124	0.057
-483.405	22.123	-0.124	-0.101
-482.391	453.994	0.164	-0.362
-481.376	-12.113	-0.216	-0.141
-480.362	94.027	0.138	0.157
-479.347	66.712	-0.131	-0.133
-478.332	55.200	-0.297	-0.286
-477.318	-92.337	-0.115	0.032
-476.303	4.290	0.092	-0.068
-475.289	-200.000	-0.007	-0.108
-474.274	-89.680	-0.323	-0.095
-473.259	-100.722	0.328	-0.081
-472.245	241.835	-0.087	0.145
-471.230	257.175	0.166	-0.285
-470.216	-200.000	0.012	0.097
-469.201	-67.583	0.135	0.053
-468.186	267.585	0.131	0.230
-467.172	-25.575	0.264	0.156
-466.157	-57.483	-0.330	-0.145
-465.143	584.810	-0.083	0.205
-464.128	295.735	0.081	0.149
-463.113	30.065	-0.256	0.218
-462.099	-134.956	0.105	0.013
-461.084	-33.955	-0.133	-0.073
-460.070	-200.000	0.032	0.207
-459.055	78.127	-0.224	0.239
-458.040	633.127	0.104	0.263
-457.026	-19.658	-0.168	-0.104
-456.011	-66.528	0.196	0.078
-454.997	-6.901	-0.074	0.050
-453.982	-105.822	-0.094	0.021
-452.968	171.864	0.305	-0.437
-451.953	-200.000	0.022	0.164
-450.938	-200.000	-0.035	0.222
-449.924	-200.000	-0.011	0.235
-448.909	-69.806	-0.345	-0.132
-447.895	-176.857	0.236	0.006
-446.880	52.174	-0.159	0.151
-445.865	-84.281	-0.031	0.010
-444.851	-2.468	0.178	0.125
-443.836	-200.000	-0.002	0.078
-442.822	-57.567	0.197	-0.086
-441.807	115.685	0.112	0.137
-440.792	-200.000	-0.024	-0.250
-439.778	-160.840	0.158	0.008
-438.763	131.839	-0.066	-0.084
-437.749	-119.386	0.164	-0.028
-436.734	-56.429	0.165	0.073
-435.719	39.600	0.275	-0.246
-434.705	-76.402	-0.190	-0.067
-433.690	374.697	0.022	-0.044
-432.676	-200.000	0.015	-0.227
-431.661	409.204	-0.049	-0.103
-430.646	-200.000	0.007	0.163
-429.632	-200.000	-0.031	0.218
-428.617	-22.256	-0.148	-0.090
-427.603	-42.545	0.118	-0.060
-426.588	-120.246	-0.145	0.025
-425.573	89.903	-0.154	-0.171
-424.559	0.911	0.072	-0.052
-423.544	226.660	-0.204	-0.330
-422.530	-115.234	0.326	0.062
-421.515	-64.002	-0.254	0.104
-420.500	-200.000	0.038	-0.189
-419.486	-200.000	-0.020	-0.092
-418.471	-200.000	-0.096	0.431
-417.457	402.159	0.058	0.122
-416.442	33.657	-0.157	0.136
-415.428	640.373	-0.093	0.237
-414.413	800.000	-0.157	-0.468
-413.398	-66.904	0.031	-0.012
-412.384	-76.122	0.095	-0.033
-411.369	33.530	-0.020	-0.017
-410.355	154.703	0.169	-0.231
-409.340	49.465	0.125	0.117
-408.325	418.305	-0.035	0.074
-407.311	510.481	0.080	-0.184
-406.296	130.950	-0.191	0.244
-405.282	12.582	-0.306	0.235
-404.267	-200.000	0.012	-0.391
-403.252	-26.964	0.240	0.140
-402.238	-37.213	-0.206	-0.110
-401.223	-56.452	-0.152	-0.067
-400.209	106.445	-0.074	-0.087
-399.194	-100.722	0.164	-0.040
-398.179	-200.000	0.033	-0.165
-397.165	194.218	-0.169	0.255
-396.150	724.736	-0.052	-0.137
-395.136	-126.972	0.161	0.024
-394.121	35.862	-0.159	-0.139
-393.106	-163.465	0.124	-0.006
-392.092	-36.537	-0.251	0.135
-391.077	-200.000	0.007	0.072
-390.063	-200.000	-0.066	0.419
-389.048	56.637	0.321	-0.311
-388.033	-76.266	-0.048	0.017
-387.019	70.462	-0.074	0.076
-386.004	28.917	0.071	-0.060
-384.990	356.958	-0.180	-0.358
-383.975	-200.000	0.012	-0.395
-382.960	-140.699	-0.051	0.005
-381.946	102.077	-0.070	0.082
-380.931	-131.120	-0.355	0.047
-379.917	800.000	0.051	-0.158
-378.902	-14.045	0.081	0.052
-377.888	3.914	-0.088	0.064
-376.873	-118.492	0.506	-0.089
-375.858	800.000	0.038	0.150
-374.844	-79.824	0.233	0.078
-373.829	-200.000	0.045	-0.259
-372.815	65.311	0.152	0.153
-371.800	-119.420	0.255	-0.044
-370.785	-200.000	-0.017	-0.118
-369.771	-200.000	-0.009	0.487
-368.756	-0.452	0.327	-0.231
-367.742	71.347	0.127	-0.131
-366.727	86.734	-0.118	-0.130
-365.712	800.000	-0.095	0.271
-364.698	542.203	0.125	-0.296
-363.683	-157.295	-0.430	-0.026
-362.669	-45.544	-0.162	-0.080
-361.654	74.382	-0.176	-0.184
-360.639	-153.014	-0.216	0.015
-359.625	-152.182	0.313	-0.023
-358.610	-95.297	0.252	-0.068
-357.596	-25.915	-0.268	0.157
-356.581	-200.000	0.041	0.361
-355.566	-129.783	0.208	-0.029
-354.552	75.303	0.188	-0.197
-353.537	-25.562	0.092	0.054
-352.523	-200.000	-0.013	-0.301
-351.508	88.741	-0.100	0.110
-350.493	-110.034	-0.122	0.025
-349.479	-65.337	-0.306	0.122
-348.464	-200.000	-0.049	-0.251
-347.450	-23.173	0.164	-0.098
-346.435	-39.708	-0.104	-0.054
-345.420	800.000	0.107	0.396
-344.406	230.504	0.049	0.079
-343.391	-53.121	-0.314	-0.144
-342.377	-124.702	-0.338	-0.052
-341.362	160.968	-0.172	0.239
-340.348	372.691	0.087	-0.176
-339.333	302.402	0.060	0.111
-338.318	247.984	0.063	-0.106
-337.304	130.768	0.187	-0.239
-336.289	-200.000	-0.038	-0.173
-335.275	-200.000	-0.036	-0.332
-334.260	-200.000	0.003	-0.289
-333.245	800.000	-0.056	-0.170
-332.231	-101.389	-0.207	-0.050
-331.216	-71.265	0.212	0.079
-330.202	30.669	-0.251	0.213
-329.187	297.292	-0.135	-0.247
-328.172	-147.049	0.052	-0.004
-327.158	-109.010	-0.233	-0.049
-326.143	87.950	-0.312	-0.343
-325.129	-92.942	-0.128	0.035
-324.114	-30.273	-0.346	0.195
-323.099	58.990	0.199	0.195
-322.085	-111.884	0.422	0.085
-321.070	-56.682	-0.087	-0.038
-320.056	-200.000	-0.003	0.409
-319.041	-200.000	0.016	0.366
-318.026	-200.000	-0.007	0.034
-317.012	800.000	-0.052	0.155
-315.997	-96.047	-0.104	-0.027
-314.983	-200.000	0.000	0.027
-313.968	62.326	-0.097	-0.097
-312.953	-130.670	0.107	0.014
-311.939	-99.791	0.140	0.035
-310.924	-167.398	-0.184	-0.007
-309.910	336.324	0.067	0.128
-308.895	-200.000	0.002	-0.070
-307.880	-43.198	0.082	-0.041
-306.866	79.102	0.108	0.115
-305.851	-86.640	0.061	-0.019
-304.837	592.664	0.175	0.429
-303.822	462.329	0.108	0.239
-302.807	-89.640	-0.173	-0.050
-301.793	-200.000	0.013	0.317
-300.778	69.881	0.132	-0.135
-299.764	195.235	0.140	-0.211
-298.749	800.000	0.056	0.220
-297.735	79.643	0.056	0.060
-296.720	323.265	-0.086	-0.163
-295.705	6.696	0.234	-0.173
-294.691	-200.000	0.035	-0.234
-293.676	-200.000	0.094	0.421
-292.662	23.982	0.091	-0.074
-291.647	-200.000	-0.040	-0.222
-290.632	-43.859	0.227	0.113
-289.618	-200.000	0.005	-0.023
-288.603	-151.507	-0.077	-0.006
-287.589	162.491	0.100	0.140
-286.574	-200.000	0.076	-0.390
-285.559	-200.000	-0.014	-0.269
-284.545	7.159	-0.237	-0.176
-283.530	-111.313	-0.251	-0.051
-282.516	800.000	-0.086	0.261
-281.501	400.038	0.094	0.196
-280.486	652.785	-0.130	-0.330
-279.472	-142.316	-0.155	0.015
-278.457	42.802	0.037	-0.033
-277.443	800.000	0.093	-0.325
-276.428	48.263	0.049	0.046
-275.413	800.000	-0.050	0.160
-274.399	35.577	0.355	0.309
-273.384	329.616	0.063	-0.119
-272.370	56.800	0.189	-0.183
-271.355	444.214	0.090	-0.195
-270.340	-128.571	-0.420	0.059
-269.326	800.000	0.075	0.323
-268.311	55.704	0.360	-0.346
-267.297	-34.767	-0.103	-0.056
-266.282	800.000	0.017	-0.075
-265.267	800.000	0.031	-0.099
-264.253	800.000	0.114	0.365
-263.238	-118.106	0.140	-0.025
-262.224	642.998	0.057	-0.145
-261.209	-79.573	-0.200	-0.067
-260.195	317.071	-0.116	-0.218
-259.180	515.422	0.197	-0.456
-258.165	39.131	0.383	0.339
-257.151	151.671	-0.078	-0.105
-256.136	-97.287	-0.182	0.047
-255.122	-93.412	-0.176	0.048
-254.107	-129.812	0.236	0.032
-253.092	-1.812	0.215	0.150
-252.078	-39.517	-0.037	-0.019
-251.063	-84.094	-0.083	0.026
-250.049	-200.000	-0.010	-0.097
-249.034	148.169	-0.232	0.311
-248.019	288.163	-0.078	-0.140
-247.005	464.141	0.034	-0.076
-245.990	-200.000	0.000	0.149
-244.976	29.664	0.167	-0.140
-243.961	183.474	0.327	0.478
-242.946	-200.000	0.006	-0.270
-241.932	800.000	-0.048	0.159
-240.917	800.000	-0.053	0.206
-239.903	114.149	-0.196	0.236
-238.888	-30.172	0.334	-0.188
-237.873	-200.000	0.016	0.076
-236.859	-58.288	-0.185	0.080
-235.844	800.000	0.021	0.074
-234.830	-92.188	0.047	-0.013
-233.815	-200.000	-0.001	-0.165
-232.800	800.000	-0.031	-0.100
-231.786	-25.895	0.264	-0.154
-230.771	4.084	-0.283	0.205
-229.757	-116.105	-0.137	0.025
-228.742	234.191	0.150	0.245
-227.727	286.835	-0.058	0.104
-226.713	-200.000	-0.005	0.142
-225.698	800.000	-0.073	-0.262
-224.684	110.066	0.086	0.102
-223.669	-144.644	-0.324	-0.030
-222.655	-200.000	0.006	0.090
-221.640	-137.888	0.088	-0.010
-220.625	-109.725	0.362	-0.075
-219.611	-125.659	-0.158	-0.024
-218.596	-200.000	-0.067	-0.304
-217.582	-25.893	-0.215	-0.125
-216.567	-46.037	-0.101	0.049
-215.552	630.392	-0.109	0.273
-214.538	96.359	0.123	-0.139
-213.523	545.958	0.094	-0.222
-212.509	202.155	0.119	0.181
-211.494	-200.000	-0.078	-0.382
-210.479	800.000	0.084	0.251
-209.465	-85.601	0.572	0.176
-208.450	-121.604	-0.302	-0.049
-207.436	-200.000	-0.036	0.198
-206.421	140.720	0.065	-0.085
-205.406	67.380	-0.132	-0.133
-204.392	-141.192	-0.105	-0.011
-203.377	-17.429	-0.194	-0.121
-202.363	111.153	0.149	-0.178
-201.348	-200.000	-0.018	0.111
-200.333	-101.470	-0.125	-0.030
-199.319	-143.193	0.130	0.012
-198.304	180.700	-0.154	-0.223
-197.290	398.227	-0.112	-0.231
-196.275	89.169	-0.199	-0.219
-195.260	13.223	0.192	-0.147
-194.246	343.088	0.065	-0.126
-193.231	126.759	-0.095	-0.118
-192.217	-103.723	0.203	0.047
-191.202	359.742	0.113	-0.223
-190.187	125.822	-0.119	-0.148
-189.173	-66.273	-0.146	-0.057
-188.158	507.115	-0.089	0.205
-187.144	224.287	0.175	0.279
-186.129	-23.839	0.435	-0.257
-185.114	89.769	0.099	0.110
-184.100	-200.000	-0.018	0.121
-183.085	564.666	0.045	-0.108
-182.071	33.180	0.182	-0.156
-181.056	59.155	-0.074	0.072
-180.042	-200.000	0.044	0.220
-179.027	-124.703	-0.272	0.042
-178.012	-200.000	-0.003	-0.085
-176.998	67.302	0.117	-0.117
-175.983	48.141	0.276	0.255
-174.969	800.000	0.105	0.407
-173.954	-106.507	0.300	-0.066
-172.939	-155.027	0.200	-0.013
-171.925	473.936	-0.095	-0.212
-170.910	800.000	0.073	0.204
-169.896	205.359	0.077	0.118
-168.881	-88.752	-0.053	0.016
-167.866	19.373	-0.216	0.171
-166.852	-112.562	0.287	0.056
-165.837	-26.724	-0.123	-0.071
-164.823	-70.668	0.225	-0.084
-163.808	-52.850	-0.029	0.013
-162.793	-127.390	0.235	0.034
-161.779	179.464	0.058	0.084
-160.764	358.951	-0.138	-0.272
-159.750	-108.435	0.287	-0.061
-158.735	-200.000	0.018	-0.216
-157.720	-23.368	-0.115	-0.068
-156.706	-80.939	0.161	-0.053
-155.691	-110.888	0.207	0.042
-154.677	-200.000	-0.013	-0.143
-153.662	-115.394	0.116	0.022
-152.647	500.817	-0.036	-0.082
-151.633	-50.724	-0.152	-0.071
-150.618	54.949	0.113	-0.108
-149.604	-10.018	0.128	0.084
-148.589	-164.305	0.067	0.003
-147.574	-200.000	0.020	-0.189
-146.560	-200.000	0.018	-0.228
-145.545	549.660	0.088	0.209
-144.531	-200.000	-0.004	-0.328
-143.516	-193.150	0.402	-0.004
-142.502	-110.900	0.413	0.084
-141.487	-6.674	0.141	-0.094
-140.472	-7.144	-0.160	0.107
-139.458	-200.000	0.035	0.188
-138.443	-200.000	-0.023	0.159
-137.429	65.509	-0.184	0.183
-136.414	-78.457	-0.158	0.053
-135.399	62.048	0.130	-0.128
-134.385	32.640	0.086	-0.073
-133.370	-134.145	0.142	-0.017
-132.356	-57.890	0.133	0.057
-131.341	-200.000	-0.020	-0.105
-130.326	251.361	-0.032	-0.054
-129.312	-52.961	0.051	-0.023
-128.297	187.543	0.076	-0.112
-127.283	-169.013	-0.088	-0.003
-126.268	-133.835	0.395	-0.048
-125.253	-200.000	-0.048	-0.311
-124.239	208.635	-0.152	0.234
-123.224	-103.557	-0.179	0.042
-122.210	134.073	0.115	-0.147
