DTS Sentinel unit serial number:	SN413079Multiplexer serial number:	ORYXHardware model number:	OX4-SRSoftware version number:	ORYX F/W v4.00 Oryx Data Collector v3.7.2.0data status	okinstallation	princeton_trtdifferential loss correction	single-endedforward channel	channel 4reverse channel	N/Adate	2019/09/17time	03:57:35forward acquisition time	60.00reverse acquisition time	0.00gamma	496.2192k internal	0.2312k external	0.2312temperature offset calibration	0.9975default loss term (dB/km)	0.3790temperature slope calibration	1.0000multiplexer offset coefficient	1.0000multiplexer slope coefficient	1.0000fibre end	0.00T internal ref (°C)	29.92T ext. ref 1 (°C)	0.14T ext. ref 2 (°C)	24.42length (m)	temperature (°C)	Stokes	anti-Stokes-747.200	-83.751	0.219	0.071
-746.185	-115.397	0.130	-0.025
-745.171	401.328	-0.161	0.343
-744.156	-107.448	-0.296	0.066
-743.142	-119.749	-0.126	0.022
-742.127	93.306	-0.539	0.619
-741.112	-138.281	0.102	0.011
-740.098	-106.716	-0.108	0.024
-739.083	223.921	-0.061	0.100
-738.069	-92.891	-0.353	0.100
-737.054	-200.000	-0.016	0.103
-736.039	253.039	0.028	-0.049
-735.025	301.510	0.082	0.155
-734.010	-75.939	-0.350	-0.125
-732.996	-200.000	-0.003	-0.249
-731.981	-165.821	-0.232	-0.010
-730.966	18.121	-0.312	-0.252
-729.952	7.865	-0.382	0.290
-728.937	-136.463	-0.352	0.041
-727.923	65.396	0.006	-0.006
-726.908	-26.630	-0.244	0.145
-725.894	420.581	-0.064	0.138
-724.879	451.413	-0.083	-0.185
-723.864	519.640	-0.017	0.039
-722.850	800.000	-0.093	0.349
-721.835	-12.176	0.167	0.111
-720.821	-18.805	0.142	0.089
-719.806	55.621	-0.282	0.277
-718.791	-22.695	0.031	0.019
-717.777	417.360	-0.075	0.162
-716.762	-144.548	0.168	0.016
-715.748	-200.000	0.066	-0.336
-714.733	-29.225	0.031	0.018
-713.718	-200.000	-0.086	-0.000
-712.704	85.147	0.090	-0.100
-711.689	-125.631	0.300	0.046
-710.675	800.000	-0.088	0.307
-709.660	104.614	0.289	0.345
-708.645	156.886	0.061	-0.086
-707.631	800.000	-0.049	0.214
-706.616	527.913	0.034	-0.082
-705.602	14.042	0.203	-0.160
-704.587	149.526	-0.161	0.221
-703.572	84.556	0.255	-0.283
-702.558	306.247	0.045	-0.085
-701.543	445.834	-0.145	0.323
-700.529	-63.603	-0.148	-0.061
-699.514	300.088	0.015	-0.027
-698.499	67.936	0.138	0.143
-697.485	800.000	0.079	-0.223
-696.470	800.000	-0.070	-0.196
-695.456	-200.000	-0.021	-0.302
-694.441	800.000	-0.025	0.104
-693.426	2.768	0.216	0.158
-692.412	-101.126	-0.399	-0.099
-691.397	375.261	0.126	0.261
-690.383	-40.098	0.288	-0.152
-689.368	-35.405	-0.191	-0.105
-688.354	20.902	0.141	0.116
-687.339	-68.747	0.090	-0.035
-686.324	-51.025	-0.223	0.106
-685.310	503.255	0.007	0.016
-684.295	-124.542	-0.206	0.032
-683.281	-186.704	0.395	0.006
-682.266	121.908	-0.106	-0.134
-681.251	-45.887	-0.188	-0.094
-680.237	-200.000	0.055	0.374
-679.222	-200.000	-0.005	0.214
-678.208	-26.244	0.263	-0.156
-677.193	117.659	-0.218	-0.272
-676.178	7.102	0.051	-0.038
-675.164	685.520	-0.185	-0.490
-674.149	-35.737	0.133	-0.073
-673.135	800.000	-0.082	0.238
-672.120	-13.305	-0.475	-0.312
-671.105	-105.967	0.165	0.038
-670.091	800.000	-0.049	0.179
-669.076	-40.326	-0.195	0.103
-668.062	771.085	0.071	-0.197
-667.047	227.713	0.048	0.078
-666.032	-52.585	-0.129	-0.060
-665.018	800.000	-0.061	-0.232
-664.003	-15.937	0.111	-0.071
-662.989	255.328	-0.209	0.362
-661.974	-57.363	0.140	-0.062
-660.959	242.739	0.141	-0.239
-659.945	-99.917	-0.196	-0.050
-658.930	-200.000	0.016	0.094
-657.916	169.758	-0.050	0.072
-656.901	-200.000	0.002	0.027
-655.886	-132.124	0.146	0.019
-654.872	-121.418	-0.155	-0.026
-653.857	62.668	0.250	-0.252
-652.843	-22.378	-0.270	0.165
-651.828	-200.000	0.010	-0.089
-650.814	800.000	0.072	-0.277
-649.799	308.040	0.065	-0.123
-648.784	-83.338	0.362	0.117
-647.770	45.427	-0.117	0.109
-646.755	604.831	-0.083	0.208
-645.741	-28.642	0.362	0.210
-644.726	23.828	-0.215	-0.179
-643.711	478.293	0.086	0.196
-642.697	271.820	0.042	-0.074
-641.682	-104.638	0.147	0.034
-640.668	800.000	0.040	0.120
-639.653	599.960	0.129	-0.323
-638.638	-151.897	0.038	-0.003
-637.624	85.416	-0.227	0.251
-636.609	531.803	0.158	0.379
-635.595	-192.326	-0.358	0.003
-634.580	-100.381	-0.273	0.068
-633.565	60.499	0.146	-0.146
-632.551	163.690	-0.135	-0.192
-631.536	-200.000	0.010	-0.076
-630.522	403.543	-0.068	-0.146
-629.507	160.388	0.088	0.124
-628.492	42.809	-0.110	0.101
-627.478	-200.000	-0.053	0.411
-626.463	18.345	-0.123	0.099
-625.449	-119.353	0.226	-0.040
-624.434	-200.000	-0.008	-0.127
-623.419	502.888	0.014	0.032
-622.405	-134.665	-0.216	0.027
-621.390	54.094	0.101	-0.098
-620.376	-31.961	-0.072	-0.041
-619.361	-17.343	0.276	-0.176
-618.346	-200.000	0.004	0.069
-617.332	262.712	0.057	-0.100
-616.317	7.861	-0.151	-0.114
-615.303	800.000	0.067	0.258
-614.288	800.000	-0.068	0.272
-613.273	71.154	-0.172	-0.180
-612.259	-153.704	-0.246	0.017
-611.244	-66.774	0.037	0.015
-610.230	-18.664	0.194	-0.122
-609.215	-130.864	-0.166	0.022
-608.201	33.613	0.149	0.131
-607.186	-0.691	-0.213	-0.153
-606.171	59.775	-0.234	-0.233
-605.157	-27.271	-0.151	-0.089
-604.142	-200.000	0.000	-0.158
-603.128	122.276	0.165	0.209
-602.113	-200.000	-0.043	-0.223
-601.098	-200.000	0.025	-0.279
-600.084	495.525	0.091	0.210
-599.069	-200.000	0.070	0.309
-598.055	-200.000	-0.037	0.276
-597.040	111.562	-0.173	-0.210
-596.025	14.675	-0.150	-0.118
-595.011	-96.465	-0.281	0.075
-593.996	5.983	0.012	-0.009
-592.982	-146.935	-0.382	-0.033
-591.967	-52.032	-0.062	0.029
-590.952	342.945	-0.038	0.074
-589.938	-79.739	-0.329	0.112
-588.923	800.000	0.120	-0.493
-587.909	800.000	-0.029	0.125
-586.894	800.000	0.080	0.304
-585.879	18.647	-0.098	-0.079
-584.865	135.600	-0.097	-0.127
-583.850	-123.553	-0.167	-0.027
-582.836	-138.133	-0.069	0.008
-581.821	-67.248	0.290	0.115
-580.806	800.000	-0.084	0.235
-579.792	800.000	0.140	0.392
-578.777	793.974	0.044	0.123
-577.763	-145.060	0.152	-0.014
-576.748	-200.000	0.016	-0.178
-575.733	-144.381	0.059	0.005
-574.719	-156.803	0.390	-0.024
-573.704	-68.304	0.097	-0.038
-572.690	800.000	0.050	0.213
-571.675	3.834	-0.140	-0.103
-570.661	-200.000	-0.019	-0.119
-569.646	-26.730	0.239	-0.141
-568.631	800.000	-0.043	-0.120
-567.617	-91.206	0.208	0.060
-566.602	113.431	-0.281	-0.343
-565.588	-51.728	0.135	0.063
-564.573	800.000	-0.043	0.185
-563.558	303.977	-0.139	0.260
-562.544	-200.000	-0.045	-0.277
-561.529	218.432	-0.162	-0.261
-560.515	573.653	-0.101	0.247
-559.500	800.000	0.043	0.126
-558.485	371.300	0.088	-0.181
-557.471	12.291	0.131	-0.102
-556.456	-75.535	-0.169	-0.060
-555.442	-200.000	0.037	-0.195
-554.427	-67.585	0.044	0.017
-553.412	98.137	-0.287	0.333
-552.398	681.533	0.085	-0.222
-551.383	16.190	-0.088	0.070
-550.369	1.456	-0.119	-0.086
-549.354	800.000	-0.067	0.214
-548.339	14.275	0.191	-0.150
-547.325	800.000	0.057	-0.230
-546.310	-31.029	-0.057	0.032
-545.296	-62.395	-0.394	-0.165
-544.281	144.025	-0.173	0.232
-543.266	-153.987	0.034	0.002
-542.252	234.610	-0.134	-0.223
-541.237	-200.000	-0.020	0.122
-540.223	-60.662	0.418	0.179
-539.208	-80.866	-0.094	-0.031
-538.193	-128.399	0.259	-0.037
-537.179	69.366	-0.173	0.180
-536.164	-194.410	-0.350	0.003
-535.150	-108.307	0.072	-0.016
-534.135	-154.327	-0.500	-0.034
-533.121	55.565	-0.128	-0.125
-532.106	-74.200	-0.226	0.082
-531.091	-111.181	0.318	-0.066
-530.077	800.000	-0.073	0.261
-529.062	642.572	-0.131	0.336
-528.048	-52.152	0.205	-0.096
-527.033	-117.248	-0.362	-0.066
-526.018	25.273	0.028	-0.023
-525.004	-82.522	-0.030	0.010
-523.989	-94.783	0.192	0.052
-522.975	-124.737	0.199	-0.031
-521.960	793.892	-0.065	-0.180
-520.945	176.000	-0.169	-0.247
-519.931	180.747	0.062	0.092
-518.916	-181.712	-0.183	0.004
-517.902	-51.693	0.364	-0.171
-516.887	306.065	0.025	0.046
-515.872	447.050	-0.167	-0.370
-514.858	388.176	-0.101	-0.211
-513.843	800.000	0.121	0.397
-512.829	1.335	0.271	-0.196
-511.814	346.308	-0.022	-0.044
-510.799	-136.145	0.264	-0.031
-509.785	-200.000	-0.008	-0.308
-508.770	800.000	0.100	-0.285
-507.756	421.820	0.029	0.062
-506.741	-89.161	-0.336	0.100
-505.726	181.462	-0.028	-0.041
-504.712	-58.193	-0.328	-0.143
-503.697	193.867	0.116	0.177
-502.683	349.441	0.101	-0.201
-501.668	255.111	0.075	-0.128
-500.653	800.000	-0.030	0.084
-499.639	-200.000	0.102	-0.606
-498.624	-40.587	-0.020	0.011
-497.610	-156.199	0.160	0.010
-496.595	158.074	-0.194	0.270
-495.581	197.012	0.127	0.195
-494.566	85.518	-0.083	0.091
-493.551	-200.000	0.022	0.127
-492.537	-34.254	-0.114	-0.063
-491.522	415.356	-0.143	0.307
-490.508	-146.372	0.308	-0.027
-489.493	-200.000	0.046	0.239
-488.478	-79.487	-0.217	-0.074
-487.464	148.146	0.134	0.182
-486.449	-128.344	0.304	-0.044
-485.435	-200.000	-0.006	-0.066
-484.420	-20.127	0.149	-0.093
-483.405	-200.000	0.000	0.019
-482.391	71.441	-0.382	-0.399
-481.376	-154.642	-0.373	-0.025
-480.362	800.000	0.048	-0.158
-479.347	106.852	0.114	0.136
-478.332	84.186	-0.210	-0.231
-477.318	34.705	0.190	0.167
-476.303	-200.000	0.022	0.450
-475.289	11.786	0.229	-0.177
-474.274	22.173	-0.185	0.152
-473.259	-200.000	0.010	0.103
-472.245	79.792	0.227	0.244
-471.230	-200.000	0.027	0.219
-470.216	-71.384	-0.186	-0.070
-469.201	-71.017	-0.211	0.080
-468.186	-30.869	0.119	-0.068
-467.172	435.533	-0.035	-0.077
-466.157	-139.610	0.094	-0.010
-465.143	800.000	0.020	0.065
-464.128	-85.744	0.165	-0.051
-463.113	-79.443	0.291	0.099
-462.099	-200.000	-0.101	0.533
-461.084	-200.000	0.009	-0.154
-460.070	187.152	0.152	0.227
-459.055	-60.906	-0.112	0.047
-458.040	-57.544	-0.025	0.011
-457.026	622.966	0.139	0.350
-456.011	-200.000	0.001	0.030
-454.997	-136.274	-0.387	-0.045
-453.982	-146.816	-0.108	0.009
-452.968	279.573	-0.096	-0.173
-451.953	68.423	-0.043	-0.044
-450.938	-25.237	-0.208	-0.124
-449.924	117.246	0.262	0.323
-448.909	24.628	-0.180	0.150
-447.895	-11.548	0.321	0.212
-446.880	800.000	0.034	0.095
-445.865	3.777	-0.114	0.084
-444.851	800.000	0.053	-0.186
-443.836	-200.000	-0.012	-0.119
-442.822	22.096	-0.125	0.102
-441.807	-117.975	-0.411	-0.074
-440.792	-200.000	-0.015	-0.104
-439.778	-106.160	-0.271	-0.061
-438.763	800.000	0.128	-0.418
-437.749	-50.731	-0.209	-0.098
-436.734	156.582	-0.225	-0.312
-435.719	33.775	-0.080	-0.070
-434.705	-150.957	-0.104	-0.008
-433.690	121.657	-0.138	0.173
-432.676	-149.936	0.184	0.014
-431.661	-103.363	0.278	-0.066
-430.646	305.130	-0.048	-0.089
-429.632	-200.000	0.018	0.389
-428.617	-99.273	0.141	0.036
-427.603	250.852	-0.141	-0.241
-426.588	-78.945	-0.117	0.040
-425.573	3.170	0.176	0.128
-424.559	-200.000	0.007	-0.207
-423.544	-185.515	-0.293	-0.004
-422.530	-3.761	0.208	0.145
-421.515	4.645	0.458	0.337
-420.500	-163.879	0.079	-0.004
-419.486	-131.989	0.122	-0.016
-418.471	-200.000	-0.002	0.262
-417.457	800.000	0.149	-0.444
-416.442	44.090	-0.158	-0.145
-415.428	800.000	0.095	-0.274
-414.413	-200.000	0.007	-0.103
-413.398	-101.989	0.240	0.058
-412.384	-21.876	0.084	0.051
-411.369	11.386	-0.440	-0.337
-410.355	-200.000	-0.079	0.458
-409.340	-64.974	-0.313	0.127
-408.325	800.000	-0.094	-0.262
-407.311	-21.772	0.094	0.057
-406.296	-77.402	0.282	-0.098
-405.282	194.022	0.144	-0.218
-404.267	800.000	0.078	0.253
-403.252	395.500	-0.102	0.213
-402.238	521.130	-0.152	-0.356
-401.223	-132.318	-0.125	-0.016
-400.209	-81.514	0.365	-0.120
-399.194	-200.000	-0.008	-0.038
-398.179	46.488	-0.012	0.011
-397.165	211.995	0.151	-0.239
-396.150	-200.000	-0.024	-0.243
-395.136	-200.000	0.016	0.077
-394.121	-89.308	0.034	-0.010
-393.106	-154.507	0.264	-0.018
-392.092	-88.267	0.056	0.017
-391.077	139.174	-0.089	-0.117
-390.063	800.000	0.097	-0.301
-389.048	67.465	0.308	-0.315
-388.033	-150.175	0.148	0.011
-387.019	142.525	-0.045	0.059
-386.004	-84.623	-0.107	-0.034
-384.990	800.000	-0.046	0.138
-383.975	-110.805	0.382	0.079
-382.960	-86.981	0.186	0.057
-381.946	-200.000	-0.117	-0.562
-380.931	-157.320	0.467	0.028
-379.917	-146.511	0.177	-0.015
-378.902	26.155	0.220	-0.184
-377.888	-74.154	0.091	0.033
-376.873	102.357	0.192	-0.225
-375.858	62.514	-0.177	-0.177
-374.844	-44.237	-0.278	0.140
-373.829	-68.727	0.183	-0.071
-372.815	-35.704	0.060	-0.033
-371.800	262.150	-0.062	0.108
-370.785	-200.000	-0.031	0.212
-369.771	243.507	0.176	0.295
-368.756	800.000	0.045	-0.143
-367.742	-73.759	0.113	-0.041
-366.727	724.843	0.174	0.465
-365.712	800.000	-0.066	-0.214
-364.698	800.000	0.076	-0.280
-363.683	-145.538	-0.202	-0.018
-362.669	164.712	-0.110	-0.155
-361.654	309.226	-0.048	-0.089
-360.639	-200.000	-0.125	0.000
-359.625	357.217	0.180	-0.360
-358.610	92.108	0.184	0.207
-357.596	160.817	-0.091	0.126
-356.581	800.000	-0.089	0.272
-355.566	-169.489	-0.175	-0.006
-354.552	40.364	-0.047	-0.042
-353.537	-48.122	0.186	0.090
-352.523	-39.941	0.037	0.019
-351.508	-200.000	0.027	0.238
-350.493	-20.255	0.175	0.108
-349.479	-67.516	0.099	0.039
-348.464	-10.030	-0.170	-0.113
-347.450	395.067	-0.138	-0.288
-346.435	-41.478	-0.142	0.073
-345.420	-104.213	0.127	-0.030
-344.406	-39.520	-0.090	-0.047
-343.391	-200.000	-0.025	0.113
-342.377	-48.758	0.127	-0.061
-341.362	127.406	0.184	0.234
-340.348	800.000	-0.064	-0.187
-339.333	800.000	0.070	0.267
-338.318	-135.428	0.141	0.017
-337.304	181.654	0.050	-0.073
-336.289	-118.227	0.222	-0.040
-335.275	47.099	-0.329	0.306
-334.260	137.611	0.121	-0.158
-333.245	-78.009	0.214	0.074
-332.231	-200.000	0.029	-0.209
-331.216	-139.084	-0.243	0.026
-330.202	-127.090	0.116	0.017
-329.187	-118.678	-0.390	0.069
-328.172	317.459	-0.056	-0.105
-327.158	-35.456	0.325	0.176
-326.143	178.371	0.246	0.359
-325.129	-134.919	-0.262	-0.032
-324.114	-104.263	-0.220	-0.051
-323.099	-111.726	-0.073	0.015
-322.085	354.558	-0.092	0.183
-321.070	-84.526	0.274	-0.086
-320.056	57.178	-0.197	-0.192
-319.041	41.649	-0.329	-0.298
-318.026	41.249	0.151	0.136
-317.012	189.517	0.237	0.355
-315.997	-165.031	0.164	-0.007
-314.983	706.572	-0.086	-0.227
-313.968	800.000	-0.080	-0.345
-312.953	-124.999	-0.086	-0.013
-311.939	800.000	-0.063	0.202
-310.924	-200.000	0.010	0.107
-309.910	800.000	0.044	0.129
-308.895	-130.962	-0.523	0.070
-307.880	-200.000	0.039	-0.210
-306.866	-200.000	-0.031	-0.199
-305.851	86.847	0.214	-0.235
-304.837	-7.569	-0.072	-0.048
-303.822	59.469	0.133	-0.131
-302.807	377.229	0.040	-0.082
-301.793	-200.000	0.012	-0.471
-300.778	800.000	-0.043	-0.134
-299.764	-138.460	0.299	-0.033
-298.749	47.330	-0.056	-0.052
-297.735	-200.000	0.048	0.289
-296.720	-128.627	-0.322	-0.045
-295.705	-103.546	-0.417	0.098
-294.691	133.235	-0.123	0.159
-293.676	-150.401	0.145	-0.011
-292.662	-101.107	-0.235	-0.057
-291.647	800.000	-0.014	0.043
-290.632	251.257	0.136	0.231
-289.618	-57.219	0.075	-0.033
-288.603	-153.963	-0.238	0.016
-287.589	800.000	-0.023	-0.092
-286.574	-200.000	0.048	-0.278
-285.559	192.485	0.057	0.086
-284.545	-125.847	0.199	0.030
-283.530	-200.000	-0.006	0.294
-282.516	-49.358	0.153	0.073
-281.501	-115.344	-0.124	0.023
-280.486	262.052	-0.113	-0.195
-279.472	-49.614	0.105	0.050
-278.457	-200.000	0.029	0.182
-277.443	600.039	-0.058	0.144
-276.428	626.336	-0.055	0.138
-275.413	-170.764	0.043	0.001
-274.399	238.112	0.113	0.187
-273.384	-65.344	-0.090	-0.036
-272.370	-53.201	0.043	-0.019
-271.355	800.000	0.033	0.096
-270.340	-200.000	-0.004	0.088
-269.326	14.066	-0.085	0.066
-268.311	-63.308	0.220	0.090
-267.297	263.581	-0.117	-0.202
-266.282	-49.916	0.036	0.017
-265.267	93.443	0.164	0.185
-264.253	800.000	-0.066	0.247
-263.238	-152.805	-0.202	-0.014
-262.224	800.000	-0.060	-0.206
-261.209	-54.752	0.172	-0.077
-260.195	-104.208	0.173	0.040
-259.180	-42.723	-0.011	0.005
-258.165	40.545	-0.178	-0.160
-257.151	800.000	0.043	-0.179
-256.136	-62.174	-0.142	-0.059
-255.122	-19.209	-0.123	0.076
-254.107	6.470	-0.106	0.079
-253.092	-30.727	-0.258	-0.146
-252.078	588.543	-0.078	0.191
-251.063	-61.531	-0.303	-0.127
-250.049	-146.597	0.254	0.022
-249.034	-47.744	0.072	-0.035
-248.019	200.572	-0.077	0.118
-247.005	83.333	-0.135	-0.146
-245.990	-137.787	-0.206	0.023
-244.976	27.982	0.108	0.091
-243.961	-200.000	-0.009	0.149
-242.946	140.142	0.204	-0.268
-241.932	-76.948	-0.399	-0.139
-240.917	-19.514	0.087	-0.054
-239.903	110.592	-0.155	0.185
-238.888	-110.655	0.107	0.022
-237.873	123.211	0.153	-0.191
-236.859	498.721	-0.173	0.398
-235.844	-60.977	-0.185	-0.078
-234.830	341.347	-0.073	-0.143
-233.815	166.620	0.147	-0.207
-232.800	800.000	-0.038	0.157
-231.786	-11.771	0.333	0.217
-230.771	-40.568	0.203	-0.105
-229.757	570.436	0.092	-0.223
-228.742	21.935	0.137	0.111
-227.727	432.911	-0.094	0.202
-226.713	73.422	0.202	0.211
-225.698	800.000	-0.113	0.385
-224.684	34.319	0.209	0.181
-223.669	-61.579	-0.131	0.055
-222.655	203.616	0.164	0.252
-221.640	-124.127	-0.286	0.045
-220.625	399.602	-0.151	0.315
-219.611	29.514	0.467	0.395
-218.596	-200.000	0.022	0.210
-217.582	-150.794	0.338	0.026
-216.567	438.692	0.122	0.264
-215.552	639.898	-0.060	-0.152
-214.538	-19.250	-0.085	-0.053
-213.523	547.050	-0.137	-0.326
-212.509	-200.000	-0.045	-0.223
-211.494	800.000	-0.061	0.225
-210.479	203.789	0.009	0.014
-209.465	60.367	0.257	-0.252
-208.450	-102.438	-0.113	-0.027
-207.436	-160.812	0.071	0.004
-206.421	82.559	0.257	-0.278
-205.406	-200.000	-0.007	0.054
-204.392	175.552	-0.187	-0.270
-203.377	702.684	-0.096	0.251
-202.363	42.132	0.090	0.081
-201.348	-200.000	-0.008	-0.046
-200.333	-157.086	0.461	0.028
-199.319	112.200	-0.102	0.123
-198.304	519.105	0.025	-0.059
-197.290	-58.948	0.055	-0.024
-196.275	-123.533	-0.134	-0.021
-195.260	70.681	0.142	0.146
-194.246	-199.254	-0.223	0.001
-193.231	653.251	0.041	-0.105
-192.217	7.913	0.164	-0.122
-191.202	36.446	-0.039	-0.034
-190.187	-110.116	-0.332	-0.069
-189.173	-78.180	-0.119	0.041
-188.158	800.000	0.021	0.082
-187.144	-200.000	0.013	-0.075
-186.129	-107.742	-0.337	0.073
-185.114	300.587	0.073	0.134
-184.100	23.746	-0.200	0.163
-183.085	800.000	0.035	0.096
-182.071	75.004	0.132	0.138
-181.056	-49.292	0.193	-0.091
-180.042	1.985	0.374	-0.268
-179.027	-140.874	0.020	0.002
-178.012	145.163	0.087	-0.115
-176.998	800.000	0.039	-0.124
-175.983	-80.502	0.285	-0.094
-174.969	612.111	-0.083	-0.205
-173.954	-200.000	-0.024	-0.543
-172.939	344.112	-0.097	0.189
-171.925	-79.288	-0.242	-0.082
-170.910	368.747	-0.099	-0.198
-169.896	-200.000	-0.015	0.157
-168.881	-200.000	0.020	0.330
-167.866	90.309	0.239	-0.265
-166.852	795.865	0.086	-0.234
-165.837	257.865	-0.067	-0.115
-164.823	-136.738	0.384	-0.044
-163.808	800.000	-0.035	0.120
-162.793	-200.000	0.004	-0.027
-161.779	-176.631	-0.555	-0.014
-160.764	257.576	-0.096	-0.163
-159.750	800.000	-0.065	0.247
-158.735	-152.571	-0.257	-0.018
-157.720	-100.267	0.160	-0.039
-156.706	-70.543	0.036	-0.014
-155.691	-80.938	0.230	0.076
-154.677	22.915	0.092	0.075
-153.662	-200.000	0.176	0.000
-152.647	274.046	0.177	0.311
-151.633	177.562	0.041	0.059
-150.618	-200.000	-0.015	0.205
-149.604	-10.432	0.020	-0.013
-148.589	-200.000	0.046	0.220
-147.574	373.532	0.113	0.227
-146.560	800.000	-0.020	-0.079
-145.545	49.792	-0.134	0.125
-144.531	720.084	-0.045	-0.118
-143.516	-130.295	0.152	0.020
-142.502	-72.987	-0.197	-0.072
-141.487	800.000	-0.051	0.216
-140.472	800.000	-0.085	0.304
-139.458	-200.000	-0.021	-0.245
-138.443	171.261	-0.184	0.262
-137.429	-200.000	0.051	0.353
-136.414	-36.875	0.279	0.148
-135.399	-145.505	0.205	0.018
-134.385	-6.444	0.079	-0.053
-133.370	-168.980	-0.369	-0.014
-132.356	155.705	0.129	-0.176
-131.341	-159.092	-0.234	-0.013
-130.326	164.330	0.113	-0.158
-129.312	-45.730	0.435	-0.213
-128.297	-200.000	0.009	0.573
-127.283	66.906	-0.087	-0.088
-126.268	-165.155	0.220	-0.010
-125.253	231.016	0.099	-0.161
-124.239	-87.536	0.125	0.037
-123.224	-107.342	-0.233	0.051
-122.210	-200.000	0.041	-0.211
-121.195	369.405	0.085	0.170
