DTS Sentinel unit serial number:	SN413079Multiplexer serial number:	ORYXHardware model number:	OX4-SRSoftware version number:	ORYX F/W v4.00 Oryx Data Collector v3.7.2.0data status	okinstallation	princeton_trtdifferential loss correction	single-endedforward channel	channel 4reverse channel	N/Adate	2019/09/15time	09:45:34forward acquisition time	60.00reverse acquisition time	0.00gamma	496.2192k internal	0.2299k external	0.2299temperature offset calibration	1.0015default loss term (dB/km)	0.3790temperature slope calibration	1.0000multiplexer offset coefficient	1.0000multiplexer slope coefficient	1.0000fibre end	0.00T internal ref (°C)	34.00T ext. ref 1 (°C)	4.97T ext. ref 2 (°C)	29.71length (m)	temperature (°C)	Stokes	anti-Stokes-747.200	-139.048	0.191	0.021
-746.185	13.230	-0.077	0.061
-745.171	-1.236	0.348	0.251
-744.156	-117.332	-0.385	0.071
-743.142	552.919	-0.060	0.148
-742.127	472.527	0.005	0.011
-741.112	305.023	0.100	0.189
-740.098	138.615	-0.214	0.287
-739.083	131.219	0.194	0.254
-738.069	-14.184	0.108	0.071
-737.054	-161.062	-0.118	-0.006
-736.039	-200.000	0.030	-0.211
-735.025	85.665	0.035	-0.039
-734.010	18.441	-0.244	-0.199
-732.996	800.000	-0.054	-0.193
-731.981	-80.106	0.116	-0.040
-730.966	576.079	0.062	-0.155
-729.952	-93.847	-0.228	-0.064
-728.937	-200.000	0.053	0.361
-727.923	800.000	0.033	-0.123
-726.908	-115.528	-0.336	-0.064
-725.894	554.607	-0.021	0.050
-724.879	-2.022	-0.296	-0.212
-723.864	197.842	-0.168	-0.261
-722.850	248.522	0.081	-0.140
-721.835	-186.214	0.056	-0.001
-720.821	-85.779	-0.249	-0.079
-719.806	86.910	-0.189	-0.212
-718.791	-98.211	-0.312	-0.082
-717.777	15.692	-0.052	0.042
-716.762	60.440	0.200	0.202
-715.748	800.000	-0.138	-0.460
-714.733	-69.296	-0.293	-0.115
-713.718	-115.596	-0.085	0.016
-712.704	49.772	-0.235	-0.226
-711.689	-29.475	0.150	-0.087
-710.675	800.000	-0.065	-0.247
-709.660	151.810	0.090	0.125
-708.645	-80.998	0.265	-0.089
-707.631	-200.000	-0.004	0.053
-706.616	137.389	0.243	0.324
-705.602	-200.000	0.085	-0.452
-704.587	800.000	0.035	-0.138
-703.572	-195.648	-0.188	0.001
-702.558	78.976	0.130	0.141
-701.543	-64.837	-0.218	0.090
-700.529	74.886	-0.097	-0.104
-699.514	12.213	0.195	-0.153
-698.499	-200.000	0.027	-0.289
-697.485	-42.503	0.093	0.048
-696.470	-200.000	-0.007	-0.098
-695.456	81.172	-0.094	-0.103
-694.441	-151.352	0.132	0.010
-693.426	-183.082	0.184	0.003
-692.412	-200.000	0.091	-0.504
-691.397	-49.856	-0.408	0.197
-690.383	-124.237	-0.284	0.045
-689.368	39.074	0.143	0.130
-688.354	679.766	-0.137	-0.364
-687.339	-200.000	-0.012	0.138
-686.324	333.786	0.130	-0.256
-685.310	800.000	0.106	-0.465
-684.295	-137.785	-0.331	-0.038
-683.281	319.141	-0.109	0.210
-682.266	800.000	0.081	-0.323
-681.251	-200.000	-0.087	0.417
-680.237	-200.000	0.033	-0.396
-679.222	-42.272	0.065	-0.034
-678.208	-157.501	-0.406	0.025
-677.193	-200.000	-0.001	-0.226
-676.178	26.289	-0.230	0.196
-675.164	483.054	-0.071	0.164
-674.149	-132.776	0.161	0.021
-673.135	-1.828	0.044	-0.032
-672.120	-200.000	0.058	-0.484
-671.105	101.946	-0.142	-0.168
-670.091	-200.000	-0.004	-0.077
-669.076	-100.322	-0.138	0.035
-668.062	31.890	-0.107	0.094
-667.047	675.213	0.082	0.217
-666.032	-200.000	0.123	0.000
-665.018	-98.759	0.257	-0.067
-664.003	13.684	-0.157	-0.124
-662.989	800.000	0.048	0.147
-661.974	673.103	-0.083	0.218
-660.959	800.000	-0.057	-0.176
-659.945	-90.536	0.098	0.029
-658.930	-46.016	0.470	0.236
-657.916	204.065	-0.066	0.104
-656.901	-161.712	0.287	0.015
-655.886	-57.528	-0.080	0.036
-654.872	-134.206	-0.243	0.030
-653.857	800.000	0.147	-0.432
-652.843	-11.601	-0.189	-0.126
-651.828	69.881	-0.208	0.219
-650.814	-109.704	0.090	-0.019
-649.799	-58.064	-0.100	0.044
-648.784	205.860	-0.054	-0.086
-647.770	-200.000	-0.067	-0.337
-646.755	-200.000	-0.050	-0.335
-645.741	-115.584	-0.414	-0.079
-644.726	53.827	0.026	-0.025
-643.711	136.559	-0.017	-0.023
-642.697	-200.000	0.016	0.270
-641.682	-200.000	0.039	0.283
-640.668	402.899	-0.065	0.140
-639.653	-92.771	0.137	-0.039
-638.638	428.841	-0.100	0.219
-637.624	123.941	-0.133	-0.170
-636.609	-22.404	0.092	-0.057
-635.595	193.926	0.131	0.202
-634.580	82.674	0.178	-0.197
-633.565	363.938	0.166	0.339
-632.551	80.248	0.046	0.050
-631.536	34.341	0.221	-0.196
-630.522	-82.160	0.155	0.051
-629.507	532.060	-0.125	0.301
-628.492	-72.508	0.064	0.024
-627.478	-200.000	-0.019	0.428
-626.463	-200.000	-0.000	-0.006
-625.449	132.478	-0.122	-0.160
-624.434	-91.299	-0.260	-0.076
-623.419	-200.000	-0.004	-0.093
-622.405	-200.000	-0.011	0.059
-621.390	-7.347	-0.223	0.153
-620.376	-200.000	0.024	-0.267
-619.361	-200.000	0.032	-0.165
-618.346	-26.429	-0.228	-0.136
-617.332	-20.989	-0.251	-0.156
-616.317	-200.000	0.021	0.137
-615.303	-123.739	0.304	-0.049
-614.288	-200.000	-0.000	-0.313
-613.273	-160.879	0.342	0.018
-612.259	64.079	-0.182	-0.186
-611.244	800.000	0.142	-0.479
-610.230	800.000	-0.072	0.274
-609.215	-97.062	-0.350	0.093
-608.201	-17.980	0.183	-0.116
-607.186	800.000	-0.085	-0.303
-606.171	-44.553	0.389	0.198
-605.157	-116.157	0.110	-0.021
-604.142	499.132	-0.074	-0.173
-603.128	135.720	0.113	-0.149
-602.113	-200.000	0.010	0.053
-601.098	-162.555	-0.197	-0.010
-600.084	-200.000	-0.011	-0.261
-599.069	-200.000	-0.011	0.219
-598.055	-200.000	0.028	-0.253
-597.040	-110.517	0.079	-0.017
-596.025	-79.598	-0.226	-0.077
-595.011	269.901	-0.129	-0.230
-593.996	206.744	0.145	0.229
-592.982	74.673	-0.129	-0.137
-591.967	800.000	0.015	0.066
-590.952	-71.200	-0.242	-0.092
-589.938	88.758	0.018	0.021
-588.923	800.000	0.117	-0.473
-587.909	387.987	-0.032	-0.066
-586.894	-200.000	0.016	-0.157
-585.879	15.012	-0.210	0.167
-584.865	-200.000	0.039	-0.257
-583.850	-200.000	0.026	-0.205
-582.836	-67.733	0.147	0.058
-581.821	118.502	-0.135	-0.169
-580.806	232.590	0.310	0.517
-579.792	800.000	-0.026	-0.077
-578.777	-200.000	-0.017	-0.220
-577.763	93.655	-0.167	0.192
-576.748	-5.754	0.160	0.111
-575.733	-167.778	-0.302	-0.012
-574.719	133.924	-0.167	-0.219
-573.704	800.000	0.073	-0.212
-572.690	-168.127	0.220	-0.009
-571.675	-128.895	-0.127	0.018
-570.661	-144.155	-0.098	0.009
-569.646	-200.000	-0.019	-0.272
-568.631	-122.023	0.026	0.004
-567.617	-200.000	0.004	-0.211
-566.602	-84.343	-0.208	-0.067
-565.588	131.299	-0.029	0.037
-564.573	-200.000	0.008	0.149
-563.558	-16.837	0.303	-0.194
-562.544	46.346	0.332	-0.312
-561.529	-30.924	0.170	-0.097
-560.515	54.857	-0.024	0.023
-559.500	-200.000	0.022	-0.464
-558.485	-86.932	-0.321	0.099
-557.471	-44.609	-0.316	0.160
-556.456	-30.600	-0.190	0.109
-555.442	19.995	0.200	0.163
-554.427	3.226	-0.088	-0.065
-553.412	24.499	-0.113	-0.095
-552.398	782.485	-0.108	-0.301
-551.383	-200.000	-0.004	-0.025
-550.369	-164.974	-0.061	0.003
-549.354	51.908	0.101	0.097
-548.339	-200.000	-0.022	-0.132
-547.325	-200.000	-0.007	-0.066
-546.310	-15.806	-0.068	0.044
-545.296	-200.000	0.014	-0.177
-544.281	32.683	0.067	-0.059
-543.266	-120.371	0.130	-0.022
-542.252	19.580	-0.131	0.106
-541.237	-40.541	-0.126	0.066
-540.223	-200.000	0.054	-0.263
-539.208	137.621	-0.202	-0.268
-538.193	-27.460	0.189	0.111
-537.179	-65.816	0.138	0.056
-536.164	-103.430	-0.190	-0.045
-535.150	-67.776	-0.178	-0.070
-534.135	217.336	-0.112	0.180
-533.121	-99.798	0.052	-0.013
-532.106	800.000	-0.098	-0.297
-531.091	-200.000	-0.046	-0.335
-530.077	-200.000	0.016	-0.192
-529.062	46.892	-0.267	-0.251
-528.048	-125.490	0.301	0.046
-527.033	-98.805	-0.111	0.029
-526.018	800.000	-0.047	-0.160
-525.004	-111.948	0.247	-0.050
-523.989	288.322	0.105	-0.193
-522.975	-28.287	0.175	0.102
-521.960	800.000	0.057	-0.178
-520.945	126.763	-0.123	0.157
-519.931	-125.737	-0.058	-0.009
-518.916	-63.315	0.118	0.049
-517.902	53.957	-0.361	-0.351
-516.887	385.731	-0.059	0.124
-515.872	555.669	-0.084	-0.204
-514.858	-200.000	-0.011	-0.302
-513.843	244.073	0.161	0.273
-512.829	800.000	0.086	-0.371
-511.814	800.000	-0.023	-0.073
-510.799	194.243	-0.136	0.209
-509.785	-200.000	-0.028	-0.260
-508.770	-35.237	0.339	0.186
-507.756	-68.532	0.146	0.057
-506.741	800.000	0.082	0.273
-505.726	337.731	-0.086	0.168
-504.712	-200.000	0.076	-0.565
-503.697	-200.000	-0.004	-0.519
-502.683	800.000	0.056	-0.241
-501.668	-200.000	0.017	-0.298
-500.653	-75.018	0.296	-0.107
-499.639	-98.274	0.181	0.047
-498.624	-106.852	-0.301	0.068
-497.610	-59.890	0.202	0.088
-496.595	236.276	0.135	-0.226
-495.581	-111.927	0.145	0.030
-494.566	-116.009	-0.340	-0.064
-493.551	99.649	-0.172	-0.202
-492.537	-163.972	-0.103	-0.005
-491.522	-200.000	0.025	0.159
-490.508	800.000	-0.094	0.412
-489.493	-69.983	0.190	-0.073
-488.478	-94.435	0.111	-0.031
-487.464	-200.000	-0.002	-0.059
-486.449	-200.000	0.002	0.189
-485.435	-73.901	-0.266	0.098
-484.420	-168.388	-0.315	-0.012
-483.405	61.257	0.101	-0.101
-482.391	-41.454	0.224	0.117
-481.376	-137.955	-0.302	0.034
-480.362	-117.441	-0.397	0.073
-479.347	800.000	0.109	-0.315
-478.332	800.000	0.051	-0.170
-477.318	-43.446	-0.312	0.159
-476.303	-200.000	-0.013	0.065
-475.289	-157.625	0.426	0.026
-474.274	-22.507	0.188	-0.115
-473.259	85.402	-0.186	-0.206
-472.245	61.573	0.183	0.183
-471.230	-77.031	-0.030	-0.011
-470.216	-135.451	-0.368	-0.044
-469.201	-60.241	-0.227	-0.098
-468.186	289.505	0.059	-0.107
-467.172	613.892	0.034	0.085
-466.157	-83.577	-0.092	-0.030
-465.143	80.045	0.089	0.097
-464.128	-123.374	-0.051	-0.008
-463.113	-200.000	-0.008	0.171
-462.099	43.399	-0.204	0.188
-461.084	-46.818	-0.118	0.058
-460.070	-39.845	-0.228	0.120
-459.055	261.553	-0.181	0.316
-458.040	-200.000	-0.025	0.340
-457.026	601.053	0.101	0.253
-456.011	-94.226	-0.224	-0.062
-454.997	249.757	-0.058	-0.099
-453.982	800.000	0.043	0.155
-452.968	-74.996	0.311	-0.112
-451.953	800.000	-0.088	-0.305
-450.938	0.419	-0.012	-0.009
-449.924	-170.643	0.138	0.005
-448.909	-38.063	-0.253	-0.135
-447.895	604.428	0.056	0.141
-446.880	-24.220	0.105	-0.063
-445.865	591.082	0.028	-0.070
-444.851	-121.475	0.193	-0.032
-443.836	-17.627	-0.089	-0.056
-442.822	800.000	0.103	0.437
-441.807	39.395	-0.219	0.198
-440.792	-160.009	0.368	-0.020
-439.778	-200.000	-0.011	0.177
-438.763	147.052	-0.159	0.216
-437.749	-77.466	-0.119	0.042
-436.734	-200.000	-0.048	0.230
-435.719	-146.537	-0.313	0.027
-434.705	471.827	-0.124	-0.282
-433.690	-60.503	0.330	0.141
-432.676	-54.668	-0.299	0.136
-431.661	52.569	0.183	-0.177
-430.646	765.776	0.073	0.201
-429.632	758.965	0.138	0.377
-428.617	30.853	-0.375	-0.324
-427.603	-61.296	0.053	0.022
-426.588	-200.000	-0.003	-0.090
-425.573	37.958	0.087	0.078
-424.559	584.420	0.056	-0.138
-423.544	800.000	0.022	-0.081
-422.530	-99.784	0.049	-0.012
-421.515	-200.000	0.006	-0.127
-420.500	-59.632	-0.185	0.080
-419.486	-90.211	-0.266	0.078
-418.471	-93.275	0.242	0.068
-417.457	800.000	0.067	0.186
-416.442	800.000	0.059	0.183
-415.428	800.000	0.024	-0.074
-414.413	54.036	0.197	0.191
-413.398	-4.463	0.475	0.331
-412.384	59.513	0.141	0.140
-411.369	90.613	0.156	-0.176
-410.355	430.964	0.139	-0.304
-409.340	179.431	-0.119	0.176
-408.325	364.152	0.077	0.156
-407.311	-172.292	0.214	-0.007
-406.296	277.868	0.172	-0.308
-405.282	191.945	-0.101	0.153
-404.267	-51.981	-0.114	-0.053
-403.252	-111.623	-0.085	-0.017
-402.238	72.074	0.122	-0.128
-401.223	-105.762	0.407	-0.093
-400.209	194.043	0.129	0.196
-399.194	24.779	-0.110	0.092
-398.179	50.061	-0.097	-0.092
-397.165	-200.000	0.002	-0.064
-396.150	-200.000	0.025	-0.179
-395.136	-38.374	-0.181	0.097
-394.121	-152.714	0.266	-0.019
-393.106	-131.691	-0.438	0.058
-392.092	800.000	0.091	-0.326
-391.077	-69.190	-0.101	-0.039
-390.063	-115.178	0.199	0.038
-389.048	-141.253	-0.137	-0.014
-388.033	800.000	-0.076	0.312
-387.019	-17.630	-0.119	0.075
-386.004	543.942	0.119	-0.286
-384.990	122.261	0.253	-0.318
-383.975	4.353	-0.125	0.092
-382.960	680.207	0.091	-0.239
-381.946	228.938	0.109	0.179
-380.931	230.567	-0.357	0.588
-379.917	-200.000	0.075	0.374
-378.902	800.000	0.038	-0.113
-377.888	518.253	-0.043	-0.102
-376.873	172.799	0.116	0.168
-375.858	126.432	-0.050	0.063
-374.844	394.237	-0.222	0.464
-373.829	-200.000	0.005	-0.141
-372.815	-122.143	0.259	0.043
-371.800	49.979	0.103	0.098
-370.785	50.406	0.031	0.029
-369.771	639.281	0.038	0.097
-368.756	180.332	0.049	0.072
-367.742	60.874	-0.145	0.145
-366.727	-200.000	-0.063	0.577
-365.712	-200.000	-0.013	0.296
-364.698	19.778	0.047	-0.038
-363.683	118.954	0.067	0.084
-362.669	137.589	0.230	-0.302
-361.654	-146.928	0.133	-0.011
-360.639	-102.265	0.122	0.029
-359.625	-99.167	-0.191	0.049
-358.610	393.648	0.037	-0.078
-357.596	13.021	-0.210	0.163
-356.581	-200.000	0.053	0.357
-355.566	233.621	0.074	-0.122
-354.552	21.005	0.191	-0.156
-353.537	-31.340	-0.053	-0.030
-352.523	800.000	0.061	-0.222
-351.508	800.000	-0.059	-0.178
-350.493	7.524	0.223	-0.168
-349.479	-31.712	-0.127	-0.071
-348.464	-200.000	0.021	0.136
-347.450	65.321	0.359	0.365
-346.435	800.000	-0.087	0.268
-345.420	-44.388	-0.362	-0.182
-344.406	548.477	-0.120	0.288
-343.391	-135.879	-0.233	-0.028
-342.377	-160.243	0.522	0.028
-341.362	-135.944	0.323	-0.038
-340.348	800.000	-0.027	0.080
-339.333	448.055	0.040	0.089
-338.318	-78.239	0.293	0.101
-337.304	43.102	-0.184	0.168
-336.289	73.752	-0.105	-0.110
-335.275	-87.792	0.063	-0.019
-334.260	800.000	-0.032	0.090
-333.245	-135.104	-0.188	-0.023
-332.231	41.502	-0.094	-0.085
-331.216	-83.958	0.350	0.112
-330.202	166.124	0.025	0.035
-329.187	800.000	0.088	-0.364
-328.172	94.277	-0.211	-0.241
-327.158	93.687	0.176	-0.201
-326.143	-160.086	0.267	0.015
-325.129	43.359	0.153	0.140
-324.114	259.700	0.181	0.313
-323.099	-47.738	0.257	0.125
-322.085	201.798	0.069	0.106
-321.070	-0.207	0.061	0.044
-320.056	-0.657	0.254	-0.181
-319.041	800.000	-0.092	0.283
-318.026	-200.000	-0.010	-0.061
-317.012	40.037	-0.125	0.112
-315.997	-32.351	-0.289	-0.162
-314.983	-107.630	0.328	0.072
-313.968	108.781	-0.229	0.275
-312.953	-200.000	0.008	-0.171
-311.939	70.501	-0.262	-0.271
-310.924	-102.377	0.313	0.075
-309.910	800.000	0.089	0.258
-308.895	-40.738	-0.124	-0.064
-307.880	-143.870	0.284	0.027
-306.866	100.945	-0.012	0.014
-305.851	-123.760	0.140	0.022
-304.837	-55.509	0.423	0.190
-303.822	-8.378	0.099	0.066
-302.807	800.000	0.031	0.097
-301.793	800.000	-0.083	-0.246
-300.778	449.915	-0.168	-0.371
-299.764	-41.177	-0.156	-0.081
-298.749	614.771	-0.017	0.044
-297.735	443.933	-0.045	-0.098
-296.720	93.697	0.142	-0.162
-295.705	800.000	0.076	0.295
-294.691	800.000	-0.069	-0.203
-293.676	38.224	0.179	0.159
-292.662	-16.825	-0.313	0.199
-291.647	66.336	0.055	-0.056
-290.632	-115.635	0.084	-0.016
-289.618	166.114	-0.167	0.237
-288.603	-200.000	0.001	-0.095
-287.589	-81.781	-0.341	0.112
-286.574	800.000	0.074	-0.252
-285.559	-86.038	0.105	0.033
-284.545	-200.000	0.012	-0.066
-283.530	-200.000	0.015	0.151
-282.516	800.000	-0.075	-0.252
-281.501	-67.595	-0.065	0.025
-280.486	-65.627	-0.256	0.103
-279.472	275.986	-0.088	0.156
-278.457	47.023	-0.108	0.101
-277.443	25.650	0.167	-0.140
-276.428	143.180	-0.143	0.191
-275.413	-200.000	-0.024	0.245
-274.399	-79.471	-0.318	0.108
-273.384	660.634	-0.053	-0.137
-272.370	-140.632	0.128	0.013
-271.355	-48.482	0.089	-0.043
-270.340	-200.000	0.009	0.361
-269.326	-93.085	0.197	0.055
-268.311	-6.858	-0.182	-0.124
-267.297	-57.105	-0.185	-0.082
-266.282	-91.919	0.235	0.067
-265.267	68.896	0.113	-0.117
-264.253	-15.305	0.260	-0.166
-263.238	-158.132	0.100	-0.006
-262.224	-200.000	0.030	0.145
-261.209	497.847	-0.131	0.302
-260.195	106.318	-0.054	0.065
-259.180	-140.430	0.100	0.010
-258.165	-17.173	-0.226	-0.143
-257.151	-79.316	-0.047	-0.016
-256.136	-43.473	0.261	-0.132
-255.122	800.000	0.092	-0.257
-254.107	30.800	0.238	-0.204
-253.092	-100.345	-0.171	0.042
-252.078	-41.415	0.120	0.062
-251.063	-116.628	-0.158	0.029
-250.049	133.965	0.041	-0.053
-249.034	188.534	-0.057	0.085
-248.019	-60.217	0.098	-0.042
-247.005	140.063	-0.056	-0.074
-245.990	-156.895	-0.168	-0.010
-244.976	-200.000	-0.027	-0.276
-243.961	-200.000	0.008	0.097
-242.946	-200.000	0.023	0.202
-241.932	54.267	-0.232	0.223
-240.917	-196.319	0.462	0.003
-239.903	-200.000	-0.050	0.352
-238.888	-28.000	-0.393	0.227
-237.873	486.356	0.154	-0.352
-236.859	162.365	0.200	-0.280
-235.844	-200.000	-0.014	0.334
-234.830	800.000	0.114	0.359
-233.815	-200.000	-0.016	0.114
-232.800	-200.000	0.016	-0.136
-231.786	51.785	0.085	0.081
-230.771	-14.355	-0.044	-0.028
-229.757	-141.166	-0.159	-0.016
-228.742	-85.631	0.247	-0.077
-227.727	796.872	-0.149	-0.411
-226.713	429.215	-0.155	-0.334
-225.698	-200.000	0.025	0.196
-224.684	-200.000	0.017	0.104
-223.669	800.000	0.033	-0.129
-222.655	630.768	0.060	0.151
-221.640	199.429	0.065	-0.100
-220.625	90.985	0.141	0.159
-219.611	-200.000	0.003	0.130
-218.596	-152.213	-0.216	0.016
-217.582	33.729	0.126	0.109
-216.567	-59.820	0.335	0.143
-215.552	-200.000	-0.035	-0.277
-214.538	528.509	0.072	0.169
-213.523	-98.814	-0.148	-0.038
-212.509	-68.991	-0.289	0.111
-211.494	-128.885	-0.252	-0.035
-210.479	131.029	-0.226	-0.290
-209.465	382.066	0.074	-0.151
-208.450	-200.000	-0.027	-0.155
-207.436	-59.526	0.221	0.095
-206.421	-9.304	-0.160	-0.107
-205.406	-7.643	0.081	-0.055
-204.392	-68.951	-0.233	-0.090
-203.377	-68.666	0.198	0.076
-202.363	800.000	-0.072	-0.209
-201.348	-140.736	0.195	-0.020
-200.333	4.484	-0.148	-0.108
-199.319	-200.000	-0.002	0.226
-198.304	-126.547	0.454	0.067
-197.290	800.000	-0.050	-0.139
-196.275	800.000	-0.097	-0.274
-195.260	-200.000	-0.013	0.144
-194.246	-200.000	-0.003	0.272
-193.231	-47.664	-0.341	-0.165
-192.217	-200.000	-0.026	-0.147
-191.202	673.580	0.113	0.291
-190.187	234.221	-0.151	-0.249
-189.173	-200.000	0.006	0.340
-188.158	-105.940	0.238	-0.053
-187.144	-112.938	-0.419	-0.083
-186.129	800.000	-0.021	-0.085
-185.114	-44.582	0.149	-0.074
-184.100	-63.998	-0.196	0.080
-183.085	84.028	0.248	0.271
-182.071	-184.237	0.120	0.002
-181.056	-90.258	-0.205	-0.060
-180.042	54.235	0.046	-0.044
-179.027	-184.269	-0.094	0.002
-178.012	-94.298	-0.201	-0.055
-176.998	22.911	0.226	0.185
-175.983	-13.523	-0.086	0.055
-174.969	800.000	-0.055	0.178
-173.954	645.671	0.176	0.449
-172.939	329.660	0.147	0.282
-171.925	328.117	-0.053	-0.101
-170.910	-12.393	-0.154	0.100
-169.896	-91.182	0.127	-0.036
-168.881	-82.504	-0.319	0.103
-167.866	-145.933	-0.240	0.021
-166.852	800.000	-0.056	-0.205
-165.837	159.768	-0.116	-0.161
-164.823	244.707	0.153	0.257
-163.808	-85.103	-0.012	0.004
-162.793	-26.110	-0.297	0.174
-161.779	79.890	0.084	0.090
-160.764	28.108	-0.252	0.212
-159.750	-113.267	0.338	-0.066
-158.735	800.000	-0.075	0.308
-157.720	-99.719	0.133	0.033
-156.706	-200.000	-0.024	-0.104
-155.691	-5.153	0.198	-0.136
-154.677	-200.000	-0.014	0.523
-153.662	52.156	-0.041	-0.039
-152.647	-173.883	-0.093	0.003
-151.633	-93.421	0.063	-0.017
-150.618	-100.033	-0.189	0.047
-149.604	800.000	0.045	-0.125
-148.589	-200.000	0.038	-0.279
-147.574	138.120	0.239	0.312
-146.560	-178.509	-0.164	0.004
-145.545	-44.308	0.076	-0.038
-144.531	-33.720	0.128	0.070
-143.516	-200.000	-0.106	0.483
-142.502	-121.155	-0.106	0.018
-141.487	56.465	0.169	-0.164
-140.472	52.587	0.217	-0.207
-139.458	-97.827	0.111	0.029
-138.443	-98.881	0.079	0.020
-137.429	-143.765	0.431	0.041
-136.414	43.660	0.236	-0.215
-135.399	800.000	-0.027	-0.076
-134.385	-162.940	-0.130	0.006
-133.370	28.813	0.158	0.133
-132.356	-37.603	-0.165	0.087
-131.341	30.767	-0.173	-0.148
-130.326	-41.042	-0.116	-0.060
-129.312	325.197	-0.089	0.170
-128.297	-200.000	-0.003	-0.205
-127.283	-92.422	-0.201	0.056
-126.268	-200.000	0.006	-0.125
-125.253	-65.606	-0.248	0.099
-124.239	203.404	-0.055	0.084
-123.224	54.830	0.046	-0.044
-122.210	-132.609	-0.112	0.014
