DTS Sentinel unit serial number:	SN413079Multiplexer serial number:	ORYXHardware model number:	OX4-SRSoftware version number:	ORYX F/W v4.00 Oryx Data Collector v3.7.2.0data status	okinstallation	princeton_trtdifferential loss correction	single-endedforward channel	channel 4reverse channel	N/Adate	2019/09/19time	08:09:35forward acquisition time	60.00reverse acquisition time	0.00gamma	496.2192k internal	0.2340k external	0.2340temperature offset calibration	1.0021default loss term (dB/km)	0.3790temperature slope calibration	1.0000multiplexer offset coefficient	1.0000multiplexer slope coefficient	1.0000fibre end	0.00T internal ref (°C)	20.06T ext. ref 1 (°C)	0.56T ext. ref 2 (°C)	15.81length (m)	temperature (°C)	Stokes	anti-Stokes-747.200	-105.751	-0.083	0.019
-746.185	310.587	0.053	0.100
-745.171	62.514	-0.129	-0.129
-744.156	290.639	-0.089	0.163
-743.142	-46.482	0.368	0.181
-742.127	29.947	0.138	-0.118
-741.112	-64.958	0.299	-0.121
-740.098	-61.075	-0.313	-0.132
-739.083	-112.177	-0.212	-0.043
-738.069	58.274	0.195	0.191
-737.054	48.705	0.137	-0.129
-736.039	-34.148	-0.113	0.062
-735.025	-200.000	0.049	-0.221
-734.010	-200.000	0.012	-0.136
-732.996	-200.000	-0.008	0.045
-731.981	139.690	0.230	-0.304
-730.966	-200.000	-0.023	-0.321
-729.952	-113.010	-0.402	-0.080
-728.937	-92.765	-0.219	0.061
-727.923	-141.822	-0.160	-0.016
-726.908	-35.141	-0.113	-0.062
-725.894	-40.357	-0.101	0.052
-724.879	-63.506	-0.200	-0.083
-723.864	-200.000	0.032	0.248
-722.850	-200.000	0.028	0.373
-721.835	-200.000	-0.008	0.340
-720.821	-103.253	-0.273	-0.065
-719.806	-76.972	0.149	0.052
-718.791	41.872	-0.064	-0.058
-717.777	238.121	-0.092	-0.154
-716.762	96.750	-0.139	-0.160
-715.748	-152.025	0.200	-0.015
-714.733	-200.000	0.004	-0.073
-713.718	556.870	-0.133	0.321
-712.704	-39.428	-0.222	-0.117
-711.689	680.882	-0.103	0.268
-710.675	800.000	0.093	-0.315
-709.660	-115.279	0.126	-0.024
-708.645	226.233	-0.099	0.161
-707.631	-158.501	-0.280	-0.016
-706.616	100.727	0.079	0.092
-705.602	-117.408	-0.076	0.014
-704.587	-200.000	-0.035	0.262
-703.572	-65.183	-0.387	-0.156
-702.558	698.568	0.114	-0.301
-701.543	-166.459	0.104	-0.004
-700.529	11.247	0.412	-0.316
-699.514	659.601	-0.099	-0.256
-698.499	-39.757	-0.119	-0.062
-697.485	-116.680	-0.216	-0.040
-696.470	-87.385	-0.152	0.046
-695.456	-0.131	0.183	-0.130
-694.441	800.000	-0.056	-0.205
-693.426	800.000	-0.017	0.063
-692.412	-200.000	-0.033	0.178
-691.397	-200.000	-0.042	-0.438
-690.383	800.000	-0.042	-0.177
-689.368	800.000	-0.048	0.158
-688.354	-149.125	-0.306	0.025
-687.339	468.468	0.103	0.231
-686.324	-91.974	-0.121	0.034
-685.310	387.882	-0.091	-0.189
-684.295	24.773	-0.328	-0.272
-683.281	-18.865	0.138	0.086
-682.266	-188.458	-0.326	-0.004
-681.251	192.917	-0.008	-0.013
-680.237	-200.000	0.017	0.320
-679.222	-200.000	0.049	-0.317
-678.208	56.979	-0.155	-0.151
-677.193	203.694	-0.026	0.040
-676.178	800.000	-0.029	-0.086
-675.164	529.797	-0.058	-0.136
-674.149	185.839	-0.019	-0.029
-673.135	-35.626	0.385	0.209
-672.120	-83.511	0.121	-0.039
-671.105	638.637	-0.061	-0.154
-670.091	-200.000	-0.013	-0.305
-669.076	800.000	0.067	-0.239
-668.062	187.618	0.165	0.247
-667.047	-200.000	0.066	0.509
-666.032	373.324	-0.210	-0.427
-665.018	51.945	-0.121	0.115
-664.003	11.746	-0.195	-0.149
-662.989	609.931	0.039	0.098
-661.974	21.007	0.173	-0.141
-660.959	-200.000	0.000	0.122
-659.945	40.439	0.316	-0.285
-658.930	-106.845	-0.156	0.034
-657.916	-173.692	-0.271	0.008
-656.901	40.859	-0.173	-0.156
-655.886	-200.000	0.004	0.149
-654.872	800.000	0.103	-0.318
-653.857	226.578	-0.138	0.224
-652.843	-28.991	-0.231	0.132
-651.828	-200.000	-0.025	0.128
-650.814	-200.000	0.249	0.001
-649.799	79.824	-0.159	0.171
-648.784	-87.033	-0.071	0.022
-647.770	-42.589	0.288	-0.146
-646.755	-13.384	-0.411	-0.266
-645.741	800.000	-0.113	0.357
-644.726	800.000	0.020	-0.070
-643.711	800.000	0.065	-0.191
-642.697	-200.000	-0.095	-0.423
-641.682	-174.622	-0.425	-0.012
-640.668	235.141	0.198	-0.326
-639.653	800.000	-0.010	-0.031
-638.638	-177.654	-0.345	-0.008
-637.624	14.194	-0.192	-0.149
-636.609	72.421	-0.050	0.052
-635.595	-157.573	-0.046	-0.003
-634.580	-87.072	-0.102	-0.031
-633.565	-57.411	0.051	0.022
-632.551	-114.143	0.103	-0.020
-631.536	-200.000	-0.007	-0.052
-630.522	-53.408	-0.211	0.096
-629.507	-200.000	-0.001	0.027
-628.492	-200.000	0.026	0.126
-627.478	88.357	0.152	-0.169
-626.463	196.633	0.189	-0.288
-625.449	-83.596	0.297	0.095
-624.434	235.874	-0.091	-0.150
-623.419	312.105	0.065	-0.122
-622.405	800.000	-0.025	0.085
-621.390	-200.000	0.003	-0.044
-620.376	-79.209	-0.020	0.007
-619.361	-200.000	-0.050	-0.229
-618.346	638.517	-0.106	-0.268
-617.332	-63.603	-0.112	-0.046
-616.317	-144.680	0.238	-0.022
-615.303	74.944	-0.162	0.170
-614.288	557.771	0.065	-0.157
-613.273	-90.752	-0.131	-0.038
-612.259	800.000	-0.057	-0.202
-611.244	-200.000	0.055	-0.250
-610.230	5.967	-0.092	-0.068
-609.215	800.000	0.094	-0.264
-608.201	288.173	0.154	0.279
-607.186	-10.257	-0.187	0.124
-606.171	-104.277	-0.084	0.020
-605.157	-78.166	-0.281	0.096
-604.142	-141.908	-0.065	0.006
-603.128	800.000	0.123	-0.374
-602.113	800.000	-0.035	-0.137
-601.098	-123.199	-0.190	-0.030
-600.084	800.000	-0.095	0.413
-599.069	28.779	0.185	-0.156
-598.055	49.137	-0.276	-0.258
-597.040	448.923	0.020	-0.043
-596.025	-141.544	0.425	-0.043
-595.011	-200.000	-0.013	0.063
-593.996	106.330	0.243	0.287
-592.982	-48.510	-0.207	0.099
-591.967	-38.086	-0.207	-0.109
-590.952	682.436	-0.086	-0.225
-589.938	-200.000	-0.004	0.059
-588.923	800.000	0.089	0.360
-587.909	-200.000	0.006	-0.468
-586.894	15.599	-0.296	-0.232
-585.879	-108.045	0.296	-0.064
-584.865	225.301	0.219	-0.353
-583.850	50.447	0.153	-0.144
-582.836	185.482	-0.090	-0.133
-581.821	800.000	-0.043	-0.178
-580.806	-200.000	0.060	0.307
-579.792	3.155	0.053	0.038
-578.777	-4.718	-0.126	0.087
-577.763	84.909	-0.098	-0.107
-576.748	95.780	0.118	-0.134
-575.733	74.872	0.034	-0.036
-574.719	-33.209	0.237	-0.131
-573.704	800.000	0.143	0.592
-572.690	179.031	-0.079	-0.116
-571.675	233.320	-0.078	-0.128
-570.661	-41.183	0.262	-0.134
-569.646	-16.700	0.268	0.169
-568.631	-61.710	-0.029	-0.012
-567.617	129.457	0.081	-0.103
-566.602	800.000	0.034	0.105
-565.588	-40.903	-0.319	-0.164
-564.573	-128.508	0.135	-0.019
-563.558	98.027	-0.234	-0.268
-562.544	365.564	0.104	0.209
-561.529	-200.000	-0.006	0.137
-560.515	110.537	0.060	0.072
-559.500	-66.399	0.153	0.060
-558.485	-19.048	-0.130	0.081
-557.471	19.893	0.225	-0.180
-556.456	66.025	-0.160	-0.162
-555.442	166.741	0.306	0.432
-554.427	292.840	0.061	-0.110
-553.412	-49.104	-0.191	0.091
-552.398	-92.922	0.158	-0.044
-551.383	-110.581	0.359	0.074
-550.369	-42.198	-0.344	0.175
-549.354	-200.000	-0.001	-0.091
-548.339	-200.000	0.019	-0.088
-547.325	-91.708	-0.278	-0.079
-546.310	-49.062	-0.230	0.109
-545.296	166.131	0.070	0.099
-544.281	-200.000	-0.013	0.118
-543.266	800.000	0.094	0.328
-542.252	51.118	0.036	0.034
-541.237	547.825	-0.126	0.300
-540.223	76.309	-0.126	0.133
-539.208	-200.000	-0.016	0.078
-538.193	-200.000	0.006	-0.078
-537.179	-200.000	0.017	0.114
-536.164	104.325	-0.167	-0.195
-535.150	-200.000	0.034	0.182
-534.135	-157.135	0.168	0.010
-533.121	218.455	-0.052	-0.082
-532.106	-165.396	-0.131	-0.006
-531.091	-120.248	0.166	0.028
-530.077	-16.538	-0.042	0.027
-529.062	-103.466	0.170	0.040
-528.048	418.780	-0.082	-0.174
-527.033	25.801	0.165	-0.137
-526.018	-137.834	-0.323	-0.036
-525.004	-200.000	0.030	-0.317
-523.989	35.839	-0.072	-0.063
-522.975	800.000	0.046	0.155
-521.960	-75.963	0.039	0.014
-520.945	609.819	0.079	-0.195
-519.931	-58.975	-0.192	-0.082
-518.916	413.201	0.048	-0.102
-517.902	40.047	0.178	-0.159
-516.887	-200.000	0.056	-0.260
-515.872	-32.210	-0.338	-0.188
-514.858	-142.888	-0.398	-0.038
-513.843	163.768	0.189	-0.264
-512.829	-4.691	0.108	-0.074
-511.814	800.000	0.062	-0.252
-510.799	-34.540	0.193	0.105
-509.785	-145.384	-0.282	-0.025
-508.770	-83.211	0.347	0.111
-507.756	180.996	0.065	0.095
-506.741	-91.077	0.339	0.097
-505.726	-101.887	-0.078	-0.019
-504.712	-37.166	-0.234	0.124
-503.697	-38.304	-0.165	-0.087
-502.683	-148.802	-0.174	-0.014
-501.668	78.595	0.082	0.088
-500.653	-182.590	0.095	0.002
-499.639	-200.000	0.031	-0.195
-498.624	800.000	-0.036	-0.140
-497.610	800.000	-0.075	-0.212
-496.595	397.330	-0.146	-0.303
-495.581	71.812	0.280	0.289
-494.566	356.816	0.034	0.067
-493.551	800.000	0.110	0.396
-492.537	161.313	0.116	-0.161
-491.522	531.844	-0.143	-0.336
-490.508	-200.000	-0.002	0.190
-489.493	219.917	-0.134	0.212
-488.478	-20.861	0.159	0.096
-487.464	-38.273	-0.378	-0.199
-486.449	800.000	-0.088	-0.370
-485.435	443.517	0.065	-0.141
-484.420	800.000	-0.090	0.313
-483.405	4.944	-0.149	-0.109
-482.391	407.417	0.076	0.160
-481.376	-50.647	-0.219	0.102
-480.362	287.956	0.075	0.134
-479.347	177.966	-0.169	0.244
-478.332	800.000	0.058	-0.163
-477.318	-104.144	-0.412	0.095
-476.303	-67.994	-0.247	0.096
-475.289	-5.224	-0.324	-0.221
-474.274	-200.000	0.001	-0.185
-473.259	-50.046	0.130	0.061
-472.245	-86.587	0.339	0.103
-471.230	76.763	0.170	0.179
-470.216	-25.589	-0.030	-0.018
-469.201	-48.481	0.326	0.156
-468.186	-128.433	0.291	-0.041
-467.172	208.807	-0.125	0.194
-466.157	53.700	0.089	0.084
-465.143	-56.541	0.224	0.099
-464.128	230.371	-0.214	0.347
-463.113	-59.938	0.127	-0.054
-462.099	-139.363	0.329	-0.035
-461.084	-54.054	0.099	0.045
-460.070	-156.608	0.056	-0.003
-459.055	-152.075	0.102	0.007
-458.040	20.541	-0.170	-0.137
-457.026	63.359	-0.193	0.192
-456.011	-200.000	0.030	0.276
-454.997	363.681	-0.174	-0.348
-453.982	-85.853	0.132	-0.041
-452.968	-23.036	-0.023	-0.014
-451.953	-140.488	0.104	0.011
-450.938	18.054	-0.199	0.157
-449.924	-34.286	0.309	-0.168
-448.909	81.099	0.070	0.075
-447.895	-88.381	0.288	-0.085
-446.880	68.693	-0.066	0.067
-445.865	-109.374	0.090	0.019
-444.851	16.474	-0.172	-0.135
-443.836	388.976	0.065	-0.134
-442.822	192.718	0.142	0.212
-441.807	-76.680	-0.314	-0.109
-440.792	-76.598	0.269	0.093
-439.778	-179.316	0.226	-0.005
-438.763	118.543	0.294	0.360
-437.749	170.226	-0.108	-0.153
-436.734	800.000	-0.104	0.301
-435.719	-66.975	-0.300	-0.117
-434.705	49.003	0.220	-0.205
-433.690	-28.327	-0.110	-0.063
-432.676	-200.000	0.049	0.456
-431.661	30.000	-0.250	0.211
-430.646	211.071	-0.053	-0.083
-429.632	-91.786	0.169	0.048
-428.617	12.407	-0.243	0.186
-427.603	800.000	-0.098	0.301
-426.588	-101.417	0.234	-0.057
-425.573	-200.000	-0.060	0.363
-424.559	-200.000	-0.008	0.078
-423.544	-97.464	-0.107	0.028
-422.530	521.932	0.080	0.186
-421.515	267.011	-0.108	-0.187
-420.500	263.371	0.027	-0.047
-419.486	-80.932	-0.229	-0.075
-418.471	-33.736	0.051	-0.028
-417.457	-107.604	-0.099	-0.021
-416.442	423.927	-0.017	-0.036
-415.428	293.889	0.114	0.206
-414.413	569.087	-0.048	-0.115
-413.398	-91.190	0.147	0.042
-412.384	242.690	-0.010	0.017
-411.369	281.548	-0.112	0.198
-410.355	28.918	-0.100	0.084
-409.340	-65.041	0.171	-0.068
-408.325	800.000	-0.073	-0.237
-407.311	15.583	0.244	0.189
-406.296	-170.989	-0.130	-0.004
-405.282	-200.000	-0.003	-0.166
-404.267	98.143	0.022	0.025
-403.252	-41.056	-0.029	0.015
-402.238	32.114	-0.089	-0.076
-401.223	-17.514	0.142	0.088
-400.209	24.077	0.152	-0.124
-399.194	-54.654	0.073	0.033
-398.179	7.008	-0.223	-0.164
-397.165	-27.844	0.317	0.182
-396.150	-124.705	0.352	0.054
-395.136	-4.176	0.287	0.197
-394.121	-135.186	-0.117	0.014
-393.106	-149.984	-0.251	0.019
-392.092	212.153	-0.182	-0.284
-391.077	59.065	-0.173	-0.168
-390.063	-31.922	0.203	0.113
-389.048	-74.358	0.058	-0.021
-388.033	-88.578	0.168	0.049
-387.019	77.943	0.228	0.240
-386.004	-169.587	-0.163	-0.006
-384.990	114.699	-0.259	-0.312
-383.975	-200.000	0.013	0.264
-382.960	-200.000	0.010	-0.143
-381.946	5.992	0.318	-0.233
-380.931	-200.000	0.010	-0.113
-379.917	159.999	0.156	0.215
-378.902	105.009	0.085	-0.099
-377.888	-93.169	0.314	-0.086
-376.873	227.595	-0.144	0.231
-375.858	149.028	-0.125	-0.167
-374.844	-200.000	-0.017	-0.410
-373.829	575.036	-0.060	0.144
-372.815	800.000	-0.092	0.328
-371.800	195.121	-0.159	-0.239
-370.785	125.278	0.062	0.078
-369.771	-200.000	-0.007	0.132
-368.756	-200.000	-0.017	0.312
-367.742	-118.796	0.137	-0.024
-366.727	243.326	0.051	-0.085
-365.712	800.000	0.062	0.257
-364.698	99.449	-0.043	-0.049
-363.683	-86.315	-0.404	-0.123
-362.669	91.216	-0.163	-0.180
-361.654	42.992	-0.174	0.157
-360.639	146.180	0.043	0.057
-359.625	-38.092	0.224	-0.117
-358.610	29.930	-0.172	-0.145
-357.596	800.000	-0.038	-0.156
-356.581	-200.000	0.018	-0.080
-355.566	-200.000	-0.062	0.409
-354.552	-133.846	-0.318	-0.039
-353.537	771.897	-0.141	-0.380
-352.523	-10.297	0.134	0.088
-351.508	-200.000	-0.061	-0.472
-350.493	427.999	0.048	-0.103
-349.479	667.522	0.094	0.241
-348.464	-57.994	-0.051	0.022
-347.450	-200.000	0.073	0.440
-346.435	29.509	-0.072	-0.061
-345.420	1.458	0.179	-0.127
-344.406	-80.816	0.054	-0.018
-343.391	-37.759	-0.076	-0.040
-342.377	-200.000	0.009	-0.099
-341.362	-89.204	-0.052	-0.015
-340.348	22.063	0.208	-0.167
-339.333	47.789	-0.174	0.161
-338.318	-153.074	0.360	-0.025
-337.304	191.237	-0.059	-0.087
-336.289	788.398	-0.159	-0.430
-335.275	-63.059	-0.328	-0.134
-334.260	-125.016	0.438	-0.066
-333.245	-93.555	-0.273	-0.074
-332.231	-72.229	0.184	-0.067
-331.216	-19.641	-0.247	0.151
-330.202	-113.167	0.303	0.059
-329.187	-112.182	0.345	0.068
-328.172	267.470	-0.043	0.074
-327.158	-16.172	0.191	-0.119
-326.143	-200.000	-0.016	-0.235
-325.129	-119.076	0.071	-0.012
-324.114	-56.242	-0.274	0.120
-323.099	150.014	0.175	0.234
-322.085	800.000	0.105	0.378
-321.070	800.000	-0.099	-0.398
-320.056	69.951	-0.041	0.041
-319.041	138.621	0.136	0.177
-318.026	-60.023	-0.203	0.085
-317.012	800.000	-0.136	-0.546
-315.997	796.474	-0.072	-0.196
-314.983	-200.000	-0.066	0.315
-313.968	-85.161	-0.373	0.115
-312.953	57.880	-0.128	-0.124
-311.939	-60.639	-0.083	-0.035
-310.924	421.464	-0.101	0.213
-309.910	-188.122	-0.087	-0.001
-308.895	-23.861	0.087	0.051
-307.880	-200.000	0.023	-0.195
-306.866	615.404	-0.136	-0.336
-305.851	800.000	-0.024	-0.089
-304.837	-124.219	0.344	-0.053
-303.822	-200.000	-0.206	0.001
-302.807	-200.000	0.043	0.425
-301.793	7.439	-0.100	-0.074
-300.778	-75.110	0.259	0.091
-299.764	-200.000	-0.009	0.133
-298.749	25.930	-0.142	-0.117
-297.735	-200.000	0.006	-0.051
-296.720	81.281	0.396	-0.421
-295.705	66.062	-0.125	0.125
-294.691	259.577	-0.099	-0.168
-293.676	-66.114	-0.056	0.022
-292.662	94.037	0.151	-0.168
-291.647	19.636	-0.127	-0.101
-290.632	29.932	-0.109	-0.092
-289.618	-176.126	-0.139	-0.004
-288.603	32.030	0.027	0.023
-287.589	112.366	0.096	0.115
-286.574	-200.000	-0.001	0.153
-285.559	-200.000	-0.017	-0.191
-284.545	39.127	0.057	0.050
-283.530	-200.000	0.000	0.187
-282.516	800.000	-0.122	0.364
-281.501	130.326	-0.177	-0.224
-280.486	-94.082	-0.146	-0.040
-279.472	-116.308	-0.157	0.029
-278.457	-43.958	0.107	0.053
-277.443	310.381	0.208	-0.383
-276.428	219.426	-0.147	-0.232
-275.413	67.436	0.166	0.167
-274.399	-77.674	0.143	0.049
-273.384	-6.646	-0.190	-0.127
-272.370	-87.157	-0.205	-0.061
-271.355	-200.000	0.007	-0.257
-270.340	-153.684	0.244	-0.017
-269.326	-200.000	-0.022	-0.299
-268.311	58.542	0.117	0.113
-267.297	121.212	-0.156	0.191
-266.282	-64.635	0.251	0.100
-265.267	517.831	0.032	-0.074
-264.253	85.837	0.055	-0.059
-263.238	-200.000	0.015	0.233
-262.224	45.490	-0.137	0.124
-261.209	106.288	-0.113	-0.132
-260.195	-27.050	0.296	-0.170
-259.180	-89.871	0.151	-0.043
-258.165	-148.689	0.296	-0.024
-257.151	172.073	0.152	0.215
-256.136	-14.133	0.103	-0.065
-255.122	42.818	-0.308	0.276
-254.107	123.310	0.270	0.333
-253.092	-77.803	-0.063	-0.021
-252.078	19.962	0.029	-0.023
-251.063	501.801	0.177	-0.403
-250.049	-72.489	-0.136	-0.049
-249.034	11.879	0.216	-0.163
-248.019	-200.000	0.030	0.175
-247.005	45.853	-0.119	-0.108
-245.990	452.070	0.114	-0.247
-244.976	487.260	-0.029	0.064
-243.961	138.931	-0.044	-0.057
-242.946	555.713	0.046	0.108
-241.932	-37.471	0.366	0.192
-240.917	-67.974	-0.200	0.077
-239.903	-200.000	-0.012	0.222
-238.888	-138.461	0.236	-0.026
-237.873	713.976	0.078	0.204
-236.859	-51.035	-0.216	0.099
-235.844	65.080	-0.161	0.160
-234.830	-18.638	0.303	-0.186
-233.815	-31.723	-0.378	-0.208
-232.800	-60.715	-0.192	-0.080
-231.786	239.344	-0.094	-0.154
-230.771	-200.000	0.048	-0.331
-229.757	-162.414	0.236	-0.011
-228.742	87.500	-0.022	0.024
-227.727	800.000	0.021	0.074
-226.713	-136.682	-0.270	-0.031
-225.698	800.000	0.031	0.125
-224.684	-146.372	0.054	-0.005
-223.669	-200.000	0.428	-0.001
-222.655	-199.231	-0.379	-0.002
-221.640	-53.507	0.109	0.049
-220.625	-200.000	0.049	-0.212
-219.611	-50.277	-0.137	-0.064
-218.596	5.464	0.244	-0.177
-217.582	-92.221	0.131	-0.036
-216.567	-59.314	0.091	0.038
-215.552	800.000	-0.080	-0.230
-214.538	-44.582	0.121	0.060
-213.523	323.586	0.052	0.098
-212.509	458.111	-0.019	0.042
-211.494	-200.000	0.013	0.112
-210.479	-73.615	-0.258	0.092
-209.465	-30.581	-0.117	-0.065
-208.450	-200.000	-0.086	0.467
-207.436	-24.645	0.179	-0.104
-206.421	-200.000	0.017	0.518
-205.406	-200.000	-0.036	0.284
-204.392	220.206	0.073	-0.115
-203.377	-117.544	0.046	-0.008
-202.363	320.236	-0.095	0.177
-201.348	800.000	0.061	0.212
-200.333	-77.118	0.194	0.066
-199.319	-200.000	-0.049	0.332
-198.304	-200.000	-0.052	-0.287
-197.290	-197.812	-0.313	-0.002
-196.275	800.000	0.048	0.157
-195.260	120.615	0.106	0.129
-194.246	-200.000	-0.029	0.191
-193.231	-29.630	-0.115	0.065
-192.217	-200.000	-0.028	0.365
-191.202	-200.000	0.032	-0.183
-190.187	-161.124	-0.300	0.015
-189.173	-200.000	0.060	-0.347
-188.158	84.053	-0.080	-0.085
-187.144	82.809	-0.204	0.218
-186.129	-128.848	0.212	-0.029
-185.114	-200.000	0.058	-0.296
-184.100	-200.000	-0.034	0.183
-183.085	-200.000	0.004	0.172
-182.071	-200.000	0.017	0.140
-181.056	668.766	0.054	0.136
-180.042	153.300	-0.037	-0.050
-179.027	-128.284	-0.402	0.056
-178.012	19.549	0.444	0.350
-176.998	-72.931	-0.296	0.107
-175.983	-200.000	-0.009	0.079
-174.969	800.000	0.079	-0.222
-173.954	405.183	-0.070	0.145
-172.939	-200.000	-0.026	0.346
-171.925	-60.751	-0.390	0.162
-170.910	454.862	-0.061	0.132
-169.896	135.861	-0.171	-0.218
-168.881	-52.830	0.309	-0.140
-167.866	171.131	0.023	-0.033
-166.852	520.764	0.084	-0.194
-165.837	-125.072	-0.219	0.033
-164.823	-138.055	0.207	-0.023
-163.808	-200.000	-0.022	0.478
-162.793	-110.486	0.229	0.046
-161.779	-141.631	-0.442	0.044
-160.764	-200.000	0.006	-0.032
-159.750	-200.000	0.061	0.440
-158.735	256.216	0.091	0.153
-157.720	-106.053	-0.109	-0.024
-156.706	0.837	-0.106	0.074
-155.691	195.905	0.074	0.110
-154.677	-135.841	0.353	0.041
-153.662	-200.000	-0.023	-0.412
-152.647	35.837	0.263	0.227
-151.633	-47.963	0.310	0.147
-150.618	114.881	0.226	0.270
-149.604	48.982	-0.198	0.182
-148.589	96.340	-0.076	0.085
-147.574	800.000	-0.016	0.046
-146.560	-117.575	0.078	0.014
-145.545	194.784	-0.139	-0.207
-144.531	-129.169	0.241	0.033
-143.516	-200.000	-0.010	-0.082
-142.502	-20.923	0.106	-0.064
-141.487	-200.000	0.057	-0.485
-140.472	-87.995	0.360	0.106
-139.458	173.022	0.104	-0.147
-138.443	-91.158	0.128	-0.036
-137.429	459.357	0.031	-0.069
-136.414	190.449	0.127	-0.186
-135.399	-200.000	-0.013	0.324
-134.385	137.568	-0.023	0.029
-133.370	-69.994	-0.114	0.042
-132.356	-48.045	-0.260	-0.123
-131.341	63.287	-0.028	-0.027
-130.326	-51.467	0.152	0.069
-129.312	-92.972	-0.285	-0.078
-128.297	268.935	-0.082	-0.142
-127.283	-200.000	0.015	0.170
-126.268	-154.491	0.225	0.015
-125.253	196.403	0.139	-0.208
-124.239	8.524	-0.090	-0.066
-123.224	-90.889	0.187	0.053
-122.210	-22.101	0.234	-0.139
