DTS Sentinel unit serial number:	SN413079Multiplexer serial number:	ORYXHardware model number:	OX4-SRSoftware version number:	ORYX F/W v4.00 Oryx Data Collector v3.7.2.0data status	okinstallation	princeton_trtdifferential loss correction	single-endedforward channel	channel 4reverse channel	N/Adate	2019/09/15time	05:41:35forward acquisition time	60.00reverse acquisition time	0.00gamma	496.2192k internal	0.2312k external	0.2312temperature offset calibration	1.0030default loss term (dB/km)	0.3790temperature slope calibration	1.0000multiplexer offset coefficient	1.0000multiplexer slope coefficient	1.0000fibre end	0.00T internal ref (°C)	30.62T ext. ref 1 (°C)	4.77T ext. ref 2 (°C)	25.75length (m)	temperature (°C)	Stokes	anti-Stokes-747.200	511.796	-0.118	-0.279
-746.185	-67.973	-0.255	0.101
-745.171	136.441	-0.110	0.145
-744.156	-151.049	-0.265	-0.020
-743.142	365.666	0.151	-0.308
-742.127	194.233	-0.044	-0.068
-741.112	41.175	-0.111	0.101
-740.098	-200.000	0.019	0.296
-739.083	84.058	0.090	-0.100
-738.069	-34.767	-0.399	0.221
-737.054	183.331	0.116	0.173
-736.039	-112.615	-0.124	0.025
-735.025	-38.763	0.169	0.091
-734.010	-7.851	-0.048	0.033
-732.996	-141.281	-0.198	0.020
-731.981	-1.516	-0.194	-0.139
-730.966	244.733	0.323	-0.550
-729.952	-91.828	-0.185	0.053
-728.937	272.503	-0.070	-0.125
-727.923	26.761	0.247	-0.210
-726.908	9.432	0.277	-0.212
-725.894	-36.310	-0.098	-0.054
-724.879	-47.633	-0.379	-0.187
-723.864	-111.800	-0.455	-0.093
-722.850	49.865	-0.059	-0.056
-721.835	-117.962	-0.080	-0.015
-720.821	372.976	-0.240	-0.494
-719.806	-46.649	0.115	0.057
-718.791	800.000	0.111	-0.318
-717.777	48.607	0.088	0.084
-716.762	48.250	-0.295	-0.280
-715.748	583.696	0.104	0.258
-714.733	-68.655	-0.116	-0.046
-713.718	280.447	-0.088	-0.159
-712.704	-200.000	0.011	0.203
-711.689	32.680	0.304	0.266
-710.675	-19.391	-0.197	-0.124
-709.660	-0.284	0.128	-0.092
-708.645	-57.133	0.245	-0.109
-707.631	-51.402	-0.201	-0.095
-706.616	214.618	0.171	0.275
-705.602	-200.000	0.019	0.221
-704.587	-200.000	0.006	0.443
-703.572	97.834	-0.217	-0.252
-702.558	53.815	0.194	-0.189
-701.543	376.428	-0.035	-0.072
-700.529	800.000	0.035	-0.111
-699.514	272.439	-0.317	0.566
-698.499	181.345	0.024	-0.036
-697.485	145.243	-0.184	0.249
-696.470	-116.408	-0.399	-0.075
-695.456	800.000	-0.052	0.147
-694.441	133.837	-0.051	-0.067
-693.426	397.988	-0.060	0.128
-692.412	-200.000	-0.011	-0.154
-691.397	-88.707	0.275	0.083
-690.383	-88.395	-0.142	-0.043
-689.368	-69.879	-0.184	0.071
-688.354	-200.000	-0.021	-0.179
-687.339	-200.000	0.039	0.196
-686.324	5.155	-0.100	-0.075
-685.310	800.000	-0.085	0.315
-684.295	-65.275	0.124	0.050
-683.281	-140.841	0.215	-0.022
-682.266	-200.000	0.017	-0.198
-681.251	-90.464	-0.190	-0.056
-680.237	-55.300	-0.246	-0.112
-679.222	-102.225	0.335	0.081
-678.208	-82.682	0.194	0.064
-677.193	-152.973	-0.149	0.011
-676.178	243.461	-0.073	-0.125
-675.164	678.854	-0.097	-0.255
-674.149	-200.000	0.006	-0.129
-673.135	-86.727	0.132	0.041
-672.120	-16.356	0.204	0.131
-671.105	-49.215	-0.203	-0.098
-670.091	800.000	-0.074	0.218
-669.076	-156.702	0.046	-0.003
-668.062	635.525	0.106	-0.272
-667.047	-51.824	-0.174	-0.082
-666.032	-200.000	0.038	-0.361
-665.018	-110.455	0.264	-0.055
-664.003	230.817	0.077	-0.128
-662.989	-71.519	-0.228	-0.086
-661.974	-200.000	-0.009	0.130
-660.959	261.176	0.147	-0.257
-659.945	36.401	0.220	-0.196
-658.930	451.439	0.089	0.198
-657.916	-166.823	0.081	0.003
-656.901	-200.000	0.031	-0.227
-655.886	68.995	0.178	-0.185
-654.872	-200.000	-0.008	-0.178
-653.857	-114.230	-0.482	-0.094
-652.843	800.000	-0.052	0.221
-651.828	153.144	0.263	-0.364
-650.814	626.020	0.060	0.154
-649.799	-89.163	-0.365	0.109
-648.784	-74.053	0.223	-0.082
-647.770	12.995	-0.242	0.189
-646.755	51.398	-0.113	-0.109
-645.741	477.464	-0.100	-0.229
-644.726	-145.624	0.303	0.027
-643.711	800.000	0.030	0.114
-642.697	-200.000	-0.016	-0.107
-641.682	-58.794	-0.496	0.217
-640.668	74.369	-0.048	0.051
-639.653	78.204	0.213	-0.230
-638.638	-88.472	-0.276	-0.083
-637.624	-12.581	-0.193	0.127
-636.609	-127.888	-0.238	0.035
-635.595	162.003	0.107	-0.151
-634.580	-200.000	-0.019	0.131
-633.565	-200.000	-0.007	0.095
-632.551	-148.595	0.348	-0.029
-631.536	800.000	0.055	0.192
-630.522	-116.943	-0.235	-0.043
-629.507	251.197	-0.116	0.199
-628.492	-83.144	0.120	-0.039
-627.478	557.296	-0.023	-0.055
-626.463	-113.259	-0.147	0.029
-625.449	-114.797	0.160	-0.031
-624.434	-18.694	0.184	0.116
-623.419	-146.829	-0.296	0.026
-622.405	282.814	0.188	-0.341
-621.390	-200.000	-0.020	-0.323
-620.376	-200.000	-0.027	0.283
-619.361	553.262	0.150	0.365
-618.346	-10.522	-0.241	-0.161
-617.332	377.798	0.181	-0.373
-616.317	-200.000	0.003	-0.036
-615.303	87.520	0.043	0.048
-614.288	-51.136	-0.161	-0.076
-613.273	-60.936	0.199	-0.085
-612.259	-36.752	0.198	0.108
-611.244	-66.595	-0.101	0.040
-610.230	-4.247	0.324	-0.226
-609.215	43.648	-0.089	0.082
-608.201	200.209	0.092	0.142
-607.186	-110.629	-0.148	0.031
-606.171	-200.000	-0.029	-0.186
-605.157	40.194	0.186	-0.169
-604.142	43.212	0.140	-0.129
-603.128	-132.193	-0.239	-0.031
-602.113	248.379	-0.179	-0.306
-601.098	-200.000	0.304	-0.000
-600.084	25.175	-0.105	-0.088
-599.069	44.157	0.313	-0.289
-598.055	-200.000	0.013	-0.305
-597.040	246.625	-0.099	0.169
-596.025	148.365	0.140	0.190
-595.011	-70.434	0.149	0.057
-593.996	-142.683	-0.495	-0.049
-592.982	800.000	-0.073	-0.253
-591.967	667.695	-0.088	0.230
-590.952	197.630	0.096	-0.148
-589.938	-152.456	0.159	0.012
-588.923	-184.051	-0.108	-0.002
-587.909	-42.827	0.115	-0.059
-586.894	-200.000	0.019	-0.194
-585.879	424.810	0.075	-0.164
-584.865	-162.273	-0.135	0.007
-583.850	-49.016	0.089	-0.043
-582.836	559.759	0.049	-0.120
-581.821	-200.000	0.055	-0.307
-580.806	-58.043	-0.335	-0.147
-579.792	-145.436	0.173	0.016
-578.777	-99.108	-0.179	-0.046
-577.763	-125.303	-0.205	0.032
-576.748	-116.570	0.153	-0.029
-575.733	71.549	0.098	-0.102
-574.719	-142.186	-0.150	-0.015
-573.704	-43.533	-0.134	-0.068
-572.690	-61.781	0.153	0.065
-571.675	-138.522	-0.260	-0.029
-570.661	-200.000	-0.033	-0.244
-569.646	-115.961	0.051	-0.010
-568.631	38.769	0.077	-0.069
-567.617	-36.358	-0.314	-0.171
-566.602	-200.000	-0.020	-0.153
-565.588	-166.883	0.153	0.006
-564.573	-38.095	-0.162	0.086
-563.558	310.259	-0.071	0.134
-562.544	-200.000	0.004	0.028
-561.529	760.503	0.024	0.065
-560.515	-33.978	0.240	-0.133
-559.500	-131.223	0.304	-0.041
-558.485	-114.425	0.159	0.031
-557.471	-200.000	0.048	-0.232
-556.456	388.644	0.045	0.094
-555.442	-92.846	-0.239	0.067
-554.427	73.176	0.076	0.080
-553.412	105.777	0.129	-0.153
-552.398	-149.584	-0.306	-0.024
-551.383	-149.414	-0.240	0.019
-550.369	-200.000	-0.068	-0.453
-549.354	800.000	0.065	0.207
-548.339	-87.275	-0.069	-0.021
-547.325	-135.800	0.051	-0.006
-546.310	-103.681	-0.039	0.009
-545.296	191.912	-0.067	0.102
-544.281	-92.450	0.311	0.088
-543.266	-32.438	-0.199	-0.112
-542.252	800.000	0.133	-0.376
-541.237	-200.000	-0.247	-0.000
-540.223	126.222	0.053	0.067
-539.208	193.518	0.137	-0.208
-538.193	-123.122	0.071	0.012
-537.179	-54.106	0.233	-0.107
-536.164	-151.678	0.086	-0.006
-535.150	314.712	-0.149	-0.282
-534.135	699.729	-0.050	-0.133
-533.121	800.000	-0.041	-0.144
-532.106	108.067	-0.138	-0.166
-531.091	-173.590	-0.291	-0.009
-530.077	-181.629	-0.033	-0.001
-529.062	384.278	0.238	0.493
-528.048	27.318	-0.110	-0.093
-527.033	-200.000	-0.002	0.147
-526.018	0.824	0.144	0.104
-525.004	41.655	0.241	-0.220
-523.989	-100.900	-0.160	0.040
-522.975	438.059	0.029	-0.063
-521.960	-56.738	0.159	0.071
-520.945	-106.035	0.062	-0.014
-519.931	-50.228	0.141	-0.067
-518.916	25.253	0.037	0.031
-517.902	-11.440	-0.074	0.049
-516.887	-109.073	0.142	0.030
-515.872	-40.169	-0.445	-0.233
-514.858	297.377	-0.054	-0.100
-513.843	-121.946	0.035	-0.006
-512.829	-200.000	0.009	-0.149
-511.814	800.000	0.062	0.212
-510.799	-200.000	-0.049	0.291
-509.785	260.240	0.129	0.225
-508.770	-112.602	0.277	0.056
-507.756	-2.701	0.131	-0.092
-506.741	15.807	0.253	-0.200
-505.726	-2.554	-0.116	0.082
-504.712	110.147	-0.023	-0.028
-503.697	29.058	0.077	0.066
-502.683	219.357	-0.149	0.240
-501.668	-54.358	0.108	0.049
-500.653	-200.000	0.034	0.161
-499.639	177.958	0.160	-0.235
-498.624	-200.000	0.055	0.245
-497.610	242.645	0.114	-0.192
-496.595	-200.000	0.003	0.121
-495.581	37.289	0.095	-0.084
-494.566	-200.000	-0.012	-0.109
-493.551	11.994	0.064	0.049
-492.537	170.957	0.029	0.042
-491.522	-27.734	-0.138	-0.081
-490.508	-63.048	0.272	-0.113
-489.493	-162.923	0.445	0.022
-488.478	800.000	0.086	-0.267
-487.464	-61.938	-0.302	-0.127
-486.449	-1.182	-0.164	-0.116
-485.435	-200.000	-0.009	0.083
-484.420	-101.530	-0.130	0.032
-483.405	-200.000	-0.005	-0.182
-482.391	61.880	0.192	-0.193
-481.376	-200.000	0.035	-0.175
-480.362	88.353	0.023	-0.026
-479.347	-22.591	0.257	0.156
-478.332	-94.668	-0.250	0.068
-477.318	-35.503	0.116	0.063
-476.303	174.756	-0.193	-0.280
-475.289	-159.336	0.046	-0.003
-474.274	-26.942	0.135	-0.079
-473.259	197.681	-0.078	-0.120
-472.245	534.357	0.094	0.225
-471.230	484.264	0.079	-0.180
-470.216	-8.359	-0.397	0.268
-469.201	118.289	-0.115	-0.142
-468.186	139.476	-0.212	-0.280
-467.172	-200.000	0.056	0.254
-466.157	-133.785	-0.038	-0.005
-465.143	566.166	-0.014	0.033
-464.128	-141.552	0.297	0.030
-463.113	-168.801	-0.222	0.008
-462.099	-153.989	-0.285	-0.019
-461.084	560.046	0.084	0.204
-460.070	-139.069	-0.170	-0.018
-459.055	-200.000	-0.005	0.144
-458.040	-200.000	-0.031	0.205
-457.026	361.504	0.126	0.254
-456.011	-118.774	0.187	0.033
-454.997	373.276	0.183	0.374
-453.982	-1.873	-0.210	-0.148
-452.968	-54.634	-0.133	-0.061
-451.953	-200.000	-0.012	0.108
-450.938	-67.283	-0.284	-0.112
-449.924	-154.364	0.191	0.013
-448.909	-164.066	-0.111	0.005
-447.895	-69.977	0.285	-0.109
-446.880	-129.737	-0.035	-0.005
-445.865	-200.000	-0.010	-0.099
-444.851	-63.279	-0.161	0.066
-443.836	-12.903	-0.174	0.113
-442.822	-42.220	-0.147	0.075
-441.807	-88.056	-0.327	0.098
-440.792	-200.000	0.031	0.198
-439.778	-200.000	-0.022	0.102
-438.763	271.259	-0.047	-0.083
-437.749	83.360	-0.087	0.095
-436.734	414.430	0.282	0.603
-435.719	-184.232	-0.173	-0.003
-434.705	349.070	0.023	-0.046
-433.690	319.734	0.024	0.046
-432.676	800.000	0.100	0.285
-431.661	-200.000	-0.030	-0.150
-430.646	339.615	-0.187	0.366
-429.632	-154.192	-0.217	-0.015
-428.617	448.537	0.029	0.065
-427.603	-58.228	-0.377	-0.164
-426.588	-20.750	-0.287	-0.176
-425.573	-50.482	0.249	0.118
-424.559	800.000	-0.036	0.156
-423.544	466.846	0.150	0.336
-422.530	755.548	0.023	-0.062
-421.515	-200.000	-0.025	0.112
-420.500	-108.278	-0.312	-0.068
-419.486	-200.000	0.019	-0.206
-418.471	800.000	0.040	-0.132
-417.457	800.000	0.068	0.258
-416.442	313.563	0.097	-0.182
-415.428	351.875	0.060	-0.119
-414.413	533.680	-0.116	0.275
-413.398	-200.000	-0.017	-0.604
-412.384	800.000	-0.056	-0.218
-411.369	40.324	-0.121	-0.109
-410.355	-5.409	-0.245	0.168
-409.340	-200.000	0.030	0.150
-408.325	-76.818	-0.119	-0.042
-407.311	383.089	0.039	0.081
-406.296	600.605	-0.084	-0.209
-405.282	800.000	0.131	0.398
-404.267	-87.569	-0.334	-0.101
-403.252	75.838	0.028	-0.030
-402.238	335.195	0.087	0.170
-401.223	-74.124	0.275	-0.100
-400.209	568.500	-0.083	0.202
-399.194	-25.654	-0.191	-0.113
-398.179	-35.825	0.132	-0.072
-397.165	34.613	0.264	0.231
-396.150	83.804	0.156	-0.170
-395.136	272.656	-0.105	-0.186
-394.121	261.096	-0.080	-0.139
-393.106	-108.932	0.117	0.025
-392.092	26.165	0.199	-0.166
-391.077	158.500	-0.109	0.151
-390.063	54.218	0.276	0.266
-389.048	154.802	0.088	0.121
-388.033	-146.282	-0.145	0.013
-387.019	637.721	-0.147	0.375
-386.004	-119.219	0.192	-0.034
-384.990	-200.000	0.002	0.173
-383.975	-35.433	0.228	-0.124
-382.960	800.000	0.051	-0.187
-381.946	800.000	-0.022	0.081
-380.931	800.000	0.013	-0.044
-379.917	466.758	-0.045	-0.102
-378.902	-96.162	0.386	0.103
-377.888	43.169	0.108	-0.098
-376.873	105.441	-0.096	0.114
-375.858	-96.929	-0.134	-0.035
-374.844	-62.688	-0.036	0.015
-373.829	-157.662	0.228	0.014
-372.815	112.565	0.111	-0.135
-371.800	-200.000	-0.013	-0.258
-370.785	-156.413	-0.037	0.002
-369.771	-76.437	0.152	-0.054
-368.756	195.106	-0.125	0.190
-367.742	395.288	0.138	-0.288
-366.727	800.000	-0.012	-0.039
-365.712	673.096	0.104	0.270
-364.698	-137.038	-0.173	0.020
-363.683	131.025	-0.067	-0.086
-362.669	-158.303	-0.143	-0.008
-361.654	477.096	-0.151	0.342
-360.639	-152.461	-0.226	-0.016
-359.625	310.671	-0.035	-0.065
-358.610	37.043	0.159	0.140
-357.596	-200.000	0.009	-0.282
-356.581	-30.756	-0.128	0.072
-355.566	-64.097	-0.271	0.110
-354.552	438.896	-0.125	-0.273
-353.537	61.703	0.195	0.194
-352.523	-5.171	-0.083	-0.057
-351.508	-200.000	0.013	0.222
-350.493	81.431	0.133	-0.144
-349.479	-73.935	-0.085	0.031
-348.464	174.579	-0.211	0.305
-347.450	125.628	-0.131	-0.166
-346.435	176.933	-0.127	-0.185
-345.420	-200.000	-0.001	0.180
-344.406	48.581	0.246	0.230
-343.391	800.000	-0.056	0.189
-342.377	-53.169	-0.278	-0.128
-341.362	312.686	0.034	-0.064
-340.348	76.728	0.085	0.090
-339.333	-200.000	0.022	0.196
-338.318	800.000	-0.047	-0.189
-337.304	127.171	0.062	-0.079
-336.289	-200.000	0.006	0.053
-335.275	-124.970	0.210	0.032
-334.260	-200.000	0.039	0.271
-333.245	-110.050	-0.396	-0.083
-332.231	414.961	-0.027	0.058
-331.216	-200.000	0.016	0.073
-330.202	-79.964	0.066	0.022
-329.187	-55.745	0.315	-0.141
-328.172	-10.689	0.189	0.125
-327.158	207.446	0.093	0.145
-326.143	178.760	0.087	-0.127
-325.129	209.579	-0.106	-0.165
-324.114	-116.346	-0.309	0.057
-323.099	49.612	-0.169	-0.159
-322.085	39.551	-0.131	-0.118
-321.070	-10.544	-0.089	0.059
-320.056	800.000	0.016	-0.070
-319.041	-46.079	0.017	0.008
-318.026	135.860	-0.172	-0.224
-317.012	167.116	-0.123	-0.175
-315.997	71.356	0.193	0.200
-314.983	-111.587	0.111	-0.022
-313.968	131.797	0.171	-0.220
-312.953	-121.719	0.040	-0.007
-311.939	800.000	-0.094	0.394
-310.924	-200.000	0.005	-0.090
-309.910	126.218	0.269	-0.340
-308.895	285.192	-0.231	0.415
-307.880	-200.000	-0.005	-0.030
-306.866	-200.000	0.057	-0.320
-305.851	-200.000	0.057	0.391
-304.837	-101.103	0.080	-0.019
-303.822	-60.448	-0.188	0.080
-302.807	-138.398	-0.161	0.018
-301.793	-6.056	0.158	-0.108
-300.778	12.834	0.098	-0.076
-299.764	590.290	0.138	-0.339
-298.749	174.830	0.176	-0.254
-297.735	274.739	-0.093	-0.165
-296.720	800.000	0.103	0.320
-295.705	258.170	-0.128	0.219
-294.691	-200.000	-0.016	-0.416
-293.676	-200.000	-0.011	0.244
-292.662	153.579	0.095	0.129
-291.647	-200.000	0.040	0.371
-290.632	-100.318	-0.065	-0.016
-289.618	800.000	0.094	0.263
-288.603	-25.805	-0.433	0.255
-287.589	-200.000	0.018	0.284
-286.574	-200.000	-0.006	0.464
-285.559	-5.727	0.107	0.073
-284.545	-200.000	-0.012	0.258
-283.530	49.792	-0.150	-0.141
-282.516	-181.902	-0.341	0.006
-281.501	-200.000	0.009	0.087
-280.486	24.554	-0.083	0.068
-279.472	-139.406	-0.177	-0.019
-278.457	-200.000	0.004	-0.214
-277.443	-65.218	-0.145	-0.058
-276.428	-200.000	-0.033	-0.250
-275.413	800.000	0.051	-0.223
-274.399	529.064	-0.056	-0.132
-273.384	-78.544	0.369	0.126
-272.370	-200.000	0.049	-0.304
-271.355	50.580	0.170	-0.160
-270.340	-101.792	-0.365	0.088
-269.326	-86.641	-0.171	-0.052
-268.311	800.000	0.115	0.337
-267.297	800.000	0.054	0.181
-266.282	74.526	0.167	0.175
-265.267	-169.781	0.432	0.016
-264.253	-200.000	-0.005	-0.056
-263.238	17.177	0.141	0.111
-262.224	135.191	-0.053	0.068
-261.209	-121.193	-0.213	0.036
-260.195	800.000	0.011	-0.046
-259.180	800.000	-0.065	-0.268
-258.165	-117.051	0.190	-0.035
-257.151	-200.000	0.004	-0.050
-256.136	155.381	0.168	0.230
-255.122	-78.551	0.120	0.041
-254.107	264.282	0.122	0.212
-253.092	-200.000	0.016	0.124
-252.078	-200.000	0.075	0.330
-251.063	-30.708	0.064	0.036
-250.049	31.577	-0.244	-0.209
-249.034	573.817	0.062	-0.151
-248.019	157.597	0.143	0.197
-247.005	462.006	-0.168	0.372
-245.990	-69.584	0.275	0.105
-244.976	127.417	-0.056	0.070
-243.961	-31.420	-0.156	-0.087
-242.946	-200.000	0.008	0.380
-241.932	800.000	-0.061	0.188
-240.917	-36.204	0.285	-0.153
-239.903	-5.265	-0.348	-0.238
-238.888	51.754	-0.059	-0.056
-237.873	-106.676	0.225	0.050
-236.859	800.000	-0.031	-0.087
-235.844	-89.660	-0.264	-0.077
-234.830	-21.630	0.197	-0.120
-233.815	30.391	-0.148	-0.125
-232.800	-76.950	-0.144	0.050
-231.786	370.317	-0.084	-0.170
-230.771	-67.176	0.142	0.056
-229.757	-180.501	0.175	-0.004
-228.742	800.000	0.027	0.089
-227.727	-194.879	0.449	-0.003
-226.713	-200.000	0.010	-0.063
-225.698	150.442	0.219	-0.295
-224.684	386.633	0.121	0.249
-223.669	188.425	0.151	0.224
-222.655	-173.979	-0.270	-0.008
-221.640	-130.058	-0.392	0.053
-220.625	336.740	0.119	-0.229
-219.611	151.395	0.045	-0.061
-218.596	-152.745	-0.139	-0.010
-217.582	-123.911	0.223	0.035
-216.567	145.523	-0.180	-0.239
-215.552	41.048	-0.195	-0.175
-214.538	202.385	0.158	-0.243
-213.523	-75.374	-0.434	-0.154
-212.509	-200.000	-0.036	-0.206
-211.494	-200.000	-0.030	-0.226
-210.479	-34.602	-0.057	-0.031
-209.465	-38.105	0.174	0.092
-208.450	-68.392	-0.101	0.039
-207.436	-200.000	0.005	0.320
-206.421	261.288	-0.123	0.212
-205.406	367.029	0.097	-0.194
-204.392	-200.000	0.033	0.183
-203.377	-26.280	0.228	0.133
-202.363	316.657	-0.135	0.253
-201.348	-22.349	0.087	0.053
-200.333	800.000	-0.050	-0.191
-199.319	-9.502	0.210	0.139
-198.304	-200.000	-0.017	-0.145
-197.290	800.000	-0.052	0.162
-196.275	800.000	0.081	0.242
-195.260	-66.112	0.213	0.084
-194.246	103.458	0.078	-0.091
-193.231	-23.145	0.207	0.124
-192.217	-200.000	0.005	0.036
-191.202	388.173	-0.059	-0.122
-190.187	790.599	0.096	-0.262
-189.173	20.846	-0.096	0.077
-188.158	131.595	0.055	0.071
-187.144	-52.903	-0.267	0.122
-186.129	124.623	0.110	-0.137
-185.114	-129.093	0.431	-0.060
-184.100	-93.889	-0.292	0.080
-183.085	470.489	-0.041	-0.093
-182.071	-42.624	-0.068	-0.035
-181.056	98.328	0.105	-0.120
-180.042	-104.628	0.211	-0.048
-179.027	545.723	-0.199	-0.473
-178.012	-74.778	0.247	0.088
-176.998	-116.887	0.318	-0.058
-175.983	491.623	-0.092	-0.210
-174.969	139.743	0.027	-0.036
-173.954	-118.860	0.241	0.042
-172.939	-200.000	-0.047	0.208
-171.925	-25.483	0.027	0.016
-170.910	-70.546	0.324	0.122
-169.896	-63.527	0.269	0.109
-168.881	167.126	-0.081	-0.115
-167.866	127.910	-0.087	0.110
-166.852	-200.000	-0.011	0.081
-165.837	213.157	0.029	-0.045
-164.823	-18.468	-0.190	0.118
-163.808	-129.755	-0.266	0.036
-162.793	-88.868	0.142	-0.042
-161.779	255.666	-0.015	-0.026
-160.764	225.835	-0.202	0.324
-159.750	-185.774	0.273	-0.004
-158.735	-11.836	0.027	-0.018
-157.720	260.548	-0.095	0.162
-156.706	-182.603	0.309	0.006
-155.691	65.940	-0.120	-0.120
-154.677	-200.000	-0.003	0.085
-153.662	43.447	0.036	-0.033
-152.647	-45.939	-0.166	-0.081
-151.633	75.976	-0.213	0.223
-150.618	-24.969	-0.153	0.090
-149.604	47.015	0.185	-0.170
-148.589	-200.000	-0.013	0.151
-147.574	47.379	0.065	0.060
-146.560	86.847	-0.105	0.115
-145.545	-176.541	-0.219	0.006
-144.531	264.228	-0.099	-0.171
-143.516	800.000	-0.033	-0.140
-142.502	738.236	-0.035	0.093
-141.487	-22.929	-0.230	-0.138
-140.472	-128.667	0.189	0.026
-139.458	-66.240	0.177	-0.070
-138.443	-36.989	0.091	-0.048
-137.429	551.428	-0.053	0.127
-136.414	69.122	0.122	0.124
-135.399	176.364	0.129	0.185
-134.385	770.135	0.057	0.154
-133.370	800.000	-0.019	-0.053
-132.356	170.828	0.187	-0.266
-131.341	-200.000	0.033	-0.167
-130.326	21.114	0.120	-0.097
-129.312	459.880	0.206	-0.455
-128.297	-115.936	0.475	0.088
-127.283	-68.255	0.050	-0.019
-126.268	580.919	0.112	-0.271
-125.253	135.327	0.132	-0.170
-124.239	80.140	0.223	0.238
-123.224	-141.673	-0.289	-0.029
