DTS Sentinel unit serial number:	SN413079Multiplexer serial number:	ORYXHardware model number:	OX4-SRSoftware version number:	ORYX F/W v4.00 Oryx Data Collector v3.7.2.0data status	okinstallation	princeton_trtdifferential loss correction	single-endedforward channel	channel 4reverse channel	N/Adate	2019/09/15time	11:29:35forward acquisition time	60.00reverse acquisition time	0.00gamma	496.2192k internal	0.2298k external	0.2298temperature offset calibration	1.0016default loss term (dB/km)	0.3790temperature slope calibration	1.0000multiplexer offset coefficient	1.0000multiplexer slope coefficient	1.0000fibre end	0.00T internal ref (°C)	34.31T ext. ref 1 (°C)	5.02T ext. ref 2 (°C)	29.86length (m)	temperature (°C)	Stokes	anti-Stokes-747.200	120.546	0.083	-0.105
-746.185	-84.525	0.038	0.012
-745.171	-33.189	0.217	0.123
-744.156	-95.194	-0.257	0.071
-743.142	-30.918	-0.070	0.041
-742.127	383.007	0.081	0.170
-741.112	27.982	0.199	-0.171
-740.098	-200.000	-0.041	-0.320
-739.083	199.288	0.046	0.072
-738.069	32.569	0.085	0.075
-737.054	-85.707	-0.204	0.065
-736.039	23.173	0.299	-0.251
-735.025	276.231	0.048	0.087
-734.010	-27.943	-0.312	0.185
-732.996	-152.229	-0.203	-0.015
-731.981	362.185	0.063	-0.129
-730.966	-200.000	-0.006	0.094
-729.952	-137.585	-0.190	0.022
-728.937	604.518	0.066	-0.168
-727.923	64.765	-0.091	0.093
-726.908	-154.686	-0.880	0.060
-725.894	-200.000	0.003	-0.034
-724.879	794.197	0.181	-0.508
-723.864	-145.859	-0.296	-0.027
-722.850	-200.000	0.008	-0.053
-721.835	-107.237	-0.338	-0.076
-720.821	-52.257	-0.298	0.141
-719.806	-169.340	0.293	0.011
-718.791	-1.211	-0.382	-0.275
-717.777	-22.544	0.222	0.137
-716.762	-68.551	-0.185	-0.073
-715.748	-140.544	0.416	0.044
-714.733	-167.500	-0.310	0.013
-713.718	-200.000	0.020	0.155
-712.704	-108.910	-0.391	-0.085
-711.689	681.077	0.034	-0.091
-710.675	176.337	0.053	-0.079
-709.660	-59.336	-0.118	0.052
-708.645	210.196	-0.182	-0.290
-707.631	515.130	-0.052	0.124
-706.616	48.419	0.240	-0.229
-705.602	-70.522	-0.066	-0.026
-704.587	8.261	-0.149	-0.114
-703.572	38.909	-0.226	-0.206
-702.558	-78.330	0.254	-0.089
-701.543	800.000	0.050	-0.169
-700.529	-200.000	-0.060	0.279
-699.514	218.896	0.149	0.243
-698.499	-106.695	-0.479	-0.109
-697.485	-99.316	-0.384	-0.099
-696.470	51.938	0.083	-0.080
-695.456	-200.000	-0.003	0.161
-694.441	580.760	-0.064	0.160
-693.426	181.071	0.024	-0.036
-692.412	66.854	-0.196	-0.203
-691.397	145.670	-0.176	0.240
-690.383	-30.949	-0.048	-0.028
-689.368	563.274	0.089	0.218
-688.354	-99.416	-0.219	0.056
-687.339	200.706	-0.152	-0.238
-686.324	69.923	0.221	-0.232
-685.310	-46.204	-0.223	-0.112
-684.295	645.289	0.039	-0.102
-683.281	-79.405	0.114	-0.039
-682.266	-174.160	-0.189	-0.006
-681.251	-67.907	-0.396	-0.158
-680.237	-200.000	0.074	-0.487
-679.222	223.167	-0.057	-0.094
-678.208	571.527	0.128	-0.318
-677.193	-200.000	-0.010	-0.230
-676.178	-111.093	-0.254	0.053
-675.164	59.926	0.264	-0.266
-674.149	-36.131	0.175	-0.096
-673.135	-18.686	-0.092	-0.058
-672.120	-73.482	0.115	-0.043
-671.105	71.745	-0.260	-0.275
-670.091	291.364	-0.047	0.087
-669.076	155.026	0.174	-0.244
-668.062	-138.567	0.353	-0.039
-667.047	-10.649	-0.119	-0.080
-666.032	-117.500	-0.243	-0.045
-665.018	800.000	-0.099	-0.417
-664.003	-0.457	-0.251	0.181
-662.989	800.000	0.067	0.218
-661.974	-38.042	-0.180	0.097
-660.959	6.819	0.139	0.106
-659.945	-83.136	-0.107	-0.035
-658.930	-168.068	-0.116	0.005
-657.916	15.789	0.208	0.167
-656.901	145.109	-0.051	0.070
-655.886	-161.431	-0.322	0.017
-654.872	48.543	0.202	0.193
-653.857	-112.855	-0.316	-0.064
-652.843	-114.352	0.125	-0.024
-651.828	-200.000	0.038	-0.348
-650.814	419.611	0.166	-0.362
-649.799	-38.640	-0.382	-0.205
-648.784	507.132	-0.055	-0.129
-647.770	591.640	-0.100	0.251
-646.755	-3.742	-0.103	-0.073
-645.741	57.201	-0.070	-0.069
-644.726	800.000	0.079	-0.253
-643.711	-157.709	0.108	0.007
-642.697	144.555	-0.054	-0.074
-641.682	-9.709	0.131	0.089
-640.668	-26.617	-0.030	0.018
-639.653	84.975	-0.078	0.087
-638.638	-129.732	0.091	0.013
-637.624	-181.443	-0.268	-0.005
-636.609	-148.014	0.223	0.019
-635.595	-164.222	-0.257	0.012
-634.580	-200.000	0.042	-0.240
-633.565	-23.076	0.167	-0.102
-632.551	61.785	-0.118	-0.120
-631.536	-200.000	0.041	-0.370
-630.522	-113.761	-0.376	0.074
-629.507	-200.000	-0.025	0.181
-628.492	-114.593	-0.207	0.040
-627.478	-200.000	0.002	-0.184
-626.463	184.056	0.112	-0.168
-625.449	-92.433	-0.204	-0.058
-624.434	-68.019	-0.294	0.116
-623.419	-78.775	0.150	-0.052
-622.405	-69.553	-0.272	0.106
-621.390	800.000	-0.085	0.284
-620.376	254.076	-0.074	0.129
-619.361	-40.431	0.119	0.063
-618.346	-12.856	-0.246	-0.163
-617.332	21.384	-0.120	0.099
-616.317	170.946	0.059	-0.086
-615.303	-40.405	-0.267	-0.141
-614.288	-65.811	-0.368	0.150
-613.273	244.191	0.188	0.320
-612.259	-200.000	-0.034	0.249
-611.244	-123.934	0.355	0.057
-610.230	-65.718	-0.240	0.097
-609.215	298.500	-0.087	-0.162
-608.201	800.000	0.073	0.274
-607.186	-200.000	0.012	0.109
-606.171	-200.000	0.036	0.211
-605.157	237.825	-0.030	-0.050
-604.142	190.021	0.159	-0.242
-603.128	-132.678	0.079	0.010
-602.113	86.970	-0.140	-0.157
-601.098	16.416	0.144	-0.115
-600.084	-2.278	-0.211	-0.151
-599.069	704.886	-0.170	-0.456
-598.055	-158.035	-0.467	0.028
-597.040	-84.658	0.214	-0.068
-596.025	-200.000	-0.042	-0.197
-595.011	117.362	0.052	0.065
-593.996	-159.403	0.189	0.011
-592.982	-172.969	0.037	-0.001
-591.967	141.562	-0.136	-0.183
-590.952	800.000	0.115	-0.452
-589.938	-200.000	-0.033	-0.166
-588.923	800.000	0.047	0.144
-587.909	-114.774	-0.335	0.065
-586.894	129.456	0.260	0.337
-585.879	-19.677	0.274	0.172
-584.865	-200.000	-0.092	0.547
-583.850	-200.000	-0.017	0.204
-582.836	-200.000	-0.017	-0.177
-581.821	-60.850	-0.172	-0.074
-580.806	-200.000	0.004	0.495
-579.792	-200.000	0.007	-0.134
-578.777	-10.460	-0.251	-0.168
-577.763	-54.964	-0.218	0.100
-576.748	800.000	0.080	0.231
-575.733	73.878	0.136	0.145
-574.719	445.076	-0.044	0.099
-573.704	-64.989	-0.182	-0.074
-572.690	228.629	-0.234	0.387
-571.675	-108.609	-0.591	0.129
-570.661	57.863	-0.182	0.180
-569.646	-172.914	0.273	-0.009
-568.631	-31.552	0.225	-0.128
-567.617	800.000	0.029	0.089
-566.602	-200.000	0.019	-0.140
-565.588	478.574	0.056	0.129
-564.573	-20.480	-0.219	-0.137
-563.558	166.518	-0.176	-0.252
-562.544	-132.078	0.356	0.047
-561.529	-82.150	-0.297	0.098
-560.515	-54.129	-0.444	0.205
-559.500	-70.425	0.060	-0.023
-558.485	11.372	-0.191	-0.149
-557.471	-200.000	0.001	-0.167
-556.456	-82.837	0.292	0.096
-555.442	348.495	-0.036	-0.072
-554.427	64.805	0.114	-0.117
-553.412	360.085	0.060	0.122
-552.398	34.485	-0.320	-0.283
-551.383	299.305	-0.046	-0.085
-550.369	16.142	-0.179	0.143
-549.354	-200.000	0.037	0.239
-548.339	-200.000	0.086	-0.463
-547.325	-77.047	-0.400	-0.141
-546.310	-76.067	-0.227	0.081
-545.296	800.000	-0.019	0.076
-544.281	-145.219	-0.104	0.010
-543.266	18.191	0.021	0.017
-542.252	57.656	-0.205	0.203
-541.237	-147.525	0.148	0.013
-540.223	70.605	0.136	0.142
-539.208	-137.046	-0.109	-0.013
-538.193	112.037	-0.055	0.068
-537.179	100.318	0.197	-0.232
-536.164	-38.936	-0.043	-0.023
-535.150	336.510	-0.071	-0.140
-534.135	-200.000	-0.030	0.472
-533.121	-200.000	-0.018	0.088
-532.106	285.398	-0.154	-0.281
-531.091	-98.051	-0.201	0.052
-530.077	-154.807	0.319	0.021
-529.062	-12.563	-0.177	-0.117
-528.048	-14.477	0.201	-0.131
-527.033	37.342	-0.150	0.135
-526.018	-122.234	0.062	0.010
-525.004	-107.711	0.101	0.022
-523.989	-85.704	-0.217	-0.068
-522.975	-57.552	-0.202	0.090
-521.960	-40.232	-0.041	0.021
-520.945	-200.000	0.064	0.339
-519.931	69.417	0.052	0.054
-518.916	217.445	0.142	-0.230
-517.902	-141.462	0.128	0.013
-516.887	-200.000	-0.024	-0.130
-515.872	49.155	-0.207	0.196
-514.858	363.324	0.019	0.039
-513.843	-71.840	-0.160	0.060
-512.829	-11.282	0.394	-0.263
-511.814	-139.272	-0.433	-0.047
-510.799	800.000	0.131	0.490
-509.785	-62.165	0.299	-0.126
-508.770	800.000	-0.044	0.148
-507.756	-200.000	0.004	-0.034
-506.741	144.950	0.082	0.111
-505.726	76.691	-0.229	0.246
-504.712	-123.120	-0.210	-0.034
-503.697	76.761	0.088	-0.095
-502.683	713.719	-0.184	-0.493
-501.668	28.157	0.161	0.138
-500.653	727.667	-0.069	0.185
-499.639	-48.088	0.079	0.039
-498.624	-200.000	0.019	-0.177
-497.610	-200.000	-0.001	-0.178
-496.595	13.446	-0.102	0.080
-495.581	-19.276	0.458	0.287
-494.566	190.497	-0.150	-0.227
-493.551	236.337	0.047	-0.078
-492.537	-29.156	0.276	0.160
-491.522	236.803	-0.106	0.177
-490.508	-87.914	0.215	0.065
-489.493	34.006	0.137	0.120
-488.478	115.557	0.134	0.165
-487.464	-200.000	-0.012	-0.057
-486.449	473.026	0.063	-0.144
-485.435	649.877	0.080	0.208
-484.420	-19.972	-0.396	0.247
-483.405	35.843	-0.205	-0.182
-482.391	800.000	-0.038	0.119
-481.376	135.991	-0.102	-0.134
-480.362	192.705	0.161	-0.245
-479.347	-29.108	0.172	-0.100
-478.332	-200.000	-0.021	0.155
-477.318	633.108	-0.058	0.149
-476.303	-83.907	0.178	-0.057
-475.289	800.000	-0.040	0.137
-474.274	-200.000	0.031	-0.276
-473.259	-200.000	0.054	-0.377
-472.245	800.000	-0.069	0.237
-471.230	17.033	-0.216	0.173
-470.216	-7.530	0.105	0.072
-469.201	-29.757	0.133	-0.077
-468.186	-67.942	0.254	0.100
-467.172	-200.000	-0.016	-0.106
-466.157	-188.243	-0.335	-0.004
-465.143	-200.000	0.017	-0.104
-464.128	-109.676	0.070	-0.015
-463.113	-131.301	0.186	-0.025
-462.099	36.716	-0.194	-0.173
-461.084	-145.563	-0.151	0.014
-460.070	324.409	0.105	0.202
-459.055	-200.000	-0.056	-0.308
-458.040	-175.619	0.081	-0.002
-457.026	-25.425	0.099	0.059
-456.011	332.495	-0.077	0.149
-454.997	64.820	-0.115	0.117
-453.982	-131.049	0.220	-0.030
-452.968	-200.000	0.005	0.046
-451.953	-73.341	0.312	0.115
-450.938	42.691	0.312	-0.287
-449.924	154.824	0.107	0.148
-448.909	-58.963	-0.141	0.061
-447.895	125.033	0.055	0.070
-446.880	-106.057	-0.246	0.056
-445.865	-149.071	0.220	0.018
-444.851	-40.541	-0.139	-0.073
-443.836	-147.074	0.203	0.018
-442.822	473.249	-0.168	0.382
-441.807	538.878	-0.127	-0.305
-440.792	800.000	0.102	0.410
-439.778	-200.000	0.010	0.184
-438.763	121.877	0.136	-0.171
-437.749	800.000	-0.069	-0.198
-436.734	800.000	-0.028	0.109
-435.719	59.113	-0.085	-0.084
-434.705	-90.969	-0.180	0.052
-433.690	-62.183	0.116	0.049
-432.676	94.616	0.192	0.220
-431.661	-158.912	-0.108	-0.006
-430.646	11.433	0.330	0.255
-429.632	-200.000	0.026	0.142
-428.617	-10.976	0.109	-0.073
-427.603	-133.812	-0.194	-0.024
-426.588	81.445	0.085	0.093
-425.573	-172.830	-0.237	0.007
-424.559	-45.780	-0.274	-0.136
-423.544	-168.939	0.145	-0.005
-422.530	-149.390	0.163	0.013
-421.515	-200.000	-0.015	-0.195
-420.500	-200.000	0.054	0.437
-419.486	-67.792	0.165	0.065
-418.471	253.785	0.093	-0.160
-417.457	-111.134	-0.253	-0.052
-416.442	102.307	-0.254	-0.299
-415.428	-55.694	0.288	-0.130
-414.413	-10.523	-0.213	-0.142
-413.398	156.578	0.133	0.185
-412.384	-85.641	-0.059	0.019
-411.369	58.095	-0.115	0.114
-410.355	-15.203	-0.351	-0.226
-409.340	800.000	-0.008	-0.037
-408.325	800.000	-0.045	-0.182
-407.311	-137.853	-0.353	0.040
-406.296	800.000	0.011	-0.047
-405.282	-200.000	0.044	-0.412
-404.267	800.000	-0.146	-0.473
-403.252	-123.383	0.199	0.032
-402.238	186.115	-0.062	0.093
-401.223	800.000	-0.018	-0.068
-400.209	-8.503	0.150	-0.102
-399.194	33.110	-0.096	-0.084
-398.179	225.716	-0.032	0.053
-397.165	335.392	-0.091	0.178
-396.150	-76.613	-0.333	0.118
-395.136	87.699	0.256	-0.285
-394.121	-62.425	0.387	0.162
-393.106	-200.000	0.043	0.265
-392.092	-109.054	0.195	-0.042
-391.077	-200.000	-0.005	-0.056
-390.063	-107.348	-0.284	0.063
-389.048	-71.693	0.144	-0.054
-388.033	38.464	0.011	-0.010
-387.019	-200.000	-0.031	-0.180
-386.004	23.869	-0.135	0.112
-384.990	-83.569	0.261	-0.084
-383.975	-200.000	0.022	-0.512
-382.960	800.000	-0.043	-0.183
-381.946	800.000	-0.044	0.145
-380.931	99.792	0.127	-0.148
-379.917	-143.401	0.057	0.006
-378.902	-200.000	0.018	-0.326
-377.888	800.000	0.033	0.127
-376.873	-55.847	0.385	0.173
-375.858	-200.000	0.021	0.168
-374.844	276.876	-0.106	-0.190
-373.829	7.380	0.064	0.048
-372.815	-60.014	0.176	-0.076
-371.800	-200.000	0.024	-0.379
-370.785	800.000	-0.072	-0.229
-369.771	568.164	0.176	0.431
-368.756	-200.000	0.005	0.054
-367.742	800.000	-0.074	0.269
-366.727	216.080	0.267	0.427
-365.712	166.944	-0.239	-0.341
-364.698	186.811	-0.054	0.082
-363.683	76.761	0.196	0.209
-362.669	211.409	0.090	0.143
-361.654	-37.196	-0.385	-0.207
-360.639	800.000	0.039	-0.121
-359.625	800.000	-0.073	-0.242
-358.610	273.692	-0.084	0.149
-357.596	44.952	0.109	0.101
-356.581	107.261	-0.164	0.196
-355.566	9.509	0.187	-0.142
-354.552	75.446	0.090	-0.095
-353.537	45.258	0.054	0.050
-352.523	145.233	0.064	0.086
-351.508	227.830	0.092	0.150
-350.493	-42.489	0.369	-0.189
-349.479	-71.608	-0.076	0.029
-348.464	-94.589	0.258	-0.071
-347.450	-66.161	-0.206	-0.082
-346.435	87.414	-0.120	0.134
-345.420	-200.000	0.000	-0.045
-344.406	392.979	0.061	-0.127
-343.391	161.006	0.236	-0.331
-342.377	69.314	-0.043	-0.044
-341.362	-85.784	0.049	-0.015
-340.348	1.462	0.285	-0.206
-339.333	-200.000	0.005	0.144
-338.318	800.000	-0.062	0.244
-337.304	385.759	-0.053	0.109
-336.289	68.161	-0.056	-0.057
-335.275	-3.785	0.326	-0.227
-334.260	183.719	-0.042	0.063
-333.245	-59.772	0.201	0.087
-332.231	-69.658	0.270	0.104
-331.216	-200.000	0.003	-0.288
-330.202	-183.734	-0.278	0.005
-329.187	-181.270	0.307	0.006
-328.172	-20.816	0.252	0.155
-327.158	192.657	-0.140	0.213
-326.143	-78.095	-0.283	-0.098
-325.129	-26.798	-0.030	0.018
-324.114	116.356	0.145	0.179
-323.099	408.008	0.196	-0.415
-322.085	71.160	-0.173	0.180
-321.070	116.767	0.106	-0.131
-320.056	-77.214	-0.047	-0.017
-319.041	-36.638	0.125	0.067
-318.026	694.708	-0.024	0.063
-317.012	-200.000	-0.045	0.383
-315.997	40.433	-0.065	-0.059
-314.983	-156.732	0.160	-0.010
-313.968	-200.000	-0.004	0.128
-312.953	-91.440	-0.096	-0.028
-311.939	600.024	0.090	0.224
-310.924	-154.710	-0.352	0.023
-309.910	-1.335	0.141	0.100
-308.895	239.720	0.060	-0.101
-307.880	-29.840	-0.181	-0.103
-306.866	-118.135	-0.190	0.034
-305.851	800.000	0.053	-0.192
-304.837	130.146	-0.080	-0.103
-303.822	528.719	0.120	0.284
-302.807	-200.000	-0.017	-0.084
-301.793	-140.710	0.315	-0.033
-300.778	102.361	-0.149	-0.175
-299.764	1.268	0.234	-0.169
-298.749	-200.000	-0.000	-0.122
-297.735	67.963	0.103	0.106
-296.720	-200.000	0.004	-0.269
-295.705	54.496	-0.040	0.039
-294.691	65.277	0.100	0.101
-293.676	5.129	-0.099	0.073
-292.662	684.466	0.072	-0.189
-291.647	-51.949	0.501	0.234
-290.632	-200.000	0.050	0.295
-289.618	-41.898	0.329	0.169
-288.603	-101.915	-0.179	0.043
-287.589	800.000	-0.052	-0.149
-286.574	164.854	0.190	0.269
-285.559	255.357	0.096	-0.165
-284.545	-200.000	0.039	-0.339
-283.530	145.293	0.250	-0.335
-282.516	786.034	0.035	-0.095
-281.501	77.513	0.200	0.213
-280.486	-141.096	0.068	-0.007
-279.472	13.918	-0.208	0.162
-278.457	31.070	-0.125	-0.108
-277.443	110.049	-0.037	0.044
-276.428	-200.000	-0.017	-0.137
-275.413	800.000	0.041	-0.154
-274.399	147.948	-0.198	-0.268
-273.384	-200.000	0.026	0.178
-272.370	29.662	0.115	0.098
-271.355	734.408	-0.111	-0.299
-270.340	-200.000	0.085	0.399
-269.326	-200.000	0.055	-0.273
-268.311	259.618	-0.077	0.133
-267.297	569.727	-0.123	-0.300
-266.282	687.348	-0.077	-0.201
-265.267	-107.507	0.091	0.020
-264.253	42.367	0.320	-0.292
-263.238	-125.935	-0.378	0.057
-262.224	-94.553	-0.199	0.054
-261.209	800.000	0.079	0.254
-260.195	391.422	-0.099	-0.207
-259.180	167.195	-0.032	0.045
-258.165	-164.855	-0.310	-0.014
-257.151	-132.584	0.105	-0.013
-256.136	-90.833	0.275	-0.079
-255.122	21.039	0.108	-0.087
-254.107	-200.000	0.094	0.526
-253.092	153.344	-0.089	-0.122
-252.078	30.820	-0.264	-0.227
-251.063	-1.759	0.038	0.027
-250.049	-200.000	0.016	-0.182
-249.034	329.672	0.040	0.076
-248.019	-200.000	0.087	-0.390
-247.005	52.768	0.176	-0.169
-245.990	333.070	0.063	0.122
-244.976	161.064	0.053	0.074
-243.961	-140.201	-0.293	0.031
-242.946	224.202	-0.114	-0.185
-241.932	-200.000	-0.025	-0.118
-240.917	-30.666	-0.150	0.085
-239.903	581.171	-0.087	0.214
-238.888	278.552	0.102	-0.181
-237.873	-200.000	0.014	0.180
-236.859	-13.284	0.085	-0.055
-235.844	398.816	-0.071	0.150
-234.830	-72.479	-0.213	-0.079
-233.815	800.000	0.072	0.285
-232.800	-27.652	-0.039	0.022
-231.786	207.914	-0.338	0.528
-230.771	800.000	0.090	-0.365
-229.757	-113.393	-0.113	0.022
-228.742	-86.713	-0.173	0.053
-227.727	800.000	0.017	0.058
-226.713	13.347	-0.141	0.109
-225.698	-185.599	0.205	-0.003
-224.684	223.289	0.070	0.114
-223.669	-200.000	-0.029	-0.248
-222.655	800.000	-0.037	-0.154
-221.640	-200.000	-0.018	0.085
-220.625	105.279	-0.155	0.183
-219.611	336.697	-0.127	-0.246
-218.596	-200.000	0.000	-0.188
-217.582	311.176	-0.085	0.160
-216.567	153.061	0.076	-0.104
-215.552	19.205	0.396	-0.318
-214.538	144.327	0.141	-0.188
-213.523	-200.000	0.003	0.016
-212.509	-101.761	-0.137	0.033
-211.494	-79.208	-0.304	0.103
-210.479	-200.000	0.012	0.248
-209.465	459.956	0.113	-0.251
-208.450	21.884	-0.222	0.181
-207.436	155.191	-0.039	0.054
-206.421	-21.025	-0.338	-0.207
-205.406	48.096	0.130	0.122
-204.392	-131.300	0.240	0.032
-203.377	-35.049	0.144	-0.079
-202.363	-36.447	-0.221	0.119
-201.348	-200.000	-0.008	-0.067
-200.333	-174.769	-0.173	-0.005
-199.319	-157.681	0.079	-0.005
-198.304	-200.000	-0.051	-0.251
-197.290	-200.000	0.013	0.348
-196.275	12.473	0.180	-0.139
-195.260	-160.741	0.213	-0.011
-194.246	42.076	-0.230	-0.209
-193.231	800.000	-0.036	-0.100
-192.217	45.976	-0.159	0.147
-191.202	-200.000	-0.009	-0.331
-190.187	263.602	-0.092	-0.160
-189.173	-200.000	0.029	-0.416
-188.158	-112.668	0.342	0.068
-187.144	481.762	-0.045	0.103
-186.129	143.579	0.297	0.396
-185.114	-115.556	0.740	0.139
-184.100	-15.713	0.187	-0.119
-183.085	-110.718	-0.171	0.035
-182.071	595.386	-0.107	0.265
-181.056	25.825	0.106	-0.088
-180.042	107.217	0.146	0.173
-179.027	800.000	-0.065	-0.239
-178.012	-24.233	-0.021	0.012
-176.998	-200.000	0.007	0.092
-175.983	-123.175	0.197	0.031
-174.969	728.517	-0.061	0.163
-173.954	800.000	-0.094	-0.273
-172.939	-178.405	0.312	-0.007
-171.925	-200.000	0.020	0.146
-170.910	402.929	0.091	0.192
-169.896	800.000	-0.034	0.116
-168.881	-176.047	0.180	0.005
-167.866	-63.075	0.068	0.028
-166.852	-126.712	0.226	-0.033
-165.837	143.609	-0.087	-0.116
-164.823	-163.481	-0.275	-0.013
-163.808	800.000	-0.156	0.429
-162.793	144.972	-0.084	0.112
-161.779	4.220	0.089	-0.065
-160.764	-33.022	0.053	-0.029
-159.750	-44.072	-0.205	0.103
-158.735	-169.786	0.189	-0.007
-157.720	-0.720	-0.063	0.045
-156.706	-24.222	0.118	0.070
-155.691	-191.251	0.594	-0.006
-154.677	-91.462	0.190	-0.054
-153.662	180.832	0.053	-0.078
-152.647	-200.000	-0.047	0.220
-151.633	-200.000	0.048	0.323
-150.618	-158.814	0.218	-0.012
-149.604	57.784	-0.203	-0.198
-148.589	215.550	-0.248	0.393
-147.574	-200.000	-0.010	0.088
-146.560	-132.795	-0.130	-0.017
-145.545	98.519	0.154	-0.177
-144.531	-200.000	0.028	0.263
-143.516	-200.000	0.053	-0.317
-142.502	15.172	0.092	0.072
-141.487	-200.000	-0.003	-0.073
-140.472	-200.000	0.006	-0.197
-139.458	-68.780	-0.374	-0.144
-138.443	-159.040	0.215	-0.012
-137.429	-77.391	0.150	0.052
-136.414	-7.679	0.115	0.077
-135.399	-124.515	-0.044	-0.007
-134.385	-200.000	-0.017	0.230
-133.370	10.842	0.194	0.148
-132.356	49.101	-0.158	-0.148
-131.341	-38.355	0.053	-0.028
-130.326	-200.000	0.019	-0.432
-129.312	-150.896	0.324	-0.024
-128.297	-141.952	-0.120	0.012
-127.283	800.000	0.091	-0.268
-126.268	-126.373	-0.310	0.046
-125.253	4.604	-0.166	0.122
-124.239	-140.885	0.099	0.010
-123.224	-152.901	-0.103	-0.007
-122.210	-200.000	0.018	0.159
