DTS Sentinel unit serial number:	SN413079Multiplexer serial number:	ORYXHardware model number:	OX4-SRSoftware version number:	ORYX F/W v4.00 Oryx Data Collector v3.7.2.0data status	okinstallation	princeton_trtdifferential loss correction	single-endedforward channel	channel 4reverse channel	N/Adate	2019/09/14time	17:37:34forward acquisition time	60.00reverse acquisition time	0.00gamma	496.2192k internal	0.2295k external	0.2295temperature offset calibration	1.0115default loss term (dB/km)	0.3790temperature slope calibration	1.0000multiplexer offset coefficient	1.0000multiplexer slope coefficient	1.0000fibre end	0.00T internal ref (°C)	37.56T ext. ref 1 (°C)	5.04T ext. ref 2 (°C)	32.50length (m)	temperature (°C)	Stokes	anti-Stokes-747.200	238.986	-0.053	0.090
-746.185	28.298	0.231	0.199
-745.171	800.000	-0.101	0.373
-744.156	237.033	0.145	-0.246
-743.142	-200.000	0.043	0.216
-742.127	62.292	0.006	-0.006
-741.112	-200.000	-0.043	-0.227
-740.098	800.000	-0.009	0.030
-739.083	-200.000	-0.003	0.069
-738.069	-65.682	-0.032	-0.013
-737.054	35.347	-0.253	-0.226
-736.039	-107.757	0.268	0.060
-735.025	-46.459	0.134	0.067
-734.010	-69.368	-0.302	-0.118
-732.996	-91.267	-0.092	0.027
-731.981	-39.602	-0.286	-0.153
-730.966	-96.274	-0.227	0.061
-729.952	572.444	-0.117	0.290
-728.937	-59.618	-0.253	-0.111
-727.923	19.524	0.162	-0.133
-726.908	-17.585	-0.178	0.115
-725.894	-200.000	-0.040	-0.419
-724.879	800.000	0.110	-0.409
-723.864	800.000	-0.078	-0.273
-722.850	-135.256	-0.496	0.061
-721.835	24.921	-0.134	0.114
-720.821	800.000	0.169	-0.569
-719.806	53.491	0.096	-0.094
-718.791	800.000	-0.090	-0.255
-717.777	109.276	-0.096	0.117
-716.762	-22.320	-0.366	-0.227
-715.748	-96.592	0.203	0.055
-714.733	80.680	-0.082	-0.090
-713.718	-31.980	0.367	0.210
-712.704	-200.000	0.016	0.098
-711.689	199.253	-0.114	0.179
-710.675	298.657	-0.103	0.193
-709.660	-200.000	-0.005	0.060
-708.645	800.000	0.021	0.065
-707.631	-54.924	0.171	-0.079
-706.616	800.000	-0.078	-0.337
-705.602	-200.000	-0.061	-0.283
-704.587	61.599	-0.242	-0.245
-703.572	-200.000	0.018	-0.435
-702.558	800.000	-0.070	-0.307
-701.543	18.042	-0.124	-0.101
-700.529	800.000	-0.186	-0.557
-699.514	-200.000	0.028	-0.183
-698.499	185.667	-0.176	0.266
-697.485	-200.000	0.061	-0.347
-696.470	-57.377	-0.146	0.066
-695.456	107.153	0.120	-0.146
-694.441	639.412	-0.043	0.112
-693.426	470.268	-0.046	0.107
-692.412	191.607	-0.075	-0.115
-691.397	230.830	-0.340	-0.568
-690.383	-27.759	0.102	0.060
-689.368	118.616	0.150	-0.189
-688.354	-156.482	0.188	0.012
-687.339	-89.115	-0.128	0.039
-686.324	100.712	-0.211	-0.250
-685.310	152.181	0.066	-0.092
-684.295	800.000	-0.032	0.121
-683.281	322.186	-0.077	0.149
-682.266	-83.300	0.079	-0.026
-681.251	-39.929	0.151	0.080
-680.237	561.285	0.041	-0.102
-679.222	67.037	0.045	-0.046
-678.208	251.705	-0.087	0.151
-677.193	-200.000	-0.027	0.264
-676.178	-57.799	0.078	0.035
-675.164	572.580	0.083	-0.206
-674.149	-99.424	-0.236	0.061
-673.135	114.888	-0.166	0.207
-672.120	5.023	-0.131	0.098
-671.105	763.486	-0.131	0.362
-670.091	800.000	-0.018	-0.059
-669.076	88.668	-0.107	-0.121
-668.062	724.314	0.020	-0.055
-667.047	-200.000	-0.063	-0.312
-666.032	90.377	0.183	-0.209
-665.018	460.513	-0.211	-0.479
-664.003	-169.947	-0.177	0.006
-662.989	176.468	0.131	0.194
-661.974	112.758	0.202	-0.250
-660.959	627.654	-0.103	-0.265
-659.945	-200.000	-0.032	-0.231
-658.930	-200.000	0.013	-0.073
-657.916	59.605	-0.018	0.018
-656.901	-171.828	-0.207	0.007
-655.886	218.594	-0.087	-0.141
-654.872	-127.571	-0.261	-0.039
-653.857	621.045	0.078	-0.199
-652.843	-200.000	0.041	-0.277
-651.828	-7.216	-0.193	0.133
-650.814	-162.035	0.255	-0.013
-649.799	-1.514	-0.464	-0.333
-648.784	-23.485	0.180	0.110
-647.770	338.561	0.023	-0.045
-646.755	-72.243	-0.243	-0.092
-645.741	248.095	-0.115	0.199
-644.726	-198.990	0.226	-0.001
-643.711	100.369	0.065	0.077
-642.697	-9.914	0.213	-0.144
-641.682	276.541	0.246	-0.444
-640.668	800.000	0.009	-0.029
-639.653	165.989	-0.239	-0.344
-638.638	153.082	-0.137	0.191
-637.624	-19.070	0.267	-0.169
-636.609	638.500	0.070	0.180
-635.595	-200.000	-0.035	-0.253
-634.580	-63.170	0.106	-0.045
-633.565	35.663	-0.125	0.112
-632.551	405.331	0.174	-0.374
-631.536	-200.000	-0.061	0.394
-630.522	-200.000	0.028	0.440
-629.507	-19.477	0.113	0.071
-628.492	-15.278	-0.265	-0.172
-627.478	-68.258	-0.079	0.031
-626.463	-96.325	0.042	-0.011
-625.449	-147.211	-0.074	0.006
-624.434	7.240	-0.337	0.256
-623.419	-141.416	-0.201	-0.021
-622.405	197.352	-0.194	-0.301
-621.390	177.553	0.068	0.101
-620.376	-93.360	0.162	-0.046
-619.361	-175.070	-0.238	-0.007
-618.346	56.554	-0.098	-0.097
-617.332	-163.917	-0.320	0.015
-616.317	-200.000	-0.043	-0.207
-615.303	-47.309	0.233	-0.116
-614.288	-200.000	0.009	-0.173
-613.273	-108.643	-0.209	0.046
-612.259	45.252	0.158	-0.148
-611.244	-83.290	-0.105	-0.034
-610.230	-167.348	0.179	-0.007
-609.215	-1.241	-0.025	0.018
-608.201	-119.337	-0.157	-0.028
-607.186	166.689	-0.142	0.205
-606.171	-62.959	0.097	-0.041
-605.157	201.033	0.053	-0.082
-604.142	-117.201	-0.153	-0.028
-603.128	41.215	-0.043	0.039
-602.113	-99.109	0.305	0.078
-601.098	-165.715	-0.170	-0.007
-600.084	-79.748	-0.334	-0.114
-599.069	-97.925	0.309	0.081
-598.055	-200.000	-0.014	0.233
-597.040	522.414	-0.047	-0.112
-596.025	39.858	-0.257	-0.235
-595.011	800.000	-0.082	-0.255
-593.996	-48.802	-0.079	0.038
-592.982	6.138	-0.286	-0.216
-591.967	-164.327	0.361	0.017
-590.952	-88.121	0.065	-0.020
-589.938	34.545	-0.308	-0.274
-588.923	25.850	0.096	0.082
-587.909	153.321	-0.100	0.139
-586.894	-52.911	-0.069	-0.032
-585.879	286.831	0.057	-0.105
-584.865	800.000	-0.019	0.080
-583.850	17.101	-0.052	0.042
-582.836	64.626	0.228	-0.233
-581.821	-73.695	0.091	0.034
-580.806	-140.825	0.091	-0.010
-579.792	119.035	0.188	-0.236
-578.777	800.000	0.146	0.474
-577.763	-5.573	0.063	-0.044
-576.748	356.687	-0.152	-0.308
-575.733	69.616	0.179	-0.187
-574.719	-200.000	0.018	-0.253
-573.704	102.852	-0.061	-0.073
-572.690	-200.000	0.009	0.202
-571.675	59.697	-0.087	-0.087
-570.661	-156.307	0.229	-0.015
-569.646	386.254	-0.134	-0.280
-568.631	-200.000	-0.021	-0.256
-567.617	-200.000	0.029	-0.140
-566.602	10.853	0.206	-0.160
-565.588	-68.456	0.030	-0.012
-564.573	196.109	0.122	-0.188
-563.558	-200.000	0.011	0.204
-562.544	112.011	0.309	-0.379
-561.529	107.754	-0.211	-0.255
-560.515	-156.333	-0.197	-0.013
-559.500	-200.000	0.020	0.216
-558.485	289.343	-0.089	-0.163
-557.471	6.696	0.331	-0.250
-556.456	-48.769	0.120	0.059
-555.442	-117.807	-0.241	-0.044
-554.427	54.214	0.155	0.151
-553.412	800.000	-0.062	-0.237
-552.398	-35.781	0.179	0.099
-551.383	-37.823	-0.367	-0.198
-550.369	-81.619	0.244	0.081
-549.354	-200.000	-0.016	-0.220
-548.339	9.859	0.162	-0.125
-547.325	-200.000	0.005	-0.113
-546.310	218.104	0.081	0.131
-545.296	779.573	0.070	-0.194
-544.281	45.992	0.137	0.128
-543.266	-200.000	-0.046	-0.318
-542.252	19.674	-0.266	-0.217
-541.237	-49.488	0.057	-0.027
-540.223	230.007	0.079	-0.132
-539.208	-146.097	0.197	0.018
-538.193	136.719	-0.167	0.221
-537.179	-40.592	0.164	0.086
-536.164	239.038	0.190	-0.320
-535.150	174.916	-0.092	0.135
-534.135	800.000	-0.089	0.258
-533.121	120.211	-0.124	0.156
-532.106	-127.279	-0.303	-0.045
-531.091	-49.277	-0.286	0.138
-530.077	35.553	-0.179	-0.159
-529.062	-92.618	-0.102	-0.029
-528.048	22.186	0.058	-0.048
-527.033	22.474	0.140	-0.116
-526.018	-181.178	0.371	-0.007
-525.004	800.000	0.064	-0.221
-523.989	82.887	-0.332	-0.366
-522.975	-88.475	0.124	0.038
-521.960	338.017	-0.106	0.210
-520.945	-200.000	-0.029	-0.242
-519.931	127.252	-0.039	0.050
-518.916	187.475	0.063	0.095
-517.902	800.000	0.087	0.355
-516.887	272.725	-0.051	0.091
-515.872	-200.000	-0.022	0.329
-514.858	-147.957	0.094	-0.008
-513.843	8.947	0.315	0.241
-512.829	-110.607	0.198	0.041
-511.814	-200.000	-0.023	0.179
-510.799	-200.000	-0.022	-0.211
-509.785	-200.000	0.050	-0.250
-508.770	-105.735	0.283	-0.065
-507.756	157.683	0.182	-0.256
-506.741	490.684	-0.119	-0.277
-505.726	-200.000	-0.020	0.389
-504.712	318.043	0.064	0.122
-503.697	-47.298	0.184	-0.090
-502.683	-146.121	0.227	-0.020
-501.668	-200.000	0.015	0.111
-500.653	-18.402	-0.205	-0.130
-499.639	-115.481	-0.619	0.118
-498.624	153.813	0.117	-0.162
-497.610	-39.720	0.116	0.061
-496.595	-77.580	0.108	0.038
-495.581	-19.120	0.339	0.213
-494.566	-109.250	-0.173	-0.037
-493.551	-107.995	-0.112	0.025
-492.537	-108.683	0.209	0.045
-491.522	-200.000	-0.014	-0.339
-490.508	-180.826	0.212	-0.004
-489.493	224.586	-0.098	0.161
-488.478	103.502	-0.239	0.283
-487.464	454.964	-0.177	-0.397
-486.449	53.471	0.067	-0.065
-485.435	-112.488	0.413	0.084
-484.420	-18.647	-0.117	-0.074
-483.405	-95.775	0.175	-0.047
-482.391	-157.969	-0.361	-0.022
-481.376	-125.419	-0.051	-0.008
-480.362	47.556	-0.165	0.155
-479.347	-76.219	0.229	0.082
-478.332	-136.349	-0.067	-0.008
-477.318	116.824	-0.315	0.392
-476.303	800.000	0.052	0.164
-475.289	232.082	-0.163	-0.271
-474.274	-7.097	0.075	-0.051
-473.259	800.000	-0.076	-0.278
-472.245	-60.270	-0.201	0.087
-471.230	-200.000	0.004	0.162
-470.216	360.300	0.128	0.259
-469.201	-132.743	-0.120	-0.015
-468.186	800.000	0.102	-0.307
-467.172	-148.926	-0.304	0.025
-466.157	696.604	0.026	0.070
-465.143	-58.057	-0.041	-0.018
-464.128	40.179	0.278	-0.253
-463.113	610.352	-0.046	0.116
-462.099	132.561	-0.120	0.157
-461.084	109.410	-0.389	-0.471
-460.070	-31.627	-0.109	0.062
-459.055	790.650	0.035	0.096
-458.040	-136.267	0.232	-0.027
-457.026	-200.000	-0.026	0.244
-456.011	-57.776	0.324	0.143
-454.997	106.694	-0.137	0.164
-453.982	-45.526	0.174	0.087
-452.968	198.687	-0.206	-0.319
-451.953	381.324	-0.039	0.082
-450.938	-61.980	0.203	0.086
-449.924	-113.862	0.063	-0.012
-448.909	32.317	0.193	-0.169
-447.895	-200.000	0.043	0.423
-446.880	-28.836	-0.092	0.053
-445.865	-30.104	0.099	0.057
-444.851	-107.542	0.128	-0.028
-443.836	800.000	0.062	-0.209
-442.822	-200.000	0.001	0.103
-441.807	-18.866	-0.386	0.243
-440.792	-74.652	0.104	-0.038
-439.778	39.104	0.080	-0.072
-438.763	800.000	-0.025	0.076
-437.749	-28.153	0.285	0.166
-436.734	-162.875	0.222	0.011
-435.719	58.913	0.112	-0.111
-434.705	-200.000	0.002	0.057
-433.690	-136.317	0.108	0.013
-432.676	-200.000	0.003	0.204
-431.661	800.000	-0.115	-0.341
-430.646	-100.735	0.264	-0.066
-429.632	-10.063	0.027	0.018
-428.617	800.000	-0.060	0.256
-427.603	-40.675	-0.278	0.146
-426.588	-200.000	0.077	0.401
-425.573	230.377	-0.064	0.105
-424.559	365.862	0.168	0.341
-423.544	800.000	0.054	0.233
-422.530	-51.102	-0.284	-0.134
-421.515	-105.734	0.300	-0.069
-420.500	434.458	-0.031	0.068
-419.486	-200.000	-0.022	-0.252
-418.471	420.528	-0.007	0.015
-417.457	309.218	-0.060	0.113
-416.442	-88.193	-0.136	0.041
-415.428	800.000	-0.155	-0.507
-414.413	800.000	0.068	-0.223
-413.398	456.287	0.091	0.203
-412.384	49.011	-0.041	-0.039
-411.369	136.206	0.208	0.274
-410.355	127.706	0.257	0.330
-409.340	483.447	0.042	0.096
-408.325	-28.158	0.095	-0.056
-407.311	-200.000	-0.009	0.167
-406.296	-189.822	0.110	0.001
-405.282	-200.000	0.051	-0.379
-404.267	358.107	0.036	0.073
-403.252	632.285	-0.116	0.297
-402.238	-112.555	0.014	0.003
-401.223	-97.005	0.237	0.062
-400.209	-119.378	-0.253	-0.044
-399.194	-200.000	-0.027	-0.197
-398.179	95.119	-0.171	-0.197
-397.165	173.104	0.254	0.370
-396.150	187.348	-0.039	0.059
-395.136	-119.509	-0.200	-0.035
-394.121	800.000	-0.077	0.227
-393.106	24.240	0.051	0.042
-392.092	-52.020	-0.357	0.167
-391.077	316.851	-0.041	0.078
-390.063	-153.774	-0.102	0.007
-389.048	800.000	0.055	-0.197
-388.033	800.000	0.083	0.237
-387.019	126.025	0.218	0.278
-386.004	-25.290	0.386	-0.230
-384.990	-55.073	-0.121	0.055
-383.975	-12.771	-0.152	-0.100
-382.960	-60.396	-0.193	-0.083
-381.946	54.415	-0.196	-0.190
-380.931	-200.000	-0.071	-0.464
-379.917	212.596	0.202	-0.321
-378.902	-200.000	-0.003	-0.187
-377.888	-65.117	-0.153	-0.062
-376.873	-137.288	0.173	0.020
-375.858	-200.000	0.028	-0.223
-374.844	-158.919	-0.190	0.011
-373.829	716.750	0.104	0.278
-372.815	-179.377	0.396	-0.009
-371.800	126.622	-0.096	0.123
-370.785	-65.026	-0.176	-0.072
-369.771	507.256	0.077	-0.179
-368.756	-10.860	-0.270	0.180
-367.742	-60.093	0.222	0.095
-366.727	-137.182	-0.215	0.025
-365.712	-200.000	0.078	-0.392
-364.698	800.000	0.024	0.099
-363.683	476.921	0.135	0.307
-362.669	86.132	0.269	-0.298
-361.654	311.577	0.158	0.298
-360.639	440.755	-0.106	0.233
-359.625	-119.592	-0.176	0.031
-358.610	-51.964	-0.091	0.043
-357.596	32.441	-0.085	-0.074
-356.581	-200.000	-0.022	-0.132
-355.566	445.881	-0.062	-0.137
-354.552	-200.000	0.044	0.319
-353.537	-109.173	-0.131	-0.028
-352.523	-151.080	-0.390	-0.030
-351.508	287.167	-0.086	-0.156
-350.493	-85.790	-0.129	0.040
-349.479	167.197	0.033	0.047
-348.464	-20.931	0.215	0.133
-347.450	-177.715	0.088	-0.002
-346.435	32.297	-0.184	0.160
-345.420	77.808	-0.253	-0.271
-344.406	-200.000	-0.050	0.355
-343.391	167.302	0.152	0.217
-342.377	-131.212	-0.305	-0.041
-341.362	-87.854	0.147	0.045
-340.348	-123.388	0.144	-0.023
-339.333	109.129	0.145	-0.175
-338.318	-200.000	0.022	0.174
-337.304	-200.000	-0.008	0.112
-336.289	-50.306	0.211	0.100
-335.275	-73.216	-0.198	-0.073
-334.260	-57.985	0.237	0.104
-333.245	65.924	0.408	-0.416
-332.231	291.521	-0.112	-0.205
-331.216	-200.000	0.004	-0.493
-330.202	157.023	0.056	0.078
-329.187	262.961	-0.039	-0.068
-328.172	-0.526	-0.157	0.112
-327.158	-32.419	-0.057	-0.032
-326.143	486.395	0.063	0.145
-325.129	2.538	0.330	0.240
-324.114	800.000	0.094	0.286
-323.099	-200.000	0.000	-0.100
-322.085	421.855	-0.010	-0.022
-321.070	-53.332	-0.319	0.147
-320.056	149.274	-0.178	0.242
-319.041	-2.122	0.298	0.210
-318.026	31.809	-0.159	0.137
-317.012	-200.000	0.012	-0.064
-315.997	-4.114	-0.124	0.087
-314.983	-200.000	-0.029	-0.546
-313.968	-62.872	-0.117	0.049
-312.953	-142.842	-0.110	0.011
-311.939	-200.000	0.014	0.214
-310.924	-144.946	0.408	-0.037
-309.910	-200.000	0.029	0.177
-308.895	-148.616	-0.128	0.010
-307.880	24.922	-0.044	-0.037
-306.866	800.000	0.009	-0.027
-305.851	800.000	0.110	-0.327
-304.837	141.655	0.237	-0.316
-303.822	-200.000	0.051	-0.383
-302.807	159.722	0.265	0.371
-301.793	327.816	-0.115	0.222
-300.778	-24.550	-0.181	-0.108
-299.764	712.393	0.178	0.472
-298.749	-200.000	-0.043	-0.303
-297.735	-29.339	-0.260	-0.150
-296.720	349.185	-0.108	-0.214
-295.705	-16.641	0.066	-0.042
-294.691	-49.876	0.083	-0.040
-293.676	280.183	-0.101	-0.182
-292.662	73.626	0.138	0.145
-291.647	-62.750	-0.068	0.028
-290.632	-124.774	0.149	0.023
-289.618	476.320	-0.176	-0.399
-288.603	-43.611	-0.034	-0.017
-287.589	326.428	-0.031	-0.060
-286.574	-182.221	-0.265	0.005
-285.559	83.107	-0.126	-0.138
-284.545	19.266	0.165	-0.133
-283.530	334.650	0.163	-0.316
-282.516	-45.704	0.208	0.103
-281.501	327.396	0.071	0.137
-280.486	9.593	-0.099	-0.075
-279.472	685.944	-0.057	-0.149
-278.457	-200.000	-0.040	-0.338
-277.443	154.446	0.043	0.059
-276.428	128.469	-0.182	0.233
-275.413	469.572	-0.145	0.327
-274.399	-125.533	0.442	0.067
-273.384	-171.510	0.411	-0.014
-272.370	-79.435	0.240	0.082
-271.355	52.564	-0.121	-0.116
-270.340	431.288	-0.078	-0.170
-269.326	96.098	-0.108	-0.124
-268.311	194.878	-0.052	-0.080
-267.297	318.954	-0.106	-0.201
-266.282	-57.127	-0.155	-0.068
-265.267	800.000	-0.052	0.183
-264.253	-200.000	-0.016	0.174
-263.238	137.250	0.206	0.270
-262.224	-118.464	-0.270	0.048
-261.209	-188.985	-0.349	-0.004
-260.195	-157.968	0.229	0.014
-259.180	158.372	0.265	0.369
-258.165	61.689	-0.138	0.138
-257.151	465.298	0.031	0.070
-256.136	34.336	-0.281	-0.246
-255.122	85.067	0.206	0.227
-254.107	-29.943	-0.121	-0.069
-253.092	281.203	0.159	-0.286
-252.078	-29.269	-0.200	0.115
-251.063	-129.226	0.129	0.018
-250.049	-200.000	-0.012	0.119
-249.034	-109.756	-0.188	0.040
-248.019	-200.000	0.004	-0.263
-247.005	222.616	-0.082	0.132
-245.990	-200.000	0.023	0.402
-244.976	66.320	-0.164	0.167
-243.961	119.189	0.171	0.212
-242.946	-137.899	0.134	0.015
-241.932	-111.276	0.285	-0.058
-240.917	-11.539	0.391	0.258
-239.903	791.871	-0.108	-0.297
-238.888	-200.000	0.000	0.014
-237.873	25.864	-0.051	-0.042
-236.859	-155.136	0.062	0.004
-235.844	-200.000	0.005	0.281
-234.830	800.000	0.054	0.190
-233.815	-64.916	-0.297	-0.120
-232.800	64.348	-0.117	0.118
-231.786	176.792	0.073	0.107
-230.771	-13.031	-0.024	-0.016
-229.757	31.029	0.130	0.112
-228.742	-99.688	0.122	-0.031
-227.727	1.329	-0.236	0.170
-226.713	-175.167	-0.169	0.005
-225.698	17.969	0.179	0.143
-224.684	88.780	-0.155	-0.172
-223.669	-200.000	0.010	0.450
-222.655	800.000	0.027	0.105
-221.640	-68.742	-0.269	0.104
-220.625	800.000	0.070	-0.210
-219.611	-54.988	-0.064	-0.029
-218.596	-7.470	0.106	-0.072
-217.582	653.966	-0.042	0.108
-216.567	41.275	-0.226	-0.204
-215.552	-73.483	-0.323	0.118
-214.538	-51.997	-0.123	-0.057
-213.523	-10.076	0.167	-0.111
-212.509	99.347	-0.083	-0.096
-211.494	800.000	0.084	0.263
-210.479	560.068	0.156	0.377
-209.465	-162.667	-0.119	0.006
-208.450	-200.000	-0.028	-0.216
-207.436	-169.284	0.279	-0.010
-206.421	193.404	-0.162	-0.245
-205.406	462.727	0.050	-0.111
-204.392	800.000	0.064	0.193
-203.377	-200.000	0.034	0.184
-202.363	392.718	-0.111	0.231
-201.348	-57.101	0.131	-0.058
-200.333	800.000	-0.021	0.068
-199.319	-41.816	0.061	-0.031
-198.304	-127.336	0.213	-0.031
-197.290	153.081	0.046	-0.064
-196.275	-17.292	-0.106	0.067
-195.260	39.742	0.088	-0.079
-194.246	455.302	-0.184	-0.408
-193.231	-56.040	0.152	0.068
-192.217	-92.178	0.206	0.058
-191.202	67.552	-0.155	0.158
-190.187	-40.266	0.067	0.035
-189.173	112.397	0.056	-0.068
-188.158	-10.430	-0.132	0.087
-187.144	106.289	-0.058	0.069
-186.129	-48.790	0.471	0.226
-185.114	-35.453	0.017	0.009
-184.100	432.061	0.193	-0.419
-183.085	-200.000	0.009	0.105
-182.071	-23.432	-0.247	0.148
-181.056	-56.615	0.165	0.073
-180.042	101.261	-0.181	0.210
-179.027	706.247	-0.068	-0.180
-178.012	75.031	-0.067	-0.070
-176.998	19.316	-0.274	-0.220
-175.983	800.000	0.111	0.385
-174.969	-200.000	0.001	0.289
-173.954	-171.598	-0.231	-0.008
-172.939	800.000	0.059	0.167
-171.925	-200.000	-0.054	0.304
-170.910	45.907	0.233	0.216
-169.896	-148.920	-0.196	-0.016
-168.881	-14.132	-0.204	-0.132
-167.866	-200.000	0.018	-0.139
-166.852	-200.000	0.046	0.271
-165.837	-62.127	0.179	-0.075
-164.823	-13.513	-0.058	-0.038
-163.808	-102.974	0.213	-0.050
-162.793	148.295	-0.212	-0.286
-161.779	-200.000	-0.006	-0.110
-160.764	-178.723	0.185	-0.004
-159.750	-38.761	-0.303	-0.160
-158.735	244.313	0.123	-0.206
-157.720	761.194	-0.037	0.100
-156.706	84.669	-0.104	0.113
-155.691	-76.579	0.268	0.094
-154.677	195.194	-0.195	0.295
-153.662	275.778	-0.039	-0.068
-152.647	280.298	-0.184	0.329
-151.633	35.416	-0.053	-0.046
-150.618	-200.000	0.034	-0.244
-149.604	-15.592	-0.054	0.034
-148.589	-38.773	-0.249	-0.131
-147.574	-42.069	0.104	0.053
-146.560	136.267	0.171	0.223
-145.545	-28.462	0.300	0.172
-144.531	-200.000	0.012	0.061
-143.516	367.595	0.098	-0.198
-142.502	-200.000	0.004	-0.204
-141.487	-101.275	-0.386	0.094
-140.472	36.404	0.018	-0.016
-139.458	92.166	0.229	0.258
-138.443	800.000	0.106	0.366
-137.429	800.000	-0.035	-0.124
-136.414	-43.175	0.185	-0.093
-135.399	-66.133	0.428	-0.170
-134.385	800.000	0.051	-0.216
-133.370	317.878	0.189	-0.357
-132.356	-64.558	-0.267	0.108
-131.341	-115.674	0.186	-0.035
-130.326	-87.257	-0.217	0.066
-129.312	-91.035	0.123	0.035
-128.297	-169.107	-0.010	-0.000
-127.283	-123.773	0.178	-0.028
-126.268	218.945	0.196	0.313
-125.253	-186.307	0.396	0.006
-124.239	185.516	0.075	-0.111
-123.224	-6.444	-0.163	-0.111
-122.210	-200.000	-0.009	-0.060
