DTS Sentinel unit serial number:	SN413079Multiplexer serial number:	ORYXHardware model number:	OX4-SRSoftware version number:	ORYX F/W v4.00 Oryx Data Collector v3.7.2.0data status	okinstallation	princeton_trtdifferential loss correction	single-endedforward channel	channel 4reverse channel	N/Adate	2019/09/13time	21:53:35forward acquisition time	60.00reverse acquisition time	0.00gamma	496.2192k internal	0.2319k external	0.2319temperature offset calibration	1.0129default loss term (dB/km)	0.3790temperature slope calibration	1.0000multiplexer offset coefficient	1.0000multiplexer slope coefficient	1.0000fibre end	0.00T internal ref (°C)	28.06T ext. ref 1 (°C)	3.08T ext. ref 2 (°C)	22.81length (m)	temperature (°C)	Stokes	anti-Stokes-747.200	69.079	0.214	0.223
-746.185	-134.428	-0.153	-0.019
-745.171	-64.095	0.208	0.086
-744.156	469.880	0.101	0.229
-743.142	-191.398	-0.275	-0.003
-742.127	228.803	-0.120	0.198
-741.112	190.541	-0.045	-0.069
-740.098	584.777	-0.150	0.373
-739.083	131.076	0.078	-0.102
-738.069	228.256	-0.125	0.206
-737.054	-200.000	0.060	-0.519
-736.039	-37.048	-0.216	-0.117
-735.025	-200.000	-0.059	0.327
-734.010	-8.839	-0.202	-0.137
-732.996	210.060	0.021	-0.034
-731.981	104.689	-0.156	-0.186
-730.966	-93.433	-0.105	-0.030
-729.952	325.437	0.119	-0.230
-728.937	-52.734	-0.184	-0.086
-727.923	338.348	-0.181	-0.355
-726.908	354.564	0.117	0.235
-725.894	-200.000	-0.029	-0.137
-724.879	674.642	-0.050	-0.130
-723.864	-74.565	-0.594	-0.216
-722.850	196.091	-0.215	0.331
-721.835	-121.257	-0.239	-0.040
-720.821	63.293	-0.083	-0.084
-719.806	-2.202	-0.392	0.278
-718.791	-135.073	0.157	0.019
-717.777	-200.000	-0.007	0.357
-716.762	131.399	-0.207	-0.268
-715.748	800.000	0.132	-0.378
-714.733	-30.831	-0.124	-0.071
-713.718	-43.404	-0.263	-0.134
-712.704	260.239	0.061	-0.106
-711.689	800.000	-0.053	0.186
-710.675	-111.334	0.234	-0.048
-709.660	-140.252	0.106	-0.011
-708.645	654.203	-0.129	0.333
-707.631	-200.000	-0.007	0.054
-706.616	-154.895	-0.249	-0.017
-705.602	-10.415	-0.065	-0.043
-704.587	641.476	-0.123	-0.316
-703.572	-46.195	-0.318	0.158
-702.558	-98.111	0.070	0.018
-701.543	-103.704	0.124	0.029
-700.529	-200.000	0.010	-0.216
-699.514	376.783	0.155	-0.319
-698.499	43.061	-0.138	-0.127
-697.485	72.828	0.066	-0.069
-696.470	800.000	0.033	-0.111
-695.456	152.052	-0.311	-0.428
-694.441	-114.773	-0.425	-0.082
-693.426	-148.784	0.102	-0.008
-692.412	-200.000	-0.002	0.065
-691.397	1.683	-0.164	-0.119
-690.383	-121.486	0.207	0.035
-689.368	-67.847	-0.183	-0.072
-688.354	196.111	-0.232	-0.356
-687.339	-200.000	0.122	-0.554
-686.324	206.476	-0.188	-0.295
-685.310	-16.085	0.136	0.087
-684.295	-60.705	0.167	0.071
-683.281	208.663	0.078	-0.123
-682.266	314.858	-0.146	-0.278
-681.251	56.270	0.210	-0.206
-680.237	59.347	-0.463	-0.460
-679.222	642.804	0.074	0.190
-678.208	800.000	0.036	0.140
-677.193	209.508	0.105	0.167
-676.178	656.113	0.116	0.300
-675.164	354.165	-0.084	0.169
-674.149	800.000	0.109	0.346
-673.135	18.869	-0.257	0.208
-672.120	-33.205	-0.124	0.069
-671.105	-116.218	-0.082	-0.015
-670.091	-191.428	-0.116	0.001
-669.076	-69.293	0.045	0.017
-668.062	249.677	-0.083	-0.142
-667.047	-200.000	-0.003	0.144
-666.032	99.960	-0.136	0.158
-665.018	136.616	-0.122	0.160
-664.003	-200.000	-0.031	-0.177
-662.989	800.000	-0.035	0.124
-661.974	800.000	-0.084	0.299
-660.959	-69.466	0.222	-0.086
-659.945	-107.561	-0.191	-0.042
-658.930	154.817	-0.104	0.144
-657.916	408.377	-0.081	-0.173
-656.901	-134.303	-0.248	-0.031
-655.886	800.000	-0.072	0.245
-654.872	-177.974	-0.249	0.006
-653.857	-200.000	-0.069	-0.448
-652.843	-84.150	-0.043	-0.014
-651.828	157.627	0.126	-0.177
-650.814	800.000	-0.096	-0.403
-649.799	-14.984	-0.171	-0.110
-648.784	800.000	0.138	-0.499
-647.770	-78.739	-0.305	-0.105
-646.755	800.000	-0.015	0.044
-645.741	-200.000	0.022	-0.176
-644.726	487.046	0.070	-0.162
-643.711	717.421	-0.126	-0.337
-642.697	399.073	0.073	0.155
-641.682	-66.813	-0.231	0.092
-640.668	100.734	-0.142	-0.167
-639.653	-49.366	0.285	-0.137
-638.638	-181.443	-0.326	0.006
-637.624	800.000	0.055	-0.208
-636.609	371.196	0.088	-0.179
-635.595	14.608	0.282	-0.222
-634.580	-200.000	-0.048	0.502
-633.565	800.000	0.119	0.416
-632.551	16.431	-0.463	-0.369
-631.536	-75.033	-0.044	-0.016
-630.522	-52.473	-0.170	-0.079
-629.507	180.145	0.263	-0.388
-628.492	-89.058	-0.040	-0.012
-627.478	8.398	-0.226	0.171
-626.463	-173.088	-0.136	0.004
-625.449	800.000	-0.054	-0.192
-624.434	-162.951	0.260	-0.013
-623.419	224.160	-0.230	-0.374
-622.405	-74.248	-0.241	-0.088
-621.390	268.217	-0.124	-0.220
-620.376	-85.093	-0.040	-0.013
-619.361	-28.623	0.143	-0.083
-618.346	-200.000	-0.026	-0.277
-617.332	196.840	-0.106	-0.162
-616.317	-162.429	0.201	-0.010
-615.303	-200.000	-0.005	-0.312
-614.288	-28.545	-0.178	0.103
-613.273	57.553	0.325	-0.320
-612.259	52.890	0.079	-0.076
-611.244	800.000	-0.087	-0.271
-610.230	-183.154	-0.055	-0.001
-609.215	800.000	0.017	-0.068
-608.201	-200.000	-0.029	0.265
-607.186	-200.000	0.005	-0.146
-606.171	-74.592	0.049	0.018
-605.157	-185.354	-0.087	-0.001
-604.142	-194.844	-0.255	0.002
-603.128	-195.243	-0.137	0.001
-602.113	5.726	-0.115	-0.086
-601.098	659.797	-0.060	-0.154
-600.084	785.645	0.054	-0.150
-599.069	-33.713	0.074	-0.041
-598.055	154.837	-0.188	0.259
-597.040	-173.171	-0.476	0.015
-596.025	-103.967	-0.164	-0.038
-595.011	800.000	-0.117	0.444
-593.996	-200.000	0.025	0.192
-592.982	241.626	0.241	0.404
-591.967	-87.539	-0.201	-0.061
-590.952	-200.000	-0.005	0.533
-589.938	14.373	0.289	0.226
-588.923	20.952	-0.402	-0.328
-587.909	27.401	-0.133	0.113
-586.894	-200.000	-0.010	0.304
-585.879	-130.891	-0.063	0.009
-584.865	-200.000	0.027	-0.228
-583.850	357.371	-0.133	-0.267
-582.836	93.230	0.191	-0.218
-581.821	-105.955	-0.134	-0.030
-580.806	-7.976	-0.196	0.133
-579.792	-73.061	-0.126	0.047
-578.777	136.684	-0.191	0.250
-577.763	157.536	-0.102	-0.142
-576.748	20.356	0.162	0.131
-575.733	177.074	0.086	0.126
-574.719	77.918	0.124	-0.133
-573.704	22.940	-0.135	-0.111
-572.690	-121.822	-0.257	0.043
-571.675	-95.966	0.519	-0.139
-570.661	137.688	0.113	-0.148
-569.646	162.430	0.038	-0.054
-568.631	-51.051	-0.270	-0.127
-567.617	168.660	0.029	0.041
-566.602	6.161	0.324	0.241
-565.588	-48.810	-0.077	0.037
-564.573	-97.258	0.218	-0.057
-563.558	-188.829	0.261	-0.003
-562.544	800.000	-0.131	-0.400
-561.529	800.000	-0.041	-0.159
-560.515	197.290	-0.196	-0.300
-559.500	-46.182	0.356	-0.176
-558.485	-131.270	-0.229	-0.031
-557.471	800.000	0.083	-0.266
-556.456	-70.022	-0.178	0.068
-555.442	11.437	0.227	-0.175
-554.427	800.000	0.029	0.091
-553.412	-108.227	0.183	-0.040
-552.398	-200.000	-0.031	0.221
-551.383	582.343	-0.095	-0.234
-550.369	-122.312	-0.058	-0.009
-549.354	-78.517	0.537	0.184
-548.339	-129.332	0.030	0.004
-547.325	800.000	-0.010	-0.038
-546.310	-200.000	0.007	0.039
-545.296	-200.000	-0.046	0.357
-544.281	203.114	0.042	0.064
-543.266	85.109	0.162	0.178
-542.252	27.817	-0.292	0.247
-541.237	139.007	0.221	-0.291
-540.223	-124.640	0.057	0.009
-539.208	230.065	0.085	-0.139
-538.193	58.336	0.171	0.168
-537.179	129.978	-0.233	0.299
-536.164	-200.000	0.000	-0.008
-535.150	66.827	-0.186	0.190
-534.135	-200.000	0.004	0.326
-533.121	-200.000	0.086	0.383
-532.106	-16.808	-0.337	-0.214
-531.091	267.144	-0.066	0.115
-530.077	-101.978	0.429	0.104
-529.062	67.446	-0.193	-0.197
-528.048	301.767	0.152	-0.282
-527.033	-200.000	-0.014	0.145
-526.018	-20.792	-0.500	0.307
-525.004	192.960	-0.073	0.110
-523.989	599.676	0.131	0.326
-522.975	576.480	-0.052	-0.126
-521.960	293.142	-0.149	-0.272
-520.945	-200.000	0.003	-0.193
-519.931	109.453	0.245	0.295
-518.916	111.756	-0.102	-0.124
-517.902	283.987	0.101	-0.181
-516.887	-72.715	0.198	0.073
-515.872	63.276	0.224	0.225
-514.858	-94.606	-0.224	0.061
-513.843	-88.805	0.410	0.122
-512.829	800.000	-0.076	0.262
-511.814	800.000	0.018	-0.057
-510.799	-99.551	0.094	-0.024
-509.785	-200.000	0.011	0.241
-508.770	-200.000	0.067	0.411
-507.756	756.034	0.121	-0.329
-506.741	7.620	0.075	-0.056
-505.726	226.454	-0.111	0.180
-504.712	800.000	-0.055	-0.213
-503.697	152.248	0.199	-0.272
-502.683	-166.046	0.272	0.012
-501.668	124.642	-0.130	-0.164
-500.653	300.583	-0.214	0.396
-499.639	-51.680	0.206	0.096
-498.624	-101.544	-0.128	-0.031
-497.610	18.833	-0.322	-0.259
-496.595	-108.845	0.258	-0.055
-495.581	-91.840	0.250	-0.071
-494.566	-103.807	-0.125	0.029
-493.551	-200.000	0.039	0.240
-492.537	394.803	0.028	0.058
-491.522	31.567	0.207	0.178
-490.508	-156.858	0.088	-0.005
-489.493	800.000	0.044	-0.138
-488.478	-77.025	0.430	0.150
-487.464	626.997	0.045	-0.114
-486.449	-200.000	0.042	-0.317
-485.435	82.712	-0.110	-0.120
-484.420	119.349	-0.063	-0.078
-483.405	-31.476	-0.234	-0.131
-482.391	-200.000	-0.015	-0.076
-481.376	192.164	0.087	-0.132
-480.362	-58.491	0.216	-0.094
-479.347	-113.538	-0.397	-0.078
-478.332	800.000	-0.088	0.339
-477.318	-200.000	0.007	0.039
-476.303	-200.000	-0.039	0.280
-475.289	72.296	0.154	0.161
-474.274	-200.000	0.018	0.267
-473.259	44.613	0.099	-0.091
-472.245	800.000	-0.012	-0.035
-471.230	-55.305	0.113	-0.051
-470.216	-200.000	0.013	0.171
-469.201	-139.466	0.071	-0.008
-468.186	572.604	0.057	0.140
-467.172	169.731	-0.051	0.073
-466.157	-144.353	-0.429	0.040
-465.143	-16.905	0.147	-0.093
-464.128	-73.783	0.036	-0.013
-463.113	15.457	-0.026	0.020
-462.099	-3.126	-0.187	0.131
-461.084	-87.568	0.523	0.158
-460.070	-49.758	0.047	0.022
-459.055	800.000	-0.072	-0.247
-458.040	8.520	0.412	-0.310
-457.026	-57.102	-0.229	-0.101
-456.011	30.685	-0.238	0.204
-454.997	237.837	0.164	0.273
-453.982	72.857	-0.040	0.041
-452.968	232.107	-0.148	-0.242
-451.953	224.963	-0.088	-0.142
-450.938	-16.582	-0.201	0.127
-449.924	-200.000	-0.010	0.248
-448.909	-200.000	-0.012	0.064
-447.895	16.237	0.097	-0.076
-446.880	-186.143	0.152	0.002
-445.865	-119.454	0.129	-0.022
-444.851	79.878	-0.079	-0.084
-443.836	-200.000	-0.017	0.362
-442.822	-98.340	-0.091	-0.023
-441.807	-28.390	-0.181	0.104
-440.792	666.234	0.049	-0.126
-439.778	83.901	0.099	-0.108
-438.763	-45.558	-0.449	0.222
-437.749	-200.000	0.005	0.046
-436.734	-15.915	-0.145	-0.092
-435.719	-200.000	0.006	0.085
-434.705	-200.000	-0.037	0.328
-433.690	-28.598	0.066	0.038
-432.676	-113.017	0.302	0.060
-431.661	-68.600	-0.336	0.130
-430.646	-12.997	0.441	-0.287
-429.632	49.268	0.135	0.127
-428.617	-121.578	-0.229	-0.038
-427.603	576.894	-0.127	-0.310
-426.588	-200.000	-0.059	0.276
-425.573	12.918	0.284	0.219
-424.559	-7.680	0.152	0.103
-423.544	-200.000	0.011	0.117
-422.530	-200.000	-0.001	0.294
-421.515	433.853	-0.087	0.189
-420.500	223.795	0.027	-0.044
-419.486	-200.000	-0.006	-0.252
-418.471	135.284	0.133	0.173
-417.457	159.650	-0.049	-0.068
-416.442	-11.015	0.141	-0.093
-415.428	350.215	-0.031	-0.062
-414.413	-127.002	-0.152	-0.022
-413.398	-200.000	0.000	0.141
-412.384	-28.263	-0.224	0.129
-411.369	-67.100	0.423	0.166
-410.355	6.119	-0.367	0.271
-409.340	73.841	-0.022	-0.023
-408.325	420.524	-0.057	0.122
-407.311	260.729	0.101	-0.174
-406.296	-61.365	-0.332	0.139
-405.282	107.925	-0.138	0.165
-404.267	182.373	-0.234	-0.344
-403.252	-200.000	0.009	0.042
-402.238	-149.111	0.106	-0.008
-401.223	-50.779	-0.179	-0.084
-400.209	457.655	-0.167	0.371
-399.194	-200.000	0.028	-0.336
-398.179	-5.893	0.156	-0.106
-397.165	-147.395	-0.220	0.019
-396.150	22.140	-0.142	-0.116
-395.136	124.344	0.168	0.211
-394.121	-200.000	0.008	-0.282
-393.106	800.000	0.065	0.208
-392.092	27.246	0.076	-0.064
-391.077	113.546	-0.084	-0.102
-390.063	211.359	0.096	-0.150
-389.048	800.000	0.041	-0.129
-388.033	186.453	-0.186	0.276
-387.019	277.864	0.097	-0.172
-386.004	-96.557	0.227	0.060
-384.990	120.530	-0.355	0.439
-383.975	-81.548	0.157	-0.052
-382.960	800.000	-0.034	0.095
-381.946	-18.731	-0.313	0.195
-380.931	-86.202	0.127	-0.039
-379.917	-101.870	-0.128	0.031
-378.902	-200.000	-0.042	0.235
-377.888	18.342	0.287	0.229
-376.873	-200.000	-0.021	-0.129
-375.858	110.756	-0.184	-0.220
-374.844	-200.000	-0.015	-0.302
-373.829	11.571	0.097	-0.074
-372.815	-4.163	0.055	0.038
-371.800	-155.168	0.184	-0.012
-370.785	-79.376	0.168	0.057
-369.771	-200.000	0.025	0.154
-368.756	-87.918	-0.125	-0.037
-367.742	-200.000	-0.022	0.572
-366.727	32.748	0.094	-0.081
-365.712	-200.000	0.010	0.117
-364.698	296.699	-0.063	-0.116
-363.683	-101.021	-0.225	0.055
-362.669	581.372	0.025	-0.061
-361.654	-200.000	0.056	-0.356
-360.639	-122.372	0.154	0.025
-359.625	-147.122	-0.294	0.025
-358.610	292.478	0.062	0.112
-357.596	-200.000	-0.002	-0.010
-356.581	800.000	0.113	0.345
-355.566	-112.122	-0.142	-0.028
-354.552	-140.631	0.401	-0.041
-353.537	151.352	-0.122	-0.166
-352.523	-151.983	0.303	-0.022
-351.508	-17.183	0.206	-0.129
-350.493	25.011	-0.259	-0.214
-349.479	61.156	0.252	-0.249
-348.464	800.000	0.026	-0.084
-347.450	170.545	0.138	-0.196
-346.435	167.598	0.118	-0.167
-345.420	20.942	-0.135	-0.109
-344.406	-200.000	-0.031	-0.183
-343.391	-200.000	-0.149	0.001
-342.377	-200.000	0.006	-0.107
-341.362	82.371	-0.194	0.210
-340.348	-25.675	-0.100	0.059
-339.333	-74.641	-0.102	-0.037
-338.318	800.000	0.073	0.242
-337.304	-108.629	0.010	0.002
-336.289	-72.892	0.286	0.105
-335.275	-145.632	-0.401	0.036
-334.260	-142.205	-0.135	-0.013
-333.245	-158.325	0.259	-0.015
-332.231	-129.719	-0.364	-0.050
-331.216	475.392	-0.029	0.066
-330.202	-37.414	0.091	-0.049
-329.187	72.908	-0.170	0.177
-328.172	-200.000	-0.007	0.223
-327.158	721.794	-0.091	0.242
-326.143	-200.000	-0.026	-0.159
-325.129	-100.086	-0.120	0.030
-324.114	800.000	-0.020	-0.065
-323.099	800.000	-0.080	0.319
-322.085	-200.000	0.061	-0.312
-321.070	74.904	-0.380	-0.398
-320.056	-5.475	-0.234	-0.160
-319.041	-92.090	0.177	0.050
-318.026	-41.866	-0.253	0.129
-317.012	667.848	-0.123	0.318
-315.997	-13.351	0.268	-0.173
-314.983	-200.000	-0.020	0.361
-313.968	-200.000	-0.021	0.119
-312.953	-47.847	0.216	-0.104
-311.939	48.123	0.172	0.160
-310.924	-40.803	-0.274	0.141
-309.910	800.000	-0.046	-0.169
-308.895	393.928	-0.072	0.150
-307.880	251.946	-0.141	-0.240
-306.866	-200.000	0.021	-0.333
-305.851	107.058	-0.099	-0.117
-304.837	-118.406	0.197	-0.035
-303.822	-180.602	0.155	0.003
-302.807	-11.245	0.259	0.170
-301.793	-158.638	-0.071	0.004
-300.778	368.528	0.091	-0.184
-299.764	296.264	0.120	-0.218
-298.749	-29.556	-0.170	-0.097
-297.735	-37.847	-0.139	-0.073
-296.720	313.393	0.129	0.241
-295.705	-200.000	0.008	0.351
-294.691	137.056	0.128	0.166
-293.676	-200.000	0.016	-0.079
-292.662	191.266	0.076	0.114
-291.647	33.180	-0.130	-0.112
-290.632	52.764	-0.085	0.081
-289.618	-109.408	-0.339	-0.071
-288.603	-7.272	-0.092	-0.062
-287.589	158.771	-0.143	-0.198
-286.574	-17.609	-0.143	-0.089
-285.559	-58.326	-0.173	-0.075
-284.545	740.727	-0.080	-0.215
-283.530	175.830	-0.119	0.171
-282.516	-53.743	-0.109	0.050
-281.501	-39.175	0.358	0.187
-280.486	-54.502	-0.356	0.160
-279.472	800.000	0.090	-0.365
-278.457	63.222	0.276	0.275
-277.443	-73.969	0.166	0.060
-276.428	6.702	-0.147	-0.109
-275.413	-49.226	0.182	0.086
-274.399	-200.000	0.022	-0.133
-273.384	-160.766	-0.221	0.012
-272.370	-200.000	-0.007	-0.147
-271.355	-58.609	-0.222	-0.095
-270.340	180.991	-0.144	0.211
-269.326	156.248	0.128	-0.176
-268.311	38.706	0.067	0.059
-267.297	-115.427	-0.267	-0.050
-266.282	800.000	0.008	0.033
-265.267	348.739	-0.091	-0.179
-264.253	-10.011	0.246	-0.163
-263.238	800.000	-0.058	0.211
-262.224	33.916	0.198	-0.171
-261.209	-112.844	0.106	0.021
-260.195	-137.312	0.252	0.028
-259.180	160.080	-0.078	0.108
-258.165	82.167	-0.106	-0.114
-257.151	103.083	-0.055	-0.064
-256.136	-149.455	-0.100	-0.008
-255.122	-78.712	-0.250	0.085
-254.107	58.528	-0.061	0.059
-253.092	48.969	-0.117	-0.109
-252.078	55.649	-0.064	-0.061
-251.063	800.000	-0.091	-0.305
-250.049	-33.836	0.273	0.149
-249.034	-200.000	0.069	0.325
-248.019	-137.799	0.091	0.010
-247.005	-200.000	-0.007	0.395
-245.990	-200.000	-0.003	0.237
-244.976	170.133	0.105	-0.150
-243.961	152.447	-0.078	-0.106
-242.946	-25.528	0.173	0.101
-241.932	-200.000	-0.010	-0.210
-240.917	-113.832	-0.166	0.032
-239.903	120.371	0.139	-0.172
-238.888	-200.000	0.037	0.174
-237.873	-98.116	0.133	0.034
-236.859	-77.739	0.159	0.054
-235.844	-23.720	0.155	-0.092
-234.830	-200.000	-0.028	0.249
-233.815	800.000	-0.066	0.199
-232.800	331.309	-0.100	-0.191
-231.786	-200.000	0.001	-0.205
-230.771	-200.000	-0.004	0.066
-229.757	-60.343	-0.140	0.059
-228.742	511.775	-0.008	-0.018
-227.727	-55.951	0.237	0.105
-226.713	-200.000	0.017	0.143
-225.698	13.862	-0.477	0.367
-224.684	301.970	-0.092	-0.168
-223.669	-43.168	-0.161	-0.081
-222.655	-200.000	0.007	-0.075
-221.640	427.300	-0.163	-0.348
-220.625	-196.153	0.181	0.001
-219.611	-169.356	0.228	0.008
-218.596	487.355	0.127	-0.287
-217.582	-170.766	0.100	-0.003
-216.567	-200.000	-0.046	-0.411
-215.552	-200.000	0.369	0.001
-214.538	-151.560	0.351	-0.026
-213.523	800.000	-0.095	0.304
-212.509	107.954	-0.143	0.168
-211.494	-175.376	0.109	-0.003
-210.479	-142.995	0.186	-0.018
-209.465	-87.413	0.174	-0.052
-208.450	0.709	0.187	-0.132
-207.436	425.893	0.123	0.262
-206.421	110.202	0.304	0.362
-205.406	-200.000	-0.002	-0.085
-204.392	-108.557	0.245	0.052
-203.377	-63.137	0.187	0.076
-202.363	-200.000	0.014	0.242
-201.348	-24.542	-0.217	0.128
-200.333	-200.000	-0.028	0.179
-199.319	215.543	0.177	0.279
-198.304	800.000	-0.033	-0.096
-197.290	130.235	0.092	-0.116
-196.275	71.576	-0.135	0.139
-195.260	800.000	-0.006	-0.020
-194.246	-200.000	0.041	-0.511
-193.231	24.327	0.232	-0.190
-192.217	264.923	0.116	0.199
-191.202	670.552	0.112	0.287
-190.187	-89.478	-0.175	0.051
-189.173	-120.820	0.148	0.025
-188.158	-109.272	-0.444	-0.093
-187.144	-116.069	-0.076	0.014
-186.129	-2.020	0.132	0.092
-185.114	-146.466	0.230	0.020
-184.100	110.957	-0.053	-0.063
-183.085	203.736	0.093	-0.143
-182.071	-200.000	-0.088	0.525
-181.056	15.669	0.042	0.033
-180.042	-75.709	-0.216	-0.076
-179.027	-76.133	0.281	-0.098
-178.012	-170.623	-0.245	-0.008
-176.998	800.000	0.067	0.231
-175.983	43.606	-0.117	-0.106
-174.969	-73.271	-0.164	-0.059
-173.954	-117.393	0.152	-0.027
-172.939	-90.025	-0.299	-0.086
-171.925	4.453	0.281	-0.204
-170.910	65.110	0.100	-0.099
-169.896	-131.818	-0.059	-0.008
-168.881	-119.935	0.237	0.040
-167.866	-200.000	-0.031	-0.432
-166.852	14.037	0.157	-0.121
-165.837	233.082	-0.075	-0.122
-164.823	108.990	0.148	-0.175
-163.808	-200.000	-0.003	-0.054
-162.793	759.506	0.028	-0.074
-161.779	484.937	0.065	0.145
-160.764	483.542	0.056	-0.126
-159.750	192.176	-0.021	-0.031
-158.735	-200.000	0.036	-0.223
-157.720	486.491	-0.098	0.221
-156.706	-95.559	0.286	0.076
-155.691	-2.755	0.190	0.131
-154.677	800.000	0.034	-0.127
-153.662	85.503	0.237	-0.257
-152.647	50.569	-0.109	0.102
-151.633	314.936	0.094	-0.175
-150.618	-114.444	-0.229	-0.043
-149.604	125.057	-0.148	0.184
-148.589	68.627	0.061	-0.062
-147.574	-114.668	-0.219	-0.041
-146.560	95.222	0.167	-0.188
-145.545	499.780	0.054	0.123
-144.531	-140.873	-0.191	-0.019
-143.516	800.000	-0.045	0.128
-142.502	-49.675	0.285	-0.134
-141.487	-135.209	0.274	-0.033
-140.472	635.829	0.087	0.219
-139.458	-171.506	-0.463	-0.015
-138.443	66.912	-0.131	0.132
-137.429	246.449	0.049	0.082
-136.414	120.775	0.099	-0.122
-135.399	-20.752	0.102	-0.062
-134.385	-97.846	0.506	0.129
-133.370	-84.080	0.195	-0.061
-132.356	62.207	-0.159	0.157
-131.341	-64.813	-0.147	-0.059
-130.326	-21.405	-0.206	-0.124
-129.312	-149.128	0.345	0.027
-128.297	175.713	0.163	0.234
-127.283	1.988	0.016	-0.011
-126.268	56.364	-0.153	-0.147
-125.253	434.144	-0.009	0.018
-124.239	800.000	-0.049	0.207
-123.224	-126.405	-0.154	-0.023
