DTS Sentinel unit serial number:	SN413079Multiplexer serial number:	ORYXHardware model number:	OX4-SRSoftware version number:	ORYX F/W v4.00 Oryx Data Collector v3.7.2.0data status	okinstallation	princeton_trtdifferential loss correction	single-endedforward channel	channel 4reverse channel	N/Adate	2019/09/17time	00:05:35forward acquisition time	60.00reverse acquisition time	0.00gamma	496.2192k internal	0.2314k external	0.2314temperature offset calibration	0.9974default loss term (dB/km)	0.3790temperature slope calibration	1.0000multiplexer offset coefficient	1.0000multiplexer slope coefficient	1.0000fibre end	0.00T internal ref (°C)	29.56T ext. ref 1 (°C)	0.09T ext. ref 2 (°C)	23.92length (m)	temperature (°C)	Stokes	anti-Stokes-747.200	-45.734	0.122	0.061
-746.185	-68.303	-0.468	0.184
-745.171	249.315	0.068	0.118
-744.156	-80.830	-0.084	0.028
-743.142	-77.219	0.135	-0.048
-742.127	475.343	-0.092	0.210
-741.112	-49.741	0.229	0.111
-740.098	-23.068	-0.165	-0.101
-739.083	-29.998	0.137	0.079
-738.069	54.911	-0.082	0.080
-737.054	-12.562	-0.372	-0.246
-736.039	-164.301	-0.385	-0.018
-735.025	-200.000	-0.059	0.376
-734.010	-200.000	0.065	-0.314
-732.996	166.868	0.059	0.084
-731.981	49.984	-0.183	-0.175
-730.966	164.514	0.034	0.048
-729.952	102.818	-0.033	-0.039
-728.937	-69.649	-0.228	-0.088
-727.923	-200.000	-0.004	-0.071
-726.908	-200.000	0.026	0.178
-725.894	-200.000	-0.011	-0.422
-724.879	-137.255	0.115	0.013
-723.864	-115.341	0.397	0.076
-722.850	-196.200	0.204	0.001
-721.835	-200.000	-0.072	0.404
-720.821	214.503	0.077	0.124
-719.806	-200.000	0.040	0.260
-718.791	74.598	-0.367	0.391
-717.777	233.402	0.041	0.069
-716.762	-27.580	-0.011	0.006
-715.748	-81.281	-0.146	0.049
-714.733	-200.000	0.045	0.337
-713.718	415.966	-0.128	-0.277
-712.704	-137.916	0.309	0.035
-711.689	-144.828	0.227	-0.021
-710.675	800.000	-0.031	0.110
-709.660	1.877	0.145	0.106
-708.645	487.902	0.091	-0.211
-707.631	-50.260	-0.239	-0.114
-706.616	-6.730	0.260	0.179
-705.602	-148.217	-0.129	-0.011
-704.587	-3.144	-0.161	0.114
-703.572	-52.675	-0.156	-0.073
-702.558	-200.000	0.003	0.368
-701.543	220.790	-0.013	-0.020
-700.529	800.000	0.057	-0.211
-699.514	553.621	0.117	-0.285
-698.499	-26.402	-0.287	-0.171
-697.485	-200.000	0.011	-0.217
-696.470	-200.000	-0.307	0.000
-695.456	-124.421	-0.267	-0.042
-694.441	-71.289	0.066	-0.025
-693.426	-21.114	0.266	-0.164
-692.412	59.954	-0.058	0.057
-691.397	800.000	-0.016	-0.046
-690.383	-151.052	-0.306	-0.023
-689.368	-200.000	0.001	0.107
-688.354	-55.779	0.092	-0.042
-687.339	-53.122	0.058	-0.027
-686.324	800.000	0.074	0.225
-685.310	-53.978	0.066	0.030
-684.295	-11.375	0.153	0.102
-683.281	-79.561	0.208	-0.071
-682.266	-91.961	-0.447	0.128
-681.251	-121.869	-0.087	-0.015
-680.237	280.841	0.089	0.160
-679.222	29.215	0.182	0.156
-678.208	200.117	0.050	-0.078
-677.193	-40.973	-0.334	-0.175
-676.178	-200.000	-0.048	-0.230
-675.164	-112.666	-0.256	-0.051
-674.149	69.938	-0.065	0.068
-673.135	100.137	0.200	0.235
-672.120	-74.809	-0.075	-0.027
-671.105	-27.076	-0.180	-0.106
-670.091	126.369	0.025	-0.031
-669.076	-88.382	0.132	0.040
-668.062	0.304	0.321	0.232
-667.047	116.179	-0.333	-0.412
-666.032	31.931	-0.074	0.064
-665.018	63.045	0.166	-0.168
-664.003	-200.000	0.011	-0.252
-662.989	347.408	-0.058	0.115
-661.974	-18.498	0.185	0.117
-660.959	-35.524	-0.141	-0.078
-659.945	-200.000	0.037	0.179
-658.930	800.000	-0.056	0.216
-657.916	130.065	-0.207	0.268
-656.901	-107.005	0.529	0.118
-655.886	-1.747	0.061	0.044
-654.872	43.254	0.175	-0.162
-653.857	-55.043	0.089	0.040
-652.843	124.121	0.176	-0.223
-651.828	-101.950	-0.469	-0.114
-650.814	-143.756	-0.256	0.024
-649.799	103.869	-0.178	0.211
-648.784	-200.000	0.041	-0.296
-647.770	-70.443	0.220	0.084
-646.755	-60.725	0.143	0.061
-645.741	-200.000	0.065	-0.459
-644.726	-123.572	0.103	-0.016
-643.711	-200.000	-0.008	-0.130
-642.697	-157.466	0.247	-0.015
-641.682	-17.642	-0.121	-0.077
-640.668	800.000	-0.089	-0.275
-639.653	-200.000	0.030	-0.164
-638.638	121.506	0.140	-0.177
-637.624	-79.127	0.170	0.058
-636.609	0.877	-0.129	0.093
-635.595	-68.147	-0.350	0.137
-634.580	456.977	-0.067	0.150
-633.565	-200.000	0.006	-0.080
-632.551	23.232	0.176	-0.146
-631.536	800.000	0.011	0.034
-630.522	317.134	0.054	0.102
-629.507	-11.574	0.053	0.035
-628.492	623.099	0.112	-0.285
-627.478	402.233	0.039	0.084
-626.463	-162.000	0.193	0.010
-625.449	-200.000	-0.012	0.200
-624.434	-200.000	0.012	0.231
-623.419	-94.436	-0.554	-0.153
-622.405	391.782	-0.248	0.520
-621.390	-91.616	0.080	0.023
-620.376	-19.998	-0.222	-0.138
-619.361	201.712	0.160	0.249
-618.346	-97.262	-0.164	-0.043
-617.332	-109.412	0.195	-0.042
-616.317	261.673	0.046	-0.080
-615.303	-3.623	-0.132	-0.092
-614.288	574.263	0.081	0.199
-613.273	28.647	0.299	-0.255
-612.259	-174.723	0.223	-0.006
-611.244	41.777	-0.202	-0.184
-610.230	184.707	0.064	0.095
-609.215	-124.804	0.046	-0.007
-608.201	-76.762	0.133	-0.047
-607.186	14.527	0.163	-0.128
-606.171	-200.000	-0.002	0.107
-605.157	29.390	-0.041	0.035
-604.142	-9.769	-0.212	-0.142
-603.128	250.597	0.095	-0.162
-602.113	-200.000	-0.001	-0.079
-601.098	651.318	-0.084	-0.216
-600.084	-200.000	-0.003	0.303
-599.069	-7.661	-0.461	-0.314
-598.055	59.009	-0.210	0.208
-597.040	-26.935	-0.113	0.067
-596.025	-135.640	-0.281	-0.034
-595.011	-104.182	0.205	-0.048
-593.996	80.359	-0.247	-0.268
-592.982	-118.655	0.220	-0.039
-591.967	-152.796	0.291	0.021
-590.952	800.000	-0.066	0.234
-589.938	-200.000	-0.057	0.320
-588.923	104.594	-0.027	0.032
-587.909	-105.037	0.172	0.040
-586.894	-200.000	0.041	0.277
-585.879	-158.706	-0.436	-0.025
-584.865	379.036	0.047	-0.097
-583.850	322.648	-0.099	0.190
-582.836	-120.404	0.140	-0.024
-581.821	800.000	0.024	-0.079
-580.806	800.000	-0.059	-0.200
-579.792	-200.000	-0.012	0.089
-578.777	-13.481	0.172	-0.112
-577.763	4.707	0.193	-0.143
-576.748	87.620	0.270	-0.301
-575.733	59.302	0.094	0.093
-574.719	341.845	-0.104	-0.204
-573.704	577.699	-0.125	0.308
-572.690	-21.965	0.299	0.183
-571.675	35.123	0.096	0.085
-570.661	175.376	-0.012	-0.018
-569.646	-45.174	0.235	-0.118
-568.631	80.469	0.195	-0.211
-567.617	-200.000	0.029	0.670
-566.602	28.804	0.008	0.006
-565.588	232.596	-0.101	0.167
-564.573	-15.540	-0.364	-0.234
-563.558	88.558	-0.061	-0.068
-562.544	771.720	-0.078	0.214
-561.529	497.642	-0.088	-0.204
-560.515	431.201	-0.084	0.183
-559.500	-200.000	-0.031	-0.215
-558.485	150.043	-0.107	-0.147
-557.471	32.467	0.117	0.102
-556.456	89.554	0.209	0.235
-555.442	235.879	-0.220	-0.366
-554.427	-83.726	-0.085	-0.027
-553.412	-129.393	0.069	0.010
-552.398	-116.597	0.260	0.048
-551.383	-103.987	-0.030	0.007
-550.369	63.879	0.265	0.268
-549.354	183.714	-0.144	-0.214
-548.339	-127.438	-0.113	-0.017
-547.325	91.870	-0.383	0.433
-546.310	-64.457	-0.133	-0.054
-545.296	-200.000	-0.004	-0.083
-544.281	-62.512	0.168	0.070
-543.266	-48.911	-0.205	-0.099
-542.252	-47.630	-0.249	0.122
-541.237	126.228	0.089	-0.113
-540.223	79.741	0.213	0.231
-539.208	-108.304	-0.230	-0.050
-538.193	-94.045	-0.253	0.070
-537.179	-133.111	-0.214	-0.027
-536.164	800.000	0.075	0.301
-535.150	316.453	-0.166	-0.316
-534.135	-25.041	0.132	0.079
-533.121	-200.000	0.079	0.466
-532.106	800.000	0.042	-0.160
-531.091	57.273	0.056	0.055
-530.077	1.247	0.114	-0.082
-529.062	-50.055	0.402	-0.191
-528.048	318.061	-0.074	-0.141
-527.033	151.158	0.014	-0.020
-526.018	-166.028	0.106	0.005
-525.004	222.623	-0.094	0.153
-523.989	168.127	-0.044	0.063
-522.975	-60.114	-0.240	0.103
-521.960	100.633	0.133	-0.155
-520.945	77.302	-0.119	0.127
-519.931	-148.415	0.141	-0.012
-518.916	183.902	0.187	-0.278
-517.902	-50.387	0.295	0.140
-516.887	85.465	0.154	0.170
-515.872	71.902	-0.162	-0.170
-514.858	-200.000	-0.063	-0.465
-513.843	-126.751	-0.250	-0.037
-512.829	-200.000	0.053	0.332
-511.814	-66.176	0.095	-0.038
-510.799	-200.000	0.012	-0.533
-509.785	149.251	0.176	-0.239
-508.770	-200.000	-0.020	0.219
-507.756	96.178	-0.152	-0.175
-506.741	-146.433	0.070	0.006
-505.726	-200.000	-0.004	-0.146
-504.712	86.200	-0.210	0.232
-503.697	-200.000	0.045	0.207
-502.683	-200.000	0.004	-0.233
-501.668	-47.927	0.620	-0.301
-500.653	619.433	-0.087	-0.221
-499.639	-63.844	-0.317	-0.130
-498.624	-154.571	0.204	0.014
-497.610	-200.000	-0.011	-0.098
-496.595	16.434	0.090	-0.071
-495.581	-18.968	-0.083	0.052
-494.566	767.189	0.042	-0.115
-493.551	604.882	-0.112	0.279
-492.537	71.879	-0.127	-0.133
-491.522	150.851	0.207	-0.282
-490.508	-106.254	0.524	0.118
-489.493	16.490	0.185	0.147
-488.478	-200.000	-0.013	0.074
-487.464	70.246	-0.036	0.037
-486.449	-65.840	0.115	-0.046
-485.435	-200.000	0.021	0.127
-484.420	-139.060	0.026	0.003
-483.405	-41.293	0.202	0.104
-482.391	185.337	-0.025	0.037
-481.376	-200.000	-0.071	-0.349
-480.362	44.236	-0.234	0.215
-479.347	-12.232	0.210	0.138
-478.332	800.000	-0.120	-0.383
-477.318	-14.242	0.287	-0.186
-476.303	97.129	0.098	-0.113
-475.289	564.445	0.076	-0.184
-474.274	-40.737	-0.228	-0.118
-473.259	413.071	0.151	-0.323
-472.245	560.941	-0.033	-0.081
-471.230	800.000	-0.030	-0.109
-470.216	697.835	-0.140	0.369
-469.201	-200.000	-0.036	-0.350
-468.186	-129.582	0.011	0.002
-467.172	-200.000	-0.004	-0.082
-466.157	-8.255	-0.098	-0.066
-465.143	10.532	-0.205	-0.157
-464.128	-200.000	-0.014	0.070
-463.113	-103.293	0.183	-0.043
-462.099	-107.264	0.203	0.045
-461.084	-200.000	-0.004	0.123
-460.070	316.694	0.075	0.141
-459.055	-77.827	-0.107	-0.037
-458.040	-200.000	-0.026	0.285
-457.026	-125.245	0.305	0.047
-456.011	157.530	0.080	0.110
-454.997	300.611	-0.136	-0.251
-453.982	-12.661	-0.281	-0.183
-452.968	150.063	0.179	0.243
-451.953	-200.000	0.037	-0.178
-450.938	800.000	0.016	0.052
-449.924	-200.000	0.037	-0.169
-448.909	-61.035	-0.314	0.133
-447.895	-79.268	-0.060	-0.020
-446.880	-200.000	0.012	-0.064
-445.865	13.905	-0.148	0.115
-444.851	-87.330	-0.161	0.049
-443.836	3.189	0.092	-0.067
-442.822	612.941	0.141	0.355
-441.807	-88.967	0.288	0.085
-440.792	-200.000	-0.005	-0.262
-439.778	-27.511	0.155	-0.090
-438.763	58.056	0.134	-0.131
-437.749	107.780	0.066	0.079
-436.734	800.000	-0.085	-0.307
-435.719	800.000	0.039	0.110
-434.705	304.222	-0.123	-0.228
-433.690	-200.000	0.030	-0.153
-432.676	404.126	-0.077	0.163
-431.661	4.469	0.196	-0.144
-430.646	-200.000	0.032	-0.251
-429.632	-8.891	-0.327	0.220
-428.617	46.024	0.103	-0.096
-427.603	64.492	-0.175	-0.177
-426.588	-71.663	0.046	-0.017
-425.573	800.000	0.030	-0.130
-424.559	258.423	0.063	-0.108
-423.544	27.298	0.185	-0.156
-422.530	-85.891	0.221	-0.068
-421.515	-200.000	0.064	0.327
-420.500	631.306	-0.041	0.105
-419.486	-106.152	0.137	0.031
-418.471	-200.000	0.004	-0.025
-417.457	191.973	-0.144	-0.217
-416.442	439.762	0.080	0.176
-415.428	800.000	0.103	0.309
-414.413	-200.000	0.043	0.296
-413.398	45.392	-0.072	-0.066
-412.384	-89.841	0.059	0.017
-411.369	17.818	0.120	0.095
-410.355	86.812	0.166	-0.183
-409.340	800.000	-0.040	0.113
-408.325	-147.651	-0.035	0.003
-407.311	-102.222	-0.197	0.047
-406.296	28.118	-0.128	-0.108
-405.282	-15.673	-0.274	-0.175
-404.267	-80.673	-0.391	-0.130
-403.252	75.046	-0.169	-0.179
-402.238	-125.348	-0.081	-0.012
-401.223	-157.445	0.570	0.034
-400.209	48.499	-0.110	-0.103
-399.194	-178.090	0.224	-0.005
-398.179	-200.000	0.003	0.123
-397.165	-109.276	-0.481	-0.102
-396.150	-18.952	-0.181	0.113
-395.136	15.755	0.183	-0.144
-394.121	376.252	-0.111	-0.226
-393.106	-200.000	0.044	-0.257
-392.092	-87.378	0.056	-0.017
-391.077	-55.424	0.098	0.044
-390.063	800.000	0.099	0.276
-389.048	252.274	0.247	0.421
-388.033	62.849	0.133	0.133
-387.019	-183.203	-0.176	-0.003
-386.004	-5.361	-0.188	0.129
-384.990	-39.651	0.088	-0.046
-383.975	-200.000	0.027	-0.153
-382.960	95.459	0.116	-0.133
-381.946	-168.081	-0.254	0.010
-380.931	82.329	-0.313	0.339
-379.917	-5.106	0.172	-0.118
-378.902	726.241	-0.091	0.242
-377.888	-88.915	-0.232	-0.069
-376.873	26.979	0.086	0.072
-375.858	646.135	0.046	-0.118
-374.844	-145.932	0.271	0.024
-373.829	19.964	-0.065	-0.053
-372.815	-200.000	-0.019	-0.133
-371.800	104.989	-0.248	-0.292
-370.785	-200.000	-0.021	0.276
-369.771	-200.000	0.012	0.413
-368.756	-200.000	0.004	-0.097
-367.742	-125.111	0.104	-0.016
-366.727	54.565	0.084	0.081
-365.712	800.000	-0.070	0.277
-364.698	117.832	0.170	0.209
-363.683	177.769	0.151	-0.220
-362.669	463.606	-0.151	0.336
-361.654	111.614	0.049	-0.058
-360.639	-128.404	0.203	0.029
-359.625	-74.229	-0.148	-0.053
-358.610	-127.662	-0.131	-0.019
-357.596	-25.663	0.178	0.105
-356.581	-32.980	0.223	0.123
-355.566	56.108	-0.158	-0.153
-354.552	110.242	0.065	-0.078
-353.537	-182.323	0.179	-0.003
-352.523	-155.548	0.448	0.029
-351.508	-127.835	-0.366	-0.053
-350.493	536.009	-0.092	0.218
-349.479	256.825	-0.128	0.220
-348.464	-34.737	0.109	-0.060
-347.450	-82.631	-0.194	-0.063
-346.435	800.000	-0.108	-0.328
-345.420	-200.000	-0.018	0.153
-344.406	-200.000	0.004	-0.160
-343.391	-132.196	-0.196	0.025
-342.377	800.000	0.105	-0.290
-341.362	456.512	-0.052	0.116
-340.348	-73.669	0.084	-0.031
-339.333	69.702	0.091	0.093
-338.318	-36.303	0.258	-0.139
-337.304	-4.586	0.182	0.125
-336.289	178.438	-0.266	0.387
-335.275	-169.418	-0.238	0.009
-334.260	-3.186	0.098	-0.068
-333.245	-196.502	-0.256	0.002
-332.231	800.000	0.120	-0.357
-331.216	-200.000	-0.042	0.568
-330.202	-200.000	0.005	0.101
-329.187	-200.000	0.007	-0.229
-328.172	794.259	0.119	0.328
-327.158	490.979	-0.055	0.126
-326.143	-200.000	0.007	-0.108
-325.129	-66.784	-0.186	0.074
-324.114	-122.712	0.099	-0.016
-323.099	-20.383	-0.126	-0.078
-322.085	42.505	0.292	-0.265
-321.070	621.841	-0.222	0.558
-320.056	250.407	-0.044	0.074
-319.041	47.756	-0.263	-0.245
-318.026	800.000	0.055	0.174
-317.012	174.844	-0.127	0.183
-315.997	-131.623	0.260	0.034
-314.983	-82.178	0.203	0.066
-313.968	-26.458	-0.354	-0.207
-312.953	-110.313	-0.369	0.076
-311.939	-108.507	-0.122	0.026
-310.924	143.495	0.196	0.261
-309.910	-29.272	-0.072	-0.041
-308.895	352.281	0.029	0.057
-307.880	-200.000	0.023	0.155
-306.866	132.340	-0.146	0.188
-305.851	-200.000	-0.010	0.255
-304.837	-73.915	-0.387	0.140
-303.822	-200.000	-0.027	0.172
-302.807	-200.000	0.022	0.131
-301.793	-46.298	-0.179	-0.087
-300.778	-200.000	0.055	-0.326
-299.764	260.990	0.139	-0.239
-298.749	-48.800	0.137	-0.066
-297.735	17.351	0.023	0.018
-296.720	-200.000	0.008	0.211
-295.705	-61.211	-0.379	0.159
-294.691	-200.000	-0.014	0.463
-293.676	57.897	0.351	0.342
-292.662	-106.436	0.214	0.048
-291.647	-93.879	-0.291	0.080
-290.632	-5.456	-0.145	0.099
-289.618	-200.000	0.003	-0.161
-288.603	-19.058	0.192	0.119
-287.589	-200.000	0.042	0.229
-286.574	328.456	0.120	0.230
-285.559	800.000	-0.025	-0.074
-284.545	189.491	-0.176	-0.263
-283.530	-200.000	-0.007	-0.107
-282.516	-96.366	-0.210	-0.055
-281.501	-78.960	-0.087	-0.029
-280.486	-128.843	-0.047	0.007
-279.472	260.307	0.030	-0.052
-278.457	25.213	-0.181	-0.150
-277.443	148.213	0.143	0.193
-276.428	13.166	-0.062	0.048
-275.413	366.328	-0.117	-0.236
-274.399	-107.106	0.321	0.071
-273.384	-111.309	-0.122	-0.025
-272.370	-200.000	-0.015	0.171
-271.355	4.385	0.199	0.145
-270.340	-58.578	-0.059	-0.025
-269.326	800.000	0.040	-0.141
-268.311	-12.964	-0.310	0.201
-267.297	-33.315	0.231	0.127
-266.282	800.000	-0.094	0.402
-265.267	-200.000	0.007	0.088
-264.253	-200.000	0.007	0.103
-263.238	-49.905	0.209	-0.099
-262.224	-200.000	0.044	-0.299
-261.209	249.373	-0.099	-0.168
-260.195	-200.000	-0.009	0.130
-259.180	47.479	0.121	0.112
-258.165	218.765	0.040	-0.063
-257.151	17.156	-0.194	-0.153
-256.136	-179.346	0.247	0.005
-255.122	666.438	-0.116	-0.299
-254.107	389.512	0.102	-0.209
-253.092	-49.092	-0.383	0.182
-252.078	91.149	-0.213	0.238
-251.063	-124.681	0.279	-0.043
-250.049	-103.257	-0.079	0.018
-249.034	128.080	-0.122	-0.155
-248.019	-6.449	-0.094	-0.064
-247.005	-131.716	-0.102	0.013
-245.990	-1.826	-0.128	-0.089
-244.976	-200.000	0.031	0.000
-243.961	-200.000	-0.002	0.195
-242.946	-70.607	0.201	-0.076
-241.932	-11.923	0.285	0.186
-240.917	-82.110	-0.196	0.064
-239.903	-108.863	0.250	0.053
-238.888	464.057	0.120	0.267
-237.873	-22.503	-0.132	0.079
-236.859	107.464	0.067	0.079
-235.844	-107.340	0.089	0.019
-234.830	51.634	-0.170	-0.161
-233.815	800.000	-0.061	-0.232
-232.800	408.063	0.190	-0.399
-231.786	404.119	-0.118	-0.246
-230.771	64.575	-0.153	-0.153
-229.757	-200.000	0.035	0.197
-228.742	-120.983	0.318	-0.053
-227.727	-136.900	0.182	-0.021
-226.713	-130.479	-0.265	0.036
-225.698	-91.686	0.125	-0.035
-224.684	101.302	-0.242	-0.280
-223.669	-66.968	0.099	-0.039
-222.655	-5.596	-0.212	0.144
-221.640	216.167	-0.052	-0.082
-220.625	-200.000	-0.048	-0.242
-219.611	-200.000	0.043	-0.220
-218.596	0.052	-0.116	0.082
-217.582	133.031	-0.171	0.220
-216.567	-86.546	0.150	0.046
-215.552	800.000	-0.085	0.336
-214.538	-27.315	-0.219	-0.127
-213.523	22.644	-0.054	-0.044
-212.509	-158.160	0.186	-0.011
-211.494	800.000	0.030	-0.099
-210.479	800.000	-0.070	-0.278
-209.465	41.847	-0.115	-0.104
-208.450	73.292	0.065	0.068
-207.436	800.000	0.059	0.167
-206.421	214.739	0.040	0.064
-205.406	-15.487	-0.093	-0.059
-204.392	502.871	-0.136	-0.313
-203.377	-27.799	-0.164	0.095
-202.363	159.705	0.073	-0.101
-201.348	-200.000	0.002	-0.299
-200.333	-89.050	0.175	0.051
-199.319	-200.000	0.066	-0.309
-198.304	-156.725	-0.150	0.009
-197.290	43.679	-0.112	-0.102
-196.275	-200.000	-0.017	-0.082
-195.260	-200.000	0.073	0.438
-194.246	-200.000	0.032	-0.365
-193.231	92.612	0.211	-0.236
-192.217	-63.543	-0.150	0.061
-191.202	-200.000	0.005	-0.076
-190.187	499.803	-0.009	-0.021
-189.173	132.347	0.188	0.241
-188.158	135.025	-0.046	0.059
-187.144	57.003	-0.113	0.110
-186.129	-123.237	-0.261	-0.041
-185.114	-100.755	-0.136	-0.033
-184.100	-29.419	-0.272	0.154
-183.085	198.768	-0.136	-0.206
-182.071	4.503	0.209	-0.152
-181.056	-72.206	0.218	0.080
-180.042	-27.898	-0.176	0.101
-179.027	-2.256	0.169	-0.117
-178.012	-71.683	-0.133	-0.049
-176.998	312.337	-0.152	0.284
-175.983	-57.605	-0.167	-0.073
-174.969	90.959	0.107	0.118
-173.954	-200.000	0.004	0.130
-172.939	-108.337	0.327	0.070
-171.925	-114.811	0.196	0.037
-170.910	-170.959	-0.137	-0.005
-169.896	262.705	-0.170	-0.292
-168.881	93.246	0.075	-0.084
-167.866	-43.580	-0.524	0.262
-166.852	-118.980	0.253	-0.044
-165.837	510.528	0.084	0.193
-164.823	800.000	-0.009	0.032
-163.808	-181.783	0.212	0.004
-162.793	-59.636	-0.194	-0.083
-161.779	-1.797	0.332	0.231
-160.764	161.340	0.058	-0.081
-159.750	90.708	0.151	0.167
-158.735	-200.000	-0.004	0.052
-157.720	-120.171	-0.179	0.030
-156.706	-118.390	0.341	-0.060
-155.691	26.060	0.205	0.169
-154.677	-50.053	-0.220	0.103
-153.662	-91.916	0.198	-0.056
-152.647	-124.157	0.344	0.053
-151.633	261.244	-0.033	-0.056
-150.618	-6.644	0.118	0.080
-149.604	-132.037	0.165	0.021
-148.589	184.012	0.132	0.193
-147.574	-103.557	0.182	-0.042
-146.560	-137.348	-0.161	-0.018
-145.545	134.437	0.245	0.315
-144.531	101.862	-0.239	-0.276
-143.516	-79.537	-0.030	-0.010
-142.502	99.871	-0.177	-0.203
-141.487	-117.573	-0.172	0.031
-140.472	385.571	-0.075	-0.153
-139.458	-153.402	0.261	0.018
-138.443	11.612	0.074	0.056
-137.429	153.351	0.240	-0.325
-136.414	-1.188	-0.182	-0.127
-135.399	125.657	0.324	0.406
-134.385	33.956	-0.067	0.058
-133.370	646.920	-0.057	0.145
-132.356	140.843	0.235	-0.307
-131.341	-77.031	0.360	0.124
-130.326	23.944	-0.015	0.012
-129.312	-5.538	0.141	-0.095
-128.297	15.837	0.410	0.319
-127.283	737.144	0.021	-0.055
-126.268	164.104	-0.032	0.045
-125.253	-122.198	-0.348	-0.056
-124.239	81.196	-0.117	-0.125
-123.224	-123.125	-0.047	0.007
-122.210	182.390	0.193	0.282
-121.195	245.329	-0.154	0.256
