DTS Sentinel unit serial number:	SN413079Multiplexer serial number:	ORYXHardware model number:	OX4-SRSoftware version number:	ORYX F/W v4.00 Oryx Data Collector v3.7.2.0data status	okinstallation	princeton_trtdifferential loss correction	single-endedforward channel	channel 4reverse channel	N/Adate	2019/09/14time	23:57:35forward acquisition time	60.00reverse acquisition time	0.00gamma	496.2192k internal	0.2307k external	0.2307temperature offset calibration	1.0047default loss term (dB/km)	0.3790temperature slope calibration	1.0000multiplexer offset coefficient	1.0000multiplexer slope coefficient	1.0000fibre end	0.00T internal ref (°C)	32.25T ext. ref 1 (°C)	4.61T ext. ref 2 (°C)	27.10length (m)	temperature (°C)	Stokes	anti-Stokes-747.200	4.237	-0.156	-0.117
-746.185	-200.000	0.021	0.221
-745.171	-179.332	0.079	0.002
-744.156	111.266	0.066	0.081
-743.142	-200.000	0.001	-0.157
-742.127	-29.414	-0.268	0.156
-741.112	152.055	0.095	0.131
-740.098	214.795	0.159	0.256
-739.083	800.000	0.100	0.291
-738.069	-4.983	-0.120	0.084
-737.054	6.462	0.334	-0.252
-736.039	-62.554	0.116	-0.049
-735.025	-200.000	0.022	0.102
-734.010	92.031	0.239	0.273
-732.996	-112.445	-0.457	0.093
-731.981	64.138	-0.072	-0.073
-730.966	18.440	-0.175	0.142
-729.952	152.672	-0.222	-0.308
-728.937	-51.882	-0.285	-0.135
-727.923	800.000	0.137	-0.432
-726.908	-200.000	-0.025	0.235
-725.894	-190.873	-0.243	-0.003
-724.879	-107.189	0.105	0.023
-723.864	86.070	0.276	-0.309
-722.850	-200.000	-0.021	0.195
-721.835	800.000	-0.022	-0.086
-720.821	63.108	-0.232	-0.236
-719.806	-49.630	0.222	-0.107
-718.791	-64.938	-0.252	-0.103
-717.777	-24.636	-0.062	-0.038
-716.762	244.323	-0.055	-0.094
-715.748	-19.791	0.081	-0.051
-714.733	126.979	-0.074	-0.095
-713.718	-88.343	-0.159	-0.048
-712.704	-111.320	0.181	-0.038
-711.689	86.376	0.130	-0.146
-710.675	-16.633	-0.261	-0.168
-709.660	25.612	-0.255	-0.216
-708.645	-123.292	0.353	0.057
-707.631	800.000	0.066	0.192
-706.616	117.595	-0.056	0.070
-705.602	-200.000	0.029	-0.292
-704.587	101.616	0.172	0.204
-703.572	-200.000	0.042	0.272
-702.558	61.914	-0.138	0.140
-701.543	-39.402	0.038	-0.020
-700.529	800.000	-0.144	-0.415
-699.514	800.000	0.031	-0.104
-698.499	2.648	0.053	0.039
-697.485	800.000	0.106	-0.442
-696.470	-162.233	0.053	0.003
-695.456	800.000	0.086	0.293
-694.441	148.567	0.142	-0.195
-693.426	-92.092	-0.165	-0.047
-692.412	8.774	0.026	0.020
-691.397	-78.859	-0.099	0.034
-690.383	-108.505	0.281	0.061
-689.368	141.395	-0.113	0.151
-688.354	140.439	-0.246	0.330
-687.339	-0.867	0.166	-0.119
-686.324	123.763	-0.092	0.117
-685.310	149.484	0.165	-0.227
-684.295	-96.026	-0.413	-0.111
-683.281	800.000	0.082	-0.250
-682.266	260.066	-0.183	-0.321
-681.251	-104.748	-0.200	0.047
-680.237	132.932	-0.114	-0.150
-679.222	-200.000	0.027	0.148
-678.208	-200.000	-0.001	0.079
-677.193	-70.369	-0.205	-0.079
-676.178	411.101	0.097	0.209
-675.164	-7.333	-0.171	-0.117
-674.149	-3.905	0.105	-0.074
-673.135	-59.857	-0.132	0.057
-672.120	800.000	0.083	-0.291
-671.105	-44.301	-0.214	-0.109
-670.091	-51.911	0.188	-0.089
-669.076	657.550	0.155	-0.404
-668.062	310.132	0.050	-0.095
-667.047	800.000	0.072	0.212
-666.032	171.150	-0.175	0.254
-665.018	732.162	-0.042	-0.113
-664.003	-101.639	-0.236	0.058
-662.989	92.252	-0.120	-0.137
-661.974	-13.623	-0.169	0.111
-660.959	800.000	-0.087	-0.296
-659.945	85.224	-0.234	0.260
-658.930	-91.814	0.147	0.042
-657.916	-200.000	-0.027	-0.203
-656.901	78.919	-0.222	-0.241
-655.886	-200.000	-0.018	0.188
-654.872	55.230	-0.198	-0.194
-653.857	-20.215	-0.213	-0.133
-652.843	75.916	0.116	-0.124
-651.828	227.970	-0.134	-0.221
-650.814	322.745	0.010	-0.019
-649.799	84.251	0.115	-0.127
-648.784	399.026	-0.059	0.125
-647.770	17.763	0.105	-0.085
-646.755	-15.530	0.213	0.138
-645.741	800.000	-0.085	0.246
-644.726	40.590	0.235	0.214
-643.711	411.577	0.039	0.083
-642.697	-44.113	0.292	-0.148
-641.682	-200.000	0.027	0.218
-640.668	32.284	-0.310	0.271
-639.653	11.644	-0.198	-0.154
-638.638	-200.000	-0.036	0.182
-637.624	84.729	-0.234	0.259
-636.609	-20.398	0.311	0.194
-635.595	800.000	-0.139	0.406
-634.580	-111.936	-0.061	0.013
-633.565	-106.030	0.348	0.079
-632.551	-58.474	-0.131	0.058
-631.536	-68.811	0.186	0.073
-630.522	32.114	-0.221	-0.193
-629.507	15.744	0.091	-0.072
-628.492	218.417	0.168	0.271
-627.478	-180.506	-0.163	0.003
-626.463	-25.094	-0.433	-0.260
-625.449	-161.881	-0.159	-0.008
-624.434	-76.296	-0.266	-0.095
-623.419	59.332	-0.211	-0.211
-622.405	-100.334	0.321	-0.081
-621.390	-200.000	0.031	0.144
-620.376	38.720	0.153	0.139
-619.361	-93.907	-0.223	0.062
-618.346	-103.838	0.156	0.037
-617.332	-200.000	0.032	0.293
-616.317	133.165	-0.035	-0.045
-615.303	-84.286	-0.283	0.091
-614.288	-72.391	-0.064	-0.024
-613.273	800.000	0.053	-0.187
-612.259	800.000	-0.022	-0.095
-611.244	-200.000	-0.002	0.292
-610.230	60.402	-0.119	-0.119
-609.215	161.440	0.074	0.104
-608.201	-73.077	0.178	-0.066
-607.186	-200.000	-0.043	-0.272
-606.171	800.000	0.091	0.263
-605.157	-45.147	0.405	0.203
-604.142	129.698	0.429	-0.554
-603.128	-125.913	-0.215	-0.033
-602.113	-23.288	0.192	-0.117
-601.098	800.000	-0.049	0.151
-600.084	335.579	-0.138	-0.271
-599.069	173.593	0.059	-0.086
-598.055	800.000	0.061	-0.176
-597.040	67.053	-0.165	-0.170
-596.025	800.000	-0.057	0.221
-595.011	296.040	-0.125	0.232
-593.996	-121.216	0.181	0.031
-592.982	62.513	-0.102	0.103
-591.967	800.000	0.042	0.170
-590.952	115.179	-0.016	-0.020
-589.938	409.026	-0.157	-0.337
-588.923	532.572	-0.008	-0.020
-587.909	-200.000	-0.006	0.031
-586.894	-151.171	-0.276	-0.021
-585.879	800.000	0.077	-0.261
-584.865	-85.692	0.131	-0.041
-583.850	77.863	0.106	0.114
-582.836	-47.550	0.186	-0.091
-581.821	-200.000	-0.103	-0.479
-580.806	800.000	-0.062	-0.252
-579.792	800.000	0.049	-0.193
-578.777	279.895	-0.216	0.390
-577.763	-124.979	-0.030	0.005
-576.748	-200.000	0.011	-0.266
-575.733	800.000	0.057	0.223
-574.719	-200.000	0.050	0.227
-573.704	800.000	-0.091	-0.325
-572.690	-200.000	-0.002	-0.035
-571.675	-32.670	0.095	-0.053
-570.661	-200.000	0.016	0.225
-569.646	79.154	-0.170	-0.184
-568.631	122.828	-0.084	0.106
-567.617	800.000	-0.049	0.173
-566.602	-196.267	0.320	0.002
-565.588	-200.000	-0.003	-0.290
-564.573	125.757	0.164	-0.209
-563.558	627.483	0.033	-0.084
-562.544	-63.911	0.248	0.103
-561.529	-200.000	0.020	-0.135
-560.515	101.758	0.273	-0.322
-559.500	-189.637	-0.249	-0.003
-558.485	497.884	0.200	0.465
-557.471	458.129	-0.060	0.134
-556.456	-14.897	0.327	0.212
-555.442	435.962	-0.085	0.188
-554.427	103.110	0.092	0.109
-553.412	368.911	-0.189	0.386
-552.398	19.425	0.220	0.179
-551.383	-70.984	0.408	0.155
-550.369	60.454	-0.038	-0.038
-549.354	181.319	-0.081	0.120
-548.339	-200.000	0.014	-0.223
-547.325	397.603	-0.086	-0.181
-546.310	374.014	0.050	-0.103
-545.296	594.561	0.046	-0.114
-544.281	-105.746	-0.079	-0.018
-543.266	-200.000	0.033	0.354
-542.252	114.463	0.111	0.136
-541.237	-46.036	0.316	0.157
-540.223	-200.000	0.031	-0.154
-539.208	-59.519	-0.307	0.133
-538.193	-26.928	0.168	-0.099
-537.179	800.000	-0.106	0.312
-536.164	2.032	-0.285	-0.208
-535.150	80.334	0.156	-0.169
-534.135	-153.489	0.303	0.021
-533.121	-62.869	0.180	0.075
-532.106	-200.000	0.030	0.151
-531.091	800.000	-0.113	-0.334
-530.077	800.000	0.003	0.010
-529.062	-200.000	0.005	-0.089
-528.048	800.000	-0.057	0.165
-527.033	-119.684	0.117	-0.020
-526.018	469.219	-0.097	-0.219
-525.004	-22.943	0.200	-0.122
-523.989	-200.000	-0.014	-0.304
-522.975	50.869	0.037	0.035
-521.960	-200.000	0.069	-0.388
-520.945	-39.607	-0.103	-0.054
-519.931	-200.000	0.039	-0.247
-518.916	-63.525	-0.201	0.083
-517.902	-38.661	0.166	-0.088
-516.887	160.304	-0.183	-0.258
-515.872	-119.598	0.445	0.078
-514.858	156.487	-0.292	0.406
-513.843	-163.732	-0.228	-0.011
-512.829	16.560	0.023	0.018
-511.814	27.466	-0.194	0.164
-510.799	-66.157	-0.152	0.061
-509.785	-97.740	-0.228	-0.059
-508.770	56.173	-0.316	-0.310
-507.756	-167.357	0.175	-0.007
-506.741	-100.194	-0.312	-0.078
-505.726	193.579	-0.146	-0.223
-504.712	-92.080	0.123	0.035
-503.697	-63.024	-0.201	-0.084
-502.683	-77.596	0.054	-0.019
-501.668	102.299	0.387	-0.455
-500.653	-86.272	-0.378	0.117
-499.639	-31.264	-0.292	0.165
-498.624	800.000	-0.057	0.171
-497.610	106.703	0.233	-0.278
-496.595	159.951	-0.111	-0.156
-495.581	-140.826	-0.096	-0.010
-494.566	250.827	0.118	-0.201
-493.551	-200.000	0.028	-0.431
-492.537	-200.000	0.017	0.129
-491.522	-79.330	0.110	-0.037
-490.508	-200.000	-0.014	-0.253
-489.493	230.272	-0.187	0.307
-488.478	-163.661	-0.155	-0.007
-487.464	173.575	0.093	0.135
-486.449	275.205	0.051	-0.090
-485.435	-200.000	-0.028	-0.286
-484.420	-82.247	-0.198	0.065
-483.405	110.138	0.189	0.228
-482.391	360.004	0.212	0.427
-481.376	-200.000	-0.006	-0.125
-480.362	98.088	0.191	0.221
-479.347	85.551	-0.082	-0.091
-478.332	142.003	0.180	0.241
-477.318	-200.000	-0.007	0.153
-476.303	58.961	-0.100	0.099
-475.289	-53.874	0.287	0.132
-474.274	800.000	-0.034	0.120
-473.259	443.908	0.025	0.056
-472.245	189.993	-0.033	0.050
-471.230	-59.146	-0.155	-0.067
-470.216	-104.462	0.070	0.016
-469.201	-56.518	0.049	0.022
-468.186	-200.000	0.047	0.233
-467.172	-152.099	-0.243	0.018
-466.157	164.240	-0.227	-0.321
-465.143	-200.000	-0.023	-0.277
-464.128	10.948	-0.184	0.141
-463.113	-200.000	0.020	-0.166
-462.099	-138.209	-0.295	-0.033
-461.084	-159.339	-0.237	0.013
-460.070	800.000	0.025	0.100
-459.055	-43.826	-0.190	0.096
-458.040	800.000	-0.041	-0.127
-457.026	-20.428	-0.185	-0.114
-456.011	175.354	-0.152	0.221
-454.997	112.767	-0.156	-0.190
-453.982	104.820	0.072	-0.085
-452.968	-60.865	-0.462	-0.197
-451.953	324.315	-0.164	-0.314
-450.938	-42.889	-0.709	0.362
-449.924	-200.000	-0.030	0.285
-448.909	80.838	0.102	0.111
-447.895	-200.000	-0.000	0.115
-446.880	800.000	0.115	0.363
-445.865	-89.854	0.468	0.138
-444.851	-100.427	-0.302	-0.075
-443.836	-200.000	-0.015	0.127
-442.822	-101.201	-0.174	0.043
-441.807	-200.000	-0.077	-0.367
-440.792	-8.766	-0.179	-0.121
-439.778	-200.000	0.051	0.401
-438.763	-200.000	-0.003	0.098
-437.749	-85.111	-0.166	0.052
-436.734	114.735	0.140	-0.171
-435.719	800.000	0.092	-0.257
-434.705	118.907	-0.111	-0.138
-433.690	-200.000	-0.029	-0.279
-432.676	800.000	-0.130	0.402
-431.661	310.759	-0.107	0.202
-430.646	800.000	-0.068	-0.272
-429.632	-200.000	0.129	0.000
-428.617	250.988	0.164	0.279
-427.603	200.220	0.027	-0.041
-426.588	97.367	0.202	-0.233
-425.573	288.925	0.142	-0.259
-424.559	-96.764	-0.207	-0.055
-423.544	-26.669	0.323	-0.190
-422.530	704.761	-0.085	0.224
-421.515	-200.000	0.027	-0.205
-420.500	138.810	-0.146	-0.193
-419.486	-31.203	-0.120	0.068
-418.471	109.012	0.161	-0.193
-417.457	-77.290	-0.268	0.093
-416.442	150.517	-0.275	0.375
-415.428	128.307	0.076	0.097
-414.413	-154.217	0.531	0.036
-413.398	-200.000	-0.053	-0.283
-412.384	34.531	-0.226	-0.199
-411.369	-200.000	-0.005	-0.102
-410.355	-60.378	-0.265	-0.113
-409.340	643.206	0.126	-0.323
-408.325	-130.204	-0.217	-0.030
-407.311	236.804	0.064	-0.106
-406.296	31.016	0.113	0.098
-405.282	68.669	0.040	0.041
-404.267	12.218	0.184	0.142
-403.252	800.000	0.142	0.501
-402.238	-137.547	0.507	0.057
-401.223	72.012	-0.188	-0.197
-400.209	197.747	-0.129	0.197
-399.194	-200.000	0.053	0.498
-398.179	557.524	-0.092	-0.223
-397.165	143.298	-0.226	-0.302
-396.150	-200.000	0.007	0.085
-395.136	-200.000	0.019	0.325
-394.121	-200.000	0.014	-0.098
-393.106	-66.692	-0.161	0.064
-392.092	41.395	-0.148	0.134
-391.077	800.000	-0.067	0.243
-390.063	680.089	0.028	-0.074
-389.048	-200.000	-0.010	0.141
-388.033	-116.549	0.322	-0.060
-387.019	800.000	0.039	0.128
-386.004	69.646	0.094	-0.097
-384.990	189.982	-0.160	-0.241
-383.975	208.000	-0.044	0.069
-382.960	6.753	-0.270	0.201
-381.946	800.000	-0.122	-0.383
-380.931	-200.000	0.059	0.267
-379.917	32.809	0.215	-0.187
-378.902	-200.000	-0.007	0.072
-377.888	350.877	-0.083	-0.164
-376.873	139.183	0.095	0.125
-375.858	114.546	-0.145	0.177
-374.844	76.706	-0.112	-0.120
-373.829	-26.494	0.108	-0.063
-372.815	3.378	0.338	-0.246
-371.800	659.358	0.033	-0.086
-370.785	800.000	0.033	0.101
-369.771	91.063	-0.180	0.202
-368.756	47.639	0.182	0.170
-367.742	800.000	-0.050	0.218
-366.727	-28.441	0.250	-0.144
-365.712	-200.000	0.042	-0.304
-364.698	625.436	-0.165	-0.416
-363.683	17.046	-0.279	-0.221
-362.669	-200.000	-0.033	-0.247
-361.654	-117.016	0.301	0.055
-360.639	-152.730	-0.226	0.016
-359.625	-200.000	0.000	0.049
-358.610	-14.316	-0.288	0.186
-357.596	-112.654	-0.088	0.018
-356.581	106.704	-0.265	0.315
-355.566	285.865	-0.192	0.348
-354.552	411.304	0.180	0.383
-353.537	-200.000	0.036	0.528
-352.523	34.088	0.119	0.104
-351.508	-200.000	-0.046	-0.256
-350.493	-12.849	0.185	-0.121
-349.479	216.825	0.047	-0.075
-348.464	-115.246	-0.361	-0.068
-347.450	-2.688	0.144	-0.101
-346.435	800.000	0.025	-0.083
-345.420	-144.392	0.049	-0.005
-344.406	-104.392	-0.042	0.010
-343.391	-124.549	-0.095	0.015
-342.377	-46.109	0.349	0.172
-341.362	10.157	-0.120	0.091
-340.348	-83.637	-0.201	0.064
-339.333	-90.747	0.156	0.045
-338.318	-148.639	0.219	-0.018
-337.304	171.026	0.142	0.204
-336.289	800.000	0.076	0.225
-335.275	165.575	-0.179	0.254
-334.260	25.108	-0.095	-0.079
-333.245	-153.406	0.177	-0.012
-332.231	-74.197	0.258	0.093
-331.216	-81.680	0.377	0.124
-330.202	361.292	0.093	-0.186
-329.187	-200.000	-0.010	0.133
-328.172	-200.000	0.020	-0.397
-327.158	800.000	0.041	-0.165
-326.143	-112.820	-0.056	-0.011
-325.129	-108.289	0.352	-0.076
-324.114	-200.000	0.039	-0.356
-323.099	-200.000	0.176	-0.001
-322.085	-200.000	-0.002	0.265
-321.070	-171.241	0.102	0.003
-320.056	9.040	-0.105	-0.080
-319.041	-116.652	0.139	-0.025
-318.026	-200.000	-0.028	-0.234
-317.012	-93.675	0.234	-0.064
-315.997	153.737	-0.068	-0.093
-314.983	-200.000	-0.007	-0.105
-313.968	-166.805	0.070	0.003
-312.953	-119.882	-0.428	-0.074
-311.939	107.276	0.094	-0.112
-310.924	-200.000	0.009	-0.215
-309.910	328.190	-0.141	0.270
-308.895	-38.653	0.158	0.083
-307.880	-85.701	0.121	0.037
-306.866	800.000	-0.132	0.417
-305.851	-71.700	0.199	-0.074
-304.837	800.000	-0.072	-0.311
-303.822	45.425	0.013	-0.012
-302.807	-66.392	-0.122	0.048
-301.793	-200.000	-0.025	-0.270
-300.778	-82.456	0.327	-0.106
-299.764	-122.324	0.439	0.072
-298.749	-139.405	-0.286	-0.031
-297.735	-109.878	0.441	-0.092
-296.720	295.247	-0.169	0.309
-295.705	-200.000	0.020	0.120
-294.691	-39.637	-0.052	0.027
-293.676	-200.000	-0.021	0.189
-292.662	156.160	0.073	-0.101
-291.647	194.656	-0.084	-0.127
-290.632	800.000	-0.070	-0.195
-289.618	342.023	-0.156	0.304
-288.603	110.899	-0.157	-0.189
-287.589	-71.794	0.205	0.076
-286.574	800.000	-0.024	0.095
-285.559	6.628	-0.280	-0.208
-284.545	-20.994	-0.205	-0.125
-283.530	751.844	0.053	-0.143
-282.516	321.900	0.201	0.382
-281.501	-200.000	-0.016	0.233
-280.486	70.093	0.366	0.377
-279.472	800.000	0.042	-0.166
-278.457	-36.054	0.343	0.185
-277.443	-151.959	-0.245	0.018
-276.428	-91.395	-0.134	-0.038
-275.413	-120.825	-0.245	-0.041
-274.399	420.298	0.095	-0.204
-273.384	800.000	0.042	-0.172
-272.370	14.264	0.233	0.181
-271.355	127.585	0.161	0.204
-270.340	-200.000	0.035	0.324
-269.326	-51.653	-0.119	0.056
-268.311	-200.000	-0.012	0.216
-267.297	4.477	-0.223	0.163
-266.282	-177.623	0.214	-0.005
-265.267	-144.611	-0.117	-0.011
-264.253	-17.216	0.266	-0.167
-263.238	-182.594	0.346	-0.006
-262.224	20.384	-0.153	-0.123
-261.209	-124.838	-0.208	-0.032
-260.195	78.442	-0.184	0.196
-259.180	51.969	-0.098	-0.093
-258.165	-74.654	0.342	-0.123
-257.151	-22.458	0.185	0.112
-256.136	800.000	-0.096	0.294
-255.122	-200.000	-0.018	-0.091
-254.107	-200.000	-0.061	-0.281
-253.092	800.000	0.045	0.158
-252.078	-101.676	-0.173	-0.042
-251.063	-200.000	-0.010	0.151
-250.049	-111.747	-0.135	0.027
-249.034	148.027	-0.171	-0.230
-248.019	-25.625	0.192	0.113
-247.005	-41.916	-0.077	0.039
-245.990	167.000	0.217	0.308
-244.976	800.000	0.108	0.301
-243.961	-93.557	0.081	-0.022
-242.946	-138.101	-0.282	-0.031
-241.932	-85.351	-0.147	-0.046
-240.917	-200.000	-0.019	0.133
-239.903	-163.878	-0.299	0.014
-238.888	100.669	-0.013	0.015
-237.873	11.520	-0.131	0.100
-236.859	800.000	-0.125	0.485
-235.844	-10.303	-0.318	-0.211
-234.830	-55.542	-0.180	-0.080
-233.815	147.453	-0.204	0.274
-232.800	1.193	0.106	-0.076
-231.786	-200.000	-0.049	-0.281
-230.771	367.780	0.092	0.185
-229.757	-118.371	0.139	-0.025
-228.742	-101.347	-0.256	0.062
-227.727	15.463	-0.078	0.061
-226.713	139.452	-0.110	-0.145
-225.698	800.000	-0.019	-0.062
-224.684	-200.000	-0.012	0.094
-223.669	-11.444	0.252	0.165
-222.655	800.000	0.021	0.062
-221.640	487.652	-0.131	0.297
-220.625	271.874	0.083	-0.145
-219.611	-61.183	0.030	-0.012
-218.596	-47.963	-0.129	-0.062
-217.582	-37.869	-0.052	-0.027
-216.567	-200.000	0.003	-0.115
-215.552	354.568	0.175	-0.346
-214.538	-200.000	-0.027	0.175
-213.523	480.523	-0.071	0.160
-212.509	-200.000	-0.032	-0.236
-211.494	-101.022	0.199	0.048
-210.479	89.602	0.244	0.271
-209.465	-10.412	0.067	-0.044
-208.450	800.000	-0.049	-0.200
-207.436	800.000	-0.042	-0.126
-206.421	-104.361	-0.089	-0.021
-205.406	483.754	0.154	-0.349
-204.392	203.031	-0.146	0.225
-203.377	287.304	-0.102	-0.183
-202.363	-114.773	0.219	-0.042
-201.348	202.515	0.234	-0.359
-200.333	157.383	0.335	0.461
-199.319	800.000	0.068	-0.291
-198.304	-200.000	-0.010	0.109
-197.290	84.939	-0.109	0.119
-196.275	-44.252	-0.187	-0.093
-195.260	-18.934	-0.091	-0.056
-194.246	-136.085	0.219	-0.026
-193.231	-200.000	0.013	-0.141
-192.217	-162.603	-0.111	-0.005
-191.202	355.258	-0.171	-0.338
-190.187	800.000	-0.060	-0.180
-189.173	-37.323	0.153	0.081
-188.158	-118.052	0.324	0.058
-187.144	70.755	0.144	-0.148
-186.129	-200.000	-0.010	-0.100
-185.114	-200.000	-0.058	0.528
-184.100	506.863	0.161	-0.371
-183.085	49.163	-0.034	0.032
-182.071	-91.789	0.218	-0.062
-181.056	611.101	0.159	0.395
-180.042	-20.061	0.242	0.149
-179.027	800.000	0.038	-0.110
-178.012	67.822	0.088	-0.089
-176.998	-74.503	-0.466	-0.167
-175.983	10.885	0.274	-0.208
-174.969	-51.285	0.245	-0.114
-173.954	380.736	0.120	0.244
-172.939	149.171	0.154	-0.207
-171.925	782.052	-0.062	0.170
-170.910	51.950	0.019	-0.018
-169.896	64.657	0.207	0.208
-168.881	-13.038	0.162	-0.105
-167.866	37.669	0.163	-0.144
-166.852	318.340	-0.022	0.041
-165.837	-6.278	0.177	-0.120
-164.823	-143.632	-0.253	-0.024
-163.808	-81.707	0.082	-0.027
-162.793	800.000	0.063	0.211
-161.779	-28.521	-0.196	-0.112
-160.764	-38.592	-0.159	-0.083
-159.750	326.956	-0.221	-0.420
-158.735	800.000	-0.024	-0.090
-157.720	800.000	-0.094	-0.294
-156.706	800.000	0.058	-0.158
-155.691	145.306	-0.069	-0.092
-154.677	19.366	-0.168	0.134
-153.662	-74.132	-0.271	-0.097
-152.647	31.698	-0.114	0.097
-151.633	738.874	0.122	-0.325
-150.618	-190.555	-0.304	-0.003
-149.604	-61.219	0.104	-0.043
-148.589	733.867	-0.056	0.150
-147.574	-200.000	0.098	-0.464
-146.560	-200.000	-0.022	0.214
-145.545	82.987	-0.015	0.016
-144.531	153.540	0.111	0.151
-143.516	41.972	-0.113	0.101
-142.502	-49.354	-0.282	0.134
-141.487	-105.021	-0.114	0.026
-140.472	535.129	0.045	-0.105
-139.458	-200.000	-0.018	0.083
-138.443	-67.532	-0.338	0.132
-137.429	-6.108	0.395	-0.268
-136.414	-197.774	-0.395	0.002
-135.399	-182.493	-0.183	-0.003
-134.385	29.776	0.039	-0.033
-133.370	177.648	0.157	0.226
-132.356	-39.576	-0.152	-0.079
-131.341	-45.017	0.311	-0.154
-130.326	-77.517	-0.591	0.203
-129.312	-200.000	0.019	0.322
-128.297	125.864	-0.153	0.192
-127.283	289.676	0.066	0.119
-126.268	169.876	0.104	-0.148
-125.253	198.325	0.246	0.373
-124.239	-74.784	0.238	0.085
-123.224	616.223	-0.079	0.196
-122.210	800.000	-0.081	-0.226
