DTS Sentinel unit serial number:	SN413079Multiplexer serial number:	ORYXHardware model number:	OX4-SRSoftware version number:	ORYX F/W v4.00 Oryx Data Collector v3.7.2.0data status	okinstallation	princeton_trtdifferential loss correction	single-endedforward channel	channel 4reverse channel	N/Adate	2019/09/15time	20:49:35forward acquisition time	60.00reverse acquisition time	0.00gamma	496.2192k internal	0.2316k external	0.2316temperature offset calibration	0.9933default loss term (dB/km)	0.3790temperature slope calibration	1.0000multiplexer offset coefficient	1.0000multiplexer slope coefficient	1.0000fibre end	0.00T internal ref (°C)	32.31T ext. ref 1 (°C)	7.97T ext. ref 2 (°C)	24.49length (m)	temperature (°C)	Stokes	anti-Stokes-747.200	50.345	-0.184	-0.176
-746.185	-120.177	-0.286	0.049
-745.171	-110.492	-0.165	-0.035
-744.156	-90.128	0.181	0.053
-743.142	-92.931	0.162	0.046
-742.127	-58.783	-0.251	-0.110
-741.112	-45.654	0.239	0.120
-740.098	674.454	-0.087	0.229
-739.083	-105.866	-0.258	0.059
-738.069	-200.000	-0.028	0.320
-737.054	94.755	0.106	0.122
-736.039	160.981	-0.068	-0.096
-735.025	800.000	0.024	-0.074
-734.010	-41.601	-0.447	-0.233
-732.996	287.372	0.075	-0.138
-731.981	-92.701	0.285	0.081
-730.966	46.639	-0.242	-0.227
-729.952	-200.000	-0.030	-0.168
-728.937	-8.646	-0.205	0.139
-727.923	-81.146	-0.206	0.069
-726.908	-169.699	-0.689	-0.025
-725.894	-76.238	-0.083	-0.030
-724.879	-200.000	0.029	-0.270
-723.864	581.943	0.077	-0.192
-722.850	222.560	-0.153	-0.250
-721.835	-35.502	0.192	0.106
-720.821	-200.000	-0.086	0.434
-719.806	-156.430	-0.116	-0.007
-718.791	41.053	-0.243	-0.222
-717.777	-110.284	0.131	-0.028
-716.762	195.148	-0.199	0.306
-715.748	-79.732	0.173	0.059
-714.733	23.852	-0.055	0.046
-713.718	115.099	0.043	-0.054
-712.704	800.000	-0.052	0.147
-711.689	800.000	0.069	-0.246
-710.675	-200.000	0.002	-0.071
-709.660	578.562	0.072	0.177
-708.645	-200.000	-0.047	-0.264
-707.631	-37.263	-0.130	-0.070
-706.616	61.902	0.207	-0.208
-705.602	-94.745	-0.451	0.124
-704.587	167.437	0.093	-0.134
-703.572	-141.227	0.356	-0.037
-702.558	48.004	0.055	0.052
-701.543	-200.000	-0.018	0.167
-700.529	177.209	0.106	0.157
-699.514	251.442	-0.121	-0.208
-698.499	-97.412	0.298	-0.078
-697.485	204.076	-0.113	-0.178
-696.470	34.199	-0.160	0.141
-695.456	-159.860	0.133	0.007
-694.441	-39.473	-0.304	-0.161
-693.426	45.999	-0.060	-0.056
-692.412	248.596	0.040	0.068
-691.397	232.764	-0.126	0.209
-690.383	-33.612	-0.131	0.073
-689.368	-16.649	-0.194	0.124
-688.354	-43.991	-0.133	-0.068
-687.339	-169.589	-0.337	0.012
-686.324	-152.251	0.124	-0.009
-685.310	259.192	-0.107	-0.186
-684.295	-146.836	-0.428	-0.037
-683.281	-34.306	-0.263	-0.146
-682.266	50.798	-0.172	-0.165
-681.251	260.846	-0.077	-0.135
-680.237	-95.060	0.033	-0.009
-679.222	-23.108	0.122	-0.074
-678.208	-200.000	0.001	-0.050
-677.193	-5.240	-0.301	0.209
-676.178	800.000	0.023	-0.074
-675.164	-73.749	0.084	-0.031
-674.149	-137.479	0.253	-0.029
-673.135	365.138	-0.038	0.077
-672.120	69.366	0.044	0.046
-671.105	56.317	-0.216	0.212
-670.091	-12.186	-0.221	-0.146
-669.076	800.000	0.026	0.101
-668.062	5.738	0.202	0.151
-667.047	-118.484	-0.295	-0.053
-666.032	119.377	0.160	-0.199
-665.018	800.000	0.030	-0.115
-664.003	-71.763	0.173	0.065
-662.989	-200.000	-0.002	0.033
-661.974	32.993	0.271	0.237
-660.959	-195.205	-0.339	-0.003
-659.945	574.088	-0.172	0.424
-658.930	-50.809	0.177	-0.084
-657.916	5.591	-0.216	-0.161
-656.901	-68.551	0.133	0.052
-655.886	-89.896	0.271	0.080
-654.872	181.541	-0.233	-0.347
-653.857	-14.352	-0.267	-0.174
-652.843	-200.000	-0.012	-0.053
-651.828	194.258	-0.328	0.502
-650.814	-12.704	0.126	-0.083
-649.799	800.000	0.058	0.183
-648.784	-58.618	-0.333	-0.146
-647.770	800.000	-0.051	0.185
-646.755	-137.125	0.190	-0.022
-645.741	-200.000	0.013	-0.078
-644.726	-156.341	0.191	-0.012
-643.711	-200.000	-0.001	-0.197
-642.697	-74.231	0.222	-0.081
-641.682	-22.774	0.165	-0.101
-640.668	-95.945	0.241	0.065
-639.653	800.000	0.060	-0.220
-638.638	130.908	0.120	-0.156
-637.624	332.664	-0.112	-0.217
-636.609	55.222	-0.059	0.057
-635.595	-47.236	-0.361	-0.178
-634.580	72.122	-0.032	-0.034
-633.565	8.990	-0.069	-0.052
-632.551	12.887	0.034	-0.027
-631.536	-51.508	0.061	-0.029
-630.522	147.290	0.399	0.541
-629.507	800.000	-0.039	-0.154
-628.492	-151.725	0.157	0.012
-627.478	282.729	-0.019	0.034
-626.463	-102.847	-0.399	0.096
-625.449	-105.403	-0.020	-0.005
-624.434	-200.000	0.007	-0.070
-623.419	-200.000	-0.021	0.382
-622.405	800.000	-0.075	-0.243
-621.390	-100.040	-0.121	0.031
-620.376	85.638	-0.187	-0.207
-619.361	-144.066	-0.156	-0.015
-618.346	135.386	-0.204	0.267
-617.332	140.641	0.049	-0.065
-616.317	-129.595	-0.189	-0.026
-615.303	-104.848	0.402	-0.093
-614.288	-82.917	-0.302	-0.098
-613.273	-89.924	-0.096	0.028
-612.259	-78.874	0.155	-0.053
-611.244	55.663	-0.224	-0.219
-610.230	-46.626	0.338	-0.167
-609.215	259.008	-0.064	0.111
-608.201	206.368	-0.318	-0.499
-607.186	-59.265	-0.020	0.009
-606.171	-5.134	0.208	0.144
-605.157	-83.099	-0.052	0.017
-604.142	-150.292	-0.193	-0.015
-603.128	-200.000	-0.021	-0.126
-602.113	-36.921	-0.073	0.040
-601.098	-135.275	0.323	0.039
-600.084	-93.775	0.189	-0.053
-599.069	0.593	0.179	0.129
-598.055	-141.484	0.237	0.024
-597.040	205.662	-0.142	0.223
-596.025	800.000	0.060	0.191
-595.011	370.626	0.078	-0.160
-593.996	-140.020	0.197	-0.021
-592.982	-76.895	-0.250	0.088
-591.967	58.082	-0.154	-0.151
-590.952	227.652	-0.159	-0.261
-589.938	-124.194	-0.093	0.015
-588.923	165.389	0.047	0.067
-587.909	800.000	0.036	-0.103
-586.894	800.000	-0.058	-0.250
-585.879	-200.000	-0.019	0.110
-584.865	-86.351	0.045	-0.014
-583.850	-120.300	-0.017	0.003
-582.836	-26.776	-0.316	0.186
-581.821	-27.245	-0.156	0.092
-580.806	-191.468	0.144	0.001
-579.792	-122.730	-0.263	0.043
-578.777	800.000	-0.125	0.351
-577.763	269.541	0.131	-0.231
-576.748	-113.860	-0.418	-0.082
-575.733	59.343	-0.186	0.185
-574.719	169.570	0.121	-0.174
-573.704	55.372	0.157	0.153
-572.690	-91.502	-0.348	0.100
-571.675	800.000	0.160	0.485
-570.661	-129.960	0.148	0.020
-569.646	-200.000	-0.025	0.242
-568.631	106.842	0.258	0.308
-567.617	-72.404	-0.081	-0.030
-566.602	256.976	0.035	-0.061
-565.588	28.697	0.381	0.324
-564.573	-42.884	0.174	0.089
-563.558	-49.285	0.227	0.109
-562.544	94.192	-0.109	0.124
-561.529	325.671	-0.063	0.121
-560.515	-67.743	0.358	0.141
-559.500	800.000	-0.052	-0.183
-558.485	800.000	-0.038	0.112
-557.471	-200.000	0.001	-0.091
-556.456	-56.807	-0.224	0.099
-555.442	800.000	-0.051	0.147
-554.427	59.159	0.149	0.148
-553.412	-18.145	-0.100	-0.063
-552.398	62.418	-0.140	0.141
-551.383	436.784	0.051	0.112
-550.369	-200.000	-0.002	-0.209
-549.354	375.097	0.086	-0.175
-548.339	-2.934	-0.203	0.143
-547.325	-128.875	0.401	-0.057
-546.310	34.462	0.143	-0.125
-545.296	-6.287	0.143	-0.098
-544.281	-125.783	-0.209	0.032
-543.266	-69.883	-0.269	0.103
-542.252	-200.000	0.017	0.142
-541.237	27.139	0.108	-0.091
-540.223	96.620	0.292	-0.336
-539.208	64.511	0.308	-0.312
-538.193	800.000	-0.031	-0.089
-537.179	-11.975	-0.121	-0.080
-536.164	-7.380	-0.415	-0.283
-535.150	-200.000	-0.008	0.136
-534.135	-129.276	0.250	-0.035
-533.121	-138.383	0.322	0.036
-532.106	800.000	-0.076	-0.325
-531.091	-83.786	-0.085	-0.027
-530.077	670.653	0.131	-0.340
-529.062	-53.152	-0.135	0.062
-528.048	-114.422	-0.176	0.034
-527.033	-156.660	-0.288	0.018
-526.018	62.256	-0.058	0.058
-525.004	-103.613	-0.207	0.049
-523.989	139.653	-0.108	-0.142
-522.975	800.000	0.072	-0.273
-521.960	116.642	0.231	-0.284
-520.945	-23.742	0.222	-0.134
-519.931	72.239	-0.140	-0.146
-518.916	-18.037	0.106	0.066
-517.902	342.847	-0.035	0.068
-516.887	-2.025	-0.328	0.231
-515.872	240.136	-0.084	0.140
-514.858	-4.659	0.126	-0.087
-513.843	29.734	-0.206	-0.176
-512.829	22.816	0.248	-0.204
-511.814	-97.463	0.145	0.038
-510.799	407.383	0.032	-0.068
-509.785	586.560	0.102	0.252
-508.770	-30.993	-0.406	0.230
-507.756	-28.970	0.338	0.195
-506.741	-200.000	0.020	-0.235
-505.726	579.237	0.137	0.338
-504.712	-143.158	0.274	0.026
-503.697	-63.157	-0.187	-0.078
-502.683	343.251	-0.050	-0.098
-501.668	-127.196	0.405	0.059
-500.653	-163.732	-0.216	0.010
-499.639	-110.480	0.185	-0.039
-498.624	-200.000	0.010	0.171
-497.610	-106.235	0.206	-0.046
-496.595	43.370	0.116	-0.106
-495.581	243.316	-0.183	-0.308
-494.566	-134.425	-0.232	0.029
-493.551	-121.031	-0.202	0.034
-492.537	-39.665	-0.212	0.111
-491.522	-126.512	-0.158	-0.024
-490.508	-83.259	-0.293	-0.095
-489.493	-200.000	0.015	0.223
-488.478	-116.910	0.161	0.029
-487.464	189.009	0.181	0.271
-486.449	431.584	0.050	0.109
-485.435	-143.663	0.246	0.023
-484.420	151.224	0.244	0.332
-483.405	800.000	0.032	0.117
-482.391	15.346	-0.390	0.307
-481.376	184.032	0.271	0.403
-480.362	800.000	-0.063	-0.200
-479.347	208.697	-0.103	-0.162
-478.332	-20.672	-0.256	-0.158
-477.318	132.662	-0.016	0.021
-476.303	-23.985	-0.151	-0.090
-475.289	-82.089	-0.428	-0.140
-474.274	306.002	-0.080	-0.150
-473.259	800.000	-0.048	-0.177
-472.245	12.125	0.165	-0.127
-471.230	64.086	0.162	-0.163
-470.216	77.710	-0.121	0.129
-469.201	-42.045	0.129	0.066
-468.186	-200.000	-0.026	-0.337
-467.172	43.727	-0.070	0.064
-466.157	-198.471	0.113	-0.001
-465.143	32.906	0.368	0.319
-464.128	-108.534	-0.079	-0.017
-463.113	-47.000	0.301	0.147
-462.099	-6.626	-0.090	-0.061
-461.084	139.656	-0.168	-0.222
-460.070	337.554	0.093	-0.182
-459.055	92.760	0.138	0.156
-458.040	98.387	0.113	-0.131
-457.026	-168.199	0.134	-0.005
-456.011	-200.000	-0.004	-0.202
-454.997	-166.580	0.135	0.006
-453.982	-35.560	-0.194	0.105
-452.968	-130.750	-0.069	0.009
-451.953	800.000	-0.044	0.153
-450.938	-3.968	-0.129	-0.090
-449.924	229.393	-0.093	-0.152
-448.909	-193.682	0.188	0.002
-447.895	145.679	-0.242	-0.324
-446.880	-81.452	-0.099	0.033
-445.865	800.000	0.083	-0.294
-444.851	-200.000	0.104	-0.455
-443.836	110.889	0.109	0.132
-442.822	-200.000	0.010	0.214
-441.807	-200.000	-0.034	0.160
-440.792	151.044	0.288	0.392
-439.778	-107.634	0.174	-0.038
-438.763	43.239	-0.193	-0.176
-437.749	420.097	0.244	-0.524
-436.734	-44.038	0.188	-0.095
-435.719	-10.906	-0.298	-0.197
-434.705	73.673	0.088	0.092
-433.690	-45.113	0.329	0.164
-432.676	-200.000	0.002	-0.102
-431.661	800.000	0.028	0.092
-430.646	800.000	-0.043	0.118
-429.632	-49.458	-0.221	-0.106
-428.617	-166.137	0.275	0.012
-427.603	-101.666	-0.194	-0.047
-426.588	562.966	0.107	-0.260
-425.573	-3.122	0.255	0.178
-424.559	-200.000	-0.281	0.001
-423.544	87.949	0.171	-0.189
-422.530	-25.389	-0.174	0.103
-421.515	-102.856	0.464	-0.110
-420.500	-74.546	-0.161	-0.058
-419.486	800.000	-0.050	-0.209
-418.471	54.747	-0.106	0.102
-417.457	-90.268	0.182	0.053
-416.442	-200.000	0.003	-0.205
-415.428	-108.221	0.165	0.036
-414.413	423.057	0.024	0.051
-413.398	-200.000	0.022	0.301
-412.384	-200.000	0.015	0.128
-411.369	220.619	-0.069	0.110
-410.355	-126.904	-0.091	0.013
-409.340	800.000	0.038	0.118
-408.325	-89.354	0.314	0.092
-407.311	800.000	-0.075	0.212
-406.296	-3.710	-0.141	0.098
-405.282	-200.000	-0.017	0.099
-404.267	-109.048	-0.056	0.012
-403.252	800.000	0.077	0.281
-402.238	156.289	-0.135	-0.186
-401.223	295.179	-0.061	-0.112
-400.209	-57.108	-0.108	-0.047
-399.194	-200.000	-0.084	0.392
-398.179	37.726	-0.055	-0.049
-397.165	-113.416	0.168	-0.033
-396.150	-88.231	-0.312	-0.093
-395.136	274.964	-0.058	0.103
-394.121	-200.000	-0.066	0.345
-393.106	-200.000	0.010	0.120
-392.092	-165.644	-0.239	0.010
-391.077	184.955	0.241	0.357
-390.063	166.573	-0.078	0.110
-389.048	-32.996	-0.170	0.094
-388.033	14.753	-0.117	0.091
-387.019	-125.707	-0.515	-0.078
-386.004	339.813	0.060	-0.117
-384.990	192.659	0.066	0.100
-383.975	362.944	-0.122	0.246
-382.960	35.656	-0.068	0.059
-381.946	-3.129	0.192	0.134
-380.931	-200.000	-0.023	-0.154
-379.917	-200.000	-0.027	-0.166
-378.902	-70.614	0.087	-0.033
-377.888	-108.533	-0.465	0.100
-376.873	-102.359	0.535	-0.128
-375.858	800.000	0.050	0.167
-374.844	245.408	0.177	-0.298
-373.829	-144.760	0.080	-0.007
-372.815	-200.000	0.045	0.228
-371.800	30.631	-0.237	0.202
-370.785	-95.273	0.081	0.022
-369.771	87.888	-0.123	-0.136
-368.756	-60.044	0.282	0.120
-367.742	-200.000	-0.002	-0.229
-366.727	160.976	0.111	-0.155
-365.712	-200.000	-0.008	0.036
-364.698	-200.000	0.007	0.178
-363.683	-68.792	0.160	0.062
-362.669	-200.000	-0.046	-0.213
-361.654	-130.331	-0.240	-0.033
-360.639	-152.002	0.146	0.011
-359.625	-138.269	0.178	0.020
-358.610	19.812	0.054	0.044
-357.596	274.746	-0.180	0.318
-356.581	119.993	-0.076	-0.093
-355.566	-200.000	-0.037	-0.202
-354.552	-166.990	0.151	0.006
-353.537	124.482	0.060	-0.075
-352.523	123.907	-0.223	-0.279
-351.508	97.386	0.268	-0.307
-350.493	73.359	-0.112	0.117
-349.479	800.000	0.057	0.173
-348.464	32.509	-0.040	0.034
-347.450	749.685	0.138	0.372
-346.435	15.145	-0.143	-0.112
-345.420	124.185	0.194	-0.243
-344.406	-12.879	0.223	0.145
-343.391	185.652	-0.094	-0.140
-342.377	105.120	-0.102	0.120
-341.362	-34.666	0.296	0.161
-340.348	-59.016	-0.392	-0.169
-339.333	237.320	-0.103	-0.171
-338.318	137.094	0.052	0.068
-337.304	-89.204	0.306	-0.090
-336.289	-143.062	0.223	0.021
-335.275	15.084	-0.140	-0.109
-334.260	259.323	-0.135	-0.232
-333.245	-200.000	0.022	-0.246
-332.231	-86.937	0.283	0.086
-331.216	800.000	0.040	0.136
-330.202	-59.811	-0.240	-0.103
-329.187	-200.000	0.001	-0.209
-328.172	222.170	0.036	0.058
-327.158	80.029	-0.027	0.029
-326.143	-200.000	-0.042	-0.304
-325.129	-200.000	-0.018	-0.528
-324.114	168.074	-0.124	-0.177
-323.099	-93.158	-0.151	-0.042
-322.085	347.439	-0.025	0.048
-321.070	115.715	0.156	0.191
-320.056	-167.577	-0.029	0.001
-319.041	-148.200	-0.340	0.028
-318.026	-200.000	-0.007	-0.142
-317.012	-141.930	0.079	0.008
-315.997	800.000	-0.026	-0.112
-314.983	84.011	-0.223	0.242
-313.968	-2.758	0.269	0.188
-312.953	800.000	-0.056	-0.216
-311.939	-12.778	-0.052	-0.034
-310.924	402.022	0.158	0.330
-309.910	-64.921	-0.234	-0.094
-308.895	-200.000	0.001	-0.074
-307.880	-200.000	-0.069	0.441
-306.866	76.141	-0.157	-0.166
-305.851	-35.007	-0.243	-0.132
-304.837	800.000	-0.065	-0.245
-303.822	195.003	0.127	-0.192
-302.807	-10.781	-0.125	-0.082
-301.793	700.491	0.057	0.149
-300.778	-140.076	0.179	-0.019
-299.764	123.301	-0.291	-0.363
-298.749	800.000	-0.065	-0.244
-297.735	800.000	-0.041	-0.126
-296.720	-44.917	0.392	0.194
-295.705	-33.530	-0.132	0.073
-294.691	800.000	-0.085	-0.331
-293.676	800.000	0.051	0.176
-292.662	24.686	-0.071	-0.059
-291.647	-60.862	-0.147	-0.062
-290.632	-83.627	-0.337	-0.107
-289.618	64.439	0.221	0.221
-288.603	-200.000	0.030	0.181
-287.589	-112.255	-0.179	-0.036
-286.574	151.405	0.223	0.302
-285.559	-158.499	-0.156	-0.009
-284.545	-57.342	-0.231	0.101
-283.530	27.942	0.133	0.112
-282.516	216.203	0.089	0.140
-281.501	-129.748	-0.233	-0.032
-280.486	-200.000	0.010	-0.272
-279.472	-200.000	0.046	-0.278
-278.457	477.825	-0.127	-0.286
-277.443	-200.000	-0.011	-0.332
-276.428	-44.360	0.234	-0.117
-275.413	-32.873	-0.440	0.243
-274.399	411.173	-0.105	-0.222
-273.384	800.000	0.096	-0.271
-272.370	-67.453	-0.447	-0.175
-271.355	800.000	-0.007	-0.022
-270.340	-103.594	0.121	0.028
-269.326	-19.905	-0.189	-0.116
-268.311	-200.000	-0.005	0.138
-267.297	-51.022	0.217	-0.101
-266.282	800.000	0.107	-0.322
-265.267	79.296	0.316	0.336
-264.253	472.933	-0.122	0.274
-263.238	-23.492	-0.029	0.017
-262.224	-22.787	-0.300	-0.180
-261.209	-88.506	0.226	0.067
-260.195	-200.000	-0.085	0.394
-259.180	-78.147	-0.506	-0.173
-258.165	-44.802	0.431	-0.213
-257.151	0.146	-0.150	0.106
-256.136	-105.711	0.346	-0.078
-255.122	-176.658	0.259	-0.007
-254.107	154.426	-0.199	-0.272
-253.092	-103.349	-0.207	0.049
-252.078	153.688	0.060	0.081
-251.063	132.523	0.086	-0.110
-250.049	-102.430	0.187	0.045
-249.034	-109.770	-0.105	-0.022
-248.019	267.980	0.005	0.009
-247.005	108.810	-0.088	0.104
-245.990	-148.687	0.330	0.027
-244.976	-121.264	0.328	0.054
-243.961	17.708	-0.187	-0.148
-242.946	195.649	-0.188	0.284
-241.932	-118.471	-0.159	-0.028
-240.917	54.406	-0.124	-0.118
-239.903	-113.697	0.368	0.071
-238.888	-90.750	0.213	0.061
-237.873	-157.096	0.474	-0.029
-236.859	-51.844	0.226	0.105
-235.844	-38.544	0.190	0.099
-234.830	-116.128	0.176	0.032
-233.815	-104.938	-0.262	-0.060
-232.800	-143.979	0.369	-0.034
-231.786	-200.000	-0.022	0.236
-230.771	728.534	0.075	0.198
-229.757	427.999	0.114	-0.245
-228.742	52.203	0.314	-0.297
-227.727	800.000	0.040	0.174
-226.713	407.767	0.116	0.244
-225.698	-94.469	0.187	0.051
-224.684	160.874	0.123	-0.171
-223.669	-51.882	-0.201	-0.093
-222.655	-200.000	-0.033	0.172
-221.640	-110.419	0.120	-0.025
-220.625	70.656	-0.011	-0.011
-219.611	60.807	0.049	0.048
-218.596	-200.000	0.062	-0.275
-217.582	800.000	-0.060	-0.177
-216.567	-200.000	0.007	0.040
-215.552	739.286	-0.099	0.264
-214.538	-145.029	-0.254	0.023
-213.523	-200.000	-0.041	0.181
-212.509	37.439	0.131	-0.115
-211.494	-200.000	0.049	0.412
-210.479	72.737	0.095	-0.099
-209.465	192.729	-0.059	-0.088
-208.450	-200.000	-0.007	0.247
-207.436	-200.000	-0.040	0.309
-206.421	-0.516	-0.173	0.122
-205.406	-21.346	-0.172	-0.104
-204.392	75.035	0.217	0.227
-203.377	170.092	0.094	0.134
-202.363	8.910	-0.140	-0.105
-201.348	-31.512	0.369	0.206
-200.333	325.150	0.095	0.180
-199.319	-200.000	0.001	-0.173
-198.304	-36.579	-0.227	-0.121
-197.290	-23.136	0.142	0.085
-196.275	44.705	0.286	0.261
-195.260	-57.315	0.134	-0.058
-194.246	-200.000	-0.010	0.351
-193.231	800.000	-0.059	-0.216
-192.217	95.319	-0.203	-0.230
-191.202	-67.362	-0.154	-0.060
-190.187	-40.768	0.084	-0.043
-189.173	-166.154	-0.135	-0.006
-188.158	5.726	0.072	-0.053
-187.144	-19.815	0.132	0.081
-186.129	-21.949	-0.111	0.067
-185.114	-66.873	-0.208	0.081
-184.100	59.118	-0.257	0.251
-183.085	-200.000	-0.020	0.091
-182.071	800.000	-0.052	0.182
-181.056	48.599	-0.208	-0.193
-180.042	-200.000	0.043	0.236
-179.027	-192.519	0.260	-0.002
-178.012	-34.142	-0.200	0.109
-176.998	9.595	-0.170	-0.128
-175.983	-42.602	0.308	0.155
-174.969	800.000	0.058	0.223
-173.954	-200.000	0.058	-0.290
-172.939	-200.000	-0.061	-0.283
-171.925	-80.176	0.108	-0.036
-170.910	-69.998	0.536	0.202
-169.896	1.712	-0.266	-0.190
-168.881	-200.000	-0.023	-0.116
-167.866	99.783	-0.096	-0.110
-166.852	800.000	0.028	0.116
-165.837	-200.000	-0.008	0.145
-164.823	-177.141	0.079	-0.002
-163.808	-200.000	0.008	0.185
-162.793	-105.498	0.181	0.041
-161.779	-36.569	-0.175	-0.093
-160.764	-17.999	-0.205	0.127
-159.750	-200.000	0.017	-0.242
-158.735	-110.305	-0.365	0.075
-157.720	-137.241	-0.167	0.019
-156.706	-95.025	-0.417	0.111
-155.691	149.329	-0.068	-0.091
-154.677	117.245	0.103	0.125
-153.662	800.000	0.076	0.265
-152.647	800.000	0.061	0.248
-151.633	-127.372	-0.372	-0.054
-150.618	-181.290	0.123	-0.002
-149.604	800.000	-0.050	0.141
-148.589	800.000	-0.056	0.213
-147.574	113.507	0.283	0.340
-146.560	-1.655	0.226	-0.157
-145.545	-78.060	0.175	0.060
-144.531	523.985	-0.020	0.048
-143.516	-57.583	0.175	0.076
-142.502	434.795	0.130	-0.279
-141.487	25.509	-0.212	-0.175
-140.472	-200.000	-0.009	-0.396
-139.458	800.000	-0.050	-0.209
-138.443	-78.661	0.195	0.066
-137.429	800.000	0.031	-0.128
-136.414	112.347	-0.080	-0.096
-135.399	31.676	-0.218	-0.186
-134.385	-0.924	-0.223	0.156
-133.370	-53.173	0.283	-0.128
-132.356	-129.603	0.216	0.029
-131.341	44.514	0.117	-0.107
-130.326	-17.546	0.073	-0.045
-129.312	186.455	-0.147	-0.217
-128.297	-87.146	-0.160	-0.048
-127.283	-41.812	0.410	-0.208
-126.268	13.153	0.112	-0.086
-125.253	-119.299	-0.196	-0.034
-124.239	-39.631	-0.279	0.145
-123.224	74.012	-0.128	0.133
-122.210	29.524	-0.111	0.093
