DTS Sentinel unit serial number:	SN413079Multiplexer serial number:	ORYXHardware model number:	OX4-SRSoftware version number:	ORYX F/W v4.00 Oryx Data Collector v3.7.2.0data status	okinstallation	princeton_trtdifferential loss correction	single-endedforward channel	channel 4reverse channel	N/Adate	2019/09/17time	07:09:34forward acquisition time	60.00reverse acquisition time	0.00gamma	496.2192k internal	0.2320k external	0.2320temperature offset calibration	0.9984default loss term (dB/km)	0.3790temperature slope calibration	1.0000multiplexer offset coefficient	1.0000multiplexer slope coefficient	1.0000fibre end	0.00T internal ref (°C)	27.37T ext. ref 1 (°C)	0.12T ext. ref 2 (°C)	21.18length (m)	temperature (°C)	Stokes	anti-Stokes-747.200	-75.370	-0.240	-0.087
-746.185	-200.000	-0.045	0.450
-745.171	-5.460	0.194	0.134
-744.156	-200.000	-0.050	0.278
-743.142	584.244	-0.090	0.223
-742.127	-136.509	-0.398	-0.047
-741.112	-31.112	0.242	0.138
-740.098	-200.000	0.028	0.471
-739.083	800.000	-0.069	0.301
-738.069	355.957	-0.195	0.392
-737.054	194.055	-0.086	-0.131
-736.039	-38.072	-0.332	0.178
-735.025	-200.000	0.015	-0.295
-734.010	-7.894	-0.146	-0.100
-732.996	14.536	-0.177	-0.140
-731.981	-131.184	-0.426	0.057
-730.966	-92.070	0.242	-0.069
-729.952	-172.790	-0.215	-0.007
-728.937	-31.357	0.245	0.139
-727.923	48.597	-0.039	0.037
-726.908	-31.317	0.276	0.157
-725.894	-21.169	-0.171	-0.105
-724.879	-7.737	-0.078	0.053
-723.864	381.722	-0.148	0.306
-722.850	32.685	-0.092	-0.080
-721.835	800.000	0.020	0.064
-720.821	-164.691	-0.371	-0.017
-719.806	104.514	0.128	0.152
-718.791	351.322	0.106	0.212
-717.777	2.250	0.091	-0.066
-716.762	346.684	-0.078	-0.155
-715.748	16.057	0.171	-0.136
-714.733	-179.466	-0.235	-0.005
-713.718	-47.024	0.055	0.027
-712.704	-14.006	-0.306	-0.200
-711.689	-2.021	-0.254	-0.180
-710.675	800.000	0.099	-0.419
-709.660	-115.515	-0.281	-0.053
-708.645	800.000	0.085	-0.305
-707.631	-200.000	0.003	0.101
-706.616	524.608	-0.110	-0.261
-705.602	597.708	-0.067	-0.168
-704.587	-143.712	0.266	0.025
-703.572	-95.840	0.152	0.041
-702.558	-200.000	-0.028	-0.264
-701.543	-172.938	-0.163	0.005
-700.529	177.865	0.181	-0.267
-699.514	-200.000	0.011	-0.122
-698.499	-200.000	0.005	0.147
-697.485	-102.668	0.158	0.038
-696.470	14.438	0.260	-0.205
-695.456	-98.821	0.394	-0.101
-694.441	-140.664	-0.264	-0.028
-693.426	-79.990	-0.217	-0.073
-692.412	-92.679	-0.368	-0.104
-691.397	-200.000	-0.011	-0.130
-690.383	-63.468	-0.201	-0.083
-689.368	-200.000	-0.002	0.286
-688.354	-28.229	-0.159	0.092
-687.339	-124.893	-0.148	0.023
-686.324	25.869	-0.113	0.095
-685.310	-53.956	0.397	0.183
-684.295	-162.076	0.312	0.016
-683.281	-40.640	0.212	0.111
-682.266	-158.051	0.218	-0.013
-681.251	177.217	-0.107	-0.157
-680.237	-0.027	0.118	-0.085
-679.222	-98.096	-0.259	0.067
-678.208	-110.658	-0.417	0.087
-677.193	471.029	-0.096	0.218
-676.178	-20.519	-0.089	-0.055
-675.164	147.088	0.287	-0.390
-674.149	-3.397	-0.296	-0.208
-673.135	-42.897	0.307	-0.157
-672.120	-200.000	0.022	0.178
-671.105	-34.726	0.103	0.057
-670.091	-110.771	0.330	-0.069
-669.076	-57.756	-0.171	0.076
-668.062	278.976	-0.108	-0.195
-667.047	-26.600	0.136	0.080
-666.032	-200.000	0.010	-0.261
-665.018	-122.888	0.068	-0.011
-664.003	-65.349	0.335	0.136
-662.989	10.726	0.259	-0.199
-661.974	-56.824	-0.154	0.069
-660.959	800.000	0.085	-0.319
-659.945	12.531	-0.149	0.116
-658.930	160.679	0.032	0.045
-657.916	-127.754	0.135	0.020
-656.901	47.030	0.105	0.098
-655.886	-200.000	0.049	-0.282
-654.872	-8.752	0.106	-0.072
-653.857	45.745	-0.234	-0.218
-652.843	293.356	-0.138	-0.253
-651.828	-26.317	0.284	-0.168
-650.814	-71.510	-0.361	-0.136
-649.799	-93.657	0.085	-0.024
-648.784	-108.766	-0.219	0.047
-647.770	-74.588	0.211	0.076
-646.755	-200.000	-0.011	0.106
-645.741	-42.484	0.301	-0.154
-644.726	-96.974	-0.090	0.024
-643.711	81.146	0.285	-0.310
-642.697	-33.414	0.327	0.182
-641.682	96.675	-0.238	0.275
-640.668	79.687	-0.134	-0.145
-639.653	18.773	0.038	0.031
-638.638	-128.053	0.217	-0.031
-637.624	-200.000	0.014	-0.307
-636.609	53.311	0.091	0.087
-635.595	-145.427	0.133	-0.012
-634.580	23.419	0.182	0.151
-633.565	-200.000	-0.010	-0.388
-632.551	-51.590	0.143	-0.067
-631.536	800.000	0.033	0.093
-630.522	-108.426	-0.281	-0.061
-629.507	-18.462	0.227	-0.143
-628.492	-167.211	-0.296	0.012
-627.478	-28.513	0.208	0.121
-626.463	37.907	0.201	-0.180
-625.449	800.000	0.019	-0.078
-624.434	-7.625	-0.013	-0.009
-623.419	-117.822	-0.190	-0.034
-622.405	-163.495	0.061	-0.003
-621.390	-200.000	-0.017	0.155
-620.376	-200.000	0.016	-0.082
-619.361	92.254	-0.153	0.174
-618.346	227.377	-0.080	0.130
-617.332	800.000	-0.110	0.448
-616.317	578.561	0.103	0.253
-615.303	800.000	-0.007	0.024
-614.288	-12.699	-0.153	-0.100
-613.273	-24.594	0.299	0.179
-612.259	-112.283	0.305	0.061
-611.244	-93.358	-0.261	0.073
-610.230	-19.399	-0.139	-0.087
-609.215	-153.577	-0.267	-0.019
-608.201	436.469	-0.100	0.218
-607.186	72.665	-0.257	-0.270
-606.171	-200.000	0.016	0.101
-605.157	410.718	0.041	0.087
-604.142	800.000	-0.145	-0.484
-603.128	-74.766	0.280	-0.101
-602.113	-110.534	-0.253	0.053
-601.098	800.000	-0.093	-0.272
-600.084	800.000	0.082	-0.235
-599.069	-200.000	0.018	-0.389
-598.055	-200.000	-0.001	0.190
-597.040	-4.600	-0.133	0.092
-596.025	-200.000	0.035	0.269
-595.011	-200.000	-0.020	-0.159
-593.996	34.777	0.071	-0.063
-592.982	-127.380	0.258	-0.038
-591.967	-200.000	0.004	-0.276
-590.952	415.633	0.145	-0.311
-589.938	181.971	-0.046	-0.069
-588.923	-200.000	-0.017	0.105
-587.909	43.835	-0.247	-0.227
-586.894	-167.098	0.229	-0.009
-585.879	-71.800	-0.094	0.035
-584.865	-109.296	-0.141	0.030
-583.850	-117.911	-0.308	0.055
-582.836	-200.000	-0.035	0.334
-581.821	-200.000	0.040	-0.222
-580.806	-200.000	-0.014	-0.087
-579.792	800.000	-0.134	0.398
-578.777	800.000	0.024	-0.100
-577.763	-200.000	-0.010	0.133
-576.748	-200.000	-0.001	0.240
-575.733	-39.634	0.176	0.092
-574.719	46.848	0.084	-0.078
-573.704	-87.566	0.213	0.065
-572.690	73.716	0.291	0.307
-571.675	599.194	-0.018	-0.044
-570.661	40.400	-0.044	0.040
-569.646	-200.000	-0.041	-0.274
-568.631	-44.534	0.076	0.038
-567.617	123.165	-0.193	-0.242
-566.602	305.858	0.160	-0.299
-565.588	106.006	-0.175	0.207
-564.573	781.926	-0.162	-0.444
-563.558	0.353	-0.409	-0.293
-562.544	800.000	0.055	-0.162
-561.529	800.000	0.051	0.206
-560.515	-200.000	-0.016	-0.130
-559.500	-2.958	0.123	-0.087
-558.485	-49.600	-0.132	0.063
-557.471	-200.000	-0.047	0.230
-556.456	-126.628	-0.120	-0.018
-555.442	18.892	0.156	0.126
-554.427	347.109	-0.165	0.326
-553.412	-200.000	0.018	-0.230
-552.398	35.096	0.219	0.193
-551.383	-52.529	-0.237	-0.110
-550.369	67.398	-0.139	0.142
-549.354	-30.812	-0.126	-0.071
-548.339	678.017	-0.044	0.115
-547.325	-53.187	-0.120	-0.055
-546.310	-200.000	-0.018	0.138
-545.296	74.677	0.163	-0.172
-544.281	-37.607	0.111	0.060
-543.266	-22.898	-0.142	-0.086
-542.252	-200.000	0.056	0.508
-541.237	-200.000	-0.009	-0.158
-540.223	-200.000	-0.026	-0.183
-539.208	800.000	-0.097	-0.366
-538.193	-65.619	0.224	-0.090
-537.179	-80.495	0.230	0.077
-536.164	172.853	-0.092	-0.133
-535.150	-52.708	-0.075	-0.035
-534.135	182.133	-0.178	-0.262
-533.121	-23.100	-0.184	0.111
-532.106	-41.006	0.214	-0.111
-531.091	68.528	0.098	0.100
-530.077	-200.000	0.039	-0.454
-529.062	-111.121	-0.380	0.078
-528.048	166.770	0.148	0.211
-527.033	448.942	0.166	0.367
-526.018	-200.000	-0.034	0.177
-525.004	-109.280	0.397	-0.084
-523.989	800.000	0.109	-0.306
-522.975	-54.227	0.274	-0.125
-521.960	-88.956	-0.200	-0.059
-520.945	-36.543	0.254	0.137
-519.931	186.339	0.068	-0.101
-518.916	-79.334	0.101	-0.034
-517.902	-55.931	0.370	0.166
-516.887	57.712	-0.101	-0.099
-515.872	76.461	-0.195	0.207
-514.858	12.936	0.078	-0.061
-513.843	-65.932	-0.051	-0.020
-512.829	-20.246	0.272	0.168
-511.814	-167.717	-0.228	0.009
-510.799	65.862	0.288	0.292
-509.785	-111.596	-0.436	-0.089
-508.770	-200.000	0.008	0.199
-507.756	675.774	0.073	0.190
-506.741	-65.899	-0.123	-0.049
-505.726	-57.776	-0.323	0.141
-504.712	-81.159	0.213	0.071
-503.697	156.825	-0.123	-0.170
-502.683	-48.807	0.211	-0.101
-501.668	-78.765	-0.353	-0.121
-500.653	-84.666	-0.123	0.039
-499.639	18.637	-0.233	-0.187
-498.624	79.713	-0.168	-0.181
-497.610	-138.597	-0.234	-0.026
-496.595	217.973	0.049	-0.078
-495.581	-22.089	0.272	0.165
-494.566	-200.000	0.049	-0.383
-493.551	-156.415	0.299	0.019
-492.537	-200.000	-0.013	0.168
-491.522	-66.697	-0.209	-0.083
-490.508	29.274	0.277	0.235
-489.493	69.960	0.168	0.174
-488.478	680.503	-0.090	-0.235
-487.464	-3.785	-0.128	-0.089
-486.449	30.925	0.141	0.121
-485.435	-43.385	0.164	0.083
-484.420	-82.057	0.430	0.140
-483.405	-4.010	0.283	-0.196
-482.391	-187.000	0.057	0.001
-481.376	74.272	-0.031	0.032
-480.362	-72.752	0.142	0.052
-479.347	-200.000	-0.068	-0.307
-478.332	-200.000	-0.058	-0.354
-477.318	278.836	0.052	0.092
-476.303	-65.594	0.042	0.017
-475.289	-36.733	0.326	-0.175
-474.274	397.436	-0.080	-0.166
-473.259	-97.608	0.100	-0.026
-472.245	-79.401	-0.361	0.122
-471.230	12.763	0.117	0.090
-470.216	-130.209	-0.321	0.044
-469.201	800.000	-0.044	-0.188
-468.186	-61.869	0.320	-0.134
-467.172	-47.247	0.329	-0.160
-466.157	-200.000	-0.039	0.295
-465.143	161.669	-0.350	0.490
-464.128	90.412	0.216	0.242
-463.113	-168.900	-0.297	-0.011
-462.099	-32.186	0.030	0.017
-461.084	-87.211	0.450	0.137
-460.070	800.000	-0.054	0.238
-459.055	-200.000	0.018	-0.349
-458.040	-200.000	0.023	-0.134
-457.026	-88.226	-0.068	0.020
-456.011	800.000	0.090	0.285
-454.997	-193.031	0.164	0.001
-453.982	-63.078	0.203	-0.084
-452.968	129.583	-0.106	0.135
-451.953	800.000	0.055	-0.200
-450.938	-136.758	-0.228	-0.026
-449.924	-200.000	0.021	-0.178
-448.909	-200.000	-0.014	-0.403
-447.895	-1.958	-0.261	0.184
-446.880	-154.342	0.459	-0.031
-445.865	60.399	-0.159	-0.157
-444.851	-101.243	-0.274	-0.067
-443.836	-66.887	0.140	0.055
-442.822	-12.836	-0.350	-0.228
-441.807	-50.176	-0.281	0.133
-440.792	-74.633	-0.204	-0.073
-439.778	-114.637	0.120	-0.023
-438.763	-30.688	-0.079	0.044
-437.749	-23.026	-0.255	-0.154
-436.734	335.354	-0.051	-0.098
-435.719	92.774	0.192	0.216
-434.705	235.452	0.190	0.314
-433.690	-94.942	-0.071	0.019
-432.676	-200.000	0.027	-0.236
-431.661	754.563	0.059	-0.160
-430.646	-26.660	0.128	-0.075
-429.632	-95.125	-0.053	0.014
-428.617	-172.640	-0.297	0.009
-427.603	1.803	-0.259	-0.186
-426.588	21.729	-0.164	0.133
-425.573	306.455	0.009	-0.017
-424.559	-25.747	0.033	0.019
-423.544	-134.582	-0.228	0.028
-422.530	247.347	-0.125	-0.210
-421.515	-200.000	0.050	0.232
-420.500	-200.000	-0.049	-0.406
-419.486	-114.854	0.443	0.084
-418.471	71.980	0.067	-0.069
-417.457	-60.907	0.256	0.108
-416.442	310.835	0.113	0.212
-415.428	132.017	-0.100	0.128
-414.413	-101.983	0.390	0.094
-413.398	-200.000	-0.012	-0.099
-412.384	-95.022	0.154	0.041
-411.369	233.491	0.086	0.142
-410.355	-10.255	-0.218	-0.144
-409.340	150.041	-0.151	-0.204
-408.325	-106.970	0.170	0.037
-407.311	-103.199	-0.179	0.042
-406.296	81.488	0.121	-0.130
-405.282	-150.613	-0.239	-0.018
-404.267	237.968	0.131	0.216
-403.252	79.178	-0.049	0.053
-402.238	83.277	0.078	0.084
-401.223	-23.419	0.201	-0.121
-400.209	-10.526	0.050	-0.033
-399.194	72.258	0.193	-0.201
-398.179	-15.588	-0.098	-0.062
-397.165	-200.000	-0.012	-0.146
-396.150	467.784	-0.127	0.284
-395.136	-38.614	-0.249	-0.131
-394.121	-29.022	-0.088	-0.050
-393.106	117.858	-0.117	0.144
-392.092	182.045	-0.155	-0.228
-391.077	-49.156	-0.488	0.233
-390.063	-200.000	-0.098	-0.446
-389.048	-200.000	-0.005	-0.075
-388.033	-10.277	-0.184	0.122
-387.019	239.409	-0.084	0.140
-386.004	53.593	0.077	-0.074
-384.990	115.365	-0.132	-0.160
-383.975	-123.862	-0.306	0.048
-382.960	-159.948	0.127	-0.007
-381.946	800.000	0.025	-0.094
-380.931	-200.000	0.013	0.388
-379.917	118.159	-0.134	0.164
-378.902	-200.000	-0.015	0.312
-377.888	71.647	-0.082	-0.085
-376.873	-200.000	-0.025	0.210
-375.858	-35.763	-0.270	0.146
-374.844	-86.463	-0.236	-0.072
-373.829	132.217	0.234	0.300
-372.815	575.689	-0.056	0.135
-371.800	107.587	-0.120	-0.142
-370.785	-108.800	-0.478	0.102
-369.771	-200.000	0.010	0.299
-368.756	-143.556	0.046	0.004
-367.742	800.000	0.052	-0.149
-366.727	74.389	-0.079	0.083
-365.712	-27.044	-0.102	-0.059
-364.698	-77.577	-0.240	0.083
-363.683	449.480	0.092	0.203
-362.669	271.705	-0.027	0.048
-361.654	-155.986	0.106	-0.007
-360.639	-72.247	-0.262	-0.097
-359.625	-200.000	-0.068	0.371
-358.610	-23.854	-0.114	0.068
-357.596	-77.873	-0.151	-0.052
-356.581	-168.414	-0.204	-0.008
-355.566	11.412	0.167	-0.127
-354.552	388.850	0.105	0.216
-353.537	-21.593	-0.118	0.072
-352.523	-200.000	-0.015	0.195
-351.508	-56.556	0.288	-0.127
-350.493	-200.000	-0.093	-0.461
-349.479	-200.000	0.041	-0.246
-348.464	-85.609	0.283	0.088
-347.450	-10.910	-0.446	-0.293
-346.435	693.252	0.024	0.061
-345.420	9.149	0.101	0.076
-344.406	48.146	0.197	-0.184
-343.391	-16.193	0.216	-0.137
-342.377	423.888	0.091	0.194
-341.362	249.042	0.070	0.117
-340.348	-200.000	0.025	-0.233
-339.333	58.633	0.180	-0.176
-338.318	102.411	-0.096	-0.111
-337.304	145.257	-0.158	0.211
-336.289	274.527	-0.163	-0.286
-335.275	-200.000	0.015	0.323
-334.260	-200.000	-0.009	-0.099
-333.245	-200.000	-0.023	-0.343
-332.231	-141.074	0.291	-0.030
-331.216	-200.000	0.005	0.193
-330.202	800.000	0.045	0.188
-329.187	96.714	0.118	-0.135
-328.172	312.646	-0.139	0.260
-327.158	0.608	-0.115	0.082
-326.143	82.063	0.243	-0.262
-325.129	4.903	0.190	0.139
-324.114	-200.000	0.012	0.362
-323.099	5.119	-0.128	0.094
-322.085	190.120	-0.251	-0.375
-321.070	-66.444	-0.152	-0.060
-320.056	-163.165	-0.181	0.009
-319.041	800.000	-0.053	0.179
-318.026	110.908	0.191	-0.229
-317.012	8.181	0.323	-0.242
-315.997	-200.000	0.072	-0.393
-314.983	554.791	0.080	0.192
-313.968	-36.426	0.144	0.077
-312.953	-200.000	-0.003	0.035
-311.939	120.844	-0.052	0.064
-310.924	-67.379	0.104	-0.041
-309.910	-200.000	-0.007	-0.275
-308.895	2.306	0.215	0.155
-307.880	275.640	0.091	-0.161
-306.866	132.663	-0.203	-0.260
-305.851	-54.937	0.205	0.092
-304.837	112.862	0.210	-0.253
-303.822	-17.294	0.241	0.151
-302.807	134.905	-0.096	-0.124
-301.793	397.050	-0.066	-0.137
-300.778	368.499	-0.019	0.039
-299.764	-200.000	0.044	0.355
-298.749	164.910	-0.059	0.083
-297.735	-128.285	-0.392	-0.056
-296.720	301.692	-0.198	-0.364
-295.705	283.469	0.127	-0.226
-294.691	800.000	-0.024	-0.081
-293.676	9.379	0.203	0.153
-292.662	-200.000	0.327	0.001
-291.647	-88.423	0.239	0.071
-290.632	277.902	0.144	-0.255
-289.618	151.158	0.148	-0.199
-288.603	-200.000	-0.009	0.078
-287.589	79.610	-0.122	-0.130
-286.574	2.776	-0.006	0.004
-285.559	176.680	0.251	-0.363
-284.545	-101.626	0.288	0.069
-283.530	-139.190	0.017	0.002
-282.516	-59.002	0.130	0.056
-281.501	103.590	-0.110	-0.128
-280.486	65.070	0.105	0.105
-279.472	224.523	-0.087	0.140
-278.457	-79.657	0.139	0.047
-277.443	800.000	0.050	-0.174
-276.428	74.918	0.147	0.154
-275.413	55.159	-0.227	0.218
-274.399	-32.628	-0.129	0.071
-273.384	-110.975	-0.053	0.011
-272.370	383.703	-0.213	0.435
-271.355	79.124	0.297	-0.316
-270.340	20.029	0.065	0.052
-269.326	54.514	-0.097	-0.093
-268.311	-17.149	-0.147	0.092
-267.297	183.649	0.264	-0.387
-266.282	199.975	-0.178	-0.270
-265.267	-134.477	-0.077	0.009
-264.253	191.906	-0.033	-0.050
-263.238	800.000	0.124	0.446
-262.224	82.996	0.234	-0.253
-261.209	45.959	-0.072	-0.066
-260.195	-200.000	0.059	0.339
-259.180	-137.674	0.325	-0.036
-258.165	481.079	0.048	0.107
-257.151	800.000	-0.026	-0.091
-256.136	138.134	0.032	-0.042
-255.122	-88.409	0.060	0.018
-254.107	-165.371	-0.341	-0.015
-253.092	-200.000	-0.002	-0.140
-252.078	57.392	-0.133	-0.129
-251.063	-133.940	0.207	-0.025
-250.049	8.254	-0.420	0.313
-249.034	-151.315	0.294	-0.022
-248.019	-79.017	-0.075	-0.025
-247.005	37.658	-0.170	0.149
-245.990	-177.256	0.367	0.009
-244.976	-116.025	0.287	0.053
-243.961	800.000	-0.005	0.020
-242.946	449.279	-0.158	-0.346
-241.932	458.996	0.094	-0.208
-240.917	-110.116	-0.098	0.020
-239.903	410.469	0.116	0.243
-238.888	-98.034	0.127	0.032
-237.873	111.510	-0.152	0.182
-236.859	-93.694	-0.094	0.026
-235.844	738.309	-0.020	0.053
-234.830	-50.524	-0.161	0.075
-233.815	165.739	0.073	-0.103
-232.800	-200.000	-0.063	-0.423
-231.786	410.894	-0.102	-0.215
-230.771	120.637	-0.186	-0.229
-229.757	-130.370	0.371	0.050
-228.742	-163.218	0.378	0.018
-227.727	60.084	0.156	0.153
-226.713	206.737	0.089	-0.137
-225.698	-200.000	-0.025	-0.131
-224.684	3.075	0.318	-0.229
-223.669	-146.019	-0.216	0.019
-222.655	-169.353	-0.072	-0.003
-221.640	56.290	0.018	-0.017
-220.625	-73.619	0.059	0.021
-219.611	22.419	0.018	-0.014
-218.596	-35.635	-0.030	0.016
-217.582	-3.944	0.187	-0.128
-216.567	800.000	-0.053	0.153
-215.552	94.964	-0.149	0.168
-214.538	158.250	-0.111	0.153
-213.523	295.734	0.149	0.271
-212.509	593.239	0.131	-0.320
-211.494	158.305	-0.184	0.253
-210.479	-20.451	0.137	0.084
-209.465	32.160	0.300	0.257
-208.450	64.603	0.038	0.038
-207.436	45.367	0.120	0.109
-206.421	173.737	0.232	0.331
-205.406	59.798	0.044	0.043
-204.392	153.161	-0.161	0.218
-203.377	147.595	0.097	-0.129
-202.363	22.338	-0.035	-0.028
-201.348	324.443	-0.130	0.245
-200.333	-200.000	-0.000	0.023
-199.319	59.240	-0.096	0.094
-198.304	800.000	0.033	0.100
-197.290	299.369	-0.197	0.359
-196.275	-25.056	-0.248	0.145
-195.260	29.126	-0.072	0.060
-194.246	218.312	0.094	0.149
-193.231	137.105	-0.139	-0.180
-192.217	101.053	-0.136	0.157
-191.202	38.993	0.055	0.048
-190.187	71.081	-0.185	0.190
-189.173	-7.392	-0.147	0.099
-188.158	205.870	-0.109	-0.167
-187.144	142.358	-0.113	-0.148
-186.129	92.829	-0.163	-0.182
-185.114	183.473	0.074	-0.108
-184.100	800.000	0.108	-0.347
-183.085	800.000	-0.061	0.217
-182.071	-200.000	0.011	0.141
-181.056	-114.760	-0.114	0.022
-180.042	-73.501	0.468	0.169
-179.027	-10.044	-0.174	0.114
-178.012	262.107	-0.026	-0.045
-176.998	-157.012	-0.410	0.025
-175.983	186.432	0.110	0.161
-174.969	200.347	0.111	0.169
-173.954	-200.000	-0.035	0.389
-172.939	-30.746	-0.235	0.132
-171.925	528.818	0.066	-0.155
-170.910	-165.529	0.090	-0.004
-169.896	-33.979	-0.347	0.189
-168.881	-200.000	-0.024	-0.166
-167.866	23.431	-0.388	0.316
-166.852	-101.809	-0.231	-0.055
-165.837	-100.144	0.256	0.063
-164.823	100.108	-0.166	0.190
-163.808	341.044	0.019	-0.036
-162.793	-200.000	-0.033	-0.183
-161.779	-59.745	0.159	-0.067
-160.764	-118.222	0.232	0.041
-159.750	-200.000	-0.040	0.401
-158.735	-200.000	-0.013	-0.176
-157.720	134.779	-0.049	-0.063
-156.706	-200.000	0.017	-0.261
-155.691	117.113	-0.078	0.094
-154.677	-46.895	0.143	0.069
-153.662	-96.240	-0.300	0.079
-152.647	-200.000	0.065	0.407
-151.633	-200.000	0.002	-0.225
-150.618	94.851	0.254	0.285
-149.604	192.301	0.076	-0.113
-148.589	230.460	0.088	-0.143
-147.574	800.000	-0.138	-0.483
-146.560	-115.736	0.238	0.044
-145.545	369.960	-0.033	-0.067
-144.531	800.000	0.078	0.327
-143.516	-51.095	-0.120	0.056
-142.502	-47.006	0.131	-0.063
-141.487	-73.015	-0.245	-0.089
-140.472	-200.000	0.055	-0.546
-139.458	-12.066	0.222	-0.143
-138.443	-200.000	-0.066	-0.388
-137.429	-200.000	-0.038	-0.416
-136.414	800.000	0.106	0.436
-135.399	-132.386	0.194	-0.025
-134.385	-95.230	0.267	0.071
-133.370	-119.560	0.192	-0.033
-132.356	35.002	0.081	0.070
-131.341	582.377	-0.061	0.149
-130.326	-88.985	-0.237	0.069
-129.312	-200.000	-0.000	-0.016
-128.297	-154.610	-0.040	0.003
-127.283	-130.347	-0.131	0.018
-126.268	89.825	0.134	0.148
-125.253	-0.595	-0.195	0.136
-124.239	19.943	-0.360	-0.286
-123.224	-200.000	0.004	-0.112
-122.210	-200.000	0.064	0.302
-121.195	12.806	0.146	0.111
