DTS Sentinel unit serial number:	SN413079Multiplexer serial number:	ORYXHardware model number:	OX4-SRSoftware version number:	ORYX F/W v4.00 Oryx Data Collector v3.7.2.0data status	okinstallation	princeton_trtdifferential loss correction	single-endedforward channel	channel 4reverse channel	N/Adate	2019/09/15time	17:09:35forward acquisition time	60.00reverse acquisition time	0.00gamma	496.2192k internal	0.2275k external	0.2275temperature offset calibration	0.9930default loss term (dB/km)	0.3790temperature slope calibration	1.0000multiplexer offset coefficient	1.0000multiplexer slope coefficient	1.0000fibre end	0.00T internal ref (°C)	44.62T ext. ref 1 (°C)	5.96T ext. ref 2 (°C)	40.62length (m)	temperature (°C)	Stokes	anti-Stokes-747.200	-200.000	0.022	-0.111
-746.185	392.806	-0.116	0.249
-745.171	-74.156	-0.118	0.044
-744.156	-200.000	0.058	0.312
-743.142	7.261	0.299	0.230
-742.127	-79.383	0.173	0.060
-741.112	63.412	0.271	-0.280
-740.098	57.255	-0.263	0.265
-739.083	-142.219	-0.308	0.031
-738.069	-152.479	0.095	-0.007
-737.054	-194.072	0.171	-0.001
-736.039	-200.000	-0.033	0.216
-735.025	-41.197	0.398	0.212
-734.010	-200.000	-0.005	-0.194
-732.996	-200.000	-0.068	-0.587
-731.981	147.653	-0.053	-0.074
-730.966	-65.252	-0.074	0.031
-729.952	58.432	-0.133	-0.135
-728.937	-94.817	0.129	0.036
-727.923	81.173	0.078	0.087
-726.908	-200.000	0.014	-0.104
-725.894	32.768	-0.272	-0.243
-724.879	-175.959	0.264	-0.007
-723.864	-124.131	-0.248	-0.040
-722.850	-13.010	-0.226	-0.151
-721.835	800.000	-0.033	0.123
-720.821	-171.453	-0.169	0.006
-719.806	-9.388	0.178	-0.123
-718.791	-200.000	-0.007	-0.165
-717.777	85.075	-0.254	-0.286
-716.762	54.266	-0.181	-0.179
-715.748	84.060	-0.256	-0.288
-714.733	-200.000	0.019	-0.339
-713.718	25.309	-0.112	0.096
-712.704	-112.550	-0.305	0.063
-711.689	-4.065	0.191	0.136
-710.675	800.000	-0.066	0.224
-709.660	-20.625	-0.064	0.040
-708.645	-200.000	0.017	-0.118
-707.631	-109.355	-0.386	0.084
-706.616	800.000	0.098	-0.364
-705.602	727.187	-0.145	0.397
-704.587	-200.000	0.033	0.404
-703.572	-105.227	-0.321	0.075
-702.558	228.008	-0.087	-0.145
-701.543	30.986	0.017	-0.015
-700.529	774.312	0.064	-0.179
-699.514	-200.000	-0.034	0.158
-698.499	800.000	0.015	0.064
-697.485	426.871	0.074	-0.164
-696.470	-100.206	0.010	0.003
-695.456	8.807	-0.105	-0.082
-694.441	800.000	0.016	-0.054
-693.426	-51.884	0.199	-0.095
-692.412	217.158	-0.096	0.157
-691.397	-156.526	-0.221	0.014
-690.383	-109.952	-0.162	-0.035
-689.368	-200.000	0.006	0.230
-688.354	20.483	0.386	0.321
-687.339	-0.385	-0.037	-0.027
-686.324	-19.527	-0.218	-0.139
-685.310	800.000	0.048	-0.142
-684.295	800.000	0.066	-0.214
-683.281	-134.297	-0.063	0.008
-682.266	643.758	-0.072	0.189
-681.251	41.149	0.123	0.114
-680.237	-137.482	0.037	-0.004
-679.222	-200.000	-0.025	0.262
-678.208	337.739	-0.061	0.122
-677.193	800.000	0.043	0.125
-676.178	173.894	0.204	-0.304
-675.164	-200.000	-0.011	-0.167
-674.149	-200.000	0.026	-0.295
-673.135	-127.803	0.243	-0.036
-672.120	40.925	0.159	-0.148
-671.105	-43.914	-0.037	-0.019
-670.091	-200.000	-0.023	0.262
-669.076	-176.972	-0.392	0.010
-668.062	800.000	0.056	0.161
-667.047	-41.813	-0.361	0.190
-666.032	-89.934	-0.090	-0.027
-665.018	-45.169	0.231	0.118
-664.003	-181.951	0.107	0.002
-662.989	-98.179	0.305	0.081
-661.974	173.668	-0.112	0.166
-660.959	148.265	0.230	-0.319
-659.945	309.309	-0.140	-0.268
-658.930	119.329	0.229	0.292
-657.916	72.760	0.099	-0.106
-656.901	96.778	-0.302	0.356
-655.886	-87.783	-0.131	0.040
-654.872	-26.940	-0.106	-0.063
-653.857	48.961	-0.174	-0.167
-652.843	-128.979	0.051	0.007
-651.828	93.286	0.136	-0.158
-650.814	91.629	-0.118	-0.136
-649.799	-141.718	0.035	0.004
-648.784	3.832	0.252	-0.189
-647.770	-200.000	0.004	0.084
-646.755	154.913	-0.096	-0.136
-645.741	45.109	0.086	0.081
-644.726	526.656	0.019	0.046
-643.711	-25.465	0.167	-0.101
-642.697	-54.767	0.110	0.051
-641.682	-15.649	0.275	-0.180
-640.668	800.000	-0.123	0.396
-639.653	800.000	0.093	-0.267
-638.638	-182.699	-0.457	-0.009
-637.624	-88.643	0.174	0.053
-636.609	33.265	0.168	0.149
-635.595	254.603	-0.196	0.344
-634.580	75.067	-0.136	0.147
-633.565	26.882	0.166	-0.143
-632.551	-7.322	0.211	-0.146
-631.536	443.928	-0.085	0.191
-630.522	-65.108	-0.151	-0.063
-629.507	77.795	-0.122	0.133
-628.492	800.000	0.042	-0.146
-627.478	-57.755	-0.107	-0.048
-626.463	-1.917	-0.288	0.208
-625.449	-32.626	0.172	0.098
-624.434	-149.746	-0.069	0.006
-623.419	-106.430	-0.276	-0.063
-622.405	118.221	0.140	-0.177
-621.390	58.839	0.080	-0.081
-620.376	800.000	0.130	-0.522
-619.361	-200.000	-0.043	0.215
-618.346	-36.024	-0.155	0.086
-617.332	-116.830	-0.162	0.030
-616.317	168.154	-0.084	0.123
-615.303	143.344	0.123	0.168
-614.288	-140.015	-0.231	-0.025
-613.273	-82.292	-0.204	-0.068
-612.259	-106.654	-0.109	0.025
-611.244	229.359	0.107	-0.179
-610.230	-200.000	0.016	-0.138
-609.215	800.000	0.072	0.210
-608.201	-49.268	0.462	0.226
-607.186	-164.147	0.103	-0.005
-606.171	8.602	-0.073	-0.056
-605.157	-200.000	0.021	0.242
-604.142	-94.764	-0.432	-0.120
-603.128	-36.571	-0.114	0.063
-602.113	-180.595	0.488	0.010
-601.098	-151.250	0.249	-0.019
-600.084	21.361	0.086	-0.071
-599.069	-124.513	-0.123	-0.020
-598.055	554.686	0.117	-0.289
-597.040	-68.474	0.017	0.007
-596.025	347.930	0.050	0.102
-595.011	-87.000	-0.108	0.034
-593.996	192.991	-0.094	-0.146
-592.982	110.982	0.135	-0.167
-591.967	800.000	0.050	-0.216
-590.952	-200.000	0.005	-0.136
-589.938	-19.883	0.143	-0.091
-588.923	206.120	-0.086	-0.137
-587.909	-147.129	-0.395	-0.035
-586.894	-29.977	0.178	0.104
-585.879	-25.906	-0.194	-0.117
-584.865	-200.000	-0.003	0.316
-583.850	-86.452	-0.295	0.093
-582.836	665.804	0.043	0.113
-581.821	-146.271	0.253	0.023
-580.806	-53.942	-0.170	-0.080
-579.792	6.374	0.081	-0.062
-578.777	800.000	-0.021	0.071
-577.763	237.449	-0.140	0.237
-576.748	-64.375	0.123	0.051
-575.733	174.184	0.176	0.260
-574.719	181.269	-0.103	-0.155
-573.704	115.458	0.250	-0.313
-572.690	18.155	0.129	-0.105
-571.675	286.333	-0.031	0.058
-570.661	-48.311	0.299	0.148
-569.646	357.325	0.080	0.163
-568.631	-200.000	0.048	0.228
-567.617	766.443	0.053	-0.147
-566.602	-38.357	-0.422	0.229
-565.588	-34.854	-0.172	0.096
-564.573	244.092	0.145	-0.249
-563.558	800.000	-0.032	-0.131
-562.544	-93.146	-0.109	-0.031
-561.529	-12.655	-0.086	0.058
-560.515	-138.174	0.262	0.030
-559.500	55.427	0.345	0.342
-558.485	221.978	0.099	-0.163
-557.471	-46.148	-0.122	0.062
-556.456	-200.000	-0.029	0.232
-555.442	-30.562	-0.040	0.023
-554.427	13.075	0.201	-0.159
-553.412	454.122	-0.074	-0.167
-552.398	-200.000	-0.017	-0.094
-551.383	-14.465	0.247	0.163
-550.369	49.421	-0.193	-0.186
-549.354	-22.991	-0.040	0.025
-548.339	211.598	0.087	-0.140
-547.325	-200.000	0.010	-0.282
-546.310	98.876	-0.296	-0.350
-545.296	137.019	-0.209	-0.279
-544.281	24.408	-0.222	-0.187
-543.266	423.834	-0.026	-0.057
-542.252	27.342	-0.118	0.102
-541.237	28.757	0.166	0.144
-540.223	-158.366	-0.132	-0.008
-539.208	800.000	0.066	0.211
-538.193	481.059	-0.210	-0.486
-537.179	-200.000	0.027	-0.130
-536.164	-45.412	-0.089	-0.045
-535.150	-90.729	-0.187	0.055
-534.135	152.298	-0.108	0.151
-533.121	-117.905	0.138	-0.025
-532.106	-200.000	-0.015	-0.224
-531.091	81.609	0.236	-0.261
-530.077	341.972	0.068	0.136
-529.062	98.625	0.134	0.158
-528.048	-83.198	-0.209	-0.069
-527.033	-151.779	0.498	-0.037
-526.018	-200.000	-0.039	0.226
-525.004	-144.025	-0.313	0.030
-523.989	-77.114	-0.258	-0.092
-522.975	-163.550	-0.326	0.016
-521.960	800.000	-0.107	-0.436
-520.945	-78.806	-0.366	0.128
-519.931	289.077	0.058	-0.107
-518.916	-15.936	0.173	-0.113
-517.902	105.445	-0.119	0.143
-516.887	-143.653	-0.214	-0.021
-515.872	-43.626	-0.169	0.087
-514.858	42.538	-0.228	0.212
-513.843	172.731	0.190	0.280
-512.829	147.573	0.075	0.103
-511.814	800.000	-0.004	0.018
-510.799	398.976	-0.030	0.063
-509.785	24.867	0.211	0.179
-508.770	432.541	0.037	-0.082
-507.756	231.609	-0.096	0.160
-506.741	-56.828	-0.233	-0.105
-505.726	91.770	0.309	-0.356
-504.712	-83.648	0.151	0.049
-503.697	800.000	-0.062	0.223
-502.683	-177.068	-0.177	0.005
-501.668	544.549	0.129	-0.315
-500.653	-61.828	0.269	0.115
-499.639	-200.000	0.037	0.223
-498.624	118.614	0.035	0.044
-497.610	20.931	-0.074	0.061
-496.595	136.220	-0.177	-0.235
-495.581	-100.693	0.188	0.047
-494.566	-200.000	-0.028	-0.238
-493.551	-200.000	-0.038	-0.205
-492.537	66.080	0.309	-0.320
-491.522	-138.999	0.290	-0.032
-490.508	-27.963	-0.240	-0.142
-489.493	800.000	0.072	-0.274
-488.478	800.000	0.058	-0.219
-487.464	229.416	0.120	0.200
-486.449	-18.759	-0.204	-0.130
-485.435	800.000	0.049	-0.160
-484.420	16.619	0.037	0.030
-483.405	106.925	-0.171	0.207
-482.391	210.910	0.076	0.121
-481.376	56.360	-0.134	-0.133
-480.362	52.970	0.071	-0.070
-479.347	366.451	0.204	0.421
-478.332	-200.000	-0.047	0.299
-477.318	-94.479	-0.124	-0.035
-476.303	-102.598	-0.380	0.093
-475.289	-77.330	0.100	-0.036
-474.274	-99.683	-0.085	-0.022
-473.259	-122.754	0.061	0.010
-472.245	407.971	0.119	-0.257
-471.230	133.142	0.045	-0.059
-470.216	8.434	0.226	-0.174
-469.201	-70.143	-0.126	0.049
-468.186	-200.000	-0.016	-0.113
-467.172	-130.090	-0.357	-0.050
-466.157	-179.798	-0.172	-0.004
-465.143	120.319	-0.103	0.130
-464.128	393.420	0.144	-0.307
-463.113	-200.000	-0.167	0.001
-462.099	-58.875	0.191	0.084
-461.084	108.491	0.184	-0.224
-460.070	363.215	0.082	-0.167
-459.055	274.049	-0.108	-0.194
-458.040	-77.166	-0.034	0.012
-457.026	-19.759	-0.503	0.317
-456.011	486.234	0.048	0.110
-454.997	-90.380	0.151	0.045
-453.982	800.000	-0.018	-0.063
-452.968	-144.837	0.187	-0.017
-451.953	-20.588	0.163	0.102
-450.938	800.000	-0.014	0.057
-449.924	47.285	-0.032	0.030
-448.909	-101.169	0.223	0.056
-447.895	-113.897	0.082	-0.016
-446.880	-200.000	0.031	0.234
-445.865	-2.580	0.349	-0.249
-444.851	-12.809	0.179	0.119
-443.836	79.747	-0.071	-0.077
-442.822	93.769	0.225	-0.260
-441.807	-200.000	-0.022	-0.142
-440.792	-38.373	0.064	0.035
-439.778	-124.735	0.161	0.025
-438.763	-78.821	-0.289	0.100
-437.749	94.263	0.222	0.257
-436.734	-200.000	-0.003	0.100
-435.719	-63.201	0.328	0.138
-434.705	180.376	0.143	0.213
-433.690	-22.157	-0.165	0.102
-432.676	159.219	-0.050	-0.071
-431.661	-129.162	0.173	0.025
-430.646	215.736	0.169	0.274
-429.632	800.000	0.036	-0.151
-428.617	800.000	-0.149	0.502
-427.603	359.918	-0.023	0.047
-426.588	-200.000	-0.036	-0.360
-425.573	-39.494	0.135	0.072
-424.559	-200.000	0.008	0.178
-423.544	-24.315	0.092	-0.056
-422.530	-93.672	-0.170	-0.048
-421.515	143.827	0.063	0.085
-420.500	-200.000	-0.009	-0.299
-419.486	-111.942	-0.122	0.025
-418.471	173.049	0.122	0.179
-417.457	-8.623	-0.093	-0.063
-416.442	800.000	0.032	0.092
-415.428	-200.000	-0.012	-0.155
-414.413	150.417	-0.119	-0.165
-413.398	542.639	0.093	0.226
-412.384	721.495	-0.101	0.274
-411.369	-8.582	-0.252	-0.173
-410.355	96.885	0.181	-0.211
-409.340	-95.303	-0.128	-0.035
-408.325	-93.664	0.187	0.053
-407.311	800.000	0.027	0.083
-406.296	-200.000	-0.008	-0.197
-405.282	-149.138	0.322	-0.026
-404.267	47.577	-0.198	0.188
-403.252	-103.016	0.255	-0.062
-402.238	206.905	-0.207	-0.329
-401.223	445.450	-0.042	0.093
-400.209	800.000	-0.031	-0.108
-399.194	180.671	0.122	0.182
-398.179	-200.000	-0.060	0.282
-397.165	-95.102	-0.226	-0.062
-396.150	57.288	-0.081	0.080
-395.136	-35.290	-0.069	0.038
-394.121	89.120	0.009	0.010
-393.106	-94.698	-0.247	-0.068
-392.092	321.022	0.016	-0.031
-391.077	146.591	-0.128	-0.175
-390.063	581.468	0.090	-0.225
-389.048	-31.884	0.213	-0.122
-388.033	-134.937	-0.206	0.025
-387.019	475.045	0.127	-0.292
-386.004	254.484	-0.108	-0.187
-384.990	23.081	0.236	0.197
-383.975	195.318	-0.077	-0.119
-382.960	-118.391	0.539	-0.097
-381.946	211.095	0.190	-0.303
-380.931	-116.906	-0.078	-0.015
-379.917	-200.000	0.001	0.148
-378.902	-46.391	0.211	0.105
-377.888	-109.297	-0.164	-0.035
-376.873	800.000	-0.077	0.285
-375.858	800.000	0.101	-0.289
-374.844	-123.057	-0.311	-0.051
-373.829	-115.040	0.220	0.042
-372.815	800.000	-0.020	-0.066
-371.800	-47.115	-0.358	-0.177
-370.785	-88.160	-0.186	-0.057
-369.771	97.857	-0.119	-0.139
-368.756	800.000	-0.080	0.245
-367.742	73.653	-0.091	-0.097
-366.727	-13.473	-0.344	0.227
-365.712	83.184	-0.107	-0.119
-364.698	23.303	-0.226	0.189
-363.683	106.031	0.269	0.323
-362.669	-26.503	0.115	-0.069
-361.654	124.829	-0.159	0.204
-360.639	-94.907	-0.119	0.033
-359.625	800.000	0.111	0.331
-358.610	800.000	0.050	-0.145
-357.596	59.879	0.146	0.146
-356.581	-140.285	0.372	0.039
-355.566	-128.491	-0.239	0.034
-354.552	-5.089	0.169	-0.118
-353.537	36.740	0.165	-0.148
-352.523	365.796	-0.075	-0.154
-351.508	24.643	-0.166	0.139
-350.493	-158.205	0.101	-0.006
-349.479	800.000	-0.047	0.165
-348.464	-72.331	0.297	0.112
-347.450	29.542	-0.065	-0.056
-346.435	-200.000	-0.004	-0.105
-345.420	-200.000	-0.020	-0.118
-344.406	445.777	0.090	-0.202
-343.391	105.242	-0.330	-0.396
-342.377	-15.989	0.260	-0.168
-341.362	709.024	-0.039	0.105
-340.348	-12.481	-0.144	0.096
-339.333	-42.182	-0.069	-0.036
-338.318	149.108	-0.131	-0.180
-337.304	-107.535	-0.153	0.034
-336.289	-55.629	-0.158	-0.072
-335.275	-41.661	0.261	0.136
-334.260	-8.946	-0.086	-0.058
-333.245	411.053	0.174	-0.374
-332.231	-77.649	0.137	0.048
-331.216	139.749	0.074	-0.099
-330.202	800.000	-0.101	0.344
-329.187	152.960	-0.213	-0.295
-328.172	223.639	-0.159	0.260
-327.158	-200.000	0.029	-0.154
-326.143	-164.693	0.241	-0.011
-325.129	85.580	0.131	-0.147
-324.114	-58.068	0.117	-0.052
-323.099	65.031	-0.139	0.142
-322.085	-99.242	0.173	-0.044
-321.070	71.207	0.228	0.240
-320.056	-200.000	0.008	0.340
-319.041	286.589	-0.062	-0.113
-318.026	93.367	-0.142	0.163
-317.012	-97.938	0.400	-0.105
-315.997	42.483	0.125	0.115
-314.983	76.816	0.139	-0.150
-313.968	-200.000	-0.048	-0.357
-312.953	800.000	-0.113	0.364
-311.939	21.464	-0.109	-0.090
-310.924	800.000	-0.109	-0.417
-309.910	132.731	-0.165	-0.216
-308.895	196.714	-0.260	-0.402
-307.880	-138.550	0.283	-0.031
-306.866	800.000	-0.075	0.227
-305.851	-73.916	-0.199	0.073
-304.837	-81.442	0.167	-0.056
-303.822	-3.257	0.038	-0.027
-302.807	-200.000	-0.018	0.085
-301.793	-98.172	-0.245	0.064
-300.778	-200.000	-0.041	-0.327
-299.764	-200.000	-0.066	-0.366
-298.749	-110.802	0.204	0.043
-297.735	-200.000	0.006	-0.050
-296.720	294.369	0.124	0.230
-295.705	42.351	-0.220	-0.202
-294.691	80.763	0.075	-0.082
-293.676	52.793	0.086	0.084
-292.662	532.988	0.074	-0.177
-291.647	5.179	0.173	0.129
-290.632	156.451	0.075	0.105
-289.618	-27.794	-0.399	-0.234
-288.603	-200.000	0.033	-0.000
-287.589	21.954	-0.232	0.192
-286.574	-60.201	0.400	-0.173
-285.559	800.000	0.065	0.188
-284.545	-171.240	0.366	0.012
-283.530	-152.479	-0.284	-0.021
-282.516	65.017	0.155	0.158
-281.501	109.084	-0.151	-0.183
-280.486	-59.360	0.140	-0.061
-279.472	-162.281	-0.383	0.019
-278.457	77.394	-0.092	-0.099
-277.443	246.755	-0.251	0.428
-276.428	440.807	0.100	0.221
-275.413	205.495	-0.048	0.075
-274.399	66.167	0.176	0.181
-273.384	163.610	0.070	-0.099
-272.370	-200.000	0.032	0.217
-271.355	-55.999	0.248	-0.112
-270.340	-20.054	0.033	0.021
-269.326	39.111	-0.272	-0.246
-268.311	-200.000	0.001	0.146
-267.297	800.000	0.028	-0.106
-266.282	-34.083	-0.437	-0.243
-265.267	800.000	-0.134	0.504
-264.253	228.248	-0.281	0.463
-263.238	215.137	0.240	0.385
-262.224	-72.952	-0.418	0.156
-261.209	-200.000	0.062	-0.470
-260.195	-200.000	0.024	0.152
-259.180	99.120	-0.163	0.191
-258.165	-200.000	0.034	-0.248
-257.151	-200.000	-0.038	0.234
-256.136	-82.860	-0.169	0.055
-255.122	26.890	-0.112	-0.095
-254.107	154.914	0.037	0.052
-253.092	266.295	-0.209	0.368
-252.078	-38.038	0.430	0.231
-251.063	652.380	-0.078	0.203
-250.049	234.915	0.046	0.077
-249.034	-200.000	-0.064	-0.332
-248.019	-200.000	-0.041	-0.289
-247.005	-44.919	0.288	-0.145
-245.990	800.000	0.025	0.075
-244.976	-135.130	-0.370	-0.045
-243.961	800.000	-0.087	0.307
-242.946	-200.000	0.013	0.249
-241.932	-17.662	0.047	0.030
-240.917	-200.000	-0.022	0.186
-239.903	-200.000	0.044	0.275
-238.888	-43.272	-0.037	0.019
-237.873	-31.344	-0.117	0.067
-236.859	379.665	-0.101	0.210
-235.844	760.351	-0.106	-0.292
-234.830	800.000	-0.042	0.185
-233.815	354.221	-0.091	0.184
-232.800	190.423	-0.032	0.049
-231.786	34.398	0.255	-0.225
-230.771	-25.859	0.088	0.052
-229.757	176.172	0.046	0.067
-228.742	-200.000	-0.023	-0.176
-227.727	233.688	-0.055	0.092
-226.713	300.259	-0.130	-0.242
-225.698	-115.688	0.173	0.033
-224.684	-180.485	-0.216	-0.005
-223.669	631.976	-0.118	0.303
-222.655	-151.124	0.358	0.027
-221.640	59.006	-0.150	-0.149
-220.625	-121.480	-0.309	-0.052
-219.611	-200.000	-0.013	0.062
-218.596	37.951	-0.206	0.185
-217.582	-197.531	0.115	-0.001
-216.567	-14.695	0.090	-0.058
-215.552	-192.636	-0.273	0.003
-214.538	23.577	-0.181	-0.150
-213.523	-200.000	0.016	0.183
-212.509	-200.000	0.026	0.347
-211.494	-80.976	-0.359	-0.120
-210.479	38.901	-0.139	-0.126
-209.465	-129.986	-0.331	-0.046
-208.450	-200.000	-0.008	-0.111
-207.436	-68.805	0.028	0.011
-206.421	-200.000	-0.013	0.129
-205.406	-200.000	-0.022	-0.130
-204.392	607.406	0.054	0.137
-203.377	98.858	-0.112	0.131
-202.363	50.934	0.128	0.122
-201.348	-119.487	-0.277	-0.049
-200.333	-81.771	0.109	-0.036
-199.319	-132.312	0.298	-0.039
-198.304	130.881	0.075	-0.097
-197.290	-146.889	0.063	-0.005
-196.275	260.077	0.087	0.152
-195.260	205.077	-0.052	-0.081
-194.246	316.640	-0.097	0.185
-193.231	-200.000	0.014	0.213
-192.217	23.038	-0.086	0.071
-191.202	-200.000	-0.009	-0.145
-190.187	498.522	0.054	-0.126
-189.173	188.882	0.222	0.336
-188.158	-38.830	-0.127	0.068
-187.144	95.889	0.110	0.127
-186.129	-153.908	0.261	0.018
-185.114	-19.894	0.096	-0.060
-184.100	46.496	0.114	0.107
-183.085	-200.000	0.024	0.240
-182.071	249.978	-0.058	0.099
-181.056	113.065	-0.175	-0.214
-180.042	-26.862	0.221	-0.130
-179.027	-200.000	-0.058	-0.358
-178.012	-161.620	0.601	-0.031
-176.998	-33.680	0.364	-0.203
-175.983	138.304	0.104	-0.138
-174.969	-200.000	0.041	-0.182
-173.954	669.445	-0.104	0.271
-172.939	-15.344	-0.069	0.044
-171.925	104.013	0.131	0.155
-170.910	356.163	-0.180	0.361
-169.896	-121.593	-0.039	0.006
-168.881	-42.352	0.259	0.133
-167.866	105.498	0.037	0.044
-166.852	-200.000	-0.005	-0.035
-165.837	-200.000	0.033	-0.165
-164.823	800.000	0.134	-0.513
-163.808	-200.000	-0.007	-0.073
-162.793	20.245	0.150	-0.122
-161.779	19.262	-0.117	-0.095
-160.764	-200.000	0.017	-0.231
-159.750	800.000	0.026	0.077
-158.735	-67.666	0.073	-0.029
-157.720	-50.764	0.463	-0.220
-156.706	-147.721	-0.230	0.019
-155.691	800.000	-0.041	0.145
-154.677	10.400	0.210	0.161
-153.662	148.577	-0.066	0.089
-152.647	207.275	0.030	0.047
-151.633	509.157	0.130	0.305
-150.618	800.000	0.041	-0.131
-149.604	-3.014	0.064	0.045
-148.589	800.000	0.040	0.132
-147.574	3.190	-0.291	-0.213
-146.560	-148.916	0.161	0.013
-145.545	6.349	-0.193	-0.144
-144.531	186.805	0.052	-0.078
-143.516	8.392	-0.070	0.053
-142.502	-200.000	-0.024	0.272
-141.487	100.598	0.175	-0.205
-140.472	-46.924	-0.149	0.074
-139.458	-133.765	-0.441	0.055
-138.443	58.200	-0.251	0.247
-137.429	-200.000	0.017	-0.404
-136.414	-52.899	-0.152	-0.070
-135.399	408.627	-0.119	0.253
-134.385	-200.000	-0.030	0.289
-133.370	-200.000	0.025	0.273
-132.356	40.707	0.083	0.076
-131.341	134.042	-0.044	-0.057
-130.326	-37.879	-0.167	-0.089
-129.312	-200.000	-0.007	0.178
-128.297	-3.028	-0.190	-0.133
-127.283	-200.000	0.001	-0.189
-126.268	-80.093	-0.208	0.070
-125.253	57.313	0.139	-0.136
-124.239	282.405	0.115	0.208
-123.224	-200.000	0.022	-0.186
-122.210	200.816	-0.046	-0.071
-121.195	-97.517	-0.231	-0.060
