DTS Sentinel unit serial number:	SN413079Multiplexer serial number:	ORYXHardware model number:	OX4-SRSoftware version number:	ORYX F/W v4.00 Oryx Data Collector v3.7.2.0data status	okinstallation	princeton_trtdifferential loss correction	single-endedforward channel	channel 4reverse channel	N/Adate	2019/09/10time	20:07:10forward acquisition time	60.00reverse acquisition time	0.00gamma	496.2192k internal	0.2312k external	0.2312temperature offset calibration	0.9942default loss term (dB/km)	0.3790temperature slope calibration	1.0000multiplexer offset coefficient	1.0000multiplexer slope coefficient	1.0000fibre end	0.00T internal ref (°C)	32.50T ext. ref 1 (°C)	-0.31T ext. ref 2 (°C)	25.48length (m)	temperature (°C)	Stokes	anti-Stokes-747.200	143.242	0.273	-0.369
-746.185	54.002	-0.019	-0.019
-745.171	-146.871	0.272	0.024
-744.156	267.805	0.142	0.252
-743.142	-106.986	-0.049	-0.011
-742.127	51.081	-0.107	-0.103
-741.112	-94.735	-0.145	-0.040
-740.098	-49.620	-0.263	0.127
-739.083	-81.143	-0.185	-0.062
-738.069	84.491	0.421	0.468
-737.054	31.023	-0.095	0.083
-736.039	528.614	-0.129	-0.310
-735.025	473.572	0.160	-0.367
-734.010	-200.000	-0.088	0.000
-732.996	-40.311	-0.176	0.093
-731.981	334.608	0.043	-0.085
-730.966	-101.299	-0.260	0.064
-729.952	208.758	-0.140	0.222
-728.937	-87.005	-0.212	-0.066
-727.923	351.983	0.121	-0.244
-726.908	-200.000	0.008	-0.210
-725.894	201.969	0.059	-0.092
-724.879	-200.000	0.011	-0.289
-723.864	-200.000	-0.046	0.288
-722.850	201.729	-0.232	0.363
-721.835	196.174	-0.134	0.207
-720.821	71.673	0.032	-0.034
-719.806	-60.876	0.053	0.023
-718.791	-200.000	-0.034	-0.320
-717.777	68.177	0.187	0.194
-716.762	178.065	0.197	-0.291
-715.748	20.109	-0.335	-0.274
-714.733	-145.318	0.106	0.010
-713.718	-57.412	-0.158	0.070
-712.704	83.923	0.105	-0.116
-711.689	315.525	0.083	-0.158
-710.675	-147.416	0.148	-0.013
-709.660	-144.278	0.239	0.023
-708.645	-152.336	-0.044	-0.003
-707.631	45.782	-0.178	0.167
-706.616	-200.000	-0.000	0.057
-705.602	-111.902	-0.426	-0.087
-704.587	-42.695	0.044	-0.023
-703.572	611.179	0.136	-0.345
-702.558	-10.046	0.044	-0.030
-701.543	-42.076	-0.159	-0.083
-700.529	-139.433	0.275	0.030
-699.514	17.295	0.221	-0.178
-698.499	699.595	-0.050	0.132
-697.485	108.260	-0.079	-0.095
-696.470	-152.763	0.349	-0.025
-695.456	100.017	0.143	0.168
-694.441	-126.244	-0.268	0.041
-693.426	-38.910	0.204	-0.109
-692.412	800.000	0.081	0.271
-691.397	-200.000	-0.035	-0.449
-690.383	119.080	0.029	-0.037
-689.368	212.692	0.066	-0.106
-688.354	474.562	-0.146	-0.333
-687.339	800.000	-0.027	-0.078
-686.324	-168.714	-0.207	-0.008
-685.310	43.940	0.059	0.055
-684.295	-135.697	-0.067	0.008
-683.281	-90.965	0.072	-0.021
-682.266	10.352	-0.101	-0.078
-681.251	124.949	-0.180	-0.230
-680.237	146.685	0.209	0.284
-679.222	-27.796	-0.138	0.081
-678.208	11.268	-0.152	-0.118
-677.193	162.040	0.170	0.241
-676.178	-58.699	0.159	-0.070
-675.164	68.531	-0.101	-0.105
-674.149	-200.000	0.055	-0.368
-673.135	-138.975	-0.324	0.036
-672.120	-10.402	-0.091	-0.061
-671.105	47.024	-0.088	0.083
-670.091	800.000	0.083	-0.342
-669.076	304.230	-0.205	-0.386
-668.062	135.882	0.034	0.045
-667.047	43.854	0.094	-0.087
-666.032	43.358	-0.126	-0.117
-665.018	-145.825	-0.363	0.033
-664.003	-151.832	0.151	0.011
-662.989	800.000	-0.024	-0.094
-661.974	69.604	-0.129	-0.134
-660.959	-55.405	0.231	0.105
-659.945	-28.697	-0.277	0.161
-658.930	80.077	-0.114	0.124
-657.916	-200.000	0.264	-0.000
-656.901	-129.345	-0.166	0.023
-655.886	312.209	0.015	-0.028
-654.872	118.970	-0.321	0.402
-653.857	-92.475	-0.245	0.070
-652.843	-60.449	0.123	-0.053
-651.828	-200.000	0.020	-0.219
-650.814	-200.000	-0.025	0.246
-649.799	800.000	-0.039	-0.116
-648.784	13.239	0.243	0.190
-647.770	800.000	-0.118	-0.434
-646.755	800.000	0.113	0.381
-645.741	-200.000	-0.025	-0.150
-644.726	167.312	-0.066	-0.095
-643.711	-13.452	0.088	-0.058
-642.697	-200.000	-0.043	-0.339
-641.682	-42.070	-0.277	0.144
-640.668	-200.000	0.024	0.259
-639.653	-160.009	-0.170	0.009
-638.638	367.991	-0.049	-0.100
-637.624	-44.716	0.121	-0.061
-636.609	178.332	0.243	-0.358
-635.595	-82.067	-0.147	-0.049
-634.580	-56.000	-0.169	0.076
-633.565	15.542	-0.102	0.081
-632.551	322.783	-0.080	-0.153
-631.536	223.620	-0.137	-0.224
-630.522	-21.342	0.111	-0.069
-629.507	87.111	0.099	-0.110
-628.492	-200.000	-0.070	-0.316
-627.478	543.502	0.119	-0.286
-626.463	-200.000	0.017	0.170
-625.449	337.505	-0.241	-0.473
-624.434	-200.000	0.014	0.085
-623.419	-180.053	0.053	-0.001
-622.405	15.897	-0.223	0.177
-621.390	238.699	0.072	0.121
-620.376	-98.948	-0.348	0.089
-619.361	349.153	0.081	0.162
-618.346	-200.000	-0.113	0.000
-617.332	-138.939	-0.125	0.014
-616.317	-89.293	0.080	0.024
-615.303	12.227	-0.244	-0.190
-614.288	2.621	0.081	-0.060
-613.273	-6.074	0.224	0.154
-612.259	-142.917	0.283	-0.028
-611.244	-89.047	-0.364	-0.109
-610.230	219.486	0.046	-0.075
-609.215	800.000	0.104	-0.326
-608.201	-124.094	-0.307	0.049
-607.186	58.869	-0.105	-0.104
-606.171	-117.023	-0.207	-0.038
-605.157	13.915	-0.369	-0.290
-604.142	253.390	-0.170	-0.294
-603.128	10.137	-0.158	-0.121
-602.113	-141.764	0.415	-0.042
-601.098	-200.000	0.006	-0.099
-600.084	-27.324	0.260	-0.153
-599.069	-77.632	0.276	-0.096
-598.055	-65.622	-0.397	0.161
-597.040	28.624	0.113	0.097
-596.025	-3.853	0.122	-0.086
-595.011	116.370	0.249	0.308
-593.996	-200.000	-0.024	0.343
-592.982	-200.000	-0.028	0.137
-591.967	800.000	-0.079	-0.284
-590.952	-65.386	-0.198	-0.080
-589.938	97.221	0.048	0.056
-588.923	-67.619	0.218	-0.086
-587.909	-1.728	-0.157	-0.112
-586.894	-57.230	-0.315	0.140
-585.879	489.893	-0.222	0.512
-584.865	-90.368	-0.424	0.124
-583.850	-200.000	-0.019	-0.272
-582.836	-180.651	-0.155	-0.003
-581.821	-82.439	-0.278	-0.091
-580.806	67.826	-0.094	-0.096
-579.792	-56.648	-0.045	-0.020
-578.777	-200.000	-0.016	0.164
-577.763	101.751	-0.222	0.261
-576.748	-200.000	0.027	-0.146
-575.733	-146.548	-0.184	-0.016
-574.719	-27.615	-0.153	-0.089
-573.704	-62.350	0.044	-0.018
-572.690	-43.689	-0.271	0.138
-571.675	25.474	-0.235	0.197
-570.661	-200.000	0.025	0.170
-569.646	52.569	0.247	-0.238
-568.631	16.482	0.308	-0.245
-567.617	-117.718	-0.237	0.043
-566.602	-39.820	-0.045	-0.024
-565.588	32.251	-0.147	-0.128
-564.573	800.000	0.079	0.230
-563.558	-70.244	-0.309	-0.118
-562.544	-108.609	0.278	0.060
-561.529	620.331	0.107	0.272
-560.515	21.039	-0.439	0.359
-559.500	-200.000	0.020	-0.249
-558.485	-200.000	-0.001	-0.074
-557.471	144.558	0.096	-0.129
-556.456	60.549	-0.168	-0.167
-555.442	800.000	0.058	0.195
-554.427	152.169	0.011	-0.015
-553.412	-107.247	0.094	-0.021
-552.398	68.597	0.248	-0.257
-551.383	-100.368	-0.492	0.123
-550.369	800.000	-0.040	0.170
-549.354	-1.977	0.250	0.177
-548.339	-1.956	-0.173	0.122
-547.325	800.000	-0.096	-0.322
-546.310	33.198	-0.077	0.067
-545.296	-2.735	-0.178	0.126
-544.281	-102.132	-0.271	0.066
-543.266	-200.000	0.042	-0.246
-542.252	-71.934	-0.268	-0.100
-541.237	-200.000	-0.049	-0.376
-540.223	-127.256	0.103	-0.015
-539.208	-200.000	0.005	0.297
-538.193	232.773	0.221	0.366
-537.179	371.871	-0.037	-0.076
-536.164	-200.000	0.007	-0.360
-535.150	-113.439	0.102	0.020
-534.135	-200.000	0.001	-0.175
-533.121	36.186	0.041	-0.036
-532.106	138.670	0.084	0.111
-531.091	233.914	-0.032	0.054
-530.077	-58.312	0.255	-0.112
-529.062	120.330	-0.057	0.071
-528.048	85.441	0.101	-0.112
-527.033	39.552	0.100	-0.090
-526.018	-41.749	0.256	0.132
-525.004	800.000	0.112	-0.352
-523.989	800.000	-0.032	0.091
-522.975	-62.098	-0.149	0.062
-521.960	-86.221	-0.155	-0.048
-520.945	800.000	-0.121	0.361
-519.931	203.698	0.066	0.103
-518.916	24.802	-0.439	-0.366
-517.902	194.012	0.028	0.042
-516.887	800.000	-0.044	0.137
-515.872	-86.281	-0.113	-0.035
-514.858	45.950	0.101	-0.094
-513.843	256.325	-0.092	-0.159
-512.829	-200.000	0.000	0.008
-511.814	-200.000	0.032	-0.143
-510.799	-26.172	-0.116	-0.069
-509.785	-200.000	0.002	0.098
-508.770	7.903	0.212	-0.160
-507.756	-200.000	-0.062	0.443
-506.741	-141.438	-0.157	-0.016
-505.726	-63.525	-0.016	-0.007
-504.712	-115.779	0.184	0.035
-503.697	113.757	0.162	-0.197
-502.683	-115.278	0.147	0.028
-501.668	-200.000	0.058	-0.268
-500.653	-200.000	0.077	0.347
-499.639	128.261	-0.102	0.130
-498.624	142.271	-0.246	0.328
-497.610	-52.973	-0.212	0.098
-496.595	-200.000	0.002	-0.046
-495.581	-137.690	0.315	0.036
-494.566	-8.016	-0.088	-0.060
-493.551	-12.185	0.174	0.115
-492.537	469.967	0.125	0.281
-491.522	-200.000	0.044	0.208
-490.508	800.000	-0.179	-0.565
-489.493	-200.000	0.039	0.199
-488.478	-188.729	-0.050	0.001
-487.464	-27.836	-0.286	-0.167
-486.449	-101.920	-0.222	-0.054
-485.435	65.065	0.086	-0.087
-484.420	86.108	0.247	-0.273
-483.405	223.745	-0.095	0.155
-482.391	127.866	0.114	0.146
-481.376	-3.978	0.279	-0.194
-480.362	-57.575	0.267	0.118
-479.347	284.010	0.064	0.115
-478.332	7.647	0.159	0.119
-477.318	-140.643	0.101	-0.010
-476.303	800.000	-0.051	0.189
-475.289	-142.876	-0.198	-0.019
-474.274	123.726	0.097	-0.122
-473.259	-140.362	0.313	-0.033
-472.245	228.839	-0.187	-0.307
-471.230	36.616	0.335	-0.297
-470.216	-186.903	0.310	0.004
-469.201	75.961	0.191	-0.203
-468.186	645.516	-0.059	-0.150
-467.172	252.330	-0.148	0.253
-466.157	-200.000	-0.030	0.247
-465.143	-200.000	0.001	0.042
-464.128	12.516	-0.349	0.270
-463.113	-134.576	-0.423	0.052
-462.099	800.000	-0.012	0.040
-461.084	-127.188	0.024	-0.004
-460.070	-146.647	0.146	-0.013
-459.055	66.670	-0.221	0.225
-458.040	164.685	0.046	0.065
-457.026	543.830	-0.112	0.268
-456.011	-200.000	-0.018	0.268
-454.997	10.452	-0.182	0.139
-453.982	-102.666	0.130	0.031
-452.968	800.000	0.155	0.474
-451.953	-62.664	0.182	-0.076
-450.938	800.000	-0.061	-0.260
-449.924	69.322	0.137	-0.141
-448.909	255.605	-0.038	0.065
-447.895	-117.617	-0.056	-0.010
-446.880	800.000	0.133	-0.378
-445.865	-125.146	-0.282	0.043
-444.851	539.775	0.112	0.266
-443.836	-165.296	0.241	-0.011
-442.822	279.100	0.114	0.203
-441.807	-115.243	-0.225	-0.043
-440.792	-25.046	-0.203	0.121
-439.778	68.806	0.249	-0.256
-438.763	-176.853	0.185	-0.005
-437.749	-8.122	-0.235	0.159
-436.734	-200.000	0.044	0.276
-435.719	157.028	-0.129	0.178
-434.705	26.176	0.262	-0.219
-433.690	9.102	-0.109	-0.083
-432.676	-200.000	-0.041	-0.196
-431.661	250.185	-0.190	-0.323
-430.646	-159.659	0.269	-0.015
-429.632	-200.000	-0.015	0.075
-428.617	240.499	-0.087	0.146
-427.603	188.125	-0.146	-0.219
-426.588	-47.671	0.307	-0.149
-425.573	-200.000	0.000	-0.085
-424.559	-200.000	0.010	0.154
-423.544	166.097	-0.169	-0.240
-422.530	-27.701	0.292	-0.170
-421.515	-146.258	-0.209	0.018
-420.500	-200.000	-0.017	-0.242
-419.486	-72.365	-0.451	0.167
-418.471	-49.009	0.261	0.125
-417.457	45.317	0.108	-0.100
-416.442	-40.058	-0.216	-0.113
-415.428	-78.170	0.355	0.122
-414.413	-153.037	0.310	0.022
-413.398	-115.201	-0.098	0.019
-412.384	-8.357	0.399	-0.269
-411.369	-66.995	0.421	-0.166
-410.355	-200.000	0.045	-0.206
-409.340	-62.984	-0.200	-0.083
-408.325	800.000	0.080	0.284
-407.311	401.136	0.143	0.301
-406.296	27.762	-0.088	-0.074
-405.282	115.618	0.090	0.110
-404.267	-200.000	-0.022	-0.122
-403.252	-200.000	-0.001	-0.151
-402.238	-122.983	-0.413	0.067
-401.223	800.000	0.031	0.091
-400.209	-200.000	0.008	0.141
-399.194	33.496	0.228	-0.198
-398.179	-121.191	-0.081	-0.014
-397.165	359.684	-0.127	0.254
-396.150	800.000	-0.094	0.265
-395.136	-200.000	-0.001	-0.130
-394.121	-81.045	0.272	0.090
-393.106	31.508	-0.181	-0.155
-392.092	-71.057	0.435	-0.164
-391.077	44.818	-0.170	0.157
-390.063	-146.451	0.206	0.018
-389.048	18.824	-0.157	0.126
-388.033	-30.117	0.137	-0.078
-387.019	-200.000	-0.042	-0.429
-386.004	220.979	0.095	0.152
-384.990	-91.769	-0.108	-0.031
-383.975	-200.000	0.071	0.332
-382.960	-127.373	-0.035	-0.005
-381.946	800.000	-0.049	0.187
-380.931	-70.529	0.162	-0.061
-379.917	800.000	0.031	0.116
-378.902	800.000	-0.053	0.161
-377.888	-200.000	-0.009	-0.063
-376.873	800.000	-0.065	-0.221
-375.858	-200.000	0.003	0.066
-374.844	155.670	-0.204	0.281
-373.829	128.296	0.170	-0.216
-372.815	205.277	0.276	-0.429
-371.800	-56.148	-0.278	0.124
-370.785	429.533	0.143	0.309
-369.771	800.000	0.089	-0.319
-368.756	567.923	0.065	0.158
-367.742	39.846	0.181	0.162
-366.727	800.000	0.102	-0.372
-365.712	-37.191	-0.335	-0.179
-364.698	-64.533	-0.040	-0.016
-363.683	-55.642	0.245	0.109
-362.669	-200.000	-0.002	0.280
-361.654	-49.161	-0.082	0.039
-360.639	-150.290	0.299	-0.023
-359.625	800.000	0.083	0.233
-358.610	-51.889	-0.303	0.141
-357.596	-106.651	-0.397	-0.088
-356.581	800.000	-0.050	0.149
-355.566	800.000	-0.040	0.162
-354.552	-200.000	-0.037	-0.188
-353.537	800.000	0.056	-0.171
-352.523	166.999	0.127	-0.180
-351.508	-92.117	-0.566	-0.160
-350.493	-25.515	0.271	-0.160
-349.479	-200.000	-0.049	-0.220
-348.464	-134.170	-0.045	-0.006
-347.450	-138.963	-0.221	-0.024
-346.435	-71.352	0.192	0.072
-345.420	-103.494	0.085	-0.020
-344.406	307.149	-0.131	-0.243
-343.391	-2.625	-0.121	-0.085
-342.377	153.700	-0.186	0.255
-341.362	-92.119	0.272	0.077
-340.348	65.081	0.186	-0.188
-339.333	719.070	-0.087	0.231
-338.318	195.155	0.102	-0.155
-337.304	-94.634	0.215	-0.058
-336.289	-200.000	-0.010	0.145
-335.275	39.893	0.300	0.269
-334.260	196.811	0.076	0.116
-333.245	19.262	0.018	0.014
-332.231	800.000	0.027	0.078
-331.216	-167.168	-0.484	0.020
-330.202	198.609	0.074	0.112
-329.187	-9.548	0.364	-0.243
-328.172	-200.000	0.002	-0.148
-327.158	219.463	-0.109	-0.173
-326.143	800.000	0.028	-0.102
-325.129	-86.670	-0.143	-0.044
-324.114	-200.000	-0.057	0.363
-323.099	-77.255	0.201	0.070
-322.085	284.161	-0.049	0.088
-321.070	-73.029	0.238	0.087
-320.056	-200.000	0.031	0.288
-319.041	-16.877	-0.345	-0.218
-318.026	-200.000	-0.035	0.273
-317.012	311.452	-0.087	0.163
-315.997	800.000	-0.046	0.129
-314.983	-132.383	-0.107	0.014
-313.968	800.000	-0.116	-0.321
-312.953	-200.000	-0.021	-0.175
-311.939	-200.000	-0.041	0.371
-310.924	-20.356	0.169	0.104
-309.910	72.213	0.041	-0.042
-308.895	255.718	0.117	0.200
-307.880	-200.000	-0.062	-0.425
-306.866	8.286	0.173	0.130
-305.851	-85.884	-0.076	-0.023
-304.837	76.420	0.121	-0.128
-303.822	27.052	0.079	0.066
-302.807	102.235	0.112	-0.130
-301.793	680.712	0.058	0.151
-300.778	-80.942	-0.162	0.054
-299.764	800.000	0.044	0.178
-298.749	-87.905	-0.157	-0.047
-297.735	-200.000	0.030	0.293
-296.720	-178.614	-0.241	0.006
-295.705	-16.654	0.226	-0.143
-294.691	-82.539	0.359	0.116
-293.676	-76.164	-0.095	-0.033
-292.662	-3.957	-0.218	-0.151
-291.647	158.356	-0.138	-0.191
-290.632	682.548	-0.158	-0.411
-289.618	132.983	0.196	0.252
-288.603	102.078	-0.079	0.092
-287.589	188.245	0.095	-0.141
-286.574	128.764	0.115	-0.147
-285.559	-118.454	-0.094	-0.017
-284.545	-130.752	0.112	0.015
-283.530	292.375	0.032	-0.058
-282.516	-19.433	-0.190	-0.117
-281.501	571.583	-0.040	-0.096
-280.486	75.986	-0.275	-0.290
-279.472	42.623	0.232	-0.210
-278.457	324.207	0.091	0.173
-277.443	800.000	0.044	0.154
-276.428	56.418	0.292	0.283
-275.413	288.688	0.161	0.290
-274.399	92.033	0.407	-0.457
-273.384	-77.581	0.350	0.121
-272.370	59.120	0.020	0.019
-271.355	190.324	-0.084	-0.126
-270.340	384.350	0.239	0.491
-269.326	-20.956	-0.053	0.032
-268.311	157.345	0.069	-0.095
-267.297	69.029	0.189	0.193
-266.282	-106.852	0.371	0.082
-265.267	-200.000	0.004	0.023
-264.253	93.429	0.111	-0.126
-263.238	-28.732	-0.291	-0.167
-262.224	-31.740	-0.096	-0.054
-261.209	-200.000	-0.001	0.091
-260.195	-200.000	0.045	0.428
-259.180	117.785	0.242	-0.296
-258.165	-50.176	0.217	0.102
-257.151	-109.051	0.071	-0.015
-256.136	-11.333	0.214	0.140
-255.122	725.530	-0.036	-0.094
-254.107	268.191	-0.105	-0.183
-253.092	-36.457	0.524	0.281
-252.078	-100.870	-0.246	0.060
-251.063	-121.001	-0.187	0.031
-250.049	-77.841	-0.408	0.140
-249.034	-200.000	-0.010	-0.072
-248.019	-200.000	-0.006	-0.086
-247.005	800.000	0.118	-0.449
-245.990	-51.770	0.090	0.042
-244.976	499.823	0.160	0.367
-243.961	-200.000	0.009	0.462
-242.946	395.211	0.151	0.314
-241.932	-200.000	-0.001	-0.165
-240.917	-139.341	-0.209	-0.022
-239.903	-22.223	-0.160	0.096
-238.888	-200.000	-0.029	0.209
-237.873	-116.143	-0.198	-0.037
-236.859	101.498	0.083	-0.097
-235.844	-100.026	0.223	0.055
-234.830	-59.214	-0.234	0.100
-233.815	-111.960	-0.097	-0.019
-232.800	176.147	-0.123	-0.178
-231.786	557.209	-0.095	0.227
-230.771	-165.235	-0.129	0.006
-229.757	-195.578	0.497	0.004
-228.742	77.064	0.174	-0.184
-227.727	86.073	-0.177	-0.194
-226.713	60.903	0.202	-0.199
-225.698	-111.221	0.225	0.046
-224.684	-88.694	-0.191	0.057
-223.669	-177.694	0.139	-0.003
-222.655	-188.264	-0.068	-0.001
-221.640	189.082	-0.037	0.056
-220.625	12.321	0.267	0.204
-219.611	-200.000	0.079	-0.373
-218.596	800.000	-0.094	-0.327
-217.582	348.905	0.080	0.156
-216.567	-106.871	-0.056	-0.012
-215.552	200.614	-0.045	-0.068
-214.538	-200.000	0.027	0.270
-213.523	800.000	0.034	0.098
-212.509	-21.999	-0.177	0.107
-211.494	187.369	-0.058	0.085
-210.479	-98.399	-0.015	0.004
-209.465	-98.409	-0.325	-0.083
-208.450	-156.162	-0.263	0.016
-207.436	303.944	0.181	-0.334
-206.421	736.762	0.096	-0.257
-205.406	254.742	0.116	0.198
-204.392	-200.000	0.000	0.172
-203.377	-200.000	-0.019	-0.219
-202.363	9.886	-0.202	-0.152
-201.348	58.233	-0.173	-0.168
-200.333	101.661	0.142	-0.165
-199.319	-31.443	-0.321	0.180
-198.304	-132.932	0.136	-0.017
-197.290	-97.071	-0.177	-0.046
-196.275	240.343	0.097	0.161
-195.260	-145.394	-0.193	0.017
-194.246	162.148	0.176	-0.245
-193.231	22.934	-0.184	0.150
-192.217	40.961	-0.220	0.198
-191.202	-35.784	-0.249	0.134
-190.187	110.806	0.122	0.146
-189.173	-26.595	-0.259	0.151
-188.158	-166.538	0.473	0.020
-187.144	-180.016	0.047	-0.001
-186.129	-108.220	0.416	0.089
-185.114	90.093	0.135	0.150
-184.100	-4.466	0.122	-0.084
-183.085	-200.000	0.014	0.187
-182.071	-92.191	0.183	0.051
-181.056	769.684	0.055	-0.149
-180.042	-106.947	0.030	0.007
-179.027	96.194	-0.126	0.143
-178.012	-200.000	-0.003	-0.453
-176.998	800.000	0.033	-0.110
-175.983	800.000	-0.094	-0.275
-174.969	-50.139	-0.145	-0.068
-173.954	-17.537	0.086	0.053
-172.939	240.612	0.138	0.228
-171.925	800.000	-0.046	0.155
-170.910	800.000	0.123	-0.358
-169.896	800.000	0.026	0.106
-168.881	-200.000	0.010	-0.202
-167.866	-135.986	0.393	0.046
-166.852	-66.065	-0.154	0.061
-165.837	-23.688	-0.316	-0.188
-164.823	290.637	0.219	0.395
-163.808	247.322	-0.129	0.216
-162.793	-130.215	-0.194	0.026
-161.779	-200.000	-0.008	0.463
-160.764	95.175	0.254	0.287
-159.750	124.978	0.193	-0.241
-158.735	-83.967	-0.288	-0.091
-157.720	-16.170	0.238	0.150
-156.706	-200.000	0.007	-0.178
-155.691	-47.705	-0.369	0.177
-154.677	-104.268	0.154	-0.035
-153.662	274.997	-0.032	0.055
-152.647	-200.000	0.007	-0.295
-151.633	171.925	-0.014	-0.020
-150.618	800.000	-0.078	-0.301
-149.604	-200.000	0.006	0.153
-148.589	-14.007	-0.047	-0.030
-147.574	196.804	0.099	0.149
-146.560	-146.035	0.135	-0.012
-145.545	-80.737	-0.147	0.048
-144.531	-99.383	0.111	0.028
-143.516	243.025	0.128	0.213
-142.502	-94.167	-0.266	0.072
-141.487	800.000	-0.108	0.327
-140.472	-200.000	0.022	-0.190
-139.458	83.048	0.174	0.188
-138.443	150.662	0.171	0.231
-137.429	57.126	0.068	-0.065
-136.414	119.195	-0.146	0.179
-135.399	-200.000	-0.016	-0.076
-134.385	16.238	0.148	0.116
-133.370	-48.702	0.328	0.156
-132.356	-147.525	0.116	0.010
-131.341	477.020	0.044	0.098
-130.326	143.703	-0.099	-0.131
-129.312	70.261	0.051	0.052
-128.297	-32.696	0.178	0.098
-127.283	-126.570	0.312	0.046
-126.268	62.635	0.116	0.114
-125.253	98.530	0.136	0.155
-124.239	52.495	-0.037	0.035
-123.224	800.000	-0.083	0.294
-122.210	41.092	0.029	-0.026
-121.195	-64.847	0.305	-0.122
