DTS Sentinel unit serial number:	SN413079Multiplexer serial number:	ORYXHardware model number:	OX4-SRSoftware version number:	ORYX F/W v4.00 Oryx Data Collector v3.7.2.0data status	okinstallation	princeton_trtdifferential loss correction	single-endedforward channel	channel 4reverse channel	N/Adate	2019/09/11time	13:51:11forward acquisition time	60.00reverse acquisition time	0.00gamma	496.2192k internal	0.2283k external	0.2283temperature offset calibration	1.0008default loss term (dB/km)	0.3790temperature slope calibration	1.0000multiplexer offset coefficient	1.0000multiplexer slope coefficient	1.0000fibre end	0.00T internal ref (°C)	41.87T ext. ref 1 (°C)	0.87T ext. ref 2 (°C)	35.76length (m)	temperature (°C)	Stokes	anti-Stokes-747.200	103.157	0.118	0.143
-746.185	-112.597	-0.470	0.096
-745.171	800.000	0.020	0.082
-744.156	-200.000	0.061	0.315
-743.142	800.000	-0.078	-0.261
-742.127	-143.775	-0.163	-0.016
-741.112	146.259	-0.051	0.070
-740.098	-80.740	0.242	-0.083
-739.083	245.602	-0.119	-0.206
-738.069	800.000	0.104	0.395
-737.054	171.308	-0.019	-0.027
-736.039	-200.000	-0.065	0.525
-735.025	-145.724	-0.094	-0.009
-734.010	-8.927	-0.481	0.331
-732.996	-200.000	-0.004	-0.400
-731.981	86.980	-0.281	-0.319
-730.966	-200.000	0.006	-0.394
-729.952	-91.771	-0.163	-0.048
-728.937	-92.822	-0.281	-0.081
-727.923	578.169	0.112	0.282
-726.908	-0.608	0.172	0.126
-725.894	-108.003	0.212	0.047
-724.879	210.777	0.296	-0.477
-723.864	257.599	-0.081	0.144
-722.850	-44.466	-0.178	-0.092
-721.835	98.946	0.165	0.195
-720.821	-147.522	-0.297	0.026
-719.806	271.716	-0.030	0.054
-718.791	-6.437	0.099	-0.069
-717.777	73.612	-0.061	-0.065
-716.762	74.985	0.095	-0.103
-715.748	-105.998	-0.192	-0.044
-714.733	-56.268	-0.265	-0.121
-713.718	-90.964	0.145	0.043
-712.704	-200.000	0.014	0.122
-711.689	168.989	0.095	0.140
-710.675	-66.473	-0.368	-0.150
-709.660	-200.000	0.021	-0.262
-708.645	-110.210	-0.144	0.031
-707.631	800.000	0.067	0.242
-706.616	116.687	0.093	-0.117
-705.602	-115.552	0.184	-0.036
-704.587	318.533	0.076	-0.148
-703.572	-200.000	0.003	-0.209
-702.558	-107.970	-0.169	-0.038
-701.543	68.655	-0.220	-0.231
-700.529	24.698	-0.221	0.187
-699.514	173.619	0.055	0.081
-698.499	193.483	0.113	-0.176
-697.485	-57.578	0.040	0.018
-696.470	527.766	-0.041	-0.099
-695.456	118.904	-0.198	-0.251
-694.441	-200.000	-0.003	-0.126
-693.426	-36.752	0.107	-0.059
-692.412	-200.000	-0.036	0.220
-691.397	223.926	0.088	0.146
-690.383	360.021	-0.057	0.118
-689.368	13.003	-0.137	0.109
-688.354	128.619	0.059	-0.077
-687.339	-69.357	0.267	-0.105
-686.324	258.119	-0.100	-0.176
-685.310	-137.155	0.206	-0.024
-684.295	-159.366	-0.081	-0.005
-683.281	-174.204	-0.162	-0.005
-682.266	-200.000	0.002	0.138
-681.251	51.758	-0.301	0.294
-680.237	-92.082	-0.138	-0.040
-679.222	125.404	-0.083	-0.107
-678.208	576.505	-0.044	0.110
-677.193	438.163	0.112	0.251
-676.178	-132.793	-0.142	-0.019
-675.164	-200.000	0.032	-0.199
-674.149	121.894	-0.131	0.167
-673.135	-35.264	0.317	-0.177
-672.120	-37.169	0.104	-0.057
-671.105	76.523	-0.173	-0.188
-670.091	41.025	-0.116	-0.107
-669.076	116.392	0.069	0.087
-668.062	-7.345	0.471	-0.327
-667.047	56.794	-0.325	-0.324
-666.032	-34.162	-0.144	-0.081
-665.018	-200.000	0.015	-0.163
-664.003	53.080	0.357	-0.351
-662.989	172.773	-0.079	0.117
-661.974	434.729	0.166	-0.369
-660.959	-41.263	-0.359	0.190
-659.945	-24.071	-0.122	-0.074
-658.930	101.674	0.210	0.250
-657.916	366.168	0.108	0.223
-656.901	279.516	-0.105	0.191
-655.886	32.503	-0.086	0.076
-654.872	800.000	0.084	0.300
-653.857	-200.000	-0.026	0.139
-652.843	800.000	-0.029	0.127
-651.828	800.000	0.058	0.196
-650.814	-200.000	-0.030	0.268
-649.799	-200.000	-0.037	-0.214
-648.784	-44.270	0.079	-0.041
-647.770	182.204	0.173	0.261
-646.755	800.000	0.054	-0.168
-645.741	800.000	0.040	-0.115
-644.726	201.718	-0.077	0.121
-643.711	181.837	0.201	0.303
-642.697	197.014	-0.084	-0.131
-641.682	-15.551	0.326	-0.213
-640.668	195.352	0.035	-0.054
-639.653	-200.000	-0.033	0.168
-638.638	48.207	-0.126	0.121
-637.624	-137.469	-0.034	-0.004
-636.609	476.833	0.131	0.303
-635.595	622.204	-0.114	-0.292
-634.580	-168.070	-0.336	0.013
-633.565	-134.491	-0.306	-0.038
-632.551	-200.000	0.009	0.171
-631.536	-139.827	0.118	0.013
-630.522	106.198	-0.111	-0.135
-629.507	-40.894	0.188	0.100
-628.492	-1.320	-0.158	-0.114
-627.478	-18.632	-0.176	-0.112
-626.463	-200.000	-0.030	-0.135
-625.449	-200.000	0.047	0.255
-624.434	47.725	-0.206	-0.197
-623.419	-29.136	-0.123	-0.072
-622.405	-151.449	0.429	-0.033
-621.390	-200.000	0.024	0.144
-620.376	-5.054	-0.188	0.132
-619.361	144.942	-0.188	0.257
-618.346	-22.298	-0.137	0.085
-617.332	160.858	-0.152	-0.217
-616.317	-84.813	-0.227	-0.073
-615.303	211.590	0.079	-0.127
-614.288	-38.668	-0.084	0.045
-613.273	-144.405	-0.190	0.018
-612.259	-73.050	-0.173	-0.065
-611.244	115.246	-0.176	0.220
-610.230	-200.000	-0.019	0.213
-609.215	78.654	0.203	0.222
-608.201	112.411	0.110	0.136
-607.186	426.722	-0.092	0.202
-606.171	-60.454	0.089	0.038
-605.157	-39.845	-0.160	-0.085
-604.142	24.454	-0.322	-0.272
-603.128	800.000	-0.009	-0.036
-602.113	-200.000	0.028	-0.200
-601.098	126.279	-0.211	-0.273
-600.084	800.000	-0.026	0.104
-599.069	-83.308	-0.391	0.128
-598.055	-60.130	-0.164	-0.071
-597.040	206.180	-0.117	-0.186
-596.025	86.703	-0.163	-0.183
-595.011	585.554	-0.051	-0.128
-593.996	-112.842	-0.164	-0.033
-592.982	-111.401	0.137	0.029
-591.967	-89.815	0.289	0.086
-590.952	77.313	0.176	0.191
-589.938	26.028	0.268	0.229
-588.923	132.047	0.159	0.209
-587.909	-22.266	-0.055	-0.034
-586.894	68.169	0.342	-0.357
-585.879	103.679	-0.133	0.159
-584.865	-200.000	0.006	0.026
-583.850	-50.548	-0.437	0.210
-582.836	769.526	-0.111	-0.309
-581.821	-200.000	0.009	-0.478
-580.806	-200.000	-0.009	-0.154
-579.792	-56.893	-0.315	-0.142
-578.777	-40.547	-0.200	0.106
-577.763	-200.000	-0.017	0.297
-576.748	-108.406	0.333	0.073
-575.733	16.810	-0.097	-0.078
-574.719	121.535	0.099	-0.126
-573.704	235.902	-0.110	0.186
-572.690	-200.000	-0.001	0.305
-571.675	800.000	-0.035	0.147
-570.661	95.796	0.219	0.255
-569.646	800.000	-0.049	0.151
-568.631	-200.000	-0.027	-0.395
-567.617	-200.000	0.004	-0.305
-566.602	-200.000	0.008	-0.057
-565.588	-3.498	-0.229	0.163
-564.573	-33.540	0.164	-0.092
-563.558	-200.000	-0.068	-0.468
-562.544	280.642	-0.010	0.018
-561.529	-200.000	-0.015	-0.084
-560.515	-21.445	0.106	-0.066
-559.500	-200.000	0.004	-0.117
-558.485	562.778	-0.097	-0.240
-557.471	-200.000	-0.064	-0.311
-556.456	-141.018	-0.372	-0.039
-555.442	141.990	-0.149	-0.201
-554.427	-107.610	-0.250	0.056
-553.412	800.000	-0.119	-0.479
-552.398	152.182	-0.102	0.142
-551.383	-2.953	-0.232	0.165
-550.369	195.804	0.167	-0.260
-549.354	347.327	0.133	-0.268
-548.339	111.896	-0.072	0.089
-547.325	-113.514	0.284	-0.057
-546.310	342.013	-0.055	-0.109
-545.296	568.271	-0.065	-0.160
-544.281	-121.590	-0.083	0.014
-543.266	-65.417	-0.091	0.037
-542.252	58.229	0.171	-0.171
-541.237	114.549	-0.157	-0.195
-540.223	345.575	-0.109	0.219
-539.208	300.644	0.169	-0.318
-538.193	-135.634	0.352	0.043
-537.179	180.009	-0.096	0.143
-536.164	-91.301	0.161	-0.047
-535.150	-118.732	-0.374	-0.067
-534.135	-127.623	-0.071	0.010
-533.121	177.035	-0.173	0.257
-532.106	-200.000	0.045	0.393
-531.091	800.000	0.039	0.145
-530.077	333.740	0.113	-0.223
-529.062	-200.000	-0.013	0.120
-528.048	-70.008	-0.148	-0.058
-527.033	177.449	-0.086	-0.127
-526.018	583.622	-0.098	-0.245
-525.004	58.667	-0.150	0.150
-523.989	-74.298	0.091	-0.033
-522.975	-120.378	0.329	-0.057
-521.960	800.000	-0.048	0.154
-520.945	44.090	0.338	0.316
-519.931	-110.689	0.131	0.028
-518.916	316.167	-0.104	-0.199
-517.902	784.197	-0.182	-0.507
-516.887	602.121	0.101	-0.254
-515.872	80.996	-0.142	0.156
-514.858	0.513	-0.057	0.041
-513.843	0.051	0.094	0.068
-512.829	-98.536	-0.369	-0.096
-511.814	-200.000	-0.002	0.264
-510.799	254.307	-0.139	0.242
-509.785	364.734	-0.115	0.235
-508.770	174.854	0.117	0.173
-507.756	-200.000	0.016	-0.189
-506.741	17.120	-0.152	-0.122
-505.726	37.532	-0.109	-0.099
-504.712	45.115	0.083	0.078
-503.697	183.437	-0.024	-0.036
-502.683	-125.053	-0.313	-0.049
-501.668	-56.413	0.032	-0.014
-500.653	-159.045	0.297	-0.017
-499.639	-28.801	-0.365	0.214
-498.624	-200.000	-0.005	0.206
-497.610	-184.540	0.156	-0.003
-496.595	-200.000	0.022	0.190
-495.581	402.453	-0.149	0.320
-494.566	-4.930	0.175	0.123
-493.551	-132.919	0.133	-0.017
-492.537	157.707	0.132	0.186
-491.522	164.323	-0.119	0.170
-490.508	21.033	-0.082	0.068
-489.493	-83.009	-0.124	-0.041
-488.478	-99.867	-0.100	0.025
-487.464	-108.343	-0.287	-0.063
-486.449	-83.778	0.062	-0.020
-485.435	-172.795	-0.209	0.007
-484.420	135.185	0.135	-0.178
-483.405	-140.416	-0.285	0.030
-482.391	12.590	-0.022	-0.017
-481.376	-200.000	0.030	0.148
-480.362	243.086	0.101	-0.171
-479.347	-39.271	-0.216	-0.115
-478.332	-122.312	-0.136	0.023
-477.318	-74.600	-0.301	0.110
-476.303	-200.000	-0.019	-0.211
-475.289	-116.457	-0.135	-0.025
-474.274	216.956	-0.112	0.181
-473.259	285.919	-0.027	0.049
-472.245	-67.816	0.026	-0.010
-471.230	-102.638	0.250	-0.061
-470.216	-200.000	0.025	-0.151
-469.201	54.543	-0.213	0.209
-468.186	-18.365	-0.221	-0.140
-467.172	-109.564	-0.162	-0.035
-466.157	465.353	0.103	0.235
-465.143	-200.000	0.058	-0.348
-464.128	-164.187	-0.194	0.009
-463.113	-119.022	-0.220	0.039
-462.099	81.335	-0.063	0.069
-461.084	-149.501	-0.252	0.020
-460.070	-122.223	0.314	-0.052
-459.055	30.685	-0.118	-0.102
-458.040	211.275	0.078	-0.125
-457.026	52.387	-0.156	0.151
-456.011	-135.831	-0.226	-0.027
-454.997	728.701	-0.095	-0.259
-453.982	-82.214	0.323	-0.107
-452.968	-200.000	0.027	-0.323
-451.953	337.288	0.092	0.182
-450.938	99.436	-0.162	-0.191
-449.924	-76.536	0.264	0.094
-448.909	-200.000	0.049	0.254
-447.895	112.283	0.107	0.132
-446.880	397.984	0.133	-0.283
-445.865	417.922	-0.031	-0.068
-444.851	204.092	-0.148	0.233
-443.836	-200.000	0.011	-0.121
-442.822	-70.028	-0.060	-0.023
-441.807	482.873	0.062	0.143
-440.792	81.798	-0.151	0.166
-439.778	800.000	0.073	0.223
-438.763	-98.044	0.396	-0.104
-437.749	800.000	0.057	-0.248
-436.734	83.893	-0.161	-0.179
-435.719	-113.909	-0.250	-0.049
-434.705	-115.169	0.257	-0.049
-433.690	689.380	-0.108	-0.287
-432.676	-154.348	-0.140	-0.010
-431.661	-195.063	0.203	-0.002
-430.646	-200.000	0.022	0.132
-429.632	-13.529	0.326	-0.215
-428.617	800.000	-0.048	-0.153
-427.603	-114.109	-0.282	-0.055
-426.588	-81.038	-0.233	-0.078
-425.573	800.000	-0.021	-0.076
-424.559	725.786	0.054	-0.145
-423.544	80.657	-0.096	-0.105
-422.530	281.733	-0.063	0.115
-421.515	-13.458	-0.088	-0.058
-420.500	-147.351	-0.156	-0.013
-419.486	15.813	0.075	-0.060
-418.471	800.000	0.022	0.086
-417.457	-2.103	0.148	-0.106
-416.442	80.618	-0.076	-0.083
-415.428	168.273	-0.117	-0.170
-414.413	-65.144	-0.078	0.032
-413.398	-200.000	-0.012	0.200
-412.384	800.000	-0.034	0.135
-411.369	-200.000	0.004	0.083
-410.355	-135.309	0.052	0.006
-409.340	240.638	-0.073	0.124
-408.325	-126.864	0.370	0.055
-407.311	-16.318	0.104	-0.067
-406.296	-200.000	-0.029	0.334
-405.282	1.000	-0.243	0.176
-404.267	-200.000	0.020	0.166
-403.252	246.197	0.080	0.137
-402.238	433.926	0.153	0.336
-401.223	-83.949	-0.156	-0.050
-400.209	-2.804	-0.047	-0.033
-399.194	144.539	0.226	0.306
-398.179	76.571	-0.193	-0.208
-397.165	-200.000	0.005	-0.185
-396.150	-137.622	0.207	-0.024
-395.136	-200.000	0.002	0.168
-394.121	-15.884	0.270	-0.174
-393.106	-146.118	-0.052	-0.005
-392.092	-153.639	0.311	0.022
-391.077	133.379	0.021	-0.027
-390.063	151.259	-0.140	0.193
-389.048	-200.000	0.228	-0.001
-388.033	280.232	-0.084	0.152
-387.019	332.816	0.101	0.198
-386.004	361.848	-0.051	0.104
-384.990	-15.466	0.072	-0.047
-383.975	773.298	-0.052	0.144
-382.960	-7.696	0.239	0.164
-381.946	-22.091	0.103	-0.063
-380.931	800.000	0.141	0.478
-379.917	-172.335	0.107	-0.003
-378.902	-79.399	-0.121	-0.041
-377.888	-200.000	-0.006	-0.078
-376.873	28.785	0.303	0.260
-375.858	-61.784	0.132	0.056
-374.844	559.943	0.074	0.181
-373.829	-60.786	0.186	-0.080
-372.815	800.000	-0.074	-0.282
-371.800	-79.422	0.138	0.047
-370.785	800.000	-0.094	0.273
-369.771	147.753	0.148	-0.202
-368.756	-49.588	0.251	-0.121
-367.742	367.309	0.063	-0.129
-366.727	55.852	-0.115	-0.113
-365.712	41.584	0.021	0.019
-364.698	146.221	0.141	-0.192
-363.683	-177.003	-0.371	0.009
-362.669	-4.060	0.264	-0.185
-361.654	-200.000	0.282	0.001
-360.639	800.000	0.066	-0.206
-359.625	59.762	0.129	-0.128
-358.610	299.739	-0.118	-0.220
-357.596	110.172	0.170	-0.207
-356.581	240.237	-0.166	-0.280
-355.566	-121.980	0.015	-0.002
-354.552	-28.922	0.181	-0.106
-353.537	35.654	-0.121	-0.107
-352.523	66.045	0.142	-0.145
-351.508	129.901	0.118	-0.153
-350.493	-41.581	-0.276	0.144
-349.479	-162.837	-0.064	-0.003
-348.464	-128.883	0.434	0.062
-347.450	97.483	-0.039	-0.045
-346.435	-200.000	-0.016	0.392
-345.420	-200.000	0.037	0.303
-344.406	-67.261	0.412	-0.164
-343.391	-158.129	0.403	-0.024
-342.377	64.526	0.154	0.157
-341.362	-200.000	-0.007	0.099
-340.348	176.192	-0.044	-0.064
-339.333	-11.576	-0.093	0.062
-338.318	45.164	-0.252	0.235
-337.304	42.940	-0.071	0.065
-336.289	383.721	0.055	-0.115
-335.275	6.040	0.273	0.204
-334.260	-24.836	-0.172	-0.103
-333.245	633.539	-0.104	-0.268
-332.231	31.174	0.173	0.150
-331.216	-100.514	-0.367	0.092
-330.202	249.428	0.097	-0.167
-329.187	-35.216	-0.227	-0.125
-328.172	-188.232	-0.169	-0.002
-327.158	800.000	0.067	-0.193
-326.143	-47.120	0.206	0.102
-325.129	135.200	-0.163	0.214
-324.114	-159.020	0.299	-0.017
-323.099	-119.565	0.313	-0.055
-322.085	-90.806	-0.271	0.079
-321.070	800.000	0.057	-0.167
-320.056	-71.344	-0.390	0.148
-319.041	23.285	-0.128	0.106
-318.026	60.238	0.214	0.214
-317.012	-92.748	-0.335	0.095
-315.997	800.000	-0.044	-0.149
-314.983	-69.177	-0.081	-0.031
-313.968	-62.639	-0.188	-0.079
-312.953	251.505	-0.120	-0.207
-311.939	109.881	-0.147	-0.179
-310.924	-97.645	0.377	-0.099
-309.910	-146.857	0.249	0.022
-308.895	141.526	0.232	-0.310
-307.880	501.788	0.030	-0.070
-306.866	239.535	0.040	-0.067
-305.851	-200.000	-0.053	0.406
-304.837	639.337	-0.150	-0.385
-303.822	16.582	-0.225	-0.180
-302.807	-29.310	0.011	-0.006
-301.793	-163.151	-0.187	0.009
-300.778	-157.188	0.045	0.003
-299.764	268.985	0.101	0.178
-298.749	83.824	-0.170	-0.187
-297.735	441.035	-0.058	0.128
-296.720	-77.095	0.409	-0.144
-295.705	3.750	0.163	0.120
-294.691	271.816	-0.049	0.087
-293.676	411.970	0.220	0.473
-292.662	29.711	0.162	0.139
-291.647	-200.000	0.061	0.301
-290.632	800.000	0.097	0.306
-289.618	61.122	0.144	0.145
-288.603	-132.622	0.144	-0.019
-287.589	-46.140	0.280	0.139
-286.574	12.024	0.066	-0.051
-285.559	-3.663	-0.086	0.060
-284.545	-200.000	0.023	-0.414
-283.530	-200.000	-0.026	-0.423
-282.516	-45.143	-0.086	-0.043
-281.501	149.589	-0.212	0.290
-280.486	-27.849	-0.172	0.100
-279.472	270.455	0.050	-0.089
-278.457	-6.770	0.137	0.094
-277.443	-200.000	0.019	-0.254
-276.428	800.000	0.055	-0.163
-275.413	800.000	-0.061	-0.240
-274.399	-128.804	0.177	0.025
-273.384	203.352	0.121	-0.188
-272.370	-53.026	-0.265	-0.123
-271.355	-64.046	0.186	0.077
-270.340	-200.000	-0.005	0.206
-269.326	-143.889	-0.190	-0.018
-268.311	-35.006	0.222	0.122
-267.297	-200.000	-0.013	0.075
-266.282	800.000	0.150	0.464
-265.267	-200.000	0.016	0.230
-264.253	280.193	-0.125	0.225
-263.238	158.770	0.157	-0.221
-262.224	-101.172	0.175	0.043
-261.209	-200.000	-0.014	-0.104
-260.195	-31.443	-0.353	0.200
-259.180	-192.205	-0.179	-0.002
-258.165	-200.000	-0.032	0.189
-257.151	-84.318	0.298	0.095
-256.136	800.000	0.138	0.413
-255.122	141.910	-0.040	-0.054
-254.107	-145.351	0.293	0.027
-253.092	-92.717	0.152	0.043
-252.078	222.407	0.081	0.131
-251.063	485.930	0.050	0.115
-250.049	-200.000	-0.054	-0.396
-249.034	-0.648	0.086	0.062
-248.019	-149.356	0.266	0.021
-247.005	-37.672	0.128	0.069
-245.990	19.689	0.175	0.142
-244.976	483.308	0.101	-0.231
-243.961	-200.000	0.477	-0.002
-242.946	-25.549	-0.165	0.098
-241.932	-133.566	0.151	-0.019
-240.917	56.951	-0.132	-0.130
-239.903	-76.786	-0.115	0.041
-238.888	142.815	0.129	0.173
-237.873	800.000	0.033	-0.138
-236.859	220.627	-0.036	-0.059
-235.844	-83.288	0.234	-0.076
-234.830	-200.000	0.013	0.139
-233.815	800.000	0.026	0.080
-232.800	-57.545	0.037	0.017
-231.786	-55.236	0.214	0.097
-230.771	734.957	0.082	0.222
-229.757	-61.183	0.076	-0.032
-228.742	-0.596	-0.124	-0.089
-227.727	770.470	0.074	0.204
-226.713	-142.245	-0.108	-0.011
-225.698	396.310	-0.211	-0.444
-224.684	-200.000	0.001	0.048
-223.669	-123.518	0.349	-0.056
-222.655	-25.981	0.132	-0.078
-221.640	509.883	0.050	0.116
-220.625	800.000	0.007	0.020
-219.611	572.706	0.052	0.128
-218.596	-23.404	-0.151	0.092
-217.582	-73.667	-0.202	0.074
-216.567	-87.235	0.124	-0.038
-215.552	95.571	-0.196	-0.225
-214.538	774.799	0.097	-0.266
-213.523	85.291	-0.079	-0.087
-212.509	-25.909	-0.058	0.035
-211.494	-200.000	0.014	-0.174
-210.479	328.637	-0.095	-0.185
-209.465	800.000	-0.065	0.245
-208.450	-26.559	-0.202	0.119
-207.436	92.309	-0.076	-0.086
-206.421	-34.517	-0.197	0.109
-205.406	-15.668	0.273	-0.175
-204.392	46.523	-0.188	0.176
-203.377	800.000	-0.034	-0.097
-202.363	-15.691	0.128	0.082
-201.348	-200.000	0.012	0.135
-200.333	93.711	0.191	0.218
-199.319	800.000	-0.063	0.274
-198.304	-200.000	-0.004	0.111
-197.290	-200.000	-0.001	-0.065
-196.275	62.170	0.111	-0.111
-195.260	26.344	0.203	-0.171
-194.246	-164.051	0.212	-0.010
-193.231	-105.081	-0.171	0.039
-192.217	-200.000	0.055	-0.324
-191.202	453.600	0.079	-0.177
-190.187	-200.000	0.029	-0.223
-189.173	86.500	-0.177	0.197
-188.158	-200.000	-0.022	0.145
-187.144	-73.448	0.190	0.070
-186.129	-200.000	0.018	0.219
-185.114	-200.000	0.007	-0.312
-184.100	800.000	-0.013	-0.040
-183.085	-96.197	-0.059	-0.016
-182.071	-33.170	0.293	-0.163
-181.056	800.000	-0.065	-0.263
-180.042	-21.762	-0.150	0.092
-179.027	-200.000	-0.023	0.340
-178.012	-39.944	-0.009	0.005
-176.998	268.522	-0.093	0.163
-175.983	-139.675	0.232	-0.025
-174.969	72.660	-0.152	-0.159
-173.954	-116.950	-0.087	-0.016
-172.939	-165.970	-0.196	0.008
-171.925	-138.221	-0.137	-0.015
-170.910	610.152	-0.149	0.374
-169.896	396.172	0.047	0.099
-168.881	-71.320	0.128	-0.048
-167.866	97.729	0.071	0.082
-166.852	-161.565	0.108	0.006
-165.837	-70.593	0.127	0.048
-164.823	-200.000	-0.034	0.221
-163.808	555.327	-0.049	0.119
-162.793	800.000	0.033	0.147
-161.779	-200.000	-0.037	0.179
-160.764	-72.390	-0.234	0.087
-159.750	-87.544	0.152	-0.046
-158.735	-200.000	0.028	-0.227
-157.720	-200.000	0.053	-0.387
-156.706	210.771	0.029	-0.045
-155.691	-200.000	0.011	-0.056
-154.677	121.623	0.155	-0.194
-153.662	800.000	0.009	-0.039
-152.647	-200.000	-0.035	0.181
-151.633	36.059	-0.077	-0.068
-150.618	15.737	0.228	0.180
-149.604	800.000	-0.031	0.126
-148.589	-200.000	-0.029	-0.298
-147.574	660.818	-0.070	0.180
-146.560	-57.080	-0.208	-0.092
-145.545	-54.076	-0.192	-0.088
-144.531	19.540	0.151	0.122
-143.516	-200.000	0.007	-0.148
-142.502	-200.000	0.016	-0.101
-141.487	206.422	-0.032	0.050
-140.472	800.000	0.069	0.260
-139.458	-16.249	-0.308	0.196
-138.443	-200.000	-0.075	-0.435
-137.429	126.167	-0.075	-0.095
-136.414	389.791	-0.102	0.213
-135.399	-200.000	-0.065	-0.303
-134.385	381.230	0.125	0.258
-133.370	800.000	0.065	0.259
-132.356	406.615	0.069	0.146
-131.341	800.000	-0.131	0.388
-130.326	-91.556	0.310	0.089
-129.312	-25.825	0.167	0.099
-128.297	61.351	-0.219	-0.218
-127.283	-122.331	0.270	-0.044
-126.268	160.132	-0.120	-0.167
-125.253	800.000	-0.048	-0.164
-124.239	-18.581	0.140	0.088
-123.224	177.986	-0.193	0.282
-122.210	-124.739	0.061	0.009
