DTS Sentinel unit serial number:	SN413079Multiplexer serial number:	ORYXHardware model number:	OX4-SRSoftware version number:	ORYX F/W v4.00 Oryx Data Collector v3.7.2.0data status	okinstallation	princeton_trtdifferential loss correction	single-endedforward channel	channel 4reverse channel	N/Adate	2019/09/14time	04:53:34forward acquisition time	60.00reverse acquisition time	0.00gamma	496.2192k internal	0.2321k external	0.2321temperature offset calibration	1.0131default loss term (dB/km)	0.3790temperature slope calibration	1.0000multiplexer offset coefficient	1.0000multiplexer slope coefficient	1.0000fibre end	0.00T internal ref (°C)	26.86T ext. ref 1 (°C)	3.37T ext. ref 2 (°C)	21.98length (m)	temperature (°C)	Stokes	anti-Stokes-747.200	516.178	-0.118	0.278
-746.185	-200.000	-0.035	0.260
-745.171	-65.732	0.137	0.055
-744.156	196.690	-0.268	0.412
-743.142	-200.000	-0.002	-0.351
-742.127	267.381	0.231	0.408
-741.112	-53.388	-0.226	-0.105
-740.098	-88.008	0.362	0.110
-739.083	-121.195	0.098	-0.017
-738.069	-16.065	0.159	0.102
-737.054	210.961	-0.207	-0.329
-736.039	-30.786	0.104	-0.059
-735.025	-200.000	0.003	-0.206
-734.010	54.889	0.154	0.150
-732.996	-86.219	0.221	-0.069
-731.981	460.910	0.044	-0.099
-730.966	390.908	-0.021	0.044
-729.952	-92.830	0.073	-0.021
-728.937	33.044	-0.053	0.047
-727.923	-139.814	0.100	-0.011
-726.908	56.619	-0.014	0.014
-725.894	-76.834	-0.431	-0.152
-724.879	-76.603	0.203	0.072
-723.864	7.770	0.015	-0.011
-722.850	102.824	-0.124	-0.146
-721.835	-200.000	-0.017	0.208
-720.821	-75.096	0.196	-0.071
-719.806	354.003	-0.055	0.110
-718.791	26.682	-0.023	-0.019
-717.777	-83.847	0.320	-0.103
-716.762	80.141	0.160	0.173
-715.748	-56.577	-0.146	-0.065
-714.733	800.000	0.038	-0.132
-713.718	-40.827	-0.167	-0.087
-712.704	-200.000	-0.025	0.147
-711.689	-200.000	0.050	0.438
-710.675	-58.273	-0.271	0.119
-709.660	-200.000	-0.005	-0.160
-708.645	-178.548	0.235	0.005
-707.631	-200.000	-0.024	-0.155
-706.616	-4.495	0.155	-0.108
-705.602	165.304	-0.137	0.196
-704.587	-35.279	0.153	-0.084
-703.572	-200.000	-0.003	0.287
-702.558	800.000	0.083	-0.331
-701.543	-200.000	-0.023	-0.144
-700.529	800.000	-0.072	-0.247
-699.514	-200.000	-0.054	-0.329
-698.499	-135.383	-0.071	-0.009
-697.485	106.527	0.075	-0.090
-696.470	800.000	0.158	-0.500
-695.456	-37.084	-0.049	-0.027
-694.441	-114.317	0.138	0.027
-693.426	-85.488	0.188	-0.059
-692.412	449.626	-0.030	-0.067
-691.397	-200.000	0.025	0.181
-690.383	20.859	-0.346	-0.283
-689.368	105.113	0.107	-0.127
-688.354	-200.000	0.017	-0.121
-687.339	800.000	-0.070	-0.230
-686.324	100.589	-0.136	0.159
-685.310	670.026	0.124	-0.323
-684.295	-200.000	0.043	0.232
-683.281	-200.000	-0.020	0.261
-682.266	-118.473	-0.222	0.040
-681.251	-200.000	-0.076	0.418
-680.237	49.210	0.146	-0.138
-679.222	800.000	-0.069	0.282
-678.208	-171.334	0.219	-0.007
-677.193	-157.314	-0.186	-0.011
-676.178	-12.079	0.111	0.074
-675.164	421.570	-0.122	0.265
-674.149	278.073	-0.073	0.131
-673.135	40.352	0.056	-0.051
-672.120	6.740	0.277	-0.208
-671.105	93.618	-0.180	-0.205
-670.091	-3.095	0.109	0.077
-669.076	-81.182	0.041	-0.014
-668.062	-35.508	0.088	0.048
-667.047	461.263	0.127	-0.286
-666.032	145.390	0.179	-0.241
-665.018	238.694	0.232	-0.389
-664.003	487.948	-0.040	0.093
-662.989	680.891	0.014	-0.037
-661.974	-78.628	-0.118	0.041
-660.959	-37.221	0.151	0.081
-659.945	191.329	-0.043	-0.066
-658.930	-200.000	0.043	-0.227
-657.916	-200.000	0.028	-0.308
-656.901	-26.653	0.166	0.098
-655.886	48.007	0.213	-0.201
-654.872	-200.000	0.019	0.169
-653.857	800.000	-0.100	-0.415
-652.843	178.783	-0.225	0.331
-651.828	800.000	-0.080	0.313
-650.814	-108.898	0.149	0.032
-649.799	58.239	-0.055	-0.054
-648.784	-81.477	-0.173	0.057
-647.770	-36.445	-0.055	0.030
-646.755	137.228	0.272	0.358
-645.741	-38.630	0.132	0.070
-644.726	-74.745	0.236	-0.085
-643.711	-74.005	-0.193	0.071
-642.697	137.458	-0.053	-0.070
-641.682	-200.000	-0.017	0.168
-640.668	800.000	-0.025	-0.098
-639.653	738.813	0.057	0.153
-638.638	-7.881	-0.188	0.128
-637.624	47.858	-0.210	-0.197
-636.609	-16.590	-0.240	0.153
-635.595	-128.637	0.386	0.055
-634.580	443.716	0.112	-0.246
-633.565	322.616	-0.073	-0.139
-632.551	389.004	-0.082	-0.171
-631.536	-138.724	-0.135	0.015
-630.522	240.450	0.160	-0.269
-629.507	28.633	0.168	0.143
-628.492	-35.220	-0.196	0.108
-627.478	-145.762	-0.284	0.026
-626.463	501.776	-0.150	-0.348
-625.449	-101.033	-0.187	0.046
-624.434	800.000	-0.043	0.167
-623.419	-14.813	-0.143	-0.092
-622.405	-43.458	0.092	0.047
-621.390	-161.163	-0.203	-0.011
-620.376	-200.000	-0.009	-0.114
-619.361	-155.299	-0.399	0.026
-618.346	-186.209	-0.199	0.003
-617.332	130.458	0.090	0.116
-616.317	800.000	-0.081	0.347
-615.303	800.000	0.005	0.019
-614.288	41.922	0.178	0.163
-613.273	-22.470	0.302	-0.184
-612.259	-200.000	-0.012	-0.182
-611.244	91.548	-0.055	-0.062
-610.230	11.365	-0.109	0.084
-609.215	-200.000	0.034	-0.183
-608.201	238.418	-0.187	-0.313
-607.186	-9.190	-0.260	0.175
-606.171	-143.318	-0.110	-0.011
-605.157	437.058	0.071	0.156
-604.142	-141.511	0.428	-0.043
-603.128	67.378	-0.225	-0.231
-602.113	-200.000	-0.014	-0.188
-601.098	800.000	-0.036	0.157
-600.084	9.856	0.066	-0.050
-599.069	5.847	-0.262	-0.195
-598.055	214.514	-0.190	0.303
-597.040	17.413	0.221	0.176
-596.025	158.587	-0.073	-0.102
-595.011	-133.769	-0.232	0.029
-593.996	-200.000	0.041	0.223
-592.982	800.000	0.080	-0.273
-591.967	-22.764	-0.153	0.093
-590.952	-200.000	-0.065	-0.302
-589.938	672.157	0.089	-0.232
-588.923	-41.600	-0.159	-0.082
-587.909	-200.000	0.003	0.062
-586.894	-200.000	0.027	0.150
-585.879	-128.520	0.148	-0.021
-584.865	353.993	0.050	-0.100
-583.850	-200.000	-0.008	-0.421
-582.836	-31.816	0.144	-0.081
-581.821	113.002	0.129	-0.157
-580.806	148.438	-0.052	-0.070
-579.792	-129.316	-0.229	0.032
-578.777	248.031	-0.108	-0.184
-577.763	-21.612	-0.218	-0.134
-576.748	-84.431	0.375	0.119
-575.733	800.000	0.033	-0.104
-574.719	-200.000	0.011	0.169
-573.704	648.170	0.100	0.257
-572.690	482.651	-0.127	-0.289
-571.675	192.251	-0.087	-0.132
-570.661	13.805	0.062	0.049
-569.646	58.991	0.094	-0.092
-568.631	-122.920	-0.173	0.028
-567.617	775.299	0.063	0.174
-566.602	-93.261	-0.284	-0.079
-565.588	800.000	-0.055	0.188
-564.573	19.590	-0.169	0.137
-563.558	147.003	-0.225	0.304
-562.544	32.369	-0.145	-0.126
-561.529	-55.229	-0.195	0.088
-560.515	613.808	-0.014	0.036
-559.500	44.514	0.171	-0.158
-558.485	51.333	-0.034	-0.032
-557.471	800.000	0.089	0.324
-556.456	553.948	0.087	0.211
-555.442	-53.477	0.149	-0.068
-554.427	217.537	0.059	-0.094
-553.412	175.960	0.046	0.067
-552.398	532.077	0.057	-0.136
-551.383	-181.927	0.168	0.003
-550.369	263.509	0.070	0.122
-549.354	-200.000	-0.000	0.109
-548.339	-31.977	-0.130	0.073
-547.325	-200.000	0.021	0.121
-546.310	-200.000	0.013	0.091
-545.296	63.521	0.047	-0.047
-544.281	-200.000	-0.021	0.149
-543.266	-200.000	0.037	-0.193
-542.252	-200.000	-0.026	-0.300
-541.237	388.022	-0.092	0.190
-540.223	-13.905	0.269	-0.174
-539.208	51.022	-0.217	0.206
-538.193	-106.737	-0.153	0.034
-537.179	-185.022	-0.477	0.008
-536.164	-200.000	-0.041	0.217
-535.150	-23.734	-0.159	-0.095
-534.135	-14.894	-0.254	0.164
-533.121	-121.291	0.061	-0.010
-532.106	-57.226	-0.200	-0.088
-531.091	6.336	0.244	0.182
-530.077	-200.000	0.036	-0.181
-529.062	645.607	-0.136	-0.349
-528.048	11.101	0.155	-0.119
-527.033	185.141	-0.140	0.208
-526.018	-13.531	-0.142	-0.092
-525.004	-164.544	0.151	-0.007
-523.989	10.243	0.060	-0.046
-522.975	83.868	0.097	-0.106
-521.960	0.438	-0.253	-0.181
-520.945	-43.253	-0.058	0.029
-519.931	-59.936	0.219	0.094
-518.916	39.867	0.218	-0.196
-517.902	520.264	-0.038	-0.089
-516.887	313.680	-0.142	0.268
-515.872	392.139	0.116	0.242
-514.858	800.000	0.081	-0.229
-513.843	-50.694	-0.135	0.064
-512.829	572.987	-0.035	0.085
-511.814	-110.821	0.210	-0.043
-510.799	-60.852	0.122	0.052
-509.785	-86.486	0.323	0.099
-508.770	-12.645	0.093	0.061
-507.756	800.000	-0.101	-0.334
-506.741	-66.139	0.275	-0.110
-505.726	-29.287	0.086	-0.050
-504.712	117.644	0.087	-0.107
-503.697	-75.913	0.244	-0.087
-502.683	144.468	-0.076	-0.101
-501.668	-62.988	-0.232	0.096
-500.653	-137.519	0.065	-0.007
-499.639	-171.989	0.037	0.001
-498.624	-94.779	0.222	0.060
-497.610	259.274	-0.016	0.028
-496.595	610.914	-0.111	0.278
-495.581	-200.000	0.023	0.133
-494.566	-179.167	-0.283	0.006
-493.551	-200.000	-0.064	-0.355
-492.537	-70.929	0.302	0.114
-491.522	50.280	0.058	-0.055
-490.508	-65.895	0.214	0.086
-489.493	-59.032	-0.126	-0.055
-488.478	5.768	-0.132	-0.098
-487.464	7.014	0.186	-0.139
-486.449	-69.459	-0.187	-0.072
-485.435	-102.625	0.384	-0.092
-484.420	386.348	0.022	-0.046
-483.405	119.341	0.094	-0.116
-482.391	53.863	-0.098	-0.094
-481.376	-19.309	-0.328	0.204
-480.362	140.259	-0.192	0.253
-479.347	183.146	0.102	-0.151
-478.332	425.124	-0.154	-0.332
-477.318	-200.000	0.025	-0.113
-476.303	800.000	0.080	0.317
-475.289	-21.712	0.281	-0.171
-474.274	78.132	-0.169	-0.180
-473.259	497.679	-0.136	0.314
-472.245	140.592	0.169	0.223
-471.230	800.000	0.027	0.079
-470.216	-12.097	0.315	0.207
-469.201	521.248	-0.103	-0.243
-468.186	-200.000	0.024	0.118
-467.172	249.742	-0.153	-0.259
-466.157	800.000	0.074	-0.275
-465.143	800.000	-0.093	0.293
-464.128	15.970	0.058	0.045
-463.113	-200.000	-0.035	-0.190
-462.099	-200.000	0.046	0.295
-461.084	444.185	0.110	0.241
-460.070	-77.738	0.087	0.030
-459.055	-200.000	0.006	0.591
-458.040	-26.346	-0.516	0.303
-457.026	-200.000	0.008	-0.082
-456.011	-136.903	-0.233	0.027
-454.997	-13.068	0.227	0.148
-453.982	146.521	0.256	-0.344
-452.968	-200.000	-0.032	0.279
-451.953	-200.000	-0.008	0.137
-450.938	-95.628	-0.110	-0.029
-449.924	620.237	0.043	0.108
-448.909	322.169	0.092	-0.175
-447.895	-200.000	-0.052	-0.243
-446.880	10.501	-0.167	-0.127
-445.865	-47.459	0.154	-0.075
-444.851	800.000	-0.098	-0.340
-443.836	0.408	-0.194	-0.139
-442.822	800.000	-0.046	0.157
-441.807	-150.295	-0.154	-0.012
-440.792	-31.057	0.057	0.032
-439.778	-109.880	0.440	0.092
-438.763	542.703	0.085	-0.202
-437.749	-141.868	0.159	-0.016
-436.734	180.707	0.090	0.132
-435.719	-200.000	-0.170	-0.001
-434.705	213.962	0.026	-0.041
-433.690	-95.284	-0.332	-0.089
-432.676	-66.810	-0.128	-0.051
-431.661	-200.000	0.050	0.444
-430.646	259.765	-0.036	0.062
-429.632	-111.867	0.311	0.063
-428.617	57.482	-0.149	-0.145
-427.603	-89.831	0.150	0.044
-426.588	-200.000	-0.003	0.187
-425.573	-137.608	-0.263	0.030
-424.559	164.731	-0.082	0.115
-423.544	91.047	0.174	0.195
-422.530	-145.310	0.161	-0.015
-421.515	229.673	0.197	-0.321
-420.500	35.806	0.137	0.120
-419.486	-9.462	0.291	0.194
-418.471	324.507	0.077	-0.147
-417.457	-200.000	0.018	-0.146
-416.442	-89.625	0.484	0.142
-415.428	184.138	-0.159	-0.235
-414.413	-181.769	-0.309	-0.006
-413.398	10.292	0.130	-0.099
-412.384	-35.522	-0.264	0.143
-411.369	-200.000	-0.002	-0.191
-410.355	-102.949	-0.222	-0.053
-409.340	20.074	0.227	-0.183
-408.325	-200.000	0.010	-0.148
-407.311	-164.543	0.166	0.008
-406.296	737.644	-0.048	0.130
-405.282	-163.468	-0.108	0.005
-404.267	311.027	0.029	0.054
-403.252	-109.169	-0.239	-0.051
-402.238	800.000	-0.041	0.131
-401.223	-50.609	0.200	0.094
-400.209	70.916	-0.105	0.108
-399.194	-24.356	-0.027	0.016
-398.179	74.641	0.202	0.212
-397.165	38.035	-0.287	0.255
-396.150	-200.000	0.023	-0.179
-395.136	34.782	-0.037	0.032
-394.121	8.555	0.226	0.170
-393.106	-91.660	-0.396	0.112
-392.092	26.634	0.034	0.029
-391.077	-87.029	-0.160	-0.049
-390.063	-39.115	0.410	0.215
-389.048	44.954	-0.138	-0.127
-388.033	-200.000	-0.003	-0.254
-387.019	116.502	0.057	-0.070
-386.004	-200.000	-0.018	-0.209
-384.990	61.399	-0.106	-0.105
-383.975	-200.000	0.022	-0.154
-382.960	-200.000	0.046	0.413
-381.946	-93.435	-0.158	0.044
-380.931	1.795	-0.169	-0.121
-379.917	-200.000	-0.061	-0.322
-378.902	357.277	-0.108	-0.215
-377.888	-200.000	0.010	0.396
-376.873	800.000	0.101	0.292
-375.858	51.819	-0.065	0.062
-374.844	501.216	-0.075	-0.172
-373.829	-62.672	-0.206	-0.085
-372.815	403.647	-0.171	-0.358
-371.800	-200.000	-0.002	0.099
-370.785	28.656	-0.164	0.138
-369.771	-138.512	-0.283	-0.031
-368.756	-143.889	-0.335	-0.031
-367.742	-168.896	0.087	0.003
-366.727	-39.630	0.095	0.049
-365.712	-89.661	0.244	0.071
-364.698	186.961	0.240	-0.356
-363.683	78.760	0.274	0.292
-362.669	-43.061	0.168	0.085
-361.654	800.000	0.032	-0.119
-360.639	-200.000	-0.001	0.005
-359.625	68.935	0.141	-0.144
-358.610	540.213	0.099	-0.235
-357.596	140.541	0.061	0.080
-356.581	-172.180	-0.091	0.003
-355.566	-64.656	-0.070	0.028
-354.552	-200.000	-0.010	-0.115
-353.537	-200.000	0.002	-0.331
-352.523	800.000	0.121	0.394
-351.508	44.645	-0.069	-0.064
-350.493	189.195	0.076	-0.113
-349.479	25.056	0.151	0.125
-348.464	16.314	0.210	0.165
-347.450	11.152	-0.179	-0.137
-346.435	-100.666	-0.159	0.039
-345.420	-61.395	-0.226	0.094
-344.406	-45.996	-0.367	-0.180
-343.391	-168.909	0.214	-0.008
-342.377	-47.848	0.168	0.081
-341.362	148.600	-0.150	0.202
-340.348	533.888	-0.100	-0.235
-339.333	180.918	0.141	-0.206
-338.318	-72.252	-0.041	-0.015
-337.304	-200.000	0.022	0.102
-336.289	-50.106	-0.355	-0.167
-335.275	-149.889	0.248	0.019
-334.260	27.043	0.213	-0.178
-333.245	8.226	0.103	0.077
-332.231	169.989	-0.068	0.096
-331.216	-200.000	-0.007	-0.181
-330.202	-200.000	0.023	0.266
-329.187	800.000	-0.052	0.156
-328.172	-200.000	0.019	-0.275
-327.158	800.000	-0.049	-0.154
-326.143	-115.199	-0.254	-0.048
-325.129	-200.000	0.027	-0.165
-324.114	-200.000	0.032	0.168
-323.099	-90.383	0.052	0.015
-322.085	-150.817	-0.410	0.031
-321.070	-49.169	0.145	0.069
-320.056	516.260	0.057	0.133
-319.041	-92.535	-0.253	-0.071
-318.026	-200.000	-0.003	-0.120
-317.012	800.000	-0.042	0.174
-315.997	-69.988	-0.196	0.074
-314.983	217.420	0.102	0.161
-313.968	-200.000	0.008	0.076
-312.953	260.112	-0.091	-0.156
-311.939	800.000	0.111	-0.395
-310.924	-101.481	-0.276	0.067
-309.910	225.541	0.191	-0.307
-308.895	90.848	-0.123	0.137
-307.880	-131.025	0.334	0.044
-306.866	264.325	-0.077	0.134
-305.851	800.000	-0.058	0.165
-304.837	-167.418	-0.208	-0.008
-303.822	316.416	-0.084	0.157
-302.807	-190.613	0.222	-0.002
-301.793	73.670	0.181	-0.189
-300.778	800.000	-0.051	-0.159
-299.764	-200.000	0.017	-0.144
-298.749	-139.788	-0.357	-0.038
-297.735	79.822	0.051	-0.054
-296.720	-200.000	-0.004	0.232
-295.705	-179.730	0.189	-0.004
-294.691	-200.000	0.016	0.176
-293.676	-200.000	-0.004	-0.157
-292.662	-200.000	-0.083	-0.402
-291.647	-200.000	-0.027	0.144
-290.632	-84.786	0.392	0.122
-289.618	-77.314	-0.191	-0.066
-288.603	800.000	-0.055	0.213
-287.589	-200.000	-0.039	0.195
-286.574	-200.000	-0.021	0.143
-285.559	-105.633	-0.129	-0.029
-284.545	-74.471	0.435	0.156
-283.530	-79.859	0.161	-0.054
-282.516	-87.205	-0.284	-0.086
-281.501	32.670	-0.260	-0.224
-280.486	-200.000	0.346	0.000
-279.472	-20.792	0.279	0.170
-278.457	-139.843	0.154	-0.016
-277.443	-23.267	-0.115	-0.069
-276.428	123.041	0.148	0.183
-275.413	-200.000	-0.103	0.524
-274.399	-200.000	0.087	0.418
-273.384	800.000	-0.112	0.378
-272.370	-40.729	0.108	-0.056
-271.355	-114.766	0.070	0.013
-270.340	-148.232	0.310	0.025
-269.326	-200.000	-0.030	-0.430
-268.311	-110.260	-0.188	-0.039
-267.297	193.840	-0.068	0.102
-266.282	-200.000	-0.008	-0.174
-265.267	373.785	-0.062	-0.125
-264.253	28.067	0.032	0.027
-263.238	800.000	0.027	0.082
-262.224	22.321	-0.121	-0.098
-261.209	800.000	0.070	0.222
-260.195	75.797	-0.271	0.284
-259.180	47.106	0.048	-0.044
-258.165	-94.992	0.093	-0.025
-257.151	800.000	0.148	-0.587
-256.136	-169.448	-0.229	-0.008
-255.122	226.086	0.154	0.247
-254.107	300.545	0.161	-0.294
-253.092	32.342	-0.038	0.033
-252.078	800.000	0.030	-0.116
-251.063	235.859	-0.146	0.239
-250.049	182.575	0.116	0.169
-249.034	-27.281	-0.192	-0.111
-248.019	-77.433	0.227	0.078
-247.005	484.452	-0.060	-0.135
-245.990	-200.000	0.002	0.135
-244.976	800.000	-0.057	0.214
-243.961	-164.005	0.306	0.014
-242.946	87.309	0.256	-0.280
-241.932	109.220	0.099	-0.118
-240.917	-151.276	0.200	0.015
-239.903	-61.242	-0.390	0.163
-238.888	-51.789	0.155	-0.072
-237.873	-142.345	-0.385	-0.038
-236.859	69.220	-0.061	0.062
-235.844	5.851	0.110	0.081
-234.830	-26.755	-0.112	0.065
-233.815	139.352	-0.119	-0.155
-232.800	-59.896	0.270	0.114
-231.786	13.510	0.214	-0.165
-230.771	800.000	-0.022	0.095
-229.757	56.242	0.296	0.285
-228.742	14.732	-0.148	0.115
-227.727	78.496	0.134	0.141
-226.713	0.659	0.142	0.100
-225.698	-200.000	-0.004	0.058
-224.684	-200.000	0.002	-0.142
-223.669	-84.582	0.232	-0.072
-222.655	800.000	0.024	-0.068
-221.640	142.016	0.156	-0.205
-220.625	-124.766	0.214	-0.033
-219.611	800.000	0.029	0.125
-218.596	79.801	-0.165	0.176
-217.582	35.428	-0.154	-0.133
-216.567	-11.348	0.045	0.029
-215.552	-200.000	-0.013	0.121
-214.538	378.438	0.045	-0.092
-213.523	75.861	-0.064	-0.067
-212.509	-200.000	0.015	0.090
-211.494	-101.444	0.125	0.030
-210.479	800.000	0.118	0.505
-209.465	-39.546	-0.069	-0.036
-208.450	92.119	-0.123	-0.137
-207.436	-46.487	0.183	0.089
-206.421	-29.552	0.131	0.074
-205.406	321.589	0.111	0.209
-204.392	800.000	-0.021	0.087
-203.377	224.473	-0.111	-0.177
-202.363	800.000	0.021	-0.064
-201.348	-200.000	0.025	0.217
-200.333	12.700	-0.279	0.213
-199.319	800.000	0.115	0.319
-198.304	462.408	-0.054	-0.119
-197.290	-156.950	0.291	-0.018
-196.275	-200.000	-0.017	0.185
-195.260	-62.974	-0.121	-0.050
-194.246	229.099	-0.107	0.172
-193.231	447.530	0.026	0.057
-192.217	390.693	0.032	0.065
-191.202	-200.000	0.082	0.000
-190.187	-200.000	0.008	-0.090
-189.173	-200.000	-0.031	0.189
-188.158	462.610	-0.182	-0.401
-187.144	-118.744	-0.416	0.072
-186.129	69.389	0.324	-0.330
-185.114	800.000	0.129	-0.453
-184.100	-125.897	0.281	-0.042
-183.085	403.336	0.195	-0.406
-182.071	-200.000	0.012	-0.416
-181.056	106.641	-0.175	0.205
-180.042	-123.017	0.235	-0.037
-179.027	-135.750	-0.195	-0.023
-178.012	104.332	0.070	-0.081
-176.998	-98.833	0.074	0.019
-175.983	-200.000	0.010	0.104
-174.969	-200.000	-0.046	-0.331
-173.954	-89.894	0.283	-0.082
-172.939	-200.000	-0.015	-0.075
-171.925	92.758	-0.042	-0.046
-170.910	216.576	0.050	0.079
-169.896	281.177	-0.074	0.131
-168.881	65.685	-0.154	-0.154
-167.866	-138.552	0.240	0.026
-166.852	-97.222	0.068	-0.017
-165.837	286.931	-0.021	-0.037
-164.823	30.837	0.196	-0.166
-163.808	-19.106	0.275	-0.169
-162.793	-103.411	-0.220	0.051
-161.779	117.791	0.215	0.262
-160.764	800.000	0.041	-0.113
-159.750	45.648	-0.122	-0.111
-158.735	-29.344	0.070	-0.039
-157.720	23.438	-0.239	0.194
-156.706	489.183	-0.092	0.207
-155.691	594.852	-0.059	0.143
-154.677	-44.570	-0.116	-0.057
-153.662	207.921	0.048	-0.075
-152.647	423.974	-0.038	-0.080
-151.633	95.378	-0.034	0.038
-150.618	207.690	-0.175	0.270
-149.604	-125.489	0.320	0.048
-148.589	800.000	-0.072	0.305
-147.574	-200.000	0.022	0.132
-146.560	81.405	-0.104	-0.111
-145.545	236.943	-0.022	0.036
-144.531	800.000	-0.082	0.224
-143.516	-29.103	0.307	0.174
-142.502	-200.000	-0.019	-0.128
-141.487	-56.568	0.185	-0.081
-140.472	-108.583	0.311	0.066
-139.458	310.932	0.137	-0.254
-138.443	-72.370	-0.118	-0.043
-137.429	1.090	-0.245	0.174
-136.414	-71.372	-0.019	-0.007
-135.399	330.538	-0.159	0.301
-134.385	-31.426	-0.248	-0.137
-133.370	74.024	0.085	0.088
-132.356	499.072	-0.117	0.266
-131.341	334.142	-0.020	0.037
-130.326	-50.802	0.199	-0.092
-129.312	-66.351	0.109	-0.043
-128.297	131.797	-0.027	-0.034
-127.283	5.701	0.392	0.286
-126.268	-200.000	0.004	0.075
-125.253	-119.685	0.234	-0.040
-124.239	-52.000	-0.017	-0.008
-123.224	800.000	0.119	0.376
-122.210	-48.835	0.145	-0.068
-121.195	-200.000	0.190	-0.001
