DTS Sentinel unit serial number:	SN413079Multiplexer serial number:	ORYXHardware model number:	OX4-SRSoftware version number:	ORYX F/W v4.00 Oryx Data Collector v3.7.2.0data status	okinstallation	princeton_trtdifferential loss correction	single-endedforward channel	channel 4reverse channel	N/Adate	2019/09/17time	17:33:35forward acquisition time	60.00reverse acquisition time	0.00gamma	496.2192k internal	0.2278k external	0.2278temperature offset calibration	0.9979default loss term (dB/km)	0.3790temperature slope calibration	1.0000multiplexer offset coefficient	1.0000multiplexer slope coefficient	1.0000fibre end	0.00T internal ref (°C)	43.25T ext. ref 1 (°C)	0.34T ext. ref 2 (°C)	39.02length (m)	temperature (°C)	Stokes	anti-Stokes-747.200	-2.294	0.198	0.143
-746.185	359.792	-0.180	0.370
-745.171	120.686	0.278	0.355
-744.156	800.000	0.050	0.202
-743.142	23.893	-0.148	0.126
-742.127	556.741	-0.079	0.196
-741.112	-23.790	0.130	-0.080
-740.098	-149.984	-0.224	0.018
-739.083	182.271	-0.113	-0.171
-738.069	-200.000	0.045	0.214
-737.054	176.908	-0.146	-0.219
-736.039	800.000	-0.020	-0.072
-735.025	0.205	-0.023	-0.017
-734.010	105.869	-0.334	-0.407
-732.996	408.315	-0.164	-0.358
-731.981	-7.188	-0.219	0.153
-730.966	119.983	-0.134	0.171
-729.952	5.702	0.219	0.167
-728.937	-47.036	-0.130	0.065
-727.923	64.845	-0.108	0.112
-726.908	79.950	-0.176	-0.194
-725.894	120.613	-0.121	-0.155
-724.879	-200.000	-0.004	0.208
-723.864	-51.896	-0.067	0.032
-722.850	-5.504	-0.127	0.090
-721.835	522.073	0.094	0.227
-720.821	-107.125	-0.325	-0.074
-719.806	-133.356	0.233	0.030
-718.791	-137.129	-0.151	-0.018
-717.777	-200.000	0.011	-0.091
-716.762	-200.000	-0.013	-0.252
-715.748	5.353	-0.239	-0.181
-714.733	57.478	0.120	-0.121
-713.718	-170.709	-0.115	0.004
-712.704	298.982	-0.049	-0.093
-711.689	-84.578	0.178	-0.058
-710.675	57.498	-0.034	0.034
-709.660	-80.756	-0.120	-0.041
-708.645	-200.000	-0.005	-0.348
-707.631	29.551	-0.320	-0.280
-706.616	-41.729	-0.165	0.087
-705.602	140.666	0.104	-0.141
-704.587	178.602	0.198	0.298
-703.572	48.046	-0.033	-0.032
-702.558	4.412	0.229	-0.173
-701.543	-185.752	-0.082	0.001
-700.529	-147.415	0.116	0.010
-699.514	-200.000	-0.025	-0.437
-698.499	729.339	-0.095	0.261
-697.485	-28.640	-0.240	-0.142
-696.470	453.008	-0.128	0.290
-695.456	462.084	-0.028	-0.064
-694.441	-41.116	-0.453	0.240
-693.426	-81.228	-0.363	0.123
-692.412	-200.000	-0.009	0.216
-691.397	-38.288	0.176	0.096
-690.383	16.650	-0.187	-0.152
-689.368	186.469	-0.059	-0.090
-688.354	-130.181	0.214	-0.030
-687.339	131.345	0.154	0.204
-686.324	-80.570	0.031	-0.011
-685.310	-19.884	-0.148	-0.094
-684.295	-53.552	-0.050	-0.024
-683.281	-39.439	-0.223	-0.120
-682.266	-200.000	0.018	-0.121
-681.251	-71.611	-0.169	-0.065
-680.237	-84.069	0.122	0.040
-679.222	301.555	-0.061	-0.115
-678.208	-200.000	0.050	0.347
-677.193	-108.714	0.105	0.023
-676.178	620.832	-0.142	0.368
-675.164	28.436	0.132	0.115
-674.149	67.464	-0.255	0.267
-673.135	800.000	-0.124	-0.444
-672.120	-200.000	-0.036	0.310
-671.105	308.866	-0.016	0.031
-670.091	-200.000	-0.005	-0.284
-669.076	661.942	0.076	-0.201
-668.062	75.825	-0.182	-0.198
-667.047	100.419	-0.222	-0.265
-666.032	-167.406	-0.226	-0.009
-665.018	-20.408	0.014	-0.009
-664.003	800.000	-0.036	-0.107
-662.989	285.549	-0.079	0.147
-661.974	-200.000	0.002	0.070
-660.959	800.000	-0.086	0.335
-659.945	-4.707	-0.246	-0.174
-658.930	333.326	-0.130	-0.259
-657.916	-200.000	0.038	-0.285
-656.901	61.489	0.191	-0.195
-655.886	-200.000	-0.001	-0.101
-654.872	-200.000	-0.037	0.537
-653.857	79.825	0.020	-0.022
-652.843	800.000	-0.085	-0.344
-651.828	-180.041	-0.271	-0.006
-650.814	-23.464	-0.143	0.088
-649.799	-200.000	0.010	0.133
-648.784	-11.659	0.142	-0.095
-647.770	-107.267	0.158	-0.036
-646.755	25.944	0.226	0.193
-645.741	233.873	0.050	-0.085
-644.726	-200.000	0.025	0.446
-643.711	-141.591	-0.050	-0.005
-642.697	94.461	0.213	-0.248
-641.682	-29.451	0.295	0.173
-640.668	525.402	-0.085	0.204
-639.653	171.152	-0.034	-0.050
-638.638	-74.704	-0.147	-0.054
-637.624	402.385	0.108	-0.232
-636.609	-179.771	0.138	-0.003
-635.595	-91.965	0.173	-0.050
-634.580	-200.000	-0.003	0.088
-633.565	527.014	0.091	-0.221
-632.551	-179.446	0.095	0.002
-631.536	476.781	-0.041	-0.096
-630.522	-63.173	0.118	0.050
-629.507	-27.553	-0.105	0.062
-628.492	105.213	-0.042	0.051
-627.478	475.813	0.112	0.260
-626.463	-200.000	0.018	0.272
-625.449	452.605	-0.070	-0.158
-624.434	-200.000	-0.024	0.246
-623.419	444.799	-0.110	-0.247
-622.405	79.760	0.332	-0.366
-621.390	48.674	-0.094	0.091
-620.376	23.297	0.147	0.124
-619.361	164.250	-0.042	-0.060
-618.346	69.579	-0.129	0.136
-617.332	-123.258	0.237	-0.039
-616.317	-70.950	-0.423	-0.163
-615.303	-69.003	0.219	0.087
-614.288	800.000	0.072	0.257
-613.273	-200.000	-0.002	0.332
-612.259	-200.000	-0.002	-0.097
-611.244	-200.000	-0.037	-0.476
-610.230	-200.000	0.028	-0.255
-609.215	-200.000	0.016	-0.225
-608.201	129.222	0.227	-0.297
-607.186	199.541	0.059	0.093
-606.171	-200.000	0.017	-0.094
-605.157	800.000	0.005	0.015
-604.142	277.650	-0.135	0.245
-603.128	-200.000	-0.058	0.297
-602.113	344.726	-0.195	-0.393
-601.098	-200.000	0.031	0.151
-600.084	800.000	-0.053	0.192
-599.069	800.000	0.032	0.134
-598.055	341.522	0.098	-0.195
-597.040	95.829	-0.325	0.379
-596.025	-6.966	-0.086	0.060
-595.011	368.872	-0.168	-0.349
-593.996	229.885	-0.095	-0.159
-592.982	-97.368	-0.149	0.040
-591.967	-47.225	-0.132	-0.066
-590.952	-51.805	-0.072	0.034
-589.938	22.967	0.028	-0.024
-588.923	-129.375	-0.191	0.027
-587.909	-50.153	0.052	0.025
-586.894	560.705	-0.042	0.103
-585.879	-11.436	-0.163	-0.110
-584.865	-200.000	0.042	-0.197
-583.850	-78.035	-0.158	0.056
-582.836	-45.240	-0.352	0.179
-581.821	800.000	-0.114	-0.329
-580.806	309.992	-0.055	0.106
-579.792	800.000	-0.017	-0.075
-578.777	72.817	-0.123	-0.132
-577.763	260.670	-0.102	-0.181
-576.748	-200.000	-0.031	0.499
-575.733	-66.912	-0.164	-0.066
-574.719	34.082	-0.359	0.320
-573.704	-63.114	0.297	0.125
-572.690	587.837	0.018	0.046
-571.675	62.794	-0.091	0.093
-570.661	-32.200	-0.329	-0.188
-569.646	200.227	0.027	-0.042
-568.631	800.000	-0.062	0.226
-567.617	81.745	0.206	0.228
-566.602	265.534	-0.112	0.200
-565.588	-200.000	-0.055	0.429
-564.573	-58.205	0.121	-0.054
-563.558	100.029	-0.132	-0.157
-562.544	76.187	0.121	0.131
-561.529	-200.000	-0.023	0.213
-560.515	6.089	-0.222	-0.168
-559.500	35.835	0.309	-0.278
-558.485	-200.000	-0.011	0.070
-557.471	-159.892	0.324	0.018
-556.456	-200.000	-0.015	0.200
-555.442	-126.364	-0.280	0.043
-554.427	664.130	-0.118	-0.311
-553.412	-71.372	0.254	-0.097
-552.398	-7.814	-0.167	0.115
-551.383	-112.461	-0.272	0.056
-550.369	800.000	-0.110	-0.320
-549.354	-25.535	0.181	-0.109
-548.339	413.528	0.105	0.228
-547.325	800.000	0.080	0.274
-546.310	-134.429	-0.219	0.027
-545.296	1.058	-0.134	0.098
-544.281	-83.380	0.272	-0.089
-543.266	534.015	0.052	-0.125
-542.252	-73.693	0.440	-0.164
-541.237	-94.218	-0.200	-0.056
-540.223	231.473	-0.161	-0.269
-539.208	-92.387	-0.312	0.090
-538.193	800.000	-0.023	-0.069
-537.179	-61.942	-0.085	-0.036
-536.164	-200.000	-0.025	0.190
-535.150	115.099	0.240	-0.299
-534.135	83.633	-0.130	-0.145
-533.121	4.245	-0.215	-0.161
-532.106	-200.000	0.053	-0.425
-531.091	-200.000	-0.006	-0.095
-530.077	531.948	0.067	-0.162
-529.062	800.000	-0.016	0.050
-528.048	64.770	0.127	-0.130
-527.033	-82.355	-0.181	0.060
-526.018	-164.961	-0.152	-0.007
-525.004	121.343	0.145	-0.184
-523.989	800.000	0.079	-0.232
-522.975	18.128	-0.255	-0.208
-521.960	-121.432	0.229	0.039
-520.945	800.000	0.057	-0.171
-519.931	88.893	-0.065	-0.074
-518.916	-200.000	-0.014	-0.061
-517.902	31.045	-0.138	-0.121
-516.887	-177.705	-0.195	0.005
-515.872	800.000	-0.023	0.073
-514.858	179.584	-0.087	-0.130
-513.843	-200.000	0.013	-0.252
-512.829	-102.570	-0.386	0.094
-511.814	576.722	0.085	-0.211
-510.799	-102.482	0.108	0.026
-509.785	163.900	-0.089	0.127
-508.770	71.466	0.174	-0.184
-507.756	-200.000	0.009	0.184
-506.741	800.000	-0.021	-0.061
-505.726	69.213	0.217	0.228
-504.712	-96.671	0.082	-0.022
-503.697	335.003	0.030	0.060
-502.683	480.088	-0.036	-0.082
-501.668	46.247	0.146	-0.138
-500.653	64.650	-0.244	0.251
-499.639	774.274	0.059	-0.163
-498.624	-109.358	0.133	-0.029
-497.610	258.130	0.036	0.063
-496.595	144.137	-0.022	-0.029
-495.581	-106.771	-0.299	0.068
-494.566	-200.000	-0.043	0.272
-493.551	111.670	0.237	0.292
-492.537	-96.759	0.170	-0.046
-491.522	-200.000	0.009	-0.134
-490.508	-200.000	-0.010	-0.064
-489.493	-200.000	0.007	0.122
-488.478	279.884	-0.094	-0.170
-487.464	800.000	-0.064	-0.231
-486.449	327.035	0.052	0.102
-485.435	-118.019	-0.148	0.027
-484.420	76.375	0.161	-0.174
-483.405	117.363	0.040	-0.050
-482.391	33.139	-0.016	0.014
-481.376	-200.000	-0.004	0.148
-480.362	-200.000	0.023	0.137
-479.347	92.536	0.268	-0.309
-478.332	-96.899	-0.061	0.016
-477.318	789.628	0.122	-0.342
-476.303	141.192	-0.213	0.287
-475.289	-48.797	0.253	0.124
-474.274	24.012	-0.130	-0.109
-473.259	299.399	-0.044	-0.082
-472.245	237.734	-0.087	-0.148
-471.230	460.922	-0.084	0.190
-470.216	-161.327	0.052	-0.003
-469.201	-74.115	0.420	-0.155
-468.186	21.504	0.100	0.083
-467.172	-49.832	0.447	0.216
-466.157	86.829	0.220	-0.247
-465.143	-133.946	0.405	0.051
-464.128	-97.990	-0.126	-0.033
-463.113	-46.267	0.143	-0.071
-462.099	-147.892	-0.097	0.008
-461.084	-200.000	-0.015	-0.209
-460.070	-113.477	0.127	-0.025
-459.055	-34.904	-0.094	0.053
-458.040	533.015	0.055	-0.133
-457.026	63.972	0.045	0.046
-456.011	-186.557	0.159	-0.002
-454.997	-9.755	-0.183	-0.124
-453.982	288.347	0.176	0.324
-452.968	3.913	-0.249	-0.185
-451.953	800.000	-0.073	0.208
-450.938	-200.000	-0.014	-0.081
-449.924	345.184	0.029	-0.059
-448.909	800.000	-0.089	-0.344
-447.895	800.000	0.053	-0.191
-446.880	800.000	-0.027	0.100
-445.865	-24.344	-0.039	-0.024
-444.851	-141.548	0.203	-0.021
-443.836	-200.000	-0.044	-0.349
-442.822	-128.751	-0.097	0.014
-441.807	-151.568	-0.468	0.035
-440.792	318.197	0.103	-0.199
-439.778	363.036	0.138	-0.281
-438.763	92.405	0.188	-0.216
-437.749	-125.148	0.203	-0.032
-436.734	-137.140	0.041	0.005
-435.719	-200.000	-0.049	-0.368
-434.705	21.038	-0.034	-0.028
-433.690	-35.159	-0.315	0.174
-432.676	205.626	0.038	-0.060
-431.661	-81.760	-0.125	-0.042
-430.646	800.000	-0.065	0.233
-429.632	423.170	-0.158	-0.346
-428.617	33.891	-0.056	-0.049
-427.603	439.258	-0.212	0.470
-426.588	-48.609	0.089	-0.043
-425.573	-53.776	0.130	0.060
-424.559	17.634	0.079	-0.064
-423.544	39.862	-0.044	0.040
-422.530	-128.406	-0.322	0.047
-421.515	-85.002	0.106	-0.034
-420.500	-90.667	0.069	-0.020
-419.486	266.438	0.062	0.111
-418.471	-200.000	0.026	0.179
-417.457	-200.000	0.014	0.186
-416.442	318.089	-0.112	0.215
-415.428	800.000	-0.044	-0.145
-414.413	-124.733	-0.079	-0.012
-413.398	-147.042	0.127	-0.011
-412.384	232.154	-0.100	-0.167
-411.369	173.595	0.137	0.201
-410.355	-45.719	-0.137	-0.069
-409.340	144.224	0.267	0.362
-408.325	-160.987	-0.164	0.009
-407.311	130.827	-0.261	-0.341
-406.296	800.000	0.063	-0.208
-405.282	274.857	-0.058	0.104
-404.267	-200.000	-0.033	-0.215
-403.252	-1.152	0.276	0.199
-402.238	39.962	-0.192	0.175
-401.223	800.000	-0.073	-0.217
-400.209	-37.902	0.169	0.091
-399.194	-200.000	-0.022	0.378
-398.179	121.446	0.177	-0.224
-397.165	-123.809	0.152	0.024
-396.150	-87.529	-0.289	0.089
-395.136	-64.288	0.130	0.054
-394.121	-52.097	0.347	-0.164
-393.106	313.128	-0.114	0.218
-392.092	70.428	0.193	0.203
-391.077	379.851	-0.109	0.228
-390.063	-109.886	0.206	-0.044
-389.048	-200.000	-0.006	0.148
-388.033	236.544	-0.189	0.317
-387.019	60.872	0.156	0.157
-386.004	68.294	-0.209	-0.217
-384.990	30.348	-0.076	-0.066
-383.975	800.000	-0.085	0.265
-382.960	-92.906	0.127	-0.036
-381.946	-5.831	0.091	-0.064
-380.931	-200.000	-0.032	-0.171
-379.917	-115.833	-0.194	-0.037
-378.902	29.270	0.197	-0.170
-377.888	37.150	0.210	-0.188
-376.873	505.907	-0.096	-0.227
-375.858	29.746	0.232	0.201
-374.844	402.395	0.021	0.045
-373.829	-140.977	-0.396	-0.041
-372.815	-115.331	-0.120	0.023
-371.800	42.354	-0.110	-0.101
-370.785	261.554	0.099	-0.174
-369.771	800.000	0.047	0.134
-368.756	220.478	-0.039	0.064
-367.742	-145.540	0.158	-0.014
-366.727	-200.000	-0.091	0.000
-365.712	289.086	-0.138	-0.253
-364.698	-93.952	-0.208	-0.058
-363.683	-200.000	0.016	0.113
-362.669	-7.763	0.307	0.211
-361.654	-81.564	0.243	-0.081
-360.639	800.000	0.059	0.241
-359.625	-99.301	0.177	0.045
-358.610	-144.326	0.293	-0.028
-357.596	165.279	0.044	-0.064
-356.581	-82.530	-0.274	0.090
-355.566	-200.000	0.009	0.051
-354.552	-183.626	-0.268	0.005
-353.537	800.000	0.139	0.397
-352.523	-49.044	-0.362	0.176
-351.508	-60.365	-0.153	-0.066
-350.493	-32.214	0.248	0.141
-349.479	800.000	0.087	0.245
-348.464	-13.194	-0.351	0.231
-347.450	25.339	0.257	-0.217
-346.435	345.511	-0.071	-0.141
-345.420	-200.000	-0.029	-0.177
-344.406	-200.000	0.013	-0.178
-343.391	-200.000	-0.057	-0.261
-342.377	243.385	0.174	0.296
-341.362	-200.000	0.001	0.037
-340.348	-32.781	-0.125	-0.070
-339.333	800.000	0.010	-0.033
-338.318	214.980	0.182	0.292
-337.304	-158.871	-0.202	-0.012
-336.289	-174.889	-0.247	0.007
-335.275	-100.120	-0.215	0.054
-334.260	-97.330	-0.353	-0.093
-333.245	22.173	-0.068	0.056
-332.231	-128.225	-0.099	-0.014
-331.216	-5.932	0.258	-0.179
-330.202	-43.320	0.203	-0.104
-329.187	800.000	0.024	-0.088
-328.172	-170.805	-0.173	-0.006
-327.158	134.336	0.178	-0.233
-326.143	200.380	-0.015	0.023
-325.129	-200.000	0.004	0.075
-324.114	800.000	-0.028	0.104
-323.099	-23.407	0.233	-0.142
-322.085	-172.931	0.238	0.007
-321.070	-173.293	-0.275	0.008
-320.056	-77.907	0.268	0.094
-319.041	675.782	-0.062	0.163
-318.026	251.773	0.083	0.144
-317.012	-200.000	-0.015	0.093
-315.997	619.924	-0.130	0.331
-314.983	122.019	0.137	0.173
-313.968	-54.685	-0.292	0.134
-312.953	-148.901	-0.082	0.007
-311.939	-34.956	0.503	-0.278
-310.924	800.000	-0.052	0.173
-309.910	58.677	0.062	0.062
-308.895	800.000	-0.026	0.074
-307.880	752.059	0.108	-0.295
-306.866	800.000	0.047	-0.139
-305.851	-71.494	0.148	0.056
-304.837	712.432	0.052	0.139
-303.822	22.605	0.166	-0.138
-302.807	-200.000	0.032	0.298
-301.793	-140.764	0.097	-0.010
-300.778	-141.291	-0.281	0.029
-299.764	-32.216	0.064	0.036
-298.749	405.344	0.080	-0.170
-297.735	0.090	0.194	0.140
-296.720	-51.050	0.171	-0.081
-295.705	22.987	-0.348	-0.289
-294.691	48.927	-0.261	-0.248
-293.676	598.039	-0.110	-0.275
-292.662	655.147	0.147	-0.383
-291.647	800.000	-0.030	-0.088
-290.632	-41.210	0.084	-0.044
-289.618	113.494	0.181	-0.222
-288.603	-72.969	0.168	0.063
-287.589	64.529	0.224	0.228
-286.574	-178.121	0.125	0.003
-285.559	122.935	0.137	-0.173
-284.545	10.180	-0.325	-0.250
-283.530	116.955	0.108	-0.134
-282.516	40.498	0.083	-0.076
-281.501	800.000	0.033	0.130
-280.486	47.317	-0.072	-0.068
-279.472	-200.000	-0.092	0.413
-278.457	54.194	-0.089	-0.087
-277.443	171.560	0.059	-0.086
-276.428	-57.711	0.139	0.062
-275.413	78.932	0.095	0.103
-274.399	-144.129	-0.204	0.019
-273.384	800.000	0.040	-0.136
-272.370	103.677	-0.053	-0.063
-271.355	-152.554	-0.200	-0.014
-270.340	13.925	0.238	0.187
-269.326	770.148	0.010	0.028
-268.311	-106.374	-0.166	0.038
-267.297	-79.525	-0.082	-0.028
-266.282	-200.000	-0.010	-0.097
-265.267	-200.000	-0.006	-0.130
-264.253	-200.000	-0.044	0.250
-263.238	-200.000	0.015	0.116
-262.224	-146.893	-0.237	0.021
-261.209	-163.155	-0.318	0.015
-260.195	60.408	0.141	0.141
-259.180	679.237	-0.038	0.101
-258.165	-200.000	-0.006	0.089
-257.151	9.116	0.063	-0.048
-256.136	-137.777	0.142	-0.016
-255.122	-104.383	-0.247	-0.058
-254.107	586.568	-0.054	-0.133
-253.092	-93.798	0.202	-0.056
-252.078	-200.000	-0.004	-0.199
-251.063	133.496	-0.094	-0.122
-250.049	7.649	-0.144	-0.109
-249.034	-200.000	0.096	-0.526
-248.019	216.436	0.071	-0.114
-247.005	164.312	-0.179	-0.255
-245.990	294.077	0.058	0.107
-244.976	-46.315	0.330	0.164
-243.961	-200.000	0.034	0.248
-242.946	61.341	-0.175	-0.176
-241.932	-139.134	0.087	0.010
-240.917	57.263	-0.108	-0.107
-239.903	66.397	-0.102	-0.104
-238.888	-0.316	-0.084	0.061
-237.873	156.481	-0.117	0.163
-236.859	330.880	0.057	-0.112
-235.844	-112.198	0.170	-0.034
-234.830	-200.000	-0.011	-0.127
-233.815	-149.561	-0.405	-0.032
-232.800	97.598	-0.253	-0.294
-231.786	-36.086	0.089	0.049
-230.771	-74.314	0.219	0.080
-229.757	-136.351	0.299	0.035
-228.742	44.313	0.130	-0.120
-227.727	-200.000	0.001	-0.176
-226.713	74.463	-0.123	0.130
-225.698	-200.000	0.019	0.255
-224.684	-109.207	0.271	-0.058
-223.669	191.175	0.098	0.149
-222.655	213.404	-0.153	-0.245
-221.640	-200.000	-0.042	0.389
-220.625	-7.508	-0.182	0.124
-219.611	-48.646	0.125	0.061
-218.596	241.934	-0.124	0.209
-217.582	-80.335	-0.175	0.059
-216.567	-26.347	0.197	-0.117
-215.552	-98.688	-0.220	-0.057
-214.538	-121.729	0.056	-0.009
-213.523	-44.333	-0.065	-0.033
-212.509	-89.106	-0.157	0.047
-211.494	175.521	0.195	-0.285
-210.479	-75.637	0.255	0.091
-209.465	407.042	-0.068	0.145
-208.450	-43.030	-0.303	0.155
-207.436	-200.000	0.023	0.184
-206.421	-141.775	-0.276	-0.028
-205.406	-76.134	-0.056	-0.020
-204.392	747.679	0.043	-0.117
-203.377	-127.892	-0.066	-0.010
-202.363	236.827	-0.182	-0.303
-201.348	800.000	0.087	0.276
-200.333	102.342	-0.269	0.317
-199.319	-115.354	-0.160	0.030
-198.304	145.269	0.262	0.354
-197.290	800.000	-0.027	-0.101
-196.275	147.834	-0.071	0.097
-195.260	278.171	0.201	0.361
-194.246	-4.902	0.286	0.198
-193.231	-89.927	0.231	0.068
-192.217	-200.000	-0.004	0.118
-191.202	-72.620	-0.325	0.121
-190.187	-200.000	-0.000	-0.101
-189.173	736.834	-0.084	0.227
-188.158	123.249	0.093	0.117
-187.144	-148.675	-0.282	0.023
-186.129	-164.320	0.274	-0.013
-185.114	25.731	-0.135	-0.113
-184.100	-96.247	0.241	-0.064
-183.085	-200.000	0.024	-0.137
-182.071	-114.645	-0.090	0.017
-181.056	800.000	-0.071	0.263
-180.042	-71.261	0.338	-0.128
-179.027	145.402	-0.110	0.149
-178.012	800.000	-0.020	-0.058
-176.998	-104.360	-0.275	-0.064
-175.983	-10.960	-0.345	0.229
-174.969	-119.905	-0.286	-0.049
-173.954	-38.042	0.298	-0.159
-172.939	-52.642	0.217	0.101
-171.925	-159.852	0.313	-0.017
-170.910	269.860	-0.120	-0.212
-169.896	539.189	-0.041	0.098
-168.881	-7.975	0.133	0.091
-167.866	190.058	-0.161	-0.243
-166.852	800.000	0.045	0.144
-165.837	800.000	0.051	0.152
-164.823	-39.868	0.210	-0.110
-163.808	-112.658	-0.216	-0.043
-162.793	82.650	0.162	0.177
-161.779	-43.810	0.243	-0.123
-160.764	-60.996	0.354	0.151
-159.750	-200.000	0.049	0.265
-158.735	-31.152	0.174	0.099
-157.720	362.002	0.084	0.171
-156.706	236.711	0.147	0.246
-155.691	-175.646	0.254	-0.007
-154.677	-107.897	-0.303	0.066
-153.662	122.058	-0.221	0.278
-152.647	800.000	-0.039	-0.128
-151.633	-200.000	0.009	0.188
-150.618	69.648	-0.057	0.059
-149.604	-1.017	0.301	0.214
-148.589	32.817	0.069	0.060
-147.574	-200.000	0.018	-0.149
-146.560	-200.000	-0.024	-0.121
-145.545	198.222	0.055	-0.085
-144.531	-200.000	-0.005	-0.180
-143.516	-200.000	0.036	0.231
-142.502	-200.000	0.028	0.184
-141.487	14.009	0.109	0.085
-140.472	143.556	0.125	-0.167
-139.458	218.546	0.019	-0.030
-138.443	-129.480	0.271	-0.038
-137.429	257.313	0.138	-0.239
-136.414	160.056	-0.279	0.391
-135.399	-200.000	-0.007	-0.048
-134.385	-30.154	0.179	-0.102
-133.370	-200.000	0.036	-0.478
-132.356	-1.045	-0.348	0.247
-131.341	-43.798	0.275	0.139
-130.326	-28.139	0.147	-0.085
-129.312	76.032	-0.115	-0.122
-128.297	800.000	0.071	-0.243
-127.283	187.345	-0.188	-0.281
-126.268	-104.082	-0.175	0.041
-125.253	-107.707	0.349	0.077
-124.239	-166.957	-0.069	0.003
-123.224	800.000	0.030	0.102
-122.210	-74.612	0.177	0.064
