DTS Sentinel unit serial number:	SN413079Multiplexer serial number:	ORYXHardware model number:	OX4-SRSoftware version number:	ORYX F/W v4.00 Oryx Data Collector v3.7.2.0data status	okinstallation	princeton_trtdifferential loss correction	single-endedforward channel	channel 4reverse channel	N/Adate	2019/09/12time	20:45:34forward acquisition time	60.00reverse acquisition time	0.00gamma	496.2192k internal	0.2312k external	0.2312temperature offset calibration	1.0163default loss term (dB/km)	0.3790temperature slope calibration	1.0000multiplexer offset coefficient	1.0000multiplexer slope coefficient	1.0000fibre end	0.00T internal ref (°C)	31.06T ext. ref 1 (°C)	3.60T ext. ref 2 (°C)	25.60length (m)	temperature (°C)	Stokes	anti-Stokes-747.200	227.568	0.151	0.250
-746.185	-7.732	-0.365	0.250
-745.171	-70.075	0.178	-0.069
-744.156	800.000	0.054	-0.233
-743.142	-200.000	-0.030	-0.234
-742.127	-63.291	-0.310	-0.130
-741.112	120.393	0.094	-0.118
-740.098	11.860	-0.272	0.212
-739.083	-200.000	-0.043	0.303
-738.069	-5.940	-0.392	0.272
-737.054	800.000	0.084	0.289
-736.039	-14.456	-0.132	-0.086
-735.025	-200.000	-0.020	0.124
-734.010	165.299	-0.033	0.048
-732.996	-105.840	-0.260	0.059
-731.981	2.756	-0.107	0.079
-730.966	-130.365	0.293	0.040
-729.952	61.623	-0.238	-0.240
-728.937	-165.820	-0.291	-0.013
-727.923	65.124	-0.039	0.040
-726.908	111.097	0.088	-0.107
-725.894	-36.097	-0.230	-0.126
-724.879	-35.368	-0.400	-0.221
-723.864	98.613	-0.092	0.108
-722.850	-71.382	-0.148	0.056
-721.835	-200.000	0.020	-0.154
-720.821	-200.000	-0.022	-0.124
-719.806	37.118	-0.207	-0.186
-718.791	-58.394	0.195	0.086
-717.777	-79.741	0.255	0.087
-716.762	-80.482	-0.065	0.022
-715.748	511.924	-0.096	-0.226
-714.733	-200.000	0.036	-0.198
-713.718	21.669	0.287	-0.237
-712.704	-200.000	0.059	-0.305
-711.689	-81.874	-0.236	0.078
-710.675	-200.000	-0.022	-0.146
-709.660	-200.000	0.004	-0.230
-708.645	34.156	-0.011	0.009
-707.631	-200.000	0.051	-0.278
-706.616	-71.443	-0.082	-0.031
-705.602	453.453	-0.045	0.100
-704.587	574.632	0.095	0.235
-703.572	-35.562	0.206	-0.113
-702.558	-60.035	-0.244	-0.106
-701.543	-32.256	-0.244	-0.138
-700.529	-200.000	0.001	-0.060
-699.514	-48.917	0.170	-0.083
-698.499	800.000	0.034	0.130
-697.485	-117.896	-0.175	-0.032
-696.470	502.654	0.030	-0.069
-695.456	-17.535	0.161	-0.103
-694.441	22.173	-0.200	0.165
-693.426	-62.742	-0.327	-0.137
-692.412	-200.000	0.010	-0.138
-691.397	-200.000	0.014	-0.082
-690.383	84.497	-0.175	-0.193
-689.368	181.439	0.041	-0.061
-688.354	165.361	-0.006	0.008
-687.339	800.000	-0.100	-0.287
-686.324	-66.600	-0.089	-0.036
-685.310	800.000	-0.091	0.398
-684.295	-62.896	-0.132	-0.055
-683.281	-78.994	-0.225	0.078
-682.266	800.000	0.057	-0.167
-681.251	-93.376	0.152	-0.043
-680.237	-147.496	-0.326	0.028
-679.222	307.045	0.091	-0.172
-678.208	-116.785	0.103	0.019
-677.193	800.000	-0.145	0.409
-676.178	469.975	-0.189	0.429
-675.164	-51.733	-0.259	0.122
-674.149	155.037	0.029	0.041
-673.135	-200.000	0.033	-0.313
-672.120	-200.000	-0.099	0.468
-671.105	140.176	0.097	-0.129
-670.091	-146.533	0.166	-0.015
-669.076	148.096	-0.104	0.142
-668.062	-200.000	-0.006	0.286
-667.047	-200.000	0.033	-0.306
-666.032	-93.816	-0.051	-0.014
-665.018	423.827	-0.109	-0.237
-664.003	214.571	-0.091	0.146
-662.989	-79.807	0.285	-0.097
-661.974	-77.041	-0.256	-0.090
-660.959	254.912	-0.142	-0.246
-659.945	-50.313	-0.021	0.010
-658.930	-200.000	-0.020	0.250
-657.916	800.000	0.041	-0.135
-656.901	19.223	0.160	0.130
-655.886	-200.000	-0.013	-0.275
-654.872	-60.670	-0.431	-0.185
-653.857	-86.522	0.155	0.048
-652.843	16.173	0.050	0.040
-651.828	-177.060	-0.224	0.006
-650.814	47.335	-0.112	-0.106
-649.799	96.783	0.116	-0.135
-648.784	-200.000	-0.023	-0.131
-647.770	-200.000	0.004	-0.118
-646.755	127.859	0.084	-0.109
-645.741	325.935	0.117	0.226
-644.726	8.975	0.018	-0.014
-643.711	654.227	-0.049	-0.126
-642.697	403.518	0.055	0.118
-641.682	-200.000	0.064	-0.401
-640.668	-8.525	-0.100	0.068
-639.653	-189.405	-0.342	0.004
-638.638	140.702	0.046	-0.062
-637.624	-69.126	-0.090	-0.035
-636.609	-98.814	-0.175	-0.045
-635.595	-96.106	-0.161	-0.043
-634.580	186.553	0.156	-0.235
-633.565	323.435	0.140	-0.270
-632.551	-160.874	-0.233	0.012
-631.536	-26.646	-0.127	-0.075
-630.522	-200.000	-0.015	-0.096
-629.507	-2.465	-0.377	-0.267
-628.492	-46.709	-0.069	-0.034
-627.478	-92.921	0.193	-0.054
-626.463	-200.000	-0.009	0.080
-625.449	-142.299	0.401	-0.040
-624.434	-200.000	0.082	0.368
-623.419	463.168	-0.035	-0.079
-622.405	-32.097	-0.193	0.109
-621.390	-200.000	-0.030	0.274
-620.376	42.649	-0.251	0.230
-619.361	-84.785	0.244	-0.078
-618.346	-115.395	-0.329	0.063
-617.332	-200.000	0.028	-0.136
-616.317	-95.990	0.247	-0.066
-615.303	-5.432	-0.052	-0.036
-614.288	661.224	0.048	0.126
-613.273	205.395	-0.041	0.064
-612.259	445.855	0.035	-0.078
-611.244	218.391	0.086	0.139
-610.230	474.197	-0.117	0.266
-609.215	242.530	-0.125	-0.211
-608.201	-200.000	-0.050	-0.363
-607.186	800.000	0.046	0.198
-606.171	-136.035	0.030	-0.004
-605.157	-56.121	0.163	-0.073
-604.142	-144.758	-0.168	-0.016
-603.128	65.603	0.161	0.165
-602.113	536.312	0.056	-0.134
-601.098	-200.000	0.031	-0.235
-600.084	74.806	0.316	-0.335
-599.069	237.222	-0.118	-0.197
-598.055	-79.980	0.116	-0.039
-597.040	-200.000	-0.017	0.409
-596.025	102.012	-0.114	-0.134
-595.011	-60.189	-0.288	0.124
-593.996	46.409	0.167	-0.156
-592.982	-51.327	-0.238	-0.112
-591.967	483.718	0.049	0.112
-590.952	-41.565	-0.434	0.225
-589.938	-180.220	0.335	0.007
-588.923	400.734	-0.066	0.140
-587.909	-66.507	-0.267	-0.107
-586.894	-89.937	0.274	-0.081
-585.879	-46.647	-0.316	-0.156
-584.865	160.521	-0.026	-0.036
-583.850	-153.218	-0.264	0.019
-582.836	164.648	0.122	0.173
-581.821	-118.539	0.508	0.091
-580.806	-57.209	-0.163	-0.072
-579.792	39.791	-0.207	-0.188
-578.777	-14.579	0.107	0.069
-577.763	-3.777	-0.163	-0.114
-576.748	55.827	-0.245	0.239
-575.733	28.269	0.166	0.141
-574.719	-200.000	-0.087	-0.462
-573.704	-115.716	-0.521	0.098
-572.690	27.056	0.041	0.035
-571.675	-200.000	0.077	0.414
-570.661	-95.749	0.178	-0.048
-569.646	800.000	-0.041	-0.148
-568.631	6.647	0.162	0.121
-567.617	197.732	-0.090	-0.138
-566.602	-200.000	-0.033	0.188
-565.588	-42.470	0.246	-0.126
-564.573	-118.748	-0.319	0.057
-563.558	-135.056	0.221	-0.027
-562.544	-200.000	-0.014	-0.157
-561.529	-161.553	-0.273	-0.014
-560.515	800.000	0.060	0.224
-559.500	-6.803	-0.150	0.103
-558.485	33.170	0.390	-0.341
-557.471	-10.837	0.100	-0.067
-556.456	-200.000	0.003	0.042
-555.442	81.688	-0.118	-0.129
-554.427	26.584	0.097	-0.082
-553.412	-139.295	0.113	0.012
-552.398	318.338	0.034	0.065
-551.383	161.010	-0.041	-0.058
-550.369	-200.000	0.001	-0.126
-549.354	-92.467	0.190	-0.054
-548.339	-93.335	0.126	-0.035
-547.325	83.037	0.104	0.114
-546.310	15.599	-0.220	0.174
-545.296	132.325	-0.223	-0.290
-544.281	43.678	0.179	0.165
-543.266	800.000	-0.055	0.154
-542.252	198.049	-0.190	-0.292
-541.237	576.281	0.079	-0.195
-540.223	-93.961	-0.268	0.074
-539.208	-66.306	-0.039	0.016
-538.193	-171.900	-0.035	-0.001
-537.179	21.771	-0.105	-0.086
-536.164	51.866	-0.210	0.201
-535.150	193.677	-0.221	-0.336
-534.135	-47.201	-0.259	-0.127
-533.121	28.693	0.220	0.188
-532.106	-149.929	-0.053	0.004
-531.091	800.000	0.051	-0.209
-530.077	-93.411	-0.168	0.047
-529.062	-200.000	0.008	0.203
-528.048	-10.610	0.216	0.144
-527.033	-2.031	0.127	0.090
-526.018	800.000	-0.060	0.259
-525.004	81.935	0.237	-0.258
-523.989	227.109	-0.191	-0.312
-522.975	-200.000	-0.057	0.376
-521.960	82.934	0.323	0.354
-520.945	800.000	0.020	0.081
-519.931	800.000	-0.021	0.084
-518.916	110.888	-0.086	0.104
-517.902	338.423	-0.126	0.247
-516.887	332.017	-0.134	-0.260
-515.872	90.203	-0.089	-0.100
-514.858	234.951	0.233	0.386
-513.843	-66.079	-0.210	-0.084
-512.829	-104.343	0.079	0.019
-511.814	82.190	0.179	-0.196
-510.799	423.176	-0.282	-0.610
-509.785	146.103	-0.091	-0.123
-508.770	78.040	0.076	0.082
-507.756	-116.577	-0.208	-0.038
-506.741	800.000	-0.060	0.174
-505.726	-17.499	-0.102	-0.065
-504.712	-118.115	0.305	0.055
-503.697	71.205	0.132	0.138
-502.683	800.000	-0.052	0.183
-501.668	800.000	0.073	0.241
-500.653	204.993	0.128	-0.200
-499.639	695.920	0.105	-0.278
-498.624	-30.388	0.391	0.223
-497.610	377.893	0.032	-0.067
-496.595	10.402	0.181	0.139
-495.581	-49.437	0.124	-0.059
-494.566	30.146	0.117	-0.100
-493.551	-110.483	0.146	-0.030
-492.537	-175.636	0.066	-0.002
-491.522	296.526	-0.107	0.198
-490.508	466.258	-0.174	0.391
-489.493	522.776	0.090	-0.213
-488.478	229.788	0.051	0.083
-487.464	-200.000	0.013	-0.328
-486.449	-22.870	0.032	-0.019
-485.435	-132.341	-0.158	0.020
-484.420	800.000	0.149	-0.475
-483.405	-152.829	-0.132	0.009
-482.391	784.052	-0.072	0.198
-481.376	800.000	0.038	-0.114
-480.362	-139.600	-0.357	0.038
-479.347	-45.101	0.248	0.124
-478.332	-63.155	0.270	0.112
-477.318	125.777	0.128	0.162
-476.303	-91.003	-0.510	-0.147
-475.289	77.687	-0.322	-0.345
-474.274	-200.000	0.048	0.222
-473.259	-13.840	-0.062	-0.040
-472.245	-70.572	0.212	-0.081
-471.230	-9.747	0.451	0.302
-470.216	30.463	0.168	0.144
-469.201	-181.521	-0.142	-0.003
-468.186	-200.000	0.028	-0.149
-467.172	800.000	0.034	-0.146
-466.157	-47.995	-0.341	-0.165
-465.143	-200.000	0.000	-0.192
-464.128	22.880	0.167	-0.137
-463.113	-19.368	-0.177	-0.110
-462.099	670.461	0.010	0.027
-461.084	800.000	-0.092	-0.349
-460.070	-75.371	0.318	0.114
-459.055	95.734	0.118	0.135
-458.040	-6.970	-0.172	-0.117
-457.026	-47.646	0.209	-0.102
-456.011	-97.837	0.091	-0.024
-454.997	93.686	0.108	-0.123
-453.982	85.207	0.066	0.073
-452.968	-200.000	0.010	-0.188
-451.953	364.411	-0.166	-0.335
-450.938	-118.448	-0.179	0.032
-449.924	7.624	0.133	-0.100
-448.909	354.078	0.040	-0.079
-447.895	74.860	0.178	-0.188
-446.880	69.258	-0.232	0.239
-445.865	-200.000	-0.042	-0.300
-444.851	472.196	0.097	-0.219
-443.836	800.000	-0.095	0.394
-442.822	-86.167	0.218	-0.067
-441.807	-200.000	-0.024	0.184
-440.792	18.695	-0.108	0.086
-439.778	108.502	0.159	0.190
-438.763	800.000	-0.020	-0.076
-437.749	-200.000	-0.050	0.235
-436.734	558.964	-0.067	0.162
-435.719	349.664	-0.116	-0.229
-434.705	-26.270	-0.248	0.146
-433.690	-121.876	-0.505	0.083
-432.676	342.615	0.197	0.387
-431.661	32.804	0.062	-0.054
-430.646	-38.618	-0.103	0.055
-429.632	-74.570	0.286	0.103
-428.617	800.000	0.078	-0.258
-427.603	217.190	-0.023	0.037
-426.588	-30.608	-0.238	0.135
-425.573	105.916	0.056	-0.067
-424.559	358.718	0.067	-0.135
-423.544	-88.328	0.024	-0.007
-422.530	-177.408	-0.209	-0.005
-421.515	-88.027	-0.181	0.054
-420.500	-163.396	0.069	0.003
-419.486	-115.433	0.065	0.012
-418.471	13.009	-0.066	-0.052
-417.457	312.681	0.067	0.127
-416.442	69.993	-0.262	0.271
-415.428	84.497	-0.220	-0.242
-414.413	536.546	-0.030	-0.070
-413.398	192.556	-0.024	0.036
-412.384	310.741	0.165	-0.310
-411.369	276.674	-0.043	0.076
-410.355	530.381	-0.026	-0.063
-409.340	117.349	-0.220	-0.270
-408.325	138.168	0.080	0.106
-407.311	-57.224	-0.208	0.092
-406.296	51.461	0.194	-0.185
-405.282	-171.385	-0.234	0.008
-404.267	503.155	0.059	-0.136
-403.252	-200.000	0.005	-0.218
-402.238	-26.796	0.094	-0.055
-401.223	7.869	0.202	0.152
-400.209	584.793	0.157	-0.386
-399.194	135.955	0.203	0.264
-398.179	-4.582	-0.294	-0.203
-397.165	-200.000	-0.019	0.270
-396.150	281.918	-0.130	0.234
-395.136	-59.643	0.339	0.146
-394.121	800.000	-0.051	0.196
-393.106	-89.220	-0.170	-0.050
-392.092	88.034	0.036	0.040
-391.077	-77.542	0.202	0.070
-390.063	-200.000	-0.031	-0.145
-389.048	1.195	-0.230	-0.165
-388.033	2.089	0.168	0.122
-387.019	800.000	-0.053	0.198
-386.004	-166.315	-0.207	-0.009
-384.990	-48.623	0.288	0.138
-383.975	-34.609	0.267	-0.146
-382.960	44.641	0.158	-0.146
-381.946	463.642	-0.123	-0.275
-380.931	-200.000	0.068	-0.563
-379.917	800.000	-0.060	0.180
-378.902	-7.813	-0.067	-0.045
-377.888	-175.154	-0.384	-0.011
-376.873	617.057	-0.047	0.119
-375.858	-39.392	0.202	-0.106
-374.844	475.527	-0.094	-0.213
-373.829	800.000	-0.046	0.146
-372.815	-60.131	-0.052	0.022
-371.800	208.469	0.107	0.168
-370.785	-168.873	-0.086	0.003
-369.771	208.590	0.044	0.069
-368.756	-147.912	0.246	-0.020
-367.742	765.322	-0.089	0.243
-366.727	-200.000	0.009	0.102
-365.712	47.774	-0.131	-0.122
-364.698	-34.877	-0.119	0.065
-363.683	-164.669	0.278	-0.013
-362.669	-102.596	-0.263	0.063
-361.654	-200.000	-0.049	0.344
-360.639	386.557	-0.123	0.253
-359.625	800.000	-0.062	0.237
-358.610	-200.000	-0.073	0.416
-357.596	-27.104	0.084	0.049
-356.581	145.510	-0.154	0.207
-355.566	37.545	0.101	0.089
-354.552	75.554	0.213	-0.225
-353.537	-133.051	0.193	0.024
-352.523	-50.593	0.165	-0.078
-351.508	333.227	0.171	-0.331
-350.493	-80.768	-0.357	-0.118
-349.479	78.497	-0.127	-0.136
-348.464	623.179	-0.086	0.216
-347.450	205.333	-0.037	-0.057
-346.435	-200.000	0.021	0.113
-345.420	26.252	0.121	0.101
-344.406	-200.000	-0.023	0.114
-343.391	-200.000	-0.034	0.158
-342.377	184.572	-0.133	-0.197
-341.362	29.984	0.085	0.072
-340.348	-133.490	-0.084	0.011
-339.333	45.527	0.057	-0.052
-338.318	-82.188	0.033	-0.011
-337.304	-37.130	0.202	-0.108
-336.289	-10.576	0.378	-0.250
-335.275	93.718	0.198	-0.224
-334.260	254.647	0.128	-0.220
-333.245	393.951	-0.087	-0.180
-332.231	800.000	0.022	-0.095
-331.216	106.374	0.193	0.228
-330.202	-82.028	0.084	0.027
-329.187	-11.902	-0.043	0.028
-328.172	800.000	0.123	-0.353
-327.158	-143.557	-0.418	-0.040
-326.143	-39.865	0.250	0.130
-325.129	363.248	-0.093	-0.186
-324.114	224.577	-0.217	-0.350
-323.099	-66.174	0.187	-0.074
-322.085	-47.155	-0.155	-0.076
-321.070	-179.325	-0.173	-0.004
-320.056	-200.000	0.009	-0.274
-319.041	121.107	-0.184	-0.228
-318.026	736.116	-0.124	-0.332
-317.012	97.114	-0.135	0.154
-315.997	-200.000	-0.002	0.274
-314.983	-54.099	0.240	0.109
-313.968	-42.817	-0.095	-0.048
-312.953	594.982	0.090	-0.223
-311.939	-135.739	-0.053	0.006
-310.924	294.830	0.143	0.260
-309.910	184.266	-0.119	-0.176
-308.895	800.000	-0.094	-0.395
-307.880	800.000	-0.071	0.211
-306.866	-30.612	0.437	0.247
-305.851	54.625	0.124	0.119
-304.837	-81.550	0.385	-0.126
-303.822	-160.302	0.108	-0.006
-302.807	507.109	0.152	0.353
-301.793	-147.705	0.239	0.020
-300.778	63.855	-0.203	-0.203
-299.764	-28.583	-0.188	-0.108
-298.749	-34.905	0.390	0.212
-297.735	-67.206	0.190	0.075
-296.720	426.039	0.184	0.395
-295.705	591.160	0.018	-0.043
-294.691	800.000	0.072	0.201
-293.676	-200.000	-0.030	0.209
-292.662	-164.607	0.155	0.007
-291.647	-200.000	0.021	0.252
-290.632	-200.000	0.000	0.091
-289.618	-104.221	-0.144	0.033
-288.603	621.650	-0.100	0.251
-287.589	41.849	0.240	-0.217
-286.574	-200.000	0.037	-0.293
-285.559	800.000	-0.068	0.216
-284.545	34.691	0.179	0.156
-283.530	142.699	-0.068	-0.090
-282.516	138.775	0.289	0.378
-281.501	57.791	-0.061	0.060
-280.486	-83.785	0.235	-0.075
-279.472	73.934	-0.133	0.139
-278.457	-94.921	-0.156	-0.042
-277.443	-42.420	-0.067	0.034
-276.428	140.840	-0.045	-0.060
-275.413	-200.000	0.029	-0.426
-274.399	659.967	0.092	0.237
-273.384	800.000	0.058	-0.192
-272.370	148.677	0.014	-0.019
-271.355	-85.955	-0.158	0.049
-270.340	-154.865	-0.349	-0.023
-269.326	-68.807	-0.222	0.085
-268.311	477.751	-0.121	-0.273
-267.297	3.914	-0.004	0.003
-266.282	-200.000	0.034	-0.223
-265.267	-200.000	0.012	-0.125
-264.253	495.632	0.099	-0.227
-263.238	-35.693	0.264	0.143
-262.224	-5.877	0.108	-0.073
-261.209	144.639	-0.092	-0.122
-260.195	-136.599	0.297	-0.034
-259.180	-156.033	0.268	0.017
-258.165	-66.776	0.114	-0.045
-257.151	277.782	-0.066	0.116
-256.136	74.457	-0.241	0.252
-255.122	-87.264	0.142	-0.043
-254.107	-155.734	-0.411	-0.026
-253.092	-125.566	0.057	-0.009
-252.078	-152.298	0.161	0.012
-251.063	-200.000	-0.031	0.202
-250.049	-200.000	0.038	-0.314
-249.034	262.617	0.196	-0.338
-248.019	-200.000	0.025	0.203
-247.005	-60.119	-0.288	-0.122
-245.990	-200.000	-0.323	0.001
-244.976	-55.175	0.370	0.166
-243.961	-200.000	-0.019	0.221
-242.946	11.903	-0.245	0.187
-241.932	-200.000	0.000	-0.225
-240.917	-82.523	-0.337	-0.109
-239.903	-48.186	0.285	-0.137
-238.888	-2.760	0.182	-0.127
-237.873	528.032	0.027	0.064
-236.859	-110.578	-0.326	-0.067
-235.844	-200.000	-0.017	0.296
-234.830	-156.036	0.459	-0.029
-233.815	177.074	-0.090	0.130
-232.800	-129.283	0.110	0.015
-231.786	-147.375	0.252	0.021
-230.771	330.631	0.162	-0.311
-229.757	-51.587	-0.372	0.172
-228.742	355.730	0.199	0.395
-227.727	-177.119	0.183	-0.005
-226.713	-192.818	0.084	-0.001
-225.698	71.701	-0.083	0.086
-224.684	-74.343	0.205	0.074
-223.669	32.399	-0.220	0.189
-222.655	248.641	-0.154	0.259
-221.640	-94.617	-0.337	0.091
-220.625	-28.757	-0.194	-0.111
-219.611	-28.398	-0.036	-0.021
-218.596	626.183	-0.043	-0.108
-217.582	800.000	0.044	-0.162
-216.567	533.502	-0.082	0.192
-215.552	-45.257	-0.013	-0.007
-214.538	507.996	0.121	0.279
-213.523	111.277	0.201	0.240
-212.509	800.000	0.094	0.347
-211.494	-9.886	0.308	0.204
-210.479	800.000	0.105	0.404
-209.465	228.313	0.139	0.225
-208.450	-34.066	-0.311	0.170
-207.436	-53.283	-0.146	0.066
-206.421	-31.880	-0.117	0.065
-205.406	-200.000	-0.078	-0.529
-204.392	-74.206	-0.211	-0.076
-203.377	31.145	-0.061	0.052
-202.363	181.453	-0.043	-0.063
-201.348	-136.761	0.212	-0.024
-200.333	-82.265	-0.168	0.054
-199.319	-137.488	-0.185	0.021
-198.304	-0.118	0.054	-0.038
-197.290	20.069	0.096	0.077
-196.275	-103.775	-0.192	0.045
-195.260	391.472	0.124	0.257
-194.246	97.028	0.201	-0.229
-193.231	5.893	-0.143	0.105
-192.217	-200.000	-0.012	0.442
-191.202	-90.896	-0.093	0.027
-190.187	-200.000	0.075	0.000
-189.173	-157.009	-0.433	0.026
-188.158	-184.387	0.102	-0.002
-187.144	-99.598	0.129	0.032
-186.129	62.730	0.033	-0.033
-185.114	-175.471	-0.352	0.010
-184.100	545.493	0.106	-0.252
-183.085	-200.000	-0.013	0.125
-182.071	-76.850	0.163	-0.056
-181.056	53.072	0.280	0.266
-180.042	800.000	0.077	0.289
-179.027	-72.839	0.246	-0.090
-178.012	8.349	0.132	0.098
-176.998	800.000	-0.046	0.152
-175.983	-24.341	0.118	-0.070
-174.969	-200.000	-0.017	0.106
-173.954	187.238	0.102	-0.152
-172.939	378.833	-0.064	-0.130
-171.925	13.950	0.377	0.291
-170.910	-194.258	-0.216	-0.002
-169.896	-200.000	0.005	-0.031
-168.881	-74.737	-0.139	0.050
-167.866	1.272	-0.200	-0.142
-166.852	-200.000	-0.050	-0.294
-165.837	89.266	-0.122	-0.135
-164.823	40.878	0.236	0.211
-163.808	-148.785	-0.346	0.028
-162.793	63.857	0.173	-0.172
-161.779	64.850	-0.074	0.074
-160.764	-95.894	-0.116	-0.031
-159.750	50.395	0.153	-0.144
-158.735	122.050	0.164	-0.203
-157.720	284.490	-0.243	-0.434
-156.706	213.999	-0.147	-0.230
-155.691	800.000	-0.074	0.222
-154.677	-200.000	-0.030	0.337
-153.662	128.926	0.257	0.325
-152.647	81.127	-0.122	-0.131
-151.633	-95.721	-0.114	-0.030
-150.618	-99.767	0.310	0.077
-149.604	-30.885	-0.064	-0.036
-148.589	160.962	-0.072	-0.100
-147.574	-99.383	0.079	0.020
-146.560	800.000	-0.029	-0.100
-145.545	101.510	0.036	0.042
-144.531	-27.795	0.118	0.068
-143.516	-64.086	-0.317	0.128
-142.502	303.723	0.156	-0.286
-141.487	-10.921	-0.122	-0.080
-140.472	-25.824	-0.416	-0.243
-139.458	405.985	-0.084	-0.176
-138.443	-17.261	-0.419	0.261
-137.429	-54.900	-0.180	-0.081
-136.414	41.958	0.161	-0.145
-135.399	-200.000	-0.002	-0.133
-134.385	-193.067	0.146	-0.001
-133.370	347.079	-0.055	-0.107
-132.356	-200.000	-0.028	0.359
-131.341	84.740	-0.209	0.226
-130.326	-49.358	0.138	-0.065
-129.312	-154.039	-0.383	-0.026
-128.297	800.000	-0.065	-0.253
-127.283	-8.556	-0.293	0.195
-126.268	-158.282	-0.168	0.010
-125.253	11.991	0.264	0.201
-124.239	-35.800	-0.055	0.029
-123.224	-26.627	-0.218	-0.127
-122.210	-107.525	0.088	0.019
-121.195	-22.124	0.102	-0.061
