DTS Sentinel unit serial number:	SN413079Multiplexer serial number:	ORYXHardware model number:	OX4-SRSoftware version number:	ORYX F/W v4.00 Oryx Data Collector v3.7.2.0data status	okinstallation	princeton_trtdifferential loss correction	single-endedforward channel	channel 4reverse channel	N/Adate	2019/09/14time	11:41:34forward acquisition time	60.00reverse acquisition time	0.00gamma	496.2192k internal	0.2294k external	0.2294temperature offset calibration	1.0155default loss term (dB/km)	0.3790temperature slope calibration	1.0000multiplexer offset coefficient	1.0000multiplexer slope coefficient	1.0000fibre end	0.00T internal ref (°C)	36.94T ext. ref 1 (°C)	4.60T ext. ref 2 (°C)	33.53length (m)	temperature (°C)	Stokes	anti-Stokes-747.200	800.000	0.024	-0.080
-746.185	-121.181	-0.053	0.009
-745.171	-70.336	-0.338	-0.131
-744.156	-200.000	-0.014	0.120
-743.142	-69.417	-0.315	-0.123
-742.127	-200.000	-0.050	0.277
-741.112	222.291	-0.017	0.028
-740.098	-200.000	0.012	0.185
-739.083	306.414	-0.163	0.310
-738.069	-144.070	-0.090	0.009
-737.054	-149.165	0.163	0.013
-736.039	168.244	-0.035	0.051
-735.025	106.938	0.159	0.193
-734.010	475.627	0.061	0.141
-732.996	96.257	0.163	-0.191
-731.981	-66.754	0.279	0.113
-730.966	-200.000	0.027	0.134
-729.952	152.880	-0.088	-0.123
-728.937	357.290	0.045	-0.093
-727.923	-200.000	-0.016	0.121
-726.908	800.000	-0.032	-0.098
-725.894	498.633	0.119	-0.281
-724.879	118.355	0.055	-0.069
-723.864	16.686	0.195	-0.158
-722.850	-200.000	-0.011	-0.085
-721.835	-50.007	0.356	-0.172
-720.821	34.552	-0.247	-0.221
-719.806	128.359	0.103	-0.133
-718.791	-200.000	-0.017	-0.289
-717.777	-12.952	-0.371	-0.247
-716.762	-200.000	-0.030	0.192
-715.748	641.829	-0.097	-0.252
-714.733	-200.000	-0.007	-0.275
-713.718	-7.043	0.158	0.110
-712.704	130.512	-0.108	-0.142
-711.689	-29.471	0.052	-0.030
-710.675	-111.651	0.255	0.053
-709.660	-200.000	-0.022	-0.104
-708.645	-69.175	0.258	0.101
-707.631	-120.333	0.114	0.020
-706.616	30.868	0.015	-0.014
-705.602	-21.964	0.037	-0.023
-704.587	-116.190	-0.073	0.014
-703.572	-92.872	-0.206	0.059
-702.558	-200.000	-0.011	0.071
-701.543	-200.000	-0.009	0.188
-700.529	-69.915	0.109	-0.042
-699.514	764.199	-0.063	0.176
-698.499	479.753	-0.009	-0.022
-697.485	-200.000	-0.007	0.160
-696.470	-14.254	-0.044	-0.029
-695.456	-55.021	0.171	0.078
-694.441	25.539	0.110	0.094
-693.426	167.008	-0.142	0.206
-692.412	800.000	-0.032	0.131
-691.397	89.446	-0.330	-0.375
-690.383	-18.312	-0.094	-0.060
-689.368	-8.392	-0.113	-0.077
-688.354	-200.000	-0.023	-0.137
-687.339	-200.000	0.041	0.285
-686.324	541.763	-0.144	-0.351
-685.310	-26.823	0.072	0.043
-684.295	354.806	-0.059	0.120
-683.281	800.000	-0.032	0.140
-682.266	141.249	-0.035	-0.047
-681.251	-200.000	0.019	0.235
-680.237	-46.704	-0.213	-0.107
-679.222	18.270	0.050	-0.041
-678.208	-78.250	-0.209	-0.073
-677.193	660.634	-0.101	0.265
-676.178	800.000	0.174	-0.493
-675.164	71.936	0.303	0.321
-674.149	153.079	0.097	-0.135
-673.135	-53.670	-0.323	0.150
-672.120	-116.759	-0.319	-0.060
-671.105	506.288	0.087	-0.206
-670.091	-200.000	0.003	-0.216
-669.076	800.000	-0.062	-0.225
-668.062	-64.878	0.245	-0.101
-667.047	48.772	-0.142	0.136
-666.032	-13.008	0.181	0.120
-665.018	-48.860	-0.095	-0.047
-664.003	-200.000	-0.036	-0.287
-662.989	800.000	0.100	-0.287
-661.974	-200.000	-0.047	0.274
-660.959	-96.572	-0.233	-0.063
-659.945	-85.556	0.263	-0.083
-658.930	-25.758	0.274	-0.165
-657.916	-19.372	0.209	-0.132
-656.901	-60.045	-0.211	-0.092
-655.886	72.133	0.160	-0.170
-654.872	194.963	-0.038	0.058
-653.857	50.442	-0.056	0.054
-652.843	-101.433	0.416	0.103
-651.828	-200.000	0.047	0.221
-650.814	99.313	0.223	-0.263
-649.799	-4.709	0.113	0.079
-648.784	-7.726	0.126	-0.086
-647.770	-76.617	-0.160	-0.057
-646.755	-154.283	-0.117	0.008
-645.741	-93.390	0.087	0.025
-644.726	70.043	0.226	0.238
-643.711	337.601	0.093	-0.185
-642.697	-62.332	-0.325	-0.138
-641.682	-200.000	-0.030	-0.216
-640.668	-200.000	0.107	0.000
-639.653	-147.140	0.339	0.029
-638.638	-200.000	-0.064	-0.478
-637.624	-60.998	-0.158	0.068
-636.609	480.515	-0.104	0.240
-635.595	35.695	0.145	-0.130
-634.580	217.583	0.076	0.123
-633.565	-107.808	-0.257	-0.057
-632.551	-177.707	0.145	0.004
-631.536	-96.809	0.646	0.173
-630.522	158.632	-0.248	0.350
-629.507	177.635	-0.139	-0.207
-628.492	788.187	0.019	-0.054
-627.478	723.782	-0.074	0.200
-626.463	-16.304	-0.136	-0.088
-625.449	800.000	0.011	-0.043
-624.434	192.578	0.102	-0.156
-623.419	-131.988	0.059	0.008
-622.405	698.651	0.094	-0.251
-621.390	-122.668	0.345	-0.057
-620.376	355.572	-0.116	-0.234
-619.361	117.012	0.124	-0.155
-618.346	-51.784	-0.241	0.114
-617.332	-200.000	-0.049	0.248
-616.317	58.042	-0.085	0.085
-615.303	-46.157	0.115	0.058
-614.288	26.013	-0.075	0.064
-613.273	-33.263	0.158	-0.089
-612.259	-178.452	-0.201	0.005
-611.244	-200.000	-0.031	-0.241
-610.230	-200.000	-0.016	-0.181
-609.215	-134.428	-0.244	0.030
-608.201	800.000	0.052	0.186
-607.186	-86.315	0.254	-0.080
-606.171	-79.149	0.056	0.019
-605.157	-93.675	-0.064	-0.018
-604.142	-35.973	0.086	-0.047
-603.128	92.691	-0.139	-0.159
-602.113	-200.000	-0.009	-0.143
-601.098	14.828	-0.179	-0.142
-600.084	-92.012	0.085	-0.024
-599.069	-200.000	-0.013	0.187
-598.055	179.688	-0.080	-0.119
-597.040	-72.764	-0.418	-0.157
-596.025	-21.570	0.110	-0.068
-595.011	-132.671	-0.222	-0.029
-593.996	-200.000	0.043	-0.241
-592.982	182.871	0.153	-0.229
-591.967	-12.990	0.049	0.033
-590.952	70.014	0.136	-0.143
-589.938	-200.000	0.039	-0.251
-588.923	-29.739	-0.340	0.197
-587.909	800.000	0.079	-0.307
-586.894	-62.702	-0.244	0.103
-585.879	-22.838	0.267	-0.164
-584.865	-200.000	0.038	0.217
-583.850	800.000	-0.040	-0.153
-582.836	-167.490	-0.302	0.012
-581.821	800.000	-0.074	-0.217
-580.806	71.991	-0.081	-0.086
-579.792	-200.000	0.012	0.430
-578.777	-139.080	0.189	-0.021
-577.763	-114.915	-0.302	-0.058
-576.748	42.237	-0.134	-0.124
-575.733	-82.212	0.284	0.094
-574.719	131.943	-0.319	-0.417
-573.704	71.439	-0.312	-0.329
-572.690	800.000	0.086	-0.247
-571.675	-200.000	0.033	0.307
-570.661	6.559	-0.443	0.334
-569.646	602.320	-0.101	0.255
-568.631	-134.308	0.241	0.030
-567.617	-12.152	-0.326	0.217
-566.602	48.260	-0.128	0.121
-565.588	305.256	0.095	0.179
-564.573	-106.088	0.329	-0.075
-563.558	49.126	-0.185	-0.176
-562.544	-67.039	-0.076	-0.031
-561.529	91.946	-0.071	0.081
-560.515	800.000	-0.114	0.415
-559.500	-84.949	-0.228	-0.073
-558.485	52.309	-0.148	-0.143
-557.471	-111.040	0.230	0.048
-556.456	800.000	0.026	0.098
-555.442	79.436	-0.145	-0.158
-554.427	-128.891	-0.478	0.068
-553.412	-200.000	0.016	0.083
-552.398	-200.000	0.001	-0.048
-551.383	800.000	0.163	-0.479
-550.369	-200.000	-0.039	-0.273
-549.354	-200.000	-0.003	0.043
-548.339	-81.438	0.083	-0.028
-547.325	127.336	0.133	-0.172
-546.310	86.491	-0.122	0.137
-545.296	417.222	-0.152	0.329
-544.281	-200.000	0.015	-0.099
-543.266	-200.000	0.002	0.106
-542.252	-109.404	-0.407	0.087
-541.237	-200.000	0.001	0.302
-540.223	-200.000	-0.000	0.119
-539.208	-155.087	-0.354	-0.024
-538.193	-56.160	-0.052	0.024
-537.179	408.055	0.084	0.181
-536.164	-30.420	-0.141	-0.081
-535.150	800.000	-0.108	0.382
-534.135	-200.000	0.061	0.400
-533.121	187.025	0.123	-0.186
-532.106	352.091	-0.069	0.138
-531.091	-1.025	-0.241	-0.173
-530.077	-143.405	-0.147	-0.014
-529.062	30.895	0.162	0.141
-528.048	598.340	-0.099	-0.248
-527.033	92.872	-0.117	0.134
-526.018	-22.839	0.096	0.059
-525.004	-151.669	-0.160	-0.012
-523.989	-200.000	0.014	-0.284
-522.975	-112.901	-0.086	-0.017
-521.960	-45.431	0.156	0.079
-520.945	42.828	0.364	0.337
-519.931	496.001	-0.095	-0.221
-518.916	6.936	0.177	0.133
-517.902	34.247	0.078	0.069
-516.887	-134.151	-0.336	0.042
-515.872	800.000	0.054	-0.165
-514.858	-50.823	-0.291	0.138
-513.843	-200.000	-0.003	-0.063
-512.829	-39.695	-0.230	0.122
-511.814	-200.000	0.002	-0.412
-510.799	-3.223	0.057	0.040
-509.785	-200.000	0.034	0.178
-508.770	-20.286	-0.092	0.058
-507.756	800.000	-0.072	0.237
-506.741	-24.824	0.162	-0.098
-505.726	57.668	-0.087	-0.086
-504.712	-102.356	0.274	-0.067
-503.697	-48.536	-0.166	-0.081
-502.683	800.000	-0.039	0.167
-501.668	800.000	-0.044	-0.146
-500.653	-200.000	0.017	0.172
-499.639	32.351	-0.133	0.117
-498.624	4.430	-0.307	0.228
-497.610	196.405	0.122	-0.188
-496.595	-124.173	-0.203	0.032
-495.581	-200.000	-0.045	0.249
-494.566	-148.488	0.199	0.016
-493.551	-49.694	-0.484	-0.233
-492.537	-123.222	-0.174	0.028
-491.522	603.497	-0.106	0.266
-490.508	-9.263	0.132	0.089
-489.493	232.995	0.119	0.197
-488.478	-19.422	0.100	0.063
-487.464	-67.483	-0.259	-0.103
-486.449	-200.000	-0.025	0.139
-485.435	-1.372	-0.299	-0.213
-484.420	-59.152	0.367	0.160
-483.405	118.624	-0.065	0.081
-482.391	761.280	-0.068	0.186
-481.376	800.000	-0.087	0.259
-480.362	432.691	0.137	-0.300
-479.347	175.845	0.207	0.304
-478.332	-29.609	-0.323	0.187
-477.318	-200.000	-0.012	-0.304
-476.303	-86.077	-0.093	-0.029
-475.289	20.645	-0.212	-0.173
-474.274	-16.163	-0.216	-0.139
-473.259	136.303	-0.219	-0.289
-472.245	107.381	0.040	0.048
-471.230	125.294	-0.125	0.160
-470.216	115.080	0.247	0.305
-469.201	14.630	0.128	0.101
-468.186	-152.788	-0.291	-0.021
-467.172	-200.000	0.014	-0.326
-466.157	-30.988	-0.189	-0.108
-465.143	23.499	0.245	0.204
-464.128	-41.693	-0.263	-0.136
-463.113	-68.197	-0.359	0.141
-462.099	171.915	0.009	-0.013
-461.084	-200.000	-0.231	0.000
-460.070	-18.856	0.321	-0.202
-459.055	-144.688	-0.169	0.016
-458.040	718.718	-0.088	0.235
-457.026	497.010	-0.236	-0.550
-456.011	-57.555	0.140	0.062
-454.997	-74.249	-0.099	-0.036
-453.982	378.422	0.161	0.333
-452.968	-79.631	-0.134	-0.046
-451.953	317.442	-0.154	-0.294
-450.938	210.247	0.200	-0.318
-449.924	-164.305	-0.377	0.018
-448.909	-65.943	-0.141	-0.057
-447.895	274.335	0.206	0.369
-446.880	-24.651	0.321	0.193
-445.865	-115.475	0.170	-0.032
-444.851	39.617	0.081	-0.073
-443.836	5.816	-0.458	-0.342
-442.822	-26.821	-0.045	-0.027
-441.807	-200.000	0.016	-0.229
-440.792	205.433	-0.082	-0.128
-439.778	619.563	0.025	-0.064
-438.763	-200.000	0.017	0.100
-437.749	-84.016	0.314	0.101
-436.734	-52.822	0.167	0.078
-435.719	150.706	-0.095	0.130
-434.705	-133.703	0.227	-0.029
-433.690	-200.000	-0.007	-0.036
-432.676	-200.000	-0.012	0.277
-431.661	-44.715	0.270	0.136
-430.646	4.168	0.215	0.159
-429.632	800.000	-0.078	-0.220
-428.617	-200.000	0.090	-0.443
-427.603	-49.433	0.204	0.098
-426.588	10.483	-0.187	-0.144
-425.573	-82.935	0.233	0.076
-424.559	8.034	0.276	-0.209
-423.544	77.214	0.123	-0.132
-422.530	-59.887	0.180	0.078
-421.515	-64.078	-0.134	-0.055
-420.500	-200.000	-0.017	-0.107
-419.486	151.967	0.079	-0.108
-418.471	197.427	0.094	0.144
-417.457	-36.096	-0.080	0.044
-416.442	7.134	0.295	-0.223
-415.428	110.616	0.029	0.035
-414.413	800.000	0.040	-0.136
-413.398	-200.000	0.001	0.067
-412.384	-65.221	-0.197	-0.080
-411.369	298.426	0.044	-0.082
-410.355	88.407	0.147	-0.165
-409.340	151.762	0.131	0.180
-408.325	578.634	0.036	-0.089
-407.311	91.283	0.081	-0.092
-406.296	20.621	-0.073	0.060
-405.282	383.723	0.196	-0.407
-404.267	-200.000	0.021	0.197
-403.252	-110.136	-0.110	0.023
-402.238	159.779	0.065	0.091
-401.223	58.851	0.246	0.244
-400.209	94.542	-0.190	0.218
-399.194	-134.618	-0.348	-0.043
-398.179	57.426	-0.170	0.167
-397.165	113.844	-0.114	0.140
-396.150	-84.434	-0.150	0.048
-395.136	179.949	-0.090	0.132
-394.121	-41.872	0.196	-0.101
-393.106	99.934	-0.169	-0.198
-392.092	-113.912	0.528	-0.103
-391.077	141.511	0.118	0.157
-390.063	-73.167	-0.152	0.056
-389.048	573.663	0.118	0.291
-388.033	-200.000	0.053	0.415
-387.019	104.918	0.064	0.077
-386.004	-101.560	-0.418	0.102
-384.990	-200.000	0.002	-0.047
-383.975	-52.526	-0.053	-0.025
-382.960	-167.603	-0.126	0.005
-381.946	-85.889	-0.320	0.100
-380.931	-163.147	0.122	-0.006
-379.917	43.926	0.177	0.164
-378.902	-200.000	-0.038	-0.347
-377.888	-115.183	-0.140	-0.027
-376.873	-89.367	0.174	0.052
-375.858	800.000	0.032	0.141
-374.844	-31.838	-0.359	-0.203
-373.829	-6.834	-0.344	0.236
-372.815	-200.000	0.055	0.296
-371.800	264.840	0.130	0.228
-370.785	-99.173	0.180	0.046
-369.771	385.360	0.033	0.068
-368.756	55.192	0.194	-0.189
-367.742	800.000	-0.069	0.219
-366.727	328.389	0.063	0.122
-365.712	-126.409	-0.358	0.054
-364.698	-200.000	0.064	-0.437
-363.683	-200.000	0.007	-0.278
-362.669	-200.000	-0.000	0.065
-361.654	800.000	0.023	-0.092
-360.639	-200.000	0.024	-0.169
-359.625	669.151	-0.019	0.051
-358.610	-116.298	0.405	0.075
-357.596	-62.764	0.296	0.124
-356.581	-145.978	-0.153	0.014
-355.566	-68.805	-0.116	0.045
-354.552	27.436	-0.020	-0.017
-353.537	-72.908	0.090	0.033
-352.523	-185.310	-0.411	0.006
-351.508	-200.000	0.013	-0.105
-350.493	81.675	-0.261	-0.284
-349.479	3.405	0.273	-0.200
-348.464	-167.123	-0.239	0.010
-347.450	90.839	0.242	-0.273
-346.435	-69.860	0.273	-0.105
-345.420	284.197	-0.105	0.190
-344.406	-200.000	0.064	0.285
-343.391	-7.561	0.257	-0.175
-342.377	800.000	-0.082	0.257
-341.362	-200.000	0.013	0.144
-340.348	468.342	-0.197	0.444
-339.333	423.128	-0.090	-0.195
-338.318	-34.353	0.118	-0.065
-337.304	800.000	-0.135	0.519
-336.289	-7.162	0.188	0.128
-335.275	-200.000	0.008	-0.210
-334.260	-119.538	0.146	-0.025
-333.245	800.000	0.046	0.136
-332.231	-1.082	0.258	-0.184
-331.216	800.000	-0.070	-0.276
-330.202	-107.722	0.172	-0.038
-329.187	83.959	0.144	0.158
-328.172	-200.000	-0.018	-0.209
-327.158	-200.000	0.071	-0.330
-326.143	165.522	0.173	-0.246
-325.129	-104.066	-0.149	0.035
-324.114	360.578	0.054	-0.108
-323.099	-134.223	-0.052	0.006
-322.085	800.000	-0.082	-0.310
-321.070	-200.000	-0.040	-0.184
-320.056	-18.356	0.321	-0.202
-319.041	-114.667	0.405	-0.078
-318.026	-1.070	0.146	-0.104
-317.012	800.000	-0.052	0.185
-315.997	-117.599	0.311	-0.056
-314.983	156.257	0.095	0.131
-313.968	-111.697	-0.346	0.070
-312.953	800.000	0.051	-0.171
-311.939	-42.748	0.316	-0.161
-310.924	9.351	0.188	0.143
-309.910	-55.257	0.256	0.116
-308.895	-166.889	-0.417	-0.017
-307.880	-200.000	-0.026	0.223
-306.866	-89.251	0.383	0.114
-305.851	-63.627	0.122	0.050
-304.837	-152.053	0.314	0.023
-303.822	-136.519	-0.244	0.028
-302.807	182.694	0.079	-0.117
-301.793	-24.883	0.118	0.070
-300.778	-42.948	0.393	0.200
-299.764	481.161	0.036	-0.082
-298.749	-119.227	0.278	0.049
-297.735	51.624	0.196	-0.187
-296.720	-69.540	0.206	0.079
-295.705	623.135	-0.124	0.314
-294.691	165.087	-0.086	0.123
-293.676	-139.643	-0.198	-0.021
-292.662	431.803	0.114	-0.249
-291.647	-28.805	-0.117	0.067
-290.632	41.106	0.158	0.143
-289.618	-68.909	-0.134	0.052
-288.603	135.578	-0.089	-0.117
-287.589	104.939	0.236	0.280
-286.574	53.569	-0.064	-0.061
-285.559	-115.051	0.312	-0.059
-284.545	-131.798	-0.173	0.023
-283.530	-100.272	0.153	0.038
-282.516	800.000	0.081	-0.237
-281.501	-166.589	0.234	0.010
-280.486	97.097	-0.157	-0.180
-279.472	-200.000	0.012	-0.252
-278.457	800.000	-0.020	0.057
-277.443	-9.963	-0.101	0.067
-276.428	-90.296	0.272	-0.079
-275.413	273.771	0.179	0.318
-274.399	-117.773	-0.113	0.020
-273.384	-200.000	0.030	0.221
-272.370	-200.000	-0.042	0.280
-271.355	800.000	0.060	-0.231
-270.340	-92.564	0.096	0.027
-269.326	128.252	-0.042	-0.053
-268.311	151.131	-0.062	0.085
-267.297	-31.354	0.123	-0.070
-266.282	-4.783	-0.080	-0.055
-265.267	-160.167	-0.269	-0.015
-264.253	34.314	0.066	0.058
-263.238	-20.390	-0.210	-0.130
-262.224	800.000	-0.032	-0.103
-261.209	-11.069	-0.059	-0.039
-260.195	42.787	-0.172	-0.157
-259.180	131.749	0.133	-0.172
-258.165	218.709	0.051	0.082
-257.151	-3.334	0.179	0.125
-256.136	-59.720	-0.135	-0.058
-255.122	-162.717	0.114	-0.006
-254.107	206.109	-0.082	0.128
-253.092	800.000	0.022	-0.067
-252.078	800.000	0.056	-0.156
-251.063	-97.180	-0.178	-0.047
-250.049	800.000	-0.034	0.096
-249.034	98.288	-0.170	-0.196
-248.019	649.611	-0.040	-0.102
-247.005	-200.000	0.013	-0.159
-245.990	-145.993	0.372	0.033
-244.976	178.489	0.122	0.178
-243.961	76.785	-0.049	0.052
-242.946	302.242	0.222	-0.412
-241.932	-200.000	-0.031	0.216
-240.917	800.000	-0.038	0.114
-239.903	-96.112	-0.153	0.041
-238.888	-200.000	-0.042	-0.233
-237.873	-156.053	0.503	-0.032
-236.859	-91.355	-0.095	-0.027
-235.844	-15.570	0.257	0.165
-234.830	-33.820	0.140	-0.077
-233.815	330.948	0.126	-0.244
-232.800	-31.682	0.254	0.143
-231.786	-10.264	0.488	0.324
-230.771	-150.548	-0.300	0.023
-229.757	53.393	-0.252	-0.242
-228.742	22.363	-0.134	-0.110
-227.727	147.271	-0.180	0.243
-226.713	63.811	0.238	-0.240
-225.698	44.400	0.147	-0.135
-224.684	-65.104	0.027	0.011
-223.669	-63.948	0.388	0.159
-222.655	75.587	-0.107	0.113
-221.640	773.791	0.060	-0.165
-220.625	-200.000	-0.042	0.201
-219.611	71.440	-0.094	-0.098
-218.596	-112.653	-0.359	-0.072
-217.582	-73.479	0.060	-0.022
-216.567	59.851	-0.084	-0.083
-215.552	-114.726	0.243	0.047
-214.538	-88.808	0.126	0.037
-213.523	-200.000	-0.060	0.310
-212.509	99.221	0.216	-0.250
-211.494	60.548	-0.127	0.126
-210.479	-116.043	0.068	0.013
-209.465	-127.620	0.305	-0.044
-208.450	-25.987	-0.229	-0.135
-207.436	-141.149	0.183	-0.019
-206.421	2.261	-0.290	0.210
-205.406	-47.059	0.037	0.018
-204.392	800.000	-0.154	-0.531
-203.377	-200.000	-0.011	0.207
-202.363	52.611	0.196	-0.188
-201.348	-139.807	0.254	-0.027
-200.333	-193.196	-0.467	-0.004
-199.319	499.446	0.039	0.089
-198.304	87.380	-0.144	0.159
-197.290	127.823	0.185	0.235
-196.275	-72.665	-0.161	0.059
-195.260	-84.918	0.005	0.001
-194.246	-200.000	-0.020	-0.169
-193.231	-200.000	0.031	0.210
-192.217	413.711	0.138	0.294
-191.202	-86.181	-0.090	0.028
-190.187	-200.000	0.021	0.253
-189.173	550.884	0.101	-0.242
-188.158	-200.000	0.012	-0.116
-187.144	326.357	-0.138	-0.265
-186.129	-34.813	0.339	-0.185
-185.114	62.209	-0.209	-0.209
-184.100	110.936	-0.039	-0.047
-183.085	-157.366	-0.267	0.016
-182.071	-181.106	-0.290	0.006
-181.056	355.351	-0.055	0.109
-180.042	475.545	0.020	0.044
-179.027	-12.977	-0.118	0.077
-178.012	104.864	0.141	0.166
-176.998	6.472	0.066	0.049
-175.983	232.953	-0.092	0.151
-174.969	-44.505	0.168	0.084
-173.954	-200.000	-0.014	0.181
-172.939	-32.978	-0.035	-0.019
-171.925	53.431	-0.090	0.086
-170.910	72.377	-0.187	0.195
-169.896	-8.165	0.256	-0.172
-168.881	100.321	-0.201	-0.233
-167.866	-64.215	-0.045	0.018
-166.852	-99.265	0.144	-0.036
-165.837	-50.619	-0.019	-0.009
-164.823	576.960	-0.040	-0.097
-163.808	-149.540	-0.230	-0.018
-162.793	179.774	0.131	0.192
-161.779	-68.062	0.240	-0.094
-160.764	-84.169	0.226	0.072
-159.750	-200.000	-0.015	0.378
-158.735	40.023	-0.142	-0.127
-157.720	-200.000	0.037	0.246
-156.706	-145.318	-0.057	0.005
-155.691	488.778	-0.104	-0.238
-154.677	800.000	-0.137	0.378
-153.662	715.897	0.014	0.038
-152.647	70.848	0.152	0.157
-151.633	-147.492	0.218	0.018
-150.618	289.742	-0.095	0.172
-149.604	-57.622	-0.286	0.125
-148.589	800.000	-0.027	0.095
-147.574	-115.999	-0.401	0.075
-146.560	-200.000	-0.043	-0.235
-145.545	286.037	-0.091	-0.164
-144.531	-72.660	0.451	-0.166
-143.516	-86.438	0.144	-0.044
-142.502	104.537	-0.036	-0.042
-141.487	-200.000	0.031	0.271
-140.472	-79.609	0.100	-0.034
-139.458	781.307	0.101	0.277
-138.443	301.777	0.081	0.150
-137.429	-77.652	-0.041	0.014
-136.414	-14.429	0.155	0.100
-135.399	89.240	-0.245	-0.272
-134.385	50.909	0.173	-0.164
-133.370	-55.155	-0.206	-0.092
-132.356	-144.045	0.047	0.004
-131.341	-200.000	-0.048	0.443
-130.326	-16.345	0.073	-0.046
-129.312	-200.000	0.051	0.382
-128.297	115.819	0.072	-0.087
-127.283	626.208	0.035	0.088
-126.268	151.701	-0.058	0.079
-125.253	40.965	0.237	-0.213
-124.239	-0.017	-0.058	-0.041
-123.224	75.217	-0.050	-0.053
-122.210	73.107	0.098	0.102
-121.195	490.354	-0.166	0.379
