DTS Sentinel unit serial number:	SN413079Multiplexer serial number:	ORYXHardware model number:	OX4-SRSoftware version number:	ORYX F/W v4.00 Oryx Data Collector v3.7.2.0data status	okinstallation	princeton_trtdifferential loss correction	single-endedforward channel	channel 4reverse channel	N/Adate	2019/09/19time	10:17:34forward acquisition time	60.00reverse acquisition time	0.00gamma	496.2192k internal	0.2329k external	0.2329temperature offset calibration	1.0015default loss term (dB/km)	0.3790temperature slope calibration	1.0000multiplexer offset coefficient	1.0000multiplexer slope coefficient	1.0000fibre end	0.00T internal ref (°C)	24.12T ext. ref 1 (°C)	0.69T ext. ref 2 (°C)	19.78length (m)	temperature (°C)	Stokes	anti-Stokes-747.200	109.106	0.179	-0.215
-746.185	64.443	-0.227	-0.231
-745.171	93.849	0.241	0.275
-744.156	-151.100	-0.169	-0.013
-743.142	493.163	0.031	-0.071
-742.127	28.367	-0.348	0.296
-741.112	-116.052	-0.369	-0.069
-740.098	233.574	-0.073	0.121
-739.083	-200.000	0.016	-0.298
-738.069	-142.189	-0.188	0.019
-737.054	20.093	0.155	-0.126
-736.039	-200.000	0.016	-0.274
-735.025	-190.311	0.256	0.003
-734.010	27.020	0.062	0.052
-732.996	77.087	-0.205	0.219
-731.981	-9.840	-0.200	0.134
-730.966	159.401	-0.163	-0.228
-729.952	21.482	0.163	-0.134
-728.937	800.000	-0.057	0.167
-727.923	-200.000	0.002	-0.131
-726.908	-200.000	0.039	-0.276
-725.894	800.000	0.049	-0.173
-724.879	22.806	-0.095	0.078
-723.864	13.327	-0.369	-0.288
-722.850	427.229	0.105	-0.229
-721.835	-109.415	-0.327	0.070
-720.821	-115.801	-0.185	0.035
-719.806	526.509	0.078	-0.184
-718.791	-200.000	0.115	-0.527
-717.777	538.158	0.118	-0.283
-716.762	91.490	0.141	-0.160
-715.748	800.000	-0.136	0.403
-714.733	-200.000	-0.017	0.176
-713.718	-29.460	0.474	0.273
-712.704	130.555	-0.240	0.310
-711.689	-68.826	0.139	-0.054
-710.675	204.023	-0.104	-0.162
-709.660	85.464	-0.069	-0.077
-708.645	327.621	0.181	-0.350
-707.631	-54.544	0.155	-0.071
-706.616	278.046	0.140	-0.251
-705.602	86.516	0.041	-0.046
-704.587	71.795	-0.222	-0.232
-703.572	-23.605	0.214	-0.129
-702.558	249.603	-0.057	0.097
-701.543	211.945	-0.105	0.166
-700.529	-106.607	0.368	0.082
-699.514	341.652	-0.078	-0.154
-698.499	97.514	-0.094	-0.109
-697.485	653.411	-0.084	-0.217
-696.470	-30.041	-0.348	0.199
-695.456	-200.000	0.001	-0.539
-694.441	19.014	0.240	-0.194
-693.426	-200.000	0.098	0.589
-692.412	34.687	0.254	0.223
-691.397	-200.000	0.070	-0.653
-690.383	-96.326	0.133	0.035
-689.368	-200.000	-0.015	-0.167
-688.354	-15.497	0.227	0.145
-687.339	-130.240	-0.189	0.026
-686.324	-200.000	-0.030	0.155
-685.310	287.886	-0.207	0.376
-684.295	-129.934	-0.103	-0.014
-683.281	44.470	0.016	0.014
-682.266	-200.000	-0.012	0.284
-681.251	17.906	-0.229	0.183
-680.237	469.300	-0.139	0.313
-679.222	103.054	0.217	0.256
-678.208	-200.000	0.009	-0.222
-677.193	-140.965	0.273	-0.028
-676.178	165.967	0.145	0.206
-675.164	800.000	0.069	-0.277
-674.149	156.038	-0.109	-0.152
-673.135	800.000	0.022	-0.072
-672.120	-200.000	-0.055	-0.462
-671.105	188.201	0.245	-0.368
-670.091	19.527	-0.270	-0.218
-669.076	262.800	0.158	0.276
-668.062	424.085	0.101	0.219
-667.047	372.821	0.144	0.295
-666.032	104.179	-0.127	-0.150
-665.018	800.000	0.054	-0.158
-664.003	-118.587	-0.290	0.051
-662.989	-126.267	0.287	0.043
-661.974	-119.614	-0.312	0.054
-660.959	210.620	-0.037	0.059
-659.945	-200.000	0.004	0.121
-658.930	-62.305	-0.170	0.071
-657.916	15.049	-0.199	-0.157
-656.901	-200.000	-0.004	-0.353
-655.886	18.961	-0.119	0.096
-654.872	-70.385	-0.220	-0.084
-653.857	141.918	0.132	-0.175
-652.843	-16.124	-0.282	-0.180
-651.828	148.104	-0.048	0.065
-650.814	30.678	0.270	-0.232
-649.799	157.139	-0.072	0.099
-648.784	181.276	0.079	-0.116
-647.770	246.186	0.030	0.050
-646.755	222.946	0.051	-0.083
-645.741	4.195	-0.215	-0.158
-644.726	-46.458	-0.116	0.057
-643.711	-7.523	0.207	0.141
-642.697	-45.574	-0.173	0.086
-641.682	-200.000	-0.117	0.583
-640.668	-200.000	0.013	0.078
-639.653	453.159	0.152	-0.337
-638.638	-200.000	-0.010	0.147
-637.624	-29.482	-0.315	-0.181
-636.609	9.616	0.286	-0.217
-635.595	774.314	0.174	-0.475
-634.580	23.269	-0.209	0.172
-633.565	-200.000	-0.017	-0.107
-632.551	8.607	-0.040	0.030
-631.536	-86.552	0.338	0.104
-630.522	-83.827	-0.258	0.083
-629.507	-30.720	-0.130	-0.074
-628.492	470.967	-0.160	-0.361
-627.478	-168.552	-0.299	0.011
-626.463	-114.866	0.307	0.059
-625.449	800.000	-0.037	0.126
-624.434	280.005	-0.019	-0.033
-623.419	-34.805	-0.272	-0.149
-622.405	149.334	-0.063	0.086
-621.390	-200.000	0.016	0.240
-620.376	-134.970	-0.432	-0.052
-619.361	138.637	-0.116	-0.153
-618.346	-200.000	-0.020	-0.129
-617.332	-12.128	-0.324	0.213
-616.317	800.000	-0.052	0.209
-615.303	598.170	0.142	0.353
-614.288	334.007	0.133	-0.258
-613.273	-28.038	0.196	-0.114
-612.259	-200.000	-0.040	0.201
-611.244	490.073	0.061	-0.141
-610.230	-4.762	-0.182	0.126
-609.215	175.320	0.174	-0.253
-608.201	327.469	-0.054	0.104
-607.186	800.000	0.096	-0.290
-606.171	-200.000	-0.005	0.048
-605.157	800.000	-0.103	0.342
-604.142	228.222	0.114	-0.187
-603.128	-153.778	-0.166	-0.011
-602.113	-12.153	0.159	0.104
-601.098	-90.509	0.248	-0.072
-600.084	29.190	-0.205	-0.174
-599.069	-200.000	0.015	0.267
-598.055	38.862	0.129	-0.115
-597.040	-181.273	0.104	-0.002
-596.025	-200.000	-0.049	0.219
-595.011	-139.748	-0.160	-0.017
-593.996	-200.000	-0.015	0.306
-592.982	-46.470	-0.221	0.109
-591.967	140.102	-0.078	0.104
-590.952	138.463	-0.105	0.138
-589.938	22.455	0.125	-0.102
-588.923	55.151	-0.342	-0.331
-587.909	397.206	0.065	-0.136
-586.894	-200.000	0.010	-0.212
-585.879	-200.000	-0.003	0.098
-584.865	-38.228	0.358	0.190
-583.850	-1.675	-0.300	-0.212
-582.836	772.859	-0.091	-0.247
-581.821	-200.000	-0.026	-0.164
-580.806	-121.345	-0.105	0.018
-579.792	-68.317	0.118	0.046
-578.777	-104.298	0.123	0.028
-577.763	85.937	0.031	-0.035
-576.748	-11.094	0.171	0.113
-575.733	293.074	-0.110	-0.200
-574.719	-16.860	-0.104	0.066
-573.704	299.171	0.241	-0.444
-572.690	73.555	0.252	-0.264
-571.675	800.000	0.110	-0.333
-570.661	-134.151	-0.213	0.026
-569.646	-200.000	0.025	0.208
-568.631	-200.000	-0.057	-0.281
-567.617	-71.244	0.187	0.070
-566.602	800.000	-0.109	-0.455
-565.588	-164.384	-0.205	-0.009
-564.573	-166.201	0.164	-0.007
-563.558	-59.278	-0.081	0.035
-562.544	-200.000	-0.033	0.152
-561.529	-66.431	-0.254	0.101
-560.515	41.254	0.194	0.175
-559.500	800.000	-0.138	-0.536
-558.485	800.000	0.034	0.114
-557.471	800.000	0.031	-0.107
-556.456	15.349	0.122	0.096
-555.442	53.907	-0.362	0.347
-554.427	-200.000	-0.001	-0.178
-553.412	-200.000	-0.122	0.543
-552.398	-41.004	-0.273	-0.141
-551.383	-188.753	-0.281	-0.003
-550.369	271.577	-0.116	-0.205
-549.354	229.525	0.102	0.166
-548.339	-200.000	0.051	-0.366
-547.325	24.772	0.240	-0.199
-546.310	-200.000	-0.018	-0.275
-545.296	-41.935	0.285	-0.146
-544.281	-58.853	0.137	0.059
-543.266	-93.396	0.192	-0.053
-542.252	-200.000	0.006	-0.654
-541.237	-108.762	0.352	0.075
-540.223	-81.862	-0.245	-0.080
-539.208	-78.153	0.036	0.012
-538.193	-200.000	-0.008	0.116
-537.179	-117.643	0.171	-0.031
-536.164	207.868	0.104	0.162
-535.150	-61.818	-0.367	-0.154
-534.135	436.720	0.147	0.319
-533.121	-62.798	-0.318	0.132
-532.106	-32.633	0.117	0.065
-531.091	-200.000	-0.048	0.502
-530.077	-147.374	-0.310	-0.026
-529.062	257.151	0.051	0.088
-528.048	-200.000	0.019	-0.098
-527.033	24.305	0.091	0.075
-526.018	-200.000	0.008	0.160
-525.004	-72.073	-0.346	0.128
-523.989	55.671	-0.029	0.028
-522.975	104.863	-0.129	-0.152
-521.960	448.152	0.093	-0.205
-520.945	224.582	0.029	0.047
-519.931	7.749	-0.352	-0.264
-518.916	135.515	-0.063	-0.082
-517.902	-17.198	0.041	-0.026
-516.887	-200.000	-0.011	-0.088
-515.872	800.000	-0.050	0.142
-514.858	94.687	0.076	-0.086
-513.843	-8.674	-0.048	0.032
-512.829	117.887	-0.170	-0.210
-511.814	-137.334	-0.106	-0.012
-510.799	-26.072	-0.545	-0.320
-509.785	17.547	-0.079	0.063
-508.770	-107.745	0.263	0.057
-507.756	-69.583	-0.066	0.025
-506.741	-22.222	-0.273	0.165
-505.726	-200.000	0.024	0.358
-504.712	241.850	0.048	-0.081
-503.697	68.384	0.232	-0.237
-502.683	154.240	0.207	0.283
-501.668	800.000	0.086	-0.258
-500.653	-53.407	-0.279	0.127
-499.639	800.000	-0.039	-0.114
-498.624	800.000	0.023	-0.085
-497.610	-39.052	0.198	-0.104
-496.595	150.488	-0.059	0.080
-495.581	321.752	0.102	-0.193
-494.566	0.357	-0.251	-0.179
-493.551	32.744	-0.059	0.051
-492.537	-82.104	0.095	-0.031
-491.522	14.098	-0.362	-0.281
-490.508	174.774	0.233	-0.336
-489.493	1.878	-0.123	-0.088
-488.478	-118.603	-0.084	0.015
-487.464	-200.000	0.022	0.284
-486.449	94.581	0.083	0.094
-485.435	205.795	0.155	-0.240
-484.420	278.110	0.107	0.190
-483.405	109.634	0.140	0.168
-482.391	-200.000	0.044	0.288
-481.376	415.194	0.027	0.058
-480.362	387.900	0.165	0.340
-479.347	800.000	-0.023	0.086
-478.332	129.745	0.281	-0.358
-477.318	-24.115	-0.231	-0.138
-476.303	45.372	0.047	-0.043
-475.289	-200.000	-0.071	0.000
-474.274	764.439	-0.080	-0.216
-473.259	-200.000	-0.013	0.067
-472.245	-162.439	0.236	0.012
-471.230	-41.924	-0.238	-0.122
-470.216	-200.000	0.005	0.157
-469.201	240.046	-0.042	0.070
-468.186	-154.081	-0.105	0.007
-467.172	202.578	0.082	0.126
-466.157	511.150	-0.164	-0.380
-465.143	-38.107	0.084	0.045
-464.128	-146.027	-0.414	-0.036
-463.113	169.290	0.153	0.217
-462.099	-105.763	-0.381	0.086
-461.084	21.259	0.143	-0.115
-460.070	-200.000	0.005	0.064
-459.055	-200.000	0.009	-0.272
-458.040	-50.702	0.273	-0.128
-457.026	-88.575	-0.230	0.068
-456.011	-200.000	-0.013	-0.163
-454.997	390.933	-0.064	-0.132
-453.982	41.691	0.234	0.211
-452.968	-127.854	0.296	0.042
-451.953	112.771	0.188	-0.227
-450.938	800.000	0.023	-0.066
-449.924	-165.617	-0.243	0.010
-448.909	412.081	-0.092	0.194
-447.895	-200.000	0.026	0.282
-446.880	800.000	-0.119	0.390
-445.865	2.487	-0.193	0.139
-444.851	-109.904	0.346	0.072
-443.836	800.000	-0.025	0.104
-442.822	476.593	0.165	-0.372
-441.807	767.854	-0.086	-0.234
-440.792	-60.556	-0.235	0.099
-439.778	-154.987	0.195	-0.013
-438.763	89.359	0.238	0.264
-437.749	800.000	-0.038	0.151
-436.734	800.000	0.035	-0.100
-435.719	-200.000	0.016	-0.081
-434.705	90.820	0.071	0.080
-433.690	543.129	0.085	-0.201
-432.676	639.712	-0.106	0.269
-431.661	-184.232	0.205	0.003
-430.646	-80.362	-0.400	-0.133
-429.632	-62.400	0.218	0.090
-428.617	275.177	-0.143	0.252
-427.603	-81.296	-0.211	0.069
-426.588	236.895	0.096	-0.157
-425.573	226.797	-0.067	0.109
-424.559	-6.839	0.178	-0.121
-423.544	-87.339	0.167	-0.050
-422.530	-20.293	-0.448	0.274
-421.515	-108.234	0.236	0.051
-420.500	-134.009	-0.201	0.025
-419.486	528.895	-0.032	0.075
-418.471	-95.349	-0.401	0.107
-417.457	47.717	-0.099	-0.092
-416.442	-200.000	-0.054	0.343
-415.428	-74.949	-0.155	0.055
-414.413	73.115	-0.115	0.119
-413.398	10.945	0.325	0.247
-412.384	-102.290	-0.171	0.041
-411.369	127.893	-0.085	0.107
-410.355	364.207	0.056	-0.111
-409.340	73.152	-0.128	-0.133
-408.325	-126.834	0.180	-0.026
-407.311	-72.828	-0.337	-0.123
-406.296	623.865	-0.093	-0.233
-405.282	-156.061	0.217	-0.014
-404.267	-99.130	0.435	-0.110
-403.252	129.490	-0.240	0.305
-402.238	-168.830	0.249	-0.009
-401.223	800.000	-0.043	-0.167
-400.209	-124.497	-0.297	0.046
-399.194	-92.604	-0.175	0.049
-398.179	-200.000	-0.018	0.083
-397.165	-200.000	-0.022	0.246
-396.150	124.156	-0.155	0.193
-395.136	55.114	0.149	0.143
-394.121	-10.548	0.268	-0.176
-393.106	-33.081	0.463	-0.255
-392.092	112.308	-0.070	-0.084
-391.077	-74.537	-0.361	-0.129
-390.063	-4.504	0.106	0.072
-389.048	-152.805	-0.328	0.023
-388.033	37.279	0.124	0.109
-387.019	-15.510	0.060	0.038
-386.004	-171.205	-0.217	-0.007
-384.990	212.818	0.132	0.206
-383.975	-68.410	0.149	0.058
-382.960	131.614	-0.174	0.222
-381.946	15.016	-0.181	-0.141
-380.931	-135.521	-0.198	-0.023
-379.917	-90.030	-0.189	-0.055
-378.902	-124.662	-0.133	-0.020
-377.888	-33.980	-0.375	0.205
-376.873	543.372	0.081	-0.192
-375.858	82.466	-0.249	-0.268
-374.844	64.875	0.158	-0.158
-373.829	156.686	-0.172	0.236
-372.815	259.714	0.049	-0.085
-371.800	-142.454	-0.211	0.021
-370.785	-200.000	-0.008	0.247
-369.771	-200.000	0.005	0.152
-368.756	-119.329	-0.107	-0.018
-367.742	642.979	0.082	0.209
-366.727	-41.552	-0.102	-0.052
-365.712	120.029	-0.133	0.164
-364.698	612.443	0.051	0.127
-363.683	-14.645	-0.087	0.055
-362.669	73.292	0.095	-0.098
-361.654	496.589	0.089	0.203
-360.639	-48.695	-0.056	0.027
-359.625	-200.000	-0.016	-0.207
-358.610	-182.390	-0.212	-0.004
-357.596	-137.716	0.352	-0.039
-356.581	256.110	0.029	-0.049
-355.566	-107.068	-0.354	0.078
-354.552	555.213	-0.047	-0.111
-353.537	-75.752	0.217	0.076
-352.523	46.883	-0.204	0.188
-351.508	321.376	-0.102	0.192
-350.493	-36.952	-0.113	-0.060
-349.479	800.000	0.148	0.431
-348.464	232.137	-0.107	-0.174
-347.450	336.520	-0.159	0.307
-346.435	16.006	-0.121	-0.094
-345.420	206.546	0.172	-0.266
-344.406	800.000	0.033	-0.120
-343.391	433.027	-0.042	-0.090
-342.377	441.179	0.088	-0.191
-341.362	-83.337	-0.241	0.077
-340.348	-85.612	-0.122	0.037
-339.333	-187.652	0.474	-0.006
-338.318	-158.792	0.076	-0.004
-337.304	-200.000	0.029	-0.150
-336.289	-175.449	-0.021	0.001
-335.275	19.387	0.072	0.058
-334.260	-82.281	-0.101	0.033
-333.245	-200.000	-0.086	0.404
-332.231	-110.365	-0.167	-0.034
-331.216	104.809	0.368	-0.430
-330.202	-200.000	-0.022	0.143
-329.187	-88.508	-0.115	0.034
-328.172	508.982	-0.127	-0.293
-327.158	-139.840	-0.151	-0.016
-326.143	202.567	0.072	0.110
-325.129	192.929	0.233	-0.349
-324.114	-13.072	0.195	0.125
-323.099	-47.624	-0.235	0.113
-322.085	175.419	-0.125	-0.180
-321.070	800.000	-0.119	-0.406
-320.056	-133.973	-0.120	-0.015
-319.041	106.111	0.214	0.251
-318.026	-22.749	0.133	0.080
-317.012	-163.480	-0.136	0.006
-315.997	8.654	0.070	0.052
-314.983	276.575	0.106	-0.187
-313.968	185.184	-0.099	-0.145
-312.953	-124.733	0.214	-0.033
-311.939	-200.000	-0.002	-0.120
-310.924	187.122	0.162	0.239
-309.910	376.820	-0.105	-0.213
-308.895	800.000	0.054	-0.165
-307.880	-105.899	0.158	0.035
-306.866	2.435	-0.153	0.110
-305.851	-67.819	0.041	0.016
-304.837	460.295	-0.043	-0.095
-303.822	-117.854	0.208	-0.037
-302.807	-154.303	-0.307	-0.020
-301.793	-171.321	0.262	0.009
-300.778	800.000	-0.038	-0.143
-299.764	460.779	-0.068	0.150
-298.749	-147.773	-0.018	0.001
-297.735	-43.016	0.345	0.173
-296.720	-200.000	0.055	0.511
-295.705	248.075	-0.239	-0.400
-294.691	-144.348	0.328	-0.030
-293.676	169.739	0.123	-0.174
-292.662	46.250	0.264	-0.242
-291.647	-77.335	-0.121	0.042
-290.632	11.932	0.195	0.149
-289.618	189.555	0.117	0.174
-288.603	489.299	-0.111	0.251
-287.589	-200.000	-0.005	-0.226
-286.574	-136.278	0.076	0.009
-285.559	-45.344	-0.234	-0.115
-284.545	207.730	0.054	-0.083
-283.530	19.689	-0.181	0.144
-282.516	-136.829	0.216	0.025
-281.501	800.000	0.034	-0.145
-280.486	-108.840	0.116	-0.025
-279.472	-97.617	0.182	-0.047
-278.457	-16.190	0.171	0.108
-277.443	-140.737	-0.151	-0.015
-276.428	-200.000	0.046	-0.205
-275.413	584.568	0.078	-0.189
-274.399	217.960	-0.181	-0.285
-273.384	-125.881	0.165	0.025
-272.370	-11.384	0.184	0.120
-271.355	-1.588	-0.352	-0.245
-270.340	-152.115	0.095	0.007
-269.326	-142.118	0.077	-0.008
-268.311	-106.472	-0.221	-0.049
-267.297	800.000	0.073	0.259
-266.282	-42.761	-0.240	0.121
-265.267	-80.002	0.200	-0.066
-264.253	-9.281	-0.140	-0.092
-263.238	-140.054	-0.120	-0.012
-262.224	800.000	-0.053	0.181
-261.209	486.753	0.040	-0.090
-260.195	-188.009	0.210	0.003
-259.180	-19.793	0.283	-0.173
-258.165	624.390	0.105	0.262
-257.151	-200.000	-0.047	0.218
-256.136	274.633	-0.118	0.207
-255.122	-99.089	0.178	0.045
-254.107	146.755	0.179	0.237
-253.092	-200.000	-0.015	0.091
-252.078	-52.495	0.136	0.062
-251.063	-33.178	0.163	-0.089
-250.049	48.504	0.302	0.279
-249.034	96.377	-0.051	0.057
-248.019	-200.000	-0.012	-0.194
-247.005	541.134	0.080	0.189
-245.990	-162.549	-0.177	0.009
-244.976	-89.350	0.201	0.059
-243.961	-74.241	-0.301	-0.108
-242.946	296.801	-0.101	0.184
-241.932	-200.000	0.004	0.249
-240.917	-85.974	-0.134	0.041
-239.903	-59.018	0.419	0.179
-238.888	6.392	-0.230	-0.169
-237.873	101.166	-0.326	-0.375
-236.859	-117.358	0.413	-0.074
-235.844	-74.900	-0.412	-0.146
-234.830	-200.000	0.049	0.403
-233.815	-200.000	0.003	-0.396
-232.800	237.953	-0.099	0.163
-231.786	-46.845	-0.271	-0.131
-230.771	-33.387	0.054	0.030
-229.757	210.507	0.185	-0.287
-228.742	800.000	0.067	-0.213
-227.727	-42.169	0.275	-0.139
-226.713	228.064	-0.041	-0.066
-225.698	89.026	0.122	-0.134
-224.684	800.000	0.124	-0.375
-223.669	133.994	-0.178	-0.228
-222.655	-124.312	0.015	-0.002
-221.640	382.833	-0.070	0.143
-220.625	-4.489	0.243	-0.165
-219.611	341.302	0.128	0.247
-218.596	-64.059	-0.121	-0.049
-217.582	558.194	-0.052	-0.123
-216.567	-132.675	0.524	0.066
-215.552	428.435	0.027	0.058
-214.538	-58.913	-0.029	-0.012
-213.523	288.235	-0.036	-0.064
-212.509	-72.172	0.274	0.100
-211.494	370.634	-0.097	-0.193
-210.479	-20.235	0.426	-0.259
-209.465	176.328	0.145	0.208
-208.450	320.423	0.118	0.221
-207.436	7.851	0.215	-0.159
-206.421	-20.760	0.154	0.093
-205.406	-136.334	-0.330	-0.038
-204.392	-19.119	-0.054	0.033
-203.377	800.000	-0.091	0.351
-202.363	-111.012	-0.260	-0.053
-201.348	-137.344	0.220	0.025
-200.333	793.947	-0.067	0.181
-199.319	110.732	-0.090	0.106
-198.304	41.306	-0.128	0.114
-197.290	-5.861	-0.121	0.082
-196.275	22.310	0.330	-0.266
-195.260	121.809	0.113	-0.139
-194.246	-80.358	-0.209	0.069
-193.231	422.711	0.117	0.247
-192.217	365.835	-0.130	0.259
-191.202	-87.464	0.380	0.113
-190.187	800.000	-0.020	-0.078
-189.173	-47.900	0.027	0.013
-188.158	59.987	0.232	0.226
-187.144	59.944	0.305	0.297
-186.129	-35.274	0.435	0.233
-185.114	-121.122	-0.537	-0.089
-184.100	47.226	-0.070	-0.064
-183.085	-200.000	0.038	-0.388
-182.071	-96.599	0.020	0.005
-181.056	296.799	0.113	-0.205
-180.042	773.661	0.025	0.068
-179.027	-165.858	-0.045	-0.002
-178.012	-200.000	-0.016	0.330
-176.998	800.000	-0.002	0.008
-175.983	-47.074	-0.307	-0.147
-174.969	-200.000	-0.095	-0.000
-173.954	320.476	0.224	0.419
-172.939	-68.114	0.238	-0.091
-171.925	142.465	0.170	-0.222
-170.910	17.635	0.232	0.182
-169.896	800.000	-0.008	0.025
-168.881	-163.005	-0.192	-0.009
-167.866	-21.237	0.052	0.031
-166.852	-108.410	0.583	0.124
-165.837	800.000	0.095	-0.319
-164.823	-49.066	-0.213	-0.100
-163.808	307.209	0.202	0.370
-162.793	618.981	0.086	-0.214
-161.779	800.000	-0.058	-0.244
-160.764	-55.282	0.388	0.172
-159.750	188.641	0.104	-0.153
-158.735	-200.000	0.045	0.234
-157.720	228.318	-0.162	0.259
-156.706	-47.956	0.074	-0.035
-155.691	-58.288	0.109	0.047
-154.677	568.209	-0.043	-0.102
-153.662	-200.000	0.022	0.366
-152.647	151.389	0.134	0.180
-151.633	-200.000	-0.031	-0.285
-150.618	-21.256	-0.311	0.187
-149.604	453.660	0.023	0.049
-148.589	-200.000	0.064	0.287
-147.574	102.021	0.096	0.110
-146.560	-200.000	0.035	0.224
-145.545	-105.589	0.405	-0.090
-144.531	10.544	-0.293	0.220
-143.516	800.000	-0.035	0.136
-142.502	800.000	0.127	-0.452
-141.487	-92.051	-0.350	0.098
-140.472	56.191	-0.085	0.081
-139.458	179.881	0.179	-0.258
-138.443	-3.808	-0.082	0.056
-137.429	166.653	0.076	-0.106
-136.414	-74.634	-0.106	-0.038
-135.399	215.520	-0.137	-0.214
-134.385	160.142	0.051	0.070
-133.370	738.903	0.064	0.168
-132.356	634.232	0.106	-0.265
-131.341	37.157	0.174	-0.151
-130.326	-36.490	0.289	-0.153
-129.312	523.627	-0.076	-0.175
-128.297	800.000	0.044	-0.181
-127.283	197.661	-0.041	-0.061
-126.268	599.378	0.091	0.222
-125.253	-164.213	0.318	-0.014
-124.239	800.000	-0.067	-0.188
-123.224	-185.134	-0.123	0.002
-122.210	-145.174	0.419	0.037
-121.195	800.000	-0.054	0.181
