DTS Sentinel unit serial number:	SN413079Multiplexer serial number:	ORYXHardware model number:	OX4-SRSoftware version number:	ORYX F/W v4.00 Oryx Data Collector v3.7.2.0data status	okinstallation	princeton_trtdifferential loss correction	single-endedforward channel	channel 4reverse channel	N/Adate	2019/09/15time	18:45:35forward acquisition time	60.00reverse acquisition time	0.00gamma	496.2192k internal	0.2278k external	0.2278temperature offset calibration	0.9919default loss term (dB/km)	0.3790temperature slope calibration	1.0000multiplexer offset coefficient	1.0000multiplexer slope coefficient	1.0000fibre end	0.00T internal ref (°C)	43.39T ext. ref 1 (°C)	6.89T ext. ref 2 (°C)	35.37length (m)	temperature (°C)	Stokes	anti-Stokes-747.200	103.919	0.105	0.128
-746.185	44.228	-0.057	0.054
-745.171	-23.922	0.262	-0.162
-744.156	-196.000	-0.409	-0.003
-743.142	509.699	0.091	-0.218
-742.127	-139.580	0.113	-0.012
-741.112	800.000	-0.018	-0.051
-740.098	-69.861	-0.109	0.043
-739.083	-38.959	0.283	0.154
-738.069	709.842	-0.041	0.112
-737.054	103.447	0.092	-0.111
-736.039	10.329	-0.266	0.208
-735.025	-200.000	-0.003	0.237
-734.010	-10.808	-0.268	-0.182
-732.996	-11.036	-0.046	-0.031
-731.981	-200.000	-0.041	-0.246
-730.966	-186.451	-0.267	-0.004
-729.952	800.000	0.049	-0.181
-728.937	-200.000	0.008	-0.118
-727.923	-68.551	-0.296	-0.118
-726.908	173.673	-0.062	0.091
-725.894	-200.000	-0.042	0.294
-724.879	5.178	0.041	0.031
-723.864	-69.629	-0.153	-0.060
-722.850	352.980	-0.063	0.128
-721.835	442.779	-0.030	-0.067
-720.821	-171.448	-0.366	-0.013
-719.806	-85.294	-0.280	-0.090
-718.791	143.604	0.202	0.277
-717.777	-101.214	-0.354	-0.089
-716.762	-200.000	-0.016	-0.153
-715.748	-200.000	0.057	-0.342
-714.733	-82.545	-0.113	-0.038
-713.718	798.085	0.055	0.156
-712.704	-129.641	0.352	-0.050
-711.689	-30.289	0.209	0.122
-710.675	-85.713	0.259	-0.083
-709.660	-135.032	-0.331	-0.041
-708.645	222.469	-0.085	0.140
-707.631	-10.902	-0.415	-0.282
-706.616	-200.000	-0.016	-0.146
-705.602	359.991	0.114	-0.234
-704.587	128.503	-0.089	-0.116
-703.572	-200.000	0.103	0.473
-702.558	-200.000	0.377	0.002
-701.543	800.000	-0.089	0.398
-700.529	-120.715	-0.295	-0.051
-699.514	-66.023	-0.148	0.061
-698.499	-101.909	-0.212	0.053
-697.485	386.549	-0.195	-0.413
-696.470	74.760	-0.021	0.022
-695.456	-97.477	-0.249	-0.066
-694.441	-200.000	-0.031	-0.161
-693.426	176.809	-0.068	-0.102
-692.412	232.685	-0.174	-0.294
-691.397	279.620	-0.071	-0.130
-690.383	0.360	0.162	0.119
-689.368	132.569	-0.049	0.065
-688.354	-200.000	-0.066	0.312
-687.339	-200.000	-0.058	0.297
-686.324	800.000	0.104	0.380
-685.310	511.200	0.089	0.212
-684.295	42.102	0.043	-0.040
-683.281	289.622	0.081	-0.150
-682.266	800.000	-0.022	-0.089
-681.251	-119.891	-0.179	-0.032
-680.237	-92.960	-0.093	0.027
-679.222	-200.000	0.016	0.213
-678.208	-146.644	-0.109	-0.010
-677.193	0.129	-0.231	-0.169
-676.178	-8.744	0.091	-0.062
-675.164	-94.006	0.106	-0.030
-674.149	-3.821	0.024	0.017
-673.135	38.266	-0.173	0.158
-672.120	-99.840	-0.115	-0.029
-671.105	47.167	0.218	0.208
-670.091	638.160	-0.050	-0.132
-669.076	-200.000	0.018	-0.151
-668.062	-6.912	0.195	0.136
-667.047	-178.784	0.102	-0.002
-666.032	232.848	0.140	-0.237
-665.018	171.006	0.116	0.170
-664.003	347.222	0.109	-0.221
-662.989	23.509	0.054	-0.046
-661.974	-200.000	-0.017	-0.141
-660.959	102.042	-0.109	0.131
-659.945	-73.668	-0.177	0.066
-658.930	159.649	-0.113	-0.162
-657.916	800.000	0.005	0.017
-656.901	16.355	-0.186	0.150
-655.886	34.946	-0.263	0.236
-654.872	-80.475	-0.056	-0.019
-653.857	-76.878	0.232	-0.083
-652.843	800.000	0.081	-0.329
-651.828	-78.906	0.144	-0.050
-650.814	733.302	0.055	0.151
-649.799	-200.000	-0.020	-0.286
-648.784	116.549	0.354	-0.446
-647.770	-200.000	-0.034	-0.162
-646.755	486.566	0.121	-0.283
-645.741	-116.743	-0.195	0.037
-644.726	242.558	-0.201	0.345
-643.711	-183.235	-0.431	0.008
-642.697	-200.000	0.051	0.265
-641.682	-41.817	0.117	-0.062
-640.668	-99.051	-0.181	-0.047
-639.653	-115.833	0.103	0.020
-638.638	82.487	0.056	0.063
-637.624	-140.685	0.354	0.038
-636.609	-85.035	-0.120	0.039
-635.595	238.558	-0.214	-0.365
-634.580	28.162	-0.332	-0.287
-633.565	-50.472	-0.060	0.029
-632.551	12.508	-0.031	-0.025
-631.536	800.000	0.113	0.322
-630.522	32.413	0.084	0.075
-629.507	-200.000	-0.054	0.253
-628.492	312.486	0.144	-0.277
-627.478	393.609	-0.057	-0.122
-626.463	-200.000	-0.041	-0.195
-625.449	-200.000	0.029	-0.167
-624.434	-16.761	-0.158	-0.103
-623.419	13.803	-0.284	-0.226
-622.405	100.639	-0.244	-0.291
-621.390	800.000	0.101	-0.388
-620.376	163.577	-0.136	0.196
-619.361	-27.284	-0.173	-0.103
-618.346	-200.000	0.094	-0.520
-617.332	-52.045	0.056	0.026
-616.317	5.498	-0.027	0.021
-615.303	-45.091	0.370	0.189
-614.288	-200.000	0.015	0.091
-613.273	0.190	0.137	-0.100
-612.259	782.726	0.022	-0.062
-611.244	-17.031	-0.140	0.091
-610.230	165.806	0.139	-0.201
-609.215	800.000	0.021	0.059
-608.201	426.080	0.068	0.150
-607.186	-200.000	-0.024	0.193
-606.171	1.502	0.168	-0.124
-605.157	800.000	0.059	-0.186
-604.142	-114.665	-0.204	-0.040
-603.128	123.045	0.176	0.226
-602.113	800.000	0.069	0.274
-601.098	-200.000	-0.004	0.125
-600.084	140.115	0.122	-0.165
-599.069	-200.000	0.012	-0.072
-598.055	800.000	-0.051	-0.174
-597.040	-148.625	0.120	-0.010
-596.025	-200.000	-0.015	-0.245
-595.011	800.000	-0.102	0.455
-593.996	-112.668	-0.247	0.050
-592.982	387.558	0.086	-0.182
-591.967	274.243	-0.057	-0.103
-590.952	800.000	-0.036	0.112
-589.938	63.959	0.051	0.052
-588.923	-200.000	-0.041	-0.296
-587.909	674.981	0.064	0.169
-586.894	-101.810	-0.255	-0.063
-585.879	-200.000	0.006	0.173
-584.865	-28.794	-0.209	-0.123
-583.850	40.240	0.119	0.110
-582.836	42.331	-0.209	-0.194
-581.821	-200.000	-0.026	-0.209
-580.806	55.881	-0.105	-0.105
-579.792	800.000	0.089	-0.287
-578.777	-200.000	0.011	-0.178
-577.763	573.590	-0.199	0.496
-576.748	-200.000	-0.015	0.263
-575.733	-43.812	-0.164	-0.084
-574.719	47.745	-0.103	-0.099
-573.704	800.000	0.031	-0.101
-572.690	-81.698	-0.158	0.053
-571.675	0.546	-0.200	0.146
-570.661	264.127	0.066	-0.118
-569.646	41.365	0.364	-0.337
-568.631	-31.604	-0.184	-0.106
-567.617	-175.746	-0.377	0.010
-566.602	539.115	0.084	0.205
-565.588	40.062	-0.046	0.042
-564.573	-31.991	0.224	-0.128
-563.558	-117.555	-0.109	-0.020
-562.544	-200.000	-0.006	0.113
-561.529	88.344	-0.077	0.087
-560.515	-1.481	0.101	-0.073
-559.500	210.014	0.124	0.199
-558.485	-200.000	0.036	0.645
-557.471	62.890	-0.078	-0.079
-556.456	-16.014	-0.147	0.096
-555.442	-200.000	-0.007	0.126
-554.427	-23.079	-0.261	0.160
-553.412	358.164	0.113	0.230
-552.398	-200.000	-0.021	0.186
-551.383	221.147	-0.034	-0.056
-550.369	-135.864	0.132	0.016
-549.354	-169.062	0.347	-0.013
-548.339	302.179	0.107	-0.202
-547.325	800.000	0.088	-0.289
-546.310	67.660	0.167	0.174
-545.296	23.689	0.140	0.118
-544.281	-164.459	-0.415	0.019
-543.266	98.242	-0.095	0.111
-542.252	-32.274	0.107	0.061
-541.237	800.000	-0.024	0.081
-540.223	-116.700	-0.190	0.036
-539.208	116.923	-0.118	0.148
-538.193	34.805	-0.200	0.179
-537.179	-49.287	-0.132	-0.064
-536.164	-14.558	0.227	-0.149
-535.150	56.206	-0.111	0.111
-534.135	207.285	0.044	0.070
-533.121	362.040	-0.118	0.242
-532.106	-91.750	0.220	-0.064
-531.091	60.916	0.216	-0.219
-530.077	39.759	0.295	0.270
-529.062	162.171	-0.141	0.202
-528.048	800.000	-0.089	0.283
-527.033	-92.647	-0.217	0.062
-526.018	-200.000	-0.023	-0.198
-525.004	425.733	-0.027	-0.059
-523.989	-200.000	-0.004	0.168
-522.975	-88.028	-0.328	-0.101
-521.960	73.302	-0.101	-0.108
-520.945	-127.870	-0.349	0.051
-519.931	-171.338	0.063	-0.002
-518.916	-200.000	-0.011	0.118
-517.902	-5.792	-0.100	-0.070
-516.887	800.000	-0.104	-0.336
-515.872	318.816	0.041	-0.079
-514.858	429.665	0.085	0.188
-513.843	800.000	-0.051	0.156
-512.829	27.033	-0.108	0.093
-511.814	-200.000	0.046	0.360
-510.799	-54.803	-0.098	-0.045
-509.785	-129.378	0.094	-0.013
-508.770	800.000	0.015	0.060
-507.756	-200.000	0.015	-0.368
-506.741	-142.898	0.546	-0.054
-505.726	-90.712	0.256	0.076
-504.712	-61.159	-0.235	0.101
-503.697	-200.000	-0.090	0.649
-502.683	-89.105	0.218	0.066
-501.668	52.466	0.182	-0.177
-500.653	800.000	0.032	0.109
-499.639	-121.006	-0.156	-0.027
-498.624	-200.000	0.009	0.274
-497.610	800.000	-0.059	0.171
-496.595	27.500	-0.092	0.079
-495.581	-86.466	-0.435	0.136
-494.566	339.117	0.090	0.180
-493.551	-200.000	-0.012	-0.205
-492.537	-130.364	0.229	0.032
-491.522	43.825	0.070	-0.065
-490.508	107.217	-0.100	-0.121
-489.493	181.607	0.125	-0.187
-488.478	278.870	-0.072	-0.132
-487.464	800.000	-0.066	-0.217
-486.449	765.770	-0.046	-0.127
-485.435	54.057	0.258	-0.253
-484.420	-165.075	-0.242	0.011
-483.405	288.037	0.051	0.094
-482.391	-69.069	0.213	0.084
-481.376	-83.169	0.103	0.034
-480.362	731.339	-0.130	0.354
-479.347	576.212	0.070	0.175
-478.332	454.975	-0.035	-0.079
-477.318	-35.240	0.154	-0.085
-476.303	-200.000	-0.002	-0.294
-475.289	-22.580	-0.173	-0.107
-474.274	-200.000	0.013	0.148
-473.259	505.434	0.201	0.474
-472.245	483.639	0.101	-0.235
-471.230	188.435	0.074	-0.112
-470.216	124.581	-0.075	0.096
-469.201	-2.452	-0.333	-0.238
-468.186	-58.741	0.192	0.084
-467.172	-95.299	-0.132	0.036
-466.157	-35.608	0.131	-0.073
-465.143	-54.215	-0.405	-0.187
-464.128	-104.574	-0.162	0.038
-463.113	204.598	-0.072	-0.113
-462.099	-200.000	-0.051	-0.291
-461.084	197.098	0.114	0.177
-460.070	10.786	-0.073	0.057
-459.055	75.129	0.252	0.270
-458.040	486.628	-0.038	-0.089
-457.026	265.675	-0.047	-0.084
-456.011	142.294	0.130	-0.176
-454.997	290.425	0.187	0.345
-453.982	135.571	-0.251	0.333
-452.968	-111.236	0.124	0.026
-451.953	176.698	0.161	-0.239
-450.938	-200.000	0.016	-0.079
-449.924	-66.906	-0.058	-0.023
-448.909	326.123	0.131	0.256
-447.895	-58.682	-0.216	-0.095
-446.880	358.189	-0.075	0.152
-445.865	-28.014	-0.188	0.111
-444.851	-64.540	-0.175	0.072
-443.836	226.482	0.149	0.247
-442.822	-200.000	0.005	0.088
-441.807	233.645	0.100	0.168
-440.792	301.894	0.058	-0.109
-439.778	443.179	0.135	-0.300
-438.763	58.164	-0.183	0.182
-437.749	800.000	-0.048	-0.168
-436.734	57.767	0.165	-0.165
-435.719	319.077	0.098	0.188
-434.705	-200.000	0.017	0.175
-433.690	800.000	-0.107	-0.352
-432.676	-44.959	0.283	-0.143
-431.661	-74.963	0.057	-0.021
-430.646	-13.969	-0.079	-0.052
-429.632	-200.000	0.437	-0.002
-428.617	-200.000	-0.005	0.247
-427.603	101.445	-0.124	0.147
-426.588	100.189	0.072	-0.085
-425.573	-200.000	0.050	0.301
-424.559	33.578	0.291	0.258
-423.544	-138.879	0.158	0.017
-422.530	59.299	-0.048	-0.048
-421.515	-70.669	-0.019	0.007
-420.500	-40.658	-0.185	0.098
-419.486	-105.001	-0.430	0.100
-418.471	800.000	-0.011	-0.050
-417.457	124.745	0.160	0.205
-416.442	186.581	-0.009	0.014
-415.428	-183.338	0.208	0.004
-414.413	51.507	-0.290	-0.280
-413.398	-200.000	0.034	0.243
-412.384	-147.829	-0.256	0.022
-411.369	-70.570	0.246	-0.095
-410.355	-40.362	-0.118	-0.062
-409.340	-128.671	0.366	-0.052
-408.325	286.441	0.065	0.119
-407.311	-38.013	-0.097	0.052
-406.296	344.173	-0.058	0.116
-405.282	110.122	0.169	-0.206
-404.267	320.152	-0.095	-0.184
-403.252	-200.000	0.011	-0.061
-402.238	800.000	0.092	-0.372
-401.223	-109.632	-0.044	0.009
-400.209	-113.140	-0.400	0.080
-399.194	35.669	0.244	0.218
-398.179	-83.117	-0.311	-0.102
-397.165	792.095	-0.044	-0.124
-396.150	56.485	0.103	0.102
-395.136	-102.136	0.325	0.079
-394.121	-131.529	0.502	0.067
-393.106	-68.688	0.200	0.079
-392.092	-141.837	-0.082	0.008
-391.077	-200.000	0.003	0.498
-390.063	-200.000	0.014	-0.146
-389.048	-12.252	-0.023	0.016
-388.033	1.963	-0.277	0.203
-387.019	-158.176	0.147	0.009
-386.004	117.149	0.113	0.142
-384.990	800.000	0.110	0.394
-383.975	-47.764	0.189	0.093
-382.960	-200.000	-0.180	0.001
-381.946	117.979	0.045	0.056
-380.931	800.000	-0.042	0.173
-379.917	-56.294	0.059	-0.027
-378.902	444.722	-0.005	-0.010
-377.888	-55.803	-0.217	-0.098
-376.873	-152.100	-0.235	-0.017
-375.858	-200.000	0.294	0.001
-374.844	-200.000	0.033	-0.256
-373.829	-153.502	-0.214	0.015
-372.815	-200.000	0.004	0.240
-371.800	602.990	-0.064	0.161
-370.785	165.882	0.081	0.117
-369.771	-119.394	-0.131	-0.023
-368.756	428.121	-0.051	0.112
-367.742	41.974	-0.050	-0.046
-366.727	-200.000	0.054	-0.422
-365.712	800.000	0.063	0.232
-364.698	-200.000	-0.018	-0.169
-363.683	-107.146	0.573	0.128
-362.669	9.656	-0.312	0.240
-361.654	367.623	-0.204	0.417
-360.639	-200.000	-0.044	-0.209
-359.625	-53.704	-0.155	-0.072
-358.610	-64.596	0.228	-0.094
-357.596	185.873	-0.055	0.082
-356.581	492.333	0.161	0.375
-355.566	-96.921	0.140	-0.037
-354.552	195.427	-0.252	0.389
-353.537	74.527	0.149	0.159
-352.523	800.000	-0.033	-0.099
-351.508	-200.000	0.029	-0.295
-350.493	-8.424	0.026	0.017
-349.479	-200.000	0.008	0.221
-348.464	138.682	-0.244	-0.325
-347.450	-89.146	-0.142	-0.043
-346.435	252.007	0.109	0.188
-345.420	62.946	0.145	0.147
-344.406	626.187	0.044	0.113
-343.391	151.440	0.039	-0.054
-342.377	-133.277	-0.061	0.008
-341.362	266.999	0.063	0.112
-340.348	-12.482	0.111	-0.074
-339.333	-114.621	-0.226	0.044
-338.318	-200.000	-0.016	0.219
-337.304	800.000	0.086	-0.361
-336.289	-130.707	0.435	-0.059
-335.275	-121.018	-0.243	-0.041
-334.260	-15.694	-0.273	0.176
-333.245	-74.209	-0.037	-0.013
-332.231	-129.453	-0.327	-0.046
-331.216	40.332	-0.228	-0.208
-330.202	110.346	0.141	-0.172
-329.187	-42.434	0.294	-0.152
-328.172	800.000	-0.044	-0.125
-327.158	-53.635	0.110	-0.051
-326.143	-104.223	0.202	0.047
-325.129	-200.000	0.017	-0.205
-324.114	-140.624	0.165	0.017
-323.099	-1.445	-0.256	-0.183
-322.085	-72.956	0.230	0.086
-321.070	-91.670	-0.153	0.044
-320.056	-86.953	-0.543	0.168
-319.041	-13.779	-0.288	0.189
-318.026	238.359	0.104	-0.175
-317.012	116.660	-0.056	0.070
-315.997	164.849	-0.174	-0.249
-314.983	-62.993	-0.167	0.070
-313.968	-108.823	-0.258	-0.056
-312.953	-45.797	0.068	-0.034
-311.939	-59.951	-0.017	-0.008
-310.924	-200.000	-0.028	0.452
-309.910	-146.376	0.151	0.013
-308.895	800.000	0.164	-0.506
-307.880	40.602	0.049	0.045
-306.866	-200.000	-0.071	-0.396
-305.851	75.278	0.116	0.124
-304.837	-129.839	-0.150	0.021
-303.822	437.903	0.052	-0.114
-302.807	356.182	0.091	-0.184
-301.793	126.919	0.131	-0.168
-300.778	34.787	0.163	0.144
-299.764	54.511	-0.198	0.193
-298.749	-200.000	0.013	-0.077
-297.735	314.436	0.124	0.236
-296.720	-113.533	0.075	-0.015
-295.705	207.450	-0.056	0.089
-294.691	157.981	-0.066	-0.093
-293.676	11.626	-0.148	-0.115
-292.662	14.039	0.164	0.129
-291.647	-200.000	-0.026	0.332
-290.632	-26.261	0.087	0.052
-289.618	800.000	-0.058	0.193
-288.603	452.843	0.042	-0.095
-287.589	-108.797	0.067	-0.015
-286.574	411.589	0.089	0.192
-285.559	-56.541	-0.177	0.079
-284.545	435.051	0.085	-0.188
-283.530	-200.000	0.041	0.427
-282.516	149.431	-0.148	0.202
-281.501	40.911	-0.131	-0.119
-280.486	-65.303	0.198	-0.080
-279.472	-154.490	-0.042	0.003
-278.457	-16.926	0.213	-0.136
-277.443	148.943	0.101	-0.137
-276.428	800.000	0.020	0.065
-275.413	180.576	0.033	0.049
-274.399	342.348	-0.133	0.264
-273.384	-59.478	-0.220	-0.095
-272.370	540.513	-0.144	0.347
-271.355	-200.000	0.072	-0.438
-270.340	598.187	-0.046	-0.116
-269.326	608.376	0.019	0.049
-268.311	-58.818	-0.188	-0.082
-267.297	800.000	0.072	-0.211
-266.282	-109.761	-0.226	0.048
-265.267	225.374	-0.207	0.339
-264.253	800.000	0.067	0.294
-263.238	146.026	-0.208	0.282
-262.224	-129.230	0.316	0.045
-261.209	201.069	-0.146	-0.227
-260.195	50.430	0.124	-0.118
-259.180	-200.000	-0.009	-0.283
-258.165	800.000	-0.035	0.110
-257.151	83.256	-0.287	-0.316
-256.136	1.919	-0.055	0.040
-255.122	-200.000	-0.067	0.301
-254.107	141.559	0.088	-0.118
-253.092	-23.993	-0.207	-0.125
-252.078	457.892	-0.036	0.081
-251.063	-39.449	-0.149	-0.079
-250.049	314.438	0.044	-0.084
-249.034	115.176	0.158	0.195
-248.019	11.424	0.036	0.028
-247.005	-179.677	-0.156	-0.003
-245.990	-54.045	0.271	-0.124
-244.976	-13.910	0.050	0.032
-243.961	46.847	-0.167	-0.157
-242.946	7.781	0.278	0.210
-241.932	-200.000	-0.015	-0.137
-240.917	800.000	-0.076	-0.292
-239.903	-83.392	-0.278	-0.090
-238.888	-68.654	-0.208	-0.081
-237.873	350.893	0.016	-0.032
-236.859	-200.000	-0.081	-0.542
-235.844	-98.076	-0.299	0.078
-234.830	-120.405	0.202	-0.035
-233.815	-29.457	0.576	-0.332
-232.800	-200.000	0.055	-0.272
-231.786	-83.708	0.215	0.069
-230.771	277.499	0.096	0.172
-229.757	72.240	0.146	0.154
-228.742	-200.000	-0.062	0.294
-227.727	-112.659	-0.208	-0.042
-226.713	-200.000	0.031	-0.206
-225.698	-200.000	0.017	-0.148
-224.684	56.426	-0.140	-0.137
-223.669	22.917	0.102	-0.085
-222.655	-101.785	-0.168	-0.041
-221.640	800.000	0.043	0.127
-220.625	-139.957	0.142	-0.015
-219.611	33.234	-0.151	-0.132
-218.596	-200.000	0.012	0.079
-217.582	109.959	0.067	-0.081
-216.567	-145.098	0.210	-0.019
-215.552	-14.374	-0.268	0.174
-214.538	-103.251	0.153	-0.036
-213.523	-76.199	0.249	-0.088
-212.509	266.002	0.017	0.029
-211.494	37.078	-0.114	-0.102
-210.479	800.000	0.071	-0.224
-209.465	800.000	-0.019	0.079
-208.450	-200.000	0.024	0.317
-207.436	-47.592	-0.200	0.098
-206.421	82.051	0.283	0.309
-205.406	-47.991	-0.109	0.053
-204.392	800.000	0.082	0.255
-203.377	800.000	0.064	-0.262
-202.363	132.062	-0.059	-0.076
-201.348	-94.078	0.107	0.030
-200.333	-50.430	0.046	-0.022
-199.319	-75.605	0.205	0.073
-198.304	299.158	-0.052	0.097
-197.290	32.473	-0.347	-0.302
-196.275	-200.000	-0.023	-0.363
-195.260	-30.055	-0.171	-0.098
-194.246	-102.935	0.427	0.102
-193.231	47.774	0.141	0.133
-192.217	-169.195	-0.147	-0.005
-191.202	-31.428	0.077	-0.044
-190.187	800.000	0.042	-0.180
-189.173	152.853	0.266	-0.366
-188.158	521.372	-0.047	-0.111
-187.144	105.128	-0.136	0.162
-186.129	-87.357	0.183	0.056
-185.114	-78.133	0.122	-0.042
-184.100	149.634	-0.222	-0.303
-183.085	-13.875	0.113	0.073
-182.071	72.424	-0.122	-0.128
-181.056	199.733	0.097	-0.149
-180.042	-14.896	0.277	0.179
-179.027	-162.166	-0.219	0.011
-178.012	-200.000	0.092	-0.554
-176.998	-102.125	-0.105	0.025
-175.983	433.125	0.071	0.155
-174.969	49.437	0.264	-0.250
-173.954	-98.658	-0.105	-0.027
-172.939	-200.000	-0.010	-0.352
-171.925	-57.414	0.042	-0.019
-170.910	-200.000	-0.000	0.214
-169.896	-91.059	0.126	-0.036
-168.881	-55.709	0.429	-0.193
-167.866	206.978	-0.146	0.230
-166.852	42.228	0.197	0.180
-165.837	-2.273	-0.027	0.019
-164.823	14.868	-0.104	-0.082
-163.808	45.677	-0.166	0.154
-162.793	93.117	0.062	-0.071
-161.779	116.076	-0.084	-0.104
-160.764	358.131	-0.225	0.452
-159.750	-200.000	0.027	-0.264
-158.735	37.695	0.368	-0.329
-157.720	-200.000	-0.049	0.233
-156.706	800.000	0.030	-0.098
-155.691	-36.296	0.203	0.110
-154.677	416.999	-0.097	-0.209
-153.662	268.682	0.176	-0.310
-152.647	95.297	0.032	0.037
-151.633	-103.591	0.384	-0.091
-150.618	243.279	-0.152	0.257
-149.604	-103.225	-0.215	0.051
-148.589	165.769	-0.073	-0.104
-147.574	-105.468	-0.261	-0.060
-146.560	-35.272	0.180	0.099
-145.545	-200.000	0.004	0.034
-144.531	-200.000	-0.048	-0.233
-143.516	-200.000	0.022	0.154
-142.502	108.934	0.283	0.340
-141.487	-200.000	-0.005	0.179
-140.472	-162.492	0.377	-0.019
-139.458	800.000	0.052	0.163
-138.443	-200.000	-0.017	-0.078
-137.429	6.599	-0.344	-0.257
-136.414	101.822	-0.089	-0.104
-135.399	246.716	0.097	0.164
-134.385	800.000	-0.066	0.224
-133.370	368.679	0.142	-0.289
-132.356	70.161	0.091	0.095
-131.341	-1.632	0.113	-0.080
-130.326	-102.215	0.285	0.069
-129.312	-147.560	0.060	-0.005
-128.297	-134.600	0.165	-0.020
-127.283	202.459	0.052	-0.081
-126.268	68.536	0.099	0.102
-125.253	-200.000	0.032	0.180
-124.239	212.998	0.156	0.248
-123.224	58.686	-0.207	-0.204
-122.210	-69.518	0.129	-0.050
-121.195	171.881	0.280	0.405
