DTS Sentinel unit serial number:	SN413079Multiplexer serial number:	ORYXHardware model number:	OX4-SRSoftware version number:	ORYX F/W v4.00 Oryx Data Collector v3.7.2.0data status	okinstallation	princeton_trtdifferential loss correction	single-endedforward channel	channel 4reverse channel	N/Adate	2019/09/19time	14:21:34forward acquisition time	60.00reverse acquisition time	0.00gamma	496.2192k internal	0.2307k external	0.2307temperature offset calibration	1.0018default loss term (dB/km)	0.3790temperature slope calibration	1.0000multiplexer offset coefficient	1.0000multiplexer slope coefficient	1.0000fibre end	0.00T internal ref (°C)	31.87T ext. ref 1 (°C)	1.05T ext. ref 2 (°C)	29.19length (m)	temperature (°C)	Stokes	anti-Stokes-747.200	93.804	-0.212	-0.244
-746.185	-63.893	-0.274	0.114
-745.171	-48.214	-0.010	-0.005
-744.156	53.795	0.088	0.086
-743.142	104.537	-0.043	0.051
-742.127	162.447	0.199	0.284
-741.112	800.000	0.087	0.332
-740.098	228.906	-0.077	0.127
-739.083	-119.097	0.228	-0.041
-738.069	67.037	-0.184	0.191
-737.054	-0.976	0.069	-0.049
-736.039	267.649	-0.090	-0.160
-735.025	-200.000	-0.031	-0.276
-734.010	223.120	-0.037	-0.061
-732.996	-129.891	-0.210	0.029
-731.981	-200.000	-0.024	0.173
-730.966	181.817	-0.189	-0.284
-729.952	30.504	0.062	-0.054
-728.937	36.211	-0.233	-0.208
-727.923	-200.000	-0.020	-0.140
-726.908	-200.000	0.023	-0.191
-725.894	81.571	0.248	-0.273
-724.879	169.829	-0.130	-0.189
-723.864	800.000	-0.039	0.164
-722.850	67.363	-0.197	0.204
-721.835	122.240	0.201	0.255
-720.821	312.026	0.114	-0.217
-719.806	800.000	0.021	-0.068
-718.791	-135.142	0.259	0.032
-717.777	178.729	-0.160	0.237
-716.762	-200.000	0.035	0.218
-715.748	-26.456	-0.204	-0.121
-714.733	119.537	-0.323	-0.406
-713.718	-53.068	-0.132	0.061
-712.704	-200.000	0.009	0.051
-711.689	-74.365	0.221	0.081
-710.675	-200.000	-0.034	-0.419
-709.660	131.452	-0.098	0.128
-708.645	-42.997	0.392	-0.202
-707.631	229.028	0.054	0.090
-706.616	-129.240	0.204	0.029
-705.602	5.637	-0.163	0.122
-704.587	-200.000	-0.038	-0.288
-703.572	-157.704	-0.190	-0.011
-702.558	-149.169	0.247	0.020
-701.543	800.000	0.065	-0.211
-700.529	-87.529	0.380	-0.117
-699.514	800.000	-0.123	0.366
-698.499	800.000	-0.033	0.143
-697.485	-84.989	0.157	-0.050
-696.470	-17.634	-0.121	0.077
-695.456	436.204	-0.069	0.153
-694.441	-38.111	-0.346	-0.186
-693.426	-69.534	-0.151	-0.059
-692.412	-104.586	-0.143	0.033
-691.397	-200.000	-0.025	0.325
-690.383	-85.343	-0.292	-0.092
-689.368	-120.396	0.291	-0.050
-688.354	800.000	0.132	0.408
-687.339	209.984	-0.105	0.167
-686.324	-111.524	0.412	0.085
-685.310	-111.167	0.050	0.010
-684.295	-200.000	-0.000	0.032
-683.281	151.332	-0.097	0.134
-682.266	-200.000	0.000	-0.113
-681.251	-108.977	0.268	-0.058
-680.237	531.997	-0.161	0.387
-679.222	272.789	-0.056	-0.100
-678.208	297.720	-0.175	-0.327
-677.193	-7.941	-0.191	0.131
-676.178	129.298	0.197	0.256
-675.164	-55.454	0.221	0.100
-674.149	-29.721	-0.180	0.104
-673.135	800.000	-0.053	-0.185
-672.120	800.000	0.047	-0.193
-671.105	201.631	0.138	0.215
-670.091	114.623	-0.274	-0.338
-669.076	67.203	-0.261	-0.270
-668.062	800.000	0.033	-0.114
-667.047	-113.635	0.115	-0.023
-666.032	467.695	-0.101	-0.230
-665.018	-188.126	-0.315	-0.004
-664.003	-71.362	-0.069	0.026
-662.989	-200.000	-0.068	0.309
-661.974	-65.594	-0.174	0.071
-660.959	-200.000	-0.009	0.073
-659.945	-200.000	0.023	0.123
-658.930	5.310	-0.237	-0.177
-657.916	-138.959	0.035	-0.004
-656.901	-68.592	-0.177	0.069
-655.886	-77.200	-0.181	0.064
-654.872	33.844	-0.220	-0.194
-653.857	800.000	0.035	-0.113
-652.843	69.850	-0.200	-0.209
-651.828	-6.594	-0.274	-0.189
-650.814	800.000	0.085	0.370
-649.799	800.000	-0.154	0.459
-648.784	211.219	0.200	-0.319
-647.770	500.940	0.225	-0.525
-646.755	800.000	-0.075	-0.244
-645.741	457.169	-0.044	0.098
-644.726	42.955	-0.298	-0.275
-643.711	-200.000	-0.021	0.387
-642.697	482.669	0.107	0.246
-641.682	800.000	0.066	-0.184
-640.668	627.720	-0.074	-0.190
-639.653	-200.000	-0.009	0.193
-638.638	-50.482	-0.190	0.091
-637.624	-91.935	-0.199	-0.057
-636.609	-115.949	0.205	-0.039
-635.595	-109.456	0.028	-0.006
-634.580	-200.000	0.010	-0.255
-633.565	416.679	-0.073	-0.159
-632.551	483.436	0.022	0.051
-631.536	-178.690	0.303	0.007
-630.522	-140.984	-0.032	-0.003
-629.507	-200.000	0.045	0.323
-628.492	-200.000	-0.036	0.326
-627.478	99.195	-0.260	0.304
-626.463	-200.000	0.039	-0.268
-625.449	58.989	-0.335	-0.334
-624.434	123.367	0.142	0.180
-623.419	-106.888	-0.161	0.036
-622.405	65.790	-0.108	-0.111
-621.390	10.883	-0.199	-0.154
-620.376	38.303	0.231	-0.209
-619.361	374.551	-0.021	-0.044
-618.346	655.041	-0.041	0.107
-617.332	-72.505	-0.083	0.031
-616.317	7.701	0.325	0.246
-615.303	124.236	-0.119	-0.151
-614.288	800.000	-0.087	-0.255
-613.273	19.955	-0.143	0.117
-612.259	800.000	0.123	-0.343
-611.244	-200.000	0.006	0.135
-610.230	-41.045	0.251	0.131
-609.215	171.040	-0.062	0.090
-608.201	41.156	0.148	0.135
-607.186	-10.316	-0.115	-0.077
-606.171	16.976	0.116	-0.093
-605.157	-128.704	0.118	-0.017
-604.142	-140.086	0.263	-0.028
-603.128	800.000	-0.115	-0.470
-602.113	155.472	-0.166	0.231
-601.098	-200.000	-0.019	-0.412
-600.084	224.635	0.076	0.124
-599.069	272.877	0.014	0.025
-598.055	-121.934	-0.209	-0.035
-597.040	-124.378	0.166	-0.026
-596.025	20.345	-0.031	0.025
-595.011	-43.719	-0.225	-0.115
-593.996	-97.010	-0.359	0.095
-592.982	-26.337	-0.212	-0.126
-591.967	-64.123	-0.117	0.048
-590.952	22.100	0.171	0.141
-589.938	-72.683	0.255	0.095
-588.923	-14.320	-0.221	-0.144
-587.909	-29.274	-0.331	0.192
-586.894	654.876	0.084	-0.218
-585.879	-197.108	0.148	0.001
-584.865	-100.989	-0.165	0.041
-583.850	48.543	0.095	-0.090
-582.836	-135.695	0.133	0.016
-581.821	511.622	-0.082	-0.194
-580.806	-101.314	-0.174	0.043
-579.792	91.719	-0.181	-0.206
-578.777	-97.833	0.341	-0.089
-577.763	-200.000	-0.030	-0.214
-576.748	28.570	-0.186	0.159
-575.733	800.000	0.053	0.199
-574.719	-25.207	-0.142	-0.085
-573.704	79.317	-0.139	-0.150
-572.690	81.377	0.266	0.290
-571.675	61.189	0.184	-0.185
-570.661	678.488	0.183	0.482
-569.646	-99.354	-0.152	0.039
-568.631	-87.831	0.243	0.074
-567.617	80.243	0.188	0.205
-566.602	158.460	-0.218	-0.306
-565.588	-163.133	-0.130	-0.006
-564.573	-102.215	0.278	-0.067
-563.558	-25.310	0.113	-0.068
-562.544	-14.153	0.358	0.233
-561.529	123.062	0.197	-0.249
-560.515	203.020	-0.038	0.059
-559.500	-62.056	0.285	-0.120
-558.485	14.600	-0.218	0.172
-557.471	428.148	0.169	0.369
-556.456	225.572	-0.108	0.176
-555.442	-200.000	0.017	-0.106
-554.427	382.361	-0.091	-0.188
-553.412	-200.000	0.006	-0.060
-552.398	-151.535	-0.035	-0.003
-551.383	-200.000	0.043	-0.239
-550.369	800.000	0.116	-0.339
-549.354	-83.330	-0.163	0.053
-548.339	-35.925	0.137	0.075
-547.325	-128.648	0.290	0.041
-546.310	-200.000	-0.013	0.127
-545.296	-76.744	0.275	0.097
-544.281	800.000	-0.094	-0.346
-543.266	32.695	-0.033	-0.029
-542.252	-57.422	0.374	0.166
-541.237	-130.696	-0.373	0.051
-540.223	49.097	0.142	-0.135
-539.208	-200.000	-0.039	0.238
-538.193	12.089	0.050	-0.039
-537.179	-171.060	0.180	-0.006
-536.164	-200.000	-0.045	0.404
-535.150	-127.186	0.028	0.004
-534.135	-40.517	-0.269	-0.141
-533.121	74.102	0.069	-0.073
-532.106	-97.716	0.355	0.093
-531.091	118.225	0.162	0.202
-530.077	43.544	0.231	-0.213
-529.062	800.000	0.052	0.167
-528.048	-51.988	0.165	0.077
-527.033	-200.000	-0.011	-0.065
-526.018	-91.419	0.060	0.017
-525.004	-200.000	-0.011	0.230
-523.989	131.312	-0.084	0.109
-522.975	80.744	-0.264	0.287
-521.960	-18.879	-0.231	-0.145
-520.945	276.889	-0.170	0.304
-519.931	308.627	-0.103	0.193
-518.916	490.147	-0.038	0.088
-517.902	248.627	-0.088	-0.150
-516.887	-94.267	-0.240	0.066
-515.872	-26.250	0.402	-0.238
-514.858	-69.991	0.141	-0.054
-513.843	409.599	-0.056	-0.119
-512.829	150.159	0.100	-0.137
-511.814	-91.959	-0.217	0.062
-510.799	-25.907	-0.206	-0.122
-509.785	148.287	0.160	-0.218
-508.770	-200.000	-0.020	-0.301
-507.756	-8.172	0.235	0.159
-506.741	-36.201	-0.273	-0.149
-505.726	213.395	-0.110	0.175
-504.712	0.318	0.134	-0.096
-503.697	1.959	-0.288	0.209
-502.683	-40.523	0.267	0.140
-501.668	800.000	-0.013	-0.043
-500.653	-200.000	0.000	-0.526
-499.639	-27.400	0.254	0.149
-498.624	-24.775	0.177	-0.106
-497.610	249.964	0.117	0.200
-496.595	471.232	0.012	0.028
-495.581	77.478	-0.054	0.058
-494.566	-58.776	-0.236	0.103
-493.551	-200.000	-0.038	0.208
-492.537	-13.042	0.093	-0.061
-491.522	-41.529	-0.273	-0.141
-490.508	-7.693	0.246	0.167
-489.493	52.301	-0.244	0.234
-488.478	10.360	0.374	0.287
-487.464	-200.000	0.007	0.173
-486.449	-200.000	-0.003	0.184
-485.435	-187.320	-0.235	-0.003
-484.420	12.579	-0.163	-0.127
-483.405	-129.628	0.174	0.024
-482.391	22.776	-0.050	0.041
-481.376	-112.611	-0.096	0.019
-480.362	-70.899	-0.355	0.135
-479.347	-151.304	-0.261	0.020
-478.332	-200.000	-0.026	0.147
-477.318	-64.184	-0.397	0.163
-476.303	-112.061	0.209	-0.042
-475.289	318.079	0.072	0.136
-474.274	-99.908	-0.112	-0.028
-473.259	-135.400	-0.292	-0.035
-472.245	-107.197	0.220	-0.049
-471.230	93.312	0.116	-0.132
-470.216	30.575	-0.263	0.226
-469.201	-200.000	0.030	0.142
-468.186	55.271	-0.111	-0.108
-467.172	-200.000	-0.032	0.319
-466.157	800.000	-0.045	0.185
-465.143	-21.053	-0.406	-0.250
-464.128	-200.000	0.030	-0.149
-463.113	-122.031	-0.205	-0.034
-462.099	800.000	0.071	0.296
-461.084	112.349	-0.084	-0.102
-460.070	-147.318	-0.430	0.037
-459.055	39.662	-0.146	-0.132
-458.040	99.223	0.417	-0.484
-457.026	128.241	-0.163	-0.208
-456.011	800.000	-0.053	0.182
-454.997	9.353	-0.168	0.128
-453.982	-200.000	-0.005	0.472
-452.968	117.886	0.180	0.222
-451.953	-97.141	0.124	-0.033
-450.938	800.000	-0.029	-0.084
-449.924	-200.000	0.033	0.305
-448.909	-179.659	-0.125	0.003
-447.895	25.993	0.310	0.260
-446.880	147.484	-0.129	0.175
-445.865	-46.348	0.188	-0.093
-444.851	297.216	-0.151	-0.278
-443.836	-17.750	0.090	-0.057
-442.822	154.327	0.225	0.310
-441.807	123.987	-0.202	0.255
-440.792	800.000	0.151	0.509
-439.778	-149.437	-0.232	0.018
-438.763	477.782	0.103	-0.234
-437.749	800.000	-0.149	-0.444
-436.734	188.046	0.131	-0.197
-435.719	15.193	0.309	-0.244
-434.705	-88.302	0.323	0.097
-433.690	-100.498	0.139	-0.034
-432.676	252.561	-0.165	-0.283
-431.661	345.350	-0.083	0.164
-430.646	800.000	-0.098	-0.276
-429.632	-97.687	-0.250	-0.065
-428.617	800.000	-0.043	0.149
-427.603	-68.924	0.254	0.098
-426.588	-138.429	0.292	-0.032
-425.573	314.948	0.169	-0.320
-424.559	68.926	-0.131	0.135
-423.544	800.000	-0.062	0.212
-422.530	-26.861	-0.144	-0.085
-421.515	-41.280	0.175	-0.091
-420.500	-34.801	0.133	-0.073
-419.486	-129.465	0.079	-0.011
-418.471	-184.389	-0.166	0.003
-417.457	-200.000	-0.002	0.166
-416.442	-200.000	0.033	0.355
-415.428	298.729	0.128	-0.237
-414.413	-200.000	0.012	-0.401
-413.398	-106.934	-0.215	-0.048
-412.384	-88.112	0.291	-0.088
-411.369	800.000	-0.044	-0.180
-410.355	-23.073	-0.125	-0.076
-409.340	-162.739	-0.367	-0.018
-408.325	70.305	0.147	0.153
-407.311	-70.139	-0.568	0.217
-406.296	652.576	-0.033	-0.084
-405.282	-113.012	-0.202	-0.040
-404.267	-200.000	-0.002	-0.128
-403.252	454.028	-0.059	-0.132
-402.238	65.541	0.362	-0.368
-401.223	-200.000	0.035	-0.300
-400.209	-97.709	0.052	-0.013
-399.194	-137.737	0.284	0.032
-398.179	-200.000	-0.031	-0.232
-397.165	140.742	0.297	0.393
-396.150	335.140	-0.097	0.188
-395.136	-0.642	-0.140	-0.100
-394.121	225.698	-0.009	0.015
-393.106	-121.902	-0.169	-0.028
-392.092	128.208	-0.130	-0.167
-391.077	82.977	0.232	-0.253
-390.063	41.704	-0.189	0.172
-389.048	166.330	0.237	0.337
-388.033	-61.889	-0.132	-0.055
-387.019	-72.641	-0.077	-0.028
-386.004	-200.000	0.002	0.102
-384.990	327.557	-0.046	-0.089
-383.975	387.009	-0.170	-0.353
-382.960	87.377	0.034	0.038
-381.946	237.032	-0.144	-0.239
-380.931	-50.979	0.397	0.187
-379.917	325.392	0.059	-0.113
-378.902	187.226	-0.211	-0.316
-377.888	-75.642	0.164	0.058
-376.873	498.638	-0.189	0.436
-375.858	-35.711	-0.107	-0.058
-374.844	4.885	0.151	0.111
-373.829	-200.000	0.049	0.406
-372.815	-8.219	-0.266	0.179
-371.800	-86.105	0.117	-0.036
-370.785	441.763	-0.005	-0.012
-369.771	-63.765	0.308	0.127
-368.756	-200.000	0.012	-0.256
-367.742	-200.000	0.041	0.239
-366.727	25.343	0.300	0.250
-365.712	-200.000	-0.065	-0.304
-364.698	-200.000	0.017	-0.354
-363.683	55.284	0.260	0.252
-362.669	-63.702	-0.141	0.058
-361.654	-33.496	-0.028	0.016
-360.639	404.825	0.082	-0.174
-359.625	-104.693	0.066	-0.015
-358.610	-200.000	0.027	0.129
-357.596	-200.000	0.021	-0.182
-356.581	-51.558	-0.388	-0.181
-355.566	210.771	-0.045	0.070
-354.552	-153.726	0.092	0.006
-353.537	60.048	-0.058	0.057
-352.523	-59.170	-0.145	-0.063
-351.508	-200.000	0.032	0.496
-350.493	161.185	-0.161	-0.225
-349.479	291.276	0.131	-0.239
-348.464	-13.029	0.052	0.034
-347.450	159.588	-0.052	-0.072
-346.435	34.565	0.145	0.127
-345.420	337.967	0.138	-0.269
-344.406	630.919	-0.027	0.069
-343.391	-6.917	-0.189	-0.128
-342.377	-79.115	0.105	-0.036
-341.362	34.801	-0.280	0.245
-340.348	21.155	-0.151	-0.122
-339.333	-121.294	0.047	0.008
-338.318	100.493	0.164	0.190
-337.304	-200.000	0.017	0.252
-336.289	-121.527	0.361	0.060
-335.275	130.241	-0.160	-0.205
-334.260	511.379	0.063	-0.148
-333.245	787.071	0.079	0.217
-332.231	48.025	-0.223	-0.209
-331.216	-104.427	-0.215	0.050
-330.202	348.405	-0.039	0.076
-329.187	40.458	0.294	0.265
-328.172	800.000	0.086	-0.336
-327.158	-118.622	-0.355	-0.063
-326.143	262.546	0.134	0.232
-325.129	-200.000	0.082	0.434
-324.114	-200.000	-0.009	-0.110
-323.099	355.378	-0.036	0.072
-322.085	-64.349	-0.197	0.080
-321.070	198.274	-0.104	0.158
-320.056	706.897	-0.075	-0.199
-319.041	800.000	-0.091	-0.301
-318.026	129.086	-0.149	0.190
-317.012	-16.006	-0.288	-0.183
-315.997	112.110	-0.127	0.154
-314.983	-146.604	0.080	-0.007
-313.968	85.879	-0.101	-0.111
-312.953	170.598	-0.091	-0.130
-311.939	-89.191	0.245	0.072
-310.924	-200.000	0.068	-0.347
-309.910	-141.305	0.125	-0.013
-308.895	731.753	-0.096	-0.257
-307.880	-83.207	0.445	-0.143
-306.866	165.687	-0.026	0.037
-305.851	-200.000	0.010	0.132
-304.837	182.574	-0.033	0.048
-303.822	-56.717	-0.184	-0.081
-302.807	19.159	0.250	-0.200
-301.793	119.539	-0.178	0.221
-300.778	563.146	-0.058	0.141
-299.764	64.834	-0.064	0.065
-298.749	800.000	-0.031	0.095
-297.735	351.898	-0.058	0.114
-296.720	87.799	-0.131	-0.146
-295.705	-139.403	0.196	0.021
-294.691	291.081	0.039	0.071
-293.676	-11.428	-0.059	0.039
-292.662	41.588	0.117	-0.106
-291.647	33.929	0.081	-0.070
-290.632	-159.620	0.205	0.011
-289.618	-41.034	-0.249	0.128
-288.603	10.832	0.145	0.111
-287.589	-200.000	-0.046	0.501
-286.574	5.136	0.169	-0.124
-285.559	-200.000	-0.065	0.378
-284.545	316.586	-0.111	0.209
-283.530	74.566	-0.111	-0.117
-282.516	-137.753	-0.091	0.010
-281.501	800.000	0.041	0.114
-280.486	-105.685	-0.223	0.050
-279.472	238.157	0.321	0.532
-278.457	-134.554	0.184	0.022
-277.443	748.838	-0.046	-0.123
-276.428	5.758	0.165	0.122
-275.413	-151.000	-0.182	-0.014
-274.399	360.407	-0.059	0.118
-273.384	118.927	-0.377	0.465
-272.370	-3.864	0.139	-0.096
-271.355	-114.475	0.248	-0.048
-270.340	252.365	-0.133	-0.227
-269.326	87.002	0.075	0.083
-268.311	-192.096	0.284	0.003
-267.297	105.923	-0.039	-0.046
-266.282	35.797	-0.231	0.203
-265.267	-120.106	0.238	0.041
-264.253	73.177	0.088	0.091
-263.238	800.000	-0.094	-0.346
-262.224	67.457	-0.120	-0.123
-261.209	-54.670	0.178	0.080
-260.195	139.295	0.055	-0.072
-259.180	-200.000	-0.013	0.090
-258.165	-54.069	-0.126	-0.057
-257.151	76.963	0.157	0.167
-256.136	-200.000	-0.009	-0.082
-255.122	500.401	-0.107	-0.247
-254.107	-200.000	0.042	-0.245
-253.092	-88.424	0.061	-0.018
-252.078	212.829	0.063	-0.099
-251.063	109.491	-0.106	0.127
-250.049	-21.532	-0.190	-0.115
-249.034	-9.995	0.298	-0.198
-248.019	-200.000	0.000	-0.040
-247.005	-94.633	0.235	-0.064
-245.990	112.379	-0.278	-0.336
-244.976	2.568	-0.166	0.120
-243.961	191.310	0.052	0.078
-242.946	-200.000	-0.045	0.246
-241.932	-48.435	-0.380	0.183
-240.917	50.821	-0.354	0.334
-239.903	32.000	-0.005	0.005
-238.888	-200.000	0.024	0.266
-237.873	-200.000	0.027	-0.299
-236.859	-136.831	0.033	0.004
-235.844	445.491	-0.081	0.177
-234.830	-200.000	0.018	-0.169
-233.815	-119.260	0.317	0.055
-232.800	333.991	0.025	-0.049
-231.786	-127.485	-0.160	-0.023
-230.771	-95.848	-0.087	0.023
-229.757	-22.401	0.156	-0.094
-228.742	-116.919	-0.083	0.015
-227.727	-129.712	0.202	0.028
-226.713	-200.000	-0.033	-0.244
-225.698	-200.000	0.022	0.144
-224.684	-85.637	0.189	-0.059
-223.669	54.019	0.188	-0.180
-222.655	-87.234	-0.311	0.094
-221.640	310.221	0.256	0.477
-220.625	-80.216	0.070	-0.023
-219.611	-41.178	0.050	-0.026
-218.596	-161.451	-0.385	0.020
-217.582	274.508	0.076	-0.135
-216.567	-73.769	-0.161	0.059
-215.552	-35.851	0.224	-0.121
-214.538	169.250	-0.111	-0.158
-213.523	-28.151	0.120	0.069
-212.509	65.219	-0.059	-0.060
-211.494	105.988	0.307	-0.362
-210.479	-18.226	0.149	0.093
-209.465	162.834	0.057	-0.080
-208.450	101.107	-0.057	-0.066
-207.436	203.820	0.063	-0.097
-206.421	298.019	0.215	-0.394
-205.406	-200.000	0.041	-0.239
-204.392	193.342	0.150	-0.225
-203.377	-110.662	-0.222	0.046
-202.363	237.898	0.031	-0.051
-201.348	-12.919	0.264	-0.171
-200.333	20.717	-0.271	0.218
-199.319	-117.262	-0.276	-0.050
-198.304	-68.105	-0.137	0.053
-197.290	800.000	-0.110	0.401
-196.275	187.730	-0.027	0.041
-195.260	800.000	-0.024	-0.069
-194.246	-54.076	-0.218	0.099
-193.231	216.133	0.114	0.181
-192.217	-107.460	-0.120	0.026
-191.202	632.627	-0.103	0.261
-190.187	-3.523	0.046	-0.032
-189.173	4.588	0.519	0.379
-188.158	-41.336	0.290	-0.149
-187.144	-19.767	-0.276	-0.169
-186.129	-52.548	0.122	0.056
-185.114	263.950	0.081	-0.140
-184.100	-42.719	0.240	0.121
-183.085	48.646	0.258	0.241
-182.071	154.706	-0.104	-0.142
-181.056	175.038	-0.093	0.134
-180.042	-131.046	-0.321	-0.043
-179.027	357.127	0.269	0.534
-178.012	800.000	0.073	-0.283
-176.998	-200.000	0.044	-0.279
-175.983	-149.280	-0.216	-0.017
-174.969	-90.642	0.287	-0.083
-173.954	-38.066	-0.237	-0.125
-172.939	97.900	0.021	-0.024
-171.925	800.000	-0.051	0.208
-170.910	67.462	0.047	0.048
-169.896	-200.000	0.006	-0.354
-168.881	-200.000	0.021	-0.124
-167.866	-101.903	0.081	-0.020
-166.852	-77.429	0.157	0.054
-165.837	-200.000	0.090	-0.507
-164.823	10.818	0.181	0.137
-163.808	-98.901	0.213	0.054
-162.793	127.528	0.081	-0.102
-161.779	38.952	-0.120	-0.106
-160.764	-58.001	0.299	-0.130
-159.750	0.617	-0.108	-0.077
-158.735	-149.541	-0.250	-0.020
-157.720	-200.000	-0.045	-0.285
-156.706	305.976	0.103	-0.190
-155.691	-55.673	-0.057	-0.025
-154.677	280.283	-0.118	0.209
-153.662	-200.000	-0.007	-0.082
-152.647	-87.631	-0.242	-0.073
-151.633	800.000	0.017	0.048
-150.618	168.050	0.180	0.255
-149.604	800.000	-0.027	-0.099
-148.589	360.609	0.099	0.198
-147.574	164.067	0.119	-0.166
-146.560	800.000	0.077	-0.322
-145.545	-139.702	0.154	0.016
-144.531	179.831	0.192	0.280
-143.516	-53.781	-0.215	0.098
-142.502	-200.000	0.033	0.162
-141.487	-37.828	0.104	0.055
-140.472	800.000	-0.038	-0.138
-139.458	25.347	0.185	0.153
-138.443	59.121	0.232	0.226
-137.429	343.664	0.178	0.347
-136.414	-164.803	-0.524	-0.023
-135.399	-63.048	-0.135	0.055
-134.385	395.705	0.038	-0.078
-133.370	380.068	0.054	-0.110
-132.356	191.319	-0.071	-0.106
-131.341	-193.614	-0.375	0.003
-130.326	-52.151	0.205	0.095
-129.312	-78.393	0.100	-0.034
-128.297	-200.000	0.033	-0.243
-127.283	17.957	-0.120	0.095
-126.268	-113.932	0.496	-0.096
-125.253	373.034	-0.075	-0.150
-124.239	800.000	0.099	-0.322
-123.224	222.729	0.135	0.216
-122.210	9.699	-0.037	0.028
-121.195	-52.575	0.362	0.166
