DTS Sentinel unit serial number:	SN413079Multiplexer serial number:	ORYXHardware model number:	OX4-SRSoftware version number:	ORYX F/W v4.00 Oryx Data Collector v3.7.2.0data status	okinstallation	princeton_trtdifferential loss correction	single-endedforward channel	channel 4reverse channel	N/Adate	2019/09/19time	09:05:35forward acquisition time	60.00reverse acquisition time	0.00gamma	496.2192k internal	0.2337k external	0.2337temperature offset calibration	1.0015default loss term (dB/km)	0.3790temperature slope calibration	1.0000multiplexer offset coefficient	1.0000multiplexer slope coefficient	1.0000fibre end	0.00T internal ref (°C)	21.69T ext. ref 1 (°C)	0.60T ext. ref 2 (°C)	18.65length (m)	temperature (°C)	Stokes	anti-Stokes-747.200	-200.000	-0.036	-0.231
-746.185	-50.382	-0.280	0.133
-745.171	-26.777	0.224	-0.131
-744.156	419.039	-0.104	0.223
-743.142	-200.000	-0.054	-0.260
-742.127	-93.895	-0.199	-0.055
-741.112	-95.648	0.383	-0.103
-740.098	-200.000	-0.001	0.136
-739.083	253.048	-0.151	0.258
-738.069	199.982	-0.087	0.134
-737.054	-80.081	-0.313	0.105
-736.039	-49.188	-0.148	0.071
-735.025	466.480	-0.066	0.148
-734.010	-61.675	0.080	0.034
-732.996	54.966	-0.176	-0.171
-731.981	69.268	-0.028	-0.029
-730.966	317.223	0.044	-0.084
-729.952	800.000	0.019	-0.085
-728.937	152.999	-0.198	0.272
-727.923	83.911	-0.095	-0.104
-726.908	-48.834	-0.492	-0.237
-725.894	664.003	-0.103	-0.266
-724.879	-27.795	0.107	0.062
-723.864	197.793	0.092	0.140
-722.850	800.000	0.067	0.191
-721.835	763.157	-0.040	0.110
-720.821	-57.961	-0.410	0.180
-719.806	697.587	-0.021	-0.055
-718.791	-70.446	-0.326	0.124
-717.777	-24.142	0.050	0.030
-716.762	-200.000	-0.051	-0.262
-715.748	-19.161	-0.313	-0.195
-714.733	4.614	-0.028	0.020
-713.718	526.040	0.080	-0.189
-712.704	800.000	-0.110	-0.378
-711.689	800.000	-0.042	0.154
-710.675	-90.760	-0.296	-0.086
-709.660	-47.296	0.311	0.152
-708.645	74.288	-0.244	-0.257
-707.631	-46.810	-0.339	-0.166
-706.616	-69.479	0.072	-0.028
-705.602	283.482	-0.067	0.121
-704.587	-140.895	-0.223	0.023
-703.572	-130.342	-0.315	0.043
-702.558	800.000	0.124	-0.411
-701.543	65.702	0.037	-0.037
-700.529	-172.709	-0.150	-0.005
-699.514	-35.202	-0.086	-0.047
-698.499	156.616	-0.152	0.210
-697.485	-200.000	-0.029	-0.285
-696.470	-18.305	-0.134	0.084
-695.456	391.086	-0.317	-0.658
-694.441	-63.578	-0.183	-0.075
-693.426	-3.736	0.198	0.138
-692.412	97.907	0.230	-0.265
-691.397	-147.946	0.038	0.003
-690.383	232.847	0.209	-0.343
-689.368	-56.247	-0.109	-0.048
-688.354	14.429	0.310	-0.242
-687.339	-89.387	0.067	-0.020
-686.324	29.586	-0.229	-0.195
-685.310	-79.777	-0.097	0.033
-684.295	73.153	-0.171	-0.179
-683.281	-186.281	0.070	-0.001
-682.266	-95.839	-0.269	-0.072
-681.251	272.741	0.074	0.131
-680.237	800.000	0.072	0.312
-679.222	766.992	0.039	0.107
-678.208	65.595	0.075	0.076
-677.193	-200.000	0.042	0.333
-676.178	245.665	-0.143	-0.241
-675.164	150.543	-0.008	-0.011
-674.149	-142.369	-0.133	0.013
-673.135	-42.009	0.223	-0.114
-672.120	-34.442	0.193	0.106
-671.105	370.445	-0.063	-0.128
-670.091	-113.781	-0.138	-0.027
-669.076	-35.819	0.104	-0.056
-668.062	174.517	0.223	0.323
-667.047	-200.000	-0.040	-0.332
-666.032	-174.603	0.176	-0.005
-665.018	-103.957	-0.400	-0.093
-664.003	101.993	-0.176	-0.205
-662.989	-150.744	0.185	-0.014
-661.974	130.581	0.092	-0.118
-660.959	170.054	-0.237	0.338
-659.945	4.773	-0.217	0.160
-658.930	100.282	-0.157	-0.182
-657.916	242.013	0.151	-0.253
-656.901	-66.439	0.376	-0.149
-655.886	-138.402	-0.370	0.041
-654.872	70.468	0.152	0.157
-653.857	800.000	0.105	-0.395
-652.843	-200.000	0.058	-0.323
-651.828	-104.873	-0.210	-0.048
-650.814	372.017	0.062	0.126
-649.799	800.000	-0.014	0.059
-648.784	229.159	0.205	0.334
-647.770	-143.669	0.443	0.042
-646.755	-137.356	-0.131	-0.015
-645.741	-27.444	-0.103	-0.060
-644.726	-200.000	0.017	0.122
-643.711	-63.934	0.035	-0.015
-642.697	316.267	-0.037	-0.069
-641.682	210.176	-0.099	0.155
-640.668	-130.285	0.142	-0.019
-639.653	-12.214	-0.285	0.187
-638.638	45.697	0.185	-0.171
-637.624	-29.306	-0.171	-0.098
-636.609	306.172	0.244	-0.453
-635.595	-27.095	0.256	0.149
-634.580	-178.445	-0.248	-0.006
-633.565	-31.462	-0.154	0.086
-632.551	-84.316	-0.538	-0.170
-631.536	1.252	0.148	-0.106
-630.522	-200.000	0.004	-0.290
-629.507	64.591	-0.080	-0.081
-628.492	30.518	0.261	-0.223
-627.478	13.741	0.155	-0.120
-626.463	-200.000	0.022	-0.182
-625.449	-128.615	-0.102	0.014
-624.434	-200.000	-0.035	0.242
-623.419	16.693	-0.078	0.062
-622.405	376.749	-0.049	-0.100
-621.390	15.489	0.181	0.142
-620.376	-200.000	-0.023	0.236
-619.361	322.879	-0.003	-0.005
-618.346	800.000	-0.051	-0.184
-617.332	-200.000	0.023	-0.417
-616.317	-65.870	-0.160	0.064
-615.303	-109.274	-0.196	-0.041
-614.288	-67.368	-0.241	0.095
-613.273	111.809	0.154	0.186
-612.259	-141.427	-0.170	0.017
-611.244	-60.559	-0.278	0.118
-610.230	-43.559	0.107	-0.054
-609.215	658.280	-0.102	0.262
-608.201	-97.779	0.118	-0.031
-607.186	-112.268	-0.207	-0.041
-606.171	-145.720	-0.343	0.031
-605.157	-15.803	-0.179	0.114
-604.142	-77.540	-0.135	-0.047
-603.128	63.126	-0.225	-0.225
-602.113	274.214	-0.068	0.120
-601.098	497.886	-0.039	0.089
-600.084	-200.000	0.000	-0.085
-599.069	12.828	-0.087	-0.067
-598.055	61.353	-0.219	0.217
-597.040	-200.000	-0.062	-0.517
-596.025	-47.906	-0.160	0.077
-595.011	-50.236	0.330	-0.156
-593.996	-55.690	0.421	-0.188
-592.982	-190.187	0.446	0.005
-591.967	-108.473	-0.454	-0.098
-590.952	-89.694	-0.127	-0.037
-589.938	800.000	0.041	-0.165
-588.923	-200.000	-0.004	-0.209
-587.909	-50.009	0.275	-0.130
-586.894	46.799	-0.341	-0.316
-585.879	115.190	-0.189	0.230
-584.865	-102.794	0.195	-0.046
-583.850	-89.203	-0.406	0.120
-582.836	-200.000	-0.049	-0.223
-581.821	-66.481	-0.130	-0.051
-580.806	800.000	-0.055	-0.161
-579.792	488.636	0.037	0.085
-578.777	-71.988	-0.199	-0.074
-577.763	-50.805	0.274	-0.128
-576.748	-200.000	0.027	0.177
-575.733	-200.000	0.044	0.206
-574.719	-64.249	0.198	0.080
-573.704	-200.000	0.010	0.205
-572.690	-200.000	-0.044	0.526
-571.675	259.573	-0.043	-0.074
-570.661	-42.915	-0.238	-0.121
-569.646	131.420	0.170	-0.217
-568.631	-113.091	-0.225	0.044
-567.617	-90.072	0.066	-0.019
-566.602	-124.628	0.311	-0.048
-565.588	-116.954	0.071	0.013
-564.573	800.000	0.055	-0.225
-563.558	-139.215	0.010	-0.001
-562.544	353.476	-0.267	0.529
-561.529	74.223	-0.245	-0.257
-560.515	-62.383	0.102	0.042
-559.500	-73.596	-0.386	0.140
-558.485	-121.363	0.129	0.021
-557.471	2.619	0.298	-0.215
-556.456	157.295	0.218	-0.301
-555.442	4.625	0.176	-0.129
-554.427	239.853	0.094	-0.157
-553.412	-200.000	-0.006	-0.168
-552.398	-200.000	0.034	0.194
-551.383	-19.821	-0.184	0.113
-550.369	-31.723	0.150	0.084
-549.354	-124.170	0.036	0.006
-548.339	522.413	-0.164	0.384
-547.325	-32.607	-0.043	0.024
-546.310	111.569	0.125	-0.150
-545.296	-15.912	0.179	0.113
-544.281	800.000	0.089	-0.310
-543.266	43.509	0.126	-0.115
-542.252	771.853	-0.060	-0.163
-541.237	-46.760	0.029	0.014
-540.223	107.527	0.133	-0.157
-539.208	440.545	-0.068	-0.148
-538.193	800.000	0.075	-0.220
-537.179	-100.823	-0.078	0.019
-536.164	-53.527	-0.257	-0.117
-535.150	121.033	0.133	-0.164
-534.135	-75.406	-0.212	-0.075
-533.121	-55.374	0.150	0.067
-532.106	-75.720	0.103	0.036
-531.091	-29.123	-0.063	0.036
-530.077	-125.525	-0.268	-0.041
-529.062	-17.791	0.312	0.195
-528.048	-127.763	-0.070	0.010
-527.033	-85.176	0.253	0.079
-526.018	-41.442	0.170	0.087
-525.004	-82.903	-0.184	-0.059
-523.989	479.642	0.107	-0.241
-522.975	23.768	-0.184	-0.151
-521.960	173.517	-0.088	-0.127
-520.945	-128.967	-0.130	0.018
-519.931	454.549	0.081	0.179
-518.916	162.111	0.099	0.138
-517.902	-84.320	-0.341	-0.107
-516.887	11.928	-0.304	0.232
-515.872	174.077	-0.164	0.236
-514.858	-200.000	0.068	-0.369
-513.843	72.086	-0.109	-0.113
-512.829	9.430	0.209	0.158
-511.814	621.524	0.056	0.139
-510.799	-179.044	-0.212	-0.005
-509.785	-135.423	0.372	-0.044
-508.770	-13.794	-0.304	0.196
-507.756	-200.000	0.010	0.059
-506.741	-200.000	-0.026	0.257
-505.726	-45.627	-0.153	0.075
-504.712	173.918	0.148	-0.212
-503.697	-84.253	0.072	-0.023
-502.683	15.215	0.284	0.221
-501.668	199.011	-0.062	-0.095
-500.653	-138.571	0.205	-0.022
-499.639	800.000	0.102	-0.299
-498.624	-66.549	0.154	-0.061
-497.610	800.000	0.034	-0.120
-496.595	-50.055	-0.205	-0.097
-495.581	-79.009	-0.289	-0.098
-494.566	-155.222	0.206	-0.013
-493.551	70.946	0.128	-0.131
-492.537	83.411	-0.252	-0.273
-491.522	-139.257	-0.239	-0.026
-490.508	-8.635	0.332	-0.222
-489.493	151.068	0.164	0.222
-488.478	800.000	0.082	0.295
-487.464	-60.600	-0.191	0.080
-486.449	-113.108	0.184	0.036
-485.435	-112.887	0.362	-0.071
-484.420	-100.231	0.345	-0.085
-483.405	-35.330	-0.135	0.073
-482.391	165.510	-0.029	0.041
-481.376	-200.000	0.056	0.322
-480.362	-0.593	-0.140	-0.098
-479.347	27.539	0.140	-0.117
-478.332	239.380	0.142	0.235
-477.318	-200.000	0.046	0.404
-476.303	-118.943	-0.164	-0.029
-475.289	-200.000	-0.001	0.169
-474.274	-139.321	-0.170	0.018
-473.259	800.000	0.129	0.396
-472.245	-158.223	0.161	-0.009
-471.230	-65.865	0.141	0.056
-470.216	-200.000	0.018	-0.173
-469.201	-200.000	-0.035	0.191
-468.186	-104.844	-0.172	-0.039
-467.172	800.000	0.101	-0.348
-466.157	545.049	0.029	-0.069
-465.143	642.267	-0.069	-0.174
-464.128	143.135	-0.142	0.188
-463.113	93.166	-0.172	0.194
-462.099	-200.000	0.011	-0.077
-461.084	-116.373	-0.177	-0.032
-460.070	-76.148	-0.126	0.044
-459.055	800.000	0.024	-0.072
-458.040	26.592	-0.140	-0.116
-457.026	-29.804	-0.056	-0.032
-456.011	225.025	0.109	0.175
-454.997	-91.855	0.170	-0.048
-453.982	-10.389	-0.114	-0.075
-452.968	-200.000	-0.002	0.062
-451.953	39.833	-0.152	-0.135
-450.938	137.386	-0.165	0.215
-449.924	-146.496	-0.218	-0.019
-448.909	651.699	0.104	-0.264
-447.895	-19.069	-0.279	-0.172
-446.880	-197.298	0.421	-0.003
-445.865	800.000	-0.110	0.312
-444.851	15.375	-0.203	-0.158
-443.836	-13.580	0.065	-0.042
-442.822	11.867	-0.113	-0.086
-441.807	-200.000	-0.027	0.335
-440.792	145.468	0.063	0.084
-439.778	-109.940	-0.306	0.064
-438.763	-68.622	-0.150	0.058
-437.749	-41.211	0.254	-0.130
-436.734	-90.300	-0.081	0.023
-435.719	237.966	-0.119	0.195
-434.705	6.619	-0.125	0.092
-433.690	-110.190	-0.265	0.055
-432.676	-200.000	-0.027	0.281
-431.661	20.298	0.234	-0.187
-430.646	-19.342	-0.204	0.125
-429.632	62.427	-0.027	0.026
-428.617	-96.991	-0.069	0.018
-427.603	-136.026	-0.065	-0.008
-426.588	49.670	0.150	0.140
-425.573	800.000	-0.027	-0.101
-424.559	23.612	-0.119	-0.097
-423.544	207.154	0.028	-0.044
-422.530	-117.990	0.193	-0.034
-421.515	19.362	0.134	0.107
-420.500	-200.000	0.045	0.230
-419.486	-52.003	-0.053	-0.024
-418.471	35.970	0.052	0.046
-417.457	34.066	-0.144	-0.125
-416.442	-3.464	-0.136	0.094
-415.428	8.548	0.097	-0.072
-414.413	800.000	-0.064	0.214
-413.398	-200.000	0.012	0.146
-412.384	-8.555	-0.133	-0.089
-411.369	106.061	0.170	0.199
-410.355	-165.166	0.309	0.014
-409.340	-79.138	-0.138	0.047
-408.325	350.958	0.029	-0.056
-407.311	476.667	0.100	-0.224
-406.296	-29.514	0.168	-0.095
-405.282	-119.647	-0.197	-0.034
-404.267	14.248	-0.121	-0.093
-403.252	73.320	0.232	-0.241
-402.238	-23.643	-0.245	-0.146
-401.223	234.795	0.210	-0.343
-400.209	33.823	-0.316	-0.273
-399.194	281.202	0.073	-0.129
-398.179	170.783	-0.110	0.155
-397.165	78.803	-0.160	-0.169
-396.150	-200.000	-0.022	-0.164
-395.136	54.881	0.283	-0.270
-394.121	9.064	-0.127	-0.095
-393.106	-126.106	0.260	-0.039
-392.092	44.154	0.171	0.155
-391.077	375.337	0.152	-0.308
-390.063	-200.000	0.007	-0.208
-389.048	-71.846	0.216	-0.080
-388.033	800.000	0.072	-0.259
-387.019	1.853	-0.246	-0.175
-386.004	-200.000	-0.020	-0.213
-384.990	800.000	-0.106	-0.290
-383.975	-200.000	0.045	0.231
-382.960	-99.291	0.104	-0.026
-381.946	26.094	-0.250	-0.207
-380.931	-65.823	0.131	-0.052
-379.917	-83.971	0.121	0.038
-378.902	-21.848	0.175	-0.105
-377.888	77.055	-0.096	-0.101
-376.873	-56.355	0.222	-0.098
-375.858	8.224	-0.253	0.188
-374.844	240.954	-0.213	-0.352
-373.829	30.967	-0.152	0.129
-372.815	-113.630	0.151	-0.029
-371.800	-121.080	0.077	-0.013
-370.785	-31.651	-0.027	0.015
-369.771	-112.823	-0.249	-0.049
-368.756	-78.646	-0.263	-0.089
-367.742	684.406	0.035	0.090
-366.727	701.943	-0.075	0.196
-365.712	20.236	0.201	0.160
-364.698	-95.874	-0.237	-0.062
-363.683	800.000	-0.101	0.420
-362.669	503.009	-0.108	0.247
-361.654	-10.982	-0.100	-0.065
-360.639	199.797	0.198	-0.301
-359.625	132.943	-0.047	0.061
-358.610	597.591	-0.039	0.096
-357.596	800.000	0.069	-0.213
-356.581	800.000	0.029	-0.082
-355.566	800.000	-0.168	0.546
-354.552	-41.645	0.194	-0.099
-353.537	304.983	0.210	0.386
-352.523	800.000	0.080	0.282
-351.508	-62.613	0.080	0.033
-350.493	-200.000	-0.058	0.261
-349.479	265.261	-0.158	-0.273
-348.464	135.038	0.134	0.172
-347.450	19.342	-0.251	0.199
-346.435	-21.893	-0.363	0.218
-345.420	-6.536	-0.285	0.192
-344.406	800.000	-0.077	-0.247
-343.391	800.000	0.009	-0.028
-342.377	-72.487	0.225	-0.082
-341.362	437.623	-0.106	0.228
-340.348	-111.636	-0.158	0.032
-339.333	84.756	0.067	0.072
-338.318	-159.203	0.147	0.008
-337.304	-84.911	-0.201	-0.062
-336.289	800.000	0.107	0.430
-335.275	-200.000	-0.019	-0.128
-334.260	42.126	0.088	-0.079
-333.245	65.443	0.151	-0.151
-332.231	98.890	-0.113	-0.129
-331.216	-116.411	0.262	0.048
-330.202	151.423	-0.081	0.109
-329.187	353.993	0.064	-0.126
-328.172	-102.507	0.394	0.093
-327.158	-33.008	0.036	0.020
-326.143	-26.054	0.185	-0.108
-325.129	-106.126	-0.295	-0.065
-324.114	-140.240	0.146	0.015
-323.099	74.564	-0.194	-0.201
-322.085	64.171	-0.250	0.249
-321.070	-108.360	0.201	0.043
-320.056	-84.858	-0.244	0.076
-319.041	386.508	0.160	0.326
-318.026	-200.000	0.021	-0.135
-317.012	-200.000	-0.015	0.124
-315.997	493.110	-0.121	0.275
-314.983	-200.000	-0.006	0.201
-313.968	-11.975	-0.210	-0.136
-312.953	-99.889	0.145	-0.036
-311.939	398.761	0.216	-0.447
-310.924	-200.000	0.051	0.228
-309.910	-200.000	-0.022	-0.143
-308.895	-198.832	0.387	0.002
-307.880	-200.000	-0.015	-0.164
-306.866	800.000	-0.138	-0.387
-305.851	-200.000	0.008	-0.089
-304.837	-106.179	-0.111	0.025
-303.822	231.586	-0.098	-0.159
-302.807	-200.000	0.020	0.285
-301.793	-41.245	0.236	-0.120
-300.778	-160.701	0.340	0.018
-299.764	-80.654	-0.167	-0.055
-298.749	244.195	0.075	-0.125
-297.735	192.091	-0.035	-0.052
-296.720	800.000	-0.023	-0.083
-295.705	-161.045	-0.121	0.006
-294.691	-38.525	0.008	-0.004
-293.676	371.117	-0.141	0.281
-292.662	-112.321	-0.465	0.092
-291.647	599.133	-0.033	0.082
-290.632	-200.000	0.026	-0.418
-289.618	-157.511	0.108	-0.006
-288.603	38.163	0.259	0.228
-287.589	-73.810	-0.295	-0.106
-286.574	-63.731	0.283	-0.114
-285.559	-200.000	-0.047	0.214
-284.545	598.774	0.036	0.089
-283.530	38.433	-0.021	-0.018
-282.516	144.840	0.094	-0.124
-281.501	24.936	0.140	0.114
-280.486	-200.000	-0.015	0.389
-279.472	-145.616	-0.116	-0.010
-278.457	619.783	0.117	-0.290
-277.443	90.049	0.174	-0.191
-276.428	64.803	0.302	0.301
-275.413	-105.627	-0.157	0.035
-274.399	-200.000	-0.023	-0.381
-273.384	784.845	-0.118	-0.319
-272.370	97.262	0.134	-0.152
-271.355	-200.000	0.014	0.107
-270.340	-200.000	0.038	-0.287
-269.326	800.000	-0.042	0.124
-268.311	800.000	0.055	0.176
-267.297	216.541	-0.153	0.240
-266.282	-200.000	-0.059	-0.295
-265.267	-200.000	-0.003	0.095
-264.253	800.000	-0.067	-0.286
-263.238	-175.546	-0.178	0.005
-262.224	118.983	0.085	0.104
-261.209	-154.236	-0.185	0.012
-260.195	460.143	-0.048	-0.105
-259.180	-112.193	0.379	-0.075
-258.165	-161.717	0.145	0.007
-257.151	800.000	0.067	0.286
-256.136	800.000	-0.048	0.155
-255.122	23.916	-0.286	-0.232
-254.107	-22.331	0.176	0.105
-253.092	-58.665	0.158	0.067
-252.078	-12.780	0.210	0.135
-251.063	-59.456	0.193	-0.082
-250.049	5.323	0.167	0.121
-249.034	-145.904	-0.362	0.032
-248.019	265.510	0.077	-0.132
-247.005	-200.000	0.019	0.345
-245.990	-91.283	0.196	-0.055
-244.976	38.999	0.289	0.254
-243.961	39.660	-0.113	0.100
-242.946	-200.000	0.032	0.309
-241.932	-24.525	0.370	0.217
-240.917	172.246	0.055	0.078
-239.903	23.345	0.044	-0.035
-238.888	-142.195	0.268	0.026
-237.873	597.460	-0.159	0.387
-236.859	-89.879	0.374	-0.108
-235.844	19.494	0.219	0.174
-234.830	-200.000	0.009	-0.156
-233.815	65.271	-0.028	-0.028
-232.800	69.964	-0.128	-0.130
-231.786	-200.000	0.001	-0.179
-230.771	800.000	0.094	-0.353
-229.757	57.630	-0.290	-0.279
-228.742	146.429	0.172	0.228
-227.727	800.000	0.025	-0.107
-226.713	16.614	-0.176	0.137
-225.698	-125.341	0.190	0.029
-224.684	44.813	-0.230	-0.208
-223.669	-135.750	-0.210	-0.024
-222.655	115.718	0.153	0.184
-221.640	-200.000	0.038	0.218
-220.625	380.100	-0.078	0.157
-219.611	-81.135	-0.043	0.014
-218.596	-184.520	-0.306	-0.005
-217.582	-118.952	-0.204	-0.035
-216.567	-200.000	0.038	-0.255
-215.552	-13.151	-0.137	-0.088
-214.538	-49.673	0.126	0.059
-213.523	-200.000	-0.055	-0.407
-212.509	800.000	-0.063	0.242
-211.494	-146.475	-0.334	-0.029
-210.479	-119.947	0.343	0.058
-209.465	127.688	0.211	-0.264
-208.450	800.000	-0.021	0.076
-207.436	320.691	-0.075	0.141
-206.421	-52.558	0.247	0.112
-205.406	113.320	0.162	0.193
-204.392	368.105	-0.093	0.184
-203.377	-200.000	0.019	0.252
-202.363	160.725	0.140	0.193
-201.348	-184.238	-0.185	0.003
-200.333	-160.256	-0.070	0.004
-199.319	-44.239	-0.156	0.077
-198.304	-115.138	0.073	0.014
-197.290	-70.438	0.029	-0.011
-196.275	586.058	-0.099	-0.239
-195.260	108.710	-0.305	-0.358
-194.246	228.279	0.174	-0.279
-193.231	-152.087	0.029	-0.002
-192.217	465.338	0.098	-0.217
-191.202	-155.525	0.203	-0.013
-190.187	-152.768	-0.130	0.009
-189.173	291.807	0.212	0.378
-188.158	-200.000	0.034	-0.371
-187.144	199.950	0.194	-0.293
-186.129	477.503	-0.116	0.258
-185.114	-157.338	0.306	0.018
-184.100	159.669	-0.068	0.093
-183.085	-200.000	-0.040	-0.342
-182.071	-200.000	0.023	0.343
-181.056	-200.000	0.010	0.082
-180.042	-200.000	-0.029	0.255
-179.027	-200.000	-0.002	-0.085
-178.012	559.390	0.100	0.236
-176.998	61.490	0.082	0.080
-175.983	-200.000	0.013	0.228
-174.969	-112.508	0.118	-0.023
-173.954	800.000	-0.087	0.341
-172.939	158.555	0.011	-0.015
-171.925	-200.000	0.033	0.318
-170.910	425.756	0.057	0.120
-169.896	-200.000	0.033	-0.143
-168.881	-98.161	0.191	-0.048
-167.866	-150.938	0.200	0.015
-166.852	72.019	0.168	0.171
-165.837	-189.409	-0.286	0.003
-164.823	-116.177	-0.166	0.030
-163.808	-80.598	0.426	0.139
-162.793	-200.000	-0.020	-0.164
-161.779	14.735	-0.041	-0.032
-160.764	108.140	0.039	-0.046
-159.750	34.566	-0.084	0.072
-158.735	268.343	0.096	0.166
-157.720	-200.000	0.015	0.399
-156.706	-128.944	0.215	-0.030
-155.691	-11.642	0.230	-0.148
-154.677	-83.366	-0.319	0.100
-153.662	314.747	0.200	0.369
-152.647	41.524	-0.246	-0.218
-151.633	-101.250	-0.283	-0.068
-150.618	-200.000	-0.025	0.230
-149.604	-200.000	0.022	0.107
-148.589	279.008	0.170	-0.298
-147.574	63.591	-0.140	0.138
-146.560	-148.630	-0.169	0.014
-145.545	20.872	-0.055	-0.044
-144.531	462.994	0.120	0.262
-143.516	411.268	0.112	0.233
-142.502	-93.832	0.240	-0.065
-141.487	-92.613	-0.060	-0.017
-140.472	-19.253	0.075	-0.046
-139.458	723.572	-0.053	0.138
-138.443	-200.000	0.035	0.335
-137.429	-200.000	0.006	-0.229
-136.414	-12.485	0.071	-0.045
-135.399	79.500	0.158	0.166
-134.385	-48.621	0.261	-0.123
-133.370	-74.685	-0.053	0.019
-132.356	-160.865	-0.416	0.022
-131.341	800.000	-0.065	0.205
-130.326	-22.405	-0.218	-0.129
-129.312	2.052	0.249	-0.176
-128.297	-56.486	0.148	0.065
-127.283	305.069	0.082	-0.149
-126.268	-92.715	0.508	0.139
-125.253	568.615	0.014	0.033
-124.239	250.672	0.069	-0.115
-123.224	18.643	-0.249	0.195
-122.210	-26.165	-0.114	-0.065
