DTS Sentinel unit serial number:	SN413079Multiplexer serial number:	ORYXHardware model number:	OX4-SRSoftware version number:	ORYX F/W v4.00 Oryx Data Collector v3.7.2.0data status	okinstallation	princeton_trtdifferential loss correction	single-endedforward channel	channel 4reverse channel	N/Adate	2019/09/15time	14:13:34forward acquisition time	60.00reverse acquisition time	0.00gamma	496.2192k internal	0.2288k external	0.2288temperature offset calibration	0.9995default loss term (dB/km)	0.3790temperature slope calibration	1.0000multiplexer offset coefficient	1.0000multiplexer slope coefficient	1.0000fibre end	0.00T internal ref (°C)	38.84T ext. ref 1 (°C)	4.96T ext. ref 2 (°C)	36.14length (m)	temperature (°C)	Stokes	anti-Stokes-747.200	374.583	-0.029	-0.061
-746.185	-200.000	0.051	0.310
-745.171	-200.000	0.024	0.206
-744.156	164.230	0.168	0.242
-743.142	32.845	0.214	0.190
-742.127	40.761	0.304	0.281
-741.112	193.921	-0.282	-0.437
-740.098	800.000	0.030	0.123
-739.083	-59.599	-0.221	0.097
-738.069	-53.526	0.315	-0.148
-737.054	-200.000	-0.012	-0.436
-736.039	35.110	-0.157	0.141
-735.025	-200.000	-0.066	0.514
-734.010	-65.699	-0.211	-0.086
-732.996	157.347	0.294	0.416
-731.981	-200.000	0.079	-0.363
-730.966	-67.172	-0.325	0.131
-729.952	-9.543	-0.336	0.230
-728.937	-138.895	-0.264	-0.029
-727.923	-51.119	0.124	-0.060
-726.908	-82.898	-0.302	-0.100
-725.894	24.604	-0.226	-0.192
-724.879	-89.772	-0.247	0.074
-723.864	-200.000	0.022	-0.272
-722.850	-200.000	-0.022	0.279
-721.835	-155.601	0.183	0.012
-720.821	-89.310	-0.263	-0.079
-719.806	-17.460	0.107	0.069
-718.791	800.000	0.072	-0.272
-717.777	1.770	-0.281	-0.208
-716.762	-96.418	-0.119	0.032
-715.748	-139.476	0.126	-0.014
-714.733	-85.291	0.227	0.072
-713.718	-14.510	0.022	-0.015
-712.704	-85.262	-0.195	0.062
-711.689	-200.000	0.027	-0.124
-710.675	-27.597	-0.234	0.139
-709.660	0.136	-0.224	-0.163
-708.645	111.317	-0.038	-0.047
-707.631	65.272	-0.086	-0.089
-706.616	-2.521	-0.150	-0.108
-705.602	110.342	0.124	0.153
-704.587	-200.000	0.005	-0.197
-703.572	-84.724	0.346	-0.111
-702.558	-200.000	0.085	-0.395
-701.543	800.000	0.136	0.450
-700.529	-64.736	-0.212	-0.088
-699.514	201.469	-0.041	0.064
-698.499	240.345	-0.135	-0.231
-697.485	-200.000	0.077	-0.352
-696.470	-79.402	-0.199	-0.069
-695.456	115.553	0.147	0.184
-694.441	90.828	-0.156	-0.179
-693.426	-113.161	0.282	-0.057
-692.412	-115.032	-0.566	0.110
-691.397	-200.000	0.007	-0.336
-690.383	539.038	-0.018	-0.044
-689.368	61.932	-0.201	-0.205
-688.354	461.056	-0.045	0.102
-687.339	-200.000	0.078	-0.497
-686.324	-95.800	-0.265	-0.072
-685.310	-105.844	-0.075	-0.017
-684.295	-200.000	-0.101	-0.000
-683.281	-115.856	0.105	0.020
-682.266	800.000	0.013	-0.051
-681.251	162.217	-0.084	0.120
-680.237	-131.193	-0.109	0.015
-679.222	-111.028	0.196	-0.041
-678.208	-89.843	-0.316	-0.094
-677.193	800.000	0.053	0.152
-676.178	-70.855	-0.150	-0.058
-675.164	139.873	-0.055	0.074
-674.149	-101.524	0.412	-0.103
-673.135	-200.000	0.012	-0.328
-672.120	-56.975	-0.328	0.148
-671.105	-98.388	-0.168	0.044
-670.091	370.629	-0.107	-0.222
-669.076	-118.442	0.193	-0.035
-668.062	152.228	-0.047	-0.066
-667.047	101.105	0.072	0.086
-666.032	-135.441	-0.214	0.026
-665.018	378.006	0.091	-0.191
-664.003	-173.432	0.232	-0.007
-662.989	-200.000	0.027	-0.141
-661.974	-37.496	-0.211	-0.115
-660.959	-200.000	-0.075	0.386
-659.945	-38.831	-0.317	0.171
-658.930	387.459	-0.114	0.240
-657.916	-63.668	0.120	0.050
-656.901	-38.836	0.140	-0.076
-655.886	-110.112	-0.141	-0.030
-654.872	-168.469	-0.122	0.005
-653.857	-64.764	-0.023	-0.010
-652.843	-136.454	0.069	-0.008
-651.828	139.658	0.405	-0.544
-650.814	-200.000	0.038	-0.427
-649.799	242.292	0.097	-0.166
-648.784	800.000	0.044	-0.139
-647.770	-84.756	0.166	0.053
-646.755	-12.454	0.102	0.068
-645.741	-18.750	-0.103	0.066
-644.726	800.000	-0.092	-0.352
-643.711	3.749	0.031	0.023
-642.697	-174.469	-0.172	-0.005
-641.682	-83.572	-0.168	-0.055
-640.668	23.100	0.197	-0.165
-639.653	-127.563	-0.153	-0.023
-638.638	800.000	0.022	0.096
-637.624	477.436	-0.040	0.091
-636.609	-112.393	-0.310	-0.063
-635.595	-99.778	-0.102	-0.026
-634.580	-155.779	-0.105	0.007
-633.565	-199.521	-0.066	-0.000
-632.551	-159.339	-0.088	-0.005
-631.536	68.166	-0.169	-0.176
-630.522	460.292	0.095	-0.215
-629.507	19.595	-0.121	-0.099
-628.492	393.536	0.053	-0.113
-627.478	15.496	-0.142	0.113
-626.463	800.000	0.073	0.228
-625.449	-155.099	0.514	-0.034
-624.434	57.713	-0.182	-0.182
-623.419	-31.718	-0.047	0.027
-622.405	45.404	0.335	0.316
-621.390	13.524	-0.072	0.057
-620.376	41.132	0.161	-0.148
-619.361	791.642	-0.051	-0.144
-618.346	-200.000	0.022	0.104
-617.332	-82.245	-0.283	0.094
-616.317	222.930	0.049	-0.081
-615.303	-200.000	-0.002	0.202
-614.288	402.968	0.012	-0.025
-613.273	-165.751	0.335	-0.015
-612.259	358.069	-0.083	0.169
-611.244	-159.940	-0.121	-0.007
-610.230	800.000	-0.125	-0.353
-609.215	197.170	-0.143	-0.222
-608.201	-0.581	-0.184	-0.133
-607.186	800.000	0.113	0.327
-606.171	-200.000	-0.087	-0.415
-605.157	461.179	0.018	-0.040
-604.142	124.379	0.104	0.134
-603.128	-132.865	-0.194	0.025
-602.113	31.576	0.314	0.275
-601.098	-200.000	-0.021	-0.208
-600.084	-200.000	-0.028	-0.394
-599.069	-200.000	0.050	-0.262
-598.055	30.386	-0.198	-0.173
-597.040	-95.776	-0.151	-0.041
-596.025	-53.403	-0.325	-0.152
-595.011	3.903	0.402	-0.300
-593.996	-200.000	-0.042	-0.281
-592.982	-72.071	-0.252	0.095
-591.967	73.727	-0.204	0.218
-590.952	-107.608	-0.388	0.086
-589.938	-84.803	-0.456	0.146
-588.923	-71.746	0.230	-0.087
-587.909	-23.676	0.220	0.135
-586.894	11.870	0.270	-0.212
-585.879	-75.000	-0.099	-0.036
-584.865	-15.500	-0.232	-0.151
-583.850	-200.000	0.010	-0.132
-582.836	58.157	0.038	0.038
-581.821	82.514	-0.051	-0.057
-580.806	-31.948	0.135	0.077
-579.792	373.341	-0.038	-0.078
-578.777	122.460	-0.215	-0.274
-577.763	403.981	0.185	-0.396
-576.748	-33.358	-0.212	0.119
-575.733	-34.366	0.362	-0.202
-574.719	-19.987	-0.207	0.130
-573.704	-81.774	-0.333	-0.111
-572.690	-78.051	0.088	-0.031
-571.675	60.483	0.095	0.096
-570.661	-59.611	-0.320	0.140
-569.646	-200.000	-0.072	0.521
-568.631	-68.728	0.028	0.011
-567.617	132.539	-0.183	-0.240
-566.602	194.158	0.104	0.160
-565.588	366.832	0.007	-0.015
-564.573	37.521	-0.097	-0.088
-563.558	646.060	0.012	-0.032
-562.544	54.233	0.241	-0.236
-561.529	-167.790	-0.093	0.004
-560.515	-200.000	-0.001	-0.195
-559.500	108.836	-0.068	-0.083
-558.485	52.081	0.033	-0.032
-557.471	241.667	-0.210	0.358
-556.456	514.973	-0.104	-0.248
-555.442	164.297	-0.055	0.079
-554.427	-51.787	-0.147	0.070
-553.412	-20.904	-0.244	0.152
-552.398	225.803	0.038	0.063
-551.383	-37.632	0.118	-0.064
-550.369	-96.158	0.295	-0.080
-549.354	-200.000	0.019	0.345
-548.339	39.247	-0.205	0.186
-547.325	-48.816	0.074	-0.036
-546.310	137.667	0.048	-0.064
-545.296	-200.000	-0.016	-0.159
-544.281	800.000	0.079	0.228
-543.266	100.196	-0.099	-0.116
-542.252	61.922	0.295	-0.299
-541.237	-192.960	-0.212	0.002
-540.223	-200.000	0.023	-0.469
-539.208	-118.335	-0.243	0.044
-538.193	-9.018	0.107	0.073
-537.179	168.827	0.172	0.250
-536.164	-52.665	0.356	0.167
-535.150	-129.871	-0.388	0.054
-534.135	-39.004	0.233	-0.125
-533.121	-200.000	-0.004	0.052
-532.106	-80.542	-0.511	-0.173
-531.091	800.000	-0.035	-0.123
-530.077	-75.943	-0.049	-0.018
-529.062	677.099	0.014	0.038
-528.048	123.207	-0.301	0.383
-527.033	-200.000	-0.024	-0.434
-526.018	207.146	-0.208	-0.329
-525.004	-60.795	0.173	0.075
-523.989	-99.151	-0.411	-0.106
-522.975	-49.358	-0.082	-0.040
-521.960	-27.027	0.169	-0.100
-520.945	270.257	-0.056	-0.101
-519.931	-200.000	0.041	-0.230
-518.916	-36.743	0.125	0.068
-517.902	53.851	-0.071	0.070
-516.887	-140.265	-0.110	0.012
-515.872	-200.000	-0.001	-0.182
-514.858	53.055	-0.132	0.128
-513.843	6.589	-0.160	0.121
-512.829	-23.402	-0.306	0.187
-511.814	-200.000	-0.015	0.125
-510.799	-61.871	-0.108	0.046
-509.785	-130.762	0.314	0.043
-508.770	-33.314	0.155	0.087
-507.756	-87.183	-0.119	0.037
-506.741	-200.000	-0.003	-0.262
-505.726	693.431	-0.044	-0.118
-504.712	-111.286	-0.292	0.061
-503.697	-150.805	-0.299	0.023
-502.683	-200.000	0.015	-0.327
-501.668	20.298	0.128	-0.105
-500.653	-33.680	0.191	0.107
-499.639	800.000	0.069	-0.263
-498.624	257.733	-0.127	-0.222
-497.610	45.108	0.136	-0.127
-496.595	37.131	-0.181	0.163
-495.581	-104.362	-0.159	0.037
-494.566	-28.406	-0.174	0.102
-493.551	-110.770	0.075	-0.016
-492.537	-200.000	0.006	-0.044
-491.522	427.245	0.061	-0.134
-490.508	-200.000	-0.003	-0.111
-489.493	-41.912	-0.288	-0.150
-488.478	-144.465	-0.207	0.019
-487.464	-18.717	0.041	0.026
-486.449	-200.000	-0.480	0.002
-485.435	142.842	-0.081	0.110
-484.420	-200.000	0.034	0.329
-483.405	610.045	0.074	-0.188
-482.391	258.818	0.141	0.246
-481.376	-78.156	0.340	0.119
-480.362	-130.996	-0.228	0.031
-479.347	-122.482	-0.229	-0.038
-478.332	91.589	0.092	0.105
-477.318	155.318	0.062	-0.086
-476.303	-183.396	-0.337	0.006
-475.289	-200.000	-0.026	0.150
-474.274	130.228	-0.099	-0.129
-473.259	-32.299	-0.315	-0.178
-472.245	-200.000	0.015	-0.203
-471.230	-83.317	0.248	-0.081
-470.216	43.787	0.166	0.154
-469.201	397.655	0.164	-0.349
-468.186	-111.399	0.187	0.039
-467.172	-56.482	-0.176	0.079
-466.157	-99.790	0.130	0.033
-465.143	-26.665	0.106	0.063
-464.128	-200.000	0.000	-0.165
-463.113	226.409	0.086	0.141
-462.099	-200.000	0.024	-0.176
-461.084	113.156	-0.278	0.342
-460.070	4.678	0.103	0.077
-459.055	-200.000	-0.006	0.145
-458.040	-147.242	-0.186	0.016
-457.026	-135.027	0.349	0.043
-456.011	389.452	-0.056	-0.118
-454.997	-31.051	-0.157	-0.090
-453.982	497.440	0.137	-0.319
-452.968	180.253	-0.119	-0.177
-451.953	325.131	0.127	0.247
-450.938	248.113	-0.027	-0.047
-449.924	-156.220	-0.282	0.018
-448.909	-58.282	-0.263	-0.116
-447.895	40.242	-0.251	0.228
-446.880	800.000	-0.041	0.158
-445.865	84.018	0.126	0.139
-444.851	6.019	0.176	0.132
-443.836	800.000	0.111	-0.319
-442.822	-183.400	0.064	0.001
-441.807	-67.958	0.268	0.106
-440.792	65.075	0.089	-0.092
-439.778	-200.000	0.006	0.205
-438.763	-171.815	0.204	0.007
-437.749	-29.175	-0.141	0.082
-436.734	-46.779	-0.268	-0.133
-435.719	-200.000	0.011	0.240
-434.705	57.619	-0.020	0.020
-433.690	-200.000	0.013	-0.109
-432.676	-2.596	-0.257	-0.182
-431.661	-90.281	0.077	-0.023
-430.646	800.000	-0.038	0.111
-429.632	-200.000	-0.008	0.302
-428.617	120.855	0.083	-0.105
-427.603	120.622	0.133	-0.167
-426.588	198.943	0.126	-0.195
-425.573	120.150	0.368	-0.462
-424.559	-106.162	0.371	0.084
-423.544	-200.000	-0.017	-0.088
-422.530	800.000	0.022	-0.085
-421.515	-146.327	0.112	-0.010
-420.500	63.130	0.138	-0.140
-419.486	-125.391	-0.140	-0.022
-418.471	187.874	0.144	0.218
-417.457	246.070	0.184	0.313
-416.442	492.008	-0.061	0.142
-415.428	-96.039	0.093	-0.025
-414.413	-200.000	0.037	0.183
-413.398	-200.000	-0.042	0.387
-412.384	-200.000	-0.020	0.477
-411.369	800.000	-0.031	0.105
-410.355	103.164	0.078	0.092
-409.340	442.658	0.065	-0.145
-408.325	583.012	0.045	0.112
-407.311	-101.432	0.253	-0.062
-406.296	800.000	0.057	0.171
-405.282	-200.000	-0.011	-0.095
-404.267	800.000	-0.090	0.395
-403.252	315.390	0.187	0.357
-402.238	105.814	0.023	-0.027
-401.223	83.222	0.142	-0.157
-400.209	71.451	-0.138	0.145
-399.194	75.007	-0.130	-0.138
-398.179	-200.000	0.052	0.289
-397.165	800.000	0.061	0.234
-396.150	721.138	-0.077	0.207
-395.136	0.522	0.098	0.071
-394.121	6.632	-0.201	0.151
-393.106	-62.341	-0.169	-0.071
-392.092	-200.000	0.007	-0.369
-391.077	-91.565	-0.101	0.029
-390.063	43.092	-0.291	-0.268
-389.048	19.211	0.212	-0.172
-388.033	-146.612	0.091	0.008
-387.019	458.686	-0.084	-0.188
-386.004	105.905	-0.058	-0.069
-384.990	800.000	-0.071	0.247
-383.975	-200.000	0.048	0.383
-382.960	800.000	-0.015	-0.044
-381.946	-200.000	0.005	0.338
-380.931	220.114	0.200	0.324
-379.917	-80.375	0.149	0.050
-378.902	90.985	-0.106	0.120
-377.888	18.716	0.225	0.182
-376.873	-50.857	-0.117	0.055
-375.858	179.278	-0.032	-0.047
-374.844	192.367	-0.184	0.280
-373.829	56.207	-0.115	0.113
-372.815	-64.036	-0.130	0.054
-371.800	-49.441	-0.443	0.213
-370.785	70.357	-0.023	0.024
-369.771	-13.637	-0.064	0.042
-368.756	-200.000	0.034	-0.157
-367.742	-130.512	-0.310	0.042
-366.727	-55.049	0.296	-0.135
-365.712	-99.585	-0.232	0.059
-364.698	52.250	0.310	0.299
-363.683	-122.006	0.272	-0.045
-362.669	-200.000	0.004	0.036
-361.654	41.145	0.143	0.131
-360.639	-200.000	-0.012	0.248
-359.625	-154.167	0.114	0.008
-358.610	-42.277	-0.072	-0.037
-357.596	-14.630	0.079	-0.051
-356.581	-21.320	-0.221	-0.136
-355.566	210.020	0.343	0.543
-354.552	21.140	0.313	0.256
-353.537	206.297	0.067	-0.105
-352.523	146.602	0.118	0.161
-351.508	-200.000	0.032	-0.276
-350.493	-42.480	-0.246	0.127
-349.479	128.083	-0.372	0.477
-348.464	228.134	-0.151	0.248
-347.450	800.000	0.124	0.484
-346.435	245.017	-0.075	-0.127
-345.420	-200.000	0.035	-0.233
-344.406	-126.375	-0.067	-0.010
-343.391	299.868	0.103	-0.191
-342.377	476.916	-0.063	-0.143
-341.362	600.965	-0.043	-0.107
-340.348	-97.421	-0.104	-0.027
-339.333	-154.712	-0.224	-0.015
-338.318	-115.832	0.339	0.064
-337.304	-11.174	0.076	0.051
-336.289	-200.000	-0.017	0.300
-335.275	-115.248	-0.241	-0.046
-334.260	800.000	-0.055	-0.229
-333.245	173.242	-0.221	-0.321
-332.231	-200.000	-0.007	-0.401
-331.216	71.115	0.192	-0.200
-330.202	-200.000	0.042	-0.215
-329.187	-200.000	-0.024	0.225
-328.172	-200.000	-0.087	0.404
-327.158	743.776	0.076	-0.206
-326.143	-200.000	0.026	-0.212
-325.129	29.374	-0.176	0.151
-324.114	-165.025	-0.039	-0.002
-323.099	-5.919	-0.264	-0.182
-322.085	742.792	0.053	0.143
-321.070	80.160	-0.125	0.136
-320.056	323.901	-0.025	0.048
-319.041	186.173	0.168	0.253
-318.026	179.530	-0.145	-0.214
-317.012	-200.000	0.006	-0.213
-315.997	800.000	-0.030	-0.107
-314.983	22.828	0.113	0.093
-313.968	-52.103	0.252	0.118
-312.953	-200.000	-0.000	-0.097
-311.939	-200.000	-0.045	0.218
-310.924	-26.849	0.247	0.146
-309.910	-146.999	0.278	0.024
-308.895	-71.226	0.072	-0.027
-307.880	-28.523	-0.309	-0.180
-306.866	681.482	-0.013	-0.034
-305.851	-200.000	-0.080	0.469
-304.837	-9.263	0.099	0.067
-303.822	304.950	0.132	0.247
-302.807	-68.746	-0.218	0.085
-301.793	-200.000	0.000	0.005
-300.778	-183.855	-0.171	0.003
-299.764	68.465	0.167	-0.173
-298.749	-72.350	0.260	0.097
-297.735	729.670	0.076	-0.205
-296.720	800.000	-0.048	-0.186
-295.705	41.578	0.218	-0.199
-294.691	-200.000	-0.032	0.154
-293.676	-200.000	0.028	-0.195
-292.662	-21.350	0.055	0.034
-291.647	-200.000	-0.012	-0.072
-290.632	-200.000	-0.004	0.131
-289.618	-95.202	-0.237	-0.064
-288.603	702.581	-0.049	-0.130
-287.589	162.431	0.087	0.123
-286.574	92.203	0.142	-0.162
-285.559	-200.000	-0.028	-0.145
-284.545	29.887	-0.147	-0.126
-283.530	470.099	-0.113	-0.257
-282.516	4.711	0.133	-0.098
-281.501	-137.895	0.179	-0.020
-280.486	231.345	-0.079	0.131
-279.472	1.268	-0.111	0.080
-278.457	-89.223	0.358	0.106
-277.443	-1.468	0.307	-0.218
-276.428	-159.867	0.297	0.016
-275.413	30.537	0.020	-0.017
-274.399	450.439	-0.053	0.117
-273.384	407.309	0.145	-0.309
-272.370	16.655	0.046	-0.037
-271.355	-147.214	0.559	0.048
-270.340	800.000	-0.065	0.218
-269.326	-20.635	0.175	-0.108
-268.311	-200.000	0.022	0.106
-267.297	310.453	0.103	-0.194
-266.282	-103.037	0.248	-0.059
-265.267	249.403	-0.068	-0.116
-264.253	-142.492	-0.059	0.006
-263.238	-128.581	0.170	-0.024
-262.224	-200.000	-0.005	0.254
-261.209	800.000	-0.090	0.263
-260.195	39.174	0.046	-0.041
-259.180	-33.170	0.185	-0.103
-258.165	107.606	-0.135	0.162
-257.151	-135.339	-0.315	-0.038
-256.136	378.649	0.047	0.097
-255.122	-136.105	0.211	-0.025
-254.107	177.816	0.066	0.097
-253.092	-200.000	-0.008	-0.192
-252.078	-200.000	-0.055	0.463
-251.063	548.725	-0.117	0.281
-250.049	131.875	0.057	-0.074
-249.034	-171.486	0.173	0.006
-248.019	-95.765	-0.158	-0.042
-247.005	-83.748	-0.294	-0.094
-245.990	371.685	-0.071	0.146
-244.976	486.606	-0.097	-0.223
-243.961	539.571	0.017	0.041
-242.946	89.336	-0.156	0.175
-241.932	317.226	0.236	0.448
-240.917	800.000	0.084	-0.265
-239.903	376.712	0.137	0.280
-238.888	-176.105	-0.072	-0.002
-237.873	-94.446	0.065	0.018
-236.859	-200.000	-0.020	0.221
-235.844	-58.479	0.327	0.143
-234.830	296.827	0.147	0.270
-233.815	-99.430	-0.245	-0.062
-232.800	107.720	0.214	0.256
-231.786	-44.781	0.123	0.062
-230.771	-80.624	-0.223	-0.075
-229.757	362.560	-0.098	-0.198
-228.742	177.084	0.145	-0.212
-227.727	-53.509	-0.157	-0.072
-226.713	631.034	-0.016	0.041
-225.698	-63.233	0.181	-0.075
-224.684	713.171	-0.088	0.235
-223.669	251.339	-0.128	0.219
-222.655	-10.783	0.256	0.170
-221.640	402.711	-0.067	-0.141
-220.625	-87.872	0.499	-0.151
-219.611	-200.000	-0.001	-0.234
-218.596	-200.000	-0.003	-0.295
-217.582	157.925	0.046	-0.064
-216.567	300.672	0.121	0.224
-215.552	-63.353	-0.091	-0.038
-214.538	240.728	0.095	0.159
-213.523	-62.592	0.253	-0.105
-212.509	800.000	0.054	0.153
-211.494	-35.986	0.067	-0.036
-210.479	-200.000	-0.031	-0.152
-209.465	-62.785	-0.071	-0.029
-208.450	557.878	0.044	0.105
-207.436	-200.000	0.047	-0.243
-206.421	-43.074	-0.210	-0.107
-205.406	-200.000	-0.034	0.164
-204.392	441.797	-0.211	0.463
-203.377	-200.000	0.041	-0.345
-202.363	-72.566	0.210	-0.078
-201.348	800.000	-0.013	0.048
-200.333	302.757	0.046	0.086
-199.319	-12.987	0.387	0.253
-198.304	-158.304	-0.391	-0.023
-197.290	-200.000	-0.129	-0.571
-196.275	-98.276	-0.115	-0.030
-195.260	34.941	0.183	-0.160
-194.246	-67.140	-0.137	-0.054
-193.231	-200.000	-0.040	0.266
-192.217	53.204	0.156	-0.150
-191.202	-200.000	-0.022	-0.274
-190.187	56.096	0.232	-0.226
-189.173	133.845	-0.146	-0.190
-188.158	-80.710	0.213	-0.071
-187.144	236.586	0.043	0.072
-186.129	37.580	0.101	-0.090
-185.114	555.335	-0.180	-0.436
-184.100	-81.991	-0.288	0.094
-183.085	-200.000	0.059	0.276
-182.071	190.330	0.070	0.106
-181.056	59.172	-0.051	0.050
-180.042	798.477	0.099	-0.275
-179.027	-67.835	0.152	0.059
-178.012	703.556	-0.125	0.330
-176.998	800.000	-0.083	-0.316
-175.983	-200.000	0.040	-0.313
-174.969	215.212	-0.113	-0.180
-173.954	-47.561	0.145	0.071
-172.939	-151.909	0.394	0.029
-171.925	-200.000	0.150	0.000
-170.910	-200.000	0.018	-0.307
-169.896	-80.439	0.246	-0.082
-168.881	800.000	0.042	-0.131
-167.866	247.431	-0.136	0.231
-166.852	166.787	-0.072	-0.103
-165.837	-78.839	0.093	0.032
-164.823	79.851	0.152	0.163
-163.808	-154.000	-0.306	-0.021
-162.793	-68.203	-0.098	0.038
-161.779	-200.000	-0.025	0.196
-160.764	376.130	0.041	0.085
-159.750	800.000	0.058	0.236
-158.735	-200.000	0.007	-0.268
-157.720	196.605	0.226	-0.346
-156.706	409.186	-0.075	0.160
-155.691	-27.112	-0.154	0.090
-154.677	-94.753	0.192	-0.052
-153.662	-91.567	0.205	0.059
-152.647	-27.072	0.156	0.091
-151.633	800.000	0.054	0.192
-150.618	682.684	0.223	0.582
-149.604	-76.084	0.354	-0.125
-148.589	575.867	-0.090	0.219
-147.574	-200.000	0.025	-0.215
-146.560	-25.808	-0.060	0.036
-145.545	146.386	0.041	0.056
-144.531	204.961	-0.055	0.086
-143.516	-9.935	-0.041	0.027
-142.502	65.959	0.050	-0.051
-141.487	800.000	0.083	-0.332
-140.472	-200.000	-0.252	-0.001
-139.458	89.706	0.196	0.219
-138.443	-0.218	0.214	-0.152
-137.429	-122.059	0.121	0.020
-136.414	-23.193	-0.069	-0.041
-135.399	-200.000	-0.048	0.402
-134.385	42.805	-0.063	-0.058
-133.370	800.000	0.007	-0.029
-132.356	-89.770	-0.207	-0.061
-131.341	-134.795	0.021	0.003
-130.326	-158.560	-0.222	-0.013
-129.312	800.000	-0.017	-0.055
-128.297	-52.134	-0.046	-0.022
-127.283	-45.409	0.251	0.125
-126.268	-74.525	0.076	-0.027
-125.253	-84.264	0.056	0.018
-124.239	57.852	0.119	-0.117
-123.224	57.953	0.114	0.111
-122.210	60.352	0.082	0.082
