DTS Sentinel unit serial number:	SN413079Multiplexer serial number:	ORYXHardware model number:	OX4-SRSoftware version number:	ORYX F/W v4.00 Oryx Data Collector v3.7.2.0data status	okinstallation	princeton_trtdifferential loss correction	single-endedforward channel	channel 4reverse channel	N/Adate	2019/09/15time	20:29:34forward acquisition time	60.00reverse acquisition time	0.00gamma	496.2192k internal	0.2313k external	0.2313temperature offset calibration	0.9934default loss term (dB/km)	0.3790temperature slope calibration	1.0000multiplexer offset coefficient	1.0000multiplexer slope coefficient	1.0000fibre end	0.00T internal ref (°C)	33.50T ext. ref 1 (°C)	7.81T ext. ref 2 (°C)	25.25length (m)	temperature (°C)	Stokes	anti-Stokes-747.200	188.241	-0.232	-0.351
-746.185	293.108	-0.119	0.220
-745.171	620.369	-0.099	0.251
-744.156	7.065	0.101	-0.077
-743.142	-112.548	-0.164	0.033
-742.127	-93.393	0.283	-0.079
-741.112	-94.630	0.126	-0.035
-740.098	255.694	-0.104	-0.181
-739.083	800.000	0.047	0.182
-738.069	-200.000	0.024	0.376
-737.054	800.000	0.052	-0.151
-736.039	-17.096	-0.299	-0.192
-735.025	-67.354	0.365	0.146
-734.010	-138.552	0.227	0.025
-732.996	59.907	-0.143	-0.143
-731.981	-184.073	-0.209	-0.004
-730.966	-80.764	-0.281	0.095
-729.952	-200.000	-0.007	0.204
-728.937	-106.085	-0.381	-0.087
-727.923	800.000	-0.010	-0.045
-726.908	-131.273	-0.281	0.038
-725.894	107.305	0.152	0.183
-724.879	800.000	0.026	-0.102
-723.864	-97.591	0.381	0.100
-722.850	-116.316	-0.142	-0.027
-721.835	-75.131	0.239	0.086
-720.821	3.106	0.099	0.073
-719.806	-122.603	-0.453	0.074
-718.791	340.965	0.153	-0.303
-717.777	-200.000	-0.011	0.083
-716.762	800.000	0.017	0.072
-715.748	800.000	0.035	0.112
-714.733	-16.578	-0.082	-0.053
-713.718	-182.134	-0.211	0.004
-712.704	429.768	0.044	-0.097
-711.689	800.000	0.048	-0.150
-710.675	3.027	0.239	0.176
-709.660	-151.695	-0.346	0.026
-708.645	751.418	-0.110	-0.302
-707.631	-200.000	-0.015	0.097
-706.616	-200.000	0.021	-0.100
-705.602	4.813	0.158	0.118
-704.587	181.071	-0.126	0.187
-703.572	-97.101	-0.180	-0.048
-702.558	145.184	-0.256	0.347
-701.543	-42.147	0.103	0.054
-700.529	-96.697	-0.183	-0.049
-699.514	-159.268	-0.170	0.010
-698.499	-93.066	-0.452	0.127
-697.485	800.000	-0.038	0.137
-696.470	182.738	-0.164	0.244
-695.456	800.000	0.037	-0.162
-694.441	-127.966	-0.291	-0.042
-693.426	149.898	0.043	-0.059
-692.412	-200.000	-0.037	-0.287
-691.397	800.000	0.160	-0.450
-690.383	16.879	0.357	-0.286
-689.368	74.775	0.190	0.203
-688.354	14.381	0.158	0.125
-687.339	800.000	0.102	0.335
-686.324	181.758	0.199	0.297
-685.310	-119.709	0.238	0.042
-684.295	-200.000	0.008	-0.140
-683.281	-200.000	-0.016	0.215
-682.266	-136.454	-0.157	-0.018
-681.251	-200.000	-0.042	0.228
-680.237	144.268	0.157	0.213
-679.222	-129.352	0.185	0.026
-678.208	-200.000	0.084	-0.480
-677.193	-200.000	-0.035	0.234
-676.178	50.600	0.118	0.113
-675.164	-21.463	-0.272	-0.168
-674.149	199.156	0.118	-0.183
-673.135	-48.416	0.262	-0.128
-672.120	800.000	0.112	0.427
-671.105	-76.548	-0.204	0.072
-670.091	-60.941	0.206	-0.088
-669.076	79.419	0.185	-0.201
-668.062	14.003	-0.281	-0.221
-667.047	-200.000	-0.022	0.245
-666.032	-141.809	0.321	-0.032
-665.018	-200.000	0.015	0.217
-664.003	-138.650	-0.390	-0.043
-662.989	-60.962	-0.181	0.077
-661.974	33.838	0.308	-0.271
-660.959	158.535	0.068	0.095
-659.945	135.981	-0.092	0.121
-658.930	117.172	0.316	-0.393
-657.916	578.989	-0.124	-0.307
-656.901	-200.000	-0.034	0.211
-655.886	-200.000	-0.008	-0.035
-654.872	762.013	0.031	0.084
-653.857	200.106	0.036	-0.056
-652.843	-107.745	-0.130	-0.029
-651.828	24.013	-0.113	0.094
-650.814	152.477	-0.224	0.309
-649.799	800.000	-0.113	0.358
-648.784	-200.000	0.017	-0.182
-647.770	262.311	-0.115	0.202
-646.755	-48.639	0.126	-0.061
-645.741	800.000	0.015	0.060
-644.726	55.547	0.050	0.049
-643.711	120.939	-0.076	0.096
-642.697	-200.000	0.004	0.071
-641.682	-19.210	-0.338	-0.212
-640.668	-109.727	-0.321	0.068
-639.653	654.969	-0.197	0.511
-638.638	800.000	-0.091	-0.372
-637.624	6.777	0.115	-0.086
-636.609	117.228	-0.073	0.091
-635.595	-156.338	0.497	-0.031
-634.580	-65.415	-0.086	-0.035
-633.565	-69.626	-0.290	-0.112
-632.551	800.000	-0.007	0.025
-631.536	341.341	-0.021	-0.042
-630.522	-90.811	-0.298	0.087
-629.507	96.704	0.054	-0.063
-628.492	-118.012	0.073	0.013
-627.478	563.013	0.066	-0.160
-626.463	273.553	-0.111	-0.198
-625.449	-200.000	-0.027	0.285
-624.434	-54.856	0.224	0.102
-623.419	-200.000	-0.005	-0.249
-622.405	188.045	-0.246	0.371
-621.390	49.987	-0.168	0.160
-620.376	71.787	0.354	0.371
-619.361	0.132	0.077	0.056
-618.346	13.695	-0.120	0.094
-617.332	-43.008	-0.126	-0.064
-616.317	-16.725	-0.127	-0.081
-615.303	-175.794	-0.224	0.006
-614.288	-200.000	0.003	0.306
-613.273	-200.000	0.074	0.377
-612.259	800.000	0.032	0.143
-611.244	1.629	-0.256	-0.186
-610.230	-71.742	-0.303	-0.114
-609.215	-200.000	-0.007	0.160
-608.201	800.000	0.131	0.408
-607.186	624.018	0.015	0.039
-606.171	-126.520	-0.305	-0.046
-605.157	-66.557	0.065	0.026
-604.142	-113.080	-0.166	-0.033
-603.128	37.510	-0.321	-0.287
-602.113	-132.105	-0.115	-0.015
-601.098	12.129	-0.096	0.075
-600.084	41.421	0.189	0.172
-599.069	-200.000	0.021	-0.314
-598.055	-36.804	0.081	-0.044
-597.040	-200.000	-0.004	-0.066
-596.025	58.513	-0.066	-0.066
-595.011	-98.822	0.204	-0.052
-593.996	-200.000	-0.009	0.063
-592.982	-69.534	0.323	0.125
-591.967	-200.000	-0.015	-0.074
-590.952	465.575	0.072	0.162
-589.938	800.000	-0.041	0.180
-588.923	39.549	-0.200	-0.180
-587.909	-148.474	-0.171	0.014
-586.894	324.612	0.143	-0.276
-585.879	399.175	0.028	0.060
-584.865	187.796	-0.200	-0.300
-583.850	-200.000	0.009	-0.127
-582.836	-12.904	0.234	0.154
-581.821	654.566	-0.060	0.154
-580.806	-200.000	0.006	-0.192
-579.792	-200.000	-0.041	-0.353
-578.777	430.203	0.058	-0.127
-577.763	-200.000	-0.056	-0.294
-576.748	184.536	0.124	-0.185
-575.733	367.195	0.096	-0.195
-574.719	13.384	-0.261	-0.204
-573.704	-174.025	0.165	-0.005
-572.690	800.000	-0.060	-0.227
-571.675	800.000	-0.044	0.144
-570.661	-200.000	0.050	0.289
-569.646	27.406	-0.215	0.182
-568.631	-131.232	0.117	-0.016
-567.617	-200.000	-0.020	0.184
-566.602	546.665	0.098	0.236
-565.588	1.040	-0.271	0.196
-564.573	333.045	0.049	-0.096
-563.558	416.409	0.169	0.363
-562.544	80.398	0.088	-0.096
-561.529	323.088	0.164	0.314
-560.515	355.896	0.123	0.246
-559.500	119.748	-0.116	0.145
-558.485	103.748	-0.219	-0.259
-557.471	619.234	-0.075	-0.190
-556.456	-200.000	-0.041	-0.292
-555.442	-36.477	0.390	0.211
-554.427	-200.000	0.023	-0.267
-553.412	39.908	0.193	0.175
-552.398	-109.326	-0.083	0.018
-551.383	-159.009	0.302	0.017
-550.369	-40.797	-0.304	0.158
-549.354	-119.932	-0.311	0.054
-548.339	-126.871	0.226	0.033
-547.325	-97.928	0.198	0.051
-546.310	-0.296	-0.189	0.135
-545.296	800.000	0.108	-0.321
-544.281	-81.486	-0.141	0.047
-543.266	36.671	-0.291	-0.259
-542.252	-200.000	0.007	-0.033
-541.237	-27.033	-0.209	-0.123
-540.223	29.159	0.184	0.157
-539.208	-131.332	-0.052	0.007
-538.193	-47.669	-0.067	-0.033
-537.179	-198.211	-0.053	0.000
-536.164	354.246	0.120	0.240
-535.150	-83.735	-0.077	0.025
-534.135	-20.254	0.249	0.154
-533.121	800.000	0.039	0.117
-532.106	-4.580	-0.098	-0.068
-531.091	800.000	0.115	-0.362
-530.077	15.477	0.111	-0.087
-529.062	6.749	0.070	0.053
-528.048	-80.361	0.107	0.036
-527.033	84.982	0.241	0.266
-526.018	5.371	0.102	-0.076
-525.004	-104.176	-0.327	-0.076
-523.989	-96.654	-0.228	-0.060
-522.975	118.629	0.094	-0.117
-521.960	390.261	0.092	0.192
-520.945	337.855	-0.107	-0.209
-519.931	800.000	0.010	0.042
-518.916	-14.418	0.204	0.132
-517.902	63.070	0.155	-0.156
-516.887	-200.000	-0.012	-0.557
-515.872	-200.000	-0.006	-0.153
-514.858	-4.657	0.105	-0.073
-513.843	-140.725	-0.216	-0.022
-512.829	-191.246	0.229	-0.002
-511.814	254.900	-0.138	0.237
-510.799	-200.000	0.018	-0.333
-509.785	800.000	-0.028	0.103
-508.770	43.067	0.111	-0.102
-507.756	64.672	0.045	-0.046
-506.741	-162.566	0.132	0.007
-505.726	232.423	0.163	0.268
-504.712	-200.000	0.013	0.287
-503.697	-92.414	0.312	0.088
-502.683	800.000	0.115	0.356
-501.668	-200.000	0.001	0.090
-500.653	-0.988	-0.148	0.105
-499.639	800.000	-0.036	0.114
-498.624	-200.000	0.011	0.118
-497.610	30.152	0.119	-0.102
-496.595	354.653	-0.178	-0.355
-495.581	800.000	-0.080	-0.238
-494.566	163.463	-0.089	-0.125
-493.551	-200.000	-0.081	0.571
-492.537	152.384	0.066	0.091
-491.522	24.081	-0.347	0.288
-490.508	-120.875	0.042	0.007
-489.493	111.961	-0.178	-0.216
-488.478	353.343	0.117	0.232
-487.464	539.348	-0.085	0.202
-486.449	-200.000	-0.008	0.221
-485.435	235.418	0.060	0.099
-484.420	-200.000	-0.041	-0.331
-483.405	-35.845	0.128	-0.070
-482.391	504.285	0.273	-0.635
-481.376	-17.153	-0.122	-0.077
-480.362	-200.000	0.009	-0.144
-479.347	43.434	0.174	0.160
-478.332	431.404	-0.043	0.094
-477.318	-17.200	0.380	-0.240
-476.303	335.936	-0.145	0.283
-475.289	26.318	-0.232	0.194
-474.274	-69.278	-0.059	-0.023
-473.259	-130.157	-0.154	-0.021
-472.245	113.172	0.240	-0.292
-471.230	-123.233	0.074	-0.012
-470.216	-104.414	-0.271	0.063
-469.201	131.818	-0.044	-0.057
-468.186	248.004	-0.235	-0.399
-467.172	764.402	-0.101	-0.274
-466.157	-200.000	-0.009	0.086
-465.143	-200.000	0.008	-0.355
-464.128	171.040	0.172	-0.248
-463.113	82.850	-0.101	0.111
-462.099	-200.000	-0.031	-0.155
-461.084	198.696	0.180	0.276
-460.070	-200.000	0.060	0.369
-459.055	-79.105	-0.192	-0.065
-458.040	369.925	0.152	0.310
-457.026	-110.539	0.120	0.025
-456.011	-110.955	0.116	-0.024
-454.997	-98.065	0.404	0.104
-453.982	99.552	-0.127	-0.147
-452.968	-46.261	-0.067	0.033
-451.953	-200.000	0.006	-0.054
-450.938	800.000	-0.079	0.256
-449.924	-127.755	-0.212	-0.031
-448.909	92.746	-0.263	-0.298
-447.895	-200.000	0.028	0.149
-446.880	231.655	0.109	-0.178
-445.865	-67.199	-0.205	0.081
-444.851	800.000	0.055	-0.177
-443.836	-90.900	0.188	0.054
-442.822	-26.471	0.212	0.125
-441.807	-160.837	0.165	0.009
-440.792	-111.995	0.229	0.046
-439.778	2.628	0.257	-0.186
-438.763	-131.356	-0.278	-0.037
-437.749	-5.973	0.178	0.122
-436.734	8.918	0.102	-0.077
-435.719	55.126	0.279	-0.270
-434.705	3.459	0.178	0.130
-433.690	183.236	-0.150	0.222
-432.676	-63.935	0.143	-0.059
-431.661	-73.281	0.299	-0.110
-430.646	-80.171	0.265	0.089
-429.632	-55.059	-0.198	-0.089
-428.617	-35.589	0.277	0.151
-427.603	117.426	0.140	0.172
-426.588	-156.377	0.256	-0.016
-425.573	-5.734	0.042	-0.029
-424.559	120.089	-0.027	-0.034
-423.544	-127.448	0.251	-0.037
-422.530	54.882	0.160	-0.155
-421.515	20.410	-0.121	-0.098
-420.500	209.265	0.198	0.311
-419.486	800.000	-0.019	0.052
-418.471	-200.000	-0.020	-0.199
-417.457	-52.073	-0.098	0.046
-416.442	-121.976	-0.413	-0.068
-415.428	304.664	-0.103	-0.191
-414.413	-149.035	0.282	-0.023
-413.398	800.000	-0.035	-0.131
-412.384	369.932	0.085	0.172
-411.369	-200.000	0.066	0.293
-410.355	-47.362	0.375	0.183
-409.340	800.000	-0.030	0.097
-408.325	-59.136	-0.422	0.182
-407.311	33.244	-0.163	0.141
-406.296	398.026	0.188	0.394
-405.282	-100.042	-0.379	0.094
-404.267	56.266	-0.102	0.099
-403.252	220.977	0.037	0.059
-402.238	-116.616	0.303	0.056
-401.223	109.985	0.149	-0.179
-400.209	196.943	-0.122	-0.186
-399.194	-200.000	0.025	-0.113
-398.179	-95.986	0.244	0.065
-397.165	435.808	-0.117	-0.255
-396.150	-2.307	-0.133	-0.093
-395.136	800.000	-0.109	-0.333
-394.121	-136.091	-0.227	0.027
-393.106	705.645	-0.098	0.259
-392.092	-200.000	-0.037	0.164
-391.077	-158.281	-0.194	0.011
-390.063	109.522	0.168	-0.201
-389.048	-142.035	0.153	-0.015
-388.033	785.056	0.231	-0.633
-387.019	-200.000	0.006	-0.065
-386.004	365.165	-0.087	-0.174
-384.990	-105.998	0.275	0.062
-383.975	49.794	-0.114	0.107
-382.960	-154.343	-0.137	0.009
-381.946	266.802	0.042	0.073
-380.931	800.000	0.031	0.109
-379.917	154.617	0.176	0.242
-378.902	62.175	0.090	-0.090
-377.888	-200.000	-0.000	-0.019
-376.873	300.320	-0.162	0.299
-375.858	800.000	-0.043	0.156
-374.844	-65.313	-0.260	-0.105
-373.829	-73.510	0.130	0.047
-372.815	800.000	-0.044	0.165
-371.800	-103.863	0.247	-0.058
-370.785	-47.715	-0.258	0.125
-369.771	193.645	-0.123	0.185
-368.756	749.072	0.013	0.036
-367.742	-159.349	0.090	-0.005
-366.727	-51.041	0.255	0.120
-365.712	-65.381	0.181	0.073
-364.698	-35.706	-0.186	0.101
-363.683	-5.373	0.286	-0.196
-362.669	768.517	-0.070	-0.192
-361.654	175.965	0.200	0.289
-360.639	215.471	0.093	-0.147
-359.625	800.000	-0.036	0.115
-358.610	66.706	-0.192	-0.196
-357.596	-142.070	-0.709	-0.070
-356.581	80.045	0.043	0.047
-355.566	-200.000	-0.019	-0.108
-354.552	-47.618	-0.228	-0.111
-353.537	391.986	-0.108	-0.225
-352.523	85.154	-0.046	0.050
-351.508	7.968	0.131	-0.098
-350.493	225.765	-0.049	0.079
-349.479	-200.000	0.045	-0.248
-348.464	-124.699	0.207	0.032
-347.450	-200.000	-0.050	0.332
-346.435	349.791	0.124	0.244
-345.420	186.056	0.102	-0.151
-344.406	-200.000	-0.020	0.098
-343.391	800.000	-0.051	-0.200
-342.377	51.187	-0.128	-0.122
-341.362	-165.546	-0.358	0.016
-340.348	800.000	0.040	0.148
-339.333	-112.983	-0.245	-0.048
-338.318	-200.000	0.037	-0.384
-337.304	-64.909	0.186	-0.075
-336.289	-11.377	-0.459	0.301
-335.275	-59.721	-0.184	-0.079
-334.260	800.000	0.097	-0.365
-333.245	-33.121	0.332	0.184
-332.231	-79.646	-0.202	-0.068
-331.216	-93.796	-0.251	-0.069
-330.202	-200.000	0.016	-0.113
-329.187	790.696	-0.138	0.377
-328.172	-200.000	0.033	0.178
-327.158	-8.984	0.078	-0.052
-326.143	722.018	0.152	0.404
-325.129	17.317	0.098	-0.077
-324.114	-95.736	0.328	0.087
-323.099	68.827	-0.123	-0.126
-322.085	138.948	-0.039	-0.051
-321.070	-14.062	0.136	-0.087
-320.056	-100.106	0.001	0.000
-319.041	-200.000	0.029	-0.128
-318.026	800.000	0.087	0.362
-317.012	47.308	-0.129	-0.120
-315.997	-28.039	0.212	0.122
-314.983	-93.220	-0.081	0.023
-313.968	560.591	0.067	-0.161
-312.953	364.444	0.141	-0.282
-311.939	533.682	0.111	-0.261
-310.924	-102.999	-0.130	0.031
-309.910	-96.305	-0.203	-0.053
-308.895	800.000	0.011	-0.031
-307.880	800.000	-0.036	0.111
-306.866	7.283	-0.190	0.142
-305.851	800.000	0.036	-0.111
-304.837	-107.794	0.126	-0.027
-303.822	-38.449	-0.316	-0.166
-302.807	-141.036	0.252	0.026
-301.793	-200.000	-0.008	-0.258
-300.778	95.463	0.227	0.258
-299.764	-94.543	-0.258	0.070
-298.749	114.170	-0.169	-0.205
-297.735	9.243	-0.151	0.114
-296.720	-200.000	-0.011	0.242
-295.705	-61.272	0.362	0.152
-294.691	-140.725	-0.071	-0.007
-293.676	-130.463	0.475	-0.064
-292.662	800.000	0.062	-0.177
-291.647	398.879	-0.182	0.380
-290.632	-200.000	-0.025	-0.162
-289.618	170.799	0.136	-0.194
-288.603	-84.414	-0.374	-0.118
-287.589	660.415	-0.047	-0.120
-286.574	-70.410	0.158	0.060
-285.559	309.608	0.072	-0.135
-284.545	15.566	-0.269	0.211
-283.530	229.930	-0.023	-0.037
-282.516	-200.000	-0.010	-0.158
-281.501	13.975	-0.107	-0.083
-280.486	-200.000	-0.004	-0.042
-279.472	111.570	0.163	0.196
-278.457	96.998	0.158	-0.180
-277.443	-200.000	-0.022	-0.141
-276.428	-139.747	-0.074	0.008
-275.413	364.523	-0.082	0.165
-274.399	83.309	-0.158	0.171
-273.384	-49.129	0.332	-0.158
-272.370	490.274	0.153	0.349
-271.355	-135.365	-0.203	-0.024
-270.340	-84.789	-0.121	-0.038
-269.326	800.000	0.063	-0.175
-268.311	236.938	-0.184	0.303
-267.297	11.392	0.319	-0.244
-266.282	204.391	-0.145	0.223
-265.267	-108.512	-0.250	0.054
-264.253	347.324	0.033	-0.065
-263.238	-109.995	0.221	0.046
-262.224	-50.490	-0.228	-0.107
-261.209	-127.666	0.140	0.020
-260.195	41.188	-0.025	0.023
-259.180	-135.879	-0.225	-0.026
-258.165	-71.591	0.173	0.064
-257.151	800.000	0.075	-0.294
-256.136	-109.272	0.226	0.048
-255.122	63.673	0.268	-0.268
-254.107	-111.037	-0.419	0.086
-253.092	-200.000	-0.026	-0.209
-252.078	-200.000	-0.072	0.410
-251.063	113.257	-0.092	-0.111
-250.049	-74.021	-0.071	-0.026
-249.034	-169.139	-0.337	-0.012
-248.019	800.000	0.058	0.194
-247.005	-200.000	-0.047	0.258
-245.990	-127.840	0.106	0.015
-244.976	-200.000	-0.083	0.373
-243.961	-175.967	0.062	-0.002
-242.946	-93.745	-0.184	0.050
-241.932	431.075	-0.024	0.052
-240.917	10.454	-0.110	0.083
-239.903	-73.614	0.125	-0.045
-238.888	-197.522	0.094	-0.001
-237.873	138.605	-0.297	-0.388
-236.859	751.073	0.075	0.200
-235.844	-108.359	-0.216	-0.046
-234.830	522.505	0.037	0.086
-233.815	-15.260	-0.286	-0.182
-232.800	-27.054	-0.066	0.039
-231.786	-151.322	0.158	-0.012
-230.771	31.756	-0.058	0.050
-229.757	-118.596	0.095	-0.017
-228.742	108.491	-0.166	-0.196
-227.727	-52.352	0.073	0.034
-226.713	-3.551	0.314	-0.217
-225.698	56.524	-0.079	-0.077
-224.684	363.089	0.080	-0.159
-223.669	405.782	0.081	0.170
-222.655	-70.315	0.302	-0.114
-221.640	-2.141	0.180	-0.126
-220.625	-107.420	0.184	0.040
-219.611	-122.976	-0.099	-0.016
-218.596	-31.746	-0.312	-0.174
-217.582	-106.048	0.176	0.039
-216.567	202.686	0.074	-0.114
-215.552	-144.949	-0.330	0.030
-214.538	-200.000	0.004	-0.186
-213.523	-67.053	0.357	0.140
-212.509	-169.028	-0.668	0.025
-211.494	-200.000	0.033	0.243
-210.479	391.315	0.119	0.246
-209.465	187.841	0.109	-0.162
-208.450	800.000	-0.032	-0.130
-207.436	14.705	0.104	-0.081
-206.421	-79.709	-0.031	0.010
-205.406	-200.000	0.002	-0.020
-204.392	-85.358	0.182	-0.056
-203.377	-81.304	-0.360	0.118
-202.363	-90.072	0.092	0.027
-201.348	99.921	-0.095	0.110
-200.333	218.448	0.242	-0.383
-199.319	-200.000	0.010	-0.224
-198.304	-65.137	0.204	-0.082
-197.290	-89.130	0.089	0.026
-196.275	-17.732	0.134	-0.083
-195.260	172.881	0.073	0.104
-194.246	800.000	-0.063	-0.177
-193.231	578.120	0.074	-0.179
-192.217	199.942	-0.109	0.166
-191.202	27.219	-0.070	0.058
-190.187	-200.000	-0.048	0.220
-189.173	-114.129	0.164	0.031
-188.158	360.851	0.025	-0.050
-187.144	-181.138	0.052	0.001
-186.129	394.170	-0.044	0.092
-185.114	-200.000	0.035	-0.234
-184.100	-27.929	0.251	-0.145
-183.085	-200.000	0.012	-0.383
-182.071	671.518	0.141	-0.362
-181.056	-63.757	0.407	0.166
-180.042	-149.756	0.261	0.020
-179.027	800.000	-0.049	-0.179
-178.012	-150.025	-0.182	-0.014
-176.998	97.211	-0.118	0.134
-175.983	-200.000	0.001	0.060
-174.969	-30.047	-0.242	-0.137
-173.954	-106.164	-0.133	0.030
-172.939	-76.879	-0.083	0.029
-171.925	800.000	-0.034	0.141
-170.910	107.738	0.138	0.162
-169.896	23.364	0.277	0.226
-168.881	121.807	-0.095	-0.117
-167.866	-200.000	-0.023	-0.122
-166.852	51.429	-0.362	-0.341
-165.837	63.304	0.282	0.280
-164.823	446.121	-0.096	0.209
-163.808	264.518	-0.151	0.261
-162.793	266.139	0.028	0.049
-161.779	649.323	0.046	-0.116
-160.764	-54.391	0.206	0.092
-159.750	783.028	-0.104	0.283
-158.735	800.000	0.085	-0.244
-157.720	-69.301	0.031	-0.012
-156.706	-200.000	0.021	-0.094
-155.691	-200.000	-0.040	0.538
-154.677	-88.479	-0.350	-0.103
-153.662	13.282	-0.062	0.047
-152.647	-200.000	0.028	-0.341
-151.633	-4.345	-0.128	-0.088
-150.618	-70.001	0.350	-0.132
-149.604	-200.000	0.033	-0.189
-148.589	150.868	0.145	-0.196
-147.574	800.000	-0.051	-0.167
-146.560	243.308	0.141	-0.234
-145.545	-2.296	-0.086	0.060
-144.531	-80.901	0.440	-0.145
-143.516	10.725	0.270	0.204
-142.502	-200.000	0.024	0.238
-141.487	278.193	-0.060	0.107
-140.472	-74.003	-0.171	0.061
-139.458	800.000	0.054	0.221
-138.443	59.332	0.072	-0.071
-137.429	462.436	0.081	0.179
-136.414	-60.855	-0.167	0.070
-135.399	-147.528	0.110	0.009
-134.385	-20.108	-0.086	-0.052
-133.370	569.375	0.105	0.253
-132.356	-200.000	0.021	0.133
-131.341	477.895	0.107	0.240
-130.326	-109.901	0.099	0.021
-129.312	127.278	-0.233	-0.292
-128.297	29.596	0.101	-0.085
-127.283	-200.000	-0.038	-0.215
-126.268	-185.278	-0.212	0.003
-125.253	100.542	-0.229	0.263
-124.239	762.475	0.075	0.202
-123.224	-60.774	0.141	-0.059
-122.210	28.624	0.171	-0.143
-121.195	-120.378	0.345	0.058
