DTS Sentinel unit serial number:	SN413079Multiplexer serial number:	ORYXHardware model number:	OX4-SRSoftware version number:	ORYX F/W v4.00 Oryx Data Collector v3.7.2.0data status	okinstallation	princeton_trtdifferential loss correction	single-endedforward channel	channel 4reverse channel	N/Adate	2019/09/15time	19:37:35forward acquisition time	60.00reverse acquisition time	0.00gamma	496.2192k internal	0.2302k external	0.2302temperature offset calibration	0.9930default loss term (dB/km)	0.3790temperature slope calibration	1.0000multiplexer offset coefficient	1.0000multiplexer slope coefficient	1.0000fibre end	0.00T internal ref (°C)	37.92T ext. ref 1 (°C)	7.36T ext. ref 2 (°C)	27.73length (m)	temperature (°C)	Stokes	anti-Stokes-747.200	800.000	-0.093	0.302
-746.185	42.639	0.204	0.189
-745.171	-29.517	-0.235	-0.137
-744.156	-41.571	0.288	0.151
-743.142	-200.000	0.008	0.177
-742.127	89.097	-0.174	0.198
-741.112	-74.576	-0.430	0.158
-740.098	315.181	-0.078	0.149
-739.083	55.915	-0.167	-0.165
-738.069	-64.839	-0.424	-0.175
-737.054	-138.981	0.058	0.006
-736.039	116.802	-0.189	-0.237
-735.025	800.000	0.079	0.259
-734.010	-167.047	-0.248	-0.010
-732.996	-200.000	0.020	-0.191
-731.981	444.977	-0.158	0.353
-730.966	67.643	0.057	-0.059
-729.952	116.936	-0.100	-0.125
-728.937	88.916	-0.036	-0.041
-727.923	-143.371	0.212	0.021
-726.908	-110.493	-0.348	-0.073
-725.894	-200.000	0.024	-0.160
-724.879	-126.289	0.128	-0.020
-723.864	-101.652	-0.093	0.023
-722.850	-58.607	-0.145	0.064
-721.835	-157.515	0.620	0.038
-720.821	-58.122	-0.067	-0.030
-719.806	141.741	0.039	0.052
-718.791	-144.406	0.206	-0.020
-717.777	-25.193	0.104	0.062
-716.762	167.972	-0.141	0.204
-715.748	61.038	-0.049	0.050
-714.733	-9.297	0.120	-0.082
-713.718	-101.766	0.131	0.032
-712.704	-147.699	-0.083	-0.007
-711.689	375.722	0.064	0.132
-710.675	201.631	-0.132	0.207
-709.660	-42.534	0.140	0.072
-708.645	-117.136	0.228	0.042
-707.631	596.960	-0.101	0.254
-706.616	-67.175	-0.154	-0.062
-705.602	-140.304	-0.236	-0.025
-704.587	-132.210	-0.194	0.026
-703.572	-200.000	-0.004	0.126
-702.558	577.074	-0.064	-0.159
-701.543	-40.387	0.075	-0.040
-700.529	-73.251	-0.065	0.024
-699.514	31.756	0.064	-0.056
-698.499	-59.219	-0.157	0.069
-697.485	123.712	-0.106	0.136
-696.470	-200.000	-0.021	0.393
-695.456	800.000	-0.051	0.186
-694.441	10.066	0.129	-0.100
-693.426	-9.235	0.090	-0.061
-692.412	-61.788	-0.261	-0.111
-691.397	-67.004	-0.112	-0.045
-690.383	-5.187	-0.220	-0.153
-689.368	92.202	-0.064	0.073
-688.354	-155.810	-0.197	0.013
-687.339	-200.000	0.091	-0.426
-686.324	316.594	-0.044	0.084
-685.310	-128.189	0.201	0.029
-684.295	-200.000	0.005	-0.325
-683.281	20.980	0.138	0.114
-682.266	-69.831	0.140	0.054
-681.251	-102.537	-0.303	0.074
-680.237	-200.000	-0.009	-0.162
-679.222	640.115	-0.022	-0.056
-678.208	54.956	-0.210	-0.206
-677.193	800.000	-0.050	-0.155
-676.178	530.726	0.036	0.086
-675.164	218.367	-0.040	0.065
-674.149	-4.075	-0.096	-0.068
-673.135	-200.000	-0.009	0.302
-672.120	-6.772	0.090	-0.062
-671.105	-57.954	0.063	-0.028
-670.091	-200.000	-0.013	0.270
-669.076	209.338	0.115	0.182
-668.062	149.792	-0.110	-0.151
-667.047	-148.453	-0.455	0.038
-666.032	14.867	-0.112	-0.089
-665.018	-28.382	-0.331	-0.194
-664.003	464.351	0.163	-0.371
-662.989	-107.706	-0.445	0.099
-661.974	-1.774	0.087	0.062
-660.959	-4.850	-0.340	-0.238
-659.945	-126.723	0.289	-0.043
-658.930	-200.000	-0.009	-0.306
-657.916	152.604	-0.085	-0.118
-656.901	414.615	0.071	0.153
-655.886	80.750	-0.217	-0.237
-654.872	-89.963	-0.193	-0.057
-653.857	15.371	-0.187	0.149
-652.843	-48.586	-0.112	-0.054
-651.828	-58.190	-0.543	0.240
-650.814	-200.000	0.021	0.151
-649.799	224.934	-0.070	0.115
-648.784	124.926	-0.281	-0.359
-647.770	604.128	-0.131	-0.330
-646.755	-81.469	-0.185	-0.062
-645.741	800.000	-0.056	-0.204
-644.726	-105.098	0.245	0.057
-643.711	101.815	0.012	0.014
-642.697	-134.327	0.303	0.038
-641.682	-161.841	-0.289	-0.015
-640.668	-200.000	0.041	-0.238
-639.653	800.000	-0.050	-0.141
-638.638	105.777	0.100	-0.120
-637.624	-124.667	-0.246	-0.039
-636.609	340.979	0.151	0.300
-635.595	-68.988	0.252	0.099
-634.580	-80.167	0.445	0.151
-633.565	-200.000	-0.025	0.421
-632.551	-200.000	0.007	0.273
-631.536	800.000	-0.049	-0.183
-630.522	-200.000	0.002	-0.119
-629.507	26.651	-0.146	-0.124
-628.492	800.000	0.081	-0.264
-627.478	-96.779	-0.112	-0.030
-626.463	-200.000	-0.042	-0.191
-625.449	199.133	0.078	-0.121
-624.434	130.228	0.038	-0.049
-623.419	-24.768	-0.110	-0.066
-622.405	2.707	0.371	0.273
-621.390	-200.000	-0.023	0.241
-620.376	800.000	0.058	-0.232
-619.361	157.277	0.258	-0.362
-618.346	-200.000	-0.065	-0.323
-617.332	-200.000	-0.058	-0.282
-616.317	-200.000	-0.013	-0.685
-615.303	-185.533	-0.236	-0.004
-614.288	800.000	0.037	0.104
-613.273	-83.802	0.284	-0.092
-612.259	-63.351	-0.274	0.114
-611.244	34.683	0.201	-0.178
-610.230	704.929	-0.208	0.557
-609.215	583.114	-0.059	0.147
-608.201	51.999	-0.122	0.118
-607.186	-97.828	0.310	-0.081
-606.171	-153.806	-0.157	0.011
-605.157	-98.941	-0.180	-0.046
-604.142	272.387	0.122	-0.218
-603.128	205.993	-0.237	-0.373
-602.113	-69.214	0.252	-0.098
-601.098	-75.766	-0.135	0.049
-600.084	-200.000	-0.008	-0.068
-599.069	-200.000	0.011	0.251
-598.055	4.593	0.173	0.128
-597.040	-95.904	-0.224	-0.061
-596.025	-7.330	0.243	-0.167
-595.011	-5.176	0.095	-0.066
-593.996	57.763	-0.313	-0.310
-592.982	-122.676	-0.203	0.033
-591.967	-59.823	0.215	-0.093
-590.952	156.983	-0.075	-0.106
-589.938	-41.624	0.225	-0.117
-588.923	800.000	-0.057	0.217
-587.909	-87.490	0.190	-0.058
-586.894	-200.000	-0.031	-0.189
-585.879	-146.176	-0.152	0.014
-584.865	57.344	-0.071	0.070
-583.850	-74.680	0.069	-0.025
-582.836	84.445	0.032	0.036
-581.821	-200.000	-0.027	-0.174
-580.806	-200.000	-0.072	0.408
-579.792	-104.091	0.096	0.023
-578.777	-200.000	0.002	-0.205
-577.763	-112.082	0.216	-0.044
-576.748	-120.465	0.136	-0.023
-575.733	-9.375	-0.092	0.062
-574.719	406.570	-0.120	0.258
-573.704	-143.659	-0.064	0.006
-572.690	9.961	0.101	0.078
-571.675	260.095	-0.131	-0.229
-570.661	131.585	0.106	0.139
-569.646	766.698	-0.060	-0.166
-568.631	31.366	0.073	0.064
-567.617	135.110	-0.143	-0.188
-566.602	60.270	-0.230	0.230
-565.588	108.796	-0.218	0.263
-564.573	457.524	-0.039	-0.087
-563.558	-95.730	-0.132	0.036
-562.544	308.410	0.133	0.251
-561.529	30.508	0.014	-0.012
-560.515	-6.049	0.139	0.096
-559.500	289.476	0.176	-0.324
-558.485	64.076	0.122	-0.124
-557.471	800.000	0.063	-0.218
-556.456	112.597	-0.029	0.035
-555.442	-21.092	0.262	0.162
-554.427	-42.246	0.275	-0.142
-553.412	-54.109	-0.172	-0.079
-552.398	-200.000	-0.023	0.174
-551.383	-47.527	0.275	0.135
-550.369	-94.261	-0.169	0.047
-549.354	-163.738	-0.223	0.011
-548.339	-127.182	-0.250	-0.037
-547.325	88.713	0.253	0.285
-546.310	800.000	0.046	0.135
-545.296	160.888	-0.126	-0.179
-544.281	62.363	-0.198	-0.200
-543.266	205.217	-0.205	-0.322
-542.252	85.630	0.085	0.094
-541.237	-105.519	0.317	0.073
-540.223	-53.675	0.198	-0.091
-539.208	-31.477	-0.116	0.066
-538.193	-187.937	-0.323	-0.004
-537.179	-49.499	-0.181	-0.087
-536.164	246.164	0.088	-0.150
-535.150	85.629	0.313	-0.348
-534.135	-44.485	-0.136	-0.069
-533.121	800.000	0.072	-0.216
-532.106	-64.377	0.324	0.133
-531.091	-200.000	-0.014	0.247
-530.077	-200.000	-0.041	-0.207
-529.062	48.385	0.196	-0.186
-528.048	-146.389	-0.290	-0.026
-527.033	-88.975	-0.263	0.079
-526.018	800.000	-0.076	0.308
-525.004	-173.454	0.250	0.008
-523.989	139.248	-0.022	-0.030
-522.975	800.000	0.058	0.177
-521.960	372.769	-0.069	-0.142
-520.945	80.903	0.122	-0.132
-519.931	-197.250	-0.013	0.000
-518.916	-136.029	-0.241	-0.029
-517.902	-200.000	0.019	0.179
-516.887	-75.130	-0.210	-0.076
-515.872	800.000	0.120	-0.341
-514.858	35.717	-0.238	0.211
-513.843	-100.142	0.032	-0.008
-512.829	-69.539	-0.130	0.050
-511.814	-136.112	0.041	0.005
-510.799	103.110	-0.131	-0.155
-509.785	-51.242	-0.068	0.032
-508.770	-41.617	0.068	-0.035
-507.756	35.508	-0.103	-0.092
-506.741	-200.000	-0.013	0.148
-505.726	788.271	-0.024	0.065
-504.712	85.290	-0.036	0.040
-503.697	605.770	-0.162	-0.408
-502.683	-200.000	0.054	0.487
-501.668	582.520	0.096	0.237
-500.653	237.631	0.120	-0.201
-499.639	-33.446	-0.141	-0.079
-498.624	-86.397	0.080	-0.025
-497.610	724.959	-0.011	0.029
-496.595	-46.543	0.459	0.227
-495.581	-24.141	-0.223	0.134
-494.566	800.000	-0.035	0.115
-493.551	800.000	0.080	-0.265
-492.537	118.651	0.034	-0.042
-491.522	20.585	0.158	-0.129
-490.508	193.576	0.131	-0.200
-489.493	664.914	-0.008	0.021
-488.478	-20.627	-0.281	0.174
-487.464	-34.497	-0.278	-0.153
-486.449	-200.000	0.068	0.356
-485.435	-62.675	0.318	-0.133
-484.420	-101.548	0.036	-0.009
-483.405	8.775	0.206	-0.157
-482.391	-110.931	-0.311	-0.065
-481.376	800.000	-0.038	0.128
-480.362	-200.000	-0.021	-0.099
-479.347	369.129	-0.050	0.101
-478.332	31.074	0.106	-0.091
-477.318	138.909	-0.121	-0.160
-476.303	533.449	-0.107	-0.256
-475.289	-200.000	0.005	0.097
-474.274	-200.000	-0.020	-0.145
-473.259	800.000	-0.053	0.226
-472.245	747.560	-0.031	-0.083
-471.230	-200.000	0.018	-0.384
-470.216	800.000	-0.099	-0.357
-469.201	260.126	-0.121	0.210
-468.186	-63.561	0.103	0.042
-467.172	157.014	0.183	0.255
-466.157	800.000	0.082	0.244
-465.143	800.000	0.106	0.315
-464.128	-113.638	-0.111	-0.022
-463.113	291.454	0.036	-0.066
-462.099	26.727	-0.316	-0.267
-461.084	-18.333	-0.208	-0.131
-460.070	-39.409	-0.183	-0.097
-459.055	224.421	0.337	0.549
-458.040	26.137	-0.262	-0.220
-457.026	333.737	-0.117	-0.228
-456.011	-200.000	0.021	-0.125
-454.997	-55.141	0.206	0.094
-453.982	543.588	-0.138	0.332
-452.968	-200.000	-0.001	0.100
-451.953	-200.000	-0.038	0.326
-450.938	338.649	-0.086	-0.168
-449.924	237.256	0.102	-0.170
-448.909	-52.022	-0.178	0.083
-447.895	-32.109	0.130	0.073
-446.880	-200.000	0.012	0.237
-445.865	-71.670	0.173	-0.065
-444.851	800.000	-0.150	0.545
-443.836	-166.207	-0.175	0.007
-442.822	-115.948	-0.036	0.007
-441.807	-200.000	0.025	-0.200
-440.792	-69.340	0.063	-0.024
-439.778	-139.059	-0.277	0.030
-438.763	71.442	0.086	0.090
-437.749	-76.752	0.267	0.094
-436.734	7.256	-0.247	0.185
-435.719	-200.000	-0.055	0.369
-434.705	-199.257	-0.068	0.000
-433.690	-200.000	0.028	-0.144
-432.676	-89.478	0.097	-0.029
-431.661	166.388	0.107	-0.153
-430.646	-100.332	-0.287	0.072
-429.632	-39.355	0.282	0.149
-428.617	-60.204	-0.175	-0.075
-427.603	-150.928	-0.235	0.018
-426.588	-106.665	0.262	-0.059
-425.573	-33.916	-0.206	-0.114
-424.559	-0.472	-0.105	-0.075
-423.544	158.483	-0.069	-0.096
-422.530	-200.000	0.002	-0.051
-421.515	-200.000	0.028	0.337
-420.500	245.530	-0.090	-0.153
-419.486	408.591	-0.127	-0.271
-418.471	6.482	-0.211	-0.158
-417.457	-167.882	0.241	0.010
-416.442	214.047	0.124	0.198
-415.428	-118.208	-0.234	-0.042
-414.413	-77.034	-0.194	0.068
-413.398	-46.558	0.322	0.159
-412.384	303.401	0.140	0.261
-411.369	-200.000	0.050	0.244
-410.355	481.636	0.096	0.220
-409.340	-43.459	0.066	-0.034
-408.325	100.379	-0.154	0.180
-407.311	-90.479	-0.012	-0.003
-406.296	-150.934	-0.233	0.018
-405.282	497.673	-0.066	-0.152
-404.267	228.392	0.165	-0.271
-403.252	-200.000	-0.003	0.033
-402.238	-59.276	0.197	0.085
-401.223	-43.591	-0.111	0.057
-400.209	-155.606	0.168	0.011
-399.194	-71.477	-0.137	0.051
-398.179	-124.729	-0.105	0.016
-397.165	-200.000	-0.008	0.072
-396.150	547.430	-0.076	-0.183
-395.136	-200.000	0.006	0.124
-394.121	-144.735	-0.344	0.032
-393.106	-200.000	-0.032	-0.336
-392.092	-109.747	0.011	0.002
-391.077	60.782	0.107	0.107
-390.063	153.371	-0.151	-0.207
-389.048	-157.429	0.080	-0.005
-388.033	247.640	0.139	0.236
-387.019	-200.000	0.033	0.157
-386.004	-200.000	-0.013	-0.289
-384.990	349.097	0.041	0.081
-383.975	105.779	0.124	-0.147
-382.960	800.000	-0.024	0.088
-381.946	-100.317	0.177	0.044
-380.931	-9.564	0.079	0.053
-379.917	16.170	-0.248	-0.197
-378.902	-87.719	-0.236	0.071
-377.888	-200.000	0.011	0.083
-376.873	-200.000	-0.008	0.138
-375.858	-157.445	0.080	-0.005
-374.844	-200.000	-0.039	-0.248
-373.829	522.033	0.106	-0.250
-372.815	-200.000	0.057	-0.339
-371.800	-159.999	0.123	0.007
-370.785	800.000	-0.032	0.124
-369.771	23.380	-0.179	-0.147
-368.756	70.002	0.260	0.270
-367.742	-126.913	-0.307	-0.045
-366.727	441.871	0.028	0.062
-365.712	-70.068	0.196	-0.075
-364.698	600.932	-0.042	-0.105
-363.683	94.189	0.168	-0.191
-362.669	16.832	0.072	-0.057
-361.654	446.557	-0.094	0.208
-360.639	273.573	0.067	-0.118
-359.625	23.104	0.275	-0.226
-358.610	-200.000	0.016	-0.381
-357.596	174.271	0.274	0.397
-356.581	-106.390	-0.169	0.038
-355.566	35.705	-0.088	-0.078
-354.552	-200.000	0.037	-0.193
-353.537	-200.000	-0.022	-0.160
-352.523	-20.858	0.190	0.117
-351.508	-92.708	0.288	-0.081
-350.493	-79.958	-0.268	-0.090
-349.479	-6.283	-0.356	0.244
-348.464	108.202	-0.262	0.313
-347.450	800.000	-0.056	0.217
-346.435	-200.000	-0.055	0.377
-345.420	800.000	-0.090	0.309
-344.406	233.220	-0.133	0.220
-343.391	-119.974	0.184	-0.032
-342.377	-45.028	-0.258	-0.129
-341.362	-122.102	-0.187	0.031
-340.348	-157.188	0.279	-0.017
-339.333	800.000	0.056	-0.195
-338.318	-22.391	0.484	0.294
-337.304	45.969	0.063	-0.058
-336.289	800.000	0.064	-0.268
-335.275	-107.797	0.377	-0.082
-334.260	-99.799	0.201	-0.050
-333.245	-174.370	0.079	0.002
-332.231	106.214	0.124	-0.147
-331.216	800.000	0.079	0.235
-330.202	143.447	0.130	0.173
-329.187	800.000	0.112	-0.348
-328.172	-111.285	-0.241	0.049
-327.158	-147.017	-0.387	0.033
-326.143	-12.386	0.448	0.294
-325.129	460.441	0.107	0.239
-324.114	-145.124	0.125	-0.011
-323.099	-2.471	-0.249	-0.175
-322.085	-111.950	-0.176	-0.036
-321.070	-145.749	0.334	-0.030
-320.056	800.000	0.036	-0.107
-319.041	-25.774	0.135	0.080
-318.026	353.170	-0.070	0.139
-317.012	107.883	-0.185	0.220
-315.997	-153.257	0.149	0.010
-314.983	-26.156	0.189	-0.112
-313.968	-124.957	-0.258	0.040
-312.953	-161.131	0.338	0.018
-311.939	-92.004	-0.369	0.105
-310.924	-43.819	0.236	0.119
-309.910	-108.314	-0.124	-0.027
-308.895	183.068	0.178	-0.264
-307.880	-156.568	-0.271	-0.017
-306.866	-123.875	0.233	-0.037
-305.851	152.146	0.168	0.230
-304.837	-9.880	0.507	-0.338
-303.822	379.941	-0.041	0.083
-302.807	355.959	0.092	0.184
-301.793	9.796	-0.427	-0.324
-300.778	800.000	0.052	0.174
-299.764	203.922	0.164	-0.254
-298.749	142.909	-0.094	-0.125
-297.735	51.360	0.206	-0.196
-296.720	-75.127	0.406	-0.145
-295.705	5.509	0.154	-0.114
-294.691	-200.000	0.043	0.316
-293.676	-31.642	-0.077	-0.043
-292.662	239.503	-0.035	0.058
-291.647	15.715	-0.136	-0.107
-290.632	287.926	0.193	0.350
-289.618	7.963	0.143	0.107
-288.603	37.976	0.141	-0.125
-287.589	800.000	0.028	-0.108
-286.574	209.374	-0.267	0.418
-285.559	216.218	-0.110	-0.174
-284.545	212.069	0.247	0.389
-283.530	52.410	0.183	0.175
-282.516	-52.680	-0.242	-0.112
-281.501	208.376	0.064	-0.101
-280.486	-91.855	0.072	0.020
-279.472	212.184	-0.136	-0.214
-278.457	-22.910	0.123	-0.074
-277.443	-56.579	-0.072	-0.032
-276.428	-58.126	-0.399	-0.174
-275.413	-166.941	0.168	0.007
-274.399	-157.189	0.204	0.012
-273.384	196.969	0.023	0.035
-272.370	133.602	-0.108	-0.140
-271.355	-20.513	-0.062	-0.038
-270.340	-200.000	-0.062	0.294
-269.326	-90.454	0.201	-0.058
-268.311	642.817	-0.032	-0.082
-267.297	-25.340	0.234	0.138
-266.282	800.000	-0.061	0.246
-265.267	800.000	0.099	0.427
-264.253	-200.000	-0.057	-0.321
-263.238	-30.784	-0.297	0.168
-262.224	167.804	-0.160	-0.228
-261.209	-200.000	0.015	0.161
-260.195	-13.307	0.110	-0.071
-259.180	450.257	0.052	0.115
-258.165	-90.859	0.338	-0.097
-257.151	-200.000	-0.002	-0.380
-256.136	-3.111	-0.078	0.054
-255.122	-75.608	-0.113	0.040
-254.107	-200.000	0.026	0.275
-253.092	800.000	0.063	0.213
-252.078	-88.429	-0.315	0.094
-251.063	594.187	-0.138	0.340
-250.049	202.766	-0.037	0.058
-249.034	-45.248	0.340	-0.169
-248.019	270.121	-0.187	0.328
-247.005	-105.821	-0.153	0.034
-245.990	-63.170	-0.206	-0.085
-244.976	-165.042	0.268	0.012
-243.961	-79.503	0.377	-0.127
-242.946	74.940	0.157	0.165
-241.932	800.000	-0.060	-0.233
-240.917	-200.000	0.065	-0.347
-239.903	-51.635	-0.068	0.031
-238.888	-200.000	-0.014	0.122
-237.873	-200.000	0.009	0.700
-236.859	-151.960	-0.269	-0.020
-235.844	58.014	0.079	0.077
-234.830	800.000	0.047	0.135
-233.815	-36.900	-0.226	0.121
-232.800	27.747	0.080	0.067
-231.786	163.920	-0.225	-0.317
-230.771	-84.158	-0.286	0.091
-229.757	-168.032	-0.386	-0.015
-228.742	-34.676	-0.138	-0.076
-227.727	-26.838	0.172	-0.100
-226.713	-200.000	0.009	-0.319
-225.698	-48.461	0.334	-0.160
-224.684	31.350	-0.076	-0.065
-223.669	1.181	0.134	0.096
-222.655	-200.000	0.047	0.456
-221.640	-200.000	-0.016	0.360
-220.625	-28.860	0.172	0.098
-219.611	-72.242	-0.298	0.110
-218.596	549.720	0.177	-0.425
-217.582	49.699	-0.250	-0.235
-216.567	-200.000	-0.051	0.286
-215.552	800.000	0.046	-0.133
-214.538	63.548	0.313	-0.314
-213.523	-113.308	0.102	-0.020
-212.509	-20.630	0.208	0.128
-211.494	-200.000	-0.003	-0.325
-210.479	111.628	0.160	-0.193
-209.465	77.717	-0.119	-0.127
-208.450	43.964	-0.120	-0.110
-207.436	-120.024	-0.354	0.061
-206.421	-60.816	0.237	0.100
-205.406	-54.963	-0.004	-0.002
-204.392	-34.910	-0.126	0.069
-203.377	-70.686	-0.096	-0.036
-202.363	586.295	0.034	-0.082
-201.348	716.159	0.127	-0.336
-200.333	-119.261	-0.398	0.069
-199.319	-92.314	-0.231	0.065
-198.304	141.007	-0.216	0.285
-197.290	457.049	-0.042	0.093
-196.275	385.692	-0.142	0.293
-195.260	23.329	0.122	-0.100
-194.246	-10.910	-0.103	0.068
-193.231	-43.010	0.340	0.172
-192.217	226.736	0.143	0.232
-191.202	-18.406	0.167	0.104
-190.187	-200.000	0.023	-0.191
-189.173	356.874	0.173	-0.343
-188.158	-200.000	-0.060	0.294
-187.144	-73.663	0.211	0.077
-186.129	144.641	0.136	0.181
-185.114	356.033	-0.103	0.205
-184.100	-97.691	0.174	0.045
-183.085	123.258	0.220	-0.275
-182.071	-87.617	-0.177	-0.053
-181.056	481.835	-0.067	0.152
-180.042	800.000	0.034	-0.125
-179.027	57.069	0.140	0.136
-178.012	-150.836	-0.311	-0.024
-176.998	800.000	-0.098	-0.309
-175.983	115.654	-0.097	-0.119
-174.969	-38.974	-0.118	-0.062
-173.954	-84.720	-0.514	-0.161
-172.939	255.492	0.100	0.170
-171.925	-145.558	0.529	-0.047
-170.910	-9.296	0.250	0.167
-169.896	67.520	0.158	0.161
-168.881	-100.335	0.265	0.066
-167.866	-128.512	-0.347	0.049
-166.852	-64.144	0.045	-0.018
-165.837	-200.000	-0.052	0.380
-164.823	800.000	-0.041	-0.174
-163.808	-51.315	-0.415	0.194
-162.793	202.557	0.182	-0.280
-161.779	235.842	-0.135	0.222
-160.764	-110.339	-0.214	0.044
-159.750	73.463	0.165	0.172
-158.735	-50.412	0.149	-0.070
-157.720	30.726	-0.254	0.216
-156.706	-145.940	-0.663	-0.058
-155.691	114.971	0.044	0.053
-154.677	7.473	0.213	-0.158
-153.662	373.074	-0.047	-0.094
-152.647	-71.601	0.157	-0.058
-151.633	-53.908	-0.197	-0.089
-150.618	176.664	-0.104	0.151
-149.604	321.232	0.121	-0.229
-148.589	353.934	-0.093	0.183
-147.574	27.627	0.145	0.121
-146.560	-200.000	0.001	0.091
-145.545	211.580	0.079	-0.124
-144.531	73.380	0.233	0.243
-143.516	86.010	-0.060	0.065
-142.502	45.822	0.117	0.107
-141.487	34.458	0.150	-0.130
-140.472	295.800	0.269	0.491
-139.458	-71.112	-0.169	-0.063
-138.443	-200.000	-0.020	-0.412
-137.429	20.803	0.231	0.186
-136.414	308.383	0.131	-0.244
-135.399	95.977	-0.111	-0.127
-134.385	222.945	0.094	0.151
-133.370	-101.230	0.204	-0.050
-132.356	691.207	0.109	-0.283
-131.341	-130.191	-0.239	0.032
-130.326	-119.249	-0.083	0.014
-129.312	245.910	-0.085	0.143
-128.297	800.000	0.109	-0.342
-127.283	-64.742	-0.130	-0.053
-126.268	800.000	0.162	-0.675
-125.253	193.064	-0.051	-0.077
-124.239	48.532	0.223	-0.208
-123.224	576.950	0.116	0.281
-122.210	800.000	0.034	0.109
