DTS Sentinel unit serial number:	SN413079Multiplexer serial number:	ORYXHardware model number:	OX4-SRSoftware version number:	ORYX F/W v4.00 Oryx Data Collector v3.7.2.0data status	okinstallation	princeton_trtdifferential loss correction	single-endedforward channel	channel 4reverse channel	N/Adate	2019/09/18time	15:01:35forward acquisition time	60.00reverse acquisition time	0.00gamma	496.2192k internal	0.2299k external	0.2299temperature offset calibration	1.0003default loss term (dB/km)	0.3790temperature slope calibration	1.0000multiplexer offset coefficient	1.0000multiplexer slope coefficient	1.0000fibre end	0.00T internal ref (°C)	35.23T ext. ref 1 (°C)	0.74T ext. ref 2 (°C)	30.73length (m)	temperature (°C)	Stokes	anti-Stokes-747.200	63.758	0.282	0.289
-746.185	116.006	0.185	0.231
-745.171	-200.000	-0.024	0.277
-744.156	-200.000	-0.030	0.345
-743.142	-101.832	-0.145	-0.036
-742.127	-14.967	-0.087	-0.057
-741.112	0.884	0.427	-0.312
-740.098	-200.000	-0.003	0.080
-739.083	800.000	-0.053	0.156
-738.069	53.785	-0.123	0.121
-737.054	-79.237	-0.052	-0.018
-736.039	57.863	-0.234	0.233
-735.025	446.862	0.064	-0.143
-734.010	10.855	-0.309	-0.241
-732.996	147.662	-0.242	0.332
-731.981	-116.286	-0.117	0.022
-730.966	18.059	0.112	-0.091
-729.952	180.274	-0.205	0.306
-728.937	-200.000	-0.015	0.102
-727.923	-122.589	-0.432	0.072
-726.908	-27.242	-0.150	-0.089
-725.894	190.177	0.188	-0.287
-724.879	-6.663	-0.263	-0.183
-723.864	0.890	-0.081	0.059
-722.850	-200.000	-0.014	-0.110
-721.835	325.155	-0.028	0.055
-720.821	261.393	0.119	0.211
-719.806	40.837	0.178	-0.163
-718.791	-200.000	0.017	0.189
-717.777	800.000	0.072	0.243
-716.762	-200.000	0.056	0.268
-715.748	-200.000	-0.038	-0.270
-714.733	-98.024	-0.214	-0.056
-713.718	-133.457	0.021	0.003
-712.704	251.581	-0.093	-0.161
-711.689	-112.646	0.213	-0.043
-710.675	-200.000	-0.019	-0.147
-709.660	-158.564	-0.280	-0.016
-708.645	168.532	0.092	-0.133
-707.631	-200.000	0.001	0.077
-706.616	-120.290	-0.038	-0.007
-705.602	-200.000	-0.036	0.194
-704.587	-45.126	0.322	-0.163
-703.572	29.974	-0.047	-0.041
-702.558	-86.289	-0.419	0.131
-701.543	-104.355	0.147	-0.035
-700.529	800.000	-0.069	0.199
-699.514	-70.413	-0.124	-0.048
-698.499	-99.426	0.259	-0.067
-697.485	-200.000	-0.020	-0.113
-696.470	47.387	-0.174	-0.165
-695.456	-200.000	-0.051	0.283
-694.441	-149.935	-0.139	-0.011
-693.426	-12.583	0.260	-0.173
-692.412	-49.484	-0.144	0.070
-691.397	506.448	-0.118	0.280
-690.383	33.292	-0.163	-0.144
-689.368	-200.000	-0.271	0.001
-688.354	-18.413	0.114	-0.072
-687.339	293.410	0.254	0.472
-686.324	467.739	-0.032	0.074
-685.310	321.642	0.102	-0.197
-684.295	34.888	-0.159	-0.141
-683.281	-42.535	0.150	-0.078
-682.266	8.690	-0.092	-0.071
-681.251	80.408	-0.088	0.097
-680.237	-200.000	0.039	0.230
-679.222	-200.000	-0.009	-0.059
-678.208	46.870	-0.085	-0.080
-677.193	-109.620	-0.167	-0.036
-676.178	800.000	-0.050	-0.176
-675.164	-57.544	0.332	0.148
-674.149	-98.333	-0.358	0.094
-673.135	800.000	-0.071	-0.203
-672.120	-65.304	0.270	0.110
-671.105	-172.372	0.087	-0.003
-670.091	-193.714	0.473	-0.004
-669.076	-13.898	-0.075	-0.049
-668.062	-142.500	0.203	0.020
-667.047	320.353	-0.121	0.234
-666.032	-110.912	0.100	-0.021
-665.018	-39.990	-0.116	-0.062
-664.003	186.964	0.062	-0.095
-662.989	62.483	0.303	0.308
-661.974	94.364	0.121	-0.140
-660.959	-200.000	0.000	-0.112
-659.945	487.502	-0.059	0.136
-658.930	-39.907	-0.301	0.160
-657.916	-122.385	0.249	0.041
-656.901	-27.990	-0.081	-0.048
-655.886	-158.807	0.218	0.013
-654.872	800.000	0.137	-0.490
-653.857	43.742	0.135	-0.126
-652.843	-34.643	0.266	0.148
-651.828	-38.646	0.226	-0.122
-650.814	-158.988	0.054	0.003
-649.799	-53.630	-0.204	0.095
-648.784	77.022	0.210	0.227
-647.770	172.907	0.010	-0.014
-646.755	800.000	0.086	-0.286
-645.741	-200.000	0.047	-0.377
-644.726	35.008	-0.186	-0.166
-643.711	-123.799	-0.306	-0.049
-642.697	-200.000	-0.007	-0.141
-641.682	37.662	0.096	0.086
-640.668	-40.782	0.302	0.159
-639.653	120.930	-0.259	0.328
-638.638	-43.453	-0.272	-0.140
-637.624	-200.000	-0.023	-0.157
-636.609	-200.000	-0.009	0.079
-635.595	703.083	-0.065	0.174
-634.580	-88.000	-0.407	0.124
-633.565	800.000	-0.107	-0.300
-632.551	-200.000	-0.043	-0.447
-631.536	-146.903	0.310	0.027
-630.522	224.783	-0.214	-0.351
-629.507	-147.527	-0.203	0.017
-628.492	-159.639	-0.375	0.021
-627.478	150.862	-0.099	0.137
-626.463	137.964	-0.028	0.037
-625.449	-200.000	-0.025	0.240
-624.434	-147.249	0.182	0.016
-623.419	178.666	0.082	0.121
-622.405	-49.492	-0.199	-0.096
-621.390	800.000	0.066	-0.197
-620.376	225.089	0.076	0.125
-619.361	800.000	0.044	0.124
-618.346	128.458	0.165	-0.213
-617.332	-200.000	-0.013	0.106
-616.317	103.077	0.099	0.118
-615.303	-38.113	-0.124	-0.067
-614.288	200.420	0.207	-0.323
-613.273	800.000	0.027	0.102
-612.259	186.363	0.079	-0.120
-611.244	-91.974	-0.132	0.038
-610.230	-168.574	-0.176	-0.007
-609.215	-200.000	0.016	-0.146
-608.201	117.395	-0.201	-0.251
-607.186	97.175	-0.308	-0.358
-606.171	-200.000	-0.044	-0.204
-605.157	-86.518	0.213	0.066
-604.142	-53.914	-0.178	-0.082
-603.128	-200.000	-0.018	-0.086
-602.113	-29.335	-0.081	-0.047
-601.098	-72.888	0.500	-0.186
-600.084	-11.215	-0.051	-0.034
-599.069	181.416	-0.059	-0.089
-598.055	-63.569	-0.215	-0.090
-597.040	-73.545	0.397	-0.147
-596.025	-183.116	-0.090	-0.002
-595.011	352.969	0.173	0.348
-593.996	287.854	-0.198	-0.363
-592.982	105.098	0.254	-0.305
-591.967	-139.091	-0.169	0.019
-590.952	800.000	0.107	0.411
-589.938	1.265	0.101	0.073
-588.923	-144.936	-0.135	-0.013
-587.909	-200.000	-0.001	0.192
-586.894	-43.794	-0.275	0.140
-585.879	-86.124	0.178	-0.056
-584.865	-165.943	-0.139	-0.006
-583.850	177.425	0.049	0.073
-582.836	-7.047	-0.145	0.100
-581.821	155.951	0.122	-0.171
-580.806	-12.509	0.109	-0.072
-579.792	800.000	0.083	0.235
-578.777	800.000	0.043	-0.134
-577.763	-200.000	-0.015	-0.218
-576.748	306.599	0.113	-0.213
-575.733	-11.180	0.061	0.041
-574.719	32.429	0.208	0.182
-573.704	-121.611	-0.136	0.023
-572.690	800.000	0.059	-0.171
-571.675	302.817	0.141	-0.264
-570.661	-200.000	-0.010	0.158
-569.646	193.262	0.155	0.237
-568.631	-89.340	0.408	0.122
-567.617	91.195	0.221	0.252
-566.602	-200.000	0.004	-0.087
-565.588	768.868	0.148	-0.410
-564.573	592.914	0.044	0.111
-563.558	-73.230	-0.066	-0.024
-562.544	336.107	-0.102	-0.200
-561.529	409.310	-0.132	0.283
-560.515	-118.625	-0.126	0.022
-559.500	-200.000	-0.003	0.395
-558.485	255.507	-0.152	0.263
-557.471	197.512	-0.100	0.154
-556.456	-200.000	-0.011	-0.203
-555.442	41.936	-0.058	0.053
-554.427	-142.807	-0.199	0.020
-553.412	211.290	0.133	0.212
-552.398	-48.753	-0.050	-0.024
-551.383	144.809	0.125	0.170
-550.369	-48.310	-0.079	0.039
-549.354	800.000	0.089	-0.340
-548.339	-95.581	-0.145	0.039
-547.325	171.021	-0.102	-0.149
-546.310	180.518	-0.133	-0.198
-545.296	800.000	-0.057	0.189
-544.281	-85.874	0.083	0.026
-543.266	22.132	0.185	0.153
-542.252	-51.309	-0.103	-0.049
-541.237	-200.000	-0.032	0.243
-540.223	87.626	0.105	-0.118
-539.208	16.672	-0.240	0.192
-538.193	-88.252	0.179	0.054
-537.179	-68.170	0.212	-0.084
-536.164	-61.979	0.255	-0.108
-535.150	386.982	0.022	0.047
-534.135	157.741	0.227	0.318
-533.121	-57.162	-0.064	-0.029
-532.106	-200.000	0.012	0.227
-531.091	-200.000	-0.003	0.119
-530.077	-137.738	-0.097	0.011
-529.062	-85.126	-0.344	-0.109
-528.048	722.064	-0.108	-0.292
-527.033	-200.000	-0.000	-0.033
-526.018	34.275	-0.284	-0.250
-525.004	-163.825	0.263	-0.012
-523.989	140.740	-0.056	0.074
-522.975	-200.000	-0.032	0.194
-521.960	-6.680	-0.115	-0.079
-520.945	-178.644	0.339	0.008
-519.931	-200.000	0.038	0.219
-518.916	-159.345	-0.189	0.011
-517.902	-49.379	-0.362	-0.175
-516.887	-113.771	0.200	-0.039
-515.872	248.724	0.011	-0.018
-514.858	800.000	-0.063	0.240
-513.843	800.000	0.021	-0.091
-512.829	333.057	0.179	0.350
-511.814	-111.651	0.177	0.036
-510.799	-75.591	0.308	-0.111
-509.785	-116.764	-0.160	0.030
-508.770	64.210	-0.135	-0.137
-507.756	-73.751	0.147	0.054
-506.741	-74.354	0.409	0.149
-505.726	158.728	-0.214	-0.301
-504.712	-76.869	-0.211	-0.074
-503.697	-112.775	0.278	0.056
-502.683	377.363	-0.132	-0.272
-501.668	-103.543	-0.161	-0.038
-500.653	422.241	-0.089	-0.194
-499.639	89.998	0.198	-0.224
-498.624	-46.337	-0.196	0.097
-497.610	-22.973	0.181	0.110
-496.595	-156.517	-0.227	0.014
-495.581	34.188	0.119	0.104
-494.566	183.857	-0.210	0.314
-493.551	10.581	0.087	-0.067
-492.537	-200.000	-0.008	-0.186
-491.522	71.668	-0.104	-0.110
-490.508	-117.513	-0.368	-0.067
-489.493	-161.461	0.238	0.012
-488.478	-59.161	-0.217	-0.095
-487.464	-48.213	0.056	-0.027
-486.449	103.688	0.160	0.190
-485.435	-99.890	-0.012	-0.003
-484.420	-140.750	-0.188	-0.020
-483.405	-83.103	0.240	-0.078
-482.391	-101.139	0.146	0.036
-481.376	-200.000	0.051	0.348
-480.362	-86.253	0.394	-0.123
-479.347	-200.000	0.010	-0.181
-478.332	112.421	0.128	0.156
-477.318	-118.791	-0.203	-0.036
-476.303	120.265	0.050	0.063
-475.289	399.490	-0.197	0.417
-474.274	417.136	-0.178	-0.384
-473.259	-147.094	-0.606	-0.052
-472.245	-32.801	-0.272	-0.153
-471.230	-200.000	0.033	-0.246
-470.216	-200.000	-0.021	0.243
-469.201	224.225	-0.049	-0.080
-468.186	769.015	0.130	-0.356
-467.172	-200.000	-0.009	-0.182
-466.157	416.598	-0.073	-0.158
-465.143	400.183	0.157	-0.333
-464.128	-147.266	-0.152	0.013
-463.113	-200.000	-0.001	0.276
-462.099	-40.612	-0.054	-0.028
-461.084	205.574	-0.147	0.231
-460.070	-200.000	-0.011	0.200
-459.055	800.000	0.042	-0.129
-458.040	249.149	-0.060	-0.103
-457.026	-14.563	0.202	0.131
-456.011	110.300	-0.021	-0.026
-454.997	-93.412	-0.128	-0.036
-453.982	0.227	0.287	0.206
-452.968	-22.066	0.121	0.074
-451.953	659.644	0.143	-0.371
-450.938	338.592	-0.038	-0.075
-449.924	523.296	-0.097	-0.230
-448.909	-200.000	-0.037	-0.224
-447.895	800.000	0.062	0.214
-446.880	-133.909	-0.274	0.034
-445.865	-200.000	0.000	0.115
-444.851	695.009	0.015	-0.039
-443.836	23.874	-0.069	-0.058
-442.822	-46.881	-0.473	0.233
-441.807	800.000	0.144	0.431
-440.792	-141.509	0.069	0.007
-439.778	408.048	-0.117	-0.249
-438.763	-96.542	-0.378	-0.101
-437.749	-55.294	0.232	-0.105
-436.734	436.187	-0.036	0.080
-435.719	165.923	0.256	0.366
-434.705	-119.635	-0.113	-0.020
-433.690	-29.136	0.195	0.113
-432.676	199.057	-0.076	0.118
-431.661	-200.000	0.003	0.157
-430.646	-80.713	0.186	0.062
-429.632	-41.684	0.264	-0.137
-428.617	9.611	-0.269	-0.205
-427.603	-62.894	-0.488	0.204
-426.588	11.871	0.299	0.232
-425.573	-118.432	0.179	0.032
-424.559	113.557	0.125	-0.153
-423.544	92.006	-0.195	0.222
-422.530	-200.000	0.004	-0.048
-421.515	212.367	0.117	-0.186
-420.500	574.361	0.049	-0.121
-419.486	-200.000	0.036	-0.399
-418.471	559.032	0.156	-0.380
-417.457	-15.983	0.168	0.108
-416.442	99.076	0.176	0.204
-415.428	-4.717	-0.269	0.187
-414.413	-200.000	0.033	0.198
-413.398	-200.000	0.034	-0.399
-412.384	11.348	-0.323	0.249
-411.369	800.000	-0.052	0.161
-410.355	146.676	-0.135	0.182
-409.340	-200.000	-0.011	-0.161
-408.325	800.000	-0.033	0.102
-407.311	-82.764	-0.161	-0.052
-406.296	325.124	0.067	-0.128
-405.282	242.468	0.056	-0.094
-404.267	-200.000	0.009	-0.427
-403.252	-132.602	-0.043	0.005
-402.238	-200.000	-0.010	0.084
-401.223	800.000	0.087	0.285
-400.209	616.914	0.058	-0.146
-399.194	138.022	-0.131	-0.173
-398.179	-112.211	-0.127	0.026
-397.165	66.377	-0.105	-0.107
-396.150	-200.000	0.018	0.110
-395.136	-137.699	0.062	0.007
-394.121	-7.098	0.201	-0.137
-393.106	-29.778	0.186	-0.107
-392.092	-38.975	0.366	0.194
-391.077	-44.615	0.235	0.118
-390.063	800.000	-0.039	0.134
-389.048	800.000	0.042	0.167
-388.033	800.000	0.163	0.477
-387.019	-200.000	-0.016	0.146
-386.004	-60.869	-0.167	-0.071
-384.990	8.965	0.344	-0.261
-383.975	421.271	-0.062	0.133
-382.960	-16.986	0.177	-0.113
-381.946	361.072	-0.025	-0.051
-380.931	-30.342	0.181	0.103
-379.917	215.365	0.157	0.251
-378.902	-69.932	-0.092	-0.035
-377.888	147.073	0.088	-0.119
-376.873	-200.000	-0.006	-0.219
-375.858	28.186	-0.150	-0.128
-374.844	-68.505	-0.408	0.159
-373.829	-77.095	-0.305	0.107
-372.815	354.811	0.098	-0.196
-371.800	-159.302	0.143	0.008
-370.785	4.250	-0.156	-0.115
-369.771	-106.994	-0.403	-0.090
-368.756	-140.109	-0.151	-0.016
-367.742	35.017	0.060	0.053
-366.727	7.575	-0.071	-0.053
-365.712	265.388	-0.164	0.287
-364.698	-139.939	0.221	0.023
-363.683	800.000	-0.099	-0.367
-362.669	175.321	0.009	0.013
-361.654	-38.246	0.115	-0.061
-360.639	61.226	0.220	0.220
-359.625	-89.810	0.203	0.060
-358.610	-200.000	-0.001	0.253
-357.596	-59.992	0.298	-0.128
-356.581	138.649	-0.079	-0.104
-355.566	-157.638	0.251	-0.015
-354.552	-53.466	-0.295	0.136
-353.537	-21.708	0.220	0.135
-352.523	-200.000	-0.020	0.105
-351.508	-200.000	0.017	0.170
-350.493	-114.922	0.211	0.040
-349.479	800.000	0.039	-0.152
-348.464	-200.000	0.045	0.339
-347.450	800.000	0.114	-0.322
-346.435	-200.000	-0.031	-0.140
-345.420	748.522	-0.082	0.222
-344.406	27.360	0.144	0.121
-343.391	-157.183	-0.274	-0.017
-342.377	120.244	0.022	-0.028
-341.362	-72.390	0.062	-0.023
-340.348	-200.000	-0.039	-0.523
-339.333	-200.000	0.006	0.084
-338.318	-200.000	0.065	-0.355
-337.304	681.744	-0.080	-0.211
-336.289	263.965	0.102	0.178
-335.275	-86.407	-0.170	0.053
-334.260	-84.837	-0.180	0.057
-333.245	636.335	0.123	0.313
-332.231	-111.376	-0.314	0.064
-331.216	-97.496	0.086	0.022
-330.202	51.407	-0.188	0.179
-329.187	5.625	-0.225	0.167
-328.172	800.000	-0.058	-0.180
-327.158	-179.833	0.038	-0.001
-326.143	-54.292	0.209	0.095
-325.129	800.000	-0.059	0.209
-324.114	294.402	-0.126	0.232
-323.099	800.000	0.071	-0.217
-322.085	176.387	0.041	0.060
-321.070	-43.455	-0.260	0.132
-320.056	78.496	0.055	-0.059
-319.041	-61.647	-0.202	-0.085
-318.026	538.542	0.121	0.290
-317.012	800.000	-0.129	-0.379
-315.997	67.051	0.097	-0.100
-314.983	-158.037	0.132	0.008
-313.968	-1.418	-0.036	0.026
-312.953	-98.513	-0.099	0.025
-311.939	-68.629	0.154	0.060
-310.924	-92.649	0.159	-0.045
-309.910	-200.000	-0.024	-0.383
-308.895	135.376	0.077	-0.100
-307.880	-200.000	0.029	-0.187
-306.866	25.706	-0.031	0.026
-305.851	-101.416	-0.097	0.024
-304.837	800.000	0.122	0.379
-303.822	800.000	-0.039	0.134
-302.807	-92.974	0.226	-0.063
-301.793	163.685	-0.090	-0.127
-300.778	109.270	0.219	-0.263
-299.764	-200.000	-0.017	0.110
-298.749	105.124	-0.240	0.284
-297.735	-48.166	-0.097	0.047
-296.720	143.111	-0.209	-0.279
-295.705	5.751	0.157	0.117
-294.691	133.233	-0.189	0.245
-293.676	421.503	-0.103	-0.221
-292.662	-32.715	0.191	0.106
-291.647	-33.028	0.270	-0.150
-290.632	-31.813	-0.107	0.060
-289.618	-127.791	-0.242	-0.035
-288.603	-137.596	0.031	-0.003
-287.589	-53.944	-0.460	-0.210
-286.574	635.644	0.147	-0.375
-285.559	65.806	0.139	-0.141
-284.545	114.413	-0.055	-0.067
-283.530	800.000	-0.063	-0.203
-282.516	-200.000	0.021	0.110
-281.501	-200.000	0.068	0.420
-280.486	-55.067	0.136	0.061
-279.472	4.172	-0.221	0.162
-278.457	487.088	-0.076	-0.174
-277.443	-200.000	0.033	0.273
-276.428	5.243	0.058	0.043
-275.413	-179.731	0.083	0.002
-274.399	800.000	-0.081	0.306
-273.384	-131.440	-0.126	0.017
-272.370	-50.476	0.028	-0.013
-271.355	-200.000	-0.037	0.481
-270.340	-12.851	-0.150	0.098
-269.326	-200.000	0.029	0.213
-268.311	57.183	-0.168	-0.164
-267.297	197.942	0.356	0.545
-266.282	44.050	-0.177	0.163
-265.267	136.210	-0.132	-0.172
-264.253	67.648	-0.206	0.211
-263.238	649.091	0.087	0.222
-262.224	800.000	0.065	0.217
-261.209	545.948	0.155	-0.371
-260.195	-9.634	0.104	-0.070
-259.180	85.315	0.183	0.201
-258.165	-53.606	0.182	0.083
-257.151	608.878	-0.112	0.281
-256.136	215.299	-0.150	-0.239
-255.122	4.845	0.171	-0.126
-254.107	-200.000	-0.061	-0.347
-253.092	-95.960	-0.169	0.045
-252.078	-200.000	0.008	0.355
-251.063	-129.504	0.073	-0.010
-250.049	0.332	0.400	0.286
-249.034	67.319	-0.255	-0.260
-248.019	8.494	0.202	-0.152
-247.005	-4.039	0.113	0.079
-245.990	25.318	0.163	-0.136
-244.976	-52.844	-0.350	-0.161
-243.961	-94.791	-0.270	-0.073
-242.946	-81.721	0.047	0.016
-241.932	800.000	-0.036	0.148
-240.917	50.601	-0.170	-0.160
-239.903	-134.041	0.306	-0.038
-238.888	800.000	0.054	-0.203
-237.873	-200.000	0.010	0.246
-236.859	619.253	-0.052	-0.131
-235.844	52.135	-0.187	-0.179
-234.830	165.021	0.095	0.134
-233.815	-200.000	-0.000	-0.002
-232.800	-47.689	-0.255	-0.124
-231.786	126.148	0.175	-0.221
-230.771	6.427	-0.194	-0.144
-229.757	-200.000	-0.048	-0.278
-228.742	-25.579	0.090	0.053
-227.727	570.656	-0.088	-0.215
-226.713	-177.935	0.236	0.006
-225.698	-27.225	0.262	0.153
-224.684	-92.550	0.139	-0.039
-223.669	800.000	-0.024	-0.098
-222.655	800.000	-0.107	-0.352
-221.640	800.000	-0.052	-0.167
-220.625	-40.765	0.121	0.063
-219.611	154.281	0.099	0.136
-218.596	-89.479	-0.155	-0.046
-217.582	-44.102	-0.257	0.129
-216.567	-36.050	-0.028	-0.015
-215.552	-123.567	0.244	-0.039
-214.538	-43.465	-0.326	0.165
-213.523	-200.000	-0.029	-0.288
-212.509	255.765	-0.065	0.112
-211.494	95.240	-0.102	-0.116
-210.479	-135.769	0.305	0.036
-209.465	19.390	0.118	-0.095
-208.450	-45.055	0.190	-0.095
-207.436	-60.211	0.353	0.150
-206.421	-132.699	0.359	-0.046
-205.406	800.000	-0.105	-0.342
-204.392	-59.292	-0.211	0.091
-203.377	-200.000	0.037	0.511
-202.363	96.018	-0.152	-0.174
-201.348	800.000	0.033	-0.101
-200.333	3.675	-0.265	-0.193
-199.319	108.134	-0.124	0.148
-198.304	12.076	0.176	-0.135
-197.290	-102.505	-0.019	0.005
-196.275	89.203	0.160	-0.178
-195.260	-29.318	0.254	-0.145
-194.246	123.866	0.096	-0.121
-193.231	-96.084	0.029	0.008
-192.217	350.920	0.172	0.339
-191.202	48.093	0.166	0.155
-190.187	92.014	-0.074	-0.083
-189.173	72.654	-0.103	0.107
-188.158	-200.000	0.007	-0.078
-187.144	19.034	0.164	0.132
-186.129	644.119	-0.096	-0.245
-185.114	-200.000	-0.019	0.307
-184.100	-130.581	0.357	0.048
-183.085	-77.144	-0.231	0.080
-182.071	63.642	-0.276	0.276
-181.056	-114.420	-0.378	-0.072
-180.042	588.065	-0.133	0.327
-179.027	-116.162	0.060	0.011
-178.012	-58.609	0.120	0.052
-176.998	-200.000	0.001	-0.255
-175.983	-200.000	0.524	0.001
-174.969	494.964	0.100	-0.230
-173.954	116.109	-0.103	-0.126
-172.939	800.000	0.087	-0.325
-171.925	-63.181	0.141	-0.058
-170.910	-60.537	-0.162	0.069
-169.896	88.624	0.178	-0.197
-168.881	-200.000	-0.014	0.106
-167.866	45.081	0.052	-0.048
-166.852	152.320	0.088	-0.119
-165.837	800.000	0.093	0.256
-164.823	470.580	0.085	0.191
-163.808	49.409	0.314	0.294
-162.793	-93.043	-0.128	-0.036
-161.779	150.757	0.095	0.128
-160.764	402.913	0.041	0.087
-159.750	405.453	-0.069	0.146
-158.735	226.230	0.133	0.215
-157.720	-81.702	-0.222	0.073
-156.706	-200.000	-0.011	0.253
-155.691	-34.207	0.086	0.047
-154.677	19.970	0.096	-0.077
-153.662	-35.104	-0.447	0.243
-152.647	800.000	0.075	-0.222
-151.633	100.475	0.042	0.049
-150.618	197.313	-0.078	0.119
-149.604	-131.182	0.053	-0.007
-148.589	-7.412	-0.198	0.134
-147.574	666.186	-0.032	-0.082
-146.560	120.430	0.300	-0.372
-145.545	-24.273	-0.069	0.041
-144.531	-64.763	0.221	-0.089
-143.516	-87.423	0.233	-0.070
-142.502	115.334	0.346	0.422
-141.487	-185.232	0.124	-0.002
-140.472	800.000	-0.010	-0.034
-139.458	-144.235	0.088	0.008
-138.443	-122.702	0.296	0.048
-137.429	184.450	-0.142	0.209
-136.414	-4.046	-0.375	-0.259
-135.399	-157.988	0.336	-0.020
-134.385	-33.774	-0.222	-0.122
-133.370	-85.330	-0.379	-0.118
-132.356	39.232	0.346	0.309
-131.341	-140.791	-0.300	0.031
-130.326	-182.390	-0.140	0.003
-129.312	-130.998	0.204	0.027
-128.297	-73.091	0.176	0.064
-127.283	-19.245	0.311	-0.192
-126.268	800.000	-0.097	-0.323
-125.253	800.000	-0.045	-0.153
-124.239	-87.735	0.132	-0.040
-123.224	-200.000	0.003	0.068
-122.210	-188.026	0.215	-0.003
-121.195	161.717	-0.270	0.376
