DTS Sentinel unit serial number:	SN413079Multiplexer serial number:	ORYXHardware model number:	OX4-SRSoftware version number:	ORYX F/W v4.00 Oryx Data Collector v3.7.2.0data status	okinstallation	princeton_trtdifferential loss correction	single-endedforward channel	channel 4reverse channel	N/Adate	2019/09/19time	06:45:35forward acquisition time	60.00reverse acquisition time	0.00gamma	496.2192k internal	0.2340k external	0.2340temperature offset calibration	1.0029default loss term (dB/km)	0.3790temperature slope calibration	1.0000multiplexer offset coefficient	1.0000multiplexer slope coefficient	1.0000fibre end	0.00T internal ref (°C)	19.00T ext. ref 1 (°C)	0.56T ext. ref 2 (°C)	12.65length (m)	temperature (°C)	Stokes	anti-Stokes-747.200	800.000	-0.027	0.078
-746.185	18.659	0.260	0.209
-745.171	440.561	0.169	0.371
-744.156	30.827	0.174	0.149
-743.142	-112.591	0.315	-0.063
-742.127	-98.680	-0.401	-0.103
-741.112	57.690	0.080	0.079
-740.098	465.776	-0.023	-0.052
-739.083	800.000	-0.099	-0.284
-738.069	-1.269	-0.182	0.129
-737.054	-87.663	-0.100	-0.030
-736.039	-11.830	-0.362	-0.238
-735.025	800.000	0.020	0.075
-734.010	122.700	0.167	-0.209
-732.996	800.000	0.023	0.081
-731.981	-45.143	-0.063	0.031
-730.966	17.805	-0.241	-0.193
-729.952	109.056	-0.102	0.123
-728.937	-137.147	-0.233	-0.027
-727.923	-118.608	0.035	-0.006
-726.908	-200.000	-0.007	0.119
-725.894	326.270	0.043	-0.082
-724.879	-137.290	0.238	-0.027
-723.864	-116.008	0.080	-0.015
-722.850	-139.853	-0.572	0.061
-721.835	132.086	0.094	0.121
-720.821	-119.160	-0.267	0.047
-719.806	27.896	0.091	-0.077
-718.791	16.913	0.200	0.158
-717.777	-200.000	0.017	-0.371
-716.762	-104.281	-0.390	-0.091
-715.748	129.844	0.031	0.039
-714.733	672.813	-0.095	-0.246
-713.718	-200.000	-0.019	-0.327
-712.704	-50.218	0.174	0.082
-711.689	139.722	-0.133	-0.176
-710.675	62.178	-0.179	-0.179
-709.660	800.000	0.049	-0.171
-708.645	-200.000	0.008	0.200
-707.631	-200.000	-0.034	-0.158
-706.616	485.111	-0.120	-0.273
-705.602	-200.000	0.027	-0.202
-704.587	-79.719	-0.165	0.056
-703.572	294.359	0.093	-0.171
-702.558	47.864	0.232	-0.217
-701.543	-144.028	0.136	-0.013
-700.529	-62.149	-0.349	0.146
-699.514	36.585	-0.040	0.035
-698.499	44.727	-0.211	0.194
-697.485	-200.000	-0.009	0.101
-696.470	-200.000	0.029	0.136
-695.456	-200.000	-0.062	-0.323
-694.441	-200.000	-0.019	0.251
-693.426	800.000	-0.028	0.118
-692.412	-31.011	0.035	-0.020
-691.397	800.000	-0.037	0.115
-690.383	106.775	0.044	0.052
-689.368	800.000	0.027	0.074
-688.354	-95.113	-0.239	0.065
-687.339	-200.000	0.038	-0.347
-686.324	-4.590	-0.083	-0.057
-685.310	-51.024	0.047	-0.022
-684.295	-136.637	-0.781	0.090
-683.281	325.423	0.088	0.168
-682.266	-7.183	0.235	0.160
-681.251	-200.000	0.010	0.223
-680.237	61.704	0.093	0.093
-679.222	-81.427	0.172	-0.057
-678.208	-59.408	-0.282	0.121
-677.193	222.749	0.075	0.121
-676.178	224.353	-0.050	0.081
-675.164	-200.000	-0.038	-0.174
-674.149	800.000	-0.040	0.137
-673.135	148.350	0.166	0.224
-672.120	47.210	-0.039	-0.036
-671.105	114.054	0.128	-0.156
-670.091	-200.000	-0.044	-0.318
-669.076	-200.000	0.015	0.086
-668.062	348.874	0.155	-0.306
-667.047	-157.454	-0.379	0.023
-666.032	-80.279	0.238	0.079
-665.018	800.000	-0.134	-0.566
-664.003	-83.705	-0.541	-0.173
-662.989	-73.692	0.330	-0.120
-661.974	715.510	-0.101	0.267
-660.959	-200.000	-0.012	-0.151
-659.945	636.256	0.146	-0.371
-658.930	800.000	-0.080	0.338
-657.916	-200.000	-0.010	-0.089
-656.901	16.451	-0.162	-0.128
-655.886	93.323	-0.111	0.126
-654.872	-162.639	-0.370	-0.018
-653.857	-119.212	-0.399	-0.070
-652.843	120.759	0.220	0.274
-651.828	-63.822	0.003	0.001
-650.814	-130.855	-0.446	0.060
-649.799	719.418	-0.075	-0.198
-648.784	288.984	0.100	0.180
-647.770	144.324	-0.017	-0.022
-646.755	183.399	0.063	0.093
-645.741	-200.000	-0.070	-0.314
-644.726	1.897	0.153	-0.110
-643.711	-200.000	-0.013	0.136
-642.697	39.375	-0.041	-0.036
-641.682	106.503	-0.303	0.359
-640.668	529.072	-0.052	-0.122
-639.653	-110.886	-0.366	-0.075
-638.638	94.053	0.323	0.366
-637.624	22.488	0.246	-0.201
-636.609	356.943	-0.070	-0.139
-635.595	-42.811	0.120	-0.061
-634.580	800.000	-0.094	-0.357
-633.565	373.028	0.092	-0.186
-632.551	-129.062	0.175	-0.024
-631.536	244.619	0.168	-0.281
-630.522	-16.830	0.203	-0.128
-629.507	800.000	0.026	-0.107
-628.492	-86.307	-0.193	-0.059
-627.478	11.734	0.149	0.114
-626.463	-200.000	0.007	-0.188
-625.449	622.335	-0.112	-0.282
-624.434	-26.869	-0.163	0.095
-623.419	-200.000	-0.027	0.140
-622.405	146.932	-0.241	-0.323
-621.390	324.808	0.066	-0.127
-620.376	-110.933	-0.319	0.065
-619.361	169.884	-0.076	0.108
-618.346	239.013	0.065	0.107
-617.332	-200.000	-0.014	0.131
-616.317	-200.000	0.025	-0.164
-615.303	-80.421	0.159	-0.053
-614.288	-2.325	-0.055	-0.038
-613.273	-52.647	0.288	0.133
-612.259	-76.787	-0.234	0.082
-611.244	-200.000	-0.055	0.337
-610.230	-50.478	0.145	-0.068
-609.215	-119.556	-0.348	0.060
-608.201	-0.815	0.194	-0.137
-607.186	157.990	-0.056	-0.078
-606.171	35.383	0.045	-0.039
-605.157	-200.000	-0.008	-0.362
-604.142	-12.888	0.230	0.149
-603.128	99.452	-0.088	-0.101
-602.113	-144.084	0.285	0.027
-601.098	-200.000	0.016	0.080
-600.084	351.781	0.102	-0.201
-599.069	50.389	0.259	0.244
-598.055	739.818	0.019	-0.050
-597.040	-76.602	-0.303	0.106
-596.025	-200.000	0.003	-0.366
-595.011	-58.594	-0.069	0.030
-593.996	800.000	0.057	0.167
-592.982	-28.569	0.143	-0.082
-591.967	87.420	-0.310	-0.342
-590.952	37.399	-0.173	-0.153
-589.938	775.709	-0.041	-0.113
-588.923	-200.000	0.003	0.323
-587.909	-115.579	0.179	0.034
-586.894	-200.000	0.225	-0.000
-585.879	-13.423	0.187	0.121
-584.865	130.960	0.075	0.096
-583.850	-200.000	0.018	-0.355
-582.836	-200.000	-0.015	-0.080
-581.821	70.944	-0.101	0.105
-580.806	724.301	-0.098	-0.261
-579.792	-200.000	0.008	0.046
-578.777	105.224	-0.218	0.256
-577.763	-54.466	0.162	-0.073
-576.748	-88.227	0.273	-0.082
-575.733	-61.091	0.352	0.148
-574.719	89.079	-0.142	-0.158
-573.704	-163.974	-0.337	0.016
-572.690	-137.843	-0.132	-0.015
-571.675	393.494	0.086	0.179
-570.661	-30.817	-0.185	-0.104
-569.646	-107.963	-0.185	0.040
-568.631	-164.203	0.413	-0.019
-567.617	-200.000	0.020	-0.111
-566.602	800.000	0.106	0.383
-565.588	-200.000	-0.006	-0.188
-564.573	-73.021	0.165	0.060
-563.558	4.740	-0.091	-0.067
-562.544	800.000	-0.094	-0.277
-561.529	145.934	0.018	0.024
-560.515	-200.000	-0.012	-0.275
-559.500	-200.000	-0.042	0.256
-558.485	-52.872	-0.150	0.069
-557.471	582.145	0.174	0.424
-556.456	-200.000	-0.022	-0.116
-555.442	203.618	-0.145	-0.223
-554.427	13.743	0.249	-0.193
-553.412	7.741	-0.036	-0.026
-552.398	800.000	0.060	-0.235
-551.383	111.298	-0.207	-0.248
-550.369	-38.485	-0.101	-0.053
-549.354	-200.000	0.016	-0.140
-548.339	-22.945	0.044	-0.027
-547.325	81.147	-0.036	0.038
-546.310	18.514	-0.153	-0.122
-545.296	112.443	0.247	0.298
-544.281	165.257	0.080	0.113
-543.266	30.674	0.034	0.029
-542.252	-200.000	-0.015	0.250
-541.237	96.226	0.310	0.352
-540.223	-200.000	0.028	-0.185
-539.208	-156.476	-0.307	-0.019
-538.193	220.022	-0.044	-0.070
-537.179	-37.581	-0.288	0.153
-536.164	57.515	0.057	-0.056
-535.150	272.854	-0.125	-0.220
-534.135	118.747	0.165	-0.203
-533.121	-69.625	0.364	0.138
-532.106	800.000	-0.083	-0.278
-531.091	29.490	0.199	0.169
-530.077	13.446	-0.079	-0.061
-529.062	32.040	0.053	-0.045
-528.048	-108.168	-0.320	0.069
-527.033	240.932	0.091	-0.151
-526.018	26.569	0.063	-0.053
-525.004	658.781	0.039	-0.101
-523.989	-20.368	-0.262	0.160
-522.975	478.996	0.128	0.289
-521.960	106.533	0.285	0.336
-520.945	-46.091	0.118	0.058
-519.931	-176.692	0.157	-0.004
-518.916	-98.538	-0.352	-0.089
-517.902	-187.365	0.242	-0.003
-516.887	-19.765	-0.279	-0.171
-515.872	71.397	0.237	0.245
-514.858	-180.050	-0.538	-0.011
-513.843	-136.459	0.272	-0.031
-512.829	-124.373	-0.329	0.051
-511.814	26.796	0.241	-0.200
-510.799	241.466	-0.151	-0.250
-509.785	205.684	-0.090	0.139
-508.770	-95.012	-0.103	-0.028
-507.756	155.790	0.148	0.202
-506.741	-7.022	-0.072	0.049
-505.726	0.594	0.277	0.197
-504.712	46.352	-0.290	0.267
-503.697	-68.654	-0.097	-0.037
-502.683	-200.000	0.020	0.185
-501.668	185.162	0.107	-0.157
-500.653	800.000	0.093	0.321
-499.639	32.435	-0.178	0.153
-498.624	83.956	0.063	0.069
-497.610	-33.086	0.280	0.154
-496.595	15.905	-0.521	-0.408
-495.581	484.711	-0.170	-0.385
-494.566	-71.073	0.271	0.101
-493.551	409.846	-0.125	0.264
-492.537	56.214	0.153	-0.148
-491.522	-200.000	-0.026	-0.167
-490.508	-200.000	-0.019	-0.111
-489.493	94.925	0.026	-0.030
-488.478	-48.580	0.227	-0.108
-487.464	-164.844	-0.180	0.008
-486.449	240.823	-0.076	-0.125
-485.435	-200.000	-0.007	-0.139
-484.420	2.172	-0.220	-0.157
-483.405	32.522	-0.205	-0.176
-482.391	-20.645	0.276	0.168
-481.376	2.135	0.029	0.021
-480.362	54.874	-0.190	-0.182
-479.347	146.928	-0.148	-0.197
-478.332	240.830	-0.117	0.194
-477.318	189.823	-0.138	0.205
-476.303	-104.319	-0.183	-0.042
-475.289	800.000	0.086	-0.296
-474.274	-200.000	0.001	0.091
-473.259	160.782	-0.110	-0.153
-472.245	-131.363	-0.220	-0.029
-471.230	-29.824	0.052	0.030
-470.216	731.452	0.042	0.112
-469.201	421.919	0.156	0.333
-468.186	-200.000	0.005	0.036
-467.172	197.894	-0.013	0.020
-466.157	-127.077	0.229	-0.033
-465.143	-97.177	-0.292	-0.076
-464.128	-56.011	0.223	0.099
-463.113	122.068	0.131	-0.163
-462.099	-63.284	0.153	-0.063
-461.084	-92.988	-0.215	-0.060
-460.070	800.000	0.083	0.356
-459.055	800.000	0.093	0.341
-458.040	568.822	-0.025	0.061
-457.026	-63.198	-0.133	-0.054
-456.011	595.751	-0.099	0.243
-454.997	-107.936	0.139	0.030
-453.982	-98.108	0.251	0.064
-452.968	68.826	-0.275	0.280
-451.953	119.239	-0.217	0.266
-450.938	-200.000	0.006	0.358
-449.924	259.917	-0.146	0.250
-448.909	-79.880	0.062	-0.021
-447.895	-124.330	-0.032	-0.005
-446.880	-200.000	-0.004	-0.211
-445.865	-113.217	0.108	-0.021
-444.851	441.241	-0.093	0.202
-443.836	-11.893	0.212	-0.138
-442.822	-86.388	0.136	-0.041
-441.807	-150.254	-0.454	-0.035
-440.792	-25.169	0.419	-0.246
-439.778	302.624	0.139	-0.256
-438.763	-60.885	-0.202	-0.085
-437.749	-84.473	0.164	-0.051
-436.734	-200.000	0.004	-0.506
-435.719	800.000	0.094	-0.350
-434.705	183.395	0.109	0.160
-433.690	-93.091	0.170	-0.047
-432.676	-86.560	-0.330	0.100
-431.661	-149.970	-0.003	-0.000
-430.646	395.219	-0.081	-0.166
-429.632	3.170	-0.218	-0.157
-428.617	-28.686	0.105	-0.060
-427.603	750.162	0.113	-0.302
-426.588	-200.000	0.041	0.335
-425.573	50.451	-0.068	0.063
-424.559	-73.886	0.104	0.038
-423.544	-68.096	0.164	0.063
-422.530	-161.787	-0.142	0.007
-421.515	-141.522	-0.416	0.042
-420.500	-37.561	0.154	-0.081
-419.486	-200.000	-0.020	-0.127
-418.471	-101.266	-0.207	0.050
-417.457	-200.000	-0.016	0.236
-416.442	30.303	-0.271	0.229
-415.428	81.533	-0.158	-0.169
-414.413	-34.100	0.076	0.042
-413.398	37.261	-0.117	0.102
-412.384	72.647	-0.073	0.075
-411.369	-33.787	-0.151	-0.082
-410.355	157.040	-0.089	-0.122
-409.340	-200.000	0.004	-0.313
-408.325	-2.878	0.253	0.175
-407.311	254.721	0.147	-0.249
-406.296	-6.348	-0.166	0.112
-405.282	146.593	-0.103	-0.136
-404.267	800.000	0.132	0.505
-403.252	377.475	0.132	-0.268
-402.238	-200.000	-0.004	-0.160
-401.223	-200.000	0.112	-0.672
-400.209	28.283	0.155	-0.130
-399.194	-200.000	0.008	-0.042
-398.179	181.565	0.205	0.298
-397.165	-56.627	0.042	-0.019
-396.150	-200.000	-0.047	0.279
-395.136	-160.028	0.158	-0.009
-394.121	138.106	0.051	0.066
-393.106	-200.000	0.010	0.076
-392.092	-36.229	0.205	-0.110
-391.077	291.226	0.164	0.294
-390.063	427.115	-0.201	0.429
-389.048	124.962	0.229	0.286
-388.033	-200.000	0.009	0.179
-387.019	330.919	0.051	-0.097
-386.004	68.675	-0.171	-0.174
-384.990	-200.000	0.000	-0.094
-383.975	-200.000	0.035	0.170
-382.960	228.711	-0.112	-0.180
-381.946	-103.977	0.353	0.081
-380.931	424.113	0.105	0.224
-379.917	-200.000	-0.065	-0.316
-378.902	276.614	-0.050	-0.088
-377.888	-32.941	-0.167	0.092
-376.873	-200.000	0.057	0.568
-375.858	-200.000	0.047	-0.351
-374.844	-98.744	-0.077	-0.019
-373.829	248.664	-0.046	-0.076
-372.815	117.802	0.348	-0.423
-371.800	-100.014	0.180	-0.044
-370.785	265.428	-0.119	0.205
-369.771	-135.667	0.228	0.027
-368.756	800.000	-0.035	0.121
-367.742	-23.352	-0.134	0.080
-366.727	-63.659	-0.414	0.168
-365.712	38.285	0.129	-0.114
-364.698	-200.000	-0.005	-0.211
-363.683	-200.000	0.021	-0.294
-362.669	108.808	0.165	-0.195
-361.654	-200.000	-0.036	0.206
-360.639	-51.527	0.262	0.121
-359.625	-200.000	-0.003	0.263
-358.610	800.000	-0.042	0.178
-357.596	-113.335	-0.072	0.014
-356.581	-146.438	-0.288	-0.025
-355.566	-31.083	0.174	-0.097
-354.552	-57.393	-0.325	0.141
-353.537	-200.000	0.013	0.166
-352.523	-100.611	0.219	-0.053
-351.508	-146.838	-0.226	-0.019
-350.493	-118.199	-0.314	0.055
-349.479	49.422	0.256	0.238
-348.464	-185.920	0.329	0.005
-347.450	800.000	0.091	0.280
-346.435	-167.034	0.149	-0.006
-345.420	499.035	-0.119	0.270
-344.406	-200.000	-0.043	0.337
-343.391	-74.070	-0.244	0.087
-342.377	-125.137	0.325	-0.049
-341.362	-63.187	0.192	0.078
-340.348	-200.000	-0.057	0.270
-339.333	-200.000	0.052	0.271
-338.318	800.000	-0.072	-0.270
-337.304	800.000	-0.057	-0.208
-336.289	-67.588	0.147	0.057
-335.275	35.267	-0.267	0.231
-334.260	-200.000	-0.005	-0.179
-333.245	115.498	-0.098	-0.119
-332.231	3.153	0.212	-0.152
-331.216	-181.705	-0.210	-0.004
-330.202	-138.141	0.094	0.010
-329.187	141.892	-0.095	0.124
-328.172	-86.782	-0.062	-0.019
-327.158	-14.355	0.137	-0.087
-326.143	-62.357	-0.230	0.094
-325.129	-155.601	-0.362	0.023
-324.114	-119.313	0.037	0.006
-323.099	-156.808	0.254	0.015
-322.085	-83.631	-0.198	0.062
-321.070	-105.598	0.190	-0.042
-320.056	193.694	-0.116	0.173
-319.041	-200.000	-0.034	-0.216
-318.026	-84.729	0.137	0.043
-317.012	800.000	0.099	-0.333
-315.997	56.845	0.075	0.072
-314.983	-108.157	-0.130	-0.028
-313.968	-170.786	-0.186	0.006
-312.953	161.974	0.178	-0.246
-311.939	257.014	-0.075	0.128
-310.924	297.626	-0.019	-0.035
-309.910	-176.053	-0.043	0.001
-308.895	-29.308	0.152	0.086
-307.880	-97.362	0.302	-0.077
-306.866	-139.687	-0.201	0.021
-305.851	-4.667	0.286	-0.195
-304.837	-160.440	0.261	0.014
-303.822	151.048	0.045	0.061
-302.807	129.128	0.186	-0.234
-301.793	143.363	0.116	0.152
-300.778	-55.654	0.053	0.024
-299.764	20.191	-0.361	-0.287
-298.749	-200.000	0.033	-0.182
-297.735	363.240	0.155	0.307
-296.720	800.000	0.010	0.038
-295.705	-61.643	-0.273	0.113
-294.691	38.218	-0.116	0.102
-293.676	-99.058	0.225	-0.056
-292.662	-136.134	-0.130	-0.015
-291.647	-44.865	0.283	-0.139
-290.632	62.955	-0.287	0.283
-289.618	710.677	-0.081	-0.210
-288.603	31.613	0.197	-0.167
-287.589	109.853	0.116	0.137
-286.574	-135.212	-0.167	-0.020
-285.559	153.649	-0.161	0.217
-284.545	-200.000	-0.003	0.479
-283.530	-22.454	-0.091	-0.054
-282.516	-128.027	0.138	-0.020
-281.501	157.448	0.075	-0.102
-280.486	-55.819	-0.210	-0.092
-279.472	-43.186	-0.132	-0.066
-278.457	199.323	0.067	-0.101
-277.443	72.415	0.074	0.076
-276.428	618.156	-0.127	-0.314
-275.413	-17.682	-0.127	0.079
-274.399	-112.570	-0.539	0.106
-273.384	-200.000	0.001	-0.023
-272.370	215.012	0.226	0.353
-271.355	-67.691	-0.110	-0.042
-270.340	25.891	0.162	0.133
-269.326	-42.599	0.164	-0.082
-268.311	551.215	-0.081	0.192
-267.297	457.509	-0.085	0.187
-266.282	411.989	0.049	0.102
-265.267	421.316	0.083	0.175
-264.253	800.000	-0.050	0.208
-263.238	800.000	0.019	0.077
-262.224	177.374	-0.043	0.062
-261.209	594.982	0.036	-0.089
-260.195	122.439	-0.156	0.191
-259.180	24.342	0.353	0.287
-258.165	567.420	-0.110	0.263
-257.151	-96.419	-0.145	0.038
-256.136	-24.392	-0.369	0.216
-255.122	-134.684	-0.037	-0.004
-254.107	800.000	-0.084	0.349
-253.092	-44.416	0.111	0.055
-252.078	174.891	-0.072	-0.102
-251.063	-10.979	-0.254	-0.165
-250.049	800.000	0.131	-0.384
-249.034	-149.649	0.228	0.018
-248.019	-200.000	-0.032	-0.186
-247.005	-144.930	0.143	0.013
-245.990	215.916	-0.115	-0.180
-244.976	74.547	-0.048	0.050
-243.961	800.000	-0.062	0.170
-242.946	99.968	0.124	-0.142
-241.932	-175.866	0.356	0.009
-240.917	370.438	0.068	0.135
-239.903	-120.155	0.415	-0.070
-238.888	-200.000	0.013	0.100
-237.873	-162.012	-0.150	0.007
-236.859	198.912	0.216	0.325
-235.844	-27.685	-0.239	-0.136
-234.830	67.138	0.238	-0.239
-233.815	-200.000	-0.010	-0.146
-232.800	42.384	-0.232	0.208
-231.786	-13.831	-0.189	0.120
-230.771	-1.725	0.347	0.240
-229.757	-200.000	0.008	0.040
-228.742	49.318	-0.035	0.033
-227.727	-61.762	0.412	-0.170
-226.713	551.477	0.098	0.232
-225.698	-46.064	-0.259	-0.125
-224.684	-200.000	-0.050	0.377
-223.669	-96.264	0.281	-0.073
-222.655	161.148	-0.085	0.117
-221.640	276.399	-0.126	-0.219
-220.625	800.000	0.038	-0.116
-219.611	-144.301	0.094	-0.009
-218.596	47.761	0.118	-0.108
-217.582	-67.236	-0.090	0.035
-216.567	-40.266	-0.037	-0.019
-215.552	800.000	0.092	-0.280
-214.538	-200.000	0.077	-0.382
-213.523	319.734	0.045	0.084
-212.509	547.752	-0.152	-0.358
-211.494	152.676	-0.166	-0.223
-210.479	-66.700	-0.261	-0.101
-209.465	-34.044	0.316	0.170
-208.450	-78.757	-0.353	-0.118
-207.436	64.477	-0.353	-0.349
-206.421	800.000	-0.017	0.071
-205.406	-118.050	-0.414	-0.073
-204.392	405.423	-0.037	0.076
-203.377	-200.000	-0.011	0.225
-202.363	-147.999	-0.124	0.010
-201.348	118.804	0.048	0.059
-200.333	20.302	0.084	-0.066
-199.319	718.830	0.071	-0.186
-198.304	-200.000	0.028	0.246
-197.290	720.000	-0.021	0.054
-196.275	-89.939	-0.293	-0.084
-195.260	-200.000	-0.015	-0.175
-194.246	96.162	-0.095	-0.107
-193.231	101.108	0.150	-0.171
-192.217	-103.122	-0.170	0.040
-191.202	322.437	-0.104	-0.195
-190.187	107.096	-0.289	-0.337
-189.173	-96.955	0.741	0.191
-188.158	13.870	-0.362	0.276
-187.144	53.653	-0.305	-0.288
-186.129	-59.421	0.172	-0.072
-185.114	88.107	0.108	-0.117
-184.100	236.101	-0.107	-0.173
-183.085	13.210	0.144	0.110
-182.071	86.463	0.051	0.055
-181.056	800.000	-0.064	0.253
-180.042	800.000	0.046	-0.158
-179.027	800.000	-0.099	-0.347
-178.012	215.357	0.190	-0.296
-176.998	-11.560	-0.072	0.046
-175.983	211.201	-0.149	0.231
-174.969	800.000	0.030	-0.128
-173.954	-200.000	-0.057	0.270
-172.939	-166.641	-0.405	0.016
-171.925	20.335	0.210	-0.167
-170.910	-200.000	0.015	0.207
-169.896	464.960	0.136	0.297
-168.881	-150.325	0.037	0.003
-167.866	312.586	0.044	-0.081
-166.852	-61.690	-0.184	0.076
-165.837	-56.290	0.199	0.087
-164.823	578.975	0.012	0.028
-163.808	29.264	0.110	0.091
-162.793	157.971	-0.173	0.235
-161.779	-186.324	0.288	0.004
-160.764	-200.000	-0.016	0.152
-159.750	235.003	-0.094	0.152
-158.735	-9.923	0.475	-0.310
-157.720	-66.257	-0.211	0.082
-156.706	-200.000	0.015	-0.100
-155.691	-132.143	-0.115	-0.015
-154.677	-84.236	0.215	0.067
-153.662	-130.787	-0.112	0.015
-152.647	-88.912	0.287	-0.083
-151.633	-35.027	0.149	-0.079
-150.618	-200.000	-0.005	-0.039
-149.604	117.642	0.240	0.289
-148.589	30.866	-0.071	-0.060
-147.574	5.976	-0.061	-0.044
-146.560	362.555	0.064	0.125
-145.545	40.436	-0.167	0.147
-144.531	47.045	-0.152	-0.139
-143.516	-119.498	0.535	-0.091
-142.502	-80.556	-0.517	0.169
-141.487	-143.455	0.388	-0.036
-140.472	-58.905	0.379	0.161
-139.458	141.918	0.062	-0.081
-138.443	-100.359	0.502	-0.122
-137.429	145.041	0.099	-0.129
-136.414	186.671	-0.261	-0.381
-135.399	-145.635	-0.048	-0.004
-134.385	-200.000	-0.022	-0.189
-133.370	606.748	0.050	0.123
-132.356	-200.000	-0.057	0.265
-131.341	800.000	0.015	0.058
-130.326	554.218	-0.080	0.189
-129.312	42.277	-0.101	0.089
-128.297	-200.000	0.018	-0.132
-127.283	800.000	-0.061	0.212
-126.268	-107.457	0.296	-0.063
-125.253	202.335	-0.193	0.291
-124.239	-200.000	-0.032	0.297
-123.224	785.177	0.078	-0.211
-122.210	-200.000	0.036	-0.319
-121.195	-162.633	0.171	0.008
