DTS Sentinel unit serial number:	SN413079Multiplexer serial number:	ORYXHardware model number:	OX4-SRSoftware version number:	ORYX F/W v4.00 Oryx Data Collector v3.7.2.0data status	okinstallation	princeton_trtdifferential loss correction	single-endedforward channel	channel 4reverse channel	N/Adate	2019/09/12time	18:17:19forward acquisition time	15.00reverse acquisition time	0.00gamma	496.2192k internal	0.2307k external	0.2307temperature offset calibration	1.0131default loss term (dB/km)	0.3790temperature slope calibration	1.0000multiplexer offset coefficient	1.0000multiplexer slope coefficient	1.0000fibre end	0.00T internal ref (°C)	33.50T ext. ref 1 (°C)	2.93T ext. ref 2 (°C)	28.11length (m)	temperature (°C)	Stokes	anti-Stokes-747.200	397.875	0.161	0.342
-746.185	13.992	0.235	0.186
-745.171	-42.128	-0.532	0.277
-744.156	800.000	-0.177	0.650
-743.142	779.184	-0.168	0.466
-742.127	800.000	-0.132	-0.514
-741.112	-16.074	0.756	-0.489
-740.098	800.000	-0.115	-0.477
-739.083	-200.000	0.158	-0.875
-738.069	30.153	0.535	0.464
-737.054	-162.159	-0.703	-0.036
-736.039	800.000	0.126	-0.551
-735.025	281.702	-0.013	-0.024
-734.010	-200.000	-0.090	-0.888
-732.996	120.132	-0.342	0.432
-731.981	-200.000	0.080	-0.566
-730.966	364.849	0.199	0.407
-729.952	-200.000	-0.035	0.540
-728.937	-200.000	-0.044	-0.279
-727.923	-200.000	-0.032	-0.239
-726.908	526.942	-0.107	-0.256
-725.894	64.839	-0.299	0.307
-724.879	116.460	-0.521	0.649
-723.864	42.860	-0.399	0.369
-722.850	-200.000	-0.004	-0.592
-721.835	-200.000	-0.037	-0.274
-720.821	97.917	-0.573	-0.669
-719.806	166.806	0.358	-0.516
-718.791	-118.691	-0.466	-0.083
-717.777	-200.000	-0.038	0.588
-716.762	-80.815	-0.252	0.085
-715.748	197.508	-0.661	1.025
-714.733	-53.545	0.640	-0.297
-713.718	-92.792	-0.369	0.105
-712.704	-40.807	0.593	-0.312
-711.689	77.519	0.418	-0.452
-710.675	-200.000	0.100	-0.581
-709.660	627.511	-0.082	0.211
-708.645	-94.179	-0.331	-0.092
-707.631	-17.126	0.169	-0.108
-706.616	-20.363	0.354	0.221
-705.602	-200.000	-0.010	-0.902
-704.587	-189.917	0.637	0.007
-703.572	13.378	-0.580	0.456
-702.558	800.000	0.187	-0.573
-701.543	-128.894	0.611	0.087
-700.529	800.000	0.509	-1.448
-699.514	116.705	-0.544	-0.677
-698.499	-95.546	-1.244	-0.339
-697.485	13.465	-0.318	-0.250
-696.470	-200.000	-0.136	0.839
-695.456	-158.161	-0.639	0.038
-694.441	55.240	0.064	-0.063
-693.426	800.000	0.083	-0.258
-692.412	19.191	-0.224	-0.183
-691.397	-162.991	-0.388	-0.019
-690.383	51.484	-0.439	-0.423
-689.368	394.047	-0.486	-1.027
-688.354	704.829	0.122	0.328
-687.339	414.389	0.283	0.612
-686.324	-19.563	-0.595	0.374
-685.310	-200.000	0.034	-0.228
-684.295	112.285	0.445	0.546
-683.281	-92.510	-0.311	0.089
-682.266	-147.435	-0.404	-0.035
-681.251	-105.969	-0.370	0.084
-680.237	-23.161	0.059	0.036
-679.222	-200.000	0.056	0.445
-678.208	-66.094	0.338	-0.137
-677.193	800.000	0.084	0.360
-676.178	800.000	-0.029	-0.127
-675.164	-141.016	-0.205	-0.021
-674.149	-94.889	-0.320	-0.088
-673.135	-40.257	0.116	0.061
-672.120	82.863	0.453	-0.500
-671.105	117.474	-0.119	0.148
-670.091	-200.000	-0.085	-0.862
-669.076	-200.000	-0.069	0.633
-668.062	800.000	-0.092	-0.289
-667.047	-5.932	0.514	0.356
-666.032	23.892	-0.059	-0.049
-665.018	-171.204	0.759	0.026
-664.003	55.990	0.385	0.379
-662.989	800.000	0.194	-0.826
-661.974	114.205	-0.910	-1.123
-660.959	-141.877	0.319	-0.032
-659.945	598.805	0.196	-0.492
-658.930	336.508	0.307	0.603
-657.916	-125.411	-0.078	0.012
-656.901	-110.949	0.891	-0.186
-655.886	1.784	-0.697	0.509
-654.872	-177.579	-0.339	-0.008
-653.857	179.718	-0.388	0.577
-652.843	141.515	0.326	-0.438
-651.828	-88.941	-0.967	0.290
-650.814	-82.478	-0.240	-0.079
-649.799	-124.598	0.799	-0.126
-648.784	-73.472	0.637	-0.236
-647.770	-200.000	-0.105	-0.752
-646.755	-101.829	-0.656	0.161
-645.741	-84.992	-0.844	-0.268
-644.726	-25.599	0.272	-0.163
-643.711	-30.321	0.063	0.036
-642.697	7.751	-0.556	0.422
-641.682	186.875	-0.220	-0.333
-640.668	7.484	-0.134	0.101
-639.653	-52.320	0.255	-0.119
-638.638	-124.035	-0.277	-0.044
-637.624	-114.685	-0.375	0.073
-636.609	-200.000	0.022	-0.464
-635.595	800.000	-0.270	-0.800
-634.580	800.000	-0.055	0.195
-633.565	199.621	-0.111	0.173
-632.551	-13.451	-0.091	-0.060
-631.536	-104.407	-0.616	0.144
-630.522	-117.100	0.897	-0.166
-629.507	482.568	-0.248	0.570
-628.492	-200.000	0.014	-0.247
-627.478	-1.284	-0.617	0.441
-626.463	-14.396	-0.626	0.408
-625.449	800.000	0.047	-0.159
-624.434	-99.291	-0.331	0.084
-623.419	-200.000	-0.039	-0.314
-622.405	-200.000	-0.165	-0.945
-621.390	-78.495	-0.596	0.206
-620.376	-75.758	0.282	0.101
-619.361	209.971	0.482	0.766
-618.346	-200.000	-0.000	0.245
-617.332	42.116	0.439	-0.403
-616.317	-111.637	0.579	0.119
-615.303	668.075	0.326	0.854
-614.288	800.000	-0.177	0.592
-613.273	-200.000	-0.014	-0.308
-612.259	-28.017	0.309	-0.181
-611.244	62.349	0.339	0.342
-610.230	40.341	-0.116	0.106
-609.215	124.619	-0.037	-0.047
-608.201	-74.721	0.298	-0.108
-607.186	449.969	0.390	0.871
-606.171	-200.000	-0.058	-0.418
-605.157	800.000	-0.117	-0.494
-604.142	359.273	0.062	0.126
-603.128	136.912	-0.096	0.127
-602.113	-107.074	0.453	0.101
-601.098	-200.000	-0.020	0.100
-600.084	-125.611	0.141	0.022
-599.069	164.358	0.168	0.239
-598.055	800.000	0.102	0.364
-597.040	93.463	-0.197	0.226
-596.025	-81.029	-0.504	-0.169
-595.011	-200.000	0.030	-0.141
-593.996	-200.000	-0.062	0.502
-592.982	132.029	0.177	-0.230
-591.967	225.658	-0.260	0.426
-590.952	800.000	-0.083	-0.327
-589.938	262.023	0.064	-0.113
-588.923	332.264	-0.328	-0.640
-587.909	97.413	-0.228	0.264
-586.894	49.602	0.430	0.409
-585.879	800.000	0.142	0.420
-584.865	-85.578	0.186	0.058
-583.850	659.064	-0.381	-0.990
-582.836	143.829	0.101	0.137
-581.821	315.013	0.160	0.304
-580.806	192.134	-0.022	-0.033
-579.792	-187.452	0.454	0.006
-578.777	-200.000	0.044	-0.395
-577.763	800.000	0.139	-0.444
-576.748	49.752	-0.361	0.344
-575.733	-60.186	0.257	0.111
-574.719	74.295	0.273	-0.290
-573.704	-144.783	0.823	-0.076
-572.690	153.037	-0.746	1.031
-571.675	800.000	-0.062	0.180
-570.661	-200.000	0.138	-0.815
-569.646	-52.684	0.754	0.351
-568.631	800.000	-0.038	0.133
-567.617	-101.977	-0.852	-0.208
-566.602	44.605	0.272	0.253
-565.588	2.801	-0.455	-0.333
-564.573	-106.269	-0.475	-0.107
-563.558	161.395	-0.177	-0.249
-562.544	325.551	-0.227	-0.438
-561.529	-63.564	1.306	0.541
-560.515	111.599	0.150	0.183
-559.500	384.157	0.144	0.300
-558.485	-55.298	-0.793	-0.360
-557.471	-43.113	0.433	-0.222
-556.456	136.772	-0.365	-0.481
-555.442	800.000	-0.291	-0.891
-554.427	-91.238	0.572	0.165
-553.412	98.232	0.240	-0.279
-552.398	-6.979	0.739	0.506
-551.383	-19.712	0.180	-0.112
-550.369	-171.261	0.722	0.025
-549.354	800.000	-0.093	-0.299
-548.339	292.472	0.254	-0.468
-547.325	-59.982	-0.706	0.304
-546.310	5.209	-0.154	0.115
-545.296	191.628	-0.642	0.977
-544.281	-200.000	0.120	0.682
-543.266	-45.695	0.220	0.110
-542.252	71.978	0.444	0.466
-541.237	-116.253	-0.471	0.088
-540.223	37.048	0.409	0.365
-539.208	340.995	-0.161	-0.318
-538.193	-66.953	0.438	0.175
-537.179	800.000	0.076	0.310
-536.164	-113.410	0.541	-0.107
-535.150	-18.087	0.926	0.585
-534.135	-53.862	-0.396	-0.182
-533.121	-200.000	0.078	-0.422
-532.106	84.721	0.548	-0.605
-531.091	-51.448	0.596	0.281
-530.077	315.600	0.081	-0.154
-529.062	-200.000	0.071	0.786
-528.048	-185.975	1.399	-0.021
-527.033	-30.767	-0.606	0.346
-526.018	-106.595	0.351	-0.079
-525.004	81.223	0.424	-0.461
-523.989	-200.000	0.071	-0.507
-522.975	343.937	0.279	0.552
-521.960	-162.559	-0.623	0.031
-520.945	-200.000	0.028	-0.781
-519.931	15.769	0.152	-0.121
-518.916	800.000	-0.113	0.472
-517.902	-200.000	-0.075	-0.549
-516.887	139.480	0.247	0.328
-515.872	-109.825	0.104	-0.022
-514.858	-200.000	-0.043	-0.665
-513.843	636.773	0.301	-0.770
-512.829	118.855	0.329	0.410
-511.814	-60.336	-0.714	-0.306
-510.799	-19.814	0.393	-0.245
-509.785	-200.000	-0.068	-0.778
-508.770	-188.265	-0.411	0.005
-507.756	-200.000	0.093	0.536
-506.741	-138.613	-0.539	0.060
-505.726	5.333	-0.407	-0.302
-504.712	-102.931	-0.591	0.141
-503.697	-200.000	-0.001	0.235
-502.683	14.319	0.167	-0.131
-501.668	150.044	0.216	0.295
-500.653	-200.000	0.077	-0.569
-499.639	800.000	-0.081	0.340
-498.624	-28.884	-0.419	0.243
-497.610	23.367	-0.702	-0.581
-496.595	800.000	0.256	-0.902
-495.581	-0.954	-0.859	0.612
-494.566	800.000	0.268	-1.122
-493.551	-40.950	0.680	-0.354
-492.537	-188.171	-0.887	-0.011
-491.522	-200.000	0.025	0.782
-490.508	-200.000	0.002	-0.415
-489.493	-163.821	0.798	-0.038
-488.478	-12.946	0.341	0.223
-487.464	-89.154	-0.786	-0.234
-486.449	423.053	0.211	0.457
-485.435	-97.940	0.239	0.062
-484.420	-71.880	-0.304	0.114
-483.405	7.774	0.683	0.515
-482.391	296.307	-0.128	0.235
-481.376	90.793	-0.062	0.070
-480.362	188.805	-0.137	-0.206
-479.347	37.900	0.320	0.286
-478.332	-200.000	-0.092	0.565
-477.318	184.654	0.344	-0.513
-476.303	-131.831	-0.396	-0.052
-475.289	-200.000	0.040	0.408
-474.274	-74.185	-0.641	0.233
-473.259	55.830	0.576	-0.562
-472.245	-40.562	0.688	0.359
-471.230	800.000	-0.108	0.472
-470.216	-117.755	0.900	-0.163
-469.201	-114.012	-0.652	-0.127
-468.186	14.230	-0.030	-0.023
-467.172	-86.457	-0.539	-0.167
-466.157	-19.085	-0.220	-0.138
-465.143	800.000	-0.178	0.597
-464.128	-49.556	0.789	-0.378
-463.113	783.521	0.070	-0.192
-462.099	-200.000	-0.038	-0.617
-461.084	-55.835	-0.310	0.139
-460.070	-38.056	-0.083	-0.044
-459.055	161.299	-0.258	-0.363
-458.040	-75.056	-0.905	-0.326
-457.026	114.047	-0.481	-0.589
-456.011	-144.927	0.904	-0.083
-454.997	-35.364	-0.340	-0.186
-453.982	62.923	-0.277	0.278
-452.968	390.586	-0.028	-0.058
-451.953	776.839	0.170	-0.467
-450.938	147.847	-0.682	-0.924
-449.924	-200.000	-0.177	-0.792
-448.909	76.917	-0.457	-0.488
-447.895	299.335	-0.409	-0.756
-446.880	102.342	0.229	0.269
-445.865	-200.000	0.084	0.721
-444.851	-159.382	0.984	-0.055
-443.836	117.489	-0.563	0.696
-442.822	-200.000	0.021	-0.177
-441.807	337.110	-0.318	-0.621
-440.792	800.000	-0.098	-0.376
-439.778	402.333	-0.219	0.462
-438.763	-126.668	0.806	-0.120
-437.749	-79.570	0.853	-0.289
-436.734	-95.981	-0.409	-0.109
-435.719	-92.864	-0.323	0.091
-434.705	78.566	0.240	-0.258
-433.690	-93.503	0.509	-0.141
-432.676	-200.000	0.053	0.410
-431.661	-12.480	0.061	0.040
-430.646	-72.312	-0.167	0.062
-429.632	-156.027	0.674	-0.043
-428.617	-108.763	-0.413	-0.089
-427.603	485.710	0.546	-1.249
-426.588	552.562	0.206	-0.497
-425.573	-138.190	-0.713	-0.079
-424.559	119.785	-0.324	-0.403
-423.544	800.000	0.132	0.432
-422.530	-72.653	-0.188	0.070
-421.515	397.790	-0.304	-0.638
-420.500	-200.000	-0.001	0.360
-419.486	102.844	0.622	0.732
-418.471	156.681	-0.573	-0.795
-417.457	800.000	-0.159	-0.461
-416.442	-102.717	0.914	-0.219
-415.428	445.672	-0.242	-0.535
-414.413	128.573	0.213	0.272
-413.398	-99.196	0.721	-0.183
-412.384	-136.893	-0.382	-0.044
-411.369	-200.000	-0.096	0.421
-410.355	236.118	0.282	0.468
-409.340	-136.578	-0.559	0.065
-408.325	437.590	0.349	0.764
-407.311	29.149	-0.417	0.355
-406.296	-55.605	-0.852	0.383
-405.282	434.579	-0.404	0.881
-404.267	-30.691	-0.574	0.326
-403.252	-112.609	-0.256	-0.051
-402.238	-200.000	0.035	0.203
-401.223	800.000	-0.096	-0.383
-400.209	61.429	0.224	0.224
-399.194	800.000	-0.193	-0.840
-398.179	8.454	-0.483	-0.364
-397.165	697.193	0.191	-0.504
-396.150	280.349	0.196	0.351
-395.136	31.500	-0.452	-0.389
-394.121	-200.000	-0.024	-0.432
-393.106	-78.982	0.499	-0.170
-392.092	-97.980	0.439	-0.114
-391.077	-152.172	0.235	-0.017
-390.063	800.000	0.051	0.209
-389.048	-28.338	0.277	0.160
-388.033	570.207	-0.478	1.167
-387.019	72.537	-0.820	-0.858
-386.004	-141.600	0.908	0.092
-384.990	125.032	-0.412	-0.520
-383.975	3.766	0.495	0.362
-382.960	10.675	-0.396	-0.302
-381.946	34.650	-0.507	-0.444
-380.931	-79.872	0.367	0.124
-379.917	-62.912	0.203	-0.084
-378.902	-200.000	0.001	0.077
-377.888	39.373	-0.109	0.098
-376.873	83.393	0.357	-0.389
-375.858	-5.633	-0.269	-0.184
-374.844	780.771	0.239	0.655
-373.829	800.000	0.356	1.258
-372.815	17.217	-0.356	0.283
-371.800	85.942	0.386	0.425
-370.785	800.000	-0.194	0.557
-369.771	-62.615	-0.056	0.023
-368.756	124.418	0.014	0.017
-367.742	25.041	0.757	-0.630
-366.727	48.256	-0.174	-0.163
-365.712	9.506	-0.453	-0.344
-364.698	-62.185	-0.533	0.223
-363.683	-95.698	-0.494	0.132
-362.669	-68.561	0.645	-0.250
-361.654	4.710	-0.193	0.142
-360.639	34.767	-0.193	0.169
-359.625	84.998	-0.080	-0.088
-358.610	-81.948	-0.796	-0.261
-357.596	-105.725	0.272	0.062
-356.581	380.486	0.377	0.775
-355.566	31.657	-0.361	-0.311
-354.552	560.244	0.248	0.600
-353.537	123.232	0.287	0.360
-352.523	-200.000	0.042	-0.375
-351.508	187.253	0.027	0.040
-350.493	-120.718	0.349	-0.059
-349.479	-91.791	-0.153	-0.043
-348.464	111.845	0.067	0.081
-347.450	-120.585	-0.225	-0.038
-346.435	-132.663	-0.240	-0.031
-345.420	137.702	0.674	0.884
-344.406	-29.648	0.427	0.244
-343.391	-118.874	0.448	-0.079
-342.377	-157.648	0.352	0.021
-341.362	-55.047	0.230	0.104
-340.348	-143.653	0.364	0.035
-339.333	-51.010	0.622	-0.292
-338.318	14.179	0.204	0.159
-337.304	39.149	0.788	0.706
-336.289	-135.262	0.217	0.026
-335.275	-7.394	0.326	-0.221
-334.260	-110.097	-0.461	-0.096
-333.245	233.670	0.275	-0.453
-332.231	2.027	-0.054	0.039
-331.216	32.939	0.674	0.584
-330.202	-38.369	-0.129	-0.068
-329.187	-200.000	-0.018	-0.328
-328.172	-32.433	-0.288	-0.161
-327.158	-148.053	0.532	0.044
-326.143	-83.567	0.498	0.159
-325.129	-89.391	0.441	0.130
-324.114	800.000	-0.114	0.423
-323.099	-158.828	-0.743	-0.042
-322.085	-200.000	-0.572	0.000
-321.070	50.065	0.072	0.068
-320.056	285.514	-0.475	0.856
-319.041	-200.000	-0.031	0.171
-318.026	-105.106	-0.473	-0.108
-317.012	92.906	0.481	0.544
-315.997	-95.985	-0.313	0.083
-314.983	-200.000	-0.089	0.477
-313.968	30.472	-0.289	0.247
-312.953	72.144	-0.202	-0.210
-311.939	-87.108	0.656	0.200
-310.924	172.847	-0.231	0.332
-309.910	-80.768	0.721	0.240
-308.895	91.139	-0.324	0.364
-307.880	-200.000	-0.056	0.561
-306.866	-200.000	-0.159	0.760
-305.851	471.005	-0.234	-0.525
-304.837	-15.530	-0.213	-0.136
-303.822	-82.494	0.389	-0.126
-302.807	38.176	0.051	0.045
-301.793	-10.762	0.080	0.053
-300.778	800.000	-0.026	0.097
-299.764	-200.000	0.060	-0.580
-298.749	-20.556	-0.295	-0.181
-297.735	-60.507	-0.348	-0.148
-296.720	-57.213	0.503	-0.221
-295.705	455.715	0.180	0.399
-294.691	-53.119	0.332	0.152
-293.676	-48.210	-0.358	-0.173
-292.662	-200.000	-0.117	0.718
-291.647	-18.996	1.200	0.746
-290.632	122.397	-0.630	0.786
-289.618	-31.552	-0.486	-0.273
-288.603	-81.464	-0.161	-0.053
-287.589	650.487	-0.047	0.120
-286.574	18.246	0.196	-0.157
-285.559	127.974	-0.130	0.165
-284.545	-200.000	0.024	0.576
-283.530	483.901	0.194	0.442
-282.516	-186.195	-0.781	-0.011
-281.501	-11.878	-0.140	-0.092
-280.486	-74.772	0.433	-0.155
-279.472	40.214	0.286	-0.257
-278.457	-200.000	0.023	0.321
-277.443	-132.693	-0.263	-0.034
-276.428	-25.876	-0.617	0.363
-275.413	800.000	-0.133	-0.526
-274.399	-200.000	-0.015	-0.424
-273.384	-200.000	0.065	1.504
-272.370	377.006	0.401	0.818
-271.355	-200.000	0.093	-0.665
-270.340	236.120	-0.513	0.846
-269.326	-49.059	-0.152	-0.072
-268.311	583.995	-0.256	-0.628
-267.297	-90.407	-0.399	0.115
-266.282	7.307	0.176	-0.131
-265.267	339.269	-0.196	0.381
-264.253	-26.919	0.369	0.215
-263.238	703.270	0.051	0.135
-262.224	114.512	-0.544	0.661
-261.209	-30.608	-0.663	0.375
-260.195	-180.504	-0.724	-0.015
-259.180	235.438	-0.284	-0.468
-258.165	-6.629	-0.366	0.249
-257.151	313.873	0.206	0.387
-256.136	131.967	-0.389	0.500
-255.122	-33.824	0.515	-0.283
-254.107	-200.000	-0.009	-0.745
-253.092	447.580	0.223	0.490
-252.078	81.710	-0.235	-0.253
-251.063	-151.062	0.899	0.067
-250.049	228.412	-0.420	0.683
-249.034	-200.000	-0.003	0.535
-248.019	-86.529	-0.398	0.122
-247.005	-95.947	0.301	-0.080
-245.990	-141.413	-0.552	0.056
-244.976	-119.200	0.935	-0.163
-243.961	-134.276	-0.528	0.065
-242.946	-159.068	-0.158	0.009
-241.932	-200.000	-0.074	-0.875
-240.917	-200.000	-0.122	0.606
-239.903	0.837	-0.151	0.108
-238.888	-22.847	0.302	-0.181
-237.873	-82.028	-0.129	-0.042
-236.859	-34.460	-0.812	-0.444
-235.844	141.462	-0.563	-0.743
-234.830	373.724	0.049	0.098
-233.815	-4.142	0.417	0.288
-232.800	-200.000	0.007	-0.561
-231.786	7.467	-0.547	0.408
-230.771	-35.427	-0.762	-0.413
-229.757	-34.801	0.858	-0.467
-228.742	-200.000	0.020	-0.195
-227.727	-148.624	-0.401	0.033
-226.713	-102.152	-0.100	0.024
-225.698	670.685	-0.125	0.322
-224.684	-112.741	-0.356	0.070
-223.669	663.367	0.067	0.173
-222.655	-153.170	-0.655	-0.046
-221.640	13.183	0.276	-0.213
-220.625	-105.778	-0.494	0.111
-219.611	-88.639	-0.761	-0.226
-218.596	-118.952	0.783	0.137
-217.582	-79.253	-0.716	-0.242
-216.567	42.304	-0.317	-0.287
-215.552	-149.415	0.614	-0.049
-214.538	49.302	-0.794	0.743
-213.523	-38.691	0.231	-0.121
-212.509	-134.046	0.702	-0.086
-211.494	-125.317	-0.280	0.043
-210.479	-131.301	-0.614	-0.081
-209.465	-51.963	0.963	-0.446
-208.450	183.503	0.210	0.310
-207.436	777.389	0.205	-0.558
-206.421	-24.584	0.440	-0.261
-205.406	-42.277	-0.586	0.298
-204.392	-5.445	0.369	0.252
-203.377	-54.914	0.299	-0.134
-202.363	-200.000	-0.026	0.237
-201.348	-37.547	-0.180	-0.096
-200.333	34.579	0.619	0.538
-199.319	-129.143	0.977	-0.136
-198.304	-95.764	-0.851	-0.226
-197.290	-200.000	0.014	-0.118
-196.275	137.092	0.644	-0.838
-195.260	-200.000	0.041	-0.302
-194.246	-200.000	-0.065	0.308
-193.231	-73.994	-0.347	-0.125
-192.217	438.183	-0.299	0.649
-191.202	-200.000	0.349	-0.001
-190.187	19.995	-0.493	0.395
-189.173	-32.500	-0.153	-0.085
-188.158	-200.000	-0.001	0.334
-187.144	-200.000	-0.037	-1.050
-186.129	383.161	0.156	0.320
-185.114	-79.978	-0.627	0.209
-184.100	800.000	-0.247	-0.755
-183.085	123.666	-0.500	-0.624
-182.071	268.345	-0.164	0.285
-181.056	82.909	0.393	-0.426
-180.042	-124.245	-1.083	-0.169
-179.027	-179.216	0.457	-0.010
-178.012	18.874	0.744	0.592
-176.998	-160.669	0.717	0.038
-175.983	203.655	-0.066	-0.102
-174.969	-104.748	0.778	0.178
-173.954	376.035	0.094	-0.190
-172.939	-200.000	0.014	-0.576
-171.925	307.556	0.175	-0.324
-170.910	-116.236	-0.393	0.073
-169.896	-36.152	0.479	-0.257
-168.881	-128.047	-0.935	-0.133
-167.866	216.457	0.145	0.229
-166.852	-115.876	0.854	0.159
-165.837	800.000	0.339	-1.139
-164.823	800.000	0.317	-0.929
-163.808	-200.000	-0.013	0.106
-162.793	-200.000	-0.032	-0.739
-161.779	-200.000	-0.111	0.585
-160.764	-44.913	-0.443	-0.219
-159.750	552.073	-0.373	-0.889
-158.735	-52.469	-0.335	-0.154
-157.720	-48.162	0.322	0.154
-156.706	-79.821	0.659	0.220
-155.691	800.000	0.188	-0.784
-154.677	-61.874	-0.359	0.149
-153.662	782.235	-0.220	0.598
-152.647	602.066	0.104	0.257
-151.633	61.443	0.097	-0.095
-150.618	-145.358	-0.384	0.034
-149.604	-200.000	-0.010	-0.361
-148.589	800.000	-0.266	-0.773
-147.574	35.556	-0.432	0.377
-146.560	-106.069	0.254	-0.057
-145.545	258.657	0.231	0.395
-144.531	-16.471	0.218	-0.137
-143.516	-69.662	-0.237	0.090
-142.502	426.964	0.194	0.415
-141.487	-50.035	0.271	-0.128
-140.472	-200.000	0.015	-0.574
-139.458	-3.420	-0.650	-0.449
-138.443	551.690	0.185	0.441
-137.429	-26.886	-0.512	0.297
-136.414	144.064	0.446	0.591
-135.399	-149.945	-0.447	0.035
-134.385	-28.313	1.067	-0.612
-133.370	-7.722	-0.551	0.370
-132.356	184.524	0.564	0.830
-131.341	104.004	-0.597	-0.697
-130.326	800.000	-0.220	0.709
-129.312	-95.125	0.117	0.031
-128.297	456.823	0.298	-0.657
-127.283	-30.420	0.581	0.327
-126.268	-200.000	-0.138	-0.843
-125.253	-131.995	-0.536	-0.069
-124.239	-200.000	-0.012	0.630
-123.224	29.371	0.364	-0.307
-122.210	-200.000	0.716	0.004
