DTS Sentinel unit serial number:	SN413079Multiplexer serial number:	ORYXHardware model number:	OX4-SRSoftware version number:	ORYX F/W v4.00 Oryx Data Collector v3.7.2.0data status	okinstallation	princeton_trtdifferential loss correction	single-endedforward channel	channel 4reverse channel	N/Adate	2019/09/12time	18:11:19forward acquisition time	15.00reverse acquisition time	0.00gamma	496.2192k internal	0.2307k external	0.2307temperature offset calibration	1.0128default loss term (dB/km)	0.3790temperature slope calibration	1.0000multiplexer offset coefficient	1.0000multiplexer slope coefficient	1.0000fibre end	0.00T internal ref (°C)	33.62T ext. ref 1 (°C)	2.93T ext. ref 2 (°C)	28.13length (m)	temperature (°C)	Stokes	anti-Stokes-747.200	-52.657	0.612	-0.287
-746.185	800.000	-0.093	-0.334
-745.171	-32.977	-0.300	-0.170
-744.156	188.279	0.291	0.442
-743.142	7.431	-0.409	-0.311
-742.127	-87.283	0.146	0.045
-741.112	249.078	-0.108	0.186
-740.098	-90.294	1.059	0.313
-739.083	174.112	0.070	-0.102
-738.069	246.534	0.044	0.075
-737.054	265.934	0.195	0.346
-736.039	-64.966	-0.492	0.202
-735.025	-31.104	0.223	0.128
-734.010	60.652	-0.604	0.609
-732.996	214.479	-0.146	0.235
-731.981	125.687	0.205	-0.263
-730.966	800.000	0.150	-0.454
-729.952	305.076	-0.197	0.372
-728.937	21.513	0.200	-0.165
-727.923	-200.000	-0.102	-0.541
-726.908	8.282	-0.718	0.548
-725.894	248.174	-0.228	-0.392
-724.879	-41.198	-0.356	0.187
-723.864	-200.000	0.069	-0.367
-722.850	800.000	-0.069	0.227
-721.835	-18.432	-0.131	-0.083
-720.821	-74.498	-0.084	0.031
-719.806	-110.871	-0.765	0.160
-718.791	-36.354	0.220	-0.121
-717.777	649.503	-0.202	-0.525
-716.762	800.000	-0.166	-0.660
-715.748	-190.654	0.545	0.006
-714.733	-103.018	0.253	0.061
-713.718	-200.000	0.019	0.341
-712.704	-23.815	-0.485	0.295
-711.689	-36.329	-0.471	-0.258
-710.675	-162.135	0.487	-0.025
-709.660	609.611	-0.107	0.271
-708.645	149.098	0.210	-0.289
-707.631	46.610	0.144	0.136
-706.616	-83.791	0.097	-0.032
-705.602	-63.195	0.715	0.299
-704.587	-123.374	-0.574	-0.093
-703.572	-200.000	-0.151	-0.862
-702.558	225.940	-0.415	0.683
-701.543	-200.000	0.109	-1.265
-700.529	-200.000	-0.210	-1.120
-699.514	461.351	0.129	-0.293
-698.499	62.761	-0.066	-0.067
-697.485	800.000	-0.193	-0.574
-696.470	-52.713	0.217	-0.101
-695.456	-200.000	0.002	0.574
-694.441	-200.000	-0.118	-0.726
-693.426	26.022	0.588	-0.498
-692.412	31.592	0.757	0.661
-691.397	-200.000	-0.064	0.746
-690.383	474.447	0.046	-0.105
-689.368	800.000	0.297	0.980
-688.354	14.249	-0.546	0.432
-687.339	-200.000	0.024	-0.190
-686.324	-200.000	-0.083	0.549
-685.310	-83.887	-0.623	0.201
-684.295	458.707	-0.444	1.001
-683.281	-200.000	0.120	0.942
-682.266	800.000	-0.131	0.426
-681.251	174.747	0.685	-1.006
-680.237	213.757	0.394	-0.632
-679.222	-55.619	-0.355	-0.161
-678.208	-121.731	0.158	-0.026
-677.193	-75.520	0.515	0.186
-676.178	-177.677	0.364	-0.009
-675.164	-83.236	-0.927	-0.302
-674.149	-103.542	0.656	0.156
-673.135	-44.467	0.599	-0.304
-672.120	-49.763	0.169	-0.081
-671.105	-110.478	0.752	-0.158
-670.091	-36.115	-0.290	0.159
-669.076	-14.663	-0.274	-0.178
-668.062	162.410	-0.401	-0.571
-667.047	-0.030	0.415	0.300
-666.032	129.425	-0.341	-0.442
-665.018	-85.504	0.471	-0.149
-664.003	800.000	0.169	-0.707
-662.989	8.620	-0.400	0.306
-661.974	-73.119	0.503	-0.187
-660.959	-97.895	0.641	0.168
-659.945	-9.492	-0.470	-0.318
-658.930	800.000	0.149	0.468
-657.916	296.305	0.667	1.240
-656.901	619.746	-0.152	-0.388
-655.886	20.552	-0.767	-0.629
-654.872	444.543	0.296	-0.657
-653.857	-200.000	0.043	0.352
-652.843	-21.318	0.140	-0.087
-651.828	-31.683	0.227	-0.129
-650.814	-99.838	-1.014	-0.257
-649.799	-181.440	-0.669	-0.013
-648.784	357.822	-0.611	1.236
-647.770	300.990	0.154	0.288
-646.755	800.000	-0.153	0.607
-645.741	800.000	-0.333	-0.985
-644.726	-200.000	-0.102	-0.532
-643.711	-87.377	-0.456	-0.140
-642.697	-124.193	0.400	0.063
-641.682	800.000	-0.135	0.419
-640.668	-128.302	-0.583	-0.084
-639.653	179.573	0.613	-0.909
-638.638	800.000	-0.085	0.327
-637.624	310.052	-0.291	0.552
-636.609	800.000	-0.114	-0.405
-635.595	-188.687	-0.189	0.002
-634.580	-171.822	-0.293	-0.010
-633.565	-95.513	0.527	0.143
-632.551	-103.600	-0.628	-0.149
-631.536	-140.553	-0.980	-0.103
-630.522	17.611	0.658	-0.530
-629.507	-33.485	-0.230	-0.129
-628.492	-150.236	0.274	-0.021
-627.478	-101.163	0.890	-0.220
-626.463	381.205	-0.127	-0.263
-625.449	-83.206	0.365	0.119
-624.434	-34.927	0.478	-0.264
-623.419	4.361	-0.214	-0.159
-622.405	194.426	0.724	1.112
-621.390	800.000	-0.285	-1.041
-620.376	-134.157	0.682	0.085
-619.361	-52.177	-0.466	-0.219
-618.346	800.000	0.044	0.152
-617.332	-1.596	0.446	0.318
-616.317	-94.366	-0.575	-0.159
-615.303	-7.129	0.525	0.361
-614.288	96.189	-0.218	0.253
-613.273	-79.396	0.279	0.096
-612.259	-200.000	0.184	1.110
-611.244	800.000	-0.103	0.433
-610.230	21.859	0.364	0.300
-609.215	800.000	-0.121	0.528
-608.201	430.678	0.365	-0.800
-607.186	287.916	0.235	-0.429
-606.171	800.000	-0.201	0.622
-605.157	142.879	0.206	0.277
-604.142	49.049	-0.148	0.141
-603.128	178.200	0.365	-0.539
-602.113	-72.950	0.339	-0.126
-601.098	-94.070	0.781	-0.217
-600.084	177.262	-0.182	-0.269
-599.069	540.251	-0.138	-0.333
-598.055	88.823	0.219	0.246
-597.040	314.505	-0.274	0.522
-596.025	-200.000	-0.025	0.761
-595.011	-200.000	0.041	-0.832
-593.996	45.432	-0.338	0.315
-592.982	158.230	-0.405	-0.568
-591.967	624.779	-0.107	-0.273
-590.952	-50.888	0.658	-0.313
-589.938	-102.749	-1.056	-0.254
-588.923	-200.000	-0.108	-0.706
-587.909	315.476	0.305	-0.581
-586.894	33.834	-0.929	0.817
-585.879	444.258	-0.054	0.121
-584.865	-35.216	0.871	-0.479
-583.850	-79.573	0.101	0.035
-582.836	-20.611	-0.262	-0.162
-581.821	-200.000	0.045	-0.465
-580.806	-200.000	0.085	-1.167
-579.792	208.829	-0.381	-0.602
-578.777	-82.590	0.520	0.170
-577.763	541.577	-0.399	-0.960
-576.748	358.441	-0.066	-0.133
-575.733	84.007	0.439	-0.485
-574.719	-94.937	0.507	-0.139
-573.704	364.920	-0.477	0.971
-572.690	800.000	0.205	0.574
-571.675	-72.284	0.493	0.185
-570.661	-64.424	0.168	0.069
-569.646	-25.506	-0.696	0.415
-568.631	231.629	-0.124	0.205
-567.617	175.243	0.147	0.215
-566.602	348.416	-0.259	-0.516
-565.588	-111.275	-0.281	-0.058
-564.573	53.108	-0.652	-0.630
-563.558	44.870	0.635	-0.590
-562.544	800.000	-0.107	-0.328
-561.529	-88.965	-0.171	-0.051
-560.515	169.126	0.258	0.372
-559.500	-18.697	-0.403	-0.253
-558.485	99.707	0.165	0.193
-557.471	8.547	0.529	0.402
-556.456	-200.000	0.052	0.399
-555.442	-200.000	0.088	0.403
-554.427	-200.000	-0.104	0.969
-553.412	-22.761	-0.502	0.306
-552.398	-200.000	-0.117	-0.597
-551.383	43.694	0.121	-0.112
-550.369	-163.564	0.664	0.032
-549.354	-24.072	0.508	0.307
-548.339	3.281	0.750	0.551
-547.325	800.000	0.117	0.491
-546.310	191.542	-0.263	-0.400
-545.296	169.092	-0.539	-0.776
-544.281	217.455	-0.092	-0.148
-543.266	800.000	-0.107	-0.367
-542.252	193.403	0.201	-0.306
-541.237	-177.838	0.258	0.006
-540.223	140.401	-0.293	0.390
-539.208	800.000	0.144	-0.442
-538.193	-151.340	0.446	-0.034
-537.179	14.125	0.225	0.177
-536.164	156.610	-0.133	0.185
-535.150	174.927	0.449	-0.655
-534.135	91.722	0.315	-0.357
-533.121	-71.895	0.360	0.135
-532.106	-146.521	-0.493	-0.043
-531.091	-95.081	0.304	0.083
-530.077	456.272	0.397	0.888
-529.062	-80.284	-1.000	-0.337
-528.048	-72.009	0.254	-0.095
-527.033	163.865	-0.095	-0.135
-526.018	100.328	0.198	0.231
-525.004	-162.077	0.489	-0.025
-523.989	-59.145	-0.533	0.232
-522.975	-200.000	-0.043	-0.891
-521.960	70.724	0.752	-0.785
-520.945	-162.911	-0.397	0.019
-519.931	800.000	-0.101	-0.312
-518.916	-200.000	-0.025	-0.500
-517.902	-116.897	0.433	0.080
-516.887	209.277	0.320	-0.506
-515.872	137.741	-0.649	-0.857
-514.858	-200.000	0.093	0.500
-513.843	36.022	0.663	-0.588
-512.829	-164.533	-0.311	0.014
-511.814	31.779	-0.643	0.558
-510.799	373.404	0.432	0.886
-509.785	102.159	-0.651	-0.766
-508.770	-15.941	-0.761	0.488
-507.756	800.000	-0.135	0.524
-506.741	-66.190	0.252	0.101
-505.726	800.000	-0.243	0.875
-504.712	304.876	0.229	0.429
-503.697	4.807	-0.483	-0.358
-502.683	-0.829	-0.550	0.392
-501.668	-120.066	0.652	0.112
-500.653	233.654	0.019	0.032
-499.639	609.506	-0.247	-0.621
-498.624	800.000	-0.036	-0.149
-497.610	-25.623	0.773	0.459
-496.595	-200.000	0.050	-0.319
-495.581	129.406	-0.328	-0.423
-494.566	259.310	-0.706	1.227
-493.551	72.720	0.332	0.348
-492.537	6.257	-0.319	0.239
-491.522	-169.023	-0.239	0.009
-490.508	-182.777	0.655	-0.012
-489.493	-90.972	-0.664	-0.192
-488.478	325.497	0.224	-0.432
-487.464	32.695	-0.376	-0.327
-486.449	-174.279	0.735	-0.021
-485.435	503.556	-0.285	0.663
-484.420	800.000	-0.112	0.343
-483.405	120.977	0.596	0.747
-482.391	-118.354	-0.660	0.118
-481.376	47.286	-0.350	0.328
-480.362	69.941	0.560	-0.581
-479.347	-29.828	-0.464	0.266
-478.332	800.000	-0.049	0.163
-477.318	421.986	-0.135	-0.292
-476.303	514.247	-0.141	0.331
-475.289	-153.050	0.538	-0.038
-474.274	-110.490	0.225	-0.047
-473.259	-200.000	-0.078	0.743
-472.245	-57.162	-0.902	-0.400
-471.230	213.040	-0.067	0.107
-470.216	-200.000	0.103	0.624
-469.201	800.000	0.236	-0.746
-468.186	31.174	-0.414	0.357
-467.172	219.824	0.092	-0.149
-466.157	316.214	-0.254	-0.482
-465.143	116.656	-0.223	0.275
-464.128	-25.593	0.512	0.304
-463.113	-200.000	-0.022	0.196
-462.099	-96.669	0.400	0.106
-461.084	-200.000	0.055	-0.285
-460.070	27.885	0.236	-0.200
-459.055	-32.876	0.475	0.266
-458.040	720.664	-0.162	-0.433
-457.026	134.302	0.130	0.169
-456.011	-200.000	0.020	0.465
-454.997	98.927	-0.429	-0.498
-453.982	51.309	0.752	-0.718
-452.968	306.740	-0.437	0.819
-451.953	413.464	0.113	0.241
-450.938	-200.000	-0.043	0.237
-449.924	-200.000	0.007	0.253
-448.909	-200.000	0.141	0.662
-447.895	145.437	-0.448	0.602
-446.880	179.160	-0.015	-0.022
-445.865	182.494	-0.221	-0.327
-444.851	-35.133	0.362	0.198
-443.836	265.112	-0.272	0.476
-442.822	-77.659	-0.322	0.112
-441.807	-125.603	0.220	0.034
-440.792	251.352	-0.278	0.475
-439.778	297.719	0.162	0.299
-438.763	106.448	-0.242	0.288
-437.749	-89.532	-0.621	0.183
-436.734	260.198	-0.178	-0.309
-435.719	-200.000	0.124	-0.829
-434.705	74.348	0.499	0.526
-433.690	-200.000	0.009	0.472
-432.676	372.844	-0.201	0.410
-431.661	-64.151	-0.865	0.354
-430.646	-22.619	-0.017	0.010
-429.632	-200.000	-0.091	-0.676
-428.617	223.843	0.103	0.168
-427.603	800.000	-0.207	-0.885
-426.588	-200.000	0.072	-0.870
-425.573	-200.000	0.106	-0.490
-424.559	-200.000	0.202	1.027
-423.544	-100.727	-0.551	-0.136
-422.530	38.857	-0.680	0.610
-421.515	237.354	0.282	-0.470
-420.500	-24.052	0.261	0.157
-419.486	444.931	-0.115	-0.254
-418.471	-71.460	-0.202	0.076
-417.457	-11.227	0.864	0.572
-416.442	-200.000	0.023	0.322
-415.428	800.000	-0.158	-0.525
-414.413	4.326	-0.263	0.193
-413.398	17.290	0.552	0.440
-412.384	35.766	-0.844	0.745
-411.369	128.809	0.051	0.065
-410.355	346.489	-0.306	0.603
-409.340	-98.627	0.650	-0.166
-408.325	211.729	0.374	-0.590
-407.311	-200.000	0.068	-0.679
-406.296	87.208	0.124	0.138
-405.282	249.626	0.471	-0.801
-404.267	-63.463	-0.678	-0.279
-403.252	-79.633	0.340	0.115
-402.238	-99.136	0.884	0.224
-401.223	94.734	-0.232	0.265
-400.209	501.841	-0.112	-0.258
-399.194	800.000	-0.145	-0.423
-398.179	-200.000	-0.143	0.711
-397.165	-64.178	0.170	0.070
-396.150	-149.761	-0.658	0.052
-395.136	800.000	-0.143	0.590
-394.121	520.747	-0.408	-0.959
-393.106	-109.567	-0.142	-0.030
-392.092	302.144	-0.148	-0.274
-391.077	569.180	0.195	0.476
-390.063	800.000	0.162	0.482
-389.048	653.155	0.224	-0.576
-388.033	-54.238	-0.350	-0.159
-387.019	-200.000	0.029	-0.227
-386.004	-73.056	-0.203	-0.075
-384.990	-200.000	0.002	0.265
-383.975	-119.426	-1.109	0.193
-382.960	-56.601	0.467	-0.207
-381.946	-164.358	0.410	-0.019
-380.931	363.583	-0.072	0.145
-379.917	190.386	0.318	0.478
-378.902	760.308	0.168	-0.456
-377.888	-200.000	-0.074	-0.876
-376.873	-11.062	1.115	0.738
-375.858	-189.862	0.846	-0.010
-374.844	800.000	-0.127	0.512
-373.829	-56.500	0.645	0.287
-372.815	274.599	-0.427	-0.758
-371.800	-96.417	0.211	-0.056
-370.785	394.404	-0.025	-0.053
-369.771	-127.873	-0.489	-0.071
-368.756	-17.616	0.426	-0.268
-367.742	178.827	-0.245	0.359
-366.727	-84.441	0.637	-0.202
-365.712	73.357	-0.352	-0.369
-364.698	453.355	0.250	0.555
-363.683	-82.412	-0.311	-0.101
-362.669	85.165	0.261	0.287
-361.654	-65.599	0.511	0.205
-360.639	277.588	-0.132	0.235
-359.625	-132.162	-0.246	0.032
-358.610	800.000	-0.153	-0.440
-357.596	-59.990	0.587	-0.251
-356.581	-36.033	-0.448	0.242
-355.566	-149.305	-1.131	-0.090
-354.552	-200.000	0.003	0.414
-353.537	-138.137	0.411	-0.046
-352.523	33.158	-0.803	-0.698
-351.508	-57.561	-0.804	-0.353
-350.493	-200.000	0.076	0.412
-349.479	-107.446	0.950	-0.209
-348.464	800.000	-0.281	0.871
-347.450	16.842	-0.126	0.100
-346.435	-36.204	-0.685	0.370
-345.420	800.000	0.328	1.030
-344.406	-42.413	0.715	-0.365
-343.391	56.109	-0.552	-0.536
-342.377	126.792	0.389	0.493
-341.362	177.201	-0.188	-0.273
-340.348	-200.000	-0.059	0.386
-339.333	32.211	0.427	0.369
-338.318	43.154	0.090	-0.082
-337.304	-200.000	0.018	-0.152
-336.289	-68.400	0.442	-0.172
-335.275	800.000	0.099	-0.297
-334.260	44.545	-0.378	0.348
-333.245	-83.955	-0.221	0.070
-332.231	-20.684	-0.367	0.225
-331.216	163.871	0.394	0.555
-330.202	-169.589	0.479	0.017
-329.187	800.000	-0.280	-0.851
-328.172	46.973	0.262	-0.243
-327.158	-52.608	0.285	-0.132
-326.143	-60.258	0.748	0.319
-325.129	225.682	0.245	-0.397
-324.114	146.549	0.124	0.167
-323.099	-60.044	0.492	-0.210
-322.085	-66.345	0.551	0.219
-321.070	-54.834	-0.142	0.064
-320.056	-21.367	-0.550	-0.336
-319.041	297.419	-0.356	-0.653
-318.026	416.050	-0.032	-0.069
-317.012	-96.402	0.557	0.147
-315.997	7.909	-0.370	0.277
-314.983	263.723	-0.265	0.461
-313.968	-200.000	-0.036	0.216
-312.953	-200.000	0.056	0.600
-311.939	-200.000	0.080	0.667
-310.924	-81.028	0.602	-0.199
-309.910	-6.545	0.813	-0.554
-308.895	-200.000	-0.075	-0.561
-307.880	-200.000	0.056	0.403
-306.866	25.774	0.428	0.356
-305.851	-200.000	0.030	0.903
-304.837	151.185	0.358	-0.487
-303.822	572.525	0.119	-0.289
-302.807	-200.000	0.001	0.259
-301.793	-110.236	0.491	0.102
-300.778	73.921	-0.311	0.326
-299.764	-99.216	0.467	-0.118
-298.749	315.102	-0.401	-0.755
-297.735	-134.496	-0.331	-0.040
-296.720	52.597	-0.166	0.159
-295.705	-135.286	-0.165	0.020
-294.691	736.572	0.123	-0.329
-293.676	800.000	-0.271	-0.990
-292.662	-62.782	-0.542	0.224
-291.647	125.358	-0.151	0.190
-290.632	800.000	-0.198	-0.786
-289.618	-128.286	-0.266	-0.038
-288.603	111.183	-0.378	0.455
-287.589	-58.952	0.216	0.093
-286.574	-200.000	0.009	-0.400
-285.559	104.897	-0.524	0.617
-284.545	63.079	-0.758	-0.758
-283.530	800.000	-0.156	-0.541
-282.516	349.318	-0.245	0.482
-281.501	-200.000	0.043	0.212
-280.486	-21.733	0.739	0.450
-279.472	175.893	-0.557	-0.808
-278.457	-160.380	-0.467	0.025
-277.443	12.062	0.370	-0.284
-276.428	-200.000	0.088	-0.629
-275.413	57.002	-0.634	-0.617
-274.399	-57.005	-0.396	0.174
-273.384	24.616	0.122	0.100
-272.370	46.804	0.086	0.080
-271.355	-23.132	0.678	-0.408
-270.340	-54.211	0.148	-0.067
-269.326	188.659	0.099	0.148
-268.311	-58.818	1.519	0.656
-267.297	-58.068	-0.286	-0.124
-266.282	-200.000	0.029	0.823
-265.267	-74.345	0.391	-0.141
-264.253	12.705	-0.415	-0.319
-263.238	24.832	-0.586	-0.485
-262.224	172.453	-0.327	-0.470
-261.209	318.749	-0.261	0.494
-260.195	431.492	-0.126	-0.273
-259.180	44.360	0.606	-0.555
-258.165	-106.270	0.559	0.125
-257.151	106.396	-0.711	-0.841
-256.136	296.734	-0.140	0.257
-255.122	-200.000	0.085	-0.748
-254.107	-22.181	0.690	0.418
-253.092	-102.153	0.876	0.210
-252.078	-52.602	-0.119	0.055
-251.063	109.827	-0.316	0.378
-250.049	62.961	-0.378	-0.378
-249.034	288.483	0.107	0.193
-248.019	800.000	-0.079	0.321
-247.005	-200.000	0.140	0.624
-245.990	158.398	-0.362	0.501
-244.976	285.900	-0.295	0.531
-243.961	-200.000	-0.058	-0.617
-242.946	30.110	0.051	-0.043
-241.932	-36.223	0.605	-0.326
-240.917	-200.000	-0.083	1.104
-239.903	146.206	0.307	0.410
-238.888	-103.674	-0.409	0.096
-237.873	486.774	0.195	0.445
-236.859	15.219	0.538	0.420
-235.844	-81.584	-0.202	-0.066
-234.830	-190.000	-1.195	-0.013
-233.815	228.848	0.281	0.456
-232.800	-125.083	-0.105	-0.016
-231.786	-200.000	0.037	-0.180
-230.771	-200.000	0.006	-0.056
-229.757	800.000	-0.197	0.703
-228.742	1.418	-0.584	-0.418
-227.727	-200.000	0.003	0.109
-226.713	-200.000	0.297	-1.563
-225.698	-200.000	0.008	0.164
-224.684	77.640	-0.216	0.229
-223.669	268.792	0.268	0.469
-222.655	-200.000	-0.047	-0.258
-221.640	237.681	-0.158	-0.261
-220.625	800.000	0.195	-0.722
-219.611	77.892	0.423	0.449
-218.596	466.220	-0.142	-0.317
-217.582	-25.166	0.329	-0.194
-216.567	290.118	0.380	0.687
-215.552	-45.403	0.157	-0.077
-214.538	56.810	-0.644	-0.625
-213.523	-200.000	-0.039	-0.387
-212.509	-9.427	-0.489	0.325
-211.494	36.875	0.261	-0.229
-210.479	360.814	-0.382	-0.761
-209.465	-54.317	-0.584	0.264
-208.450	-70.848	0.345	0.129
-207.436	-200.000	-0.040	-0.357
-206.421	-122.125	0.424	-0.069
-205.406	68.597	-0.751	-0.767
-204.392	-61.999	0.228	0.095
-203.377	655.219	0.363	-0.928
-202.363	-74.773	-0.267	-0.095
-201.348	800.000	-0.130	0.469
-200.333	601.857	0.250	-0.619
-199.319	96.508	-0.021	0.024
-198.304	59.509	-0.308	-0.303
-197.290	237.007	0.303	-0.499
-196.275	-200.000	-0.054	-0.256
-195.260	-200.000	-0.014	0.105
-194.246	-21.623	-0.406	-0.246
-193.231	407.831	-0.410	0.862
-192.217	-91.043	-1.090	-0.312
-191.202	-9.825	-0.408	0.270
-190.187	143.760	0.436	-0.579
-189.173	129.492	0.560	-0.712
-188.158	447.789	0.053	0.116
-187.144	-70.839	-0.413	0.155
-186.129	48.455	0.477	0.445
-185.114	-200.000	-0.019	0.525
-184.100	81.436	0.114	-0.123
-183.085	-188.057	-0.158	0.002
-182.071	-200.000	0.099	0.499
-181.056	-200.000	-0.240	-1.128
-180.042	800.000	-0.070	0.275
-179.027	132.771	0.295	-0.379
-178.012	96.148	0.460	0.523
-176.998	167.635	0.152	-0.215
-175.983	458.050	-0.249	-0.550
-174.969	-170.635	0.745	-0.026
-173.954	-200.000	0.027	0.357
-172.939	-38.871	0.460	-0.241
-171.925	127.915	0.050	0.063
-170.910	-200.000	-0.030	0.710
-169.896	4.745	-0.725	-0.530
-168.881	17.624	-0.371	0.294
-167.866	-200.000	-0.095	0.522
-166.852	-75.326	0.642	0.228
-165.837	-200.000	-0.007	-0.275
-164.823	92.256	0.140	-0.157
-163.808	253.055	0.123	-0.208
-162.793	244.198	0.098	-0.163
-161.779	800.000	0.109	-0.381
-160.764	-200.000	-0.051	0.769
-159.750	-95.851	0.563	-0.149
-158.735	80.893	-0.387	0.415
-157.720	-42.758	-0.174	-0.088
-156.706	10.428	0.248	-0.188
-155.691	-200.000	-0.125	0.759
-154.677	-200.000	-0.112	-0.597
-153.662	-200.000	-0.101	1.079
-152.647	91.929	-0.196	-0.219
-151.633	-200.000	-0.038	0.177
-150.618	682.628	0.121	-0.314
-149.604	-200.000	-0.048	-0.438
-148.589	465.042	0.218	0.486
-147.574	-95.116	-0.338	0.091
-146.560	800.000	-0.051	-0.171
-145.545	-134.634	0.393	-0.048
-144.531	414.843	-0.201	0.424
-143.516	800.000	0.138	0.476
-142.502	-200.000	-0.005	0.500
-141.487	144.809	-0.288	0.383
-140.472	-27.246	0.354	0.205
-139.458	-83.725	0.821	-0.260
-138.443	-69.081	-0.280	0.107
-137.429	-200.000	-0.016	-0.108
-136.414	72.997	-1.423	1.477
-135.399	-6.424	-0.533	0.361
-134.385	106.883	0.196	-0.231
-133.370	800.000	0.046	-0.154
-132.356	-200.000	0.010	-0.378
-131.341	-101.343	0.756	-0.183
-130.326	736.265	0.168	0.448
-129.312	-32.074	-0.172	0.095
-128.297	70.478	-0.480	0.493
-127.283	-200.000	0.008	-0.173
-126.268	-200.000	-0.136	-0.832
-125.253	-49.379	0.575	-0.272
-124.239	243.089	-0.423	-0.703
-123.224	170.513	-0.330	-0.468
-122.210	735.632	-0.250	-0.664
-121.195	-41.752	0.390	0.198
