DTS Sentinel unit serial number:	SN413079Multiplexer serial number:	ORYXHardware model number:	OX4-SRSoftware version number:	ORYX F/W v4.00 Oryx Data Collector v3.7.2.0data status	okinstallation	princeton_trtdifferential loss correction	single-endedforward channel	channel 4reverse channel	N/Adate	2019/09/11time	16:39:10forward acquisition time	60.00reverse acquisition time	0.00gamma	496.2192k internal	0.2275k external	0.2275temperature offset calibration	1.0024default loss term (dB/km)	0.3790temperature slope calibration	1.0000multiplexer offset coefficient	1.0000multiplexer slope coefficient	1.0000fibre end	0.00T internal ref (°C)	43.81T ext. ref 1 (°C)	1.11T ext. ref 2 (°C)	39.51length (m)	temperature (°C)	Stokes	anti-Stokes-747.200	-46.863	-0.287	-0.145
-746.185	-25.462	0.126	0.077
-745.171	162.243	-0.211	-0.305
-744.156	-85.528	-0.261	-0.084
-743.142	160.400	0.169	0.243
-742.127	-124.305	-0.158	0.025
-741.112	-65.482	-0.360	-0.149
-740.098	-69.651	-0.171	0.068
-739.083	574.217	0.042	0.105
-738.069	267.754	-0.247	0.446
-737.054	117.932	-0.167	0.212
-736.039	100.101	-0.204	0.244
-735.025	-200.000	0.047	0.260
-734.010	-93.346	-0.300	0.086
-732.996	34.175	-0.188	0.169
-731.981	-200.000	0.038	-0.294
-730.966	-200.000	0.042	0.242
-729.952	308.884	-0.160	0.309
-728.937	-200.000	0.004	-0.066
-727.923	-81.848	-0.269	-0.091
-726.908	59.521	0.387	-0.394
-725.894	188.522	-0.139	-0.214
-724.879	-18.297	-0.063	0.041
-723.864	36.832	-0.019	-0.018
-722.850	88.043	0.114	-0.131
-721.835	617.750	-0.100	-0.259
-720.821	-200.000	0.012	0.154
-719.806	-67.640	0.082	-0.033
-718.791	800.000	-0.080	0.233
-717.777	-162.267	-0.176	-0.009
-716.762	238.745	-0.183	-0.313
-715.748	-114.609	-0.173	0.034
-714.733	71.505	-0.193	-0.207
-713.718	145.580	-0.155	0.214
-712.704	800.000	-0.040	-0.168
-711.689	800.000	0.020	0.086
-710.675	-101.932	-0.153	-0.038
-709.660	-27.955	0.084	-0.050
-708.645	-61.282	0.196	0.085
-707.631	800.000	0.064	-0.280
-706.616	22.105	-0.107	0.090
-705.602	-200.000	-0.008	-0.058
-704.587	-119.965	-0.102	-0.018
-703.572	-130.623	0.189	-0.026
-702.558	-200.000	0.014	-0.076
-701.543	-200.000	-0.114	0.517
-700.529	-72.380	-0.130	0.050
-699.514	-200.000	0.041	0.234
-698.499	-52.462	-0.169	0.080
-697.485	800.000	-0.077	0.259
-696.470	-30.160	-0.168	0.099
-695.456	-8.076	0.443	0.307
-694.441	-200.000	0.016	-0.131
-693.426	46.418	-0.061	-0.058
-692.412	73.329	-0.104	0.112
-691.397	800.000	-0.088	0.257
-690.383	56.256	-0.159	0.159
-689.368	93.649	0.112	0.131
-688.354	-200.000	0.018	-0.096
-687.339	-47.759	-0.159	-0.079
-686.324	8.492	0.152	-0.118
-685.310	103.885	-0.055	0.066
-684.295	-92.461	-0.055	0.016
-683.281	-170.029	-0.218	0.008
-682.266	-200.000	0.009	-0.080
-681.251	-200.000	-0.034	-0.179
-680.237	-41.232	0.189	0.100
-679.222	-200.000	0.037	-0.257
-678.208	-200.000	-0.039	0.236
-677.193	-131.508	0.288	0.039
-676.178	-200.000	0.011	0.274
-675.164	119.943	-0.189	-0.241
-674.149	800.000	0.084	-0.314
-673.135	-6.561	0.164	-0.115
-672.120	-200.000	0.061	-0.344
-671.105	800.000	-0.089	0.255
-670.091	-109.965	0.207	-0.045
-669.076	-41.298	0.146	-0.077
-668.062	800.000	-0.034	-0.119
-667.047	470.867	-0.138	-0.319
-666.032	21.984	0.320	0.268
-665.018	-200.000	0.031	-0.278
-664.003	123.137	0.061	0.079
-662.989	85.549	-0.108	-0.122
-661.974	-35.258	0.028	0.015
-660.959	800.000	-0.102	-0.327
-659.945	-38.557	-0.094	0.051
-658.930	68.633	0.186	0.197
-657.916	-200.000	-0.028	0.258
-656.901	-180.618	0.268	-0.006
-655.886	323.355	-0.039	0.076
-654.872	113.382	0.137	-0.171
-653.857	800.000	-0.022	-0.081
-652.843	96.190	0.123	-0.144
-651.828	-36.012	-0.142	0.079
-650.814	260.395	0.047	0.084
-649.799	-39.321	-0.130	-0.070
-648.784	-81.890	-0.264	-0.089
-647.770	800.000	0.031	0.102
-646.755	-200.000	0.028	-0.150
-645.741	117.734	-0.177	0.223
-644.726	-200.000	-0.053	-0.436
-643.711	364.713	-0.135	-0.279
-642.697	96.321	0.113	-0.132
-641.682	342.048	-0.157	-0.316
-640.668	304.749	0.105	0.200
-639.653	-200.000	0.054	-0.298
-638.638	0.227	0.080	-0.059
-637.624	-69.196	-0.158	0.062
-636.609	70.706	-0.026	0.028
-635.595	387.830	0.027	0.057
-634.580	-56.122	-0.331	0.152
-633.565	-173.662	0.217	0.007
-632.551	253.055	-0.067	0.118
-631.536	-94.313	-0.154	-0.043
-630.522	36.030	-0.093	-0.084
-629.507	639.088	0.052	0.137
-628.492	77.245	0.121	0.132
-627.478	-128.620	-0.095	0.014
-626.463	53.099	-0.187	-0.184
-625.449	-134.293	0.179	-0.023
-624.434	26.106	-0.291	-0.250
-623.419	-105.442	0.231	-0.054
-622.405	-32.937	0.174	-0.099
-621.390	-200.000	-0.036	-0.249
-620.376	-200.000	-0.065	-0.304
-619.361	117.592	0.097	-0.123
-618.346	-47.728	-0.298	-0.148
-617.332	-32.357	-0.077	-0.044
-616.317	-200.000	-0.062	-0.309
-615.303	203.722	0.105	-0.167
-614.288	-162.465	-0.446	0.023
-613.273	-40.429	0.164	-0.087
-612.259	-66.422	0.285	-0.116
-611.244	-125.416	0.201	0.031
-610.230	196.473	-0.111	-0.173
-609.215	-189.209	-0.317	-0.004
-608.201	-64.508	0.053	-0.022
-607.186	11.602	-0.179	-0.141
-606.171	-111.825	0.244	0.051
-605.157	800.000	-0.020	-0.078
-604.142	-50.848	0.142	-0.068
-603.128	-39.273	-0.044	0.024
-602.113	-9.991	-0.097	-0.066
-601.098	287.848	0.146	0.272
-600.084	-94.860	-0.172	-0.048
-599.069	-41.727	0.082	-0.043
-598.055	-59.060	-0.346	-0.153
-597.040	-153.321	0.166	0.012
-596.025	86.871	-0.080	0.090
-595.011	27.628	0.383	-0.330
-593.996	-200.000	0.230	0.000
-592.982	59.055	0.036	0.037
-591.967	-36.240	0.231	0.128
-590.952	-87.727	-0.266	0.082
-589.938	26.458	0.219	0.188
-588.923	-97.326	0.192	0.051
-587.909	87.768	0.185	-0.211
-586.894	800.000	-0.068	-0.295
-585.879	-175.559	-0.303	0.008
-584.865	800.000	0.025	0.096
-583.850	431.917	0.135	0.301
-582.836	800.000	-0.083	0.248
-581.821	-168.894	0.231	0.009
-580.806	11.602	0.071	0.056
-579.792	613.339	0.093	-0.238
-578.777	-200.000	0.058	0.268
-577.763	11.275	-0.086	-0.068
-576.748	147.687	0.039	-0.054
-575.733	-117.964	0.264	-0.048
-574.719	800.000	-0.075	0.231
-573.704	135.914	-0.066	0.088
-572.690	-47.614	0.052	0.026
-571.675	-121.402	0.465	0.079
-570.661	44.647	0.254	-0.239
-569.646	34.667	0.111	-0.099
-568.631	200.223	0.160	-0.252
-567.617	401.502	0.085	-0.183
-566.602	-0.757	-0.147	-0.106
-565.588	-123.460	-0.165	-0.027
-564.573	168.268	0.050	-0.073
-563.558	-143.478	-0.085	0.008
-562.544	800.000	0.028	0.086
-561.529	38.881	-0.102	-0.093
-560.515	139.020	0.084	0.112
-559.500	18.548	-0.118	-0.097
-558.485	-55.962	-0.278	0.127
-557.471	800.000	0.130	0.439
-556.456	240.841	0.199	-0.340
-555.442	522.741	-0.064	0.153
-554.427	800.000	-0.102	0.320
-553.412	-105.922	-0.270	-0.062
-552.398	-124.318	-0.038	0.006
-551.383	800.000	0.040	-0.171
-550.369	16.808	-0.037	-0.030
-549.354	198.789	0.125	0.196
-548.339	-146.893	-0.212	0.019
-547.325	-200.000	0.014	0.111
-546.310	-200.000	-0.058	-0.295
-545.296	-135.507	0.258	0.031
-544.281	60.878	0.297	0.301
-543.266	4.354	0.432	0.324
-542.252	800.000	-0.105	0.328
-541.237	-3.718	0.213	0.151
-540.223	24.529	-0.114	0.097
-539.208	-36.922	0.229	0.126
-538.193	-200.000	0.005	-0.031
-537.179	532.588	0.116	-0.281
-536.164	135.327	0.067	-0.089
-535.150	-158.932	0.150	0.009
-534.135	-116.081	-0.142	0.027
-533.121	-102.183	-0.318	0.078
-532.106	800.000	-0.076	0.219
-531.091	117.671	0.225	0.283
-530.077	199.596	-0.123	-0.194
-529.062	-14.869	-0.118	-0.078
-528.048	-191.738	-0.190	0.002
-527.033	-54.016	-0.213	0.099
-526.018	-90.977	0.295	-0.087
-525.004	-55.580	-0.232	-0.106
-523.989	-200.000	-0.024	-0.149
-522.975	688.440	0.076	-0.204
-521.960	-200.000	-0.040	0.219
-520.945	450.293	-0.010	-0.022
-519.931	115.671	0.176	-0.220
-518.916	69.250	0.161	-0.169
-517.902	86.407	0.096	0.108
-516.887	456.002	0.079	0.180
-515.872	36.718	-0.151	-0.137
-514.858	107.526	-0.093	-0.113
-513.843	-48.410	0.171	-0.084
-512.829	81.403	-0.185	0.205
-511.814	349.367	0.093	0.188
-510.799	-54.628	0.205	0.095
-509.785	-98.789	-0.309	-0.080
-508.770	-73.392	0.257	0.096
-507.756	29.689	0.012	-0.011
-506.741	132.486	0.135	0.178
-505.726	326.283	0.162	-0.317
-504.712	-102.489	0.126	-0.031
-503.697	205.478	-0.069	-0.110
-502.683	-41.668	-0.052	-0.027
-501.668	89.253	-0.043	-0.049
-500.653	-143.498	-0.318	0.031
-499.639	155.465	0.123	-0.173
-498.624	-85.023	0.164	-0.053
-497.610	657.852	-0.097	0.254
-496.595	-5.741	-0.068	-0.048
-495.581	-200.000	0.044	-0.423
-494.566	-35.067	-0.171	0.095
-493.551	320.350	-0.094	0.182
-492.537	800.000	-0.042	0.156
-491.522	102.744	0.054	-0.065
-490.508	236.324	-0.049	-0.083
-489.493	-200.000	0.000	-0.413
-488.478	-200.000	-0.013	0.249
-487.464	-200.000	-0.016	-0.350
-486.449	95.198	-0.163	-0.190
-485.435	-58.150	0.068	-0.030
-484.420	434.687	0.057	0.127
-483.405	374.318	0.055	-0.115
-482.391	367.123	0.119	-0.245
-481.376	42.912	-0.322	-0.300
-480.362	37.289	0.124	-0.112
-479.347	-200.000	0.027	0.347
-478.332	800.000	-0.013	0.051
-477.318	26.660	-0.075	0.064
-476.303	-85.647	-0.126	-0.040
-475.289	800.000	0.024	-0.085
-474.274	240.915	0.091	-0.155
-473.259	-114.929	0.169	-0.033
-472.245	77.878	0.140	-0.152
-471.230	-200.000	0.022	0.114
-470.216	-68.489	-0.265	0.105
-469.201	25.130	0.060	-0.051
-468.186	108.075	-0.111	-0.134
-467.172	408.149	0.029	-0.064
-466.157	-65.419	0.241	-0.099
-465.143	-162.125	-0.171	-0.009
-464.128	-105.361	-0.173	0.040
-463.113	-29.883	0.328	-0.191
-462.099	-18.342	0.151	0.096
-461.084	240.103	-0.107	-0.181
-460.070	-99.048	0.312	0.081
-459.055	21.308	-0.180	-0.149
-458.040	800.000	0.008	-0.025
-457.026	181.836	0.123	0.185
-456.011	-108.369	-0.135	0.030
-454.997	-78.916	0.235	0.081
-453.982	-43.379	0.168	-0.086
-452.968	-177.292	-0.100	0.003
-451.953	12.046	0.266	0.209
-450.938	159.872	-0.167	0.237
-449.924	424.744	0.075	-0.165
-448.909	-200.000	0.037	-0.305
-447.895	800.000	0.099	-0.409
-446.880	-68.770	-0.220	-0.087
-445.865	800.000	0.026	0.073
-444.851	800.000	-0.093	0.337
-443.836	-131.026	-0.278	0.038
-442.822	-200.000	0.038	0.254
-441.807	-76.810	-0.382	-0.136
-440.792	43.479	0.067	0.062
-439.778	118.735	-0.146	0.184
-438.763	-174.309	0.161	-0.005
-437.749	134.329	-0.197	0.260
-436.734	-16.768	-0.260	0.168
-435.719	-200.000	-0.006	0.072
-434.705	469.468	0.064	-0.146
-433.690	-200.000	-0.002	-0.215
-432.676	-122.994	-0.270	0.044
-431.661	88.274	-0.185	-0.209
-430.646	-170.265	-0.227	-0.008
-429.632	556.489	0.200	-0.490
-428.617	484.101	-0.123	0.285
-427.603	-24.644	-0.026	-0.016
-426.588	-200.000	-0.001	0.091
-425.573	-118.284	-0.315	-0.057
-424.559	57.102	0.172	-0.170
-423.544	31.453	-0.149	-0.131
-422.530	-78.812	-0.120	-0.042
-421.515	-172.394	0.202	-0.007
-420.500	-200.000	-0.003	0.024
-419.486	-58.056	-0.080	-0.036
-418.471	-56.443	-0.207	0.093
-417.457	98.052	0.150	0.176
-416.442	-56.592	0.106	0.048
-415.428	-20.954	0.377	-0.235
-414.413	-75.869	-0.171	0.062
-413.398	-200.000	-0.087	0.392
-412.384	261.807	-0.031	-0.055
-411.369	206.671	-0.035	0.055
-410.355	-13.112	0.175	0.116
-409.340	-120.090	-0.364	-0.063
-408.325	-37.032	0.394	0.215
-407.311	434.060	0.042	0.094
-406.296	35.863	-0.050	-0.044
-405.282	-103.932	0.306	-0.073
-404.267	-157.303	0.118	0.007
-403.252	28.890	0.213	0.183
-402.238	181.058	-0.206	0.308
-401.223	505.796	-0.080	0.190
-400.209	173.322	-0.149	0.218
-399.194	196.536	0.104	0.161
-398.179	-77.981	-0.365	0.128
-397.165	-132.568	0.336	0.044
-396.150	800.000	0.054	0.196
-395.136	-23.197	0.275	0.168
-394.121	-200.000	-0.008	0.159
-393.106	-101.810	0.066	-0.016
-392.092	5.633	-0.123	-0.092
-391.077	-81.940	-0.175	-0.058
-390.063	-87.656	-0.243	0.075
-389.048	-1.545	-0.099	-0.071
-388.033	302.716	-0.062	-0.117
-387.019	800.000	-0.070	-0.275
-386.004	800.000	0.062	0.261
-384.990	-95.208	-0.303	-0.083
-383.975	703.968	-0.168	0.451
-382.960	-72.178	0.294	-0.111
-381.946	796.801	-0.134	0.377
-380.931	33.920	0.068	0.060
-379.917	548.045	-0.033	-0.079
-378.902	-17.238	0.153	-0.098
-377.888	-147.229	-0.176	-0.015
-376.873	176.917	0.048	-0.070
-375.858	-200.000	0.053	-0.392
-374.844	22.259	-0.293	0.244
-373.829	405.913	0.105	-0.225
-372.815	-181.530	-0.096	0.002
-371.800	39.040	-0.041	0.037
-370.785	-200.000	0.023	0.236
-369.771	-162.730	0.262	-0.013
-368.756	800.000	0.100	-0.313
-367.742	-200.000	-0.023	-0.346
-366.727	-56.521	-0.455	0.205
-365.712	-200.000	-0.007	0.265
-364.698	177.370	-0.063	-0.093
-363.683	100.417	-0.167	-0.198
-362.669	68.467	-0.268	-0.279
-361.654	-71.034	0.197	-0.075
-360.639	-27.641	0.149	-0.088
-359.625	-13.809	-0.247	0.162
-358.610	691.675	-0.024	0.063
-357.596	-90.791	-0.094	-0.028
-356.581	242.581	-0.173	0.294
-355.566	-200.000	0.008	0.141
-354.552	800.000	-0.045	-0.192
-353.537	-119.562	-0.095	0.017
-352.523	-200.000	-0.037	0.322
-351.508	-33.874	0.104	-0.058
-350.493	-54.427	0.527	-0.242
-349.479	-126.355	0.172	0.026
-348.464	462.865	-0.052	-0.119
-347.450	-98.575	-0.293	0.076
-346.435	633.907	0.072	-0.184
-345.420	800.000	-0.030	0.125
-344.406	-94.737	-0.348	0.096
-343.391	3.066	-0.275	-0.203
-342.377	-64.675	0.161	0.066
-341.362	81.154	-0.303	0.332
-340.348	-122.713	-0.151	0.025
-339.333	800.000	-0.037	0.118
-338.318	94.031	-0.089	0.103
-337.304	69.635	-0.161	0.168
-336.289	151.867	-0.058	0.081
-335.275	-200.000	0.047	-0.512
-334.260	-149.410	-0.439	0.035
-333.245	91.020	-0.048	-0.055
-332.231	160.494	0.092	0.130
-331.216	-200.000	-0.058	-0.310
-330.202	235.206	-0.112	-0.188
-329.187	199.625	0.214	0.333
-328.172	72.293	-0.122	0.129
-327.158	-200.000	0.008	0.329
-326.143	-5.151	-0.080	-0.056
-325.129	800.000	0.080	-0.249
-324.114	37.192	0.339	0.305
-323.099	55.694	0.103	0.102
-322.085	-125.443	0.252	-0.039
-321.070	-2.834	-0.098	-0.069
-320.056	-108.211	-0.209	0.046
-319.041	-150.762	-0.233	-0.018
-318.026	337.944	0.090	-0.178
-317.012	-146.777	0.469	0.041
-315.997	-200.000	-0.021	0.167
-314.983	177.275	-0.161	0.238
-313.968	-64.586	0.269	0.111
-312.953	-64.743	0.200	0.082
-311.939	-52.299	0.207	0.097
-310.924	-87.705	0.158	-0.048
-309.910	-140.513	0.119	0.013
-308.895	47.395	0.096	0.091
-307.880	48.541	0.172	-0.164
-306.866	726.487	0.093	-0.251
-305.851	800.000	-0.027	0.115
-304.837	800.000	-0.110	-0.316
-303.822	200.976	0.187	-0.291
-302.807	-200.000	0.033	-0.313
-301.793	-200.000	0.022	-0.145
-300.778	-97.126	0.129	0.034
-299.764	107.306	0.087	-0.104
-298.749	-111.418	0.351	-0.072
-297.735	800.000	-0.057	-0.209
-296.720	-91.936	-0.224	-0.064
-295.705	800.000	-0.047	-0.183
-294.691	12.356	0.225	-0.176
-293.676	-94.262	-0.218	0.060
-292.662	-10.730	0.189	0.127
-291.647	-170.865	-0.064	0.002
-290.632	226.886	0.171	0.281
-289.618	-200.000	0.042	0.387
-288.603	800.000	0.066	-0.244
-287.589	85.682	0.178	0.199
-286.574	-200.000	0.059	0.331
-285.559	-89.360	-0.075	0.022
-284.545	168.837	0.010	0.015
-283.530	-25.670	0.213	-0.127
-282.516	-101.188	0.327	0.081
-281.501	-102.056	0.225	0.055
-280.486	31.721	-0.086	-0.075
-279.472	-86.261	-0.093	-0.029
-278.457	-27.718	0.066	0.039
-277.443	40.411	-0.157	0.144
-276.428	-142.613	-0.030	-0.003
-275.413	38.132	0.246	-0.222
-274.399	-200.000	-0.054	0.264
-273.384	-127.149	-0.114	-0.017
-272.370	-11.155	0.310	-0.207
-271.355	800.000	-0.060	0.220
-270.340	-10.364	0.016	-0.011
-269.326	-200.000	-0.030	-0.303
-268.311	-200.000	-0.002	-0.061
-267.297	53.919	0.095	0.092
-266.282	-63.183	0.360	-0.150
-265.267	-108.376	0.094	0.021
-264.253	-136.587	-0.196	-0.023
-263.238	-60.013	0.134	0.058
-262.224	800.000	0.026	0.096
-261.209	800.000	0.106	-0.305
-260.195	-60.918	0.336	0.144
-259.180	-117.233	0.271	0.050
-258.165	-135.106	-0.462	-0.056
-257.151	-200.000	-0.007	0.104
-256.136	645.704	-0.060	-0.154
-255.122	115.835	-0.093	0.116
-254.107	121.622	-0.057	-0.071
-253.092	10.053	-0.252	0.194
-252.078	-20.116	-0.330	-0.206
-251.063	150.354	-0.193	0.265
-250.049	175.841	-0.135	-0.198
-249.034	85.487	-0.184	0.205
-248.019	800.000	0.062	-0.181
-247.005	-111.406	0.453	0.093
-245.990	85.515	0.136	0.151
-244.976	63.129	-0.239	-0.242
-243.961	-200.000	0.001	-0.044
-242.946	-62.279	-0.227	-0.096
-241.932	-132.773	-0.422	-0.055
-240.917	-77.853	0.188	-0.066
-239.903	-58.393	-0.051	0.022
-238.888	-17.053	0.205	0.131
-237.873	-127.274	0.331	-0.049
-236.859	-200.000	-0.040	-0.214
-235.844	-200.000	0.037	-0.220
-234.830	278.991	0.119	-0.214
-233.815	-200.000	-0.010	0.262
-232.800	-200.000	-0.027	0.299
-231.786	-200.000	0.011	0.082
-230.771	191.474	0.130	0.198
-229.757	105.825	0.233	0.279
-228.742	443.083	-0.098	-0.218
-227.727	-81.348	0.318	0.106
-226.713	28.516	-0.249	0.213
-225.698	-200.000	-0.021	-0.177
-224.684	83.295	0.209	0.230
-223.669	118.761	0.130	-0.163
-222.655	-65.947	-0.189	0.076
-221.640	-200.000	0.075	-0.399
-220.625	44.215	-0.319	0.295
-219.611	-34.081	-0.231	-0.128
-218.596	-121.620	0.231	-0.039
-217.582	-200.000	-0.049	0.224
-216.567	-200.000	-0.001	-0.332
-215.552	-200.000	0.024	0.199
-214.538	315.787	-0.085	0.161
-213.523	-200.000	0.016	0.097
-212.509	255.599	0.183	0.317
-211.494	-138.130	0.024	-0.003
-210.479	-43.673	-0.303	-0.154
-209.465	-89.407	0.101	0.030
-208.450	33.268	-0.300	-0.263
-207.436	771.017	-0.064	-0.176
-206.421	587.010	0.077	0.192
-205.406	128.817	0.079	-0.102
-204.392	-122.894	-0.319	-0.052
-203.377	-200.000	0.094	0.444
-202.363	151.631	-0.158	-0.217
-201.348	702.055	0.053	-0.142
-200.333	66.089	0.192	-0.197
-199.319	375.169	-0.053	0.109
-198.304	800.000	-0.043	0.155
-197.290	79.718	-0.134	0.145
-196.275	-88.468	-0.094	0.028
-195.260	-180.682	0.158	-0.003
-194.246	-92.265	-0.047	0.013
-193.231	293.404	-0.077	-0.142
-192.217	-17.614	-0.211	0.134
-191.202	-200.000	0.008	0.146
-190.187	-120.526	0.385	-0.066
-189.173	-33.132	-0.233	0.130
-188.158	99.900	0.025	0.029
-187.144	93.466	-0.038	-0.044
-186.129	27.125	-0.084	0.071
-185.114	-108.248	0.025	-0.005
-184.100	800.000	0.069	-0.213
-183.085	240.445	0.113	0.190
-182.071	8.993	0.244	-0.186
-181.056	17.587	0.147	0.118
-180.042	135.732	0.073	0.095
-179.027	-44.672	0.199	0.100
-178.012	-49.451	0.021	0.010
-176.998	-36.158	-0.244	-0.133
-175.983	-146.324	-0.231	0.020
-174.969	-95.013	0.174	-0.047
-173.954	800.000	0.112	0.325
-172.939	-200.000	-0.016	0.382
-171.925	574.615	-0.046	0.113
-170.910	-47.707	0.311	-0.152
-169.896	-65.970	-0.243	-0.098
-168.881	-20.475	-0.060	0.037
-167.866	7.062	-0.331	0.249
-166.852	-200.000	0.022	-0.107
-165.837	-165.201	0.193	0.009
-164.823	800.000	0.009	0.037
-163.808	-132.745	-0.058	-0.007
-162.793	-200.000	-0.005	-0.140
-161.779	235.328	0.038	0.063
-160.764	121.821	0.094	-0.118
-159.750	-132.099	0.240	-0.031
-158.735	18.522	-0.179	0.144
-157.720	413.723	-0.093	-0.199
-156.706	94.330	0.116	0.133
-155.691	-111.110	-0.309	0.064
-154.677	137.227	-0.182	0.240
-153.662	-27.171	-0.056	0.033
-152.647	-145.606	-0.328	0.030
-151.633	-200.000	0.012	0.370
-150.618	-47.174	0.201	-0.099
-149.604	374.883	-0.030	-0.061
-148.589	26.511	-0.238	0.200
-147.574	40.250	0.082	-0.075
-146.560	-121.048	-0.341	-0.058
-145.545	-200.000	0.042	-0.343
-144.531	-125.360	-0.067	0.010
-143.516	-68.739	0.229	-0.089
-142.502	-200.000	0.127	-0.000
-141.487	59.627	-0.044	0.043
-140.472	800.000	-0.075	-0.222
-139.458	800.000	-0.056	-0.195
-138.443	-94.026	0.097	-0.027
-137.429	-141.649	0.276	0.028
-136.414	-200.000	0.010	0.184
-135.399	-122.856	-0.298	0.048
-134.385	294.815	0.165	0.303
-133.370	-129.442	-0.125	-0.018
-132.356	309.368	-0.111	0.210
-131.341	16.151	0.161	0.127
-130.326	-89.287	-0.342	-0.102
-129.312	10.055	-0.260	0.199
-128.297	-132.791	0.242	0.031
-127.283	526.759	0.089	0.211
-126.268	-25.134	-0.165	-0.098
-125.253	-75.248	-0.167	0.060
-124.239	198.787	0.155	0.239
-123.224	361.438	0.070	0.141
-122.210	-200.000	0.023	0.291
-121.195	50.472	0.173	-0.164
