DTS Sentinel unit serial number:	SN413079Multiplexer serial number:	ORYXHardware model number:	OX4-SRSoftware version number:	ORYX F/W v4.00 Oryx Data Collector v3.7.2.0data status	okinstallation	princeton_trtdifferential loss correction	single-endedforward channel	channel 4reverse channel	N/Adate	2019/09/18time	11:17:35forward acquisition time	60.00reverse acquisition time	0.00gamma	496.2192k internal	0.2312k external	0.2312temperature offset calibration	0.9984default loss term (dB/km)	0.3790temperature slope calibration	1.0000multiplexer offset coefficient	1.0000multiplexer slope coefficient	1.0000fibre end	0.00T internal ref (°C)	29.87T ext. ref 1 (°C)	0.41T ext. ref 2 (°C)	27.07length (m)	temperature (°C)	Stokes	anti-Stokes-747.200	-103.828	0.247	0.059
-746.185	67.272	-0.249	0.258
-745.171	-161.320	0.104	0.005
-744.156	2.100	-0.300	-0.220
-743.142	-200.000	-0.015	0.334
-742.127	-200.000	0.021	0.199
-741.112	351.252	-0.083	0.167
-740.098	185.990	-0.178	0.268
-739.083	-109.042	-0.187	0.040
-738.069	-121.473	-0.079	0.013
-737.054	739.181	-0.030	-0.081
-736.039	203.784	-0.069	-0.109
-735.025	578.928	0.043	-0.106
-734.010	800.000	-0.062	-0.244
-732.996	-118.116	-0.434	-0.079
-731.981	-67.035	0.180	0.072
-730.966	6.343	-0.086	0.064
-729.952	112.803	-0.207	-0.254
-728.937	39.507	-0.113	0.103
-727.923	741.624	-0.053	0.146
-726.908	-152.205	-0.394	-0.029
-725.894	-200.000	-0.011	-0.110
-724.879	-140.608	0.259	0.027
-723.864	-38.811	0.296	-0.158
-722.850	-28.551	-0.190	-0.111
-721.835	-18.729	0.152	-0.096
-720.821	-24.005	-0.123	-0.075
-719.806	-68.744	0.071	0.028
-718.791	-68.418	-0.168	0.066
-717.777	-103.481	0.093	0.022
-716.762	-173.081	-0.180	0.006
-715.748	-40.783	0.182	-0.095
-714.733	342.801	-0.070	0.140
-713.718	-52.232	0.049	0.023
-712.704	-30.747	-0.251	-0.144
-711.689	-151.543	0.250	0.019
-710.675	124.311	0.156	0.199
-709.660	420.670	0.098	0.213
-708.645	-76.318	0.198	-0.071
-707.631	18.955	-0.147	-0.119
-706.616	-43.831	0.104	-0.053
-705.602	65.146	-0.216	0.221
-704.587	728.006	-0.041	-0.110
-703.572	-200.000	0.015	0.150
-702.558	800.000	0.039	-0.133
-701.543	277.003	-0.018	-0.033
-700.529	148.670	0.053	-0.073
-699.514	-200.000	0.002	-0.367
-698.499	35.747	0.167	0.148
-697.485	-113.624	0.216	-0.043
-696.470	-200.000	0.014	-0.229
-695.456	-30.246	0.187	0.108
-694.441	473.726	0.133	0.303
-693.426	800.000	-0.020	0.062
-692.412	-51.345	0.260	0.123
-691.397	-79.067	0.260	-0.089
-690.383	-73.350	-0.143	-0.053
-689.368	-200.000	0.026	-0.269
-688.354	-14.980	-0.072	0.047
-687.339	128.710	-0.178	-0.230
-686.324	-200.000	-0.000	-0.095
-685.310	-86.243	-0.206	0.064
-684.295	-200.000	0.024	-0.245
-683.281	8.587	0.096	-0.073
-682.266	-200.000	-0.052	-0.241
-681.251	52.718	0.094	-0.091
-680.237	5.614	0.090	-0.067
-679.222	-23.289	0.255	-0.155
-678.208	58.647	-0.236	0.235
-677.193	-126.559	-0.076	-0.011
-676.178	55.928	-0.238	-0.233
-675.164	250.727	0.229	-0.394
-674.149	694.267	0.084	0.223
-673.135	155.894	-0.089	0.124
-672.120	221.728	0.080	0.130
-671.105	-129.235	-0.157	-0.022
-670.091	234.906	-0.036	-0.059
-669.076	426.780	-0.028	0.061
-668.062	800.000	-0.098	-0.371
-667.047	800.000	0.020	0.069
-666.032	31.055	-0.203	0.176
-665.018	800.000	0.085	-0.254
-664.003	771.578	0.062	-0.172
-662.989	-190.972	-0.164	-0.002
-661.974	139.333	-0.141	-0.188
-660.959	800.000	-0.066	0.190
-659.945	27.894	0.258	0.220
-658.930	-22.769	0.145	0.089
-657.916	114.364	0.041	0.051
-656.901	65.871	-0.284	-0.291
-655.886	-89.067	0.344	0.103
-654.872	36.216	0.026	0.023
-653.857	184.518	0.138	-0.207
-652.843	-37.177	-0.127	0.069
-651.828	-84.461	0.173	-0.055
-650.814	-54.144	-0.301	-0.138
-649.799	-161.648	-0.224	-0.012
-648.784	205.715	0.143	-0.225
-647.770	17.500	-0.069	0.056
-646.755	578.190	-0.087	0.214
-645.741	27.064	-0.159	0.135
-644.726	-46.241	-0.135	-0.067
-643.711	-166.595	0.043	-0.002
-642.697	-107.905	0.199	0.044
-641.682	-132.298	-0.272	0.036
-640.668	46.867	0.142	0.133
-639.653	194.953	0.125	0.191
-638.638	679.504	-0.027	0.072
-637.624	24.265	-0.057	-0.048
-636.609	-82.112	-0.182	0.060
-635.595	173.311	0.156	0.228
-634.580	-200.000	0.028	0.277
-633.565	-55.051	0.168	-0.076
-632.551	-48.553	-0.237	-0.115
-631.536	-106.367	0.160	-0.036
-630.522	-1.668	0.188	-0.134
-629.507	800.000	0.050	-0.141
-628.492	800.000	0.093	0.366
-627.478	556.886	-0.100	-0.244
-626.463	8.589	-0.231	0.176
-625.449	-200.000	-0.021	-0.345
-624.434	14.925	0.197	0.156
-623.419	80.062	-0.051	-0.055
-622.405	19.397	-0.066	-0.053
-621.390	-86.405	-0.217	0.067
-620.376	-200.000	-0.017	0.124
-619.361	-22.242	-0.399	-0.244
-618.346	101.875	0.073	0.086
-617.332	-32.612	-0.168	0.095
-616.317	102.225	-0.214	-0.253
-615.303	-12.868	-0.147	0.097
-614.288	87.619	0.175	-0.196
-613.273	119.223	0.029	-0.036
-612.259	-200.000	-0.005	0.106
-611.244	149.163	0.113	-0.154
-610.230	294.045	-0.102	-0.188
-609.215	-200.000	0.018	-0.450
-608.201	48.251	-0.144	0.136
-607.186	800.000	0.068	0.296
-606.171	439.682	-0.127	-0.281
-605.157	-66.804	0.146	-0.058
-604.142	72.405	-0.121	-0.127
-603.128	193.117	0.020	0.031
-602.113	-16.099	0.115	-0.074
-601.098	14.791	-0.504	-0.398
-600.084	-42.579	-0.074	-0.038
-599.069	-97.292	-0.082	-0.022
-598.055	-75.855	-0.151	0.054
-597.040	-200.000	0.014	-0.324
-596.025	-78.579	-0.155	-0.053
-595.011	363.765	0.087	0.176
-593.996	-161.012	0.149	0.008
-592.982	23.616	0.199	0.166
-591.967	800.000	-0.043	-0.170
-590.952	104.661	0.383	-0.455
-589.938	-68.154	0.269	0.106
-588.923	26.806	-0.226	0.191
-587.909	77.805	0.195	0.209
-586.894	23.120	-0.161	-0.134
-585.879	800.000	-0.032	0.089
-584.865	-150.321	-0.136	-0.011
-583.850	-63.949	0.138	-0.057
-582.836	-115.180	-0.192	0.037
-581.821	106.220	0.158	-0.189
-580.806	63.515	-0.170	-0.172
-579.792	339.823	0.140	-0.276
-578.777	35.521	-0.177	-0.157
-577.763	133.181	0.043	-0.056
-576.748	-108.667	0.216	0.047
-575.733	-110.777	-0.188	0.039
-574.719	-200.000	0.037	-0.186
-573.704	81.967	-0.123	-0.134
-572.690	618.250	0.070	0.178
-571.675	438.984	-0.065	0.142
-570.661	800.000	0.016	-0.054
-569.646	97.460	-0.205	-0.237
-568.631	229.740	0.097	0.160
-567.617	800.000	-0.057	-0.251
-566.602	25.686	-0.096	-0.081
-565.588	342.712	-0.074	0.145
-564.573	-200.000	0.005	0.335
-563.558	15.886	0.171	-0.136
-562.544	646.066	0.179	-0.460
-561.529	305.207	0.052	0.096
-560.515	-104.327	-0.248	-0.058
-559.500	-200.000	-0.057	-0.379
-558.485	178.626	-0.076	0.113
-557.471	-93.091	0.302	0.085
-556.456	-51.939	0.174	0.082
-555.442	51.265	-0.055	0.052
-554.427	-43.528	0.291	-0.148
-553.412	-191.375	-0.199	-0.002
-552.398	567.774	-0.070	-0.171
-551.383	-200.000	0.050	-0.321
-550.369	193.512	0.110	0.168
-549.354	486.944	-0.097	-0.222
-548.339	-200.000	-0.047	-0.322
-547.325	-150.506	0.257	-0.020
-546.310	28.954	-0.061	-0.052
-545.296	800.000	-0.034	-0.102
-544.281	-70.638	0.111	-0.042
-543.266	24.017	-0.065	-0.054
-542.252	-146.457	0.332	0.029
-541.237	800.000	-0.036	0.109
-540.223	-183.548	0.247	0.004
-539.208	-28.144	0.244	-0.142
-538.193	328.756	0.066	0.129
-537.179	97.846	0.361	0.418
-536.164	-104.147	-0.244	-0.057
-535.150	415.216	0.136	0.291
-534.135	341.493	-0.149	-0.292
-533.121	-38.218	-0.249	0.133
-532.106	-26.914	0.218	0.128
-531.091	596.978	0.096	0.240
-530.077	-40.248	0.155	0.081
-529.062	-135.194	-0.160	0.019
-528.048	-16.300	0.092	-0.059
-527.033	-200.000	0.023	0.116
-526.018	106.203	0.203	-0.241
-525.004	7.912	0.391	0.295
-523.989	-200.000	0.032	-0.323
-522.975	-163.463	0.311	0.015
-521.960	201.803	0.152	0.235
-520.945	274.586	0.090	0.161
-519.931	-200.000	0.006	-0.094
-518.916	-200.000	-0.055	0.328
-517.902	2.494	0.169	-0.123
-516.887	279.506	-0.103	-0.185
-515.872	20.085	0.128	-0.104
-514.858	-200.000	-0.009	-0.121
-513.843	-76.093	-0.303	0.108
-512.829	723.411	0.078	-0.209
-511.814	2.419	-0.116	-0.084
-510.799	-111.236	-0.075	0.015
-509.785	-153.146	-0.215	-0.015
-508.770	178.900	0.139	0.204
-507.756	-69.953	0.292	0.112
-506.741	-60.410	0.280	-0.120
-505.726	218.466	0.202	-0.324
-504.712	-78.835	0.099	-0.034
-503.697	-60.367	0.128	0.055
-502.683	399.432	0.065	0.137
-501.668	149.610	0.121	-0.165
-500.653	-17.642	-0.285	0.180
-499.639	363.870	0.196	0.397
-498.624	-200.000	0.025	0.153
-497.610	398.704	0.077	-0.161
-496.595	320.877	-0.211	0.403
-495.581	-200.000	-0.019	0.160
-494.566	-49.056	0.236	0.113
-493.551	-200.000	0.047	0.238
-492.537	16.627	-0.164	-0.130
-491.522	535.831	-0.059	0.139
-490.508	-115.223	0.553	-0.105
-489.493	47.399	-0.050	-0.047
-488.478	503.238	-0.126	0.294
-487.464	153.795	-0.104	-0.144
-486.449	59.699	0.162	-0.161
-485.435	-52.802	-0.124	0.057
-484.420	225.088	-0.054	0.087
-483.405	-126.602	-0.162	0.024
-482.391	446.922	0.113	-0.249
-481.376	680.082	-0.037	0.097
-480.362	362.395	0.109	0.221
-479.347	-78.786	0.444	0.152
-478.332	-184.356	0.204	-0.003
-477.318	-6.392	-0.121	0.083
-476.303	-200.000	-0.017	0.154
-475.289	-101.666	-0.209	-0.051
-474.274	432.323	-0.147	0.319
-473.259	-96.395	0.072	-0.019
-472.245	23.705	-0.129	-0.107
-471.230	-127.465	-0.205	0.030
-470.216	360.545	-0.092	0.185
-469.201	800.000	0.044	0.166
-468.186	-200.000	0.057	-0.284
-467.172	-19.478	-0.174	-0.108
-466.157	800.000	-0.101	-0.342
-465.143	88.139	0.062	-0.070
-464.128	-174.517	0.234	0.007
-463.113	800.000	-0.043	-0.177
-462.099	-112.955	-0.186	-0.037
-461.084	800.000	0.065	0.208
-460.070	431.702	0.191	0.416
-459.055	800.000	0.129	-0.362
-458.040	296.326	-0.108	0.198
-457.026	-200.000	0.050	-0.475
-456.011	-200.000	0.042	-0.385
-454.997	56.725	0.072	0.071
-453.982	-58.720	-0.120	0.052
-452.968	-60.704	0.094	-0.040
-451.953	778.842	0.204	-0.560
-450.938	48.813	0.282	-0.265
-449.924	-0.727	-0.093	0.066
-448.909	16.565	-0.371	-0.294
-447.895	-45.055	-0.068	0.034
-446.880	-73.972	-0.314	0.114
-445.865	-71.162	-0.245	0.092
-444.851	655.492	0.080	-0.205
-443.836	800.000	-0.097	0.342
-442.822	478.338	-0.150	0.339
-441.807	-149.109	0.346	-0.028
-440.792	-200.000	0.018	0.096
-439.778	-134.905	-0.412	0.050
-438.763	135.415	0.242	-0.316
-437.749	-131.600	-0.169	0.022
-436.734	800.000	-0.028	0.091
-435.719	-136.347	0.185	-0.022
-434.705	800.000	-0.023	-0.093
-433.690	-152.536	0.068	-0.005
-432.676	43.480	0.112	0.103
-431.661	-132.587	0.177	-0.023
-430.646	409.369	-0.054	-0.115
-429.632	147.439	0.104	-0.140
-428.617	-200.000	0.034	0.315
-427.603	-4.832	-0.086	-0.059
-426.588	800.000	0.102	0.320
-425.573	-122.466	-0.010	-0.002
-424.559	-134.184	0.354	-0.044
-423.544	-55.201	-0.101	-0.045
-422.530	60.715	-0.061	0.060
-421.515	-49.601	0.314	0.150
-420.500	-200.000	0.069	-0.322
-419.486	70.893	-0.169	0.175
-418.471	-45.951	-0.139	0.069
-417.457	222.499	0.205	-0.331
-416.442	94.275	0.092	-0.104
-415.428	-21.352	0.133	-0.081
-414.413	62.132	-0.278	0.278
-413.398	-4.565	0.223	0.154
-412.384	-200.000	0.040	-0.249
-411.369	-200.000	0.048	-0.564
-410.355	118.568	-0.162	0.200
-409.340	-33.804	0.077	-0.043
-408.325	-15.807	-0.195	-0.124
-407.311	800.000	-0.037	0.112
-406.296	800.000	-0.115	0.333
-405.282	-59.867	-0.443	0.190
-404.267	37.519	-0.391	0.347
-403.252	-200.000	-0.031	0.212
-402.238	-84.853	0.220	0.069
-401.223	479.839	-0.069	-0.156
-400.209	83.181	-0.102	-0.111
-399.194	671.773	-0.049	-0.128
-398.179	-57.229	-0.290	-0.128
-397.165	795.694	-0.088	0.243
-396.150	-0.442	-0.274	0.195
-395.136	-189.504	-0.259	0.003
-394.121	-37.341	-0.276	0.147
-393.106	-117.447	-0.141	0.026
-392.092	255.909	-0.096	0.166
-391.077	-49.875	-0.173	-0.082
-390.063	93.942	-0.141	-0.160
-389.048	624.846	-0.063	-0.160
-388.033	-89.834	-0.078	-0.023
-387.019	-166.771	0.137	0.006
-386.004	343.054	-0.114	-0.224
-384.990	127.253	-0.062	0.079
-383.975	-127.702	-0.367	-0.053
-382.960	64.872	-0.017	-0.017
-381.946	45.316	0.210	0.194
-380.931	-19.635	-0.106	-0.065
-379.917	131.367	0.137	-0.176
-378.902	148.460	0.080	-0.108
-377.888	68.193	-0.265	0.271
-376.873	95.778	-0.040	0.045
-375.858	-200.000	0.039	0.257
-374.844	-98.628	0.346	-0.088
-373.829	-200.000	0.006	-0.129
-372.815	43.051	0.148	-0.135
-371.800	74.956	-0.090	-0.095
-370.785	52.280	0.304	0.290
-369.771	-200.000	-0.007	-0.143
-368.756	-79.971	0.134	0.045
-367.742	22.210	-0.265	-0.217
-366.727	419.969	-0.076	0.163
-365.712	-55.484	0.101	0.045
-364.698	-137.999	-0.179	0.020
-363.683	-200.000	0.023	0.105
-362.669	100.367	-0.096	-0.112
-361.654	-200.000	0.045	0.225
-360.639	-158.430	-0.183	-0.011
-359.625	425.730	0.074	-0.160
-358.610	-40.449	0.205	-0.106
-357.596	-155.631	-0.295	0.019
-356.581	146.896	-0.328	0.441
-355.566	-200.000	-0.003	0.160
-354.552	-147.882	-0.098	0.008
-353.537	278.157	0.172	0.305
-352.523	-39.680	0.164	0.086
-351.508	-200.000	0.003	-0.062
-350.493	21.513	0.162	0.131
-349.479	-106.648	0.124	-0.028
-348.464	-69.283	0.032	0.012
-347.450	-25.178	0.375	0.222
-346.435	-137.138	-0.129	0.015
-345.420	256.220	-0.106	0.182
-344.406	-104.331	0.177	0.041
-343.391	96.497	-0.089	0.102
-342.377	-126.626	0.141	-0.021
-341.362	-200.000	0.034	-0.365
-340.348	121.453	-0.042	0.053
-339.333	800.000	0.162	0.501
-338.318	-41.396	-0.119	-0.061
-337.304	-200.000	-0.087	-0.000
-336.289	800.000	-0.026	0.076
-335.275	-84.298	-0.282	-0.089
-334.260	-103.077	0.093	-0.022
-333.245	-47.179	0.204	0.099
-332.231	604.165	-0.104	-0.259
-331.216	155.520	0.162	0.223
-330.202	-63.812	-0.209	0.085
-329.187	-64.039	-0.326	-0.133
-328.172	236.821	0.099	-0.163
-327.158	-200.000	-0.067	0.388
-326.143	-67.402	-0.250	0.098
-325.129	150.843	0.127	0.172
-324.114	-200.000	-0.007	0.282
-323.099	-4.858	-0.339	-0.234
-322.085	799.872	0.086	-0.237
-321.070	-28.059	0.132	0.076
-320.056	63.909	0.277	0.278
-319.041	373.781	-0.100	0.202
-318.026	-200.000	0.019	-0.377
-317.012	-113.999	0.103	-0.020
-315.997	59.192	-0.157	-0.155
-314.983	-172.361	0.158	0.005
-313.968	-194.600	-0.457	0.004
-312.953	-200.000	0.021	0.199
-311.939	603.405	0.136	0.337
-310.924	58.041	-0.205	0.200
-309.910	-182.481	0.326	0.006
-308.895	800.000	0.085	0.371
-307.880	-135.257	-0.178	-0.021
-306.866	327.579	-0.089	-0.171
-305.851	150.515	0.135	-0.183
-304.837	-38.417	0.044	0.023
-303.822	227.103	0.089	0.145
-302.807	-133.058	-0.310	0.039
-301.793	-200.000	-0.173	0.000
-300.778	486.329	-0.142	-0.323
-299.764	800.000	-0.076	-0.219
-298.749	81.033	0.058	-0.062
-297.735	-200.000	0.018	0.111
-296.720	-200.000	-0.001	-0.012
-295.705	-113.089	-0.128	0.025
-294.691	50.360	-0.164	0.154
-293.676	575.249	-0.012	0.030
-292.662	-200.000	-0.045	0.201
-291.647	-111.349	-0.043	-0.009
-290.632	-21.518	-0.040	-0.024
-289.618	459.482	-0.083	-0.183
-288.603	-200.000	-0.021	0.210
-287.589	-200.000	-0.010	0.171
-286.574	45.918	0.128	-0.118
-285.559	-200.000	0.033	-0.199
-284.545	246.849	-0.033	-0.055
-283.530	235.071	0.052	0.086
-282.516	-200.000	-0.018	0.100
-281.501	260.983	0.109	-0.187
-280.486	800.000	-0.057	0.199
-279.472	-176.360	0.151	0.004
-278.457	86.186	-0.072	-0.079
-277.443	-65.584	-0.375	0.150
-276.428	-200.000	0.029	-0.189
-275.413	-135.134	-0.207	-0.025
-274.399	474.654	0.071	0.159
-273.384	800.000	-0.056	-0.187
-272.370	-37.495	0.098	0.052
-271.355	800.000	0.143	0.421
-270.340	-72.682	0.128	0.047
-269.326	-200.000	0.020	-0.153
-268.311	-99.967	0.021	-0.005
-267.297	-77.343	0.234	-0.081
-266.282	192.245	0.141	-0.212
-265.267	-27.811	0.232	0.134
-264.253	143.035	0.199	0.263
-263.238	47.748	0.178	-0.165
-262.224	326.729	0.144	0.275
-261.209	-122.334	0.186	0.030
-260.195	-12.906	-0.337	0.218
-259.180	800.000	-0.108	-0.298
-258.165	-200.000	-0.024	0.211
-257.151	-29.047	0.113	-0.065
-256.136	800.000	0.055	-0.231
-255.122	-113.546	-0.291	0.057
-254.107	34.733	-0.321	-0.279
-253.092	276.443	-0.148	-0.263
-252.078	-165.683	-0.426	0.018
-251.063	110.722	-0.050	-0.060
-250.049	800.000	-0.085	-0.296
-249.034	-63.057	0.151	-0.062
-248.019	170.044	0.039	-0.056
-247.005	-18.197	-0.203	-0.126
-245.990	-158.539	0.297	0.017
-244.976	-200.000	-0.039	0.302
-243.961	800.000	-0.071	0.272
-242.946	556.953	0.079	0.189
-241.932	-85.838	0.344	-0.106
-240.917	151.998	0.153	-0.207
-239.903	232.192	0.125	-0.205
-238.888	-200.000	-0.014	0.141
-237.873	395.734	0.055	0.115
-236.859	-200.000	-0.005	0.071
-235.844	-25.767	0.055	0.032
-234.830	4.365	0.186	-0.136
-233.815	-146.586	-0.281	0.024
-232.800	108.409	0.067	-0.079
-231.786	-4.033	0.174	0.120
-230.771	261.146	-0.238	-0.410
-229.757	-200.000	-0.003	0.119
-228.742	800.000	0.067	0.257
-227.727	-200.000	0.086	0.413
-226.713	-131.300	0.175	0.023
-225.698	42.207	0.130	-0.118
-224.684	253.095	-0.223	-0.378
-223.669	-99.975	0.232	-0.058
-222.655	34.121	0.237	0.205
-221.640	173.082	0.164	-0.236
-220.625	234.270	0.192	-0.315
-219.611	-138.067	-0.428	0.047
-218.596	92.907	-0.036	0.040
-217.582	800.000	0.060	-0.201
-216.567	51.436	-0.197	0.186
-215.552	-66.967	-0.238	0.094
-214.538	289.931	-0.180	0.326
-213.523	-200.000	0.040	0.216
-212.509	653.342	-0.075	0.190
-211.494	-49.325	0.173	-0.082
-210.479	766.356	0.111	0.299
-209.465	-200.000	-0.054	0.317
-208.450	800.000	0.118	-0.331
-207.436	-200.000	-0.002	-0.101
-206.421	535.232	-0.113	-0.266
-205.406	-200.000	-0.000	-0.017
-204.392	-128.277	-0.206	-0.029
-203.377	-56.154	-0.322	0.142
-202.363	113.993	-0.082	-0.099
-201.348	-61.413	0.411	-0.172
-200.333	-14.863	-0.114	-0.073
-199.319	663.783	0.096	-0.246
-198.304	14.677	-0.085	-0.066
-197.290	-200.000	-0.046	-0.239
-196.275	78.463	-0.107	-0.114
-195.260	400.948	0.054	-0.112
-194.246	-85.275	0.203	0.063
-193.231	213.258	-0.134	0.209
-192.217	-72.855	-0.175	0.064
-191.202	4.943	0.162	0.118
-190.187	86.809	0.262	0.287
-189.173	24.342	-0.253	0.208
-188.158	167.143	-0.119	0.168
-187.144	-93.778	0.359	0.098
-186.129	-200.000	0.027	-0.306
-185.114	187.769	0.063	0.093
-184.100	527.774	-0.076	-0.177
-183.085	800.000	0.105	-0.425
-182.071	135.059	-0.105	0.136
-181.056	319.342	0.038	-0.072
-180.042	11.080	-0.129	0.098
-179.027	-159.112	0.143	0.008
-178.012	7.582	-0.122	-0.091
-176.998	43.679	0.323	0.293
-175.983	-200.000	-0.020	-0.388
-174.969	-110.917	0.225	-0.046
-173.954	285.486	-0.101	-0.181
-172.939	105.296	-0.124	-0.145
-171.925	-4.510	-0.267	0.183
-170.910	527.586	-0.065	0.152
-169.896	-200.000	0.016	0.159
-168.881	-0.361	0.337	-0.237
-167.866	-112.391	0.092	0.018
-166.852	-31.054	0.245	-0.137
-165.837	-188.925	-0.280	-0.003
-164.823	11.774	-0.161	-0.122
-163.808	-72.587	0.021	-0.008
-162.793	305.377	-0.136	-0.251
-161.779	60.136	-0.161	0.158
-160.764	81.770	0.141	-0.151
-159.750	-200.000	0.003	-0.316
-158.735	-71.274	0.145	-0.054
-157.720	-200.000	-0.011	-0.125
-156.706	-2.000	0.168	0.117
-155.691	-17.664	-0.206	-0.128
-154.677	-27.608	0.269	0.155
-153.662	39.526	0.178	0.159
-152.647	-200.000	0.020	0.102
-151.633	177.428	0.212	0.306
-150.618	8.988	-0.095	0.071
-149.604	800.000	0.065	0.212
-148.589	0.687	0.083	-0.059
-147.574	800.000	-0.042	-0.179
-146.560	139.610	0.124	-0.162
-145.545	532.786	0.099	-0.233
-144.531	-200.000	-0.121	0.526
-143.516	-162.626	0.095	0.005
-142.502	42.099	-0.116	-0.105
-141.487	-101.744	0.183	-0.044
-140.472	34.728	0.223	0.194
-139.458	-37.710	-0.099	-0.052
-138.443	336.374	-0.113	0.218
-137.429	-77.056	0.263	-0.091
-136.414	407.978	-0.054	-0.113
-135.399	-94.905	0.117	0.031
-134.385	-13.963	0.196	-0.125
-133.370	173.632	0.153	-0.218
-132.356	441.788	-0.095	0.205
-131.341	578.900	0.104	0.251
-130.326	139.528	-0.046	0.060
-129.312	280.868	-0.073	0.129
-128.297	-200.000	-0.020	0.115
-127.283	-172.579	-0.457	0.014
-126.268	-200.000	0.000	0.015
-125.253	-35.758	0.115	-0.062
-124.239	149.690	-0.159	0.214
-123.224	-200.000	0.062	0.283
-122.210	474.139	-0.054	0.120
-121.195	-20.572	0.257	0.157
-120.180	17.743	0.191	0.151
