DTS Sentinel unit serial number:	SN413079Multiplexer serial number:	ORYXHardware model number:	OX4-SRSoftware version number:	ORYX F/W v4.00 Oryx Data Collector v3.7.2.0data status	okinstallation	princeton_trtdifferential loss correction	single-endedforward channel	channel 4reverse channel	N/Adate	2019/09/15time	11:21:34forward acquisition time	60.00reverse acquisition time	0.00gamma	496.2192k internal	0.2298k external	0.2298temperature offset calibration	1.0017default loss term (dB/km)	0.3790temperature slope calibration	1.0000multiplexer offset coefficient	1.0000multiplexer slope coefficient	1.0000fibre end	0.00T internal ref (°C)	34.30T ext. ref 1 (°C)	5.03T ext. ref 2 (°C)	29.53length (m)	temperature (°C)	Stokes	anti-Stokes-747.200	128.556	-0.050	0.065
-746.185	103.026	-0.158	0.189
-745.171	199.327	-0.206	0.323
-744.156	-200.000	0.024	0.211
-743.142	-113.386	-0.145	-0.029
-742.127	-158.150	-0.375	-0.022
-741.112	-145.930	-0.410	-0.037
-740.098	-133.186	-0.419	0.054
-739.083	-200.000	-0.033	-0.335
-738.069	-200.000	0.014	0.446
-737.054	-103.113	-0.092	-0.022
-736.039	-200.000	-0.022	-0.237
-735.025	13.018	0.350	0.276
-734.010	800.000	-0.058	0.183
-732.996	-52.838	0.065	-0.031
-731.981	791.629	0.083	0.232
-730.966	-200.000	0.002	-0.081
-729.952	269.504	-0.173	-0.310
-728.937	-26.632	0.100	-0.060
-727.923	-91.435	0.178	-0.052
-726.908	68.072	-0.059	-0.062
-725.894	-95.747	0.056	-0.015
-724.879	21.539	-0.205	-0.170
-723.864	800.000	0.042	-0.170
-722.850	-120.695	-0.324	-0.056
-721.835	323.941	-0.079	-0.154
-720.821	54.177	-0.123	-0.121
-719.806	-13.346	-0.127	-0.084
-718.791	158.066	-0.193	0.273
-717.777	-73.266	0.125	0.047
-716.762	246.880	0.124	0.214
-715.748	-82.967	-0.095	0.031
-714.733	58.554	0.181	-0.182
-713.718	-52.754	-0.424	0.199
-712.704	-12.528	0.136	0.091
-711.689	-72.902	0.287	0.107
-710.675	-11.080	0.142	0.096
-709.660	-100.969	0.125	-0.031
-708.645	-53.061	-0.315	0.147
-707.631	151.269	-0.096	-0.134
-706.616	302.369	-0.047	0.089
-705.602	406.323	0.060	-0.128
-704.587	-200.000	-0.101	-0.453
-703.572	800.000	-0.099	-0.290
-702.558	-57.291	-0.225	-0.101
-701.543	78.140	0.081	0.088
-700.529	-155.434	0.271	-0.018
-699.514	-131.117	-0.096	0.013
-698.499	-10.480	0.180	0.122
-697.485	-76.688	-0.039	-0.014
-696.470	800.000	0.070	-0.298
-695.456	-136.350	-0.099	0.012
-694.441	329.195	0.093	0.183
-693.426	-157.959	0.048	0.003
-692.412	268.153	-0.144	-0.256
-691.397	-200.000	-0.014	-0.513
-690.383	152.612	-0.114	0.159
-689.368	67.197	0.057	0.059
-688.354	-85.854	-0.129	0.041
-687.339	104.132	-0.139	-0.166
-686.324	66.482	-0.120	0.124
-685.310	778.630	0.086	-0.239
-684.295	65.450	0.180	0.185
-683.281	-200.000	0.000	-0.136
-682.266	-74.060	0.071	-0.026
-681.251	-22.802	0.064	0.039
-680.237	180.838	0.062	-0.093
-679.222	75.355	0.237	0.254
-678.208	130.767	-0.235	0.307
-677.193	-109.290	0.478	0.103
-676.178	-6.219	-0.362	-0.252
-675.164	-77.090	-0.110	0.039
-674.149	206.787	-0.042	0.067
-673.135	-49.793	0.230	0.111
-672.120	-23.104	-0.371	0.228
-671.105	400.592	-0.041	0.088
-670.091	144.980	0.074	-0.100
-669.076	-39.055	0.130	0.070
-668.062	-108.660	-0.427	-0.093
-667.047	-98.155	0.343	0.090
-666.032	-27.301	-0.052	0.031
-665.018	-150.634	0.117	-0.009
-664.003	-91.881	-0.112	-0.032
-662.989	201.314	-0.114	-0.178
-661.974	144.912	-0.213	-0.289
-660.959	-56.940	0.161	-0.072
-659.945	-200.000	-0.005	0.548
-658.930	427.957	0.127	0.278
-657.916	-105.021	-0.423	0.099
-656.901	-200.000	0.040	-0.298
-655.886	-91.156	-0.202	0.059
-654.872	-125.549	-0.269	0.042
-653.857	-200.000	-0.031	-0.139
-652.843	182.113	-0.134	-0.200
-651.828	-200.000	-0.036	0.163
-650.814	163.054	-0.279	-0.399
-649.799	-38.568	-0.220	0.118
-648.784	-80.963	0.326	-0.110
-647.770	-11.512	-0.040	-0.027
-646.755	217.269	-0.143	0.231
-645.741	21.897	-0.209	0.174
-644.726	800.000	0.047	0.198
-643.711	-200.000	-0.488	-0.000
-642.697	5.779	0.072	0.054
-641.682	-139.857	-0.367	-0.040
-640.668	-200.000	0.031	-0.146
-639.653	343.099	0.137	-0.272
-638.638	-187.444	-0.431	0.006
-637.624	-114.257	-0.410	-0.080
-636.609	119.267	0.069	0.087
-635.595	-200.000	0.001	0.166
-634.580	-200.000	0.043	0.337
-633.565	96.998	-0.096	0.112
-632.551	170.634	0.081	-0.118
-631.536	-4.404	0.119	-0.084
-630.522	317.768	-0.145	-0.280
-629.507	-104.636	0.242	-0.057
-628.492	90.602	0.113	-0.129
-627.478	115.896	-0.253	-0.314
-626.463	-200.000	0.044	0.268
-625.449	-200.000	0.024	-0.135
-624.434	-36.497	-0.082	0.045
-623.419	623.400	0.132	-0.339
-622.405	-200.000	0.006	-0.091
-621.390	800.000	-0.051	-0.178
-620.376	-72.247	-0.063	-0.024
-619.361	-12.246	0.233	-0.155
-618.346	800.000	0.051	-0.189
-617.332	603.212	0.130	0.328
-616.317	-76.086	-0.121	0.043
-615.303	-153.548	0.189	0.013
-614.288	727.564	-0.112	0.304
-613.273	105.832	-0.077	0.092
-612.259	-85.073	0.227	0.072
-611.244	604.638	-0.147	0.371
-610.230	79.802	0.277	0.302
-609.215	89.932	0.216	0.245
-608.201	170.994	-0.083	-0.120
-607.186	296.948	0.062	-0.115
-606.171	91.970	0.050	0.057
-605.157	-97.494	-0.350	0.092
-604.142	800.000	-0.101	-0.336
-603.128	498.997	0.111	0.260
-602.113	-53.512	-0.208	0.096
-601.098	-102.587	0.303	-0.073
-600.084	-12.359	0.254	-0.169
-599.069	-200.000	-0.042	-0.238
-598.055	-200.000	-0.008	-0.182
-597.040	409.085	0.103	0.222
-596.025	90.719	0.251	-0.286
-595.011	-28.971	-0.337	-0.197
-593.996	89.204	0.123	0.140
-592.982	64.599	-0.156	0.160
-591.967	-107.595	0.012	0.003
-590.952	-200.000	0.031	0.360
-589.938	-193.168	0.158	0.001
-588.923	-113.191	-0.339	0.068
-587.909	800.000	0.076	0.299
-586.894	-124.829	-0.180	0.028
-585.879	-200.000	0.067	0.349
-584.865	-106.692	-0.479	-0.108
-583.850	-114.889	0.273	0.053
-582.836	-200.000	-0.064	-0.288
-581.821	161.408	0.343	-0.487
-580.806	-200.000	0.025	0.198
-579.792	546.198	-0.079	0.193
-578.777	-36.842	-0.167	0.091
-577.763	-112.421	0.196	-0.040
-576.748	-50.519	0.210	0.101
-575.733	-44.302	0.127	-0.064
-574.719	-72.828	-0.132	0.049
-573.704	22.274	-0.236	0.195
-572.690	109.425	-0.104	-0.126
-571.675	-46.527	0.381	-0.189
-570.661	85.042	-0.103	-0.114
-569.646	-133.428	-0.160	-0.020
-568.631	-43.204	-0.122	0.063
-567.617	-200.000	-0.039	-0.333
-566.602	-26.499	0.448	0.266
-565.588	26.108	0.234	-0.198
-564.573	223.537	-0.064	0.104
-563.558	-35.997	0.190	-0.104
-562.544	-36.310	-0.277	-0.151
-561.529	103.083	0.086	0.102
-560.515	-82.740	-0.085	-0.028
-559.500	47.087	0.196	0.185
-558.485	415.037	-0.066	0.142
-557.471	800.000	0.012	-0.042
-556.456	-101.552	0.196	0.048
-555.442	344.806	0.083	-0.165
-554.427	-200.000	-0.057	-0.345
-553.412	-200.000	-0.001	-0.261
-552.398	-200.000	-0.007	0.161
-551.383	-23.257	-0.094	-0.057
-550.369	-43.399	-0.074	-0.038
-549.354	587.636	0.031	0.076
-548.339	-200.000	-0.039	-0.201
-547.325	65.741	-0.135	0.139
-546.310	526.668	0.111	-0.264
-545.296	277.221	0.139	0.250
-544.281	39.373	0.158	-0.143
-543.266	-200.000	0.060	-0.345
-542.252	-172.422	-0.035	-0.001
-541.237	-10.708	0.169	0.113
-540.223	615.649	-0.092	0.233
-539.208	53.198	0.190	-0.184
-538.193	-70.816	-0.274	0.105
-537.179	162.037	-0.064	0.091
-536.164	-51.895	0.090	0.042
-535.150	-1.319	-0.124	-0.089
-534.135	800.000	-0.063	-0.199
-533.121	-99.688	0.265	-0.067
-532.106	-52.618	0.188	-0.088
-531.091	68.724	-0.126	0.131
-530.077	261.932	-0.186	-0.326
-529.062	410.998	-0.135	-0.290
-528.048	-106.948	-0.350	0.078
-527.033	800.000	-0.113	0.360
-526.018	-200.000	0.035	-0.329
-525.004	-161.288	0.439	-0.023
-523.989	-15.773	0.141	0.091
-522.975	800.000	-0.092	0.261
-521.960	-200.000	0.047	-0.256
-520.945	-200.000	0.002	0.190
-519.931	-59.843	-0.198	0.086
-518.916	-200.000	0.005	-0.139
-517.902	-200.000	0.039	0.251
-516.887	-11.734	-0.325	0.216
-515.872	-200.000	0.016	-0.098
-514.858	-161.250	0.117	-0.006
-513.843	-26.996	-0.214	-0.126
-512.829	-102.084	0.136	-0.033
-511.814	109.030	0.043	-0.052
-510.799	105.479	-0.169	0.202
-509.785	-142.672	0.145	0.014
-508.770	60.008	-0.252	0.252
-507.756	292.519	-0.031	0.056
-506.741	51.457	0.278	0.267
-505.726	-115.396	-0.075	0.014
-504.712	-200.000	-0.036	-0.175
-503.697	-200.000	-0.003	0.226
-502.683	-34.116	-0.251	-0.140
-501.668	-109.048	0.106	-0.023
-500.653	-200.000	0.086	-0.434
-499.639	-2.282	-0.273	0.193
-498.624	800.000	-0.047	0.157
-497.610	-108.978	-0.119	0.026
-496.595	-200.000	-0.057	-0.309
-495.581	-84.911	0.145	0.046
-494.566	-3.263	-0.091	-0.064
-493.551	529.879	-0.150	-0.359
-492.537	800.000	0.153	-0.458
-491.522	599.550	-0.050	0.125
-490.508	222.181	-0.063	0.102
-489.493	28.637	-0.192	0.164
-488.478	-90.052	-0.131	0.039
-487.464	-141.382	-0.148	0.015
-486.449	-200.000	0.010	0.422
-485.435	59.081	-0.036	-0.036
-484.420	800.000	0.029	-0.122
-483.405	80.633	0.157	-0.171
-482.391	207.402	-0.141	0.223
-481.376	46.704	-0.389	0.365
-480.362	-200.000	-0.010	0.068
-479.347	-156.627	-0.096	0.006
-478.332	180.018	-0.071	-0.105
-477.318	468.263	0.079	-0.180
-476.303	16.499	-0.197	-0.157
-475.289	78.130	0.252	0.271
-474.274	-157.780	0.202	0.012
-473.259	-30.697	0.255	0.146
-472.245	-92.507	-0.199	-0.056
-471.230	-86.948	0.148	0.046
-470.216	-145.302	-0.292	0.027
-469.201	-135.951	0.214	-0.025
-468.186	337.222	0.063	0.124
-467.172	136.848	-0.108	0.143
-466.157	-14.591	-0.094	0.061
-465.143	225.299	0.073	0.119
-464.128	-200.000	0.001	-0.233
-463.113	151.194	-0.051	-0.070
-462.099	-70.350	0.193	-0.074
-461.084	-16.108	-0.146	0.094
-460.070	371.816	0.072	0.148
-459.055	-84.879	0.227	-0.072
-458.040	69.944	-0.119	0.124
-457.026	-11.020	0.102	0.068
-456.011	194.236	0.133	-0.204
-454.997	-131.775	0.227	-0.030
-453.982	-48.232	0.177	-0.086
-452.968	50.888	0.135	0.129
-451.953	137.072	-0.214	0.282
-450.938	-116.263	-0.194	-0.036
-449.924	-88.271	0.117	0.035
-448.909	264.880	-0.009	0.016
-447.895	-119.463	-0.199	0.035
-446.880	-44.894	-0.362	-0.182
-445.865	800.000	-0.039	-0.161
-444.851	137.271	0.062	0.082
-443.836	119.165	-0.037	-0.046
-442.822	-47.284	0.354	0.174
-441.807	-200.000	0.009	-0.247
-440.792	102.912	0.232	-0.274
-439.778	-200.000	-0.038	-0.289
-438.763	-52.132	0.250	-0.117
-437.749	436.629	-0.056	0.124
-436.734	18.020	0.427	-0.343
-435.719	-148.700	0.144	-0.012
-434.705	-200.000	0.038	0.246
-433.690	42.050	0.227	0.207
-432.676	-12.317	-0.178	0.117
-431.661	112.369	0.255	-0.311
-430.646	251.933	-0.092	0.159
-429.632	-200.000	-0.027	0.137
-428.617	-200.000	-0.040	0.290
-427.603	-57.227	-0.436	0.193
-426.588	-101.032	-0.162	-0.040
-425.573	-73.868	0.220	0.081
-424.559	-160.248	-0.336	0.018
-423.544	117.130	0.046	-0.057
-422.530	-200.000	0.046	0.283
-421.515	-112.204	-0.183	-0.037
-420.500	-148.946	0.189	0.015
-419.486	-96.393	0.167	-0.045
-418.471	544.442	0.115	0.277
-417.457	-200.000	-0.019	0.321
-416.442	-8.347	-0.247	-0.167
-415.428	542.933	0.047	-0.113
-414.413	-54.868	0.475	-0.216
-413.398	2.681	-0.122	-0.089
-412.384	800.000	-0.061	-0.250
-411.369	-69.147	0.040	-0.015
-410.355	-200.000	-0.019	-0.085
-409.340	-200.000	-0.035	0.204
-408.325	273.601	0.074	-0.132
-407.311	631.412	0.142	-0.362
-406.296	190.952	0.050	-0.076
-405.282	-162.660	0.146	0.007
-404.267	486.588	0.026	0.059
-403.252	91.439	-0.110	0.125
-402.238	-147.154	-0.187	0.016
-401.223	-3.804	0.290	-0.203
-400.209	-86.329	-0.254	0.079
-399.194	19.770	-0.148	0.120
-398.179	-200.000	0.003	-0.187
-397.165	-38.338	-0.268	-0.143
-396.150	-159.336	-0.364	0.021
-395.136	-3.785	-0.179	-0.125
-394.121	70.645	-0.101	-0.105
-393.106	-146.644	0.245	-0.021
-392.092	421.678	-0.094	-0.203
-391.077	-175.096	0.092	-0.003
-390.063	-200.000	0.023	-0.180
-389.048	-115.821	0.181	-0.034
-388.033	87.291	-0.094	-0.104
-387.019	-8.406	0.158	-0.107
-386.004	138.555	0.183	0.242
-384.990	-180.172	-0.290	0.006
-383.975	-200.000	0.033	-0.213
-382.960	-170.744	0.194	-0.007
-381.946	800.000	0.024	0.077
-380.931	800.000	-0.006	0.026
-379.917	-200.000	-0.023	-0.166
-378.902	-54.187	-0.042	0.019
-377.888	345.975	-0.084	0.167
-376.873	-76.833	-0.408	-0.144
-375.858	393.021	0.087	-0.183
-374.844	27.599	-0.169	0.143
-373.829	-89.248	0.185	0.055
-372.815	-172.085	0.080	0.003
-371.800	-182.539	0.157	0.003
-370.785	-200.000	0.018	-0.168
-369.771	346.287	-0.141	-0.279
-368.756	-26.384	0.082	0.048
-367.742	6.348	0.274	0.205
-366.727	166.138	-0.090	-0.129
-365.712	87.819	0.110	0.123
-364.698	5.458	0.157	0.117
-363.683	221.208	-0.110	0.177
-362.669	-62.123	-0.244	0.102
-361.654	-15.454	-0.113	0.073
-360.639	800.000	0.120	-0.452
-359.625	-60.129	0.290	-0.125
-358.610	-156.182	0.083	0.005
-357.596	425.945	0.002	0.004
-356.581	64.124	0.349	0.353
-355.566	428.018	-0.086	0.188
-354.552	-126.505	-0.166	-0.025
-353.537	-200.000	-0.000	-0.006
-352.523	-200.000	-0.029	0.187
-351.508	781.745	-0.122	0.336
-350.493	-10.209	-0.211	0.141
-349.479	-34.481	0.227	-0.125
-348.464	699.877	0.035	-0.092
-347.450	157.905	0.140	-0.195
-346.435	64.452	0.135	-0.137
-345.420	121.918	0.183	0.230
-344.406	450.193	-0.067	-0.149
-343.391	163.391	0.062	0.087
-342.377	-200.000	-0.059	0.347
-341.362	-124.554	-0.559	0.087
-340.348	413.064	0.094	-0.202
-339.333	-31.069	-0.171	0.097
-338.318	-129.318	-0.374	0.052
-337.304	-200.000	-0.038	0.248
-336.289	124.880	0.107	0.135
-335.275	1.100	0.250	0.180
-334.260	446.869	0.084	0.186
-333.245	-14.254	-0.143	0.092
-332.231	31.173	-0.083	-0.071
-331.216	734.703	-0.135	-0.362
-330.202	-33.309	0.063	0.035
-329.187	-109.493	0.399	0.085
-328.172	284.023	-0.093	0.167
-327.158	223.983	-0.110	-0.178
-326.143	-189.661	0.367	0.004
-325.129	800.000	0.043	-0.162
-324.114	37.739	0.155	0.138
-323.099	-74.168	0.087	0.032
-322.085	253.484	-0.112	-0.192
-321.070	134.741	-0.166	-0.216
-320.056	-21.071	0.106	-0.065
-319.041	-149.714	0.333	-0.026
-318.026	800.000	-0.087	0.325
-317.012	-103.595	-0.285	-0.067
-315.997	300.277	-0.304	-0.563
-314.983	7.927	0.302	-0.227
-313.968	-45.814	-0.093	0.046
-312.953	228.750	0.126	0.206
-311.939	-124.594	-0.177	-0.028
-310.924	277.847	0.083	-0.149
-309.910	-200.000	-0.054	-0.257
-308.895	178.219	-0.139	-0.203
-307.880	-63.656	-0.143	0.059
-306.866	-97.184	0.186	0.049
-305.851	94.043	-0.249	-0.283
-304.837	123.993	-0.140	0.176
-303.822	-34.732	0.049	-0.027
-302.807	103.962	0.032	-0.038
-301.793	800.000	-0.035	-0.142
-300.778	-77.132	0.444	-0.155
-299.764	800.000	-0.094	-0.261
-298.749	577.036	0.132	-0.325
-297.735	-35.590	-0.093	-0.050
-296.720	-200.000	0.002	-0.438
-295.705	-181.140	-0.062	-0.001
-294.691	335.051	-0.085	-0.166
-293.676	800.000	-0.042	0.172
-292.662	-200.000	0.040	-0.318
-291.647	-76.383	0.194	0.068
-290.632	176.099	0.130	0.189
-289.618	552.175	0.099	0.238
-288.603	241.292	0.099	0.166
-287.589	800.000	0.040	0.167
-286.574	-82.938	0.271	-0.088
-285.559	-44.879	-0.061	0.031
-284.545	18.854	-0.268	0.216
-283.530	-79.932	-0.180	-0.061
-282.516	92.197	-0.168	-0.189
-281.501	-48.837	0.138	0.066
-280.486	205.891	0.037	-0.058
-279.472	62.164	-0.092	-0.092
-278.457	800.000	-0.082	0.259
-277.443	-124.697	-0.249	-0.039
-276.428	126.455	-0.162	-0.206
-275.413	-200.000	-0.027	0.131
-274.399	-200.000	-0.046	0.246
-273.384	98.200	-0.176	0.203
-272.370	-200.000	-0.014	0.225
-271.355	33.102	-0.369	0.321
-270.340	-108.163	0.097	0.021
-269.326	-88.442	0.124	0.037
-268.311	-200.000	-0.046	0.432
-267.297	3.553	0.060	-0.044
-266.282	440.088	-0.080	0.176
-265.267	-200.000	0.014	0.155
-264.253	-21.301	-0.122	-0.075
-263.238	58.216	-0.105	0.103
-262.224	211.494	0.123	0.194
-261.209	-167.030	0.165	-0.007
-260.195	-2.837	-0.197	0.138
-259.180	-46.914	0.218	0.107
-258.165	132.939	0.183	0.237
-257.151	-21.988	0.083	-0.050
-256.136	717.766	0.035	0.094
-255.122	-200.000	0.048	0.483
-254.107	13.844	0.167	0.130
-253.092	-4.242	0.145	-0.100
-252.078	79.369	0.075	-0.080
-251.063	-122.299	-0.118	0.019
-250.049	406.976	-0.040	0.084
-249.034	-200.000	0.005	0.097
-248.019	693.893	-0.027	0.072
-247.005	-171.471	0.176	0.006
-245.990	769.785	0.068	-0.186
-244.976	-200.000	-0.050	-0.266
-243.961	284.062	-0.100	0.181
-242.946	800.000	0.103	0.293
-241.932	113.302	0.082	0.099
-240.917	-82.859	-0.308	0.100
-239.903	-101.749	0.016	0.004
-238.888	9.675	-0.117	-0.089
-237.873	-200.000	0.065	-0.329
-236.859	800.000	-0.035	0.144
-235.844	-77.711	0.147	0.051
-234.830	-61.928	-0.048	0.020
-233.815	310.492	-0.200	-0.375
-232.800	-200.000	-0.020	-0.191
-231.786	264.837	0.017	-0.030
-230.771	492.528	-0.079	-0.182
-229.757	-200.000	0.004	0.398
-228.742	128.252	-0.157	0.200
-227.727	800.000	-0.093	0.287
-226.713	-138.526	0.200	0.022
-225.698	156.159	0.124	-0.171
-224.684	-124.730	0.537	0.083
-223.669	800.000	0.037	-0.154
-222.655	143.005	-0.164	-0.218
-221.640	270.452	-0.147	-0.259
-220.625	-25.198	0.040	0.024
-219.611	-125.999	0.181	0.027
-218.596	112.945	-0.173	0.209
-217.582	-82.509	0.167	0.054
-216.567	110.160	0.219	-0.263
-215.552	30.745	0.279	0.239
-214.538	-11.380	0.189	-0.124
-213.523	57.716	0.166	0.162
-212.509	-200.000	-0.007	0.279
-211.494	-200.000	0.024	0.126
-210.479	95.130	-0.117	-0.133
-209.465	346.923	-0.052	0.102
-208.450	-200.000	-0.018	-0.327
-207.436	186.107	0.088	0.131
-206.421	800.000	-0.113	0.322
-205.406	800.000	0.041	-0.129
-204.392	-113.092	-0.103	0.020
-203.377	117.274	0.154	0.189
-202.363	461.167	-0.051	0.113
-201.348	34.343	0.085	-0.074
-200.333	-200.000	0.006	0.086
-199.319	231.295	0.099	-0.162
-198.304	800.000	0.067	0.222
-197.290	800.000	0.049	0.147
-196.275	532.220	0.128	0.302
-195.260	-7.627	0.051	-0.034
-194.246	-200.000	-0.020	0.175
-193.231	488.870	-0.107	-0.245
-192.217	71.533	-0.284	-0.294
-191.202	800.000	0.061	-0.210
-190.187	-60.673	0.056	0.024
-189.173	800.000	-0.031	-0.132
-188.158	51.826	-0.333	0.317
-187.144	800.000	0.016	0.068
-186.129	-59.587	0.310	-0.133
-185.114	58.461	-0.130	-0.127
-184.100	98.230	-0.185	-0.213
-183.085	94.223	-0.119	-0.135
-182.071	800.000	-0.084	-0.334
-181.056	-45.929	0.392	0.193
-180.042	-126.388	-0.343	0.051
-179.027	375.037	0.051	-0.105
-178.012	800.000	-0.049	-0.152
-176.998	-163.014	-0.213	0.010
-175.983	157.827	0.107	-0.148
-174.969	800.000	0.083	0.264
-173.954	85.978	-0.098	-0.107
-172.939	-88.184	-0.196	-0.058
-171.925	-155.400	-0.223	-0.014
-170.910	195.792	0.115	-0.175
-169.896	-129.164	-0.489	0.068
-168.881	-98.265	0.285	0.073
-167.866	382.855	0.121	-0.248
-166.852	487.670	0.099	-0.226
-165.837	-95.190	0.095	0.025
-164.823	25.971	-0.286	-0.238
-163.808	308.641	0.123	0.229
-162.793	-200.000	0.021	0.226
-161.779	-200.000	-0.007	-0.180
-160.764	207.341	0.108	-0.168
-159.750	-200.000	0.057	0.286
-158.735	-120.785	0.170	0.029
-157.720	28.996	0.110	-0.093
-156.706	423.080	-0.104	-0.223
-155.691	-133.404	-0.090	0.011
-154.677	44.355	-0.024	0.022
-153.662	-200.000	-0.034	-0.253
-152.647	-107.562	-0.009	0.002
-151.633	-117.559	0.375	-0.068
-150.618	-116.861	0.239	0.044
-149.604	-200.000	-0.065	0.436
-148.589	-200.000	0.191	-0.000
-147.574	-200.000	-0.009	0.123
-146.560	-17.715	-0.079	0.049
-145.545	800.000	0.072	0.286
-144.531	97.862	0.061	0.070
-143.516	9.231	0.128	0.096
-142.502	272.261	0.181	-0.318
-141.487	-200.000	0.043	-0.297
-140.472	238.231	-0.166	-0.275
-139.458	-187.310	-0.325	0.004
-138.443	350.342	0.076	-0.150
-137.429	-52.856	-0.124	0.057
-136.414	-87.066	-0.181	-0.055
-135.399	800.000	0.106	-0.413
-134.385	-14.346	0.215	0.138
-133.370	-102.144	-0.098	-0.023
-132.356	-89.322	-0.264	-0.077
-131.341	-200.000	0.022	-0.154
-130.326	100.064	0.138	-0.160
-129.312	800.000	0.046	-0.150
-128.297	-200.000	0.005	-0.049
-127.283	40.300	0.112	-0.101
-126.268	162.892	-0.113	0.158
-125.253	206.331	-0.217	0.337
-124.239	88.940	-0.104	0.116
-123.224	69.469	0.227	-0.233
-122.210	-200.000	0.036	-0.398
-121.195	99.214	0.208	0.240
