DTS Sentinel unit serial number:	SN413079Multiplexer serial number:	ORYXHardware model number:	OX4-SRSoftware version number:	ORYX F/W v4.00 Oryx Data Collector v3.7.2.0data status	okinstallation	princeton_trtdifferential loss correction	single-endedforward channel	channel 4reverse channel	N/Adate	2019/09/19time	13:53:34forward acquisition time	60.00reverse acquisition time	0.00gamma	496.2192k internal	0.2309k external	0.2309temperature offset calibration	1.0018default loss term (dB/km)	0.3790temperature slope calibration	1.0000multiplexer offset coefficient	1.0000multiplexer slope coefficient	1.0000fibre end	0.00T internal ref (°C)	30.89T ext. ref 1 (°C)	1.00T ext. ref 2 (°C)	28.20length (m)	temperature (°C)	Stokes	anti-Stokes-747.200	251.805	0.133	0.230
-746.185	188.176	0.211	0.321
-745.171	-200.000	0.396	0.000
-744.156	94.579	0.026	0.030
-743.142	30.208	-0.052	-0.045
-742.127	-19.599	-0.292	0.183
-741.112	124.891	-0.104	0.132
-740.098	209.471	0.050	0.079
-739.083	-13.813	-0.204	0.134
-738.069	253.772	-0.112	0.195
-737.054	171.708	0.070	-0.102
-736.039	225.751	0.091	-0.150
-735.025	-41.409	0.364	0.190
-734.010	-53.400	-0.346	-0.161
-732.996	-200.000	-0.040	-0.427
-731.981	800.000	0.040	-0.173
-730.966	800.000	0.072	0.244
-729.952	-200.000	-0.019	-0.248
-728.937	-177.742	-0.477	-0.012
-727.923	-200.000	0.039	0.174
-726.908	-200.000	-0.006	0.137
-725.894	42.116	-0.057	-0.052
-724.879	-64.995	-0.090	0.037
-723.864	-70.017	-0.662	0.256
-722.850	-135.725	-0.227	-0.027
-721.835	-10.929	-0.074	-0.050
-720.821	35.187	-0.337	-0.300
-719.806	26.127	0.182	-0.154
-718.791	800.000	0.043	0.142
-717.777	-200.000	0.016	0.257
-716.762	-114.264	0.480	-0.094
-715.748	-200.000	-0.008	0.065
-714.733	68.973	0.092	0.095
-713.718	154.489	-0.097	-0.135
-712.704	5.418	0.153	0.115
-711.689	-100.518	0.217	0.054
-710.675	-40.097	-0.021	0.011
-709.660	800.000	0.061	0.197
-708.645	62.530	0.241	0.244
-707.631	716.335	0.088	0.237
-706.616	-59.500	-0.150	-0.066
-705.602	800.000	0.044	-0.158
-704.587	205.735	-0.185	-0.291
-703.572	-38.237	-0.080	0.043
-702.558	71.802	-0.290	-0.306
-701.543	76.378	-0.269	-0.289
-700.529	-43.502	-0.194	-0.099
-699.514	105.234	-0.159	-0.190
-698.499	-193.343	-0.165	-0.001
-697.485	665.184	-0.076	-0.199
-696.470	300.094	-0.116	0.217
-695.456	-19.106	0.211	0.133
-694.441	125.279	0.165	-0.211
-693.426	75.093	-0.195	0.208
-692.412	-21.320	0.372	0.230
-691.397	-79.687	0.276	-0.094
-690.383	-104.329	-0.182	-0.043
-689.368	-103.647	0.220	-0.052
-688.354	-153.433	0.378	0.027
-687.339	293.678	0.080	0.148
-686.324	-200.000	0.065	0.358
-685.310	-26.679	-0.231	0.137
-684.295	198.495	0.152	-0.235
-683.281	-58.859	-0.070	0.031
-682.266	548.861	-0.135	-0.328
-681.251	-1.859	-0.033	-0.023
-680.237	-50.680	-0.348	0.166
-679.222	228.571	-0.061	-0.102
-678.208	-16.456	-0.289	-0.186
-677.193	-200.000	-0.015	0.099
-676.178	-85.742	0.418	-0.131
-675.164	12.767	0.216	-0.169
-674.149	212.310	-0.205	-0.327
-673.135	199.774	-0.194	0.301
-672.120	800.000	0.045	0.156
-671.105	-200.000	0.070	-0.463
-670.091	-200.000	-0.073	-0.433
-669.076	458.700	-0.157	-0.355
-668.062	-200.000	0.005	-0.079
-667.047	-149.683	-0.269	-0.021
-666.032	800.000	-0.100	-0.407
-665.018	35.568	-0.233	0.207
-664.003	571.839	-0.057	-0.141
-662.989	358.518	0.081	-0.163
-661.974	-173.873	-0.187	-0.006
-660.959	14.350	0.278	-0.220
-659.945	-44.304	0.144	0.073
-658.930	-200.000	-0.043	-0.224
-657.916	-103.126	0.051	0.012
-656.901	410.562	0.121	-0.259
-655.886	-12.689	0.205	0.136
-654.872	-41.513	-0.220	-0.114
-653.857	-124.312	-0.035	0.006
-652.843	-94.415	-0.088	-0.024
-651.828	-106.872	0.452	0.101
-650.814	65.784	0.264	0.271
-649.799	-127.258	-0.152	-0.023
-648.784	-200.000	0.007	0.121
-647.770	-12.676	0.120	-0.079
-646.755	800.000	0.076	-0.250
-645.741	-31.095	0.213	-0.122
-644.726	-78.011	-0.242	0.084
-643.711	54.501	0.317	-0.309
-642.697	246.010	0.069	0.117
-641.682	300.759	0.154	0.288
-640.668	-200.000	-0.009	0.096
-639.653	-128.622	-0.062	-0.009
-638.638	129.225	-0.177	-0.229
-637.624	129.678	-0.018	0.024
-636.609	20.129	0.181	0.148
-635.595	241.286	-0.081	0.136
-634.580	-105.345	-0.363	0.084
-633.565	348.545	0.052	0.103
-632.551	16.100	-0.170	0.136
-631.536	238.169	-0.220	-0.370
-630.522	-200.000	0.002	-0.147
-629.507	760.313	-0.140	0.383
-628.492	-67.425	0.184	0.073
-627.478	-200.000	-0.031	-0.228
-626.463	-15.499	-0.143	0.092
-625.449	-170.950	-0.249	-0.009
-624.434	152.698	0.188	-0.260
-623.419	800.000	0.022	-0.080
-622.405	-49.566	-0.202	0.097
-621.390	9.909	0.295	0.226
-620.376	800.000	-0.023	0.078
-619.361	330.198	0.181	0.353
-618.346	-200.000	0.012	0.353
-617.332	800.000	-0.032	-0.126
-616.317	-60.358	-0.564	-0.243
-615.303	97.087	0.053	-0.061
-614.288	-200.000	0.055	-0.374
-613.273	-137.088	0.234	0.027
-612.259	-120.516	-0.354	0.061
-611.244	-39.880	0.187	-0.098
-610.230	18.847	-0.062	0.050
-609.215	114.324	0.057	-0.070
-608.201	-200.000	-0.053	0.249
-607.186	-151.421	0.093	0.007
-606.171	800.000	-0.052	-0.162
-605.157	3.956	-0.204	0.151
-604.142	-164.971	-0.140	0.006
-603.128	302.411	-0.148	-0.276
-602.113	-58.241	-0.225	-0.099
-601.098	1.963	-0.019	-0.014
-600.084	453.374	-0.061	-0.136
-599.069	78.517	0.068	0.073
-598.055	800.000	0.042	-0.176
-597.040	4.503	-0.169	-0.125
-596.025	-45.319	0.254	-0.127
-595.011	-79.105	-0.165	-0.056
-593.996	602.048	0.133	0.335
-592.982	-200.000	0.021	-0.155
-591.967	-190.948	-0.161	-0.002
-590.952	373.746	-0.222	0.457
-589.938	-88.396	-0.095	-0.029
-588.923	199.351	-0.158	0.244
-587.909	354.102	-0.016	0.031
-586.894	-120.846	0.453	-0.077
-585.879	-83.170	0.308	0.100
-584.865	-89.439	0.160	-0.047
-583.850	-107.429	-0.320	0.071
-582.836	26.334	-0.202	-0.171
-581.821	92.684	-0.094	-0.107
-580.806	155.054	0.094	0.131
-579.792	37.414	0.264	-0.236
-578.777	-21.194	-0.061	-0.037
-577.763	800.000	0.026	-0.082
-576.748	800.000	-0.018	-0.070
-575.733	-152.264	-0.388	0.028
-574.719	-123.883	0.158	-0.025
-573.704	-200.000	-0.004	-0.114
-572.690	800.000	0.044	-0.182
-571.675	800.000	0.043	-0.166
-570.661	800.000	-0.077	-0.258
-569.646	-79.896	0.177	-0.060
-568.631	128.665	0.144	0.185
-567.617	429.654	0.074	-0.161
-566.602	-156.857	-0.335	0.021
-565.588	-200.000	-0.008	0.073
-564.573	-200.000	-0.082	-0.371
-563.558	-166.568	0.196	0.008
-562.544	-82.549	-0.269	-0.088
-561.529	524.529	0.039	0.092
-560.515	42.853	0.131	-0.120
-559.500	-74.000	0.119	-0.043
-558.485	279.437	0.071	-0.127
-557.471	-178.169	0.340	-0.008
-556.456	-200.000	0.004	0.036
-555.442	-99.883	-0.335	0.084
-554.427	-200.000	-0.019	-0.326
-553.412	412.367	-0.195	-0.419
-552.398	254.698	0.057	-0.098
-551.383	-200.000	0.007	0.099
-550.369	212.177	0.066	-0.106
-549.354	-99.821	0.071	-0.018
-548.339	-47.126	-0.230	0.113
-547.325	28.880	-0.269	-0.230
-546.310	-200.000	-0.066	-0.304
-545.296	393.339	0.060	-0.125
-544.281	-120.535	-0.205	0.035
-543.266	800.000	0.005	-0.015
-542.252	58.005	-0.044	0.044
-541.237	-67.772	0.086	-0.034
-540.223	-76.622	-0.050	-0.018
-539.208	-200.000	-0.045	-0.259
-538.193	-66.199	0.241	0.097
-537.179	-54.866	-0.358	-0.163
-536.164	-103.208	0.126	0.030
-535.150	-200.000	-0.002	0.229
-534.135	-200.000	-0.012	-0.138
-533.121	702.845	-0.092	0.243
-532.106	417.349	0.095	-0.204
-531.091	-200.000	0.041	-0.228
-530.077	-140.859	0.041	-0.004
-529.062	456.542	-0.073	0.162
-528.048	-6.398	-0.159	0.109
-527.033	103.796	0.282	-0.334
-526.018	-48.226	-0.353	-0.171
-525.004	0.082	0.230	0.165
-523.989	460.925	-0.079	0.177
-522.975	-63.506	0.126	0.052
-521.960	-200.000	-0.048	0.337
-520.945	-21.597	0.073	0.045
-519.931	-47.512	0.185	0.090
-518.916	-147.319	0.062	0.005
-517.902	87.814	-0.112	-0.125
-516.887	-200.000	0.064	0.337
-515.872	179.504	-0.030	-0.045
-514.858	113.516	0.152	0.186
-513.843	-48.914	-0.109	0.053
-512.829	-128.654	0.030	0.004
-511.814	25.074	0.143	-0.120
-510.799	-42.500	-0.167	-0.086
-509.785	34.587	-0.140	0.123
-508.770	-200.000	0.004	-0.196
-507.756	277.724	0.148	-0.265
-506.741	800.000	-0.071	0.259
-505.726	-200.000	-0.000	-0.017
-504.712	-75.769	0.063	-0.022
-503.697	-145.493	-0.141	0.013
-502.683	-87.437	0.114	0.035
-501.668	-200.000	-0.019	-0.329
-500.653	421.803	0.041	0.090
-499.639	-56.784	-0.327	0.146
-498.624	37.589	-0.156	0.140
-497.610	105.105	0.200	-0.238
-496.595	-89.197	-0.397	0.118
-495.581	-111.382	-0.028	0.006
-494.566	8.875	-0.247	-0.187
-493.551	569.190	0.160	-0.391
-492.537	-78.063	-0.148	-0.051
-491.522	60.401	0.072	-0.072
-490.508	229.121	0.189	0.311
-489.493	-118.980	-0.330	0.058
-488.478	143.210	-0.166	0.222
-487.464	-200.000	-0.026	0.120
-486.449	-21.030	0.151	-0.093
-485.435	-200.000	-0.034	-0.215
-484.420	67.244	-0.035	-0.036
-483.405	800.000	-0.092	0.267
-482.391	2.794	-0.090	-0.066
-481.376	-200.000	0.015	-0.278
-480.362	525.852	-0.135	-0.319
-479.347	-127.239	-0.323	-0.047
-478.332	-60.330	-0.349	0.149
-477.318	-107.526	-0.110	0.024
-476.303	800.000	0.013	-0.050
-475.289	-79.048	0.405	0.138
-474.274	399.618	0.037	-0.077
-473.259	-81.656	0.021	-0.007
-472.245	-116.378	-0.079	0.015
-471.230	66.689	0.120	0.122
-470.216	395.996	0.117	-0.246
-469.201	-128.443	0.139	0.020
-468.186	-200.000	-0.007	-0.128
-467.172	-82.572	-0.254	-0.083
-466.157	-168.689	0.158	-0.006
-465.143	-65.349	-0.381	-0.154
-464.128	-59.401	0.245	0.106
-463.113	-140.658	0.441	0.046
-462.099	-200.000	0.002	0.245
-461.084	91.077	0.119	-0.134
-460.070	-200.000	-0.005	-0.139
-459.055	-66.521	-0.261	-0.104
-458.040	102.897	-0.165	0.194
-457.026	-80.364	0.389	-0.131
-456.011	9.836	-0.084	-0.064
-454.997	8.886	-0.160	-0.121
-453.982	800.000	0.080	0.268
-452.968	-200.000	0.112	0.512
-451.953	-200.000	-0.041	-0.286
-450.938	-161.441	-0.343	-0.018
-449.924	353.362	0.120	-0.239
-448.909	10.676	-0.184	-0.141
-447.895	-109.761	-0.166	0.035
-446.880	105.858	0.106	-0.125
-445.865	-200.000	0.012	0.211
-444.851	139.070	-0.089	-0.118
-443.836	-196.048	-0.094	-0.001
-442.822	81.693	-0.242	0.263
-441.807	45.391	0.137	-0.127
-440.792	780.713	0.092	0.252
-439.778	595.350	-0.076	0.190
-438.763	-57.137	-0.171	-0.076
-437.749	424.934	0.107	-0.232
-436.734	-117.122	-0.249	-0.046
-435.719	-89.105	0.126	-0.037
-434.705	242.873	0.160	-0.268
-433.690	220.599	-0.265	0.426
-432.676	800.000	-0.020	-0.068
-431.661	48.037	-0.230	0.215
-430.646	-57.216	0.293	-0.129
-429.632	100.346	0.280	-0.326
-428.617	44.157	-0.030	-0.028
-427.603	24.110	-0.170	0.141
-426.588	800.000	-0.092	0.359
-425.573	-5.946	-0.130	0.089
-424.559	-200.000	-0.036	0.319
-423.544	-161.022	0.173	0.009
-422.530	69.173	-0.177	-0.183
-421.515	-200.000	0.020	0.125
-420.500	152.704	0.145	-0.199
-419.486	800.000	-0.090	-0.284
-418.471	110.881	-0.305	-0.369
-417.457	-111.910	0.284	-0.057
-416.442	-36.428	0.228	0.123
-415.428	-200.000	-0.071	0.000
-414.413	181.742	-0.033	-0.049
-413.398	227.337	-0.125	0.204
-412.384	-42.194	0.193	-0.099
-411.369	-56.710	0.329	0.146
-410.355	83.612	0.207	0.226
-409.340	-72.691	-0.102	-0.038
-408.325	-200.000	0.000	0.254
-407.311	-116.765	-0.278	-0.051
-406.296	4.683	0.125	0.092
-405.282	24.161	0.287	-0.237
-404.267	800.000	-0.090	-0.334
-403.252	-8.798	-0.175	-0.117
-402.238	-200.000	0.036	0.334
-401.223	-180.332	0.180	-0.004
-400.209	-41.837	-0.278	-0.143
-399.194	102.599	0.281	-0.330
-398.179	-116.990	0.033	0.006
-397.165	568.010	-0.075	0.183
-396.150	-150.666	0.203	-0.016
-395.136	-166.740	-0.138	-0.006
-394.121	265.959	0.112	0.195
-393.106	-200.000	-0.011	-0.109
-392.092	56.764	0.116	-0.114
-391.077	308.173	0.074	0.137
-390.063	4.082	0.172	-0.126
-389.048	-200.000	0.017	0.192
-388.033	183.401	0.223	0.330
-387.019	-19.237	-0.219	0.136
-386.004	-200.000	-0.008	-0.078
-384.990	-122.754	-0.160	0.026
-383.975	716.128	0.044	0.118
-382.960	97.531	-0.085	-0.097
-381.946	-26.460	0.140	-0.082
-380.931	-94.180	0.115	0.032
-379.917	1.087	0.126	0.091
-378.902	-200.000	0.007	0.153
-377.888	-200.000	0.048	0.286
-376.873	-44.969	-0.189	0.094
-375.858	-200.000	-0.041	-0.349
-374.844	-40.985	-0.230	0.119
-373.829	-56.144	-0.125	-0.056
-372.815	317.511	0.020	-0.039
-371.800	800.000	-0.043	0.150
-370.785	112.928	0.378	-0.458
-369.771	-144.908	0.379	-0.035
-368.756	-96.104	0.152	0.040
-367.742	800.000	0.112	0.384
-366.727	-159.541	-0.017	0.001
-365.712	-153.035	0.320	0.023
-364.698	294.139	-0.038	0.069
-363.683	95.318	-0.033	0.037
-362.669	-97.481	0.133	-0.034
-361.654	115.209	-0.129	-0.157
-360.639	334.042	-0.137	-0.265
-359.625	356.396	-0.077	-0.154
-358.610	-29.112	-0.134	0.077
-357.596	225.629	0.128	-0.207
-356.581	800.000	0.053	-0.171
-355.566	171.810	-0.143	0.206
-354.552	111.939	0.220	-0.266
-353.537	310.555	-0.094	-0.176
-352.523	-12.801	0.138	0.090
-351.508	56.644	-0.170	-0.165
-350.493	273.971	-0.029	-0.052
-349.479	557.339	-0.090	-0.218
-348.464	159.180	-0.093	0.130
-347.450	800.000	-0.083	-0.282
-346.435	58.256	-0.160	0.156
-345.420	800.000	0.033	-0.115
-344.406	94.944	0.072	0.082
-343.391	14.013	0.250	0.195
-342.377	726.313	0.109	-0.290
-341.362	132.954	0.064	-0.082
-340.348	-126.234	-0.262	-0.039
-339.333	-191.547	-0.299	0.003
-338.318	408.317	0.181	0.382
-337.304	800.000	0.060	0.170
-336.289	-129.006	0.169	0.024
-335.275	641.772	0.078	-0.198
-334.260	800.000	-0.040	0.159
-333.245	-43.284	0.273	0.138
-332.231	-174.081	0.129	-0.004
-331.216	-200.000	-0.006	0.045
-330.202	-82.238	0.128	-0.042
-329.187	125.829	0.158	0.199
-328.172	368.946	0.103	-0.209
-327.158	-36.623	0.339	-0.182
-326.143	126.048	-0.283	-0.358
-325.129	72.889	-0.234	0.244
-324.114	-22.176	-0.044	0.026
-323.099	113.818	-0.072	0.087
-322.085	-41.530	0.200	0.103
-321.070	-153.868	0.200	0.014
-320.056	-52.600	-0.186	-0.086
-319.041	-128.712	0.180	0.025
-318.026	-200.000	-0.049	-0.233
-317.012	-112.476	-0.242	-0.048
-315.997	132.840	0.028	0.036
-314.983	68.670	0.090	0.093
-313.968	394.115	0.148	-0.307
-312.953	2.024	-0.127	0.091
-311.939	168.853	-0.196	0.279
-310.924	-138.506	0.142	0.016
-309.910	-200.000	0.018	0.437
-308.895	13.710	0.229	-0.178
-307.880	800.000	0.074	0.311
-306.866	5.697	0.128	-0.095
-305.851	-41.489	-0.320	-0.164
-304.837	-200.000	0.080	0.367
-303.822	103.831	-0.322	-0.378
-302.807	309.522	-0.193	-0.361
-301.793	-152.328	0.279	-0.020
-300.778	-113.080	-0.132	-0.026
-299.764	-5.968	-0.163	-0.111
-298.749	38.808	-0.177	-0.158
-297.735	55.383	0.161	0.156
-296.720	-200.000	-0.034	-0.169
-295.705	16.512	0.297	0.234
-294.691	-99.374	0.239	-0.060
-293.676	-129.795	0.211	0.029
-292.662	-122.813	-0.281	-0.045
-291.647	21.722	0.156	-0.127
-290.632	-28.118	0.303	-0.175
-289.618	350.154	-0.024	-0.048
-288.603	-200.000	0.027	-0.287
-287.589	170.938	0.056	-0.080
-286.574	29.572	-0.089	-0.075
-285.559	-200.000	-0.042	-0.377
-284.545	-17.276	0.253	0.159
-283.530	-33.414	0.350	0.193
-282.516	-20.346	-0.367	0.225
-281.501	800.000	0.017	-0.064
-280.486	-77.462	0.190	-0.066
-279.472	488.510	0.080	0.181
-278.457	-200.000	-0.060	0.441
-277.443	-110.679	0.373	0.077
-276.428	691.110	0.057	0.148
-275.413	-149.745	0.184	-0.014
-274.399	442.055	0.084	-0.183
-273.384	120.581	0.136	0.169
-272.370	626.830	-0.050	0.126
-271.355	50.662	0.265	0.250
-270.340	-113.870	0.081	-0.016
-269.326	-62.146	-0.088	-0.037
-268.311	-200.000	-0.050	0.218
-267.297	560.404	0.072	0.174
-266.282	-22.038	-0.201	-0.122
-265.267	-75.078	0.345	0.123
-264.253	-5.536	0.090	-0.062
-263.238	73.479	-0.193	0.202
-262.224	-200.000	-0.022	0.265
-261.209	241.602	0.065	0.108
-260.195	-200.000	-0.027	-0.233
-259.180	-147.097	0.344	0.029
-258.165	74.942	0.113	-0.118
-257.151	382.384	0.087	0.178
-256.136	-28.548	0.052	-0.030
-255.122	-200.000	0.117	-0.514
-254.107	436.002	0.141	-0.306
-253.092	71.718	-0.046	0.048
-252.078	-200.000	-0.005	0.288
-251.063	-29.908	0.152	0.086
-250.049	463.517	-0.170	-0.379
-249.034	264.493	-0.067	-0.116
-248.019	384.176	0.171	0.352
-247.005	-150.540	0.238	-0.018
-245.990	249.125	-0.062	-0.105
-244.976	-180.414	-0.125	-0.003
-243.961	29.331	0.069	0.059
-242.946	90.494	-0.238	0.266
-241.932	-200.000	0.010	0.254
-240.917	-84.033	-0.467	0.148
-239.903	147.727	-0.213	-0.286
-238.888	800.000	0.114	-0.330
-237.873	-50.733	0.219	-0.103
-236.859	93.359	-0.201	-0.227
-235.844	-200.000	-0.054	0.275
-234.830	-200.000	0.000	0.147
-233.815	-29.733	0.219	0.124
-232.800	-36.766	0.189	0.101
-231.786	-44.576	-0.314	0.156
-230.771	8.983	-0.117	0.088
-229.757	-126.036	0.163	-0.024
-228.742	257.074	0.196	0.336
-227.727	263.133	-0.156	0.269
-226.713	-116.560	0.132	0.024
-225.698	800.000	0.119	-0.372
-224.684	-140.068	0.098	0.010
-223.669	50.055	0.213	0.200
-222.655	-200.000	-0.051	0.293
-221.640	19.964	0.113	0.091
-220.625	-61.456	-0.008	0.003
-219.611	-111.052	0.175	0.036
-218.596	-200.000	0.024	-0.125
-217.582	-50.914	-0.201	0.094
-216.567	270.834	-0.134	0.235
-215.552	40.107	-0.115	0.103
-214.538	239.705	-0.216	0.358
-213.523	-144.678	-0.356	-0.033
-212.509	-136.961	0.066	-0.007
-211.494	-109.056	-0.431	0.091
-210.479	-180.032	0.081	0.002
-209.465	203.729	0.109	-0.168
-208.450	-136.239	-0.099	-0.011
-207.436	133.095	-0.070	0.090
-206.421	741.213	-0.008	0.020
-205.406	-162.110	0.368	-0.018
-204.392	-99.290	-0.092	0.023
-203.377	-57.965	-0.339	0.147
-202.363	-200.000	-0.017	0.152
-201.348	102.966	-0.248	0.289
-200.333	-55.206	-0.134	0.060
-199.319	73.473	-0.163	0.169
-198.304	80.143	-0.102	-0.109
-197.290	-48.277	0.296	0.142
-196.275	-59.506	0.130	-0.055
-195.260	133.216	-0.228	0.293
-194.246	470.623	0.059	-0.133
-193.231	-146.219	-0.061	-0.005
-192.217	800.000	-0.052	-0.193
-191.202	-200.000	0.060	0.278
-190.187	334.421	-0.036	-0.070
-189.173	-18.710	0.090	0.056
-188.158	-61.497	-0.294	-0.123
-187.144	-200.000	-0.054	0.295
-186.129	396.279	0.135	0.280
-185.114	-90.383	-0.103	-0.030
-184.100	313.410	0.221	-0.413
-183.085	-176.590	-0.152	0.004
-182.071	441.544	-0.118	-0.258
-181.056	-111.722	0.175	0.035
-180.042	429.211	0.137	0.293
-179.027	-81.360	-0.022	-0.007
-178.012	-200.000	0.010	-0.302
-176.998	-200.000	-0.002	0.327
-175.983	800.000	0.006	0.024
-174.969	-80.966	-0.319	0.105
-173.954	9.284	0.157	-0.118
-172.939	-15.221	0.096	0.061
-171.925	178.446	0.214	0.311
-170.910	639.778	0.069	0.175
-169.896	519.085	-0.078	0.181
-168.881	-200.000	-0.011	-0.252
-167.866	800.000	0.083	0.281
-166.852	133.582	0.155	-0.199
-165.837	-97.589	-0.324	-0.083
-164.823	164.076	0.084	-0.118
-163.808	-57.245	0.306	-0.134
-162.793	-142.363	0.350	0.034
-161.779	-8.607	0.276	0.184
-160.764	-146.549	-0.220	0.019
-159.750	76.340	0.180	-0.189
-158.735	199.410	0.038	0.058
-157.720	-200.000	0.018	-0.203
-156.706	-200.000	0.047	0.234
-155.691	800.000	-0.095	-0.283
-154.677	24.439	-0.148	0.122
-153.662	-103.445	-0.314	0.073
-152.647	-108.639	-0.193	-0.041
-151.633	-40.292	-0.147	-0.076
-150.618	-64.710	-0.245	0.099
-149.604	28.057	0.221	-0.185
-148.589	392.296	0.127	-0.262
-147.574	-56.273	-0.174	-0.077
-146.560	-200.000	-0.022	0.207
-145.545	-156.273	0.227	0.014
-144.531	-115.195	0.290	0.054
-143.516	-51.800	-0.335	-0.155
-142.502	72.313	0.119	0.123
-141.487	-200.000	0.048	-0.367
-140.472	31.071	0.292	-0.249
-139.458	125.847	0.134	0.168
-138.443	-200.000	0.030	-0.241
-137.429	800.000	0.090	-0.269
-136.414	103.135	0.151	-0.176
-135.399	146.158	0.164	0.219
-134.385	-200.000	0.110	0.531
-133.370	-124.722	0.073	-0.011
-132.356	-200.000	-0.008	0.274
-131.341	301.409	-0.122	0.223
-130.326	187.501	0.153	0.227
-129.312	-200.000	0.033	-0.242
-128.297	-200.000	-0.019	-0.254
-127.283	128.072	-0.247	0.312
-126.268	-47.376	-0.092	0.044
-125.253	-29.255	0.168	-0.096
-124.239	-200.000	-0.323	0.001
-123.224	-37.586	0.173	0.091
-122.210	-36.390	0.105	0.056
-121.195	-85.401	0.245	0.076
