DTS Sentinel unit serial number:	SN413079Multiplexer serial number:	ORYXHardware model number:	OX4-SRSoftware version number:	ORYX F/W v4.00 Oryx Data Collector v3.7.2.0data status	okinstallation	princeton_trtdifferential loss correction	single-endedforward channel	channel 4reverse channel	N/Adate	2019/09/18time	00:41:35forward acquisition time	60.00reverse acquisition time	0.00gamma	496.2192k internal	0.2333k external	0.2333temperature offset calibration	0.9998default loss term (dB/km)	0.3790temperature slope calibration	1.0000multiplexer offset coefficient	1.0000multiplexer slope coefficient	1.0000fibre end	0.00T internal ref (°C)	23.44T ext. ref 1 (°C)	0.17T ext. ref 2 (°C)	17.06length (m)	temperature (°C)	Stokes	anti-Stokes-747.200	-54.911	0.382	0.173
-746.185	218.072	0.196	-0.314
-745.171	273.387	-0.102	-0.181
-744.156	128.480	0.133	0.171
-743.142	-84.500	0.164	0.052
-742.127	442.695	-0.071	-0.155
-741.112	-51.884	-0.293	-0.137
-740.098	693.460	0.070	0.184
-739.083	86.591	0.217	-0.241
-738.069	-67.838	-0.279	0.110
-737.054	658.255	-0.117	-0.303
-736.039	-88.311	-0.265	0.080
-735.025	17.469	0.149	0.119
-734.010	-43.272	-0.478	-0.243
-732.996	513.431	-0.099	0.231
-731.981	-96.398	-0.387	0.103
-730.966	-163.104	0.100	0.005
-729.952	-47.191	-0.104	0.051
-728.937	-57.002	-0.211	0.094
-727.923	-148.121	0.285	0.024
-726.908	-103.410	-0.164	-0.039
-725.894	252.318	-0.156	-0.266
-724.879	-147.447	-0.407	0.035
-723.864	-200.000	-0.018	0.136
-722.850	-93.686	0.588	-0.163
-721.835	-53.838	-0.221	-0.101
-720.821	-111.943	-0.478	-0.097
-719.806	-39.330	-0.316	0.167
-718.791	659.840	-0.038	-0.098
-717.777	19.539	0.358	-0.289
-716.762	-25.390	-0.312	-0.185
-715.748	-2.839	-0.072	-0.050
-714.733	85.072	-0.132	-0.146
-713.718	42.185	-0.414	0.378
-712.704	60.808	0.102	-0.101
-711.689	305.618	-0.181	-0.338
-710.675	300.232	-0.027	-0.049
-709.660	213.060	0.203	0.322
-708.645	39.829	-0.090	-0.081
-707.631	19.513	0.233	0.188
-706.616	259.455	-0.077	-0.133
-705.602	42.435	0.072	-0.066
-704.587	1.692	-0.109	-0.079
-703.572	-55.353	-0.299	-0.135
-702.558	78.392	-0.107	-0.115
-701.543	207.717	-0.136	-0.213
-700.529	-64.209	0.351	0.144
-699.514	-31.382	0.088	0.050
-698.499	-175.184	0.354	-0.010
-697.485	325.706	-0.078	-0.149
-696.470	-47.704	-0.141	0.069
-695.456	-200.000	-0.037	-0.255
-694.441	307.604	-0.114	0.213
-693.426	138.472	0.141	-0.186
-692.412	-99.706	-0.080	0.020
-691.397	-75.656	-0.182	-0.065
-690.383	-110.489	0.210	0.044
-689.368	60.996	-0.178	-0.177
-688.354	-60.257	-0.113	-0.048
-687.339	-127.100	-0.317	0.047
-686.324	-200.000	0.015	0.083
-685.310	777.261	0.065	-0.177
-684.295	-70.726	0.332	-0.126
-683.281	123.119	0.059	0.074
-682.266	-34.659	-0.256	0.140
-681.251	191.749	0.123	0.185
-680.237	-200.000	0.042	-0.302
-679.222	-67.500	0.078	0.031
-678.208	-132.646	-0.144	0.019
-677.193	296.744	-0.168	-0.309
-676.178	404.365	0.066	0.139
-675.164	121.199	-0.168	0.210
-674.149	86.532	-0.174	-0.193
-673.135	-183.168	-0.273	0.005
-672.120	-200.000	-0.080	-0.397
-671.105	-79.170	-0.269	-0.092
-670.091	-200.000	0.037	0.223
-669.076	17.478	-0.260	-0.207
-668.062	-200.000	0.024	0.184
-667.047	800.000	0.023	-0.085
-666.032	800.000	-0.044	0.194
-665.018	302.862	-0.036	-0.066
-664.003	-35.813	-0.119	0.065
-662.989	278.993	0.056	0.100
-661.974	-200.000	0.023	-0.488
-660.959	156.114	-0.221	-0.305
-659.945	295.001	0.077	-0.140
-658.930	25.219	-0.104	-0.086
-657.916	258.767	-0.159	-0.274
-656.901	202.888	-0.205	-0.318
-655.886	-200.000	0.065	-0.377
-654.872	-30.545	-0.253	-0.144
-653.857	-140.917	-0.189	-0.019
-652.843	-145.056	-0.182	0.017
-651.828	70.171	0.218	0.226
-650.814	91.845	0.198	-0.224
-649.799	-167.716	0.029	0.001
-648.784	107.553	-0.061	0.073
-647.770	712.693	0.140	-0.370
-646.755	297.001	-0.101	-0.185
-645.741	78.006	-0.221	-0.236
-644.726	-200.000	-0.016	0.176
-643.711	-13.645	-0.161	-0.104
-642.697	-150.715	-0.236	-0.018
-641.682	-4.178	0.067	0.046
-640.668	-200.000	-0.076	-0.445
-639.653	20.803	-0.035	-0.029
-638.638	56.699	-0.265	-0.258
-637.624	-166.531	-0.376	0.016
-636.609	800.000	0.041	-0.167
-635.595	571.780	-0.092	-0.224
-634.580	-134.550	0.144	-0.018
-633.565	800.000	-0.026	-0.103
-632.551	121.084	0.104	-0.130
-631.536	-128.736	0.061	-0.009
-630.522	217.405	-0.097	0.155
-629.507	-37.965	-0.186	0.099
-628.492	394.171	0.193	-0.402
-627.478	-29.234	0.245	0.141
-626.463	800.000	-0.113	-0.375
-625.449	-156.669	0.515	0.032
-624.434	-73.932	-0.232	0.084
-623.419	-109.009	0.160	-0.034
-622.405	135.847	-0.096	0.125
-621.390	-0.487	0.065	0.046
-620.376	282.186	-0.064	0.116
-619.361	191.111	0.082	-0.124
-618.346	-147.627	0.165	0.014
-617.332	87.342	0.053	-0.059
-616.317	62.102	0.266	-0.266
-615.303	-51.588	-0.205	-0.096
-614.288	-89.303	-0.137	0.040
-613.273	-200.000	0.014	-0.196
-612.259	37.395	-0.355	0.315
-611.244	84.326	0.054	-0.059
-610.230	-200.000	-0.027	-0.120
-609.215	-139.167	0.175	-0.019
-608.201	14.003	0.085	0.066
-607.186	-161.578	0.309	0.016
-606.171	-18.666	-0.146	0.091
-605.157	-200.000	0.008	-0.077
-604.142	263.496	-0.167	-0.291
-603.128	185.218	0.156	0.232
-602.113	36.385	0.056	0.050
-601.098	-128.113	-0.303	0.043
-600.084	-200.000	0.060	-0.458
-599.069	800.000	0.013	0.051
-598.055	-97.835	0.044	0.011
-597.040	-160.981	-0.159	-0.008
-596.025	-200.000	-0.047	0.209
-595.011	-76.034	0.083	-0.029
-593.996	-74.225	-0.131	-0.047
-592.982	-104.969	-0.354	-0.081
-591.967	-198.508	0.146	0.001
-590.952	50.559	-0.273	0.258
-589.938	-129.907	0.037	0.005
-588.923	715.297	0.031	0.083
-587.909	-114.159	-0.215	-0.041
-586.894	182.285	-0.067	-0.098
-585.879	1.955	0.154	0.111
-584.865	-102.807	-0.174	-0.041
-583.850	-200.000	0.025	-0.135
-582.836	-63.613	0.151	0.062
-581.821	0.493	-0.192	0.137
-580.806	23.773	-0.314	-0.259
-579.792	652.896	-0.056	-0.142
-578.777	7.890	0.062	0.046
-577.763	-9.373	-0.325	0.217
-576.748	-200.000	0.011	-0.180
-575.733	-200.000	0.035	0.375
-574.719	-106.598	0.116	-0.026
-573.704	666.610	0.134	-0.346
-572.690	12.813	0.084	-0.065
-571.675	-72.518	0.081	0.030
-570.661	166.666	0.132	-0.187
-569.646	236.168	-0.177	0.293
-568.631	14.394	-0.055	-0.043
-567.617	-143.507	0.169	-0.016
-566.602	-96.620	-0.088	0.023
-565.588	-200.000	-0.002	-0.121
-564.573	-200.000	-0.046	0.290
-563.558	445.112	-0.127	0.278
-562.544	800.000	-0.067	0.214
-561.529	800.000	-0.100	0.345
-560.515	81.782	-0.339	-0.366
-559.500	-158.283	0.070	0.004
-558.485	-200.000	-0.003	0.284
-557.471	65.176	0.132	-0.133
-556.456	11.798	0.291	-0.223
-555.442	489.596	0.119	-0.271
-554.427	-37.997	0.206	-0.109
-553.412	800.000	-0.113	-0.311
-552.398	-80.085	0.019	-0.006
-551.383	33.428	-0.329	0.285
-550.369	-200.000	0.008	-0.113
-549.354	-138.200	-0.064	-0.007
-548.339	-88.503	-0.218	-0.065
-547.325	-114.355	0.468	-0.090
-546.310	-68.032	-0.479	0.186
-545.296	31.839	-0.182	-0.157
-544.281	438.662	-0.081	0.177
-543.266	800.000	-0.117	0.385
-542.252	-103.939	0.102	-0.024
-541.237	-200.000	0.022	-0.211
-540.223	102.613	0.190	-0.221
-539.208	247.841	0.050	0.084
-538.193	434.519	0.031	-0.067
-537.179	-200.000	-0.048	0.326
-536.164	-53.756	-0.070	-0.032
-535.150	-135.471	0.229	-0.027
-534.135	-175.393	-0.137	-0.004
-533.121	140.927	0.208	-0.274
-532.106	-100.672	0.165	0.041
-531.091	-88.819	0.197	0.058
-530.077	219.161	-0.099	0.158
-529.062	127.699	-0.086	-0.108
-528.048	-84.963	-0.378	-0.118
-527.033	-200.000	-0.070	0.307
-526.018	-59.753	-0.396	-0.169
-525.004	161.236	-0.070	-0.097
-523.989	-62.621	-0.165	-0.068
-522.975	199.250	-0.091	-0.140
-521.960	-193.846	0.032	0.000
-520.945	41.442	0.236	0.213
-519.931	-200.000	0.031	-0.286
-518.916	800.000	-0.164	0.552
-517.902	585.541	0.043	0.105
-516.887	773.097	-0.063	-0.172
-515.872	289.572	0.149	-0.269
-514.858	364.615	-0.152	0.304
-513.843	186.338	0.030	-0.044
-512.829	337.729	-0.030	0.058
-511.814	-91.435	0.228	-0.065
-510.799	-66.007	-0.271	0.108
-509.785	-66.033	-0.305	-0.121
-508.770	497.813	-0.059	0.136
-507.756	428.564	-0.029	0.063
-506.741	71.146	0.022	-0.023
-505.726	-114.488	0.051	0.010
-504.712	-200.000	0.011	0.083
-503.697	18.134	0.178	0.141
-502.683	-193.980	-0.276	-0.002
-501.668	45.771	-0.103	-0.094
-500.653	-77.649	-0.197	-0.068
-499.639	-124.881	0.306	-0.047
-498.624	800.000	0.068	-0.259
-497.610	-45.602	0.192	0.095
-496.595	53.742	-0.098	0.094
-495.581	111.077	0.128	0.153
-494.566	191.416	-0.184	-0.276
-493.551	-105.278	-0.273	-0.062
-492.537	-81.168	-0.061	-0.020
-491.522	248.587	0.171	-0.288
-490.508	-200.000	0.035	-0.318
-489.493	-79.769	0.201	-0.067
-488.478	-200.000	0.036	0.197
-487.464	-27.104	-0.085	0.049
-486.449	1.115	0.181	0.129
-485.435	-200.000	-0.040	0.407
-484.420	30.610	-0.142	-0.121
-483.405	-55.145	0.120	0.054
-482.391	-110.618	0.245	0.050
-481.376	-68.207	0.403	0.156
-480.362	-80.889	-0.370	-0.122
-479.347	-113.877	-0.134	0.026
-478.332	-42.759	0.042	-0.021
-477.318	-0.581	-0.116	-0.082
-476.303	-1.770	0.258	0.181
-475.289	-200.000	-0.033	0.231
-474.274	-57.427	-0.241	-0.105
-473.259	-61.544	0.226	-0.095
-472.245	-75.275	-0.315	0.112
-471.230	-200.000	0.016	0.082
-470.216	-180.340	0.289	-0.006
-469.201	6.165	0.073	-0.054
-468.186	-131.304	0.230	-0.030
-467.172	800.000	-0.037	0.104
-466.157	-200.000	-0.021	-0.169
-465.143	399.312	0.114	-0.237
-464.128	14.769	-0.198	-0.154
-463.113	117.120	0.157	-0.191
-462.099	1.931	0.235	0.168
-461.084	-24.864	-0.300	-0.177
-460.070	-49.000	-0.351	-0.167
-459.055	-150.544	-0.243	0.019
-458.040	-141.745	-0.189	-0.019
-457.026	329.303	-0.103	0.196
-456.011	-35.773	0.203	-0.109
-454.997	-66.038	-0.350	0.139
-453.982	-125.218	0.154	-0.023
-452.968	-200.000	0.012	-0.131
-451.953	341.236	-0.102	-0.198
-450.938	360.510	-0.118	-0.234
-449.924	316.856	0.104	0.195
-448.909	102.545	-0.109	0.126
-447.895	105.332	0.134	0.158
-446.880	7.506	-0.101	0.075
-445.865	-117.127	-0.410	-0.074
-444.851	-151.567	-0.028	0.002
-443.836	337.979	0.119	-0.230
-442.822	-200.000	0.086	0.402
-441.807	-124.783	0.339	-0.052
-440.792	-47.443	0.068	0.033
-439.778	-105.519	0.346	-0.078
-438.763	376.792	0.062	-0.126
-437.749	555.401	-0.073	0.174
-436.734	-200.000	0.045	0.271
-435.719	-4.691	0.184	0.126
-434.705	277.953	0.044	-0.077
-433.690	-107.385	-0.022	-0.005
-432.676	36.389	-0.150	-0.132
-431.661	96.926	0.113	-0.129
-430.646	-75.081	0.257	-0.091
-429.632	102.357	0.163	-0.190
-428.617	27.241	-0.237	-0.198
-427.603	-134.013	0.106	0.013
-426.588	98.390	0.182	0.208
-425.573	800.000	0.083	0.295
-424.559	-23.161	0.238	0.142
-423.544	117.049	0.134	-0.164
-422.530	-112.400	0.083	0.016
-421.515	-200.000	0.020	-0.105
-420.500	-85.812	-0.461	0.142
-419.486	239.604	-0.159	0.263
-418.471	115.689	0.181	0.219
-417.457	-103.921	-0.356	0.082
-416.442	-200.000	0.007	-0.100
-415.428	800.000	0.090	-0.299
-414.413	27.105	-0.123	-0.103
-413.398	22.548	0.392	0.319
-412.384	292.892	-0.174	0.315
-411.369	-200.000	-0.025	0.308
-410.355	800.000	-0.068	0.283
-409.340	-73.618	0.124	-0.045
-408.325	95.453	0.074	0.084
-407.311	-19.446	0.418	0.257
-406.296	133.137	-0.022	-0.029
-405.282	65.273	-0.135	0.136
-404.267	-135.439	0.235	-0.028
-403.252	800.000	0.040	0.148
-402.238	-91.966	0.165	0.046
-401.223	-41.390	-0.077	-0.039
-400.209	-127.044	0.244	0.036
-399.194	800.000	0.006	-0.016
-398.179	-200.000	0.007	0.070
-397.165	-22.572	-0.176	0.105
-396.150	212.244	-0.133	0.208
-395.136	-74.623	0.075	-0.027
-394.121	-199.395	0.023	0.000
-393.106	172.489	-0.174	0.249
-392.092	-25.919	-0.007	0.004
-391.077	-72.753	0.296	0.108
-390.063	8.181	0.055	0.041
-389.048	22.831	0.177	-0.144
-388.033	407.013	-0.158	0.332
-387.019	356.342	-0.045	0.088
-386.004	593.763	0.186	0.455
-384.990	361.413	-0.055	-0.110
-383.975	358.490	-0.125	-0.247
-382.960	-123.142	0.291	0.046
-381.946	-200.000	0.020	-0.171
-380.931	-76.323	0.115	-0.040
-379.917	-200.000	0.048	-0.229
-378.902	-105.578	-0.197	-0.044
-377.888	-135.768	0.116	0.014
-376.873	-122.630	0.187	-0.030
-375.858	102.057	0.346	-0.400
-374.844	531.650	-0.188	-0.440
-373.829	15.264	-0.126	-0.098
-372.815	305.886	0.032	0.060
-371.800	-64.974	-0.256	0.103
-370.785	-200.000	-0.044	0.246
-369.771	-119.169	0.147	0.026
-368.756	356.876	0.015	-0.029
-367.742	-77.610	-0.214	0.073
-366.727	800.000	0.035	-0.101
-365.712	322.442	-0.125	0.235
-364.698	800.000	0.037	0.147
-363.683	-97.338	-0.270	-0.070
-362.669	-65.673	0.029	0.012
-361.654	-200.000	-0.019	-0.095
-360.639	20.406	0.186	-0.149
-359.625	-45.639	0.087	-0.043
-358.610	-125.336	-0.360	-0.054
-357.596	-40.411	-0.181	0.093
-356.581	123.116	-0.055	-0.068
-355.566	-83.537	-0.244	0.077
-354.552	-106.893	-0.223	0.049
-353.537	-119.970	0.339	0.058
-352.523	-82.071	-0.080	-0.026
-351.508	123.229	0.103	0.128
-350.493	-94.001	-0.302	0.082
-349.479	-37.664	0.163	-0.086
-348.464	383.954	-0.132	-0.269
-347.450	-91.905	0.255	0.072
-346.435	800.000	-0.079	0.299
-345.420	590.685	0.029	0.071
-344.406	-200.000	-0.022	-0.240
-343.391	800.000	0.146	0.614
-342.377	-74.706	0.164	0.058
-341.362	-52.314	-0.060	-0.027
-340.348	-30.683	0.203	0.114
-339.333	33.179	0.112	-0.096
-338.318	-38.213	-0.076	-0.040
-337.304	-200.000	0.011	0.152
-336.289	25.268	-0.117	0.096
-335.275	-81.921	-0.217	-0.070
-334.260	-200.000	-0.038	0.171
-333.245	-200.000	-0.031	-0.197
-332.231	-88.918	0.087	-0.025
-331.216	-200.000	-0.048	0.263
-330.202	244.335	0.053	0.088
-329.187	45.092	0.079	-0.072
-328.172	130.858	-0.126	-0.159
-327.158	-94.277	-0.190	-0.051
-326.143	-126.276	0.219	0.032
-325.129	285.739	0.070	-0.125
-324.114	-93.920	-0.073	-0.020
-323.099	407.110	0.104	-0.218
-322.085	-157.575	-0.235	0.014
-321.070	47.043	-0.207	-0.191
-320.056	-162.275	-0.284	-0.014
-319.041	-85.587	-0.106	0.033
-318.026	49.660	-0.057	-0.053
-317.012	200.692	-0.024	-0.037
-315.997	34.165	0.113	0.097
-314.983	344.246	0.054	-0.104
-313.968	800.000	-0.072	0.220
-312.953	13.226	-0.097	0.074
-311.939	-65.230	-0.156	-0.062
-310.924	-200.000	-0.055	0.249
-309.910	1.642	0.389	0.277
-308.895	-142.609	-0.143	-0.014
-307.880	-200.000	-0.039	-0.360
-306.866	228.593	0.159	-0.257
-305.851	581.728	0.133	-0.321
-304.837	99.337	-0.088	-0.100
-303.822	-200.000	-0.043	-0.232
-302.807	-33.433	-0.179	0.098
-301.793	190.456	0.229	0.340
-300.778	-150.439	-0.208	-0.016
-299.764	40.104	-0.132	-0.117
-298.749	-200.000	0.005	-0.426
-297.735	-65.485	-0.182	-0.072
-296.720	-47.922	-0.243	-0.116
-295.705	800.000	0.063	0.250
-294.691	-11.910	0.156	0.101
-293.676	113.933	-0.094	-0.113
-292.662	27.140	-0.089	0.074
-291.647	126.923	-0.172	-0.216
-290.632	-200.000	-0.007	-0.058
-289.618	612.524	0.066	-0.164
-288.603	800.000	0.039	0.126
-287.589	63.020	0.028	-0.027
-286.574	-200.000	0.040	0.220
-285.559	88.178	-0.215	0.236
-284.545	-175.245	0.034	-0.001
-283.530	-200.000	0.009	0.239
-282.516	117.637	0.145	0.176
-281.501	-14.442	-0.035	0.023
-280.486	-15.373	-0.027	0.017
-279.472	212.213	-0.152	-0.236
-278.457	28.892	-0.009	0.008
-277.443	-87.457	0.100	-0.030
-276.428	154.912	-0.245	0.333
-275.413	554.152	0.138	0.328
-274.399	-139.434	-0.272	-0.029
-273.384	355.716	-0.053	0.103
-272.370	-17.513	-0.245	-0.152
-271.355	-175.708	-0.103	-0.003
-270.340	392.742	0.186	-0.382
-269.326	362.530	0.185	-0.367
-268.311	-200.000	0.050	-0.235
-267.297	-200.000	-0.038	-0.238
-266.282	-75.501	-0.226	-0.079
-265.267	-123.706	0.280	0.044
-264.253	93.894	0.021	0.023
-263.238	18.343	0.200	-0.157
-262.224	747.338	0.098	0.259
-261.209	74.554	-0.118	-0.123
-260.195	335.988	-0.041	-0.078
-259.180	116.826	0.179	-0.216
-258.165	-144.613	0.113	-0.010
-257.151	61.085	0.123	-0.120
-256.136	401.513	0.081	-0.168
-255.122	697.423	-0.038	-0.098
-254.107	-52.749	0.110	-0.050
-253.092	-76.087	-0.369	0.128
-252.078	15.365	-0.206	0.159
-251.063	-113.434	-0.243	0.047
-250.049	-61.974	-0.130	0.053
-249.034	167.607	0.335	0.470
-248.019	96.010	0.143	0.161
-247.005	-70.925	0.138	0.051
-245.990	-200.000	0.016	-0.253
-244.976	150.184	0.127	0.170
-243.961	-200.000	0.062	0.370
-242.946	180.973	0.103	-0.150
-241.932	-16.255	0.075	-0.047
-240.917	613.034	-0.199	-0.491
-239.903	112.602	-0.150	0.179
-238.888	503.471	0.100	0.227
-237.873	-3.349	0.285	0.196
-236.859	55.212	0.076	-0.072
-235.844	141.974	-0.307	-0.401
-234.830	-200.000	0.017	-0.568
-233.815	-37.223	0.248	0.131
-232.800	-200.000	-0.014	-0.106
-231.786	800.000	-0.117	-0.332
-230.771	129.116	0.187	-0.235
-229.757	-135.622	0.101	0.012
-228.742	800.000	-0.036	0.144
-227.727	-97.256	-0.378	-0.097
-226.713	-13.425	0.132	-0.084
-225.698	235.663	0.041	-0.066
-224.684	-52.529	-0.195	0.089
-223.669	-96.954	0.317	-0.082
-222.655	-100.293	0.425	0.104
-221.640	30.016	0.050	0.042
-220.625	800.000	-0.028	0.082
-219.611	-59.451	0.188	-0.080
-218.596	800.000	0.067	-0.254
-217.582	800.000	0.039	0.166
-216.567	50.797	-0.104	0.097
-215.552	489.614	-0.022	0.049
-214.538	-82.387	-0.248	-0.079
-213.523	398.226	0.011	0.024
-212.509	261.024	-0.059	-0.100
-211.494	173.340	0.077	0.109
-210.479	14.608	0.132	0.101
-209.465	748.952	-0.114	-0.303
-208.450	-66.391	0.065	0.025
-207.436	-44.085	0.284	0.140
-206.421	-50.591	0.321	-0.149
-205.406	-50.604	-0.297	0.138
-204.392	800.000	0.091	-0.272
-203.377	-200.000	-0.016	-0.102
-202.363	-42.489	0.200	0.100
-201.348	-200.000	0.007	-0.079
-200.333	-200.000	-0.014	0.218
-199.319	172.347	-0.036	-0.052
-198.304	-200.000	0.015	-0.433
-197.290	-184.470	0.072	0.001
-196.275	-131.253	0.442	0.058
-195.260	-83.779	0.343	-0.108
-194.246	-27.372	-0.112	0.064
-193.231	-45.446	0.197	0.096
-192.217	17.582	-0.287	0.224
-191.202	82.992	0.133	-0.143
-190.187	-200.000	-0.028	-0.309
-189.173	-78.653	-0.133	-0.045
-188.158	-91.022	-0.306	0.087
-187.144	-52.180	-0.079	-0.036
-186.129	-200.000	-0.004	0.125
-185.114	452.941	0.117	-0.255
-184.100	92.168	-0.332	0.368
-183.085	-200.000	-0.000	0.627
-182.071	-200.000	0.003	0.219
-181.056	-42.982	0.055	-0.027
-180.042	-126.697	0.062	0.009
-179.027	-166.004	-0.184	-0.008
-178.012	-200.000	0.028	0.234
-176.998	0.555	0.317	0.223
-175.983	-26.868	-0.349	0.201
-174.969	-36.894	0.104	0.055
-173.954	82.679	0.118	0.126
-172.939	44.216	0.356	-0.321
-171.925	59.130	0.137	0.132
-170.910	-22.006	0.186	0.111
-169.896	-144.592	-0.179	0.016
-168.881	31.216	0.453	0.382
-167.866	-200.000	0.000	0.026
-166.852	20.394	0.050	-0.040
-165.837	-96.968	-0.054	-0.014
-164.823	45.767	0.024	-0.022
-163.808	-45.253	0.148	-0.072
-162.793	133.176	-0.191	-0.243
-161.779	-124.678	0.544	0.083
-160.764	-22.659	-0.323	0.192
-159.750	-146.292	0.411	0.035
-158.735	769.517	0.097	0.260
-157.720	-35.499	-0.311	0.166
-156.706	-14.756	-0.146	0.092
-155.691	-157.019	0.261	0.016
-154.677	-64.799	0.188	0.075
-153.662	5.487	0.349	0.253
-152.647	-200.000	0.013	-0.188
-151.633	-158.659	-0.336	0.019
-150.618	-9.181	-0.088	0.058
-149.604	-72.534	-0.091	0.033
-148.589	15.149	0.281	0.217
-147.574	27.416	-0.109	-0.090
-146.560	-56.637	-0.278	-0.121
-145.545	424.743	0.194	-0.410
-144.531	347.123	-0.093	-0.180
-143.516	332.888	0.022	0.042
-142.502	32.280	-0.205	-0.174
-141.487	-200.000	0.018	-0.095
-140.472	-200.000	0.037	-0.170
-139.458	354.398	0.095	0.186
-138.443	-65.383	0.110	0.044
-137.429	800.000	-0.025	-0.080
-136.414	170.214	0.146	-0.205
-135.399	-200.000	0.040	-0.314
-134.385	-55.296	0.300	0.132
-133.370	-200.000	-0.014	-0.237
-132.356	136.375	-0.308	-0.395
-131.341	393.210	0.149	0.304
-130.326	800.000	0.012	-0.040
-129.312	-36.963	-0.293	-0.154
-128.297	-26.251	-0.297	0.171
-127.283	-25.806	0.139	-0.081
-126.268	800.000	0.113	-0.358
-125.253	261.216	0.115	-0.195
-124.239	-2.971	0.129	0.088
-123.224	26.049	-0.104	0.085
-122.210	309.399	-0.089	-0.164
-121.195	-62.561	0.251	-0.102
