DTS Sentinel unit serial number:	SN413079Multiplexer serial number:	ORYXHardware model number:	OX4-SRSoftware version number:	ORYX F/W v4.00 Oryx Data Collector v3.7.2.0data status	okinstallation	princeton_trtdifferential loss correction	single-endedforward channel	channel 4reverse channel	N/Adate	2019/09/11time	15:03:11forward acquisition time	60.00reverse acquisition time	0.00gamma	496.2192k internal	0.2277k external	0.2277temperature offset calibration	1.0013default loss term (dB/km)	0.3790temperature slope calibration	1.0000multiplexer offset coefficient	1.0000multiplexer slope coefficient	1.0000fibre end	0.00T internal ref (°C)	42.87T ext. ref 1 (°C)	0.96T ext. ref 2 (°C)	38.21length (m)	temperature (°C)	Stokes	anti-Stokes-747.200	148.880	0.083	0.116
-746.185	424.546	-0.170	0.377
-745.171	-82.883	-0.246	0.082
-744.156	-154.576	0.139	0.010
-743.142	-71.221	-0.280	0.108
-742.127	61.964	0.110	0.113
-741.112	-87.084	0.264	0.083
-740.098	-200.000	-0.014	0.374
-739.083	-158.267	-0.284	-0.017
-738.069	-200.000	0.016	-0.073
-737.054	-112.606	0.320	-0.066
-736.039	800.000	-0.144	0.491
-735.025	-60.818	-0.155	-0.068
-734.010	-45.850	-0.376	-0.191
-732.996	280.588	0.009	0.016
-731.981	-200.000	0.022	-0.384
-730.966	420.025	0.181	0.398
-729.952	24.181	-0.147	0.125
-728.937	-195.753	0.239	-0.002
-727.923	53.115	-0.226	-0.223
-726.908	-200.000	0.043	0.281
-725.894	186.653	-0.146	-0.223
-724.879	-200.000	0.024	-0.210
-723.864	107.429	0.072	-0.088
-722.850	800.000	-0.103	0.310
-721.835	800.000	-0.075	0.267
-720.821	-54.286	-0.156	-0.073
-719.806	-98.860	-0.088	0.023
-718.791	-84.052	-0.464	-0.152
-717.777	800.000	0.061	-0.237
-716.762	70.294	0.143	-0.152
-715.748	-134.923	0.090	-0.011
-714.733	-200.000	-0.014	-0.121
-713.718	800.000	-0.143	-0.410
-712.704	-113.415	0.127	-0.026
-711.689	437.298	-0.062	-0.138
-710.675	-145.969	-0.270	0.025
-709.660	-200.000	0.016	-0.073
-708.645	800.000	0.065	0.268
-707.631	34.304	0.138	0.123
-706.616	-76.149	0.185	0.067
-705.602	-16.380	-0.059	-0.039
-704.587	-103.655	0.111	-0.027
-703.572	800.000	0.062	-0.222
-702.558	-156.688	-0.212	0.014
-701.543	28.766	0.222	0.193
-700.529	-93.113	-0.146	-0.042
-699.514	-90.117	0.413	0.124
-698.499	490.622	-0.126	-0.296
-697.485	-200.000	0.054	0.254
-696.470	-59.018	-0.321	0.143
-695.456	78.112	-0.103	-0.113
-694.441	-84.125	-0.117	0.038
-693.426	507.080	0.082	0.196
-692.412	-124.890	0.057	0.009
-691.397	-167.326	0.303	-0.013
-690.383	-72.338	0.408	0.155
-689.368	490.026	-0.051	-0.121
-688.354	7.622	-0.184	-0.141
-687.339	-200.000	0.012	0.110
-686.324	-44.411	0.152	-0.078
-685.310	467.146	0.050	0.116
-684.295	11.515	0.134	-0.106
-683.281	800.000	0.081	0.300
-682.266	3.085	-0.229	0.171
-681.251	169.159	-0.234	0.343
-680.237	800.000	-0.047	-0.174
-679.222	-200.000	-0.034	0.338
-678.208	-139.528	0.247	-0.027
-677.193	-200.000	0.116	0.639
-676.178	-89.530	-0.384	0.116
-675.164	-200.000	0.003	-0.027
-674.149	-155.316	-0.158	-0.011
-673.135	-200.000	0.027	-0.495
-672.120	-114.358	0.112	-0.022
-671.105	-200.000	0.010	0.147
-670.091	70.273	0.136	0.144
-669.076	-129.075	0.362	0.052
-668.062	139.166	0.112	0.152
-667.047	82.422	-0.282	0.314
-666.032	800.000	-0.076	0.268
-665.018	-112.849	-0.097	0.020
-664.003	-26.789	-0.132	0.079
-662.989	-17.853	0.307	-0.198
-661.974	225.081	0.112	-0.186
-660.959	57.665	-0.196	-0.197
-659.945	-24.193	-0.213	0.131
-658.930	54.497	0.247	-0.244
-657.916	-174.897	0.272	-0.008
-656.901	-123.479	0.329	0.054
-655.886	800.000	0.011	0.040
-654.872	800.000	-0.015	-0.063
-653.857	800.000	-0.092	0.318
-652.843	800.000	-0.047	-0.143
-651.828	800.000	0.069	-0.247
-650.814	-200.000	0.004	-0.041
-649.799	194.777	0.117	-0.182
-648.784	-200.000	-0.006	-0.037
-647.770	-200.000	0.014	0.245
-646.755	-200.000	0.030	-0.268
-645.741	-92.704	-0.117	0.034
-644.726	123.840	-0.150	0.193
-643.711	-200.000	0.001	-0.088
-642.697	-200.000	0.222	0.001
-641.682	800.000	0.154	-0.596
-640.668	60.576	-0.256	-0.260
-639.653	-200.000	-0.012	-0.353
-638.638	-200.000	0.052	-0.303
-637.624	75.546	-0.293	-0.317
-636.609	-62.365	-0.299	0.128
-635.595	24.665	-0.161	-0.137
-634.580	45.146	0.177	0.167
-633.565	-200.000	0.050	-0.225
-632.551	18.184	-0.400	0.327
-631.536	-123.966	0.056	0.009
-630.522	-200.000	0.054	0.460
-629.507	281.562	0.040	0.074
-628.492	148.854	-0.145	-0.201
-627.478	91.452	-0.245	-0.282
-626.463	-5.256	-0.220	0.155
-625.449	-174.257	-0.265	0.008
-624.434	800.000	0.069	0.240
-623.419	48.855	0.142	-0.136
-622.405	-200.000	-0.022	0.252
-621.390	84.001	-0.243	-0.272
-620.376	-200.000	-0.024	-0.243
-619.361	130.275	0.119	0.157
-618.346	198.502	0.172	-0.270
-617.332	110.629	0.183	0.225
-616.317	-79.524	-0.158	0.055
-615.303	-0.670	0.239	0.174
-614.288	-50.413	0.342	-0.165
-613.273	-200.000	-0.040	-0.366
-612.259	107.397	-0.170	0.208
-611.244	-200.000	0.012	0.242
-610.230	200.154	-0.098	-0.155
-609.215	-33.633	-0.439	0.248
-608.201	186.657	0.095	0.145
-607.186	402.566	0.133	0.288
-606.171	40.192	-0.149	-0.137
-605.157	-28.587	0.136	0.081
-604.142	-13.945	0.164	0.109
-603.128	-4.675	0.549	-0.388
-602.113	251.145	-0.066	-0.116
-601.098	273.950	0.090	0.163
-600.084	-200.000	0.033	-0.333
-599.069	800.000	-0.091	0.271
-598.055	238.586	0.069	-0.117
-597.040	291.386	0.213	0.397
-596.025	43.292	-0.083	0.078
-595.011	324.364	-0.197	0.385
-593.996	476.895	-0.125	-0.289
-592.982	-200.000	0.006	0.076
-591.967	-122.680	0.218	-0.036
-590.952	-129.673	0.503	0.071
-589.938	375.697	0.112	-0.235
-588.923	140.533	0.063	0.085
-587.909	65.107	-0.050	0.052
-586.894	78.936	-0.073	0.080
-585.879	20.578	-0.104	-0.086
-584.865	-200.000	-0.015	-0.196
-583.850	-22.948	-0.077	-0.048
-582.836	-31.141	0.294	0.170
-581.821	90.943	-0.252	0.290
-580.806	-119.215	0.090	0.016
-579.792	-79.773	-0.305	-0.105
-578.777	-15.244	-0.305	-0.199
-577.763	-30.477	0.306	0.177
-576.748	197.258	0.094	-0.148
-575.733	-200.000	0.003	0.173
-574.719	150.181	-0.084	-0.117
-573.704	16.340	0.307	-0.248
-572.690	119.976	-0.116	-0.148
-571.675	12.481	-0.132	-0.104
-570.661	174.694	0.118	0.175
-569.646	-34.463	-0.083	-0.047
-568.631	87.832	-0.039	0.044
-567.617	-55.199	-0.067	-0.031
-566.602	59.015	-0.192	0.194
-565.588	-12.748	-0.148	-0.099
-564.573	125.620	-0.282	-0.365
-563.558	-200.000	-0.014	0.205
-562.544	-200.000	-0.019	-0.150
-561.529	800.000	0.084	-0.368
-560.515	765.473	-0.156	-0.434
-559.500	-92.274	0.193	-0.056
-558.485	-200.000	-0.059	0.297
-557.471	-200.000	-0.009	-0.107
-556.456	-159.579	0.076	0.004
-555.442	-19.105	-0.108	0.069
-554.427	-112.140	-0.136	0.028
-553.412	-200.000	-0.010	-0.142
-552.398	434.305	-0.095	-0.211
-551.383	39.036	0.081	0.074
-550.369	-71.602	-0.200	-0.077
-549.354	102.877	0.091	-0.109
-548.339	82.414	0.301	0.333
-547.325	-34.977	0.026	-0.014
-546.310	-200.000	-0.036	-0.313
-545.296	162.313	0.186	0.266
-544.281	326.662	-0.123	-0.242
-543.266	225.963	-0.155	0.256
-542.252	-104.435	0.055	0.013
-541.237	800.000	0.061	0.206
-540.223	482.949	0.090	0.209
-539.208	-176.930	-0.280	-0.007
-538.193	-200.000	0.015	0.219
-537.179	-46.827	-0.051	-0.026
-536.164	281.938	-0.196	-0.359
-535.150	768.230	0.048	-0.134
-534.135	-164.992	-0.241	0.011
-533.121	-200.000	0.026	0.151
-532.106	-200.000	0.055	-0.260
-531.091	737.137	0.180	-0.493
-530.077	420.134	-0.115	0.251
-529.062	-200.000	-0.076	0.536
-528.048	199.658	-0.044	0.069
-527.033	94.177	-0.085	-0.098
-526.018	-24.690	-0.103	0.063
-525.004	-200.000	-0.001	0.323
-523.989	-44.522	0.247	-0.126
-522.975	410.509	0.042	0.092
-521.960	-31.325	0.121	0.069
-520.945	-200.000	-0.019	-0.147
-519.931	-34.008	0.341	0.191
-518.916	-200.000	0.020	0.357
-517.902	-117.840	-0.256	-0.047
-516.887	-76.482	-0.132	0.047
-515.872	800.000	-0.077	-0.284
-514.858	211.185	0.102	0.163
-513.843	-102.139	-0.287	-0.070
-512.829	-77.833	0.114	0.040
-511.814	-200.000	-0.024	-0.323
-510.799	800.000	0.056	-0.178
-509.785	89.280	0.112	-0.127
-508.770	-129.414	-0.239	0.034
-507.756	-35.128	-0.530	-0.295
-506.741	353.955	0.158	-0.321
-505.726	42.595	0.123	-0.115
-504.712	5.373	-0.247	-0.186
-503.697	-55.412	0.299	0.137
-502.683	159.929	-0.129	-0.184
-501.668	-59.489	0.105	-0.046
-500.653	-98.878	0.210	0.054
-499.639	89.354	0.148	-0.168
-498.624	83.031	-0.105	-0.117
-497.610	-98.307	0.157	-0.041
-496.595	66.814	0.169	0.175
-495.581	-200.000	0.000	0.224
-494.566	800.000	0.067	-0.194
-493.551	-200.000	-0.031	-0.311
-492.537	403.129	-0.160	0.343
-491.522	-97.829	-0.214	-0.056
-490.508	554.808	0.078	-0.191
-489.493	-200.000	0.008	-0.226
-488.478	-200.000	-0.012	0.103
-487.464	-156.675	0.153	0.010
-486.449	-134.727	0.245	-0.030
-485.435	-17.640	-0.224	0.144
-484.420	-147.769	-0.255	-0.022
-483.405	42.477	-0.241	-0.224
-482.391	7.925	0.019	-0.015
-481.376	-159.959	0.442	0.025
-480.362	-7.426	0.095	-0.065
-479.347	-200.000	-0.019	0.089
-478.332	370.940	-0.152	0.314
-477.318	-200.000	0.011	-0.253
-476.303	704.736	-0.089	0.239
-475.289	-19.287	-0.005	0.003
-474.274	-91.659	0.068	0.020
-473.259	115.144	-0.121	-0.150
-472.245	-83.469	0.247	0.081
-471.230	-38.589	0.150	0.081
-470.216	-90.478	-0.463	-0.137
-469.201	540.529	0.097	-0.235
-468.186	-141.590	0.315	0.032
-467.172	-27.698	0.143	-0.084
-466.157	-200.000	0.006	-0.152
-465.143	-0.367	0.145	0.105
-464.128	800.000	0.076	0.240
-463.113	-159.625	-0.363	-0.020
-462.099	257.435	0.137	0.240
-461.084	25.221	-0.158	0.134
-460.070	800.000	0.108	-0.324
-459.055	800.000	-0.077	-0.283
-458.040	-121.411	-0.438	0.074
-457.026	-102.832	0.221	0.054
-456.011	11.753	0.207	0.162
-454.997	800.000	0.057	-0.223
-453.982	63.638	-0.188	0.192
-452.968	144.964	-0.108	0.147
-451.953	107.570	-0.207	-0.251
-450.938	-16.233	0.132	0.085
-449.924	-6.237	0.073	0.050
-448.909	-67.863	-0.139	-0.055
-447.895	-96.383	-0.014	0.004
-446.880	23.099	-0.109	-0.091
-445.865	-200.000	0.022	0.215
-444.851	328.175	-0.110	-0.216
-443.836	93.444	-0.323	-0.373
-442.822	-112.415	0.147	-0.030
-441.807	45.890	0.028	0.027
-440.792	-200.000	0.037	-0.587
-439.778	154.315	0.055	-0.077
-438.763	26.362	-0.132	-0.112
-437.749	-78.045	-0.137	-0.048
-436.734	70.336	0.154	-0.162
-435.719	388.860	0.108	0.228
-434.705	-111.048	0.156	-0.033
-433.690	46.834	-0.143	0.135
-432.676	-106.898	-0.251	0.057
-431.661	637.837	0.132	0.341
-430.646	77.911	-0.336	0.365
-429.632	293.294	-0.203	0.376
-428.617	-111.783	-0.320	-0.066
-427.603	-200.000	-0.119	-0.620
-426.588	-181.423	-0.060	0.001
-425.573	-200.000	-0.008	-0.063
-424.559	-16.298	0.036	-0.024
-423.544	49.315	0.059	0.056
-422.530	800.000	0.086	0.372
-421.515	-107.637	-0.340	-0.076
-420.500	709.895	0.056	-0.150
-419.486	-200.000	0.021	0.222
-418.471	-170.679	0.287	-0.010
-417.457	-87.898	-0.178	-0.054
-416.442	69.895	0.127	-0.133
-415.428	7.804	0.157	-0.120
-414.413	69.946	-0.034	0.035
-413.398	83.843	-0.064	0.072
-412.384	231.627	-0.199	0.331
-411.369	82.050	0.272	0.299
-410.355	-57.488	-0.091	-0.041
-409.340	-37.338	-0.080	-0.044
-408.325	-193.655	0.102	-0.001
-407.311	-5.062	-0.175	-0.122
-406.296	800.000	-0.057	0.166
-405.282	256.381	0.179	0.312
-404.267	-200.000	0.010	-0.062
-403.252	-147.756	0.246	0.021
-402.238	190.099	0.253	-0.387
-401.223	800.000	0.036	0.144
-400.209	-118.291	-0.205	-0.037
-399.194	800.000	0.033	0.107
-398.179	-200.000	-0.030	-0.344
-397.165	666.197	0.220	-0.579
-396.150	-90.311	-0.309	0.091
-395.136	-200.000	-0.015	-0.205
-394.121	60.420	0.074	0.074
-393.106	-136.973	0.165	0.019
-392.092	-58.972	-0.074	-0.032
-391.077	-111.254	-0.096	0.020
-390.063	-56.267	0.296	0.134
-389.048	-56.594	-0.116	-0.052
-388.033	70.523	0.202	0.212
-387.019	64.924	-0.177	0.182
-386.004	-200.000	-0.049	-0.258
-384.990	-52.840	-0.285	0.133
-383.975	-200.000	0.003	0.101
-382.960	50.097	-0.136	-0.130
-381.946	-123.323	-0.453	-0.074
-380.931	-200.000	0.018	0.195
-379.917	800.000	-0.064	0.188
-378.902	41.773	0.157	0.144
-377.888	-176.519	0.221	0.006
-376.873	-13.143	0.160	0.106
-375.858	-200.000	0.040	-0.210
-374.844	-200.000	0.046	-0.285
-373.829	-123.991	-0.266	0.043
-372.815	800.000	0.088	-0.352
-371.800	-94.464	0.123	0.034
-370.785	-200.000	0.000	-0.012
-369.771	64.331	-0.247	0.252
-368.756	13.532	-0.084	-0.067
-367.742	-200.000	-0.098	0.448
-366.727	-200.000	0.001	0.246
-365.712	-200.000	-0.026	0.312
-364.698	-136.401	-0.144	-0.017
-363.683	800.000	-0.040	0.138
-362.669	-88.223	0.105	0.032
-361.654	-79.013	0.512	0.177
-360.639	21.177	0.067	-0.055
-359.625	-200.000	-0.034	0.283
-358.610	-51.511	-0.196	-0.093
-357.596	-56.671	-0.362	-0.163
-356.581	-200.000	0.037	-0.381
-355.566	283.782	0.148	-0.269
-354.552	-200.000	0.013	-0.318
-353.537	91.397	0.275	0.313
-352.523	-200.000	-0.011	0.287
-351.508	-1.002	0.089	0.064
-350.493	-40.528	0.280	0.147
-349.479	-4.647	-0.037	0.026
-348.464	-200.000	-0.036	0.373
-347.450	-93.014	-0.097	0.027
-346.435	-200.000	0.034	0.297
-345.420	800.000	0.084	0.334
-344.406	-168.284	-0.310	-0.012
-343.391	-200.000	-0.042	-0.204
-342.377	-200.000	0.035	-0.211
-341.362	99.981	0.128	0.150
-340.348	-84.337	0.185	0.059
-339.333	-200.000	0.003	-0.076
-338.318	-25.868	0.246	0.147
-337.304	-200.000	-0.033	0.281
-336.289	108.459	0.022	0.027
-335.275	-167.501	-0.286	0.012
-334.260	62.703	0.247	0.251
-333.245	-200.000	0.053	0.312
-332.231	-106.182	0.043	0.010
-331.216	72.413	0.071	0.075
-330.202	12.619	0.354	0.277
-329.187	-200.000	0.014	0.366
-328.172	35.196	-0.113	-0.100
-327.158	-165.841	-0.064	-0.003
-326.143	-200.000	0.006	0.123
-325.129	800.000	-0.025	-0.084
-324.114	800.000	0.088	0.345
-323.099	-154.463	0.096	0.007
-322.085	38.812	-0.062	-0.056
-321.070	277.451	0.207	-0.373
-320.056	-0.136	-0.144	0.104
-319.041	800.000	0.038	0.129
-318.026	-90.189	0.466	0.137
-317.012	-35.214	0.110	-0.061
-315.997	-54.046	-0.371	-0.171
-314.983	-114.167	-0.263	0.051
-313.968	170.799	-0.151	0.220
-312.953	-200.000	0.004	-0.040
-311.939	-200.000	-0.007	0.125
-310.924	-164.458	-0.235	0.011
-309.910	-200.000	0.021	-0.497
-308.895	-8.568	-0.125	-0.085
-307.880	80.391	0.098	0.107
-306.866	-128.198	0.506	0.073
-305.851	-52.645	0.148	0.069
-304.837	37.646	0.072	-0.065
-303.822	586.223	0.060	-0.150
-302.807	-8.713	0.140	0.095
-301.793	-1.147	-0.092	0.066
-300.778	-138.038	-0.242	0.027
-299.764	-200.000	-0.008	0.043
-298.749	-200.000	0.032	0.356
-297.735	-15.895	-0.254	-0.164
-296.720	-200.000	0.043	-0.202
-295.705	-142.990	0.105	-0.010
-294.691	-200.000	0.038	0.174
-293.676	-200.000	0.052	0.400
-292.662	-35.051	0.284	0.156
-291.647	-200.000	-0.004	0.187
-290.632	-87.760	0.246	0.075
-289.618	290.931	0.059	-0.109
-288.603	-200.000	-0.033	0.227
-287.589	207.082	-0.108	-0.170
-286.574	120.831	-0.125	0.158
-285.559	72.554	-0.049	-0.051
-284.545	-200.000	-0.003	0.189
-283.530	-50.310	-0.106	0.050
-282.516	800.000	0.082	-0.267
-281.501	643.987	-0.042	-0.109
-280.486	125.751	-0.059	0.075
-279.472	210.668	0.075	-0.119
-278.457	113.704	-0.066	0.081
-277.443	-130.402	0.246	-0.034
-276.428	-119.045	0.054	-0.009
-275.413	-61.274	0.053	0.023
-274.399	-200.000	-0.007	0.225
-273.384	126.907	0.138	-0.177
-272.370	-116.054	-0.415	0.078
-271.355	-4.867	0.272	0.190
-270.340	198.913	0.030	-0.046
-269.326	322.658	0.085	-0.164
-268.311	800.000	-0.071	0.231
-267.297	641.008	0.105	-0.270
-266.282	185.730	0.022	0.033
-265.267	-200.000	-0.038	-0.247
-264.253	-200.000	0.008	0.094
-263.238	-67.908	-0.283	0.112
-262.224	53.415	0.305	-0.295
-261.209	174.065	0.037	-0.054
-260.195	-165.921	0.072	0.003
-259.180	36.179	-0.211	-0.188
-258.165	265.166	-0.100	-0.176
-257.151	-200.000	-0.038	0.287
-256.136	-18.933	-0.230	-0.144
-255.122	16.322	0.221	0.176
-254.107	-90.776	-0.128	0.037
-253.092	-43.500	-0.259	-0.132
-252.078	102.452	-0.177	-0.209
-251.063	-135.971	0.142	-0.017
-250.049	-28.663	0.042	-0.024
-249.034	91.779	0.152	-0.173
-248.019	22.077	0.221	-0.183
-247.005	-6.866	-0.104	-0.071
-245.990	-92.382	-0.257	-0.073
-244.976	800.000	-0.035	-0.104
-243.961	4.363	0.140	0.104
-242.946	480.855	0.112	-0.257
-241.932	83.783	0.278	-0.307
-240.917	-67.778	0.163	-0.064
-239.903	-9.843	-0.277	-0.186
-238.888	343.117	0.021	-0.042
-237.873	-88.475	-0.102	-0.031
-236.859	-200.000	-0.041	-0.195
-235.844	-163.470	-0.084	0.004
-234.830	-128.011	0.151	0.022
-233.815	-41.019	-0.134	0.070
-232.800	135.672	0.072	-0.094
-231.786	800.000	-0.011	0.040
-230.771	58.073	0.257	0.254
-229.757	78.619	-0.083	0.089
-228.742	203.157	-0.050	-0.078
-227.727	334.433	0.073	-0.143
-226.713	800.000	-0.066	-0.251
-225.698	-200.000	-0.024	0.193
-224.684	706.069	0.111	0.296
-223.669	48.081	0.119	-0.112
-222.655	207.589	0.165	0.261
-221.640	-200.000	-0.007	0.161
-220.625	-8.747	0.097	-0.066
-219.611	760.177	0.102	0.278
-218.596	28.339	0.080	0.068
-217.582	-151.057	0.238	0.018
-216.567	258.793	0.132	-0.230
-215.552	-200.000	0.038	-0.194
-214.538	-84.114	-0.406	-0.130
-213.523	41.852	-0.204	0.186
-212.509	-82.605	-0.122	0.040
-211.494	142.490	-0.185	0.248
-210.479	-138.034	0.136	-0.015
-209.465	36.356	-0.118	-0.105
-208.450	82.811	0.066	-0.073
-207.436	0.488	-0.435	-0.314
-206.421	-16.394	-0.199	0.128
-205.406	516.573	0.169	0.398
-204.392	-200.000	-0.037	-0.267
-203.377	800.000	0.065	-0.188
-202.363	43.333	0.171	-0.157
-201.348	-36.353	-0.174	-0.094
-200.333	201.827	0.070	-0.108
-199.319	-200.000	-0.033	-0.223
-198.304	335.308	-0.098	0.191
-197.290	800.000	0.060	-0.213
-196.275	-107.640	-0.166	-0.037
-195.260	-99.826	0.356	-0.090
-194.246	800.000	0.036	-0.101
-193.231	627.239	0.180	0.459
-192.217	51.807	0.132	0.127
-191.202	-82.669	0.014	0.005
-190.187	-133.876	0.134	0.017
-189.173	8.816	-0.143	0.109
-188.158	44.491	0.259	0.240
-187.144	-93.548	0.353	-0.098
-186.129	116.266	-0.138	-0.170
-185.114	494.166	-0.014	0.033
-184.100	-200.000	0.017	-0.187
-183.085	66.457	-0.226	-0.232
-182.071	-109.179	-0.128	0.027
-181.056	-77.261	0.243	0.085
-180.042	-83.514	-0.058	0.019
-179.027	-166.357	0.290	-0.012
-178.012	-147.053	-0.269	-0.023
-176.998	411.398	-0.102	0.218
-175.983	22.610	-0.095	-0.078
-174.969	-200.000	0.008	0.074
-173.954	-10.232	-0.254	-0.170
-172.939	800.000	0.045	-0.178
-171.925	-15.742	0.153	0.098
-170.910	8.134	0.273	0.207
-169.896	-8.139	0.059	-0.040
-168.881	-200.000	-0.028	0.159
-167.866	800.000	0.060	0.222
-166.852	-159.615	0.271	0.015
-165.837	800.000	-0.031	0.124
-164.823	353.399	0.133	0.265
-163.808	-15.781	-0.275	-0.177
-162.793	244.446	0.134	0.226
-161.779	-20.810	0.088	0.055
-160.764	-56.835	-0.265	0.118
-159.750	800.000	0.061	0.186
-158.735	-172.802	0.076	0.002
-157.720	-16.905	-0.126	-0.080
-156.706	-188.906	-0.122	0.001
-155.691	20.413	0.014	0.012
-154.677	-146.433	0.268	0.024
-153.662	-159.667	0.302	0.017
-152.647	1.573	-0.133	0.096
-151.633	-200.000	0.013	-0.231
-150.618	21.525	-0.101	0.083
-149.604	284.076	0.128	0.233
-148.589	-200.000	0.049	0.357
-147.574	124.301	-0.097	-0.123
-146.560	-145.885	0.279	0.025
-145.545	-83.225	-0.187	0.060
-144.531	166.976	0.215	-0.308
-143.516	249.882	0.013	0.022
-142.502	42.699	0.061	-0.055
-141.487	-97.833	-0.093	-0.024
-140.472	-200.000	-0.017	-0.273
-139.458	0.804	-0.025	0.018
-138.443	459.524	0.129	-0.290
-137.429	-110.557	-0.167	-0.035
-136.414	-23.395	-0.088	-0.053
-135.399	-47.045	-0.083	-0.041
-134.385	22.472	-0.216	0.178
-133.370	-78.073	0.075	-0.026
-132.356	-178.494	0.261	-0.006
-131.341	800.000	-0.081	-0.234
-130.326	37.249	-0.145	0.129
-129.312	-0.183	0.157	-0.113
-128.297	-46.495	-0.318	-0.157
-127.283	-200.000	0.049	-0.281
-126.268	-16.062	0.095	-0.061
-125.253	52.957	0.090	0.087
-124.239	16.662	-0.319	0.254
-123.224	-146.575	0.040	0.003
-122.210	7.824	0.200	0.150
-121.195	200.309	0.114	0.176
-120.180	-104.975	-0.261	-0.060
