DTS Sentinel unit serial number:	SN413079Multiplexer serial number:	ORYXHardware model number:	OX4-SRSoftware version number:	ORYX F/W v4.00 Oryx Data Collector v3.7.2.0data status	okinstallation	princeton_trtdifferential loss correction	single-endedforward channel	channel 4reverse channel	N/Adate	2019/09/16time	14:09:35forward acquisition time	60.00reverse acquisition time	0.00gamma	496.2192k internal	0.2285k external	0.2285temperature offset calibration	0.9938default loss term (dB/km)	0.3790temperature slope calibration	1.0000multiplexer offset coefficient	1.0000multiplexer slope coefficient	1.0000fibre end	0.00T internal ref (°C)	42.27T ext. ref 1 (°C)	14.10T ext. ref 2 (°C)	36.63length (m)	temperature (°C)	Stokes	anti-Stokes-747.200	632.055	0.112	-0.290
-746.185	-108.032	0.149	-0.033
-745.171	233.784	-0.076	0.129
-744.156	234.208	0.181	0.306
-743.142	-17.889	0.189	-0.121
-742.127	-200.000	-0.022	0.391
-741.112	-43.026	0.177	-0.092
-740.098	800.000	0.069	0.212
-739.083	152.986	0.125	0.176
-738.069	-109.103	-0.116	-0.025
-737.054	-41.000	0.239	-0.127
-736.039	-61.903	-0.276	-0.119
-735.025	-68.270	0.133	-0.053
-734.010	-58.750	0.034	-0.015
-732.996	-32.407	-0.185	-0.106
-731.981	-200.000	-0.151	0.001
-730.966	621.854	-0.133	-0.343
-729.952	106.496	-0.105	-0.128
-728.937	12.968	0.062	0.049
-727.923	-131.490	0.397	-0.054
-726.908	-200.000	0.004	0.019
-725.894	-191.604	0.326	-0.003
-724.879	10.613	0.047	0.037
-723.864	-16.152	-0.213	-0.139
-722.850	318.994	0.107	-0.207
-721.835	501.103	-0.072	-0.171
-720.821	3.722	-0.210	0.157
-719.806	-200.000	-0.012	-0.136
-718.791	-200.000	-0.041	-0.244
-717.777	-17.546	0.234	0.151
-716.762	173.930	0.154	-0.228
-715.748	-200.000	0.004	-0.145
-714.733	800.000	0.075	-0.312
-713.718	-84.667	-0.044	-0.014
-712.704	296.871	0.080	-0.150
-711.689	684.587	-0.061	-0.162
-710.675	454.344	-0.186	0.422
-709.660	-34.644	-0.184	-0.103
-708.645	227.617	0.131	-0.219
-707.631	-200.000	-0.027	0.285
-706.616	-6.134	-0.045	-0.032
-705.602	83.036	0.076	0.085
-704.587	13.944	0.152	-0.121
-703.572	70.334	0.113	0.120
-702.558	800.000	-0.042	0.154
-701.543	2.287	0.095	0.071
-700.529	662.585	-0.062	-0.163
-699.514	19.254	0.152	-0.125
-698.499	-84.478	-0.207	0.067
-697.485	-200.000	-0.014	-0.393
-696.470	-200.000	-0.009	0.059
-695.456	537.520	0.014	-0.033
-694.441	30.225	-0.069	0.061
-693.426	-44.484	-0.196	-0.101
-692.412	-9.946	0.061	0.041
-691.397	800.000	0.053	-0.169
-690.383	-50.859	0.084	-0.040
-689.368	-95.547	0.424	-0.117
-688.354	-200.000	-0.087	-0.452
-687.339	655.706	-0.179	-0.472
-686.324	-200.000	0.030	0.293
-685.310	318.565	-0.151	0.293
-684.295	-92.347	-0.248	0.072
-683.281	800.000	0.077	-0.314
-682.266	-117.410	-0.169	-0.031
-681.251	-103.802	0.047	0.011
-680.237	323.673	0.116	-0.226
-679.222	-25.449	-0.204	0.124
-678.208	-200.000	0.023	0.139
-677.193	800.000	0.101	-0.306
-676.178	-67.722	-0.052	0.021
-675.164	-35.271	-0.165	0.092
-674.149	-200.000	0.045	0.667
-673.135	-200.000	0.034	0.399
-672.120	-161.691	0.044	-0.002
-671.105	507.691	0.108	-0.257
-670.091	-200.000	-0.028	-0.203
-669.076	-200.000	-0.003	0.316
-668.062	-18.809	0.406	-0.259
-667.047	616.875	-0.139	-0.356
-666.032	-28.229	-0.332	-0.197
-665.018	800.000	0.084	0.301
-664.003	-200.000	-0.033	-0.205
-662.989	326.081	-0.203	0.397
-661.974	-95.310	0.344	0.095
-660.959	-11.277	0.220	0.149
-659.945	-188.552	-0.076	0.001
-658.930	-200.000	-0.008	0.131
-657.916	70.841	-0.130	-0.138
-656.901	22.643	-0.130	0.109
-655.886	-156.473	-0.106	0.007
-654.872	-22.567	0.118	-0.073
-653.857	-200.000	-0.001	-0.304
-652.843	-109.103	-0.343	-0.075
-651.828	12.372	0.154	-0.122
-650.814	-200.000	-0.002	0.183
-649.799	-108.923	0.156	-0.034
-648.784	-45.258	0.148	-0.075
-647.770	231.404	-0.034	0.057
-646.755	-200.000	-0.024	-0.253
-645.741	-96.517	-0.159	0.043
-644.726	33.574	-0.160	0.142
-643.711	-150.020	0.328	0.026
-642.697	14.065	0.126	-0.100
-641.682	3.599	-0.144	0.108
-640.668	597.122	-0.065	-0.165
-639.653	-80.609	0.048	0.016
-638.638	-85.414	0.110	-0.035
-637.624	12.966	0.059	0.047
-636.609	800.000	-0.137	0.538
-635.595	320.969	-0.104	-0.202
-634.580	-200.000	-0.017	0.101
-633.565	540.563	-0.099	-0.241
-632.551	-35.153	0.141	0.078
-631.536	29.053	-0.361	-0.313
-630.522	0.551	-0.250	-0.183
-629.507	-200.000	0.017	-0.188
-628.492	-200.000	-0.017	-0.302
-627.478	-97.303	-0.068	0.018
-626.463	-145.283	0.217	0.020
-625.449	-61.910	-0.098	-0.042
-624.434	99.640	0.188	0.223
-623.419	749.387	0.053	-0.147
-622.405	-44.211	0.272	0.139
-621.390	-200.000	0.024	-0.139
-620.376	50.414	-0.153	-0.148
-619.361	-20.117	-0.044	-0.028
-618.346	800.000	-0.019	0.062
-617.332	-87.980	0.048	-0.015
-616.317	-89.288	0.150	-0.045
-615.303	-200.000	0.037	-0.204
-614.288	17.368	0.307	0.249
-613.273	49.257	0.083	-0.080
-612.259	163.417	0.063	-0.091
-611.244	66.837	0.152	-0.158
-610.230	-1.469	-0.090	-0.065
-609.215	258.725	-0.095	-0.168
-608.201	418.756	-0.121	-0.264
-607.186	-42.628	0.191	-0.099
-606.171	-200.000	-0.017	-0.281
-605.157	800.000	0.028	-0.125
-604.142	0.113	0.095	-0.069
-603.128	113.513	0.207	0.257
-602.113	800.000	0.047	0.156
-601.098	-105.594	-0.174	0.040
-600.084	-100.646	-0.097	0.025
-599.069	201.309	-0.027	0.043
-598.055	363.375	-0.116	0.237
-597.040	17.606	0.146	-0.118
-596.025	460.496	0.032	-0.074
-595.011	170.788	-0.037	-0.054
-593.996	800.000	0.063	-0.221
-592.982	-24.849	-0.071	-0.043
-591.967	167.469	0.106	-0.154
-590.952	-12.592	-0.061	-0.040
-589.938	-107.209	0.212	0.048
-588.923	-66.858	0.036	0.014
-587.909	79.408	0.209	0.229
-586.894	-15.630	0.329	0.214
-585.879	-91.151	0.086	0.025
-584.865	72.121	0.166	0.177
-583.850	-128.000	-0.259	0.038
-582.836	-149.871	0.400	0.032
-581.821	-118.105	-0.103	-0.019
-580.806	-122.616	-0.090	-0.015
-579.792	-140.013	0.450	-0.048
-578.777	-90.138	-0.065	0.019
-577.763	215.863	0.122	-0.198
-576.748	-148.470	0.267	-0.022
-575.733	800.000	-0.032	-0.134
-574.719	-200.000	-0.007	0.133
-573.704	-63.180	0.245	0.103
-572.690	-200.000	-0.016	-0.118
-571.675	-115.333	-0.320	0.062
-570.661	-103.272	0.263	-0.063
-569.646	196.393	-0.113	-0.176
-568.631	133.073	0.152	0.200
-567.617	-200.000	0.056	-0.376
-566.602	323.173	-0.121	-0.235
-565.588	205.873	-0.129	0.205
-564.573	-200.000	-0.024	-0.305
-563.558	-113.807	-0.062	0.012
-562.544	151.631	0.267	-0.370
-561.529	-77.639	0.177	-0.063
-560.515	27.034	0.180	-0.154
-559.500	331.167	-0.076	0.149
-558.485	-3.967	-0.087	-0.062
-557.471	24.204	0.335	0.282
-556.456	-31.553	0.066	0.038
-555.442	201.996	0.114	0.180
-554.427	-161.049	0.187	-0.010
-553.412	-30.304	-0.219	0.127
-552.398	271.895	-0.092	0.166
-551.383	-29.936	0.091	0.053
-550.369	-103.564	0.097	-0.023
-549.354	-31.850	0.177	0.101
-548.339	-35.525	0.074	0.041
-547.325	39.616	-0.117	0.107
-546.310	800.000	-0.056	0.184
-545.296	-160.358	0.393	0.022
-544.281	99.426	-0.157	0.185
-543.266	33.036	-0.158	0.140
-542.252	-108.312	0.119	0.026
-541.237	-57.462	-0.175	-0.078
-540.223	32.110	0.139	-0.122
-539.208	250.970	-0.126	-0.218
-538.193	-200.000	-0.002	0.042
-537.179	-99.718	-0.213	0.054
-536.164	-15.133	-0.176	-0.115
-535.150	-200.000	-0.039	0.309
-534.135	272.464	0.012	0.022
-533.121	-143.234	0.170	0.017
-532.106	-200.000	-0.038	0.196
-531.091	264.013	0.115	-0.204
-530.077	800.000	-0.120	0.434
-529.062	-116.342	-0.291	-0.055
-528.048	-200.000	0.051	0.256
-527.033	800.000	0.060	-0.220
-526.018	-54.489	-0.057	0.026
-525.004	598.590	0.110	-0.278
-523.989	181.388	-0.061	0.092
-522.975	-90.272	0.408	0.121
-521.960	-40.570	-0.219	0.116
-520.945	82.784	-0.151	-0.166
-519.931	-200.000	0.028	-0.179
-518.916	-36.054	0.147	-0.081
-517.902	-26.063	-0.151	0.090
-516.887	-200.000	-0.054	-0.252
-515.872	144.956	0.057	0.078
-514.858	53.501	-0.143	0.140
-513.843	-140.891	0.035	-0.004
-512.829	-200.000	-0.056	-0.340
-511.814	800.000	-0.032	-0.120
-510.799	32.493	-0.131	0.116
-509.785	-154.126	-0.182	-0.013
-508.770	54.512	-0.122	-0.120
-507.756	-122.485	0.133	0.022
-506.741	1.148	0.203	-0.149
-505.726	312.237	-0.178	-0.340
-504.712	141.606	-0.236	-0.318
-503.697	387.620	0.092	0.194
-502.683	-200.000	-0.042	0.402
-501.668	800.000	0.092	0.298
-500.653	-119.026	-0.057	-0.010
-499.639	229.824	-0.122	0.203
-498.624	309.751	0.169	0.321
-497.610	383.641	0.084	-0.177
-496.595	446.112	-0.062	-0.140
-495.581	-66.098	0.182	-0.074
-494.566	-200.000	0.006	-0.139
-493.551	-200.000	-0.009	-0.078
-492.537	203.996	-0.101	-0.160
-491.522	517.723	-0.122	-0.290
-490.508	219.246	0.073	-0.119
-489.493	136.816	0.303	0.403
-488.478	-85.073	-0.297	0.095
-487.464	24.261	-0.095	0.080
-486.449	162.205	0.015	0.022
-485.435	67.818	0.174	-0.180
-484.420	638.635	0.089	-0.230
-483.405	-64.600	0.290	-0.119
-482.391	-200.000	-0.001	-0.134
-481.376	-90.053	-0.293	0.087
-480.362	112.851	-0.171	-0.211
-479.347	-200.000	-0.001	-0.053
-478.332	800.000	0.025	-0.108
-477.318	114.762	0.066	-0.081
-476.303	-133.139	0.328	-0.042
-475.289	-87.978	-0.098	0.030
-474.274	-5.292	0.038	0.026
-473.259	-42.531	0.266	-0.138
-472.245	301.367	-0.085	0.160
-471.230	276.773	-0.087	-0.158
-470.216	-86.309	-0.158	-0.049
-469.201	416.979	0.159	0.346
-468.186	-54.121	-0.343	0.158
-467.172	-48.284	0.135	0.066
-466.157	-58.274	0.157	0.070
-465.143	-189.489	-0.195	0.002
-464.128	89.340	-0.155	0.175
-463.113	719.339	-0.099	0.267
-462.099	-9.065	0.465	0.316
-461.084	-10.000	0.088	-0.059
-460.070	23.335	-0.007	-0.006
-459.055	-63.842	-0.340	-0.141
-458.040	500.983	-0.092	-0.214
-457.026	261.442	-0.047	-0.083
-456.011	436.423	0.099	-0.218
-454.997	800.000	-0.076	0.239
-453.982	304.975	0.157	0.297
-452.968	-110.483	-0.306	0.064
-451.953	-200.000	0.004	-0.154
-450.938	-64.604	0.136	0.056
-449.924	-200.000	0.002	-0.046
-448.909	783.843	0.079	-0.220
-447.895	-114.837	-0.474	0.092
-446.880	62.842	0.220	0.224
-445.865	-117.541	-0.161	-0.030
-444.851	116.012	-0.066	0.082
-443.836	-200.000	0.030	-0.343
-442.822	6.071	-0.111	0.084
-441.807	-82.677	0.240	-0.079
-440.792	-87.061	0.150	-0.046
-439.778	800.000	-0.086	0.308
-438.763	345.276	0.119	-0.238
-437.749	56.667	-0.050	0.049
-436.734	459.734	-0.145	0.327
-435.719	-200.000	-0.038	-0.334
-434.705	800.000	-0.115	0.353
-433.690	800.000	0.031	-0.090
-432.676	83.886	0.097	0.107
-431.661	-111.134	-0.269	0.056
-430.646	-94.137	-0.348	0.097
-429.632	223.029	0.133	0.217
-428.617	800.000	-0.082	0.259
-427.603	-157.582	0.255	0.015
-426.588	-36.356	0.138	0.075
-425.573	28.886	0.233	-0.201
-424.559	-24.045	0.054	-0.033
-423.544	800.000	-0.020	-0.073
-422.530	156.886	0.151	0.211
-421.515	69.401	0.230	-0.240
-420.500	-63.303	0.173	-0.072
-419.486	-37.303	0.152	0.082
-418.471	-200.000	-0.018	-0.183
-417.457	408.230	0.016	0.035
-416.442	138.301	-0.189	-0.252
-415.428	72.104	-0.018	-0.019
-414.413	-51.968	0.240	0.113
-413.398	-33.984	-0.201	0.112
-412.384	-200.000	0.029	0.253
-411.369	-200.000	-0.029	0.224
-410.355	-21.905	0.231	0.142
-409.340	-84.272	-0.383	0.123
-408.325	204.707	0.064	-0.100
-407.311	800.000	-0.031	-0.130
-406.296	-4.628	-0.178	-0.124
-405.282	-158.132	-0.034	-0.002
-404.267	90.048	-0.066	-0.075
-403.252	800.000	0.067	0.259
-402.238	-200.000	-0.019	-0.198
-401.223	-163.059	-0.177	0.009
-400.209	360.998	0.020	-0.040
-399.194	-133.371	0.206	0.026
-398.179	241.993	-0.129	-0.218
-397.165	-200.000	-0.151	0.000
-396.150	-111.990	0.226	-0.046
-395.136	54.907	-0.088	0.086
-394.121	-200.000	-0.009	0.425
-393.106	59.455	0.129	-0.129
-392.092	-143.641	0.198	-0.019
-391.077	-49.800	-0.062	0.030
-390.063	323.751	0.074	-0.143
-389.048	680.323	-0.069	-0.182
-388.033	-45.657	0.192	-0.096
-387.019	-117.667	0.117	0.021
-386.004	-78.610	-0.171	-0.059
-384.990	29.687	-0.098	0.084
-383.975	800.000	0.112	0.424
-382.960	63.133	0.066	0.067
-381.946	-94.519	0.134	-0.037
-380.931	11.957	-0.315	0.245
-379.917	-200.000	-0.029	-0.141
-378.902	387.211	-0.055	-0.115
-377.888	36.581	-0.196	-0.175
-376.873	-80.551	-0.098	0.033
-375.858	358.553	0.069	0.140
-374.844	-45.323	-0.146	-0.073
-373.829	-123.441	0.155	0.025
-372.815	-81.930	0.222	0.073
-371.800	800.000	-0.112	-0.368
-370.785	151.744	0.081	-0.112
-369.771	54.300	0.098	0.096
-368.756	-200.000	0.021	-0.258
-367.742	-200.000	0.020	0.214
-366.727	-200.000	-0.002	0.064
-365.712	-36.207	-0.122	-0.067
-364.698	-113.355	0.165	0.033
-363.683	-1.257	-0.221	0.158
-362.669	58.542	0.179	0.178
-361.654	66.943	-0.026	-0.027
-360.639	-160.134	0.239	0.013
-359.625	61.713	0.102	-0.103
-358.610	-54.283	-0.226	0.104
-357.596	-85.228	-0.054	-0.017
-356.581	-94.578	0.165	-0.045
-355.566	-173.311	-0.200	-0.006
-354.552	-31.386	0.290	0.165
-353.537	497.673	-0.015	0.036
-352.523	800.000	0.087	-0.351
-351.508	-83.908	0.297	-0.096
-350.493	-200.000	-0.031	0.405
-349.479	-135.661	-0.082	-0.010
-348.464	340.963	-0.081	0.160
-347.450	34.902	-0.109	-0.096
-346.435	111.855	-0.055	-0.067
-345.420	-127.490	-0.121	0.018
-344.406	34.392	-0.186	0.164
-343.391	-15.202	0.224	0.145
-342.377	-200.000	-0.012	-0.220
-341.362	89.877	0.153	0.173
-340.348	-200.000	-0.005	0.141
-339.333	-200.000	0.073	-0.391
-338.318	-147.408	-0.219	-0.019
-337.304	131.128	-0.166	-0.215
-336.289	345.538	-0.080	0.159
-335.275	446.985	-0.111	-0.246
-334.260	-109.182	0.445	0.095
-333.245	-13.508	-0.276	0.181
-332.231	-200.000	0.006	0.058
-331.216	-24.670	0.257	-0.155
-330.202	-200.000	-0.028	-0.211
-329.187	-65.408	0.038	-0.015
-328.172	-24.666	0.115	-0.069
-327.158	-166.822	0.472	-0.020
-326.143	800.000	0.063	0.211
-325.129	-80.349	0.046	0.016
-324.114	64.249	-0.273	0.277
-323.099	172.480	-0.135	0.196
-322.085	-85.942	-0.317	0.099
-321.070	-31.319	-0.170	-0.096
-320.056	-93.445	-0.266	0.074
-319.041	80.656	-0.409	0.445
-318.026	529.987	-0.165	0.393
-317.012	771.323	-0.129	0.355
-315.997	-5.985	0.081	-0.056
-314.983	800.000	-0.088	-0.387
-313.968	47.936	0.070	0.066
-312.953	-31.178	-0.118	-0.067
-311.939	143.928	0.183	0.247
-310.924	-75.517	-0.535	-0.192
-309.910	-55.856	-0.132	0.059
-308.895	228.469	0.036	0.060
-307.880	350.721	-0.078	-0.156
-306.866	-145.362	-0.302	0.027
-305.851	-13.614	-0.090	-0.059
-304.837	-58.759	-0.172	-0.075
-303.822	800.000	-0.015	0.052
-302.807	800.000	-0.077	0.328
-301.793	22.559	0.251	-0.207
-300.778	556.406	-0.035	-0.086
-299.764	-45.399	0.181	-0.091
-298.749	-200.000	0.019	0.163
-297.735	-200.000	0.002	-0.123
-296.720	-7.997	-0.211	0.144
-295.705	-200.000	0.071	0.313
-294.691	-130.543	0.341	0.046
-293.676	124.676	0.124	-0.158
-292.662	-126.005	-0.239	-0.036
-291.647	585.203	0.103	0.256
-290.632	30.152	0.123	0.105
-289.618	81.536	-0.122	-0.133
-288.603	-1.906	0.194	0.137
-287.589	-172.113	-0.121	0.004
-286.574	-200.000	-0.017	0.100
-285.559	211.776	-0.219	0.347
-284.545	-200.000	-0.024	0.537
-283.530	-200.000	-0.004	0.019
-282.516	-76.313	-0.253	0.090
-281.501	23.694	-0.206	0.171
-280.486	-200.000	0.015	-0.101
-279.472	-200.000	-0.033	-0.198
-278.457	146.629	-0.142	0.193
-277.443	-149.793	-0.100	-0.008
-276.428	-41.395	-0.322	0.167
-275.413	-69.628	-0.190	0.073
-274.399	27.079	0.080	0.068
-273.384	79.763	-0.145	-0.157
-272.370	105.399	0.344	0.409
-271.355	-200.000	-0.029	0.281
-270.340	-157.251	0.217	-0.013
-269.326	-101.371	-0.213	-0.052
-268.311	498.343	-0.106	-0.247
-267.297	-35.858	0.365	0.199
-266.282	800.000	-0.092	0.318
-265.267	-200.000	0.000	0.176
-264.253	-200.000	-0.033	-0.148
-263.238	-30.853	-0.252	0.144
-262.224	-6.056	0.215	-0.148
-261.209	742.023	0.076	-0.206
-260.195	-128.336	0.271	-0.039
-259.180	-84.064	0.354	0.113
-258.165	155.702	0.102	0.142
-257.151	-38.480	0.043	-0.023
-256.136	352.020	0.068	-0.136
-255.122	168.026	-0.093	0.134
-254.107	15.844	-0.101	-0.080
-253.092	457.045	-0.101	-0.226
-252.078	-139.869	-0.299	-0.032
-251.063	-78.126	-0.184	-0.064
-250.049	-200.000	0.005	0.087
-249.034	-36.713	0.316	-0.171
-248.019	-200.000	0.025	0.217
-247.005	-64.684	0.451	-0.184
-245.990	-0.256	0.229	0.164
-244.976	-81.408	-0.006	-0.002
-243.961	-70.691	-0.084	-0.032
-242.946	146.279	0.137	-0.185
-241.932	800.000	-0.044	-0.161
-240.917	-70.096	-0.292	-0.112
-239.903	-146.248	-0.325	0.029
-238.888	283.008	0.107	-0.194
-237.873	-59.802	-0.247	-0.106
-236.859	-24.314	0.067	0.040
-235.844	-36.961	-0.184	0.099
-234.830	-35.105	-0.223	-0.122
-233.815	-32.896	0.174	0.097
-232.800	-33.133	-0.234	-0.130
-231.786	83.099	0.157	0.172
-230.771	-104.778	0.258	0.060
-229.757	-42.742	-0.112	-0.058
-228.742	28.696	0.332	0.282
-227.727	71.639	0.300	-0.314
-226.713	-116.581	-0.133	-0.025
-225.698	-200.000	-0.056	-0.260
-224.684	800.000	-0.046	-0.169
-223.669	465.453	0.172	-0.388
-222.655	-94.102	0.040	-0.011
-221.640	84.841	0.090	-0.099
-220.625	-200.000	-0.018	-0.122
-219.611	800.000	-0.122	-0.367
-218.596	800.000	0.075	-0.281
-217.582	800.000	-0.031	0.104
-216.567	-3.987	-0.092	0.064
-215.552	-200.000	0.025	-0.134
-214.538	355.552	0.145	-0.290
-213.523	433.709	-0.127	0.277
-212.509	527.123	-0.118	0.279
-211.494	-129.873	-0.118	-0.016
-210.479	-200.000	-0.026	-0.121
-209.465	383.642	0.057	-0.119
-208.450	-105.791	0.028	-0.006
-207.436	207.885	-0.018	-0.029
-206.421	-81.189	-0.167	-0.055
-205.406	-200.000	0.017	-0.114
-204.392	-70.394	-0.058	-0.022
-203.377	703.280	-0.041	-0.109
-202.363	799.210	0.052	0.143
-201.348	-200.000	-0.023	0.107
-200.333	307.484	0.076	-0.142
-199.319	33.349	-0.063	0.055
-198.304	-200.000	0.036	0.318
-197.290	-101.480	-0.166	-0.041
-196.275	54.061	-0.278	-0.269
-195.260	-200.000	0.002	0.118
-194.246	-113.463	0.128	-0.025
-193.231	175.126	-0.011	-0.016
-192.217	-200.000	0.026	0.154
-191.202	-52.257	-0.147	0.068
-190.187	345.791	0.069	-0.137
-189.173	-141.636	0.253	0.026
-188.158	-6.496	0.221	-0.151
-187.144	-125.973	-0.077	-0.012
-186.129	311.692	0.063	0.118
-185.114	-200.000	0.017	0.103
-184.100	-56.587	-0.114	0.051
-183.085	39.759	-0.151	-0.136
-182.071	-69.389	-0.249	-0.096
-181.056	-111.748	-0.195	-0.040
-180.042	-38.635	0.117	-0.062
-179.027	800.000	0.096	-0.400
-178.012	-200.000	0.001	0.017
-176.998	10.962	0.141	-0.109
-175.983	186.954	0.015	0.022
-174.969	432.915	0.080	0.174
-173.954	171.944	-0.115	-0.166
-172.939	-49.499	-0.374	0.179
-171.925	-200.000	-0.005	0.337
-170.910	513.260	-0.058	0.135
-169.896	287.133	0.089	0.162
-168.881	-49.087	-0.117	0.056
-167.866	89.751	0.152	-0.170
-166.852	150.464	0.057	-0.078
-165.837	-148.884	-0.089	0.007
-164.823	-96.327	0.276	-0.073
-163.808	-83.333	-0.175	-0.056
-162.793	486.192	-0.152	-0.348
-161.779	-91.400	-0.426	0.122
-160.764	800.000	0.068	-0.286
-159.750	131.755	0.013	0.017
-158.735	-200.000	-0.015	0.134
-157.720	342.369	0.076	-0.150
-156.706	-200.000	0.053	-0.283
-155.691	-130.149	-0.197	0.027
-154.677	-104.044	-0.033	-0.008
-153.662	471.472	-0.071	0.160
-152.647	-71.814	0.259	0.097
-151.633	598.996	0.083	0.205
-150.618	454.270	-0.198	0.440
-149.604	-54.937	0.138	0.063
-148.589	-163.610	-0.289	0.014
-147.574	800.000	0.058	0.182
-146.560	13.201	-0.127	0.098
-145.545	234.375	-0.163	0.270
-144.531	-42.837	0.260	0.132
-143.516	-87.738	0.235	-0.071
-142.502	-100.910	0.092	-0.023
-141.487	85.468	-0.139	0.153
-140.472	-200.000	0.014	-0.202
-139.458	-31.469	-0.065	0.037
-138.443	192.558	0.080	0.122
-137.429	25.220	0.036	-0.030
-136.414	800.000	0.117	0.325
-135.399	-8.637	0.158	-0.107
-134.385	95.317	0.155	0.177
-133.370	-34.099	-0.183	0.101
-132.356	-200.000	-0.034	-0.325
-131.341	113.812	-0.183	-0.222
-130.326	-200.000	0.035	0.221
-129.312	424.902	0.015	-0.033
-128.297	-123.298	-0.270	-0.043
-127.283	800.000	-0.093	0.397
-126.268	-11.174	-0.145	0.096
-125.253	-118.167	-0.182	-0.033
-124.239	-91.168	0.308	-0.089
-123.224	-200.000	-0.074	0.406
-122.210	427.153	0.101	-0.218
