DTS Sentinel unit serial number:	SN413079Multiplexer serial number:	ORYXHardware model number:	OX4-SRSoftware version number:	ORYX F/W v4.00 Oryx Data Collector v3.7.2.0data status	okinstallation	princeton_trtdifferential loss correction	single-endedforward channel	channel 4reverse channel	N/Adate	2019/09/13time	05:21:34forward acquisition time	60.00reverse acquisition time	0.00gamma	496.2192k internal	0.2323k external	0.2323temperature offset calibration	1.0194default loss term (dB/km)	0.3790temperature slope calibration	1.0000multiplexer offset coefficient	1.0000multiplexer slope coefficient	1.0000fibre end	0.00T internal ref (°C)	26.31T ext. ref 1 (°C)	4.04T ext. ref 2 (°C)	20.87length (m)	temperature (°C)	Stokes	anti-Stokes-747.200	57.972	0.104	0.103
-746.185	398.269	-0.038	-0.080
-745.171	-148.556	0.238	-0.020
-744.156	-139.298	0.404	0.044
-743.142	-200.000	0.010	-0.337
-742.127	-117.815	-0.395	-0.072
-741.112	-200.000	-0.028	-0.231
-740.098	171.230	-0.072	0.105
-739.083	-200.000	-0.017	-0.140
-738.069	-76.046	-0.344	0.123
-737.054	22.711	-0.081	-0.067
-736.039	800.000	-0.082	-0.326
-735.025	250.299	0.118	0.202
-734.010	551.795	-0.151	-0.366
-732.996	800.000	0.042	0.124
-731.981	-147.226	-0.213	0.018
-730.966	-11.755	0.237	-0.157
-729.952	-84.306	0.480	-0.153
-728.937	-146.177	-0.281	-0.025
-727.923	-103.038	0.038	0.009
-726.908	-100.144	0.325	-0.082
-725.894	309.243	-0.124	0.234
-724.879	362.782	-0.085	-0.172
-723.864	-74.474	-0.134	0.049
-722.850	-200.000	0.012	0.133
-721.835	166.653	-0.136	0.195
-720.821	-35.724	0.098	0.054
-719.806	-121.922	0.253	0.042
-718.791	479.941	-0.098	-0.224
-717.777	-200.000	-0.045	-0.302
-716.762	-200.000	-0.147	-0.000
-715.748	-151.872	0.069	0.005
-714.733	-53.037	-0.072	0.033
-713.718	800.000	-0.062	-0.196
-712.704	-200.000	-0.015	-0.318
-711.689	800.000	-0.077	-0.220
-710.675	-43.846	0.232	-0.118
-709.660	800.000	0.081	-0.350
-708.645	-126.444	0.110	0.017
-707.631	424.545	-0.067	-0.146
-706.616	116.337	0.335	-0.414
-705.602	25.263	-0.143	-0.120
-704.587	-91.048	-0.160	-0.046
-703.572	379.999	0.073	0.152
-702.558	800.000	0.039	-0.122
-701.543	-99.951	-0.302	0.076
-700.529	800.000	-0.010	0.033
-699.514	283.562	0.053	-0.097
-698.499	-37.888	0.163	-0.087
-697.485	102.904	0.230	0.272
-696.470	-6.526	0.198	-0.136
-695.456	-169.258	-0.280	0.010
-694.441	-200.000	-0.013	0.077
-693.426	180.776	-0.221	-0.327
-692.412	-127.249	0.320	-0.047
-691.397	99.929	-0.095	0.111
-690.383	-200.000	0.022	-0.196
-689.368	-134.735	-0.134	0.016
-688.354	-181.103	0.168	0.003
-687.339	-200.000	-0.018	0.287
-686.324	-200.000	0.074	-0.366
-685.310	-200.000	-0.013	0.068
-684.295	391.702	-0.053	-0.111
-683.281	-111.353	-0.285	0.059
-682.266	-40.426	-0.275	0.144
-681.251	-100.751	0.131	-0.033
-680.237	497.107	0.116	0.268
-679.222	-24.892	-0.048	0.029
-678.208	-200.000	0.010	0.205
-677.193	-41.554	-0.109	0.057
-676.178	-38.952	-0.290	-0.154
-675.164	-140.882	-0.473	0.049
-674.149	276.329	-0.134	-0.240
-673.135	800.000	0.044	-0.126
-672.120	-200.000	-0.043	-0.210
-671.105	574.228	0.122	-0.301
-670.091	-122.368	0.172	0.028
-669.076	-23.740	-0.069	-0.041
-668.062	155.108	0.214	-0.296
-667.047	800.000	0.023	-0.097
-666.032	-53.061	0.136	0.063
-665.018	398.516	-0.041	0.086
-664.003	34.589	-0.010	0.008
-662.989	-69.133	0.221	0.086
-661.974	356.028	-0.149	0.299
-660.959	555.772	0.054	0.131
-659.945	-134.763	-0.206	0.025
-658.930	197.209	0.159	0.244
-657.916	-90.052	-0.149	0.044
-656.901	-23.256	0.158	0.095
-655.886	69.153	-0.088	-0.091
-654.872	-60.356	0.051	-0.022
-653.857	800.000	0.131	-0.380
-652.843	153.907	-0.104	0.144
-651.828	-68.694	-0.104	0.040
-650.814	800.000	-0.043	-0.161
-649.799	-148.411	0.463	0.038
-648.784	145.051	0.061	0.082
-647.770	800.000	-0.074	-0.221
-646.755	-65.149	0.040	0.016
-645.741	-200.000	-0.031	-0.257
-644.726	-200.000	0.012	-0.184
-643.711	800.000	-0.051	-0.168
-642.697	-0.276	0.105	-0.075
-641.682	-63.112	0.293	0.122
-640.668	-200.000	-0.009	0.145
-639.653	-28.799	0.189	0.109
-638.638	-126.523	0.347	-0.052
-637.624	26.308	0.223	-0.188
-636.609	-33.654	-0.278	0.154
-635.595	24.023	-0.308	-0.256
-634.580	-69.398	-0.190	0.073
-633.565	800.000	0.032	-0.125
-632.551	148.496	-0.190	-0.258
-631.536	-200.000	0.013	-0.188
-630.522	-12.036	-0.258	0.170
-629.507	-59.207	0.122	0.053
-628.492	-200.000	0.006	-0.166
-627.478	800.000	0.026	-0.090
-626.463	315.336	0.076	-0.145
-625.449	68.689	-0.207	0.214
-624.434	-8.644	-0.222	0.149
-623.419	800.000	-0.025	0.081
-622.405	195.019	0.245	-0.374
-621.390	94.094	-0.133	-0.151
-620.376	438.807	-0.102	0.223
-619.361	-46.935	0.083	0.041
-618.346	656.496	-0.085	0.219
-617.332	-200.000	0.034	0.196
-616.317	387.292	0.100	0.208
-615.303	558.014	0.092	0.224
-614.288	-200.000	0.198	0.001
-613.273	800.000	0.070	0.218
-612.259	-200.000	-0.033	-0.213
-611.244	-200.000	0.050	-0.450
-610.230	82.354	-0.049	0.054
-609.215	342.479	-0.082	-0.162
-608.201	-80.125	0.231	0.078
-607.186	800.000	0.062	-0.253
-606.171	-72.785	0.246	-0.091
-605.157	119.675	0.164	0.205
-604.142	-121.100	0.363	-0.061
-603.128	800.000	0.072	-0.236
-602.113	319.106	0.131	-0.249
-601.098	28.601	0.067	-0.057
-600.084	220.045	-0.060	-0.096
-599.069	122.284	0.125	-0.157
-598.055	-95.759	0.263	-0.070
-597.040	183.493	-0.213	-0.316
-596.025	-137.970	0.179	-0.020
-595.011	406.091	0.082	-0.175
-593.996	228.038	0.126	-0.205
-592.982	43.805	-0.076	-0.070
-591.967	-120.284	-0.114	0.019
-590.952	-26.731	0.148	0.087
-589.938	-200.000	-0.026	-0.135
-588.923	-112.398	0.181	-0.036
-587.909	192.934	-0.197	0.299
-586.894	-200.000	-0.037	-0.203
-585.879	19.301	-0.144	-0.116
-584.865	48.460	-0.205	0.193
-583.850	-55.583	-0.189	-0.085
-582.836	256.147	-0.041	0.070
-581.821	-200.000	0.016	-0.113
-580.806	-200.000	-0.022	-0.101
-579.792	-135.829	-0.133	-0.016
-578.777	653.413	0.064	-0.166
-577.763	-160.858	-0.264	0.014
-576.748	-200.000	0.050	0.363
-575.733	-200.000	-0.036	0.198
-574.719	318.160	0.234	-0.444
-573.704	-200.000	0.037	0.291
-572.690	150.493	0.044	-0.059
-571.675	-12.577	0.107	0.070
-570.661	-14.829	-0.197	-0.127
-569.646	252.493	0.100	0.171
-568.631	-200.000	0.001	0.119
-567.617	-31.572	-0.367	0.207
-566.602	-93.840	-0.104	-0.029
-565.588	-200.000	0.021	-0.187
-564.573	800.000	0.082	-0.256
-563.558	44.721	0.113	0.104
-562.544	-133.895	0.059	0.007
-561.529	132.689	0.072	-0.093
-560.515	20.939	-0.159	-0.129
-559.500	-108.692	-0.278	0.060
-558.485	242.014	0.011	-0.019
-557.471	-80.326	-0.390	0.131
-556.456	-83.596	0.207	-0.066
-555.442	-187.766	0.332	0.004
-554.427	-74.009	0.342	-0.124
-553.412	-200.000	0.011	-0.069
-552.398	-46.189	0.212	0.105
-551.383	101.492	0.182	-0.212
-550.369	84.318	-0.181	0.198
-549.354	-81.339	0.214	0.071
-548.339	246.969	0.022	-0.038
-547.325	-200.000	0.004	-0.024
-546.310	-25.173	-0.222	-0.132
-545.296	-89.342	-0.176	0.052
-544.281	800.000	-0.082	-0.244
-543.266	-78.055	-0.201	0.069
-542.252	800.000	0.065	0.207
-541.237	-154.563	-0.223	-0.015
-540.223	-62.415	0.284	-0.118
-539.208	-19.099	-0.066	0.041
-538.193	21.518	-0.339	0.277
-537.179	-106.393	0.148	0.033
-536.164	14.165	0.222	0.173
-535.150	406.672	-0.022	-0.046
-534.135	121.163	-0.081	0.100
-533.121	-93.798	0.036	0.010
-532.106	-200.000	0.045	0.384
-531.091	-126.495	-0.389	-0.058
-530.077	677.499	0.060	-0.156
-529.062	93.266	0.309	0.350
-528.048	-40.621	-0.290	-0.151
-527.033	-32.395	0.151	0.084
-526.018	-68.275	0.239	-0.093
-525.004	-30.645	0.185	0.105
-523.989	619.639	0.089	-0.224
-522.975	496.542	-0.086	-0.198
-521.960	-18.225	0.159	0.100
-520.945	-43.102	0.284	-0.144
-519.931	-31.344	0.069	0.039
-518.916	235.271	-0.144	-0.238
-517.902	165.301	0.098	-0.138
-516.887	-21.121	-0.280	-0.172
-515.872	64.551	-0.216	0.218
-514.858	75.842	0.132	0.140
-513.843	-46.162	-0.266	-0.131
-512.829	-200.000	-0.009	-0.406
-511.814	27.693	-0.124	-0.104
-510.799	146.754	0.064	-0.085
-509.785	-200.000	0.022	-0.128
-508.770	-78.131	-0.166	0.057
-507.756	800.000	-0.035	0.101
-506.741	158.785	-0.184	0.256
-505.726	-112.145	-0.235	-0.047
-504.712	800.000	-0.049	-0.154
-503.697	-16.542	-0.136	0.086
-502.683	-200.000	-0.082	0.541
-501.668	527.514	-0.069	0.163
-500.653	-200.000	-0.026	-0.163
-499.639	-95.109	-0.219	0.059
-498.624	-200.000	0.054	-0.522
-497.610	800.000	0.094	-0.342
-496.595	-153.772	0.198	-0.014
-495.581	-5.962	0.126	-0.086
-494.566	21.420	-0.178	0.145
-493.551	800.000	-0.031	0.092
-492.537	800.000	-0.149	0.443
-491.522	800.000	0.103	-0.328
-490.508	-146.762	-0.140	-0.012
-489.493	649.100	-0.076	0.195
-488.478	-132.339	-0.109	-0.014
-487.464	-74.073	-0.277	-0.100
-486.449	-113.036	0.176	-0.035
-485.435	278.328	0.210	-0.374
-484.420	800.000	-0.045	-0.172
-483.405	-67.667	-0.090	-0.035
-482.391	-41.493	-0.206	-0.106
-481.376	109.722	-0.279	0.334
-480.362	121.167	0.057	0.071
-479.347	-129.846	0.117	-0.016
-478.332	70.942	0.103	0.107
-477.318	-200.000	-0.006	0.179
-476.303	-25.586	0.188	-0.111
-475.289	-91.384	-0.157	0.045
-474.274	211.676	-0.020	0.031
-473.259	262.067	-0.080	-0.139
-472.245	119.768	0.213	0.264
-471.230	-8.376	-0.144	-0.097
-470.216	259.929	0.283	-0.488
-469.201	-85.812	-0.289	0.089
-468.186	-200.000	-0.017	0.155
-467.172	653.824	0.047	0.121
-466.157	5.416	-0.182	-0.134
-465.143	343.658	-0.130	-0.255
-464.128	175.719	-0.156	-0.225
-463.113	566.382	0.171	0.414
-462.099	327.561	0.046	0.088
-461.084	345.605	-0.049	0.096
-460.070	-154.583	0.288	0.019
-459.055	269.709	0.207	0.362
-458.040	287.663	-0.050	-0.090
-457.026	-200.000	-0.009	0.169
-456.011	194.027	0.135	-0.204
-454.997	77.787	-0.085	-0.090
-453.982	800.000	-0.024	0.082
-452.968	-64.233	0.367	-0.149
-451.953	31.982	0.179	0.154
-450.938	29.677	0.273	-0.232
-449.924	-59.166	-0.161	0.069
-448.909	374.091	-0.042	-0.086
-447.895	-90.840	-0.056	0.016
-446.880	-67.295	0.179	0.070
-445.865	27.796	-0.122	-0.103
-444.851	-65.828	0.133	-0.053
-443.836	-101.654	0.297	-0.072
-442.822	111.349	0.126	0.152
-441.807	-53.696	-0.175	-0.080
-440.792	-43.348	0.270	0.136
-439.778	166.729	-0.105	0.149
-438.763	-200.000	-0.033	0.231
-437.749	-30.069	-0.079	0.045
-436.734	10.714	-0.225	0.171
-435.719	-200.000	0.055	-0.305
-434.705	-200.000	-0.025	0.211
-433.690	-61.995	-0.238	-0.099
-432.676	29.650	0.199	0.169
-431.661	-121.625	0.339	-0.056
-430.646	800.000	0.048	0.171
-429.632	240.641	0.230	0.382
-428.617	10.248	0.337	0.256
-427.603	-58.449	0.218	-0.095
-426.588	800.000	-0.076	0.215
-425.573	303.885	-0.018	-0.033
-424.559	115.451	-0.069	0.084
-423.544	-17.408	0.278	-0.175
-422.530	47.976	-0.192	-0.179
-421.515	-32.730	-0.215	-0.119
-420.500	706.554	0.033	0.088
-419.486	-17.960	0.171	0.107
-418.471	-147.972	0.470	0.039
-417.457	-57.298	0.123	0.054
-416.442	-200.000	-0.022	-0.134
-415.428	144.566	0.148	0.197
-414.413	-200.000	0.013	-0.141
-413.398	-74.762	0.121	0.043
-412.384	398.315	-0.030	-0.062
-411.369	-58.765	0.223	0.096
-410.355	-123.669	-0.111	-0.018
-409.340	-200.000	0.008	-0.090
-408.325	-200.000	0.022	-0.311
-407.311	800.000	-0.061	-0.258
-406.296	-200.000	-0.083	-0.442
-405.282	24.283	-0.276	-0.227
-404.267	-43.002	0.239	0.121
-403.252	-200.000	0.005	0.103
-402.238	204.624	-0.112	-0.173
-401.223	-101.221	-0.226	-0.055
-400.209	-93.706	-0.185	0.051
-399.194	-55.733	-0.063	0.028
-398.179	-47.505	-0.188	0.091
-397.165	475.410	0.138	0.311
-396.150	355.344	-0.048	-0.096
-395.136	-161.493	0.453	-0.023
-394.121	-200.000	0.019	0.129
-393.106	509.365	0.114	-0.264
-392.092	-78.388	-0.218	-0.074
-391.077	320.112	0.040	-0.076
-390.063	53.178	-0.176	0.168
-389.048	52.612	-0.094	0.090
-388.033	-200.000	-0.052	0.402
-387.019	-200.000	0.025	0.155
-386.004	-200.000	-0.044	-0.294
-384.990	800.000	0.029	0.104
-383.975	-30.691	0.086	0.049
-382.960	49.139	-0.104	0.097
-381.946	800.000	-0.033	0.129
-380.931	637.042	0.117	0.297
-379.917	94.696	-0.205	-0.232
-378.902	240.441	-0.141	0.233
-377.888	-18.215	0.074	-0.046
-376.873	235.038	0.022	-0.036
-375.858	76.484	-0.117	-0.124
-374.844	-48.832	0.092	0.044
-373.829	105.670	-0.289	-0.340
-372.815	-29.797	0.335	0.190
-371.800	7.001	0.320	0.238
-370.785	-136.065	-0.187	-0.022
-369.771	79.106	-0.240	0.256
-368.756	800.000	0.037	-0.150
-367.742	-20.650	0.112	-0.069
-366.727	92.074	0.346	0.388
-365.712	47.925	-0.316	0.293
-364.698	-40.218	0.244	0.126
-363.683	-129.783	-0.185	0.025
-362.669	-24.762	-0.155	-0.092
-361.654	18.014	-0.341	-0.271
-360.639	32.542	-0.145	-0.124
-359.625	-200.000	0.000	0.342
-358.610	-111.822	0.034	0.007
-357.596	-168.216	-0.193	-0.007
-356.581	-168.932	-0.106	-0.004
-355.566	-200.000	-0.005	-0.209
-354.552	-31.299	-0.231	0.129
-353.537	8.395	-0.028	0.021
-352.523	800.000	-0.015	0.049
-351.508	-77.011	0.253	0.088
-350.493	89.310	-0.134	0.149
-349.479	-106.093	0.252	-0.056
-348.464	-171.704	0.233	0.008
-347.450	235.175	-0.138	-0.226
-346.435	-70.550	-0.148	0.056
-345.420	104.548	0.089	-0.104
-344.406	272.310	-0.079	-0.139
-343.391	-40.187	-0.439	-0.227
-342.377	5.624	-0.158	0.116
-341.362	-158.769	0.303	-0.017
-340.348	5.726	-0.069	-0.050
-339.333	-200.000	0.023	0.196
-338.318	-72.069	0.110	-0.041
-337.304	277.168	0.151	0.267
-336.289	-63.748	-0.344	-0.140
-335.275	127.429	0.341	-0.431
-334.260	-45.015	-0.162	0.080
-333.245	482.946	-0.094	0.213
-332.231	323.208	0.053	0.101
-331.216	60.250	0.094	0.092
-330.202	165.846	0.182	0.255
-329.187	-40.597	-0.287	0.148
-328.172	-200.000	-0.000	-0.354
-327.158	463.052	-0.033	0.073
-326.143	44.609	0.125	0.114
-325.129	800.000	0.085	-0.246
-324.114	-116.430	-0.366	0.067
-323.099	490.093	0.115	-0.260
-322.085	-39.890	-0.174	-0.090
-321.070	-200.000	-0.033	0.416
-320.056	-89.946	-0.123	0.036
-319.041	563.982	-0.101	0.243
-318.026	-150.306	-0.140	-0.011
-317.012	-93.371	0.080	0.022
-315.997	594.321	-0.085	-0.210
-314.983	72.798	0.160	-0.166
-313.968	148.161	-0.079	0.106
-312.953	-198.832	0.156	0.001
-311.939	52.851	0.150	-0.143
-310.924	-140.766	-0.219	0.022
-309.910	-76.092	0.302	-0.106
-308.895	225.548	-0.103	0.166
-307.880	-25.762	0.065	-0.038
-306.866	-51.963	-0.260	-0.120
-305.851	-200.000	-0.002	-0.094
-304.837	-200.000	0.038	-0.229
-303.822	115.851	-0.034	-0.041
-302.807	579.302	0.038	0.093
-301.793	-94.709	0.136	0.037
-300.778	24.510	-0.329	0.270
-299.764	-198.130	-0.168	-0.001
-298.749	59.383	-0.197	-0.192
-297.735	-111.000	-0.305	0.062
-296.720	-103.270	-0.096	-0.022
-295.705	800.000	-0.042	-0.143
-294.691	23.981	0.210	-0.172
-293.676	-101.522	-0.342	0.082
-292.662	-63.647	0.321	-0.131
-291.647	183.481	0.098	0.144
-290.632	800.000	0.146	-0.473
-289.618	-129.990	-0.074	0.010
-288.603	-7.400	-0.415	-0.279
-287.589	-36.520	0.116	0.062
-286.574	338.410	0.121	0.233
-285.559	-35.283	-0.039	-0.021
-284.545	271.004	-0.076	0.132
-283.530	-109.715	0.206	0.043
-282.516	323.226	-0.065	-0.123
-281.501	-7.595	-0.103	0.069
-280.486	800.000	0.021	0.092
-279.472	-48.952	0.061	-0.029
-278.457	-200.000	0.028	0.202
-277.443	-33.159	-0.302	0.166
-276.428	-53.230	-0.233	-0.106
-275.413	88.663	0.011	0.012
-274.399	512.057	0.071	0.163
-273.384	132.304	-0.176	0.225
-272.370	-12.085	0.166	-0.108
-271.355	68.169	-0.276	-0.280
-270.340	627.597	0.055	-0.139
-269.326	-200.000	-0.027	-0.317
-268.311	-200.000	0.016	0.251
-267.297	-51.653	-0.256	-0.118
-266.282	-159.469	-0.324	0.018
-265.267	-33.107	0.057	0.031
-264.253	64.329	-0.315	0.314
-263.238	104.203	0.184	0.214
-262.224	299.163	0.124	-0.227
-261.209	-61.237	-0.039	0.016
-260.195	-200.000	-0.059	-0.300
-259.180	86.316	-0.070	-0.076
-258.165	-200.000	-0.017	0.338
-257.151	192.627	-0.116	-0.173
-256.136	-86.648	-0.174	-0.053
-255.122	-37.807	0.112	0.059
-254.107	175.837	-0.143	0.205
-253.092	408.407	-0.128	-0.268
-252.078	-20.290	-0.311	-0.189
-251.063	314.496	0.110	-0.205
-250.049	21.534	0.154	-0.124
-249.034	-107.460	-0.222	-0.048
-248.019	-80.623	0.196	0.065
-247.005	574.726	-0.121	0.293
-245.990	-99.714	-0.140	-0.035
-244.976	-68.881	-0.109	0.042
-243.961	388.004	0.093	0.191
-242.946	-94.344	-0.120	0.032
-241.932	-52.287	0.231	0.106
-240.917	-124.417	-0.142	-0.022
-239.903	-70.523	0.155	0.058
-238.888	461.280	0.096	0.211
-237.873	-90.105	0.253	0.073
-236.859	105.292	0.067	0.079
-235.844	-2.710	0.254	0.176
-234.830	556.836	-0.070	-0.167
-233.815	-140.304	0.479	-0.050
-232.800	-129.712	0.285	0.039
-231.786	214.790	-0.236	0.370
-230.771	-200.000	0.045	-0.256
-229.757	139.951	-0.018	-0.023
-228.742	113.653	-0.305	0.367
-227.727	-200.000	-0.042	0.319
-226.713	142.879	-0.038	-0.050
-225.698	10.104	-0.058	-0.044
-224.684	514.070	0.068	-0.157
-223.669	64.136	0.026	0.026
-222.655	800.000	0.111	0.395
-221.640	127.690	-0.159	0.200
-220.625	-82.996	0.281	-0.090
-219.611	800.000	0.142	0.463
-218.596	-62.184	-0.260	0.107
-217.582	371.418	-0.102	-0.205
-216.567	-200.000	-0.023	-0.163
-215.552	-117.383	-0.314	0.056
-214.538	-200.000	-0.038	0.338
-213.523	-200.000	0.005	-0.053
-212.509	254.384	0.022	-0.038
-211.494	-134.210	-0.427	-0.052
-210.479	124.124	0.342	0.425
-209.465	742.352	-0.110	0.292
-208.450	166.968	-0.244	0.343
-207.436	157.824	-0.073	0.099
-206.421	-200.000	-0.040	-0.258
-205.406	-192.113	-0.168	0.002
-204.392	-200.000	-0.007	-0.254
-203.377	800.000	0.038	-0.106
-202.363	-114.879	-0.034	0.006
-201.348	-169.694	0.277	0.010
-200.333	605.504	0.124	-0.305
-199.319	-200.000	0.022	-0.098
-198.304	155.496	0.156	-0.213
-197.290	800.000	-0.057	0.246
-196.275	51.292	0.299	-0.280
-195.260	-39.898	-0.147	-0.076
-194.246	-200.000	0.025	0.230
-193.231	366.614	0.093	-0.186
-192.217	-12.642	0.280	-0.180
-191.202	663.045	-0.054	-0.138
-190.187	-139.842	-0.283	-0.030
-189.173	46.075	0.078	0.071
-188.158	-126.177	0.254	-0.038
-187.144	419.561	0.083	0.176
-186.129	800.000	0.058	0.205
-185.114	-200.000	-0.005	0.032
-184.100	-54.974	-0.223	-0.099
-183.085	372.931	-0.091	-0.183
-182.071	8.768	0.235	-0.175
-181.056	104.722	0.157	0.183
-180.042	-97.826	-0.036	0.009
-179.027	-44.604	0.233	-0.115
-178.012	-200.000	0.026	-0.175
-176.998	144.819	-0.091	0.120
-175.983	64.067	0.071	-0.071
-174.969	-200.000	-0.016	0.153
-173.954	800.000	0.070	-0.196
-172.939	616.197	0.080	0.199
-171.925	800.000	0.079	-0.252
-170.910	128.259	0.167	-0.209
-169.896	-104.432	-0.172	-0.039
-168.881	800.000	-0.098	-0.340
-167.866	215.112	0.212	0.332
-166.852	-17.785	-0.059	0.036
-165.837	117.254	0.071	-0.087
-164.823	-124.284	0.252	0.039
-163.808	-194.411	-0.142	-0.001
-162.793	-121.632	0.241	-0.039
-161.779	28.817	-0.300	0.251
-160.764	-200.000	0.057	-0.000
-159.750	67.852	-0.130	-0.132
-158.735	23.954	0.206	0.168
-157.720	81.358	0.162	-0.173
-156.706	-200.000	-0.014	0.119
-155.691	59.800	0.157	0.153
-154.677	10.972	-0.192	-0.145
-153.662	800.000	0.136	0.466
-152.647	289.188	0.082	0.146
-151.633	-83.382	0.133	0.042
-150.618	-29.060	0.074	-0.042
-149.604	47.635	0.118	-0.108
-148.589	-200.000	-0.029	0.147
-147.574	198.622	-0.206	-0.310
-146.560	-133.582	0.392	0.048
-145.545	231.188	-0.013	0.021
-144.531	-13.753	0.187	0.119
-143.516	800.000	0.099	-0.305
-142.502	-200.000	0.055	0.253
-141.487	-94.438	-0.160	0.043
-140.472	165.939	-0.108	-0.150
-139.458	-2.768	0.232	0.160
-138.443	-71.078	0.675	-0.250
-137.429	-139.043	-0.258	-0.028
-136.414	4.686	0.061	-0.045
-135.399	85.852	0.180	0.195
-134.385	-160.424	-0.079	-0.004
-133.370	-161.604	0.239	-0.012
-132.356	-165.996	0.508	-0.021
-131.341	-38.072	-0.262	0.137
-130.326	-79.684	0.113	0.038
-129.312	-103.537	0.314	-0.073
-128.297	264.957	0.171	0.294
-127.283	-200.000	0.031	0.273
-126.268	-67.919	-0.163	-0.063
-125.253	2.567	-0.146	-0.104
-124.239	16.161	0.231	-0.180
-123.224	-200.000	-0.008	-0.115
-122.210	119.392	0.101	-0.123
