DTS Sentinel unit serial number:	SN413079Multiplexer serial number:	ORYXHardware model number:	OX4-SRSoftware version number:	ORYX F/W v4.00 Oryx Data Collector v3.7.2.0data status	okinstallation	princeton_trtdifferential loss correction	single-endedforward channel	channel 4reverse channel	N/Adate	2019/09/16time	05:01:35forward acquisition time	60.00reverse acquisition time	0.00gamma	496.2192k internal	0.2321k external	0.2321temperature offset calibration	0.9978default loss term (dB/km)	0.3790temperature slope calibration	1.0000multiplexer offset coefficient	1.0000multiplexer slope coefficient	1.0000fibre end	0.00T internal ref (°C)	27.17T ext. ref 1 (°C)	11.00T ext. ref 2 (°C)	21.93length (m)	temperature (°C)	Stokes	anti-Stokes-747.200	1.229	0.248	0.180
-746.185	-200.000	0.018	0.271
-745.171	76.875	-0.124	0.133
-744.156	60.710	0.222	0.223
-743.142	-177.319	-0.084	0.002
-742.127	-92.858	0.191	0.054
-741.112	-0.449	-0.206	0.148
-740.098	800.000	-0.040	0.146
-739.083	-200.000	0.002	-0.106
-738.069	400.657	-0.122	0.259
-737.054	61.500	0.095	-0.096
-736.039	-114.275	-0.163	0.032
-735.025	286.747	0.147	0.269
-734.010	56.567	-0.356	-0.350
-732.996	-71.060	-0.454	-0.172
-731.981	161.372	-0.116	0.165
-730.966	800.000	-0.056	0.204
-729.952	-200.000	0.041	0.282
-728.937	37.319	-0.199	0.178
-727.923	-147.567	-0.220	-0.019
-726.908	-120.621	-0.211	-0.036
-725.894	125.781	0.086	0.110
-724.879	800.000	0.078	-0.225
-723.864	48.181	-0.376	0.355
-722.850	-200.000	0.022	-0.274
-721.835	-200.000	0.032	-0.433
-720.821	-88.711	0.327	0.098
-719.806	30.309	-0.245	0.211
-718.791	-82.951	-0.453	-0.147
-717.777	65.627	0.144	-0.147
-716.762	-200.000	0.041	-0.369
-715.748	361.653	-0.141	-0.285
-714.733	-37.418	-0.070	-0.037
-713.718	-139.777	-0.124	0.013
-712.704	34.611	0.128	-0.113
-711.689	-151.539	-0.092	-0.007
-710.675	12.335	0.223	0.173
-709.660	-26.003	-0.205	0.122
-708.645	68.224	0.148	0.153
-707.631	44.625	-0.311	-0.288
-706.616	497.437	0.011	-0.026
-705.602	373.083	-0.135	-0.277
-704.587	-20.386	0.020	-0.013
-703.572	-200.000	-0.009	0.171
-702.558	403.768	0.060	-0.128
-701.543	332.626	-0.127	-0.248
-700.529	-160.709	0.160	-0.009
-699.514	-162.699	-0.144	-0.007
-698.499	36.425	0.215	0.191
-697.485	213.161	-0.075	-0.120
-696.470	-90.780	-0.157	0.046
-695.456	-28.943	-0.090	-0.052
-694.441	-143.949	0.222	-0.021
-693.426	-200.000	-0.005	-0.402
-692.412	653.068	-0.032	0.082
-691.397	800.000	0.137	-0.395
-690.383	183.540	0.076	-0.113
-689.368	-200.000	-0.030	-0.154
-688.354	211.578	0.165	-0.262
-687.339	-200.000	-0.001	-0.193
-686.324	766.614	-0.061	-0.168
-685.310	-200.000	0.043	0.342
-684.295	-200.000	-0.037	-0.250
-683.281	800.000	-0.041	-0.120
-682.266	-10.640	0.123	-0.082
-681.251	165.812	-0.058	0.083
-680.237	-26.313	0.378	0.224
-679.222	-200.000	-0.268	0.001
-678.208	324.105	-0.107	-0.206
-677.193	-175.218	-0.122	0.003
-676.178	-156.041	-0.134	-0.009
-675.164	254.133	0.039	0.067
-674.149	-200.000	0.002	-0.176
-673.135	800.000	0.049	0.216
-672.120	604.749	0.086	0.217
-671.105	-89.416	-0.286	-0.085
-670.091	-126.070	-0.229	-0.035
-669.076	37.734	0.057	0.051
-668.062	-146.733	-0.400	0.035
-667.047	-64.651	0.150	0.061
-666.032	-200.000	0.052	-0.250
-665.018	95.319	-0.065	-0.074
-664.003	-154.503	0.321	0.022
-662.989	59.428	0.154	0.153
-661.974	122.451	0.207	-0.261
-660.959	127.646	-0.205	-0.263
-659.945	-127.946	0.396	-0.057
-658.930	363.068	-0.176	0.357
-657.916	-1.687	0.330	-0.234
-656.901	45.819	-0.226	0.211
-655.886	-118.305	-0.133	0.024
-654.872	669.065	-0.010	0.027
-653.857	800.000	0.052	-0.204
-652.843	-100.372	0.226	0.056
-651.828	649.116	-0.077	0.198
-650.814	283.897	0.119	-0.216
-649.799	472.617	-0.180	-0.408
-648.784	42.680	-0.197	-0.180
-647.770	-147.285	-0.370	-0.032
-646.755	179.398	0.100	-0.148
-645.741	681.934	0.048	0.125
-644.726	-200.000	0.019	0.220
-643.711	-33.451	0.114	-0.064
-642.697	6.082	0.297	-0.221
-641.682	-98.196	0.274	-0.071
-640.668	-50.504	-0.322	-0.153
-639.653	-11.427	0.278	-0.184
-638.638	-200.000	0.002	0.111
-637.624	-121.048	-0.274	0.046
-636.609	57.630	0.129	-0.127
-635.595	73.391	-0.116	-0.122
-634.580	11.823	-0.117	0.091
-633.565	49.127	-0.129	-0.122
-632.551	-200.000	-0.008	-0.231
-631.536	800.000	0.040	-0.115
-630.522	-200.000	0.001	0.061
-629.507	755.037	-0.125	-0.340
-628.492	-98.408	0.084	-0.022
-627.478	-112.587	0.171	-0.034
-626.463	-128.859	-0.252	-0.036
-625.449	800.000	0.104	0.450
-624.434	-60.602	-0.244	0.104
-623.419	-97.612	0.251	0.065
-622.405	348.705	-0.085	-0.169
-621.390	-135.103	-0.269	-0.033
-620.376	15.916	0.170	0.134
-619.361	800.000	0.029	0.092
-618.346	22.255	-0.226	0.185
-617.332	40.502	-0.177	-0.160
-616.317	-200.000	0.023	-0.180
-615.303	800.000	0.139	0.401
-614.288	-122.380	0.138	0.023
-613.273	-114.236	-0.049	-0.009
-612.259	7.889	0.269	0.202
-611.244	49.292	-0.077	-0.073
-610.230	292.192	0.176	0.321
-609.215	123.494	0.170	0.214
-608.201	144.246	-0.145	-0.195
-607.186	-200.000	-0.033	-0.220
-606.171	800.000	-0.049	0.201
-605.157	-200.000	0.027	-0.159
-604.142	145.139	-0.178	-0.240
-603.128	-93.710	-0.445	0.123
-602.113	-6.728	-0.194	-0.133
-601.098	-80.895	0.146	-0.049
-600.084	-149.276	-0.491	0.039
-599.069	-62.235	-0.106	0.044
-598.055	35.464	-0.062	0.055
-597.040	-196.391	-0.046	0.000
-596.025	100.672	0.049	-0.058
-595.011	167.585	-0.125	0.178
-593.996	139.662	0.160	-0.212
-592.982	165.488	0.036	-0.051
-591.967	95.397	0.110	-0.126
-590.952	-200.000	0.069	-0.325
-589.938	87.901	0.107	-0.119
-588.923	350.718	-0.105	0.209
-587.909	-161.459	-0.097	0.005
-586.894	124.997	-0.096	0.121
-585.879	-15.582	-0.267	0.171
-584.865	26.411	-0.141	-0.118
-583.850	-104.134	0.422	0.099
-582.836	184.166	0.061	0.091
-581.821	-100.224	0.245	-0.061
-580.806	-200.000	-0.035	0.226
-579.792	-146.483	0.070	-0.006
-578.777	-124.541	0.296	0.046
-577.763	117.341	-0.162	-0.199
-576.748	-160.753	-0.156	-0.008
-575.733	-200.000	0.011	0.082
-574.719	-93.855	-0.196	-0.054
-573.704	800.000	-0.080	0.294
-572.690	67.850	0.171	0.175
-571.675	136.922	0.169	0.222
-570.661	61.459	-0.193	-0.193
-569.646	800.000	0.045	0.181
-568.631	79.147	-0.179	-0.192
-567.617	-88.712	0.278	-0.083
-566.602	189.394	0.154	-0.232
-565.588	-200.000	0.011	0.110
-564.573	-200.000	-0.000	0.118
-563.558	-192.254	0.127	-0.001
-562.544	45.811	-0.099	0.092
-561.529	-200.000	-0.013	0.121
-560.515	-200.000	-0.012	0.371
-559.500	-96.120	0.072	-0.019
-558.485	32.990	0.274	-0.238
-557.471	123.914	-0.069	0.087
-556.456	-61.242	0.188	-0.079
-555.442	100.458	-0.136	0.159
-554.427	121.270	-0.114	-0.142
-553.412	53.514	-0.136	0.131
-552.398	-21.936	0.332	0.202
-551.383	-40.154	-0.046	0.024
-550.369	-200.000	-0.032	-0.158
-549.354	-31.142	0.151	-0.085
-548.339	139.121	0.137	0.181
-547.325	-45.124	-0.159	0.079
-546.310	-60.044	-0.246	0.105
-545.296	235.995	0.087	0.144
-544.281	68.841	0.231	-0.238
-543.266	-46.731	-0.402	-0.197
-542.252	-135.049	0.066	0.008
-541.237	30.506	-0.302	0.259
-540.223	-164.754	-0.279	-0.013
-539.208	117.173	-0.217	-0.267
-538.193	575.563	-0.160	-0.392
-537.179	-157.321	-0.225	0.014
-536.164	-62.026	-0.277	0.116
-535.150	-200.000	0.002	-0.142
-534.135	37.285	0.056	0.050
-533.121	-102.434	0.152	0.037
-532.106	271.767	-0.044	-0.078
-531.091	-46.714	-0.187	-0.092
-530.077	17.186	0.089	0.071
-529.062	-85.880	0.178	-0.055
-528.048	-109.535	0.218	0.046
-527.033	351.595	-0.010	-0.020
-526.018	77.324	-0.150	-0.160
-525.004	32.725	0.289	-0.250
-523.989	50.488	0.160	0.152
-522.975	646.502	0.088	-0.225
-521.960	-135.490	0.184	-0.022
-520.945	-105.034	0.140	0.032
-519.931	-114.916	-0.271	0.052
-518.916	-200.000	-0.034	-0.319
-517.902	-147.500	-0.263	-0.022
-516.887	-105.674	0.460	-0.104
-515.872	-108.936	0.229	-0.049
-514.858	-64.182	-0.073	-0.030
-513.843	155.799	0.184	-0.254
-512.829	-49.831	-0.235	-0.112
-511.814	87.941	-0.236	0.262
-510.799	130.155	-0.221	-0.283
-509.785	55.516	-0.214	0.208
-508.770	260.100	-0.042	-0.073
-507.756	107.051	0.124	-0.148
-506.741	-133.412	-0.435	-0.055
-505.726	800.000	0.066	0.239
-504.712	800.000	-0.022	-0.096
-503.697	-154.325	0.259	-0.017
-502.683	-55.527	-0.192	0.086
-501.668	-71.019	0.212	0.080
-500.653	-58.819	-0.179	-0.077
-499.639	19.512	-0.337	0.271
-498.624	46.144	0.076	0.071
-497.610	800.000	-0.106	-0.378
-496.595	800.000	0.059	-0.166
-495.581	349.658	-0.132	-0.261
-494.566	90.186	0.087	-0.097
-493.551	45.533	0.210	0.194
-492.537	1.481	-0.141	0.101
-491.522	-39.715	0.088	0.046
-490.508	25.841	0.303	0.253
-489.493	127.030	-0.125	0.159
-488.478	-81.158	-0.280	0.093
-487.464	105.313	-0.160	0.189
-486.449	-168.185	0.320	0.012
-485.435	800.000	-0.104	0.293
-484.420	800.000	-0.178	0.522
-483.405	17.826	0.436	-0.347
-482.391	27.720	-0.197	0.166
-481.376	-129.890	0.391	0.054
-480.362	-48.564	-0.278	-0.134
-479.347	258.788	-0.115	0.199
-478.332	513.981	-0.111	0.259
-477.318	-200.000	0.043	0.235
-476.303	602.283	0.101	0.251
-475.289	800.000	0.037	0.147
-474.274	-37.783	0.191	-0.102
-473.259	260.950	-0.087	0.151
-472.245	154.213	-0.204	0.280
-471.230	161.108	0.143	-0.200
-470.216	-124.605	-0.259	-0.040
-469.201	-200.000	-0.014	0.075
-468.186	287.219	-0.079	0.143
-467.172	587.089	0.091	-0.225
-466.157	71.371	0.208	0.216
-465.143	-57.922	-0.172	0.075
-464.128	-2.080	0.151	-0.106
-463.113	-200.000	-0.046	-0.320
-462.099	-39.319	-0.358	-0.188
-461.084	-173.821	-0.366	0.011
-460.070	195.726	0.126	0.192
-459.055	-152.975	-0.054	-0.004
-458.040	-91.567	0.135	0.039
-457.026	83.268	-0.223	0.243
-456.011	-200.000	0.020	0.136
-454.997	59.255	0.218	0.215
-453.982	154.354	-0.136	0.187
-452.968	191.772	0.125	-0.188
-451.953	-185.577	0.077	0.001
-450.938	-112.624	0.177	-0.035
-449.924	-51.232	-0.362	0.169
-448.909	83.954	0.112	0.122
-447.895	-43.546	0.183	0.092
-446.880	446.999	0.144	-0.316
-445.865	14.366	0.197	-0.153
-444.851	400.564	0.138	-0.288
-443.836	-79.918	0.198	0.067
-442.822	800.000	0.064	-0.211
-441.807	110.515	0.148	-0.177
-440.792	26.567	0.139	0.116
-439.778	4.174	-0.079	0.058
-438.763	-200.000	0.236	0.000
-437.749	-24.977	-0.046	0.027
-436.734	-85.061	-0.053	0.016
-435.719	-16.553	-0.233	-0.147
-434.705	-51.783	-0.246	0.114
-433.690	50.660	-0.122	-0.116
-432.676	391.327	-0.082	-0.170
-431.661	-113.367	0.448	0.088
-430.646	-200.000	-0.016	-0.155
-429.632	800.000	-0.036	-0.130
-428.617	-57.070	0.116	-0.051
-427.603	57.870	-0.086	-0.084
-426.588	119.168	0.118	-0.145
-425.573	32.684	-0.318	0.275
-424.559	-29.889	0.354	-0.201
-423.544	643.386	0.021	0.054
-422.530	-200.000	0.015	0.095
-421.515	1.024	0.097	-0.069
-420.500	-93.088	0.256	0.071
-419.486	-12.327	-0.020	-0.013
-418.471	53.554	0.086	-0.083
-417.457	-89.329	-0.220	0.065
-416.442	-150.664	-0.117	-0.009
-415.428	-83.797	-0.376	-0.119
-414.413	-3.211	-0.380	-0.264
-413.398	62.123	-0.082	0.082
-412.384	800.000	-0.023	0.065
-411.369	-92.550	0.111	-0.031
-410.355	-63.162	-0.231	-0.095
-409.340	-114.774	-0.343	0.065
-408.325	-200.000	0.076	0.466
-407.311	-200.000	0.018	0.176
-406.296	-33.250	0.204	-0.113
-405.282	800.000	0.070	-0.255
-404.267	-158.193	-0.157	-0.009
-403.252	800.000	-0.024	-0.095
-402.238	272.603	-0.084	0.147
-401.223	-21.657	0.167	-0.101
-400.209	-200.000	-0.043	0.240
-399.194	-38.666	-0.287	0.151
-398.179	-200.000	-0.057	0.448
-397.165	800.000	0.046	-0.164
-396.150	-170.644	-0.090	-0.003
-395.136	-49.133	0.142	0.068
-394.121	-101.738	-0.139	-0.034
-393.106	-111.993	0.059	0.012
-392.092	800.000	0.048	-0.134
-391.077	12.939	-0.049	0.038
-390.063	-200.000	0.003	-0.019
-389.048	132.956	0.225	0.290
-388.033	-200.000	0.009	0.053
-387.019	-200.000	0.005	-0.063
-386.004	158.386	-0.192	0.266
-384.990	-96.958	-0.204	0.053
-383.975	18.856	0.164	0.131
-382.960	49.000	0.249	-0.233
-381.946	405.443	0.055	0.116
-380.931	-161.213	0.417	0.022
-379.917	-200.000	0.047	0.329
-378.902	369.422	-0.139	0.281
-377.888	-94.159	-0.166	-0.045
-376.873	-129.287	-0.154	-0.021
-375.858	300.105	-0.112	0.206
-374.844	142.064	-0.136	-0.180
-373.829	46.898	-0.232	0.215
-372.815	-83.453	0.204	-0.065
-371.800	146.649	0.118	-0.158
-370.785	214.262	0.107	-0.168
-369.771	800.000	0.053	0.214
-368.756	-13.167	-0.331	-0.214
-367.742	-65.021	-0.195	0.079
-366.727	-120.172	-0.203	-0.035
-365.712	94.671	-0.140	0.159
-364.698	800.000	0.019	0.078
-363.683	156.999	-0.124	-0.170
-362.669	-128.808	0.168	-0.024
-361.654	-4.584	0.041	-0.028
-360.639	-200.000	0.031	0.181
-359.625	141.822	0.244	-0.322
-358.610	-8.140	-0.066	-0.044
-357.596	18.287	0.186	-0.148
-356.581	-5.304	0.119	-0.082
-355.566	-200.000	-0.026	-0.241
-354.552	-65.947	-0.044	-0.017
-353.537	372.600	-0.150	0.304
-352.523	-57.602	-0.217	0.095
-351.508	-200.000	-0.049	0.531
-350.493	-117.623	0.185	-0.033
-349.479	-105.561	0.162	0.037
-348.464	21.871	0.141	-0.115
-347.450	-8.796	0.017	-0.011
-346.435	-11.209	0.195	0.128
-345.420	294.782	-0.029	0.053
-344.406	101.332	-0.099	0.115
-343.391	-29.178	-0.234	-0.133
-342.377	-15.628	-0.139	-0.088
-341.362	38.552	0.175	0.156
-340.348	800.000	-0.150	-0.423
-339.333	568.291	-0.101	0.243
-338.318	-200.000	0.000	-0.034
-337.304	-57.717	0.169	-0.074
-336.289	79.691	0.072	-0.077
-335.275	179.140	-0.116	-0.169
-334.260	353.272	0.053	-0.105
-333.245	-200.000	-0.008	-0.178
-332.231	213.468	-0.152	-0.238
-331.216	-26.621	0.144	0.084
-330.202	251.196	-0.152	0.258
-329.187	800.000	0.064	-0.238
-328.172	-200.000	-0.013	-0.057
-327.158	73.389	0.297	-0.309
-326.143	67.037	0.131	0.132
-325.129	-200.000	0.050	-0.265
-324.114	-83.715	0.077	0.024
-323.099	30.151	0.182	0.155
-322.085	-200.000	-0.051	-0.284
-321.070	-93.470	-0.323	-0.089
-320.056	-99.482	-0.305	0.076
-319.041	-12.255	0.176	0.114
-318.026	-46.681	0.212	0.103
-317.012	-200.000	-0.001	-0.339
-315.997	47.818	0.315	-0.292
-314.983	70.979	-0.223	-0.230
-313.968	-64.903	0.088	0.035
-312.953	37.489	0.111	0.098
-311.939	-96.111	-0.092	0.024
-310.924	800.000	0.111	0.412
-309.910	-200.000	0.051	0.331
-308.895	41.279	0.103	-0.093
-307.880	585.084	0.064	0.156
-306.866	81.713	-0.165	0.178
-305.851	525.644	-0.131	0.306
-304.837	-144.013	-0.107	0.010
-303.822	28.408	0.342	-0.287
-302.807	80.413	-0.063	-0.068
-301.793	54.083	0.194	0.185
-300.778	800.000	0.110	-0.328
-299.764	235.254	-0.120	0.197
-298.749	-40.016	-0.331	0.171
-297.735	-20.995	0.085	0.051
-296.720	244.056	0.151	-0.251
-295.705	-200.000	0.130	0.000
-294.691	-110.394	0.333	-0.069
-293.676	61.685	0.263	0.260
-292.662	-70.720	-0.413	-0.155
-291.647	172.850	0.067	-0.097
-290.632	-129.258	0.353	0.049
-289.618	-200.000	0.030	0.200
-288.603	-78.709	-0.197	-0.067
-287.589	-165.870	0.223	-0.010
-286.574	160.149	0.276	0.381
-285.559	-180.788	0.241	0.005
-284.545	85.359	0.123	0.134
-283.530	-55.242	-0.101	-0.045
-282.516	7.532	-0.212	-0.158
-281.501	800.000	-0.027	-0.078
-280.486	755.518	0.049	0.131
-279.472	-200.000	-0.013	0.063
-278.457	-173.943	0.254	0.007
-277.443	-200.000	0.039	0.212
-276.428	27.930	-0.242	0.203
-275.413	97.567	0.127	-0.145
-274.399	27.355	0.147	0.122
-273.384	403.157	-0.069	0.144
-272.370	126.408	0.186	-0.234
-271.355	171.821	-0.021	0.030
-270.340	451.514	-0.235	-0.516
-269.326	-151.109	0.106	-0.008
-268.311	458.445	-0.148	-0.326
-267.297	23.291	-0.164	0.134
-266.282	-35.638	0.351	0.189
-265.267	244.715	-0.063	0.106
-264.253	-200.000	-0.028	0.241
-263.238	-89.966	0.119	0.035
-262.224	-98.176	0.406	0.103
-261.209	416.587	-0.219	-0.464
-260.195	-200.000	0.017	-0.125
-259.180	-196.362	0.288	-0.002
-258.165	-135.676	0.057	-0.007
-257.151	800.000	-0.067	0.258
-256.136	32.152	0.140	-0.120
-255.122	-200.000	-0.078	-0.405
-254.107	-79.605	-0.225	-0.075
-253.092	800.000	0.036	-0.111
-252.078	-29.893	-0.152	0.086
-251.063	-87.152	0.210	0.063
-250.049	-37.254	-0.277	0.147
-249.034	-109.633	-0.349	-0.073
-248.019	-41.655	0.389	-0.198
-247.005	-200.000	0.045	-0.198
-245.990	-200.000	0.020	-0.419
-244.976	-36.655	-0.163	-0.087
-243.961	800.000	-0.101	0.307
-242.946	-153.938	-0.116	0.008
-241.932	-9.979	-0.227	-0.150
-240.917	-200.000	0.064	0.311
-239.903	54.565	-0.153	-0.146
-238.888	136.814	0.192	-0.249
-237.873	24.320	-0.169	0.138
-236.859	43.660	-0.252	0.228
-235.844	-9.019	0.271	-0.179
-234.830	-61.556	0.032	0.013
-233.815	-35.974	0.126	0.067
-232.800	371.216	0.096	0.193
-231.786	316.250	0.140	-0.262
-230.771	-16.472	-0.378	-0.237
-229.757	800.000	0.034	0.140
-228.742	602.424	0.203	-0.499
-227.727	-20.592	-0.180	-0.110
-226.713	800.000	0.042	-0.150
-225.698	33.241	-0.266	0.229
-224.684	180.658	0.171	0.248
-223.669	56.799	0.069	0.067
-222.655	-57.871	-0.150	0.065
-221.640	-41.975	-0.266	-0.135
-220.625	-156.604	0.379	-0.023
-219.611	-200.000	-0.057	-0.619
-218.596	-105.857	0.095	0.021
-217.582	-200.000	-0.057	-0.378
-216.567	-122.116	0.019	-0.003
-215.552	-29.142	0.043	-0.024
-214.538	-10.815	-0.277	-0.181
-213.523	-200.000	-0.024	0.176
-212.509	-61.932	-0.315	-0.130
-211.494	188.625	-0.232	0.344
-210.479	800.000	0.015	-0.046
-209.465	635.273	-0.138	0.346
-208.450	-136.569	-0.253	0.029
-207.436	-154.564	0.220	0.015
-206.421	-120.584	0.183	0.031
-205.406	72.027	-0.224	0.230
-204.392	73.772	0.143	-0.148
-203.377	-200.000	-0.047	0.275
-202.363	-114.008	0.355	0.068
-201.348	64.780	-0.207	-0.206
-200.333	39.618	-0.093	0.082
-199.319	-62.816	-0.293	-0.120
-198.304	-200.000	0.028	0.145
-197.290	-71.555	-0.236	0.087
-196.275	-165.114	0.453	-0.020
-195.260	800.000	0.111	0.359
-194.246	-130.630	0.224	-0.030
-193.231	-200.000	-0.065	-0.283
-192.217	-200.000	-0.259	0.001
-191.202	-124.793	0.302	0.046
-190.187	-47.445	0.408	0.196
-189.173	-18.948	0.194	0.119
-188.158	-200.000	0.061	0.294
-187.144	-115.608	0.651	0.121
-186.129	-146.790	0.187	0.016
-185.114	47.995	-0.082	0.076
-184.100	-200.000	0.005	0.110
-183.085	800.000	-0.089	-0.315
-182.071	74.686	0.221	-0.230
-181.056	682.161	-0.157	-0.405
-180.042	40.208	-0.083	-0.074
-179.027	407.237	-0.200	0.418
-178.012	-200.000	-0.025	0.193
-176.998	-200.000	0.004	0.064
-175.983	237.151	0.149	-0.244
-174.969	-143.121	0.173	0.016
-173.954	102.852	0.234	-0.271
-172.939	-92.044	0.221	0.062
-171.925	208.677	-0.099	-0.153
-170.910	88.755	-0.214	0.235
-169.896	-72.327	-0.314	-0.115
-168.881	34.510	-0.078	0.067
-167.866	-124.921	-0.316	0.048
-166.852	96.195	0.119	-0.135
-165.837	-200.000	-0.054	0.278
-164.823	42.132	0.089	0.080
-163.808	-107.637	0.027	-0.006
-162.793	338.376	0.102	0.197
-161.779	-81.660	-0.224	0.073
-160.764	-200.000	0.021	0.264
-159.750	504.166	0.063	-0.145
-158.735	158.029	0.155	-0.213
-157.720	-98.130	0.485	0.123
-156.706	800.000	-0.061	-0.186
-155.691	-200.000	0.016	-0.107
-154.677	-135.119	0.167	-0.020
-153.662	412.380	0.033	0.070
-152.647	430.844	-0.088	-0.189
-151.633	-200.000	0.008	-0.114
-150.618	-79.392	0.103	0.034
-149.604	-85.297	0.238	-0.073
-148.589	-156.023	0.254	0.016
-147.574	-200.000	-0.001	-0.119
-146.560	-200.000	-0.007	-0.187
-145.545	-200.000	-0.057	0.000
-144.531	-200.000	0.011	-0.171
-143.516	-83.129	-0.384	-0.122
-142.502	-121.621	0.132	-0.022
-141.487	39.796	0.151	0.134
-140.472	530.865	0.072	-0.169
-139.458	15.570	-0.177	0.138
-138.443	90.152	-0.053	-0.058
-137.429	-125.214	-0.205	-0.031
-136.414	-136.653	0.153	-0.017
-135.399	48.653	0.214	-0.198
-134.385	363.099	-0.188	-0.372
-133.370	800.000	-0.077	0.331
-132.356	7.917	-0.304	-0.225
-131.341	13.583	-0.238	0.182
-130.326	-122.518	0.341	0.055
-129.312	27.704	0.261	0.217
-128.297	800.000	0.069	0.228
-127.283	-146.782	-0.036	0.003
-126.268	4.656	-0.018	0.013
-125.253	-200.000	-0.047	0.270
-124.239	-200.000	0.004	0.190
-123.224	170.154	-0.047	-0.066
-122.210	-114.896	-0.100	0.019
-121.195	517.904	-0.017	0.040
-120.180	-162.623	-0.345	-0.017
