DTS Sentinel unit serial number:	SN413079Multiplexer serial number:	ORYXHardware model number:	OX4-SRSoftware version number:	ORYX F/W v4.00 Oryx Data Collector v3.7.2.0data status	okinstallation	princeton_trtdifferential loss correction	single-endedforward channel	channel 4reverse channel	N/Adate	2019/09/15time	21:49:35forward acquisition time	60.00reverse acquisition time	0.00gamma	496.2192k internal	0.2318k external	0.2318temperature offset calibration	0.9944default loss term (dB/km)	0.3790temperature slope calibration	1.0000multiplexer offset coefficient	1.0000multiplexer slope coefficient	1.0000fibre end	0.00T internal ref (°C)	30.14T ext. ref 1 (°C)	8.45T ext. ref 2 (°C)	23.30length (m)	temperature (°C)	Stokes	anti-Stokes-747.200	-178.005	0.124	0.003
-746.185	197.878	-0.128	0.197
-745.171	28.293	-0.136	0.117
-744.156	756.028	-0.108	0.296
-743.142	107.871	-0.088	0.106
-742.127	-79.124	-0.147	0.050
-741.112	-56.447	-0.178	0.080
-740.098	-52.156	-0.278	0.131
-739.083	151.121	0.194	-0.267
-738.069	-48.868	-0.457	0.222
-737.054	572.877	0.049	0.121
-736.039	179.309	-0.046	0.068
-735.025	17.619	0.228	-0.183
-734.010	-12.267	-0.187	-0.124
-732.996	43.895	-0.072	-0.067
-731.981	800.000	-0.063	0.244
-730.966	-56.700	0.263	0.118
-729.952	256.973	-0.144	0.250
-728.937	-72.771	-0.443	0.165
-727.923	-98.143	0.074	0.019
-726.908	-200.000	0.007	0.095
-725.894	-9.973	-0.341	-0.229
-724.879	-200.000	-0.008	-0.173
-723.864	-29.149	-0.091	0.053
-722.850	119.532	-0.314	-0.393
-721.835	10.999	0.122	0.094
-720.821	-168.823	-0.370	0.014
-719.806	-7.760	0.242	-0.165
-718.791	-98.172	-0.052	0.014
-717.777	-200.000	0.017	-0.182
-716.762	171.354	0.049	-0.071
-715.748	-44.869	-0.063	-0.032
-714.733	19.861	0.149	-0.121
-713.718	749.266	0.015	0.042
-712.704	-39.275	-0.118	0.062
-711.689	-43.534	-0.192	0.098
-710.675	800.000	-0.102	0.301
-709.660	36.188	-0.101	-0.090
-708.645	800.000	0.049	-0.147
-707.631	141.777	-0.179	0.239
-706.616	75.173	0.237	0.253
-705.602	551.275	-0.219	0.531
-704.587	138.161	0.183	0.242
-703.572	-121.256	-0.073	-0.012
-702.558	-134.606	0.164	0.020
-701.543	-57.258	-0.117	0.052
-700.529	41.138	-0.058	0.053
-699.514	-131.440	0.108	0.014
-698.499	800.000	0.048	-0.136
-697.485	-152.368	0.200	0.015
-696.470	77.537	0.064	-0.069
-695.456	-200.000	0.052	0.272
-694.441	96.258	-0.208	0.240
-693.426	-200.000	0.025	-0.384
-692.412	742.965	-0.109	-0.296
-691.397	800.000	0.097	-0.323
-690.383	-129.248	-0.148	-0.021
-689.368	147.003	0.061	0.082
-688.354	729.397	-0.207	-0.558
-687.339	800.000	-0.079	0.255
-686.324	618.562	-0.084	0.213
-685.310	-200.000	-0.018	-0.249
-684.295	-18.553	-0.196	-0.123
-683.281	-117.769	0.306	-0.056
-682.266	128.572	0.266	-0.342
-681.251	-61.714	0.021	-0.009
-680.237	-114.860	-0.396	0.076
-679.222	-87.123	0.224	0.069
-678.208	-144.310	0.278	0.026
-677.193	739.461	-0.047	0.126
-676.178	58.014	0.133	0.132
-675.164	-200.000	-0.002	-0.071
-674.149	800.000	-0.052	0.164
-673.135	-9.858	0.136	-0.091
-672.120	129.516	0.116	-0.150
-671.105	-200.000	0.030	0.268
-670.091	-200.000	-0.006	-0.306
-669.076	800.000	0.140	0.394
-668.062	-200.000	-0.030	0.508
-667.047	-44.919	0.299	0.150
-666.032	-140.382	-0.431	0.045
-665.018	356.471	-0.057	0.115
-664.003	4.024	-0.253	0.187
-662.989	101.653	-0.094	0.111
-661.974	274.577	0.042	0.076
-660.959	-31.132	0.396	-0.225
-659.945	147.787	-0.084	-0.115
-658.930	-47.011	0.230	-0.114
-657.916	110.203	-0.243	0.295
-656.901	800.000	-0.170	-0.530
-655.886	-200.000	-0.027	-0.242
-654.872	800.000	-0.093	0.303
-653.857	-124.227	0.148	-0.023
-652.843	181.608	-0.248	0.368
-651.828	-70.421	0.220	0.084
-650.814	-135.719	0.306	0.037
-649.799	-6.237	-0.386	-0.266
-648.784	288.820	0.091	-0.166
-647.770	-200.000	0.095	-0.467
-646.755	108.149	0.051	-0.062
-645.741	95.959	-0.086	-0.100
-644.726	800.000	0.060	-0.257
-643.711	-98.419	0.045	0.012
-642.697	-39.139	-0.306	0.162
-641.682	-200.000	0.035	0.383
-640.668	-200.000	-0.024	0.131
-639.653	800.000	0.058	-0.206
-638.638	95.180	-0.159	-0.182
-637.624	76.216	0.218	0.233
-636.609	-185.527	-0.046	-0.001
-635.595	800.000	-0.053	-0.193
-634.580	-5.778	0.243	-0.168
-633.565	-66.981	-0.115	0.046
-632.551	-58.627	-0.047	0.020
-631.536	-87.375	-0.199	0.061
-630.522	-60.143	-0.136	0.058
-629.507	-155.620	0.252	-0.016
-628.492	-60.904	0.039	0.017
-627.478	199.063	-0.271	-0.418
-626.463	-93.323	0.140	0.039
-625.449	247.570	-0.206	-0.351
-624.434	34.839	-0.140	0.123
-623.419	-200.000	0.005	0.079
-622.405	-114.913	0.210	-0.040
-621.390	-61.433	0.167	0.071
-620.376	-2.079	-0.308	0.218
-619.361	-79.342	-0.173	0.059
-618.346	33.820	-0.252	-0.221
-617.332	-99.708	-0.272	0.069
-616.317	-200.000	0.048	-0.336
-615.303	800.000	-0.068	-0.231
-614.288	-103.167	-0.113	-0.027
-613.273	-8.019	-0.139	0.094
-612.259	800.000	0.023	-0.073
-611.244	-50.104	0.187	0.089
-610.230	-68.163	-0.052	0.020
-609.215	206.883	0.180	-0.282
-608.201	412.631	0.073	0.156
-607.186	112.381	0.110	-0.134
-606.171	-68.371	0.265	-0.103
-605.157	-200.000	0.004	-0.330
-604.142	80.917	0.142	0.154
-603.128	123.187	0.193	-0.244
-602.113	-70.285	-0.378	0.144
-601.098	-115.633	-0.219	-0.041
-600.084	-98.615	0.126	-0.032
-599.069	-170.123	0.245	-0.009
-598.055	167.012	-0.202	0.288
-597.040	-26.406	-0.339	0.200
-596.025	-67.265	0.328	0.130
-595.011	306.372	0.035	-0.066
-593.996	800.000	-0.057	-0.171
-592.982	-163.983	-0.240	-0.011
-591.967	195.374	-0.143	-0.218
-590.952	800.000	0.119	-0.373
-589.938	-70.313	0.137	0.052
-588.923	-11.533	-0.235	-0.155
-587.909	-200.000	-0.035	0.265
-586.894	-135.116	0.122	-0.015
-585.879	-131.839	0.130	-0.017
-584.865	-69.679	0.189	-0.073
-583.850	-200.000	0.016	0.464
-582.836	125.933	-0.117	0.149
-581.821	-115.858	-0.161	-0.030
-580.806	-127.814	-0.393	-0.057
-579.792	-80.448	0.282	-0.095
-578.777	-103.143	0.303	-0.072
-577.763	305.413	-0.168	-0.313
-576.748	-134.356	-0.370	-0.046
-575.733	92.905	-0.028	0.032
-574.719	-121.572	0.173	0.029
-573.704	-103.005	0.054	0.013
-572.690	691.477	-0.104	-0.273
-571.675	-200.000	0.044	0.211
-570.661	-200.000	-0.015	-0.165
-569.646	-200.000	-0.029	0.129
-568.631	800.000	-0.029	-0.127
-567.617	-9.471	0.149	0.100
-566.602	-156.255	-0.381	0.024
-565.588	-22.111	-0.036	-0.022
-564.573	-89.481	0.160	-0.047
-563.558	744.351	-0.174	0.470
-562.544	-65.973	-0.119	0.048
-561.529	-92.931	0.201	-0.056
-560.515	39.988	-0.209	0.189
-559.500	-119.615	0.134	-0.023
-558.485	-25.389	-0.205	-0.122
-557.471	127.372	0.095	-0.122
-556.456	-200.000	0.023	0.111
-555.442	-97.770	0.195	-0.051
-554.427	193.133	0.050	0.076
-553.412	566.303	-0.109	0.265
-552.398	111.877	-0.114	-0.138
-551.383	54.607	0.115	0.111
-550.369	-63.273	0.141	-0.059
-549.354	192.473	-0.134	-0.204
-548.339	800.000	0.019	-0.056
-547.325	-113.737	-0.241	0.047
-546.310	-46.798	0.297	-0.146
-545.296	-21.530	-0.022	-0.013
-544.281	-172.944	-0.128	-0.004
-543.266	-141.883	0.107	0.011
-542.252	800.000	-0.054	-0.160
-541.237	-200.000	0.000	0.169
-540.223	-200.000	0.010	0.229
-539.208	534.500	-0.093	-0.221
-538.193	800.000	-0.078	0.274
-537.179	800.000	-0.147	-0.459
-536.164	-114.949	0.321	0.061
-535.150	-200.000	-0.009	0.094
-534.135	-54.148	-0.045	-0.021
-533.121	-86.593	-0.052	-0.016
-532.106	-153.309	0.259	0.018
-531.091	-46.525	0.129	-0.064
-530.077	257.131	0.150	0.259
-529.062	-200.000	0.014	-0.101
-528.048	-192.214	-0.234	0.002
-527.033	-7.043	0.352	-0.239
-526.018	-62.405	-0.098	0.041
-525.004	36.192	-0.286	0.253
-523.989	-66.500	-0.239	0.095
-522.975	-131.434	0.120	-0.016
-521.960	-107.634	-0.232	0.051
-520.945	-33.751	-0.196	0.108
-519.931	43.681	0.077	0.070
-518.916	538.483	-0.154	0.366
-517.902	217.231	0.116	-0.186
-516.887	-200.000	-0.001	-0.025
-515.872	118.053	0.207	0.256
-514.858	800.000	-0.021	0.070
-513.843	220.518	0.065	-0.105
-512.829	55.293	0.247	-0.240
-511.814	-148.414	-0.155	0.013
-510.799	800.000	0.047	-0.132
-509.785	800.000	-0.109	0.322
-508.770	447.578	-0.039	0.085
-507.756	101.020	-0.172	-0.201
-506.741	323.128	0.107	-0.205
-505.726	211.692	0.207	0.327
-504.712	44.158	0.242	-0.222
-503.697	-27.132	0.230	0.134
-502.683	90.829	-0.179	-0.201
-501.668	-15.723	-0.183	-0.117
-500.653	-65.535	-0.175	-0.071
-499.639	-9.663	-0.012	0.008
-498.624	-76.954	-0.409	-0.143
-497.610	-65.103	0.348	0.141
-496.595	-111.572	-0.131	0.027
-495.581	99.660	-0.091	0.106
-494.566	-167.717	0.135	0.005
-493.551	29.891	-0.174	-0.149
-492.537	-158.933	-0.113	0.006
-491.522	498.494	-0.087	-0.201
-490.508	279.255	-0.100	-0.178
-489.493	93.861	-0.109	0.123
-488.478	-24.464	-0.324	-0.194
-487.464	-8.251	0.103	0.070
-486.449	-200.000	-0.037	-0.185
-485.435	-200.000	-0.010	-0.057
-484.420	289.566	0.135	0.245
-483.405	-200.000	-0.045	-0.386
-482.391	78.000	-0.247	-0.264
-481.376	0.975	0.253	0.181
-480.362	160.971	-0.047	0.066
-479.347	-200.000	-0.025	0.135
-478.332	-200.000	0.013	0.095
-477.318	-48.783	-0.112	0.054
-476.303	273.248	0.177	-0.313
-475.289	156.735	0.204	-0.282
-474.274	436.517	-0.158	0.345
-473.259	-27.605	-0.172	0.100
-472.245	-47.791	-0.304	0.148
-471.230	800.000	0.077	-0.246
-470.216	-200.000	0.057	0.259
-469.201	-141.783	0.087	0.009
-468.186	484.626	0.057	0.130
-467.172	442.686	-0.046	0.101
-466.157	-170.128	0.554	-0.020
-465.143	-200.000	0.002	0.031
-464.128	-200.000	-0.088	0.626
-463.113	-200.000	-0.048	0.266
-462.099	-200.000	0.005	-0.081
-461.084	-200.000	0.031	-0.147
-460.070	-89.515	0.077	-0.023
-459.055	189.981	-0.067	0.101
-458.040	59.009	0.134	-0.131
-457.026	126.917	0.153	-0.194
-456.011	309.663	-0.276	-0.517
-454.997	-19.861	0.106	-0.066
-453.982	-84.153	-0.157	0.050
-452.968	316.594	0.033	-0.062
-451.953	85.868	-0.151	-0.166
-450.938	-73.521	0.214	-0.078
-449.924	-2.894	0.111	-0.078
-448.909	-200.000	-0.042	0.232
-447.895	-121.933	0.178	0.029
-446.880	-179.867	-0.048	-0.001
-445.865	-200.000	0.069	-0.351
-444.851	-200.000	-0.014	0.221
-443.836	-105.272	-0.286	0.065
-442.822	26.530	0.035	-0.029
-441.807	363.625	-0.121	-0.242
-440.792	84.816	0.111	0.122
-439.778	-200.000	0.025	-0.263
-438.763	-200.000	0.001	0.042
-437.749	-117.971	0.320	0.057
-436.734	-200.000	-0.023	-0.159
-435.719	131.442	0.016	0.020
-434.705	92.273	-0.129	-0.146
-433.690	-200.000	-0.040	0.239
-432.676	-200.000	-0.011	0.078
-431.661	37.315	-0.318	-0.281
-430.646	-171.590	-0.292	0.010
-429.632	-57.710	0.422	-0.185
-428.617	624.765	-0.068	-0.170
-427.603	53.835	-0.223	0.215
-426.588	-74.845	0.302	0.108
-425.573	663.226	0.116	0.298
-424.559	97.956	0.153	0.176
-423.544	-45.248	-0.358	-0.178
-422.530	800.000	-0.058	-0.177
-421.515	423.496	-0.115	0.247
-420.500	-200.000	-0.025	-0.217
-419.486	318.254	0.096	-0.181
-418.471	800.000	-0.086	-0.344
-417.457	-38.234	-0.317	-0.168
-416.442	40.265	0.134	0.120
-415.428	484.757	0.110	-0.249
-414.413	140.690	0.094	0.124
-413.398	664.500	0.047	-0.120
-412.384	60.039	-0.282	0.278
-411.369	61.358	-0.230	0.228
-410.355	-200.000	0.048	-0.328
-409.340	-200.000	-0.067	-0.338
-408.325	55.922	-0.112	-0.108
-407.311	104.912	-0.271	0.319
-406.296	-62.475	-0.358	0.149
-405.282	594.534	-0.221	0.546
-404.267	326.628	0.130	-0.249
-403.252	-200.000	0.024	-0.203
-402.238	51.179	-0.368	0.348
-401.223	66.721	0.138	-0.140
-400.209	-66.742	0.330	-0.130
-399.194	1.969	0.169	0.122
-398.179	82.323	-0.233	0.252
-397.165	-6.787	0.371	-0.252
-396.150	-87.260	-0.214	-0.065
-395.136	-2.677	0.114	0.079
-394.121	-200.000	0.056	-0.260
-393.106	800.000	-0.034	0.127
-392.092	213.587	0.012	0.019
-391.077	12.829	-0.292	0.225
-390.063	-152.036	0.308	0.022
-389.048	-200.000	-0.033	-0.150
-388.033	-200.000	0.006	-0.071
-387.019	39.611	0.056	-0.051
-386.004	-200.000	-0.010	0.192
-384.990	42.485	0.012	0.011
-383.975	299.334	-0.105	-0.193
-382.960	220.508	0.092	-0.147
-381.946	665.045	-0.123	0.316
-380.931	-120.482	-0.189	0.032
-379.917	-108.655	-0.247	0.053
-378.902	-200.000	0.014	0.303
-377.888	800.000	-0.103	0.297
-376.873	-86.668	0.421	-0.129
-375.858	-200.000	-0.049	-0.234
-374.844	800.000	-0.008	-0.027
-373.829	800.000	0.036	0.100
-372.815	462.706	0.075	0.167
-371.800	158.602	0.179	0.248
-370.785	267.420	-0.124	-0.216
-369.771	-77.411	0.143	0.050
-368.756	-112.726	0.107	0.021
-367.742	-104.473	0.154	-0.036
-366.727	198.355	-0.164	-0.250
-365.712	-101.428	-0.479	-0.116
-364.698	276.398	-0.140	-0.248
-363.683	-200.000	0.004	-0.259
-362.669	29.807	0.191	-0.162
-361.654	-44.164	0.177	0.088
-360.639	193.334	0.202	0.304
-359.625	-20.228	0.082	-0.050
-358.610	-200.000	-0.027	-0.206
-357.596	-75.899	0.191	0.067
-356.581	97.110	0.129	0.147
-355.566	15.117	-0.245	0.192
-354.552	-123.775	0.156	-0.025
-353.537	-64.686	-0.351	-0.142
-352.523	800.000	0.011	-0.035
-351.508	11.653	-0.317	-0.242
-350.493	-57.007	-0.315	-0.139
-349.479	99.362	-0.055	-0.063
-348.464	-200.000	-0.003	-0.153
-347.450	-150.359	0.100	-0.008
-346.435	800.000	0.099	0.316
-345.420	-44.702	0.333	-0.166
-344.406	79.737	-0.162	-0.174
-343.391	-40.146	0.408	-0.212
-342.377	-200.000	-0.095	-0.456
-341.362	89.567	0.109	0.121
-340.348	-66.842	0.335	-0.132
-339.333	141.986	0.025	-0.033
-338.318	140.883	0.136	0.180
-337.304	-74.750	0.154	-0.055
-336.289	-167.784	0.116	-0.005
-335.275	115.002	-0.163	-0.198
-334.260	35.145	-0.128	0.112
-333.245	-200.000	-0.022	0.174
-332.231	-200.000	-0.025	0.301
-331.216	800.000	0.095	0.289
-330.202	241.571	-0.082	-0.137
-329.187	-192.289	-0.077	-0.001
-328.172	119.304	-0.126	0.155
-327.158	603.197	0.024	0.059
-326.143	-33.526	0.160	0.088
-325.129	-52.675	0.198	0.091
-324.114	404.313	-0.017	-0.036
-323.099	-168.155	0.253	-0.010
-322.085	70.492	-0.114	-0.118
-321.070	800.000	-0.045	0.132
-320.056	-26.895	0.326	0.189
-319.041	-200.000	0.071	-0.358
-318.026	-166.332	-0.268	-0.011
-317.012	-8.910	0.059	0.040
-315.997	-71.040	0.184	-0.069
-314.983	-200.000	-0.012	0.104
-313.968	213.973	-0.129	-0.204
-312.953	-106.969	-0.242	-0.053
-311.939	-195.882	-0.089	0.001
-310.924	-6.911	0.105	0.071
-309.910	-154.664	0.250	-0.017
-308.895	-154.195	0.227	0.015
-307.880	267.910	-0.073	0.127
-306.866	56.779	0.136	-0.131
-305.851	800.000	-0.058	0.197
-304.837	789.957	0.042	-0.115
-303.822	438.472	0.048	-0.104
-302.807	308.854	-0.064	0.118
-301.793	-200.000	0.009	-0.135
-300.778	-200.000	0.019	0.485
-299.764	-31.276	0.051	0.029
-298.749	-51.688	0.335	0.155
-297.735	-200.000	0.001	0.085
-296.720	1.011	-0.251	0.179
-295.705	-132.723	0.318	-0.040
-294.691	-98.813	-0.015	-0.004
-293.676	469.059	-0.117	0.260
-292.662	37.236	0.141	-0.124
-291.647	22.095	-0.108	0.088
-290.632	94.259	-0.087	-0.098
-289.618	28.814	-0.063	0.053
-288.603	577.278	-0.111	-0.270
-287.589	78.040	0.053	0.056
-286.574	-64.041	0.337	-0.137
-285.559	-4.841	0.150	0.102
-284.545	106.171	0.072	0.084
-283.530	-200.000	0.035	0.201
-282.516	-7.574	-0.149	-0.100
-281.501	14.155	0.181	-0.140
-280.486	266.875	0.127	0.221
-279.472	-29.194	0.279	0.159
-278.457	1.030	0.283	0.202
-277.443	-142.661	0.033	-0.003
-276.428	19.341	0.348	0.278
-275.413	-85.572	-0.066	0.020
-274.399	-31.347	-0.167	0.094
-273.384	515.108	-0.089	0.206
-272.370	-166.883	-0.113	0.005
-271.355	26.758	0.182	0.152
-270.340	-164.002	0.356	-0.016
-269.326	352.781	-0.035	0.069
-268.311	627.540	0.068	-0.172
-267.297	-23.145	0.301	0.180
-266.282	-200.000	0.276	0.000
-265.267	-103.067	0.151	0.035
-264.253	-41.498	-0.194	0.099
-263.238	-12.318	-0.171	-0.111
-262.224	-105.904	0.099	-0.022
-261.209	351.171	-0.197	0.388
-260.195	-93.893	-0.088	-0.024
-259.180	-93.150	0.151	-0.042
-258.165	-86.671	-0.208	0.063
-257.151	90.024	-0.056	-0.062
-256.136	-26.158	-0.075	-0.044
-255.122	55.395	-0.070	-0.067
-254.107	-168.656	-0.267	-0.010
-253.092	-49.982	0.234	-0.110
-252.078	239.379	-0.213	-0.352
-251.063	-200.000	-0.063	0.352
-250.049	224.990	0.049	-0.079
-249.034	-58.210	-0.197	-0.085
-248.019	-117.785	-0.218	-0.039
-247.005	-111.169	0.221	-0.045
-245.990	64.108	-0.141	0.141
-244.976	26.661	0.025	0.021
-243.961	-200.000	0.030	0.230
-242.946	-200.000	-0.022	-0.198
-241.932	800.000	-0.078	0.227
-240.917	762.714	-0.047	0.128
-239.903	82.389	0.312	0.336
-238.888	227.033	-0.061	0.098
-237.873	800.000	-0.052	0.205
-236.859	-142.650	0.214	0.021
-235.844	160.017	-0.035	-0.048
-234.830	-66.573	-0.133	0.052
-233.815	256.272	-0.260	-0.442
-232.800	101.053	0.118	0.136
-231.786	-51.653	-0.404	0.187
-230.771	-75.374	-0.191	-0.067
-229.757	65.947	-0.191	0.192
-228.742	-7.158	-0.193	-0.130
-227.727	29.877	0.131	0.110
-226.713	-154.859	0.227	0.015
-225.698	89.678	-0.009	-0.010
-224.684	-129.049	-0.175	0.024
-223.669	800.000	-0.016	-0.052
-222.655	800.000	-0.079	-0.247
-221.640	379.856	0.139	0.282
-220.625	-142.303	0.131	0.013
-219.611	-172.640	-0.053	0.002
-218.596	0.042	-0.324	-0.229
-217.582	322.860	-0.036	0.068
-216.567	97.864	0.100	-0.114
-215.552	-119.953	0.302	-0.051
-214.538	519.246	0.098	-0.227
-213.523	113.303	-0.204	0.246
-212.509	16.841	-0.177	-0.139
-211.494	-200.000	0.003	-0.110
-210.479	-200.000	-0.044	-0.230
-209.465	800.000	0.044	-0.171
-208.450	-70.682	-0.138	0.052
-207.436	-200.000	-0.013	0.479
-206.421	-103.552	-0.222	0.052
-205.406	-12.784	0.062	-0.040
-204.392	-85.021	-0.341	0.106
-203.377	-200.000	0.021	0.380
-202.363	28.882	-0.026	0.022
-201.348	-53.807	0.306	0.138
-200.333	-21.432	0.093	-0.056
-199.319	-0.562	0.217	-0.153
-198.304	-130.971	0.181	-0.024
-197.290	358.391	0.028	-0.056
-196.275	-142.722	-0.305	-0.029
-195.260	-9.320	-0.285	0.189
-194.246	-67.590	0.282	-0.110
-193.231	-111.695	-0.159	-0.032
-192.217	-96.000	-0.092	-0.024
-191.202	-22.397	-0.109	-0.066
-190.187	-86.299	0.325	-0.099
-189.173	-110.736	0.236	-0.048
-188.158	156.151	-0.145	-0.198
-187.144	24.942	-0.095	0.078
-186.129	-86.526	0.148	-0.045
-185.114	-200.000	0.008	0.440
-184.100	-172.439	0.192	-0.006
-183.085	-108.130	0.254	-0.055
-182.071	-120.658	-0.069	0.012
-181.056	93.043	0.069	0.078
-180.042	-63.172	0.226	0.092
-179.027	-200.000	0.012	-0.104
-178.012	446.539	-0.070	0.153
-176.998	-37.323	-0.210	0.111
-175.983	741.900	0.056	0.149
-174.969	-200.000	0.006	-0.127
-173.954	-73.073	-0.097	0.035
-172.939	-200.000	0.030	-0.281
-171.925	-51.392	0.350	0.162
-170.910	515.693	0.084	-0.193
-169.896	-56.433	-0.167	-0.073
-168.881	-200.000	0.074	0.375
-167.866	405.732	0.108	0.225
-166.852	66.640	0.243	0.245
-165.837	173.866	-0.258	0.369
-164.823	348.203	0.138	-0.270
-163.808	-38.206	0.063	-0.033
-162.793	-118.220	0.340	0.060
-161.779	-125.452	0.120	0.018
-160.764	-124.430	-0.090	0.014
-159.750	-200.000	0.001	0.094
-158.735	166.252	0.119	-0.166
-157.720	23.580	0.105	-0.086
-156.706	-200.000	-0.006	-0.179
-155.691	-95.800	0.209	0.055
-154.677	-200.000	-0.005	-0.023
-153.662	-143.984	-0.109	0.010
-152.647	800.000	0.041	-0.146
-151.633	581.775	0.107	0.259
-150.618	-123.934	0.313	-0.049
-149.604	704.470	0.095	-0.248
-148.589	800.000	-0.041	-0.171
-147.574	-112.062	-0.225	-0.045
-146.560	728.157	0.003	-0.007
-145.545	-26.091	0.159	-0.093
-144.531	-42.149	0.112	-0.057
-143.516	223.936	-0.084	-0.134
-142.502	-100.934	-0.232	0.056
-141.487	38.036	-0.155	-0.136
-140.472	106.633	-0.165	0.194
-139.458	800.000	-0.074	-0.234
-138.443	-66.148	0.292	-0.115
-137.429	-41.658	-0.148	-0.075
-136.414	-174.060	0.286	-0.008
-135.399	-138.346	0.127	0.014
-134.385	11.789	-0.105	0.079
-133.370	752.960	-0.058	0.154
-132.356	234.218	0.196	0.320
-131.341	-133.233	-0.272	0.034
-130.326	-51.688	0.119	0.055
-129.312	174.507	-0.123	-0.176
-128.297	91.514	0.177	-0.196
-127.283	459.508	-0.037	-0.081
-126.268	8.458	-0.243	0.180
-125.253	-171.963	-0.377	-0.012
-124.239	-83.187	-0.394	-0.125
-123.224	86.083	-0.235	-0.256
-122.210	33.625	0.215	0.185
-121.195	-200.000	0.078	-0.408
