DTS Sentinel unit serial number:	SN413079Multiplexer serial number:	ORYXHardware model number:	OX4-SRSoftware version number:	ORYX F/W v4.00 Oryx Data Collector v3.7.2.0data status	okinstallation	princeton_trtdifferential loss correction	single-endedforward channel	channel 4reverse channel	N/Adate	2019/09/16time	19:53:35forward acquisition time	60.00reverse acquisition time	0.00gamma	496.2192k internal	0.2310k external	0.2310temperature offset calibration	0.9971default loss term (dB/km)	0.3790temperature slope calibration	1.0000multiplexer offset coefficient	1.0000multiplexer slope coefficient	1.0000fibre end	0.00T internal ref (°C)	33.62T ext. ref 1 (°C)	0.06T ext. ref 2 (°C)	26.72length (m)	temperature (°C)	Stokes	anti-Stokes-747.200	-117.846	0.109	-0.020
-746.185	-200.000	0.024	0.267
-745.171	-187.720	0.172	0.002
-744.156	726.255	-0.083	0.225
-743.142	-45.446	0.114	-0.058
-742.127	-200.000	0.007	0.176
-741.112	167.575	-0.227	0.327
-740.098	-87.472	-0.495	0.152
-739.083	100.223	-0.088	-0.103
-738.069	78.430	0.106	0.115
-737.054	-35.288	0.224	0.124
-736.039	147.225	-0.090	0.123
-735.025	800.000	0.040	-0.140
-734.010	-129.058	-0.439	-0.062
-732.996	-52.540	-0.177	-0.083
-731.981	-117.537	-0.290	-0.053
-730.966	309.751	-0.164	0.312
-729.952	-164.308	-0.146	0.007
-728.937	-74.077	-0.149	0.055
-727.923	-168.825	-0.257	-0.010
-726.908	-47.658	0.076	-0.037
-725.894	-31.729	-0.195	-0.111
-724.879	-141.532	-0.319	0.033
-723.864	-79.637	0.282	0.097
-722.850	-200.000	0.040	-0.316
-721.835	-11.765	-0.022	-0.014
-720.821	-19.098	0.193	0.121
-719.806	738.792	0.091	0.248
-718.791	52.364	0.247	0.239
-717.777	470.848	0.048	-0.109
-716.762	-40.623	-0.267	-0.141
-715.748	0.397	0.234	0.169
-714.733	-200.000	0.048	-0.261
-713.718	800.000	0.055	0.203
-712.704	800.000	0.073	0.299
-711.689	-79.901	-0.178	0.061
-710.675	-128.590	-0.324	-0.046
-709.660	-2.736	-0.187	0.132
-708.645	-93.841	-0.173	0.048
-707.631	359.918	0.091	-0.185
-706.616	-27.891	0.169	-0.099
-705.602	-0.989	0.176	-0.126
-704.587	318.292	-0.138	-0.265
-703.572	-200.000	-0.000	-0.168
-702.558	-44.227	-0.249	0.127
-701.543	-200.000	0.016	-0.160
-700.529	32.809	-0.059	0.052
-699.514	-17.650	0.415	-0.264
-698.499	32.439	-0.251	0.219
-697.485	800.000	-0.040	0.144
-696.470	-115.289	-0.096	-0.018
-695.456	-200.000	0.019	-0.245
-694.441	-8.241	-0.062	-0.042
-693.426	0.625	0.147	0.107
-692.412	391.092	0.181	-0.381
-691.397	-143.231	0.197	-0.019
-690.383	200.930	0.149	-0.232
-689.368	-149.131	-0.222	0.018
-688.354	-121.410	0.160	0.027
-687.339	-96.402	0.051	-0.014
-686.324	800.000	-0.142	0.413
-685.310	-110.130	0.094	0.020
-684.295	800.000	0.051	-0.173
-683.281	190.585	0.186	0.283
-682.266	48.770	-0.152	-0.145
-681.251	-149.186	0.205	-0.017
-680.237	-102.750	-0.229	-0.055
-679.222	63.737	-0.153	-0.156
-678.208	-184.695	0.460	-0.007
-677.193	4.980	-0.047	0.035
-676.178	-33.975	0.114	-0.064
-675.164	93.598	-0.024	-0.028
-674.149	102.844	-0.191	0.227
-673.135	800.000	-0.063	0.265
-672.120	-200.000	-0.118	0.601
-671.105	-114.828	0.136	0.026
-670.091	-84.647	-0.228	0.073
-669.076	-60.489	0.262	-0.113
-668.062	32.547	0.035	-0.030
-667.047	-70.889	-0.234	0.089
-666.032	-200.000	0.026	-0.158
-665.018	155.591	0.187	0.260
-664.003	22.706	-0.309	-0.256
-662.989	567.966	-0.064	-0.158
-661.974	19.519	-0.332	0.271
-660.959	198.272	0.189	-0.293
-659.945	-166.749	-0.253	0.011
-658.930	649.856	0.076	-0.196
-657.916	-123.691	-0.147	-0.023
-656.901	16.852	0.151	-0.121
-655.886	26.549	-0.037	0.031
-654.872	-200.000	0.019	-0.169
-653.857	800.000	0.074	-0.207
-652.843	-200.000	-0.187	-0.001
-651.828	800.000	0.071	-0.255
-650.814	-57.413	0.126	-0.056
-649.799	5.125	-0.139	-0.103
-648.784	418.679	-0.105	0.226
-647.770	47.113	-0.226	0.213
-646.755	-164.676	-0.228	-0.010
-645.741	-52.841	0.049	0.023
-644.726	278.843	0.106	0.190
-643.711	282.815	-0.135	0.245
-642.697	448.305	0.099	-0.220
-641.682	-28.635	-0.176	0.102
-640.668	63.308	-0.050	0.051
-639.653	256.998	0.062	-0.107
-638.638	-23.961	0.099	-0.060
-637.624	110.787	-0.124	-0.151
-636.609	-200.000	0.068	-0.340
-635.595	-160.992	0.124	-0.007
-634.580	71.591	-0.202	0.212
-633.565	800.000	0.086	-0.251
-632.551	55.114	-0.044	-0.043
-631.536	312.661	-0.177	-0.337
-630.522	-200.000	0.002	-0.024
-629.507	-200.000	-0.030	0.225
-628.492	-138.914	0.438	0.048
-627.478	-100.353	0.215	0.054
-626.463	-200.000	-0.015	0.206
-625.449	-200.000	0.020	0.110
-624.434	209.010	-0.101	0.160
-623.419	511.656	-0.116	0.272
-622.405	444.997	-0.060	-0.134
-621.390	-200.000	0.013	-0.099
-620.376	390.956	0.055	0.116
-619.361	-27.697	0.250	0.146
-618.346	359.274	-0.038	-0.077
-617.332	800.000	-0.038	-0.124
-616.317	-122.754	0.018	0.003
-615.303	334.476	-0.125	-0.244
-614.288	-200.000	0.017	0.139
-613.273	-46.227	-0.219	0.109
-612.259	-8.327	-0.122	0.083
-611.244	35.530	0.155	0.138
-610.230	-21.468	-0.212	-0.130
-609.215	163.918	-0.088	0.125
-608.201	-108.515	-0.171	0.037
-607.186	800.000	-0.054	0.183
-606.171	4.607	0.028	-0.021
-605.157	345.533	0.046	-0.092
-604.142	800.000	-0.065	0.212
-603.128	-200.000	0.035	0.251
-602.113	119.191	-0.175	0.218
-601.098	-200.000	0.030	-0.223
-600.084	169.546	0.212	-0.305
-599.069	271.491	-0.207	-0.369
-598.055	27.628	-0.233	-0.198
-597.040	795.284	-0.232	-0.645
-596.025	-200.000	-0.012	0.141
-595.011	-133.082	0.050	-0.006
-593.996	800.000	-0.031	0.096
-592.982	-200.000	-0.040	-0.273
-591.967	27.959	0.077	-0.065
-590.952	88.281	-0.075	-0.084
-589.938	675.906	-0.030	-0.079
-588.923	-28.050	0.075	0.044
-587.909	800.000	-0.012	-0.044
-586.894	-200.000	0.001	0.037
-585.879	208.655	0.275	0.434
-584.865	490.359	-0.047	0.109
-583.850	-200.000	0.013	-0.326
-582.836	85.599	0.152	-0.169
-581.821	800.000	0.035	-0.139
-580.806	16.740	-0.173	-0.138
-579.792	340.633	-0.123	-0.242
-578.777	272.942	0.075	-0.134
-577.763	-54.102	0.156	-0.072
-576.748	-41.041	-0.304	-0.159
-575.733	55.324	-0.141	-0.137
-574.719	800.000	0.052	-0.222
-573.704	-184.347	0.253	-0.004
-572.690	133.529	0.075	-0.098
-571.675	200.840	0.091	-0.141
-570.661	-200.000	0.007	-0.176
-569.646	188.265	0.086	-0.129
-568.631	-81.246	0.158	0.053
-567.617	-5.701	-0.035	0.024
-566.602	-24.940	0.161	-0.096
-565.588	-200.000	-0.016	0.111
-564.573	311.580	0.063	-0.118
-563.558	800.000	0.010	-0.039
-562.544	-44.541	-0.186	0.094
-561.529	-105.248	0.006	-0.001
-560.515	-118.439	0.302	-0.054
-559.500	-200.000	-0.003	-0.072
-558.485	32.945	0.225	-0.196
-557.471	-109.972	-0.245	0.052
-556.456	92.301	0.064	-0.073
-555.442	-107.630	-0.270	0.060
-554.427	-98.057	-0.060	-0.015
-553.412	-200.000	-0.110	0.000
-552.398	-77.403	-0.174	-0.061
-551.383	304.512	-0.159	-0.298
-550.369	-66.642	-0.216	-0.086
-549.354	-200.000	-0.006	-0.130
-548.339	-157.880	-0.190	-0.011
-547.325	-75.857	0.207	-0.074
-546.310	-200.000	0.012	-0.138
-545.296	698.828	-0.049	0.130
-544.281	16.096	-0.036	0.029
-543.266	-200.000	-0.020	-0.149
-542.252	-13.497	-0.213	-0.139
-541.237	-43.823	-0.362	-0.184
-540.223	64.244	0.184	-0.186
-539.208	-79.827	0.127	-0.043
-538.193	499.057	-0.074	0.172
-537.179	234.237	0.130	0.215
-536.164	25.752	0.204	-0.171
-535.150	3.809	-0.268	0.197
-534.135	-78.179	-0.111	0.038
-533.121	-200.000	-0.042	-0.193
-532.106	-28.435	0.066	-0.038
-531.091	55.327	0.230	-0.224
-530.077	-54.415	0.341	-0.156
-529.062	46.046	-0.101	0.094
-528.048	-82.300	0.223	-0.073
-527.033	-93.017	-0.276	0.078
-526.018	-36.538	0.098	0.053
-525.004	51.615	0.046	0.044
-523.989	19.958	-0.111	0.090
-522.975	800.000	-0.067	0.198
-521.960	38.385	0.281	0.252
-520.945	539.037	0.120	0.288
-519.931	152.392	0.136	-0.188
-518.916	393.273	0.081	0.169
-517.902	-137.114	-0.045	0.005
-516.887	-200.000	-0.019	0.190
-515.872	12.889	-0.203	0.158
-514.858	800.000	-0.106	0.304
-513.843	800.000	0.070	0.233
-512.829	378.761	-0.030	-0.063
-511.814	48.679	0.201	-0.189
-510.799	-200.000	0.028	-0.239
-509.785	-200.000	0.007	-0.287
-508.770	519.646	0.107	0.252
-507.756	-101.204	-0.041	0.010
-506.741	148.652	-0.194	-0.264
-505.726	237.099	0.031	-0.052
-504.712	45.412	0.163	0.151
-503.697	-126.727	0.171	-0.025
-502.683	-101.624	0.272	0.067
-501.668	-17.398	-0.115	-0.073
-500.653	-30.332	0.296	-0.169
-499.639	-123.006	-0.371	0.060
-498.624	559.196	-0.084	0.204
-497.610	595.288	0.104	0.258
-496.595	10.616	0.276	0.211
-495.581	-14.158	-0.131	-0.085
-494.566	562.986	0.110	-0.267
-493.551	-118.075	0.085	0.015
-492.537	-29.100	0.078	-0.045
-491.522	-60.668	-0.339	0.145
-490.508	-37.566	0.107	0.058
-489.493	-121.477	-0.209	-0.035
-488.478	313.874	-0.036	0.068
-487.464	123.175	-0.061	0.077
-486.449	10.633	-0.084	-0.065
-485.435	744.407	0.076	0.206
-484.420	770.191	0.129	0.354
-483.405	-200.000	0.072	0.542
-482.391	-123.131	0.294	-0.047
-481.376	-162.465	-0.189	0.009
-480.362	-141.197	-0.071	0.007
-479.347	-96.717	-0.098	-0.026
-478.332	-114.014	0.212	-0.041
-477.318	-36.283	-0.110	0.060
-476.303	604.154	0.052	-0.130
-475.289	22.502	-0.143	-0.118
-474.274	19.934	0.261	-0.212
-473.259	28.065	0.290	0.246
-472.245	800.000	-0.083	0.234
-471.230	-29.287	-0.242	-0.139
-470.216	-11.805	0.215	-0.141
-469.201	-107.119	0.217	-0.048
-468.186	-10.531	0.267	-0.177
-467.172	800.000	-0.081	-0.240
-466.157	-10.822	-0.140	0.093
-465.143	-200.000	0.004	0.566
-464.128	58.864	-0.038	0.037
-463.113	418.164	-0.145	0.311
-462.099	-104.404	0.285	-0.066
-461.084	-200.000	0.015	-0.167
-460.070	245.760	-0.097	0.163
-459.055	149.512	0.186	0.253
-458.040	-60.545	-0.105	0.045
-457.026	3.979	0.239	-0.175
-456.011	138.202	0.173	0.228
-454.997	800.000	0.107	0.338
-453.982	-151.633	-0.208	0.015
-452.968	800.000	-0.031	-0.108
-451.953	-91.074	0.273	0.079
-450.938	11.744	0.131	-0.101
-449.924	246.974	-0.178	0.301
-448.909	800.000	-0.032	-0.123
-447.895	-114.678	0.094	-0.018
-446.880	-188.754	0.223	-0.003
-445.865	203.239	0.135	0.210
-444.851	272.564	0.108	0.192
-443.836	-172.981	-0.171	0.005
-442.822	-200.000	0.035	-0.360
-441.807	-35.480	0.096	-0.052
-440.792	-87.881	0.422	-0.127
-439.778	101.466	-0.135	0.158
-438.763	0.081	0.177	0.127
-437.749	800.000	-0.098	0.327
-436.734	-200.000	0.012	0.084
-435.719	22.567	0.246	0.202
-434.705	-44.742	0.041	0.021
-433.690	235.740	-0.142	-0.235
-432.676	-173.128	-0.152	0.005
-431.661	89.756	0.156	-0.174
-430.646	331.190	0.006	-0.012
-429.632	127.082	0.059	-0.075
-428.617	-49.438	-0.060	-0.029
-427.603	800.000	0.039	0.123
-426.588	-200.000	0.009	0.115
-425.573	360.523	0.172	-0.346
-424.559	-135.815	-0.253	-0.030
-423.544	54.538	-0.019	0.018
-422.530	-86.333	0.156	0.048
-421.515	226.358	-0.208	0.339
-420.500	535.397	-0.051	0.121
-419.486	-200.000	0.019	0.100
-418.471	690.762	-0.086	0.226
-417.457	-200.000	0.010	0.131
-416.442	-14.839	0.068	-0.044
-415.428	-200.000	-0.036	0.231
-414.413	-119.762	-0.101	-0.017
-413.398	-127.011	-0.132	-0.019
-412.384	74.583	0.228	0.241
-411.369	538.383	0.089	-0.212
-410.355	774.322	0.034	0.094
-409.340	171.659	-0.031	0.045
-408.325	800.000	-0.091	-0.352
-407.311	741.909	-0.052	0.141
-406.296	-200.000	-0.042	0.377
-405.282	-200.000	-0.001	0.066
-404.267	342.588	0.200	0.393
-403.252	44.704	-0.056	-0.052
-402.238	-37.752	-0.119	0.063
-401.223	599.866	-0.054	-0.135
-400.209	10.051	0.352	-0.268
-399.194	-200.000	0.050	-0.310
-398.179	88.017	-0.059	0.065
-397.165	34.727	0.210	-0.184
-396.150	89.690	0.056	0.063
-395.136	531.819	0.132	0.312
-394.121	165.391	-0.103	-0.146
-393.106	227.232	0.143	0.233
-392.092	-139.129	-0.131	0.014
-391.077	-68.796	0.198	-0.077
-390.063	259.759	0.109	-0.189
-389.048	-102.662	0.148	0.035
-388.033	-90.566	-0.401	0.116
-387.019	59.999	0.018	0.018
-386.004	32.482	-0.150	0.129
-384.990	800.000	-0.018	-0.071
-383.975	65.507	0.322	0.326
-382.960	-138.116	0.218	0.024
-381.946	236.053	-0.181	0.300
-380.931	-200.000	0.029	0.345
-379.917	128.191	-0.060	-0.076
-378.902	800.000	0.050	-0.174
-377.888	798.984	-0.071	-0.197
-376.873	-8.389	0.247	0.167
-375.858	-153.540	0.123	0.009
-374.844	434.992	-0.083	-0.181
-373.829	90.887	0.073	0.081
-372.815	94.956	0.266	-0.303
-371.800	-9.291	0.139	-0.093
-370.785	800.000	0.061	-0.246
-369.771	388.412	-0.178	-0.368
-368.756	-9.067	-0.131	0.088
-367.742	-200.000	-0.024	0.441
-366.727	-16.187	0.294	0.187
-365.712	-200.000	-0.040	-0.266
-364.698	15.630	0.137	0.108
-363.683	-140.147	-0.442	-0.046
-362.669	154.495	-0.126	-0.173
-361.654	-49.980	-0.080	-0.038
-360.639	-81.991	0.416	-0.136
-359.625	21.238	-0.116	0.094
-358.610	-197.570	0.235	0.001
-357.596	372.527	-0.026	0.053
-356.581	46.551	-0.223	-0.207
-355.566	517.307	-0.166	-0.389
-354.552	-164.139	-0.392	-0.018
-353.537	334.391	0.166	0.321
-352.523	-51.368	0.160	0.075
-351.508	-200.000	0.040	0.206
-350.493	800.000	0.016	0.068
-349.479	-110.660	0.127	-0.026
-348.464	-200.000	0.001	0.030
-347.450	-115.217	0.211	-0.040
-346.435	-78.516	-0.114	-0.039
-345.420	-200.000	0.005	-0.135
-344.406	129.141	-0.120	-0.154
-343.391	-126.830	-0.114	-0.017
-342.377	-200.000	0.023	-0.223
-341.362	-13.594	-0.283	0.183
-340.348	-159.864	-0.364	0.020
-339.333	30.180	-0.123	0.105
-338.318	69.003	-0.247	-0.253
-337.304	-200.000	-0.049	0.291
-336.289	176.465	-0.134	0.194
-335.275	-182.602	-0.361	0.007
-334.260	800.000	0.010	-0.034
-333.245	140.191	0.159	-0.210
-332.231	-104.458	0.195	-0.045
-331.216	145.691	0.118	0.157
-330.202	800.000	-0.007	0.021
-329.187	226.856	0.167	0.272
-328.172	-94.930	0.293	-0.079
-327.158	800.000	-0.013	-0.037
-326.143	490.978	0.085	-0.195
-325.129	125.279	0.216	-0.272
-324.114	589.847	0.030	0.074
-323.099	-93.439	0.285	0.079
-322.085	-200.000	0.013	-0.122
-321.070	-127.435	0.223	-0.032
-320.056	-200.000	0.002	0.160
-319.041	33.782	-0.146	0.127
-318.026	-67.574	-0.453	0.177
-317.012	166.340	0.091	0.128
-315.997	-130.477	0.144	0.019
-314.983	543.625	0.024	-0.056
-313.968	-25.489	0.060	-0.036
-312.953	-200.000	0.015	-0.248
-311.939	-63.278	0.190	-0.078
-310.924	-154.476	-0.043	-0.003
-309.910	-200.000	0.007	-0.529
-308.895	448.223	-0.146	0.320
-307.880	-107.194	-0.326	-0.072
-306.866	-46.160	-0.329	-0.162
-305.851	544.864	0.019	-0.046
-304.837	-118.390	-0.534	-0.095
-303.822	-200.000	0.000	-0.077
-302.807	201.710	-0.063	0.097
-301.793	129.290	0.177	-0.225
-300.778	-200.000	-0.050	-0.228
-299.764	213.019	-0.177	-0.279
-298.749	-58.449	-0.400	-0.174
-297.735	-96.645	-0.029	0.008
-296.720	-165.615	-0.015	-0.001
-295.705	-200.000	-0.007	0.374
-294.691	743.004	0.128	0.345
-293.676	282.056	0.144	0.258
-292.662	-200.000	0.037	-0.382
-291.647	-67.278	-0.083	-0.033
-290.632	-200.000	-0.066	-0.299
-289.618	-61.520	-0.232	-0.097
-288.603	-114.979	0.171	0.032
-287.589	-47.510	-0.231	0.112
-286.574	-19.840	-0.242	-0.149
-285.559	28.650	-0.132	0.111
-284.545	-93.673	-0.039	0.011
-283.530	-87.777	-0.218	-0.066
-282.516	291.588	0.041	0.074
-281.501	587.157	0.115	0.282
-280.486	-144.958	0.245	0.022
-279.472	85.922	-0.103	0.113
-278.457	69.068	0.407	0.417
-277.443	105.406	-0.164	0.193
-276.428	-200.000	-0.016	0.142
-275.413	321.376	-0.168	0.318
-274.399	-16.516	-0.210	-0.133
-273.384	800.000	-0.079	-0.242
-272.370	85.742	-0.170	-0.186
-271.355	-200.000	0.006	-0.160
-270.340	198.561	0.170	0.259
-269.326	-154.534	-0.356	0.024
-268.311	331.876	-0.102	-0.195
-267.297	-38.769	-0.053	-0.028
-266.282	4.821	-0.192	0.141
-265.267	519.457	0.050	-0.118
-264.253	523.064	-0.067	0.157
-263.238	218.410	0.075	-0.120
-262.224	-200.000	0.005	0.363
-261.209	56.497	0.067	-0.065
-260.195	-38.229	-0.275	0.145
-259.180	56.665	0.080	0.078
-258.165	102.935	-0.106	-0.124
-257.151	-29.958	-0.251	-0.142
-256.136	11.594	0.111	-0.085
-255.122	-200.000	-0.011	-0.248
-254.107	-158.989	0.418	-0.024
-253.092	289.586	-0.135	-0.243
-252.078	186.387	-0.104	0.154
-251.063	-115.355	0.169	-0.032
-250.049	-180.976	-0.581	0.012
-249.034	-136.877	-0.184	0.021
-248.019	800.000	0.021	-0.060
-247.005	-74.710	-0.129	-0.046
-245.990	800.000	0.089	-0.260
-244.976	-167.527	0.223	0.009
-243.961	800.000	0.058	-0.219
-242.946	-129.281	-0.073	-0.010
-241.932	-58.056	-0.230	-0.100
-240.917	47.510	-0.052	0.048
-239.903	137.632	0.117	0.153
-238.888	-200.000	-0.030	0.246
-237.873	57.318	-0.153	-0.149
-236.859	38.072	0.233	0.206
-235.844	-147.508	0.200	0.017
-234.830	5.128	-0.263	0.193
-233.815	-12.615	0.126	0.082
-232.800	-112.219	-0.156	0.031
-231.786	-80.906	-0.230	0.076
-230.771	306.888	-0.148	-0.275
-229.757	-200.000	0.003	0.060
-228.742	83.416	0.146	-0.158
-227.727	368.663	0.128	-0.257
-226.713	97.302	-0.076	0.087
-225.698	41.274	-0.062	0.056
-224.684	-200.000	0.021	-0.235
-223.669	-2.474	0.322	-0.224
-222.655	-93.350	-0.255	-0.070
-221.640	-29.704	0.047	0.027
-220.625	-200.000	-0.075	0.330
-219.611	-137.826	0.405	-0.045
-218.596	-78.458	-0.108	0.037
-217.582	-34.958	-0.053	-0.029
-216.567	4.235	-0.115	-0.083
-215.552	454.261	-0.105	0.230
-214.538	467.755	0.084	0.187
-213.523	-2.781	-0.015	0.010
-212.509	-64.280	0.322	-0.131
-211.494	-150.128	-0.327	-0.025
-210.479	608.415	-0.082	-0.202
-209.465	114.204	0.196	-0.238
-208.450	-200.000	0.074	-0.521
-207.436	-151.032	-0.185	0.014
-206.421	-23.945	-0.336	0.200
-205.406	-30.946	0.202	-0.114
-204.392	279.043	-0.195	0.346
-203.377	-33.374	-0.235	-0.129
-202.363	412.296	0.044	-0.092
-201.348	448.284	0.148	0.323
-200.333	-200.000	0.040	0.228
-199.319	-38.260	0.178	-0.094
-198.304	587.506	0.092	-0.225
-197.290	47.250	-0.174	0.161
-196.275	92.078	0.112	-0.125
-195.260	-200.000	-0.004	0.051
-194.246	-8.708	0.227	-0.151
-193.231	248.110	-0.087	0.146
-192.217	7.779	-0.164	-0.122
-191.202	126.703	0.277	-0.349
-190.187	-1.319	0.227	0.159
-189.173	-139.100	-0.257	0.028
-188.158	800.000	0.064	0.217
-187.144	800.000	0.122	-0.350
-186.129	22.461	-0.129	0.105
-185.114	800.000	0.059	-0.186
-184.100	100.680	-0.043	-0.050
-183.085	-100.066	-0.176	0.044
-182.071	-200.000	0.021	-0.176
-181.056	-90.171	0.313	0.091
-180.042	578.861	0.088	-0.213
-179.027	208.084	-0.140	-0.217
-178.012	-200.000	0.008	-0.317
-176.998	411.714	-0.115	0.243
-175.983	-200.000	0.011	-0.070
-174.969	-16.379	0.349	0.220
-173.954	560.539	0.064	0.153
-172.939	-200.000	0.009	-0.303
-171.925	570.096	0.004	-0.010
-170.910	-34.123	0.237	0.129
-169.896	730.761	-0.073	-0.193
-168.881	142.519	0.031	-0.040
-167.866	421.692	0.042	0.089
-166.852	541.622	0.054	-0.128
-165.837	-6.412	-0.158	0.107
-164.823	-200.000	-0.050	0.227
-163.808	483.929	-0.068	-0.154
-162.793	-200.000	0.012	0.212
-161.779	800.000	0.074	0.252
-160.764	49.215	0.242	0.226
-159.750	-200.000	0.013	-0.320
-158.735	148.763	0.158	-0.212
-157.720	-200.000	-0.057	0.310
-156.706	87.712	-0.040	0.044
-155.691	800.000	0.033	0.118
-154.677	-80.126	0.411	0.137
-153.662	-200.000	-0.006	0.079
-152.647	-101.583	0.257	0.062
-151.633	800.000	-0.104	0.332
-150.618	-66.522	0.202	0.079
-149.604	394.566	0.049	0.102
-148.589	-147.192	0.348	0.029
-147.574	1.677	-0.192	-0.137
-146.560	-46.711	-0.328	-0.159
-145.545	800.000	0.099	0.418
-144.531	-131.786	0.181	-0.023
-143.516	-200.000	-0.002	-0.037
-142.502	-162.051	0.266	0.013
-141.487	141.026	0.229	0.300
-140.472	11.283	-0.161	0.122
-139.458	87.176	-0.211	-0.231
-138.443	-14.393	-0.068	-0.043
-137.429	800.000	0.108	0.365
-136.414	241.814	0.129	0.214
-135.399	-200.000	-0.082	0.403
-134.385	-114.284	0.139	-0.027
-133.370	-200.000	-0.029	0.500
-132.356	153.370	0.057	-0.078
-131.341	142.026	0.237	0.312
-130.326	17.708	0.335	0.264
-129.312	-16.864	0.175	-0.110
-128.297	-16.887	0.251	-0.158
-127.283	660.348	0.105	-0.268
-126.268	-2.899	-0.104	-0.072
-125.253	800.000	-0.069	0.234
-124.239	-23.753	-0.328	0.195
-123.224	-12.605	-0.108	0.070
-122.210	262.798	0.201	0.346
-121.195	-131.266	0.391	0.051
