DTS Sentinel unit serial number:	SN413079Multiplexer serial number:	ORYXHardware model number:	OX4-SRSoftware version number:	ORYX F/W v4.00 Oryx Data Collector v3.7.2.0data status	okinstallation	princeton_trtdifferential loss correction	single-endedforward channel	channel 4reverse channel	N/Adate	2019/09/15time	21:01:34forward acquisition time	60.00reverse acquisition time	0.00gamma	496.2192k internal	0.2317k external	0.2317temperature offset calibration	0.9936default loss term (dB/km)	0.3790temperature slope calibration	1.0000multiplexer offset coefficient	1.0000multiplexer slope coefficient	1.0000fibre end	0.00T internal ref (°C)	31.77T ext. ref 1 (°C)	8.06T ext. ref 2 (°C)	24.36length (m)	temperature (°C)	Stokes	anti-Stokes-747.200	272.869	0.079	-0.141
-746.185	-79.985	-0.127	0.043
-745.171	-131.815	-0.182	-0.024
-744.156	-77.227	-0.140	0.049
-743.142	-200.000	-0.031	0.360
-742.127	-60.573	-0.125	0.054
-741.112	-200.000	-0.004	-0.036
-740.098	-200.000	-0.025	0.303
-739.083	-7.434	-0.223	0.153
-738.069	-53.410	-0.251	-0.116
-737.054	-137.652	0.132	0.015
-736.039	-200.000	-0.000	0.040
-735.025	-133.914	0.191	0.024
-734.010	36.446	0.044	-0.039
-732.996	-68.402	-0.123	0.048
-731.981	-59.338	0.029	-0.012
-730.966	-142.553	-0.233	0.023
-729.952	-89.283	-0.371	-0.111
-728.937	-20.968	0.190	-0.117
-727.923	-27.711	-0.284	-0.167
-726.908	800.000	-0.021	-0.088
-725.894	-133.974	-0.473	0.059
-724.879	48.564	0.106	-0.101
-723.864	258.276	-0.025	-0.044
-722.850	-42.200	0.179	0.092
-721.835	-159.732	0.189	-0.011
-720.821	72.674	0.010	-0.011
-719.806	-96.328	0.289	-0.078
-718.791	157.871	-0.072	-0.100
-717.777	34.978	0.312	-0.276
-716.762	135.284	-0.157	-0.206
-715.748	593.045	0.106	-0.264
-714.733	-200.000	-0.001	0.139
-713.718	-200.000	-0.015	0.077
-712.704	282.203	0.151	0.273
-711.689	-4.293	-0.018	0.012
-710.675	590.347	-0.182	0.453
-709.660	177.951	0.011	-0.017
-708.645	-89.346	-0.310	-0.092
-707.631	-109.751	0.078	-0.017
-706.616	-71.166	-0.049	0.018
-705.602	-75.618	-0.409	-0.147
-704.587	-106.294	-0.242	0.055
-703.572	-200.000	0.030	-0.484
-702.558	159.477	0.083	0.117
-701.543	783.557	0.057	0.158
-700.529	-170.394	-0.217	0.008
-699.514	800.000	0.058	-0.223
-698.499	-40.292	-0.173	-0.091
-697.485	-13.370	0.232	0.152
-696.470	237.586	0.099	-0.166
-695.456	800.000	0.112	-0.342
-694.441	800.000	0.089	0.347
-693.426	800.000	-0.075	0.231
-692.412	-89.946	-0.069	0.020
-691.397	210.704	-0.051	0.080
-690.383	67.592	0.390	-0.402
-689.368	-71.384	-0.269	0.102
-688.354	800.000	0.101	-0.338
-687.339	392.050	0.160	-0.336
-686.324	-84.826	-0.242	-0.077
-685.310	193.790	0.157	0.241
-684.295	-22.784	-0.276	-0.168
-683.281	-200.000	-0.047	0.216
-682.266	-32.827	0.272	0.153
-681.251	-3.284	-0.172	0.121
-680.237	72.558	0.215	0.226
-679.222	406.396	-0.052	0.110
-678.208	-33.483	0.105	-0.058
-677.193	29.879	-0.221	-0.190
-676.178	44.657	0.098	-0.091
-675.164	6.924	-0.210	0.158
-674.149	83.258	0.066	0.073
-673.135	185.020	0.029	0.044
-672.120	-200.000	0.003	-0.082
-671.105	-103.315	-0.400	-0.095
-670.091	800.000	-0.069	-0.249
-669.076	173.966	-0.148	0.216
-668.062	-200.000	0.035	0.225
-667.047	-200.000	0.021	-0.223
-666.032	-200.000	-0.007	-0.232
-665.018	4.926	0.088	0.065
-664.003	-200.000	0.012	-0.163
-662.989	-37.059	0.177	0.096
-661.974	-159.231	-0.200	0.011
-660.959	-200.000	-0.005	0.099
-659.945	-142.962	0.194	0.019
-658.930	-200.000	-0.002	0.134
-657.916	197.508	0.233	-0.359
-656.901	172.458	-0.168	-0.243
-655.886	521.206	-0.114	-0.271
-654.872	-200.000	-0.030	-0.222
-653.857	-84.559	0.354	0.113
-652.843	-200.000	0.013	0.233
-651.828	-125.057	-0.228	-0.035
-650.814	-200.000	0.000	-0.234
-649.799	174.495	-0.121	0.176
-648.784	-19.688	-0.298	0.186
-647.770	35.361	0.096	0.085
-646.755	-27.726	-0.100	0.059
-645.741	-103.374	0.097	-0.023
-644.726	263.061	0.083	-0.145
-643.711	800.000	-0.053	0.185
-642.697	-25.938	0.275	0.163
-641.682	-171.928	0.256	0.008
-640.668	15.735	-0.169	-0.134
-639.653	482.981	-0.179	-0.411
-638.638	384.730	0.048	-0.099
-637.624	16.126	0.171	-0.136
-636.609	800.000	0.064	-0.271
-635.595	-3.553	-0.233	0.163
-634.580	171.068	-0.071	0.102
-633.565	101.515	0.127	0.149
-632.551	630.643	0.183	-0.467
-631.536	45.548	-0.173	0.161
-630.522	35.848	0.257	-0.228
-629.507	133.648	-0.131	-0.170
-628.492	-200.000	-0.049	0.495
-627.478	-51.591	-0.451	-0.212
-626.463	-131.280	0.071	-0.009
-625.449	53.732	0.244	-0.236
-624.434	104.848	-0.023	-0.027
-623.419	800.000	0.112	0.445
-622.405	-96.740	0.219	0.058
-621.390	-26.681	-0.194	-0.115
-620.376	25.316	-0.087	-0.073
-619.361	170.590	-0.038	-0.054
-618.346	-200.000	-0.007	-0.271
-617.332	291.422	-0.125	-0.229
-616.317	433.707	0.165	0.362
-615.303	-50.065	-0.428	0.204
-614.288	-99.057	-0.035	0.009
-613.273	32.291	-0.112	-0.097
-612.259	800.000	0.033	-0.118
-611.244	-31.882	0.357	-0.202
-610.230	196.468	-0.032	-0.050
-609.215	217.435	-0.086	-0.138
-608.201	-58.640	-0.254	0.111
-607.186	-163.248	-0.308	-0.015
-606.171	87.073	-0.075	0.083
-605.157	-167.521	-0.108	-0.004
-604.142	-190.293	-0.067	0.001
-603.128	-59.147	0.202	0.088
-602.113	-99.284	-0.027	-0.007
-601.098	-103.633	-0.128	-0.030
-600.084	158.280	-0.087	0.122
-599.069	800.000	-0.067	-0.287
-598.055	378.604	0.042	-0.087
-597.040	47.526	-0.050	0.047
-596.025	-200.000	0.007	0.182
-595.011	-131.421	0.223	-0.030
-593.996	-200.000	0.006	0.227
-592.982	-149.856	-0.127	-0.010
-591.967	238.967	0.214	0.358
-590.952	28.647	-0.163	-0.139
-589.938	43.958	0.103	0.095
-588.923	-4.519	-0.479	0.333
-587.909	-151.517	0.082	-0.006
-586.894	-200.000	0.043	-0.199
-585.879	-86.232	0.292	-0.091
-584.865	163.909	-0.088	0.125
-583.850	-25.945	-0.081	0.048
-582.836	-18.831	0.175	0.110
-581.821	618.804	-0.100	0.254
-580.806	-149.790	0.080	0.006
-579.792	5.770	-0.259	-0.193
-578.777	-200.000	-0.004	-0.060
-577.763	-148.755	-0.358	-0.029
-576.748	-200.000	-0.071	-0.384
-575.733	41.625	-0.053	0.049
-574.719	-200.000	-0.013	-0.079
-573.704	47.781	-0.126	-0.118
-572.690	27.821	0.131	0.111
-571.675	-200.000	-0.036	0.228
-570.661	-5.274	0.085	-0.058
-569.646	191.375	0.166	-0.251
-568.631	366.405	-0.035	0.072
-567.617	10.293	0.069	-0.053
-566.602	-96.455	-0.259	-0.069
-565.588	-83.218	-0.256	0.083
-564.573	-200.000	0.022	0.183
-563.558	-76.197	-0.276	0.098
-562.544	90.669	0.166	0.187
-561.529	193.267	0.041	0.062
-560.515	-200.000	-0.001	0.055
-559.500	-107.860	-0.189	0.041
-558.485	-146.271	0.180	-0.016
-557.471	-7.369	-0.186	-0.126
-556.456	230.246	-0.130	0.213
-555.442	-175.104	0.234	0.007
-554.427	-123.027	0.134	-0.022
-553.412	-51.601	0.400	-0.187
-552.398	-200.000	-0.024	0.275
-551.383	-7.232	-0.193	-0.131
-550.369	18.222	-0.057	0.046
-549.354	-143.872	-0.196	-0.019
-548.339	-11.333	-0.225	-0.149
-547.325	22.486	0.156	-0.128
-546.310	-58.767	0.116	0.051
-545.296	-145.879	-0.347	0.031
-544.281	-165.351	0.150	0.007
-543.266	201.467	0.021	0.032
-542.252	800.000	-0.126	-0.350
-541.237	189.396	-0.122	0.184
-540.223	-10.887	-0.159	-0.106
-539.208	15.675	0.173	0.136
-538.193	-200.000	0.079	0.401
-537.179	-163.398	0.458	-0.022
-536.164	-97.716	0.382	-0.099
-535.150	-131.281	-0.472	-0.063
-534.135	-200.000	-0.026	0.169
-533.121	681.322	-0.070	0.182
-532.106	-102.200	-0.110	-0.027
-531.091	113.200	0.204	-0.248
-530.077	13.143	-0.055	-0.043
-529.062	83.906	0.017	0.019
-528.048	-200.000	-0.033	0.147
-527.033	4.793	-0.089	0.066
-526.018	534.404	0.124	0.295
-525.004	-200.000	-0.016	0.131
-523.989	-108.415	0.388	0.084
-522.975	115.332	0.162	-0.199
-521.960	0.415	0.153	0.110
-520.945	194.965	-0.154	-0.235
-519.931	-41.114	0.258	0.134
-518.916	-44.150	-0.184	-0.093
-517.902	-200.000	0.013	-0.297
-516.887	-71.409	-0.409	0.154
-515.872	649.779	-0.018	-0.047
-514.858	-41.510	0.225	-0.116
-513.843	514.464	0.139	-0.325
-512.829	-200.000	-0.012	-0.106
-511.814	800.000	0.023	0.090
-510.799	648.339	-0.120	-0.307
-509.785	-133.104	-0.240	0.030
-508.770	-58.716	-0.209	0.091
-507.756	800.000	0.054	0.179
-506.741	-200.000	0.032	0.170
-505.726	-200.000	0.002	0.028
-504.712	-197.495	-0.309	0.002
-503.697	189.257	-0.080	0.120
-502.683	337.549	0.053	0.103
-501.668	-200.000	-0.011	-0.185
-500.653	-125.673	-0.105	-0.016
-499.639	-57.971	0.068	0.030
-498.624	-93.043	-0.317	-0.089
-497.610	-200.000	-0.035	0.180
-496.595	800.000	-0.005	0.019
-495.581	-107.724	0.008	-0.002
-494.566	-9.908	0.176	0.118
-493.551	-148.700	0.230	-0.019
-492.537	-96.793	0.195	0.051
-491.522	43.580	0.068	-0.062
-490.508	-92.760	-0.148	-0.042
-489.493	800.000	-0.036	-0.129
-488.478	289.359	-0.123	-0.223
-487.464	-106.314	-0.268	0.060
-486.449	-185.671	-0.186	0.003
-485.435	800.000	0.054	0.233
-484.420	-46.137	0.056	-0.028
-483.405	-200.000	-0.015	0.099
-482.391	-86.944	0.310	0.095
-481.376	-112.550	-0.217	-0.043
-480.362	1.945	-0.296	-0.214
-479.347	-128.096	-0.077	-0.011
-478.332	800.000	-0.089	0.277
-477.318	800.000	0.102	-0.338
-476.303	207.358	0.112	0.175
-475.289	-140.247	0.283	-0.030
-474.274	440.383	0.074	-0.161
-473.259	800.000	0.093	0.296
-472.245	-71.959	0.229	-0.085
-471.230	234.360	-0.059	-0.098
-470.216	-25.203	-0.231	-0.137
-469.201	18.853	0.152	-0.122
-468.186	60.693	0.139	-0.138
-467.172	149.990	-0.124	-0.168
-466.157	-200.000	0.016	0.385
-465.143	37.698	-0.189	-0.168
-464.128	32.560	-0.125	0.108
-463.113	559.327	-0.087	0.211
-462.099	-200.000	0.013	-0.085
-461.084	7.896	-0.222	-0.167
-460.070	-200.000	0.047	-0.416
-459.055	800.000	0.023	0.066
-458.040	-53.174	0.338	0.155
-457.026	-126.218	0.116	0.017
-456.011	115.985	0.134	0.164
-454.997	-128.578	0.199	-0.028
-453.982	-200.000	-0.029	0.196
-452.968	-83.331	0.202	-0.065
-451.953	244.341	-0.095	-0.160
-450.938	756.364	0.030	0.082
-449.924	800.000	0.034	0.107
-448.909	651.657	0.080	0.205
-447.895	-200.000	-0.049	0.485
-446.880	-9.600	0.028	0.019
-445.865	27.381	-0.085	0.071
-444.851	519.762	0.002	-0.005
-443.836	330.402	-0.071	-0.137
-442.822	130.143	0.176	0.225
-441.807	-106.242	0.059	-0.013
-440.792	-50.186	0.232	-0.110
-439.778	800.000	-0.132	0.426
-438.763	420.715	-0.070	-0.150
-437.749	130.045	0.135	0.173
-436.734	-92.388	-0.379	-0.107
-435.719	196.742	0.221	0.337
-434.705	62.037	0.226	-0.225
-433.690	185.722	-0.087	-0.129
-432.676	19.261	0.315	0.253
-431.661	167.534	-0.160	0.228
-430.646	-60.755	-0.253	0.107
-429.632	-109.230	0.212	-0.045
-428.617	800.000	0.052	-0.165
-427.603	-89.914	-0.219	-0.064
-426.588	-200.000	-0.009	-0.118
-425.573	-87.669	-0.157	-0.047
-424.559	125.031	0.085	0.107
-423.544	360.547	-0.138	0.276
-422.530	513.270	0.048	-0.111
-421.515	-200.000	0.043	-0.223
-420.500	-34.029	0.278	-0.153
-419.486	37.178	0.239	-0.211
-418.471	223.001	0.019	0.030
-417.457	129.944	-0.075	0.096
-416.442	6.327	0.198	-0.147
-415.428	210.847	-0.145	0.228
-414.413	-200.000	0.050	-0.404
-413.398	-142.176	-0.320	-0.032
-412.384	431.190	-0.130	-0.281
-411.369	-70.835	-0.081	-0.030
-410.355	-162.432	0.439	0.022
-409.340	-151.879	0.385	0.028
-408.325	-200.000	0.010	0.158
-407.311	-123.343	0.210	0.033
-406.296	116.336	-0.142	-0.174
-405.282	-200.000	-0.078	-0.384
-404.267	221.360	0.055	0.089
-403.252	286.421	0.136	-0.246
-402.238	137.960	-0.152	-0.199
-401.223	-200.000	-0.036	-0.175
-400.209	17.727	-0.045	-0.036
-399.194	98.333	-0.086	0.099
-398.179	-39.701	-0.218	0.114
-397.165	-102.582	0.042	0.010
-396.150	15.862	0.119	0.093
-395.136	36.419	-0.118	0.104
-394.121	800.000	-0.084	-0.326
-393.106	-53.153	-0.407	-0.186
-392.092	-200.000	0.013	0.076
-391.077	-116.376	-0.166	-0.031
-390.063	-200.000	-0.008	0.165
-389.048	55.137	-0.174	-0.168
-388.033	185.589	-0.036	0.053
-387.019	24.485	-0.253	-0.209
-386.004	-42.422	-0.370	-0.189
-384.990	-200.000	-0.027	0.173
-383.975	-153.154	0.190	0.013
-382.960	-178.876	-0.380	0.009
-381.946	192.496	-0.153	0.230
-380.931	573.977	0.059	-0.143
-379.917	800.000	0.109	-0.339
-378.902	655.877	0.008	-0.022
-377.888	181.017	-0.089	-0.130
-376.873	75.866	-0.269	0.284
-375.858	-145.467	0.061	0.005
-374.844	800.000	0.119	0.345
-373.829	800.000	0.040	0.124
-372.815	-88.680	0.151	-0.045
-371.800	-34.339	-0.106	0.058
-370.785	623.137	-0.033	0.082
-369.771	341.122	0.038	0.075
-368.756	80.082	0.273	-0.293
-367.742	-200.000	-0.048	-0.336
-366.727	-200.000	-0.016	-0.171
-365.712	-200.000	-0.028	0.144
-364.698	-24.619	0.315	0.187
-363.683	301.215	-0.178	0.328
-362.669	-121.309	0.108	0.018
-361.654	259.707	0.183	0.314
-360.639	-112.432	0.271	0.054
-359.625	321.893	-0.123	-0.234
-358.610	-127.317	0.001	-0.000
-357.596	-200.000	-0.050	0.324
-356.581	-56.022	-0.166	0.074
-355.566	800.000	0.082	0.310
-354.552	-16.884	-0.115	-0.072
-353.537	33.066	0.103	-0.089
-352.523	239.557	0.118	-0.196
-351.508	-56.981	0.368	-0.162
-350.493	-44.461	-0.128	-0.064
-349.479	-130.496	0.329	-0.044
-348.464	-186.513	0.282	-0.004
-347.450	5.819	-0.239	0.176
-346.435	-123.388	0.125	0.020
-345.420	96.522	-0.211	0.240
-344.406	183.176	-0.067	0.098
-343.391	-131.963	-0.524	0.068
-342.377	63.239	-0.277	-0.276
-341.362	-200.000	0.031	-0.200
-340.348	-58.556	0.272	-0.118
-339.333	-200.000	0.025	0.168
-338.318	38.820	-0.113	0.101
-337.304	-105.125	-0.389	-0.089
-336.289	-98.722	0.107	-0.027
-335.275	-160.291	-0.236	0.013
-334.260	800.000	0.023	0.083
-333.245	93.739	-0.238	-0.268
-332.231	-183.315	0.442	0.008
-331.216	472.939	0.036	0.080
-330.202	7.183	-0.147	0.109
-329.187	176.508	-0.119	0.173
-328.172	340.793	0.248	-0.481
-327.158	25.241	0.057	0.047
-326.143	-37.749	-0.236	0.125
-325.129	-115.886	0.190	0.035
-324.114	328.207	0.067	0.129
-323.099	-34.490	-0.093	0.051
-322.085	800.000	0.065	0.188
-321.070	-200.000	-0.001	0.171
-320.056	-200.000	0.019	-0.081
-319.041	96.002	0.012	-0.013
-318.026	-92.242	-0.223	-0.063
-317.012	-50.462	-0.108	0.051
-315.997	411.062	0.065	0.137
-314.983	-20.170	0.235	0.144
-313.968	-200.000	0.023	-0.178
-312.953	-58.717	-0.155	-0.067
-311.939	-37.326	-0.242	0.129
-310.924	-9.309	0.245	-0.163
-309.910	-76.360	-0.081	-0.028
-308.895	117.491	-0.088	0.108
-307.880	-48.753	0.203	0.097
-306.866	-200.000	-0.068	-0.406
-305.851	126.266	-0.116	-0.146
-304.837	-200.000	-0.009	0.059
-303.822	53.499	0.049	0.047
-302.807	-30.268	0.064	0.036
-301.793	10.716	0.119	-0.090
-300.778	-139.911	0.257	-0.027
-299.764	-114.385	0.097	-0.019
-298.749	-39.719	-0.194	0.101
-297.735	-177.079	0.357	-0.009
-296.720	800.000	0.076	0.239
-295.705	-200.000	0.001	0.082
-294.691	210.443	-0.007	-0.011
-293.676	382.925	0.139	0.285
-292.662	-41.384	0.036	0.019
-291.647	800.000	-0.137	0.503
-290.632	-10.425	0.200	-0.132
-289.618	88.402	0.111	-0.122
-288.603	-123.166	-0.278	0.044
-287.589	94.633	0.156	-0.176
-286.574	-24.977	-0.356	0.210
-285.559	-18.307	-0.398	0.247
-284.545	35.603	0.174	-0.152
-283.530	-103.862	-0.294	-0.068
-282.516	310.960	-0.116	-0.215
-281.501	69.846	-0.111	-0.114
-280.486	800.000	0.129	0.393
-279.472	65.616	0.110	-0.110
-278.457	-27.265	0.083	0.048
-277.443	242.975	-0.168	0.280
-276.428	-200.000	0.006	0.242
-275.413	100.064	0.052	0.059
-274.399	10.437	-0.267	-0.202
-273.384	-16.430	-0.196	-0.123
-272.370	592.395	0.113	-0.276
-271.355	9.607	0.161	-0.122
-270.340	800.000	-0.022	-0.060
-269.326	245.107	0.032	0.054
-268.311	331.960	0.131	-0.251
-267.297	-5.163	0.273	-0.187
-266.282	-160.869	-0.282	0.015
-265.267	-200.000	0.070	-0.519
-264.253	-200.000	-0.013	0.078
-263.238	-68.425	-0.056	-0.021
-262.224	-200.000	-0.008	0.106
-261.209	-200.000	-0.008	0.091
-260.195	273.882	-0.068	0.119
-259.180	216.373	-0.035	0.056
-258.165	219.489	-0.039	0.062
-257.151	10.028	-0.137	0.103
-256.136	-200.000	0.012	-0.210
-255.122	579.567	-0.063	0.154
-254.107	800.000	0.122	-0.368
-253.092	-20.980	0.300	0.182
-252.078	149.347	-0.100	-0.135
-251.063	-159.901	0.488	-0.027
-250.049	-200.000	-0.038	-0.170
-249.034	-20.694	-0.056	-0.034
-248.019	2.380	-0.232	-0.167
-247.005	-155.394	0.458	0.029
-245.990	72.814	-0.238	-0.246
-244.976	39.499	0.110	0.098
-243.961	123.559	-0.092	0.115
-242.946	133.782	-0.066	-0.084
-241.932	-140.131	-0.058	0.006
-240.917	118.363	0.276	0.338
-239.903	-158.405	0.365	0.021
-238.888	800.000	0.033	-0.098
-237.873	-48.296	0.225	-0.108
-236.859	-200.000	-0.053	-0.237
-235.844	-200.000	0.040	-0.232
-234.830	17.256	0.066	0.052
-233.815	97.690	0.056	0.064
-232.800	440.915	-0.149	-0.323
-231.786	-58.823	0.216	0.093
-230.771	224.289	-0.076	-0.122
-229.757	-200.000	-0.006	0.390
-228.742	-97.968	-0.087	0.022
-227.727	-200.000	-0.006	0.081
-226.713	516.066	-0.099	0.229
-225.698	434.472	0.089	-0.191
-224.684	-192.532	0.337	0.003
-223.669	-73.118	-0.120	0.044
-222.655	43.110	-0.083	-0.075
-221.640	800.000	-0.137	0.582
-220.625	-200.000	-0.016	-0.166
-219.611	-200.000	0.008	0.317
-218.596	-200.000	0.009	0.242
-217.582	-43.923	-0.245	-0.122
-216.567	-200.000	-0.007	0.116
-215.552	-126.586	-0.106	-0.016
-214.538	64.825	-0.173	-0.173
-213.523	18.989	-0.254	-0.202
-212.509	800.000	0.028	0.118
-211.494	-200.000	0.010	-0.059
-210.479	-25.923	0.241	-0.141
-209.465	-92.825	0.245	-0.068
-208.450	-200.000	0.086	-0.439
-207.436	-200.000	0.017	-0.130
-206.421	265.883	-0.157	-0.271
-205.406	-83.276	0.127	-0.041
-204.392	-200.000	-0.078	0.394
-203.377	-117.361	-0.201	0.036
-202.363	-14.609	-0.044	0.028
-201.348	800.000	0.014	-0.057
-200.333	-46.808	0.167	0.081
-199.319	210.253	0.119	0.184
-198.304	121.374	-0.134	-0.165
-197.290	37.104	0.192	0.168
-196.275	-200.000	0.033	-0.224
-195.260	-94.693	0.337	0.091
-194.246	22.264	0.320	0.259
-193.231	800.000	-0.100	-0.355
-192.217	428.295	0.103	0.220
-191.202	800.000	0.079	0.292
-190.187	70.291	-0.113	-0.116
-189.173	-4.475	-0.237	0.162
-188.158	31.194	0.223	-0.190
-187.144	65.072	0.142	-0.142
-186.129	-31.198	-0.220	-0.123
-185.114	107.965	0.234	-0.276
-184.100	247.408	-0.068	0.115
-183.085	209.545	0.105	-0.163
-182.071	800.000	-0.040	-0.156
-181.056	-190.598	-0.108	0.001
-180.042	-158.980	-0.248	0.014
-179.027	-132.760	0.264	0.033
-178.012	27.139	-0.050	0.042
-176.998	253.844	0.145	0.246
-175.983	-4.965	-0.148	-0.101
-174.969	6.776	-0.184	-0.136
-173.954	63.851	-0.091	0.090
-172.939	-200.000	-0.031	0.192
-171.925	104.471	0.121	0.141
-170.910	-200.000	-0.056	0.279
-169.896	47.019	0.116	0.107
-168.881	121.736	-0.169	-0.208
-167.866	190.604	0.222	-0.330
-166.852	-0.060	0.410	0.289
-165.837	138.543	0.097	0.126
-164.823	-200.000	-0.008	0.095
-163.808	247.618	-0.059	0.099
-162.793	-200.000	-0.008	0.083
-161.779	718.950	0.093	0.244
-160.764	800.000	0.037	0.111
-159.750	800.000	0.059	-0.239
-158.735	-66.618	-0.067	0.026
-157.720	-166.368	0.253	-0.011
-156.706	41.218	0.150	-0.134
-155.691	51.634	0.050	0.047
-154.677	-51.236	0.218	-0.101
-153.662	303.525	0.161	-0.295
-152.647	-200.000	0.035	-0.177
-151.633	-130.530	-0.105	-0.014
-150.618	-200.000	0.020	-0.258
-149.604	-183.799	0.229	0.004
-148.589	55.919	0.174	0.167
-147.574	-141.958	0.188	-0.019
-146.560	-76.642	-0.063	-0.022
-145.545	-35.629	-0.175	-0.094
-144.531	-54.302	-0.207	-0.093
-143.516	-109.269	0.091	-0.019
-142.502	773.096	-0.109	0.295
-141.487	-200.000	0.031	-0.167
-140.472	274.360	-0.121	0.211
-139.458	397.996	-0.080	0.166
-138.443	304.966	-0.073	-0.134
-137.429	291.422	-0.127	-0.228
-136.414	-156.802	0.562	0.034
-135.399	-146.129	0.102	-0.009
-134.385	800.000	0.047	-0.198
-133.370	800.000	0.026	0.080
-132.356	800.000	0.063	0.257
-131.341	92.064	0.235	0.261
-130.326	800.000	0.094	0.284
-129.312	751.578	0.183	0.489
-128.297	-124.264	-0.235	0.036
-127.283	-81.200	-0.237	0.077
-126.268	-44.046	0.102	-0.051
-125.253	800.000	0.081	0.231
-124.239	-123.933	-0.290	0.045
-123.224	232.529	-0.141	-0.229
-122.210	-105.996	-0.049	0.011
-121.195	-200.000	-0.025	0.156
