DTS Sentinel unit serial number:	SN413079Multiplexer serial number:	ORYXHardware model number:	OX4-SRSoftware version number:	ORYX F/W v4.00 Oryx Data Collector v3.7.2.0data status	okinstallation	princeton_trtdifferential loss correction	single-endedforward channel	channel 4reverse channel	N/Adate	2019/09/12time	22:09:35forward acquisition time	60.00reverse acquisition time	0.00gamma	496.2192k internal	0.2314k external	0.2314temperature offset calibration	1.0177default loss term (dB/km)	0.3790temperature slope calibration	1.0000multiplexer offset coefficient	1.0000multiplexer slope coefficient	1.0000fibre end	0.00T internal ref (°C)	29.94T ext. ref 1 (°C)	3.76T ext. ref 2 (°C)	24.48length (m)	temperature (°C)	Stokes	anti-Stokes-747.200	379.535	-0.184	-0.382
-746.185	321.377	-0.100	0.192
-745.171	157.201	0.138	-0.193
-744.156	198.380	0.068	-0.106
-743.142	-143.469	0.258	-0.025
-742.127	-58.515	-0.126	0.055
-741.112	-96.904	0.208	-0.055
-740.098	-37.841	0.292	0.158
-739.083	36.324	0.021	-0.019
-738.069	708.795	0.061	0.164
-737.054	-147.761	0.080	0.007
-736.039	-200.000	-0.066	-0.325
-735.025	19.636	0.136	-0.111
-734.010	-200.000	0.016	-0.171
-732.996	19.050	-0.240	-0.195
-731.981	800.000	0.091	-0.354
-730.966	55.967	-0.085	-0.083
-729.952	-46.770	-0.070	-0.035
-728.937	-132.917	-0.078	-0.010
-727.923	-37.100	0.133	-0.072
-726.908	-200.000	-0.036	0.193
-725.894	-60.121	-0.335	0.145
-724.879	508.456	0.068	0.160
-723.864	-61.217	0.023	0.010
-722.850	105.661	-0.080	-0.095
-721.835	553.409	-0.050	0.122
-720.821	269.891	0.065	0.116
-719.806	800.000	-0.092	-0.392
-718.791	-146.879	-0.267	-0.023
-717.777	42.628	-0.104	0.096
-716.762	223.826	-0.124	-0.202
-715.748	-115.467	-0.236	0.045
-714.733	72.275	-0.157	0.166
-713.718	212.037	-0.205	0.327
-712.704	-69.508	0.178	0.069
-711.689	800.000	0.105	0.327
-710.675	218.378	0.019	0.031
-709.660	-200.000	-0.011	-0.052
-708.645	87.393	-0.205	-0.230
-707.631	-200.000	-0.008	0.125
-706.616	120.774	0.145	-0.183
-705.602	261.428	-0.028	-0.048
-704.587	-155.223	0.220	0.015
-703.572	-200.000	0.003	-0.304
-702.558	-192.738	-0.273	-0.003
-701.543	-131.339	0.116	0.016
-700.529	-200.000	0.358	-0.001
-699.514	-200.000	0.024	-0.159
-698.499	800.000	-0.075	-0.260
-697.485	664.343	-0.064	0.166
-696.470	-200.000	0.006	0.068
-695.456	47.447	0.271	0.256
-694.441	23.248	-0.177	0.147
-693.426	-52.832	0.241	-0.112
-692.412	-124.411	-0.180	-0.028
-691.397	69.385	0.053	0.055
-690.383	800.000	0.114	0.321
-689.368	-69.200	-0.108	-0.042
-688.354	800.000	-0.069	-0.291
-687.339	800.000	0.064	-0.255
-686.324	-200.000	-0.009	0.115
-685.310	328.764	-0.030	0.058
-684.295	-162.174	0.310	0.016
-683.281	-97.357	-0.348	-0.092
-682.266	-70.482	0.160	-0.061
-681.251	654.139	0.103	0.268
-680.237	49.316	-0.157	0.149
-679.222	-124.337	-0.182	0.029
-678.208	-200.000	0.036	-0.217
-677.193	-42.497	-0.107	0.055
-676.178	12.225	-0.192	0.149
-675.164	731.085	-0.124	0.335
-674.149	306.938	-0.057	0.107
-673.135	-84.857	0.148	-0.047
-672.120	-109.745	0.100	0.021
-671.105	-129.618	0.398	-0.056
-670.091	-61.166	-0.273	0.117
-669.076	-200.000	-0.066	-0.338
-668.062	-104.686	0.216	0.050
-667.047	800.000	0.137	0.499
-666.032	800.000	0.115	0.328
-665.018	-121.748	-0.206	-0.034
-664.003	800.000	-0.019	-0.071
-662.989	800.000	-0.068	-0.221
-661.974	800.000	-0.010	-0.030
-660.959	33.915	0.257	-0.226
-659.945	-134.772	-0.502	-0.062
-658.930	-40.085	0.148	-0.078
-657.916	-200.000	0.028	0.145
-656.901	-4.947	-0.295	-0.205
-655.886	158.612	0.080	-0.112
-654.872	800.000	0.059	0.248
-653.857	-200.000	0.015	-0.245
-652.843	-200.000	-0.079	0.411
-651.828	60.299	0.193	-0.193
-650.814	37.516	-0.329	0.295
-649.799	81.907	-0.247	0.270
-648.784	-200.000	-0.024	0.231
-647.770	800.000	-0.031	-0.120
-646.755	-125.585	0.272	-0.042
-645.741	-87.603	-0.106	-0.032
-644.726	-200.000	0.045	-0.241
-643.711	-65.285	0.097	-0.039
-642.697	-200.000	0.032	0.240
-641.682	438.382	-0.156	-0.344
-640.668	754.570	0.007	-0.018
-639.653	-95.389	0.115	-0.031
-638.638	800.000	-0.093	-0.310
-637.624	355.700	-0.038	-0.076
-636.609	-91.519	0.145	0.042
-635.595	-200.000	-0.044	0.276
-634.580	-77.640	0.410	-0.143
-633.565	19.859	-0.289	-0.235
-632.551	-150.770	0.279	0.021
-631.536	171.473	-0.069	0.100
-630.522	310.411	0.060	0.114
-629.507	195.623	-0.066	-0.102
-628.492	-200.000	-0.019	-0.123
-627.478	17.293	-0.102	-0.082
-626.463	-59.640	-0.452	-0.196
-625.449	-27.785	0.051	-0.030
-624.434	-29.942	-0.023	-0.013
-623.419	39.616	-0.234	-0.212
-622.405	45.628	0.165	-0.154
-621.390	800.000	0.009	0.030
-620.376	302.900	0.121	0.226
-619.361	-70.490	0.397	0.152
-618.346	-200.000	0.026	-0.278
-617.332	292.541	0.142	-0.261
-616.317	727.600	-0.007	0.019
-615.303	60.029	0.052	0.052
-614.288	13.552	0.100	0.078
-613.273	-84.183	0.107	0.034
-612.259	134.646	0.105	0.137
-611.244	-119.197	-0.267	-0.047
-610.230	-200.000	-0.009	-0.185
-609.215	38.818	0.067	-0.060
-608.201	237.868	0.009	-0.016
-607.186	-200.000	0.037	0.183
-606.171	-148.171	0.321	-0.027
-605.157	-44.237	-0.273	-0.138
-604.142	-135.401	0.338	-0.041
-603.128	-160.061	-0.265	-0.015
-602.113	-21.080	0.037	-0.023
-601.098	-136.703	0.215	0.025
-600.084	800.000	-0.068	-0.205
-599.069	-141.008	-0.202	0.021
-598.055	82.558	0.134	-0.146
-597.040	42.423	0.197	-0.181
-596.025	-180.259	-0.121	0.003
-595.011	101.783	0.075	-0.088
-593.996	1.827	0.350	-0.254
-592.982	200.916	-0.107	-0.166
-591.967	-42.424	0.132	-0.068
-590.952	-200.000	0.034	-0.198
-589.938	-128.296	-0.215	0.031
-588.923	189.898	0.258	-0.390
-587.909	-116.941	-0.257	0.047
-586.894	-28.324	0.188	0.109
-585.879	-10.145	0.105	-0.070
-584.865	-96.029	0.194	-0.052
-583.850	43.128	-0.121	0.112
-582.836	383.358	-0.158	0.327
-581.821	800.000	-0.066	0.237
-580.806	800.000	-0.055	-0.172
-579.792	800.000	0.090	0.288
-578.777	-106.232	-0.283	0.064
-577.763	287.015	0.175	-0.318
-576.748	45.921	0.191	-0.178
-575.733	800.000	-0.094	0.275
-574.719	418.286	0.021	0.045
-573.704	-46.800	-0.533	-0.263
-572.690	230.475	-0.043	-0.071
-571.675	800.000	-0.047	0.144
-570.661	-30.699	0.219	0.125
-569.646	800.000	-0.024	0.105
-568.631	173.734	0.201	0.293
-567.617	800.000	-0.077	-0.251
-566.602	-121.979	0.390	-0.064
-565.588	-22.631	-0.299	-0.182
-564.573	376.371	0.100	0.206
-563.558	42.202	-0.065	-0.060
-562.544	113.563	-0.045	-0.056
-561.529	-65.904	-0.152	-0.061
-560.515	11.799	-0.114	0.088
-559.500	519.185	0.103	0.243
-558.485	800.000	0.034	0.120
-557.471	103.212	0.109	-0.129
-556.456	151.672	0.167	0.229
-555.442	-65.385	0.219	0.089
-554.427	130.431	0.174	0.225
-553.412	210.141	0.055	-0.087
-552.398	800.000	0.121	-0.405
-551.383	6.205	0.178	0.133
-550.369	-50.561	0.173	-0.082
-549.354	-128.374	-0.301	0.043
-548.339	-37.018	0.051	0.027
-547.325	-47.923	-0.185	-0.090
-546.310	-200.000	0.066	-0.470
-545.296	-132.854	-0.153	0.020
-544.281	134.827	-0.110	-0.144
-543.266	-200.000	0.006	0.152
-542.252	-200.000	-0.003	0.114
-541.237	-167.000	-0.176	-0.007
-540.223	169.084	-0.132	-0.189
-539.208	125.808	-0.145	0.185
-538.193	-155.668	-0.349	0.023
-537.179	-200.000	-0.014	-0.172
-536.164	81.749	0.250	0.272
-535.150	-122.384	-0.461	0.075
-534.135	-121.314	-0.293	0.049
-533.121	800.000	0.071	-0.288
-532.106	102.495	-0.133	0.156
-531.091	-166.553	0.179	-0.008
-530.077	-200.000	-0.041	0.507
-529.062	-154.608	0.277	0.019
-528.048	-32.300	0.043	0.024
-527.033	1.505	-0.248	0.179
-526.018	-58.154	0.257	0.113
-525.004	79.643	-0.147	0.158
-523.989	-116.831	-0.169	-0.031
-522.975	164.710	-0.328	-0.466
-521.960	285.454	0.094	-0.171
-520.945	88.979	-0.143	0.159
-519.931	-42.580	0.297	-0.152
-518.916	800.000	0.092	0.286
-517.902	-102.925	-0.060	-0.014
-516.887	-55.864	0.120	0.054
-515.872	262.504	-0.042	-0.073
-514.858	156.346	0.168	-0.233
-513.843	426.874	-0.103	0.224
-512.829	-200.000	-0.009	0.165
-511.814	-200.000	-0.060	-0.474
-510.799	-168.188	-0.041	-0.002
-509.785	800.000	-0.097	0.271
-508.770	-109.982	-0.098	0.021
-507.756	-50.770	-0.030	0.014
-506.741	126.754	-0.018	0.023
-505.726	-61.801	-0.114	0.048
-504.712	-200.000	-0.027	-0.223
-503.697	-44.390	-0.373	0.188
-502.683	100.576	0.184	0.215
-501.668	261.560	-0.047	0.081
-500.653	92.470	-0.203	0.230
-499.639	77.641	-0.191	-0.205
-498.624	-92.965	0.167	-0.047
-497.610	800.000	0.069	0.246
-496.595	-200.000	0.057	0.269
-495.581	-90.479	-0.146	-0.042
-494.566	-63.645	-0.287	-0.118
-493.551	-53.149	-0.296	-0.136
-492.537	-88.649	-0.246	-0.073
-491.522	560.876	0.171	0.415
-490.508	305.651	-0.167	0.312
-489.493	800.000	-0.060	-0.193
-488.478	800.000	0.096	0.269
-487.464	183.928	-0.077	0.114
-486.449	-200.000	-0.000	0.266
-485.435	35.353	-0.163	-0.144
-484.420	10.575	-0.109	-0.084
-483.405	55.657	0.223	0.217
-482.391	-112.079	0.189	-0.038
-481.376	-75.091	0.022	-0.008
-480.362	-180.493	0.302	0.006
-479.347	460.830	-0.097	-0.217
-478.332	700.845	-0.164	-0.434
-477.318	-21.506	0.363	0.222
-476.303	255.115	0.074	-0.128
-475.289	-143.312	0.237	0.023
-474.274	12.413	-0.069	0.053
-473.259	800.000	0.044	-0.122
-472.245	26.308	-0.161	-0.135
-471.230	800.000	-0.023	-0.095
-470.216	-36.847	-0.144	-0.077
-469.201	-200.000	0.046	-0.291
-468.186	434.853	0.102	-0.222
-467.172	-152.104	0.087	0.006
-466.157	79.612	0.239	0.257
-465.143	21.106	0.199	0.162
-464.128	-111.565	0.141	0.029
-463.113	263.606	-0.141	0.246
-462.099	-75.571	-0.078	0.028
-461.084	-48.314	0.174	0.084
-460.070	-63.686	-0.132	-0.054
-459.055	800.000	0.145	-0.503
-458.040	-28.185	-0.050	-0.029
-457.026	-136.537	0.077	-0.009
-456.011	111.358	-0.058	0.070
-454.997	-200.000	-0.001	-0.078
-453.982	186.762	0.055	-0.082
-452.968	800.000	-0.015	0.050
-451.953	290.492	0.120	0.218
-450.938	230.976	-0.099	0.162
-449.924	-86.873	0.243	0.074
-448.909	158.916	0.077	0.108
-447.895	27.650	-0.145	-0.123
-446.880	800.000	-0.064	0.251
-445.865	-104.517	-0.101	-0.023
-444.851	71.151	0.076	0.079
-443.836	-85.072	0.294	-0.092
-442.822	599.936	-0.088	-0.219
-441.807	10.308	-0.127	0.097
-440.792	214.905	0.181	-0.288
-439.778	99.002	0.179	0.207
-438.763	-200.000	0.027	0.189
-437.749	-30.035	0.214	0.122
-436.734	413.059	-0.057	0.122
-435.719	388.119	0.074	0.154
-434.705	76.767	-0.052	0.055
-433.690	-200.000	0.048	-0.315
-432.676	-200.000	-0.018	-0.146
-431.661	-3.821	0.283	0.196
-430.646	-83.006	0.167	-0.054
-429.632	153.489	0.130	-0.178
-428.617	103.660	-0.168	-0.198
-427.603	235.349	-0.183	-0.303
-426.588	800.000	0.049	0.163
-425.573	619.702	0.053	0.134
-424.559	-101.684	0.081	-0.020
-423.544	-1.491	-0.120	0.084
-422.530	-200.000	0.040	0.209
-421.515	-67.752	0.116	0.045
-420.500	-88.482	0.145	0.043
-419.486	80.511	0.031	-0.033
-418.471	-140.066	0.110	-0.012
-417.457	61.170	0.046	-0.045
-416.442	567.463	-0.243	-0.591
-415.428	-68.180	-0.173	-0.067
-414.413	-200.000	0.052	0.315
-413.398	469.612	0.091	-0.205
-412.384	-200.000	-0.002	-0.328
-411.369	288.844	0.179	-0.324
-410.355	-115.101	-0.233	0.044
-409.340	800.000	0.090	0.258
-408.325	800.000	0.029	-0.090
-407.311	-200.000	0.009	-0.125
-406.296	-82.083	0.205	0.067
-405.282	-87.974	-0.090	0.027
-404.267	-41.804	-0.205	-0.105
-403.252	-58.361	-0.297	0.129
-402.238	139.437	-0.007	-0.009
-401.223	662.896	0.092	0.238
-400.209	-129.566	-0.275	-0.038
-399.194	-111.474	-0.185	-0.038
-398.179	5.431	-0.231	0.171
-397.165	179.376	0.072	0.105
-396.150	800.000	-0.029	-0.088
-395.136	43.477	0.139	-0.127
-394.121	200.807	0.094	-0.145
-393.106	-19.427	-0.339	-0.210
-392.092	587.294	-0.212	-0.522
-391.077	-111.798	-0.197	0.040
-390.063	-158.678	-0.284	-0.016
-389.048	-200.000	-0.005	-0.043
-388.033	76.955	0.145	-0.153
-387.019	800.000	0.069	-0.191
-386.004	-65.856	0.109	-0.044
-384.990	-67.778	-0.226	-0.088
-383.975	189.023	-0.105	0.157
-382.960	-60.022	-0.097	-0.041
-381.946	-115.610	-0.157	0.029
-380.931	800.000	0.027	0.108
-379.917	313.207	0.036	0.067
-378.902	-88.388	0.195	0.058
-377.888	53.192	-0.365	-0.349
-376.873	34.584	0.128	-0.112
-375.858	103.279	-0.265	-0.311
-374.844	-75.907	0.352	0.125
-373.829	156.485	0.050	-0.070
-372.815	214.747	0.174	-0.275
-371.800	800.000	0.072	0.229
-370.785	88.530	0.215	0.239
-369.771	188.591	0.093	-0.139
-368.756	217.317	0.201	-0.320
-367.742	-35.975	-0.192	0.104
-366.727	301.713	0.050	-0.093
-365.712	365.028	-0.045	-0.091
-364.698	-60.291	0.075	-0.032
-363.683	572.448	-0.088	-0.214
-362.669	800.000	-0.051	-0.170
-361.654	-160.760	-0.241	0.013
-360.639	384.522	0.107	-0.221
-359.625	-200.000	-0.014	0.348
-358.610	175.287	-0.066	0.096
-357.596	-200.000	-0.012	0.257
-356.581	19.221	0.070	-0.056
-355.566	-80.610	0.174	0.058
-354.552	379.176	-0.142	0.291
-353.537	-41.501	-0.274	0.141
-352.523	-124.186	-0.192	-0.030
-351.508	800.000	-0.032	0.131
-350.493	10.310	-0.034	-0.026
-349.479	-16.960	0.250	0.158
-348.464	-63.237	-0.112	0.046
-347.450	32.438	-0.099	0.085
-346.435	168.616	0.046	0.065
-345.420	106.505	0.247	0.293
-344.406	127.401	-0.146	0.185
-343.391	800.000	0.031	0.110
-342.377	-200.000	0.050	0.227
-341.362	402.052	-0.105	-0.220
-340.348	800.000	-0.091	-0.262
-339.333	800.000	0.062	-0.185
-338.318	-107.080	-0.179	-0.039
-337.304	-77.051	0.202	-0.070
-336.289	-129.822	-0.082	0.011
-335.275	-136.287	0.109	0.013
-334.260	-39.998	-0.443	0.230
-333.245	58.156	-0.124	0.121
-332.231	-200.000	-0.008	-0.078
-331.216	-200.000	0.030	0.277
-330.202	-171.157	-0.210	-0.007
-329.187	-107.719	0.128	-0.028
-328.172	-36.798	0.241	0.129
-327.158	151.231	-0.222	-0.301
-326.143	-14.282	-0.174	0.112
-325.129	418.427	-0.100	-0.214
-324.114	62.277	0.149	-0.149
-323.099	-200.000	-0.028	-0.401
-322.085	-139.233	0.255	-0.027
-321.070	-200.000	0.001	0.111
-320.056	-23.651	-0.092	0.055
-319.041	58.442	-0.073	-0.071
-318.026	-127.269	-0.233	0.034
-317.012	-24.087	0.101	0.060
-315.997	116.428	0.201	0.245
-314.983	-200.000	0.007	0.334
-313.968	23.542	-0.248	0.203
-312.953	-135.223	-0.084	0.010
-311.939	20.898	0.161	0.130
-310.924	800.000	0.143	0.503
-309.910	79.323	-0.143	0.153
-308.895	-63.089	-0.344	-0.142
-307.880	-200.000	0.001	-0.221
-306.866	-153.526	-0.196	-0.014
-305.851	-29.124	-0.415	-0.237
-304.837	360.483	0.093	-0.185
-303.822	130.492	0.332	-0.423
-302.807	-200.000	0.098	-0.456
-301.793	-64.146	0.273	-0.111
-300.778	-152.069	0.021	-0.001
-299.764	-33.039	-0.076	0.042
-298.749	510.319	-0.111	0.258
-297.735	372.812	0.043	0.087
-296.720	22.357	0.220	0.179
-295.705	-106.262	-0.336	-0.075
-294.691	27.876	-0.285	0.239
-293.676	-200.000	0.005	0.039
-292.662	99.449	0.098	0.113
-291.647	137.407	-0.186	0.243
-290.632	-119.631	0.149	-0.026
-289.618	104.071	-0.211	-0.247
-288.603	-137.178	0.099	0.011
-287.589	-200.000	0.020	-0.120
-286.574	129.836	0.125	-0.159
-285.559	-9.084	0.260	0.173
-284.545	-200.000	0.006	0.038
-283.530	-163.082	-0.126	-0.006
-282.516	-187.392	0.209	0.003
-281.501	82.066	-0.123	-0.132
-280.486	-8.746	-0.217	-0.145
-279.472	-20.250	0.239	-0.146
-278.457	38.170	0.096	0.085
-277.443	76.267	-0.107	0.113
-276.428	-107.928	-0.213	0.046
-275.413	57.464	-0.211	-0.205
-274.399	-142.036	0.392	0.039
-273.384	-200.000	0.187	-0.000
-272.370	-74.356	-0.181	0.065
-271.355	-128.470	-0.279	-0.039
-270.340	129.915	0.019	-0.024
-269.326	800.000	0.051	0.208
-268.311	800.000	0.115	0.390
-267.297	242.383	-0.116	0.193
-266.282	201.333	-0.129	-0.198
-265.267	-200.000	0.014	-0.207
-264.253	-12.691	0.319	-0.207
-263.238	-200.000	0.016	-0.200
-262.224	90.460	0.234	0.260
-261.209	99.458	0.303	0.348
-260.195	-200.000	0.010	0.173
-259.180	-11.213	-0.082	-0.054
-258.165	212.358	0.126	-0.198
-257.151	18.085	0.164	-0.130
-256.136	-119.412	-0.238	0.041
-255.122	145.732	0.192	0.256
-254.107	327.765	-0.075	-0.143
-253.092	-104.334	0.156	0.036
-252.078	-128.115	-0.372	0.053
-251.063	-46.964	0.270	-0.131
-250.049	800.000	0.171	-0.516
-249.034	-9.027	-0.159	-0.106
-248.019	616.794	0.149	0.372
-247.005	9.784	0.335	0.252
-245.990	-200.000	-0.013	0.327
-244.976	-70.047	-0.190	0.072
-243.961	414.192	0.061	-0.130
-242.946	46.076	0.051	0.047
-241.932	286.830	0.054	-0.098
-240.917	800.000	-0.099	0.330
-239.903	800.000	0.069	0.227
-238.888	-200.000	-0.025	-0.244
-237.873	-200.000	-0.027	-0.175
-236.859	-52.407	0.251	-0.116
-235.844	-200.000	0.001	0.164
-234.830	-200.000	0.043	0.194
-233.815	-200.000	0.046	-0.234
-232.800	-111.931	0.242	-0.049
-231.786	-28.425	0.325	-0.186
-230.771	592.104	0.078	-0.192
-229.757	800.000	-0.021	0.075
-228.742	-4.116	-0.131	0.090
-227.727	50.874	-0.118	-0.111
-226.713	10.586	0.088	-0.067
-225.698	104.654	-0.201	0.235
-224.684	-118.465	-0.090	-0.016
-223.669	17.197	0.314	-0.248
-222.655	64.947	0.058	-0.058
-221.640	574.075	-0.058	0.140
-220.625	0.640	0.190	-0.135
-219.611	800.000	0.050	-0.143
-218.596	107.647	-0.242	0.286
-217.582	101.424	0.147	0.170
-216.567	-200.000	-0.078	0.349
-215.552	26.997	-0.174	0.145
-214.538	-200.000	0.033	0.178
-213.523	-61.258	0.065	-0.027
-212.509	91.785	0.262	0.293
-211.494	-200.000	-0.072	-0.400
-210.479	-168.099	-0.241	-0.009
-209.465	-200.000	-0.022	0.280
-208.450	800.000	0.054	0.177
-207.436	-57.432	-0.106	0.046
-206.421	-11.464	-0.121	-0.079
-205.406	50.110	-0.178	0.167
-204.392	24.489	0.231	0.190
-203.377	0.384	0.099	0.070
-202.363	-128.616	-0.156	-0.022
-201.348	-200.000	-0.003	0.109
-200.333	-200.000	0.003	0.064
-199.319	-200.000	-0.001	0.114
-198.304	-87.284	-0.260	-0.078
-197.290	7.070	0.310	0.229
-196.275	-74.380	0.079	-0.028
-195.260	66.964	0.138	0.139
-194.246	-100.667	0.124	0.030
-193.231	-200.000	-0.006	-0.338
-192.217	477.817	-0.081	0.181
-191.202	800.000	-0.097	0.361
-190.187	-200.000	-0.005	-0.080
-189.173	800.000	0.064	0.234
-188.158	480.543	0.038	0.086
-187.144	-97.299	-0.162	-0.042
-186.129	6.627	0.163	-0.120
-185.114	591.650	0.095	0.233
-184.100	19.352	0.156	0.124
-183.085	168.362	-0.130	-0.184
-182.071	-110.251	-0.416	0.086
-181.056	-51.313	0.251	-0.116
-180.042	-138.964	-0.396	-0.043
-179.027	800.000	0.110	0.421
-178.012	-52.892	0.244	-0.111
-176.998	73.346	-0.095	0.099
-175.983	-170.286	-0.118	-0.004
-174.969	545.304	-0.036	-0.086
-173.954	800.000	-0.037	0.142
-172.939	-75.964	0.328	-0.115
-171.925	800.000	-0.008	-0.035
-170.910	-200.000	0.085	0.394
-169.896	370.908	-0.068	0.136
-168.881	80.954	0.104	0.111
-167.866	48.269	-0.258	-0.240
-166.852	492.299	-0.101	-0.229
-165.837	0.240	0.096	-0.068
-164.823	444.250	0.140	-0.305
-163.808	129.167	0.400	-0.506
-162.793	-94.633	0.180	0.049
-161.779	0.116	0.117	0.082
-160.764	-126.765	-0.288	0.042
-159.750	119.234	-0.107	-0.131
-158.735	-200.000	-0.006	-0.102
-157.720	-82.688	-0.342	0.110
-156.706	-20.325	-0.276	-0.169
-155.691	-75.029	-0.152	0.054
-154.677	-200.000	0.028	-0.240
-153.662	-11.969	0.065	-0.042
-152.647	157.776	-0.077	0.106
-151.633	-51.109	0.269	0.125
-150.618	-200.000	-0.024	0.190
-149.604	800.000	-0.069	-0.193
-148.589	-137.150	-0.412	0.047
-147.574	7.805	0.085	0.063
-146.560	-32.891	0.278	0.153
-145.545	181.305	-0.213	-0.310
-144.531	800.000	-0.068	0.217
-143.516	51.985	0.127	-0.120
-142.502	-25.666	0.192	0.112
-141.487	-58.665	-0.383	0.164
-140.472	-119.220	0.170	-0.029
-139.458	-92.518	-0.243	-0.068
-138.443	-71.861	-0.341	0.126
-137.429	-81.997	0.052	-0.017
-136.414	119.673	0.153	-0.188
-135.399	82.735	-0.246	-0.265
-134.385	354.749	0.052	0.102
-133.370	-200.000	-0.084	0.406
-132.356	41.733	0.380	0.340
-131.341	-20.230	-0.158	0.097
-130.326	584.795	0.032	-0.078
-129.312	800.000	-0.079	0.324
-128.297	229.666	-0.025	0.040
-127.283	-107.105	-0.069	0.015
-126.268	800.000	-0.109	0.359
-125.253	-133.129	0.271	-0.034
-124.239	-10.145	0.205	-0.135
-123.224	0.742	-0.267	0.189
-122.210	-47.011	0.272	0.131
-121.195	43.949	-0.229	-0.208
