DTS Sentinel unit serial number:	SN413079Multiplexer serial number:	ORYXHardware model number:	OX4-SRSoftware version number:	ORYX F/W v4.00 Oryx Data Collector v3.7.2.0data status	okinstallation	princeton_trtdifferential loss correction	single-endedforward channel	channel 4reverse channel	N/Adate	2019/09/12time	08:31:11forward acquisition time	60.00reverse acquisition time	0.00gamma	496.2192k internal	0.2301k external	0.2301temperature offset calibration	1.0063default loss term (dB/km)	0.3790temperature slope calibration	1.0000multiplexer offset coefficient	1.0000multiplexer slope coefficient	1.0000fibre end	0.00T internal ref (°C)	33.67T ext. ref 1 (°C)	1.71T ext. ref 2 (°C)	29.80length (m)	temperature (°C)	Stokes	anti-Stokes-747.200	-138.359	0.241	-0.027
-746.185	-200.000	-0.034	0.256
-745.171	-169.500	0.180	0.007
-744.156	260.266	-0.132	0.233
-743.142	-105.644	0.086	0.020
-742.127	356.719	0.098	0.199
-741.112	800.000	-0.022	0.089
-740.098	-80.170	0.313	-0.107
-739.083	-78.403	-0.140	-0.049
-738.069	378.692	0.067	0.140
-737.054	-65.323	-0.248	0.102
-736.039	800.000	0.058	-0.244
-735.025	0.286	0.211	0.154
-734.010	-112.088	-0.304	0.062
-732.996	467.839	-0.047	-0.107
-731.981	-129.156	-0.093	-0.013
-730.966	231.216	-0.097	-0.162
-729.952	381.120	0.137	-0.285
-728.937	-200.000	-0.031	-0.301
-727.923	722.632	-0.138	-0.375
-726.908	-200.000	-0.067	-0.312
-725.894	800.000	-0.040	-0.164
-724.879	440.124	-0.113	-0.250
-723.864	706.152	0.079	-0.213
-722.850	146.731	-0.211	0.289
-721.835	-46.623	0.342	-0.171
-720.821	-200.000	-0.001	0.026
-719.806	379.899	-0.137	-0.285
-718.791	-200.000	0.072	0.369
-717.777	387.765	-0.034	-0.072
-716.762	-200.000	-0.040	-0.202
-715.748	800.000	0.026	-0.089
-714.733	-200.000	0.019	-0.097
-713.718	-123.577	-0.045	0.007
-712.704	-200.000	-0.028	0.126
-711.689	-83.414	0.325	-0.106
-710.675	-113.157	0.241	-0.048
-709.660	-8.634	0.121	-0.082
-708.645	-109.174	-0.388	-0.084
-707.631	-29.545	0.114	-0.066
-706.616	-100.894	-0.325	0.081
-705.602	202.085	-0.050	0.078
-704.587	-200.000	-0.068	0.000
-703.572	3.701	0.229	-0.170
-702.558	-200.000	0.070	0.330
-701.543	180.754	0.141	0.210
-700.529	-128.455	-0.279	-0.040
-699.514	800.000	0.069	-0.211
-698.499	387.468	0.076	-0.160
-697.485	426.769	-0.009	0.021
-696.470	-36.974	0.130	0.071
-695.456	286.639	0.047	-0.086
-694.441	-42.726	0.219	0.113
-693.426	-54.386	-0.265	-0.122
-692.412	-16.285	0.119	0.077
-691.397	-59.552	0.146	0.064
-690.383	-200.000	-0.015	0.470
-689.368	-93.477	0.109	0.031
-688.354	-104.128	-0.398	-0.094
-687.339	-159.761	0.382	0.021
-686.324	-23.027	0.070	0.043
-685.310	-112.711	-0.128	-0.026
-684.295	-200.000	0.012	-0.182
-683.281	536.006	0.049	0.118
-682.266	-200.000	0.050	0.530
-681.251	-93.347	0.157	-0.044
-680.237	-200.000	-0.015	0.103
-679.222	-60.609	0.073	-0.032
-678.208	8.827	0.166	0.127
-677.193	-200.000	-0.003	-0.079
-676.178	194.160	0.216	0.333
-675.164	-27.176	-0.283	0.168
-674.149	26.870	0.124	0.106
-673.135	196.730	-0.073	-0.113
-672.120	-111.530	-0.172	0.035
-671.105	238.137	0.103	-0.173
-670.091	431.321	0.075	0.164
-669.076	39.260	-0.078	0.071
-668.062	2.926	0.058	0.043
-667.047	800.000	-0.032	0.096
-666.032	294.874	0.248	-0.460
-665.018	-159.238	0.165	-0.009
-664.003	-6.017	0.086	0.060
-662.989	-150.307	-0.330	-0.026
-661.974	112.305	0.092	0.113
-660.959	390.767	0.214	-0.452
-659.945	800.000	0.036	-0.127
-658.930	268.931	0.146	-0.260
-657.916	-4.959	0.101	-0.071
-656.901	-21.584	0.238	0.147
-655.886	-200.000	-0.029	-0.232
-654.872	44.184	-0.191	-0.178
-653.857	-94.310	-0.206	0.057
-652.843	-153.676	0.224	-0.016
-651.828	102.364	-0.131	-0.156
-650.814	-200.000	0.001	-0.199
-649.799	-66.327	-0.279	0.113
-648.784	-169.938	-0.137	-0.005
-647.770	-136.215	-0.182	-0.022
-646.755	-200.000	0.011	0.053
-645.741	-121.046	0.232	-0.040
-644.726	233.291	0.101	0.169
-643.711	-177.817	-0.177	0.004
-642.697	382.757	-0.065	-0.135
-641.682	-41.981	-0.169	-0.088
-640.668	76.733	0.109	0.117
-639.653	109.779	-0.256	0.312
-638.638	-34.105	-0.401	0.224
-637.624	-73.924	0.065	-0.024
-636.609	128.770	0.202	-0.262
-635.595	-107.761	0.082	-0.018
-634.580	127.322	-0.072	0.093
-633.565	144.249	0.162	0.219
-632.551	800.000	-0.092	0.359
-631.536	85.140	-0.143	0.159
-630.522	-137.310	-0.154	-0.018
-629.507	48.330	0.083	-0.079
-628.492	-115.234	-0.121	-0.023
-627.478	-108.385	0.496	-0.108
-626.463	-115.491	0.236	0.045
-625.449	-28.756	-0.064	-0.037
-624.434	48.941	0.148	0.141
-623.419	-78.528	0.418	-0.145
-622.405	48.935	0.116	0.111
-621.390	50.858	0.086	0.083
-620.376	-163.596	-0.400	-0.019
-619.361	-196.548	-0.343	-0.002
-618.346	800.000	-0.078	-0.286
-617.332	800.000	-0.010	0.037
-616.317	-11.168	0.019	-0.013
-615.303	-141.647	0.170	0.017
-614.288	286.330	0.075	-0.138
-613.273	251.446	-0.170	-0.293
-612.259	338.907	-0.034	0.068
-611.244	-110.538	0.089	-0.019
-610.230	-79.007	-0.241	0.083
-609.215	-131.194	0.309	-0.042
-608.201	226.651	-0.116	0.191
-607.186	-45.125	-0.080	-0.040
-606.171	-8.377	-0.066	-0.045
-605.157	710.184	-0.010	-0.027
-604.142	-49.440	-0.196	0.095
-603.128	800.000	-0.034	0.121
-602.113	-147.989	-0.143	-0.012
-601.098	121.703	0.171	0.216
-600.084	131.928	-0.147	0.191
-599.069	94.805	-0.182	0.210
-598.055	141.175	-0.074	-0.099
-597.040	-141.066	0.244	-0.025
-596.025	-200.000	0.022	-0.159
-595.011	-71.794	0.143	0.054
-593.996	-87.392	0.551	-0.169
-592.982	-200.000	-0.404	0.001
-591.967	-28.246	-0.269	0.158
-590.952	288.680	-0.098	-0.180
-589.938	132.766	0.073	-0.095
-588.923	800.000	0.068	0.218
-587.909	-70.590	-0.303	0.116
-586.894	212.580	0.060	0.096
-585.879	-48.483	-0.042	-0.021
-584.865	800.000	0.038	0.147
-583.850	71.197	0.119	0.125
-582.836	-54.207	-0.173	0.079
-581.821	22.647	-0.241	-0.200
-580.806	-200.000	-0.028	-0.238
-579.792	-200.000	0.036	0.261
-578.777	77.653	0.097	0.105
-577.763	-87.096	-0.092	-0.028
-576.748	-122.621	0.304	-0.050
-575.733	10.950	0.035	0.027
-574.719	-200.000	-0.034	-0.249
-573.704	100.135	-0.131	0.154
-572.690	19.403	-0.157	0.128
-571.675	800.000	0.029	-0.107
-570.661	130.173	-0.128	0.166
-569.646	-200.000	-0.070	0.482
-568.631	-200.000	-0.007	0.145
-567.617	800.000	-0.102	-0.363
-566.602	419.465	0.045	-0.099
-565.588	-200.000	0.047	-0.222
-564.573	-200.000	0.011	-0.092
-563.558	-148.404	-0.351	-0.029
-562.544	-13.024	0.043	-0.028
-561.529	-133.085	0.180	0.023
-560.515	800.000	-0.169	0.477
-559.500	355.026	-0.085	0.172
-558.485	-152.474	0.303	0.022
-557.471	226.710	-0.250	-0.410
-556.456	35.965	-0.290	0.258
-555.442	-115.664	0.196	0.037
-554.427	-0.856	0.212	-0.152
-553.412	-169.581	0.062	0.002
-552.398	800.000	-0.029	0.104
-551.383	-58.209	0.125	-0.055
-550.369	-88.070	-0.156	-0.047
-549.354	-30.056	-0.232	-0.134
-548.339	48.577	0.251	-0.238
-547.325	-7.753	-0.146	0.100
-546.310	-54.817	-0.138	-0.063
-545.296	-200.000	-0.044	0.272
-544.281	322.427	0.154	0.296
-543.266	-39.867	0.211	0.111
-542.252	108.745	-0.242	0.292
-541.237	-71.347	0.192	0.073
-540.223	-200.000	-0.039	-0.362
-539.208	-84.934	-0.184	-0.058
-538.193	-200.000	0.162	-0.000
-537.179	181.317	-0.182	-0.270
-536.164	7.697	-0.269	-0.204
-535.150	-102.011	-0.298	0.073
-534.135	611.279	-0.042	0.105
-533.121	-126.145	-0.091	0.014
-532.106	-200.000	0.049	0.308
-531.091	-200.000	0.049	-0.293
-530.077	-88.347	-0.128	0.039
-529.062	124.289	0.292	0.371
-528.048	-32.911	0.160	0.090
-527.033	-2.506	0.143	-0.101
-526.018	-200.000	-0.022	-0.239
-525.004	-63.596	0.128	-0.053
-523.989	-146.423	-0.203	-0.018
-522.975	41.328	0.154	0.141
-521.960	-200.000	0.024	-0.248
-520.945	-133.808	0.052	-0.007
-519.931	630.343	-0.074	0.190
-518.916	-200.000	-0.032	-0.340
-517.902	-200.000	0.008	0.163
-516.887	-112.478	-0.091	-0.018
-515.872	12.237	-0.212	-0.165
-514.858	43.568	0.336	0.310
-513.843	800.000	0.076	-0.316
-512.829	56.552	0.131	-0.129
-511.814	-50.103	0.204	-0.097
-510.799	-170.845	-0.379	0.013
-509.785	-200.000	-0.008	-0.070
-508.770	800.000	-0.054	-0.171
-507.756	-128.901	0.135	-0.019
-506.741	-80.408	0.060	-0.020
-505.726	78.098	-0.032	-0.034
-504.712	540.751	-0.042	0.101
-503.697	-200.000	0.038	-0.343
-502.683	-73.552	0.128	-0.047
-501.668	-170.027	-0.219	0.008
-500.653	69.728	0.166	0.173
-499.639	685.246	0.123	0.323
-498.624	-163.733	-0.183	-0.009
-497.610	438.829	-0.116	-0.256
-496.595	-18.049	-0.062	-0.039
-495.581	-200.000	-0.003	0.122
-494.566	-200.000	-0.030	0.165
-493.551	137.528	0.093	-0.123
-492.537	321.927	-0.037	0.071
-491.522	-37.389	0.017	-0.009
-490.508	-140.350	-0.115	0.012
-489.493	2.743	0.339	0.248
-488.478	-105.582	-0.153	-0.035
-487.464	-114.867	-0.133	0.026
-486.449	-33.317	0.067	0.038
-485.435	-54.336	-0.112	0.051
-484.420	80.247	-0.312	-0.339
-483.405	29.315	-0.171	-0.146
-482.391	208.727	-0.115	-0.181
-481.376	117.193	-0.098	-0.122
-480.362	19.787	0.114	-0.093
-479.347	-27.794	0.192	0.113
-478.332	585.761	0.081	-0.202
-477.318	127.150	-0.013	-0.017
-476.303	-10.370	0.132	-0.088
-475.289	-174.426	-0.209	-0.006
-474.274	-126.746	-0.097	-0.014
-473.259	129.893	0.079	0.102
-472.245	800.000	0.047	0.187
-471.230	-200.000	0.001	-0.121
-470.216	-76.699	0.142	0.050
-469.201	121.889	-0.051	-0.065
-468.186	-200.000	0.034	-0.278
-467.172	-200.000	-0.039	0.275
-466.157	-62.914	0.116	0.048
-465.143	744.165	0.089	-0.242
-464.128	-200.000	0.045	-0.462
-463.113	39.180	-0.130	0.117
-462.099	-200.000	-0.054	-0.261
-461.084	-133.756	0.135	-0.017
-460.070	800.000	-0.065	-0.286
-459.055	-172.927	0.143	0.004
-458.040	106.897	-0.126	0.151
-457.026	302.744	0.061	-0.113
-456.011	79.068	-0.120	-0.130
-454.997	54.304	0.175	-0.170
-453.982	-55.337	-0.139	-0.063
-452.968	-93.498	0.082	0.023
-451.953	22.278	-0.185	-0.152
-450.938	262.769	-0.046	-0.080
-449.924	-156.618	-0.269	-0.017
-448.909	-200.000	0.021	0.205
-447.895	-165.048	0.207	-0.009
-446.880	238.869	0.115	0.192
-445.865	-160.621	-0.308	0.017
-444.851	-28.545	0.142	-0.083
-443.836	800.000	0.164	-0.475
-442.822	-11.966	-0.293	-0.194
-441.807	106.124	0.150	-0.179
-440.792	15.701	-0.496	-0.393
-439.778	32.800	-0.339	0.296
-438.763	-200.000	0.036	0.324
-437.749	116.040	-0.120	0.148
-436.734	-200.000	-0.016	0.112
-435.719	166.020	0.082	0.117
-434.705	-57.159	0.392	-0.174
-433.690	-124.381	0.126	0.020
-432.676	-20.406	0.092	-0.057
-431.661	250.997	-0.046	0.078
-430.646	310.373	-0.139	-0.261
-429.632	554.306	-0.092	-0.222
-428.617	-108.277	0.432	-0.094
-427.603	-128.779	-0.182	-0.026
-426.588	800.000	-0.027	-0.094
-425.573	-200.000	-0.008	0.155
-424.559	-82.433	0.144	-0.047
-423.544	-75.472	-0.030	-0.011
-422.530	27.745	-0.228	0.193
-421.515	90.632	0.008	0.009
-420.500	-60.783	0.205	0.087
-419.486	-200.000	0.056	0.447
-418.471	7.167	-0.269	0.202
-417.457	146.077	0.103	0.139
-416.442	-36.692	-0.106	-0.057
-415.428	-200.000	-0.008	-0.073
-414.413	-186.605	0.164	-0.002
-413.398	51.236	-0.239	0.228
-412.384	-115.529	0.384	0.073
-411.369	60.992	0.139	0.139
-410.355	-22.318	-0.264	0.161
-409.340	-90.639	-0.537	0.156
-408.325	314.453	-0.099	0.187
-407.311	-130.214	0.130	0.018
-406.296	-200.000	0.018	0.255
-405.282	-42.732	0.224	0.115
-404.267	-115.751	0.079	0.015
-403.252	665.021	-0.107	0.279
-402.238	-114.311	-0.341	-0.066
-401.223	-200.000	-0.020	0.192
-400.209	-200.000	-0.016	0.079
-399.194	-47.767	0.206	0.100
-398.179	79.444	-0.212	-0.229
-397.165	-200.000	0.013	0.153
-396.150	-200.000	0.035	-0.245
-395.136	-52.012	-0.158	0.074
-394.121	-65.459	-0.071	0.029
-393.106	-87.602	-0.140	0.042
-392.092	70.649	-0.223	-0.232
-391.077	564.858	0.074	0.181
-390.063	175.978	-0.160	0.234
-389.048	236.066	0.091	0.151
-388.033	348.975	0.118	-0.234
-387.019	-89.342	-0.363	0.108
-386.004	-200.000	-0.041	0.186
-384.990	-104.970	0.211	-0.049
-383.975	-106.198	0.092	0.021
-382.960	-117.003	-0.280	-0.051
-381.946	-192.151	-0.197	-0.002
-380.931	-131.169	0.180	0.024
-379.917	-200.000	-0.046	0.256
-378.902	4.240	0.281	0.207
-377.888	11.897	-0.186	0.144
-376.873	8.154	0.136	0.103
-375.858	-127.233	0.130	0.019
-374.844	314.515	-0.096	0.182
-373.829	409.861	-0.065	0.139
-372.815	-109.739	0.401	0.085
-371.800	224.488	-0.139	0.226
-370.785	475.752	0.140	-0.317
-369.771	800.000	0.074	0.262
-368.756	-200.000	0.008	0.108
-367.742	800.000	-0.080	-0.264
-366.727	-109.065	-0.059	-0.013
-365.712	402.073	-0.044	-0.092
-364.698	800.000	-0.023	-0.090
-363.683	55.153	0.202	-0.196
-362.669	-53.091	-0.033	-0.015
-361.654	592.011	0.118	-0.292
-360.639	-90.142	0.127	0.037
-359.625	439.843	0.094	-0.207
-358.610	9.263	0.042	-0.032
-357.596	-39.707	-0.320	0.168
-356.581	-164.105	-0.139	0.006
-355.566	800.000	0.024	-0.102
-354.552	-200.000	-0.029	-0.150
-353.537	-200.000	0.006	0.132
-352.523	-46.666	0.125	-0.062
-351.508	-145.637	0.179	0.016
-350.493	173.923	0.148	0.214
-349.479	-64.951	0.284	0.115
-348.464	113.150	-0.098	-0.119
-347.450	222.158	0.039	-0.063
-346.435	-200.000	-0.005	0.056
-345.420	-200.000	0.013	0.144
-344.406	82.937	0.121	-0.132
-343.391	-109.997	-0.236	-0.050
-342.377	-142.349	-0.236	0.023
-341.362	-200.000	-0.042	0.502
-340.348	-133.893	0.189	0.023
-339.333	89.607	0.194	0.217
-338.318	800.000	0.060	0.258
-337.304	160.936	-0.094	0.132
-336.289	-113.267	0.335	0.066
-335.275	-170.950	-0.196	0.007
-334.260	-3.270	0.194	-0.135
-333.245	-81.630	0.118	-0.039
-332.231	-194.601	0.233	0.002
-331.216	133.271	0.019	-0.024
-330.202	-65.643	0.258	0.104
-329.187	-167.425	-0.136	-0.005
-328.172	800.000	-0.112	-0.362
-327.158	-200.000	0.003	-0.261
-326.143	-64.067	0.094	-0.038
-325.129	47.300	-0.162	0.151
-324.114	-139.686	0.273	-0.029
-323.099	-62.727	-0.370	0.154
-322.085	73.985	0.339	0.356
-321.070	41.284	0.114	0.103
-320.056	54.747	0.038	0.037
-319.041	-19.779	0.139	0.086
-318.026	682.002	0.128	0.334
-317.012	-94.672	-0.244	0.066
-315.997	-200.000	0.059	0.284
-314.983	-200.000	-0.033	0.162
-313.968	-200.000	-0.024	-0.185
-312.953	-77.874	-0.103	-0.036
-311.939	-145.910	0.118	0.010
-310.924	10.861	0.287	0.220
-309.910	-33.690	-0.252	0.139
-308.895	800.000	0.052	0.195
-307.880	389.694	-0.164	-0.341
-306.866	-60.253	0.138	0.059
-305.851	54.706	0.037	-0.036
-304.837	800.000	-0.018	-0.063
-303.822	-49.281	-0.203	0.097
-302.807	106.383	-0.271	-0.322
-301.793	-32.055	0.190	-0.107
-300.778	-168.037	-0.170	-0.007
-299.764	-30.948	0.321	-0.182
-298.749	27.369	0.039	-0.033
-297.735	27.876	-0.180	0.152
-296.720	800.000	-0.064	0.254
-295.705	548.767	0.089	0.213
-294.691	241.196	-0.144	-0.240
-293.676	-138.115	0.174	-0.019
-292.662	-200.000	-0.034	0.390
-291.647	-200.000	0.072	-0.378
-290.632	-104.227	0.201	-0.047
-289.618	28.547	0.109	-0.092
-288.603	33.460	-0.225	0.196
-287.589	-200.000	0.030	0.273
-286.574	-200.000	0.004	0.145
-285.559	19.150	0.036	-0.029
-284.545	-160.822	0.452	0.024
-283.530	-21.267	0.149	0.091
-282.516	-5.093	0.175	0.121
-281.501	-165.569	0.281	-0.012
-280.486	152.513	0.060	-0.082
-279.472	270.639	-0.024	0.042
-278.457	-17.278	-0.257	-0.162
-277.443	-200.000	0.006	-0.390
-276.428	-13.545	-0.081	-0.053
-275.413	28.069	-0.130	0.110
-274.399	-172.122	0.146	-0.005
-273.384	35.738	0.286	-0.252
-272.370	800.000	0.016	0.053
-271.355	217.577	-0.230	-0.367
-270.340	-31.428	0.161	-0.091
-269.326	255.964	-0.105	-0.181
-268.311	-200.000	0.005	0.153
-267.297	284.934	0.026	-0.048
-266.282	-166.335	0.267	-0.011
-265.267	-157.406	-0.112	0.007
-264.253	18.222	0.363	0.290
-263.238	-130.728	-0.090	-0.012
-262.224	-150.251	0.168	-0.013
-261.209	-74.154	0.362	0.131
-260.195	-96.847	0.364	-0.096
-259.180	210.051	0.290	-0.455
-258.165	-103.668	-0.196	-0.046
-257.151	-96.089	0.240	-0.064
-256.136	-200.000	-0.004	-0.112
-255.122	71.857	0.136	-0.141
-254.107	-74.691	-0.065	-0.023
-253.092	146.503	0.107	-0.144
-252.078	-39.216	0.207	0.109
-251.063	-119.034	0.197	0.034
-250.049	54.639	0.168	0.162
-249.034	-39.993	0.025	-0.013
-248.019	-200.000	0.000	-0.157
-247.005	-137.210	0.356	0.041
-245.990	-105.489	0.283	0.064
-244.976	800.000	0.050	0.175
-243.961	-200.000	0.004	-0.116
-242.946	-146.226	-0.190	0.017
-241.932	220.434	-0.067	-0.107
-240.917	291.637	0.091	0.166
-239.903	-200.000	-0.019	0.178
-238.888	-29.073	-0.360	0.206
-237.873	-10.234	0.089	0.059
-236.859	-39.299	-0.425	0.223
-235.844	-137.915	-0.207	0.023
-234.830	800.000	-0.145	0.442
-233.815	5.031	-0.070	-0.051
-232.800	-21.934	-0.231	-0.140
-231.786	-200.000	-0.030	0.415
-230.771	-91.726	0.117	-0.033
-229.757	250.742	-0.052	0.088
-228.742	800.000	0.098	-0.377
-227.727	260.659	-0.116	0.200
-226.713	22.535	0.214	-0.175
-225.698	800.000	0.109	-0.385
-224.684	-200.000	-0.020	-0.164
-223.669	318.464	-0.109	-0.206
-222.655	-38.951	0.286	0.151
-221.640	-77.229	0.151	0.053
-220.625	71.540	0.122	-0.127
-219.611	111.374	0.143	0.172
-218.596	-169.616	-0.382	-0.014
-217.582	-59.335	0.519	-0.223
-216.567	231.999	0.062	-0.102
-215.552	-109.816	-0.168	-0.035
-214.538	-49.001	-0.149	-0.071
-213.523	-95.686	-0.224	-0.060
-212.509	-15.282	-0.408	-0.260
-211.494	49.707	0.212	-0.200
-210.479	-11.140	0.154	0.101
-209.465	-59.675	0.155	-0.067
-208.450	-100.532	-0.084	0.021
-207.436	200.146	0.021	-0.032
-206.421	-98.487	0.156	-0.040
-205.406	-200.000	0.027	-0.122
-204.392	248.149	-0.180	-0.304
-203.377	415.640	-0.033	-0.070
-202.363	800.000	0.045	-0.173
-201.348	59.406	-0.128	-0.126
-200.333	66.012	-0.089	-0.090
-199.319	150.533	-0.152	0.206
-198.304	-81.824	-0.263	0.086
-197.290	136.085	-0.165	-0.215
-196.275	-185.810	0.353	-0.005
-195.260	-176.059	0.091	0.002
-194.246	-200.000	0.166	-0.001
-193.231	-200.000	0.034	-0.339
-192.217	800.000	-0.075	0.251
-191.202	-200.000	-0.009	0.112
-190.187	696.783	-0.138	0.362
-189.173	-36.842	-0.077	-0.041
-188.158	84.241	-0.139	0.151
-187.144	800.000	0.050	-0.207
-186.129	-200.000	0.044	-0.230
-185.114	800.000	0.071	-0.272
-184.100	-200.000	0.095	0.419
-183.085	391.082	-0.026	-0.055
-182.071	800.000	0.074	-0.248
-181.056	-136.257	-0.227	0.026
-180.042	800.000	-0.033	-0.097
-179.027	3.049	-0.052	0.038
-178.012	-4.854	-0.212	-0.146
-176.998	-200.000	0.008	-0.090
-175.983	-105.895	-0.155	-0.035
-174.969	313.588	-0.026	0.049
-173.954	-69.123	-0.397	0.152
-172.939	42.926	-0.296	-0.269
-171.925	-4.235	0.105	-0.073
-170.910	800.000	0.093	-0.390
-169.896	-20.830	-0.187	0.115
-168.881	51.858	0.058	-0.055
-167.866	-127.916	0.347	-0.050
-166.852	800.000	0.091	-0.336
-165.837	-200.000	-0.030	0.252
-164.823	6.763	-0.233	-0.173
-163.808	25.891	0.089	0.074
-162.793	-200.000	0.066	-0.389
-161.779	-200.000	-0.026	0.133
-160.764	-26.668	-0.160	-0.093
-159.750	153.688	-0.153	-0.209
-158.735	800.000	0.046	0.156
-157.720	53.419	-0.151	0.144
-156.706	-74.284	-0.088	0.032
-155.691	552.246	0.156	-0.374
-154.677	-100.202	0.208	0.052
-153.662	-104.166	0.263	0.061
-152.647	-165.657	-0.271	-0.012
-151.633	-80.406	0.321	-0.107
-150.618	783.153	-0.050	-0.136
-149.604	-0.277	0.492	-0.349
-148.589	14.305	-0.165	-0.128
-147.574	6.620	-0.259	0.192
-146.560	53.041	0.369	0.351
-145.545	-110.755	0.280	0.057
-144.531	109.552	-0.167	0.199
-143.516	-200.000	0.062	0.382
-142.502	-200.000	0.023	0.345
-141.487	-200.000	-0.004	-0.241
-140.472	800.000	-0.066	0.217
-139.458	800.000	-0.072	0.200
-138.443	20.319	-0.195	0.157
-137.429	-107.329	0.260	-0.057
-136.414	11.046	0.030	-0.023
-135.399	-116.026	0.181	-0.034
-134.385	74.651	0.183	-0.191
-133.370	386.472	-0.076	0.156
-132.356	152.814	-0.144	-0.196
-131.341	-4.485	0.265	-0.182
-130.326	56.880	-0.138	-0.134
-129.312	-200.000	-0.012	-0.215
-128.297	-182.744	-0.254	-0.005
-127.283	101.113	0.082	0.095
-126.268	-157.462	-0.124	-0.007
-125.253	-12.930	0.192	-0.124
-124.239	-200.000	0.012	-0.205
-123.224	-71.337	0.258	-0.096
-122.210	-20.313	-0.202	-0.124
