DTS Sentinel unit serial number:	SN413079Multiplexer serial number:	ORYXHardware model number:	OX4-SRSoftware version number:	ORYX F/W v4.00 Oryx Data Collector v3.7.2.0data status	okinstallation	princeton_trtdifferential loss correction	single-endedforward channel	channel 4reverse channel	N/Adate	2019/09/17time	15:29:34forward acquisition time	60.00reverse acquisition time	0.00gamma	496.2192k internal	0.2292k external	0.2292temperature offset calibration	0.9983default loss term (dB/km)	0.3790temperature slope calibration	1.0000multiplexer offset coefficient	1.0000multiplexer slope coefficient	1.0000fibre end	0.00T internal ref (°C)	38.28T ext. ref 1 (°C)	0.38T ext. ref 2 (°C)	35.53length (m)	temperature (°C)	Stokes	anti-Stokes-747.200	800.000	-0.089	-0.308
-746.185	10.933	0.112	0.087
-745.171	-56.916	0.067	-0.030
-744.156	-200.000	-0.038	0.266
-743.142	-77.824	-0.198	0.070
-742.127	-0.356	-0.193	0.141
-741.112	-25.568	-0.117	0.071
-740.098	46.686	-0.076	0.073
-739.083	-200.000	0.050	-0.244
-738.069	-200.000	0.033	0.366
-737.054	-200.000	-0.045	0.361
-736.039	-20.421	-0.322	0.203
-735.025	-200.000	0.038	0.417
-734.010	-119.781	0.152	0.027
-732.996	-96.709	-0.288	-0.078
-731.981	438.382	-0.058	0.130
-730.966	454.359	0.121	-0.273
-729.952	-200.000	0.003	-0.049
-728.937	380.227	0.085	-0.178
-727.923	-200.000	-0.019	0.135
-726.908	26.722	0.226	0.194
-725.894	345.649	0.123	-0.248
-724.879	-57.560	0.114	0.051
-723.864	358.362	0.118	0.241
-722.850	38.547	0.182	-0.166
-721.835	800.000	0.078	-0.337
-720.821	-77.364	0.091	-0.032
-719.806	-29.160	-0.106	-0.062
-718.791	38.772	-0.141	0.128
-717.777	-146.326	0.142	0.013
-716.762	-200.000	0.045	0.252
-715.748	42.755	-0.157	0.146
-714.733	58.092	-0.093	-0.093
-713.718	-40.844	-0.170	-0.090
-712.704	130.153	0.131	-0.172
-711.689	-159.135	-0.268	-0.015
-710.675	-168.216	0.117	0.005
-709.660	-26.764	-0.188	-0.112
-708.645	-200.000	0.011	-0.142
-707.631	-200.000	0.008	0.064
-706.616	236.545	0.055	0.092
-705.602	127.206	0.040	0.052
-704.587	-83.745	-0.416	0.136
-703.572	450.422	0.098	-0.222
-702.558	335.163	0.141	-0.278
-701.543	690.598	0.043	-0.115
-700.529	-106.758	-0.202	-0.046
-699.514	13.351	0.221	0.175
-698.499	-123.145	-0.069	0.011
-697.485	-114.435	-0.252	-0.049
-696.470	-46.665	-0.328	-0.164
-695.456	-66.787	-0.272	0.110
-694.441	57.822	-0.175	0.175
-693.426	34.697	-0.089	-0.079
-692.412	68.071	-0.236	0.247
-691.397	-3.644	0.078	0.056
-690.383	800.000	-0.042	-0.162
-689.368	800.000	-0.057	0.237
-688.354	-105.963	-0.195	-0.045
-687.339	800.000	0.028	0.094
-686.324	362.771	-0.059	-0.122
-685.310	312.556	-0.184	-0.352
-684.295	-200.000	0.010	-0.257
-683.281	-51.241	-0.440	-0.210
-682.266	38.519	0.188	0.171
-681.251	-144.753	0.302	-0.028
-680.237	-200.000	-0.002	-0.232
-679.222	-67.808	-0.019	0.008
-678.208	-11.973	-0.202	0.135
-677.193	-200.000	0.075	-0.444
-676.178	52.822	-0.043	-0.042
-675.164	-138.249	0.070	-0.008
-674.149	329.281	0.076	-0.150
-673.135	32.416	-0.108	0.096
-672.120	-10.657	0.265	-0.179
-671.105	800.000	-0.066	0.228
-670.091	304.413	-0.063	-0.118
-669.076	86.856	-0.309	-0.349
-668.062	23.788	0.294	-0.248
-667.047	4.080	0.201	-0.150
-666.032	800.000	0.037	-0.105
-665.018	-97.287	0.153	0.041
-664.003	-31.176	0.488	-0.281
-662.989	67.122	-0.162	-0.169
-661.974	-41.184	-0.238	0.125
-660.959	548.511	-0.079	-0.194
-659.945	291.864	-0.058	-0.108
-658.930	21.330	-0.230	-0.191
-657.916	-38.949	0.102	-0.055
-656.901	-173.565	-0.275	0.008
-655.886	-102.402	0.520	-0.127
-654.872	132.930	-0.159	-0.210
-653.857	-72.441	0.381	-0.144
-652.843	800.000	-0.097	0.285
-651.828	-87.545	0.132	-0.041
-650.814	-53.698	0.357	-0.166
-649.799	800.000	0.039	0.122
-648.784	38.863	0.134	-0.122
-647.770	-118.726	-0.157	0.028
-646.755	-70.486	0.408	0.158
-645.741	-200.000	-0.101	0.703
-644.726	731.672	-0.102	-0.279
-643.711	-173.022	0.244	-0.008
-642.697	-131.646	-0.270	-0.036
-641.682	55.561	0.196	-0.194
-640.668	-21.067	0.256	0.160
-639.653	-70.796	0.089	-0.034
-638.638	-200.000	-0.032	-0.461
-637.624	-75.457	0.236	-0.086
-636.609	-200.000	-0.041	0.287
-635.595	800.000	0.075	0.247
-634.580	-92.777	0.360	0.103
-633.565	800.000	0.083	-0.253
-632.551	149.894	-0.127	-0.175
-631.536	41.483	-0.127	0.117
-630.522	-200.000	0.040	0.198
-629.507	167.944	0.099	-0.143
-628.492	-200.000	0.008	-0.083
-627.478	-200.000	0.002	-0.099
-626.463	145.823	0.157	0.215
-625.449	-200.000	0.001	0.238
-624.434	260.865	-0.201	0.355
-623.419	-154.770	-0.126	0.008
-622.405	-132.720	-0.167	-0.022
-621.390	-4.727	-0.246	0.173
-620.376	-200.000	0.022	-0.126
-619.361	283.114	-0.029	-0.053
-618.346	268.578	-0.283	-0.506
-617.332	800.000	0.094	-0.336
-616.317	761.733	-0.046	-0.127
-615.303	-200.000	-0.004	0.173
-614.288	58.720	-0.135	0.136
-613.273	-153.749	-0.189	0.013
-612.259	217.389	-0.108	0.175
-611.244	247.528	-0.065	0.111
-610.230	192.910	0.123	0.189
-609.215	-68.533	-0.067	0.026
-608.201	800.000	0.112	-0.370
-607.186	-8.393	-0.253	0.173
-606.171	-49.106	0.156	0.076
-605.157	-200.000	0.025	-0.312
-604.142	-119.990	-0.279	-0.049
-603.128	-8.497	0.221	0.151
-602.113	-200.000	0.018	-0.150
-601.098	-66.911	-0.361	-0.145
-600.084	-200.000	-0.029	-0.201
-599.069	-200.000	0.012	-0.269
-598.055	51.389	0.272	0.263
-597.040	-27.392	0.173	0.103
-596.025	-44.028	-0.178	0.091
-595.011	-12.706	0.246	-0.163
-593.996	-173.308	0.186	0.006
-592.982	-24.564	-0.120	-0.073
-591.967	-200.000	0.037	0.174
-590.952	-96.540	0.200	0.054
-589.938	-200.000	-0.039	0.192
-588.923	-200.000	-0.008	-0.246
-587.909	-46.122	-0.212	-0.106
-586.894	-30.658	0.126	0.073
-585.879	-111.238	-0.110	0.023
-584.865	800.000	0.070	0.221
-583.850	364.528	0.126	0.258
-582.836	122.649	0.060	-0.076
-581.821	-200.000	-0.008	0.123
-580.806	-200.000	-0.083	-0.387
-579.792	204.973	-0.159	-0.251
-578.777	329.552	-0.104	-0.204
-577.763	-27.577	-0.028	0.017
-576.748	-200.000	0.013	-0.062
-575.733	176.937	0.076	0.113
-574.719	98.634	0.101	0.119
-573.704	-115.119	-0.217	0.042
-572.690	784.137	0.092	0.256
-571.675	327.725	-0.137	-0.267
-570.661	-58.883	-0.231	-0.102
-569.646	-69.987	-0.137	0.053
-568.631	-152.218	-0.149	-0.011
-567.617	-200.000	0.009	0.230
-566.602	3.651	-0.075	0.056
-565.588	252.759	-0.108	-0.187
-564.573	-200.000	-0.032	-0.429
-563.558	4.271	-0.096	-0.071
-562.544	21.416	0.108	-0.089
-561.529	379.145	-0.057	0.119
-560.515	-33.631	0.358	0.201
-559.500	-200.000	0.049	-0.548
-558.485	424.319	0.121	0.264
-557.471	93.113	-0.181	-0.208
-556.456	-133.658	0.059	-0.008
-555.442	-82.514	0.158	0.052
-554.427	-200.000	-0.063	0.307
-553.412	-200.000	-0.368	-0.002
-552.398	-200.000	-0.030	0.188
-551.383	141.973	0.219	-0.295
-550.369	-200.000	0.046	0.219
-549.354	-200.000	0.015	0.246
-548.339	-109.104	-0.251	-0.054
-547.325	220.323	0.144	-0.235
-546.310	-62.228	-0.114	-0.048
-545.296	800.000	0.038	-0.166
-544.281	-107.908	0.261	-0.058
-543.266	570.522	-0.130	0.321
-542.252	-200.000	-0.006	0.335
-541.237	-95.118	-0.173	-0.047
-540.223	-146.223	-0.312	-0.028
-539.208	-200.000	0.015	0.192
-538.193	-200.000	-0.034	0.239
-537.179	-59.175	0.232	0.102
-536.164	-39.290	0.148	0.079
-535.150	-138.091	0.142	0.016
-534.135	14.393	-0.178	0.141
-533.121	-101.274	-0.448	-0.111
-532.106	757.694	0.133	-0.365
-531.091	-75.787	0.244	-0.088
-530.077	-118.045	-0.283	-0.051
-529.062	646.351	-0.149	-0.387
-528.048	-40.587	0.111	-0.059
-527.033	-153.264	0.328	0.023
-526.018	713.435	0.039	-0.105
-525.004	800.000	0.031	-0.093
-523.989	341.503	0.059	0.117
-522.975	17.652	-0.160	-0.129
-521.960	26.767	-0.149	0.127
-520.945	229.792	0.111	0.184
-519.931	232.091	0.074	0.123
-518.916	800.000	0.115	0.389
-517.902	-200.000	0.007	-0.204
-516.887	-200.000	0.035	0.174
-515.872	353.447	0.059	0.119
-514.858	6.509	-0.068	-0.051
-513.843	-111.806	0.153	0.031
-512.829	800.000	-0.195	-0.552
-511.814	53.177	0.024	-0.024
-510.799	-96.417	0.165	-0.044
-509.785	-200.000	0.030	-0.265
-508.770	-160.769	0.129	0.007
-507.756	560.891	0.172	0.422
-506.741	800.000	0.068	0.191
-505.726	-200.000	0.000	-0.005
-504.712	712.480	0.074	-0.200
-503.697	800.000	0.049	0.214
-502.683	262.012	-0.047	-0.083
-501.668	30.190	0.338	0.292
-500.653	-200.000	0.017	0.346
-499.639	27.761	0.135	-0.115
-498.624	763.755	0.059	-0.162
-497.610	203.079	-0.060	-0.094
-496.595	800.000	0.109	-0.433
-495.581	-200.000	0.059	-0.281
-494.566	-55.043	-0.162	0.074
-493.551	-28.587	-0.078	-0.046
-492.537	-200.000	-0.026	-0.215
-491.522	0.776	0.017	0.012
-490.508	363.002	-0.061	-0.124
-489.493	122.904	0.076	0.096
-488.478	-200.000	-0.015	0.254
-487.464	-200.000	0.063	-0.423
-486.449	530.983	-0.047	-0.112
-485.435	-42.011	0.255	-0.132
-484.420	240.833	-0.118	0.200
-483.405	800.000	0.027	-0.077
-482.391	800.000	-0.072	-0.202
-481.376	66.873	0.109	-0.112
-480.362	-51.954	-0.263	0.124
-479.347	55.278	-0.029	-0.028
-478.332	0.001	0.167	0.120
-477.318	129.247	0.045	0.059
-476.303	-200.000	-0.072	-0.366
-475.289	74.736	0.067	0.072
-474.274	-102.831	0.343	0.083
-473.259	-69.045	0.145	0.056
-472.245	800.000	-0.052	0.147
-471.230	-36.079	-0.227	-0.124
-470.216	345.694	0.137	0.272
-469.201	107.507	-0.161	-0.194
-468.186	-8.297	0.196	0.133
-467.172	121.857	-0.109	-0.138
-466.157	430.347	-0.155	-0.340
-465.143	501.780	-0.067	0.156
-464.128	-88.000	-0.132	0.040
-463.113	70.677	0.128	-0.134
-462.099	-200.000	0.011	-0.110
-461.084	125.817	-0.154	-0.197
-460.070	-42.096	-0.186	-0.097
-459.055	-24.637	0.031	-0.019
-458.040	2.117	0.158	-0.115
-457.026	-106.101	-0.202	-0.046
-456.011	-85.848	0.231	-0.072
-454.997	-42.085	-0.178	0.092
-453.982	800.000	-0.045	-0.177
-452.968	180.583	0.205	0.305
-451.953	-41.110	-0.198	-0.103
-450.938	-200.000	-0.004	0.045
-449.924	-200.000	0.005	-0.296
-448.909	800.000	0.047	0.163
-447.895	73.500	0.406	0.430
-446.880	70.700	0.045	-0.047
-445.865	113.955	-0.264	0.324
-444.851	-56.094	0.081	-0.037
-443.836	10.934	0.224	-0.173
-442.822	220.170	0.059	0.096
-441.807	75.970	-0.106	-0.113
-440.792	104.721	0.022	-0.026
-439.778	566.266	0.236	0.580
-438.763	65.856	0.127	0.130
-437.749	-122.402	-0.216	-0.036
-436.734	416.891	-0.048	0.105
-435.719	-83.820	0.033	0.011
-434.705	-69.069	-0.122	-0.047
-433.690	-55.526	0.135	0.061
-432.676	-56.174	-0.244	0.110
-431.661	52.141	-0.220	0.212
-430.646	800.000	0.083	-0.265
-429.632	-16.250	0.240	0.154
-428.617	96.522	0.294	0.340
-427.603	-19.779	0.126	0.079
-426.588	-200.000	0.027	-0.266
-425.573	800.000	0.029	0.084
-424.559	-165.299	-0.134	0.006
-423.544	-200.000	-0.028	0.222
-422.530	191.724	-0.240	0.366
-421.515	-72.035	0.163	0.061
-420.500	-26.272	0.158	-0.094
-419.486	104.085	-0.084	-0.100
-418.471	-200.000	-0.046	-0.303
-417.457	204.480	0.124	-0.194
-416.442	-133.575	-0.354	0.045
-415.428	800.000	0.071	-0.259
-414.413	-9.615	-0.013	-0.009
-413.398	86.761	0.114	0.128
-412.384	-200.000	0.001	-0.013
-411.369	128.112	-0.121	0.155
-410.355	-200.000	0.051	0.275
-409.340	34.078	0.094	0.083
-408.325	538.317	-0.090	0.215
-407.311	136.812	0.110	-0.145
-406.296	136.334	0.264	-0.348
-405.282	-5.894	0.130	-0.090
-404.267	-200.000	0.011	0.067
-403.252	-2.619	0.148	0.105
-402.238	-200.000	-0.010	-0.135
-401.223	89.293	0.133	0.150
-400.209	30.768	-0.078	0.068
-399.194	-200.000	0.056	0.304
-398.179	70.006	-0.181	0.189
-397.165	23.891	0.231	-0.192
-396.150	-200.000	-0.005	-0.396
-395.136	-100.349	-0.124	-0.031
-394.121	712.353	0.046	-0.122
-393.106	800.000	0.096	-0.372
-392.092	-67.283	0.077	-0.031
-391.077	-92.960	0.332	-0.093
-390.063	800.000	0.053	-0.149
-389.048	21.021	-0.242	0.198
-388.033	29.978	-0.227	0.196
-387.019	-71.853	-0.259	-0.097
-386.004	-144.815	0.366	-0.034
-384.990	30.955	-0.271	-0.234
-383.975	-200.000	0.063	0.324
-382.960	-65.740	0.128	-0.052
-381.946	800.000	-0.048	0.178
-380.931	-132.241	-0.134	0.017
-379.917	-29.320	-0.311	-0.180
-378.902	-82.454	-0.209	-0.068
-377.888	800.000	-0.075	-0.241
-376.873	-200.000	-0.008	0.038
-375.858	10.974	-0.253	-0.195
-374.844	66.798	-0.041	0.043
-373.829	-124.231	-0.255	-0.040
-372.815	-83.372	-0.195	-0.063
-371.800	24.478	0.223	0.186
-370.785	800.000	0.024	-0.076
-369.771	229.276	-0.037	-0.060
-368.756	133.805	-0.123	0.161
-367.742	38.933	0.272	0.246
-366.727	-200.000	0.044	-0.240
-365.712	-95.945	0.406	0.109
-364.698	19.630	0.179	0.145
-363.683	-176.904	-0.167	-0.004
-362.669	201.295	0.019	0.029
-361.654	-136.784	0.318	-0.037
-360.639	-126.006	-0.354	0.054
-359.625	197.997	0.121	-0.186
-358.610	-49.563	0.245	0.117
-357.596	362.904	0.088	-0.179
-356.581	190.081	0.039	0.059
-355.566	-53.542	0.248	0.115
-354.552	20.669	0.194	0.159
-353.537	-126.713	0.198	0.030
-352.523	-179.198	0.190	0.004
-351.508	-52.358	-0.319	0.149
-350.493	97.952	-0.222	-0.257
-349.479	-98.318	-0.250	0.065
-348.464	-108.501	0.209	-0.045
-347.450	188.952	-0.077	-0.116
-346.435	188.886	0.109	-0.164
-345.420	-79.959	-0.215	-0.073
-344.406	214.233	-0.063	-0.100
-343.391	153.184	0.155	0.214
-342.377	-2.669	-0.316	0.223
-341.362	373.685	-0.090	-0.184
-340.348	-200.000	0.024	0.168
-339.333	-21.273	-0.081	-0.050
-338.318	-133.299	0.212	0.027
-337.304	800.000	-0.028	0.108
-336.289	-23.112	0.121	0.073
-335.275	-200.000	-0.008	-0.257
-334.260	67.178	-0.213	-0.219
-333.245	-200.000	0.008	-0.163
-332.231	84.378	-0.278	-0.307
-331.216	-88.174	-0.121	0.036
-330.202	58.242	0.137	-0.135
-329.187	100.386	0.061	0.072
-328.172	-66.465	0.254	0.102
-327.158	-168.587	-0.208	-0.008
-326.143	203.937	0.175	-0.273
-325.129	-66.779	0.145	-0.058
-324.114	-123.418	-0.140	-0.022
-323.099	-45.961	0.086	0.043
-322.085	-51.257	0.199	-0.094
-321.070	800.000	0.075	0.274
-320.056	-12.422	-0.160	-0.105
-319.041	95.877	-0.306	-0.352
-318.026	-27.543	0.058	0.034
-317.012	73.742	0.193	0.204
-315.997	10.328	0.237	0.182
-314.983	-86.384	-0.080	-0.025
-313.968	800.000	0.025	0.100
-312.953	203.966	-0.124	-0.193
-311.939	800.000	-0.023	-0.065
-310.924	800.000	-0.053	0.173
-309.910	-200.000	-0.019	0.340
-308.895	-46.017	0.327	0.162
-307.880	200.510	-0.106	0.164
-306.866	-123.532	0.152	-0.024
-305.851	155.342	-0.082	-0.114
-304.837	49.271	-0.012	0.011
-303.822	233.349	0.059	0.098
-302.807	30.744	-0.106	-0.091
-301.793	23.600	-0.035	0.029
-300.778	-1.042	-0.268	0.191
-299.764	241.083	0.074	0.124
-298.749	-73.209	-0.221	0.081
-297.735	-59.327	-0.058	0.025
-296.720	-42.349	0.320	0.165
-295.705	0.969	-0.228	0.165
-294.691	-60.921	-0.205	-0.087
-293.676	-49.644	-0.033	0.016
-292.662	260.632	-0.034	-0.059
-291.647	-76.526	0.393	0.139
-290.632	-37.283	-0.284	-0.152
-289.618	271.849	0.078	-0.138
-288.603	-64.734	-0.180	0.073
-287.589	800.000	-0.071	0.248
-286.574	800.000	-0.052	0.206
-285.559	-139.241	0.354	-0.038
-284.545	32.251	0.265	-0.230
-283.530	800.000	-0.049	-0.143
-282.516	-200.000	0.029	-0.252
-281.501	-60.862	-0.223	0.095
-280.486	32.943	0.507	-0.442
-279.472	-34.929	-0.136	0.075
-278.457	-90.793	-0.065	-0.019
-277.443	-18.571	-0.138	0.086
-276.428	-200.000	0.018	0.139
-275.413	-200.000	-0.011	0.209
-274.399	208.057	-0.212	-0.333
-273.384	-200.000	0.000	-0.143
-272.370	-114.978	-0.346	0.066
-271.355	-200.000	-0.018	-0.220
-270.340	589.279	0.178	0.440
-269.326	800.000	0.092	-0.265
-268.311	-132.175	-0.240	-0.031
-267.297	-67.164	0.397	-0.157
-266.282	219.453	-0.112	-0.180
-265.267	-110.024	-0.136	0.029
-264.253	-68.271	0.269	0.105
-263.238	-141.757	0.348	0.035
-262.224	800.000	0.145	0.483
-261.209	-111.244	-0.257	0.053
-260.195	-1.681	-0.168	-0.119
-259.180	-87.487	-0.566	-0.172
-258.165	-66.257	0.099	0.040
-257.151	199.928	-0.011	0.016
-256.136	147.073	0.128	0.173
-255.122	186.516	0.232	-0.347
-254.107	-18.306	0.356	0.223
-253.092	-200.000	0.021	0.202
-252.078	-200.000	-0.025	-0.169
-251.063	-7.098	0.173	0.118
-250.049	-2.470	-0.154	-0.108
-249.034	-120.272	-0.208	-0.036
-248.019	222.420	-0.062	0.101
-247.005	50.601	0.104	0.099
-245.990	-22.854	-0.216	-0.131
-244.976	3.870	-0.281	-0.206
-243.961	-50.191	0.101	0.048
-242.946	-14.587	-0.160	-0.103
-241.932	-58.325	0.233	0.102
-240.917	-129.849	-0.253	-0.035
-239.903	92.535	-0.142	-0.161
-238.888	-97.096	-0.050	0.013
-237.873	280.856	-0.162	-0.290
-236.859	775.614	-0.048	0.133
-235.844	-64.826	0.238	0.097
-234.830	-81.775	0.398	0.131
-233.815	-36.064	-0.040	0.022
-232.800	-43.027	0.303	-0.154
-231.786	-200.000	0.146	0.000
-230.771	-200.000	-0.004	0.187
-229.757	-42.130	-0.377	0.193
-228.742	-2.242	0.317	0.223
-227.727	-200.000	-0.003	-0.140
-226.713	442.578	-0.115	-0.254
-225.698	-200.000	0.003	-0.025
-224.684	-200.000	-0.011	-0.156
-223.669	-200.000	-0.018	-0.083
-222.655	-153.037	-0.130	0.009
-221.640	-200.000	-0.009	0.087
-220.625	-130.023	-0.193	-0.026
-219.611	-93.773	0.188	0.052
-218.596	-45.394	0.210	-0.104
-217.582	800.000	-0.107	-0.351
-216.567	-200.000	-0.022	0.126
-215.552	271.719	0.117	-0.207
-214.538	200.817	0.016	0.025
-213.523	-125.029	-0.059	0.009
-212.509	395.526	0.036	0.075
-211.494	97.947	-0.090	0.104
-210.479	98.154	-0.246	0.284
-209.465	-127.994	-0.148	0.021
-208.450	-96.457	-0.246	0.065
-207.436	251.038	0.147	-0.250
-206.421	35.433	0.157	0.138
-205.406	172.506	0.079	0.115
-204.392	-59.788	-0.279	-0.120
-203.377	800.000	-0.064	-0.269
-202.363	227.810	-0.046	-0.076
-201.348	34.193	-0.123	-0.108
-200.333	159.392	-0.186	-0.260
-199.319	-72.404	-0.375	-0.139
-198.304	-200.000	0.018	0.264
-197.290	282.201	0.018	0.032
-196.275	-200.000	0.016	0.331
-195.260	-124.238	-0.300	0.047
-194.246	-162.101	-0.123	0.006
-193.231	772.566	0.047	-0.127
-192.217	-200.000	0.014	0.533
-191.202	-14.448	0.533	0.344
-190.187	800.000	0.122	-0.381
-189.173	305.131	0.072	0.134
-188.158	379.839	0.172	0.352
-187.144	-110.121	-0.288	-0.060
-186.129	-31.737	0.093	-0.052
-185.114	198.717	0.087	-0.134
-184.100	330.318	0.049	0.095
-183.085	93.994	0.249	-0.283
-182.071	277.058	0.056	-0.099
-181.056	-40.562	0.189	0.098
-180.042	593.503	0.091	-0.225
-179.027	-51.898	0.163	-0.076
-178.012	800.000	-0.101	0.288
-176.998	5.260	-0.288	-0.213
-175.983	-200.000	-0.014	0.299
-174.969	-200.000	-0.097	-0.427
-173.954	22.771	0.051	0.042
-172.939	-91.940	0.209	-0.059
-171.925	77.043	0.152	0.161
-170.910	156.424	0.220	0.304
-169.896	-77.694	0.011	-0.004
-168.881	-58.190	-0.343	0.150
-167.866	-89.118	-0.151	-0.045
-166.852	-62.927	-0.308	-0.127
-165.837	477.988	-0.117	-0.265
-164.823	127.722	0.171	0.217
-163.808	120.170	0.028	-0.035
-162.793	-66.831	-0.146	0.058
-161.779	117.230	-0.069	-0.085
-160.764	-200.000	0.069	0.453
-159.750	327.212	-0.059	0.114
-158.735	3.324	-0.291	0.212
-157.720	800.000	-0.019	-0.080
-156.706	-150.128	-0.089	-0.007
-155.691	24.091	-0.134	0.111
-154.677	316.365	-0.062	0.116
-153.662	-87.656	-0.260	0.079
-152.647	-110.919	0.257	0.053
-151.633	-200.000	0.016	-0.258
-150.618	82.967	-0.170	0.185
-149.604	239.116	0.119	-0.198
-148.589	310.279	0.111	-0.209
-147.574	44.747	0.250	-0.230
-146.560	800.000	-0.015	-0.061
-145.545	-140.033	0.160	0.017
-144.531	-158.101	-0.350	0.021
-143.516	-200.000	-0.008	0.199
-142.502	-107.785	0.269	-0.059
-141.487	-110.256	0.101	0.021
-140.472	106.685	0.047	-0.056
-139.458	223.621	0.171	-0.276
-138.443	-75.854	0.108	0.038
-137.429	-37.251	-0.224	-0.120
-136.414	199.343	0.067	0.103
-135.399	-124.597	-0.068	0.011
-134.385	136.183	0.103	0.134
-133.370	-29.765	0.437	0.249
-132.356	-102.299	0.039	-0.009
-131.341	-48.403	-0.175	-0.084
-130.326	72.183	0.116	0.121
-129.312	298.075	0.020	0.036
-128.297	-105.470	0.209	-0.048
-127.283	600.322	-0.030	-0.074
-126.268	-141.283	-0.183	0.019
-125.253	-81.381	0.212	0.070
-124.239	-200.000	0.012	0.116
-123.224	482.711	0.046	-0.104
-122.210	-200.000	0.009	-0.088
-121.195	381.544	-0.151	0.309
-120.180	-129.966	-0.115	-0.016
