DTS Sentinel unit serial number:	SN413079Multiplexer serial number:	ORYXHardware model number:	OX4-SRSoftware version number:	ORYX F/W v4.00 Oryx Data Collector v3.7.2.0data status	okinstallation	princeton_trtdifferential loss correction	single-endedforward channel	channel 4reverse channel	N/Adate	2019/09/15time	03:29:34forward acquisition time	60.00reverse acquisition time	0.00gamma	496.2192k internal	0.2310k external	0.2310temperature offset calibration	1.0031default loss term (dB/km)	0.3790temperature slope calibration	1.0000multiplexer offset coefficient	1.0000multiplexer slope coefficient	1.0000fibre end	0.00T internal ref (°C)	31.05T ext. ref 1 (°C)	4.63T ext. ref 2 (°C)	25.77length (m)	temperature (°C)	Stokes	anti-Stokes-747.200	1.898	-0.027	0.020
-746.185	-22.317	0.336	-0.207
-745.171	-103.153	-0.080	0.019
-744.156	800.000	-0.133	0.373
-743.142	-34.186	0.449	-0.250
-742.127	26.303	-0.071	0.060
-741.112	-62.745	0.167	-0.070
-740.098	800.000	-0.013	0.055
-739.083	-200.000	0.034	0.209
-738.069	800.000	-0.168	0.547
-737.054	-23.493	-0.154	-0.094
-736.039	31.591	-0.105	-0.091
-735.025	800.000	-0.048	0.167
-734.010	800.000	0.056	-0.203
-732.996	-93.283	0.141	0.040
-731.981	30.844	0.133	-0.115
-730.966	77.777	-0.076	0.082
-729.952	-94.601	-0.123	0.034
-728.937	-47.578	0.249	0.123
-727.923	-111.342	-0.376	0.078
-726.908	-68.055	-0.240	0.095
-725.894	-127.856	-0.145	-0.021
-724.879	103.431	-0.355	-0.423
-723.864	300.432	0.011	-0.020
-722.850	-109.708	-0.092	0.020
-721.835	-60.918	-0.170	-0.073
-720.821	-119.254	-0.187	-0.033
-719.806	255.064	0.153	-0.265
-718.791	-200.000	0.024	-0.186
-717.777	-128.722	-0.222	0.032
-716.762	513.307	0.203	-0.479
-715.748	-118.369	0.186	-0.034
-714.733	-128.297	-0.289	0.042
-713.718	5.760	-0.110	0.082
-712.704	-149.897	-0.033	0.003
-711.689	-80.456	-0.158	0.053
-710.675	-107.489	-0.208	-0.046
-709.660	-136.396	0.226	0.027
-708.645	-169.533	-0.294	-0.011
-707.631	-98.995	-0.263	0.068
-706.616	48.276	-0.075	-0.072
-705.602	-188.062	-0.125	0.002
-704.587	189.630	0.037	-0.057
-703.572	-162.513	-0.335	-0.017
-702.558	-149.452	-0.415	-0.033
-701.543	45.126	-0.067	0.063
-700.529	-32.030	-0.008	-0.004
-699.514	6.493	-0.392	-0.295
-698.499	-162.355	0.380	-0.019
-697.485	-70.602	-0.241	0.092
-696.470	-36.617	0.438	-0.239
-695.456	-90.426	0.259	-0.076
-694.441	181.166	-0.204	0.303
-693.426	4.387	-0.261	0.194
-692.412	-113.874	-0.178	-0.035
-691.397	-200.000	-0.031	-0.278
-690.383	241.842	0.155	-0.263
-689.368	-200.000	-0.016	0.100
-688.354	-200.000	-0.046	-0.251
-687.339	138.592	0.088	-0.117
-686.324	-25.346	-0.249	-0.149
-685.310	1.309	-0.133	-0.097
-684.295	67.700	-0.276	0.286
-683.281	-200.000	0.014	0.158
-682.266	171.338	0.183	-0.266
-681.251	610.021	-0.099	-0.251
-680.237	-200.000	0.033	0.264
-679.222	-137.001	-0.270	-0.031
-678.208	155.470	0.123	0.172
-677.193	86.083	-0.047	-0.052
-676.178	83.420	0.141	-0.156
-675.164	-18.011	0.131	-0.083
-674.149	-122.335	0.124	0.020
-673.135	403.821	0.130	0.277
-672.120	-126.391	0.261	-0.039
-671.105	-117.290	-0.228	-0.042
-670.091	-83.061	0.125	0.041
-669.076	-3.442	0.258	0.182
-668.062	-44.030	-0.292	-0.149
-667.047	800.000	0.068	-0.247
-666.032	28.606	-0.176	-0.151
-665.018	-200.000	0.002	0.247
-664.003	-86.737	-0.123	0.038
-662.989	678.919	0.116	0.305
-661.974	-1.775	-0.541	-0.386
-660.959	-52.301	0.160	0.075
-659.945	-70.509	-0.209	-0.080
-658.930	-200.000	0.006	0.465
-657.916	633.218	-0.030	0.077
-656.901	-200.000	-0.011	0.256
-655.886	160.084	-0.032	-0.045
-654.872	315.858	-0.103	-0.196
-653.857	768.402	-0.100	-0.274
-652.843	-151.732	0.169	0.013
-651.828	-96.371	-0.106	-0.028
-650.814	32.035	-0.279	-0.243
-649.799	474.732	0.053	-0.120
-648.784	-200.000	0.004	0.073
-647.770	-98.653	-0.275	-0.071
-646.755	79.017	-0.317	0.344
-645.741	45.765	-0.117	-0.109
-644.726	800.000	0.051	-0.222
-643.711	563.111	-0.165	0.404
-642.697	-191.034	-0.056	0.001
-641.682	270.785	-0.047	-0.084
-640.668	-125.838	-0.208	0.032
-639.653	-79.784	0.053	0.018
-638.638	-63.541	-0.299	-0.124
-637.624	-91.329	-0.042	-0.012
-636.609	48.899	-0.253	-0.240
-635.595	-200.000	0.005	-0.239
-634.580	16.340	0.378	-0.302
-633.565	-27.696	-0.502	-0.294
-632.551	800.000	0.036	0.156
-631.536	-23.896	0.163	0.099
-630.522	263.029	-0.143	0.251
-629.507	800.000	0.045	-0.180
-628.492	800.000	0.027	0.092
-627.478	259.694	0.151	0.263
-626.463	800.000	0.073	0.254
-625.449	-200.000	0.064	-0.342
-624.434	368.908	0.098	0.201
-623.419	-106.109	-0.257	-0.058
-622.405	27.296	0.222	-0.189
-621.390	800.000	0.022	-0.095
-620.376	-17.555	-0.104	0.066
-619.361	-200.000	-0.015	-0.298
-618.346	-119.333	0.306	0.054
-617.332	-132.281	-0.214	0.028
-616.317	245.634	0.124	0.210
-615.303	581.106	-0.084	0.209
-614.288	-116.218	-0.261	-0.049
-613.273	-58.254	-0.202	0.089
-612.259	-173.141	-0.096	-0.003
-611.244	800.000	-0.004	-0.018
-610.230	800.000	-0.053	-0.223
-609.215	104.340	0.234	-0.279
-608.201	-154.160	0.314	0.021
-607.186	207.880	-0.069	-0.108
-606.171	-200.000	0.007	-0.173
-605.157	255.781	-0.138	0.239
-604.142	76.624	-0.238	0.255
-603.128	178.314	-0.237	-0.349
-602.113	56.863	0.357	0.351
-601.098	225.884	0.101	-0.166
-600.084	-17.932	-0.227	-0.144
-599.069	-68.827	-0.124	0.048
-598.055	306.620	-0.116	0.217
-597.040	-99.823	-0.079	-0.020
-596.025	108.249	0.061	0.073
-595.011	89.633	0.181	0.203
-593.996	-2.863	-0.230	0.162
-592.982	650.107	0.012	-0.031
-591.967	800.000	0.061	-0.189
-590.952	-20.006	0.327	-0.204
-589.938	53.704	-0.138	-0.134
-588.923	800.000	-0.121	-0.356
-587.909	-35.961	0.126	-0.069
-586.894	800.000	0.116	-0.336
-585.879	-200.000	0.003	0.197
-584.865	507.145	-0.056	-0.132
-583.850	-93.565	0.311	-0.087
-582.836	-26.874	0.204	-0.120
-581.821	-95.314	-0.258	-0.070
-580.806	256.637	0.201	-0.348
-579.792	173.969	0.051	0.075
-578.777	-198.833	0.139	-0.001
-577.763	-79.967	-0.236	0.080
-576.748	65.499	0.200	-0.204
-575.733	-169.667	-0.182	0.007
-574.719	449.945	-0.110	-0.246
-573.704	338.056	0.195	-0.382
-572.690	16.136	0.212	-0.168
-571.675	-75.214	-0.270	-0.097
-570.661	179.839	0.136	0.200
-569.646	629.700	-0.120	-0.306
-568.631	-118.979	-0.102	-0.018
-567.617	152.877	0.090	-0.124
-566.602	-194.992	-0.158	-0.001
-565.588	-200.000	-0.044	-0.228
-564.573	117.767	0.121	0.150
-563.558	48.534	-0.281	-0.266
-562.544	-4.034	0.314	-0.220
-561.529	-89.242	-0.179	0.053
-560.515	-108.774	-0.247	-0.053
-559.500	-200.000	0.100	-0.643
-558.485	217.029	-0.157	-0.252
-557.471	30.671	0.143	0.123
-556.456	-200.000	-0.011	-0.127
-555.442	-200.000	0.019	0.152
-554.427	12.600	0.178	0.139
-553.412	-158.554	-0.258	-0.015
-552.398	800.000	0.044	0.162
-551.383	800.000	-0.035	0.109
-550.369	31.754	-0.163	-0.142
-549.354	-200.000	-0.027	0.154
-548.339	800.000	0.069	0.256
-547.325	-200.000	-0.030	0.151
-546.310	800.000	-0.050	-0.167
-545.296	-200.000	0.009	0.074
-544.281	-200.000	0.078	0.525
-543.266	516.656	-0.113	0.266
-542.252	-93.466	0.178	-0.050
-541.237	-49.463	0.240	-0.115
-540.223	173.289	0.220	-0.319
-539.208	72.824	-0.192	-0.202
-538.193	228.663	0.033	0.053
-537.179	-155.991	-0.167	-0.011
-536.164	149.818	-0.126	-0.172
-535.150	-27.978	-0.080	-0.046
-534.135	-69.277	-0.179	0.069
-533.121	-139.682	0.191	-0.020
-532.106	53.435	0.171	-0.165
-531.091	434.973	0.065	0.142
-530.077	-72.218	-0.341	-0.127
-529.062	17.398	-0.159	0.127
-528.048	-152.998	0.267	0.019
-527.033	-155.081	0.168	0.011
-526.018	-62.658	-0.238	-0.100
-525.004	107.402	-0.070	-0.084
-523.989	-3.660	0.213	-0.149
-522.975	161.581	0.082	-0.116
-521.960	-31.820	-0.178	0.100
-520.945	33.371	-0.231	0.202
-519.931	-110.859	0.164	-0.034
-518.916	-84.189	-0.286	0.091
-517.902	-84.093	0.183	-0.059
-516.887	-188.739	-0.121	-0.001
-515.872	-6.375	-0.170	-0.117
-514.858	-16.613	-0.094	-0.060
-513.843	-28.890	0.111	-0.064
-512.829	-15.654	-0.418	0.268
-511.814	-0.693	-0.153	-0.109
-510.799	102.558	-0.294	0.346
-509.785	-128.836	0.054	-0.008
-508.770	248.178	0.048	0.082
-507.756	267.998	-0.074	0.130
-506.741	800.000	0.059	-0.172
-505.726	91.587	-0.133	0.151
-504.712	-40.418	-0.167	0.087
-503.697	62.205	0.083	0.083
-502.683	-129.128	0.152	0.021
-501.668	-140.734	0.153	-0.016
-500.653	228.749	-0.147	-0.241
-499.639	800.000	-0.096	0.292
-498.624	307.550	0.031	-0.058
-497.610	62.846	0.153	-0.154
-496.595	58.199	0.382	-0.377
-495.581	617.118	0.113	-0.284
-494.566	-60.004	-0.359	0.154
-493.551	-120.170	0.165	0.028
-492.537	-118.006	-0.237	-0.043
-491.522	-147.040	-0.058	0.005
-490.508	-200.000	0.046	-0.406
-489.493	-134.455	-0.111	-0.014
-488.478	-121.514	0.644	-0.108
-487.464	-16.626	0.240	0.153
-486.449	-3.232	-0.056	-0.039
-485.435	800.000	-0.014	-0.060
-484.420	-99.502	0.100	0.025
-483.405	-113.405	0.280	0.055
-482.391	-74.329	0.376	0.136
-481.376	214.674	0.149	-0.236
-480.362	800.000	0.053	-0.189
-479.347	-200.000	0.035	0.269
-478.332	-167.650	-0.048	-0.002
-477.318	95.525	-0.087	-0.100
-476.303	800.000	-0.060	-0.196
-475.289	-200.000	0.016	-0.194
-474.274	-5.110	0.157	0.109
-473.259	-65.439	0.113	0.045
-472.245	800.000	0.034	0.116
-471.230	-46.795	0.064	-0.032
-470.216	203.296	0.095	0.147
-469.201	478.755	-0.054	-0.122
-468.186	-10.870	0.134	-0.089
-467.172	19.440	0.215	-0.174
-466.157	162.164	0.196	-0.276
-465.143	-152.235	0.080	-0.006
-464.128	-124.827	-0.163	-0.025
-463.113	-95.821	-0.206	-0.055
-462.099	-68.143	0.112	0.044
-461.084	220.336	-0.090	0.144
-460.070	384.935	0.156	0.322
-459.055	-200.000	0.007	-0.165
-458.040	69.705	0.178	-0.184
-457.026	-81.782	-0.254	0.084
-456.011	338.867	-0.016	0.031
-454.997	-134.952	0.293	-0.036
-453.982	27.821	-0.354	0.299
-452.968	277.801	0.203	0.362
-451.953	171.897	-0.220	0.317
-450.938	-81.000	0.022	0.007
-449.924	-133.344	0.133	-0.017
-448.909	-24.825	-0.093	-0.056
-447.895	-167.996	-0.174	0.007
-446.880	254.320	-0.128	-0.219
-445.865	-172.880	-0.171	0.005
-444.851	221.364	0.141	0.227
-443.836	-200.000	0.048	-0.307
-442.822	-40.328	-0.248	-0.129
-441.807	-200.000	-0.009	0.108
-440.792	-200.000	0.023	-0.141
-439.778	91.045	0.029	-0.033
-438.763	-174.508	-0.293	0.008
-437.749	-32.468	0.077	0.043
-436.734	2.776	0.131	0.095
-435.719	800.000	0.061	-0.221
-434.705	293.522	-0.143	0.262
-433.690	420.372	-0.151	-0.325
-432.676	136.663	-0.016	0.021
-431.661	289.392	0.142	0.259
-430.646	-200.000	0.013	0.161
-429.632	800.000	0.079	0.318
-428.617	-200.000	-0.035	-0.281
-427.603	205.068	0.179	-0.279
-426.588	-6.250	-0.098	0.067
-425.573	800.000	-0.079	0.324
-424.559	-77.003	0.351	-0.123
-423.544	-136.302	0.200	-0.023
-422.530	-200.000	-0.009	0.047
-421.515	800.000	-0.065	-0.281
-420.500	63.875	0.153	0.155
-419.486	-105.400	-0.387	0.088
-418.471	-200.000	-0.028	-0.339
-417.457	-64.879	-0.271	-0.110
-416.442	-138.882	0.272	-0.030
-415.428	-200.000	-0.006	-0.184
-414.413	391.253	-0.098	-0.204
-413.398	800.000	-0.074	0.238
-412.384	-68.367	-0.199	0.077
-411.369	-200.000	-0.054	0.316
-410.355	-129.721	-0.154	-0.021
-409.340	260.797	0.242	-0.420
-408.325	40.620	0.152	-0.138
-407.311	-73.838	-0.293	0.107
-406.296	340.349	0.072	0.142
-405.282	-91.633	0.151	-0.043
-404.267	-88.857	0.213	-0.063
-403.252	58.766	0.069	0.068
-402.238	-37.676	-0.320	0.171
-401.223	27.210	-0.071	-0.060
-400.209	-11.479	0.130	0.085
-399.194	14.506	-0.243	0.190
-398.179	-47.901	0.134	-0.065
-397.165	-97.457	0.240	-0.063
-396.150	-24.659	0.009	0.005
-395.136	-200.000	-0.013	-0.169
-394.121	-70.065	-0.210	0.080
-393.106	-200.000	0.020	-0.342
-392.092	-143.129	-0.407	-0.039
-391.077	77.682	-0.263	-0.280
-390.063	-57.588	-0.431	-0.189
-389.048	620.976	0.094	0.236
-388.033	-6.361	-0.087	0.059
-387.019	-200.000	-0.049	-0.299
-386.004	-4.243	-0.120	-0.083
-384.990	-51.024	-0.152	-0.071
-383.975	92.799	-0.204	0.230
-382.960	28.797	-0.254	0.215
-381.946	-62.212	0.105	0.044
-380.931	-27.589	-0.195	0.113
-379.917	-62.994	-0.103	0.043
-378.902	-200.000	-0.004	0.253
-377.888	-200.000	0.008	0.313
-376.873	-186.872	0.043	-0.001
-375.858	-164.148	-0.264	-0.012
-374.844	-200.000	-0.013	0.065
-373.829	-44.993	-0.115	0.057
-372.815	652.484	0.050	0.128
-371.800	181.600	-0.149	0.220
-370.785	-82.987	0.135	0.044
-369.771	115.481	0.199	0.244
-368.756	-7.545	0.095	-0.065
-367.742	10.082	-0.155	0.118
-366.727	68.532	0.119	-0.122
-365.712	721.069	-0.110	0.294
-364.698	-200.000	-0.031	0.171
-363.683	-200.000	-0.027	0.422
-362.669	-60.849	-0.358	0.152
-361.654	-43.089	0.060	-0.030
-360.639	-64.703	0.401	0.162
-359.625	48.819	-0.146	0.137
-358.610	94.914	-0.203	0.231
-357.596	-200.000	-0.005	-0.100
-356.581	-57.441	-0.232	0.102
-355.566	-200.000	-0.007	0.211
-354.552	800.000	-0.052	0.217
-353.537	15.994	0.271	-0.214
-352.523	-200.000	-0.001	0.115
-351.508	-133.546	-0.029	-0.004
-350.493	444.178	0.066	0.144
-349.479	-7.715	0.089	-0.060
-348.464	157.938	-0.203	0.282
-347.450	-200.000	0.056	0.306
-346.435	-34.604	0.083	0.045
-345.420	48.600	0.011	-0.010
-344.406	94.854	-0.193	0.220
-343.391	-87.102	-0.205	0.062
-342.377	-53.331	0.116	0.053
-341.362	433.064	0.115	-0.248
-340.348	208.034	0.088	0.138
-339.333	-16.047	0.179	0.114
-338.318	70.051	-0.340	-0.350
-337.304	140.115	-0.108	-0.142
-336.289	800.000	-0.039	-0.153
-335.275	-150.416	0.105	-0.008
-334.260	800.000	-0.040	0.170
-333.245	-144.482	0.195	0.018
-332.231	-200.000	-0.034	-0.256
-331.216	442.508	0.034	0.075
-330.202	45.387	0.219	-0.202
-329.187	-154.268	-0.147	0.010
-328.172	220.973	-0.028	-0.045
-327.158	-78.243	0.265	-0.091
-326.143	-26.838	0.249	-0.146
-325.129	-36.712	-0.132	0.071
-324.114	-200.000	-0.017	-0.139
-323.099	-40.062	-0.069	-0.036
-322.085	-147.067	0.369	0.032
-321.070	-47.591	-0.265	-0.128
-320.056	-103.990	0.325	0.076
-319.041	136.231	-0.047	-0.061
-318.026	121.341	-0.121	-0.151
-317.012	253.709	-0.069	0.118
-315.997	462.134	-0.260	0.580
-314.983	195.374	-0.180	0.273
-313.968	-92.538	-0.028	0.008
-312.953	-100.132	0.346	0.086
-311.939	-108.975	-0.512	0.109
-310.924	800.000	-0.051	0.207
-309.910	800.000	-0.068	-0.224
-308.895	166.322	0.066	-0.094
-307.880	746.476	0.085	-0.230
-306.866	-41.227	0.128	-0.066
-305.851	-68.990	0.289	0.111
-304.837	281.472	-0.125	0.224
-303.822	65.886	0.158	0.160
-302.807	-200.000	0.017	0.305
-301.793	92.012	-0.080	0.090
-300.778	-200.000	0.026	-0.302
-299.764	82.373	-0.152	-0.165
-298.749	-200.000	0.019	-0.227
-297.735	554.418	-0.059	-0.142
-296.720	-61.237	0.203	0.086
-295.705	-129.143	-0.153	0.021
-294.691	523.936	-0.094	-0.221
-293.676	-200.000	0.037	0.194
-292.662	-135.296	0.042	0.005
-291.647	-118.756	-0.153	0.027
-290.632	99.279	0.216	-0.249
-289.618	800.000	-0.039	0.152
-288.603	800.000	-0.084	0.361
-287.589	19.264	0.145	0.116
-286.574	296.212	0.160	0.293
-285.559	-200.000	0.007	-0.374
-284.545	8.567	0.125	-0.094
-283.530	-89.671	-0.072	-0.021
-282.516	0.639	-0.139	-0.099
-281.501	55.615	0.149	0.144
-280.486	-200.000	0.028	0.240
-279.472	656.244	0.033	0.084
-278.457	800.000	-0.055	0.161
-277.443	-103.894	0.158	-0.037
-276.428	245.653	-0.099	0.166
-275.413	-200.000	-0.001	-0.157
-274.399	434.689	0.154	0.333
-273.384	-155.330	0.213	-0.014
-272.370	-7.504	-0.013	-0.009
-271.355	255.614	0.059	0.100
-270.340	-124.355	-0.274	-0.043
-269.326	-68.808	-0.142	-0.055
-268.311	800.000	-0.132	-0.368
-267.297	-60.386	-0.097	-0.041
-266.282	800.000	-0.055	0.234
-265.267	800.000	-0.029	0.089
-264.253	70.807	0.107	0.111
-263.238	-72.852	0.199	-0.073
-262.224	61.810	0.335	0.333
-261.209	-118.129	-0.031	0.005
-260.195	660.286	-0.133	0.342
-259.180	88.327	-0.090	-0.099
-258.165	800.000	-0.034	0.148
-257.151	-200.000	-0.000	-0.016
-256.136	3.552	-0.133	-0.097
-255.122	-200.000	-0.056	-0.301
-254.107	153.972	0.075	0.102
-253.092	-87.338	0.092	-0.028
-252.078	-200.000	0.090	-0.451
-251.063	-49.447	0.198	0.094
-250.049	-90.905	-0.152	0.044
-249.034	7.293	0.174	-0.130
-248.019	-200.000	0.045	0.367
-247.005	7.251	-0.364	0.271
-245.990	-121.421	0.067	-0.011
-244.976	-200.000	0.015	-0.419
-243.961	-200.000	0.019	0.241
-242.946	-42.949	0.341	0.172
-241.932	712.569	-0.016	0.043
-240.917	139.051	0.123	0.161
-239.903	-37.514	-0.263	-0.140
-238.888	800.000	-0.006	-0.027
-237.873	90.030	-0.120	-0.133
-236.859	-12.343	-0.426	-0.277
-235.844	-29.296	-0.131	-0.075
-234.830	533.390	-0.076	0.178
-233.815	-200.000	0.029	0.297
-232.800	-40.569	-0.090	0.047
-231.786	-30.582	-0.138	-0.078
-230.771	-200.000	0.038	0.403
-229.757	800.000	0.096	0.367
-228.742	256.003	-0.062	-0.106
-227.727	-200.000	-0.007	0.110
-226.713	-105.418	0.109	-0.025
-225.698	504.101	0.064	-0.146
-224.684	-200.000	0.005	0.333
-223.669	125.563	0.070	-0.088
-222.655	-114.404	-0.162	0.031
-221.640	243.466	0.203	0.339
-220.625	-200.000	-0.000	-0.255
-219.611	111.624	-0.132	-0.159
-218.596	96.625	0.059	0.068
-217.582	-139.815	0.384	-0.041
-216.567	6.682	0.322	-0.238
-215.552	721.420	0.049	-0.130
-214.538	591.682	0.144	-0.353
-213.523	215.757	0.105	-0.165
-212.509	-39.120	0.184	-0.096
-211.494	-4.767	0.038	0.026
-210.479	26.887	0.132	-0.110
-209.465	-200.000	-0.019	0.266
-208.450	-91.007	0.325	-0.093
-207.436	-200.000	-0.034	0.234
-206.421	-43.491	0.563	-0.283
-205.406	-135.030	-0.149	0.018
-204.392	-32.108	-0.081	-0.045
-203.377	143.912	-0.131	0.174
-202.363	-90.821	0.214	-0.061
-201.348	800.000	-0.110	-0.340
-200.333	-149.124	0.244	-0.019
-199.319	-150.379	-0.231	-0.018
-198.304	99.438	-0.308	0.354
-197.290	-47.043	0.156	0.076
-196.275	-52.386	-0.282	0.130
-195.260	515.564	-0.054	-0.126
-194.246	165.103	0.234	0.328
-193.231	800.000	-0.009	-0.028
-192.217	-5.813	0.239	0.162
-191.202	-52.658	0.123	-0.056
-190.187	15.460	-0.169	-0.132
-189.173	-59.462	0.178	0.076
-188.158	-28.209	-0.119	0.068
-187.144	-200.000	-0.031	-0.140
-186.129	-110.491	0.104	-0.021
-185.114	77.425	0.214	-0.227
-184.100	-200.000	0.003	-0.305
-183.085	-56.373	0.146	0.065
-182.071	-133.111	-0.077	-0.010
-181.056	12.592	0.170	0.130
-180.042	242.667	0.092	-0.152
-179.027	138.429	0.092	0.120
-178.012	800.000	-0.049	-0.156
-176.998	-141.576	-0.389	0.039
-175.983	-115.347	0.233	0.044
-174.969	800.000	0.024	-0.084
-173.954	-168.676	0.354	-0.013
-172.939	323.985	-0.294	-0.557
-171.925	800.000	0.094	-0.307
-170.910	507.858	0.128	0.294
-169.896	-93.379	0.276	-0.076
-168.881	-122.394	0.178	0.029
-167.866	-46.416	0.282	0.137
-166.852	-156.748	-0.095	-0.006
-165.837	-30.603	0.093	0.052
-164.823	-200.000	0.028	-0.405
-163.808	171.368	0.133	-0.189
-162.793	-8.955	-0.113	0.075
-161.779	800.000	0.082	0.326
-160.764	-88.937	0.033	-0.010
-159.750	-200.000	0.083	0.532
-158.735	-200.000	-0.000	0.263
-157.720	223.876	-0.212	-0.340
-156.706	-86.107	0.198	-0.061
-155.691	-137.399	0.018	0.002
-154.677	-200.000	0.047	0.267
-153.662	51.859	-0.237	0.224
-152.647	5.591	0.100	0.074
-151.633	12.778	0.210	-0.161
-150.618	-90.602	-0.147	-0.042
-149.604	-101.365	-0.257	0.062
-148.589	-46.043	0.197	-0.096
-147.574	-86.228	0.113	-0.034
-146.560	-200.000	0.013	-0.114
-145.545	362.696	-0.100	-0.198
-144.531	447.402	-0.091	-0.199
-143.516	-124.876	0.185	0.028
-142.502	-0.672	-0.348	-0.245
-141.487	-17.530	-0.186	-0.116
-140.472	59.603	0.126	-0.123
-139.458	35.520	0.088	-0.077
-138.443	79.554	-0.216	0.230
-137.429	-62.759	0.041	-0.017
-136.414	-200.000	-0.028	0.199
-135.399	53.161	-0.055	-0.052
-134.385	-122.140	0.450	0.073
-133.370	768.742	-0.028	0.076
-132.356	800.000	-0.035	-0.114
-131.341	399.318	-0.161	-0.334
-130.326	124.488	-0.083	-0.103
-129.312	-129.837	0.164	-0.022
-128.297	-172.224	0.192	-0.006
-127.283	-80.793	0.279	0.092
-126.268	-59.622	-0.255	-0.109
-125.253	58.861	0.358	-0.349
-124.239	17.116	-0.109	0.086
-123.224	109.882	0.144	0.171
-122.210	342.900	0.151	0.293
