DTS Sentinel unit serial number:	SN413079Multiplexer serial number:	ORYXHardware model number:	OX4-SRSoftware version number:	ORYX F/W v4.00 Oryx Data Collector v3.7.2.0data status	okinstallation	princeton_trtdifferential loss correction	single-endedforward channel	channel 4reverse channel	N/Adate	2019/09/15time	22:33:35forward acquisition time	60.00reverse acquisition time	0.00gamma	496.2192k internal	0.2320k external	0.2320temperature offset calibration	0.9954default loss term (dB/km)	0.3790temperature slope calibration	1.0000multiplexer offset coefficient	1.0000multiplexer slope coefficient	1.0000fibre end	0.00T internal ref (°C)	29.06T ext. ref 1 (°C)	8.79T ext. ref 2 (°C)	22.53length (m)	temperature (°C)	Stokes	anti-Stokes-747.200	-200.000	-0.009	0.262
-746.185	18.915	-0.178	0.145
-745.171	-161.202	-0.244	-0.013
-744.156	-124.201	0.289	0.046
-743.142	-62.187	0.253	-0.107
-742.127	-200.000	0.005	-0.029
-741.112	800.000	-0.047	0.144
-740.098	-71.444	-0.223	-0.085
-739.083	21.184	0.365	0.300
-738.069	6.635	0.235	0.177
-737.054	122.016	-0.179	0.226
-736.039	-89.365	-0.286	-0.085
-735.025	-17.886	0.097	-0.062
-734.010	-53.546	-0.251	-0.116
-732.996	186.341	-0.227	-0.342
-731.981	-107.179	0.128	0.028
-730.966	342.593	0.166	0.327
-729.952	-185.629	0.302	0.005
-728.937	-76.265	-0.417	0.149
-727.923	-102.497	0.190	-0.046
-726.908	-36.895	-0.006	-0.003
-725.894	8.012	-0.179	-0.135
-724.879	-7.184	0.206	0.141
-723.864	-32.413	-0.249	0.140
-722.850	336.885	0.148	0.291
-721.835	211.022	0.071	0.113
-720.821	-68.277	-0.169	-0.067
-719.806	-122.680	-0.243	0.040
-718.791	-200.000	0.026	0.177
-717.777	-22.013	-0.163	0.100
-716.762	384.937	-0.112	0.233
-715.748	800.000	-0.123	0.419
-714.733	-141.415	0.231	-0.024
-713.718	102.203	0.108	0.127
-712.704	800.000	0.121	-0.374
-711.689	-35.733	-0.326	0.179
-710.675	-172.202	0.162	-0.005
-709.660	-200.000	-0.006	0.190
-708.645	800.000	0.097	0.307
-707.631	-23.857	-0.150	-0.091
-706.616	-15.248	-0.103	-0.066
-705.602	-143.545	-0.160	-0.015
-704.587	448.282	-0.058	-0.130
-703.572	-151.368	-0.176	0.013
-702.558	70.167	-0.059	-0.061
-701.543	-103.035	0.487	-0.116
-700.529	-135.069	0.057	-0.007
-699.514	144.378	-0.161	-0.217
-698.499	-200.000	0.008	0.308
-697.485	-64.804	-0.164	-0.067
-696.470	516.842	0.086	0.202
-695.456	10.196	0.116	-0.089
-694.441	-31.397	0.106	-0.060
-693.426	204.398	-0.182	0.285
-692.412	-79.613	-0.364	0.124
-691.397	57.412	0.206	0.203
-690.383	14.343	0.226	-0.178
-689.368	130.237	-0.171	0.221
-688.354	711.963	0.076	-0.202
-687.339	260.468	0.117	0.205
-686.324	267.221	0.238	-0.420
-685.310	221.305	-0.060	0.097
-684.295	-200.000	-0.004	0.221
-683.281	-200.000	-0.028	0.146
-682.266	-200.000	-0.028	-0.132
-681.251	-74.977	0.113	0.041
-680.237	-122.296	0.225	-0.037
-679.222	-160.195	-0.141	-0.008
-678.208	-62.067	0.210	0.089
-677.193	-200.000	-0.059	-0.301
-676.178	-178.154	-0.209	0.005
-675.164	800.000	0.105	0.365
-674.149	65.584	-0.153	0.156
-673.135	705.908	0.056	-0.150
-672.120	-104.027	-0.372	0.087
-671.105	-71.941	0.408	-0.153
-670.091	-169.756	-0.341	0.012
-669.076	-200.000	-0.029	0.231
-668.062	-200.000	-0.069	0.375
-667.047	-73.564	-0.076	-0.028
-666.032	-6.433	-0.263	0.181
-665.018	19.982	-0.176	-0.143
-664.003	-200.000	0.009	-0.128
-662.989	800.000	0.109	0.412
-661.974	-200.000	-0.026	-0.179
-660.959	-200.000	0.023	-0.169
-659.945	565.103	0.124	0.303
-658.930	-43.280	-0.045	0.023
-657.916	-58.958	-0.205	0.089
-656.901	-88.548	-0.274	0.082
-655.886	-144.412	0.088	-0.008
-654.872	-80.315	-0.196	-0.066
-653.857	382.817	0.104	-0.216
-652.843	-200.000	0.055	-0.298
-651.828	115.981	0.085	0.104
-650.814	393.132	-0.037	0.078
-649.799	-51.641	-0.088	-0.041
-648.784	-150.048	0.151	-0.012
-647.770	-91.390	0.213	0.061
-646.755	-109.741	-0.233	0.049
-645.741	8.445	0.186	-0.141
-644.726	-30.146	0.096	0.055
-643.711	-160.711	-0.221	-0.012
-642.697	-51.148	-0.157	-0.074
-641.682	-43.972	0.102	0.051
-640.668	-200.000	0.006	-0.097
-639.653	-44.789	-0.197	0.099
-638.638	-200.000	-0.022	-0.455
-637.624	800.000	-0.080	-0.242
-636.609	-200.000	-0.039	0.220
-635.595	55.714	0.159	0.155
-634.580	-200.000	0.096	-0.438
-633.565	100.390	0.117	-0.137
-632.551	252.884	-0.111	0.190
-631.536	-76.263	0.003	-0.001
-630.522	170.913	0.274	0.395
-629.507	93.512	0.118	0.135
-628.492	84.673	0.087	-0.096
-627.478	-200.000	-0.020	0.117
-626.463	177.530	-0.120	-0.176
-625.449	-57.515	0.326	-0.144
-624.434	-200.000	-0.080	0.372
-623.419	389.865	-0.086	-0.179
-622.405	-133.243	0.611	-0.078
-621.390	-65.588	0.414	-0.167
-620.376	-20.769	-0.192	-0.118
-619.361	-200.000	-0.008	-0.163
-618.346	-31.121	0.086	0.049
-617.332	421.640	-0.151	-0.325
-616.317	87.575	0.168	-0.187
-615.303	-155.370	0.201	-0.013
-614.288	-200.000	0.024	-0.144
-613.273	-28.399	0.296	0.172
-612.259	182.521	-0.095	0.140
-611.244	-200.000	0.001	0.092
-610.230	-25.896	0.166	-0.098
-609.215	140.146	-0.242	-0.321
-608.201	207.786	0.212	-0.332
-607.186	-0.741	-0.226	0.161
-606.171	-136.546	-0.304	-0.035
-605.157	256.594	-0.252	0.435
-604.142	-127.561	-0.091	-0.013
-603.128	148.489	0.105	-0.143
-602.113	-77.756	0.134	-0.047
-601.098	-13.994	-0.223	0.145
-600.084	294.529	-0.064	-0.118
-599.069	-30.202	-0.288	0.164
-598.055	203.290	0.161	0.250
-597.040	-200.000	0.291	0.000
-596.025	-200.000	-0.038	-0.205
-595.011	381.529	0.119	0.246
-593.996	186.999	-0.084	0.126
-592.982	629.119	0.010	0.024
-591.967	273.226	-0.105	-0.186
-590.952	-200.000	0.045	-0.242
-589.938	-116.439	0.149	0.028
-588.923	-62.053	0.133	0.056
-587.909	-5.853	0.053	0.037
-586.894	-200.000	0.067	-0.466
-585.879	-200.000	-0.047	-0.352
-584.865	-7.900	0.266	0.180
-583.850	-160.787	0.427	0.023
-582.836	-28.468	-0.158	-0.092
-581.821	190.438	0.266	-0.402
-580.806	176.802	-0.179	-0.262
-579.792	134.918	-0.101	-0.132
-578.777	-18.554	0.116	0.073
-577.763	800.000	0.119	0.367
-576.748	-200.000	0.060	-0.267
-575.733	10.643	0.145	-0.111
-574.719	69.644	-0.067	-0.069
-573.704	-103.371	0.123	0.029
-572.690	401.251	0.094	-0.198
-571.675	-57.583	0.286	0.126
-570.661	-81.980	0.038	0.012
-569.646	-81.895	-0.306	0.100
-568.631	551.626	0.102	-0.245
-567.617	92.551	-0.162	0.183
-566.602	88.356	-0.167	-0.186
-565.588	304.258	-0.134	-0.250
-564.573	-179.537	0.132	0.003
-563.558	-62.235	-0.379	-0.158
-562.544	-200.000	0.052	0.300
-561.529	800.000	0.059	-0.210
-560.515	-31.407	0.151	-0.085
-559.500	157.232	-0.185	0.257
-558.485	147.037	0.180	0.243
-557.471	-200.000	0.012	0.245
-556.456	29.347	-0.193	-0.164
-555.442	-132.411	-0.082	-0.011
-554.427	107.605	0.340	0.406
-553.412	-200.000	-0.020	-0.400
-552.398	-139.608	0.234	0.025
-551.383	800.000	0.075	0.219
-550.369	-200.000	-0.007	0.066
-549.354	-152.086	-0.024	0.002
-548.339	-200.000	0.025	0.354
-547.325	-59.528	-0.343	0.148
-546.310	-61.975	0.172	-0.072
-545.296	800.000	-0.048	-0.179
-544.281	-64.507	-0.302	-0.123
-543.266	76.259	-0.142	-0.151
-542.252	227.534	0.128	-0.209
-541.237	5.371	0.155	-0.115
-540.223	428.368	-0.109	-0.237
-539.208	193.083	0.145	0.220
-538.193	-46.750	-0.221	-0.109
-537.179	800.000	-0.048	0.200
-536.164	800.000	-0.050	-0.178
-535.150	800.000	0.120	0.348
-534.135	-133.285	0.277	0.035
-533.121	-32.052	-0.277	-0.155
-532.106	-35.311	-0.085	0.047
-531.091	274.909	-0.144	0.255
-530.077	26.012	-0.104	-0.087
-529.062	788.305	0.044	0.121
-528.048	-125.196	0.123	-0.019
-527.033	-98.932	0.403	-0.103
-526.018	800.000	-0.026	0.088
-525.004	407.219	-0.091	-0.194
-523.989	-200.000	0.049	-0.294
-522.975	484.575	0.083	-0.188
-521.960	236.474	-0.058	0.096
-520.945	-72.724	0.428	-0.158
-519.931	128.751	-0.204	0.261
-518.916	800.000	-0.220	0.628
-517.902	-38.635	0.156	-0.083
-516.887	-61.412	-0.262	0.110
-515.872	-152.742	-0.545	0.039
-514.858	-28.846	-0.176	-0.102
-513.843	289.470	-0.124	-0.225
-512.829	-70.621	0.322	-0.122
-511.814	8.510	-0.162	0.122
-510.799	-24.162	-0.415	0.248
-509.785	-200.000	0.022	0.173
-508.770	-123.601	-0.226	0.036
-507.756	738.847	-0.038	0.103
-506.741	121.116	-0.121	0.151
-505.726	571.667	0.148	-0.360
-504.712	-52.020	-0.092	-0.043
-503.697	800.000	-0.082	0.265
-502.683	17.731	-0.188	-0.150
-501.668	-200.000	-0.002	0.178
-500.653	46.990	-0.141	-0.131
-499.639	169.782	-0.280	0.401
-498.624	86.170	-0.033	0.037
-497.610	-62.129	-0.126	0.053
-496.595	-200.000	-0.043	-0.319
-495.581	-56.959	-0.207	-0.091
-494.566	-200.000	-0.045	-0.473
-493.551	-200.000	-0.012	0.107
-492.537	563.932	-0.160	-0.388
-491.522	-88.843	0.295	0.088
-490.508	-44.039	0.390	-0.196
-489.493	-59.936	0.128	-0.055
-488.478	46.265	-0.105	0.097
-487.464	282.088	0.135	0.242
-486.449	63.116	-0.102	-0.103
-485.435	-60.275	-0.090	-0.039
-484.420	101.879	-0.036	-0.042
-483.405	73.953	-0.222	0.233
-482.391	-200.000	-0.004	0.030
-481.376	170.717	-0.098	0.140
-480.362	-200.000	0.003	0.350
-479.347	-200.000	-0.027	0.233
-478.332	-64.110	0.240	-0.098
-477.318	2.612	-0.213	-0.154
-476.303	196.235	0.076	0.115
-475.289	-110.366	0.142	-0.029
-474.274	177.855	0.215	-0.313
-473.259	-61.163	-0.076	-0.032
-472.245	-200.000	-0.050	0.224
-471.230	74.683	0.167	0.175
-470.216	-119.755	0.198	0.034
-469.201	-200.000	0.055	0.264
-468.186	162.027	-0.084	0.118
-467.172	-146.540	0.330	-0.029
-466.157	333.586	0.048	-0.093
-465.143	247.171	0.055	-0.094
-464.128	18.012	-0.007	0.006
-463.113	-200.000	-0.001	-0.033
-462.099	22.940	0.196	-0.160
-461.084	-66.490	0.258	-0.102
-460.070	800.000	-0.008	-0.032
-459.055	410.952	-0.061	0.130
-458.040	-168.206	-0.104	0.004
-457.026	-200.000	0.019	-0.263
-456.011	-95.487	0.075	-0.020
-454.997	-9.737	0.234	-0.156
-453.982	-122.680	-0.119	0.019
-452.968	-200.000	-0.019	0.152
-451.953	668.172	0.060	0.154
-450.938	-74.134	-0.050	-0.018
-449.924	-200.000	0.024	0.229
-448.909	-200.000	-0.041	0.198
-447.895	800.000	0.088	0.249
-446.880	-106.053	0.115	-0.026
-445.865	-116.111	0.383	0.071
-444.851	-7.889	-0.435	0.293
-443.836	-73.281	0.169	-0.062
-442.822	114.504	0.120	0.145
-441.807	800.000	-0.097	-0.407
-440.792	-118.240	-0.058	-0.010
-439.778	-200.000	0.021	0.180
-438.763	137.158	-0.184	-0.241
-437.749	-200.000	0.024	-0.231
-436.734	-47.125	0.096	0.047
-435.719	-200.000	0.010	-0.062
-434.705	118.277	-0.045	0.055
-433.690	387.781	0.078	0.162
-432.676	-107.221	0.195	-0.043
-431.661	-200.000	0.019	-0.162
-430.646	-129.740	0.443	-0.061
-429.632	-140.430	-0.144	-0.015
-428.617	-104.799	-0.584	-0.134
-427.603	-200.000	0.007	-0.214
-426.588	265.371	0.107	0.186
-425.573	95.927	-0.202	-0.231
-424.559	-113.699	-0.154	-0.030
-423.544	-200.000	-0.020	-0.261
-422.530	488.807	-0.117	0.266
-421.515	-113.997	-0.418	0.081
-420.500	66.185	-0.041	-0.042
-419.486	83.260	0.185	-0.201
-418.471	-10.504	-0.196	-0.129
-417.457	-200.000	0.002	0.330
-416.442	92.960	-0.130	-0.146
-415.428	-125.069	0.447	-0.069
-414.413	-200.000	-0.083	-0.389
-413.398	431.178	0.110	0.237
-412.384	800.000	-0.028	-0.085
-411.369	-19.235	-0.156	-0.096
-410.355	-192.979	-0.256	0.002
-409.340	-76.352	0.038	-0.013
-408.325	140.522	0.044	-0.058
-407.311	-96.359	0.267	-0.071
-406.296	800.000	-0.051	-0.210
-405.282	52.277	0.099	-0.094
-404.267	386.761	-0.063	0.130
-403.252	112.298	0.117	-0.141
-402.238	-200.000	-0.026	-0.116
-401.223	-151.066	0.127	0.010
-400.209	91.038	0.203	-0.227
-399.194	-22.362	0.021	0.012
-398.179	-200.000	-0.025	-0.138
-397.165	-153.722	-0.117	-0.008
-396.150	77.570	0.108	-0.115
-395.136	800.000	-0.066	0.272
-394.121	-46.138	0.255	-0.125
-393.106	56.168	0.265	0.256
-392.092	-71.831	-0.017	0.006
-391.077	-33.345	0.210	0.116
-390.063	424.685	-0.090	0.194
-389.048	227.172	-0.255	-0.413
-388.033	110.212	-0.168	-0.201
-387.019	800.000	0.071	0.205
-386.004	-200.000	-0.004	-0.150
-384.990	-24.610	0.060	-0.035
-383.975	714.175	-0.117	-0.311
-382.960	27.806	0.122	0.102
-381.946	-200.000	0.088	-0.420
-380.931	317.840	-0.101	-0.190
-379.917	800.000	0.028	0.112
-378.902	690.413	-0.119	-0.310
-377.888	240.778	0.104	-0.172
-376.873	221.063	-0.040	0.064
-375.858	800.000	-0.042	-0.168
-374.844	-101.760	-0.205	-0.049
-373.829	-200.000	-0.111	-0.626
-372.815	800.000	0.078	-0.273
-371.800	170.240	-0.156	0.222
-370.785	-69.406	-0.282	0.108
-369.771	50.533	-0.290	0.274
-368.756	324.840	0.095	-0.181
-367.742	-200.000	-0.009	0.057
-366.727	14.411	-0.123	0.096
-365.712	530.504	0.042	0.099
-364.698	800.000	-0.081	-0.236
-363.683	86.947	-0.140	0.154
-362.669	-200.000	0.038	0.544
-361.654	-16.699	0.197	0.124
-360.639	189.886	0.202	-0.302
-359.625	-177.622	0.401	-0.010
-358.610	-200.000	0.005	0.061
-357.596	20.343	0.070	-0.056
-356.581	-26.844	-0.169	-0.098
-355.566	-200.000	0.023	0.147
-354.552	735.836	-0.128	0.343
-353.537	98.501	-0.068	0.078
-352.523	304.711	-0.080	-0.147
-351.508	400.463	-0.094	0.196
-350.493	-89.496	-0.062	0.018
-349.479	-200.000	-0.022	-0.112
-348.464	-200.000	0.007	0.242
-347.450	7.679	0.112	-0.084
-346.435	800.000	0.032	0.109
-345.420	129.481	-0.112	-0.143
-344.406	-84.364	0.293	-0.092
-343.391	520.408	0.070	-0.164
-342.377	800.000	-0.084	-0.323
-341.362	-79.345	-0.290	-0.098
-340.348	-200.000	0.001	-0.044
-339.333	-101.989	0.050	-0.012
-338.318	515.830	-0.163	0.380
-337.304	-200.000	-0.020	0.123
-336.289	4.336	-0.242	0.177
-335.275	121.645	0.240	0.298
-334.260	-200.000	-0.001	0.291
-333.245	67.099	-0.061	-0.062
-332.231	-71.534	0.138	0.051
-331.216	400.273	-0.197	-0.411
-330.202	329.463	-0.105	-0.200
-329.187	289.233	-0.126	-0.228
-328.172	5.913	-0.292	-0.215
-327.158	367.215	-0.037	0.075
-326.143	-107.483	-0.013	-0.003
-325.129	195.921	0.105	0.159
-324.114	-200.000	0.008	0.217
-323.099	-200.000	0.013	0.142
-322.085	42.570	-0.326	0.295
-321.070	36.110	-0.297	0.260
-320.056	-200.000	0.018	0.136
-319.041	-99.417	-0.093	0.023
-318.026	386.922	0.048	-0.099
-317.012	-200.000	-0.018	0.414
-315.997	283.510	-0.094	0.168
-314.983	-149.096	-0.114	-0.009
-313.968	-62.864	-0.116	-0.048
-312.953	41.042	-0.203	0.182
-311.939	-128.195	0.100	0.014
-310.924	-3.901	-0.128	0.089
-309.910	53.742	-0.036	-0.034
-308.895	673.336	-0.038	0.099
-307.880	-116.342	0.289	0.053
-306.866	-200.000	0.035	-0.191
-305.851	198.701	-0.141	0.214
-304.837	-14.857	0.407	0.259
-303.822	55.739	-0.146	-0.140
-302.807	-4.989	-0.214	-0.147
-301.793	-200.000	-0.059	-0.444
-300.778	-200.000	0.067	0.397
-299.764	-44.812	0.206	-0.102
-298.749	22.788	-0.121	0.098
-297.735	-200.000	-0.017	0.168
-296.720	749.670	-0.033	-0.088
-295.705	68.025	0.053	0.054
-294.691	-200.000	0.000	0.093
-293.676	-43.177	-0.163	0.082
-292.662	202.240	-0.068	-0.104
-291.647	-12.381	-0.332	-0.216
-290.632	-193.362	0.145	0.001
-289.618	800.000	-0.025	0.082
-288.603	-99.348	-0.168	0.042
-287.589	18.153	0.232	-0.184
-286.574	42.212	0.082	0.074
-285.559	800.000	-0.062	0.181
-284.545	137.321	-0.184	-0.240
-283.530	247.342	0.115	0.192
-282.516	800.000	0.095	0.327
-281.501	-54.112	-0.242	0.109
-280.486	135.857	0.266	-0.344
-279.472	282.233	0.089	0.159
-278.457	449.673	-0.038	-0.084
-277.443	8.526	-0.373	-0.279
-276.428	-140.390	0.127	0.013
-275.413	-200.000	0.070	0.319
-274.399	-136.414	0.417	-0.048
-273.384	-124.551	0.283	0.044
-272.370	-200.000	0.009	-0.386
-271.355	-200.000	-0.002	-0.012
-270.340	-22.908	0.184	0.110
-269.326	8.879	0.202	0.151
-268.311	-151.299	-0.255	-0.019
-267.297	462.151	-0.218	-0.482
-266.282	800.000	-0.143	0.565
-265.267	58.882	0.227	-0.221
-264.253	654.223	0.123	0.313
-263.238	-16.200	-0.294	-0.185
-262.224	800.000	0.086	-0.258
-261.209	-200.000	0.009	-0.190
-260.195	-200.000	0.066	-0.296
-259.180	-38.825	0.032	-0.017
-258.165	800.000	-0.105	-0.403
-257.151	-139.677	-0.174	-0.018
-256.136	71.682	0.269	0.277
-255.122	-175.561	-0.292	0.008
-254.107	-200.000	0.043	-0.650
-253.092	3.032	-0.494	-0.356
-252.078	-200.000	0.003	-0.137
-251.063	102.679	-0.143	0.166
-250.049	7.175	0.060	-0.045
-249.034	353.423	0.095	0.186
-248.019	122.459	0.147	0.183
-247.005	-104.877	0.569	0.130
-245.990	-121.572	0.039	0.006
-244.976	800.000	0.032	0.105
-243.961	5.418	0.130	0.095
-242.946	-53.868	-0.271	0.122
-241.932	544.294	-0.046	-0.108
-240.917	800.000	-0.071	0.275
-239.903	-161.454	0.303	0.016
-238.888	4.128	-0.189	-0.137
-237.873	28.221	-0.190	0.159
-236.859	429.910	0.134	0.288
-235.844	-145.528	-0.378	0.034
-234.830	-200.000	0.025	0.342
-233.815	213.275	0.115	0.179
-232.800	800.000	0.067	-0.224
-231.786	271.942	-0.199	0.348
-230.771	128.070	-0.039	0.049
-229.757	1.194	0.159	-0.113
-228.742	-47.881	0.132	0.064
-227.727	-160.314	-0.124	0.007
-226.713	252.157	0.048	0.080
-225.698	-200.000	-0.086	0.404
-224.684	-200.000	0.001	0.233
-223.669	-200.000	0.003	-0.230
-222.655	285.379	-0.288	-0.514
-221.640	-163.297	-0.211	0.010
-220.625	-200.000	-0.031	0.306
-219.611	-200.000	0.011	0.107
-218.596	357.466	0.025	0.050
-217.582	395.453	-0.027	0.056
-216.567	-200.000	-0.018	-0.248
-215.552	-0.318	-0.365	0.257
-214.538	-200.000	0.008	0.090
-213.523	-111.994	-0.347	0.069
-212.509	-50.379	-0.235	0.110
-211.494	-71.714	0.168	-0.062
-210.479	109.806	0.142	0.169
-209.465	-122.941	0.204	-0.033
-208.450	34.403	0.069	-0.060
-207.436	-13.536	0.149	0.095
-206.421	-133.956	0.533	0.065
-205.406	-1.874	-0.123	-0.086
-204.392	516.486	-0.030	0.070
-203.377	-125.375	0.185	-0.028
-202.363	-200.000	0.004	-0.090
-201.348	-92.873	-0.265	0.073
-200.333	88.423	0.247	0.272
-199.319	-134.306	0.185	0.022
-198.304	-200.000	-0.005	0.076
-197.290	800.000	-0.104	-0.313
-196.275	405.465	0.110	0.230
-195.260	-200.000	0.029	-0.253
-194.246	-123.290	0.302	0.048
-193.231	-72.496	-0.018	0.007
-192.217	411.663	-0.116	-0.244
-191.202	800.000	0.052	0.188
-190.187	-200.000	0.071	0.325
-189.173	87.945	-0.232	-0.254
-188.158	-200.000	-0.042	0.282
-187.144	-200.000	-0.013	-0.157
-186.129	-152.529	0.159	-0.011
-185.114	31.793	0.096	-0.082
-184.100	800.000	0.067	0.194
-183.085	800.000	0.126	0.353
-182.071	16.955	-0.183	-0.143
-181.056	-120.156	0.164	0.028
-180.042	68.299	0.033	0.034
-179.027	-95.130	0.091	0.024
-178.012	-200.000	-0.019	-0.088
-176.998	-108.013	-0.149	-0.032
-175.983	-42.890	0.230	0.116
-174.969	-200.000	-0.042	0.237
-173.954	369.639	-0.068	0.136
-172.939	241.819	0.151	0.250
-171.925	113.187	0.174	-0.209
-170.910	-200.000	0.038	0.520
-169.896	173.906	0.084	-0.119
-168.881	351.127	-0.013	-0.026
-167.866	-173.557	0.379	-0.011
-166.852	462.938	0.031	-0.068
-165.837	-102.365	-0.014	0.003
-164.823	-105.950	0.029	-0.006
-163.808	306.005	-0.064	-0.117
-162.793	-56.173	-0.122	-0.054
-161.779	-109.418	0.077	-0.016
-160.764	-200.000	0.011	-0.205
-159.750	486.941	-0.078	0.175
-158.735	589.299	-0.014	0.035
-157.720	194.327	-0.078	-0.117
-156.706	-160.894	0.389	0.020
-155.691	191.147	-0.075	-0.111
-154.677	-200.000	-0.032	0.220
-153.662	-57.191	-0.235	0.102
-152.647	13.683	0.152	-0.117
-151.633	208.329	-0.168	0.259
-150.618	97.836	0.226	-0.257
-149.604	8.016	0.050	0.037
-148.589	318.222	-0.105	0.197
-147.574	72.418	-0.070	-0.072
-146.560	-77.896	0.256	-0.087
-145.545	575.383	-0.056	0.136
-144.531	-200.000	-0.002	0.088
-143.516	-77.008	-0.259	0.089
-142.502	-64.318	-0.201	-0.081
-141.487	26.983	-0.321	-0.266
-140.472	-28.698	0.266	0.151
-139.458	-136.279	-0.148	0.017
-138.443	-82.642	0.224	-0.072
-137.429	-129.096	0.202	-0.028
-136.414	800.000	0.119	0.382
-135.399	800.000	-0.067	0.187
-134.385	-111.942	-0.120	-0.024
-133.370	-200.000	-0.045	-0.252
-132.356	-108.582	0.235	-0.050
-131.341	116.878	0.036	-0.043
-130.326	391.430	0.103	-0.211
-129.312	115.603	0.028	-0.034
-128.297	31.808	-0.131	0.111
-127.283	-175.117	0.265	-0.007
-126.268	-151.422	0.193	-0.014
-125.253	-144.409	0.212	0.019
-124.239	-92.213	0.057	-0.016
-123.224	155.343	-0.275	-0.373
-122.210	-56.972	-0.147	-0.064
