DTS Sentinel unit serial number:	SN413079Multiplexer serial number:	ORYXHardware model number:	OX4-SRSoftware version number:	ORYX F/W v4.00 Oryx Data Collector v3.7.2.0data status	okinstallation	princeton_trtdifferential loss correction	single-endedforward channel	channel 4reverse channel	N/Adate	2019/09/12time	10:03:10forward acquisition time	60.00reverse acquisition time	0.00gamma	496.2192k internal	0.2296k external	0.2296temperature offset calibration	1.0070default loss term (dB/km)	0.3790temperature slope calibration	1.0000multiplexer offset coefficient	1.0000multiplexer slope coefficient	1.0000fibre end	0.00T internal ref (°C)	36.28T ext. ref 1 (°C)	1.86T ext. ref 2 (°C)	33.15length (m)	temperature (°C)	Stokes	anti-Stokes-747.200	-113.619	0.342	-0.068
-746.185	-152.842	-0.254	-0.018
-745.171	-159.811	-0.528	0.030
-744.156	-200.000	-0.009	0.084
-743.142	11.910	0.385	0.302
-742.127	800.000	0.033	-0.140
-741.112	-18.363	-0.103	0.066
-740.098	104.121	0.193	0.232
-739.083	23.337	0.133	-0.111
-738.069	105.698	0.128	0.155
-737.054	-137.279	-0.195	-0.023
-736.039	-166.406	-0.408	0.018
-735.025	-172.532	-0.164	-0.005
-734.010	800.000	-0.066	-0.232
-732.996	800.000	-0.018	-0.064
-731.981	521.684	-0.197	-0.472
-730.966	-54.575	0.019	0.009
-729.952	261.965	0.092	-0.163
-728.937	-78.373	0.431	-0.151
-727.923	-200.000	-0.015	-0.149
-726.908	-17.647	-0.199	-0.128
-725.894	-47.679	0.130	0.064
-724.879	-9.597	0.198	0.135
-723.864	56.548	-0.337	-0.335
-722.850	672.051	0.033	-0.088
-721.835	355.675	0.019	-0.040
-720.821	800.000	0.060	-0.211
-719.806	55.691	-0.102	0.101
-718.791	-17.193	-0.329	0.212
-717.777	448.667	-0.046	0.104
-716.762	173.064	-0.243	0.357
-715.748	800.000	-0.031	0.127
-714.733	106.727	-0.160	0.193
-713.718	235.552	-0.198	0.334
-712.704	-171.583	0.308	0.010
-711.689	-200.000	-0.017	-0.316
-710.675	73.223	-0.252	-0.268
-709.660	-136.058	0.228	-0.027
-708.645	294.573	0.094	-0.176
-707.631	-116.502	-0.136	0.026
-706.616	800.000	-0.083	-0.272
-705.602	117.338	-0.072	-0.090
-704.587	-200.000	-0.031	0.142
-703.572	215.459	-0.137	-0.222
-702.558	-107.242	0.191	-0.043
-701.543	101.579	-0.121	-0.144
-700.529	19.442	0.200	0.164
-699.514	647.577	-0.039	-0.102
-698.499	95.657	-0.092	0.107
-697.485	-149.155	-0.223	0.018
-696.470	200.718	-0.040	-0.063
-695.456	-192.063	0.273	0.003
-694.441	-107.260	0.234	-0.052
-693.426	-200.000	-0.053	-0.267
-692.412	-40.488	-0.090	-0.048
-691.397	46.082	-0.211	0.199
-690.383	-163.994	-0.229	0.011
-689.368	-174.235	-0.355	-0.011
-688.354	800.000	0.049	0.159
-687.339	-200.000	-0.005	-0.212
-686.324	-120.463	0.231	-0.040
-685.310	132.762	0.057	-0.075
-684.295	-200.000	-0.050	-0.244
-683.281	800.000	0.090	0.319
-682.266	-200.000	-0.010	0.173
-681.251	38.670	-0.171	-0.156
-680.237	-54.534	0.122	0.057
-679.222	127.558	-0.175	0.227
-678.208	-200.000	-0.019	0.119
-677.193	-200.000	0.011	-0.310
-676.178	-23.006	-0.063	0.039
-675.164	233.209	0.119	-0.200
-674.149	-56.389	0.260	-0.118
-673.135	-91.138	0.122	-0.036
-672.120	-154.571	0.172	-0.012
-671.105	-26.136	-0.158	-0.094
-670.091	800.000	0.021	0.085
-669.076	22.718	-0.034	0.028
-668.062	-112.767	0.182	0.037
-667.047	-200.000	-0.055	0.295
-666.032	632.203	0.076	-0.197
-665.018	800.000	-0.018	0.060
-664.003	-121.009	0.272	0.047
-662.989	-200.000	-0.027	0.154
-661.974	-160.051	0.043	0.002
-660.959	-200.000	0.013	0.126
-659.945	16.017	0.193	0.155
-658.930	-200.000	-0.001	-0.103
-657.916	-200.000	0.000	0.114
-656.901	-200.000	0.039	-0.388
-655.886	-115.990	-0.067	-0.013
-654.872	-31.640	0.181	-0.104
-653.857	-82.519	-0.082	0.027
-652.843	800.000	0.047	-0.181
-651.828	375.124	0.109	0.225
-650.814	-200.000	0.005	-0.389
-649.799	-35.609	0.259	0.143
-648.784	-200.000	-0.038	0.249
-647.770	800.000	-0.069	-0.253
-646.755	-80.519	-0.200	-0.068
-645.741	260.229	-0.019	-0.033
-644.726	98.102	0.123	-0.144
-643.711	-32.709	0.459	0.260
-642.697	800.000	-0.046	-0.134
-641.682	800.000	0.086	-0.264
-640.668	-22.205	-0.204	0.126
-639.653	-64.651	0.250	0.103
-638.638	-9.227	0.279	0.190
-637.624	800.000	0.037	0.125
-636.609	756.663	-0.078	0.215
-635.595	-200.000	-0.002	0.111
-634.580	179.363	0.114	0.169
-633.565	-97.513	-0.226	0.060
-632.551	-185.548	0.087	0.001
-631.536	75.634	-0.153	-0.165
-630.522	360.385	-0.100	-0.204
-629.507	-200.000	-0.002	-0.046
-628.492	-51.954	-0.213	-0.100
-627.478	-200.000	0.002	-0.073
-626.463	-23.870	-0.161	-0.098
-625.449	715.773	0.028	0.076
-624.434	-131.294	0.226	-0.031
-623.419	-200.000	-0.019	-0.450
-622.405	-200.000	0.069	0.354
-621.390	45.004	-0.167	0.156
-620.376	-65.912	-0.217	0.088
-619.361	-145.873	-0.234	-0.021
-618.346	-52.161	0.050	0.024
-617.332	-99.058	0.023	-0.006
-616.317	-7.789	-0.067	0.046
-615.303	-200.000	0.040	-0.188
-614.288	-48.114	0.275	0.135
-613.273	265.329	0.088	-0.157
-612.259	106.405	-0.149	0.179
-611.244	287.105	0.126	-0.231
-610.230	-200.000	-0.001	0.007
-609.215	-6.173	-0.143	-0.099
-608.201	800.000	0.072	-0.282
-607.186	71.641	0.137	-0.144
-606.171	-128.639	-0.100	-0.014
-605.157	-19.304	0.326	0.205
-604.142	93.435	-0.186	-0.214
-603.128	91.654	0.148	-0.169
-602.113	-200.000	0.002	0.145
-601.098	41.043	-0.032	-0.030
-600.084	450.106	0.034	-0.076
-599.069	1.056	-0.161	0.117
-598.055	-200.000	-0.027	-0.125
-597.040	800.000	0.063	0.252
-596.025	-150.018	0.341	0.027
-595.011	-120.155	-0.111	-0.019
-593.996	-20.587	-0.102	-0.064
-592.982	-200.000	-0.056	-0.254
-591.967	325.619	0.176	-0.343
-590.952	-21.908	-0.194	0.120
-589.938	-200.000	0.036	0.323
-588.923	496.747	-0.079	-0.185
-587.909	262.548	0.089	-0.157
-586.894	368.395	0.078	0.160
-585.879	-37.495	0.106	-0.057
-584.865	-92.267	-0.296	-0.085
-583.850	-200.000	-0.020	-0.388
-582.836	270.452	-0.047	0.083
-581.821	-200.000	-0.025	-0.178
-580.806	-55.243	0.108	-0.049
-579.792	-106.172	0.220	-0.050
-578.777	-138.246	0.432	-0.049
-577.763	487.431	-0.050	0.116
-576.748	671.617	0.068	0.180
-575.733	-44.980	-0.209	-0.106
-574.719	-91.143	0.123	0.036
-573.704	-116.952	0.037	0.007
-572.690	-90.642	-0.363	0.106
-571.675	107.092	0.078	-0.094
-570.661	371.099	-0.061	-0.127
-569.646	514.642	0.103	-0.244
-568.631	284.098	-0.100	0.183
-567.617	-200.000	-0.003	0.095
-566.602	519.327	0.100	0.237
-565.588	141.994	0.268	-0.361
-564.573	167.728	0.217	-0.313
-563.558	-200.000	-0.009	-0.054
-562.544	-193.034	-0.233	0.002
-561.529	-200.000	0.023	-0.216
-560.515	800.000	-0.069	-0.204
-559.500	-113.528	0.074	-0.015
-558.485	800.000	0.041	-0.132
-557.471	20.486	0.231	0.189
-556.456	-192.799	-0.213	0.002
-555.442	-200.000	-0.036	-0.304
-554.427	542.399	0.093	0.225
-553.412	-200.000	0.086	-0.400
-552.398	-59.918	0.517	0.224
-551.383	-87.323	0.198	0.061
-550.369	-84.876	-0.408	0.130
-549.354	-32.905	-0.090	0.051
-548.339	-31.953	0.359	0.204
-547.325	159.550	0.039	0.055
-546.310	-105.866	-0.366	0.084
-545.296	-200.000	0.046	0.280
-544.281	-103.629	-0.640	0.152
-543.266	-148.992	0.125	-0.010
-542.252	113.376	-0.131	-0.162
-541.237	80.490	0.164	-0.179
-540.223	231.026	0.073	-0.121
-539.208	-96.576	-0.144	-0.038
-538.193	704.942	-0.114	0.305
-537.179	-144.642	0.095	-0.009
-536.164	-200.000	0.004	0.025
-535.150	67.797	0.131	0.135
-534.135	186.554	-0.103	-0.156
-533.121	-27.659	-0.298	-0.175
-532.106	-84.820	0.353	-0.112
-531.091	459.428	-0.164	-0.370
-530.077	33.323	0.137	-0.120
-529.062	-200.000	-0.012	-0.192
-528.048	56.394	0.068	0.067
-527.033	-83.833	0.113	0.037
-526.018	81.800	0.028	0.030
-525.004	32.391	0.235	0.205
-523.989	372.265	0.142	-0.293
-522.975	-9.537	0.110	-0.075
-521.960	-46.644	-0.309	-0.153
-520.945	40.680	0.048	0.044
-519.931	-61.391	0.193	0.082
-518.916	35.655	0.192	-0.170
-517.902	-30.901	0.174	-0.099
-516.887	800.000	-0.020	0.056
-515.872	646.821	0.066	-0.172
-514.858	-144.625	0.151	-0.014
-513.843	-105.205	-0.253	-0.059
-512.829	-46.703	0.076	0.038
-511.814	800.000	-0.056	-0.211
-510.799	-163.587	0.316	0.015
-509.785	800.000	-0.111	-0.405
-508.770	-94.381	0.171	-0.047
-507.756	313.188	-0.122	-0.232
-506.741	166.163	0.206	0.295
-505.726	226.451	-0.072	0.119
-504.712	338.867	-0.037	0.074
-503.697	76.066	0.184	0.197
-502.683	-116.976	-0.303	0.056
-501.668	153.262	-0.126	-0.175
-500.653	523.423	0.088	0.210
-499.639	-200.000	-0.010	-0.054
-498.624	-49.585	-0.174	-0.084
-497.610	-108.998	0.232	0.050
-496.595	-90.497	0.193	-0.057
-495.581	-138.272	-0.252	0.028
-494.566	35.453	-0.191	0.170
-493.551	21.605	0.096	-0.079
-492.537	68.769	-0.078	-0.081
-491.522	683.712	-0.038	0.101
-490.508	800.000	-0.091	0.328
-489.493	-200.000	0.011	-0.077
-488.478	-107.375	-0.214	-0.048
-487.464	624.165	-0.103	0.263
-486.449	76.878	-0.065	-0.070
-485.435	35.745	-0.059	-0.052
-484.420	800.000	0.073	0.245
-483.405	-4.783	-0.105	-0.073
-482.391	800.000	0.080	0.304
-481.376	800.000	-0.049	0.141
-480.362	177.905	0.053	0.078
-479.347	-19.624	0.181	0.113
-478.332	-122.508	-0.241	0.040
-477.318	-107.219	-0.141	0.031
-476.303	-38.889	-0.146	-0.078
-475.289	277.849	0.066	0.119
-474.274	-77.027	-0.320	-0.113
-473.259	-100.325	-0.275	0.069
-472.245	-69.713	-0.063	0.024
-471.230	-112.467	-0.231	-0.047
-470.216	800.000	0.023	-0.069
-469.201	226.217	-0.174	0.285
-468.186	-21.708	-0.118	-0.073
-467.172	-149.986	-0.029	0.002
-466.157	241.529	0.047	-0.079
-465.143	-134.444	-0.147	-0.018
-464.128	11.282	-0.184	-0.143
-463.113	-100.540	0.303	0.076
-462.099	665.226	0.078	0.204
-461.084	50.734	0.212	0.203
-460.070	800.000	0.067	0.217
-459.055	800.000	-0.051	0.204
-458.040	46.609	-0.042	0.039
-457.026	-60.695	-0.183	0.078
-456.011	800.000	-0.054	-0.198
-454.997	800.000	0.061	-0.202
-453.982	-126.089	-0.172	0.026
-452.968	-18.421	-0.091	0.057
-451.953	800.000	-0.098	-0.371
-450.938	-125.275	-0.226	0.035
-449.924	-32.756	-0.209	-0.118
-448.909	442.119	0.140	-0.311
-447.895	-200.000	-0.004	-0.098
-446.880	-87.900	-0.219	0.067
-445.865	-81.822	0.186	-0.062
-444.851	60.299	0.244	-0.243
-443.836	-12.556	0.148	-0.098
-442.822	-172.342	0.298	-0.010
-441.807	-200.000	-0.017	0.177
-440.792	-117.769	-0.066	0.012
-439.778	-200.000	0.008	0.161
-438.763	800.000	-0.028	-0.078
-437.749	49.700	0.141	-0.134
-436.734	48.899	-0.229	-0.217
-435.719	13.551	0.093	-0.073
-434.705	148.024	-0.127	0.173
-433.690	511.840	-0.080	0.188
-432.676	-114.206	-0.288	0.056
-431.661	-51.222	-0.124	0.058
-430.646	-83.892	0.406	0.130
-429.632	-9.910	-0.377	0.253
-428.617	623.542	0.032	-0.081
-427.603	177.600	0.043	0.063
-426.588	-69.487	0.199	-0.077
-425.573	-33.244	-0.427	0.238
-424.559	-200.000	-0.022	-0.168
-423.544	-200.000	-0.025	0.272
-422.530	-71.689	-0.055	-0.021
-421.515	95.510	-0.479	-0.551
-420.500	-28.397	0.263	-0.153
-419.486	-5.740	0.169	0.117
-418.471	99.826	-0.054	-0.063
-417.457	500.764	-0.133	-0.310
-416.442	286.575	0.095	-0.173
-415.428	-200.000	0.043	0.197
-414.413	-57.742	0.142	-0.063
-413.398	800.000	-0.055	-0.215
-412.384	-14.481	-0.144	0.094
-411.369	85.956	-0.065	0.073
-410.355	-200.000	-0.003	-0.262
-409.340	29.979	-0.162	-0.140
-408.325	-200.000	-0.029	0.413
-407.311	-83.579	-0.165	0.053
-406.296	-200.000	0.037	0.185
-405.282	401.029	0.072	-0.152
-404.267	-13.700	-0.169	-0.110
-403.252	-200.000	0.000	-0.014
-402.238	-158.359	-0.411	0.024
-401.223	-91.501	0.213	0.061
-400.209	-124.665	0.210	-0.033
-399.194	-71.227	0.081	0.031
-398.179	555.474	0.129	0.313
-397.165	243.029	0.108	0.182
-396.150	112.547	0.256	0.313
-395.136	-114.761	-0.289	-0.056
-394.121	349.394	0.100	-0.200
-393.106	73.248	-0.116	0.123
-392.092	-167.797	-0.348	0.014
-391.077	188.646	0.065	-0.098
-390.063	-200.000	-0.021	0.180
-389.048	800.000	0.030	0.093
-388.033	-29.668	0.275	-0.158
-387.019	-200.000	-0.044	0.268
-386.004	-29.097	0.140	0.081
-384.990	290.581	0.176	-0.322
-383.975	800.000	-0.083	0.326
-382.960	-104.863	-0.142	0.033
-381.946	-103.269	0.378	0.090
-380.931	-38.588	0.142	0.076
-379.917	-99.062	-0.258	-0.066
-378.902	-200.000	-0.014	-0.307
-377.888	11.105	0.094	-0.072
-376.873	800.000	-0.105	0.310
-375.858	78.965	0.065	-0.071
-374.844	-200.000	-0.027	-0.126
-373.829	228.456	-0.150	-0.246
-372.815	800.000	-0.034	-0.095
-371.800	-132.470	0.259	0.034
-370.785	-65.117	-0.231	0.094
-369.771	25.494	-0.311	0.260
-368.756	49.574	-0.013	0.012
-367.742	-93.599	-0.182	0.051
-366.727	-94.888	0.062	0.017
-365.712	232.660	0.054	-0.089
-364.698	535.883	-0.055	-0.131
-363.683	-27.024	0.122	-0.072
-362.669	211.517	-0.024	0.038
-361.654	121.828	0.164	0.205
-360.639	-200.000	0.008	0.118
-359.625	-48.151	0.406	0.197
-358.610	-84.592	0.047	0.015
-357.596	-200.000	0.011	-0.384
-356.581	-98.129	-0.134	-0.035
-355.566	-200.000	-0.012	0.355
-354.552	-200.000	-0.037	0.197
-353.537	59.990	-0.102	-0.101
-352.523	-149.046	0.374	-0.030
-351.508	167.279	-0.153	0.219
-350.493	-184.576	-0.063	-0.001
-349.479	3.148	-0.148	0.108
-348.464	-110.112	-0.111	-0.023
-347.450	-91.535	0.220	-0.063
-346.435	33.927	-0.270	0.237
-345.420	0.627	-0.280	-0.202
-344.406	-22.769	-0.251	-0.153
-343.391	298.139	-0.049	-0.090
-342.377	72.693	-0.159	-0.167
-341.362	-146.880	0.219	-0.019
-340.348	0.458	0.161	0.116
-339.333	10.366	-0.271	-0.207
-338.318	-200.000	-0.113	-0.000
-337.304	35.303	-0.280	0.247
-336.289	-200.000	-0.060	0.508
-335.275	27.791	0.220	-0.186
-334.260	-31.073	0.152	0.086
-333.245	-82.851	-0.190	0.062
-332.231	-200.000	0.023	-0.189
-331.216	-52.256	-0.301	-0.140
-330.202	73.457	-0.112	0.117
-329.187	272.661	0.150	-0.266
-328.172	-82.268	-0.223	0.073
-327.158	231.042	0.114	0.188
-326.143	-116.421	0.423	-0.079
-325.129	-77.119	0.226	-0.079
-324.114	-66.266	-0.106	-0.042
-323.099	-168.681	-0.155	-0.006
-322.085	-200.000	0.021	0.102
-321.070	109.008	-0.012	0.015
-320.056	-200.000	-0.000	-0.246
-319.041	379.608	-0.007	0.014
-318.026	-32.943	0.205	-0.115
-317.012	-79.233	0.205	0.070
-315.997	-200.000	0.025	-0.188
-314.983	243.242	-0.069	-0.117
-313.968	-200.000	-0.010	0.154
-312.953	800.000	0.039	0.147
-311.939	-17.152	0.400	-0.254
-310.924	-137.914	0.077	0.009
-309.910	-11.833	-0.042	-0.028
-308.895	-56.087	0.297	0.133
-307.880	-151.482	0.087	-0.007
-306.866	-192.564	-0.171	-0.002
-305.851	-47.617	-0.056	0.027
-304.837	158.240	-0.215	-0.299
-303.822	140.808	-0.172	-0.228
-302.807	218.048	0.113	-0.181
-301.793	287.066	0.144	0.262
-300.778	71.533	0.166	0.173
-299.764	215.407	0.181	-0.288
-298.749	-82.698	-0.364	-0.118
-297.735	120.538	0.050	0.062
-296.720	87.806	0.201	0.224
-295.705	88.918	-0.014	0.016
-294.691	-200.000	0.014	-0.086
-293.676	172.288	-0.104	-0.151
-292.662	439.268	-0.087	0.191
-291.647	212.900	0.039	0.063
-290.632	-90.346	0.112	-0.033
-289.618	-29.687	0.200	-0.114
-288.603	-52.930	-0.122	-0.056
-287.589	351.480	-0.128	0.254
-286.574	-27.194	-0.021	-0.012
-285.559	491.434	0.217	-0.499
-284.545	42.361	-0.069	-0.063
-283.530	-200.000	0.022	0.122
-282.516	104.353	-0.171	0.202
-281.501	-83.756	0.161	0.051
-280.486	-200.000	-0.011	0.150
-279.472	-135.754	0.245	0.029
-278.457	91.109	-0.008	0.009
-277.443	-17.718	-0.452	0.285
-276.428	-109.245	0.336	-0.072
-275.413	-200.000	-0.027	-0.214
-274.399	36.696	-0.045	0.040
-273.384	-44.766	0.077	-0.039
-272.370	-180.483	0.284	-0.006
-271.355	622.649	-0.167	-0.421
-270.340	21.823	-0.302	0.247
-269.326	-200.000	0.025	0.556
-268.311	321.234	0.037	0.070
-267.297	59.977	0.069	0.068
-266.282	-186.428	-0.044	0.001
-265.267	38.855	0.168	0.150
-264.253	148.332	0.024	0.032
-263.238	700.242	-0.087	-0.231
-262.224	-200.000	0.006	-0.187
-261.209	800.000	-0.022	-0.088
-260.195	7.242	0.160	0.120
-259.180	1.204	-0.047	-0.034
-258.165	-200.000	-0.020	-0.105
-257.151	-89.394	0.210	-0.062
-256.136	-200.000	0.028	0.347
-255.122	-97.692	-0.317	0.082
-254.107	68.968	-0.057	0.059
-253.092	-14.203	-0.198	0.128
-252.078	-91.851	0.087	-0.025
-251.063	44.036	-0.079	0.073
-250.049	-59.502	0.220	0.095
-249.034	-200.000	-0.077	0.503
-248.019	-200.000	0.032	-0.186
-247.005	-147.648	0.162	0.014
-245.990	-200.000	-0.040	-0.245
-244.976	-56.046	-0.261	0.117
-243.961	-200.000	0.089	-0.414
-242.946	25.758	0.109	0.091
-241.932	-87.398	-0.129	-0.039
-240.917	-112.007	-0.333	-0.067
-239.903	-29.461	0.188	0.108
-238.888	800.000	-0.066	0.215
-237.873	214.876	-0.020	-0.032
-236.859	-92.965	-0.206	0.058
-235.844	-44.779	-0.049	0.024
-234.830	199.184	-0.128	0.197
-233.815	-104.795	0.211	-0.049
-232.800	-200.000	-0.024	0.193
-231.786	-173.527	0.144	0.004
-230.771	-187.819	0.171	0.002
-229.757	21.583	-0.393	0.321
-228.742	43.964	0.026	0.024
-227.727	29.367	0.014	-0.012
-226.713	339.942	-0.108	0.210
-225.698	-67.915	-0.250	0.098
-224.684	-178.288	0.398	0.009
-223.669	-160.713	0.116	-0.006
-222.655	130.946	0.191	-0.245
-221.640	61.877	0.028	-0.028
-220.625	-200.000	-0.042	-0.206
-219.611	-92.889	-0.254	-0.071
-218.596	-131.209	0.135	-0.018
-217.582	-0.538	-0.174	0.124
-216.567	-110.947	-0.328	-0.068
-215.552	219.098	-0.028	0.044
-214.538	2.094	-0.332	0.240
-213.523	59.855	-0.243	0.240
-212.509	-59.445	0.292	-0.126
-211.494	-61.746	0.214	-0.090
-210.479	800.000	-0.067	0.189
-209.465	-50.822	0.060	-0.028
-208.450	-200.000	-0.086	-0.449
-207.436	-77.146	0.184	-0.064
-206.421	-71.095	0.181	0.068
-205.406	-200.000	-0.022	0.282
-204.392	-50.016	0.243	-0.115
-203.377	41.412	-0.150	-0.136
-202.363	-47.149	0.304	0.148
-201.348	509.760	-0.119	-0.276
-200.333	-87.504	-0.183	-0.055
-199.319	-200.000	-0.025	0.158
-198.304	129.645	0.151	0.192
-197.290	800.000	-0.062	0.252
-196.275	28.834	-0.061	0.051
-195.260	15.235	0.107	-0.084
-194.246	253.796	-0.178	0.304
-193.231	-147.936	0.320	-0.027
-192.217	-106.422	0.392	-0.088
-191.202	-5.191	0.294	-0.202
-190.187	144.013	-0.147	-0.196
-189.173	-200.000	0.037	0.346
-188.158	-42.691	0.255	0.130
-187.144	345.781	0.083	-0.163
-186.129	-33.421	-0.138	0.076
-185.114	-200.000	0.028	-0.244
-184.100	216.232	0.239	0.380
-183.085	220.171	0.063	-0.101
-182.071	-57.280	0.072	0.031
-181.056	-47.930	0.144	0.070
-180.042	-94.952	0.252	0.068
-179.027	-31.120	-0.440	-0.248
-178.012	-200.000	0.008	-0.068
-176.998	-56.722	0.193	0.085
-175.983	-51.293	0.187	-0.087
-174.969	-182.184	-0.065	0.001
-173.954	9.093	-0.043	0.033
-172.939	-137.668	-0.219	0.025
-171.925	800.000	-0.023	0.087
-170.910	23.050	0.112	0.092
-169.896	-10.423	0.251	-0.166
-168.881	-54.783	-0.154	0.069
-167.866	-112.338	0.025	0.005
-166.852	275.164	-0.080	0.142
-165.837	91.743	-0.075	-0.084
-164.823	-147.426	0.134	0.011
-163.808	-104.302	-0.095	-0.022
-162.793	-110.872	0.116	0.024
-161.779	484.707	-0.187	-0.425
-160.764	-117.234	0.277	0.050
-159.750	-24.970	-0.160	-0.095
-158.735	-57.728	-0.191	0.084
-157.720	64.887	0.047	-0.047
-156.706	-91.823	0.109	0.031
-155.691	-200.000	-0.008	0.214
-154.677	-38.301	-0.159	-0.084
-153.662	800.000	0.007	-0.022
-152.647	55.522	0.060	-0.058
-151.633	36.492	-0.034	-0.030
-150.618	612.826	-0.059	-0.148
-149.604	-200.000	-0.031	0.159
-148.589	163.815	-0.163	-0.229
-147.574	114.808	-0.129	-0.157
-146.560	-200.000	-0.053	0.262
-145.545	7.588	-0.199	0.149
-144.531	-42.427	-0.047	-0.024
-143.516	-200.000	0.002	0.401
-142.502	800.000	-0.053	0.168
-141.487	616.653	0.092	0.231
-140.472	800.000	-0.122	0.420
-139.458	184.287	0.084	-0.124
-138.443	800.000	0.096	-0.303
-137.429	177.573	0.140	-0.204
-136.414	800.000	-0.029	-0.091
-135.399	659.899	-0.096	0.248
-134.385	-93.945	0.363	-0.099
-133.370	-119.984	-0.340	-0.058
-132.356	-48.933	-0.183	0.087
-131.341	-200.000	0.009	-0.062
-130.326	-70.984	0.208	-0.078
-129.312	-200.000	-0.008	-0.259
-128.297	-133.928	-0.388	-0.048
-127.283	113.085	-0.019	-0.023
-126.268	242.742	-0.101	0.168
-125.253	-200.000	0.024	-0.456
-124.239	13.770	0.147	-0.114
-123.224	-88.139	0.019	0.006
-122.210	33.759	-0.133	-0.115
