DTS Sentinel unit serial number:	SN413079Multiplexer serial number:	ORYXHardware model number:	OX4-SRSoftware version number:	ORYX F/W v4.00 Oryx Data Collector v3.7.2.0data status	okinstallation	princeton_trtdifferential loss correction	single-endedforward channel	channel 4reverse channel	N/Adate	2019/09/13time	16:53:34forward acquisition time	60.00reverse acquisition time	0.00gamma	496.2192k internal	0.2297k external	0.2297temperature offset calibration	1.0213default loss term (dB/km)	0.3790temperature slope calibration	1.0000multiplexer offset coefficient	1.0000multiplexer slope coefficient	1.0000fibre end	0.00T internal ref (°C)	34.87T ext. ref 1 (°C)	4.92T ext. ref 2 (°C)	30.39length (m)	temperature (°C)	Stokes	anti-Stokes-747.200	-140.142	-0.197	0.021
-746.185	-168.013	-0.207	0.008
-745.171	-36.312	-0.144	0.079
-744.156	-45.722	-0.430	0.217
-743.142	85.831	-0.102	-0.114
-742.127	-86.117	-0.050	0.016
-741.112	-200.000	0.018	-0.198
-740.098	45.714	-0.224	0.212
-739.083	99.938	-0.131	0.155
-738.069	-22.581	0.046	0.029
-737.054	-200.000	0.012	0.329
-736.039	8.164	-0.359	0.275
-735.025	53.091	-0.081	-0.079
-734.010	333.338	-0.173	-0.341
-732.996	-167.213	-0.078	-0.003
-731.981	-83.050	-0.256	-0.084
-730.966	-112.427	0.317	-0.065
-729.952	-30.921	-0.320	-0.184
-728.937	-30.066	0.327	0.190
-727.923	-200.000	0.038	0.379
-726.908	87.554	0.027	0.030
-725.894	-2.530	-0.120	0.086
-724.879	166.760	-0.153	0.222
-723.864	119.362	-0.104	-0.131
-722.850	-18.615	0.171	0.109
-721.835	800.000	-0.043	-0.151
-720.821	800.000	-0.054	-0.208
-719.806	4.220	0.150	-0.112
-718.791	-115.359	-0.262	-0.051
-717.777	-40.224	-0.118	-0.063
-716.762	-56.974	-0.214	0.096
-715.748	41.417	0.174	-0.160
-714.733	729.361	-0.026	0.071
-713.718	-64.321	-0.061	-0.025
-712.704	236.146	0.117	0.198
-711.689	-200.000	-0.018	-0.231
-710.675	398.287	0.039	-0.084
-709.660	-89.262	0.135	0.041
-708.645	-200.000	0.006	-0.172
-707.631	-200.000	0.001	0.154
-706.616	175.962	-0.035	0.052
-705.602	477.123	-0.101	-0.233
-704.587	-149.485	0.169	0.014
-703.572	85.529	0.104	0.117
-702.558	-40.563	0.108	-0.057
-701.543	-85.664	0.074	-0.023
-700.529	126.017	-0.155	0.199
-699.514	-37.686	0.048	-0.026
-698.499	-79.017	-0.155	-0.054
-697.485	363.209	-0.108	0.222
-696.470	-88.229	-0.173	0.053
-695.456	-200.000	-0.011	0.064
-694.441	-140.723	-0.379	-0.040
-693.426	548.368	-0.079	-0.193
-692.412	-200.000	0.029	0.372
-691.397	90.630	0.176	-0.201
-690.383	800.000	0.047	-0.203
-689.368	800.000	-0.010	-0.034
-688.354	-191.379	0.383	-0.004
-687.339	41.521	0.117	-0.108
-686.324	58.557	0.102	0.102
-685.310	308.726	0.105	0.200
-684.295	-200.000	0.008	0.040
-683.281	800.000	-0.173	-0.619
-682.266	77.604	-0.109	0.118
-681.251	-103.608	0.235	0.056
-680.237	-200.000	-0.027	-0.137
-679.222	-200.000	0.054	-0.271
-678.208	-75.572	0.258	0.093
-677.193	-9.272	-0.154	0.105
-676.178	-92.912	0.103	-0.029
-675.164	-36.266	0.177	-0.097
-674.149	-200.000	0.022	-0.189
-673.135	726.728	0.039	0.105
-672.120	-33.201	0.222	0.125
-671.105	473.428	0.112	0.258
-670.091	-111.392	-0.142	0.029
-669.076	558.444	0.102	-0.250
-668.062	150.565	0.224	-0.310
-667.047	-200.000	-0.004	-0.212
-666.032	200.625	0.100	0.157
-665.018	800.000	-0.090	-0.312
-664.003	123.415	0.068	-0.087
-662.989	45.655	0.106	0.100
-661.974	-200.000	-0.014	0.098
-660.959	-171.413	0.366	0.012
-659.945	-86.673	-0.055	-0.017
-658.930	-200.000	-0.021	0.218
-657.916	-54.044	0.245	0.113
-656.901	134.265	-0.177	0.233
-655.886	-200.000	0.043	0.274
-654.872	15.577	-0.322	-0.257
-653.857	-200.000	-0.008	-0.150
-652.843	-156.271	0.060	0.004
-651.828	520.732	-0.034	-0.082
-650.814	800.000	-0.096	-0.311
-649.799	-200.000	-0.016	-0.219
-648.784	800.000	-0.100	0.303
-647.770	111.432	0.122	0.150
-646.755	-143.843	0.102	0.010
-645.741	76.793	-0.089	-0.096
-644.726	-62.624	-0.184	0.078
-643.711	800.000	-0.030	-0.127
-642.697	-82.229	0.275	0.091
-641.682	-100.877	0.238	-0.060
-640.668	-44.377	-0.138	-0.070
-639.653	151.450	-0.157	-0.218
-638.638	800.000	0.043	-0.179
-637.624	305.432	0.142	0.268
-636.609	-145.867	0.051	0.005
-635.595	-76.718	-0.244	0.087
-634.580	40.214	-0.269	-0.246
-633.565	-25.402	0.122	-0.074
-632.551	-200.000	0.049	-0.256
-631.536	-76.436	-0.249	-0.089
-630.522	158.140	-0.078	-0.110
-629.507	333.389	0.064	0.126
-628.492	328.991	0.099	0.194
-627.478	-98.101	-0.301	-0.079
-626.463	800.000	-0.045	0.128
-625.449	-200.000	0.004	-0.195
-624.434	-200.000	0.042	-0.197
-623.419	71.983	-0.079	-0.083
-622.405	-200.000	0.037	0.196
-621.390	-14.809	-0.463	-0.302
-620.376	104.004	0.265	0.317
-619.361	-179.693	-0.238	0.005
-618.346	6.166	0.203	-0.153
-617.332	-200.000	-0.002	-0.175
-616.317	-53.099	-0.232	0.108
-615.303	169.670	0.134	-0.195
-614.288	103.174	-0.285	-0.339
-613.273	-40.738	0.332	-0.175
-612.259	-67.246	-0.135	0.054
-611.244	22.412	-0.237	0.197
-610.230	114.532	-0.084	0.104
-609.215	-42.381	0.211	0.110
-608.201	800.000	-0.105	-0.303
-607.186	-124.991	-0.140	-0.022
-606.171	114.586	-0.132	-0.164
-605.157	-103.576	-0.272	0.065
-604.142	80.290	-0.079	-0.086
-603.128	-200.000	-0.003	0.221
-602.113	-200.000	-0.018	0.082
-601.098	800.000	-0.044	-0.152
-600.084	-129.541	0.264	-0.037
-599.069	238.162	0.139	0.234
-598.055	104.371	0.269	-0.322
-597.040	5.703	0.083	-0.062
-596.025	-61.979	0.202	-0.086
-595.011	368.947	-0.027	-0.055
-593.996	800.000	-0.089	0.276
-592.982	-1.602	0.098	0.070
-591.967	52.222	0.188	0.182
-590.952	96.370	-0.087	0.102
-589.938	236.175	0.064	0.108
-588.923	-200.000	0.000	-0.371
-587.909	17.127	-0.083	-0.066
-586.894	-200.000	-0.041	-0.226
-585.879	95.886	-0.142	0.164
-584.865	-2.987	-0.091	-0.064
-583.850	-139.225	-0.146	0.016
-582.836	-54.962	-0.238	0.109
-581.821	-120.416	-0.126	-0.022
-580.806	-200.000	0.120	0.634
-579.792	-200.000	-0.036	-0.167
-578.777	-92.422	0.210	-0.060
-577.763	-200.000	-0.005	-0.078
-576.748	134.745	-0.187	-0.246
-575.733	33.470	0.090	0.080
-574.719	-105.116	0.179	-0.042
-573.704	-44.223	-0.072	-0.037
-572.690	-94.738	-0.136	0.037
-571.675	-120.068	-0.328	0.057
-570.661	81.219	-0.247	-0.271
-569.646	800.000	-0.070	-0.258
-568.631	112.338	-0.040	-0.049
-567.617	-116.944	-0.181	0.033
-566.602	-117.337	-0.237	-0.044
-565.588	-110.712	-0.345	-0.072
-564.573	800.000	-0.076	0.231
-563.558	800.000	0.154	0.517
-562.544	-135.015	0.229	0.028
-561.529	340.115	0.136	0.268
-560.515	363.287	0.135	0.275
-559.500	-74.423	0.270	-0.099
-558.485	-154.532	-0.225	-0.015
-557.471	109.663	-0.130	0.158
-556.456	-200.000	0.023	-0.269
-555.442	-200.000	0.059	-0.268
-554.427	59.077	-0.104	0.104
-553.412	290.353	0.028	-0.052
-552.398	-12.684	0.409	-0.271
-551.383	294.393	0.070	-0.129
-550.369	-109.553	-0.295	-0.063
-549.354	-200.000	0.056	0.282
-548.339	-200.000	0.051	0.307
-547.325	800.000	-0.088	-0.291
-546.310	800.000	0.054	-0.189
-545.296	800.000	-0.165	0.525
-544.281	17.410	0.147	-0.118
-543.266	-105.266	-0.251	-0.058
-542.252	215.290	-0.068	0.109
-541.237	-147.402	0.128	0.011
-540.223	178.898	0.157	-0.233
-539.208	-118.527	0.250	0.045
-538.193	-42.897	-0.070	0.036
-537.179	486.629	0.063	-0.145
-536.164	31.905	0.286	-0.249
-535.150	-119.759	0.248	0.043
-534.135	37.607	0.019	0.017
-533.121	3.293	0.141	-0.104
-532.106	107.054	-0.074	-0.089
-531.091	-52.735	-0.152	0.071
-530.077	-98.891	0.198	0.051
-529.062	-105.405	0.212	0.049
-528.048	-171.808	-0.084	-0.003
-527.033	-10.645	0.420	0.282
-526.018	99.588	-0.070	-0.081
-525.004	231.908	0.052	-0.086
-523.989	169.872	0.209	0.302
-522.975	194.103	0.215	0.329
-521.960	17.673	-0.241	0.194
-520.945	-200.000	-0.047	0.502
-519.931	-105.277	-0.162	0.037
-518.916	800.000	0.075	-0.243
-517.902	800.000	-0.020	-0.063
-516.887	46.659	-0.155	0.146
-515.872	246.868	-0.028	-0.047
-514.858	131.624	-0.198	-0.258
-513.843	-16.011	-0.131	0.084
-512.829	-200.000	-0.036	-0.181
-511.814	800.000	-0.019	0.061
-510.799	-103.256	0.172	0.041
-509.785	330.244	0.159	-0.311
-508.770	-65.615	-0.117	-0.047
-507.756	800.000	-0.024	-0.078
-506.741	174.310	0.138	-0.202
-505.726	-200.000	-0.009	0.417
-504.712	66.780	-0.274	-0.283
-503.697	18.366	0.256	0.207
-502.683	800.000	0.039	-0.109
-501.668	-117.484	0.176	-0.032
-500.653	-105.566	0.186	0.043
-499.639	-123.924	-0.330	-0.053
-498.624	-43.857	-0.357	0.182
-497.610	305.833	-0.214	-0.402
-496.595	32.408	0.216	-0.189
-495.581	-107.791	-0.248	0.055
-494.566	-200.000	0.087	-0.465
-493.551	800.000	0.111	0.313
-492.537	800.000	-0.080	0.282
-491.522	370.623	0.049	-0.101
-490.508	79.895	-0.187	-0.203
-489.493	97.978	-0.338	-0.394
-488.478	-200.000	-0.043	-0.432
-487.464	-19.131	-0.072	0.045
-486.449	189.815	-0.193	-0.292
-485.435	-101.712	-0.189	0.046
-484.420	395.180	-0.247	-0.520
-483.405	-167.521	-0.241	-0.010
-482.391	-103.159	0.143	0.034
-481.376	233.818	0.138	-0.230
-480.362	-89.053	-0.166	-0.050
-479.347	62.582	-0.111	-0.112
-478.332	-200.000	0.011	-0.242
-477.318	-108.903	-0.120	0.026
-476.303	519.933	-0.059	-0.139
-475.289	-64.309	0.228	0.094
-474.274	225.961	-0.103	-0.168
-473.259	188.044	0.181	-0.274
-472.245	127.471	-0.115	-0.147
-471.230	238.063	0.050	0.083
-470.216	-193.677	0.089	-0.001
-469.201	37.821	0.034	0.031
-468.186	-163.700	-0.231	-0.011
-467.172	737.458	-0.128	-0.347
-466.157	-200.000	0.008	-0.343
-465.143	-43.585	0.149	0.076
-464.128	77.160	-0.276	0.296
-463.113	-200.000	-0.011	-0.195
-462.099	-101.709	0.179	-0.044
-461.084	-98.574	0.386	0.100
-460.070	285.465	0.072	0.130
-459.055	-146.885	0.358	-0.031
-458.040	41.974	-0.135	0.123
-457.026	-184.299	-0.199	0.003
-456.011	65.091	0.048	0.049
-454.997	293.981	0.127	0.234
-453.982	294.489	0.031	0.058
-452.968	74.362	-0.093	0.099
-451.953	-16.836	0.273	-0.174
-450.938	-129.135	0.179	-0.025
-449.924	336.511	-0.134	0.262
-448.909	443.699	-0.020	0.045
-447.895	-41.808	0.182	-0.094
-446.880	-134.270	-0.354	0.044
-445.865	-102.732	0.078	0.019
-444.851	-97.241	0.218	0.058
-443.836	11.256	0.230	-0.178
-442.822	270.393	0.126	-0.224
-441.807	199.169	-0.100	-0.154
-440.792	-86.705	-0.162	-0.050
-439.778	-67.053	0.069	0.027
-438.763	-200.000	-0.032	0.256
-437.749	28.111	0.118	-0.101
-436.734	-91.836	0.059	0.017
-435.719	-103.045	0.198	0.047
-434.705	-200.000	-0.002	-0.152
-433.690	-61.142	-0.088	-0.038
-432.676	-200.000	-0.002	0.123
-431.661	110.341	-0.278	-0.337
-430.646	-64.214	0.276	-0.114
-429.632	-75.388	-0.308	-0.111
-428.617	-81.175	-0.226	-0.075
-427.603	-123.875	-0.203	0.032
-426.588	99.318	0.202	-0.235
-425.573	519.448	0.169	0.399
-424.559	-37.971	-0.018	0.010
-423.544	-200.000	0.020	0.216
-422.530	39.117	-0.043	0.039
-421.515	-147.826	-0.170	0.014
-420.500	-200.000	-0.000	0.180
-419.486	-144.345	0.251	0.024
-418.471	-118.841	-0.261	-0.046
-417.457	-200.000	-0.000	0.099
-416.442	248.111	0.202	-0.345
-415.428	188.205	-0.160	0.242
-414.413	800.000	0.045	0.185
-413.398	237.644	0.142	-0.238
-412.384	-10.252	-0.162	0.109
-411.369	-14.559	-0.032	0.021
-410.355	-164.239	0.226	-0.010
-409.340	-200.000	0.076	-0.372
-408.325	-174.296	-0.567	-0.017
-407.311	34.097	-0.237	-0.208
-406.296	123.850	0.050	-0.063
-405.282	-200.000	-0.043	-0.256
-404.267	-106.132	-0.162	-0.037
-403.252	800.000	0.056	-0.165
-402.238	399.180	-0.006	0.012
-401.223	-160.186	0.193	-0.011
-400.209	-200.000	0.024	0.202
-399.194	-200.000	0.010	-0.096
-398.179	34.054	-0.017	-0.015
-397.165	-200.000	-0.002	0.175
-396.150	733.503	0.007	-0.018
-395.136	766.325	-0.077	0.212
-394.121	-200.000	-0.003	-0.088
-393.106	-94.002	-0.123	0.034
-392.092	-81.248	0.327	0.109
-391.077	150.049	0.062	-0.085
-390.063	311.478	0.178	-0.336
-389.048	204.941	-0.167	-0.262
-388.033	-6.675	0.097	-0.066
-387.019	43.349	0.290	-0.267
-386.004	-47.201	0.330	-0.162
-384.990	698.871	0.065	0.171
-383.975	792.708	-0.086	0.239
-382.960	-30.048	0.105	-0.060
-381.946	-137.963	0.262	0.029
-380.931	526.914	0.089	-0.212
-379.917	-200.000	-0.002	0.105
-378.902	800.000	0.032	-0.101
-377.888	-123.498	-0.088	0.014
-376.873	726.808	0.145	0.390
-375.858	-2.089	-0.272	-0.192
-374.844	175.753	-0.045	-0.066
-373.829	-44.098	0.249	-0.126
-372.815	198.136	0.053	0.082
-371.800	-131.416	-0.190	-0.025
-370.785	205.954	-0.152	0.238
-369.771	-200.000	-0.014	0.347
-368.756	-200.000	0.063	0.376
-367.742	-200.000	0.044	-0.310
-366.727	-25.102	-0.182	-0.109
-365.712	-111.971	-0.207	0.042
-364.698	800.000	0.084	-0.239
-363.683	29.776	0.144	-0.124
-362.669	-27.120	-0.152	0.089
-361.654	-87.115	-0.229	0.070
-360.639	-48.719	-0.143	-0.069
-359.625	2.357	-0.290	0.211
-358.610	-200.000	-0.019	0.131
-357.596	-158.563	-0.118	0.007
-356.581	20.145	0.167	-0.136
-355.566	137.181	0.371	0.489
-354.552	73.584	0.145	0.153
-353.537	432.013	0.242	0.528
-352.523	-34.682	0.182	-0.100
-351.508	-200.000	0.038	0.327
-350.493	-145.680	0.119	-0.011
-349.479	-19.395	-0.323	-0.201
-348.464	91.746	0.376	-0.426
-347.450	207.222	-0.143	-0.225
-346.435	-52.300	0.104	-0.048
-345.420	-60.135	-0.250	0.107
-344.406	-200.000	0.067	0.518
-343.391	-128.822	-0.402	-0.057
-342.377	255.514	-0.143	-0.246
-341.362	63.513	0.061	-0.061
-340.348	-148.210	0.347	-0.029
-339.333	-95.809	-0.129	0.035
-338.318	717.456	-0.027	-0.073
-337.304	-106.905	-0.324	-0.072
-336.289	-87.855	0.114	-0.034
-335.275	-10.221	-0.174	0.116
-334.260	-54.643	-0.381	-0.173
-333.245	-156.119	-0.256	-0.016
-332.231	462.057	0.068	0.153
-331.216	-200.000	0.005	0.052
-330.202	-18.827	0.353	0.221
-329.187	-83.249	0.316	0.102
-328.172	526.298	-0.041	0.098
-327.158	-200.000	-0.029	-0.209
-326.143	-30.793	-0.245	-0.139
-325.129	446.902	-0.112	0.248
-324.114	-187.213	0.164	-0.002
-323.099	-200.000	0.002	-0.324
-322.085	44.459	0.042	-0.039
-321.070	-58.397	-0.024	0.010
-320.056	110.016	0.219	-0.264
-319.041	-125.938	0.194	0.029
-318.026	800.000	-0.111	0.463
-317.012	-199.192	0.146	0.001
-315.997	115.303	0.163	0.200
-314.983	800.000	-0.138	0.404
-313.968	-152.917	0.133	0.009
-312.953	-11.627	0.169	0.112
-311.939	-30.707	-0.077	0.044
-310.924	-124.253	-0.275	-0.043
-309.910	-200.000	0.051	0.277
-308.895	75.814	0.277	-0.294
-307.880	120.712	-0.050	0.062
-306.866	-200.000	-0.012	-0.156
-305.851	172.524	-0.024	-0.035
-304.837	-118.830	0.094	0.017
-303.822	800.000	-0.030	0.097
-302.807	-200.000	0.013	0.064
-301.793	107.058	-0.082	0.098
-300.778	-96.891	0.157	-0.041
-299.764	-1.606	-0.315	-0.223
-298.749	-160.797	0.250	-0.013
-297.735	-75.913	-0.289	-0.103
-296.720	-195.506	0.388	0.003
-295.705	-99.169	0.197	-0.050
-294.691	-6.054	-0.209	-0.144
-293.676	-44.847	0.256	-0.128
-292.662	742.885	0.092	0.249
-291.647	-200.000	0.017	0.254
-290.632	800.000	0.069	-0.231
-289.618	-42.457	-0.127	0.065
-288.603	91.001	0.204	0.229
-287.589	-30.746	-0.251	0.142
-286.574	-82.768	0.077	-0.025
-285.559	127.556	0.227	0.289
-284.545	800.000	-0.132	0.390
-283.530	-99.851	-0.460	-0.115
-282.516	-15.546	-0.462	-0.296
-281.501	-200.000	-0.028	0.243
-280.486	-52.236	0.299	0.139
-279.472	172.976	0.061	0.088
-278.457	-200.000	0.036	-0.262
-277.443	-200.000	-0.018	0.417
-276.428	-200.000	-0.002	0.087
-275.413	727.819	0.023	-0.061
-274.399	-23.919	0.336	-0.202
-273.384	562.814	0.067	0.164
-272.370	-124.413	0.177	0.028
-271.355	248.834	0.133	-0.225
-270.340	129.724	-0.107	-0.137
-269.326	225.487	-0.194	-0.315
-268.311	32.113	-0.277	-0.240
-267.297	290.910	-0.145	0.264
-266.282	35.484	-0.240	0.212
-265.267	800.000	0.046	0.165
-264.253	29.470	-0.064	0.054
-263.238	-39.022	-0.271	-0.143
-262.224	-84.515	0.070	-0.022
-261.209	22.551	-0.145	-0.119
-260.195	-107.816	-0.216	-0.047
-259.180	276.118	-0.068	0.122
-258.165	10.088	0.213	-0.163
-257.151	-200.000	0.032	0.172
-256.136	137.895	0.064	0.083
-255.122	-130.515	0.162	-0.022
-254.107	-61.437	-0.023	0.010
-253.092	-200.000	-0.018	0.184
-252.078	-138.576	0.408	0.045
-251.063	-26.061	0.189	0.111
-250.049	714.234	0.064	0.171
-249.034	-99.074	0.404	0.103
-248.019	-200.000	-0.006	-0.131
-247.005	-38.746	0.222	0.118
-245.990	258.097	0.093	-0.160
-244.976	800.000	-0.015	-0.043
-243.961	371.140	0.129	-0.263
-242.946	-72.132	-0.146	0.054
-241.932	-200.000	-0.017	-0.166
-240.917	-70.739	-0.296	0.112
-239.903	-130.130	0.183	-0.025
-238.888	-88.108	-0.231	-0.069
-237.873	-61.983	-0.065	0.027
-236.859	-134.478	-0.216	0.027
-235.844	95.222	0.100	0.114
-234.830	380.498	0.176	0.360
-233.815	-200.000	-0.061	0.322
-232.800	305.848	-0.257	-0.478
-231.786	-75.194	-0.085	0.030
-230.771	-200.000	-0.087	0.411
-229.757	-32.544	-0.218	0.121
-228.742	-200.000	-0.029	-0.220
-227.727	719.741	-0.042	0.112
-226.713	137.993	-0.075	-0.098
-225.698	610.506	0.031	0.077
-224.684	-45.505	-0.079	-0.039
-223.669	570.448	-0.084	0.204
-222.655	-200.000	0.017	0.238
-221.640	49.799	-0.054	0.051
-220.625	92.564	0.105	0.119
-219.611	234.486	-0.084	0.139
-218.596	194.730	0.053	0.080
-217.582	194.018	-0.231	0.350
-216.567	-2.359	-0.062	-0.044
-215.552	-106.266	0.143	0.032
-214.538	45.538	0.160	-0.148
-213.523	33.509	-0.120	-0.105
-212.509	180.820	0.093	-0.136
-211.494	-200.000	-0.023	0.282
-210.479	169.733	-0.123	0.175
-209.465	-116.716	-0.123	0.023
-208.450	-120.685	0.385	0.065
-207.436	371.907	0.105	-0.213
-206.421	327.843	0.109	-0.209
-205.406	34.697	0.172	0.150
-204.392	-200.000	0.008	-0.109
-203.377	361.933	0.106	0.213
-202.363	130.745	0.096	0.123
-201.348	513.221	0.073	0.169
-200.333	-136.706	-0.342	-0.039
-199.319	2.057	0.374	-0.270
-198.304	38.411	-0.255	-0.227
-197.290	-85.402	0.128	0.040
-196.275	125.538	-0.156	-0.197
-195.260	800.000	0.089	0.382
-194.246	-200.000	-0.039	0.183
-193.231	-88.066	0.050	-0.015
-192.217	-60.985	-0.216	-0.091
-191.202	186.467	0.009	0.013
-190.187	168.077	0.121	0.173
-189.173	-200.000	-0.036	-0.201
-188.158	-200.000	0.001	0.076
-187.144	65.695	0.122	0.124
-186.129	-82.888	0.174	0.056
-185.114	-7.029	0.062	0.042
-184.100	-8.174	0.171	-0.115
-183.085	391.819	0.089	-0.185
-182.071	800.000	0.068	0.224
-181.056	-107.297	-0.130	-0.029
-180.042	47.774	0.109	0.102
-179.027	-94.582	-0.100	-0.027
-178.012	-200.000	-0.198	0.001
-176.998	800.000	0.090	-0.272
-175.983	-153.084	0.239	-0.017
-174.969	-69.407	0.211	-0.081
-173.954	-13.841	-0.130	0.084
-172.939	243.875	-0.145	0.244
-171.925	-45.168	0.225	-0.112
-170.910	-89.393	0.141	-0.041
-169.896	-69.380	-0.139	-0.053
-168.881	335.668	0.130	-0.252
-167.866	393.394	0.028	-0.058
-166.852	-200.000	-0.005	-0.035
-165.837	800.000	-0.081	0.283
-164.823	-9.396	-0.231	-0.154
-163.808	-200.000	0.016	-0.157
-162.793	126.201	0.157	0.198
-161.779	-94.293	0.233	0.064
-160.764	143.683	0.098	0.130
-159.750	800.000	-0.019	0.055
-158.735	-23.007	-0.222	-0.134
-157.720	-73.075	0.271	0.099
-156.706	-200.000	-0.004	-0.049
-155.691	138.068	-0.097	0.126
-154.677	77.664	0.241	0.256
-153.662	-37.451	0.024	0.013
-152.647	800.000	0.109	0.434
-151.633	-80.253	-0.068	0.023
-150.618	-167.757	-0.100	-0.004
-149.604	-200.000	0.048	0.493
-148.589	-132.223	0.196	0.025
-147.574	7.184	-0.087	-0.065
-146.560	-126.145	-0.108	-0.016
-145.545	544.116	-0.032	0.075
-144.531	-200.000	-0.017	-0.159
-143.516	-200.000	0.027	-0.162
-142.502	319.119	-0.103	0.195
-141.487	32.054	-0.121	0.104
-140.472	-200.000	0.061	0.520
-139.458	501.092	-0.098	-0.225
-138.443	17.765	0.129	-0.102
-137.429	126.056	0.069	-0.087
-136.414	800.000	-0.077	0.261
-135.399	-200.000	0.029	0.154
-134.385	143.250	-0.224	-0.297
-133.370	184.429	0.106	-0.157
-132.356	56.868	-0.149	0.145
-131.341	773.273	0.099	0.269
-130.326	-174.672	0.422	-0.012
-129.312	800.000	0.050	0.173
-128.297	-200.000	0.024	0.145
-127.283	154.562	-0.149	0.204
-126.268	600.950	-0.007	0.018
-125.253	800.000	0.044	0.172
-124.239	-152.548	0.115	0.008
-123.224	624.259	-0.040	0.100
-122.210	-28.707	0.217	-0.124
