DTS Sentinel unit serial number:	SN413079Multiplexer serial number:	ORYXHardware model number:	OX4-SRSoftware version number:	ORYX F/W v4.00 Oryx Data Collector v3.7.2.0data status	okinstallation	princeton_trtdifferential loss correction	single-endedforward channel	channel 4reverse channel	N/Adate	2019/09/18time	09:37:35forward acquisition time	60.00reverse acquisition time	0.00gamma	496.2192k internal	0.2322k external	0.2322temperature offset calibration	0.9978default loss term (dB/km)	0.3790temperature slope calibration	1.0000multiplexer offset coefficient	1.0000multiplexer slope coefficient	1.0000fibre end	0.00T internal ref (°C)	26.64T ext. ref 1 (°C)	0.28T ext. ref 2 (°C)	23.40length (m)	temperature (°C)	Stokes	anti-Stokes-747.200	-200.000	-0.033	0.231
-746.185	62.646	-0.181	-0.183
-745.171	634.176	-0.044	-0.111
-744.156	-135.763	-0.287	0.034
-743.142	-18.368	0.214	-0.135
-742.127	86.441	-0.048	0.054
-741.112	171.403	0.041	-0.059
-740.098	800.000	0.051	0.207
-739.083	-79.947	0.177	0.060
-738.069	-200.000	-0.001	0.057
-737.054	159.510	-0.065	0.091
-736.039	-124.295	-0.203	-0.032
-735.025	287.333	-0.111	0.202
-734.010	58.943	-0.240	0.238
-732.996	-35.335	-0.079	0.043
-731.981	78.995	-0.097	-0.105
-730.966	-122.629	-0.139	0.023
-729.952	312.133	-0.141	-0.267
-728.937	-26.948	-0.058	-0.034
-727.923	262.564	0.117	0.205
-726.908	800.000	0.059	-0.248
-725.894	-200.000	-0.034	0.210
-724.879	504.310	0.121	0.284
-723.864	633.463	-0.028	0.072
-722.850	173.605	-0.110	-0.161
-721.835	525.270	-0.119	-0.283
-720.821	22.861	0.297	0.245
-719.806	-33.023	0.368	-0.206
-718.791	280.845	-0.073	-0.132
-717.777	634.349	-0.043	-0.109
-716.762	-7.942	-0.205	-0.140
-715.748	79.717	-0.173	0.188
-714.733	-200.000	0.019	0.208
-713.718	-78.784	0.114	0.039
-712.704	-200.000	0.011	0.302
-711.689	476.488	0.032	-0.072
-710.675	186.278	-0.192	0.288
-709.660	800.000	-0.036	0.139
-708.645	-55.603	-0.234	0.106
-707.631	-47.678	-0.051	0.025
-706.616	-97.851	-0.258	-0.067
-705.602	16.489	0.124	0.099
-704.587	-147.963	-0.353	-0.030
-703.572	264.775	0.133	0.234
-702.558	-38.323	-0.070	0.038
-701.543	71.641	0.246	0.257
-700.529	-41.808	0.181	0.094
-699.514	-200.000	0.027	-0.352
-698.499	-92.296	0.357	-0.102
-697.485	57.433	-0.214	-0.211
-696.470	678.814	-0.036	-0.094
-695.456	-200.000	-0.007	0.217
-694.441	-116.289	0.129	0.024
-693.426	259.756	-0.131	0.227
-692.412	214.294	-0.032	-0.051
-691.397	-139.782	-0.207	0.022
-690.383	-127.545	-0.053	-0.008
-689.368	-200.000	-0.030	-0.249
-688.354	-200.000	-0.065	-0.000
-687.339	98.760	0.220	0.256
-686.324	75.203	-0.164	-0.174
-685.310	46.051	-0.091	0.085
-684.295	-200.000	0.006	-0.241
-683.281	-114.946	-0.180	-0.035
-682.266	-55.270	0.086	-0.039
-681.251	475.341	0.013	-0.030
-680.237	-200.000	0.012	-0.119
-679.222	32.015	0.202	-0.175
-678.208	-200.000	-0.022	0.162
-677.193	-74.248	0.109	-0.040
-676.178	-43.030	-0.264	0.135
-675.164	-7.297	0.265	0.181
-674.149	-31.295	0.169	-0.096
-673.135	-40.885	-0.260	0.136
-672.120	800.000	-0.051	-0.176
-671.105	800.000	-0.082	0.347
-670.091	76.717	-0.294	0.314
-669.076	386.179	0.129	0.269
-668.062	-30.253	-0.177	0.101
-667.047	-4.072	0.125	-0.087
-666.032	-200.000	0.043	0.511
-665.018	232.789	-0.019	-0.032
-664.003	298.834	-0.113	-0.210
-662.989	800.000	-0.060	-0.216
-661.974	313.488	0.185	-0.350
-660.959	-159.633	0.241	0.013
-659.945	60.875	-0.066	-0.066
-658.930	-87.664	-0.081	-0.025
-657.916	159.407	-0.130	-0.182
-656.901	-98.919	0.466	0.119
-655.886	-106.953	-0.194	-0.043
-654.872	129.462	0.137	0.176
-653.857	-200.000	0.027	-0.230
-652.843	-74.833	-0.379	-0.137
-651.828	-92.148	-0.307	-0.087
-650.814	129.360	0.307	0.395
-649.799	-13.262	0.174	-0.114
-648.784	213.212	-0.062	0.098
-647.770	18.297	-0.041	-0.033
-646.755	139.969	0.026	0.034
-645.741	-17.266	-0.079	-0.050
-644.726	293.677	-0.143	0.263
-643.711	85.479	-0.065	0.072
-642.697	113.021	-0.052	0.063
-641.682	-50.281	-0.087	0.042
-640.668	-129.525	0.064	0.009
-639.653	287.518	0.212	0.386
-638.638	-39.120	0.376	-0.199
-637.624	-112.676	-0.265	-0.053
-636.609	229.306	0.100	0.164
-635.595	-36.732	-0.206	0.111
-634.580	310.499	-0.145	0.274
-633.565	-30.106	-0.299	0.171
-632.551	-200.000	0.052	0.293
-631.536	308.950	-0.141	0.265
-630.522	-200.000	0.004	-0.030
-629.507	-200.000	-0.010	0.215
-628.492	-117.332	0.353	0.064
-627.478	-164.385	-0.180	0.008
-626.463	2.337	-0.096	0.070
-625.449	-124.240	-0.169	-0.027
-624.434	-129.870	-0.288	0.040
-623.419	393.786	-0.126	-0.265
-622.405	-33.442	-0.123	0.068
-621.390	-200.000	-0.007	0.037
-620.376	-200.000	0.003	0.091
-619.361	-69.577	0.087	0.033
-618.346	-81.475	-0.090	0.030
-617.332	-164.096	-0.096	-0.004
-616.317	-109.873	0.073	-0.015
-615.303	-44.930	0.141	0.070
-614.288	-139.005	0.336	-0.037
-613.273	-93.870	-0.225	0.062
-612.259	-115.012	-0.327	0.063
-611.244	482.746	0.101	0.230
-610.230	-84.020	-0.075	-0.024
-609.215	-74.214	0.289	-0.105
-608.201	-200.000	0.039	-0.201
-607.186	-194.172	0.216	0.002
-606.171	-75.209	0.058	0.021
-605.157	312.177	0.035	0.066
-604.142	39.035	-0.086	0.077
-603.128	-177.104	-0.307	0.008
-602.113	338.591	-0.113	-0.222
-601.098	189.896	0.102	0.153
-600.084	775.198	0.053	-0.146
-599.069	-127.578	-0.133	-0.019
-598.055	-200.000	0.012	-0.164
-597.040	174.616	0.107	-0.156
-596.025	31.069	-0.284	-0.245
-595.011	-167.519	0.159	-0.006
-593.996	-61.659	-0.081	-0.034
-592.982	-134.954	0.217	0.026
-591.967	104.829	-0.063	-0.075
-590.952	-200.000	0.030	-0.243
-589.938	180.189	-0.218	0.320
-588.923	10.120	-0.288	0.220
-587.909	-14.851	0.195	0.126
-586.894	800.000	-0.052	0.166
-585.879	728.745	0.142	0.380
-584.865	-108.037	-0.322	0.070
-583.850	-102.990	-0.169	0.040
-582.836	-1.453	0.108	-0.076
-581.821	-47.152	-0.272	0.133
-580.806	24.970	-0.313	0.261
-579.792	800.000	0.058	0.199
-578.777	800.000	-0.117	-0.359
-577.763	459.799	0.102	0.229
-576.748	73.841	-0.086	0.091
-575.733	21.933	-0.156	0.128
-574.719	238.825	-0.179	-0.298
-573.704	100.228	0.144	-0.167
-572.690	-70.727	-0.208	-0.079
-571.675	-157.022	0.228	-0.014
-570.661	-51.548	-0.210	0.099
-569.646	-12.060	-0.053	-0.035
-568.631	-101.009	0.450	0.111
-567.617	-200.000	0.006	0.085
-566.602	428.549	-0.140	-0.303
-565.588	269.246	-0.074	-0.130
-564.573	656.120	0.049	0.127
-563.558	630.081	0.054	-0.137
-562.544	65.977	-0.122	0.125
-561.529	76.439	0.100	0.106
-560.515	-194.257	-0.200	-0.002
-559.500	-94.023	-0.277	0.076
-558.485	-141.302	-0.313	0.032
-557.471	-178.686	0.366	0.008
-556.456	191.955	-0.199	0.300
-555.442	295.051	0.107	-0.196
-554.427	333.822	0.094	-0.183
-553.412	395.918	-0.058	-0.122
-552.398	215.136	0.149	-0.238
-551.383	-40.461	-0.077	-0.040
-550.369	69.954	-0.333	-0.344
-549.354	800.000	0.105	-0.429
-548.339	87.384	0.169	-0.187
-547.325	-200.000	0.038	-0.444
-546.310	34.989	0.089	0.078
-545.296	2.669	-0.031	0.022
-544.281	-32.619	-0.123	0.069
-543.266	-200.000	-0.015	-0.118
-542.252	-200.000	-0.031	-0.351
-541.237	-200.000	0.067	-0.386
-540.223	34.495	-0.152	-0.133
-539.208	307.176	0.075	-0.140
-538.193	-104.106	0.072	0.017
-537.179	800.000	-0.059	0.241
-536.164	291.875	0.045	-0.082
-535.150	-171.476	0.259	-0.009
-534.135	230.737	-0.155	-0.255
-533.121	269.960	0.138	-0.243
-532.106	-64.225	0.305	-0.125
-531.091	-21.371	0.281	0.172
-530.077	-200.000	-0.007	0.195
-529.062	41.152	0.127	-0.115
-528.048	-200.000	-0.000	-0.114
-527.033	-111.511	0.312	-0.064
-526.018	800.000	0.061	-0.215
-525.004	-140.923	-0.080	0.008
-523.989	-200.000	-0.044	-0.267
-522.975	192.977	0.010	-0.016
-521.960	-200.000	0.022	-0.173
-520.945	-56.509	0.183	-0.081
-519.931	331.800	-0.031	-0.059
-518.916	-74.432	0.393	0.142
-517.902	31.130	-0.120	-0.103
-516.887	195.349	-0.079	-0.120
-515.872	-18.206	-0.031	-0.019
-514.858	-200.000	0.008	-0.233
-513.843	-64.300	0.277	-0.113
-512.829	139.717	-0.133	-0.175
-511.814	95.318	0.109	-0.124
-510.799	-200.000	0.019	-0.361
-509.785	-200.000	0.029	-0.183
-508.770	-70.731	-0.339	0.128
-507.756	172.268	-0.127	-0.183
-506.741	-200.000	-0.020	-0.310
-505.726	-200.000	0.012	0.112
-504.712	800.000	0.130	-0.389
-503.697	800.000	-0.090	-0.255
-502.683	-67.842	-0.334	-0.131
-501.668	664.172	0.070	0.181
-500.653	800.000	-0.045	-0.169
-499.639	16.358	0.209	0.165
-498.624	577.043	-0.057	-0.140
-497.610	-100.555	0.176	-0.043
-496.595	75.241	-0.121	0.127
-495.581	154.025	0.123	0.169
-494.566	-110.829	-0.202	0.042
-493.551	-200.000	-0.023	-0.139
-492.537	-66.356	-0.329	0.131
-491.522	800.000	0.069	0.216
-490.508	-200.000	0.004	-0.213
-489.493	800.000	0.077	-0.230
-488.478	59.467	-0.028	-0.027
-487.464	-79.020	0.127	-0.043
-486.449	-129.991	0.055	-0.008
-485.435	239.438	0.085	0.141
-484.420	101.763	-0.297	-0.346
-483.405	51.079	-0.240	-0.228
-482.391	800.000	-0.039	-0.164
-481.376	800.000	0.082	-0.324
-480.362	261.174	0.124	0.214
-479.347	169.801	0.119	-0.170
-478.332	11.945	0.067	0.051
-477.318	-200.000	-0.009	0.057
-476.303	340.755	0.107	0.210
-475.289	-85.175	-0.135	0.042
-474.274	-1.272	-0.114	0.080
-473.259	165.846	0.151	-0.214
-472.245	800.000	0.050	0.199
-471.230	299.175	0.100	0.185
-470.216	-200.000	-0.071	-0.411
-469.201	-21.054	-0.177	-0.108
-468.186	800.000	-0.052	0.166
-467.172	-141.278	-0.093	0.009
-466.157	490.226	0.092	-0.209
-465.143	-200.000	0.073	-0.475
-464.128	41.300	-0.325	0.294
-463.113	-200.000	0.005	0.117
-462.099	-45.036	0.236	0.117
-461.084	92.248	-0.123	-0.138
-460.070	-59.100	0.120	0.052
-459.055	162.142	0.168	-0.236
-458.040	33.029	0.327	-0.283
-457.026	-51.644	-0.101	0.047
-456.011	-0.621	-0.090	0.064
-454.997	800.000	-0.020	-0.085
-453.982	800.000	0.070	0.259
-452.968	50.686	-0.271	0.256
-451.953	-63.428	-0.083	0.034
-450.938	102.409	0.058	-0.068
-449.924	744.231	0.038	0.103
-448.909	800.000	-0.049	-0.174
-447.895	653.901	-0.068	0.175
-446.880	340.807	-0.104	-0.203
-445.865	-147.403	-0.064	0.005
-444.851	-200.000	0.016	0.073
-443.836	800.000	0.033	0.095
-442.822	499.820	-0.070	0.160
-441.807	478.229	-0.103	0.232
-440.792	294.942	-0.186	-0.340
-439.778	156.094	0.107	-0.147
-438.763	800.000	0.088	0.289
-437.749	-183.541	-0.299	0.005
-436.734	-200.000	0.000	0.365
-435.719	-84.901	-0.159	-0.050
-434.705	186.525	-0.141	0.210
-433.690	68.006	-0.139	0.142
-432.676	-63.458	-0.279	-0.114
-431.661	-35.206	0.450	0.244
-430.646	141.899	0.101	-0.134
-429.632	77.189	0.048	0.051
-428.617	-1.253	0.079	-0.055
-427.603	-200.000	-0.013	0.216
-426.588	-26.845	0.045	-0.026
-425.573	-200.000	-0.016	-0.251
-424.559	-179.222	0.047	0.001
-423.544	86.361	0.121	0.134
-422.530	38.909	-0.080	0.071
-421.515	800.000	-0.061	0.261
-420.500	800.000	-0.032	-0.119
-419.486	-78.946	0.115	-0.039
-418.471	-88.404	0.481	0.143
-417.457	635.350	0.042	0.106
-416.442	-200.000	0.291	0.000
-415.428	24.039	-0.168	0.139
-414.413	-198.392	-0.388	0.002
-413.398	-164.984	0.264	-0.012
-412.384	-82.647	0.084	0.027
-411.369	-131.300	-0.122	0.016
-410.355	-200.000	0.025	0.214
-409.340	72.000	0.193	-0.200
-408.325	-48.440	-0.159	0.076
-407.311	800.000	0.116	0.389
-406.296	-200.000	0.001	-0.199
-405.282	-55.929	-0.061	-0.027
-404.267	-135.952	-0.193	0.023
-403.252	580.758	-0.122	0.298
-402.238	-99.616	-0.066	0.017
-401.223	4.658	-0.019	0.014
-400.209	-200.000	0.014	-0.242
-399.194	-71.807	-0.222	0.083
-398.179	-150.638	-0.286	-0.022
-397.165	-64.137	0.245	0.100
-396.150	-184.965	0.104	-0.002
-395.136	-110.923	-0.191	-0.039
-394.121	-91.248	-0.132	-0.038
-393.106	-18.861	-0.375	0.233
-392.092	-182.465	0.129	-0.002
-391.077	-200.000	-0.010	0.113
-390.063	-44.629	-0.389	0.194
-389.048	38.736	-0.219	-0.195
-388.033	288.195	-0.053	-0.095
-387.019	107.543	0.220	-0.260
-386.004	-48.533	-0.252	0.121
-384.990	-111.281	-0.445	-0.091
-383.975	-200.000	0.389	0.001
-382.960	-51.924	0.320	0.148
-381.946	-98.227	0.415	0.106
-380.931	489.450	0.076	-0.173
-379.917	595.067	0.037	-0.090
-378.902	-129.664	-0.211	0.029
-377.888	390.120	-0.059	0.122
-376.873	-200.000	0.030	-0.148
-375.858	-200.000	-0.087	-0.470
-374.844	83.491	-0.209	-0.227
-373.829	152.050	-0.168	-0.228
-372.815	-140.797	0.171	-0.018
-371.800	300.097	-0.138	0.254
-370.785	-53.037	-0.349	-0.160
-369.771	82.419	-0.093	0.100
-368.756	-116.764	0.451	0.082
-367.742	-200.000	0.076	0.341
-366.727	-106.822	0.158	0.035
-365.712	72.349	0.343	0.356
-364.698	-4.452	0.212	0.146
-363.683	17.657	-0.158	0.125
-362.669	-45.922	-0.246	0.121
-361.654	422.857	-0.031	0.067
-360.639	-71.083	-0.378	0.141
-359.625	-200.000	-0.008	-0.084
-358.610	160.305	-0.167	-0.232
-357.596	-0.867	0.151	-0.107
-356.581	-89.392	0.185	-0.054
-355.566	-2.125	0.275	0.192
-354.552	800.000	0.063	0.255
-353.537	-61.448	0.196	0.082
-352.523	800.000	0.074	0.225
-351.508	-154.119	-0.134	0.009
-350.493	-121.022	-0.120	0.020
-349.479	-77.736	-0.136	-0.047
-348.464	717.829	0.094	-0.248
-347.450	432.783	0.035	-0.075
-346.435	-200.000	-0.030	-0.182
-345.420	-101.988	-0.177	0.042
-344.406	-20.690	0.142	-0.087
-343.391	73.564	-0.105	0.109
-342.377	249.348	-0.041	0.070
-341.362	4.279	0.273	0.199
-340.348	-0.680	0.275	-0.194
-339.333	800.000	0.052	0.157
-338.318	-125.401	-0.155	-0.023
-337.304	-106.944	0.440	0.097
-336.289	-41.931	0.361	0.184
-335.275	-31.237	0.236	0.132
-334.260	-48.116	-0.216	-0.104
-333.245	581.889	0.123	0.301
-332.231	-200.000	0.006	-0.379
-331.216	96.719	0.022	-0.025
-330.202	58.566	-0.191	0.187
-329.187	447.785	-0.109	0.239
-328.172	-7.875	0.259	-0.174
-327.158	418.077	-0.054	-0.114
-326.143	-200.000	-0.002	-0.156
-325.129	-200.000	0.051	0.275
-324.114	-110.829	0.189	0.039
-323.099	410.367	0.065	-0.137
-322.085	-200.000	0.026	0.154
-321.070	-135.621	-0.235	0.028
-320.056	364.772	-0.060	0.120
-319.041	-75.932	-0.260	0.091
-318.026	77.416	0.069	0.073
-317.012	-98.025	0.200	0.051
-315.997	-56.143	0.510	0.226
-314.983	298.654	0.202	0.370
-313.968	-146.978	-0.101	-0.009
-312.953	800.000	-0.040	0.132
-311.939	-113.966	0.189	0.036
-310.924	-94.664	0.160	0.043
-309.910	-154.053	-0.150	-0.010
-308.895	800.000	0.037	-0.140
-307.880	-161.195	-0.349	0.018
-306.866	-130.913	-0.025	-0.003
-305.851	-6.990	-0.180	0.122
-304.837	126.937	-0.159	0.201
-303.822	800.000	0.060	0.219
-302.807	-20.110	0.071	-0.043
-301.793	-14.744	-0.226	0.144
-300.778	-63.928	0.310	0.126
-299.764	114.380	-0.218	-0.263
-298.749	-114.677	-0.069	-0.013
-297.735	121.973	-0.065	0.081
-296.720	-106.889	0.131	-0.029
-295.705	101.533	0.099	0.114
-294.691	-126.185	0.214	0.032
-293.676	31.863	0.177	-0.151
-292.662	151.621	0.165	-0.224
-291.647	582.209	-0.071	-0.174
-290.632	-37.125	0.188	-0.100
-289.618	-89.761	0.318	0.092
-288.603	-51.251	0.232	0.108
-287.589	657.850	0.142	-0.362
-286.574	-87.148	-0.128	0.039
-285.559	214.876	-0.173	-0.273
-284.545	59.179	0.234	-0.229
-283.530	-145.495	0.143	0.013
-282.516	-45.255	0.200	-0.099
-281.501	800.000	0.083	-0.261
-280.486	346.986	-0.111	-0.216
-279.472	-200.000	0.260	-0.000
-278.457	771.745	0.114	-0.309
-277.443	-200.000	0.019	0.104
-276.428	800.000	0.100	0.427
-275.413	103.773	-0.077	-0.089
-274.399	-63.272	0.155	0.063
-273.384	-68.443	0.227	0.087
-272.370	-130.718	0.260	0.035
-271.355	559.124	-0.040	-0.095
-270.340	124.257	0.158	-0.197
-269.326	234.468	-0.151	0.247
-268.311	17.953	-0.094	-0.074
-267.297	-59.585	-0.356	-0.151
-266.282	-55.161	-0.274	-0.122
-265.267	19.947	0.112	-0.090
-264.253	-200.000	-0.027	0.407
-263.238	-200.000	0.030	-0.420
-262.224	-166.497	0.326	0.013
-261.209	-200.000	0.012	0.230
-260.195	800.000	-0.048	0.147
-259.180	-140.623	0.138	0.014
-258.165	-200.000	-0.024	0.248
-257.151	194.590	-0.062	-0.094
-256.136	79.641	0.135	-0.144
-255.122	88.582	0.201	0.221
-254.107	-200.000	-0.001	-0.095
-253.092	55.019	-0.299	0.287
-252.078	-200.000	0.009	0.041
-251.063	-48.069	0.168	0.080
-250.049	800.000	-0.077	0.241
-249.034	-148.099	-0.183	-0.015
-248.019	-15.488	-0.367	0.232
-247.005	-200.000	0.004	-0.027
-245.990	-90.133	0.182	0.053
-244.976	-122.696	0.121	0.019
-243.961	-137.130	-0.267	-0.030
-242.946	315.663	0.166	-0.311
-241.932	250.121	-0.186	-0.312
-240.917	681.400	-0.039	-0.100
-239.903	-52.708	-0.235	-0.108
-238.888	-200.000	0.228	0.001
-237.873	-200.000	-0.037	-0.298
-236.859	-200.000	0.015	0.355
-235.844	-50.307	-0.239	0.112
-234.830	800.000	0.016	-0.055
-233.815	-79.737	0.269	-0.090
-232.800	-21.172	0.088	-0.053
-231.786	205.940	-0.209	-0.322
-230.771	97.639	-0.247	-0.281
-229.757	800.000	-0.025	-0.106
-228.742	-200.000	0.043	-0.313
-227.727	40.701	-0.139	-0.124
-226.713	331.160	0.122	-0.233
-225.698	21.606	0.222	0.179
-224.684	-200.000	-0.003	0.048
-223.669	-200.000	-0.064	-0.314
-222.655	47.643	-0.161	0.149
-221.640	202.935	-0.054	-0.082
-220.625	800.000	0.045	0.125
-219.611	7.114	0.254	0.187
-218.596	-42.072	-0.327	0.166
-217.582	-115.862	-0.220	-0.041
-216.567	5.498	-0.116	0.085
-215.552	401.362	0.106	0.221
-214.538	-6.300	-0.191	0.129
-213.523	-73.143	0.108	0.039
-212.509	-200.000	-0.026	0.308
-211.494	-51.306	-0.216	-0.100
-210.479	30.650	-0.168	0.142
-209.465	-93.902	-0.165	0.045
-208.450	-175.155	0.369	-0.010
-207.436	-64.324	-0.185	0.074
-206.421	-200.000	0.001	0.116
-205.406	25.397	0.061	-0.050
-204.392	-134.021	-0.573	0.070
-203.377	-200.000	-0.005	-0.155
-202.363	-84.020	-0.296	0.093
-201.348	61.776	0.104	0.103
-200.333	-90.613	0.290	0.083
-199.319	-106.596	0.305	-0.067
-198.304	-200.000	-0.097	0.435
-197.290	204.790	-0.266	0.409
-196.275	-200.000	-0.062	-0.311
-195.260	62.839	0.064	-0.063
-194.246	800.000	-0.097	-0.325
-193.231	794.126	0.120	0.327
-192.217	78.625	0.061	0.065
-191.202	18.236	-0.204	0.161
-190.187	316.486	0.167	-0.311
-189.173	800.000	-0.048	-0.177
-188.158	-200.000	-0.013	0.430
-187.144	-90.640	0.035	-0.010
-186.129	-200.000	0.012	0.098
-185.114	-29.948	0.118	0.067
-184.100	114.676	0.159	-0.192
-183.085	219.148	-0.047	-0.075
-182.071	-200.000	0.060	-0.269
-181.056	347.925	0.068	-0.133
-180.042	-139.591	0.064	0.007
-179.027	402.489	-0.033	-0.068
-178.012	-200.000	-0.005	0.040
-176.998	377.027	-0.112	-0.227
-175.983	-36.374	-0.255	0.136
-174.969	163.653	0.056	0.078
-173.954	-200.000	0.009	-0.085
-172.939	54.350	0.246	0.234
-171.925	43.019	-0.128	-0.116
-170.910	-163.825	-0.131	0.006
-169.896	-107.270	0.232	-0.050
-168.881	17.144	0.136	-0.106
-167.866	-28.468	0.085	0.048
-166.852	393.595	-0.105	0.217
-165.837	11.748	0.197	-0.149
-164.823	-117.860	0.097	-0.017
-163.808	800.000	0.018	-0.050
-162.793	69.959	0.082	0.084
-161.779	40.466	-0.162	-0.144
-160.764	40.217	0.192	-0.170
-159.750	-23.071	0.167	0.099
-158.735	-55.373	0.401	-0.178
-157.720	800.000	-0.097	0.413
-156.706	-24.963	-0.205	0.120
-155.691	433.122	-0.071	0.151
-154.677	-87.256	0.179	0.054
-153.662	19.303	0.169	-0.134
-152.647	-200.000	-0.014	0.249
-151.633	-200.000	0.019	0.178
-150.618	-92.341	0.413	0.115
-149.604	-4.552	0.088	0.060
-148.589	279.961	-0.078	-0.138
-147.574	800.000	0.060	0.196
-146.560	-36.766	-0.349	0.185
-145.545	390.224	-0.122	-0.250
-144.531	800.000	0.040	-0.120
-143.516	130.015	-0.154	0.195
-142.502	-200.000	0.033	0.275
-141.487	101.325	-0.126	0.145
-140.472	-200.000	-0.025	-0.241
-139.458	-73.281	-0.147	-0.053
-138.443	-200.000	-0.007	0.106
-137.429	-9.516	-0.199	-0.131
-136.414	-110.336	0.202	-0.042
-135.399	495.955	0.066	0.150
-134.385	104.095	-0.100	0.115
-133.370	284.042	0.084	-0.149
-132.356	-200.000	0.017	-0.087
-131.341	39.343	-0.151	-0.133
-130.326	-93.654	-0.147	0.040
-129.312	-200.000	0.056	-0.389
-128.297	-33.281	0.224	0.123
-127.283	-148.101	0.126	-0.010
-126.268	800.000	-0.052	-0.226
-125.253	-49.971	0.215	-0.101
-124.239	-200.000	-0.021	0.204
-123.224	-114.005	0.061	-0.012
-122.210	124.642	-0.077	0.095
-121.195	-95.305	-0.317	-0.084
