DTS Sentinel unit serial number:	SN413079Multiplexer serial number:	ORYXHardware model number:	OX4-SRSoftware version number:	ORYX F/W v4.00 Oryx Data Collector v3.7.2.0data status	okinstallation	princeton_trtdifferential loss correction	single-endedforward channel	channel 4reverse channel	N/Adate	2019/09/17time	12:05:35forward acquisition time	60.00reverse acquisition time	0.00gamma	496.2192k internal	0.2306k external	0.2306temperature offset calibration	0.9990default loss term (dB/km)	0.3790temperature slope calibration	1.0000multiplexer offset coefficient	1.0000multiplexer slope coefficient	1.0000fibre end	0.00T internal ref (°C)	31.20T ext. ref 1 (°C)	0.43T ext. ref 2 (°C)	27.44length (m)	temperature (°C)	Stokes	anti-Stokes-747.200	-146.285	-0.237	-0.021
-746.185	174.955	-0.027	0.039
-745.171	26.279	0.121	-0.103
-744.156	-96.819	-0.276	0.074
-743.142	149.003	-0.152	-0.210
-742.127	325.907	-0.132	0.258
-741.112	-200.000	0.018	0.215
-740.098	800.000	0.098	0.402
-739.083	120.821	0.096	-0.122
-738.069	135.818	-0.168	0.222
-737.054	376.097	-0.148	-0.306
-736.039	-43.186	0.144	-0.074
-735.025	-138.444	0.145	0.016
-734.010	67.147	-0.209	0.217
-732.996	76.499	-0.236	0.255
-731.981	-56.666	-0.174	-0.079
-730.966	-200.000	-0.040	0.394
-729.952	-200.000	-0.008	0.153
-728.937	-35.212	0.171	-0.094
-727.923	103.555	0.177	0.212
-726.908	-171.957	-0.397	0.013
-725.894	441.068	-0.053	0.119
-724.879	185.786	0.156	-0.236
-723.864	65.029	-0.186	-0.191
-722.850	-200.000	-0.037	-0.168
-721.835	-84.022	-0.145	-0.047
-720.821	800.000	-0.034	0.143
-719.806	-69.506	0.148	0.058
-718.791	0.023	-0.100	-0.072
-717.777	-154.071	-0.354	-0.024
-716.762	242.412	0.145	-0.246
-715.748	-200.000	0.029	0.311
-714.733	476.726	-0.075	-0.172
-713.718	229.292	0.083	-0.138
-712.704	349.080	-0.078	0.156
-711.689	-200.000	-0.023	-0.196
-710.675	105.855	-0.096	0.115
-709.660	782.282	0.048	0.133
-708.645	58.846	-0.295	-0.294
-707.631	-200.000	-0.049	-0.242
-706.616	-110.160	0.096	-0.020
-705.602	358.476	0.145	0.295
-704.587	-133.110	-0.360	-0.046
-703.572	-51.556	0.326	-0.155
-702.558	4.008	-0.173	-0.129
-701.543	800.000	-0.036	-0.151
-700.529	-200.000	0.016	-0.141
-699.514	134.489	0.010	0.013
-698.499	-10.119	0.181	0.122
-697.485	367.888	-0.128	-0.262
-696.470	-95.300	0.513	-0.140
-695.456	610.519	0.063	-0.161
-694.441	112.475	-0.165	-0.203
-693.426	55.880	-0.050	0.050
-692.412	7.339	-0.167	0.127
-691.397	-30.149	-0.229	0.132
-690.383	224.182	-0.180	-0.296
-689.368	-200.000	-0.011	-0.058
-688.354	-110.134	0.230	0.049
-687.339	-134.639	0.345	-0.043
-686.324	103.292	0.156	0.185
-685.310	-99.218	0.098	-0.025
-684.295	141.247	0.147	-0.198
-683.281	53.227	0.132	-0.129
-682.266	12.013	0.182	-0.142
-681.251	-124.613	-0.172	-0.027
-680.237	-52.461	0.256	0.120
-679.222	-181.971	0.077	0.001
-678.208	36.242	0.174	0.156
-677.193	144.719	0.159	0.215
-676.178	-200.000	-0.029	-0.254
-675.164	-63.605	0.095	0.039
-674.149	-200.000	-0.083	-0.393
-673.135	85.545	-0.167	-0.186
-672.120	-200.000	0.009	0.047
-671.105	-145.852	-0.130	0.012
-670.091	449.557	-0.224	-0.501
-669.076	17.963	-0.061	0.050
-668.062	550.781	-0.098	0.238
-667.047	800.000	-0.049	0.161
-666.032	50.840	0.118	0.113
-665.018	193.686	0.115	-0.177
-664.003	-200.000	-0.026	0.221
-662.989	-43.689	-0.231	0.118
-661.974	-5.754	-0.047	0.033
-660.959	273.050	-0.159	0.284
-659.945	247.561	0.128	0.220
-658.930	38.996	0.155	0.140
-657.916	-129.756	-0.044	0.006
-656.901	-9.291	-0.341	-0.231
-655.886	-59.925	-0.382	-0.166
-654.872	800.000	0.065	-0.207
-653.857	92.872	0.254	-0.291
-652.843	800.000	0.009	0.040
-651.828	71.330	-0.058	-0.061
-650.814	110.834	0.136	0.166
-649.799	-67.812	-0.398	-0.158
-648.784	-200.000	-0.017	-0.478
-647.770	171.201	-0.150	-0.219
-646.755	51.055	0.304	0.292
-645.741	114.380	-0.203	-0.251
-644.726	-29.364	-0.154	-0.089
-643.711	-148.643	0.164	0.014
-642.697	-91.332	0.219	0.063
-641.682	-175.453	-0.169	0.005
-640.668	-123.916	-0.118	0.019
-639.653	800.000	-0.161	-0.494
-638.638	-200.000	-0.028	0.128
-637.624	-111.963	0.122	0.025
-636.609	284.279	-0.134	0.244
-635.595	-83.199	0.104	-0.034
-634.580	23.570	-0.078	0.065
-633.565	226.057	-0.179	0.294
-632.551	-200.000	0.037	-0.299
-631.536	-144.579	-0.196	-0.018
-630.522	-160.729	-0.160	0.009
-629.507	-1.669	0.126	-0.090
-628.492	356.393	0.062	0.126
-627.478	800.000	0.032	-0.114
-626.463	120.820	-0.245	-0.308
-625.449	800.000	-0.069	-0.286
-624.434	250.723	-0.051	-0.088
-623.419	-69.463	0.175	-0.068
-622.405	-88.451	0.087	-0.026
-621.390	-158.736	-0.160	0.009
-620.376	11.911	0.314	-0.244
-619.361	-200.000	0.043	-0.218
-618.346	261.305	0.083	-0.146
-617.332	-200.000	-0.002	0.205
-616.317	800.000	-0.055	-0.201
-615.303	-200.000	-0.018	-0.229
-614.288	59.619	-0.112	0.112
-613.273	-59.262	-0.191	0.083
-612.259	136.751	0.225	-0.298
-611.244	-84.285	-0.184	0.059
-610.230	-121.543	0.096	-0.016
-609.215	529.136	0.063	0.149
-608.201	59.999	-0.215	0.215
-607.186	-200.000	0.013	-0.116
-606.171	-58.040	0.220	0.097
-605.157	218.826	-0.041	-0.066
-604.142	-200.000	0.000	-0.486
-603.128	450.359	-0.178	-0.398
-602.113	-103.956	-0.372	0.088
-601.098	197.966	0.040	0.062
-600.084	-25.939	0.217	0.129
-599.069	-16.965	-0.176	0.113
-598.055	76.693	0.092	-0.098
-597.040	-85.423	-0.242	-0.076
-596.025	-13.766	-0.197	0.129
-595.011	89.904	0.188	-0.213
-593.996	-155.227	-0.313	0.021
-592.982	-6.638	0.081	-0.056
-591.967	-62.895	0.130	0.054
-590.952	742.961	0.047	0.127
-589.938	378.212	-0.285	0.589
-588.923	-82.413	-0.174	0.057
-587.909	-113.150	0.344	0.068
-586.894	800.000	0.058	0.196
-585.879	800.000	0.068	0.241
-584.865	142.539	-0.060	-0.081
-583.850	-142.430	0.195	-0.019
-582.836	272.941	0.189	-0.338
-581.821	-79.315	-0.157	-0.054
-580.806	7.826	-0.100	0.076
-579.792	-71.625	-0.428	-0.162
-578.777	-200.000	-0.035	0.223
-577.763	83.796	-0.145	0.160
-576.748	577.213	-0.169	-0.417
-575.733	25.641	0.098	0.082
-574.719	289.361	0.147	-0.270
-573.704	798.333	0.076	-0.212
-572.690	-200.000	-0.001	-0.068
-571.675	800.000	0.100	0.314
-570.661	430.695	-0.146	0.320
-569.646	50.108	-0.184	0.175
-568.631	-142.573	-0.188	0.019
-567.617	125.919	-0.023	0.030
-566.602	-144.583	0.212	0.020
-565.588	-90.810	0.198	0.058
-564.573	262.146	0.144	0.253
-563.558	552.227	-0.176	0.427
-562.544	-200.000	-0.026	0.396
-561.529	-111.616	0.118	0.024
-560.515	169.962	-0.101	-0.146
-559.500	-200.000	-0.056	-0.279
-558.485	633.898	-0.117	0.298
-557.471	128.577	-0.041	0.053
-556.456	-74.515	0.168	0.061
-555.442	-200.000	-0.018	0.147
-554.427	-31.906	-0.102	0.058
-553.412	101.878	0.142	0.167
-552.398	13.514	-0.064	-0.050
-551.383	-200.000	-0.005	-0.056
-550.369	800.000	-0.079	-0.288
-549.354	800.000	-0.056	-0.171
-548.339	800.000	-0.089	0.268
-547.325	96.478	0.212	-0.245
-546.310	320.698	0.076	-0.145
-545.296	-75.551	0.193	-0.069
-544.281	166.576	-0.095	-0.136
-543.266	-73.663	-0.361	0.133
-542.252	-98.227	-0.216	-0.056
-541.237	-156.407	-0.219	-0.014
-540.223	9.552	0.171	0.131
-539.208	800.000	0.107	-0.398
-538.193	283.650	0.073	0.133
-537.179	722.972	0.031	-0.083
-536.164	-30.282	-0.079	0.045
-535.150	-47.315	0.142	-0.070
-534.135	-200.000	-0.117	0.000
-533.121	-150.986	-0.269	-0.020
-532.106	-130.891	0.164	-0.022
-531.091	-41.024	-0.260	-0.136
-530.077	-118.450	0.373	-0.067
-529.062	-200.000	0.052	0.267
-528.048	26.396	0.083	-0.070
-527.033	28.801	-0.276	0.236
-526.018	499.670	-0.061	0.143
-525.004	800.000	0.091	-0.289
-523.989	-118.272	-0.164	-0.029
-522.975	43.977	-0.202	0.187
-521.960	-171.214	-0.225	0.008
-520.945	800.000	-0.067	0.213
-519.931	800.000	-0.084	0.314
-518.916	-59.512	0.253	-0.110
-517.902	-200.000	0.019	0.145
-516.887	165.019	0.092	0.131
-515.872	376.311	0.064	0.132
-514.858	-200.000	0.032	-0.176
-513.843	344.847	0.092	-0.182
-512.829	-200.000	-0.290	-0.000
-511.814	275.332	0.022	0.039
-510.799	-200.000	-0.001	0.298
-509.785	129.473	0.067	0.086
-508.770	84.373	0.142	0.157
-507.756	-48.130	-0.148	0.072
-506.741	-200.000	-0.025	0.466
-505.726	-200.000	-0.028	-0.253
-504.712	204.903	-0.161	-0.252
-503.697	800.000	-0.075	-0.297
-502.683	-81.185	-0.154	-0.051
-501.668	800.000	-0.007	-0.029
-500.653	-93.579	-0.057	-0.016
-499.639	-200.000	-0.015	0.357
-498.624	45.488	0.202	0.188
-497.610	-44.100	-0.185	0.093
-496.595	86.982	-0.153	0.170
-495.581	373.796	0.115	0.237
-494.566	167.993	-0.159	-0.227
-493.551	7.464	0.186	0.140
-492.537	513.903	0.124	0.292
-491.522	-55.322	0.063	0.029
-490.508	-110.688	0.048	-0.010
-489.493	-200.000	-0.022	-0.174
-488.478	150.479	-0.103	0.141
-487.464	31.170	0.106	-0.092
-486.449	192.566	0.046	-0.069
-485.435	85.190	0.084	0.093
-484.420	-128.705	0.261	-0.037
-483.405	-85.318	0.190	0.060
-482.391	-144.702	-0.291	-0.027
-481.376	-80.780	-0.480	-0.160
-480.362	-200.000	-0.239	0.000
-479.347	100.131	-0.111	-0.129
-478.332	-200.000	0.035	-0.191
-477.318	326.605	0.120	0.232
-476.303	-162.888	-0.194	0.009
-475.289	240.062	0.082	0.138
-474.274	-200.000	0.027	-0.172
-473.259	-200.000	-0.021	-0.197
-472.245	42.723	0.078	-0.071
-471.230	-200.000	-0.000	0.121
-470.216	227.498	0.051	-0.084
-469.201	-8.115	0.207	-0.140
-468.186	800.000	-0.030	-0.111
-467.172	800.000	-0.102	-0.321
-466.157	-10.350	0.247	-0.165
-465.143	34.674	-0.255	-0.224
-464.128	-125.833	0.132	0.020
-463.113	-150.037	-0.264	-0.021
-462.099	20.618	0.092	-0.075
-461.084	83.685	-0.191	0.209
-460.070	-70.581	-0.171	-0.065
-459.055	399.647	-0.090	-0.190
-458.040	800.000	0.085	0.348
-457.026	49.724	0.106	-0.100
-456.011	-36.454	0.285	-0.154
-454.997	-85.168	0.238	-0.075
-453.982	-52.115	-0.128	-0.060
-452.968	460.939	-0.025	0.056
-451.953	187.491	-0.130	0.195
-450.938	-132.897	-0.135	0.017
-449.924	55.550	-0.143	-0.139
-448.909	24.264	-0.170	-0.141
-447.895	800.000	-0.084	0.354
-446.880	-181.754	-0.249	-0.005
-445.865	-200.000	0.008	-0.236
-444.851	-173.847	0.226	0.007
-443.836	800.000	-0.033	0.122
-442.822	102.758	-0.161	-0.190
-441.807	-160.525	-0.138	-0.007
-440.792	93.931	0.147	-0.168
-439.778	48.894	-0.090	0.085
-438.763	-50.111	-0.128	0.061
-437.749	-200.000	-0.029	0.257
-436.734	-69.761	0.115	0.044
-435.719	-144.899	0.368	-0.034
-434.705	76.100	-0.175	0.186
-433.690	800.000	-0.036	-0.107
-432.676	447.684	0.059	0.130
-431.661	-41.321	-0.070	0.036
-430.646	800.000	0.023	0.063
-429.632	30.434	-0.426	-0.366
-428.617	-93.142	-0.094	-0.026
-427.603	800.000	0.107	0.311
-426.588	345.583	-0.185	-0.365
-425.573	-85.367	0.282	0.088
-424.559	-13.456	0.265	-0.173
-423.544	730.657	0.044	-0.119
-422.530	800.000	0.048	0.148
-421.515	-200.000	-0.017	-0.168
-420.500	-200.000	0.027	0.209
-419.486	-200.000	0.016	0.116
-418.471	350.572	0.032	0.064
-417.457	145.385	0.090	0.120
-416.442	800.000	0.096	0.359
-415.428	-62.613	-0.433	0.181
-414.413	118.687	-0.143	-0.177
-413.398	800.000	-0.053	-0.226
-412.384	-119.024	0.352	-0.062
-411.369	-200.000	-0.015	-0.361
-410.355	-200.000	0.019	0.115
-409.340	265.556	-0.093	0.162
-408.325	-114.062	0.295	0.057
-407.311	-95.773	-0.162	0.044
-406.296	-7.008	0.360	-0.246
-405.282	-200.000	-0.014	-0.115
-404.267	-200.000	-0.004	-0.092
-403.252	-200.000	-0.044	-0.341
-402.238	-69.735	-0.056	0.022
-401.223	-7.502	0.010	-0.007
-400.209	-68.367	0.328	0.128
-399.194	-163.364	0.139	-0.007
-398.179	-200.000	-0.017	-0.265
-397.165	-55.261	0.148	0.067
-396.150	49.173	0.199	-0.188
-395.136	-200.000	-0.020	-0.199
-394.121	-75.227	0.134	-0.048
-393.106	-28.409	-0.099	0.058
-392.092	800.000	-0.027	-0.107
-391.077	41.635	0.115	-0.105
-390.063	-96.955	-0.292	0.077
-389.048	-200.000	0.004	0.087
-388.033	-200.000	-0.027	-0.217
-387.019	376.797	-0.108	-0.222
-386.004	56.632	-0.179	-0.175
-384.990	48.626	0.076	-0.072
-383.975	800.000	-0.108	0.379
-382.960	62.492	-0.057	-0.057
-381.946	800.000	0.032	0.100
-380.931	800.000	-0.116	0.491
-379.917	800.000	0.162	0.453
-378.902	78.136	0.106	0.114
-377.888	524.849	-0.059	0.140
-376.873	800.000	-0.087	0.264
-375.858	238.711	0.151	0.251
-374.844	-73.448	0.115	0.042
-373.829	-58.560	0.245	0.107
-372.815	287.671	0.146	-0.265
-371.800	55.469	-0.094	-0.092
-370.785	589.762	-0.100	0.248
-369.771	-200.000	0.184	0.001
-368.756	-131.434	-0.051	0.007
-367.742	-200.000	-0.031	0.277
-366.727	104.319	0.254	0.300
-365.712	164.981	0.178	0.253
-364.698	64.199	0.104	-0.105
-363.683	800.000	0.052	0.151
-362.669	-71.655	-0.225	0.084
-361.654	334.896	0.081	0.158
-360.639	800.000	-0.030	0.107
-359.625	234.903	-0.240	-0.396
-358.610	-95.384	-0.015	0.004
-357.596	541.892	-0.095	-0.228
-356.581	-63.276	0.212	0.088
-355.566	219.548	0.126	0.203
-354.552	-200.000	-0.029	0.143
-353.537	74.571	0.193	-0.203
-352.523	56.848	0.116	0.113
-351.508	-52.428	-0.303	-0.141
-350.493	527.668	-0.015	0.034
-349.479	-101.210	-0.382	0.094
-348.464	227.269	-0.129	0.210
-347.450	-200.000	0.005	-0.207
-346.435	-200.000	-0.010	0.063
-345.420	583.269	0.111	-0.272
-344.406	-104.289	-0.024	0.005
-343.391	528.982	0.064	0.150
-342.377	324.226	-0.050	0.095
-341.362	-200.000	0.009	0.105
-340.348	44.402	-0.048	0.044
-339.333	-94.504	0.286	-0.078
-338.318	-150.343	-0.175	0.013
-337.304	282.315	0.221	0.396
-336.289	-42.769	-0.064	-0.033
-335.275	406.085	-0.021	-0.044
-334.260	-87.947	0.132	-0.040
-333.245	-118.587	0.083	-0.015
-332.231	-117.991	0.218	-0.039
-331.216	-53.045	-0.118	0.054
-330.202	800.000	-0.085	0.278
-329.187	-100.318	-0.075	-0.019
-328.172	-131.401	0.114	-0.015
-327.158	511.830	-0.162	0.377
-326.143	-100.987	-0.197	0.048
-325.129	-36.939	-0.182	0.097
-324.114	351.052	0.080	0.158
-323.099	297.797	0.116	-0.213
-322.085	-68.704	0.142	-0.055
-321.070	800.000	0.128	-0.377
-320.056	159.725	0.092	0.128
-319.041	-60.299	0.238	0.101
-318.026	645.461	-0.065	0.167
-317.012	-105.176	0.165	0.038
-315.997	-30.695	0.127	-0.072
-314.983	79.428	-0.268	0.288
-313.968	483.229	-0.180	-0.410
-312.953	-121.459	0.241	0.040
-311.939	-102.370	0.276	-0.066
-310.924	-55.921	0.116	0.052
-309.910	30.559	0.237	-0.202
-308.895	-28.563	-0.068	-0.039
-307.880	-200.000	-0.007	0.286
-306.866	51.916	-0.263	-0.250
-305.851	270.226	0.138	0.242
-304.837	-59.672	0.067	-0.029
-303.822	-9.090	-0.213	-0.142
-302.807	-200.000	-0.022	-0.119
-301.793	43.116	0.226	0.207
-300.778	-95.797	-0.331	0.088
-299.764	58.197	-0.090	-0.088
-298.749	208.525	0.170	-0.266
-297.735	-90.446	0.445	-0.129
-296.720	40.718	-0.018	-0.016
-295.705	547.084	0.095	0.226
-294.691	800.000	0.036	-0.115
-293.676	78.383	0.053	0.057
-292.662	-3.240	-0.185	-0.129
-291.647	120.326	-0.183	0.227
-290.632	-111.164	-0.224	0.046
-289.618	-71.956	-0.420	-0.156
-288.603	800.000	0.022	0.085
-287.589	454.326	0.137	-0.303
-286.574	-158.718	0.216	-0.012
-285.559	-67.145	0.330	0.130
-284.545	170.900	-0.152	0.217
-283.530	-106.929	0.076	0.017
-282.516	-200.000	0.018	-0.176
-281.501	-75.749	-0.044	0.016
-280.486	800.000	-0.123	0.445
-279.472	-200.000	0.035	0.158
-278.457	-129.078	-0.066	-0.009
-277.443	-62.223	-0.287	-0.120
-276.428	-87.869	-0.124	-0.037
-275.413	764.800	0.130	-0.351
-274.399	157.367	0.129	0.178
-273.384	-200.000	0.002	0.158
-272.370	40.761	-0.134	0.121
-271.355	-70.050	-0.180	-0.068
-270.340	-81.667	0.082	-0.027
-269.326	-194.904	-0.270	-0.002
-268.311	-141.609	0.263	0.026
-267.297	95.190	0.312	-0.355
-266.282	41.809	0.230	0.208
-265.267	101.374	-0.217	0.253
-264.253	381.662	-0.047	-0.096
-263.238	373.034	0.077	-0.156
-262.224	90.123	-0.192	-0.214
-261.209	-200.000	0.030	-0.185
-260.195	-22.925	-0.181	0.109
-259.180	81.953	-0.262	-0.283
-258.165	-169.823	0.217	0.008
-257.151	666.018	0.032	-0.083
-256.136	-12.729	0.236	0.154
-255.122	-200.000	-0.006	-0.349
-254.107	148.965	-0.152	-0.205
-253.092	-68.988	0.155	-0.060
-252.078	-171.875	0.098	0.003
-251.063	31.663	0.145	0.125
-250.049	289.627	-0.153	-0.278
-249.034	-21.507	0.120	0.073
-248.019	-131.970	0.340	-0.044
-247.005	-200.000	0.015	-0.102
-245.990	-161.241	-0.164	0.009
-244.976	-47.099	0.239	0.116
-243.961	30.180	0.129	-0.110
-242.946	652.625	-0.018	0.046
-241.932	-93.708	0.227	0.062
-240.917	58.772	0.208	-0.204
-239.903	-200.000	-0.020	-0.305
-238.888	-4.478	0.215	0.148
-237.873	-200.000	-0.006	-0.413
-236.859	800.000	0.103	0.311
-235.844	547.946	-0.191	-0.455
-234.830	800.000	0.111	-0.381
-233.815	-27.534	0.070	-0.041
-232.800	-173.549	-0.134	-0.004
-231.786	56.397	0.107	0.104
-230.771	346.817	0.073	-0.144
-229.757	-129.516	0.107	0.015
-228.742	800.000	-0.069	0.235
-227.727	-90.451	-0.152	-0.044
-226.713	-157.689	0.015	0.001
-225.698	-200.000	0.023	-0.347
-224.684	56.224	0.158	0.153
-223.669	-200.000	-0.048	-0.375
-222.655	392.899	-0.146	-0.304
-221.640	11.813	0.080	0.062
-220.625	28.084	-0.270	-0.227
-219.611	-200.000	-0.015	-0.161
-218.596	118.506	0.084	0.103
-217.582	800.000	0.129	0.460
-216.567	800.000	-0.119	0.371
-215.552	-200.000	0.022	0.099
-214.538	-109.371	0.092	0.019
-213.523	364.300	0.131	0.262
-212.509	33.082	-0.233	-0.201
-211.494	64.370	0.236	0.237
-210.479	-62.095	0.231	-0.096
-209.465	-200.000	-0.008	0.221
-208.450	-48.747	-0.151	-0.072
-207.436	-50.890	-0.284	-0.133
-206.421	62.799	0.033	-0.033
-205.406	268.364	-0.061	-0.106
-204.392	-107.820	-0.178	-0.039
-203.377	15.312	-0.123	-0.096
-202.363	800.000	-0.011	-0.034
-201.348	22.971	-0.131	0.107
-200.333	-200.000	0.040	-0.284
-199.319	-95.514	0.239	0.064
-198.304	800.000	-0.050	-0.145
-197.290	10.512	-0.327	0.248
-196.275	-200.000	-0.022	-0.147
-195.260	-90.081	0.120	-0.035
-194.246	17.185	0.123	0.097
-193.231	-9.238	0.350	0.233
-192.217	-149.917	0.261	0.020
-191.202	-68.175	-0.098	-0.038
-190.187	-200.000	-0.021	0.120
-189.173	-49.381	0.224	-0.106
-188.158	-128.113	-0.066	-0.009
-187.144	29.272	-0.247	0.209
-186.129	-128.293	-0.224	0.032
-185.114	-65.532	0.214	-0.085
-184.100	-53.467	-0.134	0.061
-183.085	-30.717	-0.354	0.199
-182.071	200.409	-0.150	-0.230
-181.056	-6.719	0.396	0.268
-180.042	-72.020	0.114	0.042
-179.027	-200.000	-0.004	0.168
-178.012	57.350	-0.110	0.107
-176.998	-200.000	-0.044	-0.383
-175.983	-200.000	0.004	-0.147
-174.969	22.777	0.105	0.086
-173.954	87.085	0.140	0.154
-172.939	342.941	-0.063	0.123
-171.925	166.423	0.120	0.169
-170.910	-104.238	0.213	-0.049
-169.896	-77.884	-0.073	0.025
-168.881	14.839	-0.129	0.101
-167.866	-113.483	-0.406	-0.079
-166.852	-200.000	-0.014	0.205
-165.837	264.909	0.072	-0.126
-164.823	351.074	-0.116	0.229
-163.808	800.000	0.063	-0.237
-162.793	-200.000	0.002	0.029
-161.779	105.057	-0.099	-0.116
-160.764	-107.058	0.164	-0.036
-159.750	-109.444	0.341	0.072
-158.735	-51.087	0.171	0.080
-157.720	800.000	0.088	-0.244
-156.706	800.000	0.084	0.350
-155.691	-126.746	0.298	-0.044
-154.677	159.808	0.121	-0.167
-153.662	131.943	0.147	0.189
-152.647	61.408	-0.074	0.073
-151.633	-118.125	0.199	-0.035
-150.618	-200.000	0.044	-0.200
-149.604	-145.383	0.164	0.015
-148.589	800.000	-0.031	0.123
-147.574	20.911	-0.154	0.124
-146.560	800.000	0.017	0.060
-145.545	423.987	0.113	0.241
-144.531	-145.197	0.203	0.018
-143.516	-74.588	0.259	0.093
-142.502	-81.190	-0.124	-0.041
-141.487	224.325	0.066	-0.105
-140.472	800.000	0.067	0.187
-139.458	-83.651	0.080	-0.025
-138.443	690.782	-0.035	-0.090
-137.429	168.905	-0.042	0.059
-136.414	15.501	-0.080	-0.062
-135.399	-200.000	-0.011	-0.174
-134.385	-27.683	0.214	0.124
-133.370	-68.104	-0.451	0.174
-132.356	800.000	-0.029	-0.124
-131.341	-46.739	0.155	0.076
-130.326	286.882	-0.107	-0.193
-129.312	71.798	-0.195	-0.201
-128.297	800.000	0.006	-0.024
-127.283	-200.000	-0.048	0.509
-126.268	800.000	0.058	-0.198
-125.253	-200.000	-0.034	-0.154
-124.239	-133.655	-0.148	0.018
-123.224	84.954	0.277	0.302
-122.210	800.000	-0.069	0.253
-121.195	280.920	0.024	0.043
