DTS Sentinel unit serial number:	SN413079Multiplexer serial number:	ORYXHardware model number:	OX4-SRSoftware version number:	ORYX F/W v4.00 Oryx Data Collector v3.7.2.0data status	okinstallation	princeton_trtdifferential loss correction	single-endedforward channel	channel 4reverse channel	N/Adate	2019/09/14time	22:13:35forward acquisition time	60.00reverse acquisition time	0.00gamma	496.2192k internal	0.2306k external	0.2306temperature offset calibration	1.0068default loss term (dB/km)	0.3790temperature slope calibration	1.0000multiplexer offset coefficient	1.0000multiplexer slope coefficient	1.0000fibre end	0.00T internal ref (°C)	32.62T ext. ref 1 (°C)	4.70T ext. ref 2 (°C)	27.63length (m)	temperature (°C)	Stokes	anti-Stokes-747.200	-89.421	0.142	-0.042
-746.185	-169.974	-0.136	-0.005
-745.171	-46.534	-0.079	0.040
-744.156	768.634	0.096	0.265
-743.142	1.816	0.142	-0.104
-742.127	-200.000	-0.013	0.114
-741.112	-170.786	-0.169	-0.006
-740.098	-200.000	0.011	0.262
-739.083	-144.569	0.127	0.012
-738.069	800.000	0.039	0.161
-737.054	-200.000	0.016	-0.191
-736.039	255.915	-0.123	-0.215
-735.025	124.010	0.128	0.164
-734.010	-69.869	-0.168	0.065
-732.996	-73.135	-0.047	0.017
-731.981	-63.496	-0.200	0.083
-730.966	310.105	0.147	-0.280
-729.952	56.424	0.121	-0.120
-728.937	-200.000	-0.003	-0.024
-727.923	-98.467	-0.366	-0.095
-726.908	154.066	0.113	-0.157
-725.894	-66.608	-0.114	0.046
-724.879	-105.921	-0.193	0.044
-723.864	444.821	-0.078	0.173
-722.850	-200.000	0.045	-0.331
-721.835	27.612	-0.158	-0.135
-720.821	-8.214	-0.248	0.170
-719.806	300.366	-0.114	-0.214
-718.791	-200.000	0.008	0.126
-717.777	14.586	0.229	0.182
-716.762	2.512	-0.110	0.081
-715.748	203.948	0.190	-0.299
-714.733	-200.000	0.004	0.153
-713.718	-171.749	-0.099	-0.003
-712.704	550.206	0.165	0.403
-711.689	-50.071	-0.187	0.090
-710.675	-110.068	0.160	0.034
-709.660	206.191	-0.220	0.348
-708.645	-9.562	-0.199	0.135
-707.631	-8.650	0.162	0.110
-706.616	-52.547	-0.138	-0.065
-705.602	-166.082	-0.080	-0.003
-704.587	100.923	-0.261	-0.308
-703.572	-34.366	0.229	-0.127
-702.558	-74.220	0.327	-0.120
-701.543	26.940	-0.175	-0.149
-700.529	32.250	0.274	0.241
-699.514	-200.000	-0.017	-0.143
-698.499	-105.422	-0.106	0.025
-697.485	-51.207	0.257	-0.122
-696.470	-134.617	-0.287	0.036
-695.456	-186.202	-0.485	-0.007
-694.441	79.305	-0.303	0.330
-693.426	-44.464	0.405	0.206
-692.412	-139.969	0.329	-0.035
-691.397	-7.519	0.252	-0.173
-690.383	404.406	-0.110	-0.236
-689.368	-39.776	-0.061	-0.032
-688.354	265.108	-0.063	0.112
-687.339	-145.091	-0.512	-0.047
-686.324	-200.000	0.040	-0.200
-685.310	115.092	-0.083	0.103
-684.295	-137.275	-0.371	0.043
-683.281	-200.000	-0.027	-0.225
-682.266	-43.141	-0.090	-0.046
-681.251	-200.000	0.039	-0.242
-680.237	154.521	-0.051	-0.071
-679.222	800.000	0.015	0.049
-678.208	-44.564	-0.135	-0.068
-677.193	-32.410	0.092	-0.052
-676.178	42.794	-0.190	-0.175
-675.164	-200.000	-0.038	0.240
-674.149	308.876	0.150	0.285
-673.135	260.279	0.101	-0.177
-672.120	377.854	0.149	-0.309
-671.105	459.308	-0.148	0.334
-670.091	-117.062	-0.282	-0.052
-669.076	-200.000	0.001	0.089
-668.062	123.983	-0.082	-0.104
-667.047	151.063	-0.144	0.198
-666.032	196.315	0.142	-0.219
-665.018	-51.770	-0.142	-0.067
-664.003	284.837	-0.053	0.096
-662.989	800.000	-0.056	0.173
-661.974	52.859	0.174	0.169
-660.959	-21.428	0.127	-0.078
-659.945	168.492	-0.127	-0.183
-658.930	249.969	-0.068	0.117
-657.916	-173.067	-0.353	0.011
-656.901	-109.682	0.194	-0.041
-655.886	22.321	0.211	0.174
-654.872	-30.072	0.128	0.074
-653.857	-121.612	0.091	-0.015
-652.843	238.892	-0.182	-0.307
-651.828	-159.973	0.328	0.018
-650.814	-200.000	0.048	-0.228
-649.799	70.335	0.143	0.150
-648.784	800.000	0.054	-0.227
-647.770	-93.230	-0.273	0.077
-646.755	-65.115	-0.260	-0.106
-645.741	-145.086	0.286	-0.026
-644.726	11.608	-0.253	-0.197
-643.711	800.000	-0.093	-0.298
-642.697	800.000	0.056	-0.165
-641.682	-81.702	0.220	0.073
-640.668	352.598	-0.050	0.100
-639.653	-200.000	0.174	-0.000
-638.638	800.000	-0.045	0.134
-637.624	26.902	-0.049	-0.042
-636.609	125.299	0.092	-0.118
-635.595	-200.000	-0.011	0.329
-634.580	-180.475	0.334	-0.007
-633.565	800.000	0.056	-0.208
-632.551	800.000	-0.033	-0.139
-631.536	-138.559	-0.157	-0.017
-630.522	52.964	0.067	0.065
-629.507	-13.187	-0.222	0.146
-628.492	-52.085	0.132	-0.062
-627.478	-200.000	0.007	-0.275
-626.463	82.090	0.200	-0.220
-625.449	-88.245	0.159	0.048
-624.434	262.191	-0.089	-0.157
-623.419	-72.307	-0.280	0.105
-622.405	-19.959	-0.215	-0.134
-621.390	-124.409	0.076	0.012
-620.376	730.509	-0.095	0.257
-619.361	-29.330	0.304	0.176
-618.346	-53.385	0.271	0.126
-617.332	-83.103	0.066	0.021
-616.317	23.014	-0.317	0.264
-615.303	-86.701	-0.157	0.049
-614.288	-43.618	-0.198	0.101
-613.273	-105.131	-0.176	-0.041
-612.259	-70.371	0.324	0.124
-611.244	150.139	0.050	0.069
-610.230	175.640	0.038	-0.055
-609.215	-200.000	0.130	-0.599
-608.201	203.145	-0.122	-0.190
-607.186	-200.000	-0.035	-0.224
-606.171	-200.000	-0.057	-0.343
-605.157	800.000	0.017	0.059
-604.142	-52.247	-0.234	0.110
-603.128	92.198	-0.113	-0.129
-602.113	92.196	0.268	-0.306
-601.098	-103.145	-0.221	-0.053
-600.084	-130.884	-0.177	-0.024
-599.069	-66.000	-0.190	0.077
-598.055	-175.749	-0.244	0.007
-597.040	-34.307	-0.135	0.075
-596.025	-200.000	0.002	-0.044
-595.011	-145.931	0.197	0.018
-593.996	-169.332	0.214	0.008
-592.982	-90.730	0.022	-0.006
-591.967	456.403	0.116	0.259
-590.952	-127.234	-0.220	0.033
-589.938	-192.002	0.208	0.002
-588.923	436.813	0.107	-0.235
-587.909	800.000	0.068	-0.276
-586.894	-38.446	-0.190	-0.102
-585.879	-200.000	-0.039	-0.366
-584.865	-70.671	0.330	0.126
-583.850	174.634	-0.271	0.397
-582.836	-70.235	-0.258	-0.099
-581.821	116.138	-0.115	-0.143
-580.806	-33.286	-0.291	0.163
-579.792	147.913	-0.085	-0.116
-578.777	-45.514	-0.220	-0.110
-577.763	-90.895	-0.135	0.039
-576.748	-146.070	-0.232	0.021
-575.733	-200.000	0.006	-0.187
-574.719	-200.000	-0.058	-0.256
-573.704	300.192	-0.011	0.020
-572.690	800.000	-0.056	-0.233
-571.675	-25.324	0.133	-0.080
-570.661	-200.000	0.001	-0.238
-569.646	450.065	0.141	0.315
-568.631	-121.598	0.171	-0.029
-567.617	35.762	-0.219	-0.195
-566.602	-200.000	-0.016	-0.221
-565.588	-61.985	-0.040	0.017
-564.573	800.000	0.066	0.207
-563.558	8.001	0.229	0.174
-562.544	-32.523	-0.132	-0.075
-561.529	-200.000	-0.011	0.073
-560.515	-84.555	-0.185	0.059
-559.500	68.803	0.073	0.075
-558.485	-75.589	0.387	0.139
-557.471	800.000	0.057	0.162
-556.456	562.353	0.065	0.159
-555.442	109.072	0.068	-0.082
-554.427	-175.065	-0.017	0.000
-553.412	-200.000	0.026	-0.155
-552.398	22.153	-0.010	0.008
-551.383	670.679	-0.009	-0.023
-550.369	-200.000	-0.001	-0.442
-549.354	-200.000	-0.002	-0.124
-548.339	76.131	-0.082	0.087
-547.325	199.111	0.090	0.139
-546.310	-80.596	-0.086	-0.029
-545.296	28.231	-0.310	0.264
-544.281	-200.000	-0.006	-0.112
-543.266	-64.544	-0.225	-0.092
-542.252	-30.453	0.318	0.182
-541.237	-200.000	-0.014	0.206
-540.223	74.432	0.192	0.204
-539.208	800.000	-0.041	-0.120
-538.193	-96.673	0.163	0.043
-537.179	-112.387	-0.147	0.030
-536.164	4.309	-0.316	0.234
-535.150	419.427	-0.083	-0.180
-534.135	-122.942	-0.247	-0.040
-533.121	-200.000	0.029	-0.181
-532.106	-200.000	0.110	-0.521
-531.091	-197.125	0.052	-0.000
-530.077	-75.067	0.019	-0.007
-529.062	-200.000	0.016	-0.114
-528.048	128.322	0.071	0.092
-527.033	-155.121	0.277	-0.018
-526.018	104.796	-0.004	0.004
-525.004	128.461	0.114	0.147
-523.989	11.011	-0.246	0.190
-522.975	-117.474	0.222	-0.040
-521.960	-20.980	-0.095	-0.059
-520.945	-1.820	0.361	0.256
-519.931	800.000	0.079	-0.240
-518.916	105.085	0.154	0.183
-517.902	-200.000	0.004	0.203
-516.887	-19.301	-0.219	-0.137
-515.872	33.198	0.154	-0.134
-514.858	336.003	0.122	-0.240
-513.843	-162.460	0.178	-0.009
-512.829	276.464	0.289	0.518
-511.814	94.408	-0.169	-0.194
-510.799	109.338	-0.107	0.129
-509.785	-200.000	-0.024	-0.128
-508.770	800.000	0.009	-0.030
-507.756	-76.547	-0.334	0.118
-506.741	274.400	0.157	0.280
-505.726	-88.123	-0.263	-0.079
-504.712	57.942	0.077	0.076
-503.697	-200.000	-0.095	0.535
-502.683	-106.000	-0.232	0.053
-501.668	-62.548	0.163	-0.068
-500.653	91.279	0.214	0.242
-499.639	385.498	0.040	0.083
-498.624	800.000	-0.063	0.191
-497.610	183.886	0.211	0.315
-496.595	-95.307	-0.184	0.050
-495.581	441.651	0.062	-0.137
-494.566	-200.000	-0.030	-0.196
-493.551	-161.906	0.204	0.010
-492.537	750.891	-0.104	-0.283
-491.522	-10.687	-0.090	-0.060
-490.508	800.000	-0.030	-0.091
-489.493	4.607	0.309	-0.228
-488.478	-200.000	0.009	-0.157
-487.464	188.123	0.257	0.387
-486.449	-58.212	-0.415	-0.182
-485.435	547.643	0.052	0.125
-484.420	-133.925	-0.351	0.044
-483.405	-44.636	-0.170	0.086
-482.391	-200.000	0.012	0.487
-481.376	536.005	0.077	0.184
-480.362	-98.034	-0.129	-0.033
-479.347	800.000	0.040	0.134
-478.332	206.234	0.091	-0.142
-477.318	132.101	0.065	-0.084
-476.303	-168.935	0.208	0.008
-475.289	-155.709	0.129	0.008
-474.274	800.000	-0.017	0.053
-473.259	-181.574	-0.184	0.004
-472.245	-39.760	0.309	0.162
-471.230	404.794	-0.112	0.237
-470.216	-37.037	-0.388	0.209
-469.201	800.000	0.120	-0.362
-468.186	-60.940	-0.117	0.050
-467.172	800.000	-0.112	0.437
-466.157	173.196	0.260	0.377
-465.143	5.133	-0.383	-0.284
-464.128	-156.994	0.161	0.010
-463.113	-69.080	-0.321	-0.125
-462.099	-200.000	-0.011	-0.157
-461.084	-101.173	0.545	-0.134
-460.070	-122.990	-0.236	0.038
-459.055	800.000	0.065	0.182
-458.040	617.524	0.010	0.025
-457.026	715.083	-0.054	0.144
-456.011	312.987	0.192	-0.364
-454.997	8.294	-0.023	0.017
-453.982	193.934	-0.052	-0.079
-452.968	-178.607	-0.149	0.003
-451.953	-3.929	0.135	-0.094
-450.938	800.000	0.045	0.167
-449.924	310.548	-0.129	-0.243
-448.909	90.379	0.177	0.199
-447.895	23.936	0.181	0.150
-446.880	25.321	0.056	0.047
-445.865	-33.181	-0.240	0.134
-444.851	72.805	-0.073	-0.076
-443.836	-32.516	0.177	-0.099
-442.822	800.000	-0.117	-0.357
-441.807	362.013	-0.048	-0.098
-440.792	501.724	0.038	-0.088
-439.778	-200.000	0.009	-0.049
-438.763	23.659	-0.143	0.119
-437.749	329.997	0.056	0.108
-436.734	-200.000	0.043	-0.195
-435.719	-34.277	0.072	-0.040
-434.705	-67.386	-0.303	0.120
-433.690	-109.879	0.068	-0.014
-432.676	-2.851	-0.159	-0.112
-431.661	-107.562	-0.061	-0.013
-430.646	182.035	-0.187	-0.277
-429.632	-78.829	-0.315	0.108
-428.617	157.829	-0.153	-0.214
-427.603	127.608	-0.170	-0.217
-426.588	-7.013	0.055	0.038
-425.573	-50.759	0.101	-0.048
-424.559	25.856	0.153	0.128
-423.544	-200.000	0.005	0.417
-422.530	17.887	0.125	0.100
-421.515	-67.705	-0.248	-0.098
-420.500	-73.907	0.088	-0.032
-419.486	-200.000	-0.022	-0.146
-418.471	160.065	-0.119	-0.166
-417.457	-110.309	0.306	-0.064
-416.442	195.804	-0.030	-0.047
-415.428	-48.207	-0.145	-0.070
-414.413	-200.000	0.010	0.078
-413.398	0.435	-0.136	0.098
-412.384	-49.998	0.287	0.137
-411.369	-140.035	-0.273	0.029
-410.355	-62.236	-0.119	0.050
-409.340	-43.770	-0.170	0.086
-408.325	-20.182	0.073	-0.045
-407.311	800.000	0.030	0.117
-406.296	-44.862	0.314	-0.157
-405.282	-31.058	-0.062	0.035
-404.267	29.484	-0.322	0.275
-403.252	800.000	-0.060	0.172
-402.238	42.832	-0.185	0.169
-401.223	3.116	-0.074	0.054
-400.209	122.330	0.198	-0.248
-399.194	-118.163	-0.193	0.035
-398.179	11.957	-0.278	0.215
-397.165	-75.223	0.194	-0.069
-396.150	-153.614	0.197	-0.014
-395.136	-200.000	0.035	-0.271
-394.121	-200.000	-0.002	-0.068
-393.106	-174.407	-0.261	0.008
-392.092	-37.045	0.136	0.073
-391.077	-200.000	-0.011	0.292
-390.063	-200.000	0.033	0.431
-389.048	18.178	0.235	-0.188
-388.033	-200.000	0.042	0.261
-387.019	-177.113	-0.164	0.004
-386.004	-200.000	0.024	-0.442
-384.990	-146.482	-0.196	-0.017
-383.975	-19.884	-0.176	0.109
-382.960	-119.641	-0.392	-0.068
-381.946	-67.942	0.282	-0.110
-380.931	-135.697	-0.325	-0.039
-379.917	-47.538	-0.052	0.025
-378.902	282.572	-0.047	-0.085
-377.888	-142.292	-0.075	-0.007
-376.873	-87.658	0.224	0.068
-375.858	-114.284	-0.221	-0.043
-374.844	-114.184	0.181	-0.035
-373.829	-137.932	0.164	-0.018
-372.815	52.169	0.144	0.138
-371.800	407.483	0.114	-0.242
-370.785	-25.013	-0.322	-0.192
-369.771	-200.000	0.011	-0.413
-368.756	800.000	0.057	0.232
-367.742	800.000	0.027	-0.097
-366.727	229.922	-0.067	0.110
-365.712	225.535	0.102	-0.166
-364.698	-200.000	-0.041	0.366
-363.683	-198.692	0.100	-0.001
-362.669	507.250	-0.089	0.208
-361.654	-200.000	0.004	-0.180
-360.639	146.625	0.130	0.175
-359.625	404.362	0.064	-0.134
-358.610	68.412	-0.215	0.221
-357.596	-61.069	-0.061	-0.026
-356.581	66.502	0.191	0.195
-355.566	794.826	-0.073	0.200
-354.552	5.231	0.275	0.203
-353.537	-133.068	0.305	0.039
-352.523	632.321	0.059	0.151
-351.508	-6.207	-0.149	-0.102
-350.493	-200.000	-0.002	-0.198
-349.479	-70.486	0.130	-0.049
-348.464	-134.128	0.354	-0.044
-347.450	-13.517	-0.058	-0.038
-346.435	-19.458	-0.186	0.115
-345.420	334.295	0.052	-0.101
-344.406	-8.336	-0.107	0.072
-343.391	-189.409	0.459	0.005
-342.377	800.000	0.039	0.157
-341.362	13.739	-0.194	0.151
-340.348	-147.214	-0.093	-0.008
-339.333	-36.611	0.056	-0.030
-338.318	173.679	-0.167	-0.242
-337.304	-41.572	0.226	-0.116
-336.289	-161.962	-0.192	-0.010
-335.275	-105.201	0.124	0.028
-334.260	91.381	0.218	-0.245
-333.245	-149.035	0.171	-0.014
-332.231	211.416	0.066	0.103
-331.216	505.502	0.115	-0.266
-330.202	80.612	0.100	0.108
-329.187	-153.391	-0.361	0.025
-328.172	-52.323	0.241	-0.112
-327.158	-165.730	0.176	0.008
-326.143	303.760	-0.166	0.309
-325.129	-200.000	-0.009	0.049
-324.114	-200.000	0.012	-0.110
-323.099	294.733	0.129	-0.236
-322.085	59.267	0.265	0.261
-321.070	-5.339	0.182	0.125
-320.056	-138.458	-0.084	-0.009
-319.041	-120.857	0.421	0.071
-318.026	-80.571	-0.236	0.079
-317.012	207.046	-0.263	0.411
-315.997	372.225	0.146	0.297
-314.983	139.214	0.184	0.242
-313.968	42.800	-0.226	-0.206
-312.953	64.490	0.149	-0.151
-311.939	91.391	-0.217	0.243
-310.924	-67.982	-0.137	0.053
-309.910	-200.000	0.028	0.255
-308.895	-200.000	-0.084	0.514
-307.880	-180.167	0.188	0.004
-306.866	-102.108	-0.163	-0.039
-305.851	-200.000	0.034	-0.155
-304.837	127.786	0.109	0.139
-303.822	-200.000	0.005	-0.170
-302.807	-73.280	-0.435	0.159
-301.793	158.463	0.225	-0.312
-300.778	221.703	-0.129	-0.207
-299.764	-1.349	-0.115	-0.081
-298.749	-200.000	-0.013	0.124
-297.735	655.663	-0.091	-0.233
-296.720	-25.578	-0.162	0.096
-295.705	-48.412	-0.464	-0.224
-294.691	-19.211	-0.099	0.061
-293.676	208.110	-0.122	-0.190
-292.662	49.725	0.125	-0.117
-291.647	774.786	-0.037	0.100
-290.632	800.000	-0.046	-0.143
-289.618	-200.000	-0.002	-0.047
-288.603	21.870	0.173	0.141
-287.589	348.016	-0.106	-0.208
-286.574	-24.476	0.093	0.055
-285.559	-74.218	0.278	0.100
-284.545	247.844	0.037	0.062
-283.530	-140.052	-0.154	-0.016
-282.516	527.928	0.082	0.194
-281.501	280.398	-0.069	-0.123
-280.486	-36.784	-0.121	-0.065
-279.472	325.603	0.186	0.356
-278.457	100.698	0.218	0.254
-277.443	800.000	-0.086	-0.294
-276.428	-129.443	0.329	0.046
-275.413	-130.897	-0.487	-0.065
-274.399	-142.481	0.261	0.026
-273.384	-7.444	0.239	0.162
-272.370	-200.000	0.055	0.329
-271.355	-73.934	0.281	0.102
-270.340	-192.285	-0.113	0.001
-269.326	116.817	-0.079	-0.097
-268.311	22.604	0.190	-0.155
-267.297	418.046	-0.165	0.352
-266.282	-63.769	-0.103	0.042
-265.267	-113.306	-0.276	-0.054
-264.253	-200.000	-0.004	-0.483
-263.238	800.000	0.071	-0.229
-262.224	186.358	-0.029	-0.044
-261.209	188.539	0.136	-0.203
-260.195	800.000	0.049	-0.209
-259.180	-192.445	-0.171	0.002
-258.165	-69.098	0.139	0.053
-257.151	-180.978	0.072	0.001
-256.136	485.687	-0.109	0.248
-255.122	-102.081	0.197	0.047
-254.107	-200.000	-0.012	0.174
-253.092	-200.000	-0.039	0.206
-252.078	-11.455	-0.133	0.087
-251.063	64.662	0.313	-0.315
-250.049	-120.999	0.122	0.020
-249.034	-200.000	0.008	-0.116
-248.019	51.605	0.102	0.097
-247.005	-113.143	-0.181	-0.036
-245.990	-60.655	-0.253	0.107
-244.976	-111.824	0.154	0.031
-243.961	-200.000	0.014	0.216
-242.946	-35.031	0.079	0.043
-241.932	72.981	0.127	-0.133
-240.917	-77.247	-0.338	-0.117
-239.903	123.933	-0.113	-0.142
-238.888	-144.438	0.490	-0.045
-237.873	-91.170	0.029	0.008
-236.859	588.437	-0.112	-0.276
-235.844	670.509	0.026	-0.066
-234.830	38.317	0.242	-0.215
-233.815	226.899	-0.125	0.203
-232.800	-41.104	0.219	-0.113
-231.786	75.255	-0.159	-0.167
-230.771	-95.598	0.298	0.080
-229.757	-150.927	-0.500	-0.038
-228.742	-26.806	-0.144	0.084
-227.727	-87.028	0.196	-0.060
-226.713	658.722	-0.032	-0.081
-225.698	-19.081	-0.350	0.217
-224.684	-200.000	0.015	0.175
-223.669	26.695	0.129	0.108
-222.655	-7.568	0.304	-0.205
-221.640	-200.000	0.005	-0.055
-220.625	96.402	-0.139	0.158
-219.611	32.723	-0.182	-0.157
-218.596	-85.382	0.162	-0.050
-217.582	800.000	-0.044	0.140
-216.567	-200.000	-0.014	0.069
-215.552	428.048	0.054	0.116
-214.538	758.116	0.130	0.351
-213.523	-59.758	0.263	0.112
-212.509	-200.000	-0.040	-0.329
-211.494	262.147	0.185	-0.320
-210.479	64.768	0.129	-0.130
-209.465	603.972	0.020	0.049
-208.450	800.000	-0.068	-0.287
-207.436	-25.361	0.179	-0.105
-206.421	-200.000	-0.022	0.122
-205.406	12.194	-0.053	-0.040
-204.392	800.000	0.048	0.145
-203.377	-88.230	0.464	0.138
-202.363	800.000	-0.094	-0.311
-201.348	-200.000	0.059	-0.341
-200.333	475.824	-0.077	0.174
-199.319	376.225	0.092	0.187
-198.304	-46.788	-0.069	-0.034
-197.290	-98.943	-0.395	-0.100
-196.275	63.184	0.094	-0.094
-195.260	-45.249	0.138	0.068
-194.246	5.770	0.246	0.181
-193.231	-132.804	-0.234	-0.030
-192.217	-5.346	0.096	-0.066
-191.202	-6.780	0.223	-0.151
-190.187	785.290	0.023	-0.064
-189.173	-72.587	-0.255	-0.094
-188.158	-155.814	0.239	-0.015
-187.144	-29.116	0.236	-0.134
-186.129	27.971	-0.097	-0.082
-185.114	-200.000	-0.010	-0.139
-184.100	-200.000	0.005	-0.031
-183.085	244.403	0.215	-0.359
-182.071	26.985	-0.259	0.216
-181.056	-58.206	-0.179	-0.078
-180.042	800.000	-0.082	-0.320
-179.027	-103.327	0.059	-0.014
-178.012	-37.679	-0.018	-0.009
-176.998	800.000	0.056	0.204
-175.983	-200.000	0.058	-0.315
-174.969	30.706	-0.061	-0.052
-173.954	-200.000	0.009	0.357
-172.939	384.675	0.142	0.291
-171.925	103.027	0.187	-0.218
-170.910	-83.376	0.245	0.078
-169.896	21.961	0.180	-0.146
-168.881	147.523	-0.137	0.183
-167.866	-41.669	0.074	0.038
-166.852	-159.659	-0.144	0.008
-165.837	-50.839	0.282	-0.132
-164.823	130.736	0.106	0.135
-163.808	606.180	0.102	0.253
-162.793	42.569	-0.218	0.197
-161.779	579.811	0.070	0.170
-160.764	439.328	-0.123	-0.267
-159.750	55.396	0.164	0.158
-158.735	-19.012	-0.248	-0.153
-157.720	-124.296	-0.140	-0.022
-156.706	32.110	-0.296	0.254
-155.691	-116.701	0.157	0.029
-154.677	-160.434	-0.148	0.008
-153.662	-176.621	-0.185	0.005
-152.647	-146.761	-0.285	-0.024
-151.633	126.898	0.122	0.154
-150.618	-200.000	0.012	0.121
-149.604	-140.235	0.183	-0.019
-148.589	-106.759	0.296	-0.065
-147.574	-200.000	0.001	0.360
-146.560	-58.112	0.214	0.093
-145.545	-6.377	-0.098	-0.066
-144.531	41.801	0.238	-0.214
-143.516	49.519	-0.124	-0.116
-142.502	125.873	-0.127	0.160
-141.487	6.957	0.338	-0.251
-140.472	421.774	0.052	-0.112
-139.458	-101.326	0.145	-0.035
-138.443	800.000	-0.045	-0.131
-137.429	69.195	-0.198	-0.202
-136.414	-146.941	0.220	0.019
-135.399	-132.358	-0.043	0.005
-134.385	-105.285	-0.161	-0.036
-133.370	800.000	0.045	-0.179
-132.356	-195.506	0.057	-0.000
-131.341	64.279	0.172	0.172
-130.326	216.775	-0.297	0.469
-129.312	-91.749	0.167	0.047
-128.297	-48.947	-0.089	0.042
-127.283	42.462	0.159	-0.143
-126.268	800.000	-0.031	-0.117
-125.253	-81.883	-0.051	-0.017
-124.239	20.251	0.028	0.022
-123.224	17.960	-0.188	0.149
-122.210	-8.059	0.104	0.070
-121.195	800.000	0.069	0.208
