DTS Sentinel unit serial number:	SN413079Multiplexer serial number:	ORYXHardware model number:	OX4-SRSoftware version number:	ORYX F/W v4.00 Oryx Data Collector v3.7.2.0data status	okinstallation	princeton_trtdifferential loss correction	single-endedforward channel	channel 4reverse channel	N/Adate	2019/09/15time	02:09:35forward acquisition time	60.00reverse acquisition time	0.00gamma	496.2192k internal	0.2308k external	0.2308temperature offset calibration	1.0037default loss term (dB/km)	0.3790temperature slope calibration	1.0000multiplexer offset coefficient	1.0000multiplexer slope coefficient	1.0000fibre end	0.00T internal ref (°C)	31.69T ext. ref 1 (°C)	4.56T ext. ref 2 (°C)	26.33length (m)	temperature (°C)	Stokes	anti-Stokes-747.200	-200.000	0.009	-0.234
-746.185	-86.044	0.136	0.043
-745.171	668.554	-0.052	-0.137
-744.156	571.433	-0.155	0.385
-743.142	92.385	-0.059	0.067
-742.127	-200.000	0.038	0.455
-741.112	120.747	-0.050	-0.063
-740.098	107.724	-0.042	-0.050
-739.083	-20.883	0.023	-0.014
-738.069	-64.437	-0.341	0.141
-737.054	-200.000	-0.043	0.266
-736.039	-35.726	-0.388	0.214
-735.025	-200.000	-0.048	0.343
-734.010	-81.335	-0.344	-0.115
-732.996	-48.299	-0.170	-0.083
-731.981	-175.660	0.641	0.018
-730.966	185.692	0.038	-0.058
-729.952	-135.250	-0.209	0.025
-728.937	800.000	0.045	-0.171
-727.923	-200.000	0.050	-0.225
-726.908	537.432	-0.038	0.092
-725.894	460.783	-0.140	0.316
-724.879	42.408	0.136	0.126
-723.864	-71.195	-0.141	-0.054
-722.850	-200.000	-0.043	-0.215
-721.835	-200.000	0.086	-0.578
-720.821	48.381	0.099	-0.094
-719.806	369.289	0.087	-0.178
-718.791	107.038	-0.190	0.229
-717.777	47.656	0.079	-0.075
-716.762	-87.033	0.151	0.047
-715.748	247.194	-0.173	-0.297
-714.733	800.000	-0.073	-0.210
-713.718	-200.000	0.054	-0.336
-712.704	-17.049	0.278	-0.178
-711.689	-80.081	-0.376	0.128
-710.675	-79.607	0.325	-0.111
-709.660	-187.789	-0.162	-0.002
-708.645	96.727	-0.071	0.082
-707.631	259.538	0.135	-0.236
-706.616	-66.191	0.408	-0.165
-705.602	-66.875	0.397	-0.159
-704.587	-200.000	0.016	-0.176
-703.572	-114.489	-0.484	-0.094
-702.558	279.321	-0.176	-0.318
-701.543	18.548	0.123	-0.100
-700.529	-200.000	-0.001	0.042
-699.514	-200.000	0.005	0.349
-698.499	-200.000	-0.007	0.194
-697.485	327.496	0.071	0.137
-696.470	800.000	-0.066	-0.237
-695.456	800.000	0.058	0.215
-694.441	201.582	0.127	0.199
-693.426	75.823	0.154	-0.165
-692.412	-200.000	0.006	-0.065
-691.397	-59.012	0.231	-0.101
-690.383	-38.970	-0.259	-0.138
-689.368	176.685	0.180	-0.265
-688.354	231.706	-0.086	-0.143
-687.339	-104.951	0.376	0.087
-686.324	358.332	0.060	0.121
-685.310	-9.757	-0.098	-0.066
-684.295	-153.089	0.092	-0.007
-683.281	-151.786	-0.150	0.011
-682.266	-200.000	0.011	0.292
-681.251	-182.029	-0.252	-0.005
-680.237	-121.676	-0.159	0.027
-679.222	800.000	-0.124	-0.507
-678.208	-200.000	0.014	-0.232
-677.193	3.272	-0.085	0.063
-676.178	85.390	-0.273	0.304
-675.164	-93.936	-0.195	-0.054
-674.149	-11.035	-0.190	0.127
-673.135	-70.114	0.224	-0.086
-672.120	-200.000	0.011	0.259
-671.105	44.876	-0.322	0.300
-670.091	-200.000	0.063	0.334
-669.076	-200.000	-0.026	-0.284
-668.062	497.757	-0.095	0.222
-667.047	800.000	-0.161	-0.613
-666.032	800.000	-0.025	0.088
-665.018	116.249	-0.083	-0.103
-664.003	-114.778	0.160	-0.031
-662.989	69.413	0.220	0.230
-661.974	-200.000	0.059	-0.294
-660.959	-200.000	-0.031	-0.156
-659.945	800.000	0.076	0.212
-658.930	-107.570	0.121	0.027
-657.916	-109.632	-0.236	-0.050
-656.901	-74.019	0.183	-0.067
-655.886	557.078	0.048	-0.117
-654.872	-52.914	0.043	0.020
-653.857	-17.799	0.200	-0.127
-652.843	-125.524	0.215	0.033
-651.828	-45.200	0.058	-0.029
-650.814	-19.533	-0.092	-0.058
-649.799	68.521	0.173	0.180
-648.784	107.680	-0.280	0.338
-647.770	-200.000	-0.006	-0.104
-646.755	756.516	0.097	0.267
-645.741	-187.122	0.226	-0.003
-644.726	-40.517	-0.258	-0.136
-643.711	-87.879	-0.181	0.055
-642.697	-94.576	0.081	-0.022
-641.682	-106.937	0.233	-0.052
-640.668	11.841	0.093	-0.072
-639.653	-39.312	-0.064	-0.034
-638.638	394.587	0.098	-0.207
-637.624	5.203	0.157	-0.117
-636.609	800.000	0.054	0.202
-635.595	-103.469	-0.216	0.051
-634.580	634.963	-0.129	0.331
-633.565	-3.416	0.151	-0.106
-632.551	-136.044	0.125	-0.015
-631.536	800.000	-0.029	-0.124
-630.522	-4.617	0.213	-0.149
-629.507	-34.872	-0.043	0.024
-628.492	8.586	-0.145	-0.110
-627.478	81.104	0.239	0.261
-626.463	-145.110	0.077	-0.007
-625.449	73.958	-0.204	0.217
-624.434	-107.567	-0.244	-0.054
-623.419	-141.959	-0.243	-0.025
-622.405	-200.000	0.013	0.106
-621.390	-76.478	-0.147	0.052
-620.376	78.657	0.169	-0.183
-619.361	-16.005	-0.174	-0.112
-618.346	-200.000	-0.020	-0.234
-617.332	-86.654	0.415	-0.129
-616.317	-139.557	-0.379	0.041
-615.303	-157.055	0.400	-0.025
-614.288	-85.663	0.147	0.046
-613.273	-21.145	-0.170	0.105
-612.259	445.495	-0.108	-0.240
-611.244	-200.000	0.024	0.402
-610.230	25.870	0.329	0.277
-609.215	252.408	-0.104	-0.180
-608.201	274.807	0.191	0.342
-607.186	85.296	0.259	-0.287
-606.171	-200.000	-0.033	-0.207
-605.157	-82.712	-0.409	0.134
-604.142	285.281	0.105	0.191
-603.128	748.648	-0.021	-0.058
-602.113	-200.000	-0.029	-0.170
-601.098	-97.505	0.262	0.069
-600.084	800.000	0.019	-0.065
-599.069	209.813	0.231	0.366
-598.055	-200.000	-0.039	-0.180
-597.040	216.987	-0.048	-0.077
-596.025	-98.647	0.221	-0.057
-595.011	-15.032	0.373	-0.241
-593.996	186.639	-0.140	-0.211
-592.982	-100.094	-0.308	-0.078
-591.967	800.000	-0.021	0.061
-590.952	-18.824	0.180	-0.113
-589.938	-200.000	-0.026	-0.131
-588.923	-200.000	-0.034	0.259
-587.909	-200.000	0.012	-0.072
-586.894	-51.559	-0.096	0.045
-585.879	-165.209	-0.141	-0.006
-584.865	591.312	-0.032	-0.081
-583.850	-53.654	-0.127	-0.058
-582.836	-200.000	0.055	0.253
-581.821	33.912	-0.069	-0.061
-580.806	-41.083	0.310	-0.162
-579.792	-133.890	-0.218	0.027
-578.777	21.562	0.152	0.125
-577.763	521.965	0.096	-0.227
-576.748	28.793	-0.086	0.073
-575.733	76.085	0.119	-0.127
-574.719	-200.000	0.100	0.467
-573.704	-171.983	-0.016	0.001
-572.690	-3.704	0.197	0.138
-571.675	324.832	0.054	-0.104
-570.661	-200.000	-0.017	-0.125
-569.646	704.182	0.082	-0.219
-568.631	-31.749	-0.359	-0.203
-567.617	-200.000	-0.059	-0.334
-566.602	-11.496	0.167	0.111
-565.588	118.534	0.082	0.102
-564.573	135.077	-0.271	-0.356
-563.558	-47.923	0.320	-0.157
-562.544	-26.072	-0.176	-0.105
-561.529	-29.212	-0.089	-0.052
-560.515	-89.075	0.381	-0.114
-559.500	-152.107	0.171	-0.013
-558.485	-200.000	0.003	-0.087
-557.471	321.866	-0.123	0.235
-556.456	132.198	-0.181	-0.235
-555.442	-200.000	-0.001	0.029
-554.427	-48.248	-0.268	0.130
-553.412	613.692	-0.087	-0.221
-552.398	-200.000	0.009	-0.339
-551.383	24.864	0.233	0.195
-550.369	800.000	-0.076	-0.284
-549.354	123.162	0.201	0.254
-548.339	800.000	-0.031	-0.093
-547.325	-200.000	0.027	-0.166
-546.310	-200.000	0.042	-0.240
-545.296	-200.000	-0.066	0.367
-544.281	34.823	0.133	-0.118
-543.266	276.230	0.040	0.072
-542.252	-200.000	-0.020	-0.218
-541.237	58.294	-0.094	0.093
-540.223	-200.000	0.024	0.211
-539.208	800.000	0.043	0.186
-538.193	572.392	-0.051	0.126
-537.179	-40.485	-0.385	-0.201
-536.164	-200.000	-0.013	-0.104
-535.150	-200.000	0.043	0.207
-534.135	790.857	0.115	0.317
-533.121	-155.484	0.327	0.021
-532.106	-17.469	0.303	0.192
-531.091	-200.000	-0.014	0.399
-530.077	800.000	-0.073	-0.255
-529.062	389.111	0.028	-0.058
-528.048	-200.000	-0.002	0.160
-527.033	-138.360	0.111	0.012
-526.018	-78.772	0.374	0.129
-525.004	-200.000	0.036	-0.215
-523.989	661.822	-0.015	-0.040
-522.975	17.408	-0.033	-0.027
-521.960	37.456	-0.070	0.063
-520.945	-200.000	0.015	-0.207
-519.931	423.653	0.127	-0.276
-518.916	-159.984	0.487	0.027
-517.902	-200.000	0.023	0.226
-516.887	72.679	0.208	0.218
-515.872	10.787	-0.273	-0.210
-514.858	-78.729	-0.182	-0.063
-513.843	184.023	-0.133	0.199
-512.829	-200.000	-0.035	0.258
-511.814	-172.102	-0.124	-0.004
-510.799	648.986	0.065	0.167
-509.785	800.000	0.018	0.053
-508.770	-68.102	-0.250	-0.098
-507.756	483.193	-0.039	0.089
-506.741	91.160	-0.164	-0.185
-505.726	186.265	0.150	-0.224
-504.712	609.917	-0.086	-0.218
-503.697	-133.178	-0.274	-0.035
-502.683	30.645	-0.262	0.226
-501.668	800.000	0.040	0.152
-500.653	-10.734	0.305	0.203
-499.639	-95.765	0.232	0.062
-498.624	87.469	0.265	0.295
-497.610	-56.573	-0.106	-0.047
-496.595	45.577	0.129	-0.120
-495.581	127.334	-0.123	-0.158
-494.566	189.043	0.073	-0.110
-493.551	-200.000	0.026	0.268
-492.537	-9.315	-0.139	0.094
-491.522	-77.622	-0.130	-0.045
-490.508	11.718	0.116	-0.089
-489.493	312.062	-0.099	-0.188
-488.478	35.842	-0.068	0.061
-487.464	-200.000	0.004	-0.439
-486.449	2.982	0.266	-0.195
-485.435	54.189	-0.221	-0.214
-484.420	-200.000	0.021	0.100
-483.405	-15.054	-0.194	0.125
-482.391	800.000	0.035	-0.131
-481.376	121.796	0.127	0.160
-480.362	510.583	-0.154	-0.361
-479.347	3.724	-0.179	-0.131
-478.332	-85.856	0.221	-0.069
-477.318	-84.809	0.209	-0.066
-476.303	-99.306	-0.255	-0.065
-475.289	266.095	0.203	-0.357
-474.274	267.756	-0.171	-0.302
-473.259	-200.000	-0.011	-0.161
-472.245	-41.149	0.250	0.130
-471.230	-76.469	-0.196	0.069
-470.216	-62.474	-0.193	-0.081
-469.201	-200.000	0.039	-0.441
-468.186	103.883	0.269	0.318
-467.172	-106.535	-0.357	0.080
-466.157	-164.525	0.268	-0.012
-465.143	-32.510	-0.123	0.069
-464.128	68.760	-0.129	0.133
-463.113	499.405	0.203	0.471
-462.099	-200.000	-0.022	-0.097
-461.084	54.339	0.121	0.117
-460.070	800.000	-0.040	0.172
-459.055	658.063	0.120	0.310
-458.040	-185.846	0.183	0.003
-457.026	304.061	-0.015	-0.027
-456.011	417.400	0.159	0.341
-454.997	197.246	-0.217	-0.333
-453.982	-24.748	0.151	-0.090
-452.968	-52.355	0.061	-0.028
-451.953	-47.312	-0.101	0.049
-450.938	-25.380	-0.068	-0.040
-449.924	32.751	0.289	-0.251
-448.909	81.169	0.118	0.129
-447.895	44.537	-0.266	-0.245
-446.880	283.401	-0.112	-0.201
-445.865	33.555	0.205	-0.179
-444.851	-200.000	0.055	0.264
-443.836	-64.049	0.258	0.106
-442.822	32.549	-0.184	-0.160
-441.807	157.273	-0.077	0.106
-440.792	800.000	0.099	-0.286
-439.778	800.000	0.057	0.217
-438.763	225.810	0.168	0.273
-437.749	-200.000	0.013	0.067
-436.734	643.527	0.182	-0.466
-435.719	-200.000	-0.031	0.296
-434.705	-171.767	0.271	-0.009
-433.690	800.000	-0.119	-0.406
-432.676	-138.263	-0.243	0.027
-431.661	456.313	-0.074	0.166
-430.646	45.091	0.292	0.270
-429.632	208.617	-0.182	-0.286
-428.617	110.830	-0.216	0.260
-427.603	-200.000	-0.007	0.063
-426.588	42.287	-0.204	0.186
-425.573	-84.303	-0.281	0.089
-424.559	178.942	-0.086	0.126
-423.544	-77.210	0.217	-0.076
-422.530	413.527	-0.082	-0.175
-421.515	-64.448	0.179	-0.073
-420.500	-58.119	-0.453	-0.198
-419.486	-151.901	0.118	0.009
-418.471	800.000	0.027	0.105
-417.457	290.370	-0.120	0.220
-416.442	-112.443	0.318	-0.064
-415.428	-129.356	0.131	-0.018
-414.413	-3.945	-0.249	0.173
-413.398	44.571	0.054	-0.049
-412.384	-200.000	-0.012	0.281
-411.369	-200.000	0.060	-0.295
-410.355	-86.621	0.530	-0.163
-409.340	243.749	-0.136	0.229
-408.325	-102.999	0.269	-0.064
-407.311	16.588	0.108	-0.086
-406.296	-200.000	-0.026	0.289
-405.282	-80.803	-0.269	-0.090
-404.267	430.907	0.135	0.292
-403.252	101.642	0.039	0.045
-402.238	549.008	0.087	-0.208
-401.223	-32.344	-0.136	-0.076
-400.209	21.507	0.128	0.104
-399.194	61.500	-0.126	0.125
-398.179	-100.995	0.080	0.020
-397.165	44.672	0.246	-0.227
-396.150	50.414	0.237	0.225
-395.136	-61.550	0.134	0.056
-394.121	800.000	-0.054	-0.221
-393.106	332.450	-0.029	0.056
-392.092	4.745	-0.213	-0.157
-391.077	-87.476	0.424	-0.129
-390.063	107.120	0.276	-0.329
-389.048	126.485	-0.088	-0.112
-388.033	-169.232	0.176	0.007
-387.019	151.761	0.100	0.136
-386.004	6.908	0.326	0.243
-384.990	-200.000	-0.018	0.125
-383.975	263.012	-0.106	0.184
-382.960	284.631	0.049	-0.088
-381.946	800.000	0.064	-0.235
-380.931	-200.000	-0.031	0.212
-379.917	-111.217	-0.217	-0.044
-378.902	325.060	0.036	0.069
-377.888	0.554	-0.343	0.245
-376.873	-200.000	-0.006	-0.224
-375.858	774.874	-0.141	0.387
-374.844	-37.949	-0.623	0.332
-373.829	800.000	0.040	-0.170
-372.815	127.525	-0.074	0.094
-371.800	-50.235	0.326	-0.154
-370.785	800.000	0.106	-0.370
-369.771	800.000	-0.084	-0.254
-368.756	-153.357	-0.135	0.009
-367.742	-87.379	-0.166	0.050
-366.727	-131.629	-0.253	0.033
-365.712	-132.021	0.020	0.003
-364.698	69.024	0.106	0.109
-363.683	800.000	0.070	-0.280
-362.669	-32.563	-0.175	-0.098
-361.654	800.000	0.060	-0.193
-360.639	-200.000	0.318	-0.000
-359.625	81.627	-0.366	-0.397
-358.610	-61.842	-0.225	-0.094
-357.596	-83.809	0.309	0.099
-356.581	800.000	0.085	-0.259
-355.566	800.000	0.044	-0.175
-354.552	800.000	-0.092	0.260
-353.537	667.632	-0.079	0.205
-352.523	-111.724	-0.262	0.053
-351.508	-117.392	0.256	-0.046
-350.493	800.000	0.061	-0.227
-349.479	-200.000	-0.066	-0.484
-348.464	-200.000	0.001	0.117
-347.450	-81.090	-0.263	-0.087
-346.435	528.546	-0.146	0.345
-345.420	32.731	-0.196	0.170
-344.406	41.885	-0.548	0.498
-343.391	-200.000	0.002	0.154
-342.377	800.000	-0.065	-0.197
-341.362	-3.782	0.072	-0.050
-340.348	-42.645	-0.171	0.087
-339.333	142.974	-0.133	0.177
-338.318	303.391	0.041	0.076
-337.304	-200.000	0.029	-0.159
-336.289	-32.536	-0.326	0.182
-335.275	-32.669	0.074	-0.041
-334.260	81.358	0.208	0.225
-333.245	432.499	0.103	0.224
-332.231	97.102	0.057	-0.066
-331.216	-71.836	0.421	0.157
-330.202	614.856	0.028	0.070
-329.187	407.380	0.144	0.304
-328.172	-96.422	0.197	-0.052
-327.158	111.296	-0.243	0.293
-326.143	-173.969	-0.234	0.007
-325.129	11.120	0.163	-0.125
-324.114	-111.814	-0.447	-0.090
-323.099	-200.000	-0.002	-0.131
-322.085	-154.080	-0.246	-0.017
-321.070	161.509	0.207	0.289
-320.056	263.523	0.149	-0.259
-319.041	-148.926	-0.248	0.020
-318.026	-99.437	0.096	-0.024
-317.012	800.000	-0.122	-0.482
-315.997	39.236	0.085	-0.076
-314.983	378.656	-0.092	0.188
-313.968	-82.191	0.099	0.032
-312.953	-160.717	0.279	0.015
-311.939	426.716	0.191	0.411
-310.924	684.960	0.083	-0.217
-309.910	-200.000	-0.013	-0.100
-308.895	-7.231	-0.280	0.190
-307.880	453.112	-0.045	-0.099
-306.866	320.792	-0.170	0.323
-305.851	-33.566	-0.527	-0.291
-304.837	1.301	-0.124	0.089
-303.822	143.223	-0.209	0.278
-302.807	80.738	0.096	0.104
-301.793	-51.510	-0.026	0.012
-300.778	-65.559	-0.288	0.116
-299.764	403.658	0.162	-0.341
-298.749	-74.632	-0.349	0.125
-297.735	453.828	0.152	-0.335
-296.720	-114.031	-0.139	0.027
-295.705	-1.926	0.124	0.087
-294.691	313.707	-0.078	0.147
-293.676	-105.048	0.312	0.071
-292.662	209.013	-0.193	0.302
-291.647	800.000	0.028	0.111
-290.632	-130.561	-0.248	-0.033
-289.618	23.053	-0.127	0.104
-288.603	800.000	-0.042	0.150
-287.589	541.001	0.068	-0.161
-286.574	620.362	0.033	0.083
-285.559	12.660	-0.113	0.087
-284.545	744.618	-0.053	-0.142
-283.530	93.769	-0.099	-0.112
-282.516	-200.000	0.003	0.153
-281.501	19.061	0.067	0.054
-280.486	-200.000	0.015	-0.213
-279.472	75.572	0.227	0.240
-278.457	472.787	-0.063	0.143
-277.443	318.717	0.055	-0.105
-276.428	-23.312	0.271	-0.163
-275.413	800.000	0.074	-0.215
-274.399	-19.328	-0.318	-0.197
-273.384	800.000	0.076	-0.250
-272.370	-88.751	0.093	-0.028
-271.355	256.348	-0.042	-0.071
-270.340	26.331	-0.262	0.219
-269.326	612.815	0.015	0.037
-268.311	50.940	-0.038	-0.036
-267.297	31.703	-0.126	-0.108
-266.282	-112.175	-0.400	-0.080
-265.267	-98.215	0.480	-0.123
-264.253	291.219	0.134	0.244
-263.238	-76.392	-0.419	0.147
-262.224	61.146	-0.177	-0.176
-261.209	12.628	-0.348	-0.268
-260.195	-119.288	0.256	-0.044
-259.180	-40.736	0.020	-0.010
-258.165	77.890	-0.265	-0.282
-257.151	792.556	0.117	0.322
-256.136	131.671	-0.189	-0.243
-255.122	800.000	-0.076	-0.268
-254.107	510.858	-0.043	0.100
-253.092	-147.944	0.312	0.026
-252.078	-122.556	0.188	0.030
-251.063	100.088	0.093	-0.108
-250.049	-64.086	-0.057	-0.023
-249.034	800.000	-0.048	0.134
-248.019	-200.000	-0.010	0.190
-247.005	-200.000	0.022	-0.216
-245.990	12.457	-0.101	-0.078
-244.976	-135.636	0.481	-0.057
-243.961	-157.110	0.201	-0.012
-242.946	-32.725	0.375	0.208
-241.932	420.053	0.124	-0.265
-240.917	-131.157	0.180	-0.024
-239.903	-34.247	0.104	0.057
-238.888	800.000	-0.008	0.028
-237.873	-100.524	0.279	0.069
-236.859	135.417	-0.042	-0.055
-235.844	232.036	-0.124	-0.202
-234.830	43.539	-0.047	-0.043
-233.815	17.602	-0.120	0.095
-232.800	179.333	0.234	-0.341
-231.786	-200.000	-0.043	0.204
-230.771	32.072	-0.050	0.043
-229.757	-156.717	0.361	0.022
-228.742	597.912	-0.060	-0.148
-227.727	205.968	-0.052	0.081
-226.713	-166.858	-0.074	-0.003
-225.698	-200.000	-0.011	-0.304
-224.684	761.180	-0.050	0.136
-223.669	201.675	0.031	0.047
-222.655	-136.909	-0.133	0.015
-221.640	-47.850	0.179	-0.086
-220.625	152.437	-0.214	0.292
-219.611	153.765	-0.139	0.190
-218.596	1.088	0.082	-0.059
-217.582	34.401	0.248	-0.216
-216.567	-96.992	0.519	0.135
-215.552	-50.215	-0.037	0.018
-214.538	-156.053	0.322	-0.020
-213.523	-43.457	0.023	0.011
-212.509	-17.068	-0.123	0.078
-211.494	18.380	-0.030	0.024
-210.479	200.000	0.155	-0.237
-209.465	-113.110	-0.174	0.034
-208.450	273.610	-0.221	0.389
-207.436	-200.000	-0.001	-0.143
-206.421	-60.323	-0.127	0.054
-205.406	-134.420	0.422	0.051
-204.392	-125.441	-0.119	0.018
-203.377	-56.313	-0.301	-0.133
-202.363	344.225	0.160	-0.312
-201.348	-200.000	-0.061	0.398
-200.333	-9.922	-0.281	-0.186
-199.319	-111.272	0.216	0.044
-198.304	-50.575	-0.270	-0.127
-197.290	34.963	0.081	-0.071
-196.275	-110.206	-0.131	0.027
-195.260	-116.381	-0.262	-0.048
-194.246	800.000	0.012	-0.040
-193.231	-200.000	-0.003	-0.052
-192.217	-66.086	-0.404	0.160
-191.202	365.997	-0.037	0.074
-190.187	-150.032	-0.239	0.018
-189.173	-110.584	0.197	0.041
-188.158	377.915	0.168	0.342
-187.144	-4.000	-0.118	0.082
-186.129	-75.635	-0.210	0.074
-185.114	55.503	0.270	-0.260
-184.100	-200.000	-0.022	0.172
-183.085	69.587	-0.028	0.029
-182.071	-200.000	0.003	-0.166
-181.056	262.604	0.075	0.130
-180.042	-90.311	-0.232	0.067
-179.027	-150.084	-0.342	0.026
-178.012	-164.545	0.104	-0.005
-176.998	-200.000	0.007	0.084
-175.983	-137.825	-0.295	-0.033
-174.969	631.030	-0.025	0.062
-173.954	800.000	0.048	-0.156
-172.939	800.000	0.058	0.206
-171.925	-88.936	0.035	0.010
-170.910	-84.444	0.345	-0.108
-169.896	14.673	-0.167	0.130
-168.881	596.008	-0.073	0.179
-167.866	337.027	-0.079	0.152
-166.852	-200.000	-0.027	-0.288
-165.837	320.592	0.040	0.076
-164.823	-30.532	-0.275	-0.155
-163.808	-124.747	0.144	-0.022
-162.793	-180.443	-0.294	0.006
-161.779	-55.818	0.113	0.050
-160.764	-7.476	0.109	0.073
-159.750	76.880	0.114	0.120
-158.735	133.856	-0.066	-0.085
-157.720	-83.481	-0.104	0.033
-156.706	-105.004	0.325	0.074
-155.691	-200.000	-0.004	0.079
-154.677	68.267	-0.084	-0.085
-153.662	-133.248	-0.063	0.008
-152.647	-200.000	0.065	0.376
-151.633	-74.559	-0.150	0.054
-150.618	800.000	-0.131	0.402
-149.604	-133.805	0.250	-0.031
-148.589	-100.657	0.205	-0.050
-147.574	-200.000	0.003	0.100
-146.560	-49.339	-0.080	-0.038
-145.545	145.402	-0.088	0.117
-144.531	7.910	0.148	0.110
-143.516	36.900	0.208	0.183
-142.502	463.671	-0.150	0.333
-141.487	-17.655	-0.122	0.076
-140.472	458.495	0.061	-0.135
-139.458	-143.874	-0.128	0.012
-138.443	-12.024	0.162	0.105
-137.429	-48.436	0.144	-0.069
-136.414	92.819	0.156	-0.175
-135.399	266.143	-0.103	-0.178
-134.385	-27.993	-0.059	0.034
-133.370	-111.873	0.334	0.067
-132.356	197.811	0.271	-0.412
-131.341	358.654	-0.177	-0.352
-130.326	797.110	0.036	0.097
-129.312	175.035	0.136	0.196
-128.297	-200.000	0.007	0.118
-127.283	-127.390	0.340	-0.049
-126.268	-44.174	0.108	0.054
-125.253	-42.838	-0.222	0.112
-124.239	800.000	-0.032	0.123
-123.224	-171.283	0.091	-0.003
-122.210	-121.917	0.346	0.057
-121.195	-96.827	-0.058	-0.015
