DTS Sentinel unit serial number:	SN413079Multiplexer serial number:	ORYXHardware model number:	OX4-SRSoftware version number:	ORYX F/W v4.00 Oryx Data Collector v3.7.2.0data status	okinstallation	princeton_trtdifferential loss correction	single-endedforward channel	channel 4reverse channel	N/Adate	2019/09/15time	09:37:35forward acquisition time	60.00reverse acquisition time	0.00gamma	496.2192k internal	0.2299k external	0.2299temperature offset calibration	1.0014default loss term (dB/km)	0.3790temperature slope calibration	1.0000multiplexer offset coefficient	1.0000multiplexer slope coefficient	1.0000fibre end	0.00T internal ref (°C)	33.87T ext. ref 1 (°C)	4.91T ext. ref 2 (°C)	29.72length (m)	temperature (°C)	Stokes	anti-Stokes-747.200	-97.414	-0.208	-0.055
-746.185	-46.549	-0.307	-0.154
-745.171	-200.000	-0.055	0.259
-744.156	-21.457	-0.177	0.110
-743.142	-109.763	0.114	-0.024
-742.127	-78.851	0.186	0.065
-741.112	800.000	-0.019	0.064
-740.098	-200.000	0.028	0.167
-739.083	-76.786	-0.080	-0.029
-738.069	96.471	0.225	0.263
-737.054	72.326	-0.042	0.045
-736.039	59.504	-0.285	-0.287
-735.025	800.000	0.021	0.075
-734.010	-101.070	-0.085	-0.021
-732.996	-120.473	0.133	-0.023
-731.981	155.971	-0.176	-0.248
-730.966	-62.390	0.217	-0.092
-729.952	-66.850	-0.227	-0.091
-728.937	416.753	0.128	-0.279
-727.923	-84.066	0.021	-0.007
-726.908	-50.478	-0.261	0.126
-725.894	557.574	-0.051	-0.125
-724.879	-119.867	0.408	0.072
-723.864	-66.997	0.116	-0.047
-722.850	233.956	-0.189	0.317
-721.835	-47.061	0.133	-0.066
-720.821	21.428	0.190	0.157
-719.806	-200.000	-0.042	-0.365
-718.791	800.000	-0.085	-0.281
-717.777	0.535	-0.171	0.124
-716.762	31.630	-0.095	-0.084
-715.748	800.000	-0.033	-0.099
-714.733	30.391	-0.232	-0.202
-713.718	-200.000	0.049	-0.522
-712.704	800.000	-0.077	-0.276
-711.689	48.049	-0.099	0.094
-710.675	486.200	0.118	0.273
-709.660	-26.912	-0.062	0.037
-708.645	-200.000	-0.031	-0.167
-707.631	93.543	0.201	-0.232
-706.616	362.725	-0.160	-0.327
-705.602	-151.266	0.267	-0.020
-704.587	82.759	-0.154	-0.171
-703.572	-76.760	-0.124	-0.044
-702.558	447.590	0.023	0.051
-701.543	107.606	-0.195	-0.236
-700.529	-200.000	-0.006	0.179
-699.514	23.158	0.190	-0.159
-698.499	493.919	0.092	-0.215
-697.485	-200.000	0.021	-0.191
-696.470	123.105	-0.144	0.184
-695.456	-200.000	-0.011	0.206
-694.441	-200.000	0.050	-0.383
-693.426	-200.000	0.077	-0.353
-692.412	137.529	-0.234	0.311
-691.397	-200.000	0.012	-0.160
-690.383	-96.283	0.342	-0.092
-689.368	353.889	-0.049	0.099
-688.354	-60.567	-0.160	-0.069
-687.339	-12.598	-0.245	-0.163
-686.324	400.464	0.077	-0.164
-685.310	-200.000	-0.046	-0.210
-684.295	308.717	-0.050	0.095
-683.281	-200.000	-0.037	-0.246
-682.266	-20.658	0.077	-0.048
-681.251	-119.210	0.607	-0.108
-680.237	-8.595	-0.314	-0.215
-679.222	212.321	0.089	0.143
-678.208	-35.763	-0.086	-0.047
-677.193	-43.592	0.174	-0.089
-676.178	-15.254	-0.215	-0.140
-675.164	-200.000	-0.026	-0.237
-674.149	800.000	0.127	-0.492
-673.135	9.617	-0.203	-0.156
-672.120	-13.960	0.164	-0.108
-671.105	-157.953	0.151	-0.009
-670.091	-102.991	-0.305	0.074
-669.076	-200.000	0.002	-0.349
-668.062	-200.000	0.038	0.213
-667.047	-95.747	-0.164	-0.045
-666.032	627.067	-0.059	-0.152
-665.018	662.803	0.059	0.155
-664.003	-78.459	-0.108	0.038
-662.989	-49.045	0.206	-0.100
-661.974	-200.000	0.003	0.184
-660.959	-200.000	-0.047	-0.247
-659.945	-42.004	-0.096	0.050
-658.930	70.432	0.129	0.136
-657.916	-118.527	-0.427	0.077
-656.901	-200.000	-0.011	0.416
-655.886	115.567	-0.063	0.079
-654.872	354.159	-0.153	-0.309
-653.857	-115.818	-0.232	0.044
-652.843	-200.000	-0.003	-0.045
-651.828	-59.311	0.390	0.170
-650.814	-70.084	-0.399	-0.154
-649.799	63.307	0.168	-0.172
-648.784	-76.429	-0.130	-0.046
-647.770	261.952	-0.125	-0.220
-646.755	540.736	0.096	0.232
-645.741	-182.903	-0.171	0.003
-644.726	-18.742	0.104	-0.066
-643.711	108.147	-0.165	-0.200
-642.697	25.734	-0.107	-0.091
-641.682	-54.473	-0.218	-0.100
-640.668	-23.720	-0.230	-0.140
-639.653	-98.280	0.317	0.083
-638.638	-132.979	-0.329	0.042
-637.624	-200.000	0.006	0.077
-636.609	-71.523	0.501	-0.190
-635.595	160.330	-0.070	-0.099
-634.580	-100.631	-0.341	-0.086
-633.565	272.025	-0.086	-0.154
-632.551	-200.000	0.060	0.343
-631.536	-200.000	0.015	-0.313
-630.522	-200.000	-0.006	-0.176
-629.507	-2.412	0.046	-0.033
-628.492	-200.000	0.056	-0.289
-627.478	-12.550	0.239	0.158
-626.463	-80.647	-0.135	0.046
-625.449	-17.740	0.302	0.193
-624.434	6.057	0.066	-0.049
-623.419	-89.064	0.205	0.062
-622.405	173.267	0.152	0.223
-621.390	241.477	-0.046	-0.078
-620.376	94.697	-0.143	-0.165
-619.361	-23.815	0.258	-0.157
-618.346	-68.979	-0.383	0.150
-617.332	-22.615	-0.264	-0.162
-616.317	-200.000	-0.017	0.191
-615.303	396.625	-0.045	0.096
-614.288	131.494	-0.087	0.114
-613.273	-200.000	-0.011	0.063
-612.259	-108.776	0.177	0.038
-611.244	44.879	0.115	0.107
-610.230	-126.812	-0.018	0.003
-609.215	-152.247	-0.359	-0.026
-608.201	800.000	-0.033	0.095
-607.186	29.207	0.203	-0.175
-606.171	13.076	0.218	-0.171
-605.157	410.421	-0.061	-0.131
-604.142	-193.296	-0.221	-0.002
-603.128	-185.667	0.320	0.005
-602.113	79.250	-0.048	0.052
-601.098	-103.923	-0.202	-0.048
-600.084	85.484	0.105	-0.117
-599.069	800.000	0.031	-0.128
-598.055	-170.526	0.236	-0.008
-597.040	114.526	-0.185	-0.229
-596.025	-200.000	0.016	0.134
-595.011	-200.000	0.036	-0.541
-593.996	25.367	0.090	-0.076
-592.982	-33.909	0.007	0.004
-591.967	165.182	0.181	-0.260
-590.952	293.427	-0.124	0.229
-589.938	42.342	0.021	0.020
-588.923	710.107	0.166	-0.447
-587.909	-64.435	-0.127	-0.053
-586.894	-200.000	0.010	-0.063
-585.879	227.729	-0.012	-0.020
-584.865	541.568	0.074	-0.180
-583.850	800.000	0.112	-0.344
-582.836	-23.643	-0.194	-0.118
-581.821	-145.667	-0.068	0.006
-580.806	-105.023	0.280	-0.065
-579.792	571.136	0.091	-0.224
-578.777	19.420	-0.072	-0.059
-577.763	86.328	-0.072	-0.081
-576.748	111.786	-0.147	-0.180
-575.733	-200.000	-0.026	-0.143
-574.719	277.667	-0.034	0.060
-573.704	-200.000	0.023	-0.182
-572.690	563.153	-0.101	0.247
-571.675	-32.057	0.228	0.129
-570.661	-27.127	0.325	-0.192
-569.646	-200.000	-0.002	0.044
-568.631	-147.394	-0.247	0.021
-567.617	-63.418	-0.286	0.119
-566.602	-128.832	0.209	-0.030
-565.588	285.652	0.100	0.183
-564.573	89.910	-0.157	-0.178
-563.558	-200.000	0.077	0.542
-562.544	-1.951	0.170	-0.121
-561.529	-72.252	0.370	-0.139
-560.515	800.000	0.061	-0.206
-559.500	-56.158	0.326	0.147
-558.485	-116.338	-0.440	-0.083
-557.471	800.000	-0.022	-0.075
-556.456	-87.592	-0.184	-0.056
-555.442	-100.808	0.231	0.058
-554.427	189.498	-0.177	-0.269
-553.412	562.477	-0.103	-0.253
-552.398	27.629	0.174	-0.148
-551.383	282.623	0.080	0.146
-550.369	394.430	0.093	-0.196
-549.354	-50.499	-0.270	0.129
-548.339	173.689	-0.215	0.315
-547.325	-70.127	0.268	0.103
-546.310	549.692	-0.048	-0.117
-545.296	-27.292	-0.265	-0.156
-544.281	-62.002	0.028	0.012
-543.266	713.995	-0.103	0.277
-542.252	-146.761	-0.149	-0.013
-541.237	291.037	-0.122	-0.225
-540.223	-130.136	-0.127	-0.017
-539.208	100.023	0.091	0.107
-538.193	-200.000	0.017	0.212
-537.179	120.366	0.091	-0.114
-536.164	452.274	-0.094	-0.211
-535.150	-73.081	0.157	-0.058
-534.135	-102.015	0.152	-0.037
-533.121	413.320	-0.071	-0.153
-532.106	-200.000	0.026	0.160
-531.091	-2.401	-0.225	-0.160
-530.077	21.051	-0.126	-0.103
-529.062	316.629	-0.088	0.169
-528.048	-200.000	0.066	0.413
-527.033	-90.497	-0.120	0.035
-526.018	70.140	0.020	-0.021
-525.004	-45.824	-0.169	-0.084
-523.989	8.039	-0.287	0.218
-522.975	-200.000	-0.020	-0.243
-521.960	-93.706	0.055	0.015
-520.945	707.981	0.025	-0.066
-519.931	324.279	0.056	0.108
-518.916	-43.200	-0.244	0.125
-517.902	-200.000	-0.025	-0.161
-516.887	67.724	-0.178	0.184
-515.872	198.879	-0.076	-0.118
-514.858	321.023	-0.144	-0.276
-513.843	-94.424	-0.110	-0.030
-512.829	-84.314	-0.157	0.050
-511.814	264.264	0.078	0.138
-510.799	0.107	0.276	-0.199
-509.785	-189.966	0.195	-0.002
-508.770	650.418	-0.083	-0.215
-507.756	-200.000	0.059	-0.275
-506.741	-200.000	0.062	-0.607
-505.726	230.978	-0.109	0.180
-504.712	800.000	-0.107	0.364
-503.697	-175.249	0.240	0.007
-502.683	21.968	0.243	0.201
-501.668	-160.092	0.143	-0.008
-500.653	-200.000	-0.005	-0.159
-499.639	261.076	0.184	-0.322
-498.624	-47.947	-0.148	0.072
-497.610	-23.632	0.291	0.177
-496.595	-14.788	-0.229	-0.148
-495.581	563.638	-0.041	-0.099
-494.566	800.000	-0.069	0.285
-493.551	62.266	-0.050	0.051
-492.537	124.999	0.283	0.360
-491.522	20.414	-0.267	0.218
-490.508	-200.000	0.008	-0.195
-489.493	141.990	-0.263	-0.352
-488.478	800.000	-0.030	0.110
-487.464	35.434	-0.275	0.244
-486.449	23.171	0.216	-0.179
-485.435	-183.536	-0.060	0.001
-484.420	-49.627	0.244	-0.117
-483.405	304.828	-0.127	0.238
-482.391	-118.971	0.182	-0.032
-481.376	386.114	-0.087	0.181
-480.362	-130.686	-0.092	0.013
-479.347	-141.569	-0.246	0.025
-478.332	-72.946	0.048	-0.018
-477.318	-8.787	-0.175	-0.119
-476.303	-47.040	0.353	0.174
-475.289	80.970	-0.064	-0.070
-474.274	-37.016	-0.318	-0.172
-473.259	-153.177	-0.231	0.016
-472.245	-151.983	0.252	-0.019
-471.230	800.000	-0.046	-0.194
-470.216	102.521	0.246	0.290
-469.201	12.890	0.134	-0.104
-468.186	-200.000	0.017	0.238
-467.172	-110.329	-0.122	0.026
-466.157	389.630	-0.121	-0.252
-465.143	-138.913	0.053	-0.006
-464.128	800.000	0.057	-0.224
-463.113	-0.088	-0.210	0.151
-462.099	6.632	-0.316	0.237
-461.084	-76.410	-0.191	0.068
-460.070	-96.276	0.130	0.035
-459.055	290.891	0.053	0.098
-458.040	25.837	-0.078	0.065
-457.026	-144.206	-0.440	-0.041
-456.011	489.756	-0.090	-0.207
-454.997	-123.726	0.140	0.022
-453.982	-93.487	-0.281	-0.078
-452.968	161.622	-0.048	-0.068
-451.953	800.000	-0.137	-0.456
-450.938	60.675	-0.070	0.070
-449.924	556.819	0.119	0.290
-448.909	-120.266	-0.521	0.090
-447.895	10.053	0.231	-0.177
-446.880	-200.000	0.003	-0.136
-445.865	113.222	-0.081	-0.099
-444.851	21.066	0.276	-0.226
-443.836	-109.242	0.347	0.074
-442.822	-200.000	-0.065	0.000
-441.807	31.572	-0.191	0.166
-440.792	800.000	0.037	0.133
-439.778	19.807	0.194	0.158
-438.763	19.529	-0.097	0.079
-437.749	-64.727	-0.014	0.006
-436.734	353.858	-0.103	-0.207
-435.719	-109.802	-0.383	0.081
-434.705	559.104	-0.021	0.051
-433.690	48.913	0.114	0.108
-432.676	-79.358	-0.099	0.034
-431.661	71.666	0.001	-0.002
-430.646	47.460	0.184	0.173
-429.632	342.140	0.123	-0.243
-428.617	21.526	-0.087	0.072
-427.603	-200.000	0.046	-0.209
-426.588	673.904	0.101	0.264
-425.573	220.793	-0.085	0.137
-424.559	-71.519	0.427	0.161
-423.544	225.341	-0.107	-0.174
-422.530	-55.204	0.222	0.101
-421.515	184.853	-0.041	0.061
-420.500	258.974	-0.106	-0.185
-419.486	800.000	-0.023	-0.098
-418.471	-77.102	0.193	0.068
-417.457	279.918	-0.148	-0.267
-416.442	44.051	-0.101	0.093
-415.428	209.373	0.027	-0.042
-414.413	94.505	0.118	0.135
-413.398	800.000	0.024	-0.107
-412.384	35.395	-0.035	0.031
-411.369	-200.000	-0.264	0.000
-410.355	-14.738	-0.318	0.206
-409.340	-200.000	0.040	-0.271
-408.325	-200.000	0.003	-0.076
-407.311	-2.419	0.081	-0.057
-406.296	51.267	0.090	0.086
-405.282	-200.000	0.006	-0.613
-404.267	-200.000	-0.024	-0.339
-403.252	313.352	0.334	0.632
-402.238	99.714	-0.130	0.152
-401.223	495.911	-0.115	0.266
-400.209	15.698	0.227	-0.180
-399.194	142.751	-0.130	-0.174
-398.179	800.000	0.035	0.113
-397.165	101.231	0.137	-0.161
-396.150	76.382	0.176	0.188
-395.136	59.037	0.224	-0.222
-394.121	-104.175	0.154	0.036
-393.106	98.486	-0.048	0.055
-392.092	-103.811	0.037	0.009
-391.077	56.890	0.100	0.099
-390.063	-47.271	-0.070	-0.034
-389.048	144.834	-0.075	0.101
-388.033	263.442	-0.068	0.119
-387.019	-200.000	0.004	0.075
-386.004	-87.851	0.095	0.029
-384.990	-29.429	0.296	0.170
-383.975	167.540	-0.119	0.170
-382.960	-67.614	0.079	0.031
-381.946	200.668	0.130	0.201
-380.931	244.102	0.235	0.397
-379.917	-200.000	-0.039	0.287
-378.902	95.813	0.147	0.169
-377.888	282.327	0.147	-0.266
-376.873	-200.000	-0.005	-0.175
-375.858	-197.182	-0.160	-0.001
-374.844	-200.000	0.001	0.187
-373.829	-200.000	-0.003	0.172
-372.815	11.895	-0.175	0.135
-371.800	34.884	0.209	-0.184
-370.785	-6.609	-0.232	-0.159
-369.771	472.766	-0.109	0.246
-368.756	-200.000	0.014	0.075
-367.742	316.057	-0.040	0.075
-366.727	311.487	0.109	0.205
-365.712	-200.000	-0.019	0.268
-364.698	-138.939	-0.152	-0.017
-363.683	4.823	0.193	0.142
-362.669	-200.000	0.044	0.223
-361.654	-200.000	-0.006	0.036
-360.639	132.185	0.194	0.251
-359.625	-83.966	-0.324	0.103
-358.610	-65.925	0.216	-0.087
-357.596	-200.000	0.012	-0.185
-356.581	76.235	0.092	0.098
-355.566	482.977	0.083	0.191
-354.552	-180.172	0.131	0.003
-353.537	-157.946	-0.067	-0.004
-352.523	800.000	0.103	-0.350
-351.508	0.567	0.316	0.227
-350.493	179.687	0.100	-0.147
-349.479	-138.111	-0.102	0.011
-348.464	-41.364	-0.026	0.014
-347.450	168.197	0.045	0.065
-346.435	-38.548	-0.424	-0.225
-345.420	71.630	0.224	0.233
-344.406	-14.119	-0.274	-0.178
-343.391	800.000	-0.062	0.199
-342.377	83.155	-0.079	-0.087
-341.362	-64.430	0.076	0.031
-340.348	42.695	0.312	-0.286
-339.333	800.000	0.028	0.114
-338.318	-30.025	0.056	-0.032
-337.304	800.000	0.109	0.318
-336.289	153.961	0.082	0.113
-335.275	800.000	-0.067	0.223
-334.260	800.000	0.093	0.381
-333.245	-200.000	0.009	-0.089
-332.231	311.829	-0.078	-0.147
-331.216	-160.101	-0.277	-0.015
-330.202	742.433	0.067	-0.181
-329.187	25.121	-0.136	-0.114
-328.172	726.290	0.041	-0.110
-327.158	291.128	0.127	0.231
-326.143	-59.551	0.075	0.032
-325.129	-97.505	-0.391	-0.102
-324.114	-200.000	-0.039	-0.311
-323.099	175.801	-0.120	-0.175
-322.085	113.001	0.227	0.276
-321.070	378.405	0.122	-0.251
-320.056	-200.000	-0.028	-0.239
-319.041	-200.000	-0.042	-0.275
-318.026	-125.122	-0.055	-0.008
-317.012	-54.482	-0.079	-0.036
-315.997	256.481	-0.166	-0.287
-314.983	-36.677	-0.109	-0.059
-313.968	-151.306	0.156	0.012
-312.953	-182.648	0.155	0.003
-311.939	44.861	0.171	0.158
-310.924	-50.529	0.149	0.070
-309.910	335.603	0.053	-0.103
-308.895	-163.415	0.084	-0.004
-307.880	800.000	0.105	0.308
-306.866	633.600	-0.078	0.198
-305.851	-65.603	-0.234	-0.094
-304.837	77.342	0.115	-0.123
-303.822	73.957	0.109	-0.115
-302.807	1.659	-0.339	-0.245
-301.793	-125.749	0.183	-0.028
-300.778	800.000	0.046	0.159
-299.764	-200.000	0.015	0.355
-298.749	-190.807	0.462	0.005
-297.735	60.899	-0.215	0.214
-296.720	-200.000	0.002	-0.255
-295.705	-200.000	0.039	0.182
-294.691	-97.186	-0.320	-0.084
-293.676	135.793	-0.073	0.095
-292.662	6.526	-0.177	0.132
-291.647	-86.697	-0.008	0.002
-290.632	26.072	0.054	-0.045
-289.618	34.572	0.128	0.112
-288.603	-66.085	0.150	0.060
-287.589	-200.000	-0.070	0.352
-286.574	5.566	-0.206	0.153
-285.559	532.634	-0.092	0.217
-284.545	162.809	0.150	0.212
-283.530	-35.275	-0.198	0.108
-282.516	-90.519	0.166	0.048
-281.501	148.097	-0.229	-0.310
-280.486	-62.464	0.193	-0.080
-279.472	-200.000	-0.018	0.325
-278.457	-200.000	-0.003	-0.058
-277.443	-5.198	0.210	0.145
-276.428	406.731	0.101	-0.214
-275.413	331.005	-0.068	0.131
-274.399	-200.000	0.050	-0.275
-273.384	407.032	-0.060	0.127
-272.370	231.651	-0.069	0.113
-271.355	-128.625	-0.275	0.039
-270.340	-93.706	0.014	-0.004
-269.326	79.018	0.114	0.122
-268.311	45.668	0.185	0.171
-267.297	531.939	0.074	0.175
-266.282	-74.611	-0.184	0.066
-265.267	-200.000	-0.006	-0.273
-264.253	99.372	0.244	0.282
-263.238	99.177	0.015	0.017
-262.224	513.239	0.145	0.337
-261.209	-158.856	0.147	0.008
-260.195	-48.168	-0.220	0.106
-259.180	219.756	0.026	0.041
-258.165	-44.279	-0.420	-0.211
-257.151	15.439	0.284	0.223
-256.136	21.607	-0.166	0.135
-255.122	-200.000	0.028	-0.143
-254.107	800.000	-0.101	0.356
-253.092	-114.641	0.222	0.042
-252.078	-47.788	0.283	0.137
-251.063	30.193	-0.200	-0.171
-250.049	-200.000	-0.025	-0.175
-249.034	32.913	0.151	-0.131
-248.019	-94.368	0.120	0.033
-247.005	800.000	0.038	-0.113
-245.990	-4.298	-0.189	0.131
-244.976	800.000	0.065	0.234
-243.961	-200.000	-0.015	0.134
-242.946	528.712	0.100	-0.236
-241.932	277.147	0.141	-0.251
-240.917	-86.016	0.238	-0.074
-239.903	-28.880	0.191	-0.110
-238.888	-94.345	-0.217	0.059
-237.873	-200.000	-0.006	-0.027
-236.859	-114.515	0.150	-0.029
-235.844	-29.080	0.220	-0.126
-234.830	800.000	0.030	0.085
-233.815	-200.000	0.035	0.153
-232.800	50.587	0.184	-0.174
-231.786	46.228	-0.213	0.197
-230.771	126.839	-0.156	0.198
-229.757	-78.104	0.269	0.093
-228.742	-200.000	0.015	-0.112
-227.727	-148.383	0.184	0.015
-226.713	-200.000	0.006	-0.118
-225.698	-200.000	-0.051	-0.250
-224.684	800.000	-0.069	0.239
-223.669	-49.179	0.201	0.096
-222.655	-13.711	-0.087	-0.056
-221.640	-37.944	-0.177	0.094
-220.625	168.606	-0.103	-0.147
-219.611	257.284	0.027	0.047
-218.596	700.881	-0.082	0.215
-217.582	156.874	0.163	-0.225
-216.567	86.027	-0.057	0.063
-215.552	800.000	-0.092	0.334
-214.538	-184.998	0.069	-0.001
-213.523	-136.515	-0.144	-0.017
-212.509	22.685	0.073	0.060
-211.494	-84.569	0.302	0.095
-210.479	226.726	0.045	0.073
-209.465	-15.953	0.158	-0.100
-208.450	800.000	-0.115	0.340
-207.436	589.325	-0.176	0.433
-206.421	-149.379	0.180	-0.014
-205.406	187.774	-0.209	-0.311
-204.392	-103.082	-0.257	0.061
-203.377	800.000	0.138	-0.445
-202.363	-32.315	0.349	-0.195
-201.348	460.677	0.205	-0.455
-200.333	-19.440	-0.083	0.052
-199.319	-78.081	0.266	-0.091
-198.304	-200.000	0.006	0.061
-197.290	53.092	-0.194	-0.186
-196.275	259.498	0.125	0.215
-195.260	55.263	-0.148	0.143
-194.246	109.435	0.156	0.187
-193.231	-200.000	-0.029	-0.174
-192.217	-95.964	-0.469	-0.125
-191.202	-86.182	0.017	0.005
-190.187	239.857	-0.177	-0.294
-189.173	-45.366	0.145	-0.072
-188.158	336.247	0.036	0.069
-187.144	-163.526	0.432	0.020
-186.129	2.077	-0.306	0.221
-185.114	800.000	-0.011	-0.036
-184.100	-97.480	-0.294	0.076
-183.085	164.808	0.255	0.359
-182.071	315.052	-0.158	-0.297
-181.056	567.036	0.158	0.382
-180.042	61.336	-0.256	0.254
-179.027	800.000	-0.083	-0.357
-178.012	-200.000	0.010	-0.413
-176.998	-200.000	0.005	-0.062
-175.983	-61.428	-0.121	-0.051
-174.969	253.682	-0.021	0.036
-173.954	15.778	-0.244	0.192
-172.939	56.439	0.204	-0.198
-171.925	-13.304	0.117	-0.076
-170.910	567.216	0.172	-0.417
-169.896	-36.349	0.270	-0.145
-168.881	-200.000	-0.011	0.110
-167.866	-148.293	-0.250	0.021
-166.852	159.190	0.064	-0.089
-165.837	25.868	0.239	-0.199
-164.823	-200.000	-0.043	-0.200
-163.808	244.522	-0.137	0.229
-162.793	786.326	-0.027	-0.073
-161.779	-194.394	-0.327	0.003
-160.764	630.715	0.088	0.222
-159.750	57.924	0.227	0.221
-158.735	800.000	0.075	0.325
-157.720	-43.145	-0.174	-0.088
-156.706	-70.574	-0.358	0.135
-155.691	191.871	-0.047	-0.070
-154.677	-105.539	0.140	0.032
-153.662	292.223	-0.175	-0.317
-152.647	-53.862	-0.266	0.121
-151.633	-200.000	-0.018	0.221
-150.618	44.861	-0.307	-0.281
-149.604	584.159	-0.050	-0.122
-148.589	-89.806	-0.097	-0.028
-147.574	-69.177	0.224	-0.086
-146.560	-200.000	0.006	-0.028
-145.545	470.092	0.103	-0.230
-144.531	800.000	0.041	-0.157
-143.516	-200.000	0.003	-0.120
-142.502	145.516	0.078	0.103
-141.487	40.465	-0.217	-0.195
-140.472	-116.613	0.091	0.017
-139.458	-200.000	0.034	0.213
-138.443	800.000	-0.152	0.513
-137.429	-50.203	0.449	0.212
-136.414	-200.000	-0.009	-0.418
-135.399	-59.577	0.374	-0.160
-134.385	-106.162	0.113	0.025
-133.370	-113.037	-0.241	0.048
-132.356	800.000	0.022	-0.077
-131.341	800.000	-0.108	0.351
-130.326	110.733	-0.278	0.334
-129.312	-200.000	0.005	-0.043
-128.297	-62.708	0.312	0.129
-127.283	-32.223	0.042	-0.023
-126.268	181.774	-0.076	-0.112
-125.253	146.327	-0.053	-0.071
-124.239	-86.104	0.208	-0.064
-123.224	18.706	0.080	0.064
-122.210	-200.000	0.085	0.396
-121.195	-89.173	0.198	-0.058
-120.180	800.000	0.089	0.297
