DTS Sentinel unit serial number:	SN413079Multiplexer serial number:	ORYXHardware model number:	OX4-SRSoftware version number:	ORYX F/W v4.00 Oryx Data Collector v3.7.2.0data status	okinstallation	princeton_trtdifferential loss correction	single-endedforward channel	channel 4reverse channel	N/Adate	2019/09/12time	11:47:11forward acquisition time	60.00reverse acquisition time	0.00gamma	496.2192k internal	0.2290k external	0.2290temperature offset calibration	1.0068default loss term (dB/km)	0.3790temperature slope calibration	1.0000multiplexer offset coefficient	1.0000multiplexer slope coefficient	1.0000fibre end	0.00T internal ref (°C)	39.89T ext. ref 1 (°C)	1.99T ext. ref 2 (°C)	37.98length (m)	temperature (°C)	Stokes	anti-Stokes-747.200	314.005	0.043	-0.083
-746.185	169.668	0.183	0.268
-745.171	236.161	0.093	-0.157
-744.156	478.229	-0.122	0.283
-743.142	317.331	0.141	-0.272
-742.127	-200.000	-0.014	0.193
-741.112	264.685	-0.126	0.224
-740.098	133.224	-0.025	0.033
-739.083	-165.296	-0.125	0.006
-738.069	-50.726	-0.161	-0.077
-737.054	-77.277	0.068	0.024
-736.039	-118.914	-0.203	0.037
-735.025	-72.885	-0.061	-0.023
-734.010	-200.000	-0.054	-0.434
-732.996	-4.666	0.153	-0.108
-731.981	-22.990	0.192	-0.119
-730.966	39.565	-0.184	-0.169
-729.952	-200.000	-0.035	-0.423
-728.937	-136.376	-0.191	-0.023
-727.923	218.581	0.020	0.033
-726.908	-92.859	-0.240	-0.069
-725.894	19.678	-0.133	-0.109
-724.879	48.710	0.184	-0.177
-723.864	-82.262	-0.174	0.058
-722.850	59.303	-0.163	0.164
-721.835	-200.000	-0.027	-0.302
-720.821	301.114	-0.104	0.196
-719.806	800.000	-0.042	-0.124
-718.791	225.315	-0.099	0.164
-717.777	-61.505	0.236	0.102
-716.762	133.258	0.151	-0.199
-715.748	120.240	0.048	0.060
-714.733	94.366	0.109	0.127
-713.718	-24.465	-0.340	0.207
-712.704	11.561	0.395	0.310
-711.689	-30.776	-0.109	-0.063
-710.675	11.277	-0.168	-0.131
-709.660	-164.402	-0.363	0.017
-708.645	13.878	-0.082	-0.065
-707.631	-39.712	-0.090	-0.048
-706.616	81.124	-0.182	-0.201
-705.602	2.231	-0.341	-0.252
-704.587	-62.774	-0.328	-0.139
-703.572	-138.360	0.239	-0.027
-702.558	800.000	0.044	0.174
-701.543	-200.000	0.096	0.478
-700.529	-200.000	0.008	0.075
-699.514	-200.000	-0.015	0.093
-698.499	130.450	0.268	-0.352
-697.485	-200.000	0.024	-0.239
-696.470	-188.672	0.143	-0.002
-695.456	61.712	-0.070	-0.071
-694.441	-113.304	0.365	0.073
-693.426	183.582	0.197	-0.297
-692.412	-159.879	-0.172	0.010
-691.397	249.726	0.033	-0.058
-690.383	-31.082	0.425	0.245
-689.368	-17.512	0.365	-0.235
-688.354	312.687	0.218	-0.419
-687.339	237.404	0.197	-0.334
-686.324	-155.562	-0.221	-0.015
-685.310	422.696	0.065	0.142
-684.295	-143.844	-0.091	-0.009
-683.281	-114.975	-0.061	0.012
-682.266	-60.085	-0.291	0.127
-681.251	81.011	0.108	-0.119
-680.237	121.161	-0.094	0.119
-679.222	-75.754	0.286	-0.104
-678.208	551.219	-0.043	-0.106
-677.193	-57.705	0.335	-0.150
-676.178	16.452	0.169	-0.136
-675.164	-61.037	-0.129	0.056
-674.149	441.833	-0.050	0.111
-673.135	208.827	0.032	-0.052
-672.120	76.439	0.042	-0.045
-671.105	-200.000	-0.009	-0.305
-670.091	78.004	-0.132	-0.143
-669.076	79.463	0.074	-0.082
-668.062	746.262	-0.050	-0.137
-667.047	-179.956	0.050	0.001
-666.032	-105.794	-0.187	-0.043
-665.018	225.386	-0.096	0.160
-664.003	663.074	-0.060	0.159
-662.989	253.503	-0.147	0.256
-661.974	-200.000	0.041	-0.195
-660.959	150.798	0.048	-0.067
-659.945	189.542	0.216	-0.331
-658.930	486.696	-0.150	-0.349
-657.916	800.000	0.019	0.078
-656.901	-200.000	0.006	-0.296
-655.886	-25.081	-0.189	-0.115
-654.872	-129.966	-0.111	0.015
-653.857	108.440	0.099	0.121
-652.843	-200.000	0.041	-0.275
-651.828	-89.300	-0.116	0.035
-650.814	-200.000	0.036	0.398
-649.799	-77.031	0.242	0.086
-648.784	183.604	0.172	0.259
-647.770	176.908	-0.237	0.352
-646.755	-81.690	0.336	0.113
-645.741	490.426	0.074	-0.172
-644.726	-32.488	-0.286	-0.163
-643.711	-64.324	0.249	-0.104
-642.697	-96.457	0.196	0.053
-641.682	165.820	0.263	0.379
-640.668	-142.804	-0.259	0.026
-639.653	-140.297	0.274	0.029
-638.638	-200.000	0.008	-0.045
-637.624	163.892	-0.076	-0.110
-636.609	-64.110	-0.221	-0.092
-635.595	24.637	0.095	0.080
-634.580	-179.328	0.134	0.003
-633.565	94.172	-0.046	-0.054
-632.551	353.785	0.114	-0.230
-631.536	17.795	0.261	-0.212
-630.522	800.000	-0.088	0.261
-629.507	800.000	0.044	-0.164
-628.492	103.762	0.026	-0.031
-627.478	800.000	0.092	-0.326
-626.463	-200.000	-0.046	-0.230
-625.449	52.146	-0.115	-0.112
-624.434	73.387	-0.258	-0.275
-623.419	-200.000	-0.064	0.363
-622.405	37.917	0.101	-0.092
-621.390	49.449	-0.343	0.329
-620.376	-109.609	-0.325	0.070
-619.361	-172.962	-0.259	-0.008
-618.346	168.643	0.092	0.133
-617.332	-68.357	-0.228	-0.090
-616.317	-25.758	0.140	-0.084
-615.303	800.000	0.061	-0.190
-614.288	-13.798	-0.055	-0.036
-613.273	-161.571	0.191	-0.010
-612.259	159.020	-0.086	-0.122
-611.244	-200.000	-0.030	0.224
-610.230	-200.000	0.041	-0.488
-609.215	-130.482	0.117	0.016
-608.201	-76.480	-0.171	-0.061
-607.186	693.487	-0.177	-0.472
-606.171	52.875	0.112	0.110
-605.157	-200.000	-0.030	-0.141
-604.142	8.733	-0.151	-0.116
-603.128	-77.606	0.356	-0.126
-602.113	-200.000	-0.026	-0.266
-601.098	586.681	-0.044	0.110
-600.084	-200.000	-0.005	-0.338
-599.069	-107.999	-0.362	0.080
-598.055	231.520	0.078	-0.129
-597.040	328.838	0.166	0.325
-596.025	-200.000	0.033	0.156
-595.011	-101.124	0.087	0.022
-593.996	-200.000	0.013	-0.204
-592.982	-146.858	-0.146	-0.013
-591.967	-89.472	-0.203	0.061
-590.952	-102.619	0.366	-0.089
-589.938	12.698	0.330	-0.260
-588.923	-26.236	-0.076	-0.045
-587.909	550.743	-0.042	0.103
-586.894	15.877	0.042	-0.033
-585.879	184.896	-0.127	-0.191
-584.865	75.394	-0.248	-0.267
-583.850	-200.000	-0.019	-0.240
-582.836	800.000	-0.036	0.141
-581.821	-200.000	-0.024	0.203
-580.806	29.748	-0.311	-0.270
-579.792	800.000	-0.080	-0.327
-578.777	800.000	-0.016	0.071
-577.763	28.438	-0.094	-0.081
-576.748	29.022	-0.283	-0.244
-575.733	-135.562	-0.190	0.023
-574.719	-146.662	0.187	0.016
-573.704	800.000	-0.067	0.291
-572.690	167.590	-0.011	-0.015
-571.675	171.059	-0.255	-0.371
-570.661	477.894	-0.050	0.116
-569.646	-200.000	-0.002	-0.210
-568.631	-71.974	-0.369	-0.139
-567.617	56.294	-0.101	0.100
-566.602	-119.528	-0.030	-0.005
-565.588	-187.502	0.146	0.002
-564.573	18.962	-0.258	0.210
-563.558	800.000	0.106	0.357
-562.544	76.034	-0.143	-0.154
-561.529	63.645	-0.248	-0.254
-560.515	129.037	0.146	0.189
-559.500	-200.000	0.033	0.239
-558.485	-135.742	0.225	0.027
-557.471	800.000	-0.019	-0.078
-556.456	27.487	0.268	-0.229
-555.442	-57.706	-0.318	-0.142
-554.427	202.070	-0.209	0.328
-553.412	800.000	0.008	0.034
-552.398	800.000	-0.027	0.092
-551.383	-200.000	0.042	-0.000
-550.369	-200.000	0.021	0.253
-549.354	800.000	0.009	-0.033
-548.339	-10.846	-0.301	0.203
-547.325	-40.483	-0.064	-0.034
-546.310	9.859	-0.091	-0.070
-545.296	8.040	0.161	-0.123
-544.281	155.545	0.217	0.304
-543.266	-200.000	0.018	-0.147
-542.252	-200.000	-0.027	-0.210
-541.237	109.130	0.234	-0.284
-540.223	-80.484	0.146	-0.050
-539.208	-9.843	-0.218	0.148
-538.193	-200.000	0.044	-0.289
-537.179	325.827	0.109	-0.211
-536.164	-154.558	0.205	0.014
-535.150	103.914	-0.020	-0.024
-534.135	-56.668	0.209	0.094
-533.121	386.751	-0.083	0.173
-532.106	625.298	-0.078	0.201
-531.091	161.899	0.113	-0.161
-530.077	-200.000	-0.008	0.043
-529.062	-0.008	0.098	0.071
-528.048	-200.000	0.020	-0.206
-527.033	-63.331	-0.111	-0.047
-526.018	-196.590	-0.084	0.001
-525.004	-47.120	0.448	0.222
-523.989	-145.632	0.340	-0.031
-522.975	-172.779	-0.109	0.003
-521.960	599.236	0.103	0.261
-520.945	-56.044	-0.019	-0.008
-519.931	800.000	0.014	-0.057
-518.916	-200.000	-0.071	-0.386
-517.902	-13.003	0.107	-0.071
-516.887	503.689	-0.017	-0.040
-515.872	-112.124	0.215	-0.044
-514.858	-3.460	0.130	-0.092
-513.843	291.515	-0.196	-0.362
-512.829	-18.500	0.124	0.078
-511.814	-200.000	-0.047	0.218
-510.799	-6.101	-0.234	0.162
-509.785	-14.882	0.224	-0.146
-508.770	-200.000	0.010	0.144
-507.756	171.088	0.165	-0.241
-506.741	-84.065	-0.185	-0.060
-505.726	86.665	0.177	0.198
-504.712	-8.093	-0.007	-0.005
-503.697	187.023	0.100	0.151
-502.683	-200.000	-0.002	0.054
-501.668	576.552	0.080	0.197
-500.653	-75.743	-0.057	0.021
-499.639	299.690	0.030	0.055
-498.624	10.348	-0.108	-0.084
-497.610	-35.983	0.172	0.094
-496.595	190.533	0.104	-0.158
-495.581	-13.891	0.305	0.200
-494.566	265.249	0.162	0.287
-493.551	-37.040	-0.075	0.041
-492.537	322.344	0.087	0.168
-491.522	72.917	0.155	0.164
-490.508	-60.827	0.286	0.123
-489.493	800.000	0.033	0.133
-488.478	-69.187	-0.326	-0.127
-487.464	-136.419	-0.082	0.010
-486.449	300.198	-0.162	-0.302
-485.435	-98.939	0.217	0.056
-484.420	-92.222	-0.224	-0.064
-483.405	580.424	-0.030	0.074
-482.391	61.566	0.095	0.095
-481.376	-200.000	-0.023	-0.150
-480.362	-151.163	-0.206	0.016
-479.347	-98.979	-0.173	-0.045
-478.332	65.203	-0.188	-0.193
-477.318	436.005	-0.074	-0.164
-476.303	-147.087	0.155	0.013
-475.289	-83.161	-0.245	0.080
-474.274	45.667	0.109	0.102
-473.259	283.286	0.276	-0.502
-472.245	22.568	-0.153	-0.127
-471.230	-200.000	0.023	-0.248
-470.216	452.248	0.089	-0.199
-469.201	353.905	-0.061	-0.123
-468.186	170.977	0.170	0.247
-467.172	33.366	-0.192	0.169
-466.157	545.755	0.037	0.090
-465.143	153.453	-0.307	-0.425
-464.128	201.836	-0.100	0.156
-463.113	-93.685	-0.238	-0.066
-462.099	-27.665	0.220	0.129
-461.084	238.684	-0.110	-0.185
-460.070	253.875	0.064	-0.111
-459.055	-184.431	0.531	-0.009
-458.040	-104.123	-0.272	-0.064
-457.026	53.206	-0.145	0.141
-456.011	-200.000	-0.033	-0.215
-454.997	-200.000	0.008	-0.229
-453.982	149.374	0.188	0.258
-452.968	-132.509	-0.177	-0.023
-451.953	-106.847	0.161	0.036
-450.938	-146.587	-0.135	-0.012
-449.924	-4.124	-0.124	0.087
-448.909	-200.000	-0.034	0.362
-447.895	3.235	-0.042	-0.031
-446.880	248.839	-0.117	0.201
-445.865	236.093	-0.161	0.270
-444.851	-102.158	0.136	0.033
-443.836	800.000	-0.061	0.206
-442.822	-127.003	-0.065	-0.010
-441.807	143.583	-0.066	0.088
-440.792	-72.902	0.136	-0.050
-439.778	47.892	0.034	0.032
-438.763	-50.731	0.215	0.102
-437.749	312.818	0.149	-0.283
-436.734	-93.281	0.162	-0.046
-435.719	124.390	-0.167	0.212
-434.705	-159.526	-0.253	0.014
-433.690	-134.958	0.171	0.021
-432.676	-200.000	-0.004	-0.130
-431.661	181.311	0.109	-0.162
-430.646	800.000	-0.032	-0.107
-429.632	39.064	-0.340	-0.308
-428.617	-81.653	-0.109	-0.036
-427.603	343.487	-0.163	0.322
-426.588	99.351	0.200	-0.234
-425.573	54.944	0.212	-0.207
-424.559	-10.139	0.129	-0.087
-423.544	-158.689	0.183	-0.011
-422.530	-94.129	-0.067	0.019
-421.515	-158.045	0.159	-0.009
-420.500	-48.003	-0.080	-0.039
-419.486	-200.000	-0.026	0.159
-418.471	103.377	0.163	-0.193
-417.457	-173.029	0.075	-0.002
-416.442	800.000	-0.130	0.420
-415.428	77.498	0.132	0.142
-414.413	193.428	-0.168	-0.258
-413.398	95.022	0.062	0.072
-412.384	116.837	0.140	-0.174
-411.369	-74.531	-0.320	-0.116
-410.355	568.011	-0.095	-0.234
-409.340	-200.000	-0.012	0.150
-408.325	621.481	-0.063	-0.160
-407.311	493.102	-0.057	0.133
-406.296	800.000	-0.064	0.200
-405.282	-187.229	-0.263	0.004
-404.267	-12.756	-0.196	-0.129
-403.252	100.102	0.088	0.103
-402.238	-61.978	-0.258	0.109
-401.223	75.436	-0.120	0.128
-400.209	111.598	-0.171	0.209
-399.194	-200.000	0.031	0.213
-398.179	-16.982	-0.214	-0.137
-397.165	-164.778	0.606	-0.028
-396.150	517.765	-0.101	-0.240
-395.136	109.052	0.062	-0.075
-394.121	521.045	-0.112	0.266
-393.106	497.714	-0.179	0.416
-392.092	369.104	0.024	-0.049
-391.077	-200.000	0.000	-0.063
-390.063	-95.011	0.169	0.046
-389.048	-200.000	0.020	-0.129
-388.033	-137.463	0.287	-0.033
-387.019	-200.000	-0.011	0.158
-386.004	123.410	-0.035	-0.045
-384.990	5.553	0.207	-0.155
-383.975	-200.000	-0.093	0.435
-382.960	11.914	0.044	0.034
-381.946	126.303	0.142	-0.181
-380.931	33.394	0.202	-0.177
-379.917	33.573	-0.094	-0.083
-378.902	-175.656	-0.399	0.011
-377.888	108.252	0.167	0.201
-376.873	72.481	-0.149	0.157
-375.858	-200.000	-0.011	0.071
-374.844	5.035	-0.221	0.164
-373.829	-60.750	0.073	0.031
-372.815	-68.020	-0.175	-0.069
-371.800	127.088	-0.110	0.140
-370.785	-169.402	0.113	0.004
-369.771	800.000	-0.037	0.160
-368.756	9.878	0.210	0.161
-367.742	-200.000	0.004	-0.291
-366.727	-116.543	-0.356	0.066
-365.712	-47.345	-0.276	-0.135
-364.698	679.286	0.161	-0.422
-363.683	71.492	-0.224	-0.234
-362.669	-26.375	0.369	-0.219
-361.654	413.179	-0.109	-0.234
-360.639	-200.000	0.001	0.079
-359.625	-56.764	0.353	-0.158
-358.610	529.318	-0.111	-0.264
-357.596	410.885	-0.081	0.174
-356.581	14.755	-0.178	0.141
-355.566	-127.985	0.266	0.039
-354.552	-139.288	-0.269	-0.029
-353.537	63.968	-0.291	-0.296
-352.523	-200.000	0.051	-0.259
-351.508	-19.477	0.035	0.022
-350.493	800.000	0.034	-0.135
-349.479	-200.000	0.000	-0.239
-348.464	800.000	-0.041	-0.116
-347.450	-200.000	0.014	-0.391
-346.435	800.000	-0.041	-0.178
-345.420	72.016	0.085	-0.089
-344.406	84.015	-0.062	0.068
-343.391	-183.913	0.147	0.003
-342.377	-200.000	-0.005	-0.229
-341.362	-200.000	-0.063	-0.290
-340.348	-52.582	0.213	0.099
-339.333	-200.000	-0.022	0.144
-338.318	-200.000	-0.056	-0.254
-337.304	-200.000	-0.039	-0.252
-336.289	252.459	0.127	-0.219
-335.275	-150.003	-0.104	-0.008
-334.260	800.000	-0.043	0.159
-333.245	152.602	0.298	0.410
-332.231	30.842	0.251	0.217
-331.216	127.573	-0.187	0.240
-330.202	218.751	-0.122	0.196
-329.187	83.759	-0.179	0.196
-328.172	-42.928	-0.225	-0.115
-327.158	61.347	-0.165	0.166
-326.143	715.817	-0.089	-0.237
-325.129	-89.209	-0.203	0.060
-324.114	14.818	0.280	0.220
-323.099	800.000	0.085	0.288
-322.085	-200.000	0.023	0.439
-321.070	66.743	0.189	-0.194
-320.056	-51.689	0.067	-0.031
-319.041	80.525	0.342	-0.371
-318.026	84.477	-0.091	-0.100
-317.012	-79.418	0.270	-0.092
-315.997	-200.000	-0.025	0.138
-314.983	184.718	0.068	0.101
-313.968	348.354	-0.127	-0.252
-312.953	-157.607	0.225	-0.014
-311.939	24.021	0.218	-0.181
-310.924	-4.042	-0.173	0.120
-309.910	-123.104	0.175	0.028
-308.895	-145.199	-0.236	-0.022
-307.880	-61.937	-0.213	0.090
-306.866	-112.612	0.280	0.056
-305.851	-12.099	0.306	0.202
-304.837	33.688	0.045	-0.039
-303.822	-64.314	0.105	0.043
-302.807	-25.547	0.264	-0.157
-301.793	738.400	0.127	-0.344
-300.778	244.208	0.116	0.196
-299.764	133.586	0.176	-0.229
-298.749	-184.312	0.214	0.004
-297.735	677.125	-0.118	0.309
-296.720	-95.226	-0.127	0.034
-295.705	800.000	0.035	-0.101
-294.691	800.000	-0.114	-0.335
-293.676	76.572	0.152	-0.163
-292.662	509.187	-0.120	0.280
-291.647	-111.955	-0.342	0.069
-290.632	29.313	0.216	0.184
-289.618	-187.014	0.239	0.003
-288.603	160.189	-0.281	0.395
-287.589	-106.460	-0.126	0.028
-286.574	-134.782	0.141	-0.017
-285.559	-127.454	-0.025	0.004
-284.545	-105.630	0.334	0.076
-283.530	113.122	0.060	0.073
-282.516	688.139	0.055	-0.146
-281.501	-121.337	0.232	0.039
-280.486	-99.553	-0.166	-0.042
-279.472	8.614	-0.213	0.161
-278.457	132.170	0.018	0.023
-277.443	-131.763	0.379	0.050
-276.428	-200.000	0.015	0.274
-275.413	11.243	-0.292	0.225
-274.399	-200.000	0.015	0.196
-273.384	-112.273	0.052	0.011
-272.370	-200.000	-0.026	0.195
-271.355	800.000	0.026	0.082
-270.340	-200.000	0.006	0.064
-269.326	-145.326	0.144	0.013
-268.311	685.588	0.090	0.237
-267.297	800.000	0.090	0.318
-266.282	-200.000	0.025	-0.116
-265.267	-71.229	-0.128	-0.048
-264.253	800.000	0.056	-0.187
-263.238	-142.995	0.438	0.043
-262.224	-125.098	-0.238	-0.037
-261.209	-154.793	-0.153	-0.010
-260.195	-156.282	0.174	0.011
-259.180	-200.000	0.078	-0.401
-258.165	-5.295	-0.055	0.038
-257.151	-8.216	-0.334	0.226
-256.136	16.596	-0.376	0.299
-255.122	133.392	0.188	0.245
-254.107	198.020	0.082	0.126
-253.092	70.668	0.170	0.177
-252.078	243.900	0.207	0.349
-251.063	-83.674	0.110	0.035
-250.049	189.678	-0.029	0.044
-249.034	-112.983	0.254	-0.051
-248.019	-58.026	-0.280	-0.123
-247.005	-172.594	0.175	0.006
-245.990	-200.000	0.030	-0.136
-244.976	-200.000	-0.032	-0.144
-243.961	-200.000	0.015	-0.083
-242.946	3.692	-0.234	-0.171
-241.932	-183.641	0.119	0.002
-240.917	93.329	-0.150	0.171
-239.903	207.936	0.202	-0.317
-238.888	-116.257	-0.332	0.062
-237.873	-200.000	-0.045	-0.206
-236.859	-29.102	-0.055	-0.032
-235.844	792.071	-0.076	0.210
-234.830	800.000	0.035	-0.116
-233.815	8.117	-0.295	-0.222
-232.800	-200.000	0.003	0.410
-231.786	-110.907	-0.322	0.066
-230.771	8.512	-0.247	0.187
-229.757	-117.101	0.245	0.045
-228.742	163.822	0.129	-0.182
-227.727	-14.973	0.142	0.091
-226.713	-200.000	0.031	-0.177
-225.698	-95.000	0.114	-0.031
-224.684	-131.310	0.421	0.056
-223.669	800.000	0.025	0.073
-222.655	-57.909	0.228	0.100
-221.640	-98.331	-0.277	-0.071
-220.625	-66.763	-0.168	0.067
-219.611	-200.000	0.003	0.082
-218.596	-200.000	-0.007	-0.093
-217.582	138.740	-0.012	-0.015
-216.567	-114.773	-0.105	0.020
-215.552	198.519	-0.033	0.051
-214.538	84.961	-0.147	0.162
-213.523	800.000	0.009	-0.030
-212.509	376.820	0.158	0.324
-211.494	-148.508	-0.275	0.023
-210.479	43.784	-0.171	0.157
-209.465	83.800	0.102	0.111
-208.450	800.000	-0.020	-0.073
-207.436	-109.364	0.198	-0.042
-206.421	284.343	0.102	-0.185
-205.406	-177.856	0.110	0.003
-204.392	213.996	-0.176	0.279
-203.377	632.198	0.090	0.230
-202.363	239.476	-0.139	0.231
-201.348	-200.000	-0.004	0.052
-200.333	-30.015	-0.302	-0.172
-199.319	565.008	-0.096	0.234
-198.304	-200.000	0.019	0.298
-197.290	-1.357	0.337	0.238
-196.275	481.151	0.121	0.274
-195.260	-61.753	-0.145	-0.061
-194.246	-200.000	0.046	0.336
-193.231	-69.374	-0.399	-0.153
-192.217	49.761	-0.085	-0.080
-191.202	162.209	-0.135	-0.189
-190.187	-80.667	0.116	-0.039
-189.173	384.431	0.132	0.273
-188.158	-200.000	-0.002	0.019
-187.144	364.635	0.097	-0.197
-186.129	598.151	0.087	0.216
-185.114	-78.702	0.243	0.083
-184.100	-19.127	-0.151	-0.094
-183.085	-43.906	-0.215	0.108
-182.071	-135.325	0.169	-0.020
-181.056	685.412	0.071	-0.186
-180.042	-163.226	-0.184	-0.009
-179.027	-7.347	-0.125	-0.085
-178.012	-200.000	0.002	-0.273
-176.998	800.000	-0.124	0.350
-175.983	-200.000	-0.034	-0.186
-174.969	-17.710	-0.189	-0.119
-173.954	63.482	0.046	0.046
-172.939	-24.130	-0.060	-0.036
-171.925	14.920	0.032	-0.025
-170.910	-137.985	-0.080	0.009
-169.896	-124.626	0.207	-0.032
-168.881	-9.999	-0.209	-0.139
-167.866	42.136	0.134	-0.122
-166.852	800.000	0.010	-0.034
-165.837	800.000	0.043	0.179
-164.823	218.176	0.025	0.040
-163.808	344.522	-0.079	-0.156
-162.793	365.794	0.200	-0.404
-161.779	-131.093	-0.120	-0.016
-160.764	-65.739	0.160	0.064
-159.750	277.593	-0.042	-0.075
-158.735	82.141	-0.149	0.162
-157.720	800.000	0.104	0.353
-156.706	197.137	-0.135	-0.206
-155.691	710.685	0.143	0.378
-154.677	-200.000	-0.058	0.282
-153.662	61.328	0.098	0.097
-152.647	-105.323	-0.038	-0.009
-151.633	800.000	0.066	-0.221
-150.618	-35.142	-0.166	-0.091
-149.604	68.734	-0.068	-0.070
-148.589	-200.000	-0.010	0.070
-147.574	11.770	-0.113	-0.087
-146.560	-200.000	-0.011	-0.055
-145.545	-122.398	-0.023	0.004
-144.531	800.000	-0.041	0.164
-143.516	-200.000	0.032	-0.230
-142.502	-200.000	-0.030	0.349
-141.487	-161.926	0.181	-0.009
-140.472	-75.201	-0.365	-0.130
-139.458	127.035	0.190	0.241
-138.443	-119.772	0.086	0.015
-137.429	64.938	0.103	-0.104
-136.414	-103.500	-0.064	-0.015
-135.399	-28.924	-0.124	0.071
-134.385	-93.596	0.213	0.059
-133.370	-200.000	-0.041	-0.304
-132.356	-145.988	0.496	0.044
-131.341	-200.000	0.047	-0.260
-130.326	83.308	-0.095	0.103
-129.312	-117.581	0.207	0.037
-128.297	-200.000	-0.010	-0.074
-127.283	74.573	0.028	0.029
-126.268	800.000	0.055	-0.157
-125.253	10.559	0.190	-0.145
-124.239	522.406	-0.042	-0.099
-123.224	245.056	0.183	0.308
-122.210	-102.700	-0.091	0.022
