DTS Sentinel unit serial number:	SN413079Multiplexer serial number:	ORYXHardware model number:	OX4-SRSoftware version number:	ORYX F/W v4.00 Oryx Data Collector v3.7.2.0data status	okinstallation	princeton_trtdifferential loss correction	single-endedforward channel	channel 4reverse channel	N/Adate	2019/09/13time	04:21:35forward acquisition time	60.00reverse acquisition time	0.00gamma	496.2192k internal	0.2321k external	0.2321temperature offset calibration	1.0195default loss term (dB/km)	0.3790temperature slope calibration	1.0000multiplexer offset coefficient	1.0000multiplexer slope coefficient	1.0000fibre end	0.00T internal ref (°C)	26.78T ext. ref 1 (°C)	4.05T ext. ref 2 (°C)	21.19length (m)	temperature (°C)	Stokes	anti-Stokes-747.200	-167.330	-0.181	0.007
-746.185	779.745	0.071	0.196
-745.171	13.709	-0.281	0.221
-744.156	-200.000	-0.033	0.204
-743.142	-118.072	0.295	-0.053
-742.127	64.230	-0.120	0.122
-741.112	-33.763	0.131	-0.073
-740.098	-91.043	-0.152	0.044
-739.083	-68.491	0.192	0.075
-738.069	69.988	0.100	0.104
-737.054	-29.475	0.246	0.142
-736.039	-50.440	-0.317	0.151
-735.025	-200.000	-0.050	-0.393
-734.010	-49.346	-0.160	0.077
-732.996	-200.000	0.013	-0.544
-731.981	800.000	0.095	-0.332
-730.966	0.011	0.142	-0.103
-729.952	-100.343	-0.263	0.066
-728.937	-91.073	-0.157	-0.046
-727.923	-200.000	-0.056	-0.273
-726.908	800.000	-0.142	-0.463
-725.894	296.373	0.057	-0.106
-724.879	-180.666	0.262	0.005
-723.864	229.143	-0.229	-0.377
-722.850	89.342	0.086	-0.096
-721.835	-200.000	0.021	-0.146
-720.821	-200.000	0.039	-0.244
-719.806	-89.486	-0.129	0.038
-718.791	800.000	0.062	-0.215
-717.777	-200.000	-0.024	0.163
-716.762	-151.460	-0.142	0.011
-715.748	-161.057	-0.248	0.013
-714.733	-61.626	-0.064	0.027
-713.718	-51.942	-0.159	-0.075
-712.704	-38.645	-0.157	-0.084
-711.689	-58.242	0.090	-0.039
-710.675	-200.000	-0.019	0.387
-709.660	-113.000	-0.174	0.035
-708.645	-200.000	0.012	-0.584
-707.631	124.079	0.185	0.234
-706.616	-79.518	-0.302	-0.103
-705.602	-89.601	-0.302	-0.089
-704.587	-15.107	0.476	-0.307
-703.572	42.289	-0.323	0.296
-702.558	-170.603	-0.277	-0.010
-701.543	-70.438	-0.189	0.072
-700.529	-28.160	0.231	-0.135
-699.514	-63.444	0.211	0.088
-698.499	483.616	-0.046	-0.107
-697.485	-100.614	-0.271	-0.068
-696.470	-26.064	0.007	0.004
-695.456	209.568	-0.163	0.258
-694.441	-200.000	-0.008	-0.073
-693.426	90.701	-0.236	0.267
-692.412	-6.144	-0.237	-0.163
-691.397	800.000	0.097	0.283
-690.383	800.000	-0.160	0.489
-689.368	-110.627	-0.170	-0.035
-688.354	-150.441	0.212	0.016
-687.339	79.905	-0.172	0.186
-686.324	360.547	-0.079	-0.160
-685.310	-167.787	-0.139	0.006
-684.295	8.020	0.126	0.095
-683.281	-94.055	-0.257	0.071
-682.266	99.868	-0.110	0.128
-681.251	800.000	0.054	-0.178
-680.237	-34.243	0.095	0.052
-679.222	-74.672	0.143	-0.052
-678.208	-200.000	-0.029	-0.323
-677.193	228.862	0.108	0.177
-676.178	23.661	-0.043	-0.036
-675.164	0.284	-0.149	-0.107
-674.149	-78.799	0.250	-0.086
-673.135	-200.000	0.029	0.162
-672.120	-198.182	0.262	-0.002
-671.105	28.652	-0.222	-0.190
-670.091	700.906	-0.065	0.172
-669.076	-95.363	0.368	-0.100
-668.062	20.465	0.281	0.229
-667.047	708.555	-0.066	-0.175
-666.032	517.434	-0.090	-0.212
-665.018	-126.192	0.174	-0.026
-664.003	170.383	-0.189	-0.272
-662.989	7.418	0.209	0.157
-661.974	-163.258	-0.100	0.005
-660.959	800.000	-0.020	-0.080
-659.945	800.000	-0.049	-0.146
-658.930	-189.521	-0.453	-0.005
-657.916	-150.977	0.311	0.024
-656.901	-4.588	0.169	-0.118
-655.886	-95.600	-0.198	0.053
-654.872	120.339	0.067	-0.084
-653.857	171.204	-0.126	0.181
-652.843	87.503	0.070	-0.078
-651.828	268.307	0.159	-0.280
-650.814	522.595	0.032	-0.076
-649.799	-86.541	-0.077	-0.024
-648.784	800.000	-0.073	0.297
-647.770	-14.961	0.195	-0.126
-646.755	-132.935	-0.156	-0.020
-645.741	-135.961	0.148	0.018
-644.726	800.000	-0.086	0.306
-643.711	800.000	-0.102	0.321
-642.697	-128.398	0.179	-0.026
-641.682	-200.000	0.040	-0.196
-640.668	-200.000	-0.026	-0.127
-639.653	-74.742	0.088	-0.032
-638.638	28.382	0.103	0.087
-637.624	800.000	-0.016	0.066
-636.609	-25.132	0.108	-0.065
-635.595	-123.899	0.298	-0.047
-634.580	232.574	-0.127	-0.210
-633.565	-128.424	0.218	0.031
-632.551	587.940	-0.187	-0.465
-631.536	800.000	0.079	0.256
-630.522	800.000	0.082	-0.284
-629.507	81.892	-0.052	-0.056
-628.492	4.883	0.216	-0.160
-627.478	-28.015	0.185	-0.108
-626.463	-200.000	0.034	-0.372
-625.449	-200.000	-0.010	0.074
-624.434	56.993	0.310	-0.304
-623.419	66.140	0.125	0.128
-622.405	226.621	-0.045	-0.073
-621.390	382.893	-0.083	-0.171
-620.376	-200.000	-0.028	-0.148
-619.361	-200.000	-0.003	0.207
-618.346	-46.433	0.143	0.071
-617.332	-103.858	-0.258	-0.061
-616.317	302.693	0.070	-0.130
-615.303	-200.000	-0.025	0.140
-614.288	22.993	0.385	0.318
-613.273	-29.293	-0.091	0.052
-612.259	-89.324	-0.194	-0.057
-611.244	-200.000	0.022	-0.103
-610.230	-195.423	-0.186	0.001
-609.215	-9.257	0.029	0.019
-608.201	260.265	-0.108	-0.187
-607.186	-47.229	0.037	-0.018
-606.171	49.922	0.091	-0.086
-605.157	-74.311	-0.278	0.101
-604.142	-85.545	0.275	0.086
-603.128	3.116	-0.358	0.261
-602.113	800.000	-0.110	0.396
-601.098	-200.000	-0.009	-0.242
-600.084	134.052	-0.239	0.311
-599.069	-151.274	-0.256	0.019
-598.055	245.872	0.069	-0.116
-597.040	-200.000	0.012	-0.394
-596.025	-124.841	-0.212	-0.033
-595.011	33.390	-0.191	0.167
-593.996	-200.000	-0.010	0.093
-592.982	-25.488	0.082	0.049
-591.967	-200.000	-0.048	-0.369
-590.952	-200.000	-0.021	-0.346
-589.938	18.891	0.143	-0.115
-588.923	-163.759	-0.435	-0.021
-587.909	-105.360	-0.476	0.109
-586.894	83.199	0.096	0.105
-585.879	194.202	-0.183	-0.279
-584.865	193.749	-0.061	0.093
-583.850	-200.000	0.009	0.045
-582.836	-37.640	-0.159	0.085
-581.821	-200.000	0.024	-0.245
-580.806	-164.474	0.251	0.012
-579.792	800.000	-0.064	-0.228
-578.777	-101.995	0.256	0.062
-577.763	-79.884	0.168	0.057
-576.748	-67.302	-0.198	-0.078
-575.733	-200.000	-0.011	-0.126
-574.719	-63.526	-0.208	0.086
-573.704	800.000	0.126	-0.381
-572.690	-84.203	0.269	0.086
-571.675	-110.733	-0.194	-0.040
-570.661	-123.940	-0.071	0.011
-569.646	-153.399	0.089	-0.006
-568.631	-102.297	-0.142	0.034
-567.617	224.992	-0.040	-0.065
-566.602	-60.491	-0.177	0.076
-565.588	800.000	0.077	0.245
-564.573	-109.302	-0.118	0.025
-563.558	800.000	-0.068	-0.264
-562.544	-7.257	0.341	-0.232
-561.529	-79.431	0.234	-0.079
-560.515	123.874	0.171	0.215
-559.500	-100.816	-0.019	-0.005
-558.485	-200.000	-0.451	0.001
-557.471	-120.363	0.197	0.034
-556.456	-47.877	0.203	-0.099
-555.442	273.475	-0.088	-0.157
-554.427	188.336	-0.138	-0.207
-553.412	11.292	0.217	0.167
-552.398	666.160	0.098	-0.253
-551.383	72.761	0.330	0.346
-550.369	-73.333	-0.172	-0.063
-549.354	-16.377	0.122	0.078
-548.339	-31.930	0.164	0.092
-547.325	-167.817	-0.265	-0.010
-546.310	-61.506	0.212	0.089
-545.296	800.000	0.043	-0.178
-544.281	71.106	-0.058	0.060
-543.266	-90.346	-0.216	-0.063
-542.252	134.725	0.109	-0.142
-541.237	406.419	-0.052	-0.110
-540.223	135.400	-0.066	-0.086
-539.208	453.661	0.041	0.090
-538.193	800.000	0.079	0.229
-537.179	-85.636	-0.376	-0.117
-536.164	-81.742	0.092	-0.030
-535.150	-200.000	-0.024	0.177
-534.135	330.682	-0.061	0.119
-533.121	164.095	-0.197	0.278
-532.106	748.200	0.126	0.340
-531.091	-23.597	0.038	-0.023
-530.077	-141.686	-0.094	0.009
-529.062	643.794	0.028	-0.072
-528.048	-53.667	0.233	0.107
-527.033	223.331	0.025	0.040
-526.018	796.553	0.101	0.279
-525.004	359.390	-0.194	0.388
-523.989	-99.540	-0.065	0.016
-522.975	-141.190	-0.318	0.033
-521.960	-108.095	0.170	-0.037
-520.945	-76.479	0.243	0.086
-519.931	800.000	0.081	-0.264
-518.916	717.926	-0.054	0.145
-517.902	-200.000	-0.019	-0.170
-516.887	800.000	0.119	0.404
-515.872	23.024	-0.079	-0.065
-514.858	-172.397	-0.059	-0.002
-513.843	202.949	0.136	0.211
-512.829	646.019	0.123	0.314
-511.814	-200.000	-0.036	-0.215
-510.799	-200.000	0.006	0.089
-509.785	-85.306	0.217	0.068
-508.770	82.205	0.138	-0.150
-507.756	14.722	0.136	-0.107
-506.741	86.902	0.234	0.259
-505.726	329.168	-0.068	0.131
-504.712	-200.000	-0.005	0.179
-503.697	-200.000	-0.046	-0.332
-502.683	-70.791	0.107	-0.041
-501.668	800.000	-0.066	0.206
-500.653	574.406	0.295	0.721
-499.639	-200.000	0.031	0.286
-498.624	260.280	0.057	-0.098
-497.610	18.753	-0.452	0.363
-496.595	-17.319	-0.136	-0.086
-495.581	-101.967	-0.232	0.056
-494.566	62.520	-0.078	0.078
-493.551	-47.849	-0.127	-0.062
-492.537	-200.000	-0.003	-0.123
-491.522	-165.566	-0.445	0.019
-490.508	-200.000	0.028	-0.142
-489.493	639.259	0.137	-0.349
-488.478	-200.000	0.019	-0.100
-487.464	-200.000	-0.002	-0.075
-486.449	-135.946	0.088	-0.010
-485.435	13.100	-0.142	-0.110
-484.420	92.039	-0.341	0.385
-483.405	-72.964	0.097	-0.036
-482.391	-64.186	-0.432	-0.176
-481.376	-99.212	0.192	0.049
-480.362	-200.000	-0.005	0.086
-479.347	-200.000	-0.038	0.247
-478.332	-183.797	-0.151	0.003
-477.318	383.796	0.103	0.212
-476.303	236.186	0.091	-0.150
-475.289	137.464	0.203	-0.265
-474.274	-144.082	-0.133	0.013
-473.259	-68.863	0.125	0.048
-472.245	370.156	0.196	0.396
-471.230	93.318	0.076	-0.086
-470.216	364.778	0.040	-0.081
-469.201	-10.056	-0.065	-0.043
-468.186	-33.175	0.354	-0.196
-467.172	-75.883	-0.107	0.038
-466.157	38.477	0.155	-0.138
-465.143	-13.447	0.109	0.071
-464.128	79.646	0.318	0.341
-463.113	25.807	0.380	-0.317
-462.099	-86.055	-0.139	-0.043
-461.084	288.803	0.170	0.309
-460.070	-46.151	-0.280	-0.138
-459.055	148.882	-0.202	0.274
-458.040	-22.057	0.206	0.125
-457.026	73.992	0.158	0.166
-456.011	280.203	-0.016	0.029
-454.997	-64.638	0.243	-0.098
-453.982	48.223	-0.147	-0.137
-452.968	-94.591	-0.201	0.055
-451.953	-130.490	-0.134	0.018
-450.938	800.000	0.091	-0.324
-449.924	-126.477	-0.109	-0.016
-448.909	61.505	-0.180	-0.179
-447.895	-200.000	0.036	0.272
-446.880	800.000	0.044	0.143
-445.865	41.040	-0.286	-0.258
-444.851	-128.845	-0.400	-0.056
-443.836	-141.453	-0.319	-0.032
-442.822	-66.035	-0.115	0.046
-441.807	-84.573	0.212	0.067
-440.792	707.262	-0.075	-0.198
-439.778	13.147	-0.035	0.027
-438.763	727.978	-0.105	-0.279
-437.749	97.007	-0.187	-0.215
-436.734	-59.949	0.336	-0.143
-435.719	-88.582	-0.338	0.100
-434.705	118.975	-0.087	0.107
-433.690	-124.267	0.194	0.030
-432.676	-80.020	0.098	-0.033
-431.661	320.540	0.218	-0.414
-430.646	-22.595	0.263	0.159
-429.632	-68.908	-0.153	-0.059
-428.617	312.480	0.032	-0.061
-427.603	598.800	0.118	-0.292
-426.588	102.474	0.151	0.176
-425.573	800.000	-0.049	0.180
-424.559	341.957	-0.129	-0.251
-423.544	-55.020	0.132	0.060
-422.530	-109.376	-0.218	-0.046
-421.515	123.651	0.137	-0.171
-420.500	4.906	-0.074	0.054
-419.486	101.199	0.226	-0.262
-418.471	-59.655	-0.241	-0.103
-417.457	-160.911	-0.216	-0.011
-416.442	-168.694	-0.179	0.007
-415.428	-200.000	0.042	0.365
-414.413	227.771	-0.105	0.170
-413.398	-100.127	0.301	0.075
-412.384	372.828	0.144	-0.291
-411.369	-130.973	-0.268	0.036
-410.355	171.878	0.287	-0.411
-409.340	800.000	-0.151	-0.424
-408.325	145.260	0.084	-0.113
-407.311	27.227	0.131	0.110
-406.296	10.072	0.189	-0.144
-405.282	-113.263	0.117	-0.023
-404.267	-200.000	0.061	0.267
-403.252	-200.000	-0.030	0.222
-402.238	-78.438	-0.288	0.099
-401.223	292.884	-0.080	-0.145
-400.209	112.109	0.123	-0.148
-399.194	237.783	0.029	0.047
-398.179	-31.786	0.432	-0.241
-397.165	-93.890	0.123	-0.034
-396.150	-23.022	0.163	0.098
-395.136	200.567	0.104	-0.160
-394.121	559.187	0.077	-0.186
-393.106	-3.905	0.247	0.171
-392.092	-133.998	0.110	0.014
-391.077	-92.946	0.423	-0.118
-390.063	-187.361	-0.327	0.004
-389.048	-157.729	0.314	-0.019
-388.033	-161.158	-0.209	-0.011
-387.019	-110.945	0.138	0.028
-386.004	0.678	0.283	-0.202
-384.990	-200.000	-0.051	-0.289
-383.975	-200.000	0.013	0.186
-382.960	19.429	0.270	0.217
-381.946	-7.391	0.235	-0.158
-380.931	-19.994	-0.358	0.220
-379.917	552.739	0.103	0.248
-378.902	-144.732	-0.119	0.011
-377.888	-200.000	0.048	-0.370
-376.873	-137.373	0.078	-0.009
-375.858	673.697	-0.041	-0.105
-374.844	-200.000	-0.006	-0.116
-373.829	-51.589	0.128	0.059
-372.815	-200.000	0.005	-0.064
-371.800	531.418	-0.074	0.175
-370.785	-125.893	-0.057	-0.009
-369.771	625.450	0.089	-0.222
-368.756	800.000	0.027	-0.084
-367.742	-32.072	-0.178	-0.099
-366.727	187.328	0.178	-0.265
-365.712	-200.000	0.014	-0.293
-364.698	-200.000	-0.000	-0.041
-363.683	800.000	-0.148	0.412
-362.669	-11.757	0.133	-0.087
-361.654	323.924	-0.129	-0.245
-360.639	365.550	-0.076	-0.153
-359.625	-173.827	-0.093	0.003
-358.610	533.025	0.112	-0.265
-357.596	169.744	0.147	-0.209
-356.581	-133.300	-0.375	-0.047
-355.566	-118.596	0.189	0.033
-354.552	-0.325	-0.268	0.190
-353.537	7.136	-0.236	-0.175
-352.523	-200.000	-0.071	0.568
-351.508	800.000	-0.067	0.189
-350.493	171.952	-0.061	-0.087
-349.479	472.963	0.092	-0.205
-348.464	53.552	0.216	-0.206
-347.450	101.249	0.203	0.235
-346.435	95.615	-0.041	0.046
-345.420	800.000	-0.044	-0.169
-344.406	43.037	-0.245	-0.222
-343.391	169.560	0.146	0.208
-342.377	-127.200	-0.125	-0.018
-341.362	-80.168	-0.098	0.033
-340.348	-48.398	-0.092	-0.044
-339.333	-153.138	0.163	0.011
-338.318	-200.000	0.001	-0.415
-337.304	800.000	-0.079	0.319
-336.289	-22.881	-0.264	0.158
-335.275	221.107	-0.156	0.249
-334.260	-200.000	-0.025	-0.152
-333.245	133.941	0.204	0.263
-332.231	-200.000	-0.005	0.198
-331.216	-108.933	-0.341	0.072
-330.202	800.000	0.157	0.465
-329.187	463.155	0.094	-0.208
-328.172	477.283	-0.116	-0.260
-327.158	-200.000	-0.039	-0.372
-326.143	114.415	-0.150	0.181
-325.129	-81.391	-0.127	-0.042
-324.114	-200.000	-0.011	0.065
-323.099	-46.935	-0.246	-0.119
-322.085	-44.723	0.197	-0.098
-321.070	490.367	-0.030	-0.069
-320.056	-200.000	-0.021	-0.212
-319.041	-66.902	-0.075	0.029
-318.026	800.000	0.105	-0.375
-317.012	34.150	-0.253	-0.219
-315.997	249.931	-0.076	-0.128
-314.983	-60.573	-0.123	0.052
-313.968	-103.542	-0.221	0.052
-312.953	-188.948	0.277	-0.003
-311.939	-148.516	-0.234	0.019
-310.924	800.000	-0.019	-0.061
-309.910	-194.386	0.098	0.001
-308.895	198.339	0.193	-0.293
-307.880	-58.549	-0.443	0.191
-306.866	-139.002	0.027	0.003
-305.851	-162.885	0.164	0.008
-304.837	617.205	-0.070	-0.176
-303.822	6.635	-0.141	0.104
-302.807	152.654	-0.060	-0.081
-301.793	-200.000	0.025	0.185
-300.778	75.818	-0.063	-0.066
-299.764	193.398	-0.174	-0.261
-298.749	295.643	-0.084	0.153
-297.735	349.324	-0.079	-0.156
-296.720	-88.754	-0.388	0.114
-295.705	-156.306	0.339	0.021
-294.691	-153.944	-0.084	-0.006
-293.676	639.741	-0.061	-0.154
-292.662	29.053	-0.164	0.138
-291.647	29.756	-0.287	-0.243
-290.632	451.364	0.115	0.252
-289.618	-73.047	-0.074	0.027
-288.603	172.839	0.356	-0.508
-287.589	800.000	-0.045	-0.126
-286.574	27.909	-0.272	0.228
-285.559	800.000	0.015	-0.045
-284.545	-200.000	0.100	-0.456
-283.530	800.000	-0.039	0.154
-282.516	-200.000	0.054	0.478
-281.501	-121.250	-0.121	-0.020
-280.486	-2.124	0.203	-0.142
-279.472	189.180	0.173	0.257
-278.457	-171.291	-0.510	0.017
-277.443	211.070	0.157	0.245
-276.428	436.975	0.104	-0.225
-275.413	14.757	0.283	0.219
-274.399	-121.304	0.211	0.035
-273.384	756.375	-0.017	-0.046
-272.370	421.871	0.134	-0.286
-271.355	-58.142	0.044	-0.019
-270.340	175.335	0.091	-0.131
-269.326	59.776	0.056	-0.055
-268.311	-200.000	-0.008	0.055
-267.297	-75.259	-0.128	-0.045
-266.282	-109.085	-0.106	-0.022
-265.267	-72.176	0.348	0.128
-264.253	52.754	0.198	-0.188
-263.238	-159.353	0.161	0.009
-262.224	212.322	-0.085	-0.132
-261.209	97.772	-0.147	-0.168
-260.195	-200.000	-0.018	0.165
-259.180	-132.384	-0.461	-0.059
-258.165	81.003	-0.111	0.119
-257.151	-200.000	-0.002	0.026
-256.136	-51.708	0.111	0.051
-255.122	-150.848	0.080	-0.006
-254.107	370.840	0.200	0.403
-253.092	16.687	0.102	-0.080
-252.078	-20.802	-0.287	-0.174
-251.063	-26.055	0.121	-0.071
-250.049	72.799	0.087	-0.090
-249.034	-121.719	0.170	0.028
-248.019	98.176	0.069	0.079
-247.005	47.962	0.261	-0.241
-245.990	-190.044	-0.209	0.002
-244.976	-200.000	0.016	0.230
-243.961	410.488	0.051	0.107
-242.946	-109.316	-0.101	-0.021
-241.932	60.872	0.210	0.207
-240.917	96.537	0.245	-0.278
-239.903	-36.404	-0.422	0.225
-238.888	800.000	-0.056	0.180
-237.873	800.000	-0.045	-0.138
-236.859	-200.000	0.041	-0.277
-235.844	168.794	-0.017	-0.025
-234.830	332.910	0.010	0.020
-233.815	-78.287	-0.166	0.056
-232.800	-109.175	-0.088	-0.018
-231.786	-143.966	0.456	0.042
-230.771	350.468	0.053	0.105
-229.757	-200.000	0.050	0.301
-228.742	-21.846	-0.164	-0.099
-227.727	-200.000	0.021	-0.287
-226.713	-69.275	0.092	0.035
-225.698	-41.407	-0.335	-0.171
-224.684	-129.201	0.110	0.015
-223.669	-104.970	-0.101	0.023
-222.655	-106.093	0.172	-0.038
-221.640	-53.666	-0.159	-0.072
-220.625	214.839	0.215	0.337
-219.611	177.144	-0.139	-0.201
-218.596	735.969	0.094	0.250
-217.582	-200.000	-0.037	0.217
-216.567	800.000	0.079	-0.271
-215.552	-200.000	-0.015	0.162
-214.538	-186.999	0.062	-0.001
-213.523	-25.605	0.139	-0.081
-212.509	174.010	0.149	0.213
-211.494	312.451	0.070	-0.129
-210.479	169.130	0.076	-0.107
-209.465	-34.344	0.265	0.144
-208.450	-101.315	0.461	0.111
-207.436	335.850	-0.092	-0.177
-206.421	120.636	0.068	-0.084
-205.406	-200.000	0.026	0.116
-204.392	-13.999	-0.146	0.093
-203.377	239.114	0.066	-0.109
-202.363	-159.237	0.279	-0.016
-201.348	87.133	-0.170	0.186
-200.333	15.343	-0.256	0.199
-199.319	-36.303	-0.024	-0.013
-198.304	310.388	-0.052	-0.096
-197.290	800.000	0.060	0.166
-196.275	-39.519	-0.037	-0.019
-195.260	120.852	0.117	0.144
-194.246	116.782	0.155	-0.188
-193.231	-54.618	-0.066	0.030
-192.217	-42.470	0.158	0.080
-191.202	78.047	-0.028	0.030
-190.187	-155.209	-0.392	0.025
-189.173	-200.000	0.006	-0.123
-188.158	57.887	0.098	0.095
-187.144	425.764	0.062	-0.133
-186.129	302.459	-0.207	0.379
-185.114	-200.000	0.042	0.264
-184.100	800.000	-0.068	-0.258
-183.085	252.344	-0.034	-0.058
-182.071	225.610	0.077	0.123
-181.056	-200.000	-0.006	0.317
-180.042	800.000	0.070	0.214
-179.027	800.000	-0.042	0.140
-178.012	58.157	0.233	0.225
-176.998	683.855	0.051	0.131
-175.983	-200.000	0.057	0.429
-174.969	19.845	-0.120	0.096
-173.954	-85.947	-0.235	0.072
-172.939	-31.252	-0.157	0.087
-171.925	702.655	0.046	0.120
-170.910	-139.178	0.259	0.028
-169.896	-200.000	0.004	-0.132
-168.881	-41.517	0.345	0.175
-167.866	-77.429	-0.121	-0.041
-166.852	-48.543	-0.245	0.117
-165.837	117.854	-0.135	0.164
-164.823	800.000	0.071	0.214
-163.808	-156.516	-0.450	-0.028
-162.793	148.481	0.040	-0.054
-161.779	153.890	-0.281	0.381
-160.764	-200.000	-0.008	0.090
-159.750	-143.098	-0.214	0.020
-158.735	277.924	0.121	-0.212
-157.720	-143.654	0.201	0.019
-156.706	581.187	-0.116	0.280
-155.691	-103.039	-0.155	-0.036
-154.677	548.203	-0.038	0.089
-153.662	13.555	0.174	0.133
-152.647	-101.055	0.239	-0.058
-151.633	-90.305	-0.205	-0.059
-150.618	-38.453	0.286	-0.149
-149.604	-33.648	0.193	-0.105
-148.589	538.453	0.116	0.271
-147.574	800.000	0.094	0.391
-146.560	-149.193	-0.256	-0.020
-145.545	-72.901	0.098	-0.035
-144.531	-103.990	0.360	0.083
-143.516	-59.160	-0.460	-0.196
-142.502	-200.000	-0.026	0.280
-141.487	129.942	0.197	0.248
-140.472	-195.382	-0.271	-0.002
-139.458	175.194	-0.063	0.090
-138.443	578.221	0.098	-0.237
-137.429	-119.803	-0.152	-0.026
-136.414	-200.000	-0.026	0.244
-135.399	-200.000	-0.036	0.445
-134.385	-200.000	-0.007	0.136
-133.370	-151.089	-0.213	-0.016
-132.356	-117.581	0.140	0.025
-131.341	-62.729	-0.076	-0.031
-130.326	69.629	-0.067	0.069
-129.312	3.238	0.039	-0.028
-128.297	-77.000	-0.498	0.172
-127.283	-131.435	0.236	0.031
-126.268	96.282	0.145	0.164
-125.253	424.096	-0.028	-0.060
-124.239	-130.311	-0.110	-0.015
-123.224	43.305	-0.202	0.182
-122.210	54.147	-0.124	-0.118
