DTS Sentinel unit serial number:	SN413079Multiplexer serial number:	ORYXHardware model number:	OX4-SRSoftware version number:	ORYX F/W v4.00 Oryx Data Collector v3.7.2.0data status	okinstallation	princeton_trtdifferential loss correction	single-endedforward channel	channel 4reverse channel	N/Adate	2019/09/12time	19:24:18forward acquisition time	15.00reverse acquisition time	0.00gamma	496.2192k internal	0.2309k external	0.2309temperature offset calibration	1.0142default loss term (dB/km)	0.3790temperature slope calibration	1.0000multiplexer offset coefficient	1.0000multiplexer slope coefficient	1.0000fibre end	0.00T internal ref (°C)	32.37T ext. ref 1 (°C)	3.23T ext. ref 2 (°C)	26.89length (m)	temperature (°C)	Stokes	anti-Stokes-747.200	8.158	-0.472	0.360
-746.185	102.028	0.270	0.320
-745.171	459.053	0.244	0.551
-744.156	53.844	0.167	-0.163
-743.142	-200.000	-0.040	0.290
-742.127	142.068	-0.879	1.185
-741.112	-161.334	-0.544	0.029
-740.098	386.721	0.448	-0.940
-739.083	-200.000	-0.011	0.203
-738.069	-85.207	0.462	0.147
-737.054	-128.545	0.849	-0.122
-736.039	64.199	-0.855	0.874
-735.025	164.170	0.375	0.536
-734.010	-128.130	-0.441	-0.064
-732.996	-75.184	0.421	-0.153
-731.981	-200.000	-0.036	-0.235
-730.966	-113.360	0.102	-0.020
-729.952	190.018	-0.288	-0.438
-728.937	-86.851	-0.485	-0.150
-727.923	-60.455	-0.834	0.360
-726.908	-112.738	0.730	-0.147
-725.894	371.513	0.141	-0.291
-724.879	-1.639	-0.405	-0.290
-723.864	111.858	0.241	0.296
-722.850	800.000	0.031	0.130
-721.835	-187.036	-0.645	0.009
-720.821	-132.171	0.369	0.049
-719.806	800.000	0.163	-0.476
-718.791	794.900	0.197	-0.549
-717.777	179.329	0.285	-0.423
-716.762	-200.000	0.050	0.314
-715.748	-120.884	-0.206	-0.035
-714.733	-200.000	0.160	0.814
-713.718	-154.286	-0.715	-0.049
-712.704	337.314	-0.228	0.451
-711.689	-95.984	-0.856	0.231
-710.675	-8.561	0.295	-0.201
-709.660	179.129	-0.489	0.726
-708.645	-200.000	-0.065	0.412
-707.631	-200.000	-0.052	0.399
-706.616	-200.000	0.032	-0.429
-705.602	559.260	0.295	-0.721
-704.587	108.352	0.861	-1.043
-703.572	-44.478	0.198	-0.100
-702.558	800.000	0.209	-0.897
-701.543	-124.479	0.851	-0.134
-700.529	141.963	-0.184	-0.248
-699.514	-200.000	-0.022	0.201
-698.499	598.469	-0.162	-0.407
-697.485	98.905	0.263	-0.308
-696.470	-150.609	-0.887	-0.069
-695.456	-94.357	-0.641	0.177
-694.441	-51.100	-0.221	-0.105
-693.426	-70.528	0.430	-0.165
-692.412	-72.541	-0.440	0.165
-691.397	-30.180	0.625	0.360
-690.383	59.086	-0.264	-0.264
-689.368	-200.000	-0.065	-0.372
-688.354	37.925	0.296	-0.267
-687.339	92.899	0.521	-0.597
-686.324	111.266	0.271	0.331
-685.310	415.460	-0.221	0.478
-684.295	-115.918	0.282	0.053
-683.281	-9.437	0.340	0.230
-682.266	-53.782	-0.271	-0.125
-681.251	629.702	-0.070	0.178
-680.237	-27.955	0.046	-0.027
-679.222	-200.000	-0.071	-0.842
-678.208	-43.005	-0.092	-0.047
-677.193	-200.000	-0.012	-0.160
-676.178	-38.289	0.082	-0.044
-675.164	264.569	0.121	-0.214
-674.149	-126.506	0.401	0.060
-673.135	-28.678	-0.412	-0.240
-672.120	-136.105	-0.804	0.096
-671.105	-200.000	0.069	0.528
-670.091	42.076	-0.401	-0.369
-669.076	41.852	0.621	0.571
-668.062	-200.000	-0.122	1.459
-667.047	-133.544	0.238	-0.030
-666.032	800.000	0.029	0.115
-665.018	161.244	0.574	0.812
-664.003	-114.060	-0.160	-0.031
-662.989	14.974	0.168	-0.133
-661.974	-38.083	-0.400	-0.215
-660.959	-137.101	-0.285	-0.033
-659.945	89.549	-0.302	-0.341
-658.930	-147.217	-0.561	0.048
-657.916	-94.298	0.153	-0.042
-656.901	14.537	-0.109	0.086
-655.886	-153.172	0.479	-0.034
-654.872	-73.536	-0.327	-0.121
-653.857	141.293	-0.329	-0.441
-652.843	-200.000	-0.064	0.567
-651.828	-42.891	-0.277	-0.142
-650.814	-86.799	0.398	0.123
-649.799	-64.469	-0.239	-0.099
-648.784	203.665	0.399	-0.624
-647.770	-187.680	1.075	0.014
-646.755	3.916	-0.445	0.329
-645.741	131.769	0.390	-0.508
-644.726	152.364	0.186	-0.257
-643.711	-200.000	0.083	-1.198
-642.697	480.228	-0.298	0.684
-641.682	-200.000	-0.026	0.287
-640.668	-114.061	-0.164	-0.032
-639.653	-200.000	-0.079	0.514
-638.638	335.311	-0.264	-0.517
-637.624	-84.895	-0.400	-0.127
-636.609	-200.000	-0.081	0.929
-635.595	-71.795	-0.925	-0.349
-634.580	-95.661	-0.575	0.156
-633.565	-200.000	-0.033	-0.263
-632.551	42.315	-0.294	0.271
-631.536	-161.984	0.999	0.051
-630.522	-200.000	0.141	0.809
-629.507	-124.640	0.481	0.075
-628.492	800.000	0.083	-0.244
-627.478	93.043	-0.597	0.682
-626.463	-200.000	-0.037	-0.274
-625.449	-48.573	-0.357	-0.173
-624.434	-200.000	-0.072	-0.696
-623.419	-131.222	0.015	0.002
-622.405	598.015	0.098	-0.245
-621.390	-3.977	-0.249	0.175
-620.376	-87.183	-0.576	-0.177
-619.361	593.268	-0.213	-0.531
-618.346	60.229	-0.324	-0.324
-617.332	5.199	0.315	0.234
-616.317	-44.017	-0.141	0.071
-615.303	28.875	0.332	-0.284
-614.288	-5.862	-0.181	-0.125
-613.273	-57.430	0.217	-0.096
-612.259	800.000	0.206	0.798
-611.244	800.000	0.186	-0.526
-610.230	-200.000	-0.004	-0.693
-609.215	153.551	-0.089	-0.123
-608.201	-184.714	1.425	0.023
-607.186	-34.832	0.362	-0.200
-606.171	77.758	-0.392	0.422
-605.157	-190.529	0.945	0.010
-604.142	-85.130	-0.596	-0.189
-603.128	25.961	-0.226	0.190
-602.113	-22.273	-0.294	-0.180
-601.098	-62.412	-0.326	-0.137
-600.084	277.638	-0.258	-0.464
-599.069	-48.390	-0.631	-0.307
-598.055	43.889	-0.833	0.771
-597.040	-108.962	0.981	-0.211
-596.025	48.191	-0.798	-0.755
-595.011	604.262	0.137	0.344
-593.996	78.599	-0.254	0.274
-592.982	-132.198	0.041	0.005
-591.967	-126.969	-0.098	-0.015
-590.952	33.172	0.117	0.102
-589.938	188.829	0.071	0.108
-588.923	26.723	0.060	0.050
-587.909	509.909	-0.142	-0.332
-586.894	-102.680	0.581	-0.140
-585.879	-25.928	-0.902	-0.536
-584.865	-5.418	-0.430	0.298
-583.850	-200.000	0.124	-0.927
-582.836	-25.364	-0.284	-0.170
-581.821	566.093	0.276	0.676
-580.806	-200.000	0.023	0.181
-579.792	-18.897	0.238	0.149
-578.777	-200.000	0.074	0.519
-577.763	800.000	-0.162	-0.598
-576.748	-101.121	0.237	-0.058
-575.733	-86.686	0.639	0.198
-574.719	65.076	-0.333	0.339
-573.704	486.861	-0.164	-0.377
-572.690	-7.058	0.207	-0.142
-571.675	800.000	-0.039	-0.148
-570.661	-23.223	-0.483	-0.293
-569.646	-34.013	-0.324	0.180
-568.631	-136.503	0.590	-0.069
-567.617	394.454	-0.129	-0.272
-566.602	-109.284	0.493	0.106
-565.588	-26.197	0.400	-0.237
-564.573	800.000	-0.151	0.602
-563.558	-33.170	0.438	-0.245
-562.544	-83.214	-0.512	-0.166
-561.529	50.945	-0.054	-0.051
-560.515	-42.835	-0.150	-0.077
-559.500	-112.099	0.293	0.059
-558.485	239.320	0.239	-0.402
-557.471	34.993	-0.226	0.199
-556.456	48.018	-0.416	-0.392
-555.442	254.048	0.179	0.308
-554.427	-60.817	-0.776	0.331
-553.412	-200.000	-0.025	-0.450
-552.398	588.047	-0.227	-0.563
-551.383	-200.000	0.076	0.458
-550.369	-111.572	0.894	0.183
-549.354	19.867	0.102	0.083
-548.339	-150.229	-1.266	-0.099
-547.325	39.736	-0.731	-0.661
-546.310	288.423	-0.243	0.443
-545.296	13.931	0.405	-0.318
-544.281	-87.943	0.953	-0.289
-543.266	125.163	-0.386	-0.491
-542.252	-124.431	-0.676	0.106
-541.237	169.413	-0.466	-0.671
-540.223	-149.617	-0.384	0.031
-539.208	254.347	0.128	0.221
-538.193	593.966	-0.276	0.688
-537.179	137.760	-0.200	0.265
-536.164	-200.000	0.009	-0.592
-535.150	-200.000	0.077	0.371
-534.135	468.570	0.189	0.428
-533.121	-200.000	-0.159	0.724
-532.106	-80.077	0.504	-0.170
-531.091	666.803	0.281	-0.732
-530.077	-81.463	-0.844	-0.280
-529.062	-200.000	0.083	0.728
-528.048	-57.184	0.735	-0.326
-527.033	47.415	-0.543	-0.510
-526.018	200.826	-0.159	0.247
-525.004	-200.000	0.052	-0.296
-523.989	-122.463	0.622	-0.102
-522.975	-200.000	0.022	0.219
-521.960	-81.453	-0.068	-0.023
-520.945	366.362	-0.056	-0.114
-519.931	-200.000	-0.020	-0.800
-518.916	-22.899	0.500	0.304
-517.902	-200.000	0.033	-1.106
-516.887	-111.744	-1.031	-0.210
-515.872	-200.000	-0.098	1.185
-514.858	-200.000	-0.036	0.265
-513.843	-72.291	-0.371	0.138
-512.829	297.590	-0.196	-0.363
-511.814	21.588	-0.670	-0.549
-510.799	511.231	0.250	0.587
-509.785	168.411	-0.366	0.525
-508.770	132.693	-0.170	-0.221
-507.756	-83.846	0.176	-0.056
-506.741	-200.000	-0.092	0.438
-505.726	-200.000	-0.082	0.519
-504.712	50.534	0.157	-0.149
-503.697	633.164	0.192	-0.490
-502.683	233.619	-0.450	0.745
-501.668	800.000	0.269	1.167
-500.653	3.469	-0.719	-0.527
-499.639	186.033	-0.130	-0.194
-498.624	111.555	-0.422	-0.512
-497.610	-134.834	-0.963	-0.117
-496.595	707.515	-0.206	-0.548
-495.581	-104.622	0.688	0.160
-494.566	-200.000	0.104	0.500
-493.551	-131.078	-0.429	0.058
-492.537	-26.117	0.985	-0.582
-491.522	-57.242	0.378	-0.167
-490.508	57.394	0.180	0.177
-489.493	-33.351	0.549	-0.306
-488.478	38.615	0.221	-0.199
-487.464	-200.000	0.039	-0.181
-486.449	-91.906	0.595	-0.170
-485.435	800.000	0.153	-0.444
-484.420	163.691	-0.119	-0.168
-483.405	68.259	-0.517	-0.532
-482.391	-97.739	0.526	0.137
-481.376	-58.294	-0.813	-0.356
-480.362	-5.052	0.182	0.126
-479.347	-200.000	-0.065	0.721
-478.332	-92.058	0.581	-0.165
-477.318	-148.201	-0.709	-0.059
-476.303	-124.521	0.674	0.105
-475.289	673.935	-0.222	0.578
-474.274	196.736	-0.075	-0.115
-473.259	-33.026	0.170	0.095
-472.245	-200.000	0.046	0.973
-471.230	103.682	0.389	0.459
-470.216	-57.607	-0.229	-0.101
-469.201	-112.225	-0.326	0.066
-468.186	-58.705	0.726	-0.316
-467.172	800.000	-0.160	-0.523
-466.157	-116.510	0.100	0.019
-465.143	9.933	0.729	0.556
-464.128	102.164	-0.448	-0.526
-463.113	800.000	-0.091	-0.265
-462.099	800.000	0.137	0.587
-461.084	-200.000	0.066	0.390
-460.070	395.167	0.334	0.701
-459.055	42.509	0.199	-0.182
-458.040	800.000	-0.185	-0.559
-457.026	494.773	0.163	-0.377
-456.011	-68.912	-0.167	-0.065
-454.997	29.117	-0.170	0.145
-453.982	457.296	-0.300	-0.670
-452.968	-200.000	0.124	0.564
-451.953	-200.000	0.150	0.866
-450.938	123.473	-0.145	-0.182
-449.924	239.144	0.184	-0.308
-448.909	65.451	0.416	-0.423
-447.895	-200.000	-0.027	-0.609
-446.880	-200.000	0.021	0.983
-445.865	160.536	-0.484	0.679
-444.851	-39.107	0.384	-0.203
-443.836	-142.426	0.346	-0.034
-442.822	-200.000	0.012	0.660
-441.807	99.049	0.496	0.575
-440.792	5.075	-0.389	-0.287
-439.778	200.003	-0.272	-0.419
-438.763	294.164	0.448	0.822
-437.749	-32.985	-0.169	0.094
-436.734	-7.876	0.589	0.399
-435.719	129.073	0.240	0.307
-434.705	-200.000	-0.066	0.309
-433.690	182.181	-0.357	0.528
-432.676	800.000	-0.187	0.765
-431.661	681.926	-0.220	-0.575
-430.646	123.612	0.328	0.413
-429.632	-6.360	0.290	-0.199
-428.617	-146.713	-0.764	-0.066
-427.603	-200.000	-0.045	0.762
-426.588	800.000	0.161	0.456
-425.573	800.000	0.023	0.066
-424.559	128.770	-0.708	0.905
-423.544	800.000	-0.223	0.921
-422.530	200.981	-0.445	-0.688
-421.515	-200.000	0.013	0.576
-420.500	205.127	0.129	-0.201
-419.486	238.022	-0.219	0.365
-418.471	234.570	-0.332	0.549
-417.457	357.041	0.200	-0.400
-416.442	-46.220	-0.731	-0.361
-415.428	7.735	0.351	-0.263
-414.413	-30.219	-0.306	-0.174
-413.398	-200.000	0.037	0.402
-412.384	-88.557	0.399	-0.119
-411.369	-81.101	-0.581	-0.193
-410.355	303.770	-0.376	-0.699
-409.340	-151.881	0.280	-0.021
-408.325	800.000	0.070	0.296
-407.311	48.724	-0.552	-0.519
-406.296	63.431	0.605	-0.608
-405.282	-200.000	-0.198	0.971
-404.267	-8.307	-0.252	0.170
-403.252	213.827	-0.245	-0.389
-402.238	-127.247	0.904	0.132
-401.223	-56.573	0.957	0.425
-400.209	56.413	0.530	-0.517
-399.194	0.997	0.124	-0.089
-398.179	302.764	0.276	-0.513
-397.165	-93.487	0.486	-0.135
-396.150	-200.000	0.010	-0.174
-395.136	59.496	-0.579	-0.572
-394.121	-64.305	-0.492	0.201
-393.106	5.493	0.493	-0.365
-392.092	-200.000	0.022	-0.286
-391.077	38.775	-0.341	-0.305
-390.063	-200.000	0.097	0.486
-389.048	800.000	-0.081	0.228
-388.033	-15.291	0.799	0.512
-387.019	-30.541	1.064	-0.604
-386.004	-123.183	0.399	-0.064
-384.990	-95.649	-0.299	0.080
-383.975	800.000	0.162	0.616
-382.960	-105.555	0.366	-0.083
-381.946	78.392	0.233	0.249
-380.931	-115.181	-0.261	0.049
-379.917	-200.000	-0.035	-0.748
-378.902	-200.000	0.037	0.243
-377.888	108.755	-0.430	0.515
-376.873	-156.398	-0.413	0.026
-375.858	-200.000	-0.003	0.340
-374.844	163.356	-0.167	-0.235
-373.829	-200.000	0.016	-0.341
-372.815	443.141	0.384	0.842
-371.800	-97.691	1.254	0.325
-370.785	262.434	0.259	0.451
-369.771	1.512	0.654	-0.471
-368.756	-123.339	-0.142	-0.023
-367.742	-21.696	-0.316	0.193
-366.727	-56.497	-0.788	-0.350
-365.712	-46.449	1.210	-0.595
-364.698	325.916	0.071	-0.136
-363.683	800.000	-0.213	-0.755
-362.669	-200.000	0.002	0.178
-361.654	-200.000	0.054	0.528
-360.639	800.000	-0.032	0.101
-359.625	-66.130	-0.223	0.089
-358.610	466.961	0.169	0.379
-357.596	800.000	-0.202	0.564
-356.581	495.063	-0.211	-0.486
-355.566	-92.863	-0.021	0.006
-354.552	748.950	-0.132	0.356
-353.537	-200.000	-0.025	-0.201
-352.523	116.042	-0.080	-0.098
-351.508	-200.000	-0.128	0.704
-350.493	-200.000	0.035	-0.329
-349.479	-120.336	0.399	-0.068
-348.464	-200.000	0.084	0.434
-347.450	-156.774	0.437	0.027
-346.435	50.317	0.596	-0.563
-345.420	-47.078	-0.185	0.090
-344.406	70.641	0.372	0.385
-343.391	-2.494	0.080	0.056
-342.377	-48.615	-0.240	-0.116
-341.362	63.294	0.308	0.309
-340.348	7.843	0.673	-0.505
-339.333	50.577	0.323	0.305
-338.318	-53.520	-0.565	-0.259
-337.304	567.284	0.118	-0.286
-336.289	97.876	-0.099	0.114
-335.275	-127.105	-0.530	0.078
-334.260	-10.489	0.610	-0.404
-333.245	89.196	0.188	0.209
-332.231	-41.545	-0.347	0.179
-331.216	-49.426	-0.411	-0.196
-330.202	210.973	0.234	0.368
-329.187	89.624	-0.724	0.807
-328.172	-88.806	0.203	-0.060
-327.158	95.450	-0.485	-0.553
-326.143	-152.434	0.544	0.039
-325.129	-34.629	-1.355	0.741
-324.114	350.750	-0.727	-1.438
-323.099	352.822	0.088	-0.175
-322.085	-174.366	0.512	0.015
-321.070	800.000	-0.161	0.464
-320.056	800.000	-0.242	0.733
-319.041	-163.064	0.272	-0.013
-318.026	800.000	0.095	-0.264
-317.012	45.071	1.062	-0.978
-315.997	-200.000	-0.078	-0.660
-314.983	-200.000	0.072	0.430
-313.968	79.641	-0.146	0.157
-312.953	8.208	0.590	0.442
-311.939	-47.466	0.694	0.337
-310.924	-63.453	-0.903	0.371
-309.910	197.488	-0.092	0.141
-308.895	4.436	-0.232	0.170
-307.880	-200.000	0.017	1.131
-306.866	-200.000	-0.024	-0.567
-305.851	52.998	-0.734	-0.702
-304.837	34.676	-1.335	-1.166
-303.822	534.310	0.160	-0.379
-302.807	-200.000	-0.105	-0.811
-301.793	112.761	0.158	-0.192
-300.778	-121.037	0.479	-0.080
-299.764	291.781	-0.151	0.274
-298.749	155.720	-0.797	1.096
-297.735	800.000	-0.079	0.264
-296.720	-49.685	-1.033	-0.490
-295.705	116.202	-0.306	-0.374
-294.691	800.000	-0.058	0.233
-293.676	279.729	0.116	-0.206
-292.662	361.632	0.470	-0.941
-291.647	-200.000	0.019	-0.835
-290.632	-117.268	-0.556	-0.101
-289.618	55.982	-0.777	0.753
-288.603	-90.266	0.220	-0.064
-287.589	47.676	0.164	0.153
-286.574	272.111	-0.255	-0.449
-285.559	-200.000	0.074	1.430
-284.545	800.000	0.228	-0.753
-283.530	-107.006	-0.573	0.126
-282.516	530.182	0.174	0.411
-281.501	800.000	0.110	-0.445
-280.486	-110.989	0.919	-0.188
-279.472	255.852	0.088	0.150
-278.457	532.226	-0.090	0.212
-277.443	-200.000	0.074	0.331
-276.428	800.000	0.155	0.521
-275.413	-59.404	0.092	-0.040
-274.399	-94.713	-0.927	-0.251
-273.384	-105.311	0.350	0.080
-272.370	-29.269	-0.515	-0.294
-271.355	-200.000	0.058	-0.468
-270.340	24.358	-0.234	0.193
-269.326	244.543	-0.314	-0.526
-268.311	15.928	-0.336	0.264
-267.297	-79.052	0.791	0.268
-266.282	800.000	0.142	-0.619
-265.267	453.632	0.213	-0.469
-264.253	800.000	-0.093	0.388
-263.238	-27.778	0.171	0.099
-262.224	-200.000	0.044	-0.268
-261.209	352.002	0.112	-0.221
-260.195	-103.852	-0.199	0.046
-259.180	-189.178	0.492	0.006
-258.165	386.431	0.420	0.864
-257.151	-200.000	-0.014	-0.673
-256.136	-200.000	0.109	-0.783
-255.122	800.000	0.167	0.577
-254.107	232.113	0.246	-0.402
-253.092	-143.054	0.189	0.018
-252.078	4.484	-0.541	0.396
-251.063	115.891	-0.423	-0.516
-250.049	1.474	-0.402	-0.288
-249.034	105.361	-0.139	-0.163
-248.019	168.614	0.076	0.107
-247.005	-48.339	-0.567	-0.272
-245.990	17.874	-0.218	0.173
-244.976	425.380	0.245	0.526
-243.961	-64.964	-0.472	-0.190
-242.946	-155.586	0.516	0.033
-241.932	61.536	0.189	-0.187
-240.917	-43.851	0.384	0.193
-239.903	-200.000	-0.157	-0.862
-238.888	-117.412	0.440	0.079
-237.873	118.652	0.461	-0.567
-236.859	-143.145	0.277	-0.027
-235.844	16.291	-0.398	0.313
-234.830	-55.051	0.476	0.213
-233.815	-129.629	1.038	0.143
-232.800	-50.628	-0.275	-0.129
-231.786	-200.000	-0.059	-0.733
-230.771	800.000	0.036	0.110
-229.757	800.000	-0.160	0.563
-228.742	800.000	0.066	0.270
-227.727	-5.753	1.035	-0.706
-226.713	-23.761	-0.427	-0.254
-225.698	-115.789	-0.174	0.032
-224.684	638.165	-0.133	0.336
-223.669	151.083	-0.671	0.909
-222.655	78.585	-0.696	0.741
-221.640	-200.000	-0.000	0.358
-220.625	-29.914	0.230	0.130
-219.611	501.655	0.260	0.599
-218.596	-25.361	0.578	0.340
-217.582	-104.219	-0.523	-0.121
-216.567	-200.000	0.122	0.622
-215.552	-136.613	0.524	0.060
-214.538	-138.990	0.790	0.085
-213.523	-166.552	-0.706	-0.029
-212.509	-69.575	0.236	-0.090
-211.494	-36.485	-0.448	-0.240
-210.479	503.169	0.154	0.355
-209.465	130.465	0.422	-0.538
-208.450	562.192	-0.441	1.062
-207.436	62.262	0.359	-0.356
-206.421	161.334	-0.456	-0.635
-205.406	-76.023	-0.815	0.287
-204.392	138.378	0.256	0.334
-203.377	-200.000	0.011	-0.225
-202.363	397.803	0.132	-0.276
-201.348	-200.000	-0.014	0.325
-200.333	265.636	0.637	1.105
-199.319	622.478	-0.262	0.655
-198.304	-96.207	0.847	0.223
-197.290	49.644	-0.559	0.524
-196.275	-78.952	0.651	-0.220
-195.260	-137.887	-0.051	0.006
-194.246	-4.447	-1.210	-0.831
-193.231	467.868	-0.192	-0.428
-192.217	800.000	-0.275	-0.832
-191.202	-200.000	-0.109	-0.607
-190.187	-7.440	0.634	0.427
-189.173	98.019	0.445	0.509
-188.158	-56.521	-0.079	-0.035
-187.144	-31.043	0.496	0.278
-186.129	667.982	-0.156	-0.401
-185.114	51.576	1.040	-0.983
-184.100	35.760	-0.411	0.359
-183.085	84.980	-0.357	-0.389
-182.071	75.792	0.129	0.135
-181.056	1.375	0.505	-0.361
-180.042	-188.513	-0.544	-0.007
-179.027	-183.845	-0.704	-0.012
-178.012	-87.507	-0.269	-0.081
-176.998	217.869	0.303	0.480
-175.983	-200.000	-0.096	-0.499
-174.969	701.369	0.312	0.816
-173.954	-120.012	0.328	-0.056
-172.939	-200.000	-0.120	0.543
-171.925	252.816	-0.543	-0.921
-170.910	4.131	0.422	0.307
-169.896	85.694	-0.324	-0.354
-168.881	-86.391	0.180	-0.055
-167.866	-200.000	0.134	-0.636
-166.852	563.385	-0.119	-0.287
-165.837	35.199	0.759	0.661
-164.823	677.911	0.191	-0.493
-163.808	665.135	0.190	0.487
-162.793	478.032	-0.136	0.306
-161.779	134.718	0.629	0.811
-160.764	-200.000	-0.078	-0.352
-159.750	800.000	0.057	0.173
-158.735	267.081	0.282	-0.489
-157.720	-132.391	-0.363	-0.047
-156.706	-200.000	0.206	0.934
-155.691	800.000	-0.107	0.306
-154.677	157.539	0.222	-0.305
-153.662	-14.684	-0.933	-0.595
-152.647	-154.209	0.935	0.063
-151.633	71.615	0.058	0.060
-150.618	800.000	0.066	-0.191
-149.604	242.170	-0.191	-0.317
-148.589	-200.000	0.114	0.746
-147.574	-7.484	-0.425	-0.285
-146.560	800.000	0.113	0.485
-145.545	-112.962	0.552	-0.108
-144.531	-118.689	0.305	0.053
-143.516	184.414	0.199	-0.292
-142.502	183.161	-0.367	0.538
-141.487	116.299	0.399	-0.485
-140.472	276.306	0.291	0.513
-139.458	688.583	-0.338	0.876
-138.443	143.858	-0.462	-0.612
-137.429	-103.247	0.863	0.202
-136.414	320.302	0.348	-0.655
-135.399	-66.965	-0.312	0.122
-134.385	-200.000	-0.189	0.867
-133.370	9.152	-0.343	0.257
-132.356	-36.947	0.285	0.152
-131.341	800.000	-0.200	-0.605
-130.326	-9.133	-0.131	0.087
-129.312	800.000	0.018	0.062
-128.297	800.000	-0.144	0.537
-127.283	-169.502	-0.314	0.011
-126.268	-110.764	-0.490	0.100
-125.253	-200.000	-0.126	-0.684
-124.239	62.380	-0.215	-0.213
-123.224	-43.158	-0.185	0.093
-122.210	-105.082	-0.218	0.049
-121.195	800.000	0.210	0.823
