DTS Sentinel unit serial number:	SN413079Multiplexer serial number:	ORYXHardware model number:	OX4-SRSoftware version number:	ORYX F/W v4.00 Oryx Data Collector v3.7.2.0data status	okinstallation	princeton_trtdifferential loss correction	single-endedforward channel	channel 4reverse channel	N/Adate	2019/09/19time	06:29:35forward acquisition time	60.00reverse acquisition time	0.00gamma	496.2192k internal	0.2340k external	0.2340temperature offset calibration	1.0027default loss term (dB/km)	0.3790temperature slope calibration	1.0000multiplexer offset coefficient	1.0000multiplexer slope coefficient	1.0000fibre end	0.00T internal ref (°C)	19.06T ext. ref 1 (°C)	0.56T ext. ref 2 (°C)	12.78length (m)	temperature (°C)	Stokes	anti-Stokes-747.200	-200.000	-0.055	0.651
-746.185	-200.000	0.128	0.596
-745.171	-92.803	-0.276	-0.077
-744.156	-168.105	-0.198	-0.008
-743.142	-200.000	-0.028	0.148
-742.127	-97.026	-0.179	-0.047
-741.112	-39.278	-0.092	-0.048
-740.098	-10.199	-0.231	0.154
-739.083	-108.247	0.204	-0.044
-738.069	-59.648	0.094	-0.041
-737.054	86.939	0.147	0.163
-736.039	-85.190	-0.570	-0.179
-735.025	-114.405	0.363	-0.070
-734.010	76.687	-0.287	0.306
-732.996	-200.000	0.011	0.160
-731.981	-53.512	0.224	-0.103
-730.966	294.638	0.147	-0.270
-729.952	215.243	-0.115	-0.183
-728.937	569.030	-0.096	-0.233
-727.923	-200.000	0.052	-0.242
-726.908	800.000	0.175	-0.513
-725.894	800.000	-0.025	0.080
-724.879	13.239	-0.320	0.248
-723.864	-30.182	-0.311	-0.177
-722.850	157.611	-0.200	0.277
-721.835	-200.000	-0.008	-0.072
-720.821	-174.987	0.142	-0.004
-719.806	44.548	-0.100	-0.092
-718.791	-91.251	-0.119	0.034
-717.777	-200.000	-0.082	0.000
-716.762	800.000	0.045	-0.143
-715.748	-200.000	-0.039	0.215
-714.733	-200.000	-0.041	-0.242
-713.718	58.581	-0.034	-0.033
-712.704	145.309	0.125	-0.168
-711.689	1.848	0.198	0.143
-710.675	-63.267	-0.175	0.072
-709.660	800.000	-0.036	-0.128
-708.645	-9.199	0.433	-0.290
-707.631	74.562	0.106	-0.112
-706.616	-32.022	-0.049	0.027
-705.602	-60.696	-0.279	0.119
-704.587	124.604	0.060	0.075
-703.572	-69.499	0.429	-0.165
-702.558	-47.076	0.382	-0.187
-701.543	14.080	0.269	0.209
-700.529	700.236	0.050	0.131
-699.514	-61.779	-0.300	-0.126
-698.499	-24.996	-0.211	-0.125
-697.485	-125.364	0.129	-0.020
-696.470	444.510	-0.104	0.228
-695.456	800.000	-0.058	0.202
-694.441	-39.224	0.120	-0.063
-693.426	416.294	-0.075	0.161
-692.412	119.077	-0.219	-0.271
-691.397	11.815	-0.118	0.091
-690.383	-70.111	-0.187	-0.071
-689.368	175.675	0.022	-0.032
-688.354	-37.510	-0.184	0.098
-687.339	151.238	-0.118	-0.160
-686.324	800.000	-0.028	0.082
-685.310	153.963	-0.101	0.138
-684.295	-143.613	-0.052	0.005
-683.281	64.798	-0.146	-0.147
-682.266	-200.000	-0.050	-0.221
-681.251	50.853	-0.129	0.123
-680.237	383.591	0.151	-0.312
-679.222	56.979	0.101	-0.098
-678.208	-30.698	-0.257	-0.146
-677.193	-200.000	0.088	-0.431
-676.178	800.000	-0.080	-0.265
-675.164	94.516	0.140	-0.160
-674.149	54.549	-0.262	-0.253
-673.135	-200.000	0.036	-0.350
-672.120	-116.218	-0.126	0.023
-671.105	-200.000	-0.028	0.301
-670.091	640.249	0.151	0.384
-669.076	800.000	0.089	-0.334
-668.062	-200.000	-0.010	-0.215
-667.047	370.608	0.066	0.134
-666.032	-76.351	-0.276	-0.097
-665.018	319.719	0.102	-0.194
-664.003	-79.922	0.074	0.025
-662.989	240.569	0.082	0.136
-661.974	-126.751	0.453	-0.067
-660.959	-54.423	-0.146	0.066
-659.945	37.385	-0.144	0.127
-658.930	10.059	0.191	-0.145
-657.916	-33.005	0.171	0.095
-656.901	-200.000	-0.012	0.081
-655.886	13.908	-0.156	-0.121
-654.872	-42.999	-0.219	-0.111
-653.857	223.374	0.174	0.281
-652.843	-200.000	0.010	0.461
-651.828	39.911	0.336	-0.302
-650.814	-4.372	0.089	-0.062
-649.799	-129.042	-0.367	-0.051
-648.784	-117.124	0.069	-0.013
-647.770	-4.165	0.185	0.128
-646.755	-200.000	0.002	-0.034
-645.741	-94.926	-0.247	0.067
-644.726	49.032	0.290	0.272
-643.711	110.723	0.117	-0.141
-642.697	-200.000	0.007	-0.057
-641.682	432.703	-0.075	-0.162
-640.668	286.470	0.187	-0.337
-639.653	122.728	-0.068	-0.085
-638.638	-185.330	0.386	-0.006
-637.624	-18.295	-0.499	-0.311
-636.609	-99.795	0.063	0.016
-635.595	-200.000	-0.039	0.287
-634.580	104.596	-0.259	0.305
-633.565	800.000	0.074	0.210
-632.551	28.860	0.174	0.148
-631.536	-200.000	-0.019	-0.221
-630.522	598.227	0.067	-0.165
-629.507	-89.629	-0.484	0.142
-628.492	-87.812	0.348	0.105
-627.478	530.920	-0.172	-0.407
-626.463	190.035	-0.088	0.132
-625.449	729.274	-0.017	0.044
-624.434	51.492	0.333	-0.316
-623.419	-200.000	0.022	-0.122
-622.405	69.081	0.271	-0.278
-621.390	144.955	0.078	0.104
-620.376	800.000	0.061	0.179
-619.361	-18.735	-0.474	-0.294
-618.346	-63.725	-0.473	-0.193
-617.332	51.444	-0.287	-0.272
-616.317	-200.000	0.003	-0.140
-615.303	29.542	0.130	-0.110
-614.288	105.163	0.250	0.294
-613.273	-87.392	0.380	-0.115
-612.259	-0.509	-0.116	0.082
-611.244	540.992	-0.043	-0.102
-610.230	-200.000	-0.019	0.152
-609.215	381.919	-0.146	-0.299
-608.201	-0.478	-0.086	-0.061
-607.186	-45.114	-0.367	0.182
-606.171	-143.641	0.219	-0.021
-605.157	-123.395	-0.046	0.007
-604.142	-168.736	0.457	-0.017
-603.128	156.090	-0.081	-0.112
-602.113	-58.128	0.241	-0.105
-601.098	-73.600	-0.084	-0.031
-600.084	124.556	-0.168	-0.210
-599.069	-134.085	-0.317	0.039
-598.055	-129.460	0.187	0.026
-597.040	-165.181	0.247	0.011
-596.025	62.050	-0.237	-0.236
-595.011	-200.000	0.007	0.046
-593.996	530.793	0.052	0.123
-592.982	-76.780	-0.180	0.063
-591.967	800.000	-0.070	-0.307
-590.952	-200.000	0.008	0.099
-589.938	139.763	0.139	-0.183
-588.923	-69.596	-0.204	0.078
-587.909	228.063	0.015	-0.025
-586.894	-24.155	-0.091	-0.054
-585.879	301.593	-0.078	0.144
-584.865	-137.355	0.213	0.024
-583.850	-21.325	-0.208	0.127
-582.836	690.260	0.015	0.040
-581.821	118.087	-0.276	0.338
-580.806	-5.105	0.117	0.080
-579.792	-194.012	0.252	-0.002
-578.777	162.798	-0.100	-0.140
-577.763	-81.108	0.242	-0.080
-576.748	800.000	0.029	-0.083
-575.733	-2.178	-0.106	-0.074
-574.719	-76.951	0.182	0.063
-573.704	318.622	-0.030	0.056
-572.690	-106.981	0.175	0.038
-571.675	-2.835	-0.286	-0.199
-570.661	800.000	0.026	-0.108
-569.646	-34.038	0.073	-0.040
-568.631	-200.000	-0.015	0.112
-567.617	-97.670	-0.218	-0.056
-566.602	-200.000	-0.020	0.228
-565.588	-95.610	0.111	0.030
-564.573	-200.000	0.021	0.095
-563.558	-41.819	-0.099	0.051
-562.544	-200.000	-0.029	-0.449
-561.529	736.979	0.063	0.169
-560.515	-123.489	-0.183	-0.029
-559.500	-200.000	-0.020	-0.200
-558.485	20.933	0.040	-0.032
-557.471	525.155	0.105	0.246
-556.456	-137.687	0.187	-0.021
-555.442	-115.511	-0.221	-0.041
-554.427	-69.159	0.133	-0.051
-553.412	165.668	0.080	-0.112
-552.398	57.386	0.104	0.101
-551.383	-94.169	-0.229	0.062
-550.369	149.631	0.095	0.128
-549.354	12.797	0.114	-0.087
-548.339	744.834	0.041	0.111
-547.325	-145.988	0.255	0.022
-546.310	203.128	-0.086	0.132
-545.296	216.787	-0.152	-0.241
-544.281	342.070	0.203	-0.396
-543.266	800.000	-0.085	0.327
-542.252	800.000	0.061	0.181
-541.237	-103.234	-0.298	0.070
-540.223	-76.093	0.085	0.030
-539.208	800.000	-0.042	0.143
-538.193	-79.961	-0.322	-0.107
-537.179	-200.000	-0.280	0.001
-536.164	462.566	0.094	-0.209
-535.150	-61.082	-0.292	-0.123
-534.135	800.000	0.055	0.172
-533.121	226.841	-0.104	0.168
-532.106	-132.347	0.147	0.019
-531.091	368.739	0.090	-0.182
-530.077	-196.216	0.114	0.001
-529.062	-68.801	0.121	-0.046
-528.048	-200.000	0.015	0.272
-527.033	-60.839	0.186	0.078
-526.018	87.016	0.149	-0.164
-525.004	494.582	0.027	0.062
-523.989	360.570	0.054	-0.107
-522.975	-200.000	-0.024	0.146
-521.960	-161.173	-0.084	0.004
-520.945	-200.000	0.031	0.226
-519.931	-200.000	-0.007	-0.274
-518.916	111.165	-0.192	-0.230
-517.902	172.694	-0.151	-0.216
-516.887	-108.567	0.379	0.081
-515.872	680.361	0.140	-0.363
-514.858	-69.447	-0.212	-0.081
-513.843	-200.000	0.036	-0.159
-512.829	610.294	-0.081	0.201
-511.814	79.611	-0.254	0.270
-510.799	-98.770	-0.207	-0.052
-509.785	-76.223	0.228	-0.080
-508.770	131.946	-0.026	-0.033
-507.756	221.603	0.120	0.192
-506.741	-134.033	0.117	0.014
-505.726	39.224	-0.157	0.140
-504.712	-45.359	0.319	-0.157
-503.697	-18.405	-0.303	0.188
-502.683	800.000	0.009	0.030
-501.668	-29.713	0.210	0.119
-500.653	800.000	0.050	0.140
-499.639	49.942	-0.066	-0.062
-498.624	57.319	0.199	0.193
-497.610	-102.128	0.180	-0.043
-496.595	-200.000	-0.037	0.348
-495.581	13.821	0.331	-0.256
-494.566	63.694	-0.093	0.093
-493.551	176.124	0.302	-0.435
-492.537	-200.000	0.026	0.175
-491.522	173.630	0.262	0.375
-490.508	175.961	-0.219	0.315
-489.493	281.488	0.077	0.136
-488.478	-18.985	0.104	-0.064
-487.464	274.125	0.061	0.107
-486.449	-200.000	0.001	0.153
-485.435	235.799	0.076	0.125
-484.420	-59.200	0.216	-0.092
-483.405	-200.000	0.097	-0.424
-482.391	118.246	-0.309	-0.378
-481.376	22.563	-0.067	-0.055
-480.362	-157.754	0.320	0.019
-479.347	150.445	-0.060	0.081
-478.332	-57.306	-0.125	-0.054
-477.318	26.208	0.222	0.184
-476.303	-114.244	-0.183	0.035
-475.289	-9.857	-0.215	0.142
-474.274	159.904	-0.134	-0.185
-473.259	-154.409	-0.273	0.018
-472.245	-138.700	0.151	-0.016
-471.230	221.876	0.128	0.205
-470.216	800.000	-0.046	-0.130
-469.201	253.187	0.176	0.298
-468.186	-169.670	-0.268	-0.010
-467.172	-148.099	-0.421	0.035
-466.157	-121.668	-0.199	0.033
-465.143	-200.000	0.003	0.108
-464.128	-117.904	-0.165	-0.029
-463.113	-88.853	0.212	-0.062
-462.099	716.219	-0.075	-0.196
-461.084	-67.972	0.389	-0.150
-460.070	-200.000	-0.031	0.225
-459.055	-200.000	-0.003	0.140
-458.040	-68.849	0.136	0.052
-457.026	155.963	-0.131	0.179
-456.011	-170.072	0.152	-0.005
-454.997	-51.541	0.155	0.072
-453.982	-146.444	0.101	0.009
-452.968	800.000	0.054	-0.177
-451.953	-200.000	-0.001	-0.008
-450.938	800.000	-0.114	0.317
-449.924	-14.147	-0.167	0.107
-448.909	-82.455	-0.266	-0.085
-447.895	-103.158	-0.083	-0.019
-446.880	-200.000	-0.338	0.002
-445.865	59.284	0.057	-0.055
-444.851	242.863	-0.187	-0.311
-443.836	-133.789	-0.229	-0.028
-442.822	169.616	0.176	-0.250
-441.807	142.414	0.183	0.241
-440.792	-54.232	0.051	-0.023
-439.778	-98.230	0.200	0.051
-438.763	-39.378	0.213	-0.111
-437.749	-200.000	0.006	-0.315
-436.734	435.012	0.098	0.210
-435.719	257.263	0.060	0.102
-434.705	800.000	0.024	0.078
-433.690	121.951	0.156	-0.193
-432.676	151.629	-0.101	-0.136
-431.661	244.809	0.078	-0.130
-430.646	208.197	-0.270	-0.418
-429.632	800.000	-0.030	-0.082
-428.617	-6.499	0.139	-0.094
-427.603	46.330	0.288	-0.264
-426.588	71.793	-0.244	0.251
-425.573	264.197	0.039	-0.067
-424.559	160.266	0.082	0.113
-423.544	-200.000	0.015	-0.208
-422.530	-200.000	-0.048	0.245
-421.515	-200.000	0.029	0.343
-420.500	-135.547	-0.157	-0.019
-419.486	800.000	-0.034	0.112
-418.471	122.610	-0.075	-0.093
-417.457	229.523	0.095	-0.153
-416.442	-200.000	0.008	0.144
-415.428	24.071	-0.053	-0.043
-414.413	771.540	0.075	0.203
-413.398	787.564	0.098	0.265
-412.384	800.000	-0.138	0.533
-411.369	-84.566	-0.331	0.103
-410.355	364.136	-0.161	0.321
-409.340	117.405	-0.047	-0.058
-408.325	-24.443	0.154	0.091
-407.311	-17.190	-0.243	0.152
-406.296	-200.000	0.017	0.073
-405.282	13.693	0.047	0.036
-404.267	-79.484	0.150	-0.050
-403.252	367.443	0.023	-0.046
-402.238	-60.915	-0.234	0.098
-401.223	61.206	-0.203	0.200
-400.209	147.087	0.136	-0.181
-399.194	800.000	-0.123	-0.458
-398.179	-154.844	0.265	-0.017
-397.165	-197.191	0.471	-0.003
-396.150	800.000	-0.077	0.321
-395.136	547.048	0.028	0.067
-394.121	124.910	-0.100	-0.125
-393.106	355.444	-0.040	-0.078
-392.092	-108.098	-0.231	0.049
-391.077	66.390	0.308	0.309
-390.063	17.695	-0.153	-0.120
-389.048	-167.744	-0.011	0.000
-388.033	4.625	-0.326	0.236
-387.019	-79.468	0.334	0.112
-386.004	98.578	0.060	0.068
-384.990	37.363	-0.079	0.069
-383.975	-163.853	0.226	0.010
-382.960	83.478	0.053	0.058
-381.946	117.181	-0.155	-0.189
-380.931	800.000	0.030	-0.103
-379.917	2.209	0.148	-0.106
-378.902	-143.676	0.272	-0.026
-377.888	-200.000	-0.142	0.000
-376.873	194.557	-0.153	-0.229
-375.858	-200.000	0.034	0.239
-374.844	169.137	0.035	0.049
-373.829	-200.000	-0.023	-0.220
-372.815	-185.347	0.293	0.004
-371.800	33.591	-0.142	-0.122
-370.785	103.672	0.152	0.176
-369.771	-125.073	-0.194	-0.029
-368.756	102.473	0.065	0.075
-367.742	-200.000	0.027	-0.540
-366.727	75.254	-0.182	-0.189
-365.712	800.000	0.065	0.236
-364.698	-200.000	-0.031	-0.443
-363.683	167.400	0.280	-0.393
-362.669	-98.133	-0.120	-0.031
-361.654	-106.519	-0.120	-0.026
-360.639	282.144	-0.070	0.125
-359.625	-61.995	-0.203	0.084
-358.610	380.031	0.175	0.355
-357.596	319.385	-0.072	-0.136
-356.581	359.529	-0.140	0.276
-355.566	29.167	0.119	-0.099
-354.552	-108.296	0.047	-0.010
-353.537	-115.023	0.207	-0.039
-352.523	800.000	-0.106	0.334
-351.508	-200.000	0.048	-0.214
-350.493	735.842	-0.131	0.347
-349.479	800.000	-0.049	-0.202
-348.464	1.608	0.241	-0.171
-347.450	102.555	-0.081	0.094
-346.435	-66.741	0.284	0.111
-345.420	-200.000	-0.001	0.077
-344.406	26.949	0.091	0.075
-343.391	98.224	0.230	-0.261
-342.377	654.549	-0.063	-0.159
-341.362	800.000	0.070	0.219
-340.348	44.683	0.191	0.174
-339.333	767.295	0.116	0.311
-338.318	-4.215	0.257	-0.175
-337.304	800.000	0.074	0.268
-336.289	800.000	-0.134	0.369
-335.275	-167.486	0.311	-0.012
-334.260	-10.212	-0.306	0.200
-333.245	56.564	0.256	-0.245
-332.231	651.102	-0.129	0.327
-331.216	40.630	-0.115	0.102
-330.202	-200.000	-0.019	-0.288
-329.187	-162.779	0.472	0.023
-328.172	800.000	-0.089	0.337
-327.158	-54.012	-0.159	-0.072
-326.143	-12.387	-0.227	0.146
-325.129	800.000	-0.077	0.307
-324.114	-96.037	0.141	-0.037
-323.099	219.038	-0.076	0.120
-322.085	800.000	0.023	-0.090
-321.070	-200.000	0.030	-0.181
-320.056	32.468	-0.227	-0.194
-319.041	-107.783	0.296	0.064
-318.026	172.460	0.085	-0.121
-317.012	33.905	-0.265	-0.228
-315.997	158.534	0.114	0.156
-314.983	-137.189	0.281	0.032
-313.968	-144.293	-0.032	0.003
-312.953	-58.423	-0.274	0.117
-311.939	-111.772	0.263	-0.052
-310.924	-117.529	-0.136	0.024
-309.910	-80.397	-0.396	-0.130
-308.895	800.000	0.040	-0.154
-307.880	-200.000	0.032	-0.197
-306.866	341.188	0.079	-0.151
-305.851	-46.545	-0.151	-0.073
-304.837	-148.892	-0.083	-0.007
-303.822	394.247	-0.147	0.302
-302.807	-56.615	-0.214	-0.094
-301.793	-200.000	0.022	0.136
-300.778	139.718	0.153	0.199
-299.764	-96.808	-0.251	-0.065
-298.749	800.000	0.066	0.181
-297.735	165.427	0.222	0.309
-296.720	-125.720	0.341	-0.051
-295.705	-200.000	-0.001	-0.374
-294.691	263.680	0.301	-0.515
-293.676	281.639	0.104	0.183
-292.662	305.481	0.033	0.061
-291.647	32.015	0.137	0.116
-290.632	-92.882	0.054	-0.015
-289.618	763.033	0.027	-0.072
-288.603	1.001	0.174	-0.123
-287.589	-100.128	0.047	0.012
-286.574	48.686	-0.197	0.182
-285.559	800.000	0.082	-0.238
-284.545	446.955	-0.139	-0.302
-283.530	-37.939	-0.275	0.144
-282.516	202.342	0.123	0.187
-281.501	457.926	-0.135	-0.296
-280.486	34.749	0.194	0.167
-279.472	-200.000	-0.054	-0.296
-278.457	54.100	0.063	-0.059
-277.443	610.468	-0.084	0.206
-276.428	67.127	0.028	-0.028
-275.413	192.926	-0.143	0.213
-274.399	110.648	0.145	0.171
-273.384	-1.741	-0.410	-0.284
-272.370	-4.526	-0.331	0.225
-271.355	-200.000	0.045	-0.298
-270.340	-103.440	0.271	-0.063
-269.326	-103.867	0.328	-0.075
-268.311	800.000	0.037	-0.106
-267.297	800.000	-0.032	0.111
-266.282	-91.003	-0.224	-0.063
-265.267	95.810	0.201	-0.225
-264.253	-49.599	0.107	0.050
-263.238	281.747	-0.148	-0.261
-262.224	-95.806	0.267	0.070
-261.209	397.228	-0.112	0.230
-260.195	-200.000	0.087	-0.492
-259.180	68.086	-0.134	0.135
-258.165	800.000	-0.069	0.224
-257.151	-200.000	0.043	0.185
-256.136	-152.476	-0.193	-0.014
-255.122	-66.908	-0.213	-0.083
-254.107	-41.818	-0.127	0.064
-253.092	503.844	0.091	0.208
-252.078	334.405	0.134	-0.255
-251.063	-118.941	0.341	0.059
-250.049	225.191	0.151	0.241
-249.034	-200.000	0.052	0.230
-248.019	-109.265	-0.134	-0.028
-247.005	113.887	0.045	0.053
-245.990	-25.348	-0.363	0.211
-244.976	-129.685	-0.229	0.031
-243.961	53.295	0.229	-0.216
-242.946	153.803	-0.077	0.103
-241.932	-127.169	0.163	0.023
-240.917	347.215	-0.179	-0.346
-239.903	800.000	0.026	0.095
-238.888	-53.260	-0.597	-0.269
-237.873	-51.196	-0.288	0.133
-236.859	-114.588	0.251	-0.047
-235.844	247.539	-0.035	-0.057
-234.830	-75.507	-0.209	-0.073
-233.815	-18.569	-0.137	0.084
-232.800	60.744	0.012	-0.012
-231.786	-79.027	-0.247	0.083
-230.771	-200.000	-0.012	-0.058
-229.757	153.520	0.207	0.279
-228.742	253.607	0.145	0.243
-227.727	488.864	-0.029	0.065
-226.713	-43.569	-0.154	-0.077
-225.698	94.873	0.152	-0.170
-224.684	489.790	-0.113	0.254
-223.669	-98.604	0.387	-0.097
-222.655	-125.974	-0.108	0.016
-221.640	-38.875	-0.163	0.084
-220.625	34.991	-0.075	-0.065
-219.611	151.132	-0.119	0.159
-218.596	-177.355	-0.141	0.003
-217.582	681.776	-0.081	0.208
-216.567	35.711	0.204	-0.176
-215.552	314.258	-0.076	0.141
-214.538	-118.385	0.227	0.039
-213.523	800.000	0.047	-0.182
-212.509	-200.000	-0.012	-0.513
-211.494	-150.019	-0.288	0.022
-210.479	517.161	0.084	0.193
-209.465	368.156	0.033	-0.065
-208.450	-112.257	-0.561	-0.110
-207.436	-200.000	0.042	0.237
-206.421	-101.312	-0.299	0.072
-205.406	106.920	-0.170	0.198
-204.392	26.389	0.295	-0.242
-203.377	-59.103	0.107	-0.045
-202.363	800.000	0.130	-0.407
-201.348	-157.214	0.130	0.008
-200.333	-149.270	-0.066	-0.005
-199.319	800.000	0.054	-0.146
-198.304	-18.079	0.050	-0.031
-197.290	-88.173	-0.125	0.037
-196.275	435.634	0.015	-0.032
-195.260	192.147	0.088	0.131
-194.246	16.164	-0.023	0.018
-193.231	-14.644	-0.154	-0.097
-192.217	122.541	-0.051	0.063
-191.202	-145.434	-0.026	0.002
-190.187	-102.539	-0.244	-0.057
-189.173	198.152	-0.199	-0.298
-188.158	800.000	-0.046	-0.155
-187.144	-200.000	-0.022	0.226
-186.129	-26.561	-0.059	-0.034
-185.114	46.291	0.072	-0.066
-184.100	-100.593	0.328	-0.080
-183.085	-54.966	0.256	-0.113
-182.071	33.724	-0.117	0.100
-181.056	800.000	0.059	0.222
-180.042	46.487	0.081	-0.074
-179.027	38.297	-0.188	-0.164
-178.012	800.000	0.073	-0.302
-176.998	75.307	-0.064	-0.066
-175.983	-149.123	0.538	0.042
-174.969	-59.645	-0.390	-0.164
-173.954	58.205	-0.117	-0.113
-172.939	42.348	0.276	-0.246
-171.925	-91.804	-0.106	0.030
-170.910	-200.000	0.079	0.471
-169.896	-200.000	0.019	-0.234
-168.881	143.779	0.128	0.167
-167.866	147.059	-0.276	0.364
-166.852	-42.116	0.187	0.094
-165.837	72.936	-0.026	-0.027
-164.823	-6.569	-0.272	0.182
-163.808	-200.000	0.052	0.247
-162.793	-39.300	0.156	-0.080
-161.779	-18.662	0.198	-0.121
-160.764	-200.000	0.015	-0.225
-159.750	-200.000	0.021	0.154
-158.735	312.378	0.053	0.097
-157.720	800.000	-0.072	-0.227
-156.706	-3.790	-0.181	0.123
-155.691	800.000	-0.007	-0.027
-154.677	-46.149	0.187	0.090
-153.662	-88.259	-0.123	-0.036
-152.647	95.891	0.107	-0.120
-151.633	547.881	0.069	0.163
-150.618	104.786	0.173	0.200
-149.604	365.138	0.056	-0.110
-148.589	-200.000	-0.015	0.079
-147.574	-68.495	0.305	0.116
-146.560	-200.000	0.017	0.126
-145.545	-200.000	0.003	-0.126
-144.531	367.270	-0.040	-0.078
-143.516	800.000	0.087	-0.263
-142.502	-200.000	0.048	0.230
-141.487	-124.069	0.095	-0.015
-140.472	-108.445	0.203	-0.043
-139.458	97.417	0.079	-0.088
-138.443	800.000	-0.003	-0.010
-137.429	-74.360	0.130	-0.046
-136.414	-89.929	-0.121	0.035
-135.399	-156.614	-0.369	-0.022
-134.385	305.665	-0.120	-0.218
-133.370	-157.718	0.145	-0.008
-132.356	-42.863	-0.305	-0.152
-131.341	-200.000	0.071	0.324
-130.326	277.002	-0.126	0.219
-129.312	102.069	-0.136	0.156
-128.297	-137.307	0.202	0.022
-127.283	154.197	-0.114	-0.154
-126.268	-85.162	0.222	0.068
-125.253	800.000	0.138	0.430
-124.239	800.000	0.116	0.475
-123.224	-11.777	-0.242	-0.156
-122.210	372.023	-0.102	-0.203
-121.195	-72.369	0.392	0.142
