DTS Sentinel unit serial number:	SN413079Multiplexer serial number:	ORYXHardware model number:	OX4-SRSoftware version number:	ORYX F/W v4.00 Oryx Data Collector v3.7.2.0data status	okinstallation	princeton_trtdifferential loss correction	single-endedforward channel	channel 4reverse channel	N/Adate	2019/09/11time	12:59:11forward acquisition time	60.00reverse acquisition time	0.00gamma	496.2192k internal	0.2283k external	0.2283temperature offset calibration	0.9967default loss term (dB/km)	0.3790temperature slope calibration	1.0000multiplexer offset coefficient	1.0000multiplexer slope coefficient	1.0000fibre end	0.00T internal ref (°C)	41.50T ext. ref 1 (°C)	0.24T ext. ref 2 (°C)	38.61length (m)	temperature (°C)	Stokes	anti-Stokes-747.200	-47.378	0.139	-0.070
-746.185	149.583	-0.046	0.064
-745.171	91.663	-0.187	-0.217
-744.156	-200.000	-0.065	0.302
-743.142	758.867	-0.022	0.061
-742.127	-200.000	-0.094	0.551
-741.112	485.376	0.117	0.273
-740.098	590.076	0.030	0.077
-739.083	-37.429	-0.395	-0.217
-738.069	-68.471	0.213	-0.085
-737.054	168.053	0.067	0.097
-736.039	-61.107	0.257	-0.112
-735.025	800.000	0.078	0.310
-734.010	223.927	0.196	-0.324
-732.996	-43.339	-0.232	-0.121
-731.981	-200.000	-0.031	-0.658
-730.966	513.919	-0.044	0.105
-729.952	-200.000	0.002	0.138
-728.937	340.689	-0.133	0.267
-727.923	593.242	-0.058	-0.147
-726.908	-193.028	-0.449	0.004
-725.894	89.233	-0.032	-0.037
-724.879	-131.098	-0.118	0.016
-723.864	-200.000	-0.028	0.191
-722.850	-122.656	-0.437	-0.073
-721.835	-126.688	0.068	-0.010
-720.821	-58.275	0.401	-0.179
-719.806	-74.635	-0.267	-0.099
-718.791	-95.762	0.034	0.009
-717.777	-37.227	-0.135	-0.074
-716.762	34.392	0.124	-0.111
-715.748	-117.204	-0.204	0.038
-714.733	-151.009	0.243	0.019
-713.718	-33.032	0.265	-0.151
-712.704	800.000	0.049	0.196
-711.689	120.280	0.104	-0.133
-710.675	-4.248	0.273	-0.194
-709.660	-200.000	-0.426	0.001
-708.645	-85.941	-0.407	0.129
-707.631	-119.060	0.049	-0.009
-706.616	77.522	-0.045	0.049
-705.602	-138.246	-0.395	0.045
-704.587	440.632	-0.126	-0.284
-703.572	800.000	0.062	-0.198
-702.558	441.598	-0.048	-0.108
-701.543	-200.000	-0.057	-0.400
-700.529	-110.292	0.287	-0.061
-699.514	-200.000	-0.009	-0.224
-698.499	137.881	-0.169	-0.227
-697.485	-90.711	0.117	0.035
-696.470	163.779	-0.153	0.221
-695.456	-53.258	0.087	0.041
-694.441	-143.331	-0.176	0.017
-693.426	37.425	0.109	0.099
-692.412	-21.594	-0.162	0.101
-691.397	-120.374	-0.292	-0.051
-690.383	553.048	-0.050	-0.124
-689.368	-109.577	-0.160	0.035
-688.354	-34.187	-0.082	-0.046
-687.339	-140.394	-0.151	0.016
-686.324	800.000	-0.060	-0.251
-685.310	173.222	-0.083	-0.122
-684.295	-125.656	-0.257	0.040
-683.281	368.501	-0.112	0.232
-682.266	130.662	0.094	-0.124
-681.251	-200.000	0.021	-0.198
-680.237	0.290	-0.298	0.218
-679.222	-100.201	-0.212	-0.054
-678.208	5.917	-0.330	-0.250
-677.193	33.016	-0.060	0.053
-676.178	276.711	0.174	0.316
-675.164	84.832	-0.103	-0.116
-674.149	165.770	-0.157	0.228
-673.135	800.000	0.003	-0.011
-672.120	-200.000	-0.042	-0.000
-671.105	-54.229	-0.127	0.059
-670.091	110.615	-0.138	-0.170
-669.076	725.500	0.095	0.261
-668.062	-45.174	0.126	0.064
-667.047	-155.333	0.192	0.013
-666.032	74.917	0.032	0.034
-665.018	800.000	-0.061	0.220
-664.003	184.526	0.110	0.167
-662.989	134.507	0.046	-0.061
-661.974	793.684	-0.065	0.183
-660.959	-34.372	-0.065	0.036
-659.945	-75.438	0.045	0.016
-658.930	44.736	0.058	0.054
-657.916	800.000	-0.058	-0.224
-656.901	56.933	0.196	0.195
-655.886	-200.000	-0.053	0.239
-654.872	800.000	-0.028	-0.125
-653.857	79.708	-0.007	0.008
-652.843	-200.000	0.030	-0.251
-651.828	505.392	0.057	0.135
-650.814	-200.000	-0.029	-0.345
-649.799	-3.186	-0.089	-0.064
-648.784	-200.000	0.013	-0.165
-647.770	-181.783	-0.219	-0.004
-646.755	-52.037	-0.258	0.123
-645.741	424.583	0.118	-0.259
-644.726	800.000	0.173	0.505
-643.711	-200.000	-0.021	0.114
-642.697	-200.000	0.047	0.385
-641.682	800.000	0.071	0.293
-640.668	314.961	-0.145	0.280
-639.653	-200.000	0.003	-0.073
-638.638	-200.000	0.008	0.199
-637.624	270.332	0.133	0.240
-636.609	417.179	-0.153	-0.335
-635.595	21.445	0.026	-0.022
-634.580	300.596	0.049	0.093
-633.565	96.330	-0.293	0.343
-632.551	-200.000	-0.028	-0.167
-631.536	-1.549	-0.064	-0.046
-630.522	-197.763	-0.242	0.002
-629.507	-78.031	-0.174	-0.061
-628.492	-103.228	0.242	-0.059
-627.478	800.000	-0.165	-0.468
-626.463	-31.592	0.273	-0.157
-625.449	-200.000	0.005	-0.097
-624.434	-155.289	-0.113	-0.008
-623.419	194.213	-0.065	0.100
-622.405	-164.323	0.184	0.009
-621.390	-51.481	-0.264	0.126
-620.376	29.953	0.145	-0.127
-619.361	52.292	-0.133	-0.129
-618.346	-48.526	-0.298	0.147
-617.332	-200.000	0.042	0.193
-616.317	-200.000	0.011	-0.186
-615.303	-200.000	0.001	-0.037
-614.288	-200.000	-0.103	-0.567
-613.273	-90.902	0.146	0.043
-612.259	-158.018	0.261	0.016
-611.244	800.000	0.069	-0.267
-610.230	270.541	0.161	-0.290
-609.215	-200.000	-0.020	-0.145
-608.201	85.203	0.199	-0.223
-607.186	54.396	-0.078	0.077
-606.171	-40.195	0.237	-0.126
-605.157	800.000	0.052	-0.178
-604.142	-200.000	-0.009	-0.061
-603.128	90.739	-0.135	-0.154
-602.113	-200.000	0.015	0.233
-601.098	-3.418	0.146	0.104
-600.084	-121.479	0.169	0.029
-599.069	76.723	0.266	-0.288
-598.055	-200.000	-0.004	-0.037
-597.040	800.000	-0.061	0.187
-596.025	379.086	0.096	0.201
-595.011	-178.430	-0.205	0.005
-593.996	-200.000	0.011	-0.057
-592.982	800.000	-0.034	0.131
-591.967	103.291	-0.179	-0.215
-590.952	-108.160	-0.157	0.035
-589.938	704.000	0.037	0.099
-588.923	-110.179	0.603	-0.129
-587.909	351.651	0.204	-0.413
-586.894	-200.000	-0.013	-0.229
-585.879	19.030	0.210	-0.172
-584.865	-200.000	-0.031	0.143
-583.850	-68.069	-0.115	-0.046
-582.836	-93.999	0.275	-0.077
-581.821	-200.000	-0.013	0.364
-580.806	-55.114	-0.035	-0.016
-579.792	-89.771	-0.090	0.027
-578.777	-200.000	-0.001	0.094
-577.763	-200.000	-0.022	-0.236
-576.748	-69.857	-0.133	-0.052
-575.733	-113.534	0.305	-0.061
-574.719	-200.000	-0.010	0.203
-573.704	117.372	0.075	-0.095
-572.690	-2.696	0.097	0.070
-571.675	12.066	-0.093	-0.073
-570.661	-124.030	-0.078	-0.012
-569.646	-113.419	-0.160	-0.032
-568.631	-134.121	-0.282	-0.036
-567.617	-15.265	-0.127	0.083
-566.602	-155.796	-0.143	0.009
-565.588	-200.000	-0.027	0.207
-564.573	-200.000	0.031	0.228
-563.558	91.280	0.190	0.218
-562.544	206.719	0.197	0.313
-561.529	30.492	-0.180	-0.157
-560.515	-200.000	-0.017	0.235
-559.500	-182.906	-0.201	-0.004
-558.485	563.197	0.180	-0.444
-557.471	-37.753	-0.209	-0.113
-556.456	704.752	0.142	0.381
-555.442	61.478	0.214	-0.217
-554.427	-118.725	-0.187	0.034
-553.412	5.301	-0.158	0.119
-552.398	-200.000	-0.022	-0.112
-551.383	800.000	-0.042	0.120
-550.369	18.604	-0.121	-0.098
-549.354	210.815	0.074	0.118
-548.339	164.315	0.162	-0.233
-547.325	175.576	-0.050	-0.074
-546.310	-200.000	0.024	-0.143
-545.296	16.801	0.208	-0.168
-544.281	-200.000	-0.014	-0.066
-543.266	-200.000	0.492	0.002
-542.252	180.852	0.101	0.152
-541.237	-200.000	0.047	-0.266
-540.223	800.000	0.039	0.117
-539.208	-200.000	-0.003	-0.217
-538.193	-123.319	-0.414	-0.067
-537.179	-200.000	-0.022	-0.221
-536.164	800.000	0.121	-0.370
-535.150	-200.000	-0.059	-0.280
-534.135	49.088	-0.063	-0.060
-533.121	800.000	0.137	0.454
-532.106	117.502	-0.070	0.088
-531.091	-200.000	-0.033	0.205
-530.077	-38.193	0.047	0.026
-529.062	100.943	-0.082	-0.097
-528.048	-200.000	0.018	-0.094
-527.033	-37.088	0.212	-0.116
-526.018	-85.284	0.316	-0.100
-525.004	286.306	0.118	0.217
-523.989	168.431	0.120	0.175
-522.975	36.974	0.175	-0.158
-521.960	257.534	-0.061	-0.107
-520.945	-178.502	-0.020	0.000
-519.931	-114.415	0.113	-0.022
-518.916	-200.000	-0.015	-0.222
-517.902	-191.861	-0.474	0.005
-516.887	184.565	-0.036	-0.055
-515.872	216.213	0.057	-0.092
-514.858	259.540	-0.090	0.159
-513.843	135.829	0.119	-0.158
-512.829	800.000	-0.092	0.273
-511.814	-200.000	0.019	0.397
-510.799	284.271	-0.061	0.112
-509.785	800.000	0.094	0.280
-508.770	99.206	0.251	0.296
-507.756	393.853	0.063	0.133
-506.741	127.299	-0.136	-0.175
-505.726	780.518	-0.064	0.179
-504.712	-180.249	0.043	0.001
-503.697	-200.000	-0.015	0.264
-502.683	-29.542	-0.194	0.113
-501.668	800.000	-0.010	0.034
-500.653	63.804	-0.115	0.118
-499.639	39.095	-0.094	0.086
-498.624	-19.691	0.133	-0.084
-497.610	69.467	0.303	-0.317
-496.595	-65.840	-0.099	0.040
-495.581	229.009	0.078	0.129
-494.566	141.878	-0.035	-0.047
-493.551	-133.124	0.381	0.049
-492.537	-70.989	-0.246	0.094
-491.522	-50.554	0.319	-0.153
-490.508	-200.000	-0.009	0.097
-489.493	-25.207	0.324	0.195
-488.478	-105.639	-0.178	0.041
-487.464	13.775	0.086	-0.068
-486.449	356.069	0.016	0.033
-485.435	-200.000	0.024	0.204
-484.420	-70.457	-0.219	0.084
-483.405	79.504	-0.374	0.408
-482.391	128.692	-0.117	-0.151
-481.376	175.625	-0.110	-0.163
-480.362	2.738	0.092	-0.068
-479.347	-1.883	-0.151	-0.108
-478.332	430.211	0.059	-0.129
-477.318	-77.236	-0.242	-0.086
-476.303	184.070	-0.092	-0.138
-475.289	800.000	0.048	0.166
-474.274	-113.029	-0.517	0.104
-473.259	800.000	0.045	0.179
-472.245	800.000	0.034	0.121
-471.230	626.599	-0.180	-0.461
-470.216	-117.072	0.338	-0.063
-469.201	-149.772	0.193	-0.015
-468.186	800.000	0.032	0.124
-467.172	649.725	-0.147	-0.381
-466.157	-138.891	0.319	0.035
-465.143	-33.617	-0.012	0.007
-464.128	-200.000	0.010	0.053
-463.113	153.090	-0.133	0.184
-462.099	55.716	0.203	0.200
-461.084	800.000	0.042	-0.179
-460.070	-139.324	-0.185	0.020
-459.055	-129.196	-0.067	-0.009
-458.040	600.124	-0.065	-0.163
-457.026	-200.000	0.000	-0.321
-456.011	-97.401	-0.133	0.035
-454.997	385.132	0.081	0.169
-453.982	-39.351	-0.087	0.046
-452.968	800.000	0.073	-0.204
-451.953	161.994	-0.238	0.339
-450.938	-146.568	-0.213	-0.019
-449.924	42.571	-0.364	-0.337
-448.909	121.449	-0.132	0.167
-447.895	114.612	-0.137	0.169
-446.880	-42.318	0.067	0.035
-445.865	-59.251	0.145	0.063
-444.851	111.488	-0.101	-0.123
-443.836	-41.421	0.234	0.123
-442.822	223.458	-0.059	0.096
-441.807	565.113	-0.089	0.219
-440.792	91.696	0.091	-0.104
-439.778	-140.488	0.018	-0.002
-438.763	-19.043	0.096	-0.061
-437.749	-200.000	-0.002	0.013
-436.734	-90.809	0.286	-0.084
-435.719	-111.888	0.079	-0.016
-434.705	-182.549	0.096	-0.002
-433.690	-51.933	0.202	-0.095
-432.676	-67.027	-0.168	0.067
-431.661	-69.108	-0.222	-0.087
-430.646	452.703	-0.087	0.195
-429.632	21.124	0.132	0.108
-428.617	-67.357	-0.224	0.090
-427.603	141.024	-0.178	-0.239
-426.588	458.692	0.152	0.344
-425.573	-200.000	0.011	0.468
-424.559	26.097	-0.233	-0.198
-423.544	189.609	0.221	0.336
-422.530	800.000	0.030	-0.102
-421.515	80.999	-0.083	-0.091
-420.500	-37.689	0.097	-0.053
-419.486	-45.488	0.226	0.114
-418.471	-90.703	-0.162	-0.048
-417.457	43.339	-0.378	-0.350
-416.442	-120.136	0.275	0.048
-415.428	162.734	-0.116	0.165
-414.413	8.119	0.122	-0.093
-413.398	5.036	0.158	0.118
-412.384	-200.000	-0.021	0.099
-411.369	-134.540	0.218	-0.027
-410.355	166.234	0.198	-0.284
-409.340	-87.391	-0.139	0.043
-408.325	-20.404	-0.144	0.090
-407.311	579.667	0.128	0.318
-406.296	-200.000	0.049	0.269
-405.282	-34.775	-0.065	-0.036
-404.267	-58.586	-0.192	0.085
-403.252	-76.795	-0.116	0.041
-402.238	214.145	-0.108	-0.173
-401.223	14.303	0.221	-0.174
-400.209	-83.985	-0.284	-0.092
-399.194	-200.000	-0.005	0.042
-398.179	-93.391	0.094	0.026
-397.165	800.000	-0.126	0.423
-396.150	-200.000	-0.010	0.059
-395.136	353.943	-0.035	-0.070
-394.121	-200.000	-0.023	-0.102
-393.106	-178.224	-0.200	0.005
-392.092	-130.796	-0.212	-0.029
-391.077	147.025	-0.144	-0.197
-390.063	288.877	-0.078	0.144
-389.048	-12.902	0.374	0.247
-388.033	-42.681	0.065	0.034
-387.019	137.640	-0.131	0.174
-386.004	-150.691	-0.234	0.018
-384.990	-41.993	0.166	0.086
-383.975	-200.000	0.012	-0.053
-382.960	-49.894	-0.510	0.245
-381.946	-200.000	-0.002	-0.402
-380.931	-73.593	-0.311	0.115
-379.917	-73.140	-0.116	-0.043
-378.902	-174.250	0.207	0.006
-377.888	-30.383	0.289	-0.166
-376.873	104.433	-0.162	-0.194
-375.858	-11.938	0.072	-0.048
-374.844	273.459	0.176	-0.315
-373.829	800.000	-0.090	0.263
-372.815	-148.591	-0.105	-0.009
-371.800	57.285	0.027	0.027
-370.785	10.116	0.430	0.331
-369.771	-200.000	-0.008	-0.171
-368.756	256.457	0.083	-0.144
-367.742	-149.731	-0.084	0.007
-366.727	-7.359	0.292	-0.200
-365.712	-152.511	-0.318	-0.023
-364.698	180.194	0.058	0.085
-363.683	-200.000	0.038	0.195
-362.669	-117.014	0.330	0.061
-361.654	485.346	-0.151	-0.349
-360.639	-200.000	0.021	0.320
-359.625	-76.494	-0.202	0.072
-358.610	-200.000	0.027	-0.187
-357.596	-5.228	0.448	-0.312
-356.581	-186.676	-0.074	0.001
-355.566	70.754	0.148	0.155
-354.552	-130.890	0.213	-0.029
-353.537	27.999	-0.308	-0.263
-352.523	800.000	0.094	-0.328
-351.508	-88.266	0.208	0.063
-350.493	3.073	0.493	0.363
-349.479	-31.333	0.113	-0.064
-348.464	-200.000	-0.058	-0.431
-347.450	31.159	0.172	-0.149
-346.435	-184.603	0.098	-0.002
-345.420	-200.000	-0.001	-0.043
-344.406	-200.000	-0.027	-0.310
-343.391	-200.000	-0.016	-0.195
-342.377	374.346	-0.129	-0.265
-341.362	86.937	-0.146	0.163
-340.348	-27.615	0.124	-0.073
-339.333	-160.881	-0.378	-0.020
-338.318	-200.000	-0.008	0.405
-337.304	-6.378	0.091	0.063
-336.289	3.542	-0.173	0.127
-335.275	-17.999	-0.054	-0.034
-334.260	-63.672	0.191	0.079
-333.245	-114.437	-0.098	-0.019
-332.231	-114.234	-0.074	-0.014
-331.216	-148.878	0.084	-0.007
-330.202	84.075	-0.161	0.178
-329.187	800.000	0.077	-0.270
-328.172	116.884	0.260	-0.323
-327.158	-200.000	-0.001	-0.171
-326.143	-166.641	-0.159	0.007
-325.129	32.447	-0.128	0.111
-324.114	-103.030	0.258	0.062
-323.099	-136.399	-0.223	0.026
-322.085	150.858	0.243	0.333
-321.070	14.557	-0.195	-0.154
-320.056	-142.501	-0.159	-0.016
-319.041	731.568	0.070	-0.190
-318.026	800.000	0.028	-0.106
-317.012	620.945	0.122	0.310
-315.997	-200.000	-0.019	0.163
-314.983	126.690	-0.141	0.180
-313.968	-200.000	-0.032	-0.147
-312.953	-27.649	-0.226	-0.132
-311.939	584.758	0.068	-0.169
-310.924	-39.187	0.076	0.040
-309.910	15.254	0.364	0.288
-308.895	-20.397	-0.151	0.094
-307.880	469.582	-0.091	-0.206
-306.866	-157.532	-0.088	-0.005
-305.851	585.932	0.143	0.355
-304.837	-127.484	0.144	-0.021
-303.822	-10.702	0.099	0.066
-302.807	137.549	0.172	-0.227
-301.793	34.435	-0.145	-0.128
-300.778	-92.501	0.340	-0.096
-299.764	-85.206	-0.336	-0.106
-298.749	-200.000	0.027	-0.134
-297.735	-174.995	-0.099	-0.003
-296.720	-46.247	0.211	0.105
-295.705	-200.000	-0.014	0.100
-294.691	24.591	0.176	0.147
-293.676	-200.000	0.022	-0.233
-292.662	389.442	-0.074	0.154
-291.647	-200.000	-0.022	0.205
-290.632	-200.000	0.002	-0.114
-289.618	237.684	0.051	-0.085
-288.603	800.000	-0.061	0.188
-287.589	24.756	0.351	0.293
-286.574	-134.482	0.175	-0.022
-285.559	-124.580	0.316	0.049
-284.545	800.000	0.028	0.119
-283.530	24.106	-0.087	-0.073
-282.516	-67.261	-0.216	-0.086
-281.501	-53.481	-0.354	-0.163
-280.486	-57.796	0.224	0.099
-279.472	800.000	0.046	0.149
-278.457	45.340	-0.221	-0.206
-277.443	-200.000	-0.003	-0.346
-276.428	-50.842	-0.345	0.164
-275.413	-200.000	-0.011	0.104
-274.399	800.000	0.035	0.107
-273.384	-70.922	-0.072	-0.027
-272.370	-130.272	0.102	0.014
-271.355	42.207	-0.229	0.210
-270.340	-131.245	-0.077	0.010
-269.326	145.924	0.193	-0.261
-268.311	-200.000	-0.055	0.428
-267.297	-79.406	-0.255	0.087
-266.282	-200.000	0.004	0.311
-265.267	380.180	0.110	-0.228
-264.253	4.428	0.254	0.188
-263.238	-80.808	0.028	-0.009
-262.224	20.863	-0.196	-0.160
-261.209	151.229	0.212	-0.290
-260.195	800.000	-0.048	-0.137
-259.180	38.020	0.083	0.074
-258.165	537.174	-0.066	-0.157
-257.151	-200.000	-0.003	-0.462
-256.136	-46.056	0.282	-0.140
-255.122	800.000	-0.073	0.314
-254.107	-92.022	-0.210	-0.060
-253.092	-200.000	-0.018	0.172
-252.078	800.000	0.045	0.160
-251.063	249.593	0.108	-0.185
-250.049	166.926	0.189	-0.270
-249.034	131.979	-0.084	-0.109
-248.019	434.163	0.051	-0.111
-247.005	-200.000	-0.009	0.059
-245.990	-200.000	-0.010	0.382
-244.976	8.506	0.182	-0.138
-243.961	317.274	-0.157	0.299
-242.946	139.939	-0.078	-0.104
-241.932	159.459	-0.182	-0.255
-240.917	800.000	0.039	0.118
-239.903	-151.540	-0.145	0.011
-238.888	107.045	-0.262	-0.313
-237.873	3.999	0.369	0.272
-236.859	-56.374	-0.288	-0.129
-235.844	5.090	-0.260	-0.193
-234.830	-200.000	0.040	0.266
-233.815	-200.000	-0.040	-0.216
-232.800	97.866	-0.064	0.074
-231.786	-117.950	0.240	0.043
-230.771	66.679	0.085	-0.087
-229.757	453.639	-0.124	0.277
-228.742	-200.000	0.037	0.461
-227.727	111.369	0.105	-0.128
-226.713	7.332	0.134	-0.101
-225.698	-74.339	-0.346	-0.126
-224.684	-200.000	0.012	0.206
-223.669	20.634	0.138	0.112
-222.655	-39.864	-0.086	0.045
-221.640	-200.000	0.025	0.139
-220.625	1.431	-0.292	0.211
-219.611	-36.968	0.235	0.127
-218.596	0.380	-0.162	-0.117
-217.582	-200.000	-0.008	0.075
-216.567	-200.000	-0.000	-0.057
-215.552	276.968	-0.089	-0.160
-214.538	449.616	0.034	-0.075
-213.523	137.381	0.103	0.136
-212.509	-134.088	0.106	0.013
-211.494	-159.394	0.237	-0.013
-210.479	800.000	0.120	-0.397
-209.465	-94.043	0.221	-0.061
-208.450	800.000	-0.064	0.191
-207.436	20.591	0.089	0.072
-206.421	-64.869	-0.108	0.044
-205.406	-159.618	-0.013	0.001
-204.392	87.217	-0.205	0.228
-203.377	469.015	0.091	0.205
-202.363	-200.000	-0.006	0.090
-201.348	-38.037	0.074	-0.040
-200.333	46.723	-0.233	0.218
-199.319	-53.777	0.281	0.129
-198.304	-106.546	0.130	0.029
-197.290	-200.000	-0.014	0.098
-196.275	-112.681	0.308	0.062
-195.260	-102.594	0.161	0.039
-194.246	445.505	0.246	-0.544
-193.231	-200.000	0.001	-0.050
-192.217	-33.402	-0.257	-0.143
-191.202	-19.187	-0.140	-0.088
-190.187	316.977	-0.109	-0.207
-189.173	-6.154	0.154	-0.106
-188.158	263.607	-0.038	0.066
-187.144	-195.578	-0.284	-0.002
-186.129	-200.000	-0.029	0.162
-185.114	-173.028	-0.459	-0.014
-184.100	800.000	-0.086	0.258
-183.085	800.000	0.054	0.194
-182.071	800.000	-0.065	-0.263
-181.056	800.000	0.028	-0.091
-180.042	313.258	0.127	0.239
-179.027	-103.679	-0.241	0.057
-178.012	447.600	0.152	-0.337
-176.998	-29.261	0.026	0.015
-175.983	192.144	0.031	-0.047
-174.969	44.347	-0.175	0.161
-173.954	-31.407	-0.298	-0.168
-172.939	-161.507	0.174	0.009
-171.925	-39.744	-0.067	0.035
-170.910	-89.259	0.403	0.119
-169.896	259.420	-0.179	-0.311
-168.881	-67.665	-0.131	0.052
-167.866	-200.000	-0.013	0.111
-166.852	783.335	0.080	-0.219
-165.837	178.599	-0.032	0.046
-164.823	247.274	0.101	-0.171
-163.808	2.945	-0.329	-0.240
-162.793	-106.248	0.170	0.038
-161.779	-62.139	-0.374	-0.157
-160.764	-200.000	-0.024	-0.354
-159.750	-94.720	-0.085	-0.023
-158.735	-73.685	0.339	0.124
-157.720	-106.600	-0.135	-0.030
-156.706	-123.341	-0.135	0.022
-155.691	570.882	0.092	0.225
-154.677	-46.362	0.252	0.124
-153.662	-152.844	-0.242	0.017
-152.647	4.791	-0.092	0.068
-151.633	-72.955	0.230	0.085
-150.618	-78.657	0.140	0.048
-149.604	-74.340	-0.010	0.004
-148.589	-145.549	-0.143	0.013
-147.574	172.635	0.180	0.260
-146.560	5.492	0.337	-0.250
-145.545	-31.652	0.175	0.099
-144.531	800.000	-0.080	-0.338
-143.516	159.525	0.066	-0.093
-142.502	-200.000	0.008	-0.161
-141.487	-153.450	0.212	-0.015
-140.472	211.974	-0.049	0.077
-139.458	261.608	0.116	0.202
-138.443	-33.961	-0.190	-0.105
-137.429	-200.000	0.012	-0.102
-136.414	-77.966	-0.445	-0.154
-135.399	372.261	-0.097	-0.198
-134.385	-200.000	0.001	-0.108
-133.370	59.264	0.069	0.068
-132.356	130.329	0.087	0.111
-131.341	269.488	0.090	0.159
-130.326	-76.442	0.160	-0.057
-129.312	-158.031	0.373	-0.022
-128.297	-200.000	-0.005	0.030
-127.283	-29.112	0.289	0.166
-126.268	-200.000	0.026	0.131
-125.253	-200.000	0.032	-0.189
-124.239	800.000	-0.040	-0.164
-123.224	196.984	-0.053	0.081
-122.210	-128.640	0.287	-0.041
