DTS Sentinel unit serial number:	SN413079Multiplexer serial number:	ORYXHardware model number:	OX4-SRSoftware version number:	ORYX F/W v4.00 Oryx Data Collector v3.7.2.0data status	okinstallation	princeton_trtdifferential loss correction	single-endedforward channel	channel 4reverse channel	N/Adate	2019/09/14time	13:13:34forward acquisition time	60.00reverse acquisition time	0.00gamma	496.2192k internal	0.2292k external	0.2292temperature offset calibration	1.0155default loss term (dB/km)	0.3790temperature slope calibration	1.0000multiplexer offset coefficient	1.0000multiplexer slope coefficient	1.0000fibre end	0.00T internal ref (°C)	37.98T ext. ref 1 (°C)	4.90T ext. ref 2 (°C)	34.08length (m)	temperature (°C)	Stokes	anti-Stokes-747.200	277.280	-0.051	-0.092
-746.185	-149.231	-0.099	0.008
-745.171	86.358	0.345	-0.390
-744.156	-130.664	-0.196	-0.027
-743.142	-155.455	0.293	0.019
-742.127	223.000	0.193	0.319
-741.112	-75.255	0.285	-0.104
-740.098	-152.916	-0.325	0.024
-739.083	210.037	0.153	-0.245
-738.069	-200.000	0.059	0.316
-737.054	136.924	-0.059	0.078
-736.039	-10.676	-0.194	-0.132
-735.025	-89.446	0.235	-0.071
-734.010	-45.463	-0.479	-0.243
-732.996	-118.581	-0.234	-0.042
-731.981	-200.000	-0.033	-0.196
-730.966	53.769	-0.091	0.089
-729.952	-13.089	0.181	0.120
-728.937	128.628	-0.122	-0.159
-727.923	-137.242	-0.164	-0.019
-726.908	8.851	-0.108	-0.083
-725.894	599.911	0.015	-0.038
-724.879	178.846	-0.147	-0.220
-723.864	-200.000	-0.048	0.261
-722.850	302.554	0.134	-0.253
-721.835	-200.000	0.010	-0.214
-720.821	14.315	0.287	-0.229
-719.806	127.990	-0.048	-0.063
-718.791	650.678	-0.121	-0.317
-717.777	44.142	0.350	-0.328
-716.762	519.821	-0.089	-0.214
-715.748	-174.156	0.047	-0.001
-714.733	31.960	-0.128	-0.113
-713.718	38.125	-0.224	-0.204
-712.704	118.083	-0.198	-0.250
-711.689	342.164	-0.120	0.240
-710.675	-200.000	0.021	0.174
-709.660	60.920	0.086	-0.088
-708.645	-200.000	0.063	-0.288
-707.631	210.845	-0.129	-0.207
-706.616	-96.957	-0.400	-0.107
-705.602	-120.178	-0.201	0.035
-704.587	-157.606	-0.255	0.016
-703.572	729.785	-0.029	-0.078
-702.558	-19.930	0.233	0.147
-701.543	-200.000	0.001	-0.103
-700.529	89.342	0.138	-0.157
-699.514	-148.631	-0.037	0.003
-698.499	98.211	0.240	0.283
-697.485	-200.000	0.013	0.405
-696.470	-71.308	-0.135	-0.052
-695.456	-60.544	0.147	-0.064
-694.441	-3.606	0.125	0.088
-693.426	13.099	-0.082	0.065
-692.412	-200.000	-0.039	0.404
-691.397	50.562	0.061	-0.059
-690.383	-180.084	0.172	-0.004
-689.368	248.389	-0.087	-0.151
-688.354	-101.249	0.489	0.122
-687.339	64.638	-0.132	0.136
-686.324	-200.000	0.007	0.089
-685.310	-200.000	-0.019	0.273
-684.295	241.186	-0.135	-0.230
-683.281	77.824	0.217	0.236
-682.266	416.150	-0.081	-0.176
-681.251	-151.637	-0.087	-0.007
-680.237	84.413	0.101	0.113
-679.222	-169.267	-0.100	0.004
-678.208	800.000	-0.040	0.122
-677.193	485.844	-0.052	0.120
-676.178	800.000	0.062	-0.228
-675.164	800.000	0.127	-0.376
-674.149	-88.623	-0.323	-0.098
-673.135	-199.797	0.157	-0.001
-672.120	65.826	0.174	-0.180
-671.105	-18.730	0.112	-0.071
-670.091	800.000	-0.065	-0.268
-669.076	305.867	-0.127	-0.241
-668.062	633.976	-0.071	0.183
-667.047	195.117	0.168	0.260
-666.032	-102.991	0.202	-0.049
-665.018	-68.974	0.261	-0.103
-664.003	-136.424	0.131	0.016
-662.989	-134.810	0.285	0.035
-661.974	-151.758	-0.332	-0.025
-660.959	236.165	0.103	0.174
-659.945	-200.000	-0.044	-0.247
-658.930	40.933	-0.259	0.239
-657.916	355.871	0.035	-0.070
-656.901	-200.000	0.025	0.337
-655.886	-65.819	0.303	0.124
-654.872	404.692	0.124	-0.266
-653.857	157.570	-0.189	0.267
-652.843	-85.692	0.263	0.083
-651.828	-27.195	-0.536	-0.319
-650.814	3.294	-0.360	-0.267
-649.799	100.806	0.176	-0.209
-648.784	-121.041	-0.355	0.061
-647.770	150.502	0.039	-0.054
-646.755	-200.000	0.007	0.172
-645.741	86.126	0.184	-0.207
-644.726	14.218	-0.150	-0.119
-643.711	-39.847	0.106	-0.057
-642.697	-67.854	-0.307	-0.122
-641.682	305.461	-0.129	-0.244
-640.668	-200.000	0.063	-0.285
-639.653	800.000	0.050	-0.151
-638.638	-200.000	-0.035	0.201
-637.624	-8.199	-0.410	-0.281
-636.609	4.600	0.234	-0.175
-635.595	-12.170	0.155	-0.103
-634.580	-131.498	0.270	-0.036
-633.565	-200.000	-0.012	-0.123
-632.551	-132.275	-0.360	0.048
-631.536	-22.389	-0.068	0.042
-630.522	-1.819	0.142	-0.102
-629.507	300.466	-0.058	-0.109
-628.492	-156.625	-0.177	-0.011
-627.478	800.000	-0.074	-0.216
-626.463	-200.000	0.006	0.226
-625.449	-200.000	0.024	-0.225
-624.434	-200.000	-0.061	-0.365
-623.419	-48.651	-0.472	-0.231
-622.405	-139.596	0.264	-0.029
-621.390	115.541	-0.258	-0.321
-620.376	-200.000	0.017	-0.191
-619.361	374.666	-0.077	-0.160
-618.346	793.839	-0.038	0.108
-617.332	-200.000	0.031	-0.228
-616.317	62.493	0.188	-0.191
-615.303	-24.452	0.067	0.041
-614.288	-200.000	0.030	-0.213
-613.273	52.162	-0.267	0.259
-612.259	-200.000	-0.042	0.292
-611.244	140.894	0.018	-0.024
-610.230	297.905	-0.104	0.194
-609.215	-16.125	0.101	-0.065
-608.201	800.000	-0.033	-0.101
-607.186	-200.000	-0.062	0.413
-606.171	-63.486	-0.288	-0.120
-605.157	77.279	-0.157	0.170
-604.142	-22.615	0.294	-0.181
-603.128	-200.000	0.010	-0.138
-602.113	299.921	0.150	0.281
-601.098	-144.509	-0.302	-0.028
-600.084	-125.709	-0.271	-0.042
-599.069	-200.000	-0.046	0.249
-598.055	32.032	-0.109	0.096
-597.040	60.578	0.335	0.338
-596.025	33.117	0.192	0.170
-595.011	-111.679	0.071	0.015
-593.996	-111.474	0.499	0.103
-592.982	180.733	0.117	-0.175
-591.967	-98.833	-0.152	-0.039
-590.952	278.565	-0.086	-0.156
-589.938	-9.270	-0.140	-0.095
-588.923	-193.910	-0.103	0.001
-587.909	700.554	-0.044	0.118
-586.894	439.758	-0.034	0.077
-585.879	553.918	-0.122	0.298
-584.865	-115.400	-0.273	0.052
-583.850	197.263	0.211	-0.327
-582.836	800.000	0.063	-0.208
-581.821	-43.196	0.078	0.040
-580.806	-41.075	-0.056	0.030
-579.792	103.013	-0.117	-0.140
-578.777	130.919	-0.239	0.312
-577.763	-88.103	-0.438	-0.133
-576.748	-11.296	-0.283	-0.189
-575.733	-50.809	0.185	0.088
-574.719	800.000	-0.092	0.263
-573.704	65.103	-0.241	0.248
-572.690	-200.000	-0.046	0.261
-571.675	-200.000	-0.009	-0.059
-570.661	-137.303	0.175	-0.020
-569.646	-200.000	0.030	0.334
-568.631	-200.000	-0.033	0.148
-567.617	-200.000	-0.052	0.243
-566.602	-200.000	-0.002	0.127
-565.588	-200.000	-0.005	-0.235
-564.573	800.000	-0.073	0.246
-563.558	127.998	-0.116	0.150
-562.544	-200.000	-0.002	-0.142
-561.529	-200.000	-0.018	-0.168
-560.515	-89.160	0.117	-0.035
-559.500	428.080	0.101	-0.223
-558.485	98.706	0.194	-0.227
-557.471	-85.451	0.203	-0.064
-556.456	-200.000	0.014	0.106
-555.442	-165.883	0.219	-0.010
-554.427	371.063	-0.087	-0.180
-553.412	-35.030	-0.161	-0.089
-552.398	522.754	0.114	-0.271
-551.383	0.047	-0.340	0.246
-550.369	-91.554	-0.352	0.102
-549.354	800.000	-0.110	-0.329
-548.339	-200.000	0.031	-0.247
-547.325	-48.209	0.160	0.079
-546.310	-37.935	0.052	-0.028
-545.296	-200.000	0.007	-0.034
-544.281	39.163	-0.236	0.215
-543.266	800.000	0.033	0.130
-542.252	-142.931	0.060	0.006
-541.237	-163.795	-0.198	0.009
-540.223	-99.594	0.219	-0.056
-539.208	-54.140	-0.104	-0.048
-538.193	-92.714	-0.400	0.114
-537.179	74.716	0.128	-0.137
-536.164	-51.782	-0.299	-0.141
-535.150	800.000	0.086	-0.246
-534.135	-200.000	-0.004	0.328
-533.121	248.162	-0.134	-0.231
-532.106	800.000	0.065	0.190
-531.091	-113.773	-0.432	-0.085
-530.077	-102.821	-0.311	-0.075
-529.062	-139.019	0.200	0.022
-528.048	203.265	0.237	0.372
-527.033	381.957	-0.155	-0.322
-526.018	392.242	0.092	-0.195
-525.004	-200.000	0.016	-0.092
-523.989	-200.000	0.028	-0.262
-522.975	154.611	-0.085	-0.118
-521.960	12.350	0.199	0.156
-520.945	-18.874	-0.314	-0.198
-519.931	-187.427	-0.380	0.005
-518.916	-117.411	0.130	0.024
-517.902	33.051	-0.345	-0.303
-516.887	-20.190	-0.139	0.087
-515.872	365.305	0.069	0.140
-514.858	-70.302	-0.218	0.084
-513.843	-200.000	-0.006	0.029
-512.829	-172.798	-0.204	0.006
-511.814	594.925	0.123	0.309
-510.799	230.899	-0.045	0.074
-509.785	-142.290	-0.112	0.011
-508.770	-126.501	0.418	-0.063
-507.756	433.797	0.134	-0.295
-506.741	-63.493	0.096	0.040
-505.726	-76.614	-0.255	0.091
-504.712	113.574	-0.109	-0.135
-503.697	-46.158	-0.143	-0.071
-502.683	-161.474	0.311	0.016
-501.668	800.000	-0.023	0.081
-500.653	512.861	0.050	0.119
-499.639	-200.000	0.023	-0.282
-498.624	-200.000	0.010	0.158
-497.610	29.305	0.063	-0.055
-496.595	-200.000	-0.016	-0.108
-495.581	-83.311	-0.133	-0.043
-494.566	-200.000	0.048	-0.389
-493.551	290.458	-0.091	0.168
-492.537	70.937	-0.298	-0.313
-491.522	-1.401	0.394	-0.282
-490.508	8.301	-0.316	0.240
-489.493	8.946	-0.017	0.013
-488.478	116.512	-0.212	-0.263
-487.464	154.351	-0.035	0.048
-486.449	-200.000	-0.019	-0.104
-485.435	-200.000	-0.002	-0.014
-484.420	100.645	0.106	-0.125
-483.405	359.381	-0.101	0.204
-482.391	18.319	0.231	-0.187
-481.376	-15.516	-0.345	-0.223
-480.362	51.836	-0.296	0.285
-479.347	768.674	-0.057	-0.156
-478.332	127.085	-0.057	0.073
-477.318	-200.000	-0.022	0.142
-476.303	-33.299	0.229	0.129
-475.289	-50.054	0.232	0.111
-474.274	-200.000	0.004	-0.227
-473.259	-57.881	0.168	-0.075
-472.245	178.082	-0.012	-0.017
-471.230	118.823	-0.122	-0.153
-470.216	66.867	-0.284	0.293
-469.201	-189.400	-0.101	-0.001
-468.186	60.457	0.130	-0.130
-467.172	11.342	0.247	-0.192
-466.157	-111.250	-0.241	0.050
-465.143	84.058	-0.181	-0.200
-464.128	6.625	0.192	-0.145
-463.113	-133.993	0.182	-0.023
-462.099	217.581	0.087	-0.141
-461.084	-176.464	-0.458	0.012
-460.070	24.478	0.234	-0.196
-459.055	143.430	0.168	0.226
-458.040	-200.000	0.021	0.283
-457.026	-56.445	-0.366	0.164
-456.011	-39.331	0.292	0.155
-454.997	-41.294	-0.192	0.100
-453.982	392.981	-0.115	0.242
-452.968	-63.185	-0.170	-0.071
-451.953	-82.457	-0.247	-0.081
-450.938	12.781	0.307	-0.240
-449.924	-169.476	-0.134	0.005
-448.909	-200.000	0.011	-0.226
-447.895	-200.000	-0.060	-0.378
-446.880	136.425	0.206	-0.271
-445.865	7.637	-0.168	0.127
-444.851	-70.027	-0.180	0.069
-443.836	-89.562	0.066	0.020
-442.822	204.320	0.164	-0.256
-441.807	-130.964	-0.434	-0.059
-440.792	-104.696	0.209	-0.049
-439.778	-23.243	-0.071	0.043
-438.763	-116.172	0.417	-0.078
-437.749	-37.400	0.159	-0.086
-436.734	32.689	0.037	-0.032
-435.719	505.589	0.035	-0.082
-434.705	-200.000	0.013	-0.098
-433.690	-139.987	0.255	0.027
-432.676	-79.910	-0.247	-0.084
-431.661	-131.796	0.346	-0.046
-430.646	207.020	0.150	0.237
-429.632	626.472	-0.108	-0.275
-428.617	47.307	-0.294	-0.277
-427.603	-114.647	-0.304	0.059
-426.588	-200.000	0.013	0.074
-425.573	-176.347	-0.144	0.004
-424.559	800.000	-0.124	-0.489
-423.544	-111.880	-0.148	0.030
-422.530	-8.674	-0.143	-0.097
-421.515	-200.000	0.008	-0.076
-420.500	-90.141	0.292	0.086
-419.486	600.379	0.095	0.240
-418.471	-63.490	0.155	0.064
-417.457	134.654	0.137	-0.180
-416.442	285.712	0.052	-0.094
-415.428	35.479	-0.057	-0.050
-414.413	204.134	0.072	0.113
-413.398	624.931	0.003	0.008
-412.384	22.561	-0.096	-0.080
-411.369	-145.037	-0.192	-0.018
-410.355	-200.000	-0.045	-0.356
-409.340	123.427	0.279	0.354
-408.325	-17.682	-0.244	-0.155
-407.311	115.700	0.384	0.475
-406.296	491.869	0.043	0.101
-405.282	334.068	-0.126	-0.245
-404.267	-200.000	0.006	-0.140
-403.252	1.091	0.215	-0.156
-402.238	-73.576	-0.174	0.064
-401.223	-102.377	-0.229	0.055
-400.209	-137.496	-0.257	0.029
-399.194	-200.000	-0.059	-0.288
-398.179	20.876	0.211	0.173
-397.165	28.199	0.072	0.061
-396.150	68.754	0.068	-0.070
-395.136	800.000	0.079	0.283
-394.121	350.767	-0.061	-0.122
-393.106	161.288	-0.064	-0.091
-392.092	62.733	0.282	0.285
-391.077	29.912	0.037	0.032
-390.063	-76.299	-0.212	-0.075
-389.048	-200.000	0.183	0.001
-388.033	-54.812	0.200	-0.091
-387.019	61.652	-0.020	-0.020
-386.004	800.000	0.077	-0.321
-384.990	-2.238	-0.257	-0.182
-383.975	-76.164	-0.153	-0.054
-382.960	91.452	0.157	-0.179
-381.946	-184.434	-0.324	0.005
-380.931	-200.000	0.041	0.192
-379.917	-125.123	0.220	0.034
-378.902	800.000	-0.094	-0.291
-377.888	231.548	-0.062	-0.103
-376.873	-35.954	-0.357	0.195
-375.858	-40.417	-0.150	0.079
-374.844	-139.697	0.201	0.022
-373.829	-133.992	-0.216	0.027
-372.815	-142.471	-0.289	-0.029
-371.800	-61.438	0.394	-0.167
-370.785	145.745	-0.149	0.201
-369.771	-43.128	0.258	-0.132
-368.756	-200.000	0.016	-0.266
-367.742	57.625	-0.239	-0.235
-366.727	-52.295	0.120	0.056
-365.712	-149.488	0.162	-0.013
-364.698	422.813	0.116	0.252
-363.683	-5.433	-0.071	-0.049
-362.669	-200.000	-0.023	-0.226
-361.654	176.522	0.225	-0.330
-360.639	-19.547	-0.092	0.058
-359.625	-89.305	-0.249	-0.074
-358.610	-58.093	0.149	0.065
-357.596	452.159	0.093	0.208
-356.581	800.000	-0.065	-0.214
-355.566	800.000	0.022	0.090
-354.552	-79.941	-0.422	-0.143
-353.537	28.210	0.129	-0.110
-352.523	158.149	0.085	-0.119
-351.508	252.790	0.107	0.183
-350.493	4.990	-0.110	0.081
-349.479	-200.000	-0.038	0.437
-348.464	-109.757	-0.156	-0.033
-347.450	69.195	0.051	0.053
-346.435	49.214	-0.119	-0.113
-345.420	-116.364	0.328	-0.061
-344.406	15.930	0.186	0.147
-343.391	-113.975	-0.321	0.063
-342.377	9.055	0.232	-0.177
-341.362	-200.000	-0.016	0.184
-340.348	-200.000	-0.018	-0.336
-339.333	26.477	0.252	0.212
-338.318	-200.000	-0.019	0.200
-337.304	6.511	0.125	0.093
-336.289	56.598	0.103	-0.101
-335.275	708.676	0.066	-0.176
-334.260	-195.410	-0.269	0.002
-333.245	-16.992	0.175	0.111
-332.231	800.000	-0.041	0.124
-331.216	225.591	0.049	-0.081
-330.202	12.212	0.174	0.135
-329.187	800.000	-0.033	-0.138
-328.172	185.239	0.165	0.246
-327.158	99.068	-0.118	0.138
-326.143	-58.520	0.128	-0.056
-325.129	800.000	-0.046	0.134
-324.114	-200.000	-0.027	-0.281
-323.099	-45.626	0.226	-0.112
-322.085	800.000	0.044	-0.130
-321.070	-180.467	0.185	-0.004
-320.056	389.048	-0.035	-0.072
-319.041	800.000	0.083	0.287
-318.026	800.000	-0.083	0.263
-317.012	179.375	-0.007	-0.011
-315.997	-113.311	-0.150	0.030
-314.983	112.448	-0.157	0.192
-313.968	36.967	-0.038	0.034
-312.953	-12.834	-0.144	0.094
-311.939	-108.107	0.191	0.042
-310.924	-19.029	0.086	0.054
-309.910	-33.306	0.077	0.043
-308.895	-200.000	0.001	0.151
-307.880	-99.495	-0.392	0.099
-306.866	-136.323	-0.183	-0.022
-305.851	-200.000	0.020	0.137
-304.837	132.342	0.030	-0.039
-303.822	-200.000	-0.015	-0.098
-302.807	238.169	0.102	0.170
-301.793	-200.000	0.081	0.382
-300.778	-101.501	0.274	0.067
-299.764	9.294	0.150	0.114
-298.749	-107.410	0.277	-0.061
-297.735	-95.183	0.287	0.078
-296.720	666.450	0.211	-0.548
-295.705	121.925	-0.224	0.281
-294.691	69.045	0.363	0.375
-293.676	285.210	0.177	0.320
-292.662	130.708	0.093	-0.121
-291.647	-120.715	-0.089	-0.015
-290.632	800.000	-0.087	0.260
-289.618	318.846	0.168	0.320
-288.603	-84.983	0.320	0.101
-287.589	-200.000	-0.029	0.166
-286.574	-157.715	0.141	-0.008
-285.559	211.672	0.096	0.152
-284.545	-200.000	-0.022	0.269
-283.530	-150.522	0.089	-0.007
-282.516	-53.319	-0.289	-0.133
-281.501	-200.000	-0.030	0.498
-280.486	219.336	-0.163	0.262
-279.472	65.868	-0.238	0.243
-278.457	23.129	-0.130	0.107
-277.443	569.372	0.061	-0.149
-276.428	-97.888	0.298	-0.077
-275.413	-128.330	0.203	0.029
-274.399	-94.322	0.083	-0.023
-273.384	140.805	0.087	-0.115
-272.370	67.608	0.037	0.037
-271.355	28.192	-0.046	0.039
-270.340	-103.052	-0.148	-0.035
-269.326	516.213	-0.019	-0.045
-268.311	66.296	-0.248	0.253
-267.297	-145.374	0.094	-0.009
-266.282	33.308	0.234	-0.204
-265.267	149.165	0.109	-0.148
-264.253	800.000	0.042	-0.157
-263.238	40.222	-0.205	-0.185
-262.224	-200.000	-0.011	0.421
-261.209	800.000	0.134	-0.407
-260.195	-106.709	-0.389	0.087
-259.180	-30.970	0.290	-0.164
-258.165	-200.000	0.001	0.201
-257.151	-200.000	0.024	0.201
-256.136	-43.665	-0.171	-0.086
-255.122	453.341	0.059	0.131
-254.107	235.197	-0.127	-0.211
-253.092	253.305	-0.036	0.061
-252.078	-17.756	-0.149	0.094
-251.063	-184.527	0.196	0.003
-250.049	425.792	0.080	0.173
-249.034	-74.970	0.405	-0.146
-248.019	381.900	0.050	0.103
-247.005	-200.000	0.006	0.031
-245.990	432.667	-0.138	0.301
-244.976	-167.117	-0.532	-0.022
-243.961	-114.528	0.201	-0.039
-242.946	-121.529	-0.325	0.054
-241.932	61.784	0.131	-0.131
-240.917	321.840	0.099	-0.189
-239.903	-200.000	-0.028	0.221
-238.888	-200.000	0.014	0.413
-237.873	-145.187	0.254	0.023
-236.859	-20.639	0.117	-0.072
-235.844	-200.000	-0.006	-0.027
-234.830	247.811	-0.036	-0.061
-233.815	308.909	0.160	0.301
-232.800	-57.126	-0.107	0.047
-231.786	454.725	-0.036	0.079
-230.771	439.051	0.054	-0.118
-229.757	285.952	-0.080	-0.144
-228.742	-200.000	0.001	-0.074
-227.727	-50.957	0.049	-0.023
-226.713	-200.000	-0.020	-0.180
-225.698	-113.813	0.315	-0.062
-224.684	168.710	0.167	0.239
-223.669	-48.250	0.218	0.106
-222.655	235.172	0.129	-0.213
-221.640	-3.976	-0.178	0.123
-220.625	37.880	-0.134	-0.120
-219.611	34.921	0.196	0.172
-218.596	-103.585	0.149	-0.035
-217.582	-147.831	0.363	-0.030
-216.567	13.720	0.330	-0.257
-215.552	371.139	-0.034	-0.070
-214.538	4.418	0.154	-0.113
-213.523	76.005	-0.182	-0.193
-212.509	-130.609	0.144	0.020
-211.494	-200.000	0.001	-0.253
-210.479	143.335	0.120	-0.160
-209.465	-96.930	0.138	-0.036
-208.450	237.970	0.038	0.063
-207.436	153.262	0.097	-0.133
-206.421	48.953	0.157	0.148
-205.406	800.000	-0.114	0.345
-204.392	76.685	-0.063	-0.066
-203.377	228.630	-0.080	-0.131
-202.363	87.225	0.160	0.177
-201.348	10.109	-0.091	-0.069
-200.333	-24.045	0.399	-0.239
-199.319	-93.185	0.040	-0.011
-198.304	-200.000	0.001	-0.107
-197.290	-59.640	0.099	-0.043
-196.275	257.491	0.189	0.326
-195.260	23.606	-0.070	-0.058
-194.246	65.259	-0.088	0.089
-193.231	800.000	-0.093	0.388
-192.217	-98.075	0.122	0.031
-191.202	-200.000	0.069	0.392
-190.187	800.000	-0.077	0.253
-189.173	-200.000	-0.009	-0.190
-188.158	73.428	0.335	0.351
-187.144	-95.034	0.202	0.055
-186.129	282.696	-0.129	-0.231
-185.114	-57.762	0.286	0.126
-184.100	53.553	-0.285	0.274
-183.085	100.748	0.143	-0.166
-182.071	203.084	0.078	-0.121
-181.056	261.432	-0.156	0.270
-180.042	-200.000	0.034	0.196
-179.027	-16.480	0.094	0.060
-178.012	-200.000	-0.074	-0.327
-176.998	800.000	0.028	0.106
-175.983	-71.437	0.098	0.037
-174.969	404.346	0.052	0.110
-173.954	6.430	-0.059	0.044
-172.939	-31.430	0.142	0.080
-171.925	-194.236	-0.245	-0.002
-170.910	800.000	-0.043	0.125
-169.896	-109.237	0.193	-0.041
-168.881	-138.736	0.164	-0.018
-167.866	-43.648	0.126	0.064
-166.852	13.438	-0.335	-0.260
-165.837	-118.949	-0.182	0.032
-164.823	-151.085	0.376	-0.028
-163.808	800.000	0.069	0.271
-162.793	-82.199	-0.476	0.155
-161.779	-38.744	0.074	-0.039
-160.764	342.827	-0.106	0.207
-159.750	559.731	0.089	0.215
-158.735	-59.098	0.065	-0.028
-157.720	-200.000	-0.064	0.349
-156.706	-71.791	0.207	0.077
-155.691	-122.358	0.102	-0.017
-154.677	441.003	0.102	0.223
-153.662	-159.406	-0.243	0.014
-152.647	-148.798	-0.143	0.012
-151.633	0.412	0.139	0.099
-150.618	-200.000	0.062	0.452
-149.604	800.000	-0.095	-0.279
-148.589	129.963	0.215	0.275
-147.574	276.280	-0.107	0.189
-146.560	-132.601	0.251	0.032
-145.545	-6.150	-0.177	0.121
-144.531	-0.635	0.032	-0.023
-143.516	-44.569	0.101	-0.050
-142.502	142.344	0.204	0.271
-141.487	-75.959	-0.416	-0.147
-140.472	78.606	-0.210	-0.225
-139.458	7.564	0.271	-0.203
-138.443	-104.796	-0.109	-0.025
-137.429	797.630	-0.041	0.113
-136.414	226.282	-0.052	0.084
-135.399	-77.134	0.145	-0.051
-134.385	485.275	0.093	-0.211
-133.370	64.032	-0.018	-0.018
-132.356	-29.182	-0.177	0.102
-131.341	134.941	0.169	-0.219
-130.326	-148.666	-0.131	0.011
-129.312	-200.000	0.104	0.467
-128.297	656.069	-0.094	-0.242
-127.283	-97.321	-0.201	0.052
-126.268	-200.000	-0.031	-0.282
-125.253	256.750	-0.133	-0.228
-124.239	-66.539	-0.147	0.058
-123.224	-200.000	0.000	-0.273
-122.210	800.000	0.139	-0.560
-121.195	433.194	0.059	0.128
