DTS Sentinel unit serial number:	SN413079Multiplexer serial number:	ORYXHardware model number:	OX4-SRSoftware version number:	ORYX F/W v4.00 Oryx Data Collector v3.7.2.0data status	okinstallation	princeton_trtdifferential loss correction	single-endedforward channel	channel 4reverse channel	N/Adate	2019/09/17time	21:05:35forward acquisition time	60.00reverse acquisition time	0.00gamma	496.2192k internal	0.2325k external	0.2325temperature offset calibration	0.9990default loss term (dB/km)	0.3790temperature slope calibration	1.0000multiplexer offset coefficient	1.0000multiplexer slope coefficient	1.0000fibre end	0.00T internal ref (°C)	28.36T ext. ref 1 (°C)	0.19T ext. ref 2 (°C)	19.93length (m)	temperature (°C)	Stokes	anti-Stokes-747.200	43.236	0.157	-0.145
-746.185	-200.000	-0.006	0.078
-745.171	800.000	0.036	0.109
-744.156	-200.000	-0.054	0.300
-743.142	-80.306	-0.125	0.042
-742.127	-200.000	-0.040	0.250
-741.112	-59.443	-0.483	-0.209
-740.098	-74.921	0.088	-0.032
-739.083	69.765	0.032	0.033
-738.069	-200.000	0.031	0.362
-737.054	12.290	-0.101	-0.079
-736.039	-54.379	-0.311	-0.142
-735.025	248.190	0.227	0.387
-734.010	56.533	0.108	-0.105
-732.996	-57.920	-0.102	0.045
-731.981	-144.836	0.050	0.005
-730.966	20.718	0.061	-0.050
-729.952	800.000	0.042	0.164
-728.937	-200.000	-0.023	-0.184
-727.923	-156.909	0.056	0.003
-726.908	70.019	0.119	0.124
-725.894	-200.000	0.038	0.259
-724.879	27.310	-0.243	-0.206
-723.864	129.185	-0.054	-0.069
-722.850	522.026	0.113	-0.267
-721.835	-121.417	-0.224	-0.038
-720.821	107.264	-0.083	-0.100
-719.806	-100.226	0.243	0.061
-718.791	441.120	0.059	0.130
-717.777	624.004	-0.050	0.128
-716.762	-115.174	0.118	-0.023
-715.748	17.770	-0.105	-0.084
-714.733	-50.333	-0.183	-0.087
-713.718	-200.000	-0.014	-0.108
-712.704	27.200	0.228	-0.193
-711.689	-186.571	-0.189	0.003
-710.675	-152.825	-0.191	0.014
-709.660	51.753	-0.296	0.284
-708.645	800.000	0.059	-0.236
-707.631	152.215	-0.092	0.126
-706.616	183.739	0.031	0.046
-705.602	800.000	-0.095	0.351
-704.587	-200.000	-0.003	-0.178
-703.572	-43.360	-0.449	0.229
-702.558	-113.366	0.318	-0.063
-701.543	172.262	-0.147	0.213
-700.529	53.817	0.172	0.166
-699.514	459.827	-0.076	0.170
-698.499	-7.281	0.119	-0.081
-697.485	180.610	0.009	-0.014
-696.470	-122.959	0.322	-0.052
-695.456	636.919	0.081	-0.206
-694.441	252.964	0.030	0.051
-693.426	770.932	0.053	0.144
-692.412	117.142	0.137	-0.170
-691.397	292.413	-0.157	0.288
-690.383	-200.000	0.004	0.187
-689.368	-126.266	-0.132	-0.020
-688.354	-83.920	0.225	0.072
-687.339	290.373	0.239	0.437
-686.324	-200.000	-0.076	-0.395
-685.310	-47.353	-0.112	-0.055
-684.295	568.690	-0.119	0.291
-683.281	800.000	0.082	0.286
-682.266	253.839	0.042	0.072
-681.251	316.774	-0.152	-0.289
-680.237	-135.589	0.203	-0.024
-679.222	-200.000	-0.043	-0.199
-678.208	78.688	-0.276	-0.298
-677.193	120.929	0.098	0.123
-676.178	272.593	0.126	-0.224
-675.164	788.419	-0.079	-0.218
-674.149	61.186	-0.223	-0.223
-673.135	-200.000	0.030	-0.205
-672.120	10.975	0.291	-0.224
-671.105	-200.000	-0.016	0.088
-670.091	-7.663	0.265	0.180
-669.076	-53.118	0.371	0.171
-668.062	68.786	-0.142	-0.146
-667.047	-52.596	0.153	0.071
-666.032	-200.000	0.034	0.198
-665.018	89.398	-0.196	0.220
-664.003	-91.280	0.200	0.058
-662.989	-67.673	-0.266	-0.105
-661.974	24.768	0.270	0.225
-660.959	-70.385	-0.122	-0.047
-659.945	197.846	-0.098	0.151
-658.930	-32.242	-0.267	0.150
-657.916	-15.054	0.189	-0.122
-656.901	-115.449	0.180	-0.034
-655.886	-114.771	0.123	-0.024
-654.872	-165.256	0.061	0.003
-653.857	17.907	-0.196	-0.157
-652.843	181.031	0.042	0.061
-651.828	433.902	0.134	-0.293
-650.814	-111.484	-0.384	-0.079
-649.799	157.281	-0.100	-0.139
-648.784	496.458	0.086	-0.199
-647.770	-200.000	-0.051	0.239
-646.755	-106.734	0.233	-0.052
-645.741	-24.799	-0.059	0.035
-644.726	43.361	-0.180	-0.165
-643.711	117.729	-0.220	-0.272
-642.697	-152.450	0.064	0.005
-641.682	-200.000	0.007	0.272
-640.668	103.501	0.085	-0.100
-639.653	-200.000	-0.298	-0.000
-638.638	800.000	-0.045	0.148
-637.624	27.857	0.207	-0.176
-636.609	272.593	0.232	-0.411
-635.595	156.617	-0.191	0.265
-634.580	84.127	0.096	-0.105
-633.565	-11.751	0.101	-0.066
-632.551	-200.000	-0.023	0.104
-631.536	6.146	-0.247	0.184
-630.522	41.510	0.197	-0.180
-629.507	-200.000	-0.004	0.113
-628.492	297.965	0.246	-0.454
-627.478	100.681	0.072	0.084
-626.463	-200.000	-0.038	0.258
-625.449	-3.892	-0.046	0.032
-624.434	90.648	-0.057	-0.064
-623.419	-126.570	-0.205	0.031
-622.405	46.841	-0.069	-0.064
-621.390	248.956	0.149	-0.253
-620.376	-200.000	0.018	-0.406
-619.361	-77.747	-0.052	-0.018
-618.346	-65.469	0.351	0.141
-617.332	-87.199	-0.159	0.049
-616.317	-14.935	0.138	-0.089
-615.303	-126.304	0.133	-0.020
-614.288	606.641	-0.117	0.294
-613.273	-200.000	-0.000	-0.298
-612.259	-36.385	-0.324	-0.175
-611.244	-41.559	-0.120	0.062
-610.230	800.000	-0.085	-0.308
-609.215	80.252	0.083	-0.089
-608.201	52.381	0.139	-0.133
-607.186	800.000	0.088	-0.375
-606.171	-38.362	-0.182	0.097
-605.157	262.100	-0.078	-0.135
-604.142	-200.000	0.024	-0.205
-603.128	-200.000	0.098	-0.484
-602.113	82.201	0.204	-0.222
-601.098	57.630	-0.138	0.136
-600.084	-14.075	-0.094	0.061
-599.069	22.949	0.167	0.137
-598.055	13.401	0.189	-0.147
-597.040	-106.961	0.234	0.052
-596.025	800.000	0.090	0.332
-595.011	611.736	0.111	-0.279
-593.996	30.518	0.093	0.080
-592.982	800.000	0.020	-0.073
-591.967	146.230	-0.232	-0.312
-590.952	-200.000	0.017	0.088
-589.938	55.146	-0.058	-0.056
-588.923	-162.853	0.400	0.020
-587.909	-190.238	0.352	0.004
-586.894	6.844	0.125	-0.094
-585.879	-83.650	-0.095	0.030
-584.865	800.000	0.113	-0.350
-583.850	34.960	-0.159	-0.139
-582.836	-200.000	0.048	0.256
-581.821	-200.000	0.002	-0.350
-580.806	-13.449	-0.221	-0.144
-579.792	542.082	-0.158	-0.377
-578.777	-81.110	0.240	0.080
-577.763	519.456	0.119	-0.279
-576.748	74.808	-0.140	0.148
-575.733	59.136	-0.255	-0.251
-574.719	-45.430	-0.161	-0.080
-573.704	800.000	-0.094	0.356
-572.690	-88.412	-0.052	-0.015
-571.675	-56.491	0.193	-0.086
-570.661	-60.619	0.111	-0.047
-569.646	-55.116	-0.142	0.064
-568.631	211.631	-0.043	0.067
-567.617	195.744	-0.079	0.121
-566.602	-200.000	0.007	-0.066
-565.588	800.000	-0.059	0.250
-564.573	150.112	-0.335	-0.455
-563.558	22.884	0.205	0.168
-562.544	800.000	-0.079	-0.338
-561.529	21.642	-0.038	0.031
-560.515	800.000	0.046	0.141
-559.500	109.163	0.227	0.272
-558.485	-200.000	0.040	-0.242
-557.471	-80.221	-0.116	-0.039
-556.456	800.000	-0.053	0.158
-555.442	-54.705	-0.163	0.074
-554.427	-90.082	-0.176	0.051
-553.412	612.302	-0.094	0.236
-552.398	98.062	0.277	0.319
-551.383	26.387	0.123	-0.103
-550.369	-132.924	-0.141	-0.018
-549.354	800.000	0.053	-0.193
-548.339	4.668	0.110	0.081
-547.325	800.000	0.053	-0.171
-546.310	-200.000	0.010	0.119
-545.296	56.719	0.124	0.121
-544.281	23.337	-0.085	-0.070
-543.266	-5.074	-0.120	0.083
-542.252	-25.135	0.125	-0.074
-541.237	-77.398	0.212	-0.074
-540.223	-68.159	-0.182	0.071
-539.208	152.289	0.031	-0.042
-538.193	371.312	-0.051	-0.104
-537.179	-196.273	0.092	0.001
-536.164	102.568	-0.107	0.125
-535.150	-200.000	-0.301	-0.001
-534.135	361.643	-0.097	0.196
-533.121	49.239	0.207	-0.195
-532.106	-93.160	-0.170	-0.047
-531.091	207.056	-0.278	0.433
-530.077	221.822	-0.178	0.286
-529.062	-160.685	-0.186	-0.010
-528.048	40.428	0.267	-0.240
-527.033	-136.292	-0.251	-0.029
-526.018	-200.000	-0.051	-0.435
-525.004	-141.859	-0.323	0.032
-523.989	31.454	-0.226	0.194
-522.975	-200.000	0.027	0.233
-521.960	134.838	-0.152	0.198
-520.945	-200.000	0.034	0.302
-519.931	100.119	0.186	-0.216
-518.916	800.000	0.100	0.336
-517.902	64.632	-0.124	0.125
-516.887	-58.088	-0.265	0.116
-515.872	326.246	0.081	0.156
-514.858	178.065	0.148	-0.216
-513.843	800.000	-0.074	0.268
-512.829	800.000	-0.031	-0.093
-511.814	-24.202	-0.330	0.197
-510.799	467.105	0.099	0.222
-509.785	-200.000	-0.029	-0.176
-508.770	-104.213	0.095	-0.022
-507.756	117.403	-0.100	0.122
-506.741	-200.000	-0.012	0.165
-505.726	-200.000	-0.035	-0.223
-504.712	616.983	-0.116	-0.292
-503.697	400.468	0.076	-0.159
-502.683	238.467	-0.034	0.057
-501.668	-110.928	0.149	-0.031
-500.653	-102.544	0.246	-0.059
-499.639	-105.039	-0.148	-0.034
-498.624	-135.659	-0.249	0.030
-497.610	579.718	0.167	0.410
-496.595	240.446	-0.046	0.077
-495.581	-200.000	-0.033	-0.247
-494.566	800.000	0.028	0.087
-493.551	800.000	-0.074	0.244
-492.537	25.050	-0.202	0.168
-491.522	368.224	0.139	-0.280
-490.508	800.000	-0.065	-0.200
-489.493	24.868	-0.197	-0.163
-488.478	-127.295	0.258	0.038
-487.464	-70.337	-0.228	0.087
-486.449	54.392	-0.025	0.024
-485.435	285.445	-0.128	-0.231
-484.420	-104.204	-0.111	-0.026
-483.405	-200.000	-0.015	0.204
-482.391	-120.175	-0.324	-0.055
-481.376	-167.432	0.222	0.009
-480.362	-94.055	-0.073	-0.020
-479.347	91.109	-0.190	0.212
-478.332	401.182	-0.104	-0.217
-477.318	-107.778	0.155	0.034
-476.303	-200.000	-0.034	0.180
-475.289	-111.699	0.198	-0.040
-474.274	800.000	-0.045	0.150
-473.259	-80.888	-0.312	-0.103
-472.245	-40.618	0.159	0.082
-471.230	-66.651	0.061	0.024
-470.216	800.000	-0.040	-0.143
-469.201	-32.448	-0.088	0.049
-468.186	800.000	0.038	-0.128
-467.172	-200.000	0.016	-0.161
-466.157	353.269	0.031	-0.062
-465.143	2.533	-0.051	0.037
-464.128	531.514	-0.074	-0.175
-463.113	-200.000	0.042	0.258
-462.099	-106.824	-0.284	-0.063
-461.084	516.018	0.111	0.259
-460.070	-88.699	-0.187	0.056
-459.055	-200.000	0.000	0.068
-458.040	172.321	0.044	0.063
-457.026	800.000	-0.052	0.192
-456.011	800.000	-0.037	-0.123
-454.997	519.603	-0.086	0.201
-453.982	-200.000	-0.009	-0.121
-452.968	-22.325	-0.191	0.116
-451.953	-155.124	-0.140	-0.009
-450.938	93.393	-0.309	-0.348
-449.924	619.946	-0.108	-0.272
-448.909	-54.489	0.310	-0.140
-447.895	-23.948	0.159	-0.095
-446.880	27.071	0.284	-0.238
-445.865	341.554	-0.156	0.303
-444.851	-84.089	0.309	-0.098
-443.836	-38.200	-0.278	-0.147
-442.822	800.000	-0.108	-0.412
-441.807	685.164	0.022	-0.057
-440.792	800.000	0.034	0.129
-439.778	800.000	-0.049	0.202
-438.763	-122.348	0.229	-0.037
-437.749	-27.760	0.241	-0.140
-436.734	360.711	0.076	-0.152
-435.719	-159.478	0.094	0.005
-434.705	-45.198	0.199	0.099
-433.690	83.430	-0.124	-0.135
-432.676	97.224	0.163	-0.187
-431.661	0.475	-0.121	0.086
-430.646	-108.827	0.311	0.066
-429.632	-200.000	0.005	-0.208
-428.617	201.516	0.272	0.418
-427.603	-47.254	-0.036	0.018
-426.588	-121.584	0.256	-0.042
-425.573	102.874	0.252	0.294
-424.559	800.000	0.105	0.334
-423.544	-12.530	-0.279	0.182
-422.530	107.491	0.059	-0.070
-421.515	-2.417	0.050	-0.035
-420.500	228.647	-0.181	0.294
-419.486	-56.088	-0.056	-0.025
-418.471	-200.000	0.010	0.295
-417.457	-200.000	-0.007	0.087
-416.442	800.000	0.091	-0.345
-415.428	-200.000	0.013	-0.216
-414.413	187.210	0.157	-0.233
-413.398	-127.330	-0.253	-0.037
-412.384	71.429	-0.267	0.276
-411.369	-5.343	0.228	-0.156
-410.355	-200.000	0.032	0.144
-409.340	-121.395	0.054	0.009
-408.325	-59.531	0.231	-0.099
-407.311	-27.020	0.147	-0.085
-406.296	-200.000	0.018	0.185
-405.282	-99.377	-0.121	-0.030
-404.267	800.000	-0.123	-0.374
-403.252	-143.193	0.607	0.058
-402.238	452.455	-0.067	0.148
-401.223	-200.000	-0.003	-0.145
-400.209	6.209	0.210	-0.155
-399.194	-33.382	-0.219	0.121
-398.179	-43.654	-0.384	0.193
-397.165	231.105	0.030	-0.048
-396.150	-103.123	0.153	0.036
-395.136	216.554	0.033	0.053
-394.121	-123.098	-0.258	-0.041
-393.106	-66.138	0.302	0.120
-392.092	286.160	0.155	0.279
-391.077	74.969	-0.030	0.031
-390.063	35.780	0.228	-0.199
-389.048	800.000	-0.103	-0.378
-388.033	-60.488	0.083	-0.035
-387.019	-26.084	-0.212	0.124
-386.004	-177.169	-0.251	0.006
-384.990	-200.000	0.012	-0.268
-383.975	-49.478	0.081	-0.038
-382.960	571.297	0.149	0.362
-381.946	-94.308	-0.211	0.058
-380.931	-146.310	0.109	0.010
-379.917	-200.000	-0.023	0.475
-378.902	-24.745	-0.144	-0.085
-377.888	800.000	-0.056	0.183
-376.873	180.372	-0.196	-0.286
-375.858	172.420	-0.081	0.116
-374.844	-200.000	-0.041	0.339
-373.829	-41.914	0.228	-0.116
-372.815	744.776	-0.051	-0.138
-371.800	10.713	-0.303	-0.230
-370.785	177.587	0.113	0.164
-369.771	-200.000	0.005	-0.196
-368.756	-134.617	-0.127	-0.015
-367.742	-24.655	0.179	0.106
-366.727	241.458	-0.115	-0.191
-365.712	-200.000	-0.303	-0.001
-364.698	-80.325	-0.084	0.028
-363.683	800.000	-0.061	0.206
-362.669	55.475	0.274	-0.264
-361.654	141.109	0.105	0.138
-360.639	800.000	-0.045	0.125
-359.625	-30.838	0.189	-0.106
-358.610	-194.902	-0.121	0.001
-357.596	68.618	-0.130	0.133
-356.581	800.000	-0.046	0.152
-355.566	8.572	-0.049	0.036
-354.552	32.296	0.051	-0.044
-353.537	78.445	-0.306	-0.325
-352.523	-117.414	-0.138	0.025
-351.508	-152.067	-0.199	-0.014
-350.493	-200.000	-0.039	-0.194
-349.479	-200.000	-0.043	-0.346
-348.464	114.744	0.068	0.082
-347.450	-121.520	-0.111	-0.018
-346.435	-100.257	0.076	-0.019
-345.420	-200.000	0.174	0.000
-344.406	-59.513	-0.086	0.037
-343.391	-61.305	0.389	0.163
-342.377	-96.472	-0.290	-0.076
-341.362	673.632	-0.023	-0.059
-340.348	800.000	-0.095	0.293
-339.333	-105.681	0.113	-0.026
-338.318	-100.369	-0.045	0.011
-337.304	70.031	0.241	0.247
-336.289	17.884	-0.151	-0.119
-335.275	-97.609	0.338	0.087
-334.260	800.000	0.021	-0.070
-333.245	-1.830	-0.136	0.095
-332.231	-23.001	0.095	0.057
-331.216	800.000	-0.090	-0.308
-330.202	57.636	-0.272	-0.264
-329.187	-63.580	-0.306	0.125
-328.172	83.863	-0.301	0.326
-327.158	77.559	0.161	-0.170
-326.143	-200.000	0.009	-0.103
-325.129	-61.995	0.170	0.071
-324.114	321.295	0.026	0.049
-323.099	-69.355	-0.247	0.094
-322.085	-62.707	0.077	-0.032
-321.070	-91.636	-0.390	0.110
-320.056	-200.000	0.072	0.388
-319.041	134.370	0.031	0.040
-318.026	-70.969	0.161	0.060
-317.012	404.253	-0.150	0.314
-315.997	309.739	0.097	0.181
-314.983	-133.581	-0.198	0.025
-313.968	-200.000	-0.016	0.070
-312.953	-139.583	-0.259	0.027
-311.939	491.687	0.094	-0.213
-310.924	47.632	-0.226	-0.209
-309.910	-133.603	-0.190	-0.024
-308.895	100.431	0.108	-0.125
-307.880	800.000	0.034	0.104
-306.866	-198.147	0.126	0.001
-305.851	-73.182	0.395	-0.144
-304.837	-132.849	-0.440	0.056
-303.822	101.023	-0.077	-0.089
-302.807	800.000	0.156	-0.499
-301.793	-55.730	-0.445	-0.197
-300.778	-200.000	-0.012	0.143
-299.764	-104.785	0.188	-0.043
-298.749	11.140	-0.168	0.127
-297.735	800.000	-0.029	0.103
-296.720	-75.810	0.273	0.096
-295.705	-15.380	-0.422	-0.268
-294.691	-168.894	-0.235	-0.009
-293.676	349.711	0.127	0.249
-292.662	623.831	-0.151	-0.377
-291.647	163.163	0.231	-0.322
-290.632	370.609	-0.024	0.048
-289.618	46.680	0.357	0.328
-288.603	800.000	-0.056	0.234
-287.589	83.558	-0.125	-0.135
-286.574	800.000	-0.073	-0.222
-285.559	-63.038	0.182	0.075
-284.545	105.431	-0.177	-0.208
-283.530	-61.865	0.259	-0.107
-282.516	-100.000	0.538	-0.133
-281.501	741.901	0.086	-0.228
-280.486	176.040	-0.060	-0.087
-279.472	-131.611	0.200	0.026
-278.457	800.000	-0.025	-0.074
-277.443	-200.000	0.075	0.380
-276.428	-200.000	-0.057	0.310
-275.413	-44.418	-0.352	-0.175
-274.399	-60.735	0.158	-0.066
-273.384	-82.233	0.182	-0.059
-272.370	-67.754	0.237	-0.092
-271.355	-116.624	0.182	0.033
-270.340	-200.000	-0.009	-0.310
-269.326	-118.885	0.081	-0.014
-268.311	-154.885	-0.073	-0.005
-267.297	-82.860	0.182	0.058
-266.282	-32.890	-0.263	0.145
-265.267	-200.000	0.012	0.070
-264.253	192.066	0.088	-0.132
-263.238	199.017	0.115	0.174
-262.224	-35.503	0.145	-0.078
-261.209	-156.821	0.076	0.005
-260.195	800.000	0.049	0.184
-259.180	-73.391	0.305	-0.110
-258.165	-22.845	0.243	0.145
-257.151	-200.000	0.004	0.096
-256.136	-25.509	0.158	-0.092
-255.122	-12.849	-0.167	0.108
-254.107	-104.624	0.198	-0.045
-253.092	-200.000	-0.001	-0.161
-252.078	797.472	-0.162	0.443
-251.063	153.043	-0.056	0.076
-250.049	-136.157	0.114	0.013
-249.034	-200.000	-0.295	0.001
-248.019	-92.479	-0.431	-0.120
-247.005	800.000	-0.010	0.045
-245.990	800.000	0.125	0.399
-244.976	250.359	0.133	-0.223
-243.961	61.459	-0.314	0.309
-242.946	13.363	-0.060	-0.046
-241.932	-200.000	-0.009	0.161
-240.917	-200.000	0.019	-0.379
-239.903	25.824	0.092	0.076
-238.888	-200.000	-0.004	0.394
-237.873	558.253	-0.119	-0.284
-236.859	-200.000	-0.039	0.246
-235.844	-29.050	-0.249	0.141
-234.830	800.000	-0.094	0.262
-233.815	-31.133	-0.128	-0.071
-232.800	-22.627	0.069	0.041
-231.786	98.964	0.127	0.145
-230.771	-138.517	0.271	-0.029
-229.757	-50.653	0.026	-0.012
-228.742	-61.676	-0.194	-0.080
-227.727	-165.269	0.217	0.009
-226.713	-22.434	0.204	0.122
-225.698	-29.368	0.238	-0.135
-224.684	-200.000	0.248	-0.000
-223.669	70.211	0.144	0.147
-222.655	-200.000	-0.034	-0.283
-221.640	-92.545	-0.123	-0.034
-220.625	-200.000	-0.031	0.284
-219.611	-200.000	0.012	0.301
-218.596	736.072	0.168	0.444
-217.582	800.000	-0.041	-0.172
-216.567	127.175	0.139	-0.174
-215.552	-200.000	-0.001	-0.114
-214.538	-133.975	-0.325	-0.040
-213.523	-181.286	0.281	-0.005
-212.509	39.970	0.038	-0.034
-211.494	800.000	-0.062	0.168
-210.479	-53.495	0.357	-0.162
-209.465	-44.133	0.320	-0.159
-208.450	621.892	0.037	0.091
-207.436	-34.463	0.184	-0.099
-206.421	328.875	-0.148	0.281
-205.406	-200.000	-0.043	-0.191
-204.392	417.597	0.186	-0.393
-203.377	-74.473	-0.185	-0.066
-202.363	-188.405	-0.056	-0.001
-201.348	-200.000	-0.018	-0.327
-200.333	-200.000	-0.038	0.276
-199.319	-200.000	-0.025	-0.140
-198.304	601.897	0.111	0.272
-197.290	-200.000	-0.022	0.247
-196.275	-37.196	0.227	-0.120
-195.260	-137.670	0.342	0.038
-194.246	-61.123	0.124	0.051
-193.231	173.539	-0.031	0.044
-192.217	-24.744	0.029	0.017
-191.202	-118.209	0.153	-0.027
-190.187	-105.452	-0.247	-0.056
-189.173	-200.000	-0.049	0.317
-188.158	-150.761	0.394	-0.030
-187.144	800.000	0.058	-0.233
-186.129	34.442	-0.274	0.236
-185.114	-200.000	0.010	0.146
-184.100	800.000	0.024	-0.068
-183.085	51.391	-0.244	-0.229
-182.071	393.434	0.037	0.075
-181.056	360.601	-0.054	0.107
-180.042	630.674	-0.086	0.215
-179.027	-157.289	-0.171	0.010
-178.012	-99.739	-0.254	0.063
-176.998	-40.016	0.149	0.077
-175.983	-34.886	-0.198	0.107
-174.969	-96.123	0.305	-0.080
-173.954	18.980	-0.136	0.107
-172.939	-171.739	0.105	0.003
-171.925	-200.000	0.043	0.186
-170.910	-27.191	0.103	-0.059
-169.896	346.852	-0.094	0.183
-168.881	80.284	0.172	-0.183
-167.866	77.076	0.166	0.174
-166.852	768.997	0.105	0.281
-165.837	-47.906	-0.063	-0.030
-164.823	-45.784	0.274	0.133
-163.808	-45.123	0.084	0.041
-162.793	-12.394	0.235	-0.152
-161.779	489.704	-0.087	-0.197
-160.764	800.000	0.030	0.086
-159.750	800.000	-0.112	0.365
-158.735	542.560	0.145	-0.342
-157.720	183.950	0.103	-0.151
-156.706	-197.672	-0.100	-0.001
-155.691	42.878	-0.209	0.187
-154.677	-48.640	-0.326	0.154
-153.662	-200.000	-0.009	0.073
-152.647	-109.414	-0.198	-0.041
-151.633	-170.561	0.429	0.015
-150.618	317.864	-0.038	0.071
-149.604	41.306	-0.096	-0.085
-148.589	-27.167	0.276	0.158
-147.574	14.208	-0.212	0.163
-146.560	137.670	0.161	-0.208
-145.545	337.237	-0.069	0.131
-144.531	147.957	-0.099	0.131
-143.516	113.395	0.160	-0.192
-142.502	87.949	0.122	0.134
-141.487	-143.566	-0.145	-0.014
-140.472	26.143	-0.052	-0.042
-139.458	800.000	-0.067	0.212
-138.443	95.583	-0.108	-0.121
-137.429	345.077	-0.141	0.274
-136.414	240.338	-0.076	0.124
-135.399	45.126	-0.292	-0.265
-134.385	327.231	-0.256	0.484
-133.370	-158.753	0.266	0.015
-132.356	-154.536	0.131	-0.009
-131.341	-200.000	-0.054	-0.311
-130.326	-200.000	-0.017	-0.277
-129.312	-200.000	-0.027	0.209
-128.297	-200.000	0.050	0.536
-127.283	175.500	0.266	0.379
-126.268	83.868	0.250	-0.269
-125.253	75.563	0.160	-0.167
-124.239	579.580	-0.089	0.216
-123.224	465.424	-0.077	-0.169
-122.210	638.350	0.126	0.315
-121.195	-200.000	-0.007	0.167
