DTS Sentinel unit serial number:	SN413079Multiplexer serial number:	ORYXHardware model number:	OX4-SRSoftware version number:	ORYX F/W v4.00 Oryx Data Collector v3.7.2.0data status	okinstallation	princeton_trtdifferential loss correction	single-endedforward channel	channel 4reverse channel	N/Adate	2019/09/12time	19:36:19forward acquisition time	15.00reverse acquisition time	0.00gamma	496.2192k internal	0.2309k external	0.2309temperature offset calibration	1.0156default loss term (dB/km)	0.3790temperature slope calibration	1.0000multiplexer offset coefficient	1.0000multiplexer slope coefficient	1.0000fibre end	0.00T internal ref (°C)	32.12T ext. ref 1 (°C)	3.36T ext. ref 2 (°C)	26.70length (m)	temperature (°C)	Stokes	anti-Stokes-747.200	150.374	-0.096	-0.132
-746.185	8.808	-0.670	-0.513
-745.171	265.132	0.269	-0.477
-744.156	800.000	0.301	-1.070
-743.142	52.792	0.420	0.408
-742.127	-200.000	0.059	0.368
-741.112	-5.498	0.249	0.174
-740.098	467.765	-0.141	0.322
-739.083	1.214	-0.334	-0.244
-738.069	-200.000	0.033	0.248
-737.054	-159.214	-1.010	-0.058
-736.039	-200.000	-0.032	-0.449
-735.025	-28.610	0.180	0.105
-734.010	0.720	-0.268	-0.195
-732.996	143.918	-0.539	0.730
-731.981	-166.143	0.638	0.027
-730.966	560.359	-0.373	0.915
-729.952	-23.961	0.515	-0.313
-728.937	56.854	0.431	-0.426
-727.923	335.023	-0.318	0.626
-726.908	-114.891	-0.225	0.044
-725.894	-152.917	-0.261	0.019
-724.879	-200.000	0.082	-0.405
-723.864	-51.940	-0.395	0.187
-722.850	-113.232	0.042	0.008
-721.835	-49.024	-0.543	-0.264
-720.821	476.987	-0.488	1.121
-719.806	-183.043	-0.994	0.018
-718.791	-111.484	0.315	-0.065
-717.777	-68.205	-0.492	0.194
-716.762	-200.000	-0.106	-0.470
-715.748	-42.178	0.287	0.149
-714.733	-200.000	0.083	0.374
-713.718	800.000	-0.121	-0.510
-712.704	-200.000	0.144	-1.138
-711.689	-154.387	-0.329	-0.022
-710.675	309.396	-0.111	-0.210
-709.660	-57.977	0.567	0.251
-708.645	-61.719	0.362	-0.154
-707.631	533.814	-0.101	0.243
-706.616	-130.779	-0.455	0.062
-705.602	-200.000	-0.013	-0.380
-704.587	192.316	-0.060	0.092
-703.572	727.360	-0.197	-0.533
-702.558	62.364	0.325	-0.329
-701.543	396.955	-0.277	0.586
-700.529	-134.993	0.674	0.082
-699.514	782.397	0.141	-0.393
-698.499	491.124	0.204	-0.473
-697.485	800.000	-0.134	-0.407
-696.470	-200.000	-0.081	-0.374
-695.456	800.000	0.165	-0.655
-694.441	800.000	0.124	-0.536
-693.426	72.980	-0.193	0.205
-692.412	-25.178	0.575	0.345
-691.397	429.765	0.462	1.013
-690.383	-145.077	-0.864	0.080
-689.368	-24.209	0.765	0.463
-688.354	343.884	0.233	0.462
-687.339	144.440	-0.376	0.509
-686.324	-200.000	-0.030	-0.461
-685.310	-20.541	-0.716	-0.446
-684.295	800.000	-0.167	0.564
-683.281	-82.438	-0.615	0.202
-682.266	-117.181	0.410	0.076
-681.251	269.241	-0.439	0.781
-680.237	-65.364	0.173	0.071
-679.222	-13.607	-0.269	-0.177
-678.208	632.686	-0.314	0.805
-677.193	-90.204	0.449	-0.132
-676.178	-85.494	0.435	-0.137
-675.164	20.592	0.299	0.245
-674.149	-189.553	0.565	0.007
-673.135	-95.413	-0.279	-0.076
-672.120	25.168	0.658	0.554
-671.105	-39.448	-0.914	-0.485
-670.091	703.201	-0.215	-0.573
-669.076	-96.114	-0.631	0.170
-668.062	734.949	-0.137	0.372
-667.047	-200.000	0.047	-0.271
-666.032	153.551	-0.449	-0.623
-665.018	-103.822	0.495	0.117
-664.003	40.803	-0.498	-0.455
-662.989	-200.000	-0.050	-0.781
-661.974	-200.000	-0.013	0.473
-660.959	-33.642	0.688	-0.385
-659.945	241.615	0.429	-0.726
-658.930	609.553	0.401	1.014
-657.916	800.000	0.200	0.845
-656.901	-200.000	-0.034	-0.190
-655.886	444.051	-0.209	0.464
-654.872	-3.114	-0.861	-0.608
-653.857	243.575	0.469	-0.797
-652.843	-200.000	0.008	0.191
-651.828	-44.670	-0.251	0.127
-650.814	112.907	0.269	-0.330
-649.799	-150.269	0.156	-0.012
-648.784	-144.013	0.979	-0.093
-647.770	103.973	-0.458	-0.545
-646.755	-12.457	-0.300	0.198
-645.741	515.015	0.424	1.003
-644.726	227.482	-0.448	0.737
-643.711	-200.000	0.012	-0.483
-642.697	-10.803	-0.615	0.411
-641.682	800.000	-0.106	-0.298
-640.668	207.696	0.407	-0.643
-639.653	-143.688	-0.793	-0.076
-638.638	-22.226	-0.400	-0.245
-637.624	-108.109	-1.110	0.243
-636.609	-89.781	-0.777	-0.230
-635.595	-116.821	0.347	0.064
-634.580	-50.467	-0.580	-0.277
-633.565	100.622	-0.488	-0.574
-632.551	686.630	0.130	-0.345
-631.536	55.122	-0.287	-0.281
-630.522	800.000	0.350	-1.342
-629.507	-145.684	-0.715	-0.065
-628.492	-60.929	0.598	-0.256
-627.478	-84.752	1.100	-0.350
-626.463	405.314	-0.301	-0.641
-625.449	105.932	0.349	-0.417
-624.434	-59.328	0.731	-0.318
-623.419	-78.843	-0.612	0.211
-622.405	800.000	0.259	-1.055
-621.390	800.000	-0.246	-0.865
-620.376	283.465	-0.261	-0.474
-619.361	800.000	-0.241	0.706
-618.346	800.000	0.093	0.391
-617.332	800.000	0.083	0.290
-616.317	366.771	-0.223	-0.454
-615.303	318.073	-0.420	-0.803
-614.288	-106.283	0.581	0.132
-613.273	120.685	-0.180	0.226
-612.259	-78.627	-0.377	-0.130
-611.244	-34.359	-0.439	-0.243
-610.230	-114.193	-0.817	-0.159
-609.215	-15.855	0.384	0.247
-608.201	99.454	0.555	-0.649
-607.186	39.942	-0.106	-0.096
-606.171	-70.963	0.414	0.157
-605.157	-200.000	-0.020	-0.209
-604.142	32.027	-0.347	0.303
-603.128	-89.960	-0.226	0.067
-602.113	288.404	0.256	0.469
-601.098	-200.000	0.043	1.113
-600.084	68.335	-0.380	-0.393
-599.069	800.000	-0.092	0.330
-598.055	700.403	0.208	0.552
-597.040	-200.000	-0.173	-0.998
-596.025	49.284	0.466	-0.442
-595.011	131.087	-0.820	1.063
-593.996	-1.331	0.018	0.013
-592.982	-147.039	0.072	-0.006
-591.967	262.008	0.044	-0.077
-590.952	-200.000	-0.029	-0.321
-589.938	800.000	0.248	-0.731
-588.923	-81.018	-0.626	-0.209
-587.909	-21.080	0.089	-0.055
-586.894	-67.283	0.264	0.105
-585.879	666.326	-0.249	0.648
-584.865	257.667	-0.139	0.241
-583.850	4.430	0.351	0.260
-582.836	54.055	0.352	-0.342
-581.821	147.769	-0.481	0.655
-580.806	106.451	-0.437	-0.523
-579.792	-122.060	-0.578	-0.096
-578.777	-8.183	0.725	0.493
-577.763	232.628	-0.313	-0.520
-576.748	-149.429	0.193	0.015
-575.733	36.090	-0.343	-0.305
-574.719	437.049	0.072	0.159
-573.704	-62.936	0.601	0.251
-572.690	-43.025	0.161	0.083
-571.675	145.983	-0.284	0.384
-570.661	449.170	0.294	0.654
-569.646	108.108	0.379	-0.456
-568.631	784.111	-0.373	-1.032
-567.617	225.824	0.216	0.353
-566.602	1.549	-1.061	0.770
-565.588	-14.702	0.452	0.293
-564.573	-30.209	0.146	-0.084
-563.558	-83.562	-0.522	0.168
-562.544	-0.491	-0.733	-0.525
-561.529	6.567	0.442	-0.332
-560.515	35.791	0.275	-0.244
-559.500	-79.174	-0.493	0.169
-558.485	162.883	-0.354	-0.501
-557.471	302.919	-0.122	-0.229
-556.456	-37.726	0.836	0.449
-555.442	-107.377	0.617	-0.137
-554.427	61.372	0.448	0.449
-553.412	9.863	-0.619	0.474
-552.398	-200.000	-0.101	0.927
-551.383	-200.000	-0.007	-0.568
-550.369	800.000	0.088	-0.318
-549.354	13.816	0.334	0.262
-548.339	18.978	-0.635	-0.513
-547.325	-120.096	0.450	0.078
-546.310	59.518	0.223	0.221
-545.296	800.000	0.389	-1.276
-544.281	400.024	0.304	-0.642
-543.266	-127.216	0.628	0.093
-542.252	-56.352	-0.718	0.322
-541.237	692.821	-0.088	0.234
-540.223	-200.000	0.204	0.917
-539.208	432.593	0.426	0.932
-538.193	342.084	-0.038	0.074
-537.179	-200.000	0.020	-0.190
-536.164	480.088	0.119	-0.272
-535.150	-30.983	-1.235	0.703
-534.135	321.578	-0.348	0.668
-533.121	-62.113	0.241	0.101
-532.106	335.176	0.118	0.231
-531.091	42.005	-0.445	-0.407
-530.077	-200.000	0.000	-0.765
-529.062	-118.160	0.615	0.110
-528.048	800.000	0.171	0.483
-527.033	-150.311	-0.480	-0.037
-526.018	37.587	-0.928	0.830
-525.004	-82.116	-0.950	0.312
-523.989	-90.550	-1.176	0.343
-522.975	-200.000	0.004	0.482
-521.960	676.466	0.271	0.709
-520.945	-106.583	-0.817	0.183
-519.931	-200.000	0.128	-0.593
-518.916	122.342	0.245	0.309
-517.902	-200.000	-0.009	0.614
-516.887	-139.341	0.850	0.092
-515.872	800.000	-0.134	0.459
-514.858	2.810	0.494	0.361
-513.843	58.320	0.108	0.107
-512.829	-170.537	0.390	-0.014
-511.814	330.261	-0.053	0.104
-510.799	195.933	-0.138	-0.212
-509.785	-110.123	0.459	0.096
-508.770	-200.000	-0.026	-0.672
-507.756	65.862	-0.258	-0.263
-506.741	-84.187	0.477	0.152
-505.726	-119.595	0.880	-0.153
-504.712	-200.000	-0.082	0.557
-503.697	123.888	0.617	-0.779
-502.683	-200.000	0.223	1.046
-501.668	-45.227	-0.449	-0.224
-500.653	268.324	0.085	0.151
-499.639	34.126	-0.268	0.235
-498.624	-146.476	-0.088	0.008
-497.610	649.904	-0.040	-0.104
-496.595	62.261	0.088	0.088
-495.581	93.657	-0.446	-0.509
-494.566	277.307	-0.180	-0.323
-493.551	127.461	0.451	0.576
-492.537	532.295	-0.206	0.491
-491.522	129.038	0.479	0.615
-490.508	60.783	0.698	-0.696
-489.493	-111.267	-0.866	-0.178
-488.478	-68.243	-0.440	-0.172
-487.464	800.000	0.081	0.306
-486.449	-32.795	0.455	-0.254
-485.435	399.599	-0.163	-0.343
-484.420	800.000	0.237	0.729
-483.405	140.085	0.301	-0.399
-482.391	-110.605	-1.057	0.220
-481.376	59.607	0.099	0.098
-480.362	-89.033	-0.301	0.090
-479.347	-200.000	0.003	0.077
-478.332	122.222	0.113	-0.141
-477.318	-21.192	0.715	-0.440
-476.303	35.660	-0.691	-0.611
-475.289	-37.165	0.544	-0.292
-474.274	345.691	0.094	-0.186
-473.259	-200.000	-0.175	0.779
-472.245	-173.429	0.882	0.027
-471.230	338.199	-0.262	-0.512
-470.216	-123.316	-0.562	0.090
-469.201	122.736	0.209	-0.263
-468.186	10.086	0.307	0.234
-467.172	352.879	-0.261	-0.520
-466.157	443.729	-0.121	-0.266
-465.143	-122.318	0.575	0.094
-464.128	1.917	0.349	0.253
-463.113	-200.000	0.105	-0.891
-462.099	-200.000	0.158	-0.870
-461.084	-68.643	-0.520	-0.202
-460.070	264.736	0.128	0.224
-459.055	139.435	-0.171	-0.226
-458.040	-95.296	-0.708	0.192
-457.026	800.000	0.320	0.986
-456.011	-92.193	-0.306	0.087
-454.997	-32.335	-0.702	-0.393
-453.982	-131.971	-0.603	-0.079
-452.968	-200.000	-0.003	-0.398
-451.953	-125.048	-0.814	-0.126
-450.938	-132.868	-0.604	0.077
-449.924	38.529	0.592	-0.530
-448.909	262.628	-0.363	-0.632
-447.895	800.000	0.140	-0.396
-446.880	151.309	0.326	-0.446
-445.865	272.831	0.239	0.423
-444.851	178.437	-0.113	-0.165
-443.836	-4.587	-0.428	0.297
-442.822	54.123	0.320	-0.309
-441.807	11.209	0.348	-0.267
-440.792	-200.000	0.047	0.459
-439.778	-96.327	0.217	-0.058
-438.763	-200.000	-0.119	-1.306
-437.749	-200.000	0.013	-0.516
-436.734	-106.680	0.284	0.063
-435.719	670.529	0.246	0.638
-434.705	97.051	0.750	0.863
-433.690	-70.382	0.239	-0.091
-432.676	392.403	-0.135	0.282
-431.661	357.712	-0.294	-0.588
-430.646	110.412	0.416	0.502
-429.632	-93.526	-0.157	0.043
-428.617	-47.797	0.493	0.240
-427.603	-200.000	0.008	-0.049
-426.588	153.712	0.302	0.416
-425.573	-10.383	0.762	-0.507
-424.559	-54.232	-0.527	0.240
-423.544	-200.000	-0.059	0.713
-422.530	4.746	-1.024	0.755
-421.515	-0.676	-0.271	0.193
-420.500	-200.000	0.047	-0.357
-419.486	-200.000	0.006	0.206
-418.471	41.792	0.352	0.320
-417.457	-160.154	0.353	-0.019
-416.442	114.491	0.150	0.183
-415.428	13.433	0.829	-0.645
-414.413	-200.000	0.072	1.134
-413.398	800.000	0.133	0.514
-412.384	-200.000	0.065	-0.347
-411.369	-200.000	-0.087	0.451
-410.355	7.954	-0.258	-0.194
-409.340	-19.234	-0.628	0.391
-408.325	-200.000	-0.053	0.322
-407.311	-200.000	-0.063	0.670
-406.296	61.710	0.312	0.312
-405.282	483.831	0.380	-0.866
-404.267	-200.000	-0.030	-0.961
-403.252	-24.463	-0.503	-0.301
-402.238	-94.651	0.795	0.217
-401.223	270.297	-0.274	-0.483
-400.209	194.676	-0.543	-0.825
-399.194	800.000	0.023	-0.075
-398.179	579.088	-0.388	0.953
-397.165	-88.846	-0.439	0.131
-396.150	-200.000	0.078	-0.375
-395.136	740.645	-0.274	0.738
-394.121	214.051	0.045	-0.072
-393.106	681.781	0.129	0.336
-392.092	-54.268	-0.642	0.292
-391.077	161.022	-0.066	0.093
-390.063	-83.025	0.237	-0.077
-389.048	135.555	-0.113	-0.148
-388.033	187.329	-0.267	0.399
-387.019	765.500	0.056	-0.153
-386.004	-98.846	0.206	0.052
-384.990	22.192	0.561	-0.459
-383.975	-19.068	-0.566	-0.352
-382.960	31.048	-0.545	-0.468
-381.946	11.045	-0.129	-0.099
-380.931	190.662	0.141	-0.212
-379.917	427.331	0.360	-0.778
-378.902	406.994	0.134	-0.283
-377.888	156.264	-0.582	0.804
-376.873	-148.531	-0.194	-0.016
-375.858	572.792	-0.155	-0.378
-374.844	-200.000	0.109	0.561
-373.829	-200.000	0.062	0.946
-372.815	-200.000	0.016	0.278
-371.800	-200.000	-0.016	0.793
-370.785	-44.191	0.452	0.227
-369.771	793.464	0.215	-0.592
-368.756	-5.130	0.239	0.164
-367.742	-43.752	-0.140	-0.071
-366.727	800.000	-0.140	0.582
-365.712	-200.000	0.732	-0.003
-364.698	-128.776	-0.444	0.063
-363.683	694.409	-0.202	0.531
-362.669	-154.321	-0.447	0.030
-361.654	-96.289	0.210	0.056
-360.639	-200.000	-0.041	0.471
-359.625	-91.207	0.811	0.232
-358.610	791.456	-0.459	1.264
-357.596	494.108	-0.286	0.658
-356.581	-172.192	-0.417	0.013
-355.566	800.000	0.151	-0.589
-354.552	-12.307	-0.367	0.240
-353.537	5.559	-0.677	0.500
-352.523	58.385	0.419	0.411
-351.508	-200.000	0.012	0.308
-350.493	800.000	-0.158	-0.557
-349.479	97.679	0.099	-0.113
-348.464	16.409	0.191	-0.151
-347.450	-8.867	0.452	0.303
-346.435	800.000	0.058	0.200
-345.420	75.479	-0.748	-0.789
-344.406	-68.843	-0.627	0.242
-343.391	-78.188	-0.787	0.271
-342.377	278.302	0.043	0.076
-341.362	108.216	-0.138	-0.165
-340.348	31.521	-0.232	-0.199
-339.333	-57.013	0.890	-0.393
-338.318	281.957	-0.259	0.465
-337.304	462.450	0.113	-0.253
-336.289	-69.909	0.217	0.083
-335.275	18.919	0.156	-0.125
-334.260	-160.768	0.524	-0.028
-333.245	-200.000	-0.029	0.398
-332.231	800.000	-0.172	-0.533
-331.216	12.836	0.461	0.356
-330.202	800.000	0.073	-0.317
-329.187	11.894	-0.487	0.374
-328.172	117.743	0.197	0.243
-327.158	-29.057	0.570	-0.327
-326.143	800.000	-0.121	-0.379
-325.129	299.093	-0.182	-0.335
-324.114	800.000	0.179	0.687
-323.099	-110.594	0.161	0.033
-322.085	218.343	0.375	0.599
-321.070	208.822	-0.358	0.560
-320.056	-200.000	-0.019	-0.249
-319.041	-69.278	-0.687	0.264
-318.026	79.514	-0.196	0.211
-317.012	-54.972	-0.304	-0.137
-315.997	62.350	0.433	-0.432
-314.983	-156.832	-0.961	-0.059
-313.968	-200.000	-0.094	0.444
-312.953	800.000	0.038	0.116
-311.939	-81.709	1.077	0.353
-310.924	134.130	-0.141	-0.182
-309.910	-69.713	0.432	-0.165
-308.895	-200.000	0.028	-0.591
-307.880	44.823	-0.564	-0.519
-306.866	-179.451	0.418	0.009
-305.851	248.460	0.148	-0.250
-304.837	-19.500	-0.121	-0.075
-303.822	547.040	0.098	0.233
-302.807	42.013	-0.481	0.436
-301.793	-200.000	-0.007	-0.188
-300.778	55.731	-0.407	0.393
-299.764	800.000	-0.068	0.256
-298.749	-164.609	0.485	0.022
-297.735	-176.818	0.868	-0.022
-296.720	-123.417	-0.544	0.086
-295.705	-161.737	-0.547	0.028
-294.691	-5.711	0.429	-0.293
-293.676	179.314	-0.454	-0.663
-292.662	-98.493	-0.888	0.227
-291.647	-60.950	-0.251	-0.106
-290.632	-40.290	-0.431	-0.224
-289.618	20.803	-0.417	-0.337
-288.603	-200.000	0.023	0.629
-287.589	-118.418	-0.249	-0.044
-286.574	-86.238	0.272	0.084
-285.559	201.834	0.359	0.551
-284.545	-200.000	0.298	0.000
-283.530	40.059	-0.473	0.424
-282.516	-159.637	0.751	0.041
-281.501	800.000	0.180	0.563
-280.486	-45.597	-0.840	-0.415
-279.472	86.345	0.296	0.326
-278.457	-162.515	0.078	0.004
-277.443	-85.125	-0.226	0.070
-276.428	65.857	0.398	-0.402
-275.413	239.068	0.328	0.544
-274.399	-104.710	-0.230	-0.053
-273.384	-75.260	0.537	-0.191
-272.370	-153.302	0.437	-0.030
-271.355	154.566	-0.412	-0.565
-270.340	800.000	0.094	-0.381
-269.326	596.258	-0.198	0.489
-268.311	-200.000	-0.036	-0.166
-267.297	-83.013	0.139	0.045
-266.282	800.000	0.122	-0.371
-265.267	-44.068	-0.703	0.352
-264.253	28.696	0.682	0.576
-263.238	92.935	0.355	0.400
-262.224	3.036	0.553	-0.401
-261.209	-82.540	-0.230	0.074
-260.195	338.099	-0.620	-1.202
-259.180	800.000	0.197	0.687
-258.165	-17.451	0.620	0.389
-257.151	281.493	-0.188	-0.335
-256.136	-200.000	-0.074	0.346
-255.122	193.087	0.233	0.351
-254.107	-200.000	0.022	0.196
-253.092	394.539	0.210	-0.436
-252.078	11.776	0.123	-0.094
-251.063	-56.773	0.249	-0.110
-250.049	650.288	-0.198	0.504
-249.034	-14.955	-0.213	0.136
-248.019	1.473	-0.093	-0.066
-247.005	224.563	0.147	0.237
-245.990	-109.017	0.543	0.115
-244.976	162.799	-0.361	0.505
-243.961	-134.208	0.190	-0.023
-242.946	-200.000	0.043	0.251
-241.932	-34.748	0.457	-0.249
-240.917	-158.635	-0.260	-0.015
-239.903	8.680	0.314	-0.236
-238.888	-125.279	0.749	-0.114
-237.873	-4.733	0.158	0.108
-236.859	174.876	-0.233	-0.336
-235.844	-200.000	-0.012	0.122
-234.830	-118.392	0.377	-0.067
-233.815	197.925	-0.082	0.125
-232.800	-66.778	-0.631	0.249
-231.786	-16.517	-0.276	0.174
-230.771	-36.966	0.385	-0.205
-229.757	800.000	0.201	0.677
-228.742	800.000	0.244	-0.846
-227.727	222.720	0.264	-0.423
-226.713	-200.000	0.127	-0.580
-225.698	-128.552	0.548	-0.077
-224.684	204.943	-0.282	-0.436
-223.669	-186.157	0.361	-0.005
-222.655	-200.000	-0.075	0.353
-221.640	-29.591	-0.124	-0.070
-220.625	-25.292	0.222	-0.131
-219.611	-109.612	-1.023	-0.215
-218.596	-200.000	0.022	0.156
-217.582	-48.618	0.322	0.154
-216.567	-64.048	-0.431	0.175
-215.552	-200.000	-0.111	-0.833
-214.538	-3.248	0.180	-0.125
-213.523	394.055	-0.170	-0.352
-212.509	474.670	0.122	-0.274
-211.494	-76.970	-0.534	-0.185
-210.479	-111.603	0.212	0.043
-209.465	-51.360	0.741	-0.345
-208.450	-58.058	-0.236	0.102
-207.436	-25.146	0.390	0.230
-206.421	800.000	-0.093	-0.260
-205.406	-94.146	0.189	-0.052
-204.392	-147.001	-0.467	-0.040
-203.377	-116.230	-0.711	-0.131
-202.363	298.121	-0.288	0.526
-201.348	128.337	0.287	-0.364
-200.333	30.915	0.475	0.405
-199.319	-86.435	0.401	0.123
-198.304	-73.487	0.730	-0.265
-197.290	-15.091	-0.333	0.212
-196.275	-200.000	0.120	-0.666
-195.260	4.669	0.636	-0.465
-194.246	-196.678	-0.398	0.003
-193.231	-151.909	0.508	0.037
-192.217	80.822	-0.390	-0.418
-191.202	-22.735	0.426	-0.256
-190.187	121.990	0.482	0.598
-189.173	35.983	0.238	0.208
-188.158	800.000	-0.048	-0.144
-187.144	78.136	0.539	-0.571
-186.129	-111.893	0.226	0.045
-185.114	-21.482	0.690	-0.418
-184.100	-200.000	-0.030	-0.559
-183.085	40.781	-0.263	0.236
-182.071	27.206	0.090	-0.075
-181.056	-1.131	0.437	0.307
-180.042	-77.261	-0.463	-0.160
-179.027	13.378	-0.264	-0.203
-178.012	388.713	-0.339	-0.698
-176.998	-131.827	0.938	-0.122
-175.983	35.347	-0.125	0.109
-174.969	-28.744	-0.393	-0.225
-173.954	147.345	0.374	-0.500
-172.939	423.201	-0.454	0.969
-171.925	-62.755	0.457	0.188
-170.910	-35.844	0.423	0.228
-169.896	-112.526	-0.479	0.095
-168.881	-105.259	0.703	0.159
-167.866	17.490	-0.404	-0.319
-166.852	192.314	-0.146	-0.219
-165.837	-68.564	-0.599	0.231
-164.823	32.076	-0.207	0.177
-163.808	-150.023	0.702	0.054
-162.793	77.947	-0.432	-0.457
-161.779	-200.000	-0.006	-0.287
-160.764	-157.267	0.468	0.028
-159.750	800.000	-0.121	-0.374
-158.735	189.729	0.226	-0.336
-157.720	-57.201	0.199	-0.087
-156.706	672.963	0.202	-0.520
-155.691	-152.998	0.633	-0.044
-154.677	-93.884	0.587	0.160
-153.662	-30.625	-0.768	-0.431
-152.647	226.718	-0.179	0.288
-151.633	354.549	0.526	1.039
-150.618	-179.380	0.863	-0.019
-149.604	405.172	0.067	0.140
-148.589	-200.000	-0.204	0.954
-147.574	-182.660	0.333	-0.006
-146.560	20.614	-0.305	-0.245
-145.545	78.494	-0.135	0.143
-144.531	-191.658	0.385	-0.004
-143.516	695.259	0.244	0.635
-142.502	-179.054	-0.123	0.003
-141.487	449.897	0.247	0.540
-140.472	144.760	-0.358	-0.475
-139.458	-121.925	0.831	0.136
-138.443	-106.996	0.881	0.193
-137.429	19.751	0.608	-0.486
-136.414	800.000	-0.231	-0.658
-135.399	-61.167	0.420	-0.176
-134.385	691.975	0.126	-0.327
-133.370	197.293	-0.652	0.987
-132.356	649.989	-0.110	0.278
-131.341	-200.000	-0.109	-0.781
-130.326	94.035	-0.204	-0.229
-129.312	133.974	0.271	-0.349
-128.297	69.742	0.236	-0.241
-127.283	188.446	-0.204	0.302
-126.268	-19.132	-0.410	0.252
-125.253	63.119	0.261	0.260
-124.239	233.930	-0.239	0.390
-123.224	-75.095	0.280	0.099
-122.210	368.744	-0.237	0.476
-121.195	257.114	-0.233	-0.398
-120.180	746.441	0.109	0.291
