DTS Sentinel unit serial number:	SN413079Multiplexer serial number:	ORYXHardware model number:	OX4-SRSoftware version number:	ORYX F/W v4.00 Oryx Data Collector v3.7.2.0data status	okinstallation	princeton_trtdifferential loss correction	single-endedforward channel	channel 4reverse channel	N/Adate	2019/09/12time	19:03:18forward acquisition time	15.00reverse acquisition time	0.00gamma	496.2192k internal	0.2307k external	0.2307temperature offset calibration	1.0144default loss term (dB/km)	0.3790temperature slope calibration	1.0000multiplexer offset coefficient	1.0000multiplexer slope coefficient	1.0000fibre end	0.00T internal ref (°C)	32.69T ext. ref 1 (°C)	3.01T ext. ref 2 (°C)	27.24length (m)	temperature (°C)	Stokes	anti-Stokes-747.200	800.000	0.192	0.586
-746.185	30.934	-0.221	0.192
-745.171	122.053	-0.253	-0.321
-744.156	-200.000	0.010	0.547
-743.142	158.965	-0.282	0.398
-742.127	800.000	0.135	0.419
-741.112	-200.000	-0.084	-0.457
-740.098	188.673	0.195	-0.297
-739.083	147.628	0.341	-0.466
-738.069	-9.511	-0.387	0.262
-737.054	-99.829	-0.217	-0.055
-736.039	-62.206	-0.528	-0.224
-735.025	73.246	0.213	0.226
-734.010	-200.000	0.077	-0.685
-732.996	-156.728	0.565	-0.035
-731.981	-157.313	0.229	0.014
-730.966	-200.000	-0.059	-0.568
-729.952	21.986	-0.483	-0.400
-728.937	474.608	-0.152	-0.348
-727.923	61.799	-0.715	-0.723
-726.908	252.911	0.205	-0.355
-725.894	302.869	0.181	-0.341
-724.879	48.975	-0.370	-0.353
-723.864	39.922	0.422	0.385
-722.850	-49.888	0.510	0.246
-721.835	26.888	-0.190	0.162
-720.821	69.469	-0.528	0.552
-719.806	-200.000	0.138	0.788
-718.791	-141.230	0.603	-0.062
-717.777	-70.724	0.809	0.310
-716.762	11.110	-0.544	0.423
-715.748	595.462	0.049	0.122
-714.733	32.732	-0.340	0.299
-713.718	-200.000	-0.049	0.400
-712.704	-67.622	0.564	0.224
-711.689	7.541	-0.511	-0.388
-710.675	-50.477	0.558	-0.268
-709.660	800.000	0.257	1.052
-708.645	-200.000	0.025	-0.249
-707.631	529.339	0.172	0.412
-706.616	-144.362	0.114	-0.011
-705.602	-200.000	0.068	-0.418
-704.587	800.000	0.242	-0.751
-703.572	-116.734	-0.242	0.045
-702.558	-165.107	-0.569	0.026
-701.543	-80.977	0.659	0.222
-700.529	36.737	0.434	-0.389
-699.514	174.094	-0.300	0.440
-698.499	-200.000	-0.045	0.327
-697.485	-122.725	0.420	-0.069
-696.470	-74.693	-0.896	0.327
-695.456	106.536	-0.218	-0.262
-694.441	-63.426	-0.052	0.022
-693.426	126.566	-0.164	0.210
-692.412	-152.207	-0.490	0.036
-691.397	56.908	-0.363	0.359
-690.383	31.533	0.359	0.313
-689.368	-193.447	-0.352	-0.003
-688.354	24.112	0.424	0.355
-687.339	-22.097	-0.270	-0.166
-686.324	800.000	0.111	0.373
-685.310	-190.216	-0.425	-0.005
-684.295	-65.484	-0.930	-0.379
-683.281	450.613	-0.217	-0.485
-682.266	-118.095	-0.436	0.079
-681.251	800.000	0.119	-0.437
-680.237	261.484	-0.022	0.038
-679.222	800.000	0.161	0.602
-678.208	-200.000	-0.014	-0.182
-677.193	-51.921	0.121	0.057
-676.178	81.059	-0.183	0.201
-675.164	-143.125	0.856	0.084
-674.149	800.000	-0.193	-0.853
-673.135	-12.113	0.662	0.439
-672.120	-73.743	-0.581	0.214
-671.105	6.638	0.323	0.243
-670.091	800.000	0.053	0.196
-669.076	-200.000	0.149	0.784
-668.062	800.000	0.140	0.501
-667.047	-141.396	0.178	0.018
-666.032	800.000	-0.226	0.725
-665.018	-144.419	-0.519	0.049
-664.003	-146.963	0.575	-0.050
-662.989	-200.000	0.077	-0.504
-661.974	-200.000	0.062	-0.598
-660.959	-60.212	-0.390	-0.169
-659.945	52.073	0.461	-0.445
-658.930	-67.283	-0.275	0.110
-657.916	-33.383	-0.523	0.293
-656.901	-143.148	-0.368	0.036
-655.886	-22.468	0.458	0.281
-654.872	-31.522	0.053	-0.030
-653.857	-66.565	-0.721	-0.290
-652.843	-17.001	-0.574	0.368
-651.828	-153.934	0.366	0.025
-650.814	129.649	-0.365	0.473
-649.799	-63.913	-0.978	-0.405
-648.784	-200.000	0.008	-0.194
-647.770	79.316	-0.713	0.774
-646.755	76.886	-0.481	0.517
-645.741	-126.233	0.525	-0.079
-644.726	800.000	-0.322	-1.291
-643.711	-200.000	0.001	-0.095
-642.697	-131.664	-0.405	-0.054
-641.682	-200.000	-0.022	0.171
-640.668	68.485	-0.415	-0.430
-639.653	111.907	-0.327	0.400
-638.638	-200.000	-0.006	-0.572
-637.624	349.309	-0.043	0.086
-636.609	-111.186	-0.863	-0.179
-635.595	-200.000	-0.104	0.514
-634.580	-200.000	0.047	0.229
-633.565	126.011	-0.581	0.744
-632.551	82.160	-0.237	-0.260
-631.536	-104.368	-0.591	-0.139
-630.522	53.413	0.357	-0.347
-629.507	189.427	0.311	0.472
-628.492	322.177	0.153	0.295
-627.478	-83.562	1.252	-0.405
-626.463	116.002	-0.653	-0.809
-625.449	40.631	0.279	0.255
-624.434	-138.913	-0.659	-0.073
-623.419	-111.938	-0.619	0.126
-622.405	-53.932	0.436	0.201
-621.390	-200.000	-0.031	-0.226
-620.376	37.315	1.026	0.920
-619.361	99.991	-0.319	-0.375
-618.346	-200.000	-0.013	-0.631
-617.332	-200.000	-0.062	-0.835
-616.317	205.767	0.052	0.082
-615.303	19.347	0.447	0.364
-614.288	656.389	0.067	0.175
-613.273	-80.639	-0.496	0.167
-612.259	9.265	0.702	0.537
-611.244	116.226	-0.271	0.336
-610.230	-200.000	-0.394	0.000
-609.215	-200.000	0.111	0.510
-608.201	73.633	-0.222	0.236
-607.186	-102.005	-0.539	-0.131
-606.171	-2.954	-0.222	0.156
-605.157	-5.122	-0.327	-0.227
-604.142	31.835	0.458	0.399
-603.128	-58.378	-0.208	-0.091
-602.113	318.503	-0.483	-0.924
-601.098	207.103	-0.469	0.740
-600.084	800.000	0.093	0.407
-599.069	-32.215	0.281	-0.158
-598.055	-119.637	0.962	-0.168
-597.040	150.190	-0.375	0.515
-596.025	28.612	0.123	-0.105
-595.011	607.912	0.090	-0.227
-593.996	285.856	0.139	0.254
-592.982	800.000	-0.159	-0.572
-591.967	38.135	0.282	0.254
-590.952	-134.994	0.399	-0.049
-589.938	-155.526	-1.106	-0.072
-588.923	5.186	0.502	-0.374
-587.909	42.771	-0.920	0.847
-586.894	800.000	0.120	-0.423
-585.879	226.492	0.366	-0.600
-584.865	-200.000	-0.041	-0.207
-583.850	-200.000	-0.084	-0.480
-582.836	800.000	0.137	0.472
-581.821	800.000	0.177	-0.700
-580.806	-200.000	-0.047	-0.567
-579.792	800.000	0.226	0.738
-578.777	-45.785	-0.838	-0.418
-577.763	271.298	0.132	-0.234
-576.748	-86.511	-0.361	-0.112
-575.733	75.807	0.213	-0.228
-574.719	800.000	-0.094	-0.392
-573.704	-21.408	0.242	-0.149
-572.690	36.992	-0.108	-0.096
-571.675	-200.000	-0.014	0.137
-570.661	-123.320	-0.619	-0.100
-569.646	-110.988	0.403	0.084
-568.631	160.826	0.088	0.123
-567.617	-200.000	0.150	-0.722
-566.602	800.000	-0.121	0.340
-565.588	31.857	0.055	0.047
-564.573	23.675	0.139	0.116
-563.558	800.000	-0.094	0.351
-562.544	31.328	0.757	0.657
-561.529	204.880	0.184	0.288
-560.515	-200.000	0.005	0.028
-559.500	13.998	0.641	0.504
-558.485	-200.000	-0.009	-0.860
-557.471	269.870	-0.462	-0.819
-556.456	27.402	0.761	-0.645
-555.442	-200.000	0.008	-0.059
-554.427	-200.000	0.010	-0.257
-553.412	179.569	0.349	0.516
-552.398	800.000	0.137	-0.526
-551.383	175.382	0.163	-0.239
-550.369	-175.159	-0.583	0.016
-549.354	256.236	-0.312	-0.540
-548.339	-153.875	0.770	-0.053
-547.325	164.561	0.157	-0.224
-546.310	74.573	-0.266	0.282
-545.296	75.681	0.380	0.405
-544.281	-103.837	0.651	-0.154
-543.266	-98.672	-0.152	0.039
-542.252	114.096	-0.353	-0.434
-541.237	-17.479	0.447	-0.284
-540.223	-149.897	-0.178	0.014
-539.208	157.463	0.188	0.263
-538.193	302.227	0.549	-1.024
-537.179	-19.084	-0.699	-0.438
-536.164	198.167	0.144	0.222
-535.150	-22.285	0.434	-0.266
-534.135	344.322	0.055	-0.110
-533.121	-32.424	0.548	-0.308
-532.106	456.147	0.375	-0.840
-531.091	8.905	-0.448	0.341
-530.077	597.589	-0.285	0.712
-529.062	22.314	-0.444	-0.365
-528.048	-57.974	0.169	0.074
-527.033	-90.656	-0.271	0.079
-526.018	461.107	-0.102	-0.230
-525.004	61.937	0.535	-0.538
-523.989	150.929	-0.250	0.343
-522.975	47.682	0.576	-0.542
-521.960	-200.000	0.074	-0.765
-520.945	77.926	-0.410	0.441
-519.931	-140.959	0.682	0.071
-518.916	255.753	-0.130	-0.224
-517.902	20.465	0.384	0.313
-516.887	-200.000	0.026	0.421
-515.872	-5.956	0.358	-0.246
-514.858	-35.655	-0.445	-0.243
-513.843	-200.000	-0.004	-0.527
-512.829	-22.418	-0.242	0.148
-511.814	-82.073	-0.226	-0.074
-510.799	-71.243	-0.423	-0.160
-509.785	75.491	0.302	0.321
-508.770	-200.000	0.069	0.548
-507.756	800.000	0.099	0.291
-506.741	171.462	0.392	0.567
-505.726	-200.000	-0.196	0.966
-504.712	544.926	0.191	0.460
-503.697	-200.000	0.061	-0.538
-502.683	-42.139	0.414	-0.213
-501.668	196.941	-0.305	-0.469
-500.653	77.075	-0.906	0.970
-499.639	-33.868	0.444	0.246
-498.624	800.000	-0.212	0.604
-497.610	590.760	0.200	-0.496
-496.595	800.000	-0.149	0.653
-495.581	-64.628	-0.585	0.239
-494.566	800.000	0.140	-0.413
-493.551	-150.532	0.328	-0.025
-492.537	-200.000	-0.046	-0.586
-491.522	-200.000	-0.135	0.712
-490.508	-200.000	0.042	-0.736
-489.493	-72.796	0.446	-0.165
-488.478	-37.252	-0.608	0.327
-487.464	107.675	-0.166	0.200
-486.449	-29.052	-0.813	-0.470
-485.435	-200.000	0.014	-0.146
-484.420	800.000	-0.072	-0.297
-483.405	-200.000	0.066	0.979
-482.391	-85.311	0.706	0.222
-481.376	-66.903	0.251	0.100
-480.362	-123.816	0.402	-0.064
-479.347	-12.789	0.245	-0.161
-478.332	182.604	-0.571	0.847
-477.318	188.832	-0.410	-0.617
-476.303	567.696	-0.204	-0.498
-475.289	-200.000	0.062	0.642
-474.274	-103.912	0.619	0.145
-473.259	-61.220	0.682	-0.289
-472.245	800.000	-0.210	-0.689
-471.230	800.000	0.188	-0.683
-470.216	59.925	-0.715	0.711
-469.201	105.248	0.227	-0.270
-468.186	5.128	0.580	0.430
-467.172	800.000	0.141	-0.538
-466.157	716.615	0.250	0.668
-465.143	-13.320	-0.452	0.295
-464.128	-89.226	0.732	0.217
-463.113	120.380	0.055	0.069
-462.099	-25.170	0.651	-0.388
-461.084	-185.377	-0.724	0.011
-460.070	-200.000	0.033	-0.451
-459.055	-18.104	0.751	-0.473
-458.040	-200.000	0.152	0.688
-457.026	-200.000	-0.039	-0.279
-456.011	800.000	0.113	-0.317
-454.997	-143.252	-0.618	-0.060
-453.982	23.151	-0.315	0.260
-452.968	-200.000	-0.086	1.144
-451.953	-200.000	-0.189	-0.943
-450.938	-200.000	-0.010	0.347
-449.924	47.619	0.150	-0.141
-448.909	-102.141	0.591	-0.143
-447.895	-200.000	-0.026	0.289
-446.880	92.358	-0.224	-0.254
-445.865	800.000	0.041	0.145
-444.851	-200.000	-0.060	0.304
-443.836	-81.958	0.558	0.183
-442.822	-182.567	0.620	0.011
-441.807	-200.000	-0.077	0.586
-440.792	-83.002	-0.938	-0.304
-439.778	-200.000	0.038	-0.177
-438.763	-200.000	0.063	-0.663
-437.749	616.848	-0.149	-0.375
-436.734	264.595	0.096	0.168
-435.719	89.811	-0.636	0.713
-434.705	-54.086	0.303	0.139
-433.690	-54.777	0.654	-0.297
-432.676	-118.108	-0.124	0.022
-431.661	-200.000	-0.056	0.920
-430.646	-200.000	0.060	0.394
-429.632	417.085	-0.182	-0.391
-428.617	600.729	0.301	-0.750
-427.603	14.424	-0.157	0.123
-426.588	338.439	0.560	1.096
-425.573	-200.000	0.042	0.584
-424.559	800.000	-0.204	0.878
-423.544	-200.000	0.015	0.150
-422.530	-183.002	-0.793	-0.014
-421.515	800.000	-0.148	0.449
-420.500	-121.393	-0.209	0.035
-419.486	648.459	-0.169	-0.434
-418.471	800.000	0.118	-0.406
-417.457	-200.000	0.030	-0.216
-416.442	-115.154	0.480	0.091
-415.428	-200.000	-0.023	-0.558
-414.413	60.859	-0.734	-0.731
-413.398	-115.054	-0.591	0.113
-412.384	-200.000	-0.082	0.713
-411.369	-87.186	0.771	0.235
-410.355	-200.000	-0.042	0.767
-409.340	286.099	0.410	0.743
-408.325	552.842	-0.245	0.590
-407.311	231.388	0.352	-0.579
-406.296	-200.000	-0.063	0.327
-405.282	146.667	0.395	-0.532
-404.267	800.000	0.291	1.181
-403.252	10.999	0.417	-0.320
-402.238	-200.000	0.037	-0.993
-401.223	-78.426	-0.693	0.238
-400.209	-95.682	0.538	-0.144
-399.194	-163.679	0.179	-0.008
-398.179	-200.000	-0.002	-0.521
-397.165	-200.000	0.049	-0.314
-396.150	759.630	0.208	0.567
-395.136	145.658	-0.231	0.311
-394.121	576.498	-0.422	1.035
-393.106	65.460	0.389	-0.395
-392.092	800.000	0.099	-0.423
-391.077	241.855	0.219	-0.367
-390.063	-143.070	0.145	0.014
-389.048	23.746	0.136	-0.112
-388.033	-49.248	0.508	-0.243
-387.019	645.221	-0.197	-0.504
-386.004	192.663	0.220	0.333
-384.990	-200.000	-0.073	0.410
-383.975	205.822	-0.440	-0.686
-382.960	186.502	-0.310	0.462
-381.946	-13.109	0.953	-0.621
-380.931	757.745	0.210	-0.571
-379.917	362.719	0.236	0.475
-378.902	-45.452	-0.575	-0.286
-377.888	244.565	-0.258	-0.435
-376.873	-69.699	-0.612	0.234
-375.858	21.580	-0.243	0.198
-374.844	-122.659	0.597	-0.097
-373.829	-9.261	0.670	0.449
-372.815	762.558	0.111	0.302
-371.800	96.654	-0.262	-0.301
-370.785	519.856	-0.280	-0.657
-369.771	-50.275	-0.596	0.282
-368.756	0.494	0.869	0.623
-367.742	-85.950	-0.376	0.117
-366.727	158.500	0.125	-0.174
-365.712	454.995	0.263	-0.583
-364.698	280.149	-0.158	0.283
-363.683	160.629	0.267	0.373
-362.669	-200.000	0.027	-0.314
-361.654	143.091	0.361	0.481
-360.639	-61.291	-0.412	0.174
-359.625	-14.551	-0.880	-0.567
-358.610	8.662	0.780	0.589
-357.596	-200.000	0.010	-0.077
-356.581	-120.265	-0.018	-0.003
-355.566	-117.807	0.279	0.050
-354.552	-91.377	-0.341	-0.098
-353.537	391.111	0.258	-0.537
-352.523	-172.728	-0.418	-0.013
-351.508	-91.615	-0.539	0.154
-350.493	-127.043	-0.680	-0.100
-349.479	349.018	0.256	-0.505
-348.464	-141.595	-0.578	0.058
-347.450	-104.713	0.205	0.047
-346.435	-56.852	0.361	-0.160
-345.420	183.383	-0.168	0.248
-344.406	-130.335	-0.373	-0.051
-343.391	-111.353	0.304	-0.062
-342.377	211.073	0.416	0.655
-341.362	220.586	-0.286	0.459
-340.348	10.196	0.323	0.246
-339.333	-200.000	-0.029	-0.136
-338.318	-108.896	0.710	-0.152
-337.304	228.731	0.286	0.466
-336.289	165.451	-0.338	-0.478
-335.275	800.000	-0.140	-0.563
-334.260	800.000	0.323	1.000
-333.245	-143.739	0.384	0.036
-332.231	431.703	-0.279	-0.606
-331.216	-200.000	-0.012	-0.264
-330.202	245.851	0.123	0.207
-329.187	-12.027	0.297	-0.195
-328.172	800.000	-0.222	0.898
-327.158	387.067	0.419	-0.865
-326.143	-70.702	-0.455	-0.172
-325.129	5.711	0.566	0.418
-324.114	239.851	-0.303	0.505
-323.099	-170.070	-1.040	-0.037
-322.085	3.345	-0.543	-0.396
-321.070	-139.098	-0.555	0.060
-320.056	194.536	0.450	-0.683
-319.041	-81.272	0.617	-0.204
-318.026	155.791	-0.143	0.196
-317.012	7.966	0.666	-0.499
-315.997	-4.321	0.818	0.566
-314.983	-183.355	-0.749	0.013
-313.968	450.272	0.096	0.213
-312.953	-79.450	1.025	-0.347
-311.939	800.000	-0.069	-0.194
-310.924	-200.000	0.026	0.204
-309.910	519.319	0.180	0.421
-308.895	-137.670	0.356	0.040
-307.880	-93.809	0.306	0.084
-306.866	189.779	-0.133	0.199
-305.851	166.609	-0.203	0.288
-304.837	36.420	-0.163	0.144
-303.822	800.000	-0.308	-0.894
-302.807	-70.820	-0.399	-0.150
-301.793	800.000	0.224	0.762
-300.778	527.272	-0.107	0.253
-299.764	-200.000	-0.016	0.469
-298.749	-194.704	-0.149	-0.001
-297.735	800.000	0.143	-0.455
-296.720	800.000	-0.331	0.969
-295.705	267.066	-0.163	0.285
-294.691	26.728	0.646	-0.540
-293.676	-57.622	0.672	0.294
-292.662	-30.505	0.739	0.418
-291.647	748.714	0.138	0.372
-290.632	800.000	-0.138	-0.408
-289.618	548.731	0.223	-0.534
-288.603	103.547	-0.351	0.411
-287.589	314.703	0.337	0.634
-286.574	21.673	-0.345	0.281
-285.559	-26.101	-0.376	0.221
-284.545	800.000	-0.195	-0.679
-283.530	-93.477	-0.094	0.026
-282.516	539.355	-0.098	-0.232
-281.501	-200.000	-0.295	0.001
-280.486	-124.467	-0.485	-0.075
-279.472	800.000	-0.105	-0.381
-278.457	43.571	0.976	-0.891
-277.443	-200.000	0.541	-0.001
-276.428	-133.678	0.520	0.065
-275.413	-143.198	-0.225	0.022
-274.399	-3.852	-0.151	-0.105
-273.384	-155.957	-0.553	-0.035
-272.370	123.286	0.742	0.929
-271.355	800.000	-0.323	1.076
-270.340	-104.305	-0.304	0.070
-269.326	-200.000	-0.030	-1.204
-268.311	-117.035	0.144	-0.026
-267.297	7.207	0.393	0.293
-266.282	299.013	-0.476	-0.875
-265.267	472.759	0.146	0.327
-264.253	186.185	0.219	-0.324
-263.238	-21.965	-0.659	-0.400
-262.224	24.156	0.157	0.130
-261.209	-123.673	-0.724	-0.114
-260.195	40.433	0.156	0.140
-259.180	-200.000	-0.009	-0.591
-258.165	57.070	0.197	-0.192
-257.151	184.127	0.319	-0.471
-256.136	47.556	0.257	0.239
-255.122	373.020	0.277	0.563
-254.107	580.554	0.043	0.105
-253.092	-90.843	-0.725	-0.208
-252.078	167.253	-0.027	0.038
-251.063	160.218	0.558	-0.776
-250.049	-39.138	-0.802	0.421
-249.034	113.463	-0.304	-0.368
-248.019	-26.431	-0.372	0.218
-247.005	-121.777	0.346	-0.057
-245.990	37.046	-0.553	0.488
-244.976	195.530	-0.131	-0.198
-243.961	-89.795	0.388	0.113
-242.946	-32.218	0.929	0.517
-241.932	-5.203	-0.125	-0.086
-240.917	-145.746	0.757	0.067
-239.903	-200.000	0.038	0.440
-238.888	543.483	-0.230	-0.547
-237.873	-38.686	-0.557	-0.293
-236.859	-46.957	-0.378	-0.184
-235.844	457.170	0.165	0.366
-234.830	670.993	-0.340	-0.877
-233.815	477.625	-0.052	-0.118
-232.800	-200.000	0.095	0.913
-231.786	-87.726	-0.479	-0.144
-230.771	47.785	-0.339	0.315
-229.757	-85.116	0.662	-0.207
-228.742	-200.000	0.069	-0.535
-227.727	-68.450	0.756	0.292
-226.713	37.966	0.491	0.435
-225.698	-2.957	-0.199	0.139
-224.684	-52.346	-0.163	-0.075
-223.669	-200.000	0.092	0.437
-222.655	66.935	0.247	-0.251
-221.640	-74.841	-0.258	-0.092
-220.625	-74.772	-0.399	0.143
-219.611	75.500	-0.295	0.310
-218.596	0.445	0.525	-0.374
-217.582	-97.510	0.099	0.026
-216.567	34.803	-0.494	0.430
-215.552	106.957	0.573	0.678
-214.538	-124.708	0.346	0.053
-213.523	-200.000	-0.058	0.257
-212.509	305.484	-0.459	0.850
-211.494	-77.837	0.882	-0.303
-210.479	-200.000	0.036	0.272
-209.465	58.785	-0.347	-0.339
-208.450	-40.903	-0.248	0.128
-207.436	-27.219	-0.794	0.460
-206.421	-21.128	0.346	-0.211
-205.406	166.121	0.259	0.365
-204.392	100.917	-0.253	-0.293
-203.377	95.424	0.488	0.554
-202.363	-1.032	-0.200	-0.141
-201.348	-102.182	-0.833	0.199
-200.333	-44.349	-0.618	-0.308
-199.319	-200.000	0.028	-0.273
-198.304	157.589	-0.136	-0.188
-197.290	800.000	-0.270	-0.952
-196.275	-200.000	-0.014	-0.103
-195.260	79.964	0.523	0.559
-194.246	207.730	0.397	-0.617
-193.231	738.858	-0.245	0.654
-192.217	-200.000	0.153	1.028
-191.202	-158.586	-0.507	0.029
-190.187	14.623	0.235	0.183
-189.173	-38.478	0.364	0.191
-188.158	-160.547	-0.487	-0.026
-187.144	-5.600	0.086	0.059
-186.129	710.668	-0.318	0.838
-185.114	66.806	0.095	0.096
-184.100	-200.000	0.008	-0.427
-183.085	227.870	-0.504	-0.816
-182.071	446.721	-0.091	-0.198
-181.056	-50.100	-0.763	0.359
-180.042	15.834	-0.565	-0.442
-179.027	-200.000	-0.009	-0.051
-178.012	200.186	0.309	0.472
-176.998	-119.818	-0.349	0.060
-175.983	-99.802	-0.348	-0.087
-174.969	-200.000	0.124	0.600
-173.954	85.088	0.144	0.157
-172.939	-70.471	0.566	-0.213
-171.925	136.240	-0.360	-0.466
-170.910	65.650	-0.424	-0.427
-169.896	800.000	-0.155	-0.619
-168.881	400.775	-0.245	0.511
-167.866	-156.517	0.471	-0.029
-166.852	13.072	-0.448	-0.345
-165.837	-200.000	0.036	0.517
-164.823	33.848	-0.907	-0.785
-163.808	-136.338	0.459	-0.053
-162.793	315.816	0.469	-0.880
-161.779	235.531	-0.407	0.668
-160.764	-200.000	-0.052	-0.542
-159.750	73.412	0.448	0.466
-158.735	-29.533	0.556	-0.316
-157.720	800.000	-0.146	-0.576
-156.706	-1.736	-0.257	0.180
-155.691	-25.696	-0.120	-0.070
-154.677	-200.000	-0.042	-0.211
-153.662	271.140	0.135	-0.237
-152.647	138.228	-0.318	0.415
-151.633	117.262	0.445	-0.543
-150.618	-102.425	-0.627	-0.149
-149.604	145.512	0.584	-0.778
-148.589	-50.311	0.398	-0.187
-147.574	-200.000	-0.139	-0.986
-146.560	547.068	0.226	0.536
-145.545	67.012	-0.406	-0.411
-144.531	-8.010	0.543	-0.364
-143.516	100.485	0.183	-0.211
-142.502	800.000	-0.048	-0.146
-141.487	-200.000	-0.108	-0.639
-140.472	-76.061	0.145	0.051
-139.458	800.000	-0.162	-0.518
-138.443	-200.000	0.081	-0.466
-137.429	77.058	-0.498	-0.525
-136.414	82.060	-0.558	-0.601
-135.399	800.000	0.080	0.247
-134.385	-116.692	0.382	0.070
-133.370	308.262	-0.614	-1.139
-132.356	800.000	-0.287	0.832
-131.341	-153.293	0.594	-0.041
-130.326	495.506	0.253	-0.577
-129.312	-103.827	0.855	0.198
-128.297	-48.229	1.075	-0.515
-127.283	567.204	0.251	-0.606
-126.268	281.274	0.410	-0.728
-125.253	-118.223	0.505	-0.089
-124.239	-195.677	-0.472	-0.003
-123.224	-182.905	-0.480	-0.009
-122.210	-200.000	-0.145	-0.916
-121.195	205.602	0.097	-0.149
