DTS Sentinel unit serial number:	SN413079Multiplexer serial number:	ORYXHardware model number:	OX4-SRSoftware version number:	ORYX F/W v4.00 Oryx Data Collector v3.7.2.0data status	okinstallation	princeton_trtdifferential loss correction	single-endedforward channel	channel 4reverse channel	N/Adate	2019/09/15time	08:29:35forward acquisition time	60.00reverse acquisition time	0.00gamma	496.2192k internal	0.2305k external	0.2305temperature offset calibration	1.0024default loss term (dB/km)	0.3790temperature slope calibration	1.0000multiplexer offset coefficient	1.0000multiplexer slope coefficient	1.0000fibre end	0.00T internal ref (°C)	31.56T ext. ref 1 (°C)	4.97T ext. ref 2 (°C)	28.56length (m)	temperature (°C)	Stokes	anti-Stokes-747.200	138.052	-0.119	-0.158
-746.185	-111.268	0.142	0.030
-745.171	36.871	0.098	0.088
-744.156	182.273	0.166	0.249
-743.142	-200.000	0.007	0.230
-742.127	14.307	0.099	-0.078
-741.112	-86.584	-0.111	0.035
-740.098	134.057	-0.091	0.120
-739.083	-107.661	0.139	-0.031
-738.069	-158.572	0.002	0.000
-737.054	800.000	0.018	0.073
-736.039	-78.888	-0.345	-0.120
-735.025	113.641	0.126	-0.156
-734.010	-104.769	-0.233	-0.054
-732.996	114.424	0.161	-0.200
-731.981	213.743	0.076	0.123
-730.966	179.744	0.010	0.016
-729.952	-32.783	-0.198	-0.112
-728.937	60.591	0.039	-0.039
-727.923	-102.384	-0.116	-0.028
-726.908	408.719	0.116	-0.250
-725.894	-66.998	0.193	-0.078
-724.879	-15.806	0.048	-0.031
-723.864	236.158	-0.039	-0.066
-722.850	287.741	0.177	-0.325
-721.835	-200.000	-0.028	0.190
-720.821	-72.191	-0.244	-0.092
-719.806	208.283	0.190	0.302
-718.791	122.103	-0.260	-0.330
-717.777	54.789	0.323	-0.316
-716.762	370.991	-0.106	-0.219
-715.748	112.885	0.112	-0.137
-714.733	-176.710	-0.150	0.004
-713.718	-51.983	0.269	-0.127
-712.704	-65.142	0.192	-0.079
-711.689	107.914	0.115	0.139
-710.675	-10.968	-0.468	-0.314
-709.660	139.140	0.151	-0.202
-708.645	57.617	0.074	0.074
-707.631	-200.000	-0.039	0.342
-706.616	-47.081	0.183	-0.091
-705.602	-28.584	-0.190	0.111
-704.587	213.214	0.100	-0.161
-703.572	82.538	0.107	0.118
-702.558	438.432	0.041	-0.090
-701.543	-20.171	0.297	-0.186
-700.529	-200.000	-0.036	-0.166
-699.514	800.000	-0.110	-0.369
-698.499	94.041	-0.098	-0.113
-697.485	-23.695	-0.176	-0.107
-696.470	-44.886	-0.180	-0.091
-695.456	180.090	-0.209	0.311
-694.441	262.510	0.087	-0.154
-693.426	-142.771	-0.322	0.032
-692.412	-102.304	0.251	0.061
-691.397	31.375	0.064	0.056
-690.383	55.627	-0.108	0.106
-689.368	-33.786	-0.055	-0.031
-688.354	102.274	0.085	-0.101
-687.339	154.625	0.144	-0.200
-686.324	800.000	-0.051	0.181
-685.310	-128.607	0.583	-0.084
-684.295	-154.946	-0.278	0.019
-683.281	-200.000	-0.019	-0.156
-682.266	176.927	-0.140	-0.206
-681.251	-181.000	-0.112	-0.002
-680.237	-54.723	0.178	-0.082
-679.222	278.500	-0.084	0.152
-678.208	-200.000	-0.056	0.330
-677.193	-24.816	0.266	0.160
-676.178	183.875	-0.240	0.360
-675.164	-29.690	0.097	0.056
-674.149	-78.459	-0.341	0.119
-673.135	235.512	0.079	-0.132
-672.120	-104.566	-0.110	0.026
-671.105	113.386	-0.114	0.140
-670.091	800.000	0.058	-0.230
-669.076	-63.470	-0.260	0.108
-668.062	354.842	-0.136	0.273
-667.047	-200.000	-0.035	-0.211
-666.032	-19.444	0.071	0.045
-665.018	-124.853	-0.049	-0.008
-664.003	-111.732	-0.259	-0.053
-662.989	-57.809	0.239	0.106
-661.974	-37.920	0.134	-0.072
-660.959	-41.304	0.177	0.093
-659.945	800.000	-0.045	-0.135
-658.930	183.420	0.073	-0.110
-657.916	-37.950	0.236	0.127
-656.901	800.000	0.006	-0.017
-655.886	97.951	-0.162	-0.189
-654.872	-51.637	-0.541	-0.256
-653.857	-86.993	0.132	-0.041
-652.843	-200.000	0.035	0.162
-651.828	-50.303	-0.131	0.063
-650.814	-57.044	-0.167	-0.075
-649.799	-200.000	0.047	-0.454
-648.784	174.438	0.061	-0.090
-647.770	-61.964	-0.429	0.182
-646.755	-12.108	0.152	0.101
-645.741	-32.553	0.092	-0.052
-644.726	-200.000	0.020	0.109
-643.711	686.774	-0.104	0.277
-642.697	-51.305	0.151	-0.072
-641.682	-97.765	0.190	0.050
-640.668	-84.553	-0.160	0.051
-639.653	-200.000	-0.018	-0.203
-638.638	-200.000	-0.008	-0.187
-637.624	-129.823	0.324	-0.045
-636.609	-73.359	-0.140	-0.052
-635.595	369.098	-0.158	0.325
-634.580	293.194	0.108	-0.200
-633.565	172.847	0.065	-0.095
-632.551	-78.014	0.207	-0.072
-631.536	-200.000	-0.032	-0.260
-630.522	14.864	-0.255	0.202
-629.507	-122.001	-0.039	0.007
-628.492	13.451	0.062	0.049
-627.478	3.898	-0.024	-0.018
-626.463	-99.632	0.214	-0.054
-625.449	-70.037	0.177	0.068
-624.434	147.496	0.021	0.029
-623.419	247.412	-0.125	0.214
-622.405	-81.825	-0.182	-0.060
-621.390	3.522	-0.073	-0.054
-620.376	665.964	0.082	-0.216
-619.361	800.000	-0.070	0.236
-618.346	-88.356	0.100	0.030
-617.332	-55.545	-0.129	0.058
-616.317	-80.778	0.049	0.016
-615.303	-173.649	-0.140	-0.004
-614.288	-34.222	0.124	0.069
-613.273	82.287	0.290	-0.318
-612.259	173.728	0.030	0.044
-611.244	204.344	0.189	0.296
-610.230	-28.571	0.172	0.100
-609.215	-200.000	-0.017	0.252
-608.201	-200.000	0.013	0.218
-607.186	800.000	0.065	-0.231
-606.171	-59.734	-0.259	0.112
-605.157	407.663	0.088	-0.189
-604.142	8.355	-0.179	0.136
-603.128	352.536	-0.049	-0.098
-602.113	93.849	0.311	-0.357
-601.098	-43.455	-0.106	-0.054
-600.084	-200.000	0.059	0.274
-599.069	-200.000	0.022	0.102
-598.055	-3.248	0.308	-0.218
-597.040	503.948	0.085	0.198
-596.025	52.181	0.107	-0.103
-595.011	800.000	-0.069	0.267
-593.996	-175.309	-0.146	-0.004
-592.982	800.000	-0.044	0.156
-591.967	99.327	-0.156	-0.182
-590.952	512.998	-0.104	0.244
-589.938	278.081	0.121	-0.217
-588.923	-145.137	-0.112	-0.010
-587.909	-115.759	0.034	-0.006
-586.894	88.447	0.110	-0.124
-585.879	-200.000	-0.013	-0.155
-584.865	-200.000	0.019	0.188
-583.850	-64.650	-0.217	0.089
-582.836	800.000	0.099	-0.400
-581.821	193.965	-0.165	0.253
-580.806	27.768	-0.211	0.180
-579.792	-37.366	0.159	-0.086
-578.777	110.666	-0.114	-0.139
-577.763	52.224	0.188	-0.181
-576.748	-86.162	-0.026	-0.008
-575.733	27.876	-0.136	0.116
-574.719	-5.771	0.020	0.014
-573.704	800.000	0.097	-0.365
-572.690	160.369	0.061	-0.086
-571.675	-136.236	-0.304	-0.036
-570.661	-76.732	-0.209	0.074
-569.646	171.192	-0.067	0.098
-568.631	257.071	0.078	-0.135
-567.617	-150.340	-0.039	0.003
-566.602	7.959	0.224	0.169
-565.588	-122.556	0.192	-0.031
-564.573	-36.730	-0.159	-0.087
-563.558	23.645	-0.171	0.143
-562.544	-200.000	-0.044	-0.281
-561.529	800.000	0.032	-0.114
-560.515	92.410	-0.129	-0.147
-559.500	-130.444	-0.464	0.063
-558.485	11.562	-0.264	-0.204
-557.471	800.000	0.045	-0.152
-556.456	-200.000	0.007	0.134
-555.442	15.488	-0.289	-0.230
-554.427	639.940	0.092	-0.235
-553.412	-116.783	0.145	-0.027
-552.398	197.275	-0.087	-0.134
-551.383	129.411	-0.167	-0.215
-550.369	-34.241	-0.036	0.020
-549.354	414.986	0.173	0.372
-548.339	-112.704	-0.093	0.019
-547.325	9.747	0.596	-0.457
-546.310	-200.000	-0.014	0.088
-545.296	-200.000	0.019	-0.161
-544.281	-133.368	0.072	0.009
-543.266	-65.486	-0.252	0.102
-542.252	229.359	-0.180	-0.297
-541.237	198.344	-0.115	-0.178
-540.223	-200.000	-0.043	-0.191
-539.208	780.937	0.063	0.174
-538.193	325.368	-0.094	-0.181
-537.179	167.518	0.062	-0.089
-536.164	259.920	0.043	0.075
-535.150	76.792	-0.089	0.095
-534.135	746.916	0.107	0.292
-533.121	800.000	-0.090	0.254
-532.106	-61.741	-0.102	0.043
-531.091	26.300	0.108	0.091
-530.077	-166.367	-0.188	-0.008
-529.062	-85.289	-0.114	-0.036
-528.048	800.000	-0.079	0.307
-527.033	129.126	0.107	-0.138
-526.018	126.356	-0.052	-0.066
-525.004	53.958	-0.218	0.211
-523.989	46.349	-0.085	0.079
-522.975	800.000	0.035	-0.104
-521.960	-116.611	-0.134	0.025
-520.945	-200.000	0.037	0.181
-519.931	179.475	0.125	0.185
-518.916	-47.119	-0.364	-0.179
-517.902	-200.000	0.018	-0.222
-516.887	-125.749	0.363	-0.055
-515.872	800.000	0.061	0.209
-514.858	800.000	-0.080	-0.233
-513.843	-125.346	0.211	-0.032
-512.829	-105.577	-0.218	0.050
-511.814	-165.471	0.287	0.013
-510.799	-88.470	0.398	0.120
-509.785	-139.784	-0.189	-0.020
-508.770	55.992	-0.032	-0.031
-507.756	117.288	0.106	0.132
-506.741	9.883	0.412	0.315
-505.726	800.000	0.040	-0.126
-504.712	-176.400	-0.247	0.006
-503.697	-160.002	-0.115	-0.006
-502.683	-200.000	0.003	0.504
-501.668	97.818	-0.083	0.096
-500.653	334.136	-0.131	0.255
-499.639	-153.361	0.106	0.007
-498.624	212.398	0.192	0.305
-497.610	-200.000	-0.033	-0.155
-496.595	800.000	-0.038	-0.106
-495.581	-99.113	0.217	-0.055
-494.566	124.467	-0.157	0.198
-493.551	-36.850	-0.451	0.244
-492.537	-100.825	0.208	-0.052
-491.522	-25.690	-0.056	-0.033
-490.508	800.000	-0.105	-0.311
-489.493	-10.182	-0.076	0.051
-488.478	-200.000	-0.025	-0.144
-487.464	-176.912	0.253	0.006
-486.449	-200.000	-0.029	0.152
-485.435	-168.493	-0.176	-0.007
-484.420	-100.242	0.334	0.084
-483.405	38.124	-0.368	-0.330
-482.391	115.276	0.045	-0.056
-481.376	50.492	-0.175	0.166
-480.362	800.000	-0.093	0.278
-479.347	-75.923	0.107	0.038
-478.332	-200.000	0.029	0.265
-477.318	800.000	-0.076	-0.215
-476.303	-50.469	0.151	0.072
-475.289	-200.000	-0.013	-0.256
-474.274	4.445	-0.162	0.119
-473.259	-40.717	-0.160	-0.084
-472.245	-31.394	0.061	-0.035
-471.230	162.504	-0.203	0.286
-470.216	-200.000	-0.037	0.179
-469.201	378.250	-0.054	0.112
-468.186	800.000	-0.104	0.386
-467.172	192.727	-0.045	-0.069
-466.157	-99.317	-0.108	0.027
-465.143	800.000	0.053	-0.170
-464.128	112.817	-0.075	-0.091
-463.113	194.195	-0.160	-0.245
-462.099	-85.075	-0.131	0.041
-461.084	-200.000	0.001	0.128
-460.070	-123.538	0.084	-0.013
-459.055	428.618	-0.150	-0.326
-458.040	112.919	-0.160	-0.195
-457.026	355.757	-0.155	-0.310
-456.011	-120.895	-0.216	0.037
-454.997	-164.615	0.152	-0.007
-453.982	65.275	0.182	-0.185
-452.968	800.000	0.034	-0.115
-451.953	-200.000	-0.009	0.269
-450.938	103.818	-0.077	0.091
-449.924	-174.446	0.202	-0.006
-448.909	-18.728	0.053	0.033
-447.895	35.799	-0.152	0.134
-446.880	95.868	-0.115	0.132
-445.865	673.545	-0.050	0.131
-444.851	685.402	-0.028	0.074
-443.836	-200.000	-0.020	-0.098
-442.822	-200.000	-0.019	-0.124
-441.807	-130.619	-0.175	-0.024
-440.792	-100.522	-0.169	0.042
-439.778	-104.498	-0.317	0.074
-438.763	25.868	-0.244	-0.205
-437.749	64.605	-0.135	0.137
-436.734	57.740	-0.050	-0.049
-435.719	-134.638	-0.081	0.010
-434.705	170.704	0.093	0.135
-433.690	800.000	0.063	0.206
-432.676	-200.000	-0.006	0.099
-431.661	543.557	-0.054	-0.129
-430.646	-83.712	0.090	-0.029
-429.632	-164.169	0.043	-0.002
-428.617	-120.784	0.129	0.022
-427.603	800.000	0.077	-0.270
-426.588	632.532	0.141	-0.360
-425.573	645.148	-0.039	0.099
-424.559	-75.289	0.186	-0.067
-423.544	800.000	-0.089	-0.275
-422.530	-200.000	0.023	-0.180
-421.515	-50.835	-0.320	0.151
-420.500	-109.221	0.406	-0.087
-419.486	66.080	0.268	-0.273
-418.471	-200.000	-0.031	-0.145
-417.457	45.407	-0.133	0.123
-416.442	446.290	-0.169	0.373
-415.428	263.646	0.148	0.259
-414.413	-200.000	-0.021	0.149
-413.398	148.358	-0.166	-0.225
-412.384	49.623	-0.115	0.109
-411.369	595.164	-0.135	0.337
-410.355	411.419	-0.076	0.163
-409.340	-200.000	0.007	0.092
-408.325	-80.536	0.336	0.113
-407.311	700.966	-0.134	0.354
-406.296	800.000	-0.052	0.172
-405.282	800.000	-0.123	-0.377
-404.267	182.056	-0.123	-0.182
-403.252	6.560	-0.211	0.157
-402.238	-200.000	-0.045	0.435
-401.223	420.778	0.166	-0.358
-400.209	800.000	0.047	0.136
-399.194	-89.769	-0.123	0.036
-398.179	86.816	-0.163	-0.181
-397.165	52.594	0.145	0.139
-396.150	-99.982	-0.319	-0.080
-395.136	-33.684	0.154	-0.085
-394.121	-33.069	-0.309	0.172
-393.106	58.073	0.058	-0.057
-392.092	-200.000	-0.001	-0.219
-391.077	-46.147	0.117	-0.058
-390.063	-106.836	-0.077	0.017
-389.048	-5.772	-0.083	0.057
-388.033	-55.326	-0.330	-0.149
-387.019	-115.951	-0.277	0.052
-386.004	-22.502	-0.308	0.187
-384.990	-127.134	0.116	-0.017
-383.975	-76.776	0.356	-0.125
-382.960	-179.234	0.037	0.001
-381.946	-69.901	-0.142	-0.054
-380.931	-130.826	0.309	0.042
-379.917	-7.255	0.231	0.157
-378.902	-66.017	-0.287	-0.115
-377.888	-79.326	0.164	-0.056
-376.873	423.782	-0.038	0.083
-375.858	245.913	-0.074	-0.126
-374.844	-170.828	0.126	-0.004
-373.829	800.000	-0.066	-0.188
-372.815	2.533	0.137	-0.100
-371.800	14.560	-0.370	0.290
-370.785	-36.323	0.142	-0.077
-369.771	-157.409	-0.178	-0.011
-368.756	263.327	-0.028	0.049
-367.742	63.721	0.283	0.285
-366.727	151.890	0.134	-0.183
-365.712	-200.000	-0.033	0.219
-364.698	309.616	0.017	0.032
-363.683	350.528	-0.135	-0.267
-362.669	-200.000	0.003	-0.035
-361.654	38.033	-0.289	0.257
-360.639	-106.082	-0.367	0.083
-359.625	800.000	-0.021	-0.079
-358.610	-115.047	-0.307	0.058
-357.596	190.509	0.165	0.249
-356.581	120.200	0.091	0.113
-355.566	313.418	-0.137	-0.259
-354.552	-4.088	0.070	-0.048
-353.537	-200.000	-0.029	0.221
-352.523	-200.000	0.050	0.301
-351.508	327.682	0.042	0.081
-350.493	170.538	-0.175	0.251
-349.479	145.410	-0.023	0.031
-348.464	217.747	0.119	0.191
-347.450	43.983	0.196	-0.180
-346.435	-36.732	0.278	0.150
-345.420	333.354	0.120	0.232
-344.406	-200.000	0.058	-0.294
-343.391	-94.536	-0.150	0.041
-342.377	184.131	-0.123	-0.183
-341.362	800.000	-0.058	-0.194
-340.348	-200.000	-0.003	-0.206
-339.333	-47.672	-0.226	-0.110
-338.318	-46.888	-0.184	0.090
-337.304	380.405	0.100	-0.205
-336.289	-7.899	-0.345	0.233
-335.275	107.053	0.170	-0.203
-334.260	-200.000	-0.044	-0.258
-333.245	-200.000	0.014	0.207
-332.231	-70.840	-0.246	0.093
-331.216	-200.000	-0.005	0.309
-330.202	-113.122	0.225	-0.044
-329.187	93.765	-0.114	-0.129
-328.172	-200.000	-0.003	0.178
-327.158	243.026	0.168	-0.283
-326.143	690.972	0.067	0.175
-325.129	477.167	0.077	0.174
-324.114	800.000	-0.054	-0.176
-323.099	424.151	0.036	0.077
-322.085	800.000	-0.084	-0.296
-321.070	9.644	0.080	-0.061
-320.056	-200.000	0.027	0.133
-319.041	99.622	0.213	-0.247
-318.026	110.080	-0.022	0.026
-317.012	616.174	0.047	0.117
-315.997	800.000	-0.077	-0.240
-314.983	234.905	0.065	0.107
-313.968	193.123	-0.089	0.135
-312.953	443.553	-0.105	-0.230
-311.939	133.205	-0.066	-0.085
-310.924	-172.928	0.252	-0.008
-309.910	671.865	-0.115	0.298
-308.895	-200.000	0.085	-0.381
-307.880	-142.221	0.427	0.042
-306.866	-109.693	-0.114	0.024
-305.851	287.720	-0.224	0.404
-304.837	-87.752	0.071	-0.021
-303.822	-200.000	0.001	0.140
-302.807	-75.853	0.024	-0.009
-301.793	-136.454	0.131	-0.015
-300.778	101.611	0.113	0.132
-299.764	-158.766	0.175	0.010
-298.749	-37.015	0.410	0.220
-297.735	-200.000	0.028	-0.159
-296.720	-134.209	0.489	0.060
-295.705	800.000	0.041	-0.141
-294.691	-64.271	0.280	0.114
-293.676	-165.754	-0.170	-0.007
-292.662	83.133	-0.099	0.108
-291.647	-84.537	-0.083	-0.026
-290.632	-200.000	0.038	-0.186
-289.618	-117.112	0.218	-0.040
-288.603	-10.219	-0.055	0.037
-287.589	12.394	0.304	-0.234
-286.574	65.740	0.146	0.148
-285.559	-70.214	0.297	-0.113
-284.545	-200.000	-0.007	-0.126
-283.530	-66.936	-0.166	-0.065
-282.516	28.921	0.246	-0.209
-281.501	-140.853	-0.100	-0.010
-280.486	104.407	-0.178	0.210
-279.472	78.432	0.078	0.084
-278.457	-70.630	-0.172	-0.065
-277.443	-200.000	0.014	0.241
-276.428	-65.348	-0.131	-0.053
-275.413	43.273	-0.170	0.155
-274.399	512.510	-0.045	-0.104
-273.384	-200.000	-0.017	0.277
-272.370	373.018	0.112	-0.227
-271.355	178.398	0.097	-0.141
-270.340	56.163	0.135	0.131
-269.326	-200.000	-0.007	0.103
-268.311	102.753	-0.134	-0.157
-267.297	79.508	0.053	0.057
-266.282	-104.404	-0.043	-0.010
-265.267	-188.149	0.120	-0.002
-264.253	800.000	0.081	-0.313
-263.238	58.810	0.371	-0.365
-262.224	310.516	0.044	-0.083
-261.209	86.259	0.213	-0.234
-260.195	800.000	-0.056	0.242
-259.180	-26.777	0.135	0.079
-258.165	800.000	-0.086	0.260
-257.151	-25.423	-0.113	-0.067
-256.136	800.000	0.033	0.144
-255.122	242.583	0.154	-0.258
-254.107	-25.796	-0.226	-0.133
-253.092	-70.641	0.105	-0.039
-252.078	800.000	0.016	0.055
-251.063	800.000	-0.072	0.313
-250.049	-50.752	-0.256	0.120
-249.034	62.011	0.017	-0.017
-248.019	-114.958	-0.248	0.047
-247.005	11.510	0.183	-0.140
-245.990	75.312	0.185	0.194
-244.976	234.391	-0.154	-0.254
-243.961	529.847	-0.098	-0.232
-242.946	69.053	0.027	0.028
-241.932	79.291	0.067	0.072
-240.917	5.320	-0.281	-0.207
-239.903	81.453	0.036	-0.038
-238.888	-200.000	-0.028	0.139
-237.873	-48.945	0.338	-0.162
-236.859	-29.908	-0.370	0.210
-235.844	800.000	0.088	-0.342
-234.830	-119.250	-0.216	-0.038
-233.815	757.842	0.103	-0.278
-232.800	277.885	-0.090	0.160
-231.786	17.277	0.060	0.047
-230.771	57.095	0.250	0.243
-229.757	-200.000	0.044	0.323
-228.742	339.183	0.063	0.123
-227.727	-200.000	0.003	0.110
-226.713	193.293	-0.107	-0.162
-225.698	-23.282	0.270	-0.162
-224.684	212.081	0.144	-0.227
-223.669	-83.703	-0.227	0.072
-222.655	-17.584	0.190	-0.119
-221.640	800.000	-0.027	-0.097
-220.625	-200.000	-0.036	-0.223
-219.611	-35.327	-0.090	0.049
-218.596	-200.000	0.011	0.103
-217.582	233.202	0.126	-0.206
-216.567	800.000	0.094	-0.373
-215.552	-141.440	0.459	0.046
-214.538	81.564	-0.083	0.089
-213.523	-149.190	-0.142	-0.011
-212.509	-200.000	0.017	-0.310
-211.494	-200.000	-0.027	0.296
-210.479	22.272	0.224	0.183
-209.465	-200.000	0.015	0.246
-208.450	-26.916	-0.187	0.109
-207.436	606.528	0.051	-0.127
-206.421	-200.000	-0.038	-0.168
-205.406	-92.789	0.279	0.078
-204.392	-200.000	0.119	-0.532
-203.377	800.000	-0.190	-0.657
-202.363	440.190	0.154	-0.336
-201.348	-54.010	-0.060	0.027
-200.333	-156.110	-0.314	-0.020
-199.319	800.000	-0.030	-0.109
-198.304	74.491	-0.026	-0.027
-197.290	37.128	0.535	0.471
-196.275	-97.005	0.223	-0.058
-195.260	-200.000	0.029	0.127
-194.246	-139.534	0.362	0.038
-193.231	21.042	0.049	0.039
-192.217	26.838	0.130	-0.108
-191.202	-89.315	0.022	0.006
-190.187	-177.489	0.186	0.005
-189.173	-90.875	0.108	-0.031
-188.158	31.594	-0.230	-0.197
-187.144	-52.349	0.175	0.081
-186.129	-200.000	0.017	0.257
-185.114	-182.953	-0.172	-0.003
-184.100	-200.000	0.049	-0.306
-183.085	243.820	0.219	0.367
-182.071	-192.189	-0.162	-0.002
-181.056	-96.382	0.086	-0.023
-180.042	-97.887	0.187	0.048
-179.027	-200.000	0.004	0.055
-178.012	-87.157	-0.064	-0.019
-176.998	-200.000	0.005	0.371
-175.983	-109.951	0.255	-0.053
-174.969	-18.872	0.267	0.166
-173.954	98.053	-0.274	0.314
-172.939	13.847	0.147	0.114
-171.925	-14.243	-0.061	0.039
-170.910	-148.680	0.153	-0.012
-169.896	-44.273	0.098	0.049
-168.881	-200.000	-0.050	-0.234
-167.866	-169.527	-0.195	0.007
-166.852	-200.000	-0.015	0.077
-165.837	-84.651	-0.117	-0.037
-164.823	-30.996	0.100	0.056
-163.808	-8.019	0.135	0.091
-162.793	365.005	-0.110	-0.221
-161.779	-133.319	-0.372	0.047
-160.764	-111.969	-0.075	0.015
-159.750	0.529	-0.138	-0.098
-158.735	-120.690	-0.126	-0.021
-157.720	-68.518	0.351	0.135
-156.706	-165.423	0.437	0.019
-155.691	800.000	-0.089	-0.279
-154.677	23.661	-0.186	0.153
-153.662	-200.000	0.020	0.134
-152.647	-200.000	-0.002	-0.057
-151.633	62.154	0.186	0.185
-150.618	800.000	0.069	0.204
-149.604	520.193	0.083	-0.193
-148.589	758.307	0.094	0.254
-147.574	-200.000	-0.020	0.138
-146.560	-1.446	0.249	-0.175
-145.545	-18.768	-0.133	-0.083
-144.531	-73.864	-0.293	-0.106
-143.516	-200.000	0.020	0.406
-142.502	-200.000	-0.051	0.262
-141.487	-31.142	-0.191	-0.107
-140.472	102.241	-0.280	0.325
-139.458	-62.851	0.268	0.110
-138.443	299.730	0.113	0.208
-137.429	800.000	-0.016	0.058
-136.414	800.000	-0.106	-0.435
-135.399	800.000	-0.044	-0.143
-134.385	198.401	-0.107	0.163
-133.370	-200.000	0.020	-0.197
-132.356	175.884	0.099	-0.143
-131.341	-200.000	-0.214	0.000
-130.326	51.763	0.122	-0.115
-129.312	-200.000	-0.034	0.280
-128.297	-23.934	-0.095	0.056
-127.283	800.000	0.050	0.187
-126.268	89.739	0.185	0.205
-125.253	-59.057	0.186	0.080
-124.239	791.930	0.111	0.302
-123.224	-65.675	-0.029	0.012
-122.210	189.494	0.056	0.083
-121.195	100.984	0.178	-0.206
