DTS Sentinel unit serial number:	SN413079Multiplexer serial number:	ORYXHardware model number:	OX4-SRSoftware version number:	ORYX F/W v4.00 Oryx Data Collector v3.7.2.0data status	okinstallation	princeton_trtdifferential loss correction	single-endedforward channel	channel 4reverse channel	N/Adate	2019/09/19time	04:41:35forward acquisition time	60.00reverse acquisition time	0.00gamma	496.2192k internal	0.2340k external	0.2340temperature offset calibration	1.0027default loss term (dB/km)	0.3790temperature slope calibration	1.0000multiplexer offset coefficient	1.0000multiplexer slope coefficient	1.0000fibre end	0.00T internal ref (°C)	19.98T ext. ref 1 (°C)	0.61T ext. ref 2 (°C)	12.97length (m)	temperature (°C)	Stokes	anti-Stokes-747.200	-58.950	-0.344	0.149
-746.185	44.840	-0.129	0.119
-745.171	800.000	0.057	-0.172
-744.156	-79.868	-0.154	-0.052
-743.142	800.000	0.023	-0.093
-742.127	683.916	0.148	0.386
-741.112	-200.000	-0.032	-0.208
-740.098	555.642	-0.095	0.229
-739.083	15.454	-0.089	-0.070
-738.069	-200.000	0.048	0.314
-737.054	76.110	-0.184	0.195
-736.039	22.796	-0.113	-0.093
-735.025	72.223	0.113	-0.118
-734.010	-82.198	-0.277	0.091
-732.996	800.000	0.038	0.107
-731.981	800.000	-0.147	-0.581
-730.966	-157.701	0.045	-0.003
-729.952	30.919	0.168	0.144
-728.937	-142.502	-0.314	0.031
-727.923	-200.000	0.041	0.195
-726.908	-34.147	0.180	-0.099
-725.894	-136.439	0.359	-0.042
-724.879	30.962	-0.286	-0.246
-723.864	72.143	-0.109	0.114
-722.850	-70.928	-0.245	0.092
-721.835	-122.993	0.148	-0.024
-720.821	-141.347	-0.349	-0.035
-719.806	-4.583	-0.121	-0.084
-718.791	-4.367	-0.321	0.222
-717.777	-126.888	0.265	-0.039
-716.762	-129.192	-0.191	0.027
-715.748	800.000	-0.017	0.062
-714.733	80.631	0.161	0.174
-713.718	-43.893	-0.314	-0.158
-712.704	-17.164	0.177	-0.112
-711.689	-126.543	0.131	0.019
-710.675	601.648	0.038	0.094
-709.660	-33.421	-0.124	-0.069
-708.645	-95.331	0.100	-0.027
-707.631	-49.203	0.080	0.038
-706.616	-158.301	-0.144	0.008
-705.602	800.000	-0.063	-0.242
-704.587	800.000	-0.129	-0.480
-703.572	-200.000	0.008	-0.132
-702.558	24.835	-0.267	-0.222
-701.543	-200.000	-0.002	-0.229
-700.529	-125.158	-0.233	0.036
-699.514	-44.957	0.200	0.100
-698.499	177.459	0.100	0.146
-697.485	107.503	-0.145	-0.172
-696.470	72.586	-0.239	-0.250
-695.456	8.718	-0.281	-0.212
-694.441	125.508	0.110	-0.139
-693.426	-200.000	0.008	-0.245
-692.412	-64.921	0.178	0.072
-691.397	-117.083	-0.177	0.032
-690.383	-144.820	-0.104	-0.010
-689.368	2.459	0.108	-0.078
-688.354	77.400	0.154	0.164
-687.339	-97.871	-0.240	0.062
-686.324	-32.441	-0.105	-0.059
-685.310	6.042	-0.189	-0.140
-684.295	21.807	-0.086	0.070
-683.281	60.873	-0.088	-0.087
-682.266	-52.365	-0.239	-0.110
-681.251	-175.363	0.212	0.006
-680.237	241.686	0.073	-0.122
-679.222	634.818	-0.150	0.382
-678.208	800.000	0.126	0.365
-677.193	800.000	-0.051	-0.172
-676.178	-90.272	-0.173	0.050
-675.164	-200.000	-0.084	-0.437
-674.149	0.830	0.228	0.163
-673.135	108.081	0.048	-0.057
-672.120	255.942	-0.050	0.085
-671.105	-200.000	0.017	0.166
-670.091	-174.048	0.386	-0.011
-669.076	287.268	-0.178	0.322
-668.062	-33.484	-0.095	0.052
-667.047	-80.366	-0.160	-0.053
-666.032	59.125	0.091	0.089
-665.018	-156.267	-0.407	0.026
-664.003	223.581	0.124	-0.200
-662.989	-200.000	-0.022	-0.143
-661.974	-157.234	0.565	0.034
-660.959	-108.298	0.325	0.070
-659.945	55.689	0.203	-0.197
-658.930	-159.229	-0.077	0.004
-657.916	-200.000	-0.043	-0.259
-656.901	64.515	-0.235	-0.237
-655.886	-26.032	0.045	0.026
-654.872	-200.000	-0.013	0.087
-653.857	-76.755	0.246	0.086
-652.843	358.014	0.184	0.367
-651.828	98.863	-0.055	0.063
-650.814	11.945	-0.285	-0.219
-649.799	-68.155	0.236	0.092
-648.784	405.094	0.185	0.389
-647.770	80.884	-0.236	0.254
-646.755	-200.000	-0.002	-0.179
-645.741	-134.313	-0.213	0.026
-644.726	101.694	-0.161	-0.188
-643.711	-17.018	-0.189	0.119
-642.697	800.000	0.040	-0.166
-641.682	-93.674	-0.183	0.051
-640.668	0.902	0.219	0.156
-639.653	631.415	-0.093	-0.234
-638.638	-159.373	0.080	0.004
-637.624	112.374	0.298	0.360
-636.609	-122.707	-0.078	0.013
-635.595	-7.294	-0.160	-0.108
-634.580	-200.000	-0.019	0.094
-633.565	800.000	0.020	0.065
-632.551	67.830	0.216	-0.221
-631.536	-24.900	-0.311	0.184
-630.522	-142.960	-0.285	0.028
-629.507	80.141	0.091	0.097
-628.492	-29.015	0.168	-0.096
-627.478	-67.655	-0.147	0.057
-626.463	-148.095	0.166	-0.014
-625.449	554.170	-0.135	0.324
-624.434	-81.865	-0.258	0.084
-623.419	17.378	-0.104	0.082
-622.405	-200.000	0.046	-0.424
-621.390	-34.337	-0.502	-0.275
-620.376	84.607	-0.059	0.065
-619.361	43.134	-0.171	-0.156
-618.346	-200.000	0.018	0.119
-617.332	16.395	-0.301	-0.237
-616.317	-25.116	-0.407	0.241
-615.303	-50.307	0.113	-0.053
-614.288	211.102	0.212	-0.332
-613.273	121.338	-0.061	0.076
-612.259	-200.000	0.003	-0.017
-611.244	-6.459	-0.198	-0.134
-610.230	-200.000	-0.078	0.361
-609.215	800.000	-0.064	-0.249
-608.201	-85.927	-0.126	-0.039
-607.186	349.369	-0.083	-0.164
-606.171	-200.000	0.076	0.374
-605.157	800.000	-0.060	-0.252
-604.142	800.000	0.011	0.047
-603.128	631.341	-0.140	0.354
-602.113	147.182	0.122	-0.164
-601.098	87.494	-0.108	0.119
-600.084	4.736	-0.113	-0.083
-599.069	-37.165	-0.089	-0.047
-598.055	336.351	-0.102	0.197
-597.040	-200.000	0.022	-0.105
-596.025	-193.125	-0.080	-0.001
-595.011	-151.644	-0.492	-0.036
-593.996	-42.988	0.192	-0.097
-592.982	800.000	0.065	-0.256
-591.967	-131.653	-0.160	0.021
-590.952	800.000	0.103	-0.363
-589.938	625.147	0.124	-0.311
-588.923	-117.044	-0.196	-0.036
-587.909	-62.400	0.246	0.102
-586.894	800.000	-0.023	-0.067
-585.879	-134.712	0.308	-0.037
-584.865	334.510	0.084	-0.163
-583.850	69.314	-0.296	-0.304
-582.836	-84.217	-0.307	0.097
-581.821	86.059	-0.099	-0.108
-580.806	800.000	0.026	0.097
-579.792	7.572	-0.143	-0.107
-578.777	277.140	0.151	0.267
-577.763	-45.109	-0.320	0.158
-576.748	104.596	-0.173	-0.204
-575.733	634.869	-0.097	0.246
-574.719	9.955	0.234	0.177
-573.704	-200.000	0.045	0.315
-572.690	-74.853	0.144	-0.051
-571.675	800.000	0.088	-0.287
-570.661	-39.787	0.180	0.094
-569.646	-98.535	0.375	0.095
-568.631	800.000	-0.053	0.213
-567.617	36.431	0.114	-0.100
-566.602	-142.443	0.074	0.007
-565.588	140.859	0.028	0.036
-564.573	-125.673	0.242	-0.036
-563.558	-157.486	0.250	-0.015
-562.544	-48.300	-0.252	-0.121
-561.529	-200.000	-0.049	-0.367
-560.515	71.846	-0.067	-0.070
-559.500	-17.642	-0.153	-0.096
-558.485	-23.568	0.315	-0.188
-557.471	192.839	0.095	-0.142
-556.456	800.000	0.034	0.138
-555.442	-81.109	-0.174	0.057
-554.427	-115.597	0.207	0.039
-553.412	82.943	0.250	0.270
-552.398	-200.000	0.006	0.097
-551.383	-15.269	-0.037	-0.024
-550.369	-19.738	0.370	-0.228
-549.354	-93.289	-0.231	0.064
-548.339	69.264	0.180	-0.184
-547.325	-95.259	0.096	0.026
-546.310	-122.671	-0.472	-0.076
-545.296	134.661	-0.164	0.212
-544.281	-161.285	0.360	-0.019
-543.266	-200.000	-0.028	-0.220
-542.252	125.079	-0.084	-0.105
-541.237	-82.163	0.238	-0.077
-540.223	-65.157	0.399	0.160
-539.208	-67.498	-0.162	-0.063
-538.193	701.584	0.009	-0.024
-537.179	800.000	0.054	0.198
-536.164	800.000	-0.051	-0.159
-535.150	800.000	0.116	0.341
-534.135	53.282	-0.044	-0.042
-533.121	800.000	-0.086	-0.277
-532.106	-200.000	0.044	-0.255
-531.091	-200.000	-0.025	0.224
-530.077	-159.861	0.234	-0.013
-529.062	-36.576	-0.243	0.130
-528.048	509.970	0.148	0.342
-527.033	800.000	0.088	-0.266
-526.018	0.025	-0.122	-0.087
-525.004	-81.699	0.206	0.067
-523.989	-200.000	-0.004	0.060
-522.975	390.024	0.111	-0.228
-521.960	-200.000	-0.109	-0.490
-520.945	88.637	0.174	-0.192
-519.931	230.511	0.111	-0.181
-518.916	800.000	-0.114	0.315
-517.902	-113.610	-0.409	0.079
-516.887	800.000	-0.039	0.167
-515.872	-68.913	0.386	-0.148
-514.858	108.988	0.122	-0.145
-513.843	-83.209	0.410	-0.131
-512.829	332.498	0.114	-0.219
-511.814	124.881	0.187	-0.234
-510.799	-88.191	0.397	0.118
-509.785	-155.937	-0.127	-0.008
-508.770	170.327	-0.143	0.203
-507.756	18.541	0.130	0.103
-506.741	279.596	0.178	-0.315
-505.726	-44.485	0.343	0.171
-504.712	-60.110	0.428	-0.181
-503.697	-41.722	-0.233	0.119
-502.683	-25.393	-0.172	-0.101
-501.668	-109.691	0.115	0.024
-500.653	129.732	-0.189	-0.239
-499.639	-200.000	0.028	-0.176
-498.624	376.080	0.065	-0.132
-497.610	153.694	0.068	0.092
-496.595	-200.000	-0.008	0.265
-495.581	-55.315	-0.078	-0.035
-494.566	123.481	0.123	0.153
-493.551	-120.160	0.180	-0.031
-492.537	95.266	-0.310	0.351
-491.522	-155.141	-0.567	-0.037
-490.508	-200.000	0.010	-0.073
-489.493	633.715	-0.098	0.246
-488.478	45.391	-0.050	0.046
-487.464	-200.000	-0.001	-0.112
-486.449	-200.000	0.067	0.346
-485.435	-200.000	0.050	0.420
-484.420	407.730	0.108	-0.226
-483.405	-146.042	-0.178	-0.016
-482.391	-200.000	-0.045	-0.202
-481.376	-136.923	-0.039	0.004
-480.362	800.000	0.078	0.335
-479.347	8.224	-0.120	0.090
-478.332	-149.519	0.275	-0.022
-477.318	-200.000	0.004	-0.063
-476.303	319.857	-0.049	0.092
-475.289	-53.001	0.097	-0.044
-474.274	-108.532	-0.345	-0.074
-473.259	800.000	-0.072	-0.272
-472.245	-185.727	0.351	0.005
-471.230	800.000	-0.022	0.069
-470.216	-30.372	-0.291	-0.164
-469.201	206.545	-0.110	-0.170
-468.186	188.615	-0.109	-0.162
-467.172	800.000	-0.091	0.326
-466.157	-8.375	0.268	-0.179
-465.143	-134.810	0.310	0.037
-464.128	46.621	-0.289	-0.266
-463.113	189.871	-0.187	-0.278
-462.099	178.398	0.124	0.180
-461.084	309.588	0.177	0.328
-460.070	800.000	-0.043	-0.121
-459.055	-105.064	-0.127	0.029
-458.040	99.674	-0.107	0.123
-457.026	44.874	-0.043	0.040
-456.011	-24.851	0.074	-0.044
-454.997	-0.441	-0.128	0.090
-453.982	-57.616	0.109	-0.047
-452.968	-200.000	0.034	-0.152
-451.953	-200.000	-0.008	0.099
-450.938	356.477	0.125	-0.247
-449.924	-115.505	-0.119	0.022
-448.909	-171.445	-0.046	-0.002
-447.895	-147.047	-0.262	-0.022
-446.880	-164.803	0.405	0.018
-445.865	-111.563	0.259	-0.052
-444.851	-131.233	0.353	-0.046
-443.836	108.231	-0.089	0.106
-442.822	-200.000	0.066	-0.303
-441.807	308.266	0.079	0.145
-440.792	-200.000	-0.016	0.198
-439.778	-3.465	0.184	-0.127
-438.763	209.649	0.223	0.347
-437.749	-22.627	0.072	0.043
-436.734	-122.297	-0.360	0.058
-435.719	-200.000	0.010	0.117
-434.705	-10.882	-0.314	-0.205
-433.690	262.419	-0.089	-0.153
-432.676	128.392	0.176	-0.221
-431.661	514.647	0.192	-0.444
-430.646	800.000	-0.035	-0.154
-429.632	-200.000	-0.027	0.240
-428.617	-200.000	-0.013	-0.198
-427.603	800.000	-0.136	-0.494
-426.588	2.402	-0.238	0.170
-425.573	-110.293	0.187	0.039
-424.559	-200.000	-0.023	0.167
-423.544	-162.475	-0.090	-0.004
-422.530	132.813	0.127	0.162
-421.515	21.516	0.086	-0.069
-420.500	-10.840	-0.081	0.053
-419.486	-200.000	-0.033	0.382
-418.471	800.000	0.030	-0.114
-417.457	-18.075	-0.188	-0.116
-416.442	-200.000	-0.022	-0.128
-415.428	-55.598	0.071	0.031
-414.413	-151.369	-0.144	0.011
-413.398	-20.696	0.032	-0.019
-412.384	435.208	-0.025	-0.054
-411.369	28.573	0.257	-0.215
-410.355	755.751	0.078	0.209
-409.340	-200.000	-0.027	-0.245
-408.325	-144.717	-0.241	0.022
-407.311	-133.317	-0.161	0.020
-406.296	-200.000	0.018	-0.322
-405.282	-65.242	-0.405	0.161
-404.267	272.600	0.226	0.395
-403.252	-30.734	0.038	-0.021
-402.238	81.408	0.235	0.251
-401.223	639.650	0.098	0.247
-400.209	-99.345	-0.233	0.058
-399.194	53.734	0.220	0.209
-398.179	652.877	0.118	0.300
-397.165	577.664	0.015	-0.036
-396.150	-137.174	-0.275	-0.031
-395.136	-123.310	0.214	-0.034
-394.121	-0.836	0.314	0.220
-393.106	-124.585	-0.026	0.004
-392.092	-200.000	-0.011	0.150
-391.077	-179.176	0.116	0.003
-390.063	-81.369	0.385	-0.125
-389.048	-200.000	-0.007	-0.248
-388.033	245.688	0.119	0.198
-387.019	-23.422	0.185	0.110
-386.004	-88.758	0.246	-0.072
-384.990	83.174	-0.075	-0.080
-383.975	37.634	0.214	0.188
-382.960	-200.000	-0.067	0.357
-381.946	-7.161	-0.243	-0.163
-380.931	-51.070	-0.157	0.073
-379.917	-52.978	0.377	0.172
-378.902	39.795	-0.139	-0.123
-377.888	88.747	0.120	-0.132
-376.873	59.383	-0.035	0.034
-375.858	-32.705	-0.198	-0.109
-374.844	-3.770	0.237	-0.162
-373.829	-117.838	-0.367	0.065
-372.815	-190.592	0.185	0.002
-371.800	454.311	-0.102	-0.223
-370.785	-200.000	-0.025	0.139
-369.771	264.178	0.070	0.120
-368.756	187.281	0.161	-0.237
-367.742	362.967	0.253	0.501
-366.727	-97.804	-0.396	0.101
-365.712	-34.033	-0.226	0.123
-364.698	-200.000	-0.071	-0.447
-363.683	-127.801	-0.364	0.052
-362.669	-38.784	0.095	-0.050
-361.654	-200.000	-0.016	-0.144
-360.639	322.875	-0.060	0.113
-359.625	-200.000	0.020	-0.154
-358.610	328.294	-0.038	0.072
-357.596	-200.000	-0.004	0.482
-356.581	800.000	-0.061	-0.188
-355.566	717.271	-0.037	0.096
-354.552	-200.000	0.023	0.157
-353.537	-129.714	0.446	0.061
-352.523	-15.945	-0.145	-0.091
-351.508	-174.493	-0.394	-0.011
-350.493	451.014	-0.053	0.115
-349.479	-200.000	-0.023	-0.134
-348.464	-155.003	0.127	-0.008
-347.450	165.604	-0.213	-0.298
-346.435	-200.000	-0.067	0.307
-345.420	800.000	0.086	-0.297
-344.406	-200.000	-0.007	0.181
-343.391	-32.820	-0.148	-0.081
-342.377	-200.000	0.035	-0.451
-341.362	618.229	0.086	0.214
-340.348	685.456	-0.117	-0.301
-339.333	-20.139	-0.200	-0.122
-338.318	-134.559	0.076	-0.009
-337.304	-55.130	-0.201	-0.089
-336.289	0.354	-0.385	-0.271
-335.275	-161.963	0.132	-0.007
-334.260	-96.153	0.208	0.055
-333.245	-76.077	0.114	-0.040
-332.231	-40.630	-0.077	0.039
-331.216	-167.443	0.188	-0.007
-330.202	-2.429	-0.133	-0.092
-329.187	120.081	0.057	-0.070
-328.172	154.629	0.100	-0.135
-327.158	-3.017	0.301	-0.207
-326.143	-200.000	-0.006	0.127
-325.129	-200.000	-0.009	0.236
-324.114	-200.000	0.047	0.492
-323.099	-157.668	-0.134	-0.008
-322.085	800.000	0.098	-0.313
-321.070	-123.383	0.385	-0.061
-320.056	5.715	-0.215	0.157
-319.041	-184.513	0.155	0.002
-318.026	426.834	0.079	-0.168
-317.012	-135.523	-0.064	0.008
-315.997	-88.708	0.300	0.088
-314.983	-99.326	0.136	0.034
-313.968	-170.220	-0.071	-0.002
-312.953	39.461	0.119	-0.105
-311.939	-200.000	-0.013	-0.133
-310.924	175.196	-0.034	0.049
-309.910	-24.346	0.282	0.166
-308.895	30.794	0.253	-0.214
-307.880	-57.419	-0.296	-0.128
-306.866	-200.000	0.014	-0.115
-305.851	-140.928	-0.374	0.038
-304.837	-147.893	0.257	-0.021
-303.822	-57.170	-0.362	-0.157
-302.807	-97.924	0.088	0.022
-301.793	-23.050	-0.332	0.197
-300.778	800.000	-0.103	0.337
-299.764	-200.000	0.014	-0.251
-298.749	21.630	-0.234	0.188
-297.735	78.381	-0.103	-0.108
-296.720	-106.112	0.095	-0.021
-295.705	-200.000	-0.032	0.271
-294.691	-18.443	-0.123	-0.076
-293.676	8.473	-0.122	-0.091
-292.662	-79.397	-0.128	0.043
-291.647	300.209	-0.200	0.363
-290.632	-200.000	0.047	-0.330
-289.618	800.000	-0.053	0.177
-288.603	165.451	-0.022	-0.031
-287.589	729.784	-0.137	0.362
-286.574	-45.682	0.047	0.023
-285.559	-200.000	0.004	0.200
-284.545	378.524	0.033	0.066
-283.530	602.562	0.146	0.357
-282.516	-47.776	-0.152	0.073
-281.501	66.221	-0.134	0.134
-280.486	-200.000	0.038	0.374
-279.472	-38.226	0.064	0.033
-278.457	17.106	-0.324	-0.253
-277.443	-69.904	0.218	-0.082
-276.428	-200.000	-0.024	0.129
-275.413	-105.180	-0.045	-0.010
-274.399	-24.966	-0.336	0.196
-273.384	0.980	0.230	-0.162
-272.370	-200.000	0.052	0.338
-271.355	-113.485	0.159	-0.031
-270.340	5.004	-0.078	-0.057
-269.326	-145.653	-0.346	0.030
-268.311	-200.000	-0.015	0.127
-267.297	-200.000	-0.022	-0.233
-266.282	-50.264	-0.231	-0.107
-265.267	16.152	-0.271	0.210
-264.253	22.542	0.152	0.122
-263.238	800.000	0.028	0.102
-262.224	-73.109	0.281	0.101
-261.209	-6.137	0.183	0.123
-260.195	-200.000	0.029	0.213
-259.180	-105.031	0.281	0.063
-258.165	-23.582	-0.134	0.079
-257.151	706.547	0.078	0.202
-256.136	8.414	-0.021	0.016
-255.122	520.235	-0.048	-0.111
-254.107	800.000	-0.073	-0.208
-253.092	-160.081	-0.380	0.020
-252.078	14.043	0.200	0.154
-251.063	-200.000	0.046	-0.213
-250.049	29.686	-0.262	-0.219
-249.034	-31.118	0.229	-0.127
-248.019	10.550	0.415	0.311
-247.005	368.847	-0.049	0.097
-245.990	-54.749	-0.174	0.077
-244.976	-124.255	-0.215	-0.033
-243.961	-200.000	0.012	0.086
-242.946	280.871	0.174	-0.306
-241.932	-200.000	0.045	0.261
-240.917	236.174	0.149	-0.243
-239.903	287.179	-0.184	-0.327
-238.888	-112.004	0.240	0.048
-237.873	-38.244	0.070	-0.036
-236.859	169.163	-0.093	0.131
-235.844	-200.000	0.033	-0.175
-234.830	83.769	-0.195	-0.209
-233.815	-200.000	-0.007	0.225
-232.800	-108.944	-0.032	-0.007
-231.786	19.766	-0.070	0.055
-230.771	800.000	0.089	0.322
-229.757	229.557	-0.086	0.138
-228.742	-55.851	-0.098	0.043
-227.727	-59.618	-0.186	-0.078
-226.713	-92.739	-0.354	-0.097
-225.698	-93.118	-0.094	0.026
-224.684	19.540	-0.220	0.174
-223.669	495.405	0.024	0.055
-222.655	107.112	0.258	-0.301
-221.640	-68.850	0.304	0.115
-220.625	302.827	0.047	0.086
-219.611	800.000	0.074	-0.275
-218.596	62.696	-0.118	0.116
-217.582	251.426	-0.014	-0.023
-216.567	-101.160	0.217	-0.052
-215.552	77.836	-0.086	-0.090
-214.538	19.475	0.309	-0.244
-213.523	4.295	0.029	-0.021
-212.509	51.877	0.108	0.101
-211.494	353.589	-0.197	-0.384
-210.479	2.710	-0.108	0.077
-209.465	23.822	0.200	0.162
-208.450	432.730	0.035	0.075
-207.436	-8.397	0.178	0.117
-206.421	-135.368	-0.248	-0.029
-205.406	-200.000	0.023	-0.346
-204.392	-107.158	0.255	-0.055
-203.377	-60.555	0.141	-0.059
-202.363	-103.145	-0.283	-0.066
-201.348	747.306	-0.113	0.299
-200.333	-200.000	0.041	0.240
-199.319	57.411	-0.170	0.163
-198.304	-107.600	-0.226	0.049
-197.290	85.275	-0.075	-0.081
-196.275	282.542	0.086	0.152
-195.260	-200.000	0.000	0.209
-194.246	-169.646	0.145	-0.005
-193.231	437.215	-0.026	-0.057
-192.217	-102.143	0.317	-0.075
-191.202	1.347	0.187	0.132
-190.187	260.000	0.151	0.256
-189.173	-200.000	0.021	-0.372
-188.158	-98.631	-0.189	-0.047
-187.144	5.173	-0.199	-0.144
-186.129	184.101	-0.167	0.242
-185.114	213.454	0.120	0.186
-184.100	-200.000	-0.009	0.093
-183.085	-148.025	0.255	-0.021
-182.071	-200.000	0.005	-0.177
-181.056	-172.473	0.082	-0.003
-180.042	-200.000	-0.035	-0.309
-179.027	128.163	-0.261	-0.326
-178.012	22.860	0.100	0.080
-176.998	-200.000	-0.090	0.000
-175.983	-14.586	0.233	0.147
-174.969	68.766	-0.089	-0.090
-173.954	113.143	0.089	-0.106
-172.939	302.792	-0.068	-0.123
-171.925	-200.000	0.030	0.138
-170.910	-7.985	0.345	0.228
-169.896	-28.988	-0.057	0.032
-168.881	-200.000	0.061	-0.319
-167.866	-200.000	-0.037	0.185
-166.852	101.516	0.097	0.111
-165.837	249.916	-0.040	-0.066
-164.823	-200.000	0.017	0.195
-163.808	4.851	-0.069	0.049
-162.793	-165.292	0.190	-0.008
-161.779	-68.062	0.079	0.030
-160.764	32.264	0.147	-0.124
-159.750	-160.474	-0.382	0.020
-158.735	43.573	0.205	-0.184
-157.720	-46.673	0.112	0.054
-156.706	-95.644	-0.235	-0.062
-155.691	186.488	0.060	0.087
-154.677	48.248	0.037	0.034
-153.662	-200.000	0.018	-0.099
-152.647	58.981	-0.061	-0.059
-151.633	-200.000	0.053	-0.245
-150.618	32.765	0.237	-0.201
-149.604	298.370	0.090	-0.162
-148.589	284.347	0.015	-0.027
-147.574	-167.617	-0.349	-0.014
-146.560	134.468	0.226	0.287
-145.545	-92.568	0.375	-0.103
-144.531	-200.000	0.035	0.289
-143.516	407.349	0.163	-0.337
-142.502	-100.551	-0.372	-0.090
-141.487	-44.244	0.216	0.106
-140.472	-200.000	-0.080	0.448
-139.458	-57.759	0.346	-0.148
-138.443	-106.248	-0.341	0.075
-137.429	800.000	0.054	-0.187
-136.414	368.266	0.040	0.080
-135.399	-169.878	-0.241	0.008
-134.385	-61.330	-0.181	0.075
-133.370	-71.369	-0.300	0.110
-132.356	-105.152	-0.245	-0.055
-131.341	-200.000	-0.012	0.061
-130.326	116.641	-0.239	0.287
-129.312	-47.581	-0.237	0.113
-128.297	-31.955	0.195	0.107
-127.283	1.176	-0.016	-0.011
-126.268	62.389	0.232	-0.226
-125.253	-200.000	-0.026	0.172
-124.239	109.707	-0.058	-0.068
-123.224	-110.055	0.343	-0.070
-122.210	47.913	0.101	-0.092
-121.195	27.637	0.335	-0.276
