DTS Sentinel unit serial number:	SN413079Multiplexer serial number:	ORYXHardware model number:	OX4-SRSoftware version number:	ORYX F/W v4.00 Oryx Data Collector v3.7.2.0data status	okinstallation	princeton_trtdifferential loss correction	single-endedforward channel	channel 4reverse channel	N/Adate	2019/09/13time	11:53:35forward acquisition time	60.00reverse acquisition time	0.00gamma	496.2192k internal	0.2300k external	0.2300temperature offset calibration	1.0212default loss term (dB/km)	0.3790temperature slope calibration	1.0000multiplexer offset coefficient	1.0000multiplexer slope coefficient	1.0000fibre end	0.00T internal ref (°C)	33.39T ext. ref 1 (°C)	4.57T ext. ref 2 (°C)	30.32length (m)	temperature (°C)	Stokes	anti-Stokes-747.200	96.561	0.020	0.024
-746.185	70.546	-0.071	0.075
-745.171	-45.897	0.178	0.090
-744.156	-200.000	-0.005	0.025
-743.142	-141.198	0.233	-0.024
-742.127	157.343	-0.017	-0.025
-741.112	117.820	-0.020	-0.025
-740.098	800.000	-0.048	0.176
-739.083	775.817	-0.089	0.248
-738.069	167.790	0.062	-0.090
-737.054	361.231	0.111	-0.227
-736.039	46.939	0.213	-0.202
-735.025	-42.453	0.158	-0.082
-734.010	800.000	-0.043	-0.190
-732.996	80.291	-0.144	-0.158
-731.981	201.426	-0.093	-0.146
-730.966	-90.587	0.015	0.004
-729.952	115.979	-0.034	-0.042
-728.937	800.000	-0.024	-0.068
-727.923	-54.194	-0.403	0.187
-726.908	-200.000	0.001	-0.063
-725.894	-200.000	0.053	0.294
-724.879	-122.538	-0.307	-0.051
-723.864	-200.000	0.044	-0.213
-722.850	0.703	0.244	-0.178
-721.835	21.204	0.115	-0.096
-720.821	-29.102	-0.290	-0.169
-719.806	261.047	0.166	-0.293
-718.791	-200.000	-0.021	-0.203
-717.777	724.561	0.075	-0.204
-716.762	-174.240	0.009	-0.000
-715.748	-122.967	-0.116	0.019
-714.733	141.355	-0.128	-0.173
-713.718	304.015	-0.064	-0.120
-712.704	-123.013	0.261	-0.043
-711.689	-200.000	-0.009	0.214
-710.675	75.961	0.298	-0.321
-709.660	-112.592	0.309	0.063
-708.645	127.029	-0.067	-0.087
-707.631	-46.200	-0.124	-0.062
-706.616	96.824	-0.060	0.070
-705.602	465.919	-0.172	-0.391
-704.587	-200.000	0.017	0.103
-703.572	161.125	0.085	-0.121
-702.558	-177.772	-0.068	0.002
-701.543	-30.397	-0.218	0.126
-700.529	-31.799	0.254	-0.145
-699.514	-54.833	0.127	0.058
-698.499	-200.000	0.040	0.352
-697.485	65.388	0.047	-0.049
-696.470	129.068	-0.248	-0.322
-695.456	143.930	-0.103	-0.140
-694.441	773.310	0.027	-0.074
-693.426	-200.000	0.003	-0.183
-692.412	-164.485	0.224	0.010
-691.397	711.470	0.061	0.164
-690.383	-36.832	0.124	-0.068
-689.368	524.294	0.095	-0.227
-688.354	-84.548	-0.112	-0.036
-687.339	-9.395	-0.209	-0.142
-686.324	303.806	0.225	-0.424
-685.310	-68.169	-0.329	0.130
-684.295	92.473	-0.086	-0.099
-683.281	-200.000	0.007	-0.060
-682.266	91.412	0.305	-0.349
-681.251	339.722	-0.062	0.123
-680.237	70.892	-0.272	-0.286
-679.222	104.448	-0.134	-0.161
-678.208	71.011	-0.222	0.234
-677.193	14.161	0.248	-0.197
-676.178	-140.770	0.157	0.016
-675.164	187.871	-0.177	-0.269
-674.149	313.951	-0.117	0.224
-673.135	356.616	0.168	-0.340
-672.120	-200.000	0.035	-0.214
-671.105	-117.914	-0.126	0.023
-670.091	-102.250	-0.244	0.060
-669.076	53.959	-0.142	-0.139
-668.062	-94.539	0.398	-0.110
-667.047	-60.637	0.187	0.081
-666.032	-149.498	0.359	0.029
-665.018	800.000	-0.050	-0.201
-664.003	-200.000	0.013	-0.292
-662.989	800.000	0.046	0.148
-661.974	-200.000	0.028	0.331
-660.959	20.028	-0.343	-0.281
-659.945	-200.000	-0.041	-0.231
-658.930	121.351	-0.055	-0.069
-657.916	16.048	0.119	-0.096
-656.901	536.731	0.098	-0.236
-655.886	-68.814	-0.245	-0.096
-654.872	-98.316	-0.169	0.044
-653.857	17.707	-0.068	0.055
-652.843	141.884	-0.237	0.319
-651.828	591.612	0.062	-0.156
-650.814	297.530	-0.026	-0.049
-649.799	-67.565	0.196	-0.078
-648.784	46.238	0.146	-0.137
-647.770	-200.000	0.009	-0.277
-646.755	-118.436	-0.259	-0.047
-645.741	3.698	-0.140	-0.104
-644.726	202.812	-0.172	0.270
-643.711	-200.000	-0.063	-0.288
-642.697	-89.640	0.300	0.089
-641.682	488.058	0.111	-0.257
-640.668	-121.089	0.105	-0.018
-639.653	-200.000	0.358	-0.000
-638.638	800.000	-0.044	0.129
-637.624	431.056	-0.077	0.170
-636.609	239.167	0.141	0.238
-635.595	-200.000	0.017	0.171
-634.580	43.980	0.093	-0.087
-633.565	163.580	0.035	0.050
-632.551	-125.657	-0.063	0.010
-631.536	-200.000	-0.472	0.001
-630.522	800.000	0.034	0.145
-629.507	-169.096	0.109	-0.004
-628.492	-200.000	-0.016	0.196
-627.478	97.842	0.096	-0.112
-626.463	-13.720	-0.117	0.077
-625.449	-33.153	0.308	-0.173
-624.434	90.132	-0.107	0.121
-623.419	161.431	0.169	-0.240
-622.405	262.957	0.175	0.309
-621.390	-111.546	0.163	-0.034
-620.376	-63.911	-0.051	0.021
-619.361	99.881	-0.110	-0.130
-618.346	-70.879	-0.197	-0.076
-617.332	-73.332	0.080	0.030
-616.317	502.273	0.129	-0.303
-615.303	-161.390	-0.031	-0.002
-614.288	463.478	0.068	0.155
-613.273	-119.247	-0.143	0.025
-612.259	800.000	0.018	-0.069
-611.244	-100.604	0.421	-0.106
-610.230	-120.403	-0.089	0.015
-609.215	-21.182	-0.078	0.049
-608.201	310.674	0.063	-0.120
-607.186	173.115	0.184	-0.269
-606.171	157.251	0.087	0.122
-605.157	800.000	-0.106	-0.344
-604.142	196.464	0.111	0.172
-603.128	-200.000	-0.236	-0.000
-602.113	-4.557	-0.171	-0.120
-601.098	138.137	-0.083	-0.110
-600.084	40.990	-0.107	0.098
-599.069	-200.000	0.025	0.457
-598.055	190.676	0.171	0.261
-597.040	433.955	-0.083	0.182
-596.025	169.176	0.133	-0.193
-595.011	13.388	-0.418	-0.329
-593.996	-200.000	0.001	-0.059
-592.982	800.000	0.070	0.245
-591.967	154.041	0.072	-0.101
-590.952	-108.199	0.213	-0.047
-589.938	-148.515	0.314	0.026
-588.923	800.000	-0.028	-0.114
-587.909	-200.000	0.019	0.130
-586.894	330.888	0.074	-0.145
-585.879	2.399	0.130	-0.096
-584.865	141.579	0.066	-0.089
-583.850	-200.000	0.002	-0.178
-582.836	13.603	-0.144	0.113
-581.821	-55.799	-0.129	-0.058
-580.806	84.256	-0.194	0.215
-579.792	140.647	-0.209	-0.280
-578.777	800.000	0.026	-0.109
-577.763	800.000	-0.064	0.192
-576.748	-170.816	-0.153	-0.005
-575.733	63.811	0.216	-0.220
-574.719	-200.000	-0.001	0.084
-573.704	-64.088	-0.172	-0.071
-572.690	24.016	0.055	-0.046
-571.675	34.412	-0.202	-0.179
-570.661	-165.047	0.132	0.006
-569.646	175.449	-0.097	-0.142
-568.631	-200.000	0.015	-0.481
-567.617	-200.000	-0.008	-0.068
-566.602	-62.814	-0.217	-0.091
-565.588	-147.423	-0.277	0.024
-564.573	671.940	-0.087	-0.228
-563.558	-70.496	-0.151	-0.058
-562.544	18.061	-0.123	-0.099
-561.529	-95.670	-0.035	0.009
-560.515	-126.017	-0.094	-0.014
-559.500	-62.949	0.178	-0.074
-558.485	81.251	-0.208	0.228
-557.471	-107.515	0.091	0.020
-556.456	173.807	0.129	-0.189
-555.442	173.785	-0.099	-0.144
-554.427	-49.773	0.210	-0.101
-553.412	800.000	-0.010	-0.044
-552.398	569.305	0.078	-0.192
-551.383	246.918	-0.170	0.291
-550.369	-38.366	0.284	-0.152
-549.354	194.783	-0.135	0.207
-548.339	56.446	-0.148	0.146
-547.325	-91.582	0.165	0.047
-546.310	420.860	0.097	-0.210
-545.296	-200.000	0.021	-0.092
-544.281	800.000	0.082	-0.259
-543.266	8.898	0.206	0.157
-542.252	341.345	0.021	-0.042
-541.237	800.000	0.059	-0.199
-540.223	-200.000	-0.055	-0.357
-539.208	302.920	-0.030	0.056
-538.193	-134.652	0.143	-0.018
-537.179	-83.729	0.275	-0.089
-536.164	-200.000	0.021	-0.141
-535.150	-155.876	-0.180	0.012
-534.135	-68.481	0.336	-0.132
-533.121	-118.297	-0.081	-0.015
-532.106	800.000	-0.053	-0.175
-531.091	-123.225	0.106	-0.017
-530.077	-73.503	0.188	0.070
-529.062	800.000	-0.064	0.273
-528.048	-200.000	-0.039	-0.233
-527.033	98.133	0.061	0.071
-526.018	90.816	-0.087	-0.099
-525.004	800.000	0.030	-0.111
-523.989	194.070	0.096	-0.147
-522.975	40.612	-0.049	-0.045
-521.960	-200.000	0.068	-0.308
-520.945	380.033	0.078	0.163
-519.931	9.949	0.175	0.134
-518.916	-89.598	0.318	-0.094
-517.902	160.449	-0.045	-0.064
-516.887	-71.530	0.188	-0.071
-515.872	24.118	-0.234	0.195
-514.858	498.106	0.189	-0.440
-513.843	-129.007	-0.367	0.052
-512.829	40.311	0.109	0.099
-511.814	123.512	-0.077	0.098
-510.799	-139.091	-0.044	-0.005
-509.785	-200.000	-0.034	0.199
-508.770	-138.834	-0.087	0.010
-507.756	2.545	0.041	-0.030
-506.741	189.882	-0.118	-0.179
-505.726	251.523	0.166	0.286
-504.712	-200.000	0.007	0.146
-503.697	146.684	0.198	0.269
-502.683	800.000	0.089	0.250
-501.668	282.387	-0.147	0.267
-500.653	-105.218	-0.236	0.054
-499.639	225.691	0.110	0.180
-498.624	269.917	-0.107	-0.190
-497.610	-32.117	0.343	-0.194
-496.595	800.000	-0.041	-0.171
-495.581	410.808	-0.050	0.107
-494.566	-200.000	0.007	0.180
-493.551	-61.729	0.169	0.071
-492.537	-200.000	0.003	-0.069
-491.522	-176.067	-0.210	-0.006
-490.508	-200.000	0.030	-0.134
-489.493	114.952	-0.205	-0.252
-488.478	368.646	-0.012	-0.025
-487.464	148.564	0.106	-0.145
-486.449	-200.000	-0.066	0.305
-485.435	197.792	-0.027	0.041
-484.420	491.260	0.095	0.219
-483.405	5.428	-0.319	-0.238
-482.391	-69.912	-0.300	0.116
-481.376	101.497	-0.043	-0.050
-480.362	-128.622	-0.278	-0.040
-479.347	-200.000	-0.029	-0.394
-478.332	6.820	0.153	0.115
-477.318	326.471	-0.047	-0.091
-476.303	-200.000	-0.355	-0.000
-475.289	-58.239	-0.395	0.174
-474.274	97.572	0.094	0.109
-473.259	406.043	-0.063	0.134
-472.245	8.016	-0.152	-0.115
-471.230	53.306	0.394	-0.381
-470.216	-200.000	0.016	-0.083
-469.201	-96.032	0.111	-0.030
-468.186	-90.786	0.105	0.030
-467.172	-23.725	0.163	-0.099
-466.157	51.313	-0.012	-0.012
-465.143	-165.134	0.405	0.018
-464.128	800.000	-0.131	-0.404
-463.113	-97.859	-0.168	-0.044
-462.099	-89.546	0.441	-0.131
-461.084	-39.174	0.249	0.132
-460.070	800.000	-0.103	-0.368
-459.055	-130.259	-0.196	0.027
-458.040	-35.426	-0.083	0.045
-457.026	-47.018	-0.270	-0.133
-456.011	-35.418	-0.098	0.054
-454.997	800.000	-0.011	-0.042
-453.982	339.444	0.176	0.346
-452.968	77.669	0.090	0.097
-451.953	-161.757	0.227	-0.012
-450.938	-200.000	-0.083	0.425
-449.924	333.024	0.076	-0.148
-448.909	489.640	-0.096	-0.221
-447.895	350.870	-0.131	0.261
-446.880	-70.990	0.282	-0.107
-445.865	-200.000	-0.012	0.163
-444.851	-200.000	0.037	0.238
-443.836	470.285	0.108	0.244
-442.822	-104.380	-0.142	0.033
-441.807	36.771	0.130	0.116
-440.792	-200.000	0.021	-0.217
-439.778	-38.553	0.139	-0.074
-438.763	800.000	0.086	-0.303
-437.749	-200.000	0.056	-0.257
-436.734	320.551	-0.097	-0.186
-435.719	-200.000	0.013	-0.073
-434.705	-200.000	-0.040	0.311
-433.690	-60.882	-0.190	0.081
-432.676	31.532	-0.124	-0.108
-431.661	-130.756	0.181	0.025
-430.646	162.606	-0.039	-0.055
-429.632	-134.231	-0.132	0.016
-428.617	-32.780	-0.210	-0.118
-427.603	-81.945	-0.087	0.029
-426.588	-200.000	0.026	0.190
-425.573	54.517	-0.201	-0.195
-424.559	129.188	0.262	0.337
-423.544	-200.000	0.001	-0.070
-422.530	-200.000	-0.011	-0.142
-421.515	-12.846	0.112	-0.073
-420.500	98.337	0.234	-0.272
-419.486	800.000	-0.076	-0.211
-418.471	398.196	0.018	-0.037
-417.457	75.978	0.287	0.306
-416.442	431.305	-0.182	0.397
-415.428	-187.121	0.189	-0.003
-414.413	-141.214	-0.147	-0.015
-413.398	-117.822	-0.141	0.025
-412.384	12.552	-0.169	-0.131
-411.369	-43.114	-0.179	0.092
-410.355	800.000	0.023	0.076
-409.340	-58.398	-0.138	0.060
-408.325	32.319	-0.115	-0.100
-407.311	800.000	0.105	-0.297
-406.296	5.273	0.409	0.303
-405.282	-23.691	0.244	0.147
-404.267	506.147	-0.129	0.300
-403.252	70.075	0.196	0.203
-402.238	116.194	-0.217	-0.267
-401.223	433.342	0.038	0.083
-400.209	-111.238	-0.210	-0.043
-399.194	-120.727	-0.157	-0.027
-398.179	-200.000	0.062	0.331
-397.165	-200.000	-0.061	0.426
-396.150	-114.290	-0.281	0.055
-395.136	163.727	-0.221	0.313
-394.121	148.357	0.076	0.103
-393.106	-4.578	-0.153	0.106
-392.092	800.000	0.061	0.260
-391.077	163.370	0.190	0.268
-390.063	-66.615	0.392	0.156
-389.048	119.255	-0.301	0.374
-388.033	-25.679	-0.195	0.115
-387.019	-125.959	-0.221	0.033
-386.004	82.524	-0.033	-0.037
-384.990	800.000	-0.021	-0.088
-383.975	58.115	-0.271	0.267
-382.960	58.223	-0.297	-0.293
-381.946	33.440	0.134	-0.117
-380.931	-200.000	-0.042	0.265
-379.917	-200.000	0.027	0.164
-378.902	-200.000	-0.023	-0.340
-377.888	565.182	-0.127	0.309
-376.873	-56.363	0.150	0.067
-375.858	102.593	-0.178	0.209
-374.844	202.619	0.082	-0.128
-373.829	203.276	-0.112	0.174
-372.815	599.590	0.071	0.177
-371.800	-2.092	-0.121	0.085
-370.785	-1.406	-0.233	-0.166
-369.771	-200.000	-0.025	-0.177
-368.756	-100.945	0.243	-0.060
-367.742	96.231	-0.155	0.178
-366.727	-200.000	0.047	0.289
-365.712	-58.340	-0.043	0.019
-364.698	-0.288	0.361	-0.258
-363.683	-79.777	0.093	-0.031
-362.669	-159.120	-0.247	-0.014
-361.654	674.910	0.049	-0.129
-360.639	800.000	-0.066	-0.290
-359.625	636.419	-0.032	0.082
-358.610	-200.000	0.015	-0.200
-357.596	116.059	0.175	0.216
-356.581	28.675	-0.252	-0.215
-355.566	191.730	-0.152	0.230
-354.552	-200.000	-0.016	-0.110
-353.537	-180.568	-0.099	-0.002
-352.523	-200.000	0.016	0.373
-351.508	188.432	0.115	0.173
-350.493	81.792	0.162	-0.176
-349.479	259.390	-0.163	0.282
-348.464	259.329	0.185	-0.321
-347.450	-154.338	0.144	-0.010
-346.435	800.000	-0.065	0.191
-345.420	48.486	-0.118	-0.111
-344.406	-65.289	0.317	-0.128
-343.391	-38.038	-0.098	-0.052
-342.377	-146.461	-0.192	0.017
-341.362	169.039	-0.108	0.155
-340.348	55.785	-0.076	0.074
-339.333	180.147	-0.143	0.210
-338.318	-46.841	0.357	0.175
-337.304	-200.000	-0.004	0.136
-336.289	119.133	-0.171	-0.212
-335.275	-52.465	0.275	-0.128
-334.260	-177.873	-0.392	-0.009
-333.245	-6.601	-0.226	-0.155
-332.231	-200.000	0.035	-0.314
-331.216	-44.803	0.293	0.147
-330.202	-157.661	0.392	0.023
-329.187	72.568	-0.099	0.103
-328.172	-200.000	0.013	-0.350
-327.158	-200.000	-0.021	-0.335
-326.143	-47.874	-0.167	-0.081
-325.129	-127.046	-0.291	-0.043
-324.114	-62.656	0.106	-0.044
-323.099	314.284	-0.119	-0.225
-322.085	103.759	0.231	-0.273
-321.070	-200.000	-0.121	-0.565
-320.056	-200.000	-0.018	-0.092
-319.041	-145.499	-0.172	-0.016
-318.026	39.198	0.138	0.124
-317.012	39.706	-0.202	-0.181
-315.997	0.285	0.095	-0.068
-314.983	800.000	0.135	0.470
-313.968	-77.351	0.184	-0.064
-312.953	800.000	0.023	0.071
-311.939	167.970	0.156	-0.222
-310.924	43.361	0.187	0.172
-309.910	104.714	-0.049	0.058
-308.895	-200.000	-0.008	-0.218
-307.880	-200.000	-0.019	-0.323
-306.866	-134.662	-0.125	-0.015
-305.851	388.336	-0.119	0.247
-304.837	304.180	-0.208	0.388
-303.822	-130.172	0.214	0.029
-302.807	-163.912	0.408	-0.019
-301.793	301.768	0.072	0.134
-300.778	800.000	-0.006	-0.023
-299.764	-4.001	0.384	-0.267
-298.749	626.674	0.057	-0.145
-297.735	800.000	-0.078	-0.256
-296.720	-200.000	0.003	0.140
-295.705	89.217	-0.078	0.087
-294.691	800.000	0.040	0.150
-293.676	-138.433	0.175	-0.019
-292.662	-58.187	0.173	0.075
-291.647	-121.931	-0.288	0.047
-290.632	107.273	0.070	-0.083
-289.618	-61.629	-0.297	-0.125
-288.603	-200.000	0.048	0.394
-287.589	-196.609	-0.079	-0.001
-286.574	800.000	0.084	-0.362
-285.559	-200.000	-0.050	-0.256
-284.545	-111.641	-0.306	0.062
-283.530	-137.764	-0.402	0.045
-282.516	54.446	0.246	0.237
-281.501	-200.000	0.114	0.000
-280.486	155.920	0.068	-0.094
-279.472	144.123	-0.043	-0.058
-278.457	271.436	0.146	-0.257
-277.443	-27.209	-0.146	0.085
-276.428	3.842	-0.146	0.107
-275.413	-193.830	0.116	-0.001
-274.399	-119.291	0.080	0.014
-273.384	471.865	-0.099	0.223
-272.370	-80.347	0.174	-0.058
-271.355	-166.831	-0.214	-0.009
-270.340	-13.519	-0.059	0.039
-269.326	-64.705	0.067	0.027
-268.311	98.578	0.134	-0.155
-267.297	-200.000	0.027	0.232
-266.282	-91.333	-0.188	0.054
-265.267	-103.824	0.197	-0.046
-264.253	-97.582	-0.328	0.085
-263.238	-32.856	-0.135	0.075
-262.224	-144.564	0.211	-0.020
-261.209	-88.096	-0.208	-0.062
-260.195	528.983	0.077	0.182
-259.180	45.966	-0.106	0.098
-258.165	-200.000	0.008	0.134
-257.151	-200.000	0.009	-0.109
-256.136	-156.652	0.277	-0.017
-255.122	-25.273	-0.332	-0.197
-254.107	-96.388	-0.252	0.067
-253.092	-90.625	-0.048	-0.014
-252.078	-200.000	-0.052	-0.246
-251.063	800.000	-0.042	0.163
-250.049	-196.787	-0.175	-0.001
-249.034	-34.223	0.163	0.090
-248.019	46.964	0.209	-0.194
-247.005	-200.000	0.069	0.000
-245.990	-70.077	-0.021	0.008
-244.976	-5.192	-0.023	-0.016
-243.961	-48.575	0.052	-0.025
-242.946	-55.473	0.258	0.116
-241.932	-147.604	0.122	0.010
-240.917	-176.886	0.348	0.009
-239.903	800.000	-0.062	-0.187
-238.888	-200.000	0.015	-0.424
-237.873	122.587	-0.059	0.074
-236.859	398.506	-0.010	-0.022
-235.844	-105.843	-0.042	0.009
-234.830	-200.000	0.051	0.301
-233.815	11.428	0.217	0.166
-232.800	137.297	0.027	-0.036
-231.786	-25.879	0.088	-0.052
-230.771	-200.000	-0.005	-0.026
-229.757	79.651	-0.142	0.153
-228.742	329.098	-0.130	-0.249
-227.727	-55.712	0.339	-0.152
-226.713	166.863	-0.160	-0.227
-225.698	800.000	0.107	-0.328
-224.684	-56.394	-0.064	0.028
-223.669	-192.974	-0.185	0.002
-222.655	-200.000	-0.040	0.258
-221.640	800.000	-0.015	-0.046
-220.625	28.742	0.078	-0.066
-219.611	-113.551	-0.470	0.092
-218.596	800.000	0.116	0.345
-217.582	-69.969	0.162	-0.062
-216.567	412.578	0.055	-0.116
-215.552	-39.416	0.219	-0.115
-214.538	800.000	-0.043	-0.181
-213.523	-81.525	0.079	-0.026
-212.509	65.509	-0.256	-0.259
-211.494	-76.632	-0.262	0.092
-210.479	208.662	-0.119	-0.186
-209.465	-29.261	-0.065	0.037
-208.450	130.149	0.208	0.266
-207.436	-56.652	0.289	0.128
-206.421	86.974	-0.239	0.263
-205.406	-108.663	-0.104	0.022
-204.392	210.032	0.129	0.203
-203.377	300.989	0.014	0.026
-202.363	-31.482	0.065	-0.037
-201.348	800.000	0.062	-0.219
-200.333	-46.801	-0.254	0.124
-199.319	23.465	0.332	0.273
-198.304	146.337	-0.105	0.140
-197.290	37.521	-0.167	0.148
-196.275	-84.559	0.062	-0.020
-195.260	26.103	-0.051	-0.042
-194.246	96.237	0.214	0.244
-193.231	228.642	-0.049	0.080
-192.217	-200.000	-0.006	0.082
-191.202	180.378	0.131	0.192
-190.187	-66.406	-0.117	0.046
-189.173	-200.000	0.082	0.495
-188.158	26.670	0.186	0.156
-187.144	-7.166	-0.208	-0.141
-186.129	378.789	-0.123	-0.251
-185.114	73.861	0.195	0.204
-184.100	-80.838	-0.279	0.092
-183.085	374.941	-0.102	-0.206
-182.071	-145.795	-0.081	0.007
-181.056	11.191	-0.024	0.019
-180.042	-35.339	0.209	0.113
-179.027	-36.376	0.078	0.042
-178.012	310.836	0.077	-0.145
-176.998	-41.479	0.308	0.158
-175.983	-99.055	-0.270	-0.068
-174.969	-101.668	-0.359	0.087
-173.954	86.413	-0.042	0.046
-172.939	-200.000	0.039	0.183
-171.925	-14.186	0.294	0.189
-170.910	-169.022	0.120	0.004
-169.896	-135.625	0.586	0.069
-168.881	198.381	-0.105	0.161
-167.866	-200.000	-0.007	0.078
-166.852	-200.000	-0.008	-0.178
-165.837	39.879	-0.223	0.200
-164.823	-139.437	0.236	0.025
-163.808	1.184	0.148	-0.106
-162.793	270.209	-0.111	0.195
-161.779	29.232	0.202	-0.171
-160.764	-14.482	0.263	-0.169
-159.750	-100.712	-0.312	0.077
-158.735	-90.898	-0.457	0.131
-157.720	800.000	0.043	0.122
-156.706	-52.050	-0.059	0.027
-155.691	18.459	-0.159	-0.127
-154.677	46.568	0.180	0.166
-153.662	10.479	-0.069	-0.052
-152.647	-57.816	0.035	0.015
-151.633	102.150	-0.026	-0.030
-150.618	315.626	0.146	0.274
-149.604	-17.174	0.230	-0.145
-148.589	41.458	-0.120	-0.108
-147.574	-186.714	0.089	0.001
-146.560	-200.000	0.067	0.342
-145.545	-134.665	0.159	0.019
-144.531	49.649	-0.195	0.183
-143.516	-68.832	0.117	0.045
-142.502	-200.000	0.055	-0.274
-141.487	-95.867	0.268	0.071
-140.472	-82.381	-0.253	-0.082
-139.458	800.000	0.070	0.247
-138.443	800.000	0.168	0.540
-137.429	-138.931	-0.242	0.026
-136.414	12.777	0.087	0.067
-135.399	-64.239	0.203	-0.082
-134.385	-156.370	-0.052	-0.003
-133.370	2.237	-0.096	-0.069
-132.356	58.179	-0.112	-0.110
-131.341	-74.366	0.270	0.097
-130.326	800.000	0.076	0.240
-129.312	-200.000	0.050	0.443
-128.297	-200.000	-0.062	0.341
-127.283	-60.477	0.201	-0.085
-126.268	-148.911	0.091	0.007
-125.253	-92.027	0.069	-0.020
-124.239	-74.026	0.430	-0.155
-123.224	-148.358	-0.130	-0.011
-122.210	126.469	-0.036	0.045
