DTS Sentinel unit serial number:	SN413079Multiplexer serial number:	ORYXHardware model number:	OX4-SRSoftware version number:	ORYX F/W v4.00 Oryx Data Collector v3.7.2.0data status	okinstallation	princeton_trtdifferential loss correction	single-endedforward channel	channel 4reverse channel	N/Adate	2019/09/12time	13:03:11forward acquisition time	60.00reverse acquisition time	0.00gamma	496.2192k internal	0.2286k external	0.2286temperature offset calibration	1.0075default loss term (dB/km)	0.3790temperature slope calibration	1.0000multiplexer offset coefficient	1.0000multiplexer slope coefficient	1.0000fibre end	0.00T internal ref (°C)	40.97T ext. ref 1 (°C)	2.08T ext. ref 2 (°C)	36.83length (m)	temperature (°C)	Stokes	anti-Stokes-747.200	260.989	0.119	-0.211
-746.185	68.882	-0.083	0.087
-745.171	-200.000	-0.343	-0.002
-744.156	-200.000	-0.015	0.401
-743.142	-200.000	-0.023	0.189
-742.127	-200.000	-0.014	0.153
-741.112	800.000	-0.055	0.219
-740.098	5.364	0.184	0.139
-739.083	-47.535	0.129	0.064
-738.069	312.845	0.222	0.427
-737.054	-200.000	0.050	0.229
-736.039	-59.276	-0.274	-0.121
-735.025	131.288	0.121	0.159
-734.010	131.088	-0.037	-0.049
-732.996	35.054	0.221	-0.199
-731.981	46.294	-0.534	-0.508
-730.966	-27.884	-0.115	0.068
-729.952	-35.423	-0.116	-0.065
-728.937	-174.083	-0.293	0.009
-727.923	-105.354	0.100	0.023
-726.908	239.238	0.196	-0.334
-725.894	800.000	0.069	-0.287
-724.879	141.269	0.173	0.234
-723.864	-5.351	-0.103	-0.073
-722.850	-41.384	-0.105	-0.055
-721.835	-200.000	-0.070	-0.565
-720.821	67.003	0.070	0.073
-719.806	244.609	0.104	0.179
-718.791	-104.322	0.091	0.022
-717.777	111.072	-0.152	-0.187
-716.762	-46.214	0.239	0.121
-715.748	-131.614	0.127	-0.017
-714.733	-155.156	0.314	-0.021
-713.718	-200.000	-0.017	-0.268
-712.704	-54.619	0.040	-0.018
-711.689	281.229	-0.253	-0.464
-710.675	-7.978	0.083	-0.058
-709.660	-200.000	0.025	-0.473
-708.645	-134.834	-0.231	0.029
-707.631	-58.183	-0.128	0.057
-706.616	-91.092	-0.389	-0.115
-705.602	255.834	0.107	0.188
-704.587	-132.002	-0.180	0.024
-703.572	-162.907	-0.272	0.014
-702.558	-110.186	0.119	-0.025
-701.543	682.108	-0.078	0.208
-700.529	-200.000	-0.019	-0.118
-699.514	-200.000	-0.003	-0.058
-698.499	170.437	0.057	-0.083
-697.485	-104.433	0.310	0.073
-696.470	-200.000	0.015	-0.182
-695.456	-83.377	-0.228	-0.075
-694.441	79.891	-0.153	-0.169
-693.426	16.059	0.070	0.056
-692.412	226.693	0.157	-0.261
-691.397	-22.318	-0.177	0.110
-690.383	89.710	0.004	0.005
-689.368	226.547	-0.251	-0.418
-688.354	526.393	0.050	0.120
-687.339	377.866	0.052	-0.108
-686.324	-200.000	-0.015	0.316
-685.310	-28.289	-0.288	-0.170
-684.295	-51.107	0.234	0.112
-683.281	-200.000	-0.067	0.327
-682.266	-92.437	-0.097	0.028
-681.251	-200.000	-0.005	-0.239
-680.237	800.000	-0.030	-0.129
-679.222	-200.000	-0.206	0.000
-678.208	189.103	-0.032	0.050
-677.193	-191.216	0.252	-0.003
-676.178	-200.000	0.012	0.135
-675.164	509.810	-0.093	-0.221
-674.149	800.000	0.023	0.078
-673.135	-200.000	0.008	0.136
-672.120	-140.035	-0.147	0.016
-671.105	800.000	-0.139	-0.439
-670.091	-200.000	0.032	0.225
-669.076	-62.129	0.092	0.039
-668.062	-200.000	-0.006	0.089
-667.047	250.213	-0.060	0.105
-666.032	84.901	-0.139	-0.156
-665.018	-136.947	-0.044	-0.005
-664.003	-39.853	0.129	-0.069
-662.989	-169.338	0.169	-0.006
-661.974	800.000	0.017	-0.057
-660.959	-185.977	0.352	-0.005
-659.945	-200.000	0.012	0.250
-658.930	-158.544	-0.124	0.007
-657.916	102.103	0.213	-0.254
-656.901	173.066	0.078	-0.115
-655.886	800.000	0.099	0.332
-654.872	800.000	0.062	-0.271
-653.857	129.942	0.269	-0.352
-652.843	127.849	0.129	0.167
-651.828	11.359	-0.217	-0.170
-650.814	-66.692	-0.260	-0.105
-649.799	302.193	-0.169	-0.320
-648.784	2.349	-0.286	-0.212
-647.770	-34.622	-0.070	0.039
-646.755	-26.578	0.096	-0.057
-645.741	-136.173	-0.422	0.050
-644.726	512.443	0.047	0.112
-643.711	172.818	0.146	0.215
-642.697	435.496	0.092	0.204
-641.682	-128.999	-0.371	0.053
-640.668	112.201	-0.032	-0.040
-639.653	-200.000	-0.022	-0.127
-638.638	426.041	-0.019	0.041
-637.624	-74.892	-0.397	-0.146
-636.609	-112.370	-0.361	0.074
-635.595	-26.746	-0.151	-0.090
-634.580	-200.000	0.008	-0.226
-633.565	96.262	-0.066	-0.077
-632.551	65.970	-0.191	-0.198
-631.536	96.185	0.260	-0.304
-630.522	-114.492	0.256	-0.050
-629.507	-200.000	-0.007	0.106
-628.492	-171.599	0.140	-0.005
-627.478	-57.839	0.365	-0.163
-626.463	181.298	0.111	0.167
-625.449	695.908	0.033	0.088
-624.434	-200.000	-0.018	-0.137
-623.419	-82.151	-0.084	0.028
-622.405	90.589	-0.269	0.308
-621.390	101.355	-0.088	0.104
-620.376	-20.307	0.297	0.187
-619.361	321.728	-0.039	0.075
-618.346	100.572	-0.198	-0.234
-617.332	-164.740	0.133	0.006
-616.317	-84.100	0.138	0.045
-615.303	428.040	0.200	-0.442
-614.288	337.967	0.025	-0.050
-613.273	-178.375	-0.581	0.014
-612.259	-133.137	-0.110	0.014
-611.244	-175.892	0.121	0.003
-610.230	-94.349	-0.157	-0.044
-609.215	-164.038	-0.436	0.021
-608.201	751.923	-0.079	-0.218
-607.186	-114.725	-0.091	0.018
-606.171	-138.258	-0.298	-0.034
-605.157	800.000	-0.081	0.269
-604.142	800.000	0.062	0.194
-603.128	154.090	-0.259	-0.362
-602.113	-131.650	0.231	-0.031
-601.098	220.167	-0.165	0.270
-600.084	-65.199	0.047	0.019
-599.069	-95.836	-0.221	0.060
-598.055	-57.545	0.362	-0.162
-597.040	145.848	0.161	0.220
-596.025	-21.916	-0.237	-0.147
-595.011	-64.127	-0.111	0.046
-593.996	-90.322	0.157	-0.046
-592.982	-179.730	0.311	0.007
-591.967	774.217	-0.098	-0.273
-590.952	-200.000	-0.002	-0.107
-589.938	-2.839	-0.210	0.150
-588.923	-9.487	-0.165	-0.112
-587.909	411.059	-0.061	0.132
-586.894	-200.000	0.013	0.000
-585.879	-200.000	0.014	-0.114
-584.865	94.422	0.192	0.222
-583.850	-109.730	-0.266	-0.057
-582.836	189.806	0.138	-0.211
-581.821	84.762	0.189	-0.211
-580.806	-72.825	0.293	-0.110
-579.792	-108.376	0.218	-0.048
-578.777	-200.000	0.038	-0.202
-577.763	275.522	0.111	-0.201
-576.748	-200.000	0.008	-0.099
-575.733	12.247	-0.303	-0.238
-574.719	-200.000	0.016	-0.326
-573.704	-200.000	-0.043	-0.351
-572.690	159.135	0.099	-0.140
-571.675	-200.000	-0.002	-0.118
-570.661	-65.571	-0.292	0.119
-569.646	131.973	0.343	0.450
-568.631	16.224	0.289	-0.232
-567.617	689.921	-0.046	0.122
-566.602	118.665	0.206	0.259
-565.588	188.380	-0.098	0.149
-564.573	-30.315	0.121	0.070
-563.558	-200.000	0.009	0.149
-562.544	182.067	0.152	0.229
-561.529	126.726	-0.222	0.286
-560.515	232.517	-0.071	0.118
-559.500	-30.260	0.137	-0.079
-558.485	-42.034	-0.278	-0.145
-557.471	800.000	-0.063	-0.194
-556.456	26.803	0.183	-0.156
-555.442	-109.112	0.131	-0.028
-554.427	-111.515	0.206	-0.043
-553.412	-76.330	-0.106	0.038
-552.398	313.883	-0.115	0.221
-551.383	-200.000	-0.042	-0.261
-550.369	800.000	-0.039	-0.162
-549.354	-96.530	0.617	0.166
-548.339	551.974	0.196	0.480
-547.325	-12.037	0.237	0.158
-546.310	-1.684	0.107	0.077
-545.296	4.213	0.236	0.176
-544.281	-74.817	0.056	0.021
-543.266	302.213	0.044	-0.082
-542.252	79.511	0.068	0.074
-541.237	221.936	0.118	0.194
-540.223	2.314	-0.159	0.117
-539.208	28.209	0.123	-0.106
-538.193	341.025	-0.221	-0.439
-537.179	249.298	-0.079	-0.136
-536.164	131.366	-0.151	0.198
-535.150	-6.529	-0.227	0.158
-534.135	-1.132	0.212	0.152
-533.121	16.570	0.221	-0.178
-532.106	-169.087	0.130	0.005
-531.091	-75.921	-0.231	-0.083
-530.077	140.874	-0.133	0.179
-529.062	-200.000	0.044	0.274
-528.048	15.602	0.176	-0.140
-527.033	-6.324	0.151	0.105
-526.018	129.140	-0.108	-0.140
-525.004	566.005	0.120	-0.297
-523.989	800.000	0.012	-0.046
-522.975	6.676	0.217	-0.165
-521.960	306.229	-0.055	0.104
-520.945	70.225	0.193	0.203
-519.931	-200.000	0.020	-0.196
-518.916	569.464	-0.093	-0.229
-517.902	-200.000	0.002	0.125
-516.887	-200.000	-0.065	0.352
-515.872	-28.881	0.127	0.074
-514.858	464.916	0.073	-0.166
-513.843	-124.891	0.209	-0.033
-512.829	55.388	0.139	0.137
-511.814	-81.927	-0.181	-0.060
-510.799	-64.277	-0.262	-0.109
-509.785	-200.000	0.036	0.194
-508.770	-147.144	0.287	-0.025
-507.756	-200.000	0.009	-0.090
-506.741	-200.000	0.040	0.551
-505.726	121.513	-0.212	0.269
-504.712	-97.998	0.252	-0.066
-503.697	92.099	0.120	0.137
-502.683	27.204	-0.122	-0.104
-501.668	-46.401	-0.145	-0.072
-500.653	-55.768	0.085	-0.039
-499.639	335.785	0.047	0.092
-498.624	-116.479	0.119	-0.022
-497.610	-18.841	0.251	0.159
-496.595	-75.988	0.264	0.095
-495.581	40.690	-0.146	-0.133
-494.566	-95.912	0.191	0.052
-493.551	501.087	0.159	-0.372
-492.537	-200.000	-0.061	0.293
-491.522	58.815	-0.018	-0.018
-490.508	-200.000	0.028	-0.124
-489.493	291.271	0.058	0.106
-488.478	-115.506	-0.227	0.043
-487.464	363.384	0.088	-0.180
-486.449	-37.030	-0.145	-0.079
-485.435	209.197	-0.087	-0.138
-484.420	-200.000	0.031	-0.362
-483.405	180.235	0.194	-0.289
-482.391	8.284	0.248	-0.189
-481.376	-49.926	-0.038	-0.019
-480.362	-132.188	-0.264	0.035
-479.347	800.000	0.065	0.243
-478.332	-123.587	-0.059	0.010
-477.318	-137.255	0.089	0.010
-476.303	-200.000	0.026	0.161
-475.289	-200.000	-0.013	0.210
-474.274	216.224	0.164	0.264
-473.259	195.153	-0.205	-0.317
-472.245	132.595	-0.239	-0.312
-471.230	1.403	-0.226	-0.165
-470.216	-35.736	0.410	-0.226
-469.201	-107.014	-0.227	-0.051
-468.186	-111.087	0.398	0.083
-467.172	-200.000	-0.004	-0.191
-466.157	535.101	0.110	-0.264
-465.143	598.635	-0.028	0.069
-464.128	125.809	-0.059	-0.076
-463.113	-200.000	0.399	-0.001
-462.099	1.723	-0.072	-0.053
-461.084	-56.045	-0.250	0.113
-460.070	800.000	-0.012	-0.055
-459.055	-200.000	-0.049	-0.235
-458.040	-4.365	-0.181	0.127
-457.026	30.661	0.297	0.258
-456.011	-123.452	-0.199	0.032
-454.997	-26.494	0.285	-0.169
-453.982	494.250	0.156	-0.363
-452.968	-14.908	-0.254	-0.165
-451.953	214.504	0.137	0.220
-450.938	-200.000	0.010	-0.147
-449.924	79.073	-0.083	0.090
-448.909	-123.407	-0.368	0.060
-447.895	192.738	0.093	0.142
-446.880	-91.206	-0.387	0.112
-445.865	800.000	-0.060	0.203
-444.851	800.000	-0.052	0.168
-443.836	-127.583	-0.476	0.070
-442.822	36.066	-0.108	0.096
-441.807	800.000	-0.094	-0.311
-440.792	719.567	0.096	0.259
-439.778	800.000	0.053	0.160
-438.763	-76.924	-0.224	-0.080
-437.749	138.276	-0.160	0.212
-436.734	-166.875	0.271	0.011
-435.719	-80.641	-0.115	0.039
-434.705	-45.224	0.249	0.126
-433.690	-73.559	-0.175	0.065
-432.676	-200.000	0.091	0.426
-431.661	-56.114	-0.163	0.074
-430.646	318.972	-0.069	0.133
-429.632	122.742	-0.097	-0.123
-428.617	-200.000	0.038	-0.189
-427.603	-68.659	-0.228	-0.089
-426.588	-200.000	0.021	0.144
-425.573	29.522	0.078	0.068
-424.559	-61.422	-0.309	-0.132
-423.544	-200.000	-0.055	-0.362
-422.530	-143.258	0.163	0.016
-421.515	-200.000	-0.000	-0.100
-420.500	-200.000	-0.006	-0.225
-419.486	31.490	0.241	-0.209
-418.471	-183.608	-0.010	0.000
-417.457	155.430	-0.223	0.310
-416.442	303.601	-0.099	0.187
-415.428	-76.514	0.075	-0.027
-414.413	800.000	0.005	-0.021
-413.398	-130.117	-0.092	-0.013
-412.384	-122.954	-0.049	-0.008
-411.369	800.000	0.133	0.436
-410.355	-200.000	0.010	0.122
-409.340	169.295	-0.295	-0.427
-408.325	364.910	0.091	0.186
-407.311	-33.741	-0.099	0.056
-406.296	13.874	0.246	0.194
-405.282	-200.000	0.038	0.275
-404.267	-200.000	0.027	-0.232
-403.252	-200.000	-0.061	-0.281
-402.238	800.000	0.016	-0.065
-401.223	-80.353	0.104	0.035
-400.209	134.605	0.187	0.245
-399.194	-80.503	0.307	0.104
-398.179	-118.740	0.523	-0.093
-397.165	432.842	-0.072	-0.159
-396.150	-97.581	0.292	-0.077
-395.136	28.281	-0.217	0.185
-394.121	-200.000	0.002	0.270
-393.106	800.000	-0.083	-0.286
-392.092	-200.000	0.014	-0.313
-391.077	2.559	-0.152	-0.111
-390.063	-127.243	0.124	0.018
-389.048	-200.000	-0.069	-0.425
-388.033	800.000	-0.084	0.247
-387.019	800.000	-0.066	0.226
-386.004	800.000	0.046	0.188
-384.990	-200.000	-0.007	0.045
-383.975	148.824	-0.194	0.265
-382.960	-57.431	-0.074	-0.033
-381.946	31.078	0.300	0.261
-380.931	800.000	-0.051	0.219
-379.917	-106.322	-0.175	0.040
-378.902	227.591	-0.076	0.125
-377.888	-114.723	-0.314	0.061
-376.873	-46.574	-0.268	-0.133
-375.858	-50.768	0.045	0.022
-374.844	-51.839	0.294	0.139
-373.829	-200.000	0.034	-0.262
-372.815	376.838	-0.071	0.146
-371.800	-92.733	0.142	0.040
-370.785	-81.232	-0.376	-0.126
-369.771	-200.000	-0.049	-0.282
-368.756	44.204	0.183	-0.170
-367.742	91.881	-0.057	-0.065
-366.727	-75.725	-0.298	-0.107
-365.712	235.372	0.083	0.138
-364.698	-92.077	0.176	0.050
-363.683	-98.222	0.035	-0.009
-362.669	-24.969	0.466	0.279
-361.654	-3.159	-0.081	-0.057
-360.639	315.994	-0.066	0.125
-359.625	73.676	0.030	0.032
-358.610	29.818	-0.152	-0.131
-357.596	169.543	-0.008	-0.012
-356.581	-200.000	-0.049	0.289
-355.566	-200.000	-0.022	-0.159
-354.552	277.121	-0.135	0.242
-353.537	-59.933	0.263	0.114
-352.523	-118.485	-0.481	0.086
-351.508	134.026	-0.107	-0.140
-350.493	362.243	-0.127	-0.258
-349.479	-59.299	0.214	-0.093
-348.464	152.248	0.050	-0.069
-347.450	-161.975	0.220	-0.011
-346.435	425.424	-0.047	-0.103
-345.420	-58.166	-0.246	-0.108
-344.406	-200.000	0.022	-0.184
-343.391	150.573	0.087	0.119
-342.377	-111.860	-0.159	-0.032
-341.362	800.000	-0.208	-0.708
-340.348	-79.586	-0.516	-0.176
-339.333	-138.874	-0.380	0.042
-338.318	99.087	0.198	0.231
-337.304	672.330	0.084	0.220
-336.289	-200.000	-0.047	-0.294
-335.275	191.459	0.027	-0.041
-334.260	-112.376	-0.070	0.014
-333.245	-200.000	0.000	-0.043
-332.231	-99.823	-0.079	0.020
-331.216	290.586	-0.101	0.186
-330.202	-77.503	0.057	0.020
-329.187	343.576	-0.041	0.080
-328.172	27.993	0.244	0.208
-327.158	53.638	-0.196	0.190
-326.143	297.480	0.061	0.113
-325.129	-10.861	-0.339	0.226
-324.114	-104.978	0.094	0.022
-323.099	-35.915	0.306	-0.167
-322.085	68.456	0.088	-0.092
-321.070	-67.144	0.160	0.064
-320.056	-200.000	-0.043	-0.293
-319.041	-22.711	-0.180	-0.109
-318.026	-200.000	0.030	-0.174
-317.012	-90.558	0.273	0.080
-315.997	114.380	-0.219	0.269
-314.983	-135.450	-0.283	-0.034
-313.968	62.876	0.327	-0.331
-312.953	-65.874	-0.119	-0.048
-311.939	-78.444	0.193	0.067
-310.924	-143.114	0.541	0.053
-309.910	78.049	-0.103	-0.111
-308.895	7.278	-0.146	-0.110
-307.880	-9.832	-0.118	-0.079
-306.866	-112.153	0.316	-0.064
-305.851	800.000	-0.074	0.238
-304.837	-4.190	-0.243	0.170
-303.822	-200.000	-0.017	-0.262
-302.807	-47.748	-0.213	0.104
-301.793	-200.000	-0.032	0.458
-300.778	-157.330	-0.105	0.006
-299.764	25.582	0.220	0.184
-298.749	660.360	-0.056	-0.146
-297.735	315.623	-0.098	0.187
-296.720	151.656	0.134	0.184
-295.705	40.285	0.194	-0.176
-294.691	-103.588	-0.303	0.072
-293.676	-54.037	-0.051	-0.023
-292.662	164.354	-0.115	-0.164
-291.647	17.804	0.144	-0.115
-290.632	-86.004	0.143	-0.044
-289.618	-76.720	0.272	0.096
-288.603	279.962	0.201	0.363
-287.589	61.049	0.161	-0.161
-286.574	326.999	-0.145	-0.280
-285.559	-36.889	-0.150	0.081
-284.545	44.644	0.034	0.032
-283.530	-200.000	-0.011	0.212
-282.516	-42.689	-0.124	0.064
-281.501	788.828	0.052	0.145
-280.486	386.078	0.104	0.216
-279.472	-149.109	0.268	0.022
-278.457	-114.090	-0.012	0.002
-277.443	168.410	-0.139	0.200
-276.428	412.406	0.080	0.172
-275.413	-78.410	-0.285	0.099
-274.399	-200.000	-0.016	-0.458
-273.384	91.065	0.128	0.144
-272.370	21.289	0.101	0.083
-271.355	-29.258	-0.075	-0.043
-270.340	800.000	-0.004	0.012
-269.326	486.061	-0.092	-0.211
-268.311	-189.017	0.137	0.002
-267.297	82.608	0.246	-0.269
-266.282	800.000	-0.037	-0.112
-265.267	800.000	0.067	-0.229
-264.253	291.082	0.152	0.279
-263.238	-200.000	0.054	-0.383
-262.224	185.654	0.049	-0.073
-261.209	-200.000	-0.001	0.021
-260.195	-146.603	-0.144	-0.013
-259.180	-78.060	0.363	-0.126
-258.165	-170.149	0.161	-0.006
-257.151	800.000	-0.052	-0.158
-256.136	-200.000	-0.000	-0.075
-255.122	192.913	-0.090	-0.137
-254.107	-200.000	-0.041	-0.288
-253.092	-53.470	0.412	-0.190
-252.078	-200.000	-0.030	0.250
-251.063	-98.018	-0.478	-0.124
-250.049	-200.000	-0.027	-0.212
-249.034	-79.090	0.071	0.024
-248.019	-30.586	0.267	-0.152
-247.005	-147.972	-0.283	-0.024
-245.990	-42.874	0.084	-0.043
-244.976	-117.609	0.188	0.034
-243.961	-200.000	0.041	0.288
-242.946	571.029	0.142	-0.349
-241.932	-147.985	0.028	-0.002
-240.917	800.000	-0.090	0.380
-239.903	-46.241	-0.053	0.026
-238.888	22.352	-0.172	-0.142
-237.873	350.670	0.077	-0.154
-236.859	-200.000	0.013	0.063
-235.844	121.487	0.177	0.222
-234.830	800.000	0.083	0.354
-233.815	-71.246	-0.359	-0.136
-232.800	800.000	0.066	0.227
-231.786	148.993	0.183	-0.249
-230.771	-200.000	-0.047	0.281
-229.757	-23.721	0.117	-0.070
-228.742	-161.815	-0.250	0.013
-227.727	-48.798	0.215	-0.104
-226.713	115.333	-0.016	-0.020
-225.698	-110.441	-0.146	-0.031
-224.684	-94.757	0.045	0.012
-223.669	800.000	-0.044	-0.132
-222.655	7.775	-0.218	0.164
-221.640	-200.000	-0.003	0.138
-220.625	-12.089	0.232	-0.153
-219.611	-77.566	-0.289	-0.101
-218.596	-200.000	0.020	-0.214
-217.582	-155.162	0.038	-0.002
-216.567	-129.442	-0.211	-0.029
-215.552	-90.714	0.148	0.043
-214.538	-200.000	-0.030	0.294
-213.523	-200.000	0.069	0.372
-212.509	101.140	0.076	0.089
-211.494	-184.848	0.156	-0.002
-210.479	283.668	-0.165	0.297
-209.465	-17.930	0.280	-0.176
-208.450	-0.457	-0.239	0.171
-207.436	-200.000	0.031	-0.157
-206.421	800.000	0.076	0.301
-205.406	16.369	-0.310	-0.246
-204.392	32.897	0.042	0.037
-203.377	-200.000	0.038	0.212
-202.363	-160.804	-0.120	-0.006
-201.348	-112.855	-0.329	0.066
-200.333	-46.285	0.352	-0.174
-199.319	82.649	-0.140	0.153
-198.304	-62.949	-0.164	0.068
-197.290	800.000	0.057	0.182
-196.275	267.214	-0.085	0.149
-195.260	170.959	0.075	0.108
-194.246	-66.402	-0.190	0.076
-193.231	-57.468	0.116	-0.051
-192.217	800.000	-0.074	0.216
-191.202	-200.000	0.050	-0.579
-190.187	248.375	0.094	0.160
-189.173	22.393	-0.185	0.152
-188.158	-200.000	-0.082	0.366
-187.144	327.803	0.103	0.199
-186.129	-21.965	0.142	0.086
-185.114	-108.875	-0.330	0.071
-184.100	157.820	0.211	0.294
-183.085	-200.000	0.019	0.097
-182.071	800.000	0.079	-0.289
-181.056	-200.000	0.231	-0.001
-180.042	800.000	0.047	0.156
-179.027	-60.377	-0.113	-0.048
-178.012	-6.469	-0.069	0.048
-176.998	51.698	0.193	0.184
-175.983	-152.580	0.106	0.008
-174.969	-200.000	-0.038	-0.232
-173.954	-98.992	0.257	0.065
-172.939	15.720	-0.186	0.147
-171.925	4.096	0.222	-0.163
-170.910	-200.000	0.029	-0.173
-169.896	372.363	0.173	-0.352
-168.881	14.881	-0.126	0.099
-167.866	-43.550	0.100	-0.050
-166.852	-59.046	0.145	-0.063
-165.837	-46.952	-0.312	-0.153
-164.823	-200.000	-0.000	-0.067
-163.808	-97.647	0.087	0.023
-162.793	-200.000	0.041	0.217
-161.779	375.798	-0.125	-0.257
-160.764	28.864	0.041	0.035
-159.750	-24.859	-0.253	-0.150
-158.735	-100.749	0.159	0.039
-157.720	-200.000	0.035	-0.212
-156.706	-143.464	0.272	-0.026
-155.691	286.092	0.160	0.290
-154.677	-133.896	-0.220	-0.027
-153.662	268.009	0.041	0.073
-152.647	-56.189	-0.354	-0.158
-151.633	212.555	-0.030	0.048
-150.618	-96.060	-0.364	-0.097
-149.604	271.688	-0.080	-0.141
-148.589	800.000	0.043	0.148
-147.574	800.000	0.052	-0.162
-146.560	-200.000	-0.029	0.434
-145.545	-200.000	0.038	-0.181
-144.531	202.478	-0.137	-0.212
-143.516	150.174	-0.165	0.224
-142.502	-70.185	-0.284	0.108
-141.487	95.800	-0.245	-0.280
-140.472	27.134	-0.146	0.123
-139.458	-11.630	-0.240	0.158
-138.443	-200.000	-0.018	-0.205
-137.429	-200.000	-0.022	-0.244
-136.414	82.805	0.197	-0.215
-135.399	800.000	-0.021	-0.064
-134.385	528.103	0.124	-0.294
-133.370	-97.126	0.287	0.075
-132.356	-200.000	-0.015	0.135
-131.341	-200.000	-0.011	0.393
-130.326	800.000	-0.115	-0.367
-129.312	-52.624	-0.269	0.125
-128.297	-66.424	0.325	-0.129
-127.283	423.691	0.087	-0.187
-126.268	-90.524	0.274	0.080
-125.253	-32.022	0.141	0.079
-124.239	179.623	-0.250	0.367
-123.224	430.740	-0.059	0.128
-122.210	-142.488	0.380	-0.037
