DTS Sentinel unit serial number:	SN413079Multiplexer serial number:	ORYXHardware model number:	OX4-SRSoftware version number:	ORYX F/W v4.00 Oryx Data Collector v3.7.2.0data status	okinstallation	princeton_trtdifferential loss correction	single-endedforward channel	channel 4reverse channel	N/Adate	2019/09/11time	01:27:11forward acquisition time	60.00reverse acquisition time	0.00gamma	496.2192k internal	0.2317k external	0.2317temperature offset calibration	0.9949default loss term (dB/km)	0.3790temperature slope calibration	1.0000multiplexer offset coefficient	1.0000multiplexer slope coefficient	1.0000fibre end	0.00T internal ref (°C)	29.12T ext. ref 1 (°C)	-0.30T ext. ref 2 (°C)	23.52length (m)	temperature (°C)	Stokes	anti-Stokes-747.200	195.127	0.102	0.156
-746.185	2.293	0.064	-0.047
-745.171	-200.000	0.000	0.120
-744.156	136.551	-0.317	0.419
-743.142	-200.000	-0.022	-0.116
-742.127	-200.000	-0.036	0.188
-741.112	-140.402	-0.198	-0.021
-740.098	141.717	0.091	0.122
-739.083	14.211	-0.155	-0.122
-738.069	800.000	0.058	0.213
-737.054	-200.000	-0.014	-0.135
-736.039	49.505	-0.191	-0.182
-735.025	70.307	0.225	-0.236
-734.010	58.519	0.040	0.040
-732.996	-200.000	0.002	-0.309
-731.981	-153.027	0.278	-0.020
-730.966	-87.960	-0.158	-0.048
-729.952	160.498	-0.060	-0.085
-728.937	-79.909	-0.144	0.049
-727.923	-36.545	0.145	-0.079
-726.908	-18.053	0.304	-0.193
-725.894	791.806	-0.035	-0.097
-724.879	-120.410	-0.349	-0.060
-723.864	5.344	0.114	0.085
-722.850	-200.000	-0.059	0.319
-721.835	800.000	0.025	0.106
-720.821	-200.000	-0.019	0.292
-719.806	39.777	-0.204	0.185
-718.791	98.651	-0.196	-0.229
-717.777	-200.000	0.002	-0.239
-716.762	-176.452	-0.338	-0.009
-715.748	4.090	0.092	0.068
-714.733	183.576	-0.093	-0.138
-713.718	122.142	0.145	0.183
-712.704	136.397	0.085	-0.112
-711.689	-4.470	-0.040	-0.028
-710.675	800.000	-0.096	-0.376
-709.660	397.826	0.233	-0.493
-708.645	800.000	0.073	-0.305
-707.631	48.367	0.163	-0.154
-706.616	-56.486	-0.115	-0.052
-705.602	186.821	-0.102	-0.153
-704.587	-25.183	0.269	-0.161
-703.572	-49.571	-0.169	0.081
-702.558	528.035	0.197	-0.469
-701.543	390.530	0.106	0.221
-700.529	-22.641	-0.313	-0.191
-699.514	-75.594	0.081	-0.029
-698.499	19.446	-0.368	-0.299
-697.485	-128.349	-0.302	-0.044
-696.470	-158.443	-0.355	0.021
-695.456	21.163	-0.053	-0.043
-694.441	12.623	0.081	0.063
-693.426	-200.000	0.018	0.173
-692.412	-200.000	-0.010	-0.267
-691.397	259.926	0.134	-0.234
-690.383	-65.427	-0.174	0.071
-689.368	-200.000	0.007	-0.493
-688.354	-150.840	-0.255	-0.020
-687.339	-3.446	0.069	-0.049
-686.324	47.827	-0.191	0.180
-685.310	-76.398	0.025	-0.009
-684.295	800.000	0.038	0.110
-683.281	200.517	0.075	0.117
-682.266	405.948	-0.038	0.080
-681.251	585.178	0.057	0.140
-680.237	378.582	-0.086	-0.178
-679.222	-200.000	0.031	0.411
-678.208	-80.090	0.025	0.008
-677.193	-23.650	0.189	-0.114
-676.178	11.754	0.031	-0.024
-675.164	13.508	-0.111	-0.087
-674.149	-200.000	-0.047	-0.241
-673.135	-140.430	0.077	-0.008
-672.120	43.052	-0.191	0.176
-671.105	-200.000	0.010	0.204
-670.091	-142.184	0.326	0.033
-669.076	182.009	-0.066	-0.099
-668.062	-61.482	-0.173	-0.073
-667.047	-200.000	-0.040	0.224
-666.032	352.585	0.135	-0.270
-665.018	35.807	0.035	0.031
-664.003	94.938	-0.121	-0.139
-662.989	800.000	0.015	-0.043
-661.974	-85.660	-0.267	-0.084
-660.959	-44.660	0.259	-0.131
-659.945	800.000	0.101	-0.422
-658.930	-32.091	-0.146	-0.082
-657.916	-200.000	-0.026	-0.207
-656.901	-190.861	0.383	0.004
-655.886	-100.092	-0.347	-0.087
-654.872	-200.000	0.010	0.089
-653.857	-200.000	-0.026	-0.117
-652.843	-29.394	-0.273	-0.158
-651.828	-42.890	0.098	0.050
-650.814	-133.209	-0.184	-0.023
-649.799	800.000	-0.036	0.112
-648.784	-200.000	-0.025	-0.125
-647.770	15.496	0.097	-0.077
-646.755	35.197	-0.285	-0.252
-645.741	-84.875	-0.171	0.054
-644.726	65.262	0.077	0.078
-643.711	-200.000	0.002	0.031
-642.697	-111.635	-0.216	0.044
-641.682	-144.719	-0.186	0.017
-640.668	-107.002	-0.310	0.069
-639.653	-90.190	-0.133	-0.039
-638.638	-41.422	0.506	-0.263
-637.624	-176.295	0.145	-0.004
-636.609	39.573	-0.246	0.223
-635.595	-200.000	0.031	-0.429
-634.580	11.694	0.176	-0.136
-633.565	-25.639	-0.178	0.106
-632.551	-89.392	0.117	0.035
-631.536	-26.562	-0.286	-0.169
-630.522	-113.944	-0.230	-0.045
-629.507	622.379	0.004	-0.011
-628.492	-54.480	-0.091	-0.042
-627.478	426.519	0.133	-0.289
-626.463	-162.575	-0.243	0.012
-625.449	-44.635	0.219	-0.110
-624.434	-200.000	-0.100	-0.470
-623.419	96.329	-0.044	0.050
-622.405	611.004	0.094	-0.236
-621.390	269.364	0.100	0.177
-620.376	-90.649	0.374	0.109
-619.361	-93.983	0.354	0.098
-618.346	231.377	-0.232	-0.382
-617.332	332.246	-0.055	-0.107
-616.317	-63.255	-0.109	0.045
-615.303	-121.172	0.190	0.032
-614.288	71.205	-0.219	-0.229
-613.273	386.579	0.051	-0.107
-612.259	-100.458	0.474	0.118
-611.244	-117.820	-0.130	0.023
-610.230	254.345	-0.030	-0.052
-609.215	800.000	-0.151	-0.496
-608.201	405.183	0.144	0.307
-607.186	135.682	0.095	0.125
-606.171	-105.612	0.189	0.043
-605.157	71.536	-0.280	-0.293
-604.142	19.871	-0.310	-0.252
-603.128	800.000	-0.054	-0.222
-602.113	-200.000	0.018	0.240
-601.098	64.597	0.190	-0.193
-600.084	-81.911	0.268	-0.088
-599.069	68.064	0.073	0.075
-598.055	-200.000	0.035	0.198
-597.040	-138.644	-0.177	-0.020
-596.025	-200.000	-0.009	-0.144
-595.011	800.000	-0.081	-0.272
-593.996	-200.000	-0.042	0.260
-592.982	-200.000	0.020	0.161
-591.967	-200.000	0.034	0.170
-590.952	-200.000	-0.020	0.203
-589.938	-200.000	-0.020	0.100
-588.923	-200.000	-0.023	-0.224
-587.909	24.164	-0.071	0.059
-586.894	83.329	0.157	-0.172
-585.879	-123.768	-0.243	-0.039
-584.865	117.000	-0.295	0.364
-583.850	43.994	-0.145	-0.133
-582.836	500.784	-0.121	-0.280
-581.821	-200.000	-0.023	-0.131
-580.806	202.277	0.134	-0.208
-579.792	-200.000	0.054	-0.338
-578.777	-154.178	0.191	-0.013
-577.763	-12.467	0.286	-0.188
-576.748	11.917	-0.183	-0.141
-575.733	-200.000	-0.027	0.215
-574.719	340.537	-0.111	0.218
-573.704	501.125	0.023	-0.054
-572.690	-72.856	-0.271	-0.100
-571.675	-62.542	-0.175	0.073
-570.661	110.421	0.029	0.035
-569.646	488.788	-0.139	0.319
-568.631	-73.876	-0.356	-0.130
-567.617	-195.148	0.204	0.002
-566.602	-152.838	-0.327	0.023
-565.588	45.261	-0.098	0.091
-564.573	108.564	0.228	0.273
-563.558	150.528	-0.199	-0.272
-562.544	39.044	-0.070	-0.063
-561.529	-17.188	-0.289	0.183
-560.515	392.341	-0.080	0.167
-559.500	435.759	-0.156	0.340
-558.485	-117.298	0.170	-0.031
-557.471	-200.000	0.034	-0.379
-556.456	-200.000	-0.027	-0.362
-555.442	-141.979	0.152	-0.015
-554.427	32.743	-0.064	0.055
-553.412	479.388	-0.120	-0.273
-552.398	-60.538	0.154	0.066
-551.383	66.671	0.128	0.131
-550.369	-101.568	-0.058	0.014
-549.354	375.849	0.195	0.400
-548.339	413.989	-0.053	0.113
-547.325	-0.260	0.014	-0.010
-546.310	-8.010	0.117	-0.079
-545.296	-147.963	0.198	-0.017
-544.281	132.483	-0.214	0.278
-543.266	-193.376	-0.381	-0.003
-542.252	-29.146	-0.131	-0.075
-541.237	220.463	-0.095	0.152
-540.223	137.846	-0.210	0.277
-539.208	252.260	-0.030	-0.052
-538.193	581.606	0.062	0.152
-537.179	-174.684	-0.018	-0.001
-536.164	636.748	-0.077	-0.198
-535.150	-90.294	0.231	0.067
-534.135	173.134	-0.234	0.339
-533.121	-200.000	0.050	-0.265
-532.106	-153.984	-0.216	-0.015
-531.091	218.413	0.150	-0.240
-530.077	-200.000	-0.016	-0.203
-529.062	-50.144	-0.355	-0.169
-528.048	-177.775	0.364	0.009
-527.033	-200.000	-0.042	0.275
-526.018	-77.300	-0.385	0.134
-525.004	-116.450	-0.241	0.045
-523.989	-147.262	0.312	-0.027
-522.975	74.449	-0.180	-0.190
-521.960	151.373	-0.219	-0.299
-520.945	49.113	-0.265	0.250
-519.931	459.773	0.052	-0.116
-518.916	-200.000	0.043	-0.226
-517.902	-200.000	0.030	-0.141
-516.887	-137.278	0.141	0.016
-515.872	-157.991	0.189	0.011
-514.858	314.486	-0.075	-0.141
-513.843	-39.385	-0.214	-0.113
-512.829	57.489	0.073	0.072
-511.814	318.386	0.039	0.074
-510.799	-112.475	0.117	-0.023
-509.785	-4.502	0.023	0.016
-508.770	-200.000	-0.013	0.226
-507.756	-83.872	-0.457	0.146
-506.741	-200.000	0.025	-0.308
-505.726	273.157	0.069	-0.122
-504.712	-200.000	-0.010	0.218
-503.697	238.379	-0.133	-0.222
-502.683	630.320	0.083	0.210
-501.668	365.866	-0.109	-0.220
-500.653	800.000	0.067	-0.200
-499.639	-20.204	-0.139	0.086
-498.624	9.487	0.134	0.102
-497.610	-34.721	0.290	0.159
-496.595	-148.848	-0.085	-0.007
-495.581	136.379	-0.116	-0.152
-494.566	115.037	0.039	0.047
-493.551	97.313	0.070	0.080
-492.537	-55.033	-0.126	-0.057
-491.522	423.165	0.120	0.259
-490.508	595.953	0.007	0.017
-489.493	76.757	-0.062	0.066
-488.478	145.438	0.193	0.259
-487.464	161.457	0.143	-0.200
-486.449	203.892	-0.165	0.255
-485.435	-200.000	0.000	-0.065
-484.420	800.000	0.022	0.073
-483.405	-200.000	-0.022	-0.245
-482.391	16.111	0.295	0.233
-481.376	705.540	-0.036	0.096
-480.362	248.329	0.210	-0.355
-479.347	221.539	0.173	0.279
-478.332	-94.348	-0.220	-0.060
-477.318	161.194	0.050	0.070
-476.303	643.136	-0.052	0.132
-475.289	376.002	-0.053	-0.108
-474.274	-39.783	-0.380	-0.199
-473.259	288.627	-0.179	-0.325
-472.245	-200.000	0.027	-0.182
-471.230	223.594	0.067	0.108
-470.216	-32.514	0.107	0.060
-469.201	-111.186	0.190	-0.039
-468.186	-126.643	-0.223	-0.033
-467.172	-69.889	-0.271	-0.103
-466.157	-47.703	0.089	-0.043
-465.143	107.894	0.093	0.111
-464.128	-13.242	0.091	0.059
-463.113	16.665	0.070	-0.055
-462.099	-200.000	-0.050	0.292
-461.084	-120.723	0.164	-0.028
-460.070	-200.000	0.046	0.581
-459.055	-71.303	-0.136	-0.051
-458.040	-200.000	-0.049	-0.309
-457.026	-26.091	-0.161	0.095
-456.011	-34.148	-0.127	-0.070
-454.997	499.359	-0.072	-0.165
-453.982	-153.557	0.104	-0.007
-452.968	-200.000	0.014	-0.140
-451.953	46.616	-0.197	0.183
-450.938	-155.684	0.271	0.017
-449.924	237.547	-0.143	-0.237
-448.909	-106.100	-0.131	0.030
-447.895	-112.184	0.250	0.050
-446.880	230.671	-0.248	0.406
-445.865	776.961	-0.122	0.333
-444.851	228.816	0.220	0.358
-443.836	17.667	-0.015	-0.012
-442.822	86.221	0.259	-0.286
-441.807	41.114	0.140	0.127
-440.792	191.512	0.172	0.259
-439.778	150.597	-0.067	-0.091
-438.763	391.770	-0.080	0.167
-437.749	800.000	-0.061	-0.206
-436.734	800.000	-0.072	-0.204
-435.719	-68.232	0.508	-0.198
-434.705	154.222	-0.176	-0.242
-433.690	313.101	0.095	0.179
-432.676	298.960	-0.100	-0.184
-431.661	82.538	-0.045	0.048
-430.646	-47.933	-0.496	0.240
-429.632	375.170	0.058	-0.118
-428.617	-6.689	-0.107	-0.073
-427.603	-71.593	-0.352	0.132
-426.588	31.532	-0.116	0.100
-425.573	-159.590	-0.298	-0.017
-424.559	800.000	0.129	-0.359
-423.544	301.467	0.137	-0.253
-422.530	161.218	0.210	-0.293
-421.515	118.782	-0.182	-0.224
-420.500	104.111	-0.204	-0.240
-419.486	161.491	-0.059	0.083
-418.471	800.000	0.031	0.121
-417.457	115.930	-0.133	-0.163
-416.442	-115.987	-0.266	-0.050
-415.428	275.049	0.255	0.452
-414.413	42.078	0.203	0.184
-413.398	-70.654	-0.257	0.097
-412.384	289.983	-0.128	-0.232
-411.369	102.910	0.099	-0.115
-410.355	-89.970	0.136	-0.040
-409.340	800.000	0.043	-0.164
-408.325	23.287	-0.170	0.139
-407.311	-139.899	0.085	0.009
-406.296	-130.811	0.074	0.010
-405.282	18.690	-0.245	-0.196
-404.267	59.767	0.149	0.147
-403.252	317.057	-0.077	-0.145
-402.238	-200.000	0.026	-0.554
-401.223	800.000	-0.024	0.071
-400.209	-142.045	0.172	0.017
-399.194	38.867	-0.051	0.046
-398.179	-200.000	-0.007	0.156
-397.165	-51.963	-0.248	-0.115
-396.150	-7.882	0.171	0.115
-395.136	-200.000	0.017	-0.159
-394.121	-5.895	-0.062	-0.042
-393.106	138.837	0.085	-0.111
-392.092	-46.294	0.039	0.019
-391.077	-115.258	0.263	0.050
-390.063	351.924	0.154	-0.305
-389.048	-200.000	-0.092	0.429
-388.033	-76.128	0.040	-0.014
-387.019	126.901	0.110	-0.139
-386.004	96.700	0.336	0.384
-384.990	75.148	0.128	-0.135
-383.975	-200.000	0.000	-0.129
-382.960	-112.752	-0.326	-0.065
-381.946	-142.551	0.370	0.036
-380.931	9.810	0.176	0.133
-379.917	16.983	-0.192	0.152
-378.902	147.868	0.273	0.367
-377.888	-61.637	0.279	-0.117
-376.873	-151.325	0.240	-0.018
-375.858	-200.000	-0.046	0.450
-374.844	-23.386	0.180	0.108
-373.829	263.059	0.155	0.268
-372.815	170.517	0.070	0.099
-371.800	-9.626	0.177	-0.118
-370.785	-108.065	0.374	-0.081
-369.771	-62.927	0.309	-0.127
-368.756	-73.981	-0.133	0.048
-367.742	17.585	0.438	-0.348
-366.727	-200.000	-0.023	-0.100
-365.712	122.085	-0.161	0.200
-364.698	175.325	-0.325	-0.470
-363.683	-200.000	-0.003	-0.047
-362.669	800.000	-0.087	-0.265
-361.654	174.445	0.189	-0.273
-360.639	-76.213	0.318	-0.112
-359.625	-4.881	0.173	-0.119
-358.610	-200.000	-0.022	-0.319
-357.596	-82.323	0.096	-0.031
-356.581	-200.000	-0.016	-0.130
-355.566	-200.000	-0.022	0.104
-354.552	-6.424	-0.088	-0.060
-353.537	-166.396	0.194	-0.008
-352.523	133.786	-0.212	-0.273
-351.508	82.251	0.078	0.085
-350.493	-200.000	0.018	0.286
-349.479	-115.499	0.189	-0.036
-348.464	-71.051	-0.188	0.070
-347.450	83.027	-0.207	0.224
-346.435	-36.210	0.299	0.161
-345.420	-73.660	0.218	-0.079
-344.406	-22.114	0.052	-0.032
-343.391	-44.863	-0.384	0.191
-342.377	-200.000	0.033	-0.286
-341.362	-4.995	-0.291	0.199
-340.348	-200.000	0.003	0.148
-339.333	614.481	0.134	-0.335
-338.318	118.388	-0.126	0.155
-337.304	-73.729	-0.226	-0.082
-336.289	-83.533	0.261	0.083
-335.275	46.724	0.314	0.290
-334.260	-135.219	-0.255	0.030
-333.245	-194.730	0.184	-0.001
-332.231	-45.692	0.124	0.061
-331.216	-200.000	0.015	0.077
-330.202	-18.028	-0.144	0.090
-329.187	800.000	-0.136	0.431
-328.172	0.821	0.379	0.270
-327.158	170.229	-0.202	-0.288
-326.143	-200.000	-0.029	0.172
-325.129	-200.000	0.010	0.051
-324.114	447.766	0.118	-0.258
-323.099	124.591	0.260	-0.326
-322.085	194.521	-0.126	-0.191
-321.070	-138.321	-0.275	0.030
-320.056	-122.246	0.080	0.013
-319.041	-107.961	-0.465	0.101
-318.026	-200.000	-0.008	0.184
-317.012	89.200	0.145	0.161
-315.997	-200.000	0.099	-0.522
-314.983	-165.318	-0.060	-0.003
-313.968	-200.000	0.142	0.001
-312.953	224.975	-0.094	-0.152
-311.939	-92.584	-0.262	0.073
-310.924	-154.023	-0.255	0.017
-309.910	507.507	0.095	-0.219
-308.895	10.993	0.183	0.139
-307.880	16.400	-0.054	-0.042
-306.866	296.611	0.104	0.189
-305.851	165.589	0.198	0.278
-304.837	96.108	-0.148	-0.168
-303.822	-77.880	-0.288	-0.099
-302.807	-35.805	-0.157	0.084
-301.793	-200.000	0.046	0.312
-300.778	-103.125	0.129	-0.030
-299.764	700.166	-0.014	0.037
-298.749	187.083	-0.105	0.155
-297.735	-6.822	-0.112	0.076
-296.720	18.438	-0.080	-0.064
-295.705	-122.814	0.350	0.056
-294.691	-200.000	0.015	0.083
-293.676	-124.930	-0.187	0.029
-292.662	-200.000	-0.001	-0.066
-291.647	-116.933	-0.136	-0.025
-290.632	-29.278	0.185	-0.105
-289.618	539.431	-0.010	0.024
-288.603	26.679	0.145	-0.121
-287.589	-137.463	0.202	-0.023
-286.574	323.553	0.123	0.233
-285.559	91.548	0.065	0.072
-284.545	55.058	0.158	0.152
-283.530	-47.761	-0.101	0.049
-282.516	62.665	-0.268	-0.266
-281.501	-32.895	-0.279	-0.154
-280.486	137.375	0.218	0.283
-279.472	-12.774	0.110	-0.071
-278.457	-52.153	0.106	0.049
-277.443	-177.278	-0.208	-0.005
-276.428	-99.629	-0.450	0.112
-275.413	-71.725	-0.121	-0.045
-274.399	-160.663	-0.204	-0.011
-273.384	-200.000	0.039	-0.301
-272.370	-109.577	-0.025	0.005
-271.355	4.914	-0.164	0.120
-270.340	348.816	-0.047	-0.092
-269.326	-41.135	-0.088	-0.045
-268.311	260.103	-0.105	-0.181
-267.297	800.000	0.121	0.359
-266.282	-200.000	-0.018	0.174
-265.267	-200.000	0.096	0.000
-264.253	-178.776	0.318	-0.007
-263.238	-89.371	0.052	0.015
-262.224	-7.532	0.120	-0.080
-261.209	-101.113	0.293	-0.071
-260.195	-200.000	0.027	0.137
-259.180	800.000	0.043	-0.134
-258.165	13.676	0.166	-0.128
-257.151	-116.228	0.233	0.043
-256.136	-100.177	0.160	-0.040
-255.122	-146.628	0.078	-0.007
-254.107	-13.659	0.174	-0.112
-253.092	8.425	0.046	-0.034
-252.078	-32.076	0.198	-0.110
-251.063	-39.125	-0.209	0.109
-250.049	285.284	0.045	-0.081
-249.034	-200.000	0.077	-0.362
-248.019	-66.377	-0.188	0.074
-247.005	-104.688	-0.114	0.026
-245.990	207.631	-0.073	0.113
-244.976	-122.296	-0.092	0.015
-243.961	-88.077	0.296	-0.088
-242.946	-194.056	-0.172	-0.001
-241.932	91.033	-0.016	-0.018
-240.917	-118.511	-0.331	0.058
-239.903	179.748	0.079	-0.115
-238.888	-3.896	0.211	-0.145
-237.873	-0.354	-0.060	0.042
-236.859	-153.278	-0.211	0.015
-235.844	-74.107	-0.069	0.025
-234.830	754.570	0.075	0.203
-233.815	-31.757	-0.132	0.074
-232.800	404.865	-0.135	0.282
-231.786	21.592	-0.407	0.329
-230.771	-91.032	-0.363	-0.104
-229.757	89.702	-0.161	0.179
-228.742	28.852	0.144	-0.121
-227.727	-200.000	-0.010	-0.053
-226.713	-200.000	-0.026	0.246
-225.698	-21.093	-0.088	-0.053
-224.684	453.337	-0.062	0.137
-223.669	-137.507	-0.080	0.009
-222.655	-200.000	0.008	0.131
-221.640	47.076	0.102	0.094
-220.625	-3.186	0.121	0.084
-219.611	167.871	0.150	-0.211
-218.596	330.074	-0.042	0.080
-217.582	176.334	0.019	0.028
-216.567	-20.179	-0.173	-0.106
-215.552	-200.000	-0.055	0.335
-214.538	-63.158	0.320	-0.131
-213.523	-76.857	-0.082	-0.029
-212.509	0.228	0.079	-0.056
-211.494	-112.225	-0.204	-0.041
-210.479	800.000	0.062	0.230
-209.465	21.291	0.263	0.212
-208.450	85.610	0.234	0.255
-207.436	557.297	0.088	-0.210
-206.421	54.029	0.113	-0.108
-205.406	326.158	0.104	0.196
-204.392	-200.000	0.022	0.099
-203.377	-192.700	0.239	-0.002
-202.363	-200.000	0.009	0.168
-201.348	234.269	-0.069	0.113
-200.333	267.371	-0.144	-0.249
-199.319	-16.582	-0.227	0.143
-198.304	-20.804	-0.160	0.097
-197.290	-148.184	-0.115	-0.009
-196.275	-200.000	0.009	0.075
-195.260	106.706	-0.090	-0.106
-194.246	-79.351	0.124	-0.041
-193.231	-200.000	0.020	0.209
-192.217	-23.250	0.215	-0.128
-191.202	-200.000	-0.009	-0.164
-190.187	389.185	-0.092	0.188
-189.173	-145.719	0.097	-0.009
-188.158	800.000	0.101	0.323
-187.144	-200.000	0.001	-0.077
-186.129	-200.000	0.005	-0.235
-185.114	-58.237	-0.015	-0.007
-184.100	336.535	-0.046	0.088
-183.085	-162.514	0.474	0.023
-182.071	-200.000	0.035	-0.177
-181.056	195.578	-0.168	0.253
-180.042	-122.736	0.058	-0.009
-179.027	-79.660	0.332	-0.111
-178.012	-115.398	-0.369	0.069
-176.998	-157.520	0.533	0.032
-175.983	210.093	-0.026	0.041
-174.969	476.665	-0.102	0.227
-173.954	-200.000	0.015	0.249
-172.939	-200.000	-0.026	0.174
-171.925	-0.577	0.319	-0.224
-170.910	68.968	0.133	-0.136
-169.896	39.569	0.126	0.112
-168.881	-25.929	-0.161	0.094
-167.866	-200.000	-0.056	0.267
-166.852	-200.000	-0.096	0.500
-165.837	-78.666	0.262	-0.089
-164.823	14.841	0.148	-0.115
-163.808	-59.153	0.090	-0.038
-162.793	113.303	-0.100	0.120
-161.779	-10.962	0.145	0.095
-160.764	172.256	-0.024	0.034
-159.750	-12.739	-0.049	-0.032
-158.735	478.538	-0.026	0.058
-157.720	-167.598	0.378	0.015
-156.706	-105.378	0.148	0.033
-155.691	240.326	-0.081	-0.134
-154.677	-97.435	-0.247	0.063
-153.662	85.488	0.095	-0.103
-152.647	800.000	-0.013	0.053
-151.633	-139.719	0.173	-0.018
-150.618	-107.623	0.234	-0.050
-149.604	-200.000	0.045	-0.278
-148.589	-21.061	-0.264	0.160
-147.574	-151.215	0.345	-0.026
-146.560	362.642	-0.086	-0.171
-145.545	345.557	0.055	0.107
-144.531	131.164	0.115	-0.146
-143.516	111.551	0.018	-0.021
-142.502	-107.061	0.149	0.033
-141.487	95.400	0.028	-0.032
-140.472	-20.919	-0.374	-0.227
-139.458	800.000	-0.090	0.309
-138.443	50.651	-0.180	0.169
-137.429	654.290	-0.068	-0.172
-136.414	-54.981	0.352	-0.157
-135.399	-200.000	0.004	0.082
-134.385	-96.837	-0.034	0.009
-133.370	87.770	0.192	0.210
-132.356	-61.650	0.107	0.045
-131.341	-121.415	-0.284	-0.047
-130.326	-200.000	-0.010	0.078
-129.312	800.000	0.090	-0.276
-128.297	5.991	-0.313	-0.229
-127.283	800.000	-0.107	-0.325
-126.268	79.466	-0.292	-0.309
-125.253	43.035	-0.143	-0.129
-124.239	-90.850	0.010	0.003
-123.224	46.048	-0.141	-0.129
-122.210	7.051	-0.200	-0.148
