DTS Sentinel unit serial number:	SN413079Multiplexer serial number:	ORYXHardware model number:	OX4-SRSoftware version number:	ORYX F/W v4.00 Oryx Data Collector v3.7.2.0data status	okinstallation	princeton_trtdifferential loss correction	single-endedforward channel	channel 4reverse channel	N/Adate	2019/09/17time	02:41:34forward acquisition time	60.00reverse acquisition time	0.00gamma	496.2192k internal	0.2312k external	0.2312temperature offset calibration	0.9973default loss term (dB/km)	0.3790temperature slope calibration	1.0000multiplexer offset coefficient	1.0000multiplexer slope coefficient	1.0000fibre end	0.00T internal ref (°C)	29.86T ext. ref 1 (°C)	0.12T ext. ref 2 (°C)	24.83length (m)	temperature (°C)	Stokes	anti-Stokes-747.200	-62.524	-0.068	-0.029
-746.185	14.667	-0.351	0.278
-745.171	65.176	0.252	-0.259
-744.156	680.340	-0.127	0.335
-743.142	-118.041	0.175	0.032
-742.127	-200.000	-0.005	0.025
-741.112	106.269	0.166	-0.200
-740.098	3.862	-0.207	0.153
-739.083	-94.121	0.110	-0.031
-738.069	-114.617	0.512	-0.099
-737.054	631.841	-0.076	0.195
-736.039	119.701	-0.162	0.204
-735.025	-200.000	0.290	-0.000
-734.010	-200.000	-0.042	-0.236
-732.996	60.096	-0.110	0.111
-731.981	-200.000	0.011	0.198
-730.966	-78.250	0.185	-0.065
-729.952	-114.808	-0.241	0.047
-728.937	97.545	-0.226	0.263
-727.923	426.840	0.087	0.190
-726.908	43.542	0.107	0.099
-725.894	349.725	-0.137	0.275
-724.879	-18.735	-0.076	0.048
-723.864	594.748	-0.094	0.236
-722.850	-200.000	0.004	-0.021
-721.835	-10.759	-0.223	-0.149
-720.821	-200.000	0.019	-0.169
-719.806	105.820	0.110	-0.132
-718.791	-200.000	0.022	-0.255
-717.777	-70.188	-0.121	-0.047
-716.762	-200.000	0.004	-0.042
-715.748	421.599	-0.138	0.299
-714.733	-9.022	-0.069	0.047
-713.718	169.947	-0.071	0.103
-712.704	-84.649	0.148	0.047
-711.689	64.752	-0.069	-0.070
-710.675	326.470	-0.090	0.175
-709.660	-200.000	0.036	-0.210
-708.645	-124.070	0.068	-0.011
-707.631	-200.000	-0.001	0.040
-706.616	376.197	0.163	-0.338
-705.602	-200.000	0.018	-0.301
-704.587	180.800	0.176	-0.262
-703.572	47.156	0.126	-0.119
-702.558	301.471	-0.219	-0.410
-701.543	-160.274	0.371	0.020
-700.529	452.081	0.068	-0.152
-699.514	445.048	-0.075	-0.166
-698.499	-21.836	-0.076	0.047
-697.485	-5.692	0.267	0.186
-696.470	40.927	-0.196	-0.179
-695.456	-94.778	-0.519	-0.143
-694.441	-200.000	0.016	-0.112
-693.426	169.117	0.075	-0.109
-692.412	-200.000	0.012	0.160
-691.397	-200.000	-0.017	-0.256
-690.383	316.514	-0.117	0.223
-689.368	265.758	-0.058	0.103
-688.354	-200.000	0.032	-0.173
-687.339	134.010	-0.086	0.113
-686.324	800.000	0.034	0.132
-685.310	-63.856	-0.169	-0.070
-684.295	-132.448	-0.359	0.047
-683.281	-62.280	-0.252	-0.106
-682.266	-200.000	0.024	-0.124
-681.251	1.146	0.193	-0.140
-680.237	-200.000	0.027	-0.238
-679.222	-200.000	0.021	0.184
-678.208	-6.334	0.158	0.109
-677.193	-200.000	-0.002	-0.209
-676.178	-42.008	-0.227	-0.117
-675.164	667.347	-0.148	-0.387
-674.149	383.097	-0.115	-0.240
-673.135	-103.905	-0.107	0.025
-672.120	-128.973	-0.113	-0.016
-671.105	190.146	0.225	0.342
-670.091	-47.702	-0.251	0.123
-669.076	47.716	0.172	0.162
-668.062	31.931	-0.253	0.221
-667.047	-200.000	-0.040	0.198
-666.032	-200.000	-0.011	-0.169
-665.018	800.000	0.071	-0.208
-664.003	74.089	-0.047	-0.050
-662.989	199.425	-0.152	-0.235
-661.974	111.279	0.244	-0.298
-660.959	-46.207	-0.350	-0.174
-659.945	-47.021	-0.388	-0.192
-658.930	-200.000	-0.042	-0.212
-657.916	-27.793	0.301	-0.177
-656.901	-102.073	-0.162	-0.040
-655.886	-46.776	0.275	0.136
-654.872	100.723	0.115	0.135
-653.857	800.000	0.082	-0.269
-652.843	-167.636	-0.103	0.004
-651.828	390.225	-0.066	0.139
-650.814	800.000	0.107	0.323
-649.799	-55.179	0.042	-0.019
-648.784	78.348	-0.185	0.200
-647.770	-145.901	0.083	-0.007
-646.755	-129.132	-0.533	0.075
-645.741	127.698	0.117	-0.150
-644.726	-200.000	-0.065	-0.307
-643.711	-0.980	0.265	-0.190
-642.697	-19.367	0.185	-0.116
-641.682	183.459	-0.168	0.251
-640.668	-200.000	-0.023	-0.172
-639.653	-104.587	-0.247	-0.058
-638.638	45.891	-0.110	0.103
-637.624	-168.511	0.208	-0.008
-636.609	367.215	0.110	-0.225
-635.595	-50.107	-0.087	-0.042
-634.580	-113.503	0.333	0.066
-633.565	91.843	-0.134	0.153
-632.551	-159.904	-0.163	0.009
-631.536	-53.546	-0.367	-0.169
-630.522	-14.368	-0.210	-0.137
-629.507	428.740	0.044	0.096
-628.492	-200.000	0.000	-0.217
-627.478	-163.419	0.121	-0.006
-626.463	16.046	0.131	-0.104
-625.449	-200.000	0.066	-0.303
-624.434	211.887	-0.156	0.248
-623.419	2.195	-0.104	-0.076
-622.405	403.128	0.069	-0.146
-621.390	34.055	-0.074	0.065
-620.376	-200.000	-0.059	-0.381
-619.361	189.129	0.192	0.290
-618.346	0.776	-0.011	0.008
-617.332	-42.431	-0.176	0.091
-616.317	-200.000	-0.046	0.263
-615.303	-69.478	-0.297	0.115
-614.288	58.285	0.214	0.212
-613.273	18.531	-0.106	0.086
-612.259	-200.000	-0.028	-0.142
-611.244	361.062	0.005	-0.010
-610.230	266.134	0.152	0.267
-609.215	459.860	-0.043	-0.097
-608.201	-85.015	0.156	-0.050
-607.186	649.757	0.068	0.175
-606.171	-153.774	-0.272	-0.019
-605.157	-158.165	0.077	0.005
-604.142	429.937	0.199	-0.434
-603.128	800.000	-0.022	-0.073
-602.113	-150.470	-0.063	0.005
-601.098	-14.984	-0.101	0.065
-600.084	-200.000	-0.068	0.345
-599.069	727.018	0.047	0.126
-598.055	-200.000	-0.045	0.266
-597.040	292.745	0.034	-0.063
-596.025	800.000	0.101	0.400
-595.011	386.987	-0.065	0.136
-593.996	-120.862	-0.429	-0.073
-592.982	-65.894	-0.135	0.055
-591.967	-200.000	0.010	-0.276
-590.952	3.229	0.169	0.124
-589.938	800.000	0.083	0.248
-588.923	-200.000	0.010	0.111
-587.909	-16.131	-0.077	0.049
-586.894	-24.303	-0.233	-0.140
-585.879	-2.334	0.241	-0.170
-584.865	-44.872	-0.159	0.080
-583.850	-153.287	-0.219	-0.015
-582.836	-117.333	0.314	-0.057
-581.821	-163.237	-0.328	-0.016
-580.806	190.222	-0.106	-0.160
-579.792	-48.116	0.170	-0.083
-578.777	442.433	-0.147	0.326
-577.763	624.420	0.124	0.314
-576.748	-81.556	0.272	-0.090
-575.733	-41.322	0.123	-0.064
-574.719	-111.096	0.253	-0.052
-573.704	800.000	-0.093	0.289
-572.690	-143.728	-0.495	0.047
-571.675	800.000	-0.018	-0.056
-570.661	-85.008	0.559	-0.177
-569.646	158.081	0.178	0.249
-568.631	-116.953	0.065	0.012
-567.617	150.114	0.103	0.141
-566.602	-200.000	-0.012	0.108
-565.588	10.786	-0.075	0.058
-564.573	-51.131	-0.269	-0.127
-563.558	-133.047	-0.041	-0.005
-562.544	-73.881	-0.171	-0.063
-561.529	233.101	-0.122	-0.202
-560.515	623.020	-0.110	-0.278
-559.500	616.522	-0.015	-0.038
-558.485	800.000	-0.096	-0.297
-557.471	-200.000	0.024	-0.140
-556.456	-200.000	0.043	0.221
-555.442	-200.000	0.023	0.217
-554.427	-108.222	-0.287	-0.062
-553.412	-62.535	-0.095	-0.040
-552.398	-44.491	0.081	0.041
-551.383	-48.342	0.334	-0.162
-550.369	-200.000	0.365	-0.000
-549.354	-40.387	-0.077	-0.040
-548.339	-200.000	0.021	0.185
-547.325	133.634	0.117	-0.153
-546.310	-200.000	0.013	-0.117
-545.296	46.781	0.208	-0.195
-544.281	719.317	-0.193	-0.517
-543.266	31.388	0.245	0.212
-542.252	77.756	0.301	0.323
-541.237	-200.000	-0.044	-0.198
-540.223	-96.804	0.160	-0.042
-539.208	91.335	-0.189	0.214
-538.193	-200.000	-0.024	0.439
-537.179	265.910	-0.073	-0.127
-536.164	-98.816	0.158	-0.040
-535.150	6.105	0.060	0.045
-534.135	-108.184	0.143	-0.031
-533.121	-150.014	-0.132	-0.010
-532.106	274.261	-0.117	-0.208
-531.091	161.007	0.079	0.112
-530.077	-148.596	0.246	-0.020
-529.062	352.701	0.163	0.326
-528.048	327.457	-0.087	-0.168
-527.033	-28.125	0.061	0.036
-526.018	-106.998	0.200	0.044
-525.004	364.516	0.042	-0.084
-523.989	-25.100	0.183	-0.109
-522.975	-199.952	-0.119	0.001
-521.960	-43.951	-0.213	0.108
-520.945	-200.000	0.004	-0.081
-519.931	-58.613	-0.221	0.096
-518.916	281.995	-0.036	0.065
-517.902	-102.371	-0.246	0.059
-516.887	134.720	0.088	-0.114
-515.872	171.086	-0.138	-0.199
-514.858	-98.046	-0.578	-0.150
-513.843	-77.974	-0.190	0.066
-512.829	651.403	-0.153	-0.394
-511.814	-58.297	0.241	0.105
-510.799	-156.312	-0.379	0.024
-509.785	800.000	-0.076	-0.255
-508.770	-163.907	0.130	0.006
-507.756	-58.715	-0.132	-0.058
-506.741	-130.386	0.188	0.026
-505.726	-67.173	0.387	0.153
-504.712	-86.698	-0.198	0.061
-503.697	407.592	0.123	-0.261
-502.683	800.000	0.046	-0.173
-501.668	-25.383	-0.249	0.148
-500.653	53.736	0.028	0.027
-499.639	148.468	0.125	0.170
-498.624	3.291	0.170	0.125
-497.610	-200.000	0.016	-0.099
-496.595	-13.337	-0.027	-0.018
-495.581	-57.739	0.267	0.118
-494.566	-200.000	0.019	0.110
-493.551	-152.679	0.023	-0.002
-492.537	-63.667	0.200	-0.083
-491.522	-110.976	0.549	-0.113
-490.508	-200.000	0.028	-0.341
-489.493	78.292	0.019	0.021
-488.478	414.791	0.050	0.106
-487.464	21.435	0.199	0.162
-486.449	-200.000	-0.017	0.230
-485.435	160.879	0.073	0.102
-484.420	-200.000	0.016	-0.086
-483.405	-200.000	0.002	0.232
-482.391	-168.707	-0.172	0.007
-481.376	-158.043	0.260	0.015
-480.362	339.276	0.090	0.177
-479.347	334.598	-0.080	0.156
-478.332	569.039	0.097	0.236
-477.318	-146.312	-0.091	0.008
-476.303	-134.992	-0.186	-0.023
-475.289	485.777	0.055	-0.126
-474.274	193.041	-0.199	-0.302
-473.259	-63.112	0.098	-0.041
-472.245	-92.454	0.391	-0.110
-471.230	-200.000	0.020	0.164
-470.216	-179.601	0.461	0.010
-469.201	658.923	-0.090	0.232
-468.186	-109.825	-0.219	0.046
-467.172	-20.798	-0.180	-0.111
-466.157	121.007	0.091	0.114
-465.143	552.732	-0.073	-0.177
-464.128	199.843	-0.162	-0.249
-463.113	-146.791	0.283	-0.024
-462.099	77.153	-0.126	0.134
-461.084	424.343	0.113	-0.243
-460.070	-73.463	0.208	0.076
-459.055	426.127	0.082	0.178
-458.040	-200.000	0.006	0.098
-457.026	-133.234	0.188	0.024
-456.011	-122.904	0.047	0.008
-454.997	487.703	0.107	0.246
-453.982	-124.562	-0.235	-0.037
-452.968	-200.000	0.000	0.255
-451.953	118.323	0.121	0.149
-450.938	-101.601	0.137	0.033
-449.924	-88.906	-0.251	-0.075
-448.909	-33.303	0.098	0.055
-447.895	800.000	0.037	-0.155
-446.880	177.378	-0.114	0.166
-445.865	354.792	-0.129	-0.257
-444.851	-92.393	0.172	-0.049
-443.836	-121.888	0.083	-0.014
-442.822	-172.962	-0.199	0.006
-441.807	56.443	-0.080	0.078
-440.792	179.115	-0.095	-0.140
-439.778	220.442	0.119	-0.192
-438.763	58.281	0.084	0.082
-437.749	130.421	-0.051	0.065
-436.734	-36.294	-0.398	-0.215
-435.719	800.000	-0.079	0.278
-434.705	-84.481	0.136	0.043
-433.690	440.362	0.081	0.178
-432.676	272.317	0.105	-0.186
-431.661	240.467	-0.116	0.193
-430.646	226.302	0.047	0.076
-429.632	-151.391	0.240	-0.018
-428.617	38.488	-0.130	-0.116
-427.603	-200.000	-0.026	0.135
-426.588	355.350	-0.132	-0.263
-425.573	-185.872	-0.338	0.005
-424.559	-56.185	0.303	0.135
-423.544	-56.174	0.090	-0.040
-422.530	-77.904	-0.171	-0.059
-421.515	342.784	0.144	0.282
-420.500	7.912	-0.111	0.083
-419.486	87.311	0.079	-0.087
-418.471	85.488	0.290	0.319
-417.457	-58.730	0.226	-0.098
-416.442	-200.000	-0.002	0.104
-415.428	-100.097	-0.208	-0.052
-414.413	-66.713	-0.371	0.147
-413.398	800.000	0.073	-0.319
-412.384	800.000	0.113	-0.352
-411.369	169.690	-0.138	-0.197
-410.355	154.387	0.269	0.370
-409.340	79.052	0.142	0.152
-408.325	80.514	0.127	0.137
-407.311	75.663	-0.024	-0.026
-406.296	-5.167	-0.317	-0.218
-405.282	-144.279	-0.216	0.020
-404.267	136.444	-0.100	-0.130
-403.252	-45.781	-0.163	0.080
-402.238	69.612	0.230	-0.237
-401.223	-200.000	-0.004	0.231
-400.209	-32.088	-0.238	-0.133
-399.194	402.845	-0.111	0.234
-398.179	-200.000	-0.028	0.135
-397.165	-63.354	-0.101	0.042
-396.150	59.998	0.089	0.088
-395.136	800.000	0.128	0.538
-394.121	-200.000	0.020	0.191
-393.106	-34.782	-0.143	0.078
-392.092	298.781	0.185	-0.341
-391.077	287.302	0.068	0.124
-390.063	57.711	0.164	0.161
-389.048	-62.111	0.071	0.030
-388.033	-128.305	0.124	-0.018
-387.019	-107.340	0.513	0.113
-386.004	-72.427	-0.205	0.076
-384.990	-200.000	-0.035	-0.163
-383.975	26.426	-0.110	-0.092
-382.960	108.829	0.073	0.087
-381.946	-62.859	-0.028	0.012
-380.931	-122.172	0.226	-0.037
-379.917	85.280	-0.078	-0.086
-378.902	-123.262	0.363	0.058
-377.888	12.182	-0.282	-0.217
-376.873	1.429	-0.083	0.059
-375.858	93.355	-0.129	-0.146
-374.844	-104.825	0.229	0.053
-373.829	54.366	-0.159	-0.153
-372.815	-163.752	-0.281	0.013
-371.800	-54.838	0.297	0.134
-370.785	-78.727	-0.364	-0.124
-369.771	-200.000	-0.016	0.138
-368.756	218.753	0.042	0.067
-367.742	155.336	-0.282	-0.388
-366.727	-99.087	0.144	0.036
-365.712	421.529	0.069	0.148
-364.698	-147.121	-0.278	-0.024
-363.683	-33.156	-0.305	-0.169
-362.669	-200.000	-0.004	0.253
-361.654	-80.381	-0.184	-0.062
-360.639	52.753	0.102	-0.097
-359.625	457.019	-0.079	-0.175
-358.610	293.894	0.105	0.193
-357.596	-112.954	-0.368	-0.073
-356.581	471.152	0.092	0.208
-355.566	329.389	-0.102	0.197
-354.552	261.854	-0.065	0.113
-353.537	170.667	0.050	-0.072
-352.523	614.410	0.071	0.177
-351.508	174.120	-0.218	0.314
-350.493	529.195	-0.045	-0.106
-349.479	-88.582	-0.081	0.024
-348.464	-92.217	-0.155	-0.044
-347.450	-139.949	-0.356	-0.038
-346.435	-172.163	0.401	-0.013
-345.420	-81.056	0.353	0.117
-344.406	-42.698	-0.264	-0.134
-343.391	-157.700	-0.212	-0.013
-342.377	98.531	-0.256	-0.295
-341.362	-200.000	0.043	-0.305
-340.348	184.655	-0.178	-0.263
-339.333	-110.699	0.119	0.025
-338.318	743.651	0.124	-0.332
-337.304	-200.000	-0.029	0.270
-336.289	-11.901	-0.114	-0.075
-335.275	800.000	0.080	0.259
-334.260	-200.000	0.008	-0.060
-333.245	800.000	0.021	-0.059
-332.231	-134.645	-0.145	0.018
-331.216	71.547	-0.212	0.220
-330.202	-42.914	0.197	0.100
-329.187	15.169	-0.103	-0.081
-328.172	-44.950	-0.042	-0.021
-327.158	-95.378	0.123	-0.033
-326.143	-114.393	0.107	-0.021
-325.129	296.241	0.111	-0.203
-324.114	-28.558	0.063	0.036
-323.099	-200.000	-0.054	-0.376
-322.085	-175.347	-0.200	0.005
-321.070	96.977	-0.135	0.155
-320.056	162.972	0.102	-0.143
-319.041	-22.798	0.376	-0.227
-318.026	800.000	0.092	0.277
-317.012	86.699	-0.404	0.445
-315.997	478.037	-0.117	0.264
-314.983	-200.000	0.041	0.209
-313.968	2.870	0.064	0.047
-312.953	63.447	-0.211	-0.211
-311.939	51.218	0.216	-0.205
-310.924	-27.504	0.112	0.065
-309.910	134.707	-0.046	-0.060
-308.895	-90.126	0.557	-0.162
-307.880	321.857	-0.197	-0.375
-306.866	-106.762	-0.308	-0.068
-305.851	316.140	-0.118	0.222
-304.837	284.588	-0.013	0.023
-303.822	-92.898	-0.041	0.011
-302.807	-12.567	0.200	-0.130
-301.793	155.952	-0.146	0.201
-300.778	18.225	-0.151	-0.121
-299.764	-84.123	0.078	-0.025
-298.749	800.000	0.024	0.078
-297.735	132.298	0.027	-0.034
-296.720	697.674	0.084	0.220
-295.705	-54.497	0.378	-0.171
-294.691	784.622	-0.024	-0.067
-293.676	800.000	-0.028	0.111
-292.662	-200.000	0.018	0.119
-291.647	-200.000	0.003	0.223
-290.632	800.000	-0.132	-0.391
-289.618	-200.000	-0.020	0.206
-288.603	27.185	0.301	0.252
-287.589	70.394	0.218	0.224
-286.574	-200.000	0.002	0.069
-285.559	-66.512	0.177	0.070
-284.545	370.841	0.132	-0.266
-283.530	-45.528	0.134	0.066
-282.516	-7.535	0.076	0.051
-281.501	74.067	0.215	0.224
-280.486	234.475	-0.077	-0.126
-279.472	-72.900	0.128	0.047
-278.457	113.833	-0.063	-0.076
-277.443	-135.447	-0.449	0.053
-276.428	-25.139	-0.357	0.211
-275.413	800.000	-0.031	-0.130
-274.399	-123.184	0.170	-0.027
-273.384	122.508	0.162	0.202
-272.370	110.285	-0.091	-0.109
-271.355	800.000	0.037	0.133
-270.340	165.961	-0.298	-0.420
-269.326	57.644	0.071	-0.069
-268.311	-151.535	0.065	-0.005
-267.297	-14.682	0.074	0.047
-266.282	55.672	0.178	-0.172
-265.267	505.108	-0.084	0.194
-264.253	800.000	-0.064	0.199
-263.238	-200.000	0.016	-0.216
-262.224	-148.616	-0.454	0.037
-261.209	-38.639	0.271	0.142
-260.195	-137.243	0.176	-0.020
-259.180	447.328	0.067	-0.146
-258.165	278.221	-0.090	0.159
-257.151	0.824	-0.060	0.043
-256.136	265.192	-0.121	0.210
-255.122	125.964	-0.357	-0.449
-254.107	-29.078	0.144	0.082
-253.092	20.636	-0.080	0.064
-252.078	111.423	0.193	0.231
-251.063	800.000	0.108	0.299
-250.049	-200.000	0.005	0.196
-249.034	47.122	-0.295	-0.273
-248.019	-134.282	-0.304	0.037
-247.005	-50.792	0.183	0.086
-245.990	-93.915	-0.168	-0.046
-244.976	-200.000	-0.006	0.219
-243.961	-200.000	0.031	0.194
-242.946	226.918	0.038	0.061
-241.932	800.000	-0.153	-0.474
-240.917	447.003	0.246	0.537
-239.903	-34.747	0.081	0.044
-238.888	109.907	-0.078	0.093
-237.873	-113.084	-0.180	0.035
-236.859	-141.496	-0.211	-0.021
-235.844	-83.644	-0.174	0.055
-234.830	-153.179	0.121	0.008
-233.815	-156.675	0.309	-0.019
-232.800	-200.000	0.015	-0.141
-231.786	131.601	-0.178	-0.227
-230.771	-200.000	0.006	0.236
-229.757	668.036	0.075	-0.193
-228.742	-172.876	-0.211	-0.007
-227.727	494.457	-0.132	0.300
-226.713	800.000	-0.137	-0.378
-225.698	108.221	0.054	-0.064
-224.684	-94.780	0.407	-0.110
-223.669	83.724	-0.152	0.165
-222.655	148.529	-0.172	-0.231
-221.640	9.736	0.226	0.171
-220.625	-200.000	0.013	0.126
-219.611	-35.777	-0.322	-0.174
-218.596	366.526	-0.083	0.167
-217.582	286.486	-0.107	0.193
-216.567	-94.032	-0.092	0.025
-215.552	94.664	0.196	-0.221
-214.538	246.871	0.150	-0.251
-213.523	-149.738	0.364	0.028
-212.509	-32.928	0.163	-0.090
-211.494	-155.441	-0.286	-0.018
-210.479	-132.825	-0.206	-0.026
-209.465	-78.045	0.276	0.094
-208.450	-31.458	0.167	-0.093
-207.436	232.836	0.256	0.418
-206.421	-29.758	-0.194	0.110
-205.406	-17.299	0.178	0.111
-204.392	-200.000	0.027	-0.495
-203.377	192.866	0.187	-0.281
-202.363	386.564	0.074	-0.152
-201.348	-128.877	0.034	0.005
-200.333	-139.026	-0.080	-0.009
-199.319	-114.417	-0.269	-0.051
-198.304	-22.259	0.420	-0.253
-197.290	-120.428	0.189	0.032
-196.275	-4.149	-0.148	-0.102
-195.260	736.046	-0.052	-0.138
-194.246	-65.378	0.284	-0.114
-193.231	800.000	0.113	0.351
-192.217	-30.935	0.115	0.064
-191.202	89.288	-0.093	0.103
-190.187	47.685	-0.209	-0.194
-189.173	-200.000	-0.056	-0.408
-188.158	597.092	0.155	-0.382
-187.144	-200.000	0.017	-0.078
-186.129	472.855	-0.179	-0.400
-185.114	-99.682	0.194	-0.048
-184.100	641.988	-0.069	0.176
-183.085	752.241	-0.033	-0.090
-182.071	313.627	-0.199	-0.371
-181.056	175.199	-0.173	-0.249
-180.042	-44.305	0.129	0.064
-179.027	-52.326	-0.094	0.043
-178.012	101.974	-0.123	0.142
-176.998	-60.229	0.208	0.088
-175.983	-108.240	0.076	-0.016
-174.969	6.576	0.346	0.256
-173.954	-136.805	-0.271	-0.031
-172.939	-1.700	0.140	-0.098
-171.925	800.000	-0.008	0.036
-170.910	55.109	-0.200	-0.192
-169.896	-162.702	0.088	-0.004
-168.881	22.913	-0.243	0.198
-167.866	-200.000	0.023	-0.163
-166.852	-169.534	-0.272	-0.010
-165.837	51.083	-0.139	-0.131
-164.823	18.257	0.520	0.411
-163.808	-81.164	-0.050	-0.016
-162.793	66.447	0.198	-0.199
-161.779	-89.265	0.288	-0.084
-160.764	800.000	0.068	-0.272
-159.750	78.206	-0.168	0.178
-158.735	46.791	0.114	0.105
-157.720	-160.187	-0.064	0.003
-156.706	-200.000	-0.004	0.068
-155.691	-89.018	-0.044	0.013
-154.677	-34.240	-0.188	-0.102
-153.662	-101.194	-0.102	-0.025
-152.647	277.764	0.105	-0.185
-151.633	546.914	0.076	-0.181
-150.618	-170.208	0.160	0.006
-149.604	-127.759	-0.108	-0.015
-148.589	-158.572	-0.132	0.008
-147.574	-31.196	0.037	-0.021
-146.560	-149.666	-0.112	-0.009
-145.545	284.139	-0.050	-0.089
-144.531	-200.000	0.027	0.213
-143.516	800.000	0.139	0.407
-142.502	88.512	0.126	-0.138
-141.487	199.505	0.069	0.104
-140.472	-14.069	0.130	-0.083
-139.458	-200.000	-0.324	-0.001
-138.443	207.985	0.222	0.344
-137.429	-153.216	-0.257	0.018
-136.414	120.465	0.061	0.075
-135.399	-200.000	-0.002	-0.154
-134.385	31.916	-0.129	-0.110
-133.370	43.341	0.182	0.165
-132.356	-69.932	0.227	-0.086
-131.341	207.559	0.277	-0.429
-130.326	-129.608	0.293	0.040
-129.312	800.000	-0.048	0.186
-128.297	214.555	0.124	0.194
-127.283	-8.314	-0.335	0.223
-126.268	-21.008	0.144	-0.087
-125.253	440.605	-0.037	-0.079
-124.239	-146.436	0.122	-0.011
-123.224	-200.000	-0.005	0.077
-122.210	-200.000	0.027	0.168
-121.195	-74.107	0.087	0.031
