DTS Sentinel unit serial number:	SN413079Multiplexer serial number:	ORYXHardware model number:	OX4-SRSoftware version number:	ORYX F/W v4.00 Oryx Data Collector v3.7.2.0data status	okinstallation	princeton_trtdifferential loss correction	single-endedforward channel	channel 4reverse channel	N/Adate	2019/09/14time	02:41:35forward acquisition time	60.00reverse acquisition time	0.00gamma	496.2192k internal	0.2322k external	0.2322temperature offset calibration	1.0132default loss term (dB/km)	0.3790temperature slope calibration	1.0000multiplexer offset coefficient	1.0000multiplexer slope coefficient	1.0000fibre end	0.00T internal ref (°C)	26.53T ext. ref 1 (°C)	3.24T ext. ref 2 (°C)	21.57length (m)	temperature (°C)	Stokes	anti-Stokes-747.200	-99.142	-0.050	-0.013
-746.185	-67.270	-0.206	0.082
-745.171	47.635	-0.104	-0.098
-744.156	-200.000	-0.053	0.241
-743.142	137.519	0.358	0.473
-742.127	-112.475	-0.335	0.068
-741.112	800.000	0.059	0.172
-740.098	-140.015	-0.133	0.014
-739.083	5.816	0.304	0.227
-738.069	-120.302	0.120	0.021
-737.054	187.164	0.055	0.083
-736.039	-200.000	0.015	0.299
-735.025	-98.587	0.067	-0.017
-734.010	15.238	-0.196	-0.155
-732.996	216.449	0.095	0.153
-731.981	17.530	0.017	-0.014
-730.966	-130.312	-0.238	-0.033
-729.952	-82.269	-0.084	-0.028
-728.937	-200.000	0.012	0.101
-727.923	-48.796	-0.121	0.058
-726.908	-10.268	0.029	0.019
-725.894	800.000	-0.039	0.142
-724.879	24.678	0.154	-0.129
-723.864	-15.330	0.204	-0.132
-722.850	-50.553	0.084	0.040
-721.835	-43.826	-0.077	-0.039
-720.821	40.441	0.120	-0.109
-719.806	204.591	-0.129	0.203
-718.791	-72.096	-0.341	-0.128
-717.777	-200.000	-0.011	-0.382
-716.762	800.000	-0.077	-0.241
-715.748	296.860	0.099	-0.183
-714.733	-119.883	-0.310	0.054
-713.718	55.374	-0.095	-0.093
-712.704	-57.616	-0.493	0.218
-711.689	-168.730	-0.157	0.006
-710.675	800.000	-0.014	-0.056
-709.660	-200.000	0.004	-0.411
-708.645	800.000	0.066	-0.266
-707.631	-14.454	0.184	0.120
-706.616	69.065	0.272	-0.282
-705.602	-104.143	-0.322	-0.076
-704.587	22.164	0.118	0.097
-703.572	-41.168	-0.179	-0.093
-702.558	205.712	-0.070	-0.109
-701.543	350.541	0.163	-0.325
-700.529	129.824	0.074	0.096
-699.514	-200.000	-0.027	-0.208
-698.499	33.937	-0.142	-0.125
-697.485	279.174	-0.121	0.217
-696.470	354.140	-0.097	-0.194
-695.456	-128.922	0.151	-0.021
-694.441	153.716	0.042	-0.058
-693.426	-148.184	-0.268	-0.022
-692.412	256.859	0.082	-0.143
-691.397	-200.000	0.070	-0.357
-690.383	-134.401	0.116	0.014
-689.368	565.278	-0.127	-0.312
-688.354	-150.122	-0.450	-0.035
-687.339	-88.430	-0.183	-0.055
-686.324	6.735	0.105	0.079
-685.310	-61.395	0.341	-0.144
-684.295	800.000	-0.060	-0.226
-683.281	800.000	0.084	-0.249
-682.266	800.000	-0.016	0.062
-681.251	-72.073	0.247	-0.093
-680.237	46.197	0.086	0.081
-679.222	800.000	-0.043	0.154
-678.208	-200.000	-0.027	-0.341
-677.193	111.493	0.132	-0.160
-676.178	-68.631	-0.143	-0.056
-675.164	-200.000	0.026	-0.327
-674.149	-200.000	0.008	-0.181
-673.135	800.000	-0.109	0.309
-672.120	335.979	0.126	-0.247
-671.105	278.134	0.065	0.116
-670.091	51.215	-0.071	-0.068
-669.076	141.666	0.099	0.133
-668.062	-59.406	-0.156	-0.067
-667.047	291.601	-0.119	0.219
-666.032	800.000	0.010	0.038
-665.018	73.263	-0.131	0.138
-664.003	-96.834	-0.393	-0.104
-662.989	163.360	0.067	0.095
-661.974	-45.102	-0.320	-0.160
-660.959	44.402	-0.354	0.327
-659.945	-93.102	0.257	-0.072
-658.930	800.000	-0.067	0.280
-657.916	-66.958	-0.202	0.080
-656.901	-5.503	0.294	0.203
-655.886	-25.461	-0.266	0.158
-654.872	226.771	-0.125	-0.205
-653.857	-116.716	-0.145	0.027
-652.843	800.000	-0.088	-0.261
-651.828	-200.000	-0.027	-0.412
-650.814	-10.651	0.143	-0.095
-649.799	-200.000	0.061	-0.348
-648.784	800.000	0.043	0.151
-647.770	72.383	0.180	-0.189
-646.755	34.294	0.054	0.048
-645.741	800.000	0.040	-0.135
-644.726	-200.000	-0.001	-0.202
-643.711	-4.708	-0.284	0.197
-642.697	77.709	-0.194	-0.207
-641.682	-36.705	-0.264	-0.143
-640.668	-88.576	0.204	-0.061
-639.653	1.122	0.097	-0.070
-638.638	578.424	0.091	0.224
-637.624	-200.000	-0.017	0.310
-636.609	-7.307	-0.267	-0.182
-635.595	4.211	-0.091	-0.067
-634.580	129.782	0.145	-0.186
-633.565	800.000	-0.020	0.058
-632.551	-179.434	-0.538	0.012
-631.536	-55.721	-0.500	-0.225
-630.522	-25.233	-0.225	-0.134
-629.507	23.500	-0.112	0.093
-628.492	61.680	0.100	-0.100
-627.478	237.724	0.064	-0.107
-626.463	11.166	0.067	-0.052
-625.449	-200.000	0.004	-0.091
-624.434	-81.121	-0.234	0.078
-623.419	-103.955	0.348	-0.082
-622.405	50.348	0.133	0.126
-621.390	800.000	0.037	-0.116
-620.376	-200.000	-0.018	0.380
-619.361	-113.516	0.349	-0.069
-618.346	113.030	-0.301	0.366
-617.332	-37.806	-0.330	0.177
-616.317	-200.000	0.080	0.381
-615.303	-200.000	0.049	0.285
-614.288	-200.000	0.007	0.148
-613.273	-200.000	0.030	0.225
-612.259	-30.562	-0.287	-0.163
-611.244	-200.000	-0.019	0.185
-610.230	-90.946	0.216	0.062
-609.215	60.260	-0.207	0.206
-608.201	-200.000	0.003	0.225
-607.186	-148.822	0.094	-0.008
-606.171	-200.000	-0.002	-0.013
-605.157	200.189	0.157	0.242
-604.142	-109.217	0.210	0.045
-603.128	-100.091	0.068	0.017
-602.113	-44.014	-0.133	0.067
-601.098	-91.897	0.087	0.025
-600.084	781.811	0.075	-0.206
-599.069	69.188	0.164	-0.169
-598.055	73.454	-0.071	-0.075
-597.040	800.000	0.067	-0.291
-596.025	56.745	0.116	-0.113
-595.011	-141.989	-0.156	-0.016
-593.996	800.000	-0.060	-0.178
-592.982	26.322	0.235	0.197
-591.967	-79.773	-0.428	-0.145
-590.952	-128.440	-0.183	0.026
-589.938	384.883	0.103	-0.214
-588.923	39.164	-0.161	-0.144
-587.909	-129.744	0.146	0.020
-586.894	-200.000	-0.017	-0.165
-585.879	330.840	-0.190	-0.368
-584.865	594.730	0.114	-0.283
-583.850	-23.655	0.053	-0.032
-582.836	-8.674	0.094	-0.064
-581.821	793.736	-0.128	-0.354
-580.806	-8.576	0.105	0.071
-579.792	-57.473	-0.303	-0.133
-578.777	299.517	0.093	-0.172
-577.763	-84.425	0.300	0.095
-576.748	800.000	0.013	-0.057
-575.733	623.365	-0.093	-0.236
-574.719	-200.000	-0.034	0.314
-573.704	171.740	-0.079	0.113
-572.690	32.882	-0.025	0.022
-571.675	244.452	-0.311	-0.524
-570.661	800.000	0.050	-0.211
-569.646	492.417	0.075	0.173
-568.631	-81.812	0.121	-0.040
-567.617	474.884	-0.134	-0.303
-566.602	429.621	-0.024	0.053
-565.588	35.193	-0.130	0.114
-564.573	-200.000	0.017	0.273
-563.558	-34.016	0.045	0.025
-562.544	87.779	-0.182	-0.202
-561.529	-200.000	0.039	-0.328
-560.515	524.232	-0.130	0.307
-559.500	800.000	0.047	-0.154
-558.485	591.978	0.074	-0.183
-557.471	-26.790	-0.215	-0.126
-556.456	70.343	0.136	0.141
-555.442	800.000	0.045	0.192
-554.427	-148.352	0.512	0.042
-553.412	-73.730	0.193	-0.070
-552.398	-200.000	-0.047	-0.247
-551.383	-16.312	-0.207	-0.132
-550.369	-127.257	0.231	-0.034
-549.354	17.078	-0.259	0.206
-548.339	176.452	-0.143	-0.208
-547.325	621.727	-0.142	0.359
-546.310	-200.000	-0.008	-0.444
-545.296	-46.418	-0.244	-0.120
-544.281	1.779	0.130	0.094
-543.266	800.000	0.076	-0.238
-542.252	-145.158	-0.164	-0.015
-541.237	-95.136	0.134	-0.036
-540.223	-10.883	-0.062	-0.041
-539.208	800.000	0.025	0.069
-538.193	105.757	-0.172	-0.204
-537.179	-160.325	-0.152	0.008
-536.164	8.764	0.122	0.092
-535.150	-68.319	0.278	-0.108
-534.135	-200.000	-0.008	-0.116
-533.121	-139.241	-0.255	0.027
-532.106	132.142	-0.113	-0.146
-531.091	-121.733	0.221	0.037
-530.077	800.000	0.039	-0.136
-529.062	-24.387	-0.181	0.108
-528.048	2.133	0.189	-0.136
-527.033	800.000	-0.013	-0.042
-526.018	-200.000	-0.086	-0.444
-525.004	-200.000	0.035	0.268
-523.989	-176.535	-0.118	-0.003
-522.975	800.000	0.084	-0.274
-521.960	-200.000	0.029	0.135
-520.945	-31.208	-0.163	0.092
-519.931	-92.809	0.390	-0.109
-518.916	-200.000	-0.048	0.211
-517.902	337.149	0.111	-0.217
-516.887	-200.000	0.027	-0.335
-515.872	-200.000	-0.039	-0.292
-514.858	363.200	-0.096	0.192
-513.843	800.000	0.131	-0.376
-512.829	-93.053	0.253	0.070
-511.814	-170.443	-0.197	-0.007
-510.799	-200.000	0.043	-0.302
-509.785	-63.135	0.107	0.044
-508.770	-53.758	0.210	-0.096
-507.756	-116.753	-0.136	0.025
-506.741	-14.232	0.180	0.116
-505.726	24.779	0.222	-0.184
-504.712	-84.759	0.232	0.073
-503.697	800.000	-0.045	0.154
-502.683	-116.839	0.104	-0.019
-501.668	-132.357	-0.057	-0.007
-500.653	-200.000	0.016	-0.246
-499.639	-19.892	-0.130	-0.080
-498.624	-128.810	0.244	0.034
-497.610	-200.000	-0.008	-0.174
-496.595	-104.611	0.175	0.040
-495.581	800.000	0.025	-0.105
-494.566	-200.000	0.044	-0.196
-493.551	229.037	-0.155	-0.252
-492.537	800.000	0.097	-0.360
-491.522	-66.116	-0.094	0.037
-490.508	244.323	0.109	-0.183
-489.493	101.194	-0.182	0.212
-488.478	800.000	0.061	0.229
-487.464	-200.000	0.018	0.199
-486.449	-200.000	0.054	0.246
-485.435	-200.000	-0.003	-0.423
-484.420	135.737	0.197	0.256
-483.405	123.868	-0.154	0.193
-482.391	-200.000	0.017	-0.390
-481.376	-83.343	-0.181	-0.058
-480.362	-176.203	0.304	-0.008
-479.347	43.182	-0.067	0.061
-478.332	-200.000	-0.007	-0.092
-477.318	-6.121	-0.255	0.174
-476.303	-36.361	0.426	-0.229
-475.289	-81.521	0.064	0.021
-474.274	230.306	0.100	-0.163
-473.259	-200.000	0.007	-0.067
-472.245	-200.000	0.005	-0.140
-471.230	-30.823	-0.044	0.025
-470.216	-48.398	0.298	-0.143
-469.201	92.669	-0.105	-0.119
-468.186	-98.403	-0.362	-0.093
-467.172	269.893	0.129	0.227
-466.157	800.000	0.052	0.154
-465.143	-129.911	0.076	-0.010
-464.128	12.958	0.048	-0.037
-463.113	322.203	-0.119	0.226
-462.099	800.000	0.075	0.213
-461.084	110.036	-0.179	-0.215
-460.070	25.079	0.103	-0.086
-459.055	-46.835	0.202	-0.099
-458.040	-200.000	-0.002	-0.093
-457.026	587.461	0.051	0.125
-456.011	-11.249	0.201	-0.132
-454.997	-200.000	0.016	0.265
-453.982	219.594	0.055	-0.088
-452.968	-106.766	0.176	-0.039
-451.953	8.624	-0.517	-0.389
-450.938	-200.000	0.000	-0.045
-449.924	-48.069	-0.296	-0.143
-448.909	94.952	-0.076	0.086
-447.895	-200.000	-0.023	0.220
-446.880	-151.596	0.433	-0.032
-445.865	-115.475	-0.093	-0.017
-444.851	29.835	0.045	0.039
-443.836	4.061	-0.078	-0.057
-442.822	169.295	0.139	0.198
-441.807	258.861	-0.090	0.154
-440.792	68.529	-0.373	0.382
-439.778	-45.038	-0.259	0.129
-438.763	-144.530	-0.206	0.019
-437.749	-200.000	0.277	-0.001
-436.734	56.407	-0.162	0.157
-435.719	-161.630	0.257	-0.013
-434.705	-79.656	-0.316	0.106
-433.690	800.000	0.057	0.236
-432.676	409.354	-0.084	-0.177
-431.661	34.446	0.066	0.058
-430.646	-181.947	-0.214	0.004
-429.632	-14.438	-0.308	0.198
-428.617	4.679	-0.328	0.240
-427.603	-48.026	-0.288	-0.139
-426.588	-61.497	0.039	-0.017
-425.573	-136.861	-0.064	0.007
-424.559	42.550	-0.140	0.128
-423.544	-116.501	-0.198	0.036
-422.530	-36.563	-0.134	0.072
-421.515	60.916	-0.075	-0.075
-420.500	64.272	0.049	-0.049
-419.486	800.000	0.044	0.125
-418.471	-56.484	0.111	-0.049
-417.457	177.130	0.150	-0.218
-416.442	800.000	0.057	-0.168
-415.428	-90.300	0.312	-0.090
-414.413	-68.658	-0.217	0.084
-413.398	-140.264	0.330	-0.034
-412.384	-94.596	0.161	0.044
-411.369	-91.097	0.050	0.014
-410.355	-200.000	-0.031	0.269
-409.340	7.616	-0.320	0.239
-408.325	-200.000	-0.005	-0.040
-407.311	79.126	0.116	0.124
-406.296	7.685	0.341	0.255
-405.282	488.045	-0.128	-0.292
-404.267	252.626	-0.168	-0.286
-403.252	-101.187	0.121	-0.029
-402.238	108.723	-0.094	0.112
-401.223	23.295	0.385	0.315
-400.209	-200.000	-0.045	-0.240
-399.194	106.838	-0.115	0.136
-398.179	800.000	0.086	0.239
-397.165	160.772	-0.163	0.227
-396.150	76.533	-0.039	-0.041
-395.136	188.554	-0.129	0.192
-394.121	71.751	-0.106	0.110
-393.106	397.617	-0.057	0.120
-392.092	-67.694	0.085	0.033
-391.077	-30.757	0.159	0.090
-390.063	245.601	-0.066	0.111
-389.048	-43.742	0.181	0.091
-388.033	-48.560	-0.238	0.114
-387.019	218.088	-0.101	-0.160
-386.004	105.642	-0.121	0.142
-384.990	63.842	-0.045	0.045
-383.975	-40.528	0.173	0.089
-382.960	168.905	-0.177	0.252
-381.946	-200.000	-0.001	0.140
-380.931	-162.319	-0.128	-0.006
-379.917	-50.875	0.046	-0.022
-378.902	218.449	-0.053	-0.084
-377.888	24.458	0.213	0.176
-376.873	200.393	0.038	-0.058
-375.858	267.706	-0.110	-0.191
-374.844	-90.225	-0.185	0.054
-373.829	-60.437	0.195	0.082
-372.815	-126.373	-0.122	-0.018
-371.800	131.914	0.174	-0.223
-370.785	-18.639	0.487	-0.302
-369.771	-200.000	-0.013	0.129
-368.756	22.924	-0.190	-0.155
-367.742	-200.000	0.006	-0.196
-366.727	387.769	-0.172	-0.353
-365.712	-158.629	0.123	-0.007
-364.698	-200.000	0.007	0.196
-363.683	35.908	0.103	0.090
-362.669	208.941	0.186	-0.290
-361.654	-78.880	-0.316	0.107
-360.639	61.191	-0.163	0.161
-359.625	-19.212	0.255	-0.158
-358.610	-88.232	0.106	0.032
-357.596	-47.635	0.169	-0.082
-356.581	-89.535	-0.268	-0.078
-355.566	27.934	-0.281	0.236
-354.552	-200.000	-0.036	0.232
-353.537	57.777	0.187	0.181
-352.523	-200.000	0.053	-0.303
-351.508	51.878	0.142	0.134
-350.493	-88.878	-0.330	0.097
-349.479	800.000	0.091	0.279
-348.464	349.942	-0.061	-0.120
-347.450	128.832	0.099	-0.125
-346.435	672.174	0.078	-0.201
-345.420	115.916	-0.109	0.133
-344.406	-169.915	-0.140	-0.005
-343.391	41.099	-0.246	0.221
-342.377	145.904	0.242	-0.323
-341.362	-200.000	-0.003	-0.109
-340.348	8.575	-0.133	-0.100
-339.333	118.141	-0.076	-0.093
-338.318	-200.000	-0.033	-0.235
-337.304	305.245	-0.180	0.332
-336.289	-200.000	0.031	0.293
-335.275	-1.912	-0.183	0.128
-334.260	-131.501	0.141	0.018
-333.245	-40.696	-0.205	0.106
-332.231	-70.898	0.397	0.149
-331.216	417.454	0.023	-0.049
-330.202	-25.118	0.053	-0.031
-329.187	-13.992	-0.110	0.071
-328.172	162.176	-0.157	-0.218
-327.158	800.000	-0.065	-0.245
-326.143	-30.774	0.115	0.065
-325.129	48.145	0.217	-0.202
-324.114	800.000	-0.090	-0.342
-323.099	-36.739	0.292	-0.156
-322.085	-93.509	0.371	-0.102
-321.070	72.874	-0.046	-0.048
-320.056	17.842	-0.189	0.149
-319.041	458.936	0.139	0.307
-318.026	-200.000	-0.036	0.207
-317.012	-31.421	-0.381	-0.213
-315.997	-200.000	0.006	-0.058
-314.983	168.314	0.155	-0.220
-313.968	-85.066	-0.149	0.046
-312.953	-200.000	-0.042	0.218
-311.939	-169.978	-0.141	-0.005
-310.924	463.929	0.062	-0.137
-309.910	800.000	-0.097	0.270
-308.895	-200.000	-0.001	0.231
-307.880	-17.454	0.107	0.067
-306.866	232.542	0.180	0.293
-305.851	-200.000	-0.019	0.223
-304.837	138.081	-0.252	0.328
-303.822	800.000	0.045	0.138
-302.807	52.311	-0.171	-0.162
-301.793	800.000	-0.131	0.368
-300.778	-113.347	0.289	-0.056
-299.764	-200.000	0.010	0.168
-298.749	800.000	-0.054	0.213
-297.735	-81.056	-0.433	0.142
-296.720	-58.064	0.098	-0.043
-295.705	308.802	0.074	-0.138
-294.691	-104.750	0.351	0.080
-293.676	800.000	-0.073	0.289
-292.662	800.000	-0.108	0.430
-291.647	164.654	-0.197	-0.275
-290.632	50.949	-0.088	0.083
-289.618	5.143	0.250	-0.183
-288.603	-200.000	-0.009	0.263
-287.589	61.841	-0.081	-0.080
-286.574	-23.376	0.165	-0.098
-285.559	83.502	0.113	0.123
-284.545	-22.926	-0.210	-0.126
-283.530	-75.085	0.213	-0.076
-282.516	-57.723	0.134	-0.058
-281.501	-106.408	0.174	-0.039
-280.486	800.000	-0.107	0.418
-279.472	602.223	-0.137	0.338
-278.457	92.967	0.140	0.157
-277.443	-200.000	0.061	-0.305
-276.428	238.078	0.156	0.256
-275.413	-88.531	0.126	0.037
-274.399	85.722	-0.073	0.080
-273.384	-94.436	0.480	-0.130
-272.370	800.000	0.099	-0.380
-271.355	26.684	-0.059	0.049
-270.340	-123.936	0.136	-0.021
-269.326	163.810	0.079	-0.110
-268.311	-156.118	-0.061	-0.004
-267.297	400.944	-0.176	-0.365
-266.282	-187.979	-0.190	0.002
-265.267	800.000	-0.015	0.043
-264.253	-122.021	0.077	0.013
-263.238	-61.412	0.153	-0.064
-262.224	46.194	-0.191	-0.175
-261.209	-88.601	0.246	0.073
-260.195	800.000	-0.016	0.055
-259.180	601.558	-0.056	0.139
-258.165	139.256	-0.114	0.149
-257.151	35.794	0.053	-0.047
-256.136	144.391	-0.165	0.219
-255.122	800.000	0.005	0.017
-254.107	238.430	-0.207	-0.341
-253.092	186.414	-0.155	0.228
-252.078	-79.165	0.383	0.129
-251.063	-200.000	0.021	0.102
-250.049	581.139	-0.139	0.337
-249.034	-200.000	0.471	-0.001
-248.019	800.000	-0.055	0.229
-247.005	99.547	0.195	0.223
-245.990	-123.591	0.257	0.040
-244.976	800.000	-0.034	-0.118
-243.961	800.000	0.080	-0.300
-242.946	-134.625	0.306	0.037
-241.932	5.041	-0.141	-0.103
-240.917	800.000	-0.101	-0.277
-239.903	-86.067	-0.286	-0.088
-238.888	-94.174	0.133	0.036
-237.873	251.947	0.200	-0.337
-236.859	674.575	-0.096	-0.247
-235.844	538.857	-0.125	-0.295
-234.830	178.125	0.099	0.143
-233.815	-56.613	-0.125	-0.055
-232.800	-141.536	0.013	-0.001
-231.786	-167.795	-0.325	-0.013
-230.771	176.726	0.079	-0.114
-229.757	90.000	0.080	-0.089
-228.742	359.504	0.150	-0.296
-227.727	800.000	-0.086	-0.329
-226.713	166.647	0.129	0.181
-225.698	529.565	-0.107	-0.249
-224.684	-59.245	-0.170	-0.072
-223.669	-108.898	0.178	-0.038
-222.655	82.834	-0.024	0.026
-221.640	-14.275	0.283	0.180
-220.625	800.000	0.078	0.234
-219.611	-58.571	0.255	0.110
-218.596	-200.000	0.037	0.242
-217.582	-50.128	0.172	-0.081
-216.567	-200.000	0.003	-0.101
-215.552	251.236	-0.061	0.102
-214.538	102.236	-0.157	-0.181
-213.523	55.796	-0.171	-0.164
-212.509	-55.569	-0.186	-0.082
-211.494	-70.656	0.104	0.039
-210.479	-103.258	0.180	0.042
-209.465	800.000	0.061	-0.176
-208.450	619.112	-0.068	0.169
-207.436	25.266	-0.241	0.198
-206.421	-3.452	-0.102	0.070
-205.406	45.444	0.110	-0.100
-204.392	438.474	-0.107	0.232
-203.377	-138.718	-0.180	0.019
-202.363	185.475	-0.129	0.189
-201.348	177.830	0.117	0.169
-200.333	-135.830	-0.360	-0.042
-199.319	273.713	-0.120	-0.209
-198.304	-200.000	0.023	0.314
-197.290	34.602	-0.140	0.121
-196.275	-36.690	-0.612	0.325
-195.260	-200.000	-0.048	-0.258
-194.246	-39.777	0.189	0.098
-193.231	260.970	0.172	0.294
-192.217	137.744	0.200	0.259
-191.202	-200.000	0.038	0.172
-190.187	-200.000	-0.009	0.273
-189.173	-33.869	0.171	0.093
-188.158	-200.000	-0.027	-0.269
-187.144	-200.000	0.015	-0.139
-186.129	-61.850	0.138	0.057
-185.114	-12.104	0.238	0.154
-184.100	-200.000	0.048	-0.323
-183.085	-108.434	0.124	-0.026
-182.071	-90.527	0.136	0.039
-181.056	-78.329	0.169	-0.057
-180.042	-72.004	0.088	0.033
-179.027	-200.000	-0.002	0.088
-178.012	-34.105	-0.142	0.077
-176.998	-41.024	0.325	-0.166
-175.983	800.000	-0.044	0.164
-174.969	-33.414	0.228	0.125
-173.954	-200.000	-0.011	0.370
-172.939	116.574	-0.080	0.096
-171.925	-200.000	0.001	0.102
-170.910	-58.431	-0.094	-0.040
-169.896	374.848	0.147	0.297
-168.881	1.898	-0.114	-0.081
-167.866	-38.027	-0.236	0.124
-166.852	-200.000	-0.019	0.252
-165.837	-93.599	-0.249	-0.068
-164.823	-88.938	0.192	-0.056
-163.808	120.473	-0.224	0.275
-162.793	-150.876	-0.154	-0.012
-161.779	-115.957	0.313	0.058
-160.764	800.000	0.057	-0.208
-159.750	-25.901	0.243	-0.142
-158.735	696.914	0.116	-0.302
-157.720	-40.342	-0.165	0.085
-156.706	102.856	0.020	0.023
-155.691	-67.310	0.218	0.085
-154.677	-200.000	-0.007	-0.215
-153.662	-173.489	0.223	-0.007
-152.647	265.189	-0.112	-0.194
-151.633	-182.402	-0.392	0.007
-150.618	-23.210	-0.358	0.212
-149.604	154.372	0.067	-0.091
-148.589	2.609	-0.207	0.148
-147.574	-32.013	0.172	-0.095
-146.560	724.419	-0.102	0.269
-145.545	36.448	-0.188	-0.164
-144.531	455.257	0.099	0.216
-143.516	-161.296	-0.150	-0.008
-142.502	640.361	-0.033	-0.084
-141.487	-200.000	-0.016	0.111
-140.472	-127.544	-0.103	-0.015
-139.458	-165.530	-0.351	-0.015
-138.443	48.194	-0.169	-0.156
-137.429	473.143	-0.071	0.159
-136.414	214.210	0.053	-0.082
-135.399	25.427	0.136	0.111
-134.385	-140.486	0.090	0.009
-133.370	245.956	-0.030	0.049
-132.356	-71.828	0.375	-0.138
-131.341	800.000	-0.051	-0.179
-130.326	-200.000	-0.020	-0.362
-129.312	-50.579	0.086	-0.040
-128.297	143.706	-0.176	0.232
-127.283	-2.712	0.253	0.174
-126.268	33.784	0.172	0.147
-125.253	-39.765	-0.157	0.081
-124.239	76.312	-0.133	-0.139
-123.224	154.511	-0.127	0.173
-122.210	40.387	0.171	-0.151
-121.195	800.000	-0.037	-0.117
