DTS Sentinel unit serial number:	SN413079Multiplexer serial number:	ORYXHardware model number:	OX4-SRSoftware version number:	ORYX F/W v4.00 Oryx Data Collector v3.7.2.0data status	okinstallation	princeton_trtdifferential loss correction	single-endedforward channel	channel 4reverse channel	N/Adate	2019/09/12time	16:47:10forward acquisition time	60.00reverse acquisition time	0.00gamma	496.2192k internal	0.2305k external	0.2305temperature offset calibration	1.0126default loss term (dB/km)	0.3790temperature slope calibration	1.0000multiplexer offset coefficient	1.0000multiplexer slope coefficient	1.0000fibre end	0.00T internal ref (°C)	36.41T ext. ref 1 (°C)	2.77T ext. ref 2 (°C)	29.66length (m)	temperature (°C)	Stokes	anti-Stokes-747.200	75.971	-0.163	0.175
-746.185	-200.000	-0.011	-0.135
-745.171	357.892	0.172	0.350
-744.156	31.365	-0.220	0.193
-743.142	-95.770	-0.078	-0.021
-742.127	-8.059	0.133	-0.091
-741.112	91.467	-0.101	-0.116
-740.098	-145.154	-0.161	-0.015
-739.083	98.983	-0.093	0.110
-738.069	-200.000	-0.011	-0.184
-737.054	-91.326	-0.192	-0.056
-736.039	25.823	0.037	-0.031
-735.025	-200.000	0.027	0.171
-734.010	-200.000	-0.014	-0.073
-732.996	-110.544	-0.268	-0.056
-731.981	-73.451	-0.104	0.039
-730.966	459.658	0.135	-0.305
-729.952	224.344	-0.170	-0.279
-728.937	-23.785	-0.128	-0.078
-727.923	147.245	0.137	-0.187
-726.908	228.209	-0.054	-0.090
-725.894	60.939	-0.105	-0.106
-724.879	-19.389	0.066	0.041
-723.864	45.449	-0.205	-0.192
-722.850	-200.000	0.022	0.263
-721.835	-68.911	-0.303	-0.119
-720.821	-25.573	-0.306	-0.184
-719.806	800.000	-0.089	-0.329
-718.791	-200.000	-0.002	-0.154
-717.777	-51.454	0.198	0.094
-716.762	-165.565	0.209	-0.009
-715.748	-133.293	-0.057	-0.007
-714.733	-92.272	-0.068	0.020
-713.718	-180.368	-0.155	-0.003
-712.704	-166.150	-0.133	0.006
-711.689	380.079	-0.194	0.403
-710.675	93.940	0.086	-0.099
-709.660	-200.000	-0.035	-0.351
-708.645	800.000	0.044	0.183
-707.631	-57.477	0.139	0.062
-706.616	-45.293	0.162	0.081
-705.602	30.718	-0.185	-0.161
-704.587	-29.886	-0.385	0.223
-703.572	800.000	-0.044	0.153
-702.558	-200.000	0.010	0.157
-701.543	-70.204	0.195	-0.075
-700.529	-68.508	0.294	0.116
-699.514	144.264	0.099	0.134
-698.499	-83.886	0.073	0.024
-697.485	35.897	0.114	0.102
-696.470	492.563	0.080	-0.186
-695.456	205.238	-0.087	-0.137
-694.441	-200.000	-0.019	0.317
-693.426	194.777	0.109	0.168
-692.412	-92.108	-0.136	0.039
-691.397	-96.890	0.294	0.078
-690.383	-132.096	-0.387	0.051
-689.368	293.418	-0.107	-0.197
-688.354	-129.692	-0.062	-0.009
-687.339	-68.438	-0.138	-0.054
-686.324	-118.670	0.303	0.054
-685.310	-11.751	0.105	0.070
-684.295	-48.712	-0.240	0.117
-683.281	-200.000	0.022	-0.232
-682.266	-49.583	-0.388	-0.187
-681.251	800.000	-0.064	-0.247
-680.237	402.823	-0.085	-0.181
-679.222	433.660	0.094	-0.207
-678.208	55.685	-0.124	0.122
-677.193	-87.521	0.116	-0.036
-676.178	-17.082	0.091	-0.058
-675.164	95.243	-0.197	-0.227
-674.149	297.968	0.089	-0.166
-673.135	137.291	0.124	0.165
-672.120	504.818	-0.181	-0.424
-671.105	-91.699	0.078	-0.023
-670.091	128.086	0.234	0.302
-669.076	627.853	-0.053	-0.137
-668.062	-154.970	0.106	0.007
-667.047	106.813	0.298	0.358
-666.032	148.812	-0.185	0.253
-665.018	720.133	-0.031	-0.085
-664.003	-131.814	0.212	0.028
-662.989	49.849	0.205	-0.196
-661.974	130.998	0.113	0.147
-660.959	-189.509	-0.199	0.002
-659.945	778.165	-0.117	-0.325
-658.930	34.996	-0.229	-0.203
-657.916	42.532	-0.323	0.298
-656.901	-200.000	0.036	0.238
-655.886	17.315	-0.230	0.185
-654.872	460.050	0.185	-0.418
-653.857	800.000	-0.067	-0.199
-652.843	256.752	-0.088	0.154
-651.828	-200.000	-0.056	-0.299
-650.814	-180.546	-0.133	0.003
-649.799	-71.257	0.269	0.102
-648.784	800.000	-0.007	0.027
-647.770	-39.730	0.113	0.060
-646.755	181.048	0.178	0.266
-645.741	-200.000	-0.035	-0.518
-644.726	-200.000	-0.019	-0.191
-643.711	-76.855	-0.124	-0.044
-642.697	-31.723	-0.163	0.092
-641.682	433.710	-0.152	0.335
-640.668	800.000	0.141	-0.474
-639.653	-65.525	-0.037	0.015
-638.638	-200.000	-0.026	0.210
-637.624	-26.302	0.200	0.119
-636.609	-105.600	0.316	-0.073
-635.595	-61.556	-0.044	-0.019
-634.580	-40.498	0.235	-0.124
-633.565	-61.036	-0.160	0.068
-632.551	-150.308	-0.297	0.023
-631.536	-200.000	0.012	0.166
-630.522	755.972	-0.027	-0.074
-629.507	311.815	0.057	-0.108
-628.492	29.262	-0.150	0.129
-627.478	-132.654	0.214	0.028
-626.463	105.476	-0.228	-0.272
-625.449	156.781	-0.230	0.323
-624.434	-112.556	0.159	-0.032
-623.419	-114.231	-0.350	-0.068
-622.405	750.285	0.042	-0.115
-621.390	-43.810	-0.119	0.061
-620.376	-51.993	0.020	-0.009
-619.361	800.000	-0.038	0.149
-618.346	-200.000	-0.026	0.191
-617.332	-56.972	0.049	-0.022
-616.317	97.275	-0.181	0.210
-615.303	-200.000	0.038	-0.180
-614.288	679.974	-0.074	0.195
-613.273	9.296	0.048	-0.037
-612.259	-123.962	-0.203	-0.032
-611.244	-200.000	0.038	0.188
-610.230	322.225	-0.090	0.173
-609.215	-76.817	-0.365	0.129
-608.201	17.241	-0.046	-0.037
-607.186	125.638	0.132	0.168
-606.171	53.769	0.077	0.075
-605.157	-164.369	-0.354	0.016
-604.142	-34.093	-0.100	0.055
-603.128	800.000	-0.074	-0.281
-602.113	19.985	0.253	-0.207
-601.098	-42.358	0.072	-0.037
-600.084	-11.802	-0.115	-0.076
-599.069	576.362	0.082	0.204
-598.055	-5.411	0.081	-0.056
-597.040	-200.000	0.021	-0.140
-596.025	-98.829	0.073	-0.019
-595.011	-103.928	-0.247	-0.058
-593.996	456.464	0.085	-0.192
-592.982	-61.646	-0.114	-0.048
-591.967	-200.000	-0.004	-0.206
-590.952	-109.382	-0.207	-0.044
-589.938	-103.012	-0.205	-0.049
-588.923	-70.303	-0.189	-0.073
-587.909	376.026	0.127	-0.262
-586.894	462.675	0.146	-0.330
-585.879	-121.373	-0.224	0.038
-584.865	281.230	0.103	0.186
-583.850	-10.300	0.056	0.038
-582.836	444.527	0.032	0.071
-581.821	30.080	-0.192	-0.165
-580.806	229.612	0.124	-0.204
-579.792	280.633	-0.104	-0.188
-578.777	193.114	0.074	0.114
-577.763	-200.000	-0.047	0.400
-576.748	38.992	0.189	0.171
-575.733	-66.491	0.030	-0.012
-574.719	-172.796	0.262	0.008
-573.704	-200.000	-0.006	0.139
-572.690	39.649	0.150	-0.136
-571.675	390.370	0.137	0.286
-570.661	-81.689	0.235	-0.078
-569.646	-114.053	-0.005	0.001
-568.631	125.925	-0.081	0.103
-567.617	-93.817	0.259	0.072
-566.602	199.859	0.218	-0.339
-565.588	724.617	0.064	-0.173
-564.573	778.241	-0.070	-0.195
-563.558	-200.000	-0.016	0.387
-562.544	28.154	-0.226	0.193
-561.529	472.805	0.105	-0.239
-560.515	-56.797	-0.025	0.011
-559.500	-200.000	0.042	-0.189
-558.485	-69.804	0.079	-0.030
-557.471	-57.141	0.244	-0.109
-556.456	-11.198	-0.117	0.078
-555.442	-79.745	-0.149	-0.051
-554.427	-38.671	0.086	0.046
-553.412	-103.649	0.350	-0.083
-552.398	800.000	-0.042	-0.171
-551.383	246.169	-0.212	-0.361
-550.369	-99.575	0.085	-0.022
-549.354	800.000	0.057	0.225
-548.339	-33.857	-0.228	-0.127
-547.325	-200.000	-0.041	-0.312
-546.310	-200.000	0.063	0.290
-545.296	-36.192	0.098	0.053
-544.281	7.592	0.037	-0.028
-543.266	-137.525	0.342	0.039
-542.252	16.929	0.205	-0.164
-541.237	434.764	0.070	0.154
-540.223	186.577	-0.139	-0.208
-539.208	254.354	-0.174	0.300
-538.193	74.105	-0.058	0.061
-537.179	-72.812	-0.386	0.143
-536.164	188.643	0.105	0.158
-535.150	163.807	0.097	-0.138
-534.135	-113.823	0.116	-0.023
-533.121	76.121	-0.133	-0.142
-532.106	-16.952	-0.343	0.218
-531.091	-120.147	0.095	-0.016
-530.077	485.856	-0.074	0.170
-529.062	-4.325	0.272	0.190
-528.048	202.723	0.127	0.198
-527.033	166.641	-0.075	-0.107
-526.018	54.322	0.163	-0.159
-525.004	-78.293	-0.301	0.104
-523.989	800.000	-0.028	0.102
-522.975	245.922	-0.024	-0.041
-521.960	87.611	-0.077	0.087
-520.945	57.645	0.326	-0.322
-519.931	-143.313	-0.235	-0.023
-518.916	-146.497	0.359	0.032
-517.902	-79.730	0.232	0.079
-516.887	273.480	0.179	-0.319
-515.872	-200.000	-0.009	0.094
-514.858	-117.798	0.128	0.023
-513.843	-200.000	0.030	0.290
-512.829	533.919	0.122	-0.291
-511.814	-94.613	-0.435	-0.119
-510.799	-22.153	-0.079	0.048
-509.785	424.292	-0.071	0.154
-508.770	-200.000	-0.006	-0.042
-507.756	800.000	-0.092	0.335
-506.741	120.240	-0.170	-0.213
-505.726	174.082	0.059	0.086
-504.712	-200.000	0.009	0.194
-503.697	295.399	0.075	-0.138
-502.683	-144.830	0.300	0.028
-501.668	95.446	0.077	0.089
-500.653	-13.907	-0.146	0.095
-499.639	-200.000	-0.041	-0.384
-498.624	20.213	0.260	-0.211
-497.610	-152.255	0.218	-0.016
-496.595	334.767	0.123	-0.240
-495.581	-120.977	-0.466	-0.079
-494.566	-25.007	-0.140	0.084
-493.551	800.000	0.018	-0.061
-492.537	213.548	-0.055	-0.088
-491.522	89.584	-0.201	0.226
-490.508	125.740	-0.278	0.354
-489.493	-114.564	0.162	-0.031
-488.478	800.000	0.022	0.071
-487.464	481.815	0.087	-0.198
-486.449	-5.316	-0.120	-0.083
-485.435	-200.000	0.022	-0.117
-484.420	-8.815	0.263	0.178
-483.405	-177.806	0.292	0.007
-482.391	-200.000	-0.033	-0.156
-481.376	-174.326	-0.039	0.001
-480.362	-200.000	0.054	-0.297
-479.347	-200.000	0.048	0.397
-478.332	-151.078	-0.305	0.023
-477.318	-37.567	0.222	-0.119
-476.303	75.903	-0.129	-0.137
-475.289	-200.000	0.022	0.106
-474.274	516.913	0.106	-0.249
-473.259	-4.054	-0.309	-0.216
-472.245	36.206	-0.088	0.078
-471.230	263.767	-0.251	0.440
-470.216	148.048	-0.227	-0.308
-469.201	800.000	0.004	-0.014
-468.186	292.446	0.066	0.121
-467.172	242.323	-0.243	-0.410
-466.157	-90.755	-0.315	0.091
-465.143	765.277	0.038	-0.105
-464.128	426.590	-0.092	0.199
-463.113	-200.000	-0.014	0.325
-462.099	-120.234	-0.216	-0.037
-461.084	-200.000	-0.030	-0.183
-460.070	23.054	0.204	0.168
-459.055	372.535	-0.059	0.120
-458.040	-200.000	-0.029	0.150
-457.026	-200.000	0.032	-0.174
-456.011	10.177	-0.189	-0.145
-454.997	-200.000	-0.011	0.168
-453.982	-123.932	-0.158	0.025
-452.968	448.779	0.029	-0.065
-451.953	64.004	-0.113	0.114
-450.938	-169.401	-0.186	-0.007
-449.924	800.000	-0.025	0.100
-448.909	-127.618	0.108	-0.016
-447.895	28.501	-0.138	-0.117
-446.880	-200.000	0.035	-0.289
-445.865	-78.252	-0.165	0.057
-444.851	800.000	-0.034	0.140
-443.836	-26.656	0.031	-0.018
-442.822	31.924	0.187	-0.162
-441.807	-51.249	-0.106	-0.050
-440.792	538.086	0.161	-0.384
-439.778	231.686	0.104	0.171
-438.763	-107.448	-0.265	0.059
-437.749	92.269	0.130	0.147
-436.734	-117.088	0.210	-0.038
-435.719	343.398	-0.053	0.105
-434.705	745.283	0.010	-0.028
-433.690	-155.565	-0.128	0.008
-432.676	-136.788	0.094	0.011
-431.661	203.201	-0.092	0.143
-430.646	-200.000	-0.014	-0.075
-429.632	113.986	-0.174	0.213
-428.617	-145.168	0.315	0.029
-427.603	17.529	-0.027	0.022
-426.588	-200.000	-0.007	0.067
-425.573	-200.000	0.033	-0.238
-424.559	-41.919	0.353	0.182
-423.544	-200.000	-0.044	-0.279
-422.530	-200.000	-0.026	-0.137
-421.515	78.597	-0.186	0.199
-420.500	-126.603	0.119	-0.018
-419.486	-200.000	-0.038	-0.219
-418.471	-80.795	-0.176	-0.059
-417.457	-53.485	-0.191	0.088
-416.442	17.810	-0.119	-0.096
-415.428	-200.000	-0.008	-0.224
-414.413	87.843	0.252	0.281
-413.398	201.708	-0.188	0.291
-412.384	-80.290	0.086	0.029
-411.369	800.000	0.072	0.286
-410.355	-25.994	0.155	-0.091
-409.340	-69.676	-0.124	0.048
-408.325	17.740	-0.197	-0.157
-407.311	321.470	0.097	0.186
-406.296	517.910	0.026	0.062
-405.282	22.785	-0.166	-0.137
-404.267	800.000	-0.012	-0.043
-403.252	-36.602	0.061	-0.033
-402.238	224.664	0.144	0.235
-401.223	-69.634	0.108	0.041
-400.209	-200.000	-0.059	0.372
-399.194	-115.312	-0.172	-0.033
-398.179	259.886	-0.137	0.238
-397.165	-48.333	0.179	0.087
-396.150	-200.000	-0.056	0.303
-395.136	-154.979	0.188	0.012
-394.121	-43.242	-0.338	-0.172
-393.106	298.294	0.126	-0.233
-392.092	542.121	0.080	-0.191
-391.077	800.000	0.055	0.170
-390.063	800.000	0.044	0.127
-389.048	800.000	0.020	-0.081
-388.033	77.493	0.022	0.024
-387.019	-118.483	-0.236	0.042
-386.004	-200.000	0.020	-0.156
-384.990	-118.204	0.171	-0.031
-383.975	-28.282	-0.194	-0.112
-382.960	-200.000	-0.006	-0.246
-381.946	-154.690	-0.295	0.020
-380.931	-45.027	0.442	0.221
-379.917	69.062	-0.091	0.094
-378.902	569.829	0.036	-0.088
-377.888	-55.480	0.299	0.134
-376.873	201.898	-0.180	-0.278
-375.858	179.885	0.132	0.194
-374.844	-119.122	-0.138	-0.024
-373.829	368.777	-0.064	-0.129
-372.815	-200.000	-0.020	-0.225
-371.800	292.006	0.083	-0.151
-370.785	-41.146	0.378	-0.196
-369.771	661.719	0.050	0.130
-368.756	-200.000	-0.018	-0.372
-367.742	66.775	-0.152	0.155
-366.727	-41.577	0.283	0.146
-365.712	-190.297	-0.071	-0.001
-364.698	137.070	-0.079	-0.104
-363.683	-91.642	-0.140	-0.040
-362.669	-118.383	-0.313	-0.056
-361.654	-57.664	0.447	0.196
-360.639	568.904	0.063	0.154
-359.625	-81.147	-0.085	0.028
-358.610	3.526	-0.048	0.035
-357.596	282.252	-0.120	-0.215
-356.581	9.516	0.229	0.174
-355.566	290.046	0.023	-0.042
-354.552	-200.000	0.024	0.223
-353.537	77.660	-0.045	0.048
-352.523	-178.153	0.356	0.008
-351.508	-125.431	0.329	0.050
-350.493	244.454	0.068	-0.114
-349.479	-53.793	-0.225	-0.103
-348.464	85.142	-0.218	0.240
-347.450	-147.575	-0.139	-0.012
-346.435	-200.000	-0.069	0.331
-345.420	800.000	-0.046	-0.140
-344.406	48.984	-0.285	0.269
-343.391	111.132	-0.119	0.144
-342.377	-128.269	0.080	-0.011
-341.362	-179.152	0.104	0.002
-340.348	36.352	0.073	-0.064
-339.333	11.759	0.439	0.338
-338.318	-153.435	-0.166	0.012
-337.304	-120.851	-0.398	-0.067
-336.289	-200.000	0.032	0.217
-335.275	626.321	0.037	-0.092
-334.260	-200.000	0.011	0.158
-333.245	-155.357	-0.234	0.015
-332.231	800.000	-0.060	-0.255
-331.216	800.000	-0.077	-0.253
-330.202	54.140	-0.316	0.304
-329.187	-200.000	0.069	0.375
-328.172	156.342	0.067	-0.092
-327.158	800.000	-0.030	0.083
-326.143	-65.516	0.194	0.078
-325.129	-200.000	-0.027	-0.200
-324.114	100.437	-0.075	0.087
-323.099	131.475	-0.091	0.117
-322.085	560.146	-0.132	0.318
-321.070	-94.818	0.125	0.034
-320.056	83.377	0.152	0.165
-319.041	410.579	0.209	-0.444
-318.026	-122.361	0.160	-0.026
-317.012	-200.000	0.053	0.327
-315.997	59.411	-0.081	-0.080
-314.983	-200.000	0.057	0.337
-313.968	583.373	0.091	0.223
-312.953	499.410	0.041	0.094
-311.939	-135.867	-0.485	-0.057
-310.924	351.556	-0.033	0.066
-309.910	721.225	0.080	0.214
-308.895	209.571	-0.112	0.175
-307.880	-120.941	0.146	0.025
-306.866	60.340	-0.309	0.306
-305.851	-200.000	0.018	0.283
-304.837	800.000	0.043	0.124
-303.822	391.863	0.095	0.197
-302.807	-125.326	-0.113	-0.017
-301.793	297.341	0.208	0.381
-300.778	-75.829	0.302	-0.107
-299.764	32.268	0.378	0.326
-298.749	153.590	0.188	0.258
-297.735	800.000	-0.086	0.283
-296.720	-152.664	0.062	0.004
-295.705	543.055	0.086	-0.206
-294.691	23.946	0.114	-0.094
-293.676	-28.584	-0.200	0.115
-292.662	136.531	0.140	0.182
-291.647	-63.859	0.150	-0.061
-290.632	-182.935	-0.027	-0.000
-289.618	-14.918	-0.162	0.104
-288.603	-27.855	-0.080	-0.047
-287.589	-118.659	0.057	0.010
-286.574	800.000	-0.018	-0.055
-285.559	-200.000	-0.029	-0.156
-284.545	-58.229	0.055	-0.024
-283.530	45.052	-0.080	-0.073
-282.516	70.515	-0.041	0.042
-281.501	-20.030	-0.032	0.020
-280.486	155.648	-0.116	-0.160
-279.472	90.116	-0.245	-0.273
-278.457	56.982	0.196	-0.191
-277.443	-200.000	-0.027	-0.274
-276.428	-200.000	0.002	-0.042
-275.413	256.662	-0.172	0.296
-274.399	-45.700	0.355	0.175
-273.384	68.545	0.156	-0.159
-272.370	-200.000	-0.003	0.217
-271.355	800.000	0.069	-0.208
-270.340	-68.589	0.255	-0.099
-269.326	-51.591	-0.084	-0.039
-268.311	-11.888	0.318	0.208
-267.297	-200.000	0.034	0.277
-266.282	800.000	0.052	0.172
-265.267	-9.301	-0.063	0.042
-264.253	21.309	0.101	0.082
-263.238	-134.391	-0.177	-0.022
-262.224	-97.345	0.183	0.048
-261.209	-200.000	-0.007	0.184
-260.195	217.299	-0.191	-0.304
-259.180	-102.896	0.265	0.063
-258.165	47.572	-0.125	-0.117
-257.151	-200.000	0.057	-0.370
-256.136	657.363	-0.087	-0.223
-255.122	109.990	0.236	-0.282
-254.107	-200.000	-0.037	0.308
-253.092	38.434	0.176	0.156
-252.078	164.686	0.090	-0.127
-251.063	-71.396	-0.081	0.030
-250.049	237.707	0.174	0.289
-249.034	66.131	0.051	0.052
-248.019	-78.179	-0.028	0.010
-247.005	-1.740	-0.100	-0.070
-245.990	-124.947	-0.239	0.037
-244.976	-153.202	-0.187	-0.013
-243.961	-118.784	-0.357	-0.063
-242.946	2.293	-0.366	0.264
-241.932	297.867	-0.124	0.228
-240.917	2.856	0.310	0.225
-239.903	-92.776	0.288	0.080
-238.888	800.000	-0.064	-0.248
-237.873	75.224	0.071	0.075
-236.859	79.250	0.082	0.088
-235.844	-95.096	-0.312	-0.084
-234.830	-200.000	-0.008	-0.378
-233.815	40.627	0.153	0.137
-232.800	573.251	-0.071	0.173
-231.786	189.923	0.130	0.194
-230.771	-38.811	-0.205	-0.108
-229.757	110.588	0.290	-0.348
-228.742	-27.213	0.356	-0.207
-227.727	-117.556	0.206	0.037
-226.713	98.585	0.174	-0.200
-225.698	126.504	-0.236	-0.298
-224.684	68.462	0.182	0.186
-223.669	-200.000	0.048	-0.227
-222.655	10.168	0.106	0.080
-221.640	800.000	-0.125	-0.443
-220.625	61.861	0.168	0.166
-219.611	-29.355	-0.048	-0.028
-218.596	-200.000	-0.010	0.110
-217.582	35.316	-0.082	-0.071
-216.567	688.758	-0.013	-0.034
-215.552	-120.939	0.347	-0.058
-214.538	24.090	0.152	-0.125
-213.523	541.518	0.063	-0.150
-212.509	800.000	0.061	-0.236
-211.494	800.000	0.131	-0.403
-210.479	800.000	0.064	0.230
-209.465	233.071	0.136	0.222
-208.450	244.754	-0.218	-0.365
-207.436	185.600	-0.041	0.061
-206.421	-48.972	-0.090	-0.043
-205.406	-200.000	0.020	0.112
-204.392	-41.348	-0.177	0.091
-203.377	298.561	-0.067	-0.123
-202.363	-200.000	0.051	-0.385
-201.348	-200.000	-0.014	-0.236
-200.333	84.999	0.075	0.082
-199.319	178.903	0.077	-0.112
-198.304	246.513	0.127	-0.213
-197.290	-200.000	0.024	-0.180
-196.275	647.995	0.063	0.162
-195.260	-200.000	0.002	0.359
-194.246	-200.000	-0.001	-0.069
-193.231	46.153	-0.243	-0.225
-192.217	69.940	0.202	0.208
-191.202	-162.566	0.327	-0.016
-190.187	-155.633	-0.194	0.012
-189.173	-4.219	0.142	-0.098
-188.158	-75.183	0.090	0.032
-187.144	-115.174	0.089	-0.017
-186.129	-200.000	0.001	0.031
-185.114	40.959	-0.310	-0.278
-184.100	-200.000	0.012	-0.067
-183.085	126.040	-0.080	0.100
-182.071	220.317	0.163	-0.261
-181.056	-200.000	-0.005	0.147
-180.042	-159.132	-0.311	0.017
-179.027	800.000	-0.027	-0.080
-178.012	-123.349	0.206	-0.033
-176.998	192.901	-0.094	0.142
-175.983	-154.506	0.219	-0.015
-174.969	-200.000	0.045	-0.246
-173.954	-200.000	-0.012	-0.084
-172.939	538.599	0.167	-0.395
-171.925	-200.000	0.014	-0.139
-170.910	393.093	0.154	-0.318
-169.896	17.080	-0.114	0.090
-168.881	23.831	-0.277	-0.227
-167.866	394.547	-0.114	-0.237
-166.852	7.119	-0.317	-0.235
-165.837	-143.261	0.091	0.009
-164.823	-20.660	-0.290	-0.177
-163.808	-0.560	-0.161	-0.113
-162.793	-136.577	-0.160	0.018
-161.779	148.809	-0.285	0.383
-160.764	-52.336	-0.352	-0.162
-159.750	-200.000	0.038	-0.350
-158.735	-200.000	0.001	0.181
-157.720	17.572	0.438	0.346
-156.706	-67.412	-0.062	0.024
-155.691	-200.000	-0.003	-0.255
-154.677	68.535	0.187	0.191
-153.662	44.848	-0.296	0.271
-152.647	-13.044	0.055	-0.036
-151.633	-20.317	-0.121	-0.074
-150.618	-58.592	-0.161	-0.069
-149.604	11.858	-0.282	0.215
-148.589	-32.511	-0.407	0.225
-147.574	-200.000	-0.025	-0.152
-146.560	627.811	0.029	0.073
-145.545	-111.908	-0.134	-0.027
-144.531	-66.687	-0.228	0.090
-143.516	-69.135	0.045	0.017
-142.502	55.035	-0.040	0.038
-141.487	207.280	0.117	0.181
-140.472	73.707	-0.044	0.045
-139.458	82.557	-0.131	0.141
-138.443	-70.335	0.505	-0.191
-137.429	800.000	-0.042	0.152
-136.414	216.073	0.059	-0.093
-135.399	48.902	0.087	0.081
-134.385	-200.000	-0.039	-0.261
-133.370	800.000	-0.069	0.288
-132.356	-200.000	-0.006	0.121
-131.341	459.215	-0.016	0.035
-130.326	-200.000	-0.006	0.187
-129.312	302.746	0.072	-0.133
-128.297	180.387	-0.166	0.242
-127.283	-200.000	0.049	-0.215
-126.268	-69.904	0.124	0.047
-125.253	29.083	0.207	0.174
-124.239	151.107	-0.235	0.318
-123.224	59.304	-0.082	0.080
-122.210	50.712	0.187	-0.176
-121.195	-61.984	-0.074	-0.031
