DTS Sentinel unit serial number:	SN413079Multiplexer serial number:	ORYXHardware model number:	OX4-SRSoftware version number:	ORYX F/W v4.00 Oryx Data Collector v3.7.2.0data status	okinstallation	princeton_trtdifferential loss correction	single-endedforward channel	channel 4reverse channel	N/Adate	2019/09/13time	17:09:35forward acquisition time	60.00reverse acquisition time	0.00gamma	496.2192k internal	0.2291k external	0.2291temperature offset calibration	1.0205default loss term (dB/km)	0.3790temperature slope calibration	1.0000multiplexer offset coefficient	1.0000multiplexer slope coefficient	1.0000fibre end	0.00T internal ref (°C)	35.34T ext. ref 1 (°C)	4.80T ext. ref 2 (°C)	34.46length (m)	temperature (°C)	Stokes	anti-Stokes-747.200	-200.000	0.029	0.304
-746.185	800.000	-0.157	0.450
-745.171	82.835	0.161	0.179
-744.156	714.003	0.175	0.476
-743.142	25.922	0.141	-0.120
-742.127	100.763	-0.113	0.134
-741.112	189.225	-0.114	-0.174
-740.098	-77.629	0.146	0.052
-739.083	-131.510	-0.369	0.050
-738.069	800.000	0.106	0.346
-737.054	35.124	-0.121	0.109
-736.039	-70.564	-0.336	0.130
-735.025	-81.140	0.501	0.169
-734.010	800.000	0.038	-0.130
-732.996	626.561	0.029	-0.076
-731.981	-35.918	-0.046	-0.025
-730.966	95.172	-0.143	0.166
-729.952	297.232	-0.047	-0.088
-728.937	281.790	-0.040	0.073
-727.923	52.042	-0.476	-0.464
-726.908	-200.000	-0.057	0.327
-725.894	245.727	-0.046	0.080
-724.879	-121.267	-0.159	-0.027
-723.864	92.097	-0.103	0.118
-722.850	-115.230	-0.252	0.049
-721.835	-200.000	0.034	-0.403
-720.821	87.893	-0.130	-0.147
-719.806	320.735	-0.222	-0.432
-718.791	-162.909	-0.282	-0.014
-717.777	180.850	0.121	-0.181
-716.762	-58.027	0.472	-0.211
-715.748	-200.000	0.001	-0.337
-714.733	168.256	0.226	0.330
-713.718	-14.788	0.224	-0.147
-712.704	-5.570	0.081	0.057
-711.689	306.363	-0.069	0.132
-710.675	-44.113	-0.111	-0.057
-709.660	63.794	-0.180	0.185
-708.645	-65.753	0.150	-0.061
-707.631	-136.871	0.173	-0.020
-706.616	147.535	-0.066	0.091
-705.602	-162.649	-0.280	0.014
-704.587	-120.479	-0.237	-0.041
-703.572	-12.349	0.358	0.239
-702.558	800.000	-0.030	0.106
-701.543	54.898	-0.154	-0.152
-700.529	19.693	0.112	0.092
-699.514	-108.853	-0.241	-0.053
-698.499	118.027	-0.082	0.103
-697.485	-15.523	0.115	0.075
-696.470	70.374	-0.211	-0.223
-695.456	-158.048	-0.296	0.018
-694.441	800.000	-0.026	0.106
-693.426	800.000	0.025	-0.095
-692.412	-105.219	0.306	0.071
-691.397	-200.000	-0.033	-0.267
-690.383	52.526	-0.175	-0.171
-689.368	6.809	0.238	0.181
-688.354	800.000	0.057	0.240
-687.339	800.000	-0.030	-0.095
-686.324	67.034	-0.145	-0.151
-685.310	724.747	-0.069	-0.188
-684.295	202.698	-0.127	-0.200
-683.281	-81.631	-0.145	0.049
-682.266	198.038	0.044	0.068
-681.251	800.000	0.012	-0.048
-680.237	480.206	0.077	0.178
-679.222	86.867	-0.106	0.119
-678.208	-74.834	0.354	-0.130
-677.193	-11.517	-0.188	-0.127
-676.178	179.264	0.089	-0.133
-675.164	-70.083	-0.235	-0.091
-674.149	-78.898	-0.219	0.076
-673.135	-200.000	-0.092	-0.505
-672.120	759.420	-0.084	-0.232
-671.105	800.000	-0.031	-0.135
-670.091	-200.000	-0.177	-0.001
-669.076	-200.000	0.012	-0.097
-668.062	-56.649	0.093	0.042
-667.047	305.275	-0.262	0.497
-666.032	-66.771	0.202	0.081
-665.018	-145.714	0.319	0.029
-664.003	-187.346	0.439	-0.006
-662.989	73.922	-0.198	-0.212
-661.974	57.330	0.134	0.133
-660.959	-114.704	-0.268	0.052
-659.945	-115.459	0.041	-0.008
-658.930	28.900	-0.101	-0.087
-657.916	33.537	-0.183	-0.162
-656.901	-148.040	0.233	-0.020
-655.886	318.221	0.085	-0.165
-654.872	609.967	-0.145	-0.369
-653.857	-62.367	-0.016	0.007
-652.843	800.000	-0.081	0.302
-651.828	387.104	0.050	-0.106
-650.814	752.061	-0.116	-0.318
-649.799	-200.000	-0.010	0.336
-648.784	-200.000	-0.168	-0.000
-647.770	-1.496	0.162	0.116
-646.755	16.683	0.117	0.094
-645.741	800.000	0.061	0.204
-644.726	127.767	0.071	0.092
-643.711	523.132	0.093	-0.223
-642.697	350.857	0.129	-0.259
-641.682	-95.897	-0.289	0.078
-640.668	-71.923	-0.170	-0.064
-639.653	126.189	-0.047	0.061
-638.638	286.621	0.065	-0.120
-637.624	51.431	0.112	-0.109
-636.609	-200.000	-0.034	0.189
-635.595	-200.000	0.009	-0.055
-634.580	800.000	0.086	0.361
-633.565	379.322	-0.017	0.036
-632.551	151.656	0.159	0.221
-631.536	-200.000	0.014	0.186
-630.522	-114.312	0.211	-0.041
-629.507	653.085	-0.118	-0.309
-628.492	292.347	-0.068	0.126
-627.478	41.596	-0.254	-0.234
-626.463	-30.076	0.089	0.051
-625.449	-163.061	0.168	-0.008
-624.434	169.571	-0.141	-0.205
-623.419	-200.000	-0.042	-0.331
-622.405	-16.824	0.097	0.062
-621.390	34.665	0.084	0.075
-620.376	459.373	-0.118	-0.268
-619.361	-124.149	-0.158	0.025
-618.346	-60.153	-0.451	0.196
-617.332	95.607	-0.031	0.036
-616.317	-200.000	0.058	-0.335
-615.303	-200.000	-0.008	0.162
-614.288	463.796	-0.031	-0.070
-613.273	7.648	-0.333	0.254
-612.259	-0.672	0.094	0.068
-611.244	-151.957	-0.173	-0.013
-610.230	14.100	0.266	0.211
-609.215	-200.000	0.184	0.000
-608.201	793.426	0.070	-0.196
-607.186	-200.000	-0.004	0.085
-606.171	-35.626	0.084	0.047
-605.157	185.856	-0.107	0.162
-604.142	450.424	-0.058	-0.130
-603.128	-14.809	-0.113	-0.074
-602.113	132.952	-0.060	-0.079
-601.098	389.674	0.093	0.196
-600.084	125.357	0.053	0.068
-599.069	800.000	0.151	0.444
-598.055	-51.408	0.060	0.028
-597.040	18.593	0.327	-0.266
-596.025	255.902	-0.101	0.177
-595.011	-171.975	0.212	0.007
-593.996	52.286	0.129	-0.125
-592.982	-140.734	-0.198	-0.021
-591.967	-200.000	-0.003	0.065
-590.952	-99.612	-0.337	-0.086
-589.938	-200.000	0.065	-0.314
-588.923	-200.000	-0.037	-0.177
-587.909	-200.000	-0.016	-0.113
-586.894	760.214	0.054	-0.150
-585.879	-122.443	0.363	0.060
-584.865	548.442	0.059	0.144
-583.850	217.087	-0.142	0.230
-582.836	19.770	-0.111	-0.091
-581.821	800.000	0.041	0.124
-580.806	-2.502	-0.330	0.235
-579.792	-150.092	0.144	-0.011
-578.777	17.798	0.136	0.110
-577.763	101.490	0.128	0.152
-576.748	-175.674	-0.436	-0.012
-575.733	-200.000	0.036	-0.172
-574.719	-34.072	-0.164	-0.092
-573.704	-133.702	-0.433	-0.055
-572.690	26.060	-0.050	-0.042
-571.675	-65.513	-0.415	-0.169
-570.661	96.674	0.119	0.139
-569.646	-64.362	0.274	-0.113
-568.631	-66.072	-0.340	-0.138
-567.617	-96.016	0.295	-0.080
-566.602	-37.398	0.210	-0.114
-565.588	212.443	-0.236	0.379
-564.573	559.848	0.093	0.229
-563.558	-114.483	0.323	0.063
-562.544	-59.335	-0.215	0.094
-561.529	266.834	-0.126	0.224
-560.515	-200.000	0.029	0.157
-559.500	102.322	-0.124	0.147
-558.485	-2.004	0.264	0.189
-557.471	427.228	0.141	-0.309
-556.456	800.000	-0.058	0.209
-555.442	-72.292	-0.087	-0.033
-554.427	800.000	-0.099	-0.315
-553.412	667.154	-0.076	0.198
-552.398	-33.065	-0.243	-0.137
-551.383	798.373	0.064	-0.179
-550.369	-200.000	0.019	0.195
-549.354	-36.397	-0.146	0.080
-548.339	-200.000	-0.082	-0.000
-547.325	33.425	-0.177	0.156
-546.310	-90.585	-0.090	0.026
-545.296	-200.000	0.028	0.310
-544.281	-82.327	0.364	0.120
-543.266	-200.000	-0.008	-0.176
-542.252	-145.067	-0.190	-0.018
-541.237	-92.825	-0.272	0.077
-540.223	800.000	0.035	0.141
-539.208	-109.451	0.320	0.069
-538.193	244.365	0.203	-0.346
-537.179	21.051	0.181	0.149
-536.164	-200.000	0.031	-0.159
-535.150	626.537	0.090	0.231
-534.135	-77.851	-0.207	-0.073
-533.121	-32.850	0.252	0.142
-532.106	800.000	0.094	-0.312
-531.091	-200.000	-0.019	-0.314
-530.077	-152.079	0.135	0.010
-529.062	225.941	-0.146	0.240
-528.048	-141.767	-0.278	0.028
-527.033	-200.000	0.017	0.209
-526.018	-41.219	-0.178	0.093
-525.004	-50.143	-0.263	0.127
-523.989	387.354	0.107	0.225
-522.975	-29.020	-0.127	0.074
-521.960	3.640	0.218	-0.161
-520.945	800.000	-0.123	-0.349
-519.931	-200.000	0.109	-0.640
-518.916	-200.000	0.009	0.101
-517.902	-200.000	0.010	-0.176
-516.887	-200.000	-0.022	0.114
-515.872	4.488	0.251	0.187
-514.858	-200.000	-0.067	-0.329
-513.843	-127.375	0.128	-0.019
-512.829	105.097	-0.159	-0.191
-511.814	800.000	0.053	-0.199
-510.799	-107.128	-0.297	-0.066
-509.785	800.000	-0.022	0.082
-508.770	63.722	-0.244	-0.248
-507.756	-97.111	0.491	-0.130
-506.741	-177.636	-0.235	-0.006
-505.726	122.169	-0.120	-0.151
-504.712	-7.047	0.172	-0.118
-503.697	-200.000	0.029	-0.350
-502.683	497.153	0.069	-0.160
-501.668	278.477	-0.150	-0.271
-500.653	-200.000	0.020	0.123
-499.639	-106.479	-0.107	-0.024
-498.624	-8.181	-0.111	0.076
-497.610	346.136	-0.032	-0.064
-496.595	29.230	0.071	-0.061
-495.581	-200.000	0.031	-0.332
-494.566	-113.098	-0.084	0.017
-493.551	304.629	-0.087	0.163
-492.537	-200.000	0.000	0.046
-491.522	34.667	0.073	-0.064
-490.508	-46.401	-0.242	-0.120
-489.493	108.297	-0.170	0.206
-488.478	-200.000	0.024	0.138
-487.464	-67.305	-0.140	-0.056
-486.449	800.000	0.047	0.138
-485.435	-32.436	0.301	-0.170
-484.420	-200.000	0.020	-0.154
-483.405	-200.000	0.061	-0.353
-482.391	-55.536	-0.415	-0.188
-481.376	-200.000	-0.036	0.178
-480.362	-139.045	-0.144	0.016
-479.347	-24.098	-0.265	-0.160
-478.332	800.000	0.037	0.144
-477.318	800.000	-0.078	0.284
-476.303	58.700	-0.117	0.116
-475.289	467.775	0.074	0.167
-474.274	-200.000	-0.024	0.146
-473.259	-56.408	-0.134	-0.060
-472.245	81.519	0.229	-0.251
-471.230	537.352	0.028	-0.067
-470.216	26.123	0.077	-0.065
-469.201	-121.987	0.022	0.004
-468.186	-141.448	-0.105	0.011
-467.172	-57.878	0.115	-0.051
-466.157	-200.000	0.006	0.268
-465.143	20.737	-0.218	0.179
-464.128	-39.682	0.163	-0.087
-463.113	-130.738	0.418	-0.057
-462.099	-48.259	-0.288	-0.141
-461.084	-100.713	0.155	-0.039
-460.070	20.437	-0.066	0.054
-459.055	-60.726	0.239	0.103
-458.040	-82.396	-0.101	0.033
-457.026	-150.293	0.302	0.024
-456.011	-127.726	0.264	0.039
-454.997	-21.964	0.079	0.049
-453.982	-200.000	0.003	-0.014
-452.968	-94.566	0.275	-0.076
-451.953	167.251	-0.116	0.167
-450.938	228.432	0.073	0.120
-449.924	-200.000	0.018	-0.089
-448.909	185.568	-0.040	0.060
-447.895	-200.000	-0.025	-0.215
-446.880	171.639	-0.199	0.289
-445.865	-185.211	-0.255	-0.004
-444.851	-200.000	-0.017	0.204
-443.836	-149.611	-0.084	-0.007
-442.822	-135.831	0.052	-0.006
-441.807	-143.807	-0.267	-0.025
-440.792	-200.000	0.019	-0.120
-439.778	-200.000	-0.018	-0.311
-438.763	224.158	-0.214	0.349
-437.749	-139.813	-0.227	0.024
-436.734	505.294	0.041	0.095
-435.719	224.386	-0.010	0.016
-434.705	-2.265	0.349	0.248
-433.690	601.836	0.134	0.337
-432.676	-200.000	0.033	0.281
-431.661	-73.783	0.191	-0.070
-430.646	381.792	0.073	0.152
-429.632	137.170	-0.193	0.256
-428.617	188.659	0.078	0.119
-427.603	-85.228	-0.108	0.034
-426.588	248.517	-0.162	-0.277
-425.573	-79.406	-0.243	0.083
-424.559	-31.165	-0.225	0.128
-423.544	143.580	0.067	0.091
-422.530	-73.801	-0.072	0.027
-421.515	724.917	-0.161	0.434
-420.500	21.380	0.077	0.063
-419.486	-25.238	-0.064	0.038
-418.471	800.000	-0.067	-0.199
-417.457	-200.000	0.018	-0.320
-416.442	800.000	0.058	0.201
-415.428	5.395	0.180	0.135
-414.413	-64.413	-0.007	-0.003
-413.398	-114.904	-0.224	-0.043
-412.384	28.845	0.153	0.131
-411.369	351.306	0.067	0.134
-410.355	-78.213	-0.219	0.076
-409.340	-115.860	-0.183	0.035
-408.325	-31.729	0.203	-0.115
-407.311	-200.000	0.011	0.106
-406.296	198.044	0.125	0.192
-405.282	-200.000	0.002	-0.027
-404.267	548.875	0.208	-0.504
-403.252	513.495	0.145	-0.342
-402.238	-111.453	-0.187	-0.039
-401.223	-86.163	-0.060	-0.019
-400.209	-21.303	-0.291	-0.180
-399.194	120.692	-0.214	-0.269
-398.179	800.000	0.072	-0.247
-397.165	153.434	0.011	0.016
-396.150	3.312	-0.237	-0.174
-395.136	-144.597	-0.261	0.024
-394.121	83.047	0.198	-0.218
-393.106	-109.348	0.152	-0.033
-392.092	-178.029	0.502	0.012
-391.077	80.854	0.086	-0.093
-390.063	57.210	0.219	-0.216
-389.048	800.000	0.048	-0.179
-388.033	171.477	-0.094	0.136
-387.019	52.201	-0.026	-0.025
-386.004	23.997	-0.230	-0.192
-384.990	105.077	-0.175	-0.208
-383.975	-200.000	0.009	0.208
-382.960	-172.956	0.285	-0.009
-381.946	338.278	-0.106	-0.209
-380.931	-130.435	0.282	-0.039
-379.917	-125.488	0.445	-0.068
-378.902	800.000	-0.132	0.530
-377.888	48.089	-0.105	-0.099
-376.873	-44.409	0.134	0.068
-375.858	800.000	0.088	0.366
-374.844	-18.730	-0.266	0.167
-373.829	-115.301	0.240	0.046
-372.815	-44.598	0.148	0.075
-371.800	75.264	-0.150	-0.160
-370.785	72.941	-0.291	-0.307
-369.771	-94.606	-0.090	-0.025
-368.756	800.000	0.022	0.090
-367.742	-72.217	-0.367	-0.137
-366.727	-200.000	0.019	0.097
-365.712	27.019	-0.246	0.208
-364.698	78.616	0.041	0.044
-363.683	-200.000	0.035	-0.276
-362.669	-40.465	0.154	0.080
-361.654	-200.000	0.006	-0.263
-360.639	362.067	0.021	0.042
-359.625	55.333	-0.157	-0.154
-358.610	368.686	0.098	-0.199
-357.596	-200.000	-0.038	0.314
-356.581	-200.000	0.001	0.013
-355.566	-124.773	-0.269	-0.042
-354.552	-44.478	0.059	0.030
-353.537	-131.247	0.202	0.027
-352.523	-121.357	-0.078	-0.013
-351.508	200.926	-0.200	-0.310
-350.493	512.711	0.044	0.103
-349.479	-41.526	-0.136	-0.070
-348.464	-38.371	-0.040	0.021
-347.450	284.035	-0.084	-0.153
-346.435	-200.000	0.017	0.207
-345.420	-114.908	0.187	-0.036
-344.406	5.360	0.267	-0.199
-343.391	-200.000	0.087	0.423
-342.377	13.710	0.097	-0.076
-341.362	54.274	-0.121	0.118
-340.348	-84.775	-0.096	0.030
-339.333	36.732	-0.126	0.112
-338.318	-200.000	0.003	-0.248
-337.304	-162.973	-0.183	0.009
-336.289	-83.112	0.325	-0.106
-335.275	-200.000	-0.014	0.229
-334.260	1.200	0.056	-0.040
-333.245	600.223	0.109	-0.273
-332.231	-105.095	0.313	-0.072
-331.216	800.000	0.027	-0.097
-330.202	122.767	-0.331	0.418
-329.187	-28.733	0.069	0.040
-328.172	-56.348	0.352	0.158
-327.158	101.875	0.113	-0.133
-326.143	258.931	-0.044	-0.077
-325.129	566.509	-0.043	0.105
-324.114	-114.137	-0.167	-0.033
-323.099	445.548	-0.092	0.204
-322.085	145.230	-0.106	0.143
-321.070	-10.431	0.223	0.149
-320.056	-200.000	0.018	0.352
-319.041	-110.535	0.187	0.039
-318.026	-181.702	0.305	0.006
-317.012	800.000	0.123	-0.447
-315.997	-40.618	-0.211	-0.110
-314.983	206.998	-0.088	-0.139
-313.968	-45.631	-0.192	-0.096
-312.953	-200.000	0.033	0.267
-311.939	800.000	0.127	0.358
-310.924	87.284	0.130	0.145
-309.910	732.582	-0.119	-0.320
-308.895	-6.032	0.128	0.088
-307.880	-137.265	0.052	0.006
-306.866	-200.000	0.035	-0.206
-305.851	717.708	0.049	0.130
-304.837	37.592	0.200	0.179
-303.822	45.269	-0.183	-0.170
-302.807	-200.000	0.006	0.201
-301.793	-22.127	0.200	-0.122
-300.778	123.648	-0.156	0.197
-299.764	-51.374	-0.138	-0.065
-298.749	14.777	-0.117	0.092
-297.735	2.902	-0.089	-0.065
-296.720	84.624	0.165	-0.182
-295.705	-0.274	-0.144	0.103
-294.691	118.978	-0.021	-0.026
-293.676	-116.288	0.031	-0.006
-292.662	800.000	0.117	0.382
-291.647	-92.559	0.044	0.012
-290.632	-69.450	-0.222	0.086
-289.618	-200.000	0.021	-0.163
-288.603	-55.238	-0.084	-0.038
-287.589	721.740	0.066	0.178
-286.574	274.231	0.130	0.231
-285.559	210.254	0.110	-0.174
-284.545	800.000	0.068	-0.223
-283.530	-140.110	0.093	-0.010
-282.516	-200.000	-0.030	0.321
-281.501	-200.000	-0.012	-0.140
-280.486	-74.096	0.342	-0.124
-279.472	-200.000	0.008	0.108
-278.457	-200.000	0.007	-0.108
-277.443	9.805	0.008	0.006
-276.428	78.145	0.113	-0.121
-275.413	57.488	-0.064	0.063
-274.399	-150.700	0.141	-0.011
-273.384	-93.305	-0.207	0.058
-272.370	-181.574	-0.343	0.007
-271.355	32.780	-0.108	0.094
-270.340	537.656	0.116	-0.277
-269.326	800.000	0.082	0.248
-268.311	-50.219	-0.154	-0.073
-267.297	8.795	0.145	0.110
-266.282	-142.193	-0.221	0.022
-265.267	116.639	0.211	-0.260
-264.253	-7.287	0.259	-0.176
-263.238	-200.000	-0.020	-0.168
-262.224	50.463	0.014	-0.013
-261.209	61.251	0.205	-0.205
-260.195	482.546	0.059	-0.135
-259.180	-200.000	0.051	-0.232
-258.165	800.000	-0.043	-0.155
-257.151	26.373	-0.156	0.131
-256.136	-64.505	-0.246	0.100
-255.122	-200.000	0.007	-0.323
-254.107	11.126	-0.169	0.130
-253.092	800.000	0.114	-0.327
-252.078	-200.000	-0.032	-0.262
-251.063	141.478	-0.275	-0.365
-250.049	800.000	-0.118	-0.455
-249.034	222.442	0.085	-0.137
-248.019	31.428	0.095	0.082
-247.005	-106.469	0.183	-0.041
-245.990	-57.616	-0.165	0.073
-244.976	-159.395	0.335	0.019
-243.961	-83.479	0.168	-0.054
-242.946	-128.397	-0.119	-0.017
-241.932	800.000	-0.094	0.380
-240.917	225.132	-0.074	0.120
-239.903	32.881	-0.308	0.267
-238.888	209.304	-0.044	0.069
-237.873	432.490	-0.069	-0.151
-236.859	800.000	0.065	-0.250
-235.844	-43.385	-0.120	-0.061
-234.830	-75.156	-0.104	-0.037
-233.815	800.000	-0.060	0.217
-232.800	212.917	0.131	-0.207
-231.786	96.957	-0.121	0.139
-230.771	800.000	0.048	-0.186
-229.757	-57.730	0.331	0.145
-228.742	-200.000	0.017	0.169
-227.727	-23.686	0.141	-0.085
-226.713	-200.000	0.051	0.374
-225.698	360.482	0.062	-0.125
-224.684	-200.000	-0.043	0.266
-223.669	-200.000	-0.027	-0.263
-222.655	482.368	0.076	-0.172
-221.640	607.609	-0.056	0.139
-220.625	197.026	-0.181	-0.277
-219.611	-161.894	0.317	-0.016
-218.596	-200.000	0.017	-0.409
-217.582	-77.027	-0.328	0.115
-216.567	-139.661	0.162	0.017
-215.552	-141.078	-0.352	-0.036
-214.538	-141.906	-0.109	-0.011
-213.523	-200.000	-0.023	0.196
-212.509	-49.465	0.126	-0.060
-211.494	243.385	-0.022	-0.038
-210.479	-99.387	-0.170	-0.043
-209.465	-34.294	-0.046	0.025
-208.450	-16.301	-0.184	-0.117
-207.436	157.724	-0.172	-0.239
-206.421	30.406	-0.164	0.141
-205.406	-121.461	0.330	-0.055
-204.392	800.000	0.061	-0.213
-203.377	28.685	-0.189	0.161
-202.363	-191.701	0.150	-0.001
-201.348	800.000	0.053	0.177
-200.333	-200.000	-0.029	-0.182
-199.319	345.628	-0.114	-0.224
-198.304	136.372	0.262	0.343
-197.290	-200.000	0.062	0.286
-196.275	-21.964	0.307	0.187
-195.260	-200.000	-0.084	0.392
-194.246	-8.148	-0.068	0.046
-193.231	-56.700	-0.185	-0.082
-192.217	-200.000	0.025	0.442
-191.202	-200.000	-0.066	-0.357
-190.187	-74.435	-0.115	0.042
-189.173	272.022	-0.144	0.254
-188.158	-200.000	0.014	0.162
-187.144	-88.525	0.158	0.047
-186.129	-191.341	-0.072	0.001
-185.114	51.558	0.116	0.110
-184.100	315.243	0.117	-0.220
-183.085	688.016	-0.009	-0.024
-182.071	-165.380	-0.317	0.014
-181.056	-45.877	0.188	0.093
-180.042	-120.606	0.161	0.027
-179.027	800.000	0.050	0.147
-178.012	535.796	-0.091	0.217
-176.998	92.958	0.100	-0.113
-175.983	-6.574	-0.181	0.124
-174.969	-200.000	0.041	0.627
-173.954	257.171	0.090	-0.154
-172.939	84.303	-0.046	-0.050
-171.925	-200.000	-0.032	0.158
-170.910	300.030	0.060	-0.110
-169.896	-88.499	0.345	-0.103
-168.881	-96.861	0.342	-0.090
-167.866	-92.246	0.195	-0.055
-166.852	138.505	0.171	-0.224
-165.837	-24.905	0.254	0.151
-164.823	-200.000	0.031	-0.193
-163.808	-132.348	0.164	-0.021
-162.793	46.519	-0.178	-0.166
-161.779	-52.709	0.008	-0.004
-160.764	-136.371	-0.251	0.029
-159.750	-94.348	0.436	-0.119
-158.735	-98.560	0.240	-0.061
-157.720	426.638	0.102	0.220
-156.706	-44.373	0.135	-0.067
-155.691	-67.352	-0.205	-0.081
-154.677	-200.000	0.001	0.035
-153.662	-74.048	0.072	-0.026
-152.647	734.382	-0.046	0.123
-151.633	27.432	0.060	0.051
-150.618	37.915	0.087	-0.077
-149.604	-108.543	0.096	-0.021
-148.589	800.000	0.062	-0.209
-147.574	139.274	-0.050	0.066
-146.560	-5.784	0.210	-0.144
-145.545	-200.000	0.015	0.276
-144.531	45.061	-0.068	-0.062
-143.516	89.520	0.097	0.108
-142.502	-142.450	0.119	0.012
-141.487	-200.000	0.017	0.101
-140.472	800.000	0.051	0.204
-139.458	248.498	0.186	0.315
-138.443	-22.895	-0.158	-0.095
-137.429	114.409	-0.040	-0.049
-136.414	-87.279	0.160	0.049
-135.399	-152.773	-0.111	-0.008
-134.385	-120.838	0.451	0.076
-133.370	-76.327	0.157	-0.055
-132.356	136.575	0.204	-0.266
-131.341	51.244	-0.124	0.117
-130.326	-102.516	-0.117	0.028
-129.312	800.000	-0.058	0.194
-128.297	-129.160	0.199	0.028
-127.283	-72.288	0.284	0.105
-126.268	-103.066	-0.167	0.040
-125.253	-107.997	0.022	0.005
-124.239	109.792	-0.103	-0.124
-123.224	-47.915	0.134	0.065
-122.210	-44.467	0.298	-0.149
-121.195	-5.935	-0.531	-0.363
