DTS Sentinel unit serial number:	SN413079Multiplexer serial number:	ORYXHardware model number:	OX4-SRSoftware version number:	ORYX F/W v4.00 Oryx Data Collector v3.7.2.0data status	okinstallation	princeton_trtdifferential loss correction	single-endedforward channel	channel 4reverse channel	N/Adate	2019/09/14time	04:21:34forward acquisition time	60.00reverse acquisition time	0.00gamma	496.2192k internal	0.2321k external	0.2321temperature offset calibration	1.0134default loss term (dB/km)	0.3790temperature slope calibration	1.0000multiplexer offset coefficient	1.0000multiplexer slope coefficient	1.0000fibre end	0.00T internal ref (°C)	26.75T ext. ref 1 (°C)	3.34T ext. ref 2 (°C)	21.90length (m)	temperature (°C)	Stokes	anti-Stokes-747.200	91.577	0.076	-0.086
-746.185	-65.244	0.200	-0.082
-745.171	-107.547	-0.177	0.039
-744.156	-189.137	-0.289	0.003
-743.142	-200.000	0.019	-0.263
-742.127	-25.612	-0.166	0.099
-741.112	-75.313	0.076	0.028
-740.098	86.637	-0.301	0.335
-739.083	-144.665	0.217	-0.020
-738.069	740.242	-0.053	0.144
-737.054	800.000	0.016	-0.060
-736.039	-77.882	0.146	-0.051
-735.025	-8.646	-0.202	-0.137
-734.010	-73.189	-0.355	-0.131
-732.996	151.566	-0.058	-0.080
-731.981	-79.238	-0.307	-0.105
-730.966	-8.321	-0.110	-0.075
-729.952	800.000	-0.162	-0.608
-728.937	-200.000	-0.049	0.351
-727.923	-200.000	0.020	0.389
-726.908	17.598	-0.230	-0.185
-725.894	320.362	-0.160	-0.308
-724.879	581.326	-0.098	-0.242
-723.864	126.899	0.095	-0.121
-722.850	799.849	0.148	-0.413
-721.835	-70.350	-0.174	-0.067
-720.821	-200.000	-0.032	-0.251
-719.806	-110.033	-0.243	0.051
-718.791	116.376	-0.143	-0.177
-717.777	-63.008	0.189	-0.079
-716.762	274.209	-0.113	-0.201
-715.748	-56.049	0.244	-0.110
-714.733	31.633	-0.030	-0.026
-713.718	485.425	-0.120	-0.276
-712.704	-117.283	0.021	-0.004
-711.689	346.183	-0.184	-0.364
-710.675	-120.492	0.092	0.016
-709.660	800.000	-0.043	0.133
-708.645	-200.000	0.049	-0.249
-707.631	-200.000	-0.027	-0.163
-706.616	382.491	-0.046	0.096
-705.602	-82.820	0.060	0.020
-704.587	43.784	0.189	-0.175
-703.572	-200.000	-0.039	-0.236
-702.558	185.405	0.178	-0.267
-701.543	104.033	0.043	-0.051
-700.529	143.298	0.085	-0.114
-699.514	-21.407	0.116	0.071
-698.499	62.801	0.269	-0.271
-697.485	800.000	-0.038	-0.112
-696.470	40.356	0.055	-0.050
-695.456	168.356	0.021	-0.030
-694.441	-117.872	-0.131	-0.024
-693.426	800.000	0.038	0.159
-692.412	-185.858	-0.065	0.001
-691.397	-57.704	-0.242	0.107
-690.383	598.647	0.068	-0.170
-689.368	98.390	0.203	0.236
-688.354	-120.636	-0.185	0.032
-687.339	-200.000	0.027	-0.391
-686.324	322.211	-0.189	-0.362
-685.310	32.612	-0.154	-0.134
-684.295	-123.586	0.390	-0.062
-683.281	800.000	-0.138	-0.502
-682.266	-165.930	-0.239	0.010
-681.251	-131.036	-0.292	-0.039
-680.237	254.508	0.186	-0.321
-679.222	101.094	0.040	-0.046
-678.208	-121.896	-0.455	0.076
-677.193	257.774	0.194	-0.336
-676.178	238.836	-0.113	-0.190
-675.164	26.300	0.350	-0.295
-674.149	156.404	0.197	0.275
-673.135	-130.987	-0.234	-0.032
-672.120	-128.604	0.376	-0.054
-671.105	463.143	-0.104	0.233
-670.091	-97.758	-0.210	0.055
-669.076	-71.584	-0.167	0.063
-668.062	-38.743	-0.175	-0.093
-667.047	-200.000	-0.042	-0.290
-666.032	228.799	-0.056	0.093
-665.018	-130.067	-0.103	0.014
-664.003	105.872	0.080	-0.095
-662.989	-100.390	0.048	0.012
-661.974	-99.613	0.285	0.072
-660.959	60.870	-0.030	-0.030
-659.945	38.522	0.115	0.104
-658.930	-200.000	0.047	-0.414
-657.916	-5.702	0.197	-0.136
-656.901	86.361	0.108	0.120
-655.886	296.353	-0.041	-0.075
-654.872	-13.006	-0.353	-0.231
-653.857	64.203	-0.198	-0.201
-652.843	-162.320	0.167	0.008
-651.828	175.283	-0.235	0.342
-650.814	-88.203	-0.268	0.081
-649.799	-139.362	0.119	0.013
-648.784	-110.111	0.260	0.055
-647.770	800.000	0.017	-0.069
-646.755	26.647	-0.119	-0.100
-645.741	-53.402	0.248	-0.114
-644.726	-200.000	0.012	-0.337
-643.711	-200.000	0.036	0.294
-642.697	-200.000	-0.005	-0.111
-641.682	-200.000	-0.037	-0.187
-640.668	139.538	-0.171	0.227
-639.653	152.374	-0.479	-0.658
-638.638	-30.520	0.361	-0.206
-637.624	-200.000	-0.023	-0.173
-636.609	-1.367	0.063	-0.045
-635.595	-82.526	-0.314	0.102
-634.580	-68.732	0.230	-0.089
-633.565	-42.955	-0.344	-0.176
-632.551	-200.000	-0.021	-0.132
-631.536	-184.641	-0.507	-0.008
-630.522	-71.080	0.319	-0.121
-629.507	-200.000	-0.045	-0.399
-628.492	27.353	-0.170	-0.144
-627.478	-91.057	0.308	0.089
-626.463	-200.000	0.007	0.101
-625.449	-77.939	-0.438	0.152
-624.434	-200.000	-0.048	0.233
-623.419	-96.041	0.118	-0.032
-622.405	28.031	0.088	-0.074
-621.390	16.254	-0.106	-0.084
-620.376	-92.375	0.183	0.052
-619.361	332.622	0.098	-0.191
-618.346	-61.782	-0.066	0.028
-617.332	-152.211	0.333	0.024
-616.317	570.756	0.022	0.053
-615.303	103.344	-0.151	-0.178
-614.288	59.479	0.164	0.163
-613.273	64.305	0.140	0.142
-612.259	91.598	-0.134	0.152
-611.244	42.684	0.120	0.109
-610.230	-163.799	0.159	0.007
-609.215	28.503	-0.046	-0.039
-608.201	800.000	0.025	-0.106
-607.186	-200.000	0.032	0.206
-606.171	333.904	-0.231	0.449
-605.157	-61.415	0.240	0.102
-604.142	-74.370	-0.077	0.028
-603.128	-200.000	0.028	0.222
-602.113	60.390	0.133	-0.133
-601.098	6.702	0.299	-0.224
-600.084	-200.000	0.068	-0.550
-599.069	377.270	-0.061	-0.126
-598.055	29.105	0.192	-0.164
-597.040	800.000	0.051	0.174
-596.025	-80.596	0.084	0.028
-595.011	-180.095	0.233	-0.005
-593.996	224.775	0.165	-0.268
-592.982	-98.693	-0.113	-0.029
-591.967	-127.134	0.193	0.028
-590.952	-14.367	-0.240	0.155
-589.938	-3.978	0.078	-0.054
-588.923	800.000	0.066	-0.232
-587.909	-8.549	-0.075	-0.050
-586.894	-75.750	-0.254	-0.090
-585.879	174.856	0.176	-0.256
-584.865	-76.756	0.361	-0.127
-583.850	-68.576	0.130	-0.051
-582.836	-200.000	0.063	0.445
-581.821	91.639	0.112	0.126
-580.806	-138.617	-0.234	0.026
-579.792	-67.379	0.334	0.132
-578.777	100.001	-0.165	0.192
-577.763	800.000	-0.040	0.117
-576.748	800.000	-0.039	-0.120
-575.733	-200.000	0.053	0.283
-574.719	502.667	-0.203	-0.471
-573.704	-200.000	-0.018	-0.137
-572.690	-181.945	0.221	-0.004
-571.675	-112.015	-0.211	-0.043
-570.661	34.071	-0.134	0.117
-569.646	-200.000	-0.025	-0.159
-568.631	-114.802	0.125	-0.024
-567.617	-89.769	-0.231	-0.068
-566.602	-83.208	-0.168	0.054
-565.588	-27.434	-0.057	-0.033
-564.573	-41.423	-0.369	-0.190
-563.558	222.548	-0.075	-0.121
-562.544	-38.012	0.084	0.045
-561.529	-111.015	0.021	-0.004
-560.515	-200.000	0.013	0.168
-559.500	-200.000	0.030	-0.180
-558.485	524.334	-0.044	0.103
-557.471	-200.000	0.009	0.106
-556.456	294.198	0.242	0.443
-555.442	-200.000	-0.007	0.141
-554.427	-200.000	-0.035	0.265
-553.412	140.294	-0.127	-0.168
-552.398	510.492	-0.072	-0.167
-551.383	21.582	-0.200	-0.163
-550.369	-138.284	-0.096	0.011
-549.354	-200.000	0.001	0.199
-548.339	-103.493	0.177	0.042
-547.325	70.542	-0.183	0.189
-546.310	-200.000	0.008	-0.187
-545.296	10.256	-0.234	-0.178
-544.281	-54.267	-0.261	-0.119
-543.266	-13.086	0.207	0.135
-542.252	675.976	-0.033	0.087
-541.237	-200.000	0.045	-0.291
-540.223	438.957	0.117	0.257
-539.208	-200.000	-0.022	0.147
-538.193	800.000	0.037	-0.147
-537.179	-62.052	-0.333	-0.139
-536.164	-200.000	0.007	0.033
-535.150	-156.426	0.262	-0.016
-534.135	-200.000	0.073	-0.365
-533.121	51.315	-0.197	-0.187
-532.106	800.000	0.065	0.186
-531.091	-99.188	-0.343	-0.087
-530.077	-139.736	0.116	0.012
-529.062	135.067	-0.271	0.353
-528.048	-8.135	-0.251	-0.170
-527.033	-1.070	0.171	0.121
-526.018	-180.475	-0.240	0.005
-525.004	-200.000	0.058	0.294
-523.989	443.531	0.114	-0.251
-522.975	319.441	-0.150	-0.285
-521.960	299.594	-0.098	-0.181
-520.945	96.453	-0.281	0.322
-519.931	3.763	0.311	0.228
-518.916	-19.236	-0.321	-0.200
-517.902	-165.232	-0.256	-0.011
-516.887	253.969	0.108	0.184
-515.872	-55.597	-0.160	0.072
-514.858	102.712	-0.106	-0.124
-513.843	-0.052	0.229	0.163
-512.829	85.924	-0.072	0.080
-511.814	-189.386	0.170	-0.002
-510.799	-200.000	-0.006	-0.083
-509.785	-143.646	0.133	0.013
-508.770	256.228	0.030	0.051
-507.756	180.654	-0.098	0.143
-506.741	-83.418	0.126	-0.040
-505.726	-142.777	-0.274	0.027
-504.712	387.480	0.083	-0.171
-503.697	-170.046	0.364	0.013
-502.683	216.570	-0.079	0.126
-501.668	-75.970	-0.127	0.045
-500.653	146.337	-0.200	0.269
-499.639	-200.000	-0.004	0.051
-498.624	270.118	0.059	-0.104
-497.610	-98.026	-0.289	-0.074
-496.595	800.000	0.102	-0.419
-495.581	-99.214	0.126	-0.032
-494.566	800.000	0.085	0.294
-493.551	-200.000	-0.030	-0.232
-492.537	-94.079	0.305	0.084
-491.522	93.999	0.177	0.201
-490.508	-116.929	-0.621	0.114
-489.493	-60.412	-0.245	0.104
-488.478	488.880	0.155	-0.354
-487.464	800.000	-0.037	-0.113
-486.449	-6.791	-0.346	-0.235
-485.435	-81.755	0.180	-0.059
-484.420	17.769	0.407	0.324
-483.405	348.659	0.051	-0.101
-482.391	-143.952	-0.303	0.029
-481.376	329.106	0.150	-0.288
-480.362	15.026	-0.023	-0.018
-479.347	-41.877	0.140	-0.072
-478.332	-184.740	-0.060	0.001
-477.318	61.009	-0.273	0.271
-476.303	217.282	0.025	-0.040
-475.289	-108.616	-0.205	0.044
-474.274	800.000	0.048	-0.178
-473.259	132.382	0.147	0.190
-472.245	59.188	-0.059	-0.058
-471.230	800.000	0.069	0.263
-470.216	-23.864	-0.234	0.140
-469.201	-92.257	-0.201	0.057
-468.186	800.000	0.090	0.333
-467.172	-64.871	0.381	-0.154
-466.157	544.961	0.081	-0.192
-465.143	800.000	0.057	-0.195
-464.128	-200.000	-0.048	-0.237
-463.113	37.383	-0.154	0.137
-462.099	-16.426	0.184	-0.116
-461.084	-119.279	-0.067	0.012
-460.070	674.237	-0.107	0.278
-459.055	-135.836	-0.259	-0.031
-458.040	51.923	-0.383	-0.364
-457.026	-35.331	0.358	-0.195
-456.011	-8.707	0.052	-0.035
-454.997	20.935	0.145	-0.117
-453.982	140.595	0.113	-0.150
-452.968	-102.975	0.103	-0.025
-451.953	-136.455	-0.130	-0.015
-450.938	75.685	-0.129	-0.136
-449.924	86.348	-0.120	-0.132
-448.909	800.000	0.026	0.076
-447.895	769.216	-0.095	0.258
-446.880	800.000	-0.030	-0.098
-445.865	-200.000	0.018	0.096
-444.851	-25.324	0.021	0.013
-443.836	51.332	-0.187	0.178
-442.822	3.373	-0.073	0.053
-441.807	7.877	-0.161	0.121
-440.792	-78.882	-0.202	-0.069
-439.778	-200.000	-0.014	-0.147
-438.763	-141.149	-0.238	0.024
-437.749	-106.737	0.367	-0.081
-436.734	147.078	0.316	0.424
-435.719	14.871	-0.251	-0.196
-434.705	-30.472	0.254	0.144
-433.690	-101.301	-0.176	0.043
-432.676	-150.191	0.141	-0.011
-431.661	515.087	-0.108	0.252
-430.646	-200.000	-0.018	-0.080
-429.632	-200.000	-0.013	0.090
-428.617	-40.850	-0.134	0.069
-427.603	-18.052	0.103	0.064
-426.588	-186.301	0.180	0.003
-425.573	-149.556	-0.138	-0.011
-424.559	800.000	0.091	-0.369
-423.544	-100.888	-0.441	-0.108
-422.530	255.514	0.241	-0.412
-421.515	800.000	0.074	0.304
-420.500	-32.813	0.560	0.311
-419.486	-200.000	0.043	0.263
-418.471	-146.478	0.132	0.011
-417.457	484.570	0.046	0.104
-416.442	244.214	0.215	0.360
-415.428	-12.010	0.115	0.075
-414.413	133.938	0.197	0.255
-413.398	-200.000	0.039	-0.217
-412.384	-81.477	0.157	0.052
-411.369	38.903	0.291	-0.260
-410.355	800.000	0.090	-0.362
-409.340	800.000	-0.061	0.246
-408.325	-0.843	-0.144	0.102
-407.311	7.392	0.258	-0.192
-406.296	-200.000	0.043	-0.203
-405.282	-1.142	-0.151	0.106
-404.267	-21.821	0.114	-0.069
-403.252	-200.000	-0.050	0.289
-402.238	-4.090	-0.213	-0.147
-401.223	-86.098	0.100	0.031
-400.209	188.746	0.163	0.243
-399.194	-132.714	0.364	-0.046
-398.179	-200.000	-0.018	0.264
-397.165	13.991	0.169	-0.131
-396.150	-123.497	-0.091	0.014
-395.136	-200.000	0.019	-0.184
-394.121	-47.092	0.194	0.094
-393.106	800.000	-0.084	0.240
-392.092	-21.250	-0.088	0.054
-391.077	-16.855	0.252	-0.159
-390.063	-107.880	0.064	-0.014
-389.048	-200.000	-0.012	-0.363
-388.033	81.636	-0.178	-0.192
-387.019	-83.461	0.083	-0.026
-386.004	-19.673	-0.058	0.036
-384.990	281.155	-0.080	0.143
-383.975	-152.767	0.127	-0.009
-382.960	151.184	-0.149	-0.202
-381.946	22.189	0.078	0.064
-380.931	81.785	0.093	0.100
-379.917	-45.642	-0.190	0.093
-378.902	191.112	0.148	-0.222
-377.888	24.653	0.190	0.156
-376.873	-200.000	-0.028	0.371
-375.858	494.843	-0.166	0.379
-374.844	-77.790	0.106	-0.036
-373.829	454.201	-0.055	0.122
-372.815	-34.928	-0.047	-0.025
-371.800	89.249	0.108	0.120
-370.785	-200.000	-0.009	0.279
-369.771	-133.087	-0.212	-0.027
-368.756	-74.195	-0.117	-0.042
-367.742	-54.168	-0.091	-0.041
-366.727	729.118	0.053	-0.142
-365.712	8.430	0.144	0.108
-364.698	800.000	-0.022	0.081
-363.683	265.860	-0.148	-0.257
-362.669	-109.254	0.082	0.017
-361.654	-157.605	0.074	0.004
-360.639	249.961	-0.211	-0.356
-359.625	14.173	-0.080	-0.062
-358.610	800.000	-0.043	-0.133
-357.596	-200.000	0.011	-0.185
-356.581	-200.000	0.119	-0.531
-355.566	-200.000	0.036	0.242
-354.552	-200.000	0.060	-0.334
-353.537	9.237	-0.269	-0.202
-352.523	724.069	0.016	0.042
-351.508	-158.522	-0.030	0.002
-350.493	-200.000	-0.007	-0.277
-349.479	-200.000	0.003	0.112
-348.464	284.958	0.026	-0.047
-347.450	38.741	0.175	0.156
-346.435	115.981	0.092	-0.112
-345.420	69.557	0.124	0.128
-344.406	-97.192	0.158	-0.041
-343.391	131.118	0.194	-0.248
-342.377	274.379	0.056	0.099
-341.362	-106.379	0.207	-0.046
-340.348	127.226	0.053	0.067
-339.333	800.000	0.063	0.263
-338.318	7.792	-0.115	-0.085
-337.304	-200.000	0.039	-0.284
-336.289	-119.338	0.061	-0.011
-335.275	24.184	0.259	0.213
-334.260	340.608	0.099	0.192
-333.245	492.338	0.153	-0.348
-332.231	800.000	0.049	-0.204
-331.216	-6.758	0.049	-0.033
-330.202	176.486	0.086	0.125
-329.187	-90.167	0.211	0.061
-328.172	-123.042	-0.195	-0.031
-327.158	-200.000	0.014	-0.109
-326.143	-191.200	0.137	0.001
-325.129	46.255	0.151	-0.139
-324.114	-97.236	-0.221	0.057
-323.099	0.253	0.318	-0.226
-322.085	-150.824	0.068	0.005
-321.070	-24.151	-0.227	-0.135
-320.056	93.557	0.278	0.313
-319.041	122.017	0.118	0.146
-318.026	4.740	-0.288	0.210
-317.012	339.207	-0.084	0.162
-315.997	800.000	0.089	0.261
-314.983	-14.890	0.170	-0.108
-313.968	-167.858	-0.116	-0.005
-312.953	130.270	0.105	0.134
-311.939	73.733	-0.379	0.395
-310.924	80.200	-0.142	-0.152
-309.910	-52.944	-0.190	0.087
-308.895	166.474	-0.046	0.064
-307.880	-149.765	0.352	0.027
-306.866	68.761	-0.242	-0.247
-305.851	69.436	-0.156	0.159
-304.837	-13.076	0.209	-0.135
-303.822	56.854	0.301	-0.291
-302.807	734.771	-0.068	0.181
-301.793	17.942	0.219	0.173
-300.778	800.000	-0.080	-0.273
-299.764	800.000	-0.025	0.084
-298.749	106.748	-0.110	-0.129
-297.735	-7.181	0.214	0.144
-296.720	155.430	-0.181	-0.247
-295.705	-122.646	0.217	-0.035
-294.691	-73.740	-0.257	0.093
-293.676	-200.000	0.020	-0.235
-292.662	-200.000	-0.018	-0.092
-291.647	800.000	0.084	0.237
-290.632	-71.259	-0.037	0.014
-289.618	396.735	0.094	0.195
-288.603	-200.000	-0.012	-0.076
-287.589	228.622	-0.085	0.138
-286.574	129.814	0.067	0.085
-285.559	-61.607	-0.249	0.104
-284.545	299.585	0.064	-0.117
-283.530	122.871	0.247	0.307
-282.516	63.294	-0.228	0.227
-281.501	51.503	-0.186	0.175
-280.486	-131.749	-0.317	-0.041
-279.472	-76.337	-0.172	-0.060
-278.457	116.343	-0.163	-0.198
-277.443	459.079	-0.025	0.055
-276.428	104.966	0.187	-0.219
-275.413	-2.434	-0.233	0.162
-274.399	800.000	0.069	0.234
-273.384	-200.000	-0.006	0.190
-272.370	-115.935	-0.429	0.079
-271.355	800.000	0.192	-0.539
-270.340	-200.000	-0.030	-0.331
-269.326	8.052	-0.374	-0.278
-268.311	-173.560	-0.186	-0.006
-267.297	-117.613	0.348	-0.062
-266.282	800.000	-0.023	0.092
-265.267	-82.366	-0.183	-0.059
-264.253	-200.000	0.001	0.184
-263.238	-131.537	0.276	-0.036
-262.224	352.392	-0.073	-0.144
-261.209	-78.140	-0.100	0.034
-260.195	92.326	0.055	0.062
-259.180	-200.000	-0.038	-0.206
-258.165	-122.706	-0.120	0.019
-257.151	66.718	0.220	-0.222
-256.136	-143.486	-0.181	-0.017
-255.122	327.634	-0.056	0.106
-254.107	-108.471	-0.340	-0.073
-253.092	98.155	-0.176	0.201
-252.078	-73.342	-0.136	0.049
-251.063	308.009	0.063	-0.117
-250.049	-200.000	0.014	-0.279
-249.034	-87.601	-0.165	-0.049
-248.019	-47.337	0.274	-0.132
-247.005	-40.917	-0.166	0.085
-245.990	324.700	-0.124	-0.235
-244.976	-123.310	0.267	0.042
-243.961	-94.366	0.134	0.036
-242.946	-122.884	0.507	-0.081
-241.932	-200.000	0.072	-0.368
-240.917	571.341	0.085	-0.205
-239.903	-200.000	-0.018	0.094
-238.888	551.456	0.025	-0.059
-237.873	88.352	0.134	0.148
-236.859	191.625	-0.091	0.136
-235.844	-189.988	0.154	0.002
-234.830	37.317	0.314	0.276
-233.815	-200.000	0.010	0.182
-232.800	432.994	0.083	-0.179
-231.786	104.986	-0.112	0.131
-230.771	-99.670	0.081	0.020
-229.757	295.164	-0.070	-0.126
-228.742	-95.241	0.373	0.099
-227.727	-175.168	-0.192	0.005
-226.713	800.000	0.080	0.225
-225.698	-49.307	0.348	0.164
-224.684	-200.000	-0.009	0.334
-223.669	-200.000	-0.047	0.242
-222.655	-200.000	0.002	-0.091
-221.640	-200.000	-0.007	0.281
-220.625	-200.000	-0.031	-0.210
-219.611	24.579	0.351	-0.287
-218.596	-200.000	-0.028	0.236
-217.582	-200.000	0.075	-0.391
-216.567	-200.000	0.023	-0.224
-215.552	195.491	-0.042	0.062
-214.538	113.466	-0.231	-0.277
-213.523	-52.573	0.173	0.079
-212.509	-96.682	0.306	0.080
-211.494	-148.038	-0.257	0.021
-210.479	127.843	-0.172	-0.216
-209.465	386.550	0.101	0.207
-208.450	-200.000	-0.011	0.122
-207.436	-109.211	-0.397	-0.083
-206.421	800.000	-0.065	-0.277
-205.406	70.183	-0.151	-0.154
-204.392	-66.904	0.565	-0.221
-203.377	-36.768	0.111	-0.059
-202.363	-92.451	0.240	-0.067
-201.348	301.216	-0.087	-0.160
-200.333	-129.502	0.216	-0.030
-199.319	1.007	-0.196	0.139
-198.304	-77.908	0.163	-0.056
-197.290	-200.000	-0.003	-0.020
-196.275	-42.877	-0.349	0.175
-195.260	-31.683	-0.126	-0.070
-194.246	122.096	-0.235	0.290
-193.231	800.000	-0.084	0.249
-192.217	-200.000	-0.053	0.242
-191.202	-115.402	0.272	0.051
-190.187	227.834	-0.197	0.316
-189.173	259.096	0.060	-0.102
-188.158	-136.022	-0.358	0.042
-187.144	150.244	-0.139	-0.187
-186.129	376.828	-0.085	0.173
-185.114	-200.000	-0.005	0.651
-184.100	-200.000	0.024	-0.125
-183.085	-84.011	-0.201	0.063
-182.071	-47.386	-0.115	-0.056
-181.056	328.559	0.049	-0.092
-180.042	97.881	0.298	-0.338
-179.027	-200.000	-0.023	0.400
-178.012	245.503	-0.152	-0.252
-176.998	49.691	-0.049	0.045
-175.983	10.267	-0.245	0.184
-174.969	230.922	0.194	-0.314
-173.954	-28.770	-0.150	-0.085
-172.939	-128.907	-0.216	-0.030
-171.925	186.630	0.200	-0.295
-170.910	586.786	0.120	0.292
-169.896	-200.000	-0.056	0.416
-168.881	161.119	-0.161	-0.223
-167.866	4.826	-0.118	-0.085
-166.852	99.328	-0.136	-0.155
-165.837	-200.000	-0.039	0.187
-164.823	-200.000	0.030	0.168
-163.808	-130.969	-0.190	0.025
-162.793	-200.000	0.013	0.197
-161.779	-69.933	-0.032	0.012
-160.764	-17.205	0.307	0.191
-159.750	-76.638	-0.353	0.122
-158.735	127.022	0.268	0.336
-157.720	318.008	-0.056	0.104
-156.706	147.037	-0.042	0.056
-155.691	-200.000	0.016	0.107
-154.677	308.710	0.193	0.356
-153.662	-200.000	-0.005	0.138
-152.647	-152.042	-0.286	0.021
-151.633	242.762	-0.140	0.232
-150.618	121.307	-0.167	-0.205
-149.604	475.097	0.116	0.258
-148.589	-79.465	0.104	0.035
-147.574	-112.244	0.374	-0.074
-146.560	-111.951	-0.117	0.023
-145.545	3.050	-0.239	0.172
-144.531	-156.678	-0.072	0.004
-143.516	27.657	0.287	-0.238
-142.502	55.026	-0.082	-0.078
-141.487	-88.454	-0.151	0.044
-140.472	800.000	0.053	-0.149
-139.458	735.348	0.071	-0.189
-138.443	281.617	-0.153	0.270
-137.429	57.076	-0.083	-0.080
-136.414	115.801	-0.101	-0.122
-135.399	528.862	-0.074	0.172
-134.385	16.282	0.318	0.248
-133.370	-200.000	0.006	0.218
-132.356	-93.535	-0.248	-0.068
-131.341	267.032	0.133	-0.230
-130.326	-1.741	-0.092	-0.064
-129.312	-200.000	-0.029	0.238
-128.297	-81.149	0.253	0.083
-127.283	800.000	0.093	0.385
-126.268	-133.730	0.068	0.008
-125.253	-139.432	-0.280	-0.030
-124.239	259.453	0.198	-0.338
-123.224	-200.000	-0.011	0.120
-122.210	-128.391	-0.197	-0.028
