DTS Sentinel unit serial number:	SN413079Multiplexer serial number:	ORYXHardware model number:	OX4-SRSoftware version number:	ORYX F/W v4.00 Oryx Data Collector v3.7.2.0data status	okinstallation	princeton_trtdifferential loss correction	single-endedforward channel	channel 4reverse channel	N/Adate	2019/09/12time	18:38:18forward acquisition time	15.00reverse acquisition time	0.00gamma	496.2192k internal	0.2307k external	0.2307temperature offset calibration	1.0141default loss term (dB/km)	0.3790temperature slope calibration	1.0000multiplexer offset coefficient	1.0000multiplexer slope coefficient	1.0000fibre end	0.00T internal ref (°C)	33.12T ext. ref 1 (°C)	2.99T ext. ref 2 (°C)	27.71length (m)	temperature (°C)	Stokes	anti-Stokes-747.200	-123.785	-0.898	0.144
-746.185	-175.329	-0.821	-0.023
-745.171	-200.000	-0.057	-0.354
-744.156	-200.000	-0.026	0.288
-743.142	-38.005	-0.864	-0.467
-742.127	-200.000	-0.021	0.227
-741.112	-200.000	-0.058	-0.440
-740.098	-87.829	0.123	0.038
-739.083	267.905	-0.216	-0.384
-738.069	-83.524	-0.363	0.118
-737.054	224.250	-0.514	-0.845
-736.039	-171.354	-0.975	0.033
-735.025	800.000	-0.187	0.593
-734.010	478.180	0.146	-0.336
-732.996	129.131	0.180	-0.233
-731.981	-41.978	0.524	0.273
-730.966	-48.759	-0.692	0.338
-729.952	-32.616	-0.669	0.379
-728.937	334.105	-0.027	0.053
-727.923	-200.000	0.121	1.269
-726.908	31.335	-0.832	0.726
-725.894	-134.729	-0.726	-0.090
-724.879	-129.017	-0.640	-0.091
-723.864	-200.000	0.152	-0.680
-722.850	402.716	0.237	0.507
-721.835	-200.000	-0.055	0.570
-720.821	76.086	0.306	-0.329
-719.806	-119.512	-0.846	0.149
-718.791	173.844	-0.254	0.373
-717.777	-200.000	0.052	-0.495
-716.762	-200.000	0.063	-1.084
-715.748	403.667	0.514	-1.099
-714.733	-43.936	-0.519	-0.265
-713.718	531.198	-0.127	0.304
-712.704	88.568	-0.190	0.215
-711.689	-200.000	-0.013	-0.643
-710.675	-68.766	-0.447	-0.176
-709.660	395.232	0.404	0.855
-708.645	-67.047	-0.800	-0.321
-707.631	-170.783	-0.167	0.006
-706.616	-150.515	-0.570	0.044
-705.602	67.723	-0.511	0.530
-704.587	-200.000	-0.005	0.272
-703.572	198.609	-0.670	1.041
-702.558	299.221	0.249	0.465
-701.543	800.000	-0.247	-0.964
-700.529	-127.658	-0.354	-0.052
-699.514	35.334	-0.217	0.193
-698.499	-200.000	0.049	0.705
-697.485	-77.507	0.732	0.258
-696.470	448.234	0.325	0.726
-695.456	-200.000	-0.005	-0.492
-694.441	294.146	0.127	0.236
-693.426	-14.056	-0.521	0.341
-692.412	214.409	0.383	-0.616
-691.397	-9.394	-0.302	-0.205
-690.383	230.877	0.141	0.235
-689.368	-149.561	0.414	-0.033
-688.354	800.000	-0.147	0.501
-687.339	-32.489	-0.178	-0.101
-686.324	-200.000	0.035	-0.733
-685.310	120.400	-0.926	-1.167
-684.295	294.017	-0.149	0.275
-683.281	-200.000	-0.355	-0.001
-682.266	-200.000	0.013	0.859
-681.251	-21.380	-0.484	-0.300
-680.237	42.882	-0.394	0.364
-679.222	151.055	0.550	-0.759
-678.208	172.325	-0.299	-0.436
-677.193	-39.048	0.243	-0.130
-676.178	268.580	-0.343	0.610
-675.164	-147.610	-0.382	0.033
-674.149	142.943	-0.501	-0.676
-673.135	-163.462	0.581	-0.028
-672.120	-200.000	0.145	0.659
-671.105	800.000	0.142	-0.612
-670.091	-77.927	0.568	-0.199
-669.076	800.000	0.296	0.947
-668.062	800.000	-0.107	-0.333
-667.047	-134.373	-0.920	-0.114
-666.032	-0.514	0.075	0.054
-665.018	-95.868	-1.224	-0.331
-664.003	-127.663	-0.609	0.089
-662.989	-95.225	-0.294	0.080
-661.974	389.072	0.233	-0.489
-660.959	92.220	-0.395	0.451
-659.945	-200.000	0.050	0.716
-658.930	-114.240	-0.405	0.079
-657.916	-102.008	0.545	-0.133
-656.901	36.543	0.817	-0.731
-655.886	395.103	-0.197	-0.416
-654.872	-120.905	-0.383	-0.065
-653.857	-144.026	-0.841	0.080
-652.843	201.375	-0.177	0.275
-651.828	-8.527	0.093	-0.063
-650.814	-90.123	0.304	-0.090
-649.799	1.456	0.192	0.140
-648.784	228.863	0.104	0.171
-647.770	-39.517	-0.123	0.065
-646.755	-200.000	-0.031	0.578
-645.741	-156.834	0.314	0.020
-644.726	-200.000	-0.086	-0.477
-643.711	-26.100	-0.411	-0.245
-642.697	-153.230	-0.640	-0.045
-641.682	15.471	-0.725	-0.577
-640.668	-141.830	0.727	-0.074
-639.653	76.308	-0.415	0.445
-638.638	-145.693	-0.396	0.036
-637.624	-111.296	0.632	0.131
-636.609	-31.878	1.324	0.751
-635.595	27.876	-0.119	-0.101
-634.580	670.737	-0.194	-0.510
-633.565	-89.444	-1.003	0.299
-632.551	-111.713	-0.326	0.067
-631.536	-104.267	0.056	0.013
-630.522	-60.922	0.802	0.343
-629.507	-23.544	0.346	0.210
-628.492	266.609	0.098	-0.174
-627.478	-35.046	-0.706	-0.390
-626.463	96.377	0.166	0.192
-625.449	31.504	0.225	0.195
-624.434	-84.877	0.347	-0.110
-623.419	-97.358	-0.349	0.092
-622.405	-156.999	0.705	0.044
-621.390	800.000	-0.218	0.748
-620.376	800.000	0.246	1.026
-619.361	-77.424	-0.359	-0.126
-618.346	639.761	0.285	0.735
-617.332	-133.298	-0.149	0.019
-616.317	52.629	-0.256	0.247
-615.303	18.219	-0.649	-0.524
-614.288	-90.462	-0.690	-0.202
-613.273	-35.623	0.096	0.053
-612.259	12.436	-0.503	-0.392
-611.244	-30.324	0.836	0.480
-610.230	-89.910	-0.218	-0.064
-609.215	-200.000	0.095	-0.939
-608.201	-43.537	-0.447	-0.228
-607.186	-200.000	-0.003	0.092
-606.171	-134.658	-0.601	-0.074
-605.157	50.638	-0.445	-0.426
-604.142	32.970	0.331	0.290
-603.128	112.215	-0.256	-0.313
-602.113	-94.083	-0.414	-0.115
-601.098	-113.974	0.239	-0.047
-600.084	-114.269	0.334	-0.065
-599.069	-200.000	0.034	-0.231
-598.055	350.995	0.185	0.371
-597.040	179.191	0.358	-0.530
-596.025	72.587	-0.430	-0.454
-595.011	517.542	-0.173	0.409
-593.996	-94.587	-0.202	-0.056
-592.982	34.217	0.259	-0.228
-591.967	475.284	0.199	-0.455
-590.952	12.208	0.046	-0.036
-589.938	800.000	-0.045	-0.194
-588.923	800.000	0.136	-0.413
-587.909	-144.697	-0.144	0.013
-586.894	76.900	-0.659	-0.707
-585.879	580.930	-0.148	0.365
-584.865	169.536	0.145	0.209
-583.850	-141.249	0.593	0.061
-582.836	-138.170	0.389	-0.044
-581.821	114.358	-0.363	-0.446
-580.806	501.902	-0.280	0.654
-579.792	-179.942	-0.594	0.013
-578.777	-200.000	-0.016	0.296
-577.763	-37.331	-0.584	-0.315
-576.748	800.000	0.121	0.435
-575.733	-50.916	0.192	0.091
-574.719	45.931	0.193	0.180
-573.704	800.000	-0.069	-0.198
-572.690	145.717	0.239	0.324
-571.675	-93.786	-0.663	0.184
-570.661	200.489	0.333	-0.517
-569.646	-43.941	0.259	0.131
-568.631	-16.614	-0.226	-0.145
-567.617	800.000	0.140	-0.609
-566.602	-200.000	-0.035	0.346
-565.588	-200.000	0.083	-0.520
-564.573	31.445	0.378	-0.328
-563.558	349.278	-0.323	-0.644
-562.544	568.401	0.363	0.891
-561.529	-67.822	-0.380	-0.150
-560.515	800.000	-0.200	0.599
-559.500	800.000	-0.211	0.616
-558.485	316.311	-0.432	0.823
-557.471	-44.306	0.626	-0.317
-556.456	118.744	-0.125	-0.155
-555.442	-200.000	0.018	0.144
-554.427	-0.522	1.122	-0.804
-553.412	-12.795	-0.607	-0.399
-552.398	225.821	0.370	-0.605
-551.383	51.274	-0.354	0.339
-550.369	-131.826	0.418	-0.055
-549.354	-169.383	0.812	0.030
-548.339	800.000	-0.132	0.443
-547.325	95.783	-0.726	-0.837
-546.310	-80.992	-0.406	0.136
-545.296	97.184	0.146	-0.169
-544.281	139.358	0.867	-1.151
-543.266	92.760	0.103	0.117
-542.252	18.321	-0.465	-0.375
-541.237	-158.687	-0.353	0.020
-540.223	-35.853	0.314	-0.172
-539.208	-75.274	-0.459	-0.165
-538.193	-81.593	-0.506	0.168
-537.179	-50.553	1.014	-0.482
-536.164	-140.582	-1.348	-0.141
-535.150	800.000	0.288	0.977
-534.135	-95.273	0.448	-0.122
-533.121	-28.349	-0.380	-0.221
-532.106	800.000	-0.112	0.420
-531.091	49.185	-0.376	0.356
-530.077	800.000	0.303	-1.118
-529.062	800.000	-0.310	1.155
-528.048	-200.000	-0.090	0.510
-527.033	-132.987	0.272	0.035
-526.018	766.404	-0.050	-0.138
-525.004	293.893	0.045	-0.083
-523.989	299.356	-0.221	-0.410
-522.975	-88.937	-0.497	-0.148
-521.960	-131.498	-0.363	-0.048
-520.945	-83.879	0.483	0.155
-519.931	-192.403	0.646	-0.006
-518.916	37.697	0.715	0.639
-517.902	2.864	0.400	0.293
-516.887	-200.000	0.018	-0.260
-515.872	-23.324	-0.818	-0.496
-514.858	249.869	-0.007	0.012
-513.843	-109.634	-0.799	-0.170
-512.829	-200.000	0.055	0.362
-511.814	229.749	0.245	0.403
-510.799	55.028	-0.727	-0.708
-509.785	-189.999	-0.507	0.006
-508.770	-169.431	-0.789	-0.029
-507.756	-64.217	0.579	-0.238
-506.741	86.367	-0.256	-0.284
-505.726	-200.000	-0.046	0.287
-504.712	34.530	-0.297	-0.261
-503.697	105.061	-0.652	0.775
-502.683	800.000	0.142	0.434
-501.668	-3.447	0.598	-0.419
-500.653	-33.626	0.172	0.095
-499.639	-200.000	-0.016	0.299
-498.624	283.675	0.234	-0.423
-497.610	800.000	-0.174	0.519
-496.595	-95.344	0.383	0.104
-495.581	133.026	0.293	-0.382
-494.566	-97.265	0.141	0.037
-493.551	800.000	0.102	0.297
-492.537	138.334	-0.260	-0.344
-491.522	800.000	0.100	-0.304
-490.508	356.984	0.293	-0.589
-489.493	800.000	0.158	0.576
-488.478	-200.000	-0.021	0.302
-487.464	-25.269	-1.127	-0.671
-486.449	-190.503	-0.364	0.004
-485.435	-135.573	-0.495	-0.059
-484.420	118.378	-0.333	-0.414
-483.405	244.499	0.633	1.070
-482.391	-200.000	0.099	0.641
-481.376	-200.000	-0.131	-0.667
-480.362	-155.053	-0.276	0.018
-479.347	-200.000	-0.051	0.569
-478.332	-200.000	-0.215	0.998
-477.318	-29.463	-0.632	0.364
-476.303	-74.618	0.171	0.062
-475.289	800.000	-0.484	1.454
-474.274	-200.000	0.049	0.632
-473.259	-104.252	-0.334	-0.078
-472.245	299.576	0.135	0.251
-471.230	-42.483	0.352	0.181
-470.216	-200.000	0.050	-0.748
-469.201	90.257	0.557	-0.627
-468.186	104.573	-0.402	-0.476
-467.172	-200.000	0.113	0.516
-466.157	83.560	0.699	0.766
-465.143	142.705	0.322	-0.430
-464.128	-90.257	-0.518	-0.151
-463.113	-88.223	0.666	-0.201
-462.099	127.989	-0.161	0.206
-461.084	-127.659	0.812	-0.118
-460.070	-99.271	0.173	0.044
-459.055	-163.912	-0.193	0.009
-458.040	129.555	0.334	0.429
-457.026	396.457	-0.394	0.828
-456.011	-8.744	-0.224	-0.151
-454.997	694.798	-0.158	-0.417
-453.982	800.000	0.133	-0.424
-452.968	104.056	0.587	0.694
-451.953	-200.000	-0.106	-1.048
-450.938	-200.000	-0.016	-0.284
-449.924	-3.007	-0.250	-0.175
-448.909	800.000	0.184	-0.797
-447.895	231.378	0.385	0.634
-446.880	-151.648	-0.794	0.059
-445.865	-48.864	-0.808	-0.390
-444.851	-94.262	-0.339	0.093
-443.836	767.737	-0.069	-0.188
-442.822	41.747	-0.825	-0.752
-441.807	153.001	0.136	-0.187
-440.792	-7.395	0.070	0.047
-439.778	-200.000	-0.013	0.179
-438.763	-28.297	0.366	-0.212
-437.749	-200.000	0.006	-0.698
-436.734	-55.235	-0.460	-0.208
-435.719	-101.914	0.757	0.184
-434.705	614.045	-0.183	0.460
-433.690	-200.000	-0.009	0.349
-432.676	329.258	0.078	0.151
-431.661	176.485	0.426	0.623
-430.646	-111.408	-0.372	0.076
-429.632	78.365	0.791	0.849
-428.617	800.000	0.039	-0.141
-427.603	-141.009	0.609	-0.063
-426.588	696.664	-0.104	-0.275
-425.573	-157.011	0.983	-0.060
-424.559	-40.501	0.817	0.426
-423.544	62.903	-0.287	-0.289
-422.530	-5.677	0.751	0.517
-421.515	202.782	0.469	0.728
-420.500	800.000	0.126	0.351
-419.486	93.930	-0.225	-0.256
-418.471	-46.669	0.273	-0.134
-417.457	-200.000	0.053	-0.235
-416.442	216.185	-0.241	-0.384
-415.428	-200.000	-0.055	-0.420
-414.413	103.003	0.264	-0.310
-413.398	-81.407	0.363	0.120
-412.384	249.969	0.328	-0.559
-411.369	-38.291	-0.493	-0.262
-410.355	388.084	0.333	-0.691
-409.340	177.439	-0.082	0.120
-408.325	-134.342	0.088	0.011
-407.311	69.430	0.315	-0.326
-406.296	800.000	0.138	0.497
-405.282	-200.000	-0.127	-0.816
-404.267	-103.545	0.731	0.172
-403.252	-102.881	0.587	0.140
-402.238	660.616	-0.187	0.484
-401.223	92.816	0.364	0.413
-400.209	-18.302	0.686	0.430
-399.194	-57.811	1.406	-0.617
-398.179	339.601	0.206	-0.402
-397.165	158.525	0.275	0.383
-396.150	283.876	-0.477	-0.860
-395.136	15.735	0.218	0.172
-394.121	80.565	-0.360	0.389
-393.106	231.906	-0.114	-0.187
-392.092	-12.494	-0.588	-0.385
-391.077	-200.000	-0.031	0.285
-390.063	28.416	0.334	0.283
-389.048	117.332	-0.647	0.798
-388.033	-1.766	0.700	-0.494
-387.019	-99.459	0.708	-0.179
-386.004	754.570	-0.102	0.278
-384.990	-47.525	0.601	-0.293
-383.975	-200.000	-0.184	-1.013
-382.960	-38.233	0.508	-0.270
-381.946	-116.403	-1.162	-0.215
-380.931	-70.623	0.554	0.210
-379.917	22.403	-0.127	0.104
-378.902	-200.000	-0.043	-0.196
-377.888	77.065	0.173	-0.184
-376.873	280.575	-0.272	-0.487
-375.858	473.612	-0.334	-0.754
-374.844	203.971	0.278	-0.432
-373.829	369.181	-0.362	-0.735
-372.815	-200.000	0.027	-0.576
-371.800	2.094	0.935	0.677
-370.785	-30.606	0.372	0.211
-369.771	58.574	-0.455	0.447
-368.756	41.295	-0.672	0.609
-367.742	43.624	0.510	0.467
-366.727	-162.401	-0.323	-0.016
-365.712	346.288	0.358	0.706
-364.698	282.000	-0.405	0.727
-363.683	-37.364	-0.376	-0.201
-362.669	800.000	0.108	-0.430
-361.654	-41.647	-1.008	-0.519
-360.639	365.135	-0.192	-0.388
-359.625	-11.092	0.552	0.365
-358.610	800.000	0.277	0.870
-357.596	-93.060	0.672	0.187
-356.581	-49.769	0.248	-0.118
-355.566	189.176	0.312	0.467
-354.552	109.647	0.320	0.384
-353.537	266.475	-0.378	0.661
-352.523	497.136	-0.042	-0.096
-351.508	-152.206	-1.125	-0.082
-350.493	-112.133	0.375	-0.076
-349.479	800.000	0.097	-0.415
-348.464	800.000	-0.191	0.670
-347.450	-200.000	0.206	1.021
-346.435	-86.909	0.593	0.181
-345.420	-63.608	0.204	-0.084
-344.406	165.921	-0.560	0.794
-343.391	180.704	0.623	-0.916
-342.377	442.460	-0.271	-0.595
-341.362	261.233	-0.437	-0.758
-340.348	-200.000	0.164	-0.787
-339.333	-42.556	0.750	0.382
-338.318	7.104	0.578	-0.431
-337.304	-100.489	0.553	-0.137
-336.289	42.324	-0.367	-0.334
-335.275	-155.433	-0.535	0.035
-334.260	-117.130	-1.106	0.202
-333.245	-200.000	-0.030	-0.157
-332.231	198.834	0.307	-0.470
-331.216	273.013	-0.181	-0.319
-330.202	-49.873	-0.531	-0.252
-329.187	25.654	-0.408	-0.340
-328.172	-172.733	-0.545	-0.017
-327.158	-112.683	0.298	-0.059
-326.143	-200.000	-0.148	0.730
-325.129	-70.396	0.415	-0.157
-324.114	-200.000	-0.090	-0.494
-323.099	-200.000	-0.032	-0.383
-322.085	800.000	0.132	0.512
-321.070	-200.000	-0.073	-0.565
-320.056	545.144	0.273	-0.652
-319.041	-20.483	0.400	-0.246
-318.026	433.407	0.307	0.667
-317.012	-58.092	-0.247	-0.108
-315.997	82.297	-0.633	0.686
-314.983	53.944	0.714	0.686
-313.968	-89.736	-0.711	0.208
-312.953	-200.000	0.033	0.428
-311.939	-200.000	0.095	0.586
-310.924	-80.491	0.395	0.132
-309.910	-109.886	-0.491	-0.103
-308.895	27.952	0.114	-0.096
-307.880	460.842	0.279	-0.621
-306.866	-36.980	-0.916	0.491
-305.851	-200.000	-0.182	-0.862
-304.837	50.025	-0.691	0.652
-303.822	534.282	0.056	0.133
-302.807	-200.000	-0.121	-0.687
-301.793	0.632	0.328	0.235
-300.778	-24.035	-0.349	0.208
-299.764	53.024	-0.689	0.659
-298.749	-50.256	-0.929	-0.439
-297.735	-0.648	0.538	-0.381
-296.720	-27.136	-0.314	-0.183
-295.705	-99.884	0.406	0.101
-294.691	214.017	-0.423	-0.668
-293.676	-174.208	0.347	-0.010
-292.662	-111.329	-0.285	-0.058
-291.647	629.672	0.215	0.543
-290.632	150.107	0.390	0.529
-289.618	-4.811	-0.236	-0.162
-288.603	744.160	-0.118	0.316
-287.589	-200.000	-0.066	1.312
-286.574	800.000	0.234	0.708
-285.559	64.957	0.272	-0.274
-284.545	-200.000	-0.008	-0.317
-283.530	-40.520	0.535	-0.277
-282.516	-35.810	-0.052	0.028
-281.501	-10.052	-0.757	0.502
-280.486	416.881	0.111	0.237
-279.472	175.962	-0.345	-0.500
-278.457	-139.046	0.131	-0.014
-277.443	-195.979	-0.468	0.003
-276.428	-119.044	0.079	-0.014
-275.413	132.752	-0.362	-0.466
-274.399	800.000	0.150	-0.534
-273.384	-200.000	-0.047	0.709
-272.370	-50.297	-0.240	0.113
-271.355	-94.484	-0.853	0.232
-270.340	4.214	0.929	0.679
-269.326	-137.412	-0.362	0.041
-268.311	477.512	0.064	0.144
-267.297	-200.000	-0.067	-0.603
-266.282	-19.155	0.676	-0.419
-265.267	-200.000	0.031	-0.672
-264.253	-16.724	-0.363	0.229
-263.238	800.000	0.100	-0.321
-262.224	-67.778	0.755	-0.295
-261.209	-157.947	-0.780	0.046
-260.195	-200.000	0.009	1.010
-259.180	-118.446	0.439	-0.078
-258.165	-200.000	-0.037	0.332
-257.151	-37.103	0.560	-0.299
-256.136	800.000	-0.167	0.656
-255.122	-200.000	0.002	0.098
-254.107	-174.500	-0.888	-0.025
-253.092	125.013	-0.252	-0.316
-252.078	591.813	-0.180	0.443
-251.063	111.724	-0.358	-0.431
-250.049	-144.318	-0.177	-0.016
-249.034	-125.755	0.571	0.086
-248.019	-91.172	-0.742	0.212
-247.005	91.561	-0.357	-0.400
-245.990	-200.000	-0.037	-0.608
-244.976	800.000	-0.185	0.574
-243.961	-49.083	0.724	-0.345
-242.946	13.243	0.476	-0.368
-241.932	-126.851	0.522	-0.077
-240.917	54.278	0.036	0.035
-239.903	-94.986	0.481	-0.130
-238.888	-200.000	-0.757	0.002
-237.873	308.256	0.498	0.927
-236.859	800.000	0.104	0.317
-235.844	-93.250	0.093	0.026
-234.830	177.616	0.320	0.464
-233.815	-78.412	0.504	0.172
-232.800	371.110	-0.284	0.573
-231.786	-200.000	-0.145	-0.871
-230.771	-33.732	-0.427	-0.235
-229.757	-200.000	0.082	0.383
-228.742	-2.527	0.082	0.057
-227.727	132.774	-0.675	0.868
-226.713	800.000	-0.065	-0.219
-225.698	77.959	0.338	-0.359
-224.684	83.502	-0.127	0.138
-223.669	-117.263	0.883	0.160
-222.655	324.518	-0.295	-0.561
-221.640	494.994	-0.119	0.272
-220.625	-187.538	0.285	-0.004
-219.611	-109.612	-0.455	0.095
-218.596	183.997	0.502	-0.740
-217.582	262.292	0.464	0.803
-216.567	-200.000	0.094	0.853
-215.552	-79.182	0.331	0.112
-214.538	285.257	0.136	-0.244
-213.523	800.000	-0.236	-0.687
-212.509	452.361	-0.126	-0.277
-211.494	-7.125	-0.431	-0.291
-210.479	0.930	-0.315	-0.225
-209.465	-35.096	0.361	-0.196
-208.450	137.652	-0.173	-0.226
-207.436	-200.000	0.135	-0.614
-206.421	154.706	-0.533	0.729
-205.406	-87.803	0.143	-0.043
-204.392	800.000	-0.170	0.710
-203.377	-200.000	-0.004	0.874
-202.363	-200.000	-0.043	-0.338
-201.348	-61.977	0.322	-0.134
-200.333	-200.000	-0.069	0.394
-199.319	23.131	-0.446	0.365
-198.304	-200.000	-0.007	-0.211
-197.290	800.000	0.062	-0.240
-196.275	580.822	0.085	0.207
-195.260	800.000	0.189	-0.799
-194.246	0.553	0.322	0.229
-193.231	-169.269	-1.152	-0.042
-192.217	199.672	0.168	0.256
-191.202	-17.019	0.497	-0.312
-190.187	104.910	0.381	0.447
-189.173	-49.294	-0.376	-0.178
-188.158	-89.287	-0.272	-0.080
-187.144	800.000	-0.041	-0.130
-186.129	-200.000	-0.014	0.841
-185.114	87.608	-0.272	-0.300
-184.100	19.167	0.391	-0.312
-183.085	292.361	-0.154	-0.279
-182.071	-200.000	-0.050	-0.508
-181.056	-96.344	0.450	0.119
-180.042	240.593	0.097	-0.161
-179.027	319.323	0.136	-0.257
-178.012	-200.000	-0.037	0.266
-176.998	-10.981	-0.308	0.202
-175.983	-180.356	0.725	0.015
-174.969	326.190	0.142	-0.270
-173.954	800.000	-0.165	-0.641
-172.939	-154.228	-0.165	-0.011
-171.925	-104.976	-0.505	0.115
-170.910	238.285	0.150	0.247
-169.896	-97.732	0.200	-0.052
-168.881	-200.000	-0.035	0.263
-167.866	-4.991	-0.470	-0.322
-166.852	-200.000	-0.093	-0.568
-165.837	651.539	0.288	-0.733
-164.823	48.014	0.123	0.114
-163.808	-100.294	-0.383	-0.094
-162.793	267.439	0.471	0.819
-161.779	-47.143	0.584	0.283
-160.764	380.327	-0.132	-0.269
-159.750	-200.000	-0.037	-0.388
-158.735	800.000	0.135	0.405
-157.720	-47.626	0.095	0.046
-156.706	-104.496	0.126	-0.029
-155.691	-145.048	0.527	0.048
-154.677	625.469	0.122	0.306
-153.662	128.590	0.209	-0.264
-152.647	236.711	-0.312	-0.513
-151.633	78.302	-0.211	0.223
-150.618	-1.983	-0.404	0.282
-149.604	-38.227	-0.309	0.163
-148.589	237.418	0.234	-0.385
-147.574	579.991	0.110	-0.269
-146.560	-200.000	0.102	0.479
-145.545	334.625	0.125	-0.240
-144.531	172.734	0.386	0.552
-143.516	589.996	0.209	0.513
-142.502	-8.820	0.691	-0.460
-141.487	-200.000	-0.092	-0.503
-140.472	800.000	0.082	-0.226
-139.458	800.000	0.124	-0.507
-138.443	-200.000	-0.115	-0.599
-137.429	39.901	0.434	-0.387
-136.414	-83.391	-0.335	0.107
-135.399	-75.262	-0.268	0.095
-134.385	-89.424	-0.260	-0.076
-133.370	-46.806	0.160	0.078
-132.356	199.991	-0.367	-0.559
-131.341	152.093	0.427	-0.578
-130.326	189.004	-0.229	-0.341
-129.312	-200.000	-0.026	0.671
-128.297	-49.859	-0.687	-0.324
-127.283	-62.740	0.981	-0.403
-126.268	283.930	0.112	0.200
-125.253	-20.532	-0.548	0.334
-124.239	-125.102	-0.985	0.150
-123.224	800.000	-0.219	0.696
-122.210	67.313	0.139	-0.141
