DTS Sentinel unit serial number:	SN413079Multiplexer serial number:	ORYXHardware model number:	OX4-SRSoftware version number:	ORYX F/W v4.00 Oryx Data Collector v3.7.2.0data status	okinstallation	princeton_trtdifferential loss correction	single-endedforward channel	channel 4reverse channel	N/Adate	2019/09/15time	12:29:35forward acquisition time	60.00reverse acquisition time	0.00gamma	496.2192k internal	0.2293k external	0.2293temperature offset calibration	1.0016default loss term (dB/km)	0.3790temperature slope calibration	1.0000multiplexer offset coefficient	1.0000multiplexer slope coefficient	1.0000fibre end	0.00T internal ref (°C)	35.11T ext. ref 1 (°C)	5.05T ext. ref 2 (°C)	32.80length (m)	temperature (°C)	Stokes	anti-Stokes-747.200	-200.000	-0.002	0.094
-746.185	39.885	-0.231	-0.212
-745.171	-200.000	0.006	-0.179
-744.156	-200.000	0.006	0.144
-743.142	800.000	0.091	0.375
-742.127	69.976	-0.068	-0.071
-741.112	-147.076	0.355	0.031
-740.098	-145.968	-0.330	0.030
-739.083	84.187	-0.292	0.326
-738.069	-200.000	-0.089	0.466
-737.054	-200.000	-0.023	-0.233
-736.039	114.682	-0.096	-0.120
-735.025	-113.203	0.140	-0.028
-734.010	-171.508	-0.216	-0.007
-732.996	-200.000	-0.014	-0.084
-731.981	266.764	-0.161	0.287
-730.966	719.906	0.017	-0.045
-729.952	800.000	0.061	-0.271
-728.937	800.000	-0.065	-0.219
-727.923	56.528	0.136	0.135
-726.908	51.276	0.097	-0.094
-725.894	171.956	-0.041	0.061
-724.879	-100.538	-0.327	0.083
-723.864	6.410	-0.061	0.047
-722.850	92.098	-0.098	-0.113
-721.835	-161.064	0.193	0.010
-720.821	124.082	0.156	-0.200
-719.806	11.484	-0.362	-0.284
-718.791	800.000	-0.137	-0.407
-717.777	-200.000	0.006	-0.158
-716.762	465.773	0.096	-0.219
-715.748	-105.681	-0.255	-0.059
-714.733	-200.000	0.006	0.435
-713.718	-18.450	-0.066	-0.042
-712.704	84.685	-0.204	-0.228
-711.689	-107.424	-0.249	-0.056
-710.675	64.553	-0.250	-0.257
-709.660	800.000	0.040	0.129
-708.645	800.000	-0.011	0.043
-707.631	-51.381	0.229	-0.109
-706.616	-82.868	0.155	0.051
-705.602	246.503	-0.089	-0.154
-704.587	661.759	-0.040	-0.104
-703.572	-200.000	-0.029	-0.226
-702.558	800.000	-0.084	-0.292
-701.543	-73.723	0.203	0.075
-700.529	800.000	0.041	-0.175
-699.514	41.713	0.149	0.138
-698.499	476.880	0.114	-0.264
-697.485	-132.555	-0.185	0.024
-696.470	-75.605	-0.162	-0.059
-695.456	-200.000	0.041	0.212
-694.441	113.113	-0.142	0.175
-693.426	-124.814	-0.338	-0.053
-692.412	270.666	-0.128	-0.230
-691.397	-200.000	-0.023	-0.245
-690.383	-200.000	-0.030	-0.472
-689.368	-200.000	-0.035	0.221
-688.354	-130.082	-0.276	-0.038
-687.339	-156.993	-0.239	0.015
-686.324	-161.203	-0.183	-0.010
-685.310	-38.154	-0.122	-0.066
-684.295	-200.000	0.010	-0.263
-683.281	-79.591	0.297	-0.102
-682.266	556.869	-0.108	-0.265
-681.251	137.754	0.110	-0.147
-680.237	49.057	0.290	-0.278
-679.222	408.799	-0.123	0.266
-678.208	103.159	-0.155	0.185
-677.193	33.855	0.244	0.217
-676.178	-180.606	-0.187	-0.004
-675.164	231.775	-0.039	0.065
-674.149	-7.216	0.207	-0.143
-673.135	193.232	-0.107	-0.165
-672.120	280.407	0.117	0.213
-671.105	-137.908	-0.193	-0.022
-670.091	-107.898	-0.126	-0.028
-669.076	18.705	0.104	-0.085
-668.062	-36.748	-0.057	0.031
-667.047	7.203	-0.206	0.157
-666.032	-148.386	-0.440	-0.037
-665.018	124.903	0.169	-0.217
-664.003	135.391	0.196	0.260
-662.989	800.000	0.072	0.306
-661.974	-200.000	-0.051	-0.298
-660.959	-179.910	-0.125	-0.003
-659.945	800.000	0.057	-0.168
-658.930	-200.000	-0.013	-0.217
-657.916	-125.143	0.311	0.049
-656.901	-60.722	0.241	-0.104
-655.886	-200.000	-0.009	-0.066
-654.872	255.059	0.132	0.231
-653.857	82.089	0.263	0.291
-652.843	236.775	-0.089	0.151
-651.828	-132.108	-0.260	-0.034
-650.814	6.292	-0.130	-0.098
-649.799	-86.589	0.378	0.118
-648.784	-63.379	0.360	-0.151
-647.770	-106.713	0.137	-0.031
-646.755	-200.000	0.027	-0.223
-645.741	49.114	-0.375	-0.359
-644.726	800.000	-0.034	0.108
-643.711	-88.774	-0.067	0.020
-642.697	217.797	-0.107	0.175
-641.682	-125.901	-0.176	-0.027
-640.668	800.000	0.060	-0.187
-639.653	7.829	-0.196	0.150
-638.638	246.951	-0.055	-0.094
-637.624	-200.000	-0.037	-0.167
-636.609	39.945	0.117	-0.107
-635.595	46.111	-0.201	-0.189
-634.580	-105.899	-0.377	-0.087
-633.565	127.074	-0.078	-0.101
-632.551	87.550	0.032	0.036
-631.536	-200.000	0.264	0.000
-630.522	-200.000	0.013	0.234
-629.507	-77.253	-0.119	0.042
-628.492	200.042	0.203	-0.317
-627.478	-182.690	-0.284	-0.005
-626.463	-29.947	-0.247	-0.144
-625.449	58.063	-0.314	-0.313
-624.434	158.577	-0.141	-0.199
-623.419	-98.556	0.232	-0.060
-622.405	50.506	0.050	-0.048
-621.390	405.179	-0.063	-0.135
-620.376	-123.891	-0.175	0.028
-619.361	356.232	0.082	0.165
-618.346	-115.718	-0.225	-0.043
-617.332	28.216	0.069	0.059
-616.317	22.438	-0.163	-0.136
-615.303	-144.643	-0.097	0.009
-614.288	-200.000	-0.046	0.309
-613.273	5.499	-0.214	-0.161
-612.259	800.000	-0.081	0.344
-611.244	57.858	-0.094	0.094
-610.230	354.443	-0.074	-0.150
-609.215	415.589	0.060	-0.129
-608.201	123.601	0.109	-0.139
-607.186	65.459	-0.087	0.089
-606.171	-177.498	0.021	0.001
-605.157	164.131	0.044	0.064
-604.142	-127.295	0.093	0.014
-603.128	-1.625	-0.293	0.210
-602.113	-200.000	-0.014	-0.323
-601.098	278.985	-0.185	0.335
-600.084	-28.490	-0.291	0.171
-599.069	107.576	-0.100	0.121
-598.055	-109.314	0.236	0.051
-597.040	800.000	-0.022	-0.072
-596.025	65.808	0.182	0.188
-595.011	800.000	-0.011	0.036
-593.996	296.839	0.124	-0.231
-592.982	-111.819	-0.057	-0.012
-591.967	800.000	0.041	-0.125
-590.952	772.279	-0.055	-0.152
-589.938	-71.992	-0.230	-0.087
-588.923	51.953	0.155	-0.150
-587.909	-200.000	-0.043	0.251
-586.894	487.286	-0.022	0.051
-585.879	226.663	0.171	-0.283
-584.865	71.838	0.236	-0.249
-583.850	306.196	-0.052	-0.098
-582.836	-200.000	-0.036	-0.218
-581.821	800.000	-0.062	-0.216
-580.806	-107.441	-0.219	0.049
-579.792	147.249	-0.217	-0.296
-578.777	507.882	0.151	0.356
-577.763	96.681	0.111	0.129
-576.748	800.000	-0.042	0.150
-575.733	-79.147	0.119	0.041
-574.719	-53.147	-0.192	-0.090
-573.704	113.565	0.085	-0.104
-572.690	-200.000	0.004	-0.292
-571.675	-143.246	-0.113	0.011
-570.661	-166.652	0.181	-0.008
-569.646	-153.899	-0.296	-0.021
-568.631	800.000	0.095	-0.268
-567.617	-200.000	0.028	-0.452
-566.602	17.075	-0.461	-0.372
-565.588	-112.753	-0.314	-0.063
-564.573	800.000	-0.114	0.392
-563.558	-110.824	0.185	0.039
-562.544	-34.233	0.025	-0.014
-561.529	-116.689	-0.120	-0.022
-560.515	-200.000	0.006	0.149
-559.500	385.842	-0.080	0.167
-558.485	-123.535	-0.370	-0.060
-557.471	-65.523	-0.122	-0.050
-556.456	188.843	-0.060	-0.091
-555.442	113.806	-0.150	-0.185
-554.427	236.345	0.145	-0.243
-553.412	-129.571	-0.148	-0.021
-552.398	-200.000	0.026	0.151
-551.383	-142.376	-0.208	0.021
-550.369	-68.281	0.170	-0.067
-549.354	-135.914	0.282	-0.034
-548.339	-6.797	-0.080	0.055
-547.325	-200.000	-0.006	0.245
-546.310	-124.996	-0.229	-0.036
-545.296	800.000	0.049	-0.190
-544.281	-128.491	0.266	0.038
-543.266	800.000	0.040	-0.146
-542.252	-29.421	0.197	0.115
-541.237	-200.000	-0.020	-0.237
-540.223	-66.790	0.283	0.114
-539.208	-150.983	-0.311	-0.024
-538.193	17.287	0.289	0.233
-537.179	-200.000	0.025	0.136
-536.164	276.501	-0.140	0.252
-535.150	-87.389	-0.144	0.044
-534.135	800.000	0.062	-0.189
-533.121	-0.939	0.133	0.095
-532.106	-65.385	0.334	-0.136
-531.091	800.000	-0.171	-0.542
-530.077	-28.300	-0.163	-0.096
-529.062	-3.550	0.270	-0.190
-528.048	-200.000	0.003	0.074
-527.033	-166.663	-0.157	-0.007
-526.018	-115.135	-0.105	0.020
-525.004	-178.414	-0.197	-0.005
-523.989	310.518	0.094	-0.179
-522.975	8.125	0.131	0.100
-521.960	-33.939	0.077	0.043
-520.945	-39.037	-0.186	0.099
-519.931	-79.800	-0.344	-0.117
-518.916	51.909	0.206	0.199
-517.902	-200.000	-0.009	-0.066
-516.887	118.146	0.168	-0.210
-515.872	92.097	0.037	0.043
-514.858	-200.000	-0.061	-0.340
-513.843	36.629	0.090	-0.080
-512.829	-91.700	-0.261	0.075
-511.814	-104.158	0.136	0.032
-510.799	222.293	0.066	-0.107
-509.785	-200.000	-0.009	0.114
-508.770	-200.000	0.004	-0.044
-507.756	373.395	-0.058	-0.119
-506.741	-108.410	0.339	0.074
-505.726	-150.144	-0.103	0.008
-504.712	723.888	-0.102	0.276
-503.697	107.565	0.047	0.056
-502.683	-17.378	0.121	-0.077
-501.668	-154.326	-0.217	0.015
-500.653	-200.000	-0.037	0.244
-499.639	-200.000	0.030	0.167
-498.624	-51.912	0.448	-0.211
-497.610	30.251	0.178	0.154
-496.595	-101.730	-0.220	-0.054
-495.581	-200.000	-0.010	0.092
-494.566	-200.000	0.025	-0.278
-493.551	800.000	-0.094	-0.389
-492.537	-200.000	0.028	-0.414
-491.522	-133.177	0.094	0.012
-490.508	-200.000	-0.027	0.209
-489.493	-140.535	-0.060	-0.006
-488.478	-45.316	0.084	-0.042
-487.464	443.327	0.161	-0.358
-486.449	-80.317	0.318	0.107
-485.435	-200.000	0.030	-0.432
-484.420	800.000	0.098	-0.312
-483.405	-156.507	0.665	0.042
-482.391	-50.445	-0.225	0.107
-481.376	116.141	-0.186	0.230
-480.362	-200.000	0.006	-0.096
-479.347	415.124	0.044	0.096
-478.332	800.000	-0.024	-0.073
-477.318	130.477	-0.145	-0.188
-476.303	-50.795	0.195	0.093
-475.289	355.743	0.130	-0.261
-474.274	800.000	0.053	-0.209
-473.259	-63.394	0.259	-0.108
-472.245	274.605	0.099	0.177
-471.230	800.000	0.050	-0.201
-470.216	230.723	0.152	-0.251
-469.201	800.000	0.095	-0.371
-468.186	800.000	0.072	0.217
-467.172	-200.000	-0.055	-0.339
-466.157	-200.000	-0.025	-0.400
-465.143	79.110	0.168	-0.182
-464.128	-7.267	-0.219	-0.150
-463.113	91.316	-0.163	0.185
-462.099	-128.004	-0.283	0.041
-461.084	17.105	-0.172	0.138
-460.070	-66.676	0.281	0.113
-459.055	-88.652	-0.265	0.080
-458.040	105.712	0.116	-0.139
-457.026	-112.604	-0.156	-0.032
-456.011	197.225	-0.264	0.407
-454.997	-200.000	-0.089	-0.449
-453.982	-200.000	0.017	0.115
-452.968	-200.000	-0.035	0.238
-451.953	-144.625	-0.378	-0.035
-450.938	40.989	-0.047	0.043
-449.924	48.683	0.249	0.236
-448.909	-45.278	-0.215	0.108
-447.895	344.043	-0.058	0.115
-446.880	800.000	0.030	0.089
-445.865	800.000	0.050	-0.191
-444.851	122.369	0.299	0.378
-443.836	324.161	0.077	0.148
-442.822	6.429	-0.160	0.120
-441.807	81.725	0.056	-0.061
-440.792	-200.000	-0.102	0.000
-439.778	43.614	-0.139	0.128
-438.763	312.445	0.055	-0.105
-437.749	-169.848	-0.149	-0.005
-436.734	72.429	0.158	0.166
-435.719	-200.000	-0.013	0.162
-434.705	54.338	-0.175	0.170
-433.690	-67.508	-0.206	-0.082
-432.676	-21.135	-0.209	-0.129
-431.661	-179.629	0.294	0.006
-430.646	-200.000	-0.006	0.369
-429.632	800.000	-0.028	0.112
-428.617	-98.886	0.254	-0.065
-427.603	-72.687	-0.222	0.083
-426.588	-102.790	-0.314	-0.075
-425.573	-8.056	0.054	-0.037
-424.559	-97.430	0.196	0.051
-423.544	800.000	-0.041	-0.135
-422.530	36.669	-0.218	-0.195
-421.515	103.678	-0.157	-0.187
-420.500	-200.000	0.003	0.141
-419.486	-70.377	-0.166	0.064
-418.471	-140.885	-0.204	0.021
-417.457	84.200	0.055	0.061
-416.442	-67.555	0.225	-0.089
-415.428	-4.784	-0.062	0.043
-414.413	9.664	0.221	-0.169
-413.398	-200.000	0.018	-0.205
-412.384	-1.674	-0.210	-0.149
-411.369	100.655	-0.231	-0.271
-410.355	152.402	0.142	0.196
-409.340	447.620	-0.115	0.256
-408.325	-3.533	0.189	-0.133
-407.311	215.433	-0.054	0.087
-406.296	-132.633	0.325	0.042
-405.282	249.816	0.069	0.118
-404.267	-111.892	0.312	-0.064
-403.252	37.185	0.023	-0.021
-402.238	776.830	0.073	-0.202
-401.223	-200.000	0.000	0.173
-400.209	-110.112	-0.099	-0.021
-399.194	-65.418	0.127	0.052
-398.179	800.000	0.049	-0.158
-397.165	-121.261	-0.068	-0.011
-396.150	-130.849	0.083	0.011
-395.136	800.000	-0.028	-0.104
-394.121	230.754	0.137	-0.227
-393.106	-34.717	-0.090	-0.050
-392.092	-200.000	-0.035	-0.187
-391.077	209.660	0.042	0.066
-390.063	552.998	-0.042	0.103
-389.048	-200.000	-0.011	0.093
-388.033	-79.999	-0.104	-0.035
-387.019	-129.104	0.030	0.004
-386.004	12.737	-0.347	-0.270
-384.990	-192.236	-0.411	0.004
-383.975	111.606	0.243	0.296
-382.960	-133.869	0.298	-0.037
-381.946	800.000	0.030	0.108
-380.931	5.561	-0.180	-0.134
-379.917	-200.000	-0.052	0.260
-378.902	-7.561	-0.216	0.148
-377.888	23.241	-0.106	0.088
-376.873	-199.023	0.152	0.001
-375.858	-118.073	-0.184	0.033
-374.844	800.000	-0.025	-0.083
-373.829	800.000	-0.047	0.136
-372.815	184.611	0.059	-0.089
-371.800	-200.000	0.007	-0.055
-370.785	93.619	0.190	0.217
-369.771	-200.000	-0.042	-0.410
-368.756	-96.523	0.429	-0.114
-367.742	235.633	-0.097	0.162
-366.727	800.000	-0.072	-0.315
-365.712	800.000	-0.068	0.220
-364.698	81.479	-0.192	0.210
-363.683	185.856	0.087	-0.130
-362.669	-200.000	-0.033	-0.184
-361.654	330.456	-0.050	-0.097
-360.639	-8.478	0.120	-0.081
-359.625	0.674	0.036	0.026
-358.610	95.289	0.114	0.131
-357.596	-27.615	0.270	-0.158
-356.581	-90.143	-0.555	-0.163
-355.566	348.147	-0.065	-0.129
-354.552	800.000	0.032	0.104
-353.537	800.000	0.059	0.183
-352.523	-107.337	0.218	0.048
-351.508	-117.142	0.273	-0.050
-350.493	-200.000	0.038	-0.421
-349.479	-102.745	-0.129	0.031
-348.464	265.239	0.106	0.187
-347.450	268.020	-0.133	0.235
-346.435	-200.000	0.049	-0.324
-345.420	130.171	-0.278	0.358
-344.406	-200.000	0.044	0.231
-343.391	-176.772	-0.089	-0.002
-342.377	14.841	-0.216	0.170
-341.362	-6.580	0.288	0.197
-340.348	-76.870	-0.276	0.097
-339.333	82.643	-0.144	-0.158
-338.318	-24.306	0.240	-0.144
-337.304	-39.424	0.125	-0.066
-336.289	-200.000	-0.012	0.124
-335.275	-75.338	-0.056	-0.020
-334.260	705.963	0.164	0.437
-333.245	-200.000	-0.026	0.301
-332.231	-53.688	0.392	0.180
-331.216	-102.499	-0.155	-0.037
-330.202	-200.000	0.045	0.225
-329.187	6.616	-0.046	-0.035
-328.172	525.446	-0.095	0.226
-327.158	-69.216	0.101	0.039
-326.143	800.000	-0.109	0.354
-325.129	106.243	-0.104	0.125
-324.114	800.000	0.052	0.158
-323.099	-39.723	0.197	0.104
-322.085	-106.314	-0.139	0.031
-321.070	564.681	-0.149	-0.364
-320.056	-92.602	-0.160	0.045
-319.041	-54.057	0.247	0.113
-318.026	-200.000	-0.009	-0.108
-317.012	-93.478	0.209	0.058
-315.997	-133.496	-0.062	-0.008
-314.983	-66.616	-0.335	0.134
-313.968	89.268	-0.114	0.127
-312.953	-152.566	-0.224	-0.016
-311.939	-200.000	-0.034	0.504
-310.924	-82.238	0.223	0.073
-309.910	-200.000	0.007	-0.110
-308.895	78.209	0.162	0.173
-307.880	751.112	-0.077	0.210
-306.866	-25.129	-0.128	0.076
-305.851	-200.000	0.155	0.000
-304.837	-144.575	0.151	-0.014
-303.822	-62.722	-0.246	0.102
-302.807	-117.938	0.080	0.014
-301.793	-91.027	-0.166	-0.048
-300.778	-119.105	0.453	-0.080
-299.764	120.238	0.347	0.433
-298.749	81.804	0.220	0.239
-297.735	-200.000	0.013	-0.118
-296.720	33.660	0.299	0.261
-295.705	151.728	-0.239	0.328
-294.691	-187.977	0.041	0.001
-293.676	1.242	-0.225	-0.162
-292.662	-39.940	0.062	0.032
-291.647	-106.229	-0.076	0.017
-290.632	-188.619	0.257	0.003
-289.618	-200.000	-0.019	-0.223
-288.603	-27.270	0.324	0.190
-287.589	-177.074	0.033	0.001
-286.574	27.258	-0.096	0.081
-285.559	-42.897	-0.262	0.134
-284.545	412.649	-0.052	0.110
-283.530	-34.938	-0.129	0.071
-282.516	180.396	-0.124	0.183
-281.501	481.893	0.095	-0.216
-280.486	-20.166	-0.222	-0.137
-279.472	367.839	0.069	-0.141
-278.457	137.897	0.035	0.046
-277.443	211.751	0.114	0.181
-276.428	317.271	0.085	-0.162
-275.413	26.435	0.324	0.272
-274.399	-7.764	0.114	-0.077
-273.384	-38.935	0.226	-0.119
-272.370	-76.983	0.119	-0.042
-271.355	-194.475	-0.340	-0.003
-270.340	85.776	-0.010	0.012
-269.326	-33.705	0.179	-0.099
-268.311	-34.350	0.063	0.035
-267.297	-200.000	-0.019	0.116
-266.282	157.847	0.162	-0.226
-265.267	-36.107	0.190	0.103
-264.253	82.058	-0.258	-0.281
-263.238	7.077	-0.052	-0.039
-262.224	-5.385	0.223	0.153
-261.209	77.177	0.232	0.248
-260.195	-128.782	0.158	-0.022
-259.180	-200.000	0.078	0.371
-258.165	91.758	0.230	0.260
-257.151	800.000	0.013	-0.056
-256.136	-32.555	0.099	-0.056
-255.122	-14.799	0.425	-0.274
-254.107	-49.760	0.016	-0.007
-253.092	197.162	-0.189	-0.289
-252.078	-130.292	-0.046	0.006
-251.063	-117.296	0.255	-0.046
-250.049	-119.233	0.092	-0.016
-249.034	-62.003	0.308	0.129
-248.019	-17.892	-0.210	0.132
-247.005	-61.328	-0.038	0.016
-245.990	-83.070	-0.171	0.055
-244.976	-78.979	-0.110	0.037
-243.961	-89.693	-0.212	-0.062
-242.946	800.000	0.076	0.221
-241.932	231.836	-0.188	-0.309
-240.917	800.000	-0.096	-0.335
-239.903	-101.357	0.323	-0.079
-238.888	212.077	0.075	-0.119
-237.873	800.000	0.052	-0.162
-236.859	-142.357	0.334	-0.033
-235.844	-200.000	0.022	0.200
-234.830	-115.834	-0.239	0.045
-233.815	264.617	-0.085	-0.149
-232.800	594.160	-0.032	-0.080
-231.786	800.000	-0.087	0.337
-230.771	-69.585	-0.134	-0.052
-229.757	-99.266	-0.194	-0.049
-228.742	-175.135	0.071	-0.002
-227.727	-72.266	-0.237	-0.088
-226.713	71.848	-0.135	0.140
-225.698	563.584	-0.145	-0.352
-224.684	250.401	0.183	-0.312
-223.669	-200.000	-0.010	0.108
-222.655	800.000	-0.092	0.294
-221.640	587.860	0.147	-0.362
-220.625	-200.000	-0.010	-0.284
-219.611	47.397	-0.145	-0.136
-218.596	-200.000	-0.059	0.400
-217.582	-113.832	0.081	0.016
-216.567	95.829	-0.131	-0.150
-215.552	-200.000	-0.049	0.310
-214.538	-200.000	0.008	0.128
-213.523	23.957	0.120	0.099
-212.509	78.158	-0.071	-0.076
-211.494	12.787	-0.230	0.178
-210.479	14.598	0.227	0.178
-209.465	-127.224	-0.094	0.014
-208.450	-48.151	-0.343	-0.166
-207.436	-25.297	0.102	-0.061
-206.421	-58.900	0.411	0.178
-205.406	14.252	0.260	0.203
-204.392	800.000	-0.025	0.074
-203.377	-119.347	0.313	0.055
-202.363	216.000	0.205	-0.327
-201.348	285.092	-0.088	0.160
-200.333	137.590	0.168	0.221
-199.319	-200.000	0.012	-0.178
-198.304	65.188	0.095	0.096
-197.290	-16.348	-0.130	-0.082
-196.275	-30.932	-0.102	0.058
-195.260	19.066	-0.049	0.040
-194.246	179.988	0.202	-0.296
-193.231	510.703	0.029	0.067
-192.217	387.696	-0.034	-0.070
-191.202	219.901	-0.127	0.204
-190.187	-155.679	0.112	-0.007
-189.173	78.921	0.174	0.187
-188.158	-200.000	-0.004	-0.230
-187.144	67.071	-0.031	-0.032
-186.129	-159.767	0.244	0.013
-185.114	-200.000	0.026	0.126
-184.100	-57.818	-0.244	0.107
-183.085	-78.317	0.171	0.059
-182.071	800.000	0.054	0.156
-181.056	99.461	-0.174	0.202
-180.042	800.000	-0.104	0.413
-179.027	228.615	-0.072	0.118
-178.012	454.086	0.115	0.254
-176.998	611.192	-0.117	0.293
-175.983	52.409	-0.055	-0.052
-174.969	167.856	0.206	-0.293
-173.954	-165.033	0.368	-0.016
-172.939	195.545	0.158	-0.241
-171.925	-92.680	-0.155	-0.043
-170.910	-200.000	-0.005	0.169
-169.896	-136.001	0.411	0.048
-168.881	103.178	-0.209	0.245
-167.866	-61.296	0.214	-0.090
-166.852	1.618	-0.335	-0.241
-165.837	-200.000	0.045	-0.215
-164.823	-144.513	-0.211	-0.019
-163.808	-61.924	-0.308	0.129
-162.793	-200.000	0.043	0.214
-161.779	-15.361	0.106	0.068
-160.764	800.000	0.062	-0.183
-159.750	137.985	-0.079	0.104
-158.735	44.978	0.120	-0.111
-157.720	-158.254	-0.113	-0.007
-156.706	-200.000	-0.008	0.185
-155.691	-200.000	0.043	0.236
-154.677	77.977	0.128	0.136
-153.662	-73.348	0.283	0.103
-152.647	-115.184	-0.272	-0.052
-151.633	-177.662	-0.192	-0.005
-150.618	254.012	-0.129	-0.221
-149.604	3.140	0.348	0.253
-148.589	800.000	-0.058	0.184
-147.574	-48.073	-0.145	-0.070
-146.560	3.439	0.048	-0.035
-145.545	-115.436	-0.117	0.022
-144.531	-56.462	-0.092	-0.041
-143.516	109.783	0.125	-0.149
-142.502	800.000	0.063	0.213
-141.487	128.177	-0.038	-0.048
-140.472	-83.766	-0.086	0.027
-139.458	-159.690	0.348	-0.019
-138.443	800.000	0.081	-0.311
-137.429	267.939	0.191	-0.334
-136.414	-74.314	0.228	-0.082
-135.399	800.000	0.145	-0.445
-134.385	-164.044	-0.078	-0.004
-133.370	158.131	0.192	-0.266
-132.356	-2.224	0.173	-0.121
-131.341	-200.000	-0.057	-0.376
-130.326	-31.499	0.280	0.157
-129.312	148.499	-0.171	0.230
-128.297	-103.235	0.229	-0.054
-127.283	74.850	0.129	-0.136
-126.268	-75.012	-0.262	0.094
-125.253	-131.822	0.105	0.014
-124.239	-200.000	0.055	-0.398
-123.224	-161.636	-0.481	0.025
-122.210	-79.433	-0.259	0.087
