DTS Sentinel unit serial number:	SN413079Multiplexer serial number:	ORYXHardware model number:	OX4-SRSoftware version number:	ORYX F/W v4.00 Oryx Data Collector v3.7.2.0data status	okinstallation	princeton_trtdifferential loss correction	single-endedforward channel	channel 4reverse channel	N/Adate	2019/09/12time	12:35:11forward acquisition time	60.00reverse acquisition time	0.00gamma	496.2192k internal	0.2288k external	0.2288temperature offset calibration	1.0076default loss term (dB/km)	0.3790temperature slope calibration	1.0000multiplexer offset coefficient	1.0000multiplexer slope coefficient	1.0000fibre end	0.00T internal ref (°C)	40.48T ext. ref 1 (°C)	2.04T ext. ref 2 (°C)	35.47length (m)	temperature (°C)	Stokes	anti-Stokes-747.200	-44.468	-0.346	0.178
-746.185	-63.791	0.395	0.166
-745.171	10.689	0.171	-0.133
-744.156	733.253	0.101	0.277
-743.142	-200.000	-0.009	-0.121
-742.127	185.796	-0.064	0.098
-741.112	-97.004	0.225	0.061
-740.098	43.120	0.137	0.128
-739.083	800.000	-0.040	0.132
-738.069	-3.567	-0.267	0.190
-737.054	-89.411	-0.397	-0.120
-736.039	132.112	-0.281	0.370
-735.025	-14.917	0.391	0.257
-734.010	273.593	-0.047	-0.085
-732.996	15.883	-0.171	-0.138
-731.981	61.836	-0.155	-0.159
-730.966	800.000	-0.100	0.409
-729.952	-109.447	-0.280	-0.061
-728.937	-200.000	-0.067	0.382
-727.923	-163.742	-0.139	0.007
-726.908	-71.570	0.127	-0.049
-725.894	671.621	-0.020	0.052
-724.879	450.918	0.137	-0.310
-723.864	800.000	0.069	-0.227
-722.850	331.066	0.130	-0.257
-721.835	90.873	-0.242	-0.278
-720.821	-200.000	0.023	0.390
-719.806	800.000	0.080	0.277
-718.791	800.000	-0.076	-0.255
-717.777	-46.613	-0.175	-0.088
-716.762	800.000	-0.030	-0.118
-715.748	-200.000	-0.047	-0.242
-714.733	-51.315	0.080	-0.038
-713.718	343.676	-0.096	-0.192
-712.704	-172.939	-0.166	-0.005
-711.689	-181.606	-0.104	-0.002
-710.675	-130.876	-0.152	-0.021
-709.660	-34.011	-0.209	-0.118
-708.645	604.788	0.102	0.260
-707.631	479.584	0.123	0.286
-706.616	-13.966	-0.076	-0.050
-705.602	-34.263	-0.331	0.186
-704.587	-83.926	0.040	-0.013
-703.572	-23.735	0.203	-0.125
-702.558	441.096	0.105	-0.235
-701.543	800.000	-0.015	-0.061
-700.529	-200.000	-0.066	0.329
-699.514	800.000	0.058	0.229
-698.499	520.620	0.118	-0.283
-697.485	-96.855	0.311	-0.084
-696.470	-23.344	0.273	0.168
-695.456	-8.616	-0.218	0.150
-694.441	-154.409	-0.062	0.004
-693.426	765.626	-0.150	-0.418
-692.412	-200.000	-0.076	-0.395
-691.397	-93.262	0.162	0.046
-690.383	-96.521	0.169	0.046
-689.368	222.696	-0.118	-0.194
-688.354	267.640	-0.116	0.208
-687.339	411.405	0.061	0.133
-686.324	-48.997	-0.083	0.041
-685.310	371.735	-0.046	-0.095
-684.295	127.849	0.111	0.144
-683.281	-107.331	0.200	-0.045
-682.266	-159.375	-0.405	0.023
-681.251	800.000	-0.043	-0.123
-680.237	-138.422	0.061	-0.007
-679.222	523.362	-0.057	-0.136
-678.208	800.000	-0.046	-0.172
-677.193	-200.000	-0.280	0.001
-676.178	-152.703	-0.084	0.006
-675.164	800.000	-0.035	-0.110
-674.149	-119.226	0.164	-0.029
-673.135	800.000	-0.058	0.172
-672.120	307.609	-0.182	-0.347
-671.105	-174.517	0.076	0.002
-670.091	-106.989	0.078	-0.018
-669.076	-74.988	-0.215	0.079
-668.062	800.000	0.146	-0.444
-667.047	800.000	0.047	-0.150
-666.032	70.663	-0.152	0.161
-665.018	-55.476	-0.091	0.041
-664.003	-80.154	-0.440	-0.151
-662.989	800.000	-0.040	-0.162
-661.974	32.817	0.332	-0.294
-660.959	-200.000	0.038	0.393
-659.945	345.083	0.031	-0.063
-658.930	-200.000	0.026	-0.116
-657.916	221.901	-0.101	0.167
-656.901	-58.449	-0.116	-0.052
-655.886	446.118	-0.186	0.417
-654.872	-200.000	-0.016	0.267
-653.857	664.217	0.010	-0.026
-652.843	-99.991	-0.118	-0.030
-651.828	-13.994	-0.184	0.121
-650.814	126.219	0.061	0.078
-649.799	118.182	-0.063	-0.079
-648.784	124.297	-0.083	-0.107
-647.770	-200.000	-0.017	0.207
-646.755	-52.423	0.013	-0.006
-645.741	-17.742	-0.247	-0.158
-644.726	-117.917	0.410	0.075
-643.711	-200.000	-0.002	0.194
-642.697	-32.791	0.015	0.008
-641.682	-200.000	0.053	-0.235
-640.668	-34.113	-0.121	-0.068
-639.653	-136.768	-0.334	0.039
-638.638	-95.142	0.138	0.038
-637.624	116.388	0.145	0.181
-636.609	-128.021	-0.073	-0.011
-635.595	-200.000	-0.015	0.089
-634.580	-65.187	-0.071	-0.029
-633.565	492.584	0.143	0.335
-632.551	-176.236	0.144	-0.004
-631.536	719.860	-0.131	0.354
-630.522	144.233	-0.040	0.055
-629.507	45.161	-0.162	0.152
-628.492	-200.000	0.021	-0.402
-627.478	-200.000	-0.034	0.292
-626.463	9.600	-0.142	0.110
-625.449	800.000	-0.043	-0.147
-624.434	800.000	0.047	-0.189
-623.419	-176.740	-0.242	-0.006
-622.405	-126.423	0.137	-0.021
-621.390	-96.051	0.133	0.036
-620.376	-121.264	0.211	-0.036
-619.361	-20.419	0.212	0.133
-618.346	388.004	-0.115	-0.242
-617.332	800.000	-0.089	-0.396
-616.317	71.354	0.099	0.105
-615.303	60.570	-0.201	-0.203
-614.288	-200.000	-0.051	-0.354
-613.273	-100.427	-0.021	-0.005
-612.259	-200.000	-0.042	0.305
-611.244	225.685	-0.124	0.205
-610.230	159.819	-0.075	0.107
-609.215	-124.443	-0.247	0.039
-608.201	146.008	-0.204	-0.279
-607.186	-200.000	0.018	-0.169
-606.171	-28.306	-0.249	-0.147
-605.157	-113.357	-0.370	0.074
-604.142	57.739	0.094	-0.093
-603.128	282.074	0.039	0.072
-602.113	-137.553	0.413	-0.048
-601.098	-200.000	-0.050	-0.250
-600.084	137.939	-0.124	0.166
-599.069	49.860	0.305	0.293
-598.055	128.258	-0.144	0.187
-597.040	0.617	0.156	0.114
-596.025	-54.191	-0.105	0.048
-595.011	-86.873	0.258	0.080
-593.996	163.109	0.072	-0.103
-592.982	250.329	0.104	0.180
-591.967	129.651	0.265	0.345
-590.952	-6.765	-0.233	0.161
-589.938	496.096	-0.017	-0.040
-588.923	655.087	0.095	-0.249
-587.909	-156.858	-0.239	-0.015
-586.894	-200.000	0.015	-0.208
-585.879	-200.000	-0.055	0.249
-584.865	-14.637	0.081	0.053
-583.850	-138.874	-0.174	0.019
-582.836	500.359	-0.066	-0.156
-581.821	-200.000	0.018	0.189
-580.806	-142.195	0.090	0.009
-579.792	-200.000	-0.021	-0.138
-578.777	-160.216	0.114	-0.006
-577.763	174.112	0.058	-0.086
-576.748	-29.005	-0.240	0.140
-575.733	800.000	-0.030	0.092
-574.719	121.648	-0.102	0.129
-573.704	-156.412	-0.284	-0.018
-572.690	54.998	-0.215	0.211
-571.675	-112.592	-0.298	0.060
-570.661	1.286	-0.272	0.199
-569.646	-200.000	-0.021	-0.235
-568.631	79.055	-0.059	0.065
-567.617	120.964	0.083	-0.105
-566.602	-116.437	-0.225	0.042
-565.588	-85.859	0.241	-0.076
-564.573	-143.829	0.280	-0.027
-563.558	43.852	0.141	0.132
-562.544	-23.967	-0.209	-0.127
-561.529	-200.000	0.032	-0.352
-560.515	-127.115	-0.195	-0.029
-559.500	-190.408	0.081	0.001
-558.485	-177.159	-0.120	-0.003
-557.471	-200.000	-0.021	-0.162
-556.456	-73.791	0.204	-0.076
-555.442	-141.281	-0.212	-0.022
-554.427	800.000	0.049	-0.173
-553.412	224.669	0.225	-0.371
-552.398	-200.000	-0.004	0.154
-551.383	-52.063	-0.156	0.074
-550.369	-200.000	-0.016	0.112
-549.354	-200.000	-0.035	-0.329
-548.339	-200.000	0.002	-0.578
-547.325	284.496	0.112	0.206
-546.310	-200.000	-0.016	0.100
-545.296	622.687	-0.059	0.151
-544.281	-96.310	0.202	0.054
-543.266	-200.000	-0.051	0.370
-542.252	-91.993	0.076	-0.022
-541.237	-200.000	-0.027	0.220
-540.223	-68.550	0.100	-0.039
-539.208	-200.000	-0.031	0.258
-538.193	800.000	0.083	0.321
-537.179	-200.000	0.007	0.059
-536.164	-137.651	0.129	-0.015
-535.150	235.934	0.062	-0.105
-534.135	48.119	-0.156	-0.148
-533.121	800.000	-0.031	-0.103
-532.106	800.000	0.037	0.162
-531.091	-115.927	-0.344	-0.065
-530.077	800.000	-0.089	-0.312
-529.062	379.733	0.054	-0.113
-528.048	-49.981	-0.237	-0.114
-527.033	-111.750	0.193	-0.040
-526.018	238.616	0.039	0.066
-525.004	14.675	-0.081	0.064
-523.989	-200.000	-0.009	0.144
-522.975	-16.545	0.054	-0.035
-521.960	-87.268	-0.117	-0.036
-520.945	64.031	0.182	-0.186
-519.931	-14.298	0.160	0.104
-518.916	800.000	0.019	-0.070
-517.902	-146.140	-0.198	0.018
-516.887	377.586	0.179	0.371
-515.872	-200.000	-0.065	-0.329
-514.858	90.221	0.177	0.201
-513.843	-91.422	0.358	-0.104
-512.829	326.821	0.127	-0.246
-511.814	-149.073	-0.075	-0.006
-510.799	406.167	0.082	-0.175
-509.785	-200.000	-0.048	0.299
-508.770	-15.859	0.113	0.073
-507.756	229.271	0.159	0.263
-506.741	139.168	0.189	0.252
-505.726	459.744	-0.037	0.084
-504.712	44.167	-0.178	-0.166
-503.697	-34.507	0.272	0.151
-502.683	110.541	-0.062	-0.075
-501.668	-200.000	0.001	0.201
-500.653	800.000	-0.051	-0.158
-499.639	149.965	-0.087	0.120
-498.624	-200.000	0.046	0.287
-497.610	277.237	0.150	0.271
-496.595	-152.991	-0.147	-0.011
-495.581	800.000	-0.002	-0.007
-494.566	197.250	0.045	0.070
-493.551	-82.498	-0.127	-0.042
-492.537	800.000	-0.115	0.343
-491.522	-105.267	0.135	0.031
-490.508	279.939	-0.034	0.061
-489.493	-68.652	-0.306	-0.120
-488.478	-200.000	-0.020	0.216
-487.464	-41.964	0.345	-0.179
-486.449	-200.000	-0.008	-0.669
-485.435	82.290	0.119	-0.131
-484.420	-60.427	-0.071	0.031
-483.405	362.547	0.202	0.411
-482.391	800.000	0.066	0.222
-481.376	-200.000	0.039	0.246
-480.362	-149.308	0.075	0.006
-479.347	10.916	-0.049	0.038
-478.332	8.639	-0.257	0.196
-477.318	496.954	-0.053	-0.124
-476.303	25.127	-0.322	-0.271
-475.289	8.877	0.172	-0.132
-474.274	-200.000	0.003	-0.016
-473.259	513.189	0.115	0.271
-472.245	-200.000	-0.008	-0.103
-471.230	-132.359	0.229	0.030
-470.216	88.948	0.048	0.054
-469.201	-3.715	-0.201	-0.142
-468.186	105.695	0.187	0.224
-467.172	594.600	-0.089	0.223
-466.157	-13.890	-0.197	0.129
-465.143	-200.000	0.028	0.126
-464.128	37.301	-0.151	-0.135
-463.113	-126.464	-0.074	-0.011
-462.099	283.969	0.201	-0.367
-461.084	-65.442	-0.186	0.076
-460.070	76.586	0.131	-0.141
-459.055	-61.256	0.221	-0.094
-458.040	72.891	-0.299	-0.317
-457.026	144.949	-0.106	-0.144
-456.011	-18.800	0.231	0.146
-454.997	-200.000	0.007	0.088
-453.982	-103.937	0.460	-0.109
-452.968	-200.000	-0.015	-0.263
-451.953	800.000	-0.049	-0.182
-450.938	96.723	-0.103	-0.120
-449.924	21.733	-0.058	0.048
-448.909	87.867	0.010	0.011
-447.895	37.567	0.300	0.270
-446.880	-200.000	0.009	0.072
-445.865	-77.744	-0.142	0.050
-444.851	-124.682	0.141	0.022
-443.836	117.724	0.165	-0.206
-442.822	482.352	0.037	0.084
-441.807	-99.003	0.270	0.069
-440.792	-12.450	0.085	-0.057
-439.778	236.858	-0.076	0.128
-438.763	-138.676	-0.533	-0.059
-437.749	-200.000	0.004	-0.152
-436.734	-87.595	-0.269	0.082
-435.719	316.687	0.052	0.100
-434.705	-56.920	0.270	0.121
-433.690	113.648	-0.219	0.270
-432.676	800.000	0.065	-0.216
-431.661	233.199	-0.052	-0.087
-430.646	483.125	0.088	-0.202
-429.632	-11.897	0.099	0.066
-428.617	292.785	0.138	-0.255
-427.603	-6.168	0.217	-0.150
-426.588	-169.500	-0.122	-0.005
-425.573	54.303	-0.183	-0.179
-424.559	-200.000	-0.011	0.150
-423.544	-51.173	-0.156	0.074
-422.530	-39.028	0.284	0.151
-421.515	-99.774	0.324	0.082
-420.500	-118.272	0.216	-0.039
-419.486	-86.201	-0.040	-0.013
-418.471	211.221	0.188	-0.299
-417.457	-2.937	0.143	-0.101
-416.442	-2.418	0.256	0.182
-415.428	-10.301	0.228	0.153
-414.413	134.506	-0.111	-0.146
-413.398	-26.496	-0.095	0.057
-412.384	-12.821	-0.342	0.225
-411.369	-41.969	-0.096	-0.050
-410.355	-200.000	-0.059	0.279
-409.340	-99.951	-0.219	-0.055
-408.325	-27.594	-0.198	-0.116
-407.311	48.764	-0.102	0.097
-406.296	-63.829	0.185	-0.077
-405.282	344.611	0.065	0.128
-404.267	-200.000	0.015	0.218
-403.252	-122.233	0.351	0.058
-402.238	-200.000	-0.044	-0.381
-401.223	-93.333	0.117	0.033
-400.209	-103.539	-0.137	-0.033
-399.194	800.000	-0.048	-0.143
-398.179	3.545	0.152	-0.112
-397.165	-68.506	0.075	-0.029
-396.150	116.253	-0.143	-0.177
-395.136	-12.752	-0.107	-0.071
-394.121	-200.000	-0.027	-0.182
-393.106	800.000	0.022	0.068
-392.092	758.378	0.091	-0.250
-391.077	704.381	-0.115	-0.308
-390.063	-39.511	0.121	0.064
-389.048	47.596	0.160	0.151
-388.033	-171.444	0.332	-0.011
-387.019	710.009	-0.019	-0.052
-386.004	-58.269	0.272	-0.120
-384.990	14.839	-0.322	-0.255
-383.975	-147.472	-0.309	-0.026
-382.960	200.442	-0.084	0.130
-381.946	18.989	0.091	-0.073
-380.931	-200.000	0.043	-0.257
-379.917	6.289	-0.216	-0.162
-378.902	-113.058	0.139	-0.028
-377.888	-47.266	-0.327	-0.161
-376.873	11.641	-0.153	0.119
-375.858	-51.454	-0.070	-0.033
-374.844	-80.057	-0.008	0.003
-373.829	-200.000	-0.017	-0.218
-372.815	-135.681	-0.181	0.022
-371.800	800.000	0.096	0.392
-370.785	800.000	-0.027	0.109
-369.771	-200.000	-0.002	-0.204
-368.756	76.955	0.198	0.213
-367.742	53.637	0.146	0.142
-366.727	800.000	0.054	0.204
-365.712	-6.923	0.129	0.089
-364.698	-10.870	-0.137	0.091
-363.683	123.915	0.164	-0.209
-362.669	-200.000	-0.009	-0.252
-361.654	310.119	-0.112	-0.212
-360.639	186.569	0.121	0.182
-359.625	-194.026	0.310	0.003
-358.610	-200.000	0.108	0.503
-357.596	314.920	-0.030	-0.056
-356.581	-81.967	-0.501	0.165
-355.566	238.189	0.116	0.195
-354.552	784.308	0.122	0.338
-353.537	-200.000	-0.012	0.340
-352.523	516.538	-0.200	-0.473
-351.508	-200.000	0.052	-0.487
-350.493	-200.000	-0.023	-0.130
-349.479	-154.838	0.052	0.003
-348.464	-105.277	-0.069	0.016
-347.450	304.997	0.130	0.243
-346.435	-43.958	0.181	-0.092
-345.420	-53.380	-0.257	0.119
-344.406	-200.000	-0.001	0.196
-343.391	-200.000	0.069	0.396
-342.377	-165.959	0.354	0.015
-341.362	800.000	0.072	0.202
-340.348	-142.270	-0.226	0.023
-339.333	155.104	-0.128	-0.177
-338.318	-200.000	-0.040	0.193
-337.304	-200.000	-0.212	0.001
-336.289	-200.000	-0.015	-0.188
-335.275	-200.000	0.041	0.206
-334.260	-130.723	0.036	0.005
-333.245	800.000	0.074	-0.225
-332.231	-14.580	-0.105	0.068
-331.216	192.656	-0.133	0.203
-330.202	732.731	0.085	-0.229
-329.187	800.000	0.089	-0.307
-328.172	-117.379	-0.103	0.019
-327.158	-120.576	-0.423	-0.072
-326.143	25.202	0.104	0.087
-325.129	-146.201	-0.288	-0.026
-324.114	-51.602	0.192	0.091
-323.099	800.000	0.066	-0.187
-322.085	-74.187	-0.093	-0.034
-321.070	34.501	-0.084	0.074
-320.056	-57.693	0.043	0.019
-319.041	-134.016	0.144	0.018
-318.026	-110.974	0.114	0.024
-317.012	-20.483	0.113	-0.070
-315.997	-200.000	0.015	-0.371
-314.983	93.301	0.254	-0.290
-313.968	-115.836	-0.119	-0.023
-312.953	-162.326	-0.164	0.008
-311.939	164.883	0.057	-0.081
-310.924	412.245	0.132	-0.282
-309.910	106.810	-0.139	0.167
-308.895	-100.667	0.128	-0.032
-307.880	-19.987	0.165	-0.103
-306.866	20.887	-0.143	-0.117
-305.851	-120.063	0.164	-0.028
-304.837	107.488	-0.135	0.162
-303.822	-54.389	-0.220	0.101
-302.807	-126.349	0.393	-0.059
-301.793	-37.804	0.142	-0.076
-300.778	-200.000	-0.047	-0.238
-299.764	-179.333	-0.293	0.007
-298.749	-16.602	0.370	-0.236
-297.735	-154.494	0.494	-0.033
-296.720	-58.487	-0.038	-0.017
-295.705	-200.000	0.020	-0.195
-294.691	800.000	0.064	0.196
-293.676	180.409	-0.242	0.358
-292.662	-127.867	0.195	-0.028
-291.647	-74.719	0.152	-0.055
-290.632	-53.966	0.042	0.019
-289.618	373.621	-0.196	0.402
-288.603	-3.388	0.250	0.175
-287.589	-132.195	0.356	0.047
-286.574	240.305	-0.193	-0.324
-285.559	-200.000	0.025	0.491
-284.545	447.651	-0.136	0.301
-283.530	-110.735	0.127	0.026
-282.516	-200.000	-0.144	0.659
-281.501	-55.664	0.173	-0.078
-280.486	64.596	-0.070	-0.071
-279.472	-137.478	0.177	0.020
-278.457	-200.000	-0.014	-0.371
-277.443	200.412	-0.112	0.173
-276.428	-129.347	-0.202	-0.028
-275.413	-76.362	0.357	0.126
-274.399	231.133	0.177	0.292
-273.384	342.962	0.155	-0.305
-272.370	-29.900	-0.210	-0.121
-271.355	-82.990	-0.168	-0.055
-270.340	-200.000	-0.077	-0.454
-269.326	-90.534	-0.364	0.106
-268.311	142.924	0.191	-0.256
-267.297	120.583	-0.105	-0.132
-266.282	324.750	-0.125	-0.240
-265.267	-41.687	-0.140	-0.073
-264.253	-200.000	-0.008	0.445
-263.238	-155.508	-0.114	-0.007
-262.224	-7.921	-0.072	0.049
-261.209	141.534	-0.148	0.197
-260.195	800.000	-0.053	0.206
-259.180	72.559	-0.150	0.158
-258.165	-39.225	0.346	0.183
-257.151	37.630	-0.028	-0.025
-256.136	639.768	0.086	0.219
-255.122	800.000	-0.043	0.161
-254.107	-51.526	0.259	-0.122
-253.092	110.818	0.161	0.195
-252.078	225.531	0.046	0.075
-251.063	-200.000	-0.016	-0.358
-250.049	-74.585	-0.226	-0.082
-249.034	-200.000	-0.042	0.242
-248.019	17.276	-0.133	-0.106
-247.005	-200.000	0.032	0.306
-245.990	800.000	0.078	0.302
-244.976	-128.211	0.227	0.033
-243.961	74.192	0.077	-0.081
-242.946	-102.609	-0.364	0.087
-241.932	-200.000	0.010	-0.356
-240.917	-37.205	0.099	-0.053
-239.903	206.917	0.037	0.058
-238.888	637.596	-0.122	-0.311
-237.873	800.000	-0.061	0.257
-236.859	-67.381	-0.117	0.046
-235.844	-200.000	-0.031	0.235
-234.830	800.000	0.018	-0.067
-233.815	82.226	-0.069	-0.076
-232.800	-200.000	0.002	-0.048
-231.786	-6.595	0.102	-0.070
-230.771	180.380	0.133	-0.195
-229.757	497.393	-0.036	0.083
-228.742	-200.000	0.013	-0.104
-227.727	-200.000	0.030	0.189
-226.713	-175.370	-0.167	-0.005
-225.698	-44.974	0.183	0.091
-224.684	1.072	-0.238	0.171
-223.669	25.454	0.025	-0.021
-222.655	579.117	-0.145	0.357
-221.640	598.874	0.108	-0.269
-220.625	613.133	0.112	-0.281
-219.611	-36.479	0.285	-0.154
-218.596	393.270	0.050	-0.105
-217.582	-132.064	-0.493	-0.064
-216.567	-12.720	-0.201	0.132
-215.552	-126.370	-0.188	-0.028
-214.538	-87.811	0.214	0.065
-213.523	-11.909	0.152	0.100
-212.509	-97.459	-0.154	0.040
-211.494	800.000	0.092	0.306
-210.479	-200.000	0.008	0.108
-209.465	156.194	0.179	-0.247
-208.450	-200.000	-0.025	-0.429
-207.436	-69.497	-0.109	0.042
-206.421	79.217	-0.291	0.313
-205.406	-100.697	-0.140	0.035
-204.392	-17.200	0.121	-0.076
-203.377	-195.696	-0.378	0.003
-202.363	-110.275	0.104	0.022
-201.348	62.019	0.282	0.283
-200.333	800.000	-0.101	0.403
-199.319	-97.706	0.196	0.051
-198.304	-200.000	-0.042	0.207
-197.290	-18.159	0.276	-0.173
-196.275	41.591	-0.065	-0.059
-195.260	213.767	-0.100	-0.159
-194.246	21.091	-0.093	0.076
-193.231	164.915	0.267	0.379
-192.217	65.605	-0.240	0.244
-191.202	-8.480	-0.161	-0.109
-190.187	-101.668	0.117	-0.029
-189.173	-137.929	-0.199	-0.022
-188.158	-119.326	-0.384	0.067
-187.144	38.265	-0.334	-0.298
-186.129	-185.091	0.188	-0.003
-185.114	-200.000	-0.013	-0.064
-184.100	-123.333	-0.475	0.076
-183.085	-102.652	-0.202	-0.048
-182.071	-200.000	0.010	-0.058
-181.056	-133.734	0.228	0.029
-180.042	-121.874	0.361	-0.060
-179.027	313.955	-0.257	-0.485
-178.012	-200.000	0.026	-0.235
-176.998	800.000	0.111	0.419
-175.983	123.881	0.369	-0.464
-174.969	-200.000	-0.030	-0.241
-173.954	16.563	-0.163	0.129
-172.939	721.758	-0.118	-0.316
-171.925	189.742	0.095	-0.143
-170.910	-200.000	0.011	-0.165
-169.896	-23.914	-0.143	-0.086
-168.881	105.103	-0.114	0.134
-167.866	-200.000	0.068	-0.317
-166.852	31.736	-0.071	0.061
-165.837	-79.931	-0.204	0.069
-164.823	-89.155	-0.069	-0.020
-163.808	-129.542	0.101	-0.014
-162.793	-73.294	-0.184	0.067
-161.779	-127.854	0.143	-0.021
-160.764	-87.378	0.110	0.033
-159.750	800.000	-0.059	-0.193
-158.735	-191.793	0.127	-0.001
-157.720	-200.000	0.055	-0.268
-156.706	-84.545	0.143	0.045
-155.691	-6.575	-0.075	0.051
-154.677	-85.987	0.245	0.076
-153.662	18.076	-0.075	-0.060
-152.647	725.008	-0.113	-0.303
-151.633	-98.525	0.512	-0.131
-150.618	79.270	-0.038	0.041
-149.604	1.404	0.196	-0.141
-148.589	-46.860	0.090	0.044
-147.574	-151.690	-0.151	0.011
-146.560	-200.000	-0.028	0.156
-145.545	-96.488	-0.220	0.058
-144.531	3.929	-0.138	0.101
-143.516	519.584	0.129	-0.303
-142.502	-200.000	-0.028	-0.160
-141.487	12.708	0.157	-0.122
-140.472	572.818	-0.020	-0.049
-139.458	-200.000	-0.012	0.189
-138.443	-81.621	0.382	0.126
-137.429	100.612	-0.157	0.183
-136.414	259.956	-0.098	-0.170
-135.399	800.000	-0.042	0.143
-134.385	182.221	0.088	-0.130
-133.370	800.000	0.104	-0.329
-132.356	-93.689	0.110	0.030
-131.341	-66.637	0.178	-0.070
-130.326	197.195	0.235	0.359
-129.312	-200.000	0.006	-0.129
-128.297	800.000	-0.042	-0.153
-127.283	-55.855	-0.243	0.108
-126.268	9.281	-0.239	0.181
-125.253	-200.000	-0.011	0.456
-124.239	-20.001	-0.133	-0.082
-123.224	-151.194	-0.492	-0.037
