DTS Sentinel unit serial number:	SN413079Multiplexer serial number:	ORYXHardware model number:	OX4-SRSoftware version number:	ORYX F/W v4.00 Oryx Data Collector v3.7.2.0data status	okinstallation	princeton_trtdifferential loss correction	single-endedforward channel	channel 4reverse channel	N/Adate	2019/09/12time	19:38:19forward acquisition time	15.00reverse acquisition time	0.00gamma	496.2192k internal	0.2310k external	0.2310temperature offset calibration	1.0151default loss term (dB/km)	0.3790temperature slope calibration	1.0000multiplexer offset coefficient	1.0000multiplexer slope coefficient	1.0000fibre end	0.00T internal ref (°C)	32.12T ext. ref 1 (°C)	3.31T ext. ref 2 (°C)	26.70length (m)	temperature (°C)	Stokes	anti-Stokes-747.200	-175.343	-0.587	0.016
-746.185	-111.785	-0.329	0.068
-745.171	-46.946	-0.393	-0.195
-744.156	-92.874	0.599	0.170
-743.142	-118.894	0.450	0.080
-742.127	23.277	0.189	0.158
-741.112	-109.122	-0.059	-0.013
-740.098	-140.853	-1.034	0.108
-739.083	800.000	-0.132	0.380
-738.069	-200.000	0.027	0.638
-737.054	-200.000	-0.014	-0.411
-736.039	800.000	0.163	-0.474
-735.025	-100.132	-0.849	0.215
-734.010	800.000	-0.361	1.231
-732.996	-144.471	0.123	0.012
-731.981	-135.268	-0.205	0.025
-730.966	-200.000	0.027	0.286
-729.952	-1.759	0.393	0.281
-728.937	41.416	-0.377	0.346
-727.923	570.270	-0.326	-0.806
-726.908	10.321	-0.300	0.232
-725.894	105.221	0.471	-0.564
-724.879	203.480	-0.370	0.581
-723.864	3.621	-0.878	0.650
-722.850	3.063	-0.276	-0.203
-721.835	56.846	-0.551	-0.544
-720.821	166.655	-0.179	0.257
-719.806	800.000	0.372	1.068
-718.791	329.966	0.157	-0.307
-717.777	344.036	0.262	-0.522
-716.762	242.699	-0.245	-0.416
-715.748	127.262	-0.328	0.422
-714.733	-104.749	-0.427	-0.100
-713.718	-200.000	0.035	0.165
-712.704	-200.000	0.018	0.555
-711.689	-200.000	0.044	-0.216
-710.675	-53.226	0.474	-0.221
-709.660	71.057	-0.388	0.407
-708.645	199.418	0.196	-0.305
-707.631	8.420	0.236	0.180
-706.616	-69.511	0.544	-0.211
-705.602	-83.553	-0.481	0.156
-704.587	-170.831	0.381	0.013
-703.572	34.207	-0.485	0.428
-702.558	-200.000	0.021	0.711
-701.543	-66.072	-0.548	0.222
-700.529	-200.000	-0.022	-0.129
-699.514	-148.242	0.808	-0.068
-698.499	-179.161	0.900	0.020
-697.485	-69.724	0.114	0.044
-696.470	255.256	-0.460	-0.798
-695.456	800.000	-0.121	0.341
-694.441	-16.746	0.756	-0.485
-693.426	321.988	-0.428	-0.826
-692.412	224.367	0.118	-0.193
-691.397	289.202	-0.391	0.718
-690.383	-200.000	-0.044	0.229
-689.368	-153.014	0.560	0.040
-688.354	346.135	0.182	-0.363
-687.339	81.620	-0.168	-0.185
-686.324	-84.584	-0.596	0.190
-685.310	-63.064	-0.423	0.177
-684.295	-83.684	-0.396	-0.128
-683.281	-41.057	-0.383	0.200
-682.266	73.174	-0.211	-0.224
-681.251	-17.958	-0.435	0.276
-680.237	153.750	-0.196	0.272
-679.222	-200.000	0.030	0.526
-678.208	610.267	0.348	0.881
-677.193	243.205	0.042	-0.072
-676.178	633.733	-0.412	-1.058
-675.164	-100.631	-0.650	0.163
-674.149	139.904	-0.450	0.600
-673.135	41.535	0.713	0.654
-672.120	-67.544	-0.218	0.087
-671.105	-80.411	-0.470	-0.159
-670.091	-137.217	0.145	-0.017
-669.076	-119.002	-0.530	0.094
-668.062	-89.854	0.453	-0.134
-667.047	-130.810	0.441	0.060
-666.032	-112.825	0.574	0.115
-665.018	-200.000	-0.075	-0.630
-664.003	-26.942	-0.831	-0.491
-662.989	-52.958	-0.501	0.233
-661.974	-72.271	0.633	0.237
-660.959	-100.544	-0.195	-0.049
-659.945	148.152	-0.198	0.270
-658.930	-200.000	0.118	-0.608
-657.916	-200.000	-0.054	-0.872
-656.901	-66.802	-0.207	-0.083
-655.886	510.301	-0.334	-0.786
-654.872	-69.960	-1.598	0.616
-653.857	38.903	0.093	-0.084
-652.843	702.706	-0.278	0.742
-651.828	-200.000	0.038	1.019
-650.814	1.014	-0.542	-0.394
-649.799	38.382	0.443	0.400
-648.784	12.737	-0.694	0.543
-647.770	112.210	0.213	0.260
-646.755	-200.000	-0.052	0.265
-645.741	-55.330	0.207	-0.094
-644.726	-66.083	-0.450	-0.182
-643.711	-66.212	0.483	-0.195
-642.697	-200.000	0.033	0.333
-641.682	-138.370	1.159	0.129
-640.668	-107.683	-0.497	0.110
-639.653	800.000	0.213	0.763
-638.638	50.928	0.873	-0.837
-637.624	-200.000	-0.039	-0.716
-636.609	-30.996	-0.352	-0.201
-635.595	-152.798	-0.474	-0.034
-634.580	-200.000	0.032	-0.280
-633.565	44.027	-0.355	-0.330
-632.551	800.000	-0.228	0.683
-631.536	548.965	-0.095	-0.231
-630.522	-106.440	-0.685	-0.155
-629.507	-148.013	-0.558	-0.047
-628.492	127.008	0.157	-0.201
-627.478	289.124	-0.311	-0.571
-626.463	-104.371	0.647	-0.151
-625.449	800.000	0.381	-1.186
-624.434	-110.600	0.919	-0.192
-623.419	-168.343	0.535	0.021
-622.405	260.794	-0.171	0.300
-621.390	-200.000	0.016	0.752
-620.376	-97.495	-0.344	0.090
-619.361	-183.724	-1.188	-0.020
-618.346	203.747	0.264	0.413
-617.332	-107.964	-0.555	-0.122
-616.317	118.677	-0.666	-0.831
-615.303	800.000	0.162	-0.463
-614.288	800.000	-0.105	-0.316
-613.273	205.817	0.501	0.787
-612.259	-192.794	-1.228	-0.011
-611.244	-166.467	0.190	0.008
-610.230	252.693	0.199	-0.343
-609.215	-111.277	-0.473	0.098
-608.201	95.230	-0.480	-0.552
-607.186	-100.773	-0.573	-0.143
-606.171	172.539	-0.208	0.302
-605.157	12.285	0.799	-0.621
-604.142	-200.000	0.130	-0.772
-603.128	-87.559	-0.045	0.014
-602.113	11.053	0.502	-0.388
-601.098	-200.000	0.079	-0.788
-600.084	-19.746	0.323	-0.202
-599.069	-20.280	0.102	0.064
-598.055	330.270	-0.405	-0.788
-597.040	-120.468	-0.884	0.152
-596.025	47.825	0.464	0.438
-595.011	-30.569	-0.115	-0.066
-593.996	800.000	0.269	1.123
-592.982	126.999	0.235	0.300
-591.967	-126.684	1.405	0.210
-590.952	-149.993	0.196	-0.015
-589.938	127.006	0.262	0.335
-588.923	26.204	-0.568	-0.479
-587.909	256.975	0.500	0.867
-586.894	800.000	0.126	-0.426
-585.879	233.173	-0.291	0.484
-584.865	-48.240	0.324	0.158
-583.850	28.799	-0.760	-0.649
-582.836	42.147	-0.139	-0.127
-581.821	-91.430	-0.888	-0.256
-580.806	-70.299	0.878	-0.336
-579.792	-59.566	0.224	-0.097
-578.777	-78.312	-0.501	0.173
-577.763	85.055	0.658	-0.728
-576.748	-30.662	0.468	-0.267
-575.733	-135.579	-0.674	0.081
-574.719	800.000	-0.081	0.259
-573.704	-46.945	-0.405	-0.200
-572.690	-200.000	-0.022	-0.117
-571.675	218.948	0.431	-0.695
-570.661	124.435	-0.618	-0.784
-569.646	29.571	0.386	-0.331
-568.631	-35.958	0.343	0.187
-567.617	299.221	0.194	-0.361
-566.602	-200.000	-0.003	-0.216
-565.588	-158.246	-0.782	-0.046
-564.573	800.000	0.170	0.592
-563.558	205.765	0.081	-0.127
-562.544	-38.477	-0.198	0.106
-561.529	480.467	-0.267	-0.610
-560.515	272.174	0.185	0.330
-559.500	800.000	-0.080	0.305
-558.485	-200.000	0.047	-0.318
-557.471	189.894	0.242	0.365
-556.456	292.421	-0.179	0.328
-555.442	-30.058	0.487	-0.280
-554.427	16.145	-0.515	0.409
-553.412	800.000	-0.067	0.223
-552.398	97.476	-0.196	0.227
-551.383	-57.643	-0.522	-0.231
-550.369	-2.621	-0.267	-0.188
-549.354	-111.652	-0.535	0.109
-548.339	321.156	-0.524	1.005
-547.325	105.533	0.262	0.313
-546.310	-43.738	-0.406	-0.206
-545.296	400.465	-0.112	0.238
-544.281	120.056	-0.375	0.469
-543.266	523.561	-0.149	0.353
-542.252	-150.864	-0.310	-0.024
-541.237	800.000	-0.106	0.439
-540.223	561.829	-0.197	0.481
-539.208	465.792	-0.110	-0.248
-538.193	-76.318	0.338	-0.120
-537.179	-129.247	0.558	-0.078
-536.164	-17.966	0.718	0.453
-535.150	204.245	0.274	-0.428
-534.135	-91.288	-0.475	-0.137
-533.121	-47.406	-0.133	0.065
-532.106	-109.247	-0.445	0.095
-531.091	306.332	0.454	-0.852
-530.077	104.859	-0.172	0.204
-529.062	40.257	-0.689	-0.624
-528.048	625.620	0.333	-0.845
-527.033	-200.000	0.049	0.431
-526.018	-102.110	1.121	0.272
-525.004	800.000	-0.308	-0.969
-523.989	21.636	-0.633	-0.519
-522.975	212.330	-0.246	0.391
-521.960	49.854	0.532	0.505
-520.945	671.567	0.099	0.258
-519.931	475.672	0.264	-0.599
-518.916	72.925	-0.241	-0.254
-517.902	-103.373	-0.806	0.191
-516.887	288.736	-0.150	0.274
-515.872	184.082	-0.143	0.212
-514.858	6.615	-0.837	0.627
-513.843	800.000	-0.209	0.755
-512.829	-65.919	-0.498	0.200
-511.814	-109.429	0.258	0.055
-510.799	-75.026	0.550	0.198
-509.785	-115.655	-0.311	0.059
-508.770	800.000	-0.222	-0.862
-507.756	-200.000	-0.067	-0.667
-506.741	-200.000	-0.024	-0.291
-505.726	800.000	0.085	-0.335
-504.712	408.580	-0.303	-0.646
-503.697	119.079	0.390	-0.485
-502.683	123.092	0.353	-0.445
-501.668	-200.000	0.054	-0.488
-500.653	589.049	0.195	0.483
-499.639	800.000	-0.109	0.478
-498.624	181.614	0.330	0.488
-497.610	-12.959	0.628	-0.411
-496.595	-200.000	-0.043	-0.665
-495.581	800.000	-0.197	-0.813
-494.566	-96.054	-1.079	0.289
-493.551	783.435	0.302	0.832
-492.537	55.550	-0.414	0.403
-491.522	-126.914	0.675	-0.100
-490.508	-147.447	0.202	-0.017
-489.493	14.248	0.374	-0.293
-488.478	-144.332	0.336	0.031
-487.464	-148.387	0.336	-0.028
-486.449	-175.065	-0.518	0.014
-485.435	-129.191	0.236	-0.033
-484.420	39.260	0.885	0.796
-483.405	55.368	-0.401	-0.390
-482.391	-72.255	0.779	0.290
-481.376	-27.487	0.416	-0.243
-480.362	-121.995	-0.607	-0.100
-479.347	183.776	0.544	-0.809
-478.332	18.201	-0.386	-0.309
-477.318	-90.943	0.465	0.134
-476.303	-200.000	-0.001	-0.163
-475.289	-54.111	-0.268	-0.123
-474.274	12.546	0.273	0.212
-473.259	-200.000	-0.065	0.440
-472.245	-61.114	-0.127	-0.054
-471.230	81.442	-0.683	0.742
-470.216	147.921	-0.145	-0.196
-469.201	800.000	-0.101	0.434
-468.186	-151.953	-1.039	0.076
-467.172	-104.498	-0.549	-0.128
-466.157	-114.467	0.804	-0.155
-465.143	139.295	-0.182	0.240
-464.128	-114.877	0.137	0.026
-463.113	16.275	0.240	0.190
-462.099	-17.228	0.853	0.540
-461.084	-21.158	0.258	-0.159
-460.070	-21.858	-0.287	0.175
-459.055	320.397	-0.087	-0.166
-458.040	-200.000	0.045	-0.450
-457.026	-39.935	0.228	0.120
-456.011	-106.942	0.395	0.088
-454.997	800.000	-0.381	1.250
-453.982	-200.000	-0.126	-0.619
-452.968	777.801	-0.062	-0.169
-451.953	128.498	0.396	-0.506
-450.938	-86.388	-0.751	0.232
-449.924	-200.000	-0.041	-0.203
-448.909	189.885	0.491	0.739
-447.895	65.103	-0.652	-0.661
-446.880	27.467	0.076	0.064
-445.865	15.445	0.788	0.621
-444.851	-68.882	-0.878	-0.340
-443.836	137.609	-0.283	0.372
-442.822	800.000	0.369	-1.060
-441.807	171.390	0.086	0.123
-440.792	-69.568	0.450	-0.173
-439.778	-59.398	-0.485	-0.209
-438.763	18.906	0.604	-0.486
-437.749	-200.000	-0.219	1.348
-436.734	-35.702	0.415	0.226
-435.719	-116.024	0.611	0.114
-434.705	-139.623	-0.696	0.074
-433.690	800.000	-0.275	0.798
-432.676	800.000	-0.256	-0.824
-431.661	629.219	-0.104	-0.263
-430.646	-38.801	0.646	0.342
-429.632	188.351	0.519	0.779
-428.617	100.655	-0.455	-0.531
-427.603	-153.903	0.375	-0.026
-426.588	24.168	-0.184	-0.153
-425.573	156.411	-0.185	-0.256
-424.559	-199.292	-0.565	-0.003
-423.544	116.986	-0.522	0.643
-422.530	-147.682	0.370	-0.031
-421.515	236.133	-0.181	-0.300
-420.500	514.882	0.237	0.554
-419.486	-49.093	-0.118	0.057
-418.471	-200.000	0.089	-0.807
-417.457	-52.564	0.694	0.322
-416.442	427.737	0.295	0.639
-415.428	27.417	0.053	0.045
-414.413	-7.518	-0.490	-0.332
-413.398	800.000	-0.067	0.235
-412.384	-33.232	0.042	0.024
-411.369	120.760	-0.482	-0.601
-410.355	-200.000	0.144	-0.780
-409.340	-81.077	0.774	-0.257
-408.325	49.515	-0.541	0.511
-407.311	-200.000	-0.048	-1.008
-406.296	-17.934	0.289	-0.182
-405.282	76.551	-0.464	-0.493
-404.267	-200.000	0.115	-1.024
-403.252	447.480	0.258	-0.570
-402.238	119.966	-0.398	-0.495
-401.223	-21.763	0.274	-0.167
-400.209	-200.000	0.034	-0.299
-399.194	-139.533	1.472	0.158
-398.179	-19.412	-0.645	0.401
-397.165	-147.044	0.829	-0.071
-396.150	-65.708	0.284	0.114
-395.136	-33.619	0.684	0.378
-394.121	-1.005	-0.174	-0.124
-393.106	-117.248	0.166	-0.030
-392.092	-135.710	0.767	0.091
-391.077	-34.920	-0.828	0.453
-390.063	800.000	0.156	-0.660
-389.048	800.000	-0.170	-0.500
-388.033	111.964	-0.811	0.981
-387.019	-86.703	-0.153	-0.047
-386.004	279.161	0.449	0.803
-384.990	-20.363	0.638	-0.393
-383.975	74.962	-0.144	0.151
-382.960	-34.374	0.308	0.169
-381.946	-51.203	0.099	-0.046
-380.931	81.053	-0.138	0.150
-379.917	-53.313	0.522	0.240
-378.902	-9.043	1.321	0.885
-377.888	-176.284	0.630	0.016
-376.873	-200.000	0.140	0.850
-375.858	-15.828	0.554	-0.353
-374.844	800.000	0.106	0.416
-373.829	367.250	-0.309	0.624
-372.815	382.298	-0.245	0.504
-371.800	182.465	0.330	0.487
-370.785	-79.933	-0.332	0.112
-369.771	245.456	0.256	0.431
-368.756	540.035	-0.380	-0.906
-367.742	146.489	-0.257	-0.345
-366.727	22.366	-0.455	-0.372
-365.712	-100.737	0.542	0.134
-364.698	-150.373	0.286	0.022
-363.683	90.301	-0.234	0.262
-362.669	-108.630	0.644	0.138
-361.654	30.819	-0.340	0.291
-360.639	342.240	-0.211	-0.412
-359.625	-34.216	-0.341	-0.187
-358.610	-200.000	0.029	0.353
-357.596	-153.734	0.727	0.050
-356.581	30.531	0.272	0.232
-355.566	8.396	-0.127	-0.096
-354.552	42.070	-0.639	0.581
-353.537	75.615	0.243	-0.256
-352.523	194.001	0.517	0.784
-351.508	63.239	0.226	-0.227
-350.493	-28.787	0.649	-0.374
-349.479	66.897	0.368	-0.375
-348.464	18.913	0.658	-0.528
-347.450	304.988	-0.113	0.211
-346.435	-143.207	-0.411	0.040
-345.420	800.000	0.205	-0.758
-344.406	-200.000	0.059	-0.302
-343.391	437.550	0.179	0.389
-342.377	800.000	0.180	-0.610
-341.362	6.779	0.735	0.547
-340.348	-117.709	0.624	-0.112
-339.333	-200.000	0.044	0.453
-338.318	-200.000	0.036	0.381
-337.304	445.646	-0.285	-0.627
-336.289	800.000	-0.292	-0.932
-335.275	114.808	0.131	0.159
-334.260	-200.000	0.107	0.795
-333.245	-200.000	-0.057	0.363
-332.231	272.941	-0.440	0.777
-331.216	27.187	0.159	0.133
-330.202	-11.702	-0.641	-0.420
-329.187	72.491	-0.577	0.601
-328.172	-77.407	0.286	-0.099
-327.158	7.901	-0.322	0.241
-326.143	-156.744	0.405	0.025
-325.129	28.449	-0.772	-0.652
-324.114	105.230	0.768	0.906
-323.099	-45.186	-0.495	-0.246
-322.085	-122.890	0.459	0.074
-321.070	-50.202	0.432	0.204
-320.056	-137.910	0.585	0.065
-319.041	-189.607	-0.840	0.010
-318.026	146.605	-0.229	-0.308
-317.012	328.953	-0.070	-0.134
-315.997	-80.886	-0.361	-0.120
-314.983	-51.970	0.689	0.320
-313.968	156.013	-0.382	-0.527
-312.953	-55.468	0.265	0.119
-311.939	800.000	0.372	1.061
-310.924	-43.624	0.397	-0.200
-309.910	-81.982	0.349	0.114
-308.895	-200.000	-0.007	-0.672
-307.880	-30.070	-0.358	-0.203
-306.866	-200.000	-0.015	-0.342
-305.851	800.000	-0.106	0.350
-304.837	-106.138	0.479	0.107
-303.822	79.784	0.809	0.868
-302.807	191.609	-0.550	0.827
-301.793	-200.000	0.027	-0.334
-300.778	220.208	-0.126	0.202
-299.764	-127.559	-0.410	-0.059
-298.749	41.917	0.570	-0.516
-297.735	-26.421	0.349	0.204
-296.720	-113.827	-0.736	0.143
-295.705	138.083	-0.345	0.452
-294.691	-47.658	0.900	-0.436
-293.676	-151.929	0.527	0.038
-292.662	-59.358	-0.407	0.175
-291.647	99.324	0.671	-0.774
-290.632	222.324	0.330	0.530
-289.618	-148.754	0.830	0.067
-288.603	-200.000	-0.119	0.537
-287.589	32.892	0.388	-0.335
-286.574	800.000	-0.145	-0.616
-285.559	-47.901	-0.564	-0.272
-284.545	545.959	0.194	0.462
-283.530	-26.285	-0.459	-0.269
-282.516	-88.097	0.510	0.153
-281.501	-200.000	0.015	0.994
-280.486	81.194	0.433	-0.467
-279.472	63.364	-0.347	0.347
-278.457	-36.174	0.033	-0.018
-277.443	-119.170	-0.539	-0.094
-276.428	-200.000	-0.026	-0.123
-275.413	31.252	0.373	0.319
-274.399	494.567	-0.390	-0.893
-273.384	-59.289	-1.094	0.470
-272.370	-200.000	0.063	0.814
-271.355	271.829	-0.234	0.411
-270.340	243.890	0.107	0.179
-269.326	-1.455	-0.048	0.034
-268.311	-10.624	-0.197	0.130
-267.297	-200.000	-0.024	0.191
-266.282	186.141	0.182	0.270
-265.267	-200.000	-0.032	0.715
-264.253	-200.000	-0.012	0.293
-263.238	21.989	0.458	-0.373
-262.224	203.279	-0.227	-0.350
-261.209	-156.468	-0.115	0.007
-260.195	-200.000	-0.025	-0.502
-259.180	-84.588	-1.251	-0.393
-258.165	-60.431	0.724	0.307
-257.151	-8.045	0.327	0.220
-256.136	174.050	-0.339	0.488
-255.122	-127.016	-0.850	0.124
-254.107	-19.527	-0.251	-0.155
-253.092	19.028	0.169	-0.135
-252.078	-200.000	0.013	-0.773
-251.063	427.505	0.145	-0.312
-250.049	44.908	-0.345	0.317
-249.034	118.984	0.159	0.196
-248.019	-200.000	0.008	0.748
-247.005	56.735	-0.211	0.205
-245.990	-45.135	0.221	-0.109
-244.976	-200.000	0.018	0.362
-243.961	-116.228	0.217	-0.040
-242.946	60.102	-0.308	-0.303
-241.932	-31.956	0.603	-0.336
-240.917	131.593	-0.463	-0.593
-239.903	-121.447	-1.126	0.187
-238.888	800.000	-0.084	-0.324
-237.873	94.665	-0.183	0.207
-236.859	-120.119	0.496	0.084
-235.844	556.477	0.097	0.234
-234.830	-68.274	0.989	-0.383
-233.815	96.025	0.190	-0.216
-232.800	31.047	-0.998	0.852
-231.786	73.144	-0.697	-0.725
-230.771	-100.231	-0.656	0.162
-229.757	191.383	-0.115	0.173
-228.742	-105.209	0.241	0.055
-227.727	569.455	-0.212	-0.514
-226.713	-24.612	0.316	0.187
-225.698	67.472	-0.116	-0.118
-224.684	-75.189	0.113	-0.040
-223.669	-200.000	0.037	0.316
-222.655	324.804	-0.274	-0.522
-221.640	201.934	0.288	-0.441
-220.625	800.000	0.214	0.768
-219.611	-200.000	-0.005	0.241
-218.596	510.864	0.200	-0.462
-217.582	-47.405	-0.410	0.198
-216.567	-104.384	-0.622	0.143
-215.552	-200.000	-0.049	0.713
-214.538	103.021	0.051	-0.059
-213.523	-200.000	0.009	0.590
-212.509	-147.385	0.428	0.036
-211.494	800.000	0.140	-0.417
-210.479	160.423	0.261	0.363
-209.465	14.729	0.625	0.486
-208.450	9.841	-0.219	-0.165
-207.436	800.000	0.231	0.639
-206.421	800.000	-0.184	-0.745
-205.406	-200.000	-0.176	-1.069
-204.392	-119.902	0.542	0.093
-203.377	-119.164	0.021	-0.004
-202.363	-200.000	-0.081	-0.791
-201.348	-92.506	-0.314	0.088
-200.333	46.373	0.204	-0.188
-199.319	-35.356	1.014	0.548
-198.304	-60.767	-0.865	-0.364
-197.290	526.482	0.106	0.249
-196.275	70.897	0.385	0.397
-195.260	-200.000	0.116	-0.692
-194.246	180.690	0.089	-0.130
-193.231	168.824	-0.136	-0.193
-192.217	-167.373	-0.355	-0.014
-191.202	759.513	-0.115	-0.310
-190.187	-48.829	-0.173	-0.082
-189.173	800.000	-0.061	0.224
-188.158	107.743	-0.258	-0.305
-187.144	18.236	0.372	-0.295
-186.129	-113.286	1.362	-0.266
-185.114	-97.776	-0.628	0.161
-184.100	-200.000	-0.161	-0.734
-183.085	240.450	0.310	-0.514
-182.071	-133.585	0.663	0.082
-181.056	-200.000	-0.020	0.416
-180.042	-200.000	-0.096	0.444
-179.027	351.115	-0.538	1.058
-178.012	-200.000	0.048	-0.224
-176.998	258.655	0.405	0.694
-175.983	-99.361	-0.298	0.075
-174.969	-101.421	-0.116	-0.028
-173.954	-200.000	-0.049	0.663
-172.939	-200.000	-0.034	0.517
-171.925	-24.457	-0.466	0.276
-170.910	-200.000	-0.027	0.176
-169.896	-200.000	0.033	0.262
-168.881	-181.059	-0.397	-0.008
-167.866	91.173	-0.150	-0.167
-166.852	-19.136	-0.752	-0.464
-165.837	195.611	-0.208	-0.313
-164.823	-69.132	-0.723	-0.276
-163.808	-13.389	-0.338	0.218
-162.793	-16.098	0.065	0.041
-161.779	-148.234	-0.120	-0.010
-160.764	-147.899	-0.176	-0.015
-159.750	117.563	-0.294	-0.360
-158.735	-76.438	-0.452	-0.158
-157.720	-200.000	0.039	1.095
-156.706	60.662	0.046	0.046
-155.691	-127.686	-0.859	0.123
-154.677	-200.000	0.057	0.447
-153.662	120.463	-0.269	-0.332
-152.647	800.000	-0.284	-0.896
-151.633	800.000	-0.229	-0.658
-150.618	800.000	0.073	0.280
-149.604	800.000	0.080	-0.278
-148.589	-14.608	0.184	-0.117
-147.574	0.340	0.660	-0.468
-146.560	-200.000	-0.002	0.019
-145.545	-200.000	-0.097	-0.477
-144.531	157.649	0.153	-0.210
-143.516	-200.000	0.005	-0.641
-142.502	664.119	-0.183	0.470
-141.487	-153.463	0.339	-0.023
-140.472	-109.438	-0.786	0.165
-139.458	-150.116	-1.267	0.098
-138.443	-200.000	-0.016	-0.376
-137.429	-45.871	-0.651	0.319
-136.414	-200.000	0.003	0.146
-135.399	-98.397	0.726	0.184
-134.385	-105.284	-0.503	0.114
-133.370	1.522	-0.315	-0.224
-132.356	-130.008	-0.715	-0.097
-131.341	46.938	-0.277	-0.255
-130.326	-78.681	-0.406	-0.138
-129.312	242.981	-0.683	-1.135
-128.297	-145.390	0.237	-0.021
-127.283	-200.000	0.066	0.352
-126.268	-41.792	-0.448	-0.228
-125.253	79.270	0.213	0.226
-124.239	574.184	-0.243	0.589
-123.224	77.453	0.187	-0.197
-122.210	154.090	0.645	-0.877
