DTS Sentinel unit serial number:	SN413079Multiplexer serial number:	ORYXHardware model number:	OX4-SRSoftware version number:	ORYX F/W v4.00 Oryx Data Collector v3.7.2.0data status	okinstallation	princeton_trtdifferential loss correction	single-endedforward channel	channel 4reverse channel	N/Adate	2019/09/18time	17:21:35forward acquisition time	60.00reverse acquisition time	0.00gamma	496.2192k internal	0.2288k external	0.2288temperature offset calibration	1.0008default loss term (dB/km)	0.3790temperature slope calibration	1.0000multiplexer offset coefficient	1.0000multiplexer slope coefficient	1.0000fibre end	0.00T internal ref (°C)	39.94T ext. ref 1 (°C)	0.89T ext. ref 2 (°C)	36.68length (m)	temperature (°C)	Stokes	anti-Stokes-747.200	12.368	0.208	0.165
-746.185	113.845	0.209	0.260
-745.171	-137.457	-0.193	-0.022
-744.156	-200.000	0.022	0.175
-743.142	57.759	0.106	0.106
-742.127	-27.795	0.312	0.185
-741.112	74.832	-0.195	-0.210
-740.098	24.010	0.327	0.277
-739.083	-14.282	0.106	0.070
-738.069	800.000	-0.145	0.410
-737.054	243.621	0.113	0.194
-736.039	-98.430	0.059	-0.015
-735.025	94.896	0.286	0.334
-734.010	-18.699	0.164	0.105
-732.996	29.100	-0.302	0.263
-731.981	283.593	-0.133	0.244
-730.966	59.551	-0.286	0.289
-729.952	-69.204	-0.316	-0.124
-728.937	-79.882	-0.379	-0.131
-727.923	283.321	0.084	-0.155
-726.908	69.641	-0.080	0.084
-725.894	87.081	-0.143	0.161
-724.879	-166.462	-0.118	-0.005
-723.864	-149.342	-0.289	-0.024
-722.850	-61.218	-0.097	0.042
-721.835	91.524	-0.301	-0.346
-720.821	220.881	0.040	-0.066
-719.806	800.000	0.057	-0.201
-718.791	-124.516	-0.175	-0.028
-717.777	-36.635	-0.180	-0.099
-716.762	246.153	-0.080	-0.139
-715.748	800.000	0.092	-0.387
-714.733	102.520	0.149	-0.179
-713.718	-194.329	0.360	0.003
-712.704	-86.497	-0.432	-0.136
-711.689	-200.000	0.009	-0.356
-710.675	283.504	0.014	-0.025
-709.660	-14.500	0.016	0.010
-708.645	-144.865	-0.280	-0.026
-707.631	50.168	0.103	-0.099
-706.616	-200.000	0.002	-0.053
-705.602	-29.720	0.253	-0.148
-704.587	90.284	-0.428	-0.491
-703.572	-200.000	-0.019	-0.219
-702.558	-88.458	0.175	-0.053
-701.543	527.360	-0.136	0.328
-700.529	236.157	0.036	0.060
-699.514	156.300	0.171	-0.242
-698.499	29.675	-0.215	0.187
-697.485	-58.975	-0.223	0.099
-696.470	-14.735	-0.181	-0.119
-695.456	-60.362	0.050	0.022
-694.441	3.099	0.112	-0.083
-693.426	22.511	0.055	0.046
-692.412	1.286	-0.197	-0.145
-691.397	383.573	-0.114	0.239
-690.383	32.512	0.111	0.098
-689.368	-200.000	0.017	0.237
-688.354	-20.272	-0.328	-0.206
-687.339	592.114	0.049	-0.123
-686.324	-66.331	-0.200	-0.082
-685.310	800.000	0.089	-0.271
-684.295	-122.239	0.189	0.032
-683.281	-155.056	-0.123	-0.008
-682.266	268.154	-0.122	0.219
-681.251	22.781	-0.177	-0.149
-680.237	-200.000	0.002	-0.353
-679.222	184.577	-0.099	-0.151
-678.208	-137.921	0.459	0.052
-677.193	86.013	-0.092	-0.104
-676.178	265.270	0.146	-0.261
-675.164	-44.391	0.114	0.058
-674.149	-53.810	-0.123	-0.057
-673.135	159.536	0.102	0.146
-672.120	-200.000	-0.004	-0.403
-671.105	613.366	-0.192	0.490
-670.091	-157.320	-0.115	0.007
-669.076	800.000	-0.064	0.216
-668.062	-47.691	-0.249	0.123
-667.047	-200.000	0.002	-0.502
-666.032	282.402	-0.178	0.326
-665.018	-48.522	0.189	-0.093
-664.003	180.940	-0.118	-0.178
-662.989	680.894	0.073	0.193
-661.974	580.751	0.033	0.082
-660.959	42.307	-0.059	-0.054
-659.945	149.286	-0.022	-0.031
-658.930	-8.081	-0.248	0.171
-657.916	203.555	0.165	0.261
-656.901	-93.188	-0.029	0.008
-655.886	-59.930	-0.328	0.143
-654.872	-147.487	0.182	-0.016
-653.857	389.001	-0.105	-0.223
-652.843	149.997	0.086	-0.119
-651.828	174.669	-0.108	0.159
-650.814	-200.000	0.029	0.133
-649.799	-113.507	-0.223	0.045
-648.784	-200.000	0.042	-0.320
-647.770	103.187	-0.174	-0.208
-646.755	-161.792	-0.189	0.010
-645.741	-171.895	-0.204	0.007
-644.726	44.467	0.028	0.027
-643.711	249.070	-0.093	0.162
-642.697	-75.026	-0.427	-0.156
-641.682	166.501	0.190	0.274
-640.668	16.941	-0.209	-0.169
-639.653	28.203	-0.158	-0.136
-638.638	-16.493	0.120	0.078
-637.624	800.000	-0.090	0.331
-636.609	-200.000	0.020	0.293
-635.595	142.087	-0.112	0.152
-634.580	209.360	0.054	-0.087
-633.565	43.915	0.071	0.066
-632.551	156.732	0.068	0.096
-631.536	326.220	-0.181	0.354
-630.522	23.379	0.119	0.099
-629.507	-129.364	0.253	0.036
-628.492	437.036	-0.100	0.223
-627.478	-172.539	0.216	0.007
-626.463	-200.000	-0.028	0.267
-625.449	-141.211	-0.077	-0.008
-624.434	10.909	0.148	-0.116
-623.419	-200.000	0.022	0.181
-622.405	-200.000	-0.030	0.411
-621.390	35.171	-0.175	0.156
-620.376	-24.181	-0.033	-0.020
-619.361	209.739	-0.140	-0.224
-618.346	465.305	-0.157	0.359
-617.332	-89.151	0.231	-0.070
-616.317	486.243	-0.214	0.498
-615.303	154.913	0.077	0.107
-614.288	-36.720	0.172	0.094
-613.273	337.453	0.197	-0.391
-612.259	-200.000	0.008	0.138
-611.244	-125.894	-0.407	-0.063
-610.230	-200.000	0.010	-0.133
-609.215	-33.073	0.165	0.093
-608.201	684.163	-0.092	0.245
-607.186	55.739	0.250	-0.248
-606.171	686.149	0.045	-0.121
-605.157	800.000	0.060	-0.219
-604.142	233.480	-0.132	0.221
-603.128	77.403	-0.135	0.146
-602.113	-124.886	-0.239	0.038
-601.098	-123.556	0.176	0.028
-600.084	800.000	-0.067	-0.193
-599.069	-35.053	0.182	-0.101
-598.055	-108.166	0.211	-0.047
-597.040	62.729	0.160	0.163
-596.025	-128.928	0.100	-0.014
-595.011	-200.000	-0.043	-0.267
-593.996	-200.000	-0.003	0.027
-592.982	93.554	-0.139	-0.160
-591.967	-25.832	0.051	0.031
-590.952	269.944	-0.100	0.179
-589.938	-129.702	-0.317	0.044
-588.923	-200.000	0.060	0.320
-587.909	-200.000	-0.052	0.289
-586.894	-88.546	0.129	-0.039
-585.879	92.608	0.238	-0.273
-584.865	-200.000	-0.024	-0.338
-583.850	459.100	-0.031	0.071
-582.836	49.825	-0.206	0.198
-581.821	-25.461	0.096	-0.058
-580.806	-126.886	-0.428	0.064
-579.792	-94.133	-0.222	-0.062
-578.777	-3.052	0.191	-0.135
-577.763	385.372	-0.041	-0.086
-576.748	-11.128	-0.297	0.200
-575.733	15.602	-0.239	-0.191
-574.719	-96.633	-0.203	-0.054
-573.704	-14.991	-0.329	0.215
-572.690	-113.268	0.065	0.013
-571.675	-94.231	-0.054	-0.015
-570.661	-200.000	0.042	-0.394
-569.646	30.391	-0.335	-0.292
-568.631	233.550	-0.119	-0.200
-567.617	189.535	-0.027	-0.041
-566.602	-116.867	0.372	-0.069
-565.588	-22.073	0.099	-0.061
-564.573	-113.768	-0.181	-0.036
-563.558	-200.000	0.014	0.146
-562.544	-193.323	0.182	0.002
-561.529	491.407	0.107	-0.250
-560.515	421.931	0.113	-0.246
-559.500	239.101	-0.093	0.158
-558.485	17.182	0.444	0.359
-557.471	-2.181	-0.469	0.335
-556.456	410.887	0.160	-0.345
-555.442	800.000	0.089	-0.305
-554.427	-41.333	-0.414	0.217
-553.412	108.757	0.082	0.099
-552.398	143.559	0.128	0.174
-551.383	519.226	0.078	0.185
-550.369	432.032	0.097	-0.213
-549.354	-122.460	0.276	0.046
-548.339	-200.000	0.012	0.113
-547.325	-115.837	-0.086	0.016
-546.310	372.103	-0.131	-0.270
-545.296	224.010	-0.123	-0.203
-544.281	252.501	-0.082	0.142
-543.266	393.562	-0.146	-0.310
-542.252	-72.117	0.096	0.036
-541.237	-128.564	0.611	-0.088
-540.223	168.231	0.104	0.150
-539.208	626.435	0.115	0.295
-538.193	-17.723	-0.152	0.097
-537.179	-136.796	-0.124	-0.015
-536.164	-63.554	0.295	0.123
-535.150	14.448	-0.104	-0.083
-534.135	172.404	-0.091	-0.134
-533.121	-67.744	0.129	-0.051
-532.106	-2.467	-0.177	-0.126
-531.091	550.990	0.118	0.289
-530.077	300.820	-0.109	0.205
-529.062	-122.017	0.180	0.030
-528.048	-191.373	0.028	0.000
-527.033	-115.726	-0.178	0.034
-526.018	93.315	0.245	-0.282
-525.004	226.915	-0.094	-0.154
-523.989	639.991	0.025	0.064
-522.975	-23.147	-0.181	0.111
-521.960	-136.530	-0.221	0.026
-520.945	-200.000	-0.005	0.398
-519.931	179.196	-0.189	0.282
-518.916	7.279	-0.132	-0.100
-517.902	-130.221	0.249	0.034
-516.887	-200.000	0.022	0.116
-515.872	-200.000	-0.086	-0.461
-514.858	-108.469	-0.336	-0.073
-513.843	800.000	-0.054	-0.176
-512.829	-65.991	0.045	0.018
-511.814	148.186	-0.062	0.084
-510.799	-200.000	-0.031	-0.213
-509.785	800.000	0.112	-0.421
-508.770	412.098	0.075	-0.162
-507.756	-146.703	-0.059	-0.005
-506.741	-14.712	-0.092	-0.060
-505.726	-200.000	0.032	-0.163
-504.712	213.866	-0.064	-0.104
-503.697	679.927	-0.065	0.173
-502.683	198.023	-0.091	0.141
-501.668	800.000	0.026	-0.113
-500.653	154.512	-0.062	0.086
-499.639	302.032	-0.195	0.366
-498.624	-200.000	-0.008	-0.100
-497.610	156.675	0.145	0.203
-496.595	-200.000	-0.038	-0.289
-495.581	159.691	0.112	-0.159
-494.566	-71.629	-0.183	-0.069
-493.551	73.595	0.110	0.117
-492.537	714.163	0.020	0.054
-491.522	-54.371	0.203	-0.094
-490.508	-68.862	0.229	0.090
-489.493	800.000	-0.034	-0.103
-488.478	-124.827	0.343	0.054
-487.464	269.333	0.083	0.148
-486.449	80.542	-0.117	-0.128
-485.435	280.184	-0.064	-0.115
-484.420	394.057	-0.074	0.157
-483.405	800.000	-0.079	-0.288
-482.391	-200.000	0.030	0.190
-481.376	-97.675	-0.191	0.050
-480.362	-200.000	-0.029	0.250
-479.347	-129.761	0.365	0.051
-478.332	270.511	-0.153	0.272
-477.318	68.186	0.130	-0.135
-476.303	-44.266	-0.309	-0.157
-475.289	2.196	-0.172	0.126
-474.274	-200.000	0.009	0.151
-473.259	-141.129	0.303	0.031
-472.245	344.324	0.040	0.080
-471.230	800.000	-0.030	-0.106
-470.216	-128.591	-0.094	-0.013
-469.201	-58.762	0.285	0.125
-468.186	70.396	0.154	0.162
-467.172	-71.651	-0.065	-0.024
-466.157	202.798	0.078	-0.122
-465.143	-92.289	-0.244	-0.070
-464.128	-23.521	0.064	0.039
-463.113	122.681	-0.236	0.300
-462.099	-49.444	-0.363	-0.175
-461.084	260.903	0.171	0.301
-460.070	-200.000	0.009	-0.134
-459.055	118.678	0.197	-0.246
-458.040	58.340	0.053	-0.052
-457.026	-129.823	-0.319	0.044
-456.011	-85.091	0.224	-0.071
-454.997	-200.000	0.026	0.158
-453.982	-156.876	-0.216	-0.013
-452.968	800.000	-0.039	0.110
-451.953	491.533	-0.067	0.155
-450.938	-200.000	-0.004	0.066
-449.924	51.435	0.277	0.267
-448.909	-150.868	-0.060	-0.005
-447.895	800.000	0.094	-0.336
-446.880	61.245	0.262	0.264
-445.865	81.556	0.170	0.186
-444.851	800.000	0.036	-0.102
-443.836	-65.407	0.075	-0.030
-442.822	800.000	-0.091	-0.323
-441.807	-103.430	-0.324	0.077
-440.792	800.000	0.017	0.049
-439.778	216.061	0.089	0.143
-438.763	46.298	0.344	-0.323
-437.749	-200.000	-0.037	-0.213
-436.734	-58.636	-0.304	-0.134
-435.719	800.000	-0.046	0.160
-434.705	-29.024	0.061	-0.036
-433.690	65.550	-0.069	-0.071
-432.676	-12.577	-0.095	0.063
-431.661	-143.832	-0.132	0.013
-430.646	-82.566	0.186	-0.061
-429.632	729.441	-0.134	-0.362
-428.617	-27.872	-0.401	0.235
-427.603	-21.051	0.126	0.078
-426.588	194.617	-0.085	0.130
-425.573	33.757	-0.109	0.096
-424.559	291.066	-0.092	0.170
-423.544	-92.349	0.253	0.072
-422.530	204.840	0.080	0.126
-421.515	-200.000	0.036	-0.201
-420.500	50.604	0.229	0.219
-419.486	-16.994	0.240	0.153
-418.471	-48.236	-0.205	0.100
-417.457	-94.475	0.440	0.121
-416.442	-9.501	-0.237	-0.160
-415.428	-149.890	-0.191	-0.015
-414.413	800.000	-0.007	0.025
-413.398	-138.679	0.281	0.031
-412.384	318.542	0.105	0.202
-411.369	-114.949	-0.242	-0.047
-410.355	-2.298	0.110	0.078
-409.340	800.000	-0.063	-0.267
-408.325	-71.304	-0.037	-0.014
-407.311	157.568	-0.194	-0.271
-406.296	301.589	-0.015	-0.027
-405.282	28.842	0.309	0.265
-404.267	-200.000	0.005	0.118
-403.252	-147.019	-0.031	0.003
-402.238	242.039	0.037	0.063
-401.223	565.210	0.096	-0.235
-400.209	-98.997	0.123	0.032
-399.194	-139.536	0.102	0.011
-398.179	20.946	-0.047	0.039
-397.165	-22.570	-0.306	-0.187
-396.150	800.000	0.065	-0.250
-395.136	-166.818	-0.157	0.007
-394.121	-168.931	-0.305	-0.012
-393.106	-89.208	0.135	-0.040
-392.092	393.699	-0.203	0.427
-391.077	-118.737	-0.135	0.024
-390.063	8.357	0.175	0.133
-389.048	247.169	0.102	-0.174
-388.033	355.342	-0.090	0.182
-387.019	202.468	-0.179	0.279
-386.004	-105.892	-0.354	-0.081
-384.990	-65.637	0.249	0.101
-383.975	263.239	0.212	0.372
-382.960	95.231	0.212	0.245
-381.946	-200.000	0.088	0.494
-380.931	-200.000	0.039	0.454
-379.917	800.000	0.028	0.116
-378.902	-200.000	-0.020	0.275
-377.888	-120.359	0.166	-0.029
-376.873	389.813	-0.128	0.269
-375.858	217.307	0.111	0.178
-374.844	-90.470	-0.120	0.035
-373.829	404.163	0.046	0.098
-372.815	420.633	0.069	-0.150
-371.800	646.694	-0.103	-0.267
-370.785	170.907	0.154	-0.223
-369.771	50.010	0.184	0.175
-368.756	800.000	0.056	0.159
-367.742	-22.959	0.305	-0.186
-366.727	-136.288	0.322	0.038
-365.712	66.905	-0.201	0.207
-364.698	-200.000	-0.053	-0.335
-363.683	-188.527	-0.093	0.001
-362.669	-84.945	0.307	-0.097
-361.654	-54.161	0.277	0.127
-360.639	89.771	-0.124	-0.140
-359.625	-66.030	-0.168	0.068
-358.610	-200.000	-0.003	-0.026
-357.596	-79.177	0.142	0.049
-356.581	465.958	-0.127	0.287
-355.566	800.000	-0.070	-0.297
-354.552	-14.147	-0.117	-0.076
-353.537	-107.512	0.177	-0.039
-352.523	-200.000	0.005	-0.054
-351.508	-200.000	0.015	0.089
-350.493	-28.891	0.049	0.029
-349.479	-122.188	0.395	0.065
-348.464	-14.990	0.313	-0.202
-347.450	74.013	-0.048	-0.051
-346.435	219.271	0.078	0.126
-345.420	800.000	-0.048	-0.187
-344.406	-4.176	-0.069	0.048
-343.391	112.358	-0.056	-0.069
-342.377	-58.138	0.427	-0.188
-341.362	800.000	0.075	-0.294
-340.348	-200.000	-0.053	0.287
-339.333	14.968	-0.190	-0.150
-338.318	-42.495	0.191	-0.098
-337.304	218.357	0.083	-0.134
-336.289	800.000	0.026	-0.100
-335.275	-6.053	0.138	-0.095
-334.260	-94.569	0.170	0.047
-333.245	-136.141	-0.175	0.021
-332.231	-86.709	0.153	-0.047
-331.216	-200.000	-0.009	-0.138
-330.202	-18.482	-0.116	-0.073
-329.187	-200.000	-0.005	0.280
-328.172	-42.430	0.225	-0.116
-327.158	3.506	-0.308	0.226
-326.143	-200.000	-0.017	0.198
-325.129	-1.723	0.090	0.064
-324.114	-124.217	-0.217	0.034
-323.099	119.764	-0.299	-0.373
-322.085	-189.099	0.109	-0.001
-321.070	-200.000	0.063	-0.399
-320.056	23.603	-0.114	-0.095
-319.041	800.000	0.108	0.312
-318.026	-200.000	-0.000	-0.328
-317.012	258.518	-0.175	-0.304
-315.997	800.000	-0.075	-0.233
-314.983	-60.227	-0.251	-0.108
-313.968	-23.904	0.179	-0.108
-312.953	340.747	0.041	-0.082
-311.939	-200.000	-0.003	0.164
-310.924	21.412	-0.084	0.069
-309.910	215.427	-0.039	0.062
-308.895	0.456	0.137	0.098
-307.880	452.019	-0.050	0.110
-306.866	-90.886	0.151	-0.044
-305.851	-162.576	-0.209	-0.010
-304.837	187.004	-0.232	0.348
-303.822	-200.000	0.021	0.246
-302.807	287.699	-0.111	0.203
-301.793	59.728	-0.102	0.101
-300.778	24.454	0.338	-0.281
-299.764	-152.504	-0.205	-0.015
-298.749	800.000	0.044	0.162
-297.735	-3.335	-0.249	0.175
-296.720	-200.000	-0.028	-0.275
-295.705	-126.829	0.233	0.035
-294.691	-25.676	-0.306	0.182
-293.676	-200.000	-0.011	0.152
-292.662	-106.079	-0.078	-0.018
-291.647	81.094	-0.218	-0.238
-290.632	237.340	0.121	0.201
-289.618	800.000	0.069	-0.240
-288.603	-137.050	-0.142	-0.016
-287.589	800.000	0.036	0.130
-286.574	50.589	0.257	0.245
-285.559	-200.000	-0.024	0.298
-284.545	-33.757	-0.228	0.127
-283.530	800.000	-0.032	0.118
-282.516	-97.742	-0.194	0.051
-281.501	106.921	-0.090	0.108
-280.486	59.549	0.062	0.062
-279.472	-22.715	0.076	0.046
-278.457	-200.000	0.015	-0.086
-277.443	-161.687	-0.081	0.004
-276.428	177.927	-0.028	0.041
-275.413	-200.000	-0.042	0.184
-274.399	800.000	0.075	0.234
-273.384	-58.272	0.247	-0.108
-272.370	690.068	-0.026	0.069
-271.355	-149.041	-0.247	-0.020
-270.340	-5.900	0.059	-0.041
-269.326	-16.811	0.051	0.033
-268.311	-97.611	0.216	-0.056
-267.297	732.534	0.041	-0.111
-266.282	-183.208	-0.335	-0.006
-265.267	98.083	0.119	0.138
-264.253	73.969	0.251	0.265
-263.238	223.829	0.118	-0.191
-262.224	114.752	-0.091	-0.112
-261.209	-200.000	-0.055	-0.285
-260.195	-200.000	0.042	-0.224
-259.180	-170.877	-0.305	-0.011
-258.165	13.537	0.261	-0.204
-257.151	800.000	0.088	0.300
-256.136	-200.000	-0.035	-0.441
-255.122	-200.000	0.013	0.204
-254.107	-37.749	0.291	0.156
-253.092	-200.000	0.006	-0.267
-252.078	800.000	0.075	-0.316
-251.063	-200.000	-0.010	-0.201
-250.049	237.362	0.065	-0.108
-249.034	81.946	0.176	-0.192
-248.019	49.274	0.206	0.195
-247.005	220.436	0.138	-0.222
-245.990	800.000	-0.006	-0.023
-244.976	354.759	0.112	-0.225
-243.961	69.144	-0.119	0.123
-242.946	78.872	-0.168	0.181
-241.932	378.185	0.098	0.201
-240.917	-101.622	0.196	-0.048
-239.903	-77.140	-0.317	0.111
-238.888	-111.912	0.168	-0.034
-237.873	-84.866	0.185	0.059
-236.859	789.303	-0.057	0.157
-235.844	800.000	0.022	-0.067
-234.830	-46.064	-0.236	-0.117
-233.815	171.955	0.211	0.305
-232.800	-200.000	0.005	-0.090
-231.786	749.923	0.108	-0.293
-230.771	651.647	-0.043	0.110
-229.757	-52.688	0.196	0.091
-228.742	-5.147	0.224	-0.155
-227.727	21.739	-0.302	0.247
-226.713	68.152	0.079	0.081
-225.698	467.959	-0.070	-0.157
-224.684	105.076	0.230	-0.273
-223.669	-31.197	0.169	0.096
-222.655	-89.193	0.094	-0.028
-221.640	-89.915	0.292	-0.086
-220.625	-13.890	0.257	0.167
-219.611	-13.184	-0.093	-0.061
-218.596	-54.167	0.142	-0.065
-217.582	57.159	0.211	0.207
-216.567	-66.323	-0.332	-0.133
-215.552	-105.177	-0.056	0.013
-214.538	800.000	0.031	0.119
-213.523	-142.084	-0.475	-0.047
-212.509	-100.039	-0.051	-0.013
-211.494	800.000	0.035	-0.144
-210.479	-88.210	-0.003	0.001
-209.465	800.000	0.069	-0.226
-208.450	-200.000	-0.017	0.193
-207.436	29.350	0.191	-0.163
-206.421	208.230	-0.123	-0.193
-205.406	-200.000	0.005	-0.219
-204.392	266.903	0.171	0.300
-203.377	-188.903	0.243	0.003
-202.363	-200.000	0.016	-0.315
-201.348	-47.439	0.413	-0.201
-200.333	4.297	-0.223	-0.164
-199.319	-200.000	0.005	-0.058
-198.304	-31.282	0.096	-0.055
-197.290	167.404	0.113	-0.161
-196.275	544.150	0.075	0.180
-195.260	385.939	-0.076	-0.157
-194.246	86.192	0.217	-0.240
-193.231	-108.339	-0.272	-0.059
-192.217	-200.000	-0.046	0.372
-191.202	312.196	0.103	-0.193
-190.187	-26.279	-0.141	-0.083
-189.173	800.000	0.035	-0.102
-188.158	40.274	-0.237	-0.214
-187.144	-59.803	-0.509	-0.218
-186.129	437.185	-0.098	0.215
-185.114	432.000	-0.034	-0.074
-184.100	675.918	-0.164	-0.427
-183.085	-200.000	0.008	-0.224
-182.071	420.223	-0.108	0.232
-181.056	-145.572	0.158	-0.014
-180.042	800.000	0.055	-0.180
-179.027	149.556	0.088	0.120
-178.012	54.177	0.298	0.288
-176.998	-200.000	-0.226	0.000
-175.983	-200.000	0.016	-0.279
-174.969	-144.205	-0.059	-0.005
-173.954	170.194	-0.149	-0.214
-172.939	-76.553	-0.247	-0.087
-171.925	480.798	-0.091	-0.207
-170.910	231.019	-0.103	0.168
-169.896	-24.518	0.292	-0.174
-168.881	-200.000	0.088	-0.400
-167.866	800.000	0.101	-0.340
-166.852	-81.510	-0.213	-0.070
-165.837	219.975	0.125	-0.201
-164.823	-67.389	-0.226	-0.089
-163.808	-200.000	-0.065	-0.513
-162.793	421.239	0.215	0.462
-161.779	800.000	0.061	0.177
-160.764	-131.211	0.099	0.013
-159.750	-7.659	-0.187	0.127
-158.735	800.000	-0.149	-0.467
-157.720	34.898	0.225	0.197
-156.706	229.741	-0.096	-0.157
-155.691	-167.868	0.169	-0.007
-154.677	70.062	0.131	0.135
-153.662	-104.970	-0.225	-0.052
-152.647	41.324	-0.454	0.411
-151.633	-144.489	0.201	-0.019
-150.618	-200.000	0.040	-0.225
-149.604	-200.000	-0.033	0.472
-148.589	-38.170	-0.253	-0.134
-147.574	-49.297	0.186	0.089
-146.560	19.921	-0.118	-0.095
-145.545	-2.242	0.144	-0.101
-144.531	-200.000	0.052	0.342
-143.516	-200.000	-0.024	-0.196
-142.502	-200.000	0.025	-0.122
-141.487	-78.828	0.305	0.104
-140.472	-101.250	0.078	0.019
-139.458	150.260	-0.161	-0.219
-138.443	-200.000	0.010	-0.145
-137.429	-113.166	0.145	0.029
-136.414	800.000	0.045	0.140
-135.399	18.950	0.236	0.189
-134.385	-95.061	0.115	-0.031
-133.370	721.992	-0.085	0.225
-132.356	-200.000	-0.024	0.202
-131.341	239.427	-0.030	-0.050
-130.326	-47.721	-0.061	0.030
-129.312	-155.969	0.192	0.012
-128.297	-200.000	0.012	0.126
-127.283	-132.356	0.326	-0.042
-126.268	72.496	-0.144	-0.150
-125.253	-98.034	0.150	-0.039
-124.239	275.114	0.124	-0.219
-123.224	576.832	0.018	-0.043
-122.210	-152.973	-0.199	0.014
-121.195	377.957	-0.032	0.066
