DTS Sentinel unit serial number:	SN413079Multiplexer serial number:	ORYXHardware model number:	OX4-SRSoftware version number:	ORYX F/W v4.00 Oryx Data Collector v3.7.2.0data status	okinstallation	princeton_trtdifferential loss correction	single-endedforward channel	channel 4reverse channel	N/Adate	2019/09/15time	22:01:34forward acquisition time	60.00reverse acquisition time	0.00gamma	496.2192k internal	0.2319k external	0.2319temperature offset calibration	0.9948default loss term (dB/km)	0.3790temperature slope calibration	1.0000multiplexer offset coefficient	1.0000multiplexer slope coefficient	1.0000fibre end	0.00T internal ref (°C)	29.83T ext. ref 1 (°C)	8.54T ext. ref 2 (°C)	22.92length (m)	temperature (°C)	Stokes	anti-Stokes-747.200	110.778	0.120	0.146
-746.185	-200.000	-0.023	0.186
-745.171	-200.000	0.004	0.020
-744.156	694.283	-0.089	0.237
-743.142	-16.654	0.191	0.122
-742.127	-200.000	-0.109	0.000
-741.112	2.414	-0.115	-0.084
-740.098	-119.143	-0.128	0.023
-739.083	94.027	-0.052	0.060
-738.069	569.419	-0.143	0.353
-737.054	800.000	0.017	-0.071
-736.039	127.801	-0.157	-0.202
-735.025	13.541	0.066	0.051
-734.010	-109.835	0.134	0.028
-732.996	-63.306	-0.191	0.080
-731.981	-172.617	-0.160	0.005
-730.966	103.245	0.166	-0.197
-729.952	20.170	0.208	-0.170
-728.937	130.443	-0.197	-0.255
-727.923	-18.481	0.090	-0.057
-726.908	-104.571	0.261	-0.061
-725.894	800.000	-0.053	-0.196
-724.879	67.219	0.148	-0.153
-723.864	144.247	0.079	-0.107
-722.850	-129.121	-0.413	0.058
-721.835	-191.238	0.521	0.005
-720.821	-176.153	0.237	0.006
-719.806	-175.893	-0.079	0.002
-718.791	-12.069	-0.188	0.124
-717.777	-200.000	0.026	-0.276
-716.762	-39.250	-0.191	0.101
-715.748	-200.000	-0.043	-0.312
-714.733	-170.464	-0.305	-0.011
-713.718	-200.000	0.006	0.068
-712.704	-97.711	0.132	-0.035
-711.689	361.641	0.109	0.220
-710.675	-8.782	0.084	-0.057
-709.660	157.569	0.152	-0.212
-708.645	-123.907	0.167	-0.027
-707.631	165.498	0.225	0.322
-706.616	65.659	-0.089	0.091
-705.602	376.753	0.149	-0.308
-704.587	-200.000	-0.080	0.503
-703.572	-138.817	-0.345	-0.038
-702.558	-48.427	0.155	-0.076
-701.543	84.968	0.113	-0.125
-700.529	800.000	-0.094	-0.311
-699.514	-162.091	0.331	0.017
-698.499	-151.590	-0.176	-0.013
-697.485	475.548	-0.156	0.356
-696.470	496.012	0.013	-0.029
-695.456	-200.000	-0.050	-0.355
-694.441	-100.986	-0.240	-0.060
-693.426	-165.908	-0.242	-0.010
-692.412	339.713	-0.163	-0.322
-691.397	158.789	0.188	0.263
-690.383	800.000	-0.030	-0.104
-689.368	-74.006	0.506	-0.185
-688.354	385.188	-0.034	-0.070
-687.339	-121.904	0.352	-0.058
-686.324	53.095	-0.120	0.116
-685.310	-5.212	-0.214	-0.149
-684.295	-41.127	0.374	0.195
-683.281	40.262	-0.172	-0.156
-682.266	66.034	0.129	0.132
-681.251	-81.453	0.313	-0.104
-680.237	86.761	0.283	0.316
-679.222	151.630	-0.149	0.205
-678.208	-21.457	-0.256	0.157
-677.193	800.000	0.028	0.101
-676.178	10.060	-0.191	-0.146
-675.164	150.046	0.219	-0.300
-674.149	66.930	0.279	-0.286
-673.135	78.296	-0.334	-0.360
-672.120	-31.389	0.108	-0.061
-671.105	425.226	-0.093	0.203
-670.091	-45.688	-0.227	-0.113
-669.076	-200.000	-0.050	-0.253
-668.062	114.273	-0.239	-0.293
-667.047	799.099	0.023	-0.063
-666.032	-95.100	0.067	0.018
-665.018	23.346	0.201	0.167
-664.003	800.000	-0.021	0.072
-662.989	-20.232	-0.117	-0.072
-661.974	152.166	-0.185	-0.254
-660.959	-116.912	0.273	-0.050
-659.945	-163.363	0.137	-0.007
-658.930	-105.237	-0.384	0.088
-657.916	-100.860	0.188	-0.047
-656.901	-200.000	0.017	0.146
-655.886	-78.627	0.233	-0.080
-654.872	62.422	-0.216	-0.218
-653.857	-76.411	-0.250	0.089
-652.843	142.284	-0.071	0.095
-651.828	342.751	0.104	-0.205
-650.814	-96.643	0.190	-0.050
-649.799	452.481	0.004	0.009
-648.784	-104.143	0.259	0.061
-647.770	-121.113	0.187	-0.032
-646.755	-81.573	-0.112	-0.037
-645.741	170.643	0.122	-0.176
-644.726	800.000	-0.117	-0.411
-643.711	115.916	0.202	0.249
-642.697	166.733	0.105	-0.151
-641.682	700.948	-0.061	-0.163
-640.668	24.243	-0.017	-0.014
-639.653	74.790	0.401	-0.425
-638.638	4.988	-0.260	0.193
-637.624	-107.117	0.114	0.025
-636.609	22.219	-0.048	-0.040
-635.595	800.000	0.041	0.132
-634.580	-200.000	0.012	-0.189
-633.565	136.928	0.221	-0.291
-632.551	96.424	0.112	0.130
-631.536	586.438	-0.071	-0.176
-630.522	-183.240	-0.038	-0.001
-629.507	180.662	0.155	-0.230
-628.492	-200.000	-0.035	-0.248
-627.478	25.398	-0.051	-0.043
-626.463	800.000	0.124	0.372
-625.449	176.830	-0.186	-0.272
-624.434	-83.770	0.135	0.043
-623.419	-11.887	-0.278	-0.184
-622.405	-165.557	-0.408	-0.018
-621.390	-200.000	0.030	0.161
-620.376	-70.582	-0.326	0.124
-619.361	40.220	0.137	0.124
-618.346	507.179	-0.008	0.018
-617.332	10.346	-0.179	-0.137
-616.317	-65.957	0.148	0.059
-615.303	800.000	0.093	-0.260
-614.288	-200.000	0.032	0.219
-613.273	-150.164	0.174	0.014
-612.259	-124.805	-0.299	-0.046
-611.244	-100.592	0.170	-0.042
-610.230	-42.126	-0.515	-0.265
-609.215	10.410	-0.199	-0.153
-608.201	96.003	0.098	-0.113
-607.186	245.818	0.149	0.253
-606.171	-200.000	0.048	0.477
-605.157	800.000	0.161	-0.487
-604.142	-32.299	-0.034	-0.019
-603.128	-200.000	0.012	-0.293
-602.113	127.603	0.143	-0.183
-601.098	-66.767	-0.181	-0.072
-600.084	-169.300	0.122	0.005
-599.069	800.000	0.021	-0.080
-598.055	119.699	-0.208	-0.259
-597.040	102.522	0.183	-0.215
-596.025	-84.785	0.136	-0.043
-595.011	-200.000	0.011	0.190
-593.996	205.251	0.115	0.179
-592.982	553.880	-0.101	0.244
-591.967	-148.355	0.378	-0.031
-590.952	-92.079	0.200	0.057
-589.938	-52.711	-0.332	0.154
-588.923	189.971	-0.100	0.151
-587.909	88.999	-0.014	-0.016
-586.894	55.385	0.066	-0.064
-585.879	-3.470	-0.172	-0.120
-584.865	-200.000	0.074	-0.344
-583.850	-74.206	-0.172	0.063
-582.836	83.741	-0.161	-0.176
-581.821	-0.218	0.229	0.163
-580.806	373.449	0.137	-0.280
-579.792	-37.686	0.014	-0.007
-578.777	238.716	0.140	0.234
-577.763	-199.451	0.384	-0.002
-576.748	-80.797	0.367	0.122
-575.733	-200.000	-0.025	-0.396
-574.719	206.695	0.041	-0.064
-573.704	489.735	0.042	-0.098
-572.690	-84.382	-0.243	0.077
-571.675	8.675	0.281	-0.213
-570.661	-200.000	-0.026	0.138
-569.646	1.392	0.187	0.135
-568.631	175.654	-0.063	-0.092
-567.617	-129.380	0.254	-0.036
-566.602	-45.372	-0.200	-0.100
-565.588	359.479	-0.044	-0.088
-564.573	6.078	-0.218	-0.162
-563.558	-43.257	0.286	-0.145
-562.544	-106.446	-0.535	0.120
-561.529	169.158	0.155	0.222
-560.515	-200.000	0.026	0.137
-559.500	-15.705	0.104	0.066
-558.485	800.000	-0.039	-0.159
-557.471	10.151	-0.226	-0.173
-556.456	511.073	0.113	0.263
-555.442	217.269	-0.061	0.097
-554.427	-129.572	-0.051	0.007
-553.412	458.179	0.059	0.131
-552.398	-17.921	-0.052	0.033
-551.383	-200.000	-0.015	-0.171
-550.369	800.000	-0.087	-0.338
-549.354	-44.132	0.048	-0.024
-548.339	21.128	0.205	0.167
-547.325	-200.000	0.011	-0.140
-546.310	-24.333	0.086	0.051
-545.296	-12.705	-0.071	0.047
-544.281	369.493	-0.144	0.294
-543.266	6.243	-0.175	-0.130
-542.252	-91.442	-0.163	0.047
-541.237	-91.568	-0.251	0.072
-540.223	233.280	0.215	0.355
-539.208	-120.993	-0.240	-0.041
-538.193	103.557	-0.033	0.039
-537.179	-149.609	-0.095	-0.007
-536.164	116.640	-0.094	-0.116
-535.150	-200.000	0.046	0.404
-534.135	54.582	-0.091	0.088
-533.121	-200.000	-0.006	0.110
-532.106	-20.477	-0.117	0.072
-531.091	-187.379	-0.235	0.003
-530.077	-200.000	-0.006	0.086
-529.062	800.000	0.024	-0.073
-528.048	99.690	0.162	0.188
-527.033	800.000	0.045	-0.161
-526.018	95.218	-0.285	0.326
-525.004	-5.719	0.135	-0.093
-523.989	-126.626	-0.173	0.026
-522.975	298.701	-0.116	0.213
-521.960	-200.000	-0.009	0.414
-520.945	57.451	0.073	-0.072
-519.931	-70.764	0.198	0.075
-518.916	-69.756	-0.105	-0.040
-517.902	-33.521	0.027	-0.015
-516.887	-154.618	0.230	-0.015
-515.872	102.465	0.024	-0.028
-514.858	-68.575	0.215	-0.084
-513.843	62.934	0.203	-0.204
-512.829	-110.104	-0.341	0.072
-511.814	-65.869	0.302	-0.121
-510.799	126.398	-0.035	0.044
-509.785	-200.000	-0.042	0.335
-508.770	211.441	-0.137	0.216
-507.756	159.855	-0.176	-0.246
-506.741	-48.477	-0.070	0.034
-505.726	-65.471	-0.055	-0.022
-504.712	94.371	-0.134	-0.153
-503.697	-93.512	-0.300	-0.083
-502.683	-106.738	0.385	-0.086
-501.668	-43.153	-0.378	0.192
-500.653	184.892	0.151	0.224
-499.639	-178.731	0.151	0.003
-498.624	-47.947	0.125	-0.060
-497.610	11.263	0.048	0.037
-496.595	-172.794	0.178	-0.006
-495.581	239.568	-0.037	0.061
-494.566	379.259	-0.047	0.097
-493.551	-127.178	-0.353	0.052
-492.537	198.568	-0.102	0.156
-491.522	295.597	0.092	-0.168
-490.508	77.277	-0.070	0.075
-489.493	-156.343	-0.164	-0.010
-488.478	596.127	-0.087	0.215
-487.464	68.526	-0.114	0.117
-486.449	4.546	0.036	-0.026
-485.435	-200.000	-0.008	0.078
-484.420	-200.000	0.002	-0.297
-483.405	-200.000	0.045	0.206
-482.391	26.924	-0.037	0.031
-481.376	-87.009	-0.235	0.072
-480.362	-200.000	-0.020	0.210
-479.347	99.869	-0.112	0.130
-478.332	350.695	-0.102	0.202
-477.318	-200.000	-0.017	-0.318
-476.303	56.071	0.053	0.052
-475.289	-51.577	-0.339	0.158
-474.274	-141.351	0.237	-0.024
-473.259	-78.957	-0.112	0.038
-472.245	-129.429	-0.258	-0.036
-471.230	-43.645	0.299	0.151
-470.216	-46.376	-0.131	0.065
-469.201	136.616	-0.216	-0.282
-468.186	-5.635	0.110	-0.076
-467.172	-200.000	-0.049	-0.219
-466.157	-120.874	0.115	-0.019
-465.143	-200.000	-0.022	0.194
-464.128	-200.000	-0.004	-0.202
-463.113	251.597	-0.079	-0.135
-462.099	78.403	-0.076	-0.081
-461.084	229.815	-0.081	0.132
-460.070	388.442	0.109	0.226
-459.055	94.486	-0.111	-0.126
-458.040	800.000	0.012	-0.044
-457.026	-49.570	-0.106	0.050
-456.011	-77.710	-0.280	-0.097
-454.997	800.000	0.043	0.122
-453.982	-200.000	0.003	-0.413
-452.968	-200.000	-0.046	0.384
-451.953	568.377	0.058	-0.142
-450.938	-200.000	-0.001	0.197
-449.924	-125.507	-0.132	-0.020
-448.909	-170.420	0.175	0.006
-447.895	499.057	-0.030	0.070
-446.880	-117.333	0.176	0.032
-445.865	298.584	-0.055	0.101
-444.851	-200.000	0.042	-0.201
-443.836	-97.955	-0.351	0.090
-442.822	-200.000	-0.021	-0.300
-441.807	-149.333	-0.211	0.017
-440.792	100.948	-0.100	-0.117
-439.778	-31.519	0.280	-0.157
-438.763	44.239	-0.158	-0.145
-437.749	800.000	-0.114	0.329
-436.734	-16.441	0.078	0.050
-435.719	-101.395	0.562	-0.137
-434.705	-200.000	-0.044	-0.560
-433.690	37.795	0.204	-0.181
-432.676	-200.000	0.226	0.001
-431.661	48.823	-0.160	0.150
-430.646	-140.883	0.086	-0.009
-429.632	-171.456	0.380	0.013
-428.617	149.947	-0.161	0.218
-427.603	40.052	0.131	-0.117
-426.588	-167.195	-0.261	0.011
-425.573	-200.000	0.024	0.192
-424.559	683.101	-0.083	0.216
-423.544	197.008	-0.184	-0.280
-422.530	46.592	0.276	0.256
-421.515	-23.251	-0.262	0.157
-420.500	440.282	-0.036	-0.079
-419.486	-200.000	-0.015	-0.159
-418.471	796.599	0.033	-0.091
-417.457	-63.328	0.239	-0.098
-416.442	233.123	-0.123	0.201
-415.428	-128.914	0.261	-0.037
-414.413	-92.992	0.205	0.057
-413.398	-42.709	-0.096	0.049
-412.384	800.000	-0.064	-0.248
-411.369	-64.090	0.400	-0.163
-410.355	279.892	-0.137	0.244
-409.340	-117.855	-0.253	0.045
-408.325	800.000	0.064	-0.233
-407.311	245.219	-0.085	-0.143
-406.296	10.806	0.148	-0.113
-405.282	308.635	-0.152	-0.284
-404.267	686.299	0.126	-0.328
-403.252	420.342	0.148	-0.316
-402.238	-73.754	-0.189	-0.069
-401.223	145.283	-0.234	0.312
-400.209	-162.149	-0.049	-0.002
-399.194	383.951	0.183	-0.376
-398.179	-115.538	-0.407	0.076
-397.165	96.679	-0.168	0.192
-396.150	584.627	0.082	-0.200
-395.136	-140.383	-0.062	-0.006
-394.121	-200.000	0.006	0.233
-393.106	-148.268	0.133	-0.011
-392.092	-11.100	0.292	0.192
-391.077	-171.192	-0.235	0.008
-390.063	355.492	-0.055	-0.109
-389.048	-168.989	0.184	0.007
-388.033	-27.086	0.165	-0.096
-387.019	225.408	-0.185	0.298
-386.004	-90.175	0.226	-0.066
-384.990	-185.591	-0.094	-0.001
-383.975	551.702	-0.108	0.258
-382.960	3.594	-0.107	0.078
-381.946	43.441	0.198	0.181
-380.931	-110.860	-0.330	-0.068
-379.917	128.451	-0.330	-0.419
-378.902	-173.159	-0.279	-0.009
-377.888	-82.432	-0.337	-0.109
-376.873	66.836	0.067	-0.068
-375.858	-163.205	-0.073	-0.003
-374.844	-200.000	-0.012	-0.252
-373.829	-200.000	0.025	0.229
-372.815	-200.000	-0.067	0.317
-371.800	27.847	-0.164	-0.138
-370.785	-97.059	0.131	-0.034
-369.771	-68.659	-0.316	-0.122
-368.756	-149.897	0.229	-0.018
-367.742	800.000	-0.050	0.168
-366.727	800.000	0.082	0.335
-365.712	176.944	0.122	0.177
-364.698	9.885	-0.137	0.104
-363.683	300.156	0.054	-0.100
-362.669	113.939	0.188	-0.228
-361.654	800.000	0.053	-0.151
-360.639	-52.191	-0.172	0.080
-359.625	90.824	0.180	-0.201
-358.610	37.456	0.308	0.272
-357.596	-200.000	-0.018	-0.179
-356.581	800.000	0.083	-0.234
-355.566	293.290	0.134	-0.244
-354.552	-200.000	0.033	-0.290
-353.537	70.500	-0.347	-0.358
-352.523	-176.947	-0.180	0.005
-351.508	146.355	0.160	0.214
-350.493	176.093	0.072	0.104
-349.479	-28.784	-0.235	0.135
-348.464	296.286	-0.066	0.121
-347.450	670.881	0.026	-0.068
-346.435	-67.399	0.268	-0.105
-345.420	800.000	0.037	-0.110
-344.406	-22.976	-0.213	-0.128
-343.391	650.742	0.110	-0.281
-342.377	137.052	0.200	-0.260
-341.362	-189.759	0.242	-0.003
-340.348	-200.000	-0.025	0.279
-339.333	-133.201	-0.153	-0.019
-338.318	-20.529	0.149	0.091
-337.304	800.000	-0.049	0.148
-336.289	287.640	0.056	0.100
-335.275	800.000	-0.038	0.164
-334.260	215.357	0.012	-0.018
-333.245	-200.000	0.029	-0.247
-332.231	-63.723	-0.336	-0.137
-331.216	202.415	0.150	0.231
-330.202	13.334	-0.011	0.009
-329.187	-70.935	0.102	0.038
-328.172	24.777	-0.108	-0.089
-327.158	205.050	0.153	0.236
-326.143	270.074	-0.088	0.155
-325.129	-200.000	0.005	0.134
-324.114	-200.000	0.013	0.084
-323.099	-89.522	0.095	-0.028
-322.085	-22.067	0.209	0.126
-321.070	437.154	-0.038	-0.081
-320.056	-200.000	0.015	-0.112
-319.041	18.554	-0.087	0.069
-318.026	-12.024	-0.193	0.126
-317.012	310.318	0.128	-0.238
-315.997	-200.000	0.006	0.118
-314.983	-200.000	-0.021	0.218
-313.968	800.000	-0.062	0.233
-312.953	-200.000	0.003	0.043
-311.939	-117.546	0.123	-0.022
-310.924	135.487	-0.153	-0.198
-309.910	-200.000	-0.057	0.250
-308.895	297.349	-0.058	0.107
-307.880	72.623	0.208	0.216
-306.866	800.000	0.019	-0.067
-305.851	21.215	-0.358	0.289
-304.837	482.851	-0.073	0.164
-303.822	40.466	0.241	-0.216
-302.807	-200.000	0.008	0.232
-301.793	-134.161	0.340	-0.042
-300.778	105.627	0.116	0.136
-299.764	-62.936	0.242	0.099
-298.749	-200.000	-0.018	-0.218
-297.735	-200.000	-0.044	-0.353
-296.720	-102.579	-0.158	-0.037
-295.705	-91.426	0.109	-0.031
-294.691	-135.091	0.295	0.035
-293.676	619.734	-0.170	-0.425
-292.662	-79.875	-0.099	0.033
-291.647	-110.922	-0.427	-0.087
-290.632	800.000	-0.145	0.419
-289.618	101.956	0.168	-0.194
-288.603	-91.119	0.308	-0.088
-287.589	-11.167	-0.104	-0.068
-286.574	303.577	0.067	-0.124
-285.559	-200.000	-0.003	0.472
-284.545	-200.000	-0.009	-0.274
-283.530	-22.269	-0.349	-0.210
-282.516	60.882	0.136	0.134
-281.501	-151.830	-0.593	0.043
-280.486	-159.896	0.203	0.011
-279.472	-70.139	0.227	0.086
-278.457	760.858	-0.092	-0.249
-277.443	800.000	0.023	0.087
-276.428	156.354	0.278	-0.381
-275.413	-56.619	0.137	0.060
-274.399	76.962	0.165	-0.174
-273.384	-138.260	-0.142	-0.016
-272.370	346.730	0.044	-0.086
-271.355	-17.608	-0.340	-0.213
-270.340	-130.500	-0.152	0.020
-269.326	800.000	-0.048	0.157
-268.311	800.000	-0.102	0.281
-267.297	-83.054	-0.127	-0.041
-266.282	-106.225	0.024	0.005
-265.267	-154.791	0.172	0.011
-264.253	32.090	-0.213	0.183
-263.238	800.000	0.043	0.119
-262.224	-37.398	0.171	-0.091
-261.209	54.499	0.148	0.141
-260.195	93.914	-0.350	0.394
-259.180	-55.868	0.203	0.090
-258.165	-82.769	-0.265	0.085
-257.151	41.930	0.206	0.185
-256.136	136.713	0.210	-0.273
-255.122	-200.000	-0.013	-0.435
-254.107	-200.000	-0.035	0.176
-253.092	262.029	-0.132	0.227
-252.078	-35.007	0.423	-0.229
-251.063	68.232	0.287	0.292
-250.049	416.698	0.067	0.142
-249.034	-200.000	-0.002	0.169
-248.019	48.034	0.294	-0.273
-247.005	-100.240	-0.293	-0.072
-245.990	-87.712	-0.350	0.105
-244.976	-83.128	-0.392	-0.125
-243.961	800.000	0.064	-0.200
-242.946	-200.000	-0.024	-0.223
-241.932	-154.457	-0.314	-0.021
-240.917	-60.302	0.102	-0.043
-239.903	-200.000	-0.008	0.211
-238.888	196.100	0.261	0.393
-237.873	-51.406	0.158	-0.073
-236.859	456.514	-0.229	-0.504
-235.844	800.000	0.095	0.273
-234.830	-105.626	-0.118	0.027
-233.815	-42.997	-0.103	0.052
-232.800	-200.000	0.079	0.543
-231.786	-200.000	0.001	0.147
-230.771	-200.000	-0.021	0.211
-229.757	-200.000	0.006	-0.083
-228.742	800.000	-0.095	-0.350
-227.727	401.320	-0.115	0.240
-226.713	-39.437	-0.096	-0.050
-225.698	-185.087	-0.120	-0.002
-224.684	-122.220	0.266	-0.043
-223.669	-200.000	0.042	0.405
-222.655	-200.000	0.036	0.180
-221.640	-21.123	-0.109	-0.066
-220.625	41.526	0.211	0.190
-219.611	10.155	0.173	-0.130
-218.596	33.803	0.271	0.233
-217.582	-200.000	-0.014	-0.199
-216.567	162.242	0.053	-0.074
-215.552	-200.000	-0.046	0.441
-214.538	529.706	0.119	0.277
-213.523	-80.933	0.131	-0.043
-212.509	-162.222	-0.160	-0.008
-211.494	-72.792	0.186	-0.068
-210.479	161.671	0.010	-0.013
-209.465	44.257	0.159	0.144
-208.450	-200.000	0.015	0.064
-207.436	800.000	-0.077	-0.321
-206.421	-200.000	-0.003	-0.161
-205.406	-126.805	-0.187	-0.027
-204.392	800.000	0.014	-0.040
-203.377	82.532	0.112	-0.120
-202.363	-200.000	0.005	-0.185
-201.348	-200.000	0.033	0.516
-200.333	800.000	0.016	-0.049
-199.319	-59.211	0.135	0.058
-198.304	-40.066	0.206	0.106
-197.290	-1.179	-0.222	0.155
-196.275	-19.990	0.133	-0.081
-195.260	-110.431	-0.077	0.016
-194.246	800.000	0.085	-0.280
-193.231	-144.557	0.265	-0.024
-192.217	-117.007	-0.255	-0.046
-191.202	99.762	-0.040	0.046
-190.187	137.274	0.253	-0.327
-189.173	507.301	-0.173	-0.399
-188.158	-97.577	0.222	-0.057
-187.144	800.000	-0.030	-0.092
-186.129	239.892	0.040	-0.065
-185.114	-78.770	0.368	0.124
-184.100	-96.342	-0.069	0.018
-183.085	-91.357	-0.418	0.118
-182.071	241.098	0.091	-0.150
-181.056	-14.721	0.048	0.030
-180.042	-30.106	0.531	0.299
-179.027	-200.000	-0.010	0.160
-178.012	695.203	-0.027	0.071
-176.998	32.623	0.146	-0.125
-175.983	-154.157	-0.404	-0.027
-174.969	-83.021	0.052	0.017
-173.954	525.114	0.090	0.209
-172.939	134.115	0.055	-0.071
-171.925	-29.195	-0.090	-0.051
-170.910	114.954	-0.090	0.109
-169.896	800.000	0.048	-0.145
-168.881	24.635	-0.094	-0.077
-167.866	-200.000	-0.043	0.286
-166.852	-200.000	-0.012	0.064
-165.837	-200.000	-0.050	-0.257
-164.823	213.620	0.157	0.246
-163.808	353.469	-0.077	-0.152
-162.793	-105.526	0.062	0.014
-161.779	-0.089	0.052	0.036
-160.764	-151.468	0.257	0.019
-159.750	255.542	-0.147	-0.250
-158.735	-26.951	0.288	0.166
-157.720	99.577	0.032	-0.036
-156.706	4.924	-0.260	0.189
-155.691	-24.102	0.243	0.143
-154.677	-75.897	0.313	-0.110
-153.662	-136.580	-0.341	-0.039
-152.647	-200.000	-0.002	-0.056
-151.633	-200.000	0.048	0.240
-150.618	800.000	-0.056	0.216
-149.604	800.000	0.019	-0.070
-148.589	-171.326	0.409	0.014
-147.574	-104.767	-0.167	-0.038
-146.560	-3.937	0.071	0.049
-145.545	800.000	-0.048	-0.199
-144.531	308.024	-0.196	-0.361
-143.516	-200.000	0.024	-0.240
-142.502	122.863	-0.053	-0.066
-141.487	74.363	-0.267	0.277
-140.472	141.715	-0.201	-0.263
-139.458	-101.660	0.055	-0.013
-138.443	-95.948	-0.113	0.030
-137.429	-200.000	0.004	-0.188
-136.414	-154.076	0.273	-0.018
-135.399	-178.317	-0.125	0.003
-134.385	-69.026	0.271	0.103
-133.370	-87.344	0.177	-0.053
-132.356	89.301	0.335	-0.369
-131.341	-200.000	0.003	0.118
-130.326	645.232	-0.033	0.084
-129.312	800.000	0.012	0.035
-128.297	288.214	0.072	-0.128
-127.283	800.000	0.005	-0.021
-126.268	406.097	0.094	-0.196
-125.253	219.513	-0.081	0.128
-124.239	-35.936	0.186	-0.099
-123.224	661.534	-0.127	-0.322
-122.210	-177.183	0.159	0.004
