DTS Sentinel unit serial number:	SN413079Multiplexer serial number:	ORYXHardware model number:	OX4-SRSoftware version number:	ORYX F/W v4.00 Oryx Data Collector v3.7.2.0data status	okinstallation	princeton_trtdifferential loss correction	single-endedforward channel	channel 4reverse channel	N/Adate	2019/09/18time	06:01:35forward acquisition time	60.00reverse acquisition time	0.00gamma	496.2192k internal	0.2333k external	0.2333temperature offset calibration	0.9999default loss term (dB/km)	0.3790temperature slope calibration	1.0000multiplexer offset coefficient	1.0000multiplexer slope coefficient	1.0000fibre end	0.00T internal ref (°C)	23.19T ext. ref 1 (°C)	0.18T ext. ref 2 (°C)	17.64length (m)	temperature (°C)	Stokes	anti-Stokes-747.200	-45.209	0.132	0.066
-746.185	-200.000	-0.045	0.206
-745.171	-109.899	-0.095	0.020
-744.156	-105.190	-0.233	0.053
-743.142	-112.618	0.227	0.046
-742.127	-108.727	-0.492	0.106
-741.112	-150.880	-0.158	0.012
-740.098	77.930	-0.242	0.260
-739.083	-36.073	0.213	-0.115
-738.069	-8.122	-0.241	0.163
-737.054	-200.000	0.040	0.275
-736.039	-49.949	-0.218	-0.104
-735.025	800.000	0.031	0.115
-734.010	164.717	-0.099	-0.140
-732.996	800.000	0.081	-0.333
-731.981	145.107	-0.053	0.071
-730.966	-90.702	-0.374	0.108
-729.952	228.852	0.288	-0.472
-728.937	-64.515	-0.091	-0.037
-727.923	800.000	0.063	0.176
-726.908	121.002	-0.205	-0.256
-725.894	-78.191	0.070	-0.024
-724.879	-200.000	-0.063	-0.469
-723.864	-32.568	-0.082	0.046
-722.850	-107.158	-0.273	-0.060
-721.835	175.922	-0.075	-0.109
-720.821	800.000	-0.102	-0.315
-719.806	-84.208	-0.350	-0.112
-718.791	-183.365	-0.177	0.003
-717.777	-200.000	0.007	0.112
-716.762	-96.016	-0.073	0.019
-715.748	-83.253	-0.172	-0.056
-714.733	-200.000	-0.042	-0.242
-713.718	-53.660	0.043	0.020
-712.704	-34.272	0.158	0.087
-711.689	130.704	-0.068	-0.087
-710.675	80.965	0.106	-0.115
-709.660	21.909	-0.044	0.036
-708.645	-140.705	0.212	-0.022
-707.631	800.000	0.025	-0.101
-706.616	-200.000	-0.008	0.172
-705.602	-22.596	0.288	0.175
-704.587	-200.000	-0.016	0.313
-703.572	-200.000	-0.002	0.167
-702.558	-132.668	0.188	0.024
-701.543	-117.287	-0.235	0.043
-700.529	800.000	0.107	0.335
-699.514	206.314	-0.065	-0.101
-698.499	295.705	0.199	-0.366
-697.485	245.687	-0.154	-0.261
-696.470	-77.205	0.084	0.029
-695.456	-49.631	-0.212	-0.101
-694.441	2.723	0.024	0.018
-693.426	-200.000	0.017	0.334
-692.412	7.141	0.134	0.101
-691.397	-41.369	0.225	-0.116
-690.383	-127.528	-0.214	-0.031
-689.368	419.778	-0.079	0.169
-688.354	511.581	-0.180	-0.421
-687.339	304.762	-0.133	-0.247
-686.324	-200.000	-0.032	-0.331
-685.310	3.762	-0.075	0.055
-684.295	34.355	-0.156	-0.136
-683.281	800.000	-0.043	-0.122
-682.266	800.000	0.031	0.112
-681.251	691.681	0.104	0.273
-680.237	255.018	-0.133	0.228
-679.222	4.842	0.068	-0.050
-678.208	-65.889	0.110	-0.044
-677.193	-99.238	-0.270	-0.068
-676.178	-86.648	-0.192	-0.059
-675.164	-200.000	-0.032	0.229
-674.149	-140.131	-0.109	-0.011
-673.135	55.724	-0.160	0.156
-672.120	98.983	-0.110	-0.128
-671.105	315.222	-0.135	-0.255
-670.091	759.878	-0.052	0.140
-669.076	-42.795	0.161	0.082
-668.062	188.910	-0.155	-0.233
-667.047	-190.692	0.058	0.001
-666.032	369.998	-0.061	-0.125
-665.018	-102.480	-0.211	-0.051
-664.003	-153.942	0.083	-0.006
-662.989	-200.000	0.010	0.178
-661.974	-140.442	0.154	-0.016
-660.959	-8.325	0.088	0.059
-659.945	-19.285	-0.290	-0.180
-658.930	-200.000	-0.030	-0.161
-657.916	-32.506	0.176	-0.098
-656.901	800.000	-0.073	-0.253
-655.886	-147.371	0.091	-0.008
-654.872	44.435	-0.181	-0.166
-653.857	-120.336	-0.304	-0.052
-652.843	95.716	0.116	-0.133
-651.828	-116.293	0.068	0.013
-650.814	345.507	0.121	0.238
-649.799	191.540	0.091	-0.138
-648.784	800.000	-0.076	-0.228
-647.770	331.167	-0.124	-0.239
-646.755	800.000	0.061	0.262
-645.741	47.507	0.219	0.205
-644.726	-25.534	0.147	-0.087
-643.711	217.415	0.048	0.077
-642.697	69.372	-0.193	-0.199
-641.682	370.552	-0.058	-0.117
-640.668	201.581	0.123	-0.190
-639.653	-70.561	-0.303	0.115
-638.638	530.684	-0.041	-0.098
-637.624	-200.000	0.012	-0.214
-636.609	244.702	0.158	0.266
-635.595	744.384	-0.034	-0.091
-634.580	800.000	0.032	0.118
-633.565	695.099	-0.187	0.491
-632.551	196.558	0.062	0.094
-631.536	131.850	-0.184	-0.238
-630.522	-14.409	0.137	0.088
-629.507	64.957	0.091	-0.092
-628.492	-86.687	0.269	-0.082
-627.478	-200.000	0.011	0.058
-626.463	-89.798	0.078	0.023
-625.449	-122.184	-0.188	-0.031
-624.434	403.526	0.125	-0.264
-623.419	100.366	-0.194	0.225
-622.405	-200.000	0.000	0.234
-621.390	800.000	0.034	-0.103
-620.376	800.000	0.049	-0.146
-619.361	-24.117	0.355	0.212
-618.346	-200.000	0.006	-0.052
-617.332	64.433	-0.134	-0.135
-616.317	-1.356	0.194	0.137
-615.303	-172.149	-0.308	0.010
-614.288	25.800	0.258	-0.215
-613.273	563.338	0.095	-0.230
-612.259	349.488	0.092	-0.181
-611.244	-103.975	0.140	-0.033
-610.230	395.442	-0.075	0.157
-609.215	-107.958	-0.478	-0.104
-608.201	274.822	0.079	0.139
-607.186	-5.420	0.223	-0.153
-606.171	546.268	-0.070	-0.168
-605.157	-200.000	0.045	0.201
-604.142	64.368	0.148	-0.149
-603.128	-200.000	0.047	-0.321
-602.113	-82.959	-0.312	-0.101
-601.098	19.876	-0.298	-0.240
-600.084	-103.895	0.107	0.025
-599.069	481.377	-0.113	-0.256
-598.055	61.062	-0.036	-0.036
-597.040	-200.000	-0.010	0.182
-596.025	12.645	0.200	0.154
-595.011	800.000	-0.133	0.448
-593.996	-66.600	0.290	-0.115
-592.982	13.944	-0.127	-0.099
-591.967	445.280	0.082	-0.180
-590.952	-21.478	-0.122	0.075
-589.938	-200.000	-0.064	-0.311
-588.923	360.738	-0.040	0.080
-587.909	-200.000	0.020	-0.163
-586.894	-79.478	0.253	-0.086
-585.879	38.253	0.150	0.133
-584.865	-58.579	0.191	-0.083
-583.850	800.000	-0.063	-0.186
-582.836	-90.160	0.097	0.028
-581.821	161.827	-0.166	0.232
-580.806	258.990	0.156	-0.269
-579.792	2.844	0.171	0.124
-578.777	-93.489	-0.190	0.053
-577.763	800.000	-0.055	-0.210
-576.748	-176.176	0.282	0.007
-575.733	117.548	-0.068	0.084
-574.719	168.080	0.209	0.296
-573.704	-12.639	-0.097	-0.063
-572.690	-46.013	-0.103	-0.051
-571.675	-200.000	0.014	-0.077
-570.661	18.612	0.299	-0.239
-569.646	-48.246	0.086	0.041
-568.631	-19.613	0.224	0.139
-567.617	-200.000	-0.016	0.103
-566.602	-200.000	0.001	-0.264
-565.588	-31.449	-0.224	-0.126
-564.573	800.000	-0.086	0.306
-563.558	-126.604	-0.162	0.024
-562.544	182.053	0.193	-0.284
-561.529	564.647	0.029	-0.070
-560.515	-178.671	-0.059	-0.001
-559.500	-12.382	0.240	0.157
-558.485	159.310	0.110	-0.153
-557.471	-150.028	0.257	-0.020
-556.456	31.737	-0.066	0.057
-555.442	-3.898	0.070	-0.048
-554.427	800.000	-0.026	0.088
-553.412	-200.000	0.016	0.315
-552.398	-75.366	-0.151	-0.054
-551.383	-99.782	-0.128	-0.032
-550.369	-33.173	-0.227	0.125
-549.354	800.000	-0.085	-0.276
-548.339	6.720	-0.193	-0.143
-547.325	-114.575	-0.183	0.035
-546.310	-110.890	0.183	-0.038
-545.296	42.434	-0.150	-0.136
-544.281	29.507	0.135	-0.115
-543.266	441.065	-0.082	0.179
-542.252	-200.000	-0.050	0.223
-541.237	-200.000	-0.070	-0.423
-540.223	52.019	-0.179	0.170
-539.208	-20.916	0.055	0.033
-538.193	-72.165	0.117	0.043
-537.179	-87.143	-0.079	0.024
-536.164	-200.000	0.018	-0.126
-535.150	30.577	0.314	-0.268
-534.135	-34.132	-0.197	-0.108
-533.121	-73.997	-0.089	-0.032
-532.106	-200.000	0.023	-0.145
-531.091	44.845	0.171	-0.157
-530.077	758.429	-0.091	0.246
-529.062	-87.698	-0.040	-0.012
-528.048	-19.537	0.136	0.084
-527.033	-88.480	0.193	-0.057
-526.018	-200.000	0.002	0.054
-525.004	-71.554	0.362	-0.135
-523.989	800.000	0.078	0.235
-522.975	-49.736	0.053	-0.025
-521.960	800.000	-0.019	0.063
-520.945	40.843	-0.107	-0.097
-519.931	800.000	0.076	-0.261
-518.916	-200.000	-0.016	0.281
-517.902	60.189	0.127	-0.125
-516.887	-99.021	-0.215	-0.054
-515.872	59.731	-0.068	-0.067
-514.858	240.226	-0.058	0.096
-513.843	105.509	0.255	-0.301
-512.829	-108.687	-0.454	0.097
-511.814	-200.000	0.048	0.332
-510.799	-155.126	0.209	-0.014
-509.785	-145.439	0.104	0.009
-508.770	-200.000	-0.032	0.247
-507.756	-23.147	0.133	0.080
-506.741	800.000	-0.071	-0.247
-505.726	764.109	-0.104	0.282
-504.712	-200.000	0.019	0.124
-503.697	-62.381	0.092	0.038
-502.683	-105.287	0.073	-0.017
-501.668	704.573	-0.006	-0.017
-500.653	188.238	-0.036	0.054
-499.639	263.168	0.036	-0.061
-498.624	-200.000	-0.040	-0.206
-497.610	-146.880	-0.127	-0.011
-496.595	80.895	-0.124	-0.133
-495.581	-123.579	-0.572	-0.090
-494.566	-86.959	-0.139	-0.042
-493.551	-91.787	0.438	-0.124
-492.537	90.688	0.097	-0.108
-491.522	800.000	-0.020	0.081
-490.508	18.278	0.131	-0.104
-489.493	654.790	-0.049	-0.125
-488.478	-200.000	-0.003	-0.217
-487.464	800.000	0.070	0.290
-486.449	-200.000	0.007	-0.308
-485.435	184.371	-0.312	-0.459
-484.420	800.000	0.077	0.236
-483.405	111.485	-0.197	-0.237
-482.391	-129.679	0.192	-0.026
-481.376	-15.617	-0.217	0.138
-480.362	-200.000	0.018	-0.104
-479.347	-42.267	-0.306	-0.155
-478.332	49.970	0.145	-0.136
-477.318	800.000	0.106	-0.352
-476.303	800.000	-0.049	-0.193
-475.289	-41.215	-0.526	0.270
-474.274	-166.737	-0.227	-0.009
-473.259	62.540	-0.124	0.123
-472.245	-5.034	0.072	0.049
-471.230	-21.204	-0.174	-0.106
-470.216	-150.243	-0.073	-0.006
-469.201	15.176	0.111	-0.087
-468.186	-72.219	0.190	0.070
-467.172	-105.456	0.223	-0.050
-466.157	-16.485	-0.105	0.066
-465.143	-87.155	-0.179	0.054
-464.128	347.732	-0.041	0.080
-463.113	31.243	0.270	-0.231
-462.099	-34.557	-0.288	-0.157
-461.084	-126.870	0.231	-0.034
-460.070	-200.000	0.022	0.365
-459.055	-8.064	0.217	0.145
-458.040	-200.000	-0.092	-0.438
-457.026	174.915	-0.145	0.209
-456.011	730.302	-0.090	0.240
-454.997	59.250	0.124	0.122
-453.982	31.515	0.139	0.119
-452.968	-68.983	-0.262	0.100
-451.953	160.637	0.133	0.185
-450.938	-36.952	-0.398	0.212
-449.924	-200.000	0.038	-0.176
-448.909	703.093	-0.069	-0.181
-447.895	303.490	-0.074	0.137
-446.880	100.822	0.126	0.146
-445.865	-3.073	-0.302	0.210
-444.851	-70.259	0.167	-0.063
-443.836	255.882	0.212	0.361
-442.822	-200.000	0.088	0.477
-441.807	-55.048	-0.276	0.124
-440.792	375.366	0.150	0.304
-439.778	-200.000	0.029	-0.145
-438.763	-67.193	-0.160	-0.063
-437.749	-19.042	0.269	-0.166
-436.734	-59.660	-0.289	0.123
-435.719	334.755	-0.093	0.178
-434.705	800.000	0.049	-0.191
-433.690	-200.000	0.025	-0.299
-432.676	-200.000	-0.013	0.066
-431.661	52.196	-0.119	0.113
-430.646	-200.000	0.060	-0.290
-429.632	-114.689	-0.305	0.058
-428.617	0.225	0.058	0.041
-427.603	-200.000	0.084	0.415
-426.588	800.000	-0.075	-0.223
-425.573	-200.000	0.018	0.198
-424.559	-117.669	-0.208	-0.037
-423.544	187.195	0.118	-0.175
-422.530	-200.000	0.063	-0.380
-421.515	-24.641	0.299	-0.177
-420.500	800.000	0.058	0.188
-419.486	800.000	0.020	-0.071
-418.471	-4.475	0.042	-0.029
-417.457	-14.234	-0.194	0.124
-416.442	151.789	-0.194	0.262
-415.428	-72.672	-0.276	-0.101
-414.413	-73.455	0.174	0.063
-413.398	271.225	0.032	-0.057
-412.384	-98.909	0.280	-0.071
-411.369	-142.702	-0.320	-0.031
-410.355	119.205	-0.151	0.185
-409.340	800.000	0.032	0.137
-408.325	443.535	0.110	0.239
-407.311	21.578	0.277	-0.224
-406.296	28.403	-0.152	0.127
-405.282	-92.889	0.122	-0.034
-404.267	70.726	0.108	-0.111
-403.252	304.448	-0.155	0.285
-402.238	149.056	-0.174	-0.234
-401.223	-25.766	0.182	-0.106
-400.209	-125.150	0.145	-0.022
-399.194	-30.363	-0.160	-0.090
-398.179	202.828	0.168	0.257
-397.165	-200.000	-0.049	-0.453
-396.150	191.389	-0.038	0.057
-395.136	-72.051	0.244	0.090
-394.121	-79.986	0.272	0.090
-393.106	-200.000	0.057	0.276
-392.092	-200.000	-0.009	-0.041
-391.077	32.921	-0.353	0.303
-390.063	-38.938	0.159	-0.083
-389.048	72.022	0.166	0.171
-388.033	-112.615	0.250	0.049
-387.019	-20.613	0.278	0.169
-386.004	125.235	0.079	0.098
-384.990	-200.000	0.024	-0.171
-383.975	-200.000	0.017	0.129
-382.960	-200.000	0.034	0.209
-381.946	776.131	-0.024	-0.066
-380.931	-200.000	0.001	0.179
-379.917	-103.461	0.193	0.045
-378.902	-21.223	0.103	0.062
-377.888	-166.075	-0.126	0.005
-376.873	-73.593	-0.327	0.118
-375.858	-64.184	-0.194	0.078
-374.844	-200.000	0.038	-0.331
-373.829	91.286	0.218	0.242
-372.815	753.934	0.025	-0.067
-371.800	127.128	-0.063	-0.079
-370.785	111.862	0.067	-0.081
-369.771	800.000	-0.076	-0.255
-368.756	-7.702	0.128	0.086
-367.742	-200.000	-0.024	0.109
-366.727	-200.000	0.052	-0.244
-365.712	-29.289	0.228	-0.129
-364.698	233.857	-0.099	0.162
-363.683	-200.000	0.012	0.075
-362.669	-100.587	0.182	0.045
-361.654	-200.000	0.019	0.122
-360.639	-10.927	-0.158	0.103
-359.625	800.000	0.077	-0.332
-358.610	75.592	0.066	-0.069
-357.596	43.332	0.214	-0.194
-356.581	-200.000	0.022	0.232
-355.566	189.125	0.145	0.216
-354.552	33.447	0.020	0.018
-353.537	198.752	0.063	0.095
-352.523	83.388	0.221	-0.238
-351.508	-60.870	-0.181	0.076
-350.493	-80.947	-0.416	0.137
-349.479	360.426	-0.260	0.516
-348.464	-86.255	0.186	0.057
-347.450	-160.098	0.011	-0.001
-346.435	-87.284	0.113	-0.034
-345.420	-77.012	0.278	-0.096
-344.406	-200.000	-0.050	-0.356
-343.391	-200.000	0.056	0.277
-342.377	3.038	0.208	0.150
-341.362	-116.997	0.097	-0.018
-340.348	159.650	0.077	-0.106
-339.333	30.320	-0.248	-0.210
-338.318	32.494	0.235	-0.201
-337.304	101.617	-0.189	0.218
-336.289	24.542	-0.104	0.085
-335.275	77.789	0.059	-0.062
-334.260	-141.760	-0.325	-0.032
-333.245	-9.674	0.290	-0.191
-332.231	-69.430	-0.237	0.090
-331.216	-77.680	0.208	0.071
-330.202	-33.901	-0.363	0.198
-329.187	157.134	-0.040	0.054
-328.172	94.294	-0.067	0.075
-327.158	800.000	-0.035	0.134
-326.143	-124.608	-0.276	0.042
-325.129	95.007	-0.077	-0.087
-324.114	-90.669	-0.325	-0.093
-323.099	93.513	0.194	-0.217
-322.085	-125.004	-0.052	0.008
-321.070	191.656	0.021	-0.031
-320.056	408.161	-0.110	0.229
-319.041	800.000	-0.111	-0.360
-318.026	105.523	-0.228	-0.266
-317.012	153.666	0.176	-0.239
-315.997	-140.989	-0.161	-0.016
-314.983	425.075	-0.071	0.151
-313.968	-71.224	-0.318	0.118
-312.953	20.794	-0.182	-0.145
-311.939	-163.021	0.415	-0.020
-310.924	379.447	-0.091	0.184
-309.910	-4.053	-0.269	-0.184
-308.895	-42.964	0.295	-0.148
-307.880	-174.327	0.248	-0.007
-306.866	40.314	0.340	0.303
-305.851	-15.468	0.019	-0.012
-304.837	-123.174	-0.177	0.028
-303.822	-114.606	0.107	0.020
-302.807	-129.959	0.231	-0.031
-301.793	-200.000	-0.000	0.149
-300.778	94.988	-0.087	0.098
-299.764	-200.000	0.010	-0.070
-298.749	-200.000	0.055	-0.362
-297.735	-89.744	0.414	-0.120
-296.720	800.000	-0.051	-0.204
-295.705	-8.113	0.255	-0.170
-294.691	-200.000	-0.000	-0.110
-293.676	581.162	0.041	0.098
-292.662	-99.152	-0.195	-0.049
-291.647	465.444	0.031	-0.068
-290.632	392.497	-0.062	0.127
-289.618	19.827	-0.158	0.126
-288.603	-128.754	-0.154	-0.021
-287.589	-200.000	-0.060	0.408
-286.574	68.687	0.115	0.116
-285.559	21.265	-0.033	0.027
-284.545	-71.623	-0.213	0.078
-283.530	217.985	-0.063	0.100
-282.516	-200.000	-0.050	-0.268
-281.501	-23.679	-0.231	-0.137
-280.486	318.374	0.124	-0.232
-279.472	207.126	-0.077	0.119
-278.457	-92.330	0.183	-0.051
-277.443	-165.273	-0.033	-0.001
-276.428	-15.999	0.117	-0.074
-275.413	-9.750	-0.091	-0.060
-274.399	-14.889	0.048	0.030
-273.384	-23.407	0.336	0.199
-272.370	-49.370	0.088	0.042
-271.355	411.705	-0.164	0.344
-270.340	271.677	-0.081	-0.140
-269.326	800.000	0.033	-0.098
-268.311	171.894	0.151	0.214
-267.297	-200.000	0.124	0.585
-266.282	-99.598	0.241	0.060
-265.267	-200.000	0.033	-0.181
-264.253	60.234	0.196	0.191
-263.238	-87.827	-0.196	0.058
-262.224	800.000	0.079	0.289
-261.209	115.513	-0.176	-0.212
-260.195	-120.439	0.030	-0.005
-259.180	49.126	0.296	0.274
-258.165	800.000	0.032	0.092
-257.151	-30.690	0.070	-0.039
-256.136	232.286	0.047	-0.076
-255.122	321.693	0.074	0.140
-254.107	34.102	0.145	-0.125
-253.092	50.618	0.028	-0.026
-252.078	-200.000	-0.049	-0.215
-251.063	-73.595	0.045	-0.016
-250.049	-200.000	-0.037	0.421
-249.034	-165.246	-0.216	0.009
-248.019	95.887	-0.161	0.181
-247.005	-200.000	-0.009	-0.178
-245.990	17.571	0.154	-0.121
-244.976	800.000	-0.117	0.425
-243.961	139.361	-0.190	0.247
-242.946	390.601	-0.138	-0.282
-241.932	54.536	0.037	-0.035
-240.917	-200.000	-0.036	0.235
-239.903	-200.000	0.019	0.166
-238.888	-200.000	-0.008	0.145
-237.873	156.691	-0.081	-0.110
-236.859	9.379	-0.383	0.286
-235.844	-200.000	0.010	-0.059
-234.830	568.587	0.039	-0.093
-233.815	-127.267	-0.050	0.007
-232.800	394.911	0.081	-0.166
-231.786	800.000	0.084	-0.274
-230.771	-200.000	0.030	0.326
-229.757	90.127	-0.101	0.111
-228.742	-200.000	-0.036	-0.363
-227.727	-200.000	-0.009	-0.260
-226.713	71.161	0.222	0.227
-225.698	-59.755	0.140	0.059
-224.684	501.971	-0.146	-0.333
-223.669	800.000	0.079	0.278
-222.655	-125.719	-0.141	0.021
-221.640	-100.754	0.168	-0.041
-220.625	10.221	0.226	-0.170
-219.611	-82.360	-0.446	0.143
-218.596	-112.085	-0.245	0.049
-217.582	-29.882	-0.123	0.069
-216.567	-135.120	-0.184	-0.022
-215.552	-106.315	0.054	-0.012
-214.538	112.770	0.114	0.135
-213.523	99.712	0.157	0.179
-212.509	639.061	-0.139	0.348
-211.494	37.438	0.204	-0.178
-210.479	-106.831	-0.128	0.028
-209.465	800.000	0.047	0.141
-208.450	300.149	0.122	-0.222
-207.436	-71.477	0.190	-0.070
-206.421	646.940	0.040	-0.100
-205.406	-32.829	0.319	0.175
-204.392	-200.000	-0.031	-0.250
-203.377	57.031	0.056	-0.054
-202.363	-56.178	0.211	-0.092
-201.348	-33.995	-0.173	0.094
-200.333	-159.320	-0.355	-0.020
-199.319	309.528	-0.089	-0.163
-198.304	25.677	0.183	-0.150
-197.290	104.363	-0.037	-0.043
-196.275	-119.859	0.203	-0.034
-195.260	-37.739	-0.361	-0.189
-194.246	-200.000	-0.015	0.067
-193.231	54.727	-0.131	-0.124
-192.217	26.247	-0.061	0.050
-191.202	-200.000	-0.019	-0.176
-190.187	91.575	-0.035	-0.039
-189.173	-33.606	0.050	0.027
-188.158	-200.000	-0.024	-0.266
-187.144	-114.505	-0.492	-0.093
-186.129	-200.000	0.000	-0.027
-185.114	-200.000	0.013	0.117
-184.100	800.000	-0.078	0.258
-183.085	270.257	-0.128	0.222
-182.071	-200.000	-0.039	-0.302
-181.056	276.906	0.117	-0.205
-180.042	132.858	0.304	0.386
-179.027	223.597	-0.247	-0.392
-178.012	-30.143	0.112	-0.062
-176.998	314.109	-0.098	-0.181
-175.983	764.544	-0.058	-0.154
-174.969	192.572	0.119	0.176
-173.954	-74.364	-0.073	0.026
-172.939	-200.000	0.007	-0.044
-171.925	-171.430	0.336	0.011
-170.910	-154.791	0.246	0.016
-169.896	178.647	0.115	-0.166
-168.881	-147.265	-0.272	-0.023
-167.866	461.029	-0.059	0.129
-166.852	-8.924	-0.093	-0.061
-165.837	112.258	0.104	0.124
-164.823	-75.073	-0.244	0.086
-163.808	-28.657	0.044	0.025
-162.793	195.249	-0.085	-0.127
-161.779	534.092	-0.143	0.333
-160.764	-200.000	-0.069	0.321
-159.750	105.461	-0.232	0.270
-158.735	-38.618	0.213	-0.111
-157.720	-150.355	0.270	-0.020
-156.706	-15.261	-0.123	-0.077
-155.691	25.206	-0.243	0.199
-154.677	90.511	0.239	0.263
-153.662	-200.000	-0.071	-0.554
-152.647	-40.149	-0.252	0.129
-151.633	-85.016	0.109	0.034
-150.618	138.765	0.210	0.270
-149.604	-200.000	0.032	-0.331
-148.589	161.847	-0.060	-0.083
-147.574	-104.347	-0.243	-0.055
-146.560	-200.000	0.045	-0.243
-145.545	800.000	0.075	0.208
-144.531	-200.000	-0.033	0.312
-143.516	-74.534	-0.128	0.045
-142.502	-200.000	-0.016	0.260
-141.487	-200.000	0.027	-0.172
-140.472	-200.000	0.029	-0.158
-139.458	-120.360	0.150	-0.025
-138.443	42.615	0.057	0.051
-137.429	28.719	0.043	-0.036
-136.414	26.826	-0.059	0.049
-135.399	40.701	0.073	-0.065
-134.385	-16.883	-0.194	-0.121
-133.370	137.041	-0.177	0.227
-132.356	158.809	0.132	0.179
-131.341	-100.453	-0.244	-0.059
-130.326	534.234	-0.030	0.069
-129.312	-85.748	0.117	-0.036
-128.297	666.457	0.106	-0.270
-127.283	-87.980	-0.165	0.049
-126.268	-200.000	0.011	0.102
-125.253	-102.119	0.052	-0.012
-124.239	213.488	-0.111	0.172
-123.224	-37.039	0.038	-0.020
-122.210	-32.690	0.234	0.128
-121.195	-112.267	0.263	0.052
