DTS Sentinel unit serial number:	SN413079Multiplexer serial number:	ORYXHardware model number:	OX4-SRSoftware version number:	ORYX F/W v4.00 Oryx Data Collector v3.7.2.0data status	okinstallation	princeton_trtdifferential loss correction	single-endedforward channel	channel 4reverse channel	N/Adate	2019/09/14time	05:41:35forward acquisition time	60.00reverse acquisition time	0.00gamma	496.2192k internal	0.2321k external	0.2321temperature offset calibration	1.0136default loss term (dB/km)	0.3790temperature slope calibration	1.0000multiplexer offset coefficient	1.0000multiplexer slope coefficient	1.0000fibre end	0.00T internal ref (°C)	26.94T ext. ref 1 (°C)	3.39T ext. ref 2 (°C)	21.71length (m)	temperature (°C)	Stokes	anti-Stokes-747.200	800.000	0.077	0.227
-746.185	137.369	-0.285	0.377
-745.171	-200.000	0.058	-0.336
-744.156	55.844	-0.007	-0.007
-743.142	-200.000	-0.006	0.055
-742.127	-117.134	-0.033	-0.006
-741.112	-87.249	-0.047	0.014
-740.098	-70.895	-0.286	-0.109
-739.083	457.522	0.083	-0.185
-738.069	-33.263	0.091	0.051
-737.054	-1.431	0.311	0.222
-736.039	-162.554	-0.488	-0.024
-735.025	-200.000	-0.013	0.238
-734.010	396.245	-0.049	0.103
-732.996	43.499	-0.178	0.165
-731.981	-106.726	-0.208	0.047
-730.966	126.998	-0.029	-0.037
-729.952	-115.519	-0.164	-0.031
-728.937	-89.541	0.119	-0.035
-727.923	110.945	0.101	0.123
-726.908	213.150	0.087	0.139
-725.894	-200.000	0.013	-0.227
-724.879	58.725	-0.230	-0.228
-723.864	-123.544	-0.220	-0.035
-722.850	-56.224	0.240	-0.108
-721.835	687.319	-0.010	0.027
-720.821	393.862	0.104	0.218
-719.806	-82.777	0.283	-0.092
-718.791	-118.436	0.290	0.052
-717.777	800.000	-0.037	0.123
-716.762	290.476	0.084	0.155
-715.748	16.249	-0.281	0.224
-714.733	-26.142	-0.063	-0.037
-713.718	44.170	-0.108	-0.100
-712.704	-200.000	0.037	0.428
-711.689	-200.000	-0.032	0.155
-710.675	800.000	0.084	0.244
-709.660	300.712	-0.097	-0.181
-708.645	-82.300	0.306	0.101
-707.631	385.052	-0.009	0.019
-706.616	-110.207	0.050	0.010
-705.602	-76.250	0.299	0.106
-704.587	376.133	0.044	-0.091
-703.572	-105.125	-0.294	-0.068
-702.558	-200.000	-0.025	0.199
-701.543	-86.410	-0.318	0.099
-700.529	-19.888	0.332	0.207
-699.514	258.943	0.118	-0.205
-698.499	-96.645	-0.486	0.129
-697.485	152.181	-0.056	0.077
-696.470	-162.729	-0.121	-0.006
-695.456	164.730	-0.122	-0.174
-694.441	-106.907	-0.156	0.035
-693.426	626.589	-0.107	-0.273
-692.412	181.005	0.062	-0.092
-691.397	-118.851	-0.352	0.062
-690.383	154.670	0.266	0.369
-689.368	353.051	0.109	0.218
-688.354	-200.000	0.030	-0.304
-687.339	632.231	-0.087	-0.223
-686.324	-149.295	0.309	0.025
-685.310	43.403	-0.053	-0.049
-684.295	162.471	-0.037	-0.053
-683.281	-124.442	-0.101	0.016
-682.266	76.420	-0.128	-0.137
-681.251	190.813	-0.178	0.270
-680.237	800.000	-0.046	-0.148
-679.222	519.553	-0.123	-0.290
-678.208	222.783	-0.181	0.294
-677.193	-200.000	0.050	-0.346
-676.178	-129.785	0.271	-0.038
-675.164	2.712	-0.254	-0.186
-674.149	-200.000	0.033	0.270
-673.135	211.331	0.059	0.094
-672.120	375.201	0.106	0.218
-671.105	340.205	-0.107	0.210
-670.091	-200.000	-0.018	0.244
-669.076	-200.000	0.069	0.342
-668.062	-91.101	-0.157	0.045
-667.047	584.956	0.005	0.011
-666.032	68.818	-0.109	0.113
-665.018	-118.572	-0.209	-0.037
-664.003	699.315	-0.211	-0.559
-662.989	800.000	0.025	0.084
-661.974	-60.669	-0.120	-0.051
-660.959	250.743	0.087	0.149
-659.945	-20.476	-0.159	-0.098
-658.930	-193.908	0.193	0.002
-657.916	-123.974	-0.172	0.027
-656.901	-200.000	-0.082	0.399
-655.886	-15.068	-0.092	-0.059
-654.872	-173.444	-0.395	0.012
-653.857	-200.000	0.026	-0.145
-652.843	-73.328	0.060	0.022
-651.828	-91.383	0.344	-0.099
-650.814	-1.530	0.121	0.086
-649.799	132.051	-0.286	-0.371
-648.784	504.640	-0.011	-0.025
-647.770	-18.869	-0.279	-0.175
-646.755	-113.868	0.251	-0.049
-645.741	-200.000	0.021	0.163
-644.726	-6.848	-0.399	-0.273
-643.711	-27.164	0.443	-0.260
-642.697	-57.026	-0.246	0.109
-641.682	-32.601	0.148	-0.083
-640.668	800.000	-0.027	0.080
-639.653	-14.327	-0.189	0.123
-638.638	-185.767	-0.255	0.004
-637.624	112.136	0.222	0.271
-636.609	-60.345	0.054	0.023
-635.595	800.000	-0.067	-0.264
-634.580	3.531	-0.128	-0.094
-633.565	-37.156	-0.066	-0.036
-632.551	255.961	-0.017	0.029
-631.536	-21.110	-0.223	-0.137
-630.522	315.043	0.240	-0.456
-629.507	141.638	0.211	0.281
-628.492	569.155	0.067	0.164
-627.478	-0.914	-0.366	-0.261
-626.463	28.011	0.096	-0.082
-625.449	800.000	-0.143	0.435
-624.434	616.402	-0.101	-0.255
-623.419	197.068	-0.163	-0.250
-622.405	-200.000	0.008	-0.101
-621.390	800.000	-0.068	-0.196
-620.376	-18.584	-0.233	-0.146
-619.361	800.000	0.038	-0.164
-618.346	264.604	0.166	-0.291
-617.332	54.813	0.178	0.173
-616.317	-137.245	-0.222	-0.025
-615.303	800.000	-0.070	-0.297
-614.288	29.328	-0.151	-0.129
-613.273	-54.430	-0.090	-0.041
-612.259	-114.969	0.137	0.026
-611.244	-77.370	0.176	-0.061
-610.230	-200.000	-0.013	0.338
-609.215	156.119	0.170	0.236
-608.201	800.000	-0.012	0.052
-607.186	199.952	-0.131	0.202
-606.171	800.000	0.078	-0.224
-605.157	800.000	-0.044	-0.191
-604.142	340.861	0.126	-0.247
-603.128	535.805	0.083	-0.198
-602.113	166.361	0.112	-0.159
-601.098	-99.048	0.286	-0.073
-600.084	100.086	-0.109	-0.128
-599.069	-106.330	-0.126	-0.028
-598.055	-69.984	-0.076	-0.029
-597.040	-200.000	0.010	-0.341
-596.025	-106.729	-0.465	-0.104
-595.011	-200.000	0.027	0.473
-593.996	-178.878	-0.137	-0.003
-592.982	-85.144	-0.225	0.071
-591.967	-88.224	0.241	0.073
-590.952	-109.219	0.159	-0.034
-589.938	800.000	0.138	-0.433
-588.923	-37.667	-0.204	0.109
-587.909	28.897	0.031	-0.026
-586.894	-200.000	-0.018	0.253
-585.879	38.532	0.172	-0.154
-584.865	800.000	0.074	0.211
-583.850	20.119	0.208	-0.168
-582.836	-108.568	0.716	-0.154
-581.821	22.384	0.116	0.095
-580.806	103.659	-0.067	0.079
-579.792	-200.000	0.028	0.148
-578.777	71.094	-0.142	0.148
-577.763	-157.682	0.223	-0.013
-576.748	133.739	0.049	0.064
-575.733	329.765	0.022	-0.043
-574.719	515.778	0.053	-0.123
-573.704	-200.000	-0.015	0.210
-572.690	-200.000	0.066	0.307
-571.675	289.884	0.154	-0.280
-570.661	741.474	-0.079	-0.212
-569.646	75.408	0.354	0.375
-568.631	1.050	0.201	0.145
-567.617	206.054	0.156	-0.243
-566.602	-200.000	-0.028	-0.151
-565.588	52.090	-0.088	-0.085
-564.573	137.058	-0.164	0.216
-563.558	91.749	0.054	-0.061
-562.544	-200.000	0.007	0.116
-561.529	704.272	-0.092	-0.242
-560.515	-200.000	0.032	-0.166
-559.500	-200.000	-0.031	-0.246
-558.485	-28.052	0.152	-0.088
-557.471	-48.514	-0.195	0.094
-556.456	-200.000	-0.009	-0.076
-555.442	-27.341	0.092	0.054
-554.427	84.519	0.119	0.131
-553.412	695.979	-0.119	0.312
-552.398	300.960	-0.049	-0.091
-551.383	157.278	0.078	-0.108
-550.369	-200.000	0.029	-0.153
-549.354	-22.443	0.282	-0.171
-548.339	-200.000	0.016	-0.105
-547.325	-200.000	0.041	-0.218
-546.310	-17.645	0.111	-0.070
-545.296	-137.973	-0.419	-0.047
-544.281	5.205	-0.247	-0.183
-543.266	-109.739	0.046	-0.010
-542.252	-200.000	-0.023	0.149
-541.237	-69.708	-0.174	-0.067
-540.223	-49.883	-0.194	-0.092
-539.208	800.000	-0.025	-0.078
-538.193	113.924	-0.201	0.245
-537.179	-200.000	0.055	0.241
-536.164	52.837	-0.244	-0.234
-535.150	-95.361	0.216	0.058
-534.135	564.501	0.065	-0.157
-533.121	-122.204	0.008	-0.001
-532.106	-70.327	0.141	0.054
-531.091	-97.936	-0.521	0.135
-530.077	72.903	-0.219	0.229
-529.062	-141.771	0.124	0.012
-528.048	31.949	-0.217	0.187
-527.033	606.184	0.124	0.309
-526.018	639.732	0.054	0.137
-525.004	-92.192	0.202	0.057
-523.989	800.000	-0.104	0.289
-522.975	-79.977	-0.156	0.052
-521.960	800.000	0.074	-0.248
-520.945	36.971	0.201	0.178
-519.931	-75.279	-0.097	0.035
-518.916	800.000	0.033	-0.118
-517.902	776.996	-0.100	-0.274
-516.887	-80.549	-0.184	0.061
-515.872	-39.222	-0.173	-0.091
-514.858	-28.968	-0.239	-0.137
-513.843	-121.306	-0.184	-0.031
-512.829	290.712	-0.055	0.101
-511.814	-85.973	0.117	0.036
-510.799	-13.515	-0.205	-0.133
-509.785	-200.000	-0.035	0.166
-508.770	800.000	-0.087	-0.252
-507.756	-200.000	0.021	-0.330
-506.741	132.296	0.094	-0.121
-505.726	800.000	-0.041	-0.135
-504.712	800.000	0.022	-0.061
-503.697	-200.000	-0.004	-0.060
-502.683	199.817	0.093	-0.142
-501.668	800.000	-0.058	0.204
-500.653	17.828	0.184	-0.146
-499.639	184.601	0.073	-0.108
-498.624	-100.370	-0.256	0.064
-497.610	38.817	0.126	0.113
-496.595	-87.960	0.380	0.114
-495.581	-200.000	0.019	0.167
-494.566	45.923	-0.104	0.097
-493.551	-78.643	-0.152	-0.052
-492.537	136.216	0.221	0.289
-491.522	-163.497	-0.193	0.009
-490.508	141.293	0.025	0.033
-489.493	-127.022	-0.069	0.010
-488.478	800.000	0.056	0.216
-487.464	257.243	-0.216	-0.371
-486.449	168.795	0.252	0.360
-485.435	-200.000	0.057	-0.269
-484.420	604.922	-0.077	-0.192
-483.405	-17.223	0.094	0.060
-482.391	462.306	0.013	0.028
-481.376	15.975	-0.092	-0.072
-480.362	313.592	-0.080	-0.151
-479.347	-200.000	0.019	0.091
-478.332	-117.532	0.328	-0.059
-477.318	4.132	-0.289	0.212
-476.303	144.721	0.065	0.087
-475.289	800.000	-0.011	0.035
-474.274	-69.530	-0.238	0.091
-473.259	-45.943	0.198	0.098
-472.245	-34.005	-0.554	-0.305
-471.230	355.311	0.221	-0.440
-470.216	117.225	0.301	0.371
-469.201	-51.549	-0.239	0.112
-468.186	-69.950	0.267	0.102
-467.172	-48.940	0.203	-0.097
-466.157	-144.831	0.222	-0.020
-465.143	106.828	-0.096	0.113
-464.128	-45.535	-0.137	-0.068
-463.113	-104.196	-0.030	0.007
-462.099	112.098	0.107	-0.129
-461.084	-11.488	0.052	-0.034
-460.070	-7.681	-0.176	0.119
-459.055	-40.225	0.108	0.056
-458.040	-8.421	0.273	-0.184
-457.026	-63.232	0.137	-0.056
-456.011	95.951	-0.103	-0.117
-454.997	77.004	-0.114	0.121
-453.982	-132.098	-0.236	-0.031
-452.968	-200.000	0.010	0.108
-451.953	325.806	-0.118	0.226
-450.938	87.334	-0.128	-0.142
-449.924	-200.000	0.005	0.289
-448.909	11.214	-0.071	0.054
-447.895	-100.977	0.172	-0.042
-446.880	41.523	0.192	-0.174
-445.865	-99.189	-0.183	0.046
-444.851	70.440	-0.011	0.012
-443.836	-97.477	-0.316	0.082
-442.822	69.014	0.155	0.160
-441.807	-200.000	-0.000	0.327
-440.792	-200.000	0.043	-0.218
-439.778	-70.883	-0.265	0.100
-438.763	-200.000	-0.028	0.135
-437.749	221.695	0.091	0.146
-436.734	-200.000	-0.008	0.260
-435.719	800.000	0.073	-0.239
-434.705	-68.479	-0.432	-0.168
-433.690	-122.326	-0.235	-0.038
-432.676	-200.000	0.019	-0.178
-431.661	-200.000	0.064	0.461
-430.646	-94.096	0.216	-0.059
-429.632	-200.000	0.021	-0.269
-428.617	-86.648	-0.105	0.032
-427.603	159.316	0.184	-0.256
-426.588	696.464	0.142	-0.373
-425.573	800.000	0.077	-0.313
-424.559	-90.075	0.155	0.045
-423.544	41.097	-0.213	-0.192
-422.530	-56.072	0.144	-0.064
-421.515	-42.312	-0.070	-0.036
-420.500	-135.363	0.335	-0.040
-419.486	-121.897	-0.231	-0.038
-418.471	-200.000	0.023	-0.119
-417.457	-200.000	-0.001	0.077
-416.442	-25.615	-0.118	0.069
-415.428	-122.436	-0.375	0.061
-414.413	-200.000	0.041	0.201
-413.398	-67.641	-0.304	0.119
-412.384	10.717	0.010	-0.007
-411.369	800.000	-0.049	-0.205
-410.355	-200.000	0.082	0.487
-409.340	502.285	0.033	0.076
-408.325	-65.657	0.283	0.113
-407.311	800.000	0.052	-0.201
-406.296	800.000	0.096	-0.324
-405.282	620.258	-0.175	-0.438
-404.267	-200.000	0.014	-0.334
-403.252	-77.276	-0.200	-0.069
-402.238	122.414	-0.047	0.059
-401.223	-0.147	-0.030	-0.021
-400.209	70.837	-0.218	-0.225
-399.194	149.768	0.109	-0.148
-398.179	-137.639	0.309	0.035
-397.165	-200.000	-0.028	-0.154
-396.150	-200.000	-0.060	-0.321
-395.136	310.913	0.022	-0.040
-394.121	257.804	-0.074	-0.127
-393.106	248.789	-0.023	0.039
-392.092	-28.552	-0.086	-0.049
-391.077	225.654	0.105	-0.169
-390.063	134.426	-0.072	-0.093
-389.048	172.899	0.251	-0.360
-388.033	-3.647	-0.279	0.193
-387.019	649.313	0.032	-0.081
-386.004	2.934	0.115	-0.083
-384.990	-114.758	-0.265	-0.050
-383.975	0.957	-0.147	0.105
-382.960	-141.315	0.199	-0.020
-381.946	-161.428	-0.166	0.009
-380.931	714.346	0.082	0.216
-379.917	327.859	0.127	0.243
-378.902	-47.148	-0.194	-0.095
-377.888	220.080	0.181	-0.290
-376.873	-40.793	-0.348	0.180
-375.858	-49.703	0.123	0.058
-374.844	-200.000	-0.016	0.155
-373.829	53.938	-0.100	0.096
-372.815	-118.022	-0.205	-0.037
-371.800	144.081	-0.043	0.057
-370.785	-121.017	0.369	-0.062
-369.771	-117.240	0.221	-0.040
-368.756	443.088	-0.123	-0.269
-367.742	16.485	0.210	0.165
-366.727	-200.000	0.019	0.205
-365.712	-70.009	-0.318	0.121
-364.698	-18.856	0.246	0.153
-363.683	13.179	-0.075	0.058
-362.669	-200.000	-0.003	0.073
-361.654	-8.583	0.219	0.146
-360.639	301.646	-0.167	0.308
-359.625	61.689	0.076	-0.076
-358.610	800.000	0.033	0.120
-357.596	56.571	0.083	-0.080
-356.581	-81.903	-0.151	0.049
-355.566	22.804	0.132	-0.108
-354.552	177.555	-0.138	-0.200
-353.537	-23.837	0.198	0.118
-352.523	800.000	-0.007	0.027
-351.508	-200.000	-0.006	-0.231
-350.493	-17.112	0.119	0.075
-349.479	169.370	-0.095	0.135
-348.464	-40.276	0.100	-0.052
-347.450	800.000	0.065	-0.235
-346.435	63.763	0.041	-0.041
-345.420	-180.499	0.060	-0.001
-344.406	-153.542	0.312	0.022
-343.391	659.057	-0.091	-0.234
-342.377	44.902	-0.233	-0.214
-341.362	257.694	0.029	0.050
-340.348	800.000	-0.080	-0.242
-339.333	-200.000	-0.034	-0.156
-338.318	-137.244	-0.155	-0.018
-337.304	69.854	-0.077	0.079
-336.289	-42.760	-0.154	-0.078
-335.275	-1.004	-0.083	-0.059
-334.260	-30.915	0.167	0.094
-333.245	-1.493	0.283	-0.198
-332.231	19.421	0.215	0.172
-331.216	-139.997	-0.107	0.011
-330.202	-200.000	0.030	0.273
-329.187	270.948	0.036	-0.063
-328.172	-200.000	0.021	-0.214
-327.158	-52.372	0.143	0.066
-326.143	-200.000	0.032	-0.272
-325.129	777.434	-0.104	-0.284
-324.114	-128.483	-0.226	-0.032
-323.099	-98.770	-0.179	-0.045
-322.085	208.353	-0.060	-0.094
-321.070	-200.000	-0.013	0.299
-320.056	800.000	-0.089	0.256
-319.041	800.000	-0.061	-0.258
-318.026	-38.859	0.155	-0.081
-317.012	-200.000	0.016	-0.194
-315.997	-200.000	0.071	0.370
-314.983	-114.236	0.118	0.023
-313.968	-50.694	-0.079	0.037
-312.953	525.066	0.081	-0.190
-311.939	-200.000	0.006	0.030
-310.924	-200.000	0.006	-0.309
-309.910	800.000	0.089	0.335
-308.895	-190.587	-0.523	0.006
-307.880	-105.887	0.151	0.034
-306.866	-200.000	-0.007	0.094
-305.851	-27.928	0.195	-0.112
-304.837	343.748	0.142	0.276
-303.822	-149.783	0.339	0.026
-302.807	-200.000	-0.002	0.072
-301.793	70.878	-0.231	-0.238
-300.778	-45.907	-0.244	0.120
-299.764	-95.087	0.467	0.125
-298.749	49.357	-0.099	-0.093
-297.735	-164.032	0.193	-0.009
-296.720	-79.025	0.047	0.016
-295.705	-98.824	0.095	0.024
-294.691	-134.406	0.310	0.038
-293.676	800.000	-0.010	0.042
-292.662	167.482	-0.259	0.366
-291.647	-108.518	0.107	-0.023
-290.632	30.891	-0.194	-0.165
-289.618	106.096	0.268	0.315
-288.603	800.000	0.026	-0.092
-287.589	-128.632	-0.296	0.042
-286.574	313.653	0.032	-0.059
-285.559	-200.000	-0.050	-0.261
-284.545	-200.000	-0.038	0.193
-283.530	10.901	-0.161	0.122
-282.516	-66.447	-0.136	-0.054
-281.501	-200.000	-0.054	0.316
-280.486	433.826	-0.082	0.177
-279.472	-200.000	0.025	0.535
-278.457	144.043	-0.057	-0.075
-277.443	771.026	-0.081	0.219
-276.428	-21.391	0.087	-0.053
-275.413	-44.360	-0.047	-0.024
-274.399	-200.000	0.041	0.233
-273.384	800.000	0.079	-0.334
-272.370	533.264	0.089	0.210
-271.355	-53.698	0.159	0.072
-270.340	-64.330	0.180	0.073
-269.326	61.129	0.061	-0.060
-268.311	24.294	0.138	0.113
-267.297	390.223	0.100	-0.206
-266.282	-22.362	0.447	0.269
-265.267	-162.897	0.240	-0.012
-264.253	-18.697	-0.197	-0.122
-263.238	61.029	-0.193	0.190
-262.224	17.688	-0.300	0.237
-261.209	800.000	0.015	0.062
-260.195	-6.785	0.239	0.161
-259.180	-42.512	0.203	-0.102
-258.165	4.759	0.059	0.043
-257.151	800.000	-0.057	0.215
-256.136	-200.000	-0.011	-0.086
-255.122	58.708	0.052	0.051
-254.107	800.000	-0.067	-0.193
-253.092	-117.594	-0.247	-0.044
-252.078	-95.784	0.280	0.074
-251.063	110.662	0.216	-0.258
-250.049	536.895	0.024	-0.057
-249.034	-66.833	0.188	-0.074
-248.019	-200.000	-0.053	0.271
-247.005	17.272	-0.369	-0.291
-245.990	-200.000	0.162	-0.001
-244.976	800.000	0.006	-0.019
-243.961	-161.273	0.266	-0.014
-242.946	337.170	0.115	-0.222
-241.932	-122.191	0.094	-0.015
-240.917	98.372	-0.177	0.203
-239.903	-100.224	-0.171	-0.042
-238.888	206.291	0.273	0.420
-237.873	800.000	0.032	0.117
-236.859	-200.000	0.003	-0.030
-235.844	-29.598	0.055	-0.031
-234.830	-165.338	-0.113	-0.005
-233.815	98.776	0.359	0.410
-232.800	-200.000	0.052	0.418
-231.786	-200.000	-0.051	0.282
-230.771	664.642	0.066	0.170
-229.757	39.202	-0.126	0.112
-228.742	-200.000	0.015	-0.127
-227.727	-197.021	-0.154	0.001
-226.713	-103.369	-0.256	0.060
-225.698	-125.724	-0.181	-0.027
-224.684	800.000	-0.069	0.253
-223.669	161.092	-0.073	-0.101
-222.655	269.599	-0.055	0.096
-221.640	800.000	-0.109	0.320
-220.625	8.239	-0.196	-0.146
-219.611	-125.997	-0.145	0.022
-218.596	-200.000	-0.007	0.152
-217.582	96.561	-0.046	0.052
-216.567	-200.000	0.060	0.359
-215.552	-200.000	-0.002	0.017
-214.538	-200.000	-0.033	0.343
-213.523	-200.000	0.101	0.536
-212.509	-200.000	-0.026	0.422
-211.494	-22.776	0.163	0.098
-210.479	800.000	-0.031	0.087
-209.465	-37.352	0.241	0.127
-208.450	800.000	0.072	-0.288
-207.436	-46.064	-0.161	-0.079
-206.421	5.337	0.183	0.134
-205.406	-200.000	-0.008	0.177
-204.392	-184.304	-0.337	0.005
-203.377	0.892	0.089	0.063
-202.363	235.294	0.102	-0.167
-201.348	800.000	0.042	-0.178
-200.333	-13.160	-0.165	0.106
-199.319	-135.596	0.489	-0.057
-198.304	301.951	-0.166	0.304
-197.290	-110.474	0.223	0.046
-196.275	-200.000	-0.009	0.113
-195.260	40.353	-0.269	-0.240
-194.246	-141.176	-0.385	-0.039
-193.231	-103.756	-0.082	0.019
-192.217	176.846	0.165	0.237
-191.202	-200.000	0.060	-0.368
-190.187	104.303	0.180	0.209
-189.173	111.020	0.132	0.157
-188.158	-200.000	0.005	0.111
-187.144	207.952	0.163	-0.253
-186.129	399.078	-0.142	-0.293
-185.114	-11.820	-0.277	-0.180
-184.100	-200.000	0.280	-0.001
-183.085	-164.945	0.338	0.015
-182.071	800.000	0.018	-0.050
-181.056	195.729	-0.182	-0.274
-180.042	-68.788	0.110	0.042
-179.027	-109.134	-0.146	-0.031
-178.012	26.602	-0.100	-0.082
-176.998	123.982	-0.183	0.227
-175.983	-83.357	-0.225	-0.071
-174.969	319.492	0.030	0.056
-173.954	-59.199	-0.172	0.073
-172.939	800.000	0.066	0.241
-171.925	158.014	0.168	0.231
-170.910	763.153	0.041	0.109
-169.896	34.053	0.099	-0.086
-168.881	-48.270	-0.366	0.174
-167.866	-123.096	0.450	0.071
-166.852	766.554	0.067	0.181
-165.837	-200.000	0.026	-0.457
-164.823	115.898	-0.117	0.142
-163.808	43.301	-0.152	0.137
-162.793	800.000	-0.049	-0.166
-161.779	274.891	-0.018	0.032
-160.764	72.650	-0.193	-0.199
-159.750	800.000	0.024	-0.067
-158.735	555.218	0.059	0.140
-157.720	-60.544	0.222	-0.093
-156.706	83.804	-0.099	-0.107
-155.691	-30.640	0.276	-0.154
-154.677	-200.000	-0.030	-0.209
-153.662	-31.680	-0.072	0.040
-152.647	192.114	0.087	0.130
-151.633	800.000	0.025	-0.074
-150.618	-200.000	-0.030	0.353
-149.604	-63.564	0.483	0.196
-148.589	17.949	-0.041	-0.032
-147.574	-38.884	0.105	0.055
-146.560	-200.000	-0.029	0.166
-145.545	-78.270	0.067	0.023
-144.531	134.973	0.188	-0.241
-143.516	800.000	0.076	-0.218
-142.502	-62.412	-0.190	-0.078
-141.487	-26.733	-0.379	-0.219
-140.472	-200.000	-0.034	0.165
-139.458	176.896	0.103	0.147
-138.443	67.547	0.071	0.071
-137.429	-149.643	0.055	-0.004
-136.414	-200.000	0.023	-0.101
-135.399	800.000	0.081	-0.347
-134.385	631.194	0.068	-0.171
-133.370	217.790	-0.220	0.346
-132.356	-70.651	0.225	0.084
-131.341	-72.400	-0.473	0.173
-130.326	79.933	0.209	-0.222
-129.312	51.427	0.228	0.214
-128.297	-185.262	-0.337	0.005
-127.283	800.000	0.061	-0.263
-126.268	141.893	0.168	-0.220
-125.253	441.749	-0.064	0.139
-124.239	-136.151	-0.163	0.019
-123.224	-116.615	0.156	-0.028
-122.210	314.336	0.041	-0.076
-121.195	800.000	0.065	0.186
