DTS Sentinel unit serial number:	SN413079Multiplexer serial number:	ORYXHardware model number:	OX4-SRSoftware version number:	ORYX F/W v4.00 Oryx Data Collector v3.7.2.0data status	okinstallation	princeton_trtdifferential loss correction	single-endedforward channel	channel 4reverse channel	N/Adate	2019/09/17time	15:41:35forward acquisition time	60.00reverse acquisition time	0.00gamma	496.2192k internal	0.2290k external	0.2290temperature offset calibration	0.9984default loss term (dB/km)	0.3790temperature slope calibration	1.0000multiplexer offset coefficient	1.0000multiplexer slope coefficient	1.0000fibre end	0.00T internal ref (°C)	38.78T ext. ref 1 (°C)	0.38T ext. ref 2 (°C)	36.47length (m)	temperature (°C)	Stokes	anti-Stokes-747.200	-52.848	0.329	0.155
-746.185	115.011	-0.127	-0.159
-745.171	-1.323	-0.128	-0.093
-744.156	-200.000	-0.006	-0.038
-743.142	13.117	0.256	-0.203
-742.127	9.653	-0.261	0.203
-741.112	640.083	-0.162	0.423
-740.098	385.868	-0.099	0.209
-739.083	227.382	-0.085	0.141
-738.069	-200.000	0.025	-0.168
-737.054	-10.407	-0.197	-0.134
-736.039	471.185	-0.231	-0.531
-735.025	-153.851	0.218	0.015
-734.010	-81.517	0.035	-0.012
-732.996	500.105	-0.087	-0.205
-731.981	157.230	0.122	-0.173
-730.966	-88.995	-0.200	-0.060
-729.952	-171.990	-0.427	0.014
-728.937	-30.162	0.013	-0.008
-727.923	800.000	0.070	-0.205
-726.908	800.000	-0.027	0.116
-725.894	503.257	-0.048	0.115
-724.879	-107.228	-0.372	0.084
-723.864	-200.000	0.038	-0.227
-722.850	173.227	-0.035	0.051
-721.835	800.000	-0.104	-0.299
-720.821	236.822	0.123	0.208
-719.806	-101.320	-0.432	0.108
-718.791	164.165	0.188	-0.271
-717.777	68.725	0.092	0.096
-716.762	-200.000	-0.038	0.375
-715.748	7.806	-0.230	0.177
-714.733	134.396	0.072	0.096
-713.718	-200.000	-0.014	-0.072
-712.704	176.269	-0.288	-0.428
-711.689	-67.468	0.065	-0.026
-710.675	-200.000	-0.042	-0.379
-709.660	191.885	0.134	-0.206
-708.645	-69.764	0.345	0.135
-707.631	206.804	0.182	-0.290
-706.616	800.000	0.115	-0.379
-705.602	-134.657	-0.025	-0.003
-704.587	11.398	-0.092	-0.072
-703.572	-200.000	0.002	-0.135
-702.558	-200.000	-0.042	0.290
-701.543	-53.572	-0.168	0.078
-700.529	252.873	-0.085	0.148
-699.514	9.360	0.390	0.302
-698.499	-200.000	0.004	-0.106
-697.485	67.921	-0.162	-0.169
-696.470	62.136	0.100	-0.102
-695.456	800.000	0.030	0.133
-694.441	800.000	0.030	0.093
-693.426	-200.000	-0.001	-0.207
-692.412	44.301	-0.304	0.285
-691.397	-64.320	-0.315	0.131
-690.383	-15.936	-0.412	-0.268
-689.368	-113.543	-0.125	0.025
-688.354	283.663	0.057	0.105
-687.339	800.000	0.066	0.189
-686.324	-200.000	0.024	0.149
-685.310	-147.180	-0.315	-0.027
-684.295	800.000	0.048	0.214
-683.281	647.886	0.086	-0.225
-682.266	308.070	-0.116	-0.222
-681.251	374.199	-0.082	-0.171
-680.237	800.000	0.066	-0.197
-679.222	-86.308	0.067	0.021
-678.208	-185.096	0.307	0.005
-677.193	224.694	-0.117	-0.193
-676.178	-155.000	-0.252	0.017
-675.164	87.336	0.054	0.061
-674.149	-95.883	0.227	-0.062
-673.135	-104.113	0.235	-0.056
-672.120	-7.426	0.176	-0.122
-671.105	170.251	0.012	-0.017
-670.091	-22.783	0.100	0.061
-669.076	800.000	-0.027	-0.087
-668.062	232.706	0.031	0.052
-667.047	28.367	-0.182	0.157
-666.032	-5.995	0.170	0.119
-665.018	-155.231	-0.195	-0.013
-664.003	-81.397	-0.332	0.112
-662.989	-138.530	0.360	0.040
-661.974	-200.000	0.009	0.182
-660.959	244.792	-0.028	0.048
-659.945	-8.994	-0.254	-0.174
-658.930	-42.498	0.059	-0.030
-657.916	-163.858	0.230	0.011
-656.901	-200.000	-0.061	0.286
-655.886	90.066	-0.093	-0.106
-654.872	-110.432	0.202	-0.043
-653.857	-65.575	-0.276	0.113
-652.843	-47.315	0.070	-0.035
-651.828	98.694	0.082	-0.097
-650.814	-200.000	0.017	-0.201
-649.799	-34.324	0.249	0.140
-648.784	-200.000	-0.027	0.257
-647.770	160.246	-0.086	-0.122
-646.755	-126.892	-0.043	0.006
-645.741	-95.677	0.395	-0.108
-644.726	-200.000	-0.002	0.079
-643.711	-39.741	0.138	-0.074
-642.697	12.609	0.080	-0.063
-641.682	-57.390	0.203	-0.091
-640.668	-112.192	0.117	-0.024
-639.653	-158.703	-0.314	0.018
-638.638	-8.114	0.169	-0.116
-637.624	-200.000	0.009	0.229
-636.609	-0.677	-0.108	-0.078
-635.595	-53.395	-0.163	-0.076
-634.580	-21.818	-0.143	-0.089
-633.565	800.000	0.029	-0.100
-632.551	139.101	0.169	-0.227
-631.536	-137.618	0.320	-0.037
-630.522	-200.000	0.033	0.320
-629.507	500.267	-0.117	0.276
-628.492	154.138	-0.151	0.211
-627.478	-200.000	-0.003	-0.074
-626.463	-116.331	-0.143	0.027
-625.449	-136.375	-0.317	0.038
-624.434	-133.745	0.133	-0.017
-623.419	163.376	-0.110	0.157
-622.405	-93.061	0.135	0.038
-621.390	800.000	-0.066	0.246
-620.376	-23.015	-0.136	0.084
-619.361	0.239	-0.285	0.207
-618.346	-18.235	0.074	0.047
-617.332	17.486	-0.126	0.102
-616.317	-25.260	0.163	0.098
-615.303	800.000	0.100	0.414
-614.288	-187.883	-0.332	0.004
-613.273	800.000	-0.086	0.294
-612.259	39.368	0.290	0.265
-611.244	-200.000	0.064	-0.288
-610.230	-200.000	-0.016	-0.211
-609.215	800.000	0.054	0.218
-608.201	208.529	-0.175	-0.279
-607.186	-118.155	0.255	-0.046
-606.171	-101.968	-0.128	-0.031
-605.157	195.854	0.105	-0.163
-604.142	-180.408	-0.166	0.004
-603.128	305.349	0.036	0.068
-602.113	365.978	-0.179	0.369
-601.098	-200.000	0.054	-0.256
-600.084	-120.027	0.396	-0.069
-599.069	93.666	0.030	-0.035
-598.055	-200.000	0.022	0.173
-597.040	-64.898	0.316	0.130
-596.025	-60.772	-0.529	0.228
-595.011	448.009	-0.108	0.241
-593.996	694.636	-0.112	0.300
-592.982	-34.482	0.199	-0.111
-591.967	-61.050	0.100	0.043
-590.952	-200.000	-0.033	-0.312
-589.938	800.000	-0.059	-0.199
-588.923	-9.123	-0.042	0.028
-587.909	800.000	0.072	-0.206
-586.894	-72.348	-0.309	-0.116
-585.879	107.711	0.099	0.119
-584.865	-200.000	-0.050	0.242
-583.850	251.262	0.092	-0.160
-582.836	-180.459	-0.106	0.002
-581.821	800.000	-0.037	0.112
-580.806	-200.000	0.016	-0.277
-579.792	221.152	0.060	-0.097
-578.777	-200.000	0.025	-0.112
-577.763	200.302	-0.211	0.330
-576.748	-200.000	0.011	0.135
-575.733	-44.283	-0.135	-0.069
-574.719	800.000	0.068	0.231
-573.704	-60.152	-0.194	-0.084
-572.690	-157.090	0.313	-0.019
-571.675	-200.000	-0.000	-0.118
-570.661	-114.051	0.263	0.052
-569.646	-200.000	-0.034	0.174
-568.631	35.104	-0.170	-0.152
-567.617	-200.000	-0.049	0.307
-566.602	120.192	0.204	-0.257
-565.588	-200.000	0.011	0.266
-564.573	-200.000	-0.023	-0.386
-563.558	-35.892	-0.090	-0.050
-562.544	-200.000	-0.022	-0.267
-561.529	800.000	0.033	0.135
-560.515	-200.000	-0.018	-0.391
-559.500	-66.346	0.070	-0.028
-558.485	135.097	0.193	-0.255
-557.471	-20.444	-0.345	0.216
-556.456	87.661	0.178	-0.200
-555.442	545.956	-0.122	-0.296
-554.427	40.523	-0.311	-0.285
-553.412	-52.683	0.196	0.092
-552.398	-200.000	-0.031	-0.212
-551.383	101.767	-0.057	0.067
-550.369	218.910	-0.026	-0.043
-549.354	-83.802	0.222	-0.072
-548.339	800.000	0.112	0.337
-547.325	-152.416	0.060	-0.004
-546.310	430.280	0.065	0.144
-545.296	116.421	-0.127	0.158
-544.281	-128.445	0.032	0.005
-543.266	-70.528	0.213	0.082
-542.252	73.620	0.320	0.341
-541.237	-200.000	0.030	-0.171
-540.223	620.348	0.119	0.304
-539.208	800.000	0.073	-0.254
-538.193	67.506	-0.148	-0.153
-537.179	-86.053	-0.219	-0.069
-536.164	-200.000	-0.025	-0.151
-535.150	-168.791	0.374	0.014
-534.135	302.538	-0.050	-0.094
-533.121	-72.218	0.092	0.034
-532.106	-138.920	-0.176	-0.019
-531.091	800.000	-0.137	-0.529
-530.077	65.627	-0.279	-0.287
-529.062	-200.000	0.047	-0.218
-528.048	800.000	0.021	-0.088
-527.033	-127.594	-0.074	0.011
-526.018	-181.840	-0.244	-0.005
-525.004	-23.535	0.351	0.214
-523.989	35.581	0.127	-0.113
-522.975	-200.000	-0.020	-0.413
-521.960	-200.000	-0.035	-0.415
-520.945	800.000	0.100	0.301
-519.931	-76.934	-0.369	-0.131
-518.916	-200.000	0.012	-0.290
-517.902	55.415	-0.166	0.163
-516.887	563.629	0.063	-0.156
-515.872	800.000	-0.042	0.129
-514.858	125.104	-0.258	0.331
-513.843	113.233	-0.161	-0.198
-512.829	-37.086	0.179	-0.097
-511.814	-96.144	-0.237	0.064
-510.799	-37.471	0.263	-0.143
-509.785	158.603	0.123	-0.173
-508.770	256.950	-0.089	0.156
-507.756	487.869	0.044	-0.101
-506.741	-40.113	0.359	0.190
-505.726	-111.310	-0.237	-0.049
-504.712	114.923	-0.076	-0.094
-503.697	-116.121	-0.201	-0.038
-502.683	-200.000	-0.032	0.352
-501.668	-63.483	0.236	-0.099
-500.653	489.886	-0.003	0.007
-499.639	-183.647	-0.257	0.004
-498.624	194.754	-0.065	-0.100
-497.610	372.291	0.147	0.303
-496.595	134.901	0.117	-0.154
-495.581	139.913	-0.238	0.318
-494.566	79.161	0.155	-0.168
-493.551	-200.000	-0.017	0.106
-492.537	-200.000	0.025	-0.140
-491.522	800.000	0.051	0.155
-490.508	-200.000	-0.053	-0.386
-489.493	491.374	-0.116	-0.270
-488.478	-46.444	-0.219	0.109
-487.464	-200.000	-0.043	-0.390
-486.449	800.000	0.033	0.102
-485.435	-18.020	0.271	0.172
-484.420	230.999	0.151	-0.252
-483.405	-200.000	-0.001	-0.023
-482.391	32.833	-0.190	-0.167
-481.376	560.703	0.158	0.387
-480.362	-101.477	0.037	-0.009
-479.347	-106.279	0.249	-0.056
-478.332	-200.000	0.017	0.093
-477.318	-200.000	0.019	-0.173
-476.303	-22.627	-0.271	0.166
-475.289	29.879	0.430	-0.372
-474.274	-76.590	0.228	-0.081
-473.259	220.613	0.183	-0.298
-472.245	407.498	-0.086	0.185
-471.230	-200.000	-0.016	-0.107
-470.216	155.368	0.041	0.057
-469.201	-46.065	-0.161	0.080
-468.186	800.000	0.030	0.114
-467.172	800.000	0.048	0.202
-466.157	-52.561	0.558	0.261
-465.143	276.104	-0.094	0.170
-464.128	240.993	0.101	-0.170
-463.113	394.716	0.218	0.460
-462.099	-80.562	0.276	-0.093
-461.084	800.000	-0.063	0.203
-460.070	129.595	0.103	-0.133
-459.055	112.022	-0.029	-0.035
-458.040	-117.535	0.361	0.066
-457.026	47.224	0.079	0.075
-456.011	-140.509	-0.282	-0.030
-454.997	95.024	0.276	0.318
-453.982	-7.138	-0.155	0.106
-452.968	-65.340	-0.096	0.039
-451.953	-71.184	-0.283	-0.108
-450.938	-94.413	-0.294	0.081
-449.924	169.277	0.084	-0.122
-448.909	-24.760	0.355	-0.214
-447.895	-200.000	-0.039	-0.474
-446.880	42.607	-0.105	0.097
-445.865	-200.000	-0.007	-0.156
-444.851	197.332	-0.159	-0.246
-443.836	-200.000	0.017	0.141
-442.822	53.859	-0.030	0.029
-441.807	-26.215	-0.127	0.075
-440.792	33.166	-0.106	-0.093
-439.778	-152.614	0.303	0.022
-438.763	800.000	-0.022	0.096
-437.749	253.909	0.178	0.308
-436.734	784.794	0.026	0.073
-435.719	-160.432	0.176	-0.010
-434.705	-83.312	0.225	-0.073
-433.690	-4.392	0.210	-0.147
-432.676	-33.595	0.210	0.118
-431.661	-83.826	-0.321	-0.103
-430.646	105.583	-0.014	-0.017
-429.632	3.719	-0.103	-0.076
-428.617	168.402	-0.147	-0.212
-427.603	-200.000	-0.002	0.213
-426.588	64.801	-0.081	0.083
-425.573	-200.000	-0.029	-0.494
-424.559	69.666	-0.127	-0.132
-423.544	57.436	-0.133	0.132
-422.530	223.411	-0.090	0.147
-421.515	190.545	-0.157	-0.238
-420.500	220.364	-0.070	-0.114
-419.486	95.819	0.283	0.326
-418.471	-170.150	0.120	-0.004
-417.457	-100.972	0.347	-0.086
-416.442	-51.392	0.154	0.073
-415.428	367.667	-0.102	-0.209
-414.413	-115.445	-0.066	-0.013
-413.398	-78.948	0.239	-0.082
-412.384	-200.000	0.016	-0.213
-411.369	113.380	-0.201	-0.247
-410.355	-157.491	-0.078	-0.005
-409.340	491.591	0.088	-0.205
-408.325	-3.217	0.171	-0.121
-407.311	-131.074	0.118	-0.016
-406.296	-96.516	0.279	0.074
-405.282	-127.811	0.396	0.058
-404.267	800.000	-0.057	-0.201
-403.252	800.000	0.123	-0.426
-402.238	452.847	-0.099	-0.220
-401.223	-66.445	-0.359	0.144
-400.209	-200.000	0.076	-0.426
-399.194	-66.777	-0.289	0.116
-398.179	-200.000	-0.020	0.255
-397.165	226.307	0.201	-0.329
-396.150	-1.527	-0.294	-0.209
-395.136	-116.718	0.156	-0.029
-394.121	-89.183	0.228	0.068
-393.106	89.250	0.138	-0.155
-392.092	-200.000	0.036	0.230
-391.077	22.642	-0.134	0.111
-390.063	-161.509	0.122	-0.006
-389.048	31.640	0.078	-0.068
-388.033	800.000	-0.054	-0.162
-387.019	2.894	-0.346	-0.254
-386.004	-19.666	-0.269	-0.168
-384.990	123.675	0.267	0.338
-383.975	-115.049	0.152	-0.029
-382.960	-183.941	0.178	-0.003
-381.946	-159.495	-0.221	-0.012
-380.931	-200.000	0.036	-0.262
-379.917	212.022	-0.078	0.124
-378.902	-25.706	0.173	0.103
-377.888	-0.542	-0.286	0.205
-376.873	-115.977	-0.101	0.019
-375.858	41.290	0.142	0.130
-374.844	-12.086	-0.271	0.179
-373.829	-30.840	-0.231	0.132
-372.815	-125.695	-0.155	0.024
-371.800	-200.000	0.068	-0.337
-370.785	140.276	0.163	0.217
-369.771	-200.000	-0.004	-0.315
-368.756	-66.914	-0.052	-0.021
-367.742	-200.000	-0.000	-0.126
-366.727	374.375	0.132	0.272
-365.712	120.476	0.112	0.140
-364.698	227.315	-0.113	0.185
-363.683	-200.000	-0.042	-0.282
-362.669	-129.024	0.145	-0.021
-361.654	800.000	-0.030	0.120
-360.639	415.592	-0.052	-0.111
-359.625	-42.228	-0.181	-0.094
-358.610	-200.000	0.034	0.204
-357.596	456.841	-0.188	0.420
-356.581	139.174	-0.067	0.089
-355.566	9.044	-0.170	-0.129
-354.552	-12.857	0.098	-0.064
-353.537	-46.938	0.129	0.063
-352.523	800.000	-0.041	0.134
-351.508	185.703	-0.099	0.149
-350.493	18.873	-0.175	0.142
-349.479	-76.311	0.226	-0.080
-348.464	265.383	0.102	-0.179
-347.450	369.664	0.137	-0.279
-346.435	-200.000	-0.005	-0.279
-345.420	411.280	-0.090	-0.192
-344.406	-66.018	-0.170	-0.068
-343.391	800.000	-0.085	-0.284
-342.377	163.993	-0.130	-0.185
-341.362	-40.947	-0.200	0.104
-340.348	397.740	-0.075	0.158
-339.333	-40.736	-0.118	0.062
-338.318	-58.727	-0.061	0.027
-337.304	-4.944	-0.238	0.165
-336.289	-200.000	0.007	0.050
-335.275	-200.000	-0.074	0.385
-334.260	233.554	0.250	-0.415
-333.245	-200.000	0.038	-0.284
-332.231	282.051	0.059	0.106
-331.216	157.893	-0.271	0.379
-330.202	-200.000	-0.009	0.519
-329.187	-200.000	-0.006	-0.119
-328.172	-28.707	-0.054	-0.031
-327.158	-200.000	0.068	0.333
-326.143	-70.914	-0.434	0.165
-325.129	-75.969	-0.135	-0.048
-324.114	-200.000	0.021	-0.127
-323.099	65.045	-0.118	-0.121
-322.085	-200.000	0.032	-0.235
-321.070	-33.138	0.233	0.130
-320.056	-200.000	0.077	0.347
-319.041	120.075	0.119	-0.149
-318.026	153.136	0.112	0.154
-317.012	-134.238	-0.289	-0.036
-315.997	113.084	0.176	-0.215
-314.983	311.090	0.067	-0.127
-313.968	36.409	0.036	0.032
-312.953	108.271	0.213	0.256
-311.939	-200.000	0.023	-0.143
-310.924	-105.987	-0.188	0.043
-309.910	-200.000	-0.007	-0.147
-308.895	-119.727	-0.152	-0.026
-307.880	298.296	-0.053	0.098
-306.866	-120.916	0.265	-0.045
-305.851	-114.211	0.175	-0.034
-304.837	433.969	0.061	-0.133
-303.822	-0.762	0.142	-0.101
-302.807	162.781	-0.115	-0.162
-301.793	-122.954	-0.374	-0.061
-300.778	314.525	0.224	0.424
-299.764	23.919	0.077	0.064
-298.749	88.470	-0.200	0.223
-297.735	118.134	-0.190	0.236
-296.720	664.668	-0.051	0.132
-295.705	130.418	0.107	0.138
-294.691	-200.000	-0.021	-0.192
-293.676	595.706	-0.079	-0.197
-292.662	-4.899	-0.323	-0.224
-291.647	-200.000	-0.019	0.168
-290.632	207.713	-0.084	-0.133
-289.618	480.291	-0.066	0.150
-288.603	-53.175	-0.223	0.103
-287.589	-28.591	0.080	-0.046
-286.574	-200.000	0.043	0.461
-285.559	-200.000	-0.036	0.214
-284.545	-128.350	-0.126	0.018
-283.530	800.000	0.097	-0.336
-282.516	-151.151	-0.243	-0.018
-281.501	413.580	0.034	0.073
-280.486	543.389	-0.221	0.531
-279.472	146.528	-0.090	-0.121
-278.457	-90.595	0.316	0.092
-277.443	-39.635	0.071	-0.037
-276.428	-100.131	0.304	-0.076
-275.413	13.682	-0.231	-0.181
-274.399	-95.246	-0.144	-0.039
-273.384	-31.152	0.152	0.086
-272.370	-200.000	0.002	0.343
-271.355	-41.579	-0.176	-0.091
-270.340	-132.470	0.326	-0.042
-269.326	-200.000	0.002	-0.020
-268.311	154.136	0.087	-0.120
-267.297	-29.660	0.318	0.183
-266.282	-16.798	-0.141	0.089
-265.267	-70.014	0.123	0.047
-264.253	398.466	0.020	-0.042
-263.238	-178.271	-0.367	-0.009
-262.224	-55.704	0.156	0.070
-261.209	328.189	0.056	0.108
-260.195	-200.000	-0.091	0.584
-259.180	418.261	-0.082	0.175
-258.165	-105.070	0.213	-0.049
-257.151	321.297	-0.089	0.170
-256.136	-150.906	-0.212	-0.016
-255.122	59.008	-0.182	-0.180
-254.107	-200.000	-0.062	0.302
-253.092	164.324	-0.163	0.231
-252.078	-167.078	0.134	-0.005
-251.063	-65.101	-0.200	0.081
-250.049	-5.182	0.056	-0.039
-249.034	604.002	0.055	0.138
-248.019	357.421	-0.072	0.145
-247.005	29.763	-0.088	0.075
-245.990	38.657	0.173	-0.155
-244.976	-147.204	0.231	-0.020
-243.961	-104.388	-0.335	-0.078
-242.946	-20.890	-0.234	0.144
-241.932	-125.995	0.311	0.047
-240.917	6.984	-0.048	-0.036
-239.903	-82.054	0.365	-0.120
-238.888	562.245	-0.124	-0.301
-237.873	5.995	0.102	0.076
-236.859	85.901	0.182	-0.201
-235.844	-85.690	-0.067	0.021
-234.830	-102.457	-0.185	-0.045
-233.815	133.484	0.308	0.400
-232.800	51.366	0.022	0.021
-231.786	-35.150	0.113	-0.062
-230.771	800.000	-0.065	0.266
-229.757	-116.388	-0.268	-0.050
-228.742	68.931	-0.324	0.334
-227.727	787.742	-0.051	-0.140
-226.713	-200.000	0.015	-0.077
-225.698	-107.131	0.288	0.064
-224.684	-164.380	0.146	-0.007
-223.669	-108.562	0.281	-0.061
-222.655	-22.717	0.168	-0.102
-221.640	-103.855	0.139	-0.033
-220.625	86.849	0.171	0.190
-219.611	10.028	0.189	-0.144
-218.596	-200.000	0.021	0.148
-217.582	-200.000	0.006	0.224
-216.567	-13.629	0.024	0.016
-215.552	-30.897	0.241	0.137
-214.538	-52.243	0.115	-0.053
-213.523	-23.931	-0.083	0.050
-212.509	-86.349	0.225	-0.069
-211.494	55.808	-0.024	0.023
-210.479	232.616	-0.145	-0.239
-209.465	240.955	-0.184	0.309
-208.450	800.000	-0.069	0.211
-207.436	217.176	-0.037	-0.058
-206.421	-19.439	-0.151	-0.094
-205.406	376.744	-0.077	0.158
-204.392	-20.888	0.101	-0.062
-203.377	-185.922	-0.111	0.002
-202.363	-59.841	-0.087	0.037
-201.348	800.000	0.049	0.173
-200.333	-113.238	0.032	-0.006
-199.319	-200.000	-0.020	-0.148
-198.304	-118.778	0.317	-0.056
-197.290	800.000	-0.130	-0.436
-196.275	-200.000	-0.092	0.470
-195.260	-137.627	0.425	-0.048
-194.246	800.000	-0.043	-0.186
-193.231	800.000	0.094	0.287
-192.217	-104.623	-0.088	0.020
-191.202	140.582	-0.067	0.089
-190.187	-78.990	0.131	0.045
-189.173	800.000	-0.140	-0.404
-188.158	-200.000	0.040	-0.178
-187.144	-200.000	-0.030	-0.309
-186.129	364.683	-0.082	-0.166
-185.114	-92.445	0.174	-0.049
-184.100	-102.270	0.140	-0.034
-183.085	104.177	0.097	0.114
-182.071	-100.545	-0.194	0.048
-181.056	-138.557	-0.081	-0.009
-180.042	800.000	-0.057	-0.229
-179.027	307.650	-0.118	0.221
-178.012	-161.306	0.339	0.018
-176.998	25.865	-0.201	-0.168
-175.983	763.483	-0.070	-0.191
-174.969	2.519	-0.058	0.042
-173.954	-172.526	-0.432	-0.014
-172.939	-105.419	-0.150	-0.034
-171.925	800.000	-0.017	0.066
-170.910	220.668	0.030	-0.048
-169.896	-87.077	-0.185	0.056
-168.881	-37.634	0.266	0.142
-167.866	114.147	-0.117	-0.142
-166.852	61.040	0.165	-0.164
-165.837	-200.000	-0.054	0.315
-164.823	-200.000	-0.039	-0.342
-163.808	-200.000	-0.001	-0.064
-162.793	128.627	-0.245	0.312
-161.779	205.392	0.128	-0.199
-160.764	-200.000	0.007	-0.383
-159.750	10.276	-0.036	0.027
-158.735	779.217	-0.059	0.162
-157.720	-95.710	0.144	-0.039
-156.706	117.717	0.048	0.059
-155.691	-105.353	-0.163	-0.037
-154.677	-52.121	-0.083	-0.039
-153.662	-126.595	-0.231	0.034
-152.647	7.827	0.137	0.102
-151.633	147.917	-0.158	0.214
-150.618	555.846	0.081	-0.196
-149.604	-200.000	0.026	0.239
-148.589	-200.000	0.087	0.398
-147.574	6.016	0.296	0.219
-146.560	25.214	0.197	0.164
-145.545	-200.000	0.006	0.028
-144.531	230.917	-0.100	0.164
-143.516	800.000	-0.056	-0.168
-142.502	-151.713	0.304	-0.022
-141.487	800.000	-0.023	0.087
-140.472	227.538	-0.151	0.245
-139.458	-200.000	0.017	0.197
-138.443	-56.051	0.266	0.118
-137.429	-82.181	-0.255	0.083
-136.414	800.000	0.015	0.047
-135.399	-126.496	0.304	-0.045
-134.385	522.784	-0.017	0.039
-133.370	-130.837	0.421	0.056
-132.356	164.490	0.053	-0.075
-131.341	20.022	-0.137	-0.111
-130.326	-82.685	0.293	-0.095
-129.312	-96.918	-0.070	0.018
-128.297	91.765	0.121	0.136
-127.283	-79.570	-0.088	0.030
-126.268	49.971	-0.075	-0.071
-125.253	160.396	0.180	-0.251
-124.239	-200.000	0.030	0.363
-123.224	-38.459	-0.332	0.175
