DTS Sentinel unit serial number:	SN413079Multiplexer serial number:	ORYXHardware model number:	OX4-SRSoftware version number:	ORYX F/W v4.00 Oryx Data Collector v3.7.2.0data status	okinstallation	princeton_trtdifferential loss correction	single-endedforward channel	channel 4reverse channel	N/Adate	2019/09/13time	14:09:35forward acquisition time	60.00reverse acquisition time	0.00gamma	496.2192k internal	0.2295k external	0.2295temperature offset calibration	1.0211default loss term (dB/km)	0.3790temperature slope calibration	1.0000multiplexer offset coefficient	1.0000multiplexer slope coefficient	1.0000fibre end	0.00T internal ref (°C)	35.27T ext. ref 1 (°C)	4.62T ext. ref 2 (°C)	30.38length (m)	temperature (°C)	Stokes	anti-Stokes-747.200	128.461	0.272	-0.354
-746.185	30.769	-0.323	0.283
-745.171	-126.882	0.189	0.028
-744.156	248.409	-0.106	0.183
-743.142	391.634	0.060	-0.128
-742.127	800.000	-0.041	0.124
-741.112	-33.081	0.181	-0.103
-740.098	-45.908	-0.083	-0.042
-739.083	-44.894	0.244	-0.124
-738.069	800.000	0.082	0.338
-737.054	-200.000	-0.014	-0.089
-736.039	484.729	0.196	0.456
-735.025	-131.401	0.396	0.054
-734.010	291.806	0.122	-0.226
-732.996	629.288	0.036	-0.093
-731.981	-200.000	-0.007	-0.230
-730.966	800.000	-0.084	0.258
-729.952	60.685	0.131	-0.132
-728.937	-31.516	0.151	0.087
-727.923	800.000	0.110	-0.376
-726.908	203.660	-0.235	-0.372
-725.894	19.879	0.181	-0.149
-724.879	60.359	-0.048	-0.049
-723.864	291.853	-0.135	0.251
-722.850	98.608	-0.198	-0.233
-721.835	73.232	-0.199	0.212
-720.821	-200.000	-0.038	-0.363
-719.806	85.784	-0.224	0.251
-718.791	71.524	-0.157	0.167
-717.777	-200.000	0.021	0.383
-716.762	311.799	0.050	0.096
-715.748	-60.384	-0.208	0.090
-714.733	84.158	-0.055	-0.061
-713.718	104.319	-0.149	-0.179
-712.704	-43.254	0.082	-0.042
-711.689	480.038	-0.075	-0.172
-710.675	-22.088	0.134	0.083
-709.660	-200.000	-0.011	-0.115
-708.645	84.908	-0.086	0.097
-707.631	-148.501	-0.230	0.019
-706.616	-75.153	-0.161	0.059
-705.602	-94.884	0.145	0.040
-704.587	61.653	0.057	-0.058
-703.572	369.028	-0.045	0.094
-702.558	-99.094	0.145	0.037
-701.543	-117.012	0.231	0.043
-700.529	-186.933	-0.349	-0.005
-699.514	800.000	-0.020	0.060
-698.499	-145.688	0.176	-0.016
-697.485	144.897	0.144	0.197
-696.470	-200.000	-0.013	-0.437
-695.456	-161.896	0.395	0.020
-694.441	-200.000	-0.033	0.155
-693.426	306.798	0.096	-0.182
-692.412	467.207	-0.158	-0.361
-691.397	-144.977	0.109	-0.010
-690.383	-24.764	0.104	-0.063
-689.368	-94.262	0.242	-0.067
-688.354	88.106	-0.173	-0.196
-687.339	-39.177	0.181	-0.097
-686.324	39.984	-0.177	0.162
-685.310	800.000	-0.090	0.264
-684.295	800.000	0.136	-0.457
-683.281	-142.324	0.195	0.020
-682.266	-200.000	-0.014	0.174
-681.251	-67.781	0.172	0.069
-680.237	-61.207	0.252	-0.108
-679.222	-56.202	0.258	-0.117
-678.208	-120.686	-0.162	0.028
-677.193	674.989	-0.117	0.308
-676.178	-54.884	-0.123	0.056
-675.164	-127.735	0.196	0.029
-674.149	800.000	-0.013	-0.038
-673.135	-200.000	-0.037	-0.210
-672.120	-108.371	-0.335	0.074
-671.105	-95.045	-0.132	0.036
-670.091	-26.137	0.178	0.106
-669.076	-200.000	-0.010	0.175
-668.062	-41.026	-0.186	0.098
-667.047	204.426	0.251	-0.396
-666.032	122.789	-0.102	0.131
-665.018	-33.630	-0.235	-0.132
-664.003	-25.839	-0.229	0.137
-662.989	-36.355	0.134	-0.073
-661.974	800.000	0.070	-0.271
-660.959	-200.000	0.070	0.433
-659.945	-200.000	-0.008	-0.053
-658.930	-200.000	-0.026	-0.130
-657.916	3.970	0.160	0.119
-656.901	129.881	-0.149	-0.194
-655.886	-66.366	-0.191	0.077
-654.872	33.344	0.141	-0.125
-653.857	-200.000	-0.020	0.175
-652.843	97.207	-0.166	0.194
-651.828	91.032	-0.056	-0.064
-650.814	800.000	-0.049	0.167
-649.799	800.000	0.064	-0.280
-648.784	-88.825	0.174	0.053
-647.770	270.965	0.126	0.225
-646.755	284.438	-0.084	0.154
-645.741	-78.763	-0.269	0.093
-644.726	800.000	-0.016	0.059
-643.711	800.000	0.101	-0.349
-642.697	310.271	-0.132	0.252
-641.682	800.000	-0.101	-0.365
-640.668	-108.516	0.229	-0.050
-639.653	-63.619	0.180	0.075
-638.638	88.653	0.200	0.227
-637.624	2.003	-0.284	0.209
-636.609	84.247	0.224	-0.249
-635.595	-146.629	-0.382	-0.034
-634.580	86.820	-0.053	-0.060
-633.565	-38.124	-0.113	0.061
-632.551	-200.000	0.069	0.338
-631.536	-200.000	-0.020	0.286
-630.522	119.548	-0.325	-0.410
-629.507	-200.000	0.005	0.168
-628.492	599.118	0.041	0.104
-627.478	331.417	0.174	0.342
-626.463	215.851	-0.044	0.071
-625.449	10.766	-0.149	0.115
-624.434	274.481	-0.293	-0.528
-623.419	-20.605	-0.339	-0.212
-622.405	184.445	-0.237	-0.356
-621.390	71.057	-0.291	-0.307
-620.376	-46.433	-0.059	0.029
-619.361	800.000	-0.146	0.601
-618.346	800.000	-0.053	0.235
-617.332	-74.150	-0.101	0.037
-616.317	252.130	0.105	-0.182
-615.303	157.046	0.280	-0.394
-614.288	421.491	0.044	-0.095
-613.273	-122.739	0.055	0.009
-612.259	-22.764	-0.118	-0.073
-611.244	-200.000	0.032	0.264
-610.230	-65.660	-0.159	0.065
-609.215	293.681	-0.070	0.130
-608.201	537.275	-0.110	0.267
-607.186	-143.677	0.180	0.017
-606.171	219.102	0.098	-0.160
-605.157	120.870	-0.261	-0.330
-604.142	-126.970	0.062	-0.009
-603.128	530.369	-0.024	0.057
-602.113	-35.788	-0.288	0.159
-601.098	800.000	0.086	-0.340
-600.084	12.104	0.208	0.163
-599.069	-60.633	0.170	0.073
-598.055	-200.000	0.018	0.193
-597.040	-127.267	0.399	0.059
-596.025	-152.230	-0.318	0.023
-595.011	800.000	0.049	-0.148
-593.996	3.114	0.270	-0.199
-592.982	-94.635	0.210	-0.058
-591.967	-172.019	-0.448	0.015
-590.952	432.710	-0.061	0.133
-589.938	-124.343	0.347	0.055
-588.923	329.264	0.096	-0.187
-587.909	-2.078	0.326	-0.233
-586.894	318.137	0.041	-0.079
-585.879	800.000	0.053	0.168
-584.865	-133.422	0.298	-0.038
-583.850	-200.000	0.010	-0.107
-582.836	-36.304	0.438	-0.240
-581.821	800.000	-0.042	0.175
-580.806	800.000	-0.105	0.303
-579.792	210.302	0.106	0.169
-578.777	-200.000	-0.029	0.148
-577.763	377.788	0.014	0.029
-576.748	184.451	-0.073	-0.110
-575.733	-110.765	-0.412	-0.086
-574.719	-200.000	-0.010	-0.138
-573.704	-73.347	-0.228	-0.085
-572.690	189.653	0.092	0.139
-571.675	-97.141	0.092	0.024
-570.661	62.794	0.134	-0.136
-569.646	-200.000	-0.005	0.094
-568.631	596.728	0.080	-0.202
-567.617	366.648	-0.171	-0.349
-566.602	-200.000	0.015	-0.300
-565.588	-98.964	-0.299	-0.077
-564.573	-114.317	-0.390	-0.076
-563.558	-139.067	-0.080	-0.009
-562.544	-200.000	-0.047	0.476
-561.529	236.246	0.098	0.165
-560.515	-28.848	0.089	-0.052
-559.500	-18.055	-0.061	0.039
-558.485	393.521	-0.046	-0.097
-557.471	-17.568	0.144	-0.092
-556.456	651.357	-0.048	0.126
-555.442	-200.000	0.019	0.406
-554.427	-200.000	0.018	0.289
-553.412	-32.958	-0.186	0.105
-552.398	-200.000	-0.006	-0.184
-551.383	-7.194	0.265	0.182
-550.369	-129.698	-0.346	0.048
-549.354	55.502	-0.057	0.056
-548.339	-44.025	0.257	-0.131
-547.325	106.245	-0.155	0.186
-546.310	21.060	0.315	0.259
-545.296	-13.299	0.124	0.082
-544.281	35.664	-0.431	-0.384
-543.266	246.272	0.196	-0.336
-542.252	-200.000	0.003	-0.167
-541.237	-200.000	-0.004	0.030
-540.223	-65.797	-0.381	-0.154
-539.208	-49.834	-0.201	-0.097
-538.193	192.524	-0.144	-0.220
-537.179	109.267	0.178	-0.217
-536.164	800.000	0.060	-0.198
-535.150	-105.248	0.356	0.082
-534.135	-200.000	-0.020	0.138
-533.121	141.103	0.112	0.150
-532.106	5.113	0.223	0.166
-531.091	-25.243	0.024	0.014
-530.077	-46.769	0.184	0.091
-529.062	208.459	-0.103	-0.164
-528.048	-200.000	0.028	-0.357
-527.033	253.021	-0.213	-0.368
-526.018	800.000	-0.051	-0.188
-525.004	-39.802	0.106	0.056
-523.989	48.769	0.190	0.181
-522.975	-200.000	0.055	0.318
-521.960	264.095	0.111	0.195
-520.945	800.000	-0.058	-0.210
-519.931	35.714	-0.060	0.053
-518.916	12.446	0.135	-0.105
-517.902	1.312	-0.222	-0.162
-516.887	-39.850	0.110	0.058
-515.872	-109.512	0.073	0.016
-514.858	47.671	0.125	-0.118
-513.843	123.811	-0.154	0.195
-512.829	-52.443	0.266	-0.124
-511.814	-87.560	-0.391	0.120
-510.799	800.000	0.069	0.219
-509.785	-113.610	0.313	0.062
-508.770	12.691	-0.075	-0.058
-507.756	75.361	0.271	-0.290
-506.741	272.597	-0.060	0.107
-505.726	42.348	0.128	0.118
-504.712	-91.755	-0.275	-0.079
-503.697	82.180	-0.040	-0.044
-502.683	794.124	0.122	0.341
-501.668	244.206	-0.262	0.445
-500.653	-135.171	0.410	-0.050
-499.639	800.000	0.111	0.382
-498.624	-200.000	0.029	-0.480
-497.610	-200.000	0.011	0.142
-496.595	69.371	-0.186	-0.194
-495.581	2.918	0.202	-0.148
-494.566	115.663	0.256	0.317
-493.551	-73.142	-0.276	0.102
-492.537	-6.534	-0.022	-0.015
-491.522	-1.603	-0.331	-0.236
-490.508	32.911	0.210	0.184
-489.493	58.246	0.083	0.082
-488.478	-46.183	0.070	0.035
-487.464	-22.790	-0.155	-0.095
-486.449	184.499	0.082	-0.122
-485.435	-170.547	0.317	-0.011
-484.420	-200.000	0.039	-0.231
-483.405	72.696	0.190	0.201
-482.391	333.159	0.193	0.377
-481.376	800.000	0.049	-0.140
-480.362	-147.491	-0.610	0.052
-479.347	800.000	0.059	-0.177
-478.332	215.432	-0.164	0.264
-477.318	219.998	-0.064	0.103
-476.303	-105.293	0.390	0.090
-475.289	55.848	-0.192	0.188
-474.274	-200.000	0.012	0.173
-473.259	-135.721	-0.110	0.013
-472.245	-90.668	-0.051	-0.015
-471.230	800.000	-0.030	0.114
-470.216	-200.000	0.024	0.122
-469.201	800.000	-0.058	0.173
-468.186	244.513	0.041	0.070
-467.172	-200.000	0.032	-0.553
-466.157	35.433	-0.230	-0.204
-465.143	64.190	0.191	0.194
-464.128	732.589	-0.175	-0.474
-463.113	800.000	0.066	-0.261
-462.099	-200.000	0.022	0.252
-461.084	249.480	-0.189	0.324
-460.070	-148.242	0.076	-0.006
-459.055	-62.486	0.185	0.078
-458.040	67.513	-0.154	-0.159
-457.026	-200.000	0.060	0.414
-456.011	-200.000	-0.017	-0.336
-454.997	800.000	0.143	-0.500
-453.982	250.794	0.241	-0.414
-452.968	254.260	-0.038	-0.065
-451.953	156.870	0.252	0.352
-450.938	2.604	-0.361	0.265
-449.924	-12.796	-0.108	0.071
-448.909	175.525	-0.103	-0.151
-447.895	-200.000	-0.035	-0.237
-446.880	-47.223	-0.291	0.143
-445.865	500.996	0.065	-0.151
-444.851	331.611	0.040	0.077
-443.836	276.196	-0.037	-0.066
-442.822	-75.336	-0.182	-0.066
-441.807	800.000	-0.039	0.161
-440.792	-164.620	0.233	0.011
-439.778	112.131	0.255	0.312
-438.763	-23.680	-0.152	-0.092
-437.749	-107.822	0.167	0.037
-436.734	-120.404	-0.201	-0.035
-435.719	329.225	0.065	-0.127
-434.705	42.922	-0.242	-0.223
-433.690	271.780	-0.177	0.316
-432.676	-200.000	-0.048	0.372
-431.661	-102.055	0.123	0.030
-430.646	134.899	-0.129	0.169
-429.632	-62.564	-0.086	0.036
-428.617	497.477	-0.026	0.060
-427.603	800.000	0.041	0.153
-426.588	159.642	-0.094	-0.132
-425.573	-200.000	0.002	-0.025
-424.559	156.964	0.101	-0.141
-423.544	-18.313	0.146	0.092
-422.530	540.014	0.125	0.301
-421.515	-34.061	-0.049	0.027
-420.500	708.457	0.099	0.265
-419.486	-200.000	-0.008	0.087
-418.471	-17.788	-0.133	-0.084
-417.457	72.188	0.108	-0.113
-416.442	-21.928	-0.112	0.069
-415.428	334.844	0.105	0.205
-414.413	49.550	-0.345	-0.328
-413.398	-117.251	-0.201	0.037
-412.384	800.000	-0.043	0.185
-411.369	-158.470	-0.169	-0.010
-410.355	-200.000	0.023	-0.298
-409.340	93.338	-0.226	-0.258
-408.325	-117.621	-0.108	0.020
-407.311	-200.000	0.051	-0.462
-406.296	-155.286	0.394	-0.026
-405.282	-162.951	-0.317	0.015
-404.267	-40.508	0.183	0.096
-403.252	-61.599	0.354	-0.150
-402.238	800.000	0.113	-0.323
-401.223	132.962	0.162	-0.210
-400.209	502.953	-0.104	0.241
-399.194	-151.352	0.155	0.012
-398.179	53.596	-0.318	-0.308
-397.165	212.711	0.143	0.228
-396.150	-63.115	-0.414	0.172
-395.136	-22.028	0.027	0.016
-394.121	800.000	0.018	0.063
-393.106	-20.576	0.127	-0.079
-392.092	-200.000	-0.006	0.029
-391.077	-93.440	-0.133	0.037
-390.063	-200.000	0.068	-0.315
-389.048	-106.355	0.055	-0.012
-388.033	-136.569	0.115	0.013
-387.019	-34.270	0.174	0.097
-386.004	112.090	-0.243	0.296
-384.990	-72.524	-0.233	-0.087
-383.975	422.716	-0.230	-0.498
-382.960	162.640	0.137	-0.194
-381.946	39.694	-0.152	-0.137
-380.931	800.000	0.010	-0.043
-379.917	-146.094	0.247	0.022
-378.902	-23.737	-0.065	0.039
-377.888	-44.912	0.309	0.155
-376.873	99.098	-0.266	-0.310
-375.858	-200.000	-0.012	0.235
-374.844	800.000	0.045	0.189
-373.829	-200.000	-0.038	-0.325
-372.815	-116.455	-0.259	0.048
-371.800	800.000	0.018	-0.061
-370.785	-200.000	-0.013	0.100
-369.771	-200.000	0.004	0.081
-368.756	-58.605	-0.160	0.070
-367.742	-148.320	0.052	-0.004
-366.727	295.540	-0.221	0.407
-365.712	11.119	0.256	-0.197
-364.698	-107.763	-0.263	0.058
-363.683	140.631	-0.160	0.212
-362.669	-145.350	-0.167	0.015
-361.654	-200.000	0.027	-0.164
-360.639	-200.000	-0.026	-0.144
-359.625	-61.970	-0.220	0.092
-358.610	-138.626	-0.268	-0.030
-357.596	-49.648	-0.633	0.303
-356.581	595.514	0.124	-0.309
-355.566	-200.000	0.053	0.249
-354.552	4.325	0.154	0.114
-353.537	-60.134	-0.354	0.152
-352.523	57.573	-0.207	-0.203
-351.508	-200.000	-0.000	0.003
-350.493	-163.409	-0.215	0.010
-349.479	-175.602	-0.192	-0.005
-348.464	-200.000	0.043	0.253
-347.450	35.362	-0.061	-0.054
-346.435	555.085	-0.129	0.312
-345.420	-123.189	0.017	0.003
-344.406	795.430	0.082	-0.227
-343.391	71.388	0.014	-0.014
-342.377	-26.062	0.254	0.150
-341.362	-152.442	0.279	0.020
-340.348	-200.000	-0.008	-0.407
-339.333	-37.771	0.533	-0.285
-338.318	101.865	-0.054	0.063
-337.304	-5.524	-0.120	-0.083
-336.289	-200.000	-0.018	0.217
-335.275	-71.028	0.100	-0.038
-334.260	654.723	0.047	0.121
-333.245	210.071	0.083	0.131
-332.231	-61.021	0.430	-0.183
-331.216	-71.531	0.384	-0.144
-330.202	-75.704	-0.270	0.096
-329.187	146.494	0.088	-0.119
-328.172	710.411	0.026	0.068
-327.158	-120.192	0.021	-0.004
-326.143	104.762	-0.145	0.172
-325.129	-189.670	0.260	-0.003
-324.114	-11.195	-0.203	0.134
-323.099	-35.928	0.132	0.072
-322.085	109.945	0.235	0.284
-321.070	-73.936	0.099	0.036
-320.056	-200.000	-0.031	-0.237
-319.041	-87.109	0.227	0.069
-318.026	207.343	-0.123	-0.193
-317.012	92.719	-0.234	-0.266
-315.997	120.457	0.093	-0.116
-314.983	-112.613	-0.254	-0.051
-313.968	-200.000	0.032	0.229
-312.953	557.410	0.033	-0.081
-311.939	-200.000	-0.026	0.146
-310.924	-200.000	-0.018	0.165
-309.910	-40.976	0.124	-0.064
-308.895	-80.269	0.101	-0.034
-307.880	676.279	0.070	-0.183
-306.866	-44.994	0.117	-0.058
-305.851	45.987	0.170	0.158
-304.837	-163.304	-0.058	0.003
-303.822	637.972	0.113	0.289
-302.807	-28.764	0.450	-0.260
-301.793	58.698	0.102	-0.101
-300.778	-0.437	-0.252	-0.180
-299.764	-200.000	-0.031	-0.180
-298.749	14.578	0.165	-0.130
-297.735	-107.742	0.006	-0.001
-296.720	-200.000	-0.039	0.363
-295.705	-36.299	0.433	-0.235
-294.691	17.449	0.062	-0.049
-293.676	-12.257	-0.391	-0.257
-292.662	-39.521	-0.105	-0.055
-291.647	-111.225	-0.253	0.052
-290.632	26.127	0.221	0.186
-289.618	31.302	-0.181	0.156
-288.603	505.627	0.136	0.316
-287.589	-166.733	0.230	0.010
-286.574	-57.465	-0.087	0.038
-285.559	-54.857	0.045	-0.020
-284.545	215.214	0.176	-0.280
-283.530	-200.000	0.060	-0.000
-282.516	-38.857	-0.099	0.052
-281.501	-97.857	0.274	0.071
-280.486	-37.082	0.206	0.111
-279.472	209.338	0.030	-0.047
-278.457	126.366	-0.151	-0.192
-277.443	436.026	-0.029	0.063
-276.428	-81.978	0.270	0.089
-275.413	-190.745	0.201	0.002
-274.399	-200.000	-0.013	0.212
-273.384	-91.929	-0.237	0.067
-272.370	-71.057	-0.275	-0.104
-271.355	-117.682	-0.272	0.049
-270.340	-172.755	-0.103	0.003
-269.326	-186.841	-0.100	0.001
-268.311	-171.899	-0.203	0.007
-267.297	-12.769	-0.039	0.026
-266.282	60.036	0.170	-0.168
-265.267	-136.718	-0.310	0.036
-264.253	-83.319	0.264	0.085
-263.238	-144.349	0.066	-0.006
-262.224	392.948	0.025	0.051
-261.209	-200.000	-0.015	-0.196
-260.195	800.000	0.042	-0.179
-259.180	-128.024	-0.290	0.042
-258.165	19.200	-0.191	-0.154
-257.151	-29.862	-0.539	0.308
-256.136	358.243	-0.249	-0.498
-255.122	-134.142	0.134	-0.017
-254.107	184.388	-0.185	0.274
-253.092	467.489	0.105	0.235
-252.078	-65.730	0.166	-0.067
-251.063	66.831	0.021	-0.021
-250.049	563.792	-0.065	0.158
-249.034	-82.539	-0.306	-0.100
-248.019	361.810	0.054	-0.109
-247.005	31.267	0.151	-0.130
-245.990	108.407	0.227	-0.271
-244.976	249.969	0.083	-0.141
-243.961	-61.335	0.133	-0.056
-242.946	800.000	0.038	0.145
-241.932	800.000	0.020	-0.062
-240.917	658.530	0.035	0.089
-239.903	99.371	-0.131	0.151
-238.888	-101.992	0.110	-0.027
-237.873	-26.549	0.116	0.068
-236.859	-111.447	-0.356	0.073
-235.844	-88.548	-0.091	-0.027
-234.830	800.000	0.108	0.312
-233.815	-83.262	-0.118	0.038
-232.800	-200.000	-0.017	0.181
-231.786	120.977	0.123	0.153
-230.771	-200.000	0.019	-0.108
-229.757	253.863	0.111	-0.191
-228.742	800.000	-0.064	-0.269
-227.727	-73.954	-0.086	0.031
-226.713	67.973	0.090	-0.092
-225.698	-127.932	0.092	0.013
-224.684	-200.000	-0.013	-0.142
-223.669	-200.000	-0.027	0.176
-222.655	8.271	0.281	0.211
-221.640	-200.000	0.049	-0.455
-220.625	-200.000	0.001	-0.173
-219.611	-117.535	-0.177	-0.032
-218.596	-81.944	-0.072	-0.024
-217.582	-109.610	0.202	0.043
-216.567	150.725	-0.143	0.195
-215.552	-200.000	-0.007	-0.198
-214.538	-122.235	0.322	-0.053
-213.523	47.703	-0.116	-0.108
-212.509	-143.528	-0.152	0.014
-211.494	-200.000	0.006	0.172
-210.479	560.726	0.072	-0.173
-209.465	160.664	0.099	-0.138
-208.450	407.090	0.073	-0.154
-207.436	8.829	0.147	-0.111
-206.421	-200.000	-0.006	-0.161
-205.406	-128.222	-0.081	-0.012
-204.392	-150.183	-0.043	0.003
-203.377	800.000	-0.021	0.077
-202.363	800.000	-0.110	-0.427
-201.348	-61.512	-0.329	-0.138
-200.333	312.649	0.096	-0.180
-199.319	135.469	-0.022	0.028
-198.304	-13.204	0.068	0.044
-197.290	188.583	-0.170	0.254
-196.275	-6.647	-0.174	0.119
-195.260	-62.956	-0.127	0.053
-194.246	230.051	0.107	-0.175
-193.231	44.381	-0.258	-0.237
-192.217	-81.830	-0.263	-0.086
-191.202	-29.733	0.164	0.094
-190.187	-12.523	-0.186	-0.122
-189.173	215.311	0.119	0.188
-188.158	-107.346	0.161	-0.035
-187.144	-200.000	-0.019	0.142
-186.129	800.000	-0.022	0.069
-185.114	-113.542	-0.152	-0.030
-184.100	-74.343	-0.063	-0.023
-183.085	76.672	0.334	0.355
-182.071	-65.359	0.145	0.058
-181.056	499.697	0.029	0.066
-180.042	286.075	0.140	-0.253
-179.027	-51.290	0.011	0.005
-178.012	56.735	0.140	0.136
-176.998	238.979	-0.056	-0.093
-175.983	-47.643	0.114	0.055
-174.969	-191.905	-0.141	-0.001
-173.954	-109.840	0.194	-0.041
-172.939	-84.641	0.140	0.044
-171.925	145.158	0.322	0.430
-170.910	184.078	0.047	-0.070
-169.896	68.772	0.189	-0.194
-168.881	99.368	0.113	0.131
-167.866	-104.554	0.401	-0.093
-166.852	514.643	-0.134	0.312
-165.837	609.790	0.100	0.249
-164.823	800.000	0.009	0.036
-163.808	361.071	-0.060	0.120
-162.793	39.614	-0.168	0.151
-161.779	800.000	0.075	-0.214
-160.764	-85.538	0.383	-0.119
-159.750	-90.424	-0.133	-0.039
-158.735	7.029	0.195	-0.145
-157.720	-154.972	-0.523	0.034
-156.706	-200.000	0.009	0.241
-155.691	16.813	0.021	0.016
-154.677	-37.950	0.303	0.161
-153.662	79.252	-0.133	0.142
-152.647	-23.908	0.325	0.194
-151.633	-140.881	0.098	-0.010
-150.618	-200.000	0.033	-0.234
-149.604	171.633	-0.116	-0.167
-148.589	800.000	-0.108	-0.379
-147.574	562.387	-0.044	-0.105
-146.560	-87.966	0.122	0.037
-145.545	-13.975	-0.071	0.046
-144.531	-200.000	-0.025	-0.164
-143.516	-171.610	-0.231	0.008
-142.502	-167.710	0.110	-0.004
-141.487	-200.000	-0.038	-0.168
-140.472	-118.416	-0.316	-0.056
-139.458	1.806	-0.416	-0.299
-138.443	246.035	0.177	-0.297
-137.429	-200.000	0.059	-0.329
-136.414	800.000	-0.041	0.167
-135.399	-200.000	-0.010	-0.108
-134.385	-90.038	0.288	-0.084
-133.370	26.549	0.060	-0.050
-132.356	73.092	0.246	0.257
-131.341	270.495	-0.125	-0.219
-130.326	-200.000	-0.003	0.351
-129.312	-200.000	0.077	0.353
-128.297	-200.000	-0.008	0.071
-127.283	127.351	-0.129	-0.163
-126.268	800.000	0.021	-0.062
-125.253	5.972	-0.199	0.147
-124.239	74.817	-0.182	-0.191
-123.224	297.426	-0.110	-0.202
-122.210	-200.000	-0.003	0.019
-121.195	252.632	-0.181	0.307
