DTS Sentinel unit serial number:	SN413079Multiplexer serial number:	ORYXHardware model number:	OX4-SRSoftware version number:	ORYX F/W v4.00 Oryx Data Collector v3.7.2.0data status	okinstallation	princeton_trtdifferential loss correction	single-endedforward channel	channel 4reverse channel	N/Adate	2019/09/16time	16:29:35forward acquisition time	60.00reverse acquisition time	0.00gamma	496.2192k internal	0.2292k external	0.2292temperature offset calibration	0.9940default loss term (dB/km)	0.3790temperature slope calibration	1.0000multiplexer offset coefficient	1.0000multiplexer slope coefficient	1.0000fibre end	0.00T internal ref (°C)	40.22T ext. ref 1 (°C)	15.08T ext. ref 2 (°C)	33.92length (m)	temperature (°C)	Stokes	anti-Stokes-747.200	108.157	-0.190	-0.232
-746.185	615.306	0.144	0.369
-745.171	152.248	-0.118	0.165
-744.156	54.507	0.113	-0.111
-743.142	346.429	-0.108	-0.218
-742.127	-62.906	-0.228	-0.096
-741.112	-90.905	-0.299	-0.088
-740.098	-102.138	-0.220	-0.054
-739.083	-190.012	0.141	0.002
-738.069	111.163	-0.178	0.219
-737.054	-79.253	0.211	0.073
-736.039	-154.183	-0.454	-0.031
-735.025	383.268	0.078	0.165
-734.010	-9.597	-0.276	0.188
-732.996	350.490	-0.132	0.267
-731.981	-153.480	-0.160	0.011
-730.966	63.934	0.147	0.151
-729.952	328.098	-0.039	-0.077
-728.937	122.964	-0.143	0.183
-727.923	-73.678	-0.320	-0.119
-726.908	86.428	-0.193	-0.218
-725.894	-200.000	-0.009	-0.100
-724.879	196.910	-0.238	-0.372
-723.864	-80.304	-0.380	-0.130
-722.850	17.896	0.176	0.143
-721.835	-200.000	-0.031	-0.326
-720.821	50.980	-0.272	-0.263
-719.806	179.432	0.113	0.169
-718.791	-16.063	0.054	0.035
-717.777	-5.145	-0.146	0.103
-716.762	-37.198	0.213	-0.116
-715.748	-23.150	-0.127	0.078
-714.733	-81.211	-0.314	0.106
-713.718	-200.000	-0.042	0.255
-712.704	-200.000	0.011	-0.153
-711.689	-23.812	0.349	-0.214
-710.675	-39.282	0.165	-0.089
-709.660	68.305	0.074	-0.078
-708.645	-103.900	0.182	0.043
-707.631	-200.000	0.013	-0.186
-706.616	-142.280	-0.222	-0.022
-705.602	-200.000	0.017	-0.157
-704.587	16.185	0.306	-0.246
-703.572	59.403	-0.181	-0.183
-702.558	200.145	-0.037	-0.058
-701.543	85.632	0.178	0.200
-700.529	-68.152	0.289	-0.115
-699.514	-94.310	-0.203	0.057
-698.499	25.605	0.061	-0.052
-697.485	-192.708	0.231	-0.002
-696.470	-138.389	0.412	-0.046
-695.456	-22.979	0.067	-0.042
-694.441	142.317	0.178	-0.241
-693.426	-200.000	0.015	0.159
-692.412	-25.961	-0.341	-0.205
-691.397	-11.405	-0.094	-0.064
-690.383	-14.136	-0.286	-0.189
-689.368	604.778	-0.083	-0.210
-688.354	-128.930	-0.070	0.010
-687.339	182.995	-0.093	0.141
-686.324	9.512	-0.266	-0.206
-685.310	-200.000	0.019	-0.302
-684.295	-140.626	-0.455	-0.048
-683.281	-79.375	-0.334	-0.115
-682.266	96.076	-0.152	-0.178
-681.251	5.858	0.080	0.060
-680.237	580.311	-0.094	0.236
-679.222	108.920	-0.048	-0.059
-678.208	-56.303	-0.210	-0.095
-677.193	116.871	0.103	0.129
-676.178	691.172	-0.103	-0.275
-675.164	-144.498	-0.037	0.003
-674.149	-83.781	-0.049	-0.016
-673.135	-83.744	0.426	-0.139
-672.120	258.158	0.041	-0.073
-671.105	99.170	-0.107	0.126
-670.091	171.859	0.285	0.418
-669.076	20.844	-0.115	-0.095
-668.062	-200.000	-0.044	-0.473
-667.047	112.561	0.186	-0.229
-666.032	-167.642	-0.125	-0.005
-665.018	-200.000	-0.016	-0.125
-664.003	9.052	-0.160	-0.123
-662.989	-200.000	-0.004	-0.021
-661.974	-35.166	0.202	0.112
-660.959	74.163	0.198	-0.212
-659.945	73.875	0.246	-0.263
-658.930	800.000	0.071	0.236
-657.916	86.375	0.109	-0.123
-656.901	-200.000	-0.034	0.180
-655.886	-122.118	0.133	-0.022
-654.872	-105.019	-0.096	0.022
-653.857	-200.000	-0.004	0.019
-652.843	-53.628	-0.119	0.055
-651.828	-200.000	-0.014	0.192
-650.814	-52.692	0.282	-0.133
-649.799	155.078	0.270	0.378
-648.784	800.000	-0.058	0.242
-647.770	800.000	0.045	0.145
-646.755	800.000	0.030	0.130
-645.741	703.965	-0.122	0.327
-644.726	318.563	-0.157	0.303
-643.711	15.116	-0.141	0.112
-642.697	53.214	0.040	-0.039
-641.682	378.752	0.154	-0.321
-640.668	800.000	-0.027	0.080
-639.653	800.000	0.065	0.190
-638.638	-116.402	-0.389	0.073
-637.624	-62.773	0.389	0.164
-636.609	667.530	0.084	0.220
-635.595	800.000	0.062	-0.199
-634.580	800.000	0.022	0.066
-633.565	-128.920	-0.311	0.045
-632.551	-200.000	0.026	0.365
-631.536	244.603	0.097	-0.167
-630.522	-165.955	-0.101	-0.004
-629.507	162.299	0.142	-0.203
-628.492	-81.716	-0.259	-0.087
-627.478	173.421	0.131	-0.193
-626.463	-134.249	0.221	-0.028
-625.449	-122.740	-0.414	-0.068
-624.434	291.368	0.095	0.175
-623.419	-200.000	0.056	0.283
-622.405	122.324	0.055	-0.070
-621.390	-200.000	0.063	-0.304
-620.376	-172.743	-0.175	0.006
-619.361	800.000	-0.118	0.385
-618.346	-166.999	0.230	0.010
-617.332	-1.640	0.060	-0.043
-616.317	-200.000	-0.018	-0.101
-615.303	-89.870	-0.077	0.023
-614.288	166.717	-0.219	-0.317
-613.273	-200.000	-0.010	-0.223
-612.259	-125.595	-0.266	0.041
-611.244	-200.000	-0.021	-0.133
-610.230	608.855	0.044	-0.111
-609.215	-46.001	0.334	0.168
-608.201	-43.254	0.214	0.110
-607.186	464.984	0.169	-0.385
-606.171	800.000	0.098	0.354
-605.157	800.000	-0.095	0.285
-604.142	800.000	-0.080	-0.316
-603.128	-200.000	-0.018	-0.092
-602.113	-200.000	-0.006	-0.327
-601.098	-89.502	-0.123	-0.037
-600.084	-200.000	-0.009	0.112
-599.069	-126.648	-0.239	-0.036
-598.055	-7.733	-0.257	-0.177
-597.040	594.362	-0.058	-0.147
-596.025	-87.407	-0.112	-0.034
-595.011	-139.869	0.379	0.041
-593.996	794.695	0.036	-0.101
-592.982	25.232	-0.043	-0.037
-591.967	-200.000	0.076	-0.342
-590.952	-200.000	-0.003	-0.289
-589.938	-107.137	0.505	0.113
-588.923	156.753	-0.184	0.258
-587.909	94.608	-0.179	0.207
-586.894	597.701	-0.067	-0.169
-585.879	-157.848	-0.198	0.012
-584.865	77.314	-0.103	-0.112
-583.850	-200.000	-0.047	0.232
-582.836	467.227	-0.055	0.125
-581.821	-200.000	0.014	0.330
-580.806	108.783	0.111	-0.134
-579.792	-92.157	-0.277	0.080
-578.777	-14.066	0.210	0.138
-577.763	125.135	-0.290	0.372
-576.748	-84.984	0.179	-0.057
-575.733	43.905	0.083	-0.077
-574.719	-104.347	0.266	-0.063
-573.704	-38.656	-0.080	0.043
-572.690	-54.711	0.024	0.011
-571.675	-140.224	0.264	0.028
-570.661	-47.900	-0.193	0.095
-569.646	39.082	0.198	0.180
-568.631	800.000	0.004	-0.014
-567.617	676.515	-0.048	-0.128
-566.602	-28.918	0.121	-0.071
-565.588	272.125	0.111	-0.198
-564.573	-200.000	-0.020	-0.466
-563.558	800.000	-0.091	-0.282
-562.544	274.983	-0.185	-0.334
-561.529	-200.000	-0.006	-0.224
-560.515	521.879	-0.148	-0.354
-559.500	-79.664	0.232	0.079
-558.485	780.488	0.015	0.042
-557.471	800.000	0.024	0.078
-556.456	-200.000	0.001	0.137
-555.442	0.893	-0.086	-0.063
-554.427	800.000	0.117	-0.411
-553.412	267.875	-0.170	0.302
-552.398	139.439	-0.114	0.152
-551.383	39.614	0.141	-0.128
-550.369	329.480	0.002	0.004
-549.354	259.335	0.086	0.150
-548.339	118.835	0.058	0.072
-547.325	800.000	-0.040	0.147
-546.310	-35.859	-0.451	-0.248
-545.296	54.132	0.190	-0.185
-544.281	10.862	-0.109	-0.085
-543.266	-200.000	-0.053	-0.377
-542.252	-200.000	0.015	-0.386
-541.237	-10.478	0.169	-0.114
-540.223	45.282	0.163	-0.152
-539.208	169.209	0.230	-0.333
-538.193	-200.000	-0.003	-0.041
-537.179	-171.702	0.513	0.017
-536.164	194.796	-0.116	-0.179
-535.150	-55.633	-0.124	0.056
-534.135	72.037	0.096	-0.101
-533.121	-200.000	0.019	-0.130
-532.106	-44.562	-0.095	0.048
-531.091	800.000	-0.092	-0.268
-530.077	232.356	-0.151	-0.252
-529.062	287.127	0.091	-0.166
-528.048	-49.509	0.056	-0.027
-527.033	-31.651	-0.457	-0.260
-526.018	287.591	-0.195	0.359
-525.004	-165.627	-0.032	-0.001
-523.989	-72.012	0.175	0.066
-522.975	-200.000	0.012	-0.134
-521.960	-28.441	-0.233	-0.136
-520.945	-136.970	-0.452	0.052
-519.931	-139.340	0.062	0.007
-518.916	-200.000	0.021	0.116
-517.902	628.492	-0.018	0.046
-516.887	152.779	-0.107	-0.148
-515.872	800.000	-0.052	-0.165
-514.858	398.088	0.094	0.200
-513.843	611.679	-0.130	-0.329
-512.829	328.301	0.114	-0.222
-511.814	-151.291	0.259	-0.020
-510.799	-80.554	0.235	-0.079
-509.785	-63.737	-0.086	-0.036
-508.770	-177.203	0.422	-0.011
-507.756	-94.888	0.064	0.018
-506.741	-52.471	-0.264	0.124
-505.726	800.000	-0.070	0.240
-504.712	-200.000	0.004	-0.163
-503.697	115.509	0.149	-0.185
-502.683	800.000	0.115	-0.384
-501.668	389.210	0.069	-0.145
-500.653	-145.643	0.281	0.025
-499.639	763.620	-0.043	-0.118
-498.624	-146.263	0.330	-0.029
-497.610	229.816	-0.088	-0.145
-496.595	557.860	0.069	-0.169
-495.581	90.433	0.076	-0.086
-494.566	49.967	0.215	-0.205
-493.551	-37.445	0.054	0.029
-492.537	-106.916	-0.434	0.098
-491.522	-200.000	0.017	-0.226
-490.508	443.650	-0.043	-0.096
-489.493	512.451	-0.086	0.202
-488.478	325.644	-0.154	0.299
-487.464	-55.989	-0.159	-0.072
-486.449	-87.042	0.409	-0.126
-485.435	-200.000	0.079	0.000
-484.420	-91.595	-0.422	-0.122
-483.405	304.666	-0.114	-0.214
-482.391	-143.461	0.293	-0.028
-481.376	180.792	-0.075	-0.112
-480.362	800.000	0.052	-0.155
-479.347	-8.486	-0.109	-0.074
-478.332	-111.219	-0.269	0.056
-477.318	32.987	-0.107	-0.094
-476.303	-200.000	-0.017	0.102
-475.289	-39.629	0.151	0.080
-474.274	98.156	-0.082	0.095
-473.259	-200.000	0.064	0.287
-472.245	-27.539	-0.187	0.110
-471.230	-9.764	0.129	0.087
-470.216	-96.307	-0.292	-0.078
-469.201	800.000	-0.028	0.111
-468.186	-12.901	0.115	0.076
-467.172	-116.913	0.274	0.051
-466.157	800.000	0.013	-0.046
-465.143	-134.388	-0.226	0.028
-464.128	424.558	0.055	0.119
-463.113	-174.966	-0.387	0.011
-462.099	-200.000	-0.015	0.394
-461.084	440.001	0.034	-0.075
-460.070	-73.174	0.228	-0.084
-459.055	-66.738	0.241	0.097
-458.040	278.080	-0.214	-0.386
-457.026	-166.314	-0.285	0.012
-456.011	-48.495	-0.223	-0.109
-454.997	-64.940	-0.362	-0.148
-453.982	800.000	-0.093	-0.313
-452.968	552.790	-0.102	-0.247
-451.953	-200.000	0.002	0.244
-450.938	800.000	-0.045	-0.133
-449.924	233.680	-0.106	-0.177
-448.909	629.994	-0.103	-0.264
-447.895	790.919	0.107	-0.298
-446.880	-117.539	-0.134	0.024
-445.865	-200.000	0.041	0.278
-444.851	-152.948	-0.192	-0.014
-443.836	-80.556	0.126	0.042
-442.822	65.814	-0.156	0.160
-441.807	-36.436	0.241	0.131
-440.792	391.990	0.154	0.323
-439.778	-147.969	0.190	0.016
-438.763	800.000	0.045	0.143
-437.749	-200.000	0.015	-0.300
-436.734	252.304	0.061	-0.105
-435.719	115.749	-0.081	0.100
-434.705	-119.682	-0.167	0.029
-433.690	-27.226	-0.020	-0.012
-432.676	-86.852	-0.189	0.058
-431.661	-62.818	-0.158	0.066
-430.646	219.388	-0.156	0.252
-429.632	-105.910	0.079	-0.018
-428.617	97.059	-0.343	-0.397
-427.603	-200.000	-0.089	0.425
-426.588	-49.535	-0.124	-0.060
-425.573	306.594	-0.045	0.084
-424.559	-93.739	-0.092	0.026
-423.544	241.848	-0.211	-0.356
-422.530	-51.085	0.270	-0.128
-421.515	-98.803	0.126	-0.032
-420.500	-200.000	-0.037	0.232
-419.486	-150.279	0.106	-0.008
-418.471	-200.000	0.012	0.054
-417.457	-5.032	0.196	-0.136
-416.442	-63.362	0.242	0.101
-415.428	-180.747	0.356	0.007
-414.413	-71.771	0.161	0.061
-413.398	-200.000	-0.038	0.211
-412.384	-95.017	-0.370	0.101
-411.369	135.223	0.075	0.099
-410.355	115.950	-0.151	0.187
-409.340	68.233	-0.186	0.193
-408.325	-115.446	0.290	0.055
-407.311	-200.000	0.002	-0.014
-406.296	800.000	0.072	0.228
-405.282	-122.753	0.009	0.002
-404.267	-110.585	-0.278	0.058
-403.252	75.712	-0.149	-0.159
-402.238	-90.808	0.073	0.021
-401.223	800.000	-0.050	0.155
-400.209	100.238	0.067	0.078
-399.194	-162.809	-0.188	-0.009
-398.179	-40.391	-0.154	0.081
-397.165	-101.629	0.105	-0.026
-396.150	-200.000	0.031	0.206
-395.136	800.000	-0.146	-0.465
-394.121	-70.088	0.170	-0.065
-393.106	15.279	-0.217	0.171
-392.092	-200.000	0.002	-0.114
-391.077	175.414	0.125	0.183
-390.063	-165.879	-0.251	-0.011
-389.048	572.369	-0.092	-0.225
-388.033	-32.334	-0.210	0.119
-387.019	-200.000	-0.032	-0.163
-386.004	48.120	0.237	-0.223
-384.990	-1.634	0.295	0.210
-383.975	-44.023	0.321	-0.163
-382.960	-132.310	0.131	0.017
-381.946	800.000	-0.060	-0.170
-380.931	-95.266	0.281	-0.076
-379.917	-152.233	0.314	-0.023
-378.902	280.985	-0.118	-0.213
-377.888	-51.676	0.112	-0.052
-376.873	-37.360	-0.046	-0.025
-375.858	-58.033	0.174	-0.077
-374.844	-200.000	-0.003	0.047
-373.829	0.072	0.061	0.044
-372.815	541.908	-0.054	-0.129
-371.800	60.775	0.219	0.219
-370.785	-114.532	-0.137	0.027
-369.771	165.448	-0.113	-0.162
-368.756	45.687	0.130	-0.121
-367.742	0.533	0.106	0.076
-366.727	6.086	-0.049	0.036
-365.712	113.786	-0.156	0.192
-364.698	21.394	0.089	-0.073
-363.683	34.730	-0.254	0.224
-362.669	-116.108	-0.202	-0.038
-361.654	16.136	0.269	0.213
-360.639	-40.065	0.346	-0.182
-359.625	-63.241	-0.098	-0.041
-358.610	493.481	-0.061	-0.141
-357.596	658.875	0.034	-0.087
-356.581	114.146	0.048	0.058
-355.566	60.219	0.030	-0.030
-354.552	-78.669	-0.308	-0.106
-353.537	-200.000	-0.017	-0.201
-352.523	159.911	-0.068	0.096
-351.508	-200.000	-0.003	-0.122
-350.493	450.546	-0.150	-0.333
-349.479	-120.065	0.076	0.013
-348.464	29.688	-0.146	-0.125
-347.450	-35.386	-0.227	-0.124
-346.435	-1.711	-0.239	-0.170
-345.420	-20.906	-0.254	-0.157
-344.406	577.090	0.096	0.237
-343.391	105.372	-0.121	0.144
-342.377	-3.048	0.037	0.026
-341.362	83.633	0.273	0.300
-340.348	-148.166	0.079	-0.007
-339.333	64.348	0.065	-0.066
-338.318	-200.000	0.004	-0.060
-337.304	94.232	-0.212	-0.243
-336.289	347.797	-0.104	-0.206
-335.275	-200.000	0.002	-0.062
-334.260	-103.154	-0.422	0.100
-333.245	463.792	-0.062	0.140
-332.231	10.926	0.101	-0.077
-331.216	-74.148	0.413	-0.151
-330.202	172.963	0.154	0.223
-329.187	22.973	-0.167	0.138
-328.172	-200.000	0.037	-0.166
-327.158	-155.186	0.284	0.019
-326.143	800.000	0.082	-0.357
-325.129	49.275	-0.179	-0.169
-324.114	50.232	0.113	-0.108
-323.099	-117.092	0.281	-0.052
-322.085	-37.481	0.172	-0.092
-321.070	-200.000	-0.033	-0.280
-320.056	47.349	0.059	0.055
-319.041	348.774	0.068	-0.134
-318.026	800.000	-0.081	0.283
-317.012	-114.304	-0.262	0.051
-315.997	260.330	-0.068	0.118
-314.983	1.827	0.350	0.254
-313.968	-200.000	-0.003	0.053
-312.953	223.090	-0.174	0.282
-311.939	126.181	-0.284	0.361
-310.924	-16.289	0.057	-0.036
-309.910	-165.150	-0.198	0.009
-308.895	800.000	-0.033	0.097
-307.880	-106.056	-0.380	0.086
-306.866	648.636	0.081	0.208
-305.851	-118.876	0.411	-0.073
-304.837	122.370	-0.295	0.371
-303.822	61.063	-0.172	-0.171
-302.807	140.090	0.121	-0.161
-301.793	-75.649	0.251	-0.090
-300.778	-200.000	0.039	-0.194
-299.764	6.346	0.140	-0.105
-298.749	-200.000	-0.056	-0.429
-297.735	-22.960	0.159	0.096
-296.720	172.814	0.166	0.241
-295.705	585.229	0.217	0.536
-294.691	-13.895	0.180	0.117
-293.676	180.091	-0.056	0.082
-292.662	-200.000	-0.034	0.168
-291.647	-178.527	0.138	-0.003
-290.632	138.941	0.173	0.229
-289.618	-200.000	0.035	0.195
-288.603	-118.577	0.037	0.007
-287.589	-66.025	-0.113	0.045
-286.574	-200.000	-0.014	-0.164
-285.559	-200.000	-0.020	-0.359
-284.545	-200.000	-0.010	0.258
-283.530	145.848	-0.433	0.584
-282.516	-200.000	0.090	-0.419
-281.501	-120.959	0.200	0.034
-280.486	535.290	-0.025	0.060
-279.472	-200.000	0.030	-0.287
-278.457	77.924	-0.136	0.146
-277.443	49.796	-0.182	-0.172
-276.428	13.443	-0.208	0.162
-275.413	-88.267	0.377	-0.113
-274.399	97.950	0.081	-0.094
-273.384	800.000	0.090	0.357
-272.370	-200.000	-0.027	0.181
-271.355	-68.850	-0.107	-0.042
-270.340	22.722	0.110	0.090
-269.326	800.000	-0.082	0.230
-268.311	-200.000	0.039	-0.302
-267.297	150.018	0.206	0.280
-266.282	383.459	-0.113	0.234
-265.267	-47.517	-0.217	-0.106
-264.253	110.315	0.191	0.231
-263.238	139.070	0.101	-0.134
-262.224	-105.039	-0.174	0.040
-261.209	84.910	0.117	-0.129
-260.195	-121.583	0.207	0.034
-259.180	632.410	-0.070	0.179
-258.165	-200.000	0.020	-0.266
-257.151	800.000	-0.078	-0.290
-256.136	259.260	0.095	-0.164
-255.122	-74.999	-0.333	-0.120
-254.107	371.554	0.235	-0.479
-253.092	-19.578	-0.282	0.175
-252.078	-200.000	0.041	-0.201
-251.063	-93.253	-0.103	-0.029
-250.049	89.345	0.139	0.155
-249.034	62.380	-0.211	0.212
-248.019	-122.865	-0.048	0.008
-247.005	225.692	-0.116	0.189
-245.990	-112.027	0.334	0.068
-244.976	67.163	0.125	-0.128
-243.961	-10.236	-0.084	0.056
-242.946	-200.000	0.003	0.502
-241.932	-59.654	-0.320	0.138
-240.917	288.777	0.148	-0.270
-239.903	-84.129	-0.083	-0.026
-238.888	-134.188	-0.164	-0.020
-237.873	-91.697	-0.242	-0.069
-236.859	133.939	-0.144	-0.187
-235.844	80.279	-0.338	0.365
-234.830	-164.801	-0.117	0.005
-233.815	800.000	-0.047	0.200
-232.800	-81.101	-0.122	0.040
-231.786	14.121	-0.063	-0.049
-230.771	-200.000	0.012	-0.116
-229.757	162.164	-0.030	-0.043
-228.742	371.275	-0.027	-0.056
-227.727	576.905	-0.037	-0.090
-226.713	800.000	-0.065	-0.233
-225.698	15.179	-0.110	-0.086
-224.684	-45.384	0.233	0.116
-223.669	-200.000	-0.002	0.249
-222.655	16.153	-0.039	-0.031
-221.640	-81.666	0.417	0.137
-220.625	-157.559	0.162	0.010
-219.611	273.604	-0.192	-0.340
-218.596	10.010	-0.271	0.206
-217.582	-44.075	0.180	-0.091
-216.567	-110.280	0.523	-0.109
-215.552	-200.000	-0.009	0.272
-214.538	-200.000	-0.023	0.136
-213.523	-200.000	0.037	0.293
-212.509	1.044	-0.174	0.125
-211.494	11.282	0.261	0.200
-210.479	-200.000	-0.045	0.248
-209.465	77.138	0.078	-0.083
-208.450	229.132	-0.038	0.062
-207.436	118.291	0.196	0.243
-206.421	-200.000	0.046	-0.312
-205.406	18.307	-0.353	-0.283
-204.392	-200.000	0.014	0.119
-203.377	-68.373	-0.362	-0.141
-202.363	225.133	0.070	0.114
-201.348	-200.000	0.023	0.166
-200.333	-142.156	-0.040	0.004
-199.319	150.505	-0.044	0.060
-198.304	-4.994	-0.071	0.049
-197.290	-17.216	0.137	0.086
-196.275	43.992	-0.017	-0.016
-195.260	-140.430	-0.078	-0.008
-194.246	451.665	-0.092	0.204
-193.231	-4.480	0.259	-0.180
-192.217	155.016	-0.047	0.065
-191.202	-200.000	-0.013	0.214
-190.187	51.152	0.142	0.134
-189.173	-104.726	0.310	0.071
-188.158	-63.028	0.064	0.026
-187.144	-116.024	0.170	-0.032
-186.129	-200.000	-0.022	0.169
-185.114	800.000	0.064	0.240
-184.100	246.556	0.141	0.238
-183.085	174.452	-0.209	0.303
-182.071	-41.369	0.284	0.146
-181.056	126.099	0.114	0.144
-180.042	-38.128	0.175	-0.093
-179.027	136.795	0.288	0.377
-178.012	-200.000	-0.021	0.110
-176.998	-130.288	0.145	0.020
-175.983	56.850	0.115	-0.113
-174.969	-55.202	-0.219	-0.098
-173.954	-200.000	0.032	0.235
-172.939	559.367	0.081	-0.196
-171.925	800.000	0.091	-0.347
-170.910	-200.000	0.054	0.320
-169.896	-4.460	-0.357	-0.247
-168.881	157.851	0.172	-0.238
-167.866	-171.146	0.068	-0.002
-166.852	-26.187	-0.075	0.044
-165.837	800.000	-0.043	-0.181
-164.823	800.000	-0.020	0.082
-163.808	-43.867	0.219	-0.110
-162.793	-76.025	0.452	0.160
-161.779	175.302	0.084	0.122
-160.764	-19.458	-0.280	0.173
-159.750	-21.381	0.273	0.167
-158.735	-119.711	-0.176	0.030
-157.720	48.236	0.182	0.170
-156.706	24.906	0.090	0.074
-155.691	-102.808	0.369	0.088
-154.677	339.603	-0.049	0.096
-153.662	53.686	-0.125	0.120
-152.647	-146.602	-0.155	0.013
-151.633	-1.411	-0.170	0.120
-150.618	-200.000	-0.039	-0.333
-149.604	-14.860	-0.011	0.007
-148.589	-34.562	-0.269	-0.147
-147.574	488.566	-0.047	-0.107
-146.560	-114.901	-0.391	0.075
-145.545	75.561	-0.137	0.145
-144.531	-85.233	-0.165	0.052
-143.516	73.505	0.116	-0.122
-142.502	359.175	-0.062	0.123
-141.487	-62.892	-0.400	-0.166
-140.472	-200.000	-0.030	-0.141
-139.458	800.000	-0.086	-0.249
-138.443	-112.597	0.155	0.031
-137.429	42.839	-0.156	-0.142
-136.414	800.000	0.086	-0.273
-135.399	-200.000	-0.026	0.187
-134.385	368.507	-0.083	-0.168
-133.370	-200.000	0.010	-0.099
-132.356	68.821	-0.239	-0.246
-131.341	-6.159	0.046	-0.031
-130.326	-200.000	0.015	0.172
-129.312	-200.000	-0.004	0.056
-128.297	93.657	0.179	0.203
-127.283	73.906	0.194	-0.204
-126.268	209.063	0.153	-0.239
-125.253	800.000	0.072	-0.214
-124.239	-132.892	0.134	-0.017
-123.224	245.080	0.050	0.085
-122.210	-200.000	-0.027	0.138
