DTS Sentinel unit serial number:	SN413079Multiplexer serial number:	ORYXHardware model number:	OX4-SRSoftware version number:	ORYX F/W v4.00 Oryx Data Collector v3.7.2.0data status	okinstallation	princeton_trtdifferential loss correction	single-endedforward channel	channel 4reverse channel	N/Adate	2019/09/14time	06:21:34forward acquisition time	60.00reverse acquisition time	0.00gamma	496.2192k internal	0.2322k external	0.2322temperature offset calibration	1.0140default loss term (dB/km)	0.3790temperature slope calibration	1.0000multiplexer offset coefficient	1.0000multiplexer slope coefficient	1.0000fibre end	0.00T internal ref (°C)	26.58T ext. ref 1 (°C)	3.42T ext. ref 2 (°C)	20.60length (m)	temperature (°C)	Stokes	anti-Stokes-747.200	179.995	-0.192	0.284
-746.185	321.313	-0.154	0.296
-745.171	-158.396	0.108	-0.006
-744.156	-70.204	-0.240	0.092
-743.142	9.778	-0.205	-0.157
-742.127	16.145	-0.298	0.238
-741.112	695.215	-0.031	-0.083
-740.098	-129.451	-0.127	-0.018
-739.083	-5.696	0.113	0.078
-738.069	99.846	0.209	0.245
-737.054	-197.854	-0.281	-0.002
-736.039	35.811	0.125	0.111
-735.025	800.000	0.086	-0.353
-734.010	339.053	-0.317	0.623
-732.996	-152.633	0.100	-0.007
-731.981	251.691	-0.148	-0.254
-730.966	-200.000	0.034	0.197
-729.952	6.225	-0.105	-0.078
-728.937	13.778	-0.330	-0.259
-727.923	-200.000	-0.031	-0.219
-726.908	800.000	-0.049	-0.145
-725.894	-200.000	0.005	0.041
-724.879	-96.081	-0.120	0.032
-723.864	0.327	-0.090	0.065
-722.850	-32.382	-0.219	0.123
-721.835	-98.764	-0.313	0.081
-720.821	-49.693	-0.157	-0.075
-719.806	800.000	-0.041	0.129
-718.791	-200.000	-0.019	0.088
-717.777	-28.233	-0.309	0.180
-716.762	-154.091	-0.064	-0.004
-715.748	-74.998	-0.066	-0.024
-714.733	-69.704	0.315	-0.121
-713.718	-200.000	0.012	-0.076
-712.704	327.817	0.208	-0.403
-711.689	224.926	-0.161	-0.264
-710.675	-99.485	-0.248	-0.063
-709.660	-155.328	-0.119	-0.008
-708.645	-124.532	0.153	0.024
-707.631	-173.838	0.391	-0.012
-706.616	-74.166	-0.243	-0.089
-705.602	187.098	0.089	-0.134
-704.587	16.573	-0.110	0.087
-703.572	-89.468	0.205	-0.061
-702.558	-73.003	0.210	-0.078
-701.543	800.000	0.063	0.243
-700.529	-200.000	-0.014	0.116
-699.514	68.954	-0.324	-0.336
-698.499	35.592	-0.183	-0.162
-697.485	71.546	0.184	-0.193
-696.470	194.046	-0.207	0.316
-695.456	144.735	-0.090	0.121
-694.441	582.473	-0.031	0.078
-693.426	-9.378	0.241	-0.162
-692.412	109.161	-0.142	0.172
-691.397	-98.019	-0.314	0.082
-690.383	148.111	-0.186	-0.253
-689.368	173.050	-0.168	-0.244
-688.354	-45.187	-0.134	-0.067
-687.339	-116.977	0.391	0.072
-686.324	98.716	0.202	0.235
-685.310	86.963	-0.208	0.232
-684.295	-77.917	0.340	-0.118
-683.281	-200.000	0.052	-0.251
-682.266	-95.747	0.243	-0.065
-681.251	186.891	-0.070	-0.105
-680.237	-14.711	0.119	0.077
-679.222	-200.000	0.016	-0.140
-678.208	800.000	-0.090	-0.257
-677.193	-68.120	0.058	0.023
-676.178	6.589	0.187	-0.140
-675.164	-89.352	-0.480	-0.143
-674.149	248.035	0.123	0.210
-673.135	-32.360	-0.226	-0.127
-672.120	-133.776	-0.048	0.006
-671.105	157.064	0.018	-0.025
-670.091	40.000	0.198	-0.179
-669.076	161.083	0.179	0.251
-668.062	-22.899	0.045	0.027
-667.047	-200.000	0.005	0.037
-666.032	-66.625	-0.061	0.025
-665.018	72.486	0.097	-0.102
-664.003	-200.000	-0.003	-0.130
-662.989	225.581	-0.255	0.415
-661.974	-87.829	0.103	-0.031
-660.959	-200.000	-0.001	-0.211
-659.945	440.358	-0.024	0.053
-658.930	-6.714	-0.137	-0.094
-657.916	-200.000	0.036	-0.180
-656.901	-149.984	-0.248	0.019
-655.886	-200.000	0.004	0.232
-654.872	67.122	-0.095	-0.097
-653.857	353.108	-0.019	0.039
-652.843	-24.089	-0.171	-0.103
-651.828	-88.671	-0.392	0.117
-650.814	-87.091	0.270	0.083
-649.799	29.201	0.169	0.145
-648.784	800.000	0.050	-0.168
-647.770	-115.474	-0.521	0.099
-646.755	660.494	0.109	-0.282
-645.741	471.334	0.135	-0.305
-644.726	604.624	-0.132	-0.331
-643.711	-87.872	-0.169	0.051
-642.697	-5.225	0.111	0.077
-641.682	37.288	-0.137	0.122
-640.668	-200.000	-0.000	-0.263
-639.653	800.000	-0.043	0.148
-638.638	130.778	0.114	0.148
-637.624	-194.321	-0.210	-0.002
-636.609	368.591	-0.152	0.309
-635.595	145.194	0.104	0.141
-634.580	44.909	-0.070	0.065
-633.565	-198.167	-0.188	0.001
-632.551	-91.445	-0.040	0.011
-631.536	-175.395	-0.283	0.008
-630.522	78.510	0.081	-0.087
-629.507	800.000	-0.067	0.234
-628.492	206.654	-0.127	0.200
-627.478	-133.241	0.249	-0.032
-626.463	-200.000	0.048	-0.268
-625.449	-95.188	0.056	-0.015
-624.434	80.413	-0.118	-0.128
-623.419	41.377	-0.049	-0.045
-622.405	-126.721	-0.214	0.032
-621.390	3.754	0.035	0.025
-620.376	-99.983	-0.420	0.105
-619.361	179.951	-0.154	-0.227
-618.346	-27.309	-0.228	0.134
-617.332	-196.651	-0.253	0.002
-616.317	276.102	0.135	-0.241
-615.303	-124.771	-0.256	0.040
-614.288	-200.000	-0.000	-0.195
-613.273	79.956	-0.161	0.174
-612.259	-129.116	-0.430	0.060
-611.244	-200.000	-0.013	0.133
-610.230	-100.327	0.115	0.029
-609.215	-132.306	0.029	-0.004
-608.201	-200.000	0.007	-0.108
-607.186	-189.722	0.239	-0.003
-606.171	579.843	0.105	0.258
-605.157	800.000	0.054	-0.232
-604.142	-40.728	0.287	0.149
-603.128	-10.813	0.165	0.110
-602.113	-121.877	0.034	0.006
-601.098	800.000	0.047	0.206
-600.084	-146.008	-0.191	0.017
-599.069	-120.933	0.200	-0.034
-598.055	-70.068	0.226	0.086
-597.040	133.267	0.127	-0.165
-596.025	75.629	-0.103	0.109
-595.011	487.253	0.096	-0.221
-593.996	32.056	0.300	0.260
-592.982	43.641	-0.075	0.069
-591.967	-200.000	-0.009	0.166
-590.952	90.997	-0.434	-0.489
-589.938	800.000	-0.074	-0.207
-588.923	-38.251	-0.306	-0.163
-587.909	-82.121	0.113	0.037
-586.894	-52.710	0.017	-0.008
-585.879	-155.069	0.176	0.012
-584.865	-39.648	-0.324	-0.170
-583.850	100.342	-0.084	0.098
-582.836	-53.600	0.221	-0.101
-581.821	-152.390	-0.191	0.014
-580.806	-91.187	0.064	0.018
-579.792	76.890	0.041	0.044
-578.777	703.401	-0.042	-0.112
-577.763	-200.000	0.012	0.096
-576.748	-100.815	-0.255	0.063
-575.733	-49.268	-0.188	0.090
-574.719	37.538	0.211	0.188
-573.704	87.113	-0.144	-0.159
-572.690	-71.358	-0.387	-0.145
-571.675	16.431	0.153	-0.121
-570.661	-200.000	0.025	-0.238
-569.646	-89.510	-0.398	-0.117
-568.631	35.326	-0.193	0.169
-567.617	-105.886	0.331	-0.075
-566.602	-181.279	-0.041	-0.001
-565.588	-138.107	0.189	0.021
-564.573	800.000	0.020	-0.074
-563.558	-122.030	0.284	0.047
-562.544	55.057	0.149	-0.144
-561.529	250.369	-0.168	0.286
-560.515	-200.000	0.045	0.267
-559.500	-200.000	0.015	-0.078
-558.485	800.000	0.077	-0.296
-557.471	-200.000	-0.015	0.210
-556.456	297.893	-0.086	0.159
-555.442	-87.364	0.275	0.084
-554.427	9.884	0.413	-0.314
-553.412	800.000	-0.016	-0.068
-552.398	58.687	-0.204	-0.201
-551.383	-33.830	-0.350	0.193
-550.369	676.287	0.049	-0.127
-549.354	-175.228	-0.259	0.007
-548.339	72.216	0.427	-0.445
-547.325	65.968	-0.302	0.307
-546.310	-98.065	0.179	0.046
-545.296	-87.660	-0.248	0.075
-544.281	-56.876	0.349	-0.155
-543.266	-78.338	0.338	-0.116
-542.252	800.000	0.032	0.093
-541.237	91.955	-0.130	0.146
-540.223	111.468	-0.250	0.302
-539.208	-68.732	0.277	-0.107
-538.193	-32.199	-0.089	-0.050
-537.179	-111.738	-0.202	0.041
-536.164	800.000	0.016	0.055
-535.150	-200.000	0.006	0.112
-534.135	-36.679	-0.105	0.057
-533.121	662.072	-0.048	-0.124
-532.106	41.662	0.109	0.099
-531.091	-200.000	0.013	0.073
-530.077	-84.185	0.148	-0.047
-529.062	-28.424	-0.108	0.062
-528.048	167.000	0.127	0.180
-527.033	800.000	-0.129	-0.482
-526.018	-200.000	0.028	0.257
-525.004	88.548	-0.244	0.272
-523.989	172.421	0.079	0.114
-522.975	26.439	-0.075	0.062
-521.960	-11.079	0.062	-0.041
-520.945	-61.084	0.202	-0.085
-519.931	228.072	-0.191	-0.312
-518.916	-200.000	0.016	0.130
-517.902	-10.026	-0.337	0.224
-516.887	-32.890	0.309	0.172
-515.872	87.912	-0.034	-0.038
-514.858	-56.690	-0.212	-0.094
-513.843	194.360	0.139	-0.212
-512.829	-17.172	-0.053	-0.033
-511.814	-155.130	-0.096	0.006
-510.799	229.043	0.047	-0.076
-509.785	-131.960	0.106	-0.014
-508.770	25.251	-0.047	0.039
-507.756	-85.834	-0.225	-0.070
-506.741	77.422	0.147	0.156
-505.726	-13.008	-0.128	0.083
-504.712	800.000	-0.025	0.102
-503.697	-200.000	-0.061	0.382
-502.683	-76.818	0.115	-0.040
-501.668	-89.829	-0.338	-0.099
-500.653	746.363	0.083	0.225
-499.639	99.042	0.213	0.246
-498.624	-80.282	0.361	-0.121
-497.610	-90.013	-0.187	-0.054
-496.595	800.000	-0.044	-0.178
-495.581	-28.666	0.126	0.073
-494.566	-200.000	0.030	-0.379
-493.551	200.760	-0.065	0.100
-492.537	-200.000	-0.070	0.469
-491.522	800.000	0.061	0.190
-490.508	800.000	0.042	0.150
-489.493	-111.029	-0.202	-0.041
-488.478	800.000	0.091	-0.331
-487.464	-150.308	-0.272	0.021
-486.449	184.567	-0.163	0.242
-485.435	-138.453	0.060	-0.007
-484.420	108.873	0.077	0.092
-483.405	1.311	0.044	-0.032
-482.391	57.456	0.129	-0.126
-481.376	568.155	0.050	0.122
-480.362	-75.486	-0.064	-0.023
-479.347	-19.819	-0.147	-0.091
-478.332	800.000	0.095	-0.300
-477.318	-37.501	0.099	0.053
-476.303	-138.769	-0.354	-0.039
-475.289	-45.401	0.322	-0.160
-474.274	-200.000	0.010	-0.453
-473.259	-113.364	-0.127	0.025
-472.245	101.386	0.098	-0.114
-471.230	-23.430	-0.224	0.135
-470.216	-28.395	0.272	-0.157
-469.201	-200.000	0.029	-0.166
-468.186	98.648	0.051	0.058
-467.172	125.807	0.058	-0.073
-466.157	-46.476	-0.113	0.055
-465.143	61.115	0.211	-0.209
-464.128	-82.003	-0.327	0.107
-463.113	-63.842	-0.084	0.034
-462.099	88.568	0.139	0.154
-461.084	37.754	0.030	-0.027
-460.070	52.892	-0.186	0.178
-459.055	171.215	-0.270	-0.387
-458.040	-34.985	-0.189	0.103
-457.026	-166.258	0.392	0.017
-456.011	-95.669	0.273	-0.073
-454.997	131.513	0.250	0.321
-453.982	-200.000	-0.010	0.362
-452.968	-109.965	0.251	0.053
-451.953	800.000	-0.057	-0.176
-450.938	231.293	-0.198	-0.324
-449.924	418.670	-0.103	0.220
-448.909	-160.005	0.189	0.010
-447.895	119.963	-0.184	-0.228
-446.880	441.913	-0.111	-0.243
-445.865	65.584	0.063	-0.064
-444.851	-15.856	-0.118	-0.075
-443.836	-200.000	-0.011	0.049
-442.822	-126.547	-0.187	-0.028
-441.807	584.259	0.110	-0.269
-440.792	97.686	0.090	-0.104
-439.778	389.111	0.103	0.214
-438.763	-71.530	-0.485	0.181
-437.749	420.409	0.096	0.206
-436.734	240.371	-0.125	-0.207
-435.719	-119.784	0.342	-0.059
-434.705	-9.911	0.266	-0.176
-433.690	-76.346	0.249	0.087
-432.676	-200.000	-0.414	-0.000
-431.661	184.152	-0.067	-0.099
-430.646	-39.547	-0.103	0.054
-429.632	-90.247	0.092	0.027
-428.617	-8.246	0.122	-0.082
-427.603	-37.916	0.260	-0.138
-426.588	800.000	0.036	-0.127
-425.573	3.686	-0.239	0.174
-424.559	272.879	0.173	-0.304
-423.544	149.222	-0.205	0.276
-422.530	25.239	0.252	-0.209
-421.515	-200.000	-0.002	0.238
-420.500	114.697	0.230	0.279
-419.486	85.102	-0.153	0.168
-418.471	531.549	0.041	0.097
-417.457	9.632	-0.235	-0.178
-416.442	-115.283	0.166	0.031
-415.428	-103.504	-0.380	-0.089
-414.413	107.736	0.174	-0.206
-413.398	-200.000	-0.020	-0.110
-412.384	-167.897	0.456	-0.018
-411.369	66.502	-0.143	0.145
-410.355	-31.551	0.160	-0.090
-409.340	-44.490	-0.213	-0.106
-408.325	161.523	0.068	-0.094
-407.311	-13.731	0.078	0.051
-406.296	-7.783	0.365	0.246
-405.282	102.569	0.105	-0.123
-404.267	-197.875	-0.185	0.001
-403.252	-21.535	0.054	0.033
-402.238	24.364	0.177	0.146
-401.223	21.014	-0.309	-0.250
-400.209	-27.621	-0.098	-0.057
-399.194	-52.520	0.142	-0.066
-398.179	800.000	-0.070	-0.212
-397.165	-200.000	-0.014	-0.116
-396.150	-100.985	0.278	0.068
-395.136	-107.751	-0.053	0.012
-394.121	181.488	0.295	0.433
-393.106	-200.000	0.000	-0.133
-392.092	113.094	0.162	0.196
-391.077	-163.886	-0.222	-0.010
-390.063	62.143	-0.189	-0.188
-389.048	-175.288	-0.234	0.006
-388.033	-200.000	0.087	0.530
-387.019	236.292	-0.092	-0.152
-386.004	-200.000	-0.061	-0.267
-384.990	46.849	0.104	-0.097
-383.975	-197.235	0.060	-0.000
-382.960	-19.071	-0.066	0.041
-381.946	65.487	-0.347	0.350
-380.931	187.467	0.167	-0.249
-379.917	-200.000	-0.013	0.074
-378.902	-200.000	-0.036	0.267
-377.888	-200.000	0.010	-0.140
-376.873	-21.968	0.313	0.189
-375.858	-91.665	0.171	0.049
-374.844	14.575	-0.040	-0.031
-373.829	-2.915	-0.140	-0.097
-372.815	-78.346	0.352	0.120
-371.800	33.058	0.208	-0.179
-370.785	241.142	-0.175	-0.291
-369.771	800.000	-0.087	0.249
-368.756	157.092	-0.048	0.066
-367.742	33.696	-0.054	0.047
-366.727	800.000	-0.053	-0.219
-365.712	484.182	-0.111	0.252
-364.698	51.774	0.369	0.349
-363.683	-200.000	0.021	0.147
-362.669	800.000	-0.068	0.256
-361.654	-200.000	-0.013	0.271
-360.639	-200.000	-0.015	-0.448
-359.625	-200.000	0.008	-0.155
-358.610	-3.461	0.207	-0.143
-357.596	-26.368	-0.075	0.044
-356.581	-200.000	-0.036	0.176
-355.566	106.050	0.105	-0.124
-354.552	331.581	0.199	0.382
-353.537	800.000	0.015	0.066
-352.523	-200.000	0.007	0.098
-351.508	-103.971	0.101	0.023
-350.493	-200.000	-0.027	-0.500
-349.479	168.751	0.115	-0.162
-348.464	-100.163	0.221	-0.055
-347.450	49.927	-0.307	-0.288
-346.435	-60.672	-0.308	0.130
-345.420	617.813	0.118	-0.295
-344.406	800.000	-0.113	0.364
-343.391	150.700	-0.103	-0.140
-342.377	-200.000	-0.021	0.129
-341.362	-200.000	0.016	0.072
-340.348	-101.246	-0.295	0.072
-339.333	18.111	0.191	0.152
-338.318	259.481	-0.175	0.301
-337.304	800.000	-0.068	0.209
-336.289	-41.107	-0.031	-0.016
-335.275	172.953	-0.180	-0.257
-334.260	-122.646	-0.284	-0.046
-333.245	212.771	0.142	0.223
-332.231	305.738	-0.014	-0.026
-331.216	42.794	-0.047	0.043
-330.202	-130.396	0.149	0.020
-329.187	-200.000	-0.000	0.231
-328.172	101.619	0.187	0.217
-327.158	117.568	0.015	0.019
-326.143	-200.000	-0.009	-0.091
-325.129	15.473	-0.169	0.132
-324.114	371.503	0.033	-0.067
-323.099	2.074	-0.134	0.096
-322.085	96.145	-0.162	0.184
-321.070	800.000	0.031	0.091
-320.056	83.971	0.115	-0.124
-319.041	-200.000	-0.040	-0.279
-318.026	251.622	-0.140	-0.237
-317.012	130.187	0.202	-0.257
-315.997	-200.000	-0.009	0.360
-314.983	212.480	-0.031	-0.048
-313.968	200.243	-0.076	0.116
-312.953	800.000	0.060	0.248
-311.939	-11.364	0.154	-0.101
-310.924	-55.745	-0.066	0.029
-309.910	-100.891	0.253	0.062
-308.895	10.804	-0.073	-0.055
-307.880	-200.000	-0.003	0.041
-306.866	-200.000	0.040	-0.191
-305.851	-25.709	0.218	-0.128
-304.837	-10.592	-0.289	0.190
-303.822	-106.067	-0.093	-0.021
-302.807	-72.966	0.209	0.076
-301.793	631.008	0.054	-0.136
-300.778	800.000	-0.067	-0.206
-299.764	-122.611	0.174	-0.028
-298.749	-61.991	-0.073	0.030
-297.735	-54.430	-0.229	-0.103
-296.720	255.589	-0.040	0.068
-295.705	-38.923	0.115	0.060
-294.691	-200.000	0.043	-0.205
-293.676	568.015	0.086	0.208
-292.662	-26.175	-0.213	0.124
-291.647	-200.000	0.032	0.231
-290.632	-110.316	0.040	0.008
-289.618	458.570	0.080	0.177
-288.603	26.900	0.074	0.062
-287.589	-36.293	-0.142	0.076
-286.574	800.000	0.111	-0.376
-285.559	-22.720	-0.141	0.084
-284.545	227.384	0.066	0.107
-283.530	207.358	0.117	-0.181
-282.516	635.836	-0.084	-0.212
-281.501	800.000	-0.112	-0.332
-280.486	-200.000	0.137	0.000
-279.472	-127.687	-0.119	-0.017
-278.457	-200.000	-0.005	0.119
-277.443	-139.519	-0.210	0.022
-276.428	-77.799	-0.489	0.168
-275.413	-72.352	-0.234	-0.086
-274.399	222.566	0.208	-0.333
-273.384	-87.144	-0.287	0.087
-272.370	14.063	0.047	0.036
-271.355	55.926	0.048	-0.046
-270.340	-169.503	0.317	-0.011
-269.326	-9.331	-0.195	-0.129
-268.311	800.000	-0.046	0.171
-267.297	-18.547	-0.018	0.011
-266.282	-49.867	-0.343	-0.161
-265.267	499.187	-0.090	-0.205
-264.253	44.771	-0.204	0.186
-263.238	-200.000	0.020	-0.236
-262.224	140.897	-0.153	0.201
-261.209	800.000	-0.116	-0.365
-260.195	206.314	0.088	-0.136
-259.180	-112.714	0.365	-0.072
-258.165	82.480	-0.203	0.218
-257.151	-101.134	0.272	0.066
-256.136	-128.080	-0.185	-0.026
-255.122	238.488	0.125	0.206
-254.107	709.924	-0.172	0.451
-253.092	800.000	-0.048	0.151
-252.078	-102.684	0.192	0.045
-251.063	-200.000	0.379	0.002
-250.049	-144.992	-0.245	-0.022
-249.034	-103.163	-0.230	0.054
-248.019	-63.603	-0.065	0.026
-247.005	-200.000	-0.009	-0.208
-245.990	-97.058	-0.135	-0.035
-244.976	-101.430	0.030	-0.007
-243.961	-200.000	0.038	-0.429
-242.946	-121.073	0.116	0.019
-241.932	201.059	-0.005	0.008
-240.917	-200.000	0.074	-0.400
-239.903	103.379	-0.062	0.072
-238.888	-125.466	0.417	-0.063
-237.873	-78.500	-0.148	-0.050
-236.859	-200.000	-0.008	0.171
-235.844	100.707	-0.083	0.095
-234.830	-187.464	-0.098	-0.001
-233.815	13.386	-0.194	0.149
-232.800	-133.788	0.285	0.035
-231.786	96.373	0.193	0.219
-230.771	-20.471	-0.288	0.175
-229.757	-127.946	0.179	-0.025
-228.742	-87.681	0.238	0.071
-227.727	18.265	-0.181	0.143
-226.713	145.096	0.161	0.214
-225.698	-85.669	-0.171	-0.053
-224.684	-200.000	-0.017	-0.106
-223.669	-3.908	0.328	0.225
-222.655	71.517	0.076	0.078
-221.640	-200.000	-0.014	-0.186
-220.625	-200.000	0.028	0.217
-219.611	43.264	-0.356	0.322
-218.596	74.926	0.151	0.158
-217.582	-200.000	-0.047	0.278
-216.567	-193.498	0.109	0.001
-215.552	10.137	0.322	-0.243
-214.538	-120.786	0.200	0.033
-213.523	-112.547	0.199	-0.039
-212.509	-200.000	0.069	-0.309
-211.494	-200.000	-0.043	-0.297
-210.479	-8.321	0.425	-0.283
-209.465	-200.000	0.025	-0.173
-208.450	-98.490	-0.260	-0.066
-207.436	-18.435	0.270	0.167
-206.421	-200.000	0.036	0.187
-205.406	800.000	-0.080	0.269
-204.392	228.433	0.028	-0.044
-203.377	-200.000	0.020	-0.129
-202.363	-136.949	-0.139	0.016
-201.348	53.357	0.120	-0.114
-200.333	440.383	-0.132	0.286
-199.319	697.908	0.016	0.043
-198.304	-200.000	-0.088	-0.431
-197.290	-198.274	-0.402	-0.002
-196.275	-54.282	0.427	-0.192
-195.260	-200.000	0.028	-0.292
-194.246	277.008	-0.089	0.156
-193.231	-109.788	-0.105	-0.022
-192.217	3.021	-0.335	0.241
-191.202	-97.862	0.223	-0.057
-190.187	570.554	0.094	-0.226
-189.173	-41.229	0.214	0.109
-188.158	606.311	-0.040	0.098
-187.144	800.000	-0.039	-0.120
-186.129	-200.000	0.003	0.073
-185.114	-98.961	0.281	0.070
-184.100	-47.861	0.203	0.097
-183.085	800.000	-0.050	-0.172
-182.071	-86.371	0.143	0.043
-181.056	-86.539	0.224	-0.068
-180.042	-159.162	-0.303	-0.017
-179.027	-200.000	0.013	-0.318
-178.012	11.741	0.182	0.138
-176.998	-200.000	0.016	-0.279
-175.983	-200.000	-0.036	-0.307
-174.969	137.782	-0.087	0.113
-173.954	373.347	0.204	-0.411
-172.939	-64.639	0.345	0.138
-171.925	-200.000	0.012	-0.216
-170.910	-6.254	0.130	0.088
-169.896	-200.000	-0.036	-0.258
-168.881	-200.000	-0.024	0.167
-167.866	-26.391	0.256	0.149
-166.852	-148.741	0.149	0.012
-165.837	800.000	0.010	-0.043
-164.823	95.541	0.169	-0.190
-163.808	-92.066	-0.104	0.029
-162.793	33.900	0.292	0.251
-161.779	-163.618	-0.152	-0.007
-160.764	800.000	0.112	0.370
-159.750	-68.697	-0.084	-0.032
-158.735	449.869	0.113	-0.246
-157.720	34.411	-0.315	-0.271
-156.706	16.865	0.111	0.087
-155.691	-138.941	0.186	0.020
-154.677	455.068	-0.143	0.313
-153.662	-200.000	0.015	0.193
-152.647	312.010	-0.143	0.265
-151.633	308.124	0.080	-0.147
-150.618	-69.017	0.041	0.015
-149.604	-71.314	0.115	0.043
-148.589	-37.225	0.100	-0.053
-147.574	101.176	0.070	-0.080
-146.560	-200.000	-0.072	0.401
-145.545	800.000	-0.016	-0.047
-144.531	-33.199	0.080	-0.044
-143.516	137.836	-0.090	0.117
-142.502	-200.000	-0.035	0.170
-141.487	23.311	0.032	-0.026
-140.472	91.460	0.160	-0.177
-139.458	800.000	-0.098	-0.286
-138.443	235.269	-0.153	0.249
-137.429	14.861	0.321	0.248
-136.414	-80.799	-0.240	-0.079
-135.399	61.012	-0.111	0.109
-134.385	17.947	-0.093	0.073
-133.370	-105.539	0.262	-0.059
-132.356	-36.187	0.101	0.054
-131.341	-83.115	0.143	0.046
-130.326	800.000	0.045	0.188
-129.312	471.385	0.123	0.274
-128.297	169.900	0.150	0.212
-127.283	251.394	-0.225	0.378
-126.268	-174.746	-0.486	-0.014
-125.253	552.941	0.041	-0.098
-124.239	175.681	0.099	0.141
-123.224	-85.341	0.061	-0.019
-122.210	542.435	-0.068	0.160
-121.195	-200.000	0.003	-0.076
-120.180	283.458	0.092	-0.164
