DTS Sentinel unit serial number:	SN413079Multiplexer serial number:	ORYXHardware model number:	OX4-SRSoftware version number:	ORYX F/W v4.00 Oryx Data Collector v3.7.2.0data status	okinstallation	princeton_trtdifferential loss correction	single-endedforward channel	channel 4reverse channel	N/Adate	2019/09/18time	22:05:35forward acquisition time	60.00reverse acquisition time	0.00gamma	496.2192k internal	0.2332k external	0.2332temperature offset calibration	1.0031default loss term (dB/km)	0.3790temperature slope calibration	1.0000multiplexer offset coefficient	1.0000multiplexer slope coefficient	1.0000fibre end	0.00T internal ref (°C)	24.50T ext. ref 1 (°C)	0.81T ext. ref 2 (°C)	18.34length (m)	temperature (°C)	Stokes	anti-Stokes-747.200	-97.615	0.380	0.099
-746.185	19.129	-0.394	0.318
-745.171	-200.000	0.005	-0.059
-744.156	-200.000	0.041	0.314
-743.142	-200.000	-0.018	-0.302
-742.127	73.169	-0.048	-0.051
-741.112	-200.000	0.055	0.416
-740.098	-97.935	-0.148	0.038
-739.083	103.560	0.232	-0.274
-738.069	-200.000	-0.020	-0.110
-737.054	77.211	0.267	0.286
-736.039	-46.127	-0.397	-0.197
-735.025	-14.775	0.202	0.131
-734.010	-200.000	0.101	-0.515
-732.996	33.468	-0.108	-0.094
-731.981	151.258	0.029	0.040
-730.966	647.319	0.084	0.217
-729.952	-60.256	-0.232	-0.099
-728.937	-17.700	-0.235	0.148
-727.923	169.017	0.121	-0.174
-726.908	-129.212	0.154	0.022
-725.894	-57.442	-0.199	0.088
-724.879	-191.411	-0.446	0.005
-723.864	398.212	-0.121	-0.254
-722.850	800.000	0.095	-0.300
-721.835	335.124	0.117	-0.228
-720.821	-3.044	-0.097	-0.068
-719.806	-1.604	0.151	-0.107
-718.791	7.471	-0.085	-0.064
-717.777	-30.665	0.074	0.042
-716.762	-36.495	-0.086	-0.046
-715.748	2.014	-0.135	0.098
-714.733	-80.985	-0.173	0.058
-713.718	235.302	-0.049	-0.082
-712.704	319.133	-0.027	-0.051
-711.689	-13.310	-0.318	-0.207
-710.675	-105.200	-0.045	-0.010
-709.660	-122.059	-0.221	0.036
-708.645	800.000	-0.023	0.083
-707.631	-52.349	-0.134	0.063
-706.616	-112.373	-0.140	0.028
-705.602	-200.000	0.042	-0.278
-704.587	42.445	0.186	0.170
-703.572	800.000	0.069	-0.201
-702.558	-161.904	0.534	-0.027
-701.543	-31.638	-0.256	0.144
-700.529	59.770	-0.046	0.046
-699.514	161.520	0.092	0.129
-698.499	-36.139	0.166	-0.090
-697.485	34.246	0.416	0.364
-696.470	-121.942	-0.349	-0.058
-695.456	-18.043	0.227	-0.143
-694.441	800.000	-0.086	0.298
-693.426	49.416	0.018	0.017
-692.412	-200.000	0.224	0.001
-691.397	149.863	0.063	-0.085
-690.383	229.972	0.190	-0.312
-689.368	-200.000	0.011	-0.228
-688.354	-47.193	0.035	-0.017
-687.339	-19.997	-0.361	0.224
-686.324	800.000	0.031	-0.103
-685.310	153.386	-0.191	-0.262
-684.295	-140.504	-0.430	0.045
-683.281	535.742	-0.097	0.232
-682.266	-200.000	0.053	0.303
-681.251	-200.000	0.052	0.234
-680.237	370.126	-0.123	-0.250
-679.222	41.165	-0.129	0.117
-678.208	-200.000	0.064	0.302
-677.193	-122.423	0.172	0.028
-676.178	249.319	-0.125	-0.212
-675.164	-200.000	-0.004	-0.023
-674.149	-116.311	0.340	0.063
-673.135	-200.000	-0.020	-0.150
-672.120	748.820	0.108	0.292
-671.105	-76.891	0.191	-0.067
-670.091	-200.000	-0.041	-0.270
-669.076	-21.998	-0.344	0.210
-668.062	-154.402	0.387	0.026
-667.047	124.814	0.110	-0.138
-666.032	-200.000	0.009	0.290
-665.018	-200.000	0.005	-0.235
-664.003	-149.283	-0.112	-0.009
-662.989	800.000	0.100	0.435
-661.974	153.974	0.131	0.180
-660.959	800.000	-0.036	0.116
-659.945	-10.308	-0.060	0.040
-658.930	237.346	-0.164	-0.272
-657.916	45.498	0.308	0.285
-656.901	-66.051	0.238	0.095
-655.886	230.012	0.176	-0.288
-654.872	628.525	-0.084	-0.213
-653.857	-181.018	-0.240	0.005
-652.843	14.736	0.128	-0.100
-651.828	-200.000	0.019	-0.102
-650.814	-17.694	-0.188	0.118
-649.799	-156.288	0.187	-0.012
-648.784	-74.552	0.152	-0.055
-647.770	-200.000	0.029	-0.311
-646.755	31.527	-0.194	0.167
-645.741	85.133	0.149	0.164
-644.726	-151.635	0.184	0.014
-643.711	-13.563	-0.237	-0.154
-642.697	-30.834	0.115	0.065
-641.682	-200.000	0.010	-0.371
-640.668	68.198	-0.045	-0.046
-639.653	1.849	-0.209	-0.151
-638.638	28.162	0.520	-0.439
-637.624	-200.000	0.009	-0.076
-636.609	-120.142	-0.106	-0.018
-635.595	263.190	-0.014	0.025
-634.580	-187.513	-0.014	-0.000
-633.565	52.901	0.114	0.109
-632.551	-136.235	0.138	-0.016
-631.536	-130.178	-0.508	0.069
-630.522	-96.801	0.055	-0.014
-629.507	-103.748	-0.282	0.066
-628.492	-11.841	0.229	-0.151
-627.478	-93.308	0.112	-0.031
-626.463	-19.239	-0.156	-0.097
-625.449	-19.712	-0.294	-0.182
-624.434	327.551	-0.079	0.152
-623.419	124.441	0.166	0.209
-622.405	343.160	-0.089	0.175
-621.390	210.550	-0.071	-0.112
-620.376	-142.194	-0.295	-0.029
-619.361	-173.681	-0.141	-0.004
-618.346	291.427	-0.015	-0.027
-617.332	-51.468	-0.166	0.077
-616.317	368.532	-0.063	-0.128
-615.303	311.607	0.036	0.068
-614.288	14.500	-0.034	-0.027
-613.273	336.759	-0.082	0.160
-612.259	-200.000	-0.081	0.384
-611.244	338.119	-0.093	0.182
-610.230	-8.318	-0.264	0.178
-609.215	800.000	-0.092	-0.262
-608.201	102.556	0.154	-0.181
-607.186	-57.626	0.138	0.061
-606.171	267.268	0.098	0.172
-605.157	143.123	-0.150	0.200
-604.142	-102.187	-0.132	-0.032
-603.128	31.908	-0.108	0.093
-602.113	57.890	0.157	0.153
-601.098	-142.570	-0.374	-0.037
-600.084	424.745	-0.034	-0.074
-599.069	-58.993	-0.057	-0.025
-598.055	182.517	-0.186	0.274
-597.040	-90.784	-0.160	-0.046
-596.025	-200.000	-0.002	0.280
-595.011	-73.925	0.321	-0.116
-593.996	800.000	0.003	0.014
-592.982	-200.000	-0.006	-0.055
-591.967	-100.778	-0.117	0.029
-590.952	-127.673	-0.261	0.038
-589.938	-12.587	0.096	-0.062
-588.923	-12.460	0.158	-0.103
-587.909	50.899	-0.129	0.123
-586.894	-51.584	0.283	0.132
-585.879	2.827	0.126	0.092
-584.865	213.294	-0.119	0.188
-583.850	-200.000	-0.007	-0.037
-582.836	-8.189	-0.254	0.171
-581.821	-22.981	-0.220	0.133
-580.806	-200.000	0.001	0.179
-579.792	209.711	-0.134	-0.210
-578.777	52.140	-0.147	0.140
-577.763	-20.541	0.172	0.105
-576.748	9.894	0.180	-0.136
-575.733	-116.263	0.226	-0.042
-574.719	146.319	-0.139	-0.186
-573.704	71.003	-0.041	-0.042
-572.690	96.110	0.121	-0.139
-571.675	-200.000	-0.018	-0.257
-570.661	203.022	-0.023	-0.035
-569.646	158.975	-0.036	-0.050
-568.631	-200.000	0.017	-0.298
-567.617	526.573	-0.076	-0.178
-566.602	800.000	-0.018	0.056
-565.588	-8.821	-0.247	-0.165
-564.573	146.967	-0.066	-0.088
-563.558	126.136	-0.130	-0.165
-562.544	-33.888	0.056	-0.031
-561.529	77.503	-0.052	0.056
-560.515	304.286	-0.155	-0.287
-559.500	800.000	0.085	-0.308
-558.485	72.126	0.208	0.216
-557.471	-178.703	0.309	0.007
-556.456	395.198	-0.159	0.331
-555.442	-200.000	-0.024	-0.287
-554.427	-21.481	0.310	-0.189
-553.412	-162.892	0.288	-0.014
-552.398	-27.702	-0.213	-0.123
-551.383	-200.000	-0.038	0.213
-550.369	286.015	0.185	0.333
-549.354	-81.573	-0.204	0.067
-548.339	800.000	-0.040	0.130
-547.325	-108.968	-0.085	0.018
-546.310	154.594	-0.123	0.169
-545.296	-200.000	0.073	0.376
-544.281	-163.820	-0.161	0.008
-543.266	-42.836	-0.236	0.120
-542.252	-200.000	-0.009	-0.189
-541.237	-200.000	-0.099	0.438
-540.223	-60.509	0.324	-0.137
-539.208	-34.392	-0.107	-0.058
-538.193	-55.015	-0.409	0.184
-537.179	174.458	0.195	-0.281
-536.164	-116.944	0.348	-0.063
-535.150	-10.250	-0.124	-0.082
-534.135	43.800	-0.066	0.061
-533.121	-3.711	0.159	-0.110
-532.106	-200.000	0.028	-0.262
-531.091	-69.579	-0.251	-0.096
-530.077	-192.712	-0.232	-0.002
-529.062	800.000	0.152	-0.519
-528.048	340.820	0.054	0.104
-527.033	161.942	-0.176	0.246
-526.018	-200.000	0.067	0.380
-525.004	-152.724	0.220	-0.016
-523.989	-105.997	-0.039	-0.009
-522.975	-91.643	-0.433	0.123
-521.960	23.234	-0.208	-0.171
-520.945	533.718	-0.126	0.297
-519.931	-119.504	0.037	-0.006
-518.916	-200.000	0.061	0.360
-517.902	247.644	-0.118	-0.199
-516.887	615.048	0.056	0.141
-515.872	682.806	0.128	-0.333
-514.858	-53.619	-0.062	0.028
-513.843	33.445	-0.099	-0.086
-512.829	50.372	0.214	0.201
-511.814	32.227	-0.248	-0.214
-510.799	44.083	-0.090	-0.082
-509.785	800.000	0.071	0.277
-508.770	-57.782	-0.216	-0.094
-507.756	68.334	-0.120	0.122
-506.741	800.000	0.059	0.172
-505.726	686.404	-0.070	0.183
-504.712	-200.000	0.019	-0.173
-503.697	53.340	0.283	-0.271
-502.683	-127.182	-0.311	0.045
-501.668	477.628	0.156	-0.351
-500.653	-200.000	0.010	-0.272
-499.639	-200.000	-0.004	0.188
-498.624	-32.049	0.476	-0.265
-497.610	-82.435	-0.238	0.077
-496.595	142.110	0.167	0.221
-495.581	800.000	0.046	0.166
-494.566	99.629	0.037	0.042
-493.551	800.000	-0.039	0.123
-492.537	266.980	0.111	-0.194
-491.522	-200.000	-0.040	0.243
-490.508	-200.000	0.020	0.268
-489.493	-116.678	-0.276	0.050
-488.478	-74.725	0.343	-0.123
-487.464	-57.418	-0.363	-0.159
-486.449	402.750	-0.161	0.338
-485.435	498.085	-0.077	-0.177
-484.420	-30.583	-0.052	-0.029
-483.405	-200.000	-0.020	0.112
-482.391	-85.081	-0.112	-0.035
-481.376	8.843	0.238	-0.178
-480.362	-65.980	0.113	0.045
-479.347	800.000	0.037	0.129
-478.332	193.069	-0.177	0.266
-477.318	477.187	0.132	-0.298
-476.303	-200.000	0.017	0.156
-475.289	-84.769	-0.099	-0.031
-474.274	351.932	-0.137	-0.270
-473.259	31.938	0.160	-0.137
-472.245	-9.228	-0.329	0.219
-471.230	800.000	-0.037	0.148
-470.216	27.895	0.184	-0.154
-469.201	407.741	0.149	0.314
-468.186	-200.000	0.029	-0.147
-467.172	35.516	0.089	0.078
-466.157	800.000	0.067	-0.220
-465.143	-166.318	0.246	0.010
-464.128	366.311	0.138	0.277
-463.113	-44.028	0.243	-0.121
-462.099	-173.495	-0.231	0.007
-461.084	-200.000	0.051	-0.412
-460.070	31.733	0.172	-0.147
-459.055	28.772	-0.164	-0.138
-458.040	116.489	-0.182	0.222
-457.026	633.282	0.075	0.189
-456.011	-200.000	-0.037	0.345
-454.997	-200.000	-0.028	0.389
-453.982	243.982	-0.076	-0.126
-452.968	389.975	-0.135	0.279
-451.953	17.810	-0.232	-0.184
-450.938	-55.333	-0.255	-0.114
-449.924	-200.000	0.027	0.276
-448.909	489.723	0.163	-0.371
-447.895	800.000	0.074	0.209
-446.880	-200.000	0.008	-0.489
-445.865	251.306	-0.265	-0.449
-444.851	79.410	-0.067	-0.071
-443.836	125.393	-0.049	-0.062
-442.822	-92.173	0.250	-0.070
-441.807	76.076	-0.190	-0.200
-440.792	-21.940	-0.307	0.186
-439.778	591.721	0.095	0.234
-438.763	-41.754	0.260	-0.133
-437.749	575.343	0.032	-0.078
-436.734	51.830	-0.255	0.241
-435.719	-49.008	0.226	0.108
-434.705	344.389	-0.042	0.081
-433.690	-200.000	0.023	0.232
-432.676	-128.891	0.382	0.053
-431.661	31.166	-0.139	-0.119
-430.646	-27.312	0.185	0.107
-429.632	800.000	-0.075	0.263
-428.617	-42.740	-0.279	-0.141
-427.603	53.240	-0.291	-0.277
-426.588	-132.444	0.080	-0.010
-425.573	312.745	0.160	0.298
-424.559	-124.604	0.469	-0.072
-423.544	-200.000	-0.009	0.108
-422.530	-12.193	0.172	0.112
-421.515	-200.000	0.006	0.031
-420.500	-31.128	0.086	0.048
-419.486	61.722	0.176	0.174
-418.471	-62.810	0.127	0.052
-417.457	800.000	0.109	-0.312
-416.442	-122.443	0.028	-0.004
-415.428	-74.781	-0.447	0.159
-414.413	777.514	0.029	-0.078
-413.398	-85.791	-0.093	-0.028
-412.384	29.850	-0.224	0.190
-411.369	492.160	-0.138	0.314
-410.355	375.736	-0.151	0.306
-409.340	-104.381	-0.226	-0.052
-408.325	-200.000	0.018	0.169
-407.311	-166.238	-0.135	-0.006
-406.296	-139.198	-0.088	0.009
-405.282	-200.000	0.045	-0.391
-404.267	-75.723	0.297	0.105
-403.252	-11.780	0.306	0.199
-402.238	-64.187	0.189	-0.077
-401.223	-200.000	0.012	-0.143
-400.209	800.000	0.045	-0.167
-399.194	-200.000	0.046	0.230
-398.179	51.223	-0.110	-0.104
-397.165	247.810	0.234	-0.392
-396.150	29.975	0.049	-0.042
-395.136	-17.606	0.083	0.052
-394.121	-200.000	0.025	-0.520
-393.106	-43.151	-0.084	-0.042
-392.092	-103.081	-0.195	0.046
-391.077	113.908	-0.059	0.071
-390.063	158.511	-0.059	0.081
-389.048	-87.165	0.196	0.059
-388.033	-116.076	-0.165	-0.030
-387.019	-162.270	-0.100	-0.005
-386.004	-158.442	0.315	-0.018
-384.990	175.239	-0.066	0.095
-383.975	-83.869	0.050	0.016
-382.960	118.584	0.110	0.135
-381.946	-200.000	-0.008	0.347
-380.931	-200.000	-0.017	0.288
-379.917	-1.621	0.163	0.114
-378.902	356.677	-0.163	-0.322
-377.888	-200.000	-0.014	-0.251
-376.873	800.000	0.106	-0.322
-375.858	800.000	-0.165	-0.487
-374.844	-121.258	-0.066	-0.011
-373.829	558.790	-0.113	0.270
-372.815	233.621	0.034	0.056
-371.800	800.000	0.058	0.171
-370.785	-200.000	0.011	0.231
-369.771	150.093	-0.137	-0.184
-368.756	-200.000	0.016	-0.329
-367.742	-200.000	-0.006	0.116
-366.727	-154.650	0.181	0.012
-365.712	-158.411	0.228	0.013
-364.698	-128.463	0.186	0.026
-363.683	-200.000	-0.018	0.316
-362.669	-32.594	-0.294	-0.162
-361.654	800.000	-0.130	-0.455
-360.639	-130.931	0.310	0.041
-359.625	800.000	0.035	-0.096
-358.610	-102.362	-0.098	0.023
-357.596	-141.384	0.312	-0.031
-356.581	-73.949	0.156	-0.056
-355.566	4.107	0.131	0.095
-354.552	-200.000	-0.009	-0.140
-353.537	-165.665	-0.212	-0.009
-352.523	-175.322	0.111	-0.003
-351.508	279.599	-0.198	0.350
-350.493	-18.985	-0.346	-0.213
-349.479	-104.002	-0.196	0.045
-348.464	800.000	-0.080	0.243
-347.450	-26.091	0.097	-0.057
-346.435	26.774	-0.082	-0.068
-345.420	-200.000	0.037	0.268
-344.406	800.000	0.039	-0.141
-343.391	-128.388	0.226	0.032
-342.377	-141.587	0.201	-0.020
-341.362	-200.000	0.075	-0.493
-340.348	-47.038	0.162	0.078
-339.333	85.023	0.207	0.225
-338.318	-100.364	0.266	0.065
-337.304	77.339	0.328	0.346
-336.289	-200.000	0.008	-0.052
-335.275	-200.000	-0.118	-0.534
-334.260	-200.000	-0.016	-0.183
-333.245	-8.525	-0.330	0.219
-332.231	-160.172	-0.142	-0.008
-331.216	800.000	0.047	0.147
-330.202	161.658	0.162	0.225
-329.187	-151.021	-0.380	-0.028
-328.172	-200.000	-0.038	0.255
-327.158	8.793	0.133	0.099
-326.143	-110.363	0.159	-0.033
-325.129	-32.035	0.330	0.183
-324.114	800.000	-0.161	-0.528
-323.099	683.745	-0.112	0.289
-322.085	-57.043	-0.179	-0.078
-321.070	-3.606	0.226	-0.155
-320.056	33.572	0.078	-0.067
-319.041	-200.000	0.009	-0.410
-318.026	-33.323	-0.097	-0.053
-317.012	800.000	0.073	0.236
-315.997	210.840	-0.140	-0.218
-314.983	-5.215	-0.164	0.112
-313.968	-32.491	0.062	-0.034
-312.953	89.614	0.289	-0.319
-311.939	-200.000	-0.031	-0.168
-310.924	-37.479	-0.096	0.050
-309.910	-28.000	-0.077	0.044
-308.895	-49.732	0.283	0.133
-307.880	-200.000	-0.036	-0.201
-306.866	64.994	0.156	0.156
-305.851	-200.000	-0.061	0.303
-304.837	25.785	0.147	-0.121
-303.822	800.000	-0.070	0.249
-302.807	-200.000	-0.002	0.071
-301.793	119.980	-0.324	0.397
-300.778	-200.000	0.035	-0.289
-299.764	196.253	-0.125	0.188
-298.749	800.000	0.060	-0.202
-297.735	800.000	-0.030	0.122
-296.720	-162.292	0.258	0.013
-295.705	-54.819	-0.253	0.113
-294.691	-41.745	-0.243	-0.123
-293.676	-200.000	-0.043	-0.323
-292.662	800.000	-0.063	0.232
-291.647	567.364	0.105	-0.252
-290.632	-200.000	0.013	-0.106
-289.618	-153.024	-0.303	-0.021
-288.603	66.181	-0.100	0.100
-287.589	800.000	0.016	0.048
-286.574	18.326	-0.187	0.147
-285.559	-149.708	0.359	-0.028
-284.545	800.000	-0.013	-0.040
-283.530	486.601	-0.131	0.295
-282.516	-200.000	0.001	0.160
-281.501	800.000	-0.068	0.221
-280.486	-113.252	0.470	-0.091
-279.472	195.227	-0.223	-0.334
-278.457	-76.477	0.437	0.152
-277.443	273.111	0.047	-0.082
-276.428	37.652	-0.071	-0.062
-275.413	-0.872	0.198	0.138
-274.399	-81.862	-0.150	-0.049
-273.384	-89.773	0.443	0.128
-272.370	32.763	0.129	0.110
-271.355	-200.000	0.039	-0.208
-270.340	-200.000	0.014	-0.137
-269.326	21.646	-0.495	-0.398
-268.311	22.951	-0.138	0.112
-267.297	-200.000	0.437	0.002
-266.282	-130.464	0.104	-0.014
-265.267	83.850	0.169	-0.182
-264.253	-145.449	-0.146	-0.013
-263.238	273.283	-0.051	0.089
-262.224	-76.808	-0.108	0.037
-261.209	130.807	-0.065	-0.082
-260.195	680.165	0.151	-0.389
-259.180	-130.722	0.246	-0.033
-258.165	-200.000	-0.011	-0.095
-257.151	-65.710	0.216	-0.086
-256.136	-147.151	0.391	-0.033
-255.122	-110.479	0.174	-0.036
-254.107	25.940	0.196	-0.162
-253.092	-200.000	0.044	-0.199
-252.078	800.000	-0.091	0.334
-251.063	-200.000	-0.024	-0.162
-250.049	800.000	0.063	0.253
-249.034	-200.000	-0.006	-0.133
-248.019	222.136	0.075	0.120
-247.005	66.344	-0.051	-0.051
-245.990	81.499	-0.085	0.090
-244.976	-163.680	0.238	0.011
-243.961	171.305	-0.209	0.295
-242.946	800.000	0.082	0.258
-241.932	418.311	-0.029	0.060
-240.917	319.427	-0.142	-0.266
-239.903	-52.677	-0.428	0.195
-238.888	546.096	-0.107	-0.252
-237.873	-200.000	0.430	-0.002
-236.859	-52.671	-0.089	0.041
-235.844	800.000	0.098	0.311
-234.830	206.636	0.128	0.196
-233.815	-61.365	0.281	-0.117
-232.800	-167.385	0.297	-0.012
-231.786	67.268	-0.126	-0.127
-230.771	-75.530	0.476	0.167
-229.757	165.685	0.223	0.311
-228.742	333.037	0.127	-0.242
-227.727	-130.930	0.449	-0.059
-226.713	-93.963	-0.093	0.025
-225.698	194.979	0.191	-0.287
-224.684	33.144	-0.164	-0.140
-223.669	-129.949	0.281	0.038
-222.655	234.365	-0.030	-0.049
-221.640	607.027	0.093	-0.229
-220.625	-105.342	0.185	-0.042
-219.611	76.683	0.077	-0.080
-218.596	-127.321	0.034	-0.005
-217.582	172.778	-0.151	0.215
-216.567	-200.000	0.002	-0.255
-215.552	-101.709	0.051	0.012
-214.538	800.000	0.060	-0.236
-213.523	800.000	-0.157	0.449
-212.509	-182.183	0.187	-0.003
-211.494	-128.335	-0.332	0.047
-210.479	-34.085	0.099	-0.054
-209.465	-200.000	-0.015	-0.100
-208.450	220.570	0.150	-0.238
-207.436	-118.948	-0.211	-0.037
-206.421	29.273	-0.070	-0.059
-205.406	86.433	-0.260	-0.283
-204.392	-200.000	0.034	0.224
-203.377	-154.697	-0.205	0.013
-202.363	-200.000	0.002	0.012
-201.348	800.000	-0.023	-0.063
-200.333	-39.220	0.366	-0.189
-199.319	18.100	-0.327	0.256
-198.304	290.339	-0.129	0.231
-197.290	-200.000	0.001	-0.088
-196.275	-200.000	-0.005	0.234
-195.260	-200.000	-0.095	-0.452
-194.246	-32.116	0.076	0.042
-193.231	-18.572	-0.148	-0.091
-192.217	9.058	0.229	0.170
-191.202	676.186	-0.012	-0.030
-190.187	-175.298	-0.193	-0.005
-189.173	-200.000	0.073	0.327
-188.158	-75.647	-0.099	0.034
-187.144	13.776	0.092	0.070
-186.129	-28.702	-0.328	0.186
-185.114	800.000	0.019	-0.067
-184.100	800.000	-0.042	-0.128
-183.085	137.210	-0.069	0.089
-182.071	393.901	-0.110	0.225
-181.056	-91.678	0.070	0.020
-180.042	-114.282	0.183	-0.035
-179.027	-42.258	-0.295	0.148
-178.012	-144.901	0.223	0.020
-176.998	114.132	0.172	-0.207
-175.983	-9.595	0.084	0.055
-174.969	3.044	0.128	-0.092
-173.954	176.940	0.022	0.032
-172.939	-24.234	-0.165	0.097
-171.925	-200.000	0.021	0.177
-170.910	-153.312	0.364	0.025
-169.896	-200.000	0.039	-0.347
-168.881	-200.000	0.054	-0.302
-167.866	-27.450	-0.186	0.107
-166.852	-2.946	-0.159	-0.109
-165.837	480.206	-0.197	0.440
-164.823	218.268	0.147	0.231
-163.808	800.000	-0.087	0.337
-162.793	161.299	0.043	0.059
-161.779	279.346	0.187	-0.328
-160.764	-53.244	0.047	-0.021
-159.750	-107.724	-0.219	-0.047
-158.735	-77.027	-0.304	-0.104
-157.720	63.489	-0.019	0.019
-156.706	-48.975	-0.225	0.106
-155.691	-169.731	0.097	-0.003
-154.677	800.000	-0.079	-0.304
-153.662	-64.260	0.138	0.055
-152.647	-61.355	-0.269	-0.112
-151.633	-86.595	-0.295	0.089
-150.618	22.381	0.112	0.090
-149.604	-20.913	0.124	0.075
-148.589	155.400	-0.089	0.121
-147.574	-75.997	0.091	-0.032
-146.560	101.950	-0.078	-0.089
-145.545	-155.748	0.358	0.022
-144.531	-200.000	0.015	-0.119
-143.516	-175.738	-0.305	-0.008
-142.502	419.015	-0.051	0.106
-141.487	343.947	0.086	0.166
-140.472	-97.707	-0.437	0.111
-139.458	-36.671	0.158	-0.083
-138.443	-96.355	-0.428	-0.111
-137.429	52.263	0.188	0.176
-136.414	-200.000	0.024	0.202
-135.399	-128.290	0.133	0.019
-134.385	371.801	-0.087	-0.174
-133.370	558.776	0.037	0.088
-132.356	-200.000	-0.001	-0.309
-131.341	-36.370	0.063	-0.033
-130.326	-142.965	0.102	-0.010
-129.312	-200.000	-0.054	-0.255
-128.297	-200.000	-0.003	-0.233
-127.283	-71.454	0.129	-0.047
-126.268	-200.000	0.056	0.415
-125.253	-200.000	0.008	0.352
-124.239	-26.121	-0.160	-0.092
-123.224	800.000	-0.023	0.068
-122.210	-159.465	0.118	0.006
