DTS Sentinel unit serial number:	SN413079Multiplexer serial number:	ORYXHardware model number:	OX4-SRSoftware version number:	ORYX F/W v4.00 Oryx Data Collector v3.7.2.0data status	okinstallation	princeton_trtdifferential loss correction	single-endedforward channel	channel 4reverse channel	N/Adate	2019/09/17time	11:21:34forward acquisition time	60.00reverse acquisition time	0.00gamma	496.2192k internal	0.2309k external	0.2309temperature offset calibration	0.9985default loss term (dB/km)	0.3790temperature slope calibration	1.0000multiplexer offset coefficient	1.0000multiplexer slope coefficient	1.0000fibre end	0.00T internal ref (°C)	30.56T ext. ref 1 (°C)	0.31T ext. ref 2 (°C)	26.31length (m)	temperature (°C)	Stokes	anti-Stokes-747.200	-30.485	-0.258	0.149
-746.185	150.586	-0.151	0.209
-745.171	-200.000	0.000	0.035
-744.156	177.693	0.277	0.410
-743.142	147.163	0.077	-0.105
-742.127	-200.000	0.007	-0.094
-741.112	-177.419	-0.103	0.003
-740.098	373.775	-0.082	-0.170
-739.083	58.805	0.132	0.132
-738.069	800.000	-0.116	0.331
-737.054	-200.000	0.001	-0.232
-736.039	-17.418	-0.112	0.072
-735.025	-88.170	0.321	-0.098
-734.010	73.043	0.063	-0.066
-732.996	240.252	-0.041	-0.070
-731.981	254.441	-0.140	-0.244
-730.966	30.488	-0.156	-0.135
-729.952	-200.000	0.030	-0.160
-728.937	-200.000	0.069	0.000
-727.923	-6.203	-0.115	-0.080
-726.908	-97.170	-0.049	0.013
-725.894	153.028	-0.190	-0.264
-724.879	72.858	0.105	-0.112
-723.864	-200.000	0.008	0.165
-722.850	300.276	0.067	-0.126
-721.835	-200.000	0.057	-0.309
-720.821	-114.470	0.219	-0.043
-719.806	-75.774	-0.332	-0.120
-718.791	433.693	-0.257	-0.567
-717.777	-45.480	0.091	0.046
-716.762	124.393	0.020	0.026
-715.748	-100.099	0.387	-0.098
-714.733	-15.895	-0.240	-0.155
-713.718	517.052	0.058	0.137
-712.704	800.000	-0.047	-0.171
-711.689	-17.205	-0.110	0.071
-710.675	-41.089	-0.161	-0.084
-709.660	-45.332	-0.111	-0.056
-708.645	-66.066	0.069	0.028
-707.631	-160.452	-0.196	-0.011
-706.616	9.124	-0.216	-0.166
-705.602	621.030	-0.064	-0.163
-704.587	-200.000	0.010	-0.094
-703.572	56.494	-0.075	-0.074
-702.558	-140.615	0.222	-0.023
-701.543	-200.000	-0.031	0.147
-700.529	-200.000	-0.022	-0.395
-699.514	800.000	0.141	0.435
-698.499	-132.310	-0.172	0.023
-697.485	-20.399	0.158	-0.099
-696.470	114.273	-0.087	-0.108
-695.456	-200.000	-0.001	0.209
-694.441	-81.324	-0.393	-0.131
-693.426	-200.000	0.010	0.162
-692.412	-196.969	-0.261	-0.002
-691.397	425.349	0.083	0.181
-690.383	295.036	-0.092	0.171
-689.368	-200.000	-0.010	-0.052
-688.354	-200.000	-0.028	-0.345
-687.339	800.000	0.083	-0.280
-686.324	-126.547	0.116	0.017
-685.310	215.264	-0.063	-0.102
-684.295	-200.000	-0.004	0.106
-683.281	-38.111	-0.330	-0.177
-682.266	2.130	0.134	0.098
-681.251	800.000	0.053	0.173
-680.237	-177.279	0.055	0.001
-679.222	-200.000	-0.021	-0.190
-678.208	-53.168	0.475	-0.221
-677.193	800.000	-0.070	0.270
-676.178	9.532	0.204	-0.156
-675.164	248.995	-0.264	-0.453
-674.149	221.245	0.064	0.104
-673.135	-47.155	0.287	-0.142
-672.120	35.029	0.240	-0.213
-671.105	-200.000	-0.076	-0.451
-670.091	-51.633	0.383	-0.181
-669.076	451.327	-0.129	0.289
-668.062	33.659	0.157	0.139
-667.047	800.000	0.083	0.268
-666.032	489.816	0.133	0.307
-665.018	800.000	-0.083	0.292
-664.003	61.958	0.241	0.244
-662.989	-65.014	-0.235	-0.096
-661.974	-200.000	-0.031	-0.346
-660.959	128.004	0.039	-0.050
-659.945	-200.000	0.019	-0.171
-658.930	-71.016	-0.291	-0.111
-657.916	-192.741	-0.394	-0.004
-656.901	-125.488	0.279	-0.043
-655.886	184.085	-0.114	0.171
-654.872	-200.000	0.012	0.054
-653.857	609.507	-0.047	-0.120
-652.843	-9.206	-0.159	0.107
-651.828	26.965	0.145	0.123
-650.814	-147.834	-0.296	0.025
-649.799	79.596	-0.201	-0.219
-648.784	-133.916	0.145	0.018
-647.770	-127.517	-0.073	-0.011
-646.755	128.319	-0.036	-0.046
-645.741	442.268	-0.032	0.071
-644.726	-143.067	-0.432	-0.042
-643.711	-64.983	0.184	0.075
-642.697	-122.576	-0.128	-0.021
-641.682	53.350	0.294	0.285
-640.668	237.078	-0.155	0.260
-639.653	10.889	0.094	-0.073
-638.638	-59.927	0.152	0.066
-637.624	244.544	-0.190	-0.323
-636.609	800.000	0.060	-0.182
-635.595	58.495	0.236	-0.234
-634.580	-13.502	0.063	-0.042
-633.565	-117.360	-0.225	-0.041
-632.551	52.138	0.203	-0.196
-631.536	-116.417	-0.288	-0.054
-630.522	145.832	-0.217	-0.294
-629.507	105.078	-0.157	-0.188
-628.492	38.214	-0.305	0.275
-627.478	165.969	0.180	-0.258
-626.463	-200.000	0.023	0.274
-625.449	257.551	0.070	0.121
-624.434	468.531	0.103	-0.234
-623.419	-59.711	0.142	0.062
-622.405	-179.974	-0.164	0.004
-621.390	800.000	0.032	-0.093
-620.376	589.382	-0.093	0.232
-619.361	-0.592	-0.117	-0.084
-618.346	-54.271	-0.340	0.156
-617.332	54.586	-0.343	-0.334
-616.317	-144.067	0.072	0.007
-615.303	-68.404	0.050	0.020
-614.288	86.104	-0.105	-0.117
-613.273	-37.583	0.055	0.030
-612.259	175.707	-0.140	0.206
-611.244	-20.769	0.211	-0.131
-610.230	-141.166	-0.259	-0.027
-609.215	146.131	-0.133	-0.180
-608.201	-137.106	0.069	0.008
-607.186	71.999	0.145	0.153
-606.171	-68.761	0.101	0.040
-605.157	291.802	0.064	-0.118
-604.142	303.688	-0.142	-0.267
-603.128	102.548	0.106	0.126
-602.113	-114.468	-0.208	0.040
-601.098	-200.000	0.010	0.159
-600.084	-200.000	-0.011	0.066
-599.069	-116.151	0.113	-0.021
-598.055	305.516	-0.075	-0.141
-597.040	218.944	0.056	0.091
-596.025	570.780	0.098	-0.241
-595.011	-173.545	0.251	0.008
-593.996	185.945	0.031	-0.047
-592.982	-42.899	0.086	0.044
-591.967	3.003	0.241	-0.177
-590.952	120.876	-0.070	-0.088
-589.938	-200.000	0.020	-0.213
-588.923	800.000	-0.078	0.222
-587.909	114.197	-0.190	0.234
-586.894	-75.318	-0.391	-0.141
-585.879	-128.700	0.247	-0.035
-584.865	609.631	0.019	0.048
-583.850	800.000	0.051	0.161
-582.836	244.509	-0.067	0.113
-581.821	800.000	-0.059	0.173
-580.806	-86.415	-0.161	0.050
-579.792	-200.000	-0.006	0.361
-578.777	-54.247	-0.167	0.076
-577.763	743.883	-0.023	-0.062
-576.748	800.000	-0.087	0.327
-575.733	-100.981	0.177	-0.044
-574.719	-200.000	0.028	0.234
-573.704	-200.000	0.032	0.208
-572.690	-41.306	0.277	-0.144
-571.675	-121.556	-0.249	0.042
-570.661	-20.388	0.250	-0.155
-569.646	-113.388	0.160	-0.032
-568.631	-77.757	-0.091	-0.032
-567.617	800.000	-0.090	-0.312
-566.602	-126.642	0.353	-0.053
-565.588	-87.234	0.176	0.054
-564.573	66.434	0.184	0.188
-563.558	-154.252	-0.172	-0.012
-562.544	402.948	-0.254	-0.540
-561.529	-15.659	0.222	-0.143
-560.515	580.049	0.138	-0.341
-559.500	-83.835	-0.233	0.075
-558.485	800.000	-0.167	-0.494
-557.471	-161.177	0.330	-0.017
-556.456	98.191	0.085	0.099
-555.442	-200.000	-0.033	0.264
-554.427	-200.000	-0.001	-0.011
-553.412	16.210	-0.359	-0.286
-552.398	-157.352	-0.328	-0.020
-551.383	-94.360	-0.017	0.005
-550.369	16.731	-0.220	0.176
-549.354	800.000	0.028	0.086
-548.339	-200.000	-0.039	0.261
-547.325	361.266	0.070	-0.141
-546.310	-200.000	-0.003	0.173
-545.296	800.000	0.065	0.251
-544.281	160.376	0.156	-0.219
-543.266	-200.000	0.035	-0.388
-542.252	153.684	-0.054	0.075
-541.237	-81.402	0.056	0.019
-540.223	222.221	-0.162	-0.263
-539.208	-138.386	0.309	0.034
-538.193	-95.716	-0.090	-0.024
-537.179	149.931	-0.052	0.071
-536.164	800.000	-0.088	0.375
-535.150	61.708	-0.134	0.135
-534.135	0.038	0.166	0.119
-533.121	-200.000	0.003	-0.043
-532.106	-90.063	0.056	0.016
-531.091	-113.966	-0.325	-0.064
-530.077	-153.401	0.390	0.027
-529.062	-200.000	0.017	-0.106
-528.048	7.339	0.225	0.169
-527.033	136.941	-0.113	0.149
-526.018	-83.266	-0.421	-0.136
-525.004	-200.000	0.054	-0.420
-523.989	-200.000	0.029	-0.293
-522.975	-2.930	-0.033	0.024
-521.960	95.062	0.066	-0.076
-520.945	-11.986	0.053	-0.035
-519.931	725.366	-0.042	0.114
-518.916	-200.000	-0.015	0.000
-517.902	177.499	-0.112	-0.164
-516.887	201.957	-0.072	0.112
-515.872	-110.792	0.287	-0.060
-514.858	-16.251	0.161	0.103
-513.843	-200.000	0.018	0.281
-512.829	-159.910	-0.229	-0.013
-511.814	101.569	0.094	0.111
-510.799	287.775	0.058	-0.106
-509.785	96.445	0.118	-0.136
-508.770	27.909	-0.100	0.085
-507.756	-118.012	-0.097	-0.017
-506.741	-92.090	0.171	-0.049
-505.726	578.571	0.125	-0.307
-504.712	211.172	0.123	0.195
-503.697	800.000	0.106	-0.317
-502.683	-76.882	0.108	0.038
-501.668	127.092	0.193	-0.247
-500.653	413.066	0.092	0.196
-499.639	-113.422	0.111	0.022
-498.624	-14.931	0.373	0.241
-497.610	398.923	0.027	0.057
-496.595	20.219	-0.227	0.184
-495.581	48.820	0.129	0.121
-494.566	-95.643	0.271	-0.073
-493.551	-42.736	-0.152	-0.078
-492.537	-9.250	0.097	0.065
-491.522	800.000	0.055	0.242
-490.508	-48.581	-0.119	0.058
-489.493	-58.375	-0.157	0.069
-488.478	-200.000	0.021	-0.133
-487.464	-95.748	-0.095	-0.026
-486.449	-147.304	-0.170	-0.015
-485.435	-200.000	0.009	0.062
-484.420	800.000	-0.075	-0.261
-483.405	-128.639	0.483	0.069
-482.391	-200.000	0.022	-0.298
-481.376	618.282	0.151	-0.381
-480.362	-200.000	-0.006	0.042
-479.347	-17.281	0.098	-0.062
-478.332	24.049	-0.192	0.159
-477.318	800.000	-0.045	0.183
-476.303	-21.087	0.132	0.081
-475.289	-189.395	-0.058	-0.001
-474.274	87.288	-0.100	-0.111
-473.259	430.880	0.155	0.339
-472.245	96.428	0.159	-0.183
-471.230	-200.000	-0.047	-0.219
-470.216	-109.854	-0.167	-0.035
-469.201	93.497	-0.133	0.152
-468.186	-200.000	0.048	-0.309
-467.172	300.443	0.044	0.082
-466.157	-88.365	-0.191	-0.057
-465.143	29.923	-0.205	0.176
-464.128	-104.052	0.123	-0.029
-463.113	-200.000	0.031	0.425
-462.099	32.599	0.126	0.109
-461.084	-111.373	-0.363	0.074
-460.070	-70.084	-0.149	-0.057
-459.055	34.877	-0.095	0.084
-458.040	800.000	0.046	0.144
-457.026	196.894	-0.120	-0.184
-456.011	-8.788	-0.081	-0.054
-454.997	-164.284	-0.159	0.007
-453.982	-200.000	0.016	0.230
-452.968	-58.707	-0.370	-0.161
-451.953	-24.221	0.320	-0.192
-450.938	-194.531	0.160	-0.001
-449.924	-113.366	-0.130	-0.026
-448.909	-200.000	-0.026	0.186
-447.895	463.813	-0.158	-0.354
-446.880	254.520	0.173	-0.297
-445.865	-56.083	-0.271	0.121
-444.851	-200.000	-0.010	-0.157
-443.836	331.559	-0.089	0.172
-442.822	-200.000	-0.094	-0.427
-441.807	-91.618	0.359	0.103
-440.792	43.968	-0.326	-0.300
-439.778	252.301	0.042	0.072
-438.763	-187.737	0.128	0.002
-437.749	-124.037	-0.422	-0.067
-436.734	752.731	0.086	-0.234
-435.719	-200.000	-0.024	-0.135
-434.705	-200.000	-0.023	0.142
-433.690	800.000	-0.062	0.261
-432.676	87.240	-0.149	0.165
-431.661	800.000	0.027	-0.077
-430.646	-3.444	-0.348	0.243
-429.632	102.259	0.035	-0.041
-428.617	405.279	0.051	-0.108
-427.603	-200.000	0.012	0.153
-426.588	110.292	-0.086	0.104
-425.573	-148.073	-0.075	-0.006
-424.559	-67.985	0.041	0.016
-423.544	297.523	0.201	0.371
-422.530	-146.011	-0.039	-0.004
-421.515	138.534	-0.209	0.276
-420.500	-46.498	0.151	-0.074
-419.486	-86.977	-0.193	-0.059
-418.471	223.329	0.081	0.131
-417.457	-36.742	-0.088	0.047
-416.442	-78.116	0.267	-0.092
-415.428	228.337	0.090	-0.147
-414.413	55.896	0.161	0.156
-413.398	464.796	0.057	-0.127
-412.384	800.000	-0.051	0.176
-411.369	-29.489	-0.066	-0.038
-410.355	-125.236	0.302	0.046
-409.340	-174.068	0.227	0.007
-408.325	-64.104	-0.130	0.053
-407.311	-128.244	0.218	-0.031
-406.296	-21.602	-0.335	-0.205
-405.282	-13.334	-0.087	0.056
-404.267	-105.137	-0.245	0.056
-403.252	-200.000	0.098	-0.460
-402.238	51.180	-0.361	0.344
-401.223	61.537	0.171	-0.171
-400.209	156.309	0.107	0.147
-399.194	-20.832	0.166	-0.102
-398.179	90.865	0.126	0.142
-397.165	-200.000	0.018	-0.382
-396.150	800.000	-0.041	-0.131
-395.136	98.731	0.210	-0.243
-394.121	-89.091	-0.042	-0.012
-393.106	-200.000	-0.028	0.212
-392.092	417.828	0.170	-0.363
-391.077	55.363	-0.161	0.156
-390.063	-97.520	-0.098	0.026
-389.048	-200.000	0.003	0.247
-388.033	71.906	0.178	-0.186
-387.019	-200.000	0.009	-0.063
-386.004	181.232	0.142	0.209
-384.990	26.794	0.242	-0.203
-383.975	14.248	-0.247	0.193
-382.960	800.000	-0.088	-0.344
-381.946	-27.594	-0.311	0.181
-380.931	-108.831	-0.214	0.046
-379.917	-55.301	-0.252	-0.113
-378.902	-168.571	-0.047	-0.002
-377.888	-200.000	0.042	-0.225
-376.873	-200.000	0.033	-0.245
-375.858	77.978	-0.044	0.047
-374.844	473.177	0.049	0.110
-373.829	-200.000	-0.010	0.186
-372.815	386.765	0.073	0.150
-371.800	103.703	-0.141	0.166
-370.785	240.450	-0.049	-0.081
-369.771	-9.393	-0.193	-0.129
-368.756	-200.000	0.007	-0.202
-367.742	-108.123	0.177	-0.038
-366.727	-50.296	-0.339	0.160
-365.712	170.130	0.109	0.156
-364.698	-37.756	-0.224	-0.119
-363.683	28.614	0.090	0.076
-362.669	-200.000	-0.021	0.101
-361.654	712.015	0.067	-0.176
-360.639	-8.786	-0.190	-0.127
-359.625	-5.440	-0.154	0.106
-358.610	524.929	0.244	-0.575
-357.596	85.887	-0.155	-0.170
-356.581	-118.440	-0.153	0.027
-355.566	-192.798	-0.465	-0.004
-354.552	-200.000	0.052	0.276
-353.537	67.070	0.161	0.165
-352.523	800.000	-0.034	-0.144
-351.508	63.246	0.040	-0.040
-350.493	-70.479	-0.220	0.083
-349.479	-120.710	0.156	0.026
-348.464	498.450	0.134	0.308
-347.450	-148.900	0.103	0.008
-346.435	-111.933	0.353	-0.071
-345.420	-166.452	-0.161	-0.007
-344.406	108.654	0.125	-0.150
-343.391	2.585	-0.179	0.130
-342.377	-104.862	-0.176	-0.040
-341.362	304.172	0.156	-0.289
-340.348	279.116	-0.162	0.289
-339.333	800.000	0.013	-0.048
-338.318	364.037	0.142	-0.286
-337.304	-200.000	0.010	0.236
-336.289	-49.272	0.099	-0.047
-335.275	-111.940	0.591	0.119
-334.260	-90.053	0.159	-0.046
-333.245	-75.056	0.127	-0.045
-332.231	-200.000	0.058	-0.383
-331.216	3.738	-0.144	0.105
-330.202	800.000	-0.063	0.192
-329.187	22.012	0.013	-0.011
-328.172	-42.834	-0.130	0.066
-327.158	-200.000	0.029	-0.232
-326.143	-84.835	0.257	-0.081
-325.129	-29.061	0.181	-0.104
-324.114	-4.531	-0.120	0.083
-323.099	187.734	-0.212	-0.317
-322.085	-144.145	0.428	0.040
-321.070	-85.690	-0.172	0.053
-320.056	-90.491	-0.527	0.153
-319.041	131.347	-0.050	0.064
-318.026	119.440	0.191	-0.236
-317.012	305.352	0.150	-0.279
-315.997	800.000	-0.046	-0.150
-314.983	-35.283	-0.230	-0.125
-313.968	-131.336	0.360	0.048
-312.953	109.622	0.101	-0.121
-311.939	368.676	-0.111	-0.224
-310.924	232.035	-0.079	-0.130
-309.910	-69.682	-0.132	0.050
-308.895	60.309	-0.086	0.085
-307.880	-200.000	0.029	0.179
-306.866	-154.362	0.166	0.011
-305.851	800.000	0.053	0.162
-304.837	259.116	-0.094	0.161
-303.822	411.047	0.102	0.216
-302.807	-200.000	-0.002	0.057
-301.793	-200.000	-0.005	-0.208
-300.778	800.000	-0.043	-0.157
-299.764	800.000	-0.043	-0.163
-298.749	-177.547	-0.150	-0.004
-297.735	157.727	-0.290	0.400
-296.720	-24.946	-0.269	0.159
-295.705	-111.611	0.375	-0.076
-294.691	-38.653	-0.258	0.136
-293.676	-200.000	0.000	-0.018
-292.662	-60.323	0.156	0.066
-291.647	800.000	-0.051	-0.199
-290.632	-146.582	0.275	-0.024
-289.618	800.000	-0.096	0.282
-288.603	394.797	0.051	0.106
-287.589	-64.510	0.351	0.142
-286.574	-22.761	0.309	0.186
-285.559	80.751	-0.314	0.338
-284.545	-26.757	-0.059	0.034
-283.530	91.620	0.174	0.195
-282.516	258.520	-0.023	0.039
-281.501	-55.019	-0.202	-0.091
-280.486	428.037	-0.098	0.211
-279.472	-179.756	0.365	-0.008
-278.457	130.067	-0.112	0.143
-277.443	-138.642	-0.104	0.011
-276.428	126.603	-0.087	-0.111
-275.413	2.310	-0.190	-0.137
-274.399	-103.469	0.268	-0.063
-273.384	-138.067	-0.327	0.036
-272.370	77.135	0.180	-0.190
-271.355	-129.112	-0.323	-0.045
-270.340	625.449	-0.111	0.279
-269.326	800.000	0.068	0.276
-268.311	-104.636	-0.343	0.079
-267.297	70.168	-0.125	0.128
-266.282	-49.178	0.183	-0.087
-265.267	403.324	-0.079	0.165
-264.253	272.160	-0.073	0.128
-263.238	196.759	-0.214	0.325
-262.224	-45.762	-0.081	-0.040
-261.209	366.195	0.122	0.245
-260.195	-175.876	-0.114	0.003
-259.180	-124.357	0.117	-0.018
-258.165	-200.000	0.015	0.181
-257.151	217.453	0.073	-0.115
-256.136	-149.634	0.190	-0.015
-255.122	28.107	-0.022	0.019
-254.107	-200.000	0.004	0.091
-253.092	99.602	0.138	-0.159
-252.078	414.607	0.171	0.364
-251.063	-62.431	0.195	0.081
-250.049	122.447	0.014	-0.018
-249.034	-200.000	-0.047	-0.399
-248.019	-200.000	-0.033	-0.215
-247.005	-72.150	0.182	0.067
-245.990	-200.000	0.043	-0.188
-244.976	24.093	0.073	-0.060
-243.961	-147.749	-0.285	-0.024
-242.946	-200.000	-0.048	0.539
-241.932	800.000	0.094	0.388
-240.917	-13.991	-0.100	0.064
-239.903	169.239	-0.119	-0.169
-238.888	-97.693	0.382	-0.099
-237.873	-25.574	0.302	-0.178
-236.859	-200.000	-0.007	-0.047
-235.844	560.875	0.069	-0.166
-234.830	311.166	-0.088	0.164
-233.815	800.000	0.016	0.048
-232.800	43.518	0.196	-0.178
-231.786	-17.983	-0.176	0.110
-230.771	-200.000	0.014	-0.095
-229.757	205.685	0.153	0.237
-228.742	-180.803	-0.023	-0.000
-227.727	-18.436	0.350	0.217
-226.713	29.521	0.201	0.171
-225.698	-14.424	-0.061	-0.039
-224.684	20.499	0.219	-0.176
-223.669	24.988	-0.136	-0.112
-222.655	800.000	0.068	-0.242
-221.640	800.000	0.128	0.444
-220.625	286.577	0.056	0.100
-219.611	-140.873	0.464	-0.048
-218.596	-200.000	-0.013	-0.247
-217.582	436.311	-0.027	-0.058
-216.567	-200.000	-0.034	-0.245
-215.552	800.000	-0.080	0.232
-214.538	472.211	0.123	0.275
-213.523	-200.000	0.035	-0.322
-212.509	45.163	0.194	0.178
-211.494	-200.000	0.040	-0.355
-210.479	-135.524	0.308	-0.036
-209.465	-90.999	0.120	-0.034
-208.450	-63.968	0.436	-0.177
-207.436	-34.059	-0.120	0.066
-206.421	54.965	-0.128	-0.123
-205.406	800.000	-0.075	-0.252
-204.392	-46.234	-0.337	0.165
-203.377	126.160	-0.169	-0.212
-202.363	-115.197	0.139	-0.026
-201.348	-34.108	-0.123	0.067
-200.333	224.059	-0.088	-0.141
-199.319	800.000	0.055	0.239
-198.304	-53.654	0.094	-0.043
-197.290	-170.299	-0.168	-0.006
-196.275	-166.263	-0.310	0.013
-195.260	372.399	0.146	-0.294
-194.246	-200.000	-0.041	0.240
-193.231	335.875	-0.073	-0.140
-192.217	-132.208	-0.382	-0.049
-191.202	718.764	0.025	0.066
-190.187	-131.601	-0.253	0.033
-189.173	-118.920	-0.224	0.039
-188.158	800.000	0.114	0.319
-187.144	331.660	0.210	0.402
-186.129	-82.928	-0.175	-0.056
-185.114	410.704	-0.023	0.049
-184.100	-200.000	0.006	-0.060
-183.085	-200.000	-0.027	0.122
-182.071	800.000	-0.065	0.208
-181.056	-112.108	0.221	-0.044
-180.042	-105.879	0.440	0.099
-179.027	-5.467	0.154	-0.105
-178.012	-200.000	0.002	-0.176
-176.998	153.526	0.172	-0.235
-175.983	-94.220	0.149	0.041
-174.969	171.056	-0.034	0.049
-173.954	-63.635	0.326	-0.133
-172.939	167.393	0.126	0.178
-171.925	-9.636	-0.101	0.067
-170.910	-100.133	-0.244	0.060
-169.896	10.582	0.152	-0.115
-168.881	198.833	0.085	0.129
-167.866	-120.450	0.209	-0.035
-166.852	430.655	-0.185	0.398
-165.837	-146.579	-0.299	-0.026
-164.823	-200.000	0.003	-0.026
-163.808	-200.000	0.003	0.029
-162.793	-121.690	0.336	-0.055
-161.779	-62.063	-0.243	0.101
-160.764	-171.083	0.157	-0.005
-159.750	-42.502	-0.372	0.188
-158.735	-16.162	-0.062	-0.039
-157.720	101.785	0.144	0.167
-156.706	800.000	0.061	-0.209
-155.691	4.430	0.298	-0.217
-154.677	-125.462	-0.347	0.052
-153.662	516.751	-0.120	0.278
-152.647	-65.416	0.128	0.051
-151.633	-200.000	-0.011	-0.057
-150.618	37.569	-0.150	-0.132
-149.604	254.480	0.179	-0.303
-148.589	17.013	-0.116	-0.092
-147.574	-118.457	-0.111	-0.020
-146.560	-111.782	-0.328	0.066
-145.545	0.626	0.232	-0.164
-144.531	-39.975	-0.183	-0.095
-143.516	65.288	-0.282	0.283
-142.502	196.733	0.108	0.163
-141.487	98.745	0.104	0.119
-140.472	-200.000	0.019	0.134
-139.458	800.000	0.041	0.114
-138.443	800.000	-0.152	0.420
-137.429	30.312	-0.118	0.100
-136.414	443.320	-0.078	-0.170
-135.399	122.157	0.257	0.318
-134.385	686.008	0.116	-0.301
-133.370	-200.000	-0.025	-0.187
-132.356	168.846	0.072	0.101
-131.341	-79.098	-0.215	0.072
-130.326	-83.529	-0.444	0.141
-129.312	149.750	-0.121	0.163
-128.297	800.000	0.025	-0.074
-127.283	800.000	0.091	0.273
-126.268	-200.000	-0.056	0.378
-125.253	-62.254	0.227	0.094
-124.239	-200.000	-0.020	-0.264
-123.224	270.748	0.107	0.187
-122.210	-104.491	0.247	0.057
