DTS Sentinel unit serial number:	SN413079Multiplexer serial number:	ORYXHardware model number:	OX4-SRSoftware version number:	ORYX F/W v4.00 Oryx Data Collector v3.7.2.0data status	okinstallation	princeton_trtdifferential loss correction	single-endedforward channel	channel 4reverse channel	N/Adate	2019/09/14time	20:21:35forward acquisition time	60.00reverse acquisition time	0.00gamma	496.2192k internal	0.2305k external	0.2305temperature offset calibration	1.0090default loss term (dB/km)	0.3790temperature slope calibration	1.0000multiplexer offset coefficient	1.0000multiplexer slope coefficient	1.0000fibre end	0.00T internal ref (°C)	33.67T ext. ref 1 (°C)	4.84T ext. ref 2 (°C)	28.18length (m)	temperature (°C)	Stokes	anti-Stokes-747.200	166.867	0.221	0.319
-746.185	307.217	0.028	0.053
-745.171	25.288	0.212	0.179
-744.156	-200.000	-0.014	-0.244
-743.142	-96.735	0.411	-0.110
-742.127	-1.451	0.223	0.160
-741.112	-19.368	0.273	0.173
-740.098	-70.487	-0.311	0.120
-739.083	-150.263	0.227	0.018
-738.069	7.520	0.184	0.140
-737.054	-200.000	-0.013	0.101
-736.039	83.607	0.185	0.205
-735.025	800.000	0.155	0.448
-734.010	607.353	-0.179	-0.455
-732.996	769.660	0.030	0.084
-731.981	-200.000	0.067	0.302
-730.966	-82.591	-0.197	-0.065
-729.952	-200.000	-0.025	-0.295
-728.937	-200.000	-0.144	0.001
-727.923	38.282	-0.076	-0.069
-726.908	800.000	0.142	-0.456
-725.894	-23.469	-0.182	-0.111
-724.879	79.736	-0.068	0.074
-723.864	800.000	0.038	0.109
-722.850	-72.683	0.307	0.115
-721.835	20.969	-0.158	-0.131
-720.821	57.685	0.173	-0.172
-719.806	-180.599	-0.207	0.004
-718.791	92.778	0.156	0.179
-717.777	731.915	-0.091	-0.248
-716.762	-199.229	0.217	-0.001
-715.748	800.000	0.050	-0.167
-714.733	96.404	0.054	-0.063
-713.718	-131.484	0.314	-0.042
-712.704	800.000	-0.057	-0.183
-711.689	60.486	-0.209	0.211
-710.675	-200.000	0.065	-0.461
-709.660	-130.150	-0.214	0.030
-708.645	406.405	0.125	-0.268
-707.631	228.333	-0.195	-0.323
-706.616	339.782	0.134	-0.265
-705.602	568.797	0.084	-0.208
-704.587	51.702	0.228	0.221
-703.572	-200.000	-0.035	-0.302
-702.558	-63.917	-0.242	-0.101
-701.543	-4.831	0.219	0.154
-700.529	87.408	0.162	0.182
-699.514	15.601	-0.151	-0.121
-698.499	-108.905	0.117	-0.025
-697.485	-169.538	0.297	0.011
-696.470	105.821	-0.039	0.047
-695.456	800.000	-0.093	0.333
-694.441	-159.347	0.170	-0.010
-693.426	-127.518	-0.063	0.009
-692.412	-41.105	0.032	0.017
-691.397	49.404	-0.127	0.121
-690.383	-65.057	0.204	-0.083
-689.368	271.243	0.125	0.224
-688.354	8.040	0.229	-0.175
-687.339	17.660	0.105	0.085
-686.324	-67.547	-0.082	0.033
-685.310	800.000	0.040	-0.156
-684.295	125.249	0.026	-0.033
-683.281	-194.331	0.125	-0.001
-682.266	-77.773	-0.309	-0.108
-681.251	-51.559	-0.222	-0.105
-680.237	30.446	0.059	0.051
-679.222	-0.252	-0.025	-0.018
-678.208	-115.328	-0.203	0.039
-677.193	22.425	-0.403	0.335
-676.178	47.684	-0.192	-0.181
-675.164	-85.302	-0.165	0.052
-674.149	-173.561	0.102	-0.003
-673.135	-200.000	0.019	0.242
-672.120	161.412	-0.074	-0.104
-671.105	357.671	-0.262	-0.531
-670.091	7.893	0.217	0.165
-669.076	-18.799	0.083	-0.052
-668.062	800.000	0.095	-0.267
-667.047	468.194	0.084	0.191
-666.032	54.158	-0.361	0.352
-665.018	158.468	-0.125	0.176
-664.003	-90.879	0.175	-0.051
-662.989	-200.000	-0.029	-0.155
-661.974	89.340	-0.063	-0.072
-660.959	-200.000	0.002	0.186
-659.945	-200.000	0.026	0.135
-658.930	-15.167	-0.232	-0.151
-657.916	408.629	0.106	-0.227
-656.901	197.249	-0.094	0.145
-655.886	-77.804	0.347	0.122
-654.872	-127.358	-0.235	-0.035
-653.857	-73.436	0.158	0.059
-652.843	-200.000	-0.021	-0.174
-651.828	36.456	-0.237	0.212
-650.814	630.780	-0.045	0.114
-649.799	800.000	-0.071	-0.273
-648.784	800.000	-0.025	0.100
-647.770	-119.678	-0.225	-0.039
-646.755	-175.589	-0.103	0.003
-645.741	-60.248	-0.179	-0.077
-644.726	-200.000	0.039	-0.305
-643.711	-79.129	-0.155	0.053
-642.697	-200.000	-0.013	-0.120
-641.682	11.320	0.081	-0.063
-640.668	-58.277	-0.198	-0.087
-639.653	218.069	-0.119	-0.193
-638.638	-200.000	0.008	-0.069
-637.624	-150.361	-0.312	-0.024
-636.609	-82.737	0.163	-0.053
-635.595	-31.782	-0.022	0.012
-634.580	232.921	0.186	-0.310
-633.565	189.939	0.147	-0.223
-632.551	190.697	-0.169	-0.257
-631.536	-200.000	0.046	0.326
-630.522	-200.000	-0.024	0.151
-629.507	64.682	-0.101	0.103
-628.492	399.172	0.043	0.091
-627.478	-200.000	0.001	0.055
-626.463	-200.000	-0.010	-0.117
-625.449	-49.191	-0.122	0.059
-624.434	99.764	-0.166	-0.195
-623.419	-95.201	0.306	0.084
-622.405	800.000	0.086	0.331
-621.390	146.170	0.051	0.069
-620.376	-157.051	0.202	0.012
-619.361	79.054	-0.096	0.105
-618.346	-126.447	0.107	0.016
-617.332	800.000	-0.055	0.159
-616.317	255.089	-0.101	-0.176
-615.303	-200.000	0.026	-0.382
-614.288	-134.035	0.352	-0.044
-613.273	-200.000	0.002	-0.090
-612.259	-127.656	-0.582	0.085
-611.244	10.661	-0.079	-0.061
-610.230	800.000	0.151	0.475
-609.215	82.123	0.272	-0.298
-608.201	70.532	-0.164	-0.172
-607.186	117.594	-0.072	-0.089
-606.171	219.821	-0.028	-0.045
-605.157	800.000	0.093	0.288
-604.142	285.468	-0.089	-0.162
-603.128	-200.000	0.009	-0.196
-602.113	800.000	-0.080	0.330
-601.098	118.794	0.187	-0.234
-600.084	-127.702	-0.221	0.032
-599.069	90.670	0.187	0.212
-598.055	800.000	0.034	-0.123
-597.040	-200.000	-0.014	0.144
-596.025	-87.827	-0.233	0.071
-595.011	-200.000	-0.060	-0.356
-593.996	-200.000	0.009	-0.150
-592.982	780.343	-0.051	-0.141
-591.967	-90.182	-0.217	-0.064
-590.952	-199.396	0.394	0.002
-589.938	80.652	0.305	0.332
-588.923	-43.594	-0.033	-0.017
-587.909	800.000	0.098	0.287
-586.894	-115.967	-0.221	0.042
-585.879	464.663	0.087	-0.198
-584.865	47.656	-0.166	0.157
-583.850	-113.435	0.073	-0.014
-582.836	800.000	0.082	-0.242
-581.821	-200.000	0.006	0.180
-580.806	-106.247	-0.142	-0.032
-579.792	-6.881	0.102	0.070
-578.777	174.666	-0.262	0.384
-577.763	287.070	0.101	0.184
-576.748	541.075	0.033	0.079
-575.733	273.298	-0.043	0.077
-574.719	178.543	0.102	0.150
-573.704	163.274	-0.128	-0.182
-572.690	11.307	0.132	0.102
-571.675	-200.000	0.006	-0.166
-570.661	-123.247	-0.157	0.025
-569.646	-98.026	-0.155	-0.040
-568.631	614.214	-0.085	0.215
-567.617	-14.606	-0.067	0.044
-566.602	800.000	0.032	-0.134
-565.588	223.892	0.050	-0.082
-564.573	737.655	0.107	-0.289
-563.558	-200.000	-0.021	-0.217
-562.544	412.003	-0.111	-0.239
-561.529	518.210	-0.107	0.254
-560.515	20.065	0.289	-0.235
-559.500	482.371	-0.109	0.250
-558.485	800.000	0.026	-0.078
-557.471	71.243	-0.177	0.185
-556.456	600.534	0.173	0.434
-555.442	800.000	0.075	0.287
-554.427	-200.000	-0.029	0.165
-553.412	-200.000	-0.009	0.652
-552.398	-146.539	0.243	0.021
-551.383	-200.000	-0.263	0.000
-550.369	800.000	0.068	0.276
-549.354	69.997	-0.233	0.243
-548.339	-119.447	0.254	0.045
-547.325	653.554	0.200	-0.517
-546.310	203.991	0.181	-0.283
-545.296	-59.617	-0.005	-0.002
-544.281	-197.665	-0.262	-0.002
-543.266	-163.513	0.078	0.004
-542.252	-200.000	-0.037	0.230
-541.237	106.335	0.207	0.248
-540.223	800.000	0.061	-0.234
-539.208	100.568	-0.174	-0.204
-538.193	-7.139	-0.108	0.074
-537.179	-200.000	-0.007	0.143
-536.164	227.301	-0.195	-0.319
-535.150	-42.477	-0.214	0.110
-534.135	165.562	-0.092	0.131
-533.121	695.830	-0.072	-0.190
-532.106	561.322	-0.014	-0.034
-531.091	-53.483	0.183	0.084
-530.077	800.000	0.025	0.085
-529.062	-10.658	0.433	-0.289
-528.048	-14.405	-0.342	-0.222
-527.033	-200.000	0.075	0.000
-526.018	800.000	-0.112	-0.313
-525.004	85.706	0.226	-0.251
-523.989	-41.138	-0.124	-0.064
-522.975	800.000	0.022	0.061
-521.960	-162.739	0.229	0.011
-520.945	-99.027	-0.120	-0.031
-519.931	70.747	0.035	0.036
-518.916	-200.000	0.006	-0.183
-517.902	-76.681	0.163	0.057
-516.887	-89.766	-0.174	0.051
-515.872	734.380	-0.098	0.266
-514.858	574.416	0.042	0.103
-513.843	800.000	0.099	0.283
-512.829	800.000	-0.092	0.301
-511.814	-200.000	-0.355	0.001
-510.799	419.096	-0.036	-0.077
-509.785	-47.698	0.174	0.085
-508.770	197.674	-0.155	-0.239
-507.756	385.637	-0.075	0.157
-506.741	-125.202	-0.084	0.013
-505.726	-200.000	0.011	-0.087
-504.712	-5.582	-0.067	-0.046
-503.697	-71.393	-0.282	0.106
-502.683	800.000	-0.079	-0.233
-501.668	-145.955	0.115	0.010
-500.653	405.127	-0.080	-0.171
-499.639	323.676	0.032	0.061
-498.624	39.838	0.311	0.282
-497.610	288.938	0.110	-0.201
-496.595	-200.000	0.030	0.294
-495.581	461.029	0.056	0.127
-494.566	-46.110	0.164	-0.081
-493.551	800.000	0.108	-0.448
-492.537	18.632	0.102	0.083
-491.522	685.761	-0.076	-0.200
-490.508	68.236	-0.125	0.129
-489.493	0.068	-0.236	0.169
-488.478	18.447	-0.158	0.127
-487.464	-51.988	-0.376	0.176
-486.449	732.542	-0.103	0.279
-485.435	275.095	-0.142	0.254
-484.420	-56.428	0.155	0.070
-483.405	596.405	-0.203	-0.506
-482.391	-78.026	-0.345	0.120
-481.376	-150.405	-0.021	0.002
-480.362	-45.745	-0.169	0.084
-479.347	577.657	0.137	0.338
-478.332	-87.574	-0.438	0.133
-477.318	-5.738	0.099	0.069
-476.303	-20.240	0.267	-0.165
-475.289	-163.426	-0.201	-0.010
-474.274	-200.000	0.152	0.001
-473.259	-123.508	-0.279	0.045
-472.245	601.664	0.098	-0.244
-471.230	-86.156	0.381	0.118
-470.216	71.649	-0.102	-0.107
-469.201	-41.601	0.132	-0.068
-468.186	190.051	0.028	-0.043
-467.172	495.695	-0.098	-0.227
-466.157	-120.730	-0.127	0.022
-465.143	-129.197	-0.138	-0.019
-464.128	508.149	0.099	0.231
-463.113	244.857	-0.043	0.073
-462.099	606.558	0.055	-0.137
-461.084	53.199	0.176	0.170
-460.070	-144.818	-0.195	0.018
-459.055	800.000	0.033	0.113
-458.040	-72.266	0.179	-0.067
-457.026	113.363	-0.167	-0.204
-456.011	167.948	0.096	0.137
-454.997	-161.852	0.235	-0.012
-453.982	-20.929	0.213	0.131
-452.968	-200.000	0.011	0.184
-451.953	53.120	0.149	0.143
-450.938	-18.817	0.124	0.077
-449.924	309.043	-0.139	-0.260
-448.909	394.613	0.105	-0.221
-447.895	800.000	-0.023	-0.063
-446.880	118.441	0.166	-0.206
-445.865	-11.171	0.213	0.141
-444.851	-200.000	0.005	-0.114
-443.836	-15.515	0.041	0.027
-442.822	-76.046	-0.274	-0.098
-441.807	-200.000	0.046	0.311
-440.792	-31.562	-0.114	-0.064
-439.778	644.682	-0.070	-0.180
-438.763	-151.561	-0.182	0.014
-437.749	-200.000	-0.009	-0.254
-436.734	-200.000	0.009	0.207
-435.719	2.425	-0.267	0.194
-434.705	-56.923	0.324	0.144
-433.690	234.355	0.121	-0.200
-432.676	-123.173	-0.330	0.053
-431.661	-24.995	-0.218	0.130
-430.646	327.864	0.070	-0.136
-429.632	-14.416	-0.049	-0.032
-428.617	57.155	0.119	0.117
-427.603	113.234	-0.132	0.161
-426.588	-200.000	0.004	0.059
-425.573	-154.891	-0.145	-0.010
-424.559	28.471	-0.103	0.087
-423.544	-89.262	-0.088	0.026
-422.530	-200.000	-0.005	-0.122
-421.515	-45.938	0.450	0.223
-420.500	-122.146	-0.193	0.032
-419.486	72.131	0.065	-0.068
-418.471	-84.651	-0.302	-0.096
-417.457	30.913	0.127	-0.109
-416.442	-74.029	0.066	0.024
-415.428	-118.411	0.059	0.011
-414.413	-200.000	0.011	0.099
-413.398	-177.801	-0.079	-0.002
-412.384	59.311	0.206	0.204
-411.369	506.368	0.202	0.470
-410.355	437.898	0.166	-0.363
-409.340	-200.000	-0.023	0.147
-408.325	-200.000	0.029	-0.144
-407.311	-22.556	-0.088	-0.054
-406.296	48.628	-0.188	0.177
-405.282	800.000	-0.104	0.300
-404.267	-61.308	-0.226	-0.096
-403.252	-32.160	-0.180	-0.101
-402.238	-59.807	0.103	-0.044
-401.223	288.093	0.187	-0.339
-400.209	-86.621	-0.026	-0.008
-399.194	69.134	0.171	-0.176
-398.179	-57.194	0.210	-0.093
-397.165	250.956	-0.100	-0.171
-396.150	223.200	-0.071	-0.116
-395.136	-200.000	0.018	0.094
-394.121	12.995	-0.088	0.068
-393.106	32.253	-0.062	-0.054
-392.092	-200.000	-0.042	-0.293
-391.077	-162.189	-0.097	-0.005
-390.063	24.260	-0.167	0.138
-389.048	15.493	-0.115	0.091
-388.033	-109.066	-0.491	0.105
-387.019	-200.000	-0.049	0.268
-386.004	113.638	0.213	0.260
-384.990	-54.453	-0.028	0.013
-383.975	-75.994	-0.433	0.154
-382.960	-6.378	0.132	-0.090
-381.946	-200.000	0.021	0.244
-380.931	800.000	0.089	0.333
-379.917	-175.553	0.098	-0.003
-378.902	-58.034	0.206	0.090
-377.888	800.000	0.098	0.372
-376.873	683.437	0.027	0.071
-375.858	-67.433	-0.492	0.194
-374.844	-95.402	0.115	0.031
-373.829	-95.557	0.081	-0.022
-372.815	539.494	-0.035	0.083
-371.800	800.000	0.028	0.092
-370.785	153.191	0.212	-0.291
-369.771	-20.597	-0.195	-0.120
-368.756	20.547	-0.382	-0.310
-367.742	-84.093	0.164	0.052
-366.727	-200.000	-0.002	-0.013
-365.712	800.000	0.041	0.133
-364.698	-2.828	-0.262	-0.184
-363.683	-200.000	-0.030	-0.348
-362.669	-200.000	0.046	-0.228
-361.654	97.044	0.016	-0.018
-360.639	-65.650	0.199	-0.080
-359.625	800.000	0.092	-0.266
-358.610	-55.890	0.256	-0.114
-357.596	29.576	0.066	0.056
-356.581	-33.873	-0.037	0.021
-355.566	-191.207	0.319	0.003
-354.552	299.826	-0.034	-0.063
-353.537	324.006	0.083	-0.159
-352.523	-120.826	0.309	0.052
-351.508	-70.732	0.055	-0.021
-350.493	-107.423	0.176	0.039
-349.479	-174.100	0.111	-0.003
-348.464	-39.059	-0.287	-0.151
-347.450	-200.000	-0.063	0.370
-346.435	157.545	-0.035	-0.049
-345.420	-28.372	0.115	0.067
-344.406	-200.000	-0.018	0.172
-343.391	98.441	-0.073	-0.084
-342.377	-92.084	-0.320	-0.091
-341.362	800.000	-0.101	-0.313
-340.348	-200.000	-0.012	-0.187
-339.333	-200.000	0.053	0.347
-338.318	384.988	-0.009	0.018
-337.304	800.000	-0.073	-0.293
-336.289	-177.112	0.250	0.006
-335.275	-48.740	0.205	-0.098
-334.260	-23.966	0.240	0.144
-333.245	46.863	-0.241	-0.224
-332.231	121.698	0.047	-0.058
-331.216	138.387	-0.093	0.122
-330.202	38.179	0.105	0.093
-329.187	-50.443	-0.131	-0.062
-328.172	800.000	-0.065	-0.209
-327.158	-110.294	0.325	0.068
-326.143	800.000	-0.070	-0.219
-325.129	584.866	-0.152	0.375
-324.114	-200.000	-0.044	0.251
-323.099	576.222	-0.141	-0.344
-322.085	97.440	-0.056	0.064
-321.070	60.774	0.091	0.090
-320.056	-20.416	0.177	-0.109
-319.041	307.696	-0.022	-0.041
-318.026	411.146	0.183	-0.388
-317.012	81.310	-0.191	0.207
-315.997	-158.679	0.207	-0.012
-314.983	109.254	0.243	-0.291
-313.968	-87.629	-0.192	0.058
-312.953	-200.000	-0.006	0.466
-311.939	-105.474	0.108	-0.025
-310.924	-200.000	0.045	0.286
-309.910	800.000	0.074	-0.240
-308.895	-30.898	0.221	0.125
-307.880	1.369	0.300	-0.216
-306.866	190.291	-0.220	-0.331
-305.851	-200.000	-0.064	-0.481
-304.837	-122.193	0.230	0.038
-303.822	209.621	-0.031	-0.049
-302.807	215.796	-0.140	0.222
-301.793	-90.362	-0.332	0.096
-300.778	-196.489	-0.151	-0.001
-299.764	-22.706	-0.036	0.022
-298.749	800.000	-0.026	-0.106
-297.735	43.691	-0.154	0.141
-296.720	42.628	0.153	0.140
-295.705	-0.207	0.218	0.155
-294.691	800.000	0.024	-0.089
-293.676	-142.872	-0.349	0.034
-292.662	-75.866	-0.138	0.049
-291.647	10.576	0.059	-0.045
-290.632	12.652	-0.090	0.069
-289.618	-153.605	0.355	0.025
-288.603	143.341	0.116	-0.155
-287.589	-128.525	0.321	-0.045
-286.574	62.626	0.300	0.300
-285.559	800.000	0.071	-0.229
-284.545	512.135	0.146	-0.341
-283.530	87.743	-0.228	-0.253
-282.516	-74.479	0.319	0.115
-281.501	51.547	0.094	0.089
-280.486	-75.005	0.185	-0.066
-279.472	800.000	-0.097	-0.307
-278.457	8.882	-0.250	-0.189
-277.443	-91.093	0.154	0.044
-276.428	482.089	-0.104	-0.236
-275.413	-200.000	-0.001	0.186
-274.399	800.000	0.074	-0.207
-273.384	22.551	0.102	0.084
-272.370	-200.000	-0.025	-0.123
-271.355	162.354	0.142	-0.199
-270.340	-76.481	-0.266	-0.094
-269.326	-81.852	0.214	-0.070
-268.311	-138.690	-0.168	-0.018
-267.297	-167.591	0.045	0.002
-266.282	56.411	-0.159	0.154
-265.267	90.940	-0.135	-0.151
-264.253	174.534	0.173	0.249
-263.238	-106.370	-0.175	0.039
-262.224	-64.725	-0.109	-0.044
-261.209	605.452	-0.093	-0.231
-260.195	-200.000	0.002	-0.021
-259.180	-200.000	0.013	0.072
-258.165	800.000	0.081	0.248
-257.151	167.878	-0.101	0.144
-256.136	136.865	-0.093	0.121
-255.122	800.000	-0.020	-0.065
-254.107	203.117	0.237	-0.365
-253.092	-133.516	0.046	-0.006
-252.078	-59.062	0.203	-0.087
-251.063	-46.331	-0.176	-0.086
-250.049	368.253	-0.046	-0.093
-249.034	-157.339	-0.369	-0.022
-248.019	-116.911	0.026	0.005
-247.005	-46.537	0.185	-0.091
-245.990	-45.308	0.169	0.084
-244.976	23.996	0.170	0.140
-243.961	-97.560	-0.365	0.095
-242.946	119.635	-0.238	0.295
-241.932	-110.466	-0.141	0.029
-240.917	-60.944	-0.219	0.093
-239.903	193.647	0.092	-0.139
-238.888	-147.544	0.111	-0.009
-237.873	-9.484	-0.164	0.109
-236.859	-61.759	-0.204	0.085
-235.844	-200.000	0.037	-0.256
-234.830	-95.341	0.172	0.046
-233.815	-200.000	-0.017	-0.329
-232.800	379.661	-0.087	-0.178
-231.786	13.565	0.118	-0.092
-230.771	-84.944	-0.293	0.092
-229.757	-105.082	0.313	-0.071
-228.742	-107.879	-0.154	0.033
-227.727	-106.308	0.236	-0.053
-226.713	288.357	0.119	-0.215
-225.698	-43.868	-0.570	-0.286
-224.684	7.292	-0.132	0.098
-223.669	521.428	0.154	0.361
-222.655	-32.604	-0.190	0.105
-221.640	20.834	0.143	-0.115
-220.625	-34.403	-0.202	-0.110
-219.611	800.000	-0.013	0.047
-218.596	-200.000	0.039	-0.174
-217.582	-200.000	0.002	-0.089
-216.567	712.956	-0.116	0.306
-215.552	-61.860	0.211	0.088
-214.538	-65.652	-0.052	-0.021
-213.523	-86.454	-0.158	0.048
-212.509	54.163	0.093	0.089
-211.494	-65.035	-0.371	-0.149
-210.479	800.000	0.074	0.237
-209.465	284.552	0.095	-0.170
-208.450	800.000	-0.072	0.251
-207.436	-200.000	-0.039	0.285
-206.421	-145.913	-0.076	0.007
-205.406	12.135	0.330	-0.253
-204.392	275.061	-0.060	-0.107
-203.377	-71.433	0.276	-0.103
-202.363	35.394	0.182	-0.159
-201.348	7.053	0.164	-0.122
-200.333	17.998	0.045	0.035
-199.319	-94.471	0.236	-0.064
-198.304	703.158	0.069	-0.181
-197.290	-200.000	0.011	0.149
-196.275	415.392	-0.101	0.215
-195.260	-61.851	0.190	-0.079
-194.246	-103.351	0.250	0.059
-193.231	113.241	-0.088	0.106
-192.217	-200.000	-0.047	0.294
-191.202	-15.797	-0.179	0.113
-190.187	56.016	0.255	0.246
-189.173	50.719	0.344	0.324
-188.158	-39.860	0.335	0.174
-187.144	-23.233	-0.130	0.078
-186.129	-200.000	0.090	-0.000
-185.114	-16.231	-0.131	0.083
-184.100	283.299	0.195	0.349
-183.085	161.109	-0.103	-0.143
-182.071	-127.129	0.270	0.039
-181.056	-94.455	-0.049	-0.013
-180.042	138.903	-0.194	-0.253
-179.027	-200.000	-0.007	-0.030
-178.012	-200.000	-0.058	0.278
-176.998	-78.339	-0.170	0.058
-175.983	-197.599	-0.192	-0.001
-174.969	30.019	-0.154	-0.131
-173.954	-200.000	-0.009	-0.243
-172.939	-2.595	-0.042	-0.029
-171.925	209.915	0.107	-0.168
-170.910	-113.249	-0.146	0.029
-169.896	-119.304	0.348	0.060
-168.881	-39.148	0.065	-0.034
-167.866	597.854	0.082	-0.203
-166.852	146.937	0.078	0.105
-165.837	769.026	-0.095	-0.257
-164.823	42.189	0.120	0.108
-163.808	800.000	-0.032	0.088
-162.793	17.856	0.357	0.283
-161.779	-200.000	-0.012	-0.066
-160.764	-200.000	-0.006	0.085
-159.750	103.013	0.160	-0.186
-158.735	35.168	0.188	0.164
-157.720	-200.000	0.022	-0.465
-156.706	-200.000	0.011	-0.057
-155.691	424.370	-0.109	0.232
-154.677	800.000	0.087	0.248
-153.662	-57.131	-0.074	-0.032
-152.647	-124.572	0.544	0.084
-151.633	-31.700	-0.049	0.027
-150.618	-27.876	0.277	-0.160
-149.604	211.332	0.083	-0.131
-148.589	800.000	-0.027	0.087
-147.574	-20.874	-0.189	-0.115
-146.560	800.000	-0.024	-0.085
-145.545	-125.630	0.296	0.045
-144.531	-135.459	-0.292	0.035
-143.516	-200.000	0.007	-0.154
-142.502	-168.329	0.276	0.011
-141.487	800.000	-0.040	-0.141
-140.472	9.404	0.113	-0.085
-139.458	-200.000	-0.018	0.082
-138.443	358.561	-0.163	0.324
-137.429	83.996	0.304	0.330
-136.414	-148.444	-0.113	-0.009
-135.399	800.000	-0.041	-0.123
-134.385	-124.398	0.034	-0.005
-133.370	-200.000	0.023	0.127
-132.356	-1.589	0.151	0.106
-131.341	-157.483	-0.109	-0.007
-130.326	-35.929	-0.190	-0.102
-129.312	97.247	-0.112	0.128
-128.297	-108.505	-0.340	-0.073
-127.283	50.192	0.069	-0.065
-126.268	-9.715	0.252	0.167
-125.253	97.437	0.056	-0.064
-124.239	597.314	0.057	0.139
-123.224	266.367	-0.074	-0.128
-122.210	-19.087	0.168	-0.104
-121.195	154.202	-0.101	0.138
-120.180	270.331	0.147	0.257
