DTS Sentinel unit serial number:	SN413079Multiplexer serial number:	ORYXHardware model number:	OX4-SRSoftware version number:	ORYX F/W v4.00 Oryx Data Collector v3.7.2.0data status	okinstallation	princeton_trtdifferential loss correction	single-endedforward channel	channel 4reverse channel	N/Adate	2019/09/13time	13:57:35forward acquisition time	60.00reverse acquisition time	0.00gamma	496.2192k internal	0.2295k external	0.2295temperature offset calibration	1.0209default loss term (dB/km)	0.3790temperature slope calibration	1.0000multiplexer offset coefficient	1.0000multiplexer slope coefficient	1.0000fibre end	0.00T internal ref (°C)	35.19T ext. ref 1 (°C)	4.59T ext. ref 2 (°C)	31.69length (m)	temperature (°C)	Stokes	anti-Stokes-747.200	-200.000	0.007	-0.096
-746.185	-84.694	0.157	0.051
-745.171	7.302	0.291	0.222
-744.156	-200.000	0.068	0.492
-743.142	-67.947	0.278	0.111
-742.127	-200.000	0.006	0.324
-741.112	-163.501	0.192	-0.009
-740.098	-200.000	0.069	0.471
-739.083	230.499	-0.054	-0.089
-738.069	239.420	-0.188	0.320
-737.054	521.766	-0.010	-0.024
-736.039	82.621	-0.224	-0.248
-735.025	-200.000	0.018	0.167
-734.010	105.798	-0.214	-0.259
-732.996	271.519	-0.187	-0.337
-731.981	-77.167	0.255	-0.091
-730.966	-50.450	-0.202	0.097
-729.952	149.005	-0.114	-0.158
-728.937	-97.499	-0.043	0.011
-727.923	13.386	0.114	0.091
-726.908	297.538	-0.118	-0.221
-725.894	-200.000	0.016	0.139
-724.879	660.947	-0.044	0.116
-723.864	-28.428	-0.254	-0.150
-722.850	-128.480	0.227	-0.033
-721.835	-87.622	0.206	0.063
-720.821	-112.433	0.409	-0.083
-719.806	-145.905	-0.229	-0.021
-718.791	-200.000	-0.012	-0.086
-717.777	-200.000	-0.006	-0.060
-716.762	-200.000	-0.010	-0.084
-715.748	-73.426	0.134	-0.050
-714.733	35.900	-0.129	0.116
-713.718	478.970	-0.107	-0.247
-712.704	-21.022	-0.259	-0.162
-711.689	37.661	-0.218	0.198
-710.675	-17.972	-0.280	-0.179
-709.660	-91.772	0.131	0.038
-708.645	-141.159	0.489	0.051
-707.631	-40.817	-0.385	-0.203
-706.616	-14.434	0.187	-0.123
-705.602	-64.953	0.274	-0.113
-704.587	58.095	0.165	-0.165
-703.572	15.252	0.259	-0.207
-702.558	800.000	-0.086	0.314
-701.543	256.734	0.111	-0.194
-700.529	-92.748	0.273	-0.078
-699.514	-200.000	0.022	0.157
-698.499	118.085	-0.145	-0.183
-697.485	785.587	-0.061	-0.171
-696.470	-66.453	0.272	0.110
-695.456	703.177	-0.035	0.094
-694.441	800.000	0.037	0.125
-693.426	183.668	-0.123	0.186
-692.412	-200.000	-0.032	0.363
-691.397	-65.339	-0.330	-0.136
-690.383	36.019	-0.326	-0.293
-689.368	390.940	0.031	0.065
-688.354	80.998	0.204	-0.225
-687.339	-48.115	-0.306	0.151
-686.324	-23.171	0.171	-0.105
-685.310	310.263	-0.095	0.180
-684.295	-75.536	-0.053	0.019
-683.281	181.998	0.139	-0.208
-682.266	65.276	-0.222	0.229
-681.251	228.745	0.057	0.095
-680.237	800.000	-0.126	0.405
-679.222	-200.000	0.082	0.405
-678.208	-72.330	0.142	0.054
-677.193	-16.445	0.242	-0.156
-676.178	-12.610	0.375	-0.250
-675.164	382.838	-0.159	0.333
-674.149	278.896	-0.082	0.150
-673.135	-67.397	-0.315	0.126
-672.120	-200.000	-0.001	-0.103
-671.105	-200.000	-0.049	-0.421
-670.091	96.110	-0.133	-0.154
-669.076	-57.396	0.446	-0.200
-668.062	-63.394	0.145	0.061
-667.047	286.395	-0.099	0.182
-666.032	-200.000	0.020	-0.244
-665.018	800.000	-0.019	-0.062
-664.003	99.996	-0.113	-0.133
-662.989	360.195	0.084	-0.172
-661.974	111.390	0.045	0.055
-660.959	-104.661	-0.114	0.027
-659.945	564.132	0.065	0.161
-658.930	18.215	-0.156	0.127
-657.916	758.187	0.026	-0.073
-656.901	8.941	0.065	0.050
-655.886	75.477	-0.058	0.062
-654.872	121.884	-0.297	0.378
-653.857	-7.074	0.151	-0.104
-652.843	800.000	0.098	-0.292
-651.828	-172.115	-0.163	0.005
-650.814	1.995	-0.216	-0.159
-649.799	-44.365	-0.046	-0.023
-648.784	400.501	0.146	-0.311
-647.770	800.000	0.091	-0.377
-646.755	-15.903	-0.076	0.049
-645.741	262.357	-0.099	-0.175
-644.726	134.870	-0.212	-0.280
-643.711	-200.000	-0.034	0.242
-642.697	-200.000	0.008	-0.088
-641.682	-56.747	-0.266	-0.120
-640.668	800.000	0.106	-0.365
-639.653	601.953	0.026	0.067
-638.638	279.092	0.034	-0.061
-637.624	800.000	0.074	0.266
-636.609	800.000	-0.022	-0.077
-635.595	25.080	0.279	0.236
-634.580	46.988	0.026	0.024
-633.565	800.000	-0.022	-0.080
-632.551	-40.246	0.078	0.041
-631.536	580.771	-0.076	-0.189
-630.522	-200.000	0.020	0.289
-629.507	-127.327	-0.153	-0.023
-628.492	8.538	0.272	0.208
-627.478	-153.247	0.267	-0.019
-626.463	-59.931	-0.129	-0.056
-625.449	-200.000	0.034	0.224
-624.434	11.699	0.064	0.050
-623.419	-156.679	0.472	0.030
-622.405	-44.689	0.397	0.202
-621.390	275.109	-0.100	-0.181
-620.376	34.484	-0.257	-0.228
-619.361	394.370	0.100	-0.212
-618.346	62.327	0.349	-0.355
-617.332	-13.162	-0.352	0.233
-616.317	-200.000	0.007	-0.367
-615.303	179.636	-0.043	-0.064
-614.288	-37.711	0.230	-0.125
-613.273	-200.000	-0.040	0.212
-612.259	82.565	-0.089	-0.098
-611.244	80.946	0.129	-0.142
-610.230	-72.681	0.110	-0.041
-609.215	63.271	-0.157	-0.160
-608.201	-60.813	0.085	-0.036
-607.186	-200.000	0.001	-0.005
-606.171	42.387	-0.141	0.130
-605.157	53.573	0.061	0.060
-604.142	8.070	0.193	0.147
-603.128	-130.358	-0.179	0.025
-602.113	-200.000	0.018	0.187
-601.098	-153.500	-0.225	-0.016
-600.084	800.000	-0.032	0.143
-599.069	-84.377	0.060	-0.019
-598.055	64.607	0.240	-0.246
-597.040	-36.105	0.103	0.057
-596.025	132.326	-0.170	0.223
-595.011	-15.360	0.173	-0.112
-593.996	-89.401	-0.165	-0.049
-592.982	800.000	-0.183	0.557
-591.967	-165.346	0.364	0.016
-590.952	181.471	-0.162	-0.242
-589.938	93.417	0.243	0.279
-588.923	-200.000	0.025	-0.182
-587.909	130.984	-0.175	-0.228
-586.894	-75.790	-0.371	-0.134
-585.879	503.395	-0.041	0.096
-584.865	136.110	-0.166	-0.220
-583.850	384.724	0.153	0.320
-582.836	-46.935	-0.057	-0.028
-581.821	-136.291	0.219	-0.026
-580.806	140.692	-0.249	-0.334
-579.792	-57.184	-0.063	-0.028
-578.777	-114.520	0.040	0.008
-577.763	-78.019	0.060	-0.021
-576.748	110.040	-0.135	0.164
-575.733	-180.703	-0.124	0.003
-574.719	56.447	-0.124	-0.123
-573.704	1.581	-0.263	-0.192
-572.690	21.520	0.297	0.245
-571.675	800.000	-0.113	0.380
-570.661	-86.235	0.144	0.045
-569.646	-54.982	0.213	0.097
-568.631	-119.062	-0.063	-0.011
-567.617	-109.057	0.296	-0.064
-566.602	92.673	-0.339	-0.388
-565.588	-200.000	0.031	0.228
-564.573	308.226	0.187	0.354
-563.558	-200.000	-0.011	-0.127
-562.544	271.059	0.153	0.274
-561.529	-0.282	-0.229	-0.166
-560.515	800.000	0.097	0.309
-559.500	-144.456	0.135	0.013
-558.485	42.752	-0.090	-0.083
-557.471	-101.716	0.167	0.041
-556.456	-139.230	-0.284	0.031
-555.442	-2.547	0.103	0.073
-554.427	-42.784	0.087	-0.045
-553.412	-14.200	0.099	0.065
-552.398	-64.897	-0.160	-0.066
-551.383	131.370	-0.164	0.214
-550.369	399.143	0.081	-0.173
-549.354	-79.179	-0.313	-0.108
-548.339	302.554	0.097	0.182
-547.325	247.842	0.073	0.126
-546.310	-200.000	-0.021	-0.320
-545.296	14.774	-0.170	0.135
-544.281	326.534	-0.008	0.016
-543.266	-103.471	-0.246	-0.059
-542.252	217.596	0.156	-0.252
-541.237	-200.000	-0.004	-0.100
-540.223	-42.329	-0.262	-0.136
-539.208	-112.537	0.202	0.041
-538.193	-200.000	-0.010	-0.138
-537.179	-76.167	-0.302	0.108
-536.164	403.835	0.129	-0.274
-535.150	76.421	-0.121	-0.130
-534.135	-200.000	0.006	0.073
-533.121	495.879	0.169	0.393
-532.106	-84.490	-0.193	-0.062
-531.091	-8.756	0.130	-0.088
-530.077	-200.000	0.014	0.278
-529.062	59.171	-0.058	0.058
-528.048	70.817	0.084	0.088
-527.033	-144.308	0.244	0.023
-526.018	-200.000	-0.002	-0.290
-525.004	-168.054	0.028	0.001
-523.989	-112.542	0.144	0.029
-522.975	-84.546	0.054	-0.017
-521.960	-142.073	-0.583	0.059
-520.945	112.481	0.075	-0.093
-519.931	800.000	0.050	-0.183
-518.916	-98.519	-0.378	-0.098
-517.902	-187.272	-0.139	-0.002
-516.887	-2.153	0.028	-0.020
-515.872	-67.228	0.238	0.095
-514.858	-58.162	0.183	-0.081
-513.843	348.369	-0.015	0.029
-512.829	-108.449	-0.194	0.042
-511.814	-200.000	0.008	-0.145
-510.799	-77.392	-0.190	0.067
-509.785	-68.808	0.269	-0.105
-508.770	-200.000	0.007	0.255
-507.756	12.072	0.554	0.432
-506.741	-59.091	0.245	0.107
-505.726	-200.000	0.003	-0.023
-504.712	-26.675	-0.214	0.127
-503.697	63.004	0.170	0.173
-502.683	-200.000	-0.021	-0.267
-501.668	553.829	0.092	0.224
-500.653	189.685	-0.144	-0.218
-499.639	-40.887	-0.110	-0.058
-498.624	54.560	-0.073	0.071
-497.610	-101.415	0.217	-0.053
-496.595	-15.636	-0.063	-0.041
-495.581	800.000	0.054	-0.223
-494.566	-170.230	-0.061	-0.002
-493.551	-67.018	-0.417	0.166
-492.537	800.000	-0.044	0.192
-491.522	88.236	-0.030	-0.034
-490.508	800.000	-0.050	-0.175
-489.493	-136.942	-0.205	0.024
-488.478	-42.818	0.100	0.051
-487.464	-200.000	-0.055	-0.258
-486.449	-200.000	-0.002	-0.022
-485.435	-130.156	0.170	0.023
-484.420	-143.291	-0.181	0.018
-483.405	75.619	-0.135	-0.144
-482.391	-13.775	0.030	-0.020
-481.376	376.692	0.050	-0.104
-480.362	-73.000	0.246	0.091
-479.347	19.871	0.155	-0.126
-478.332	-49.396	0.093	0.045
-477.318	361.372	-0.194	0.393
-476.303	651.207	-0.082	-0.213
-475.289	206.097	0.164	-0.259
-474.274	327.167	0.092	-0.177
-473.259	-92.066	0.068	0.019
-472.245	29.946	0.322	0.277
-471.230	431.281	-0.081	-0.177
-470.216	-41.378	0.163	-0.085
-469.201	149.741	-0.116	-0.159
-468.186	221.767	0.167	0.272
-467.172	800.000	0.144	0.415
-466.157	785.770	-0.066	0.184
-465.143	-200.000	-0.023	-0.135
-464.128	800.000	-0.106	0.373
-463.113	305.200	-0.150	0.282
-462.099	14.079	0.411	0.323
-461.084	-65.591	0.360	0.146
-460.070	800.000	0.094	-0.288
-459.055	-200.000	0.032	-0.337
-458.040	83.476	-0.344	-0.379
-457.026	165.211	0.237	-0.338
-456.011	-200.000	-0.035	-0.154
-454.997	-163.949	-0.290	-0.014
-453.982	280.545	0.143	0.258
-452.968	-110.912	0.467	-0.097
-451.953	141.573	-0.274	-0.367
-450.938	83.291	0.115	0.127
-449.924	14.673	-0.293	0.231
-448.909	-200.000	-0.053	-0.240
-447.895	-92.452	-0.017	-0.005
-446.880	-200.000	-0.050	0.244
-445.865	374.903	-0.078	0.161
-444.851	-88.550	-0.071	0.021
-443.836	-200.000	0.014	0.075
-442.822	-114.984	-0.285	0.055
-441.807	4.119	0.295	0.218
-440.792	-200.000	0.010	-0.094
-439.778	-13.407	-0.147	-0.097
-438.763	-2.864	0.128	-0.090
-437.749	-78.773	-0.529	-0.182
-436.734	-61.707	0.216	-0.092
-435.719	110.963	0.239	-0.290
-434.705	27.348	0.374	0.317
-433.690	60.747	-0.171	0.171
-432.676	81.491	0.173	0.188
-431.661	800.000	0.083	0.234
-430.646	-136.389	0.509	-0.060
-429.632	800.000	0.079	0.234
-428.617	56.039	-0.101	-0.099
-427.603	-92.257	0.250	-0.071
-426.588	-126.559	0.177	0.027
-425.573	25.870	-0.113	0.095
-424.559	-27.048	0.278	-0.164
-423.544	-200.000	-0.013	-0.116
-422.530	-200.000	0.004	-0.368
-421.515	90.466	0.202	-0.229
-420.500	-200.000	0.073	-0.326
-419.486	8.533	-0.166	-0.126
-418.471	-200.000	0.006	-0.197
-417.457	-53.362	-0.275	-0.127
-416.442	800.000	-0.110	0.338
-415.428	-116.810	-0.105	0.019
-414.413	102.075	-0.189	0.222
-413.398	68.883	-0.152	0.158
-412.384	-138.200	-0.073	0.008
-411.369	800.000	-0.048	0.187
-410.355	73.062	0.215	-0.226
-409.340	-17.022	-0.236	0.150
-408.325	250.285	0.203	0.347
-407.311	-200.000	-0.007	0.064
-406.296	62.280	-0.272	-0.274
-405.282	-36.343	0.193	-0.105
-404.267	529.518	0.044	-0.104
-403.252	126.404	-0.167	0.213
-402.238	-200.000	-0.017	-0.193
-401.223	395.543	-0.133	-0.280
-400.209	-22.611	-0.302	-0.184
-399.194	800.000	0.077	-0.328
-398.179	332.666	-0.117	-0.228
-397.165	-30.290	-0.277	-0.159
-396.150	-57.318	0.368	0.163
-395.136	556.323	-0.014	-0.034
-394.121	273.405	-0.055	-0.097
-393.106	-200.000	-0.051	-0.534
-392.092	800.000	-0.084	0.244
-391.077	-200.000	-0.009	0.147
-390.063	-131.740	-0.228	0.030
-389.048	-102.256	-0.305	-0.074
-388.033	-34.989	-0.137	-0.076
-387.019	-42.535	-0.299	0.153
-386.004	-128.012	-0.069	-0.010
-384.990	33.111	-0.070	0.061
-383.975	578.692	0.125	0.309
-382.960	37.192	0.109	-0.097
-381.946	-87.135	-0.213	0.065
-380.931	-2.630	0.168	-0.118
-379.917	-200.000	0.025	-0.223
-378.902	-124.028	0.200	-0.032
-377.888	-95.796	-0.181	-0.049
-376.873	-37.229	-0.224	-0.121
-375.858	-200.000	0.044	0.268
-374.844	7.197	0.070	0.053
-373.829	559.644	0.045	0.111
-372.815	487.012	-0.035	0.080
-371.800	492.484	0.126	-0.290
-370.785	-200.000	0.043	-0.226
-369.771	331.330	0.134	0.261
-368.756	29.286	-0.147	0.125
-367.742	-7.595	-0.141	0.096
-366.727	-138.880	-0.253	-0.028
-365.712	-26.642	-0.237	-0.140
-364.698	178.352	-0.146	-0.214
-363.683	33.470	0.064	0.056
-362.669	-200.000	-0.029	0.283
-361.654	35.954	-0.132	0.117
-360.639	-99.926	0.171	0.043
-359.625	-200.000	-0.007	0.033
-358.610	-114.474	-0.073	-0.014
-357.596	127.305	-0.035	0.045
-356.581	-91.919	0.363	-0.104
-355.566	-106.830	-0.029	-0.007
-354.552	92.181	-0.114	-0.130
-353.537	-153.380	-0.144	0.010
-352.523	210.425	-0.290	0.459
-351.508	-87.392	-0.344	0.105
-350.493	-69.407	-0.260	0.100
-349.479	303.853	0.104	-0.194
-348.464	77.187	-0.281	0.301
-347.450	-132.903	-0.306	0.039
-346.435	68.230	0.154	0.159
-345.420	326.642	-0.158	0.305
-344.406	-62.225	0.206	-0.087
-343.391	-200.000	0.063	-0.362
-342.377	147.831	-0.221	-0.300
-341.362	63.126	-0.042	-0.042
-340.348	-5.192	-0.113	0.078
-339.333	800.000	-0.030	0.122
-338.318	-200.000	0.030	0.149
-337.304	459.599	0.073	0.165
-336.289	-200.000	0.001	0.088
-335.275	140.076	-0.161	-0.214
-334.260	190.649	0.042	0.064
-333.245	800.000	-0.038	-0.157
-332.231	26.882	-0.212	0.178
-331.216	-62.546	-0.358	-0.150
-330.202	-5.342	0.010	0.007
-329.187	152.550	0.105	0.144
-328.172	-72.205	0.333	0.124
-327.158	87.187	-0.148	-0.164
-326.143	313.347	0.163	-0.309
-325.129	-114.790	0.238	0.046
-324.114	516.021	-0.053	0.126
-323.099	189.712	0.074	-0.112
-322.085	124.334	0.043	0.054
-321.070	278.150	-0.179	0.321
-320.056	330.227	-0.096	-0.186
-319.041	-69.234	0.199	-0.077
-318.026	77.617	-0.233	0.249
-317.012	283.251	-0.031	0.055
-315.997	-200.000	-0.000	0.168
-314.983	84.022	0.041	0.045
-313.968	-113.566	0.115	-0.023
-312.953	6.775	0.179	0.134
-311.939	-200.000	0.007	-0.212
-310.924	-59.487	-0.182	-0.079
-309.910	-87.379	0.250	0.076
-308.895	70.065	-0.133	-0.138
-307.880	126.989	-0.263	-0.335
-306.866	-200.000	-0.042	-0.335
-305.851	800.000	-0.026	0.097
-304.837	-72.724	-0.360	-0.133
-303.822	-52.694	0.178	-0.082
-302.807	220.277	-0.056	0.090
-301.793	-167.837	0.286	0.011
-300.778	444.610	0.065	0.143
-299.764	800.000	0.045	-0.193
-298.749	800.000	-0.099	0.365
-297.735	-6.975	-0.145	-0.099
-296.720	-82.599	-0.252	-0.082
-295.705	80.345	0.115	0.124
-294.691	-174.416	0.256	-0.007
-293.676	201.135	-0.331	0.511
-292.662	-4.718	0.200	0.139
-291.647	36.062	-0.162	-0.143
-290.632	-68.245	0.207	0.081
-289.618	265.784	-0.204	-0.357
-288.603	3.424	-0.015	-0.011
-287.589	800.000	0.016	-0.062
-286.574	487.431	-0.008	0.017
-285.559	-200.000	-0.015	0.172
-284.545	-89.991	-0.380	0.111
-283.530	-128.873	-0.207	-0.029
-282.516	800.000	-0.109	0.344
-281.501	278.071	0.183	0.327
-280.486	-179.652	0.204	-0.004
-279.472	-91.785	-0.142	-0.040
-278.457	-200.000	-0.024	0.192
-277.443	252.722	-0.098	0.167
-276.428	-68.364	-0.324	-0.126
-275.413	-200.000	0.024	-0.181
-274.399	-61.367	0.282	0.119
-273.384	-200.000	-0.034	0.182
-272.370	-15.634	0.218	0.140
-271.355	-16.113	0.180	0.115
-270.340	-70.077	0.365	0.139
-269.326	-94.556	0.210	0.057
-268.311	-153.970	0.041	0.003
-267.297	44.572	0.032	-0.030
-266.282	531.494	-0.084	-0.199
-265.267	800.000	-0.080	-0.240
-264.253	-156.668	-0.342	0.021
-263.238	-88.347	-0.205	0.061
-262.224	-41.560	-0.173	0.089
-261.209	194.226	-0.231	0.351
-260.195	-119.483	-0.054	0.009
-259.180	-200.000	-0.016	-0.081
-258.165	-68.433	0.236	-0.092
-257.151	454.098	0.081	0.179
-256.136	800.000	-0.037	-0.102
-255.122	-47.691	0.065	0.032
-254.107	-47.255	0.058	0.029
-253.092	196.277	0.170	0.260
-252.078	170.455	0.203	-0.291
-251.063	800.000	0.086	-0.364
-250.049	-200.000	0.009	-0.254
-249.034	-152.448	0.209	-0.015
-248.019	800.000	-0.062	0.239
-247.005	86.316	0.173	-0.191
-245.990	214.053	-0.023	-0.037
-244.976	-200.000	-0.029	-0.178
-243.961	149.190	-0.159	0.215
-242.946	367.411	-0.067	0.136
-241.932	260.612	0.074	0.129
-240.917	27.056	0.261	0.220
-239.903	5.651	-0.270	0.200
-238.888	81.299	0.368	-0.398
-237.873	494.596	0.107	-0.247
-236.859	216.666	0.103	0.164
-235.844	-200.000	0.012	-0.074
-234.830	800.000	-0.087	-0.301
-233.815	-6.633	-0.157	0.107
-232.800	107.078	-0.051	-0.061
-231.786	-200.000	0.047	0.303
-230.771	-125.668	0.209	-0.032
-229.757	-4.983	-0.116	-0.080
-228.742	-65.309	-0.229	0.092
-227.727	-75.000	0.116	-0.042
-226.713	-30.222	-0.108	-0.062
-225.698	-164.788	0.118	-0.005
-224.684	51.332	0.116	0.110
-223.669	91.771	-0.080	-0.090
-222.655	-176.471	-0.340	0.009
-221.640	-86.862	-0.183	-0.056
-220.625	800.000	-0.025	0.109
-219.611	800.000	0.065	0.212
-218.596	157.509	-0.085	0.118
-217.582	-36.395	0.049	0.026
-216.567	-200.000	0.015	0.127
-215.552	-118.509	-0.604	-0.107
-214.538	10.775	-0.198	0.151
-213.523	800.000	0.015	-0.065
-212.509	-68.208	-0.285	0.111
-211.494	800.000	-0.086	0.366
-210.479	-200.000	-0.062	0.448
-209.465	-200.000	-0.013	0.285
-208.450	-120.978	-0.121	-0.020
-207.436	-97.695	0.349	0.091
-206.421	633.303	-0.056	-0.143
-205.406	-200.000	0.079	-0.364
-204.392	-64.631	0.294	0.119
-203.377	79.644	-0.177	0.190
-202.363	38.418	0.230	-0.205
-201.348	-152.529	-0.141	-0.010
-200.333	209.713	0.151	-0.237
-199.319	800.000	0.085	-0.241
-198.304	-81.510	0.126	-0.041
-197.290	-52.137	-0.366	0.170
-196.275	-17.049	-0.126	-0.079
-195.260	-200.000	0.009	0.111
-194.246	800.000	-0.084	-0.288
-193.231	-54.715	0.184	0.083
-192.217	261.139	0.133	-0.231
-191.202	-200.000	-0.044	0.000
-190.187	-3.675	0.153	0.107
-189.173	-85.768	0.396	-0.123
-188.158	6.613	0.218	-0.162
-187.144	33.744	0.175	-0.152
-186.129	800.000	0.025	-0.079
-185.114	281.026	0.269	0.481
-184.100	800.000	-0.017	-0.068
-183.085	-4.352	0.254	0.175
-182.071	800.000	-0.154	-0.467
-181.056	-11.850	0.205	-0.134
-180.042	-130.946	-0.117	0.016
-179.027	-95.152	0.301	-0.081
-178.012	-198.518	0.245	0.001
-176.998	2.559	-0.123	-0.089
-175.983	135.138	-0.104	-0.136
-174.969	-170.289	0.248	-0.009
-173.954	584.487	0.094	-0.230
-172.939	-152.162	-0.031	-0.002
-171.925	85.919	0.083	0.091
-170.910	162.961	-0.135	-0.189
-169.896	800.000	-0.080	0.252
-168.881	112.646	0.192	-0.232
-167.866	237.165	-0.057	0.094
-166.852	-19.451	0.393	0.244
-165.837	-35.746	-0.163	-0.088
-164.823	-90.326	-0.112	-0.032
-163.808	405.030	0.067	0.141
-162.793	-200.000	-0.016	0.074
-161.779	-200.000	0.030	-0.212
-160.764	-200.000	-0.009	0.370
-159.750	-200.000	-0.008	-0.125
-158.735	800.000	0.039	0.134
-157.720	-15.145	0.296	0.189
-156.706	172.102	-0.051	-0.073
-155.691	-200.000	0.008	-0.041
-154.677	-83.534	0.253	-0.081
-153.662	-45.481	0.151	-0.075
-152.647	-18.581	-0.057	-0.036
-151.633	-132.332	0.371	0.048
-150.618	-63.987	0.291	0.119
-149.604	767.167	0.011	0.029
-148.589	179.765	0.094	-0.137
-147.574	-136.620	0.185	-0.021
-146.560	-200.000	-0.003	-0.335
-145.545	33.718	0.159	0.138
-144.531	164.381	0.108	-0.152
-143.516	-27.078	0.267	-0.156
-142.502	-61.058	-0.205	0.086
-141.487	-0.298	0.140	0.099
-140.472	217.968	-0.209	-0.332
-139.458	483.041	-0.134	-0.304
-138.443	-74.794	0.265	-0.095
-137.429	-200.000	0.013	0.199
-136.414	132.702	0.133	0.171
-135.399	-80.220	-0.266	-0.089
-134.385	13.834	0.135	0.105
-133.370	-93.054	-0.356	0.099
-132.356	-200.000	0.026	0.220
-131.341	-200.000	0.035	0.168
-130.326	-160.189	-0.112	-0.006
-129.312	53.516	0.067	0.064
-128.297	436.034	0.109	-0.237
-127.283	-91.519	-0.142	0.040
-126.268	128.766	-0.118	0.150
-125.253	237.874	0.205	0.340
-124.239	-200.000	-0.090	-0.502
-123.224	-196.904	0.100	0.001
-122.210	-65.964	0.137	0.055
-121.195	800.000	0.058	0.251
-120.180	-122.277	-0.275	0.045
