DTS Sentinel unit serial number:	SN413079Multiplexer serial number:	ORYXHardware model number:	OX4-SRSoftware version number:	ORYX F/W v4.00 Oryx Data Collector v3.7.2.0data status	okinstallation	princeton_trtdifferential loss correction	single-endedforward channel	channel 4reverse channel	N/Adate	2019/09/13time	14:21:35forward acquisition time	60.00reverse acquisition time	0.00gamma	496.2192k internal	0.2296k external	0.2296temperature offset calibration	1.0211default loss term (dB/km)	0.3790temperature slope calibration	1.0000multiplexer offset coefficient	1.0000multiplexer slope coefficient	1.0000fibre end	0.00T internal ref (°C)	35.27T ext. ref 1 (°C)	4.62T ext. ref 2 (°C)	31.03length (m)	temperature (°C)	Stokes	anti-Stokes-747.200	341.605	-0.049	-0.098
-746.185	-200.000	-0.013	0.304
-745.171	800.000	0.056	0.240
-744.156	538.327	-0.151	0.367
-743.142	-171.480	-0.395	0.013
-742.127	234.984	-0.042	0.071
-741.112	202.413	-0.101	0.159
-740.098	266.959	-0.109	-0.194
-739.083	-24.880	0.279	0.169
-738.069	-97.900	-0.239	-0.063
-737.054	111.914	0.062	-0.077
-736.039	-200.000	0.030	-0.253
-735.025	331.349	0.228	0.449
-734.010	-134.401	-0.272	-0.034
-732.996	-107.191	0.121	-0.027
-731.981	85.305	0.059	0.066
-730.966	167.439	-0.210	0.305
-729.952	-82.026	-0.384	0.128
-728.937	-128.464	-0.168	-0.024
-727.923	189.763	-0.106	0.163
-726.908	-127.126	-0.182	-0.027
-725.894	-77.873	-0.083	-0.029
-724.879	-31.007	0.241	0.139
-723.864	-159.753	0.253	-0.014
-722.850	39.402	-0.070	0.064
-721.835	-23.552	0.131	-0.081
-720.821	800.000	-0.072	0.308
-719.806	52.973	-0.124	-0.121
-718.791	253.550	0.143	-0.249
-717.777	-132.093	-0.444	0.059
-716.762	-30.272	-0.052	0.030
-715.748	-200.000	-0.026	0.148
-714.733	73.302	-0.204	-0.218
-713.718	13.172	0.142	0.112
-712.704	94.588	0.084	-0.097
-711.689	485.922	-0.032	-0.074
-710.675	426.615	-0.161	-0.355
-709.660	655.357	0.102	-0.268
-708.645	-200.000	-0.014	0.252
-707.631	229.311	0.032	0.053
-706.616	-133.646	-0.127	0.016
-705.602	800.000	-0.057	0.219
-704.587	123.069	-0.274	-0.350
-703.572	-131.494	-0.298	0.040
-702.558	-91.282	-0.272	-0.079
-701.543	800.000	-0.081	0.272
-700.529	4.558	-0.072	-0.054
-699.514	-36.062	0.171	0.095
-698.499	-200.000	0.029	0.360
-697.485	-171.268	0.406	-0.014
-696.470	-71.849	-0.403	0.153
-695.456	232.280	0.179	-0.299
-694.441	-159.540	-0.080	-0.005
-693.426	-122.968	0.136	0.022
-692.412	548.508	0.066	0.161
-691.397	-200.000	0.022	0.250
-690.383	-17.549	-0.071	0.045
-689.368	800.000	0.015	0.060
-688.354	-166.841	0.472	-0.020
-687.339	45.081	0.133	-0.125
-686.324	-144.879	0.152	0.014
-685.310	87.571	0.160	0.181
-684.295	-28.714	-0.407	0.239
-683.281	-85.348	-0.145	0.046
-682.266	-12.717	0.227	-0.151
-681.251	470.983	-0.057	0.131
-680.237	-200.000	-0.019	0.257
-679.222	-31.420	-0.182	-0.105
-678.208	-108.283	-0.238	-0.052
-677.193	-200.000	0.067	-0.313
-676.178	216.172	-0.053	-0.086
-675.164	-17.642	-0.109	-0.070
-674.149	-72.240	0.091	0.034
-673.135	-70.139	0.242	-0.094
-672.120	422.548	-0.100	0.220
-671.105	8.469	-0.066	-0.051
-670.091	296.293	-0.043	-0.081
-669.076	-35.814	-0.151	0.083
-668.062	43.442	-0.411	0.383
-667.047	-200.000	-0.072	-0.355
-666.032	-200.000	-0.046	-0.224
-665.018	-153.143	-0.237	0.017
-664.003	-130.791	0.225	-0.031
-662.989	-140.580	-0.198	-0.021
-661.974	463.025	-0.043	0.098
-660.959	-7.305	-0.151	-0.104
-659.945	-124.455	-0.060	0.010
-658.930	13.057	-0.178	-0.140
-657.916	800.000	0.111	-0.323
-656.901	97.733	0.087	0.102
-655.886	-74.463	-0.353	0.129
-654.872	-162.883	0.212	-0.011
-653.857	800.000	-0.068	-0.223
-652.843	135.647	0.213	0.282
-651.828	-70.040	0.065	0.025
-650.814	-121.781	0.131	-0.022
-649.799	-200.000	-0.012	0.066
-648.784	122.702	-0.112	-0.143
-647.770	-52.268	-0.071	0.033
-646.755	-15.345	0.038	0.025
-645.741	-153.960	0.187	-0.013
-644.726	-12.027	-0.211	0.141
-643.711	76.670	-0.231	-0.250
-642.697	-11.118	0.041	0.027
-641.682	44.047	-0.399	-0.372
-640.668	407.547	0.102	0.220
-639.653	35.225	-0.126	-0.113
-638.638	-140.037	-0.088	-0.009
-637.624	28.944	0.107	-0.092
-636.609	-200.000	0.000	0.065
-635.595	-56.007	-0.302	-0.137
-634.580	608.865	0.023	-0.058
-633.565	-57.351	0.223	0.100
-632.551	180.308	0.089	-0.133
-631.536	-25.575	0.115	0.069
-630.522	-200.000	-0.004	-0.026
-629.507	800.000	0.047	0.169
-628.492	88.934	0.125	0.141
-627.478	502.986	-0.103	-0.242
-626.463	181.724	0.192	-0.287
-625.449	-28.361	0.197	-0.115
-624.434	-126.259	0.273	0.042
-623.419	-200.000	-0.019	-0.106
-622.405	662.382	0.061	0.161
-621.390	-50.812	0.141	-0.067
-620.376	89.973	0.054	0.061
-619.361	49.478	-0.151	-0.145
-618.346	-86.403	0.111	-0.035
-617.332	-140.232	-0.076	0.008
-616.317	-200.000	-0.013	-0.110
-615.303	-124.037	-0.140	0.022
-614.288	110.476	-0.066	-0.081
-613.273	-44.203	0.120	0.061
-612.259	800.000	0.030	-0.087
-611.244	269.222	0.110	0.196
-610.230	507.767	-0.112	-0.263
-609.215	101.779	0.005	-0.006
-608.201	-23.736	0.154	-0.094
-607.186	35.364	-0.172	0.153
-606.171	-51.761	-0.209	0.099
-605.157	-49.881	-0.124	-0.060
-604.142	209.332	0.112	-0.178
-603.128	800.000	-0.043	-0.176
-602.113	-200.000	0.053	-0.394
-601.098	-200.000	0.060	-0.330
-600.084	800.000	-0.038	0.163
-599.069	-200.000	0.017	0.253
-598.055	-85.269	0.032	-0.010
-597.040	37.118	-0.252	-0.227
-596.025	139.787	-0.192	-0.257
-595.011	800.000	0.067	-0.245
-593.996	-32.453	-0.182	0.103
-592.982	-12.812	-0.120	-0.079
-591.967	35.406	0.294	-0.262
-590.952	42.560	-0.150	-0.139
-589.938	-200.000	0.029	0.130
-588.923	11.899	-0.109	-0.085
-587.909	-79.312	0.395	0.136
-586.894	800.000	-0.053	-0.193
-585.879	-192.079	-0.286	-0.003
-584.865	-56.926	-0.268	0.120
-583.850	715.774	0.096	0.259
-582.836	-145.023	-0.187	-0.017
-581.821	800.000	-0.080	0.288
-580.806	800.000	0.044	-0.152
-579.792	-127.064	-0.231	-0.034
-578.777	152.146	-0.041	-0.057
-577.763	-73.594	0.155	-0.058
-576.748	-139.545	-0.243	-0.026
-575.733	-75.559	0.226	0.082
-574.719	409.611	0.054	0.116
-573.704	-44.974	-0.259	0.131
-572.690	-17.759	-0.192	-0.122
-571.675	-200.000	-0.040	0.253
-570.661	-200.000	0.034	-0.246
-569.646	257.364	-0.071	-0.125
-568.631	143.823	0.033	0.044
-567.617	279.963	-0.055	-0.100
-566.602	-59.770	-0.182	-0.079
-565.588	652.771	-0.061	-0.159
-564.573	20.046	0.273	-0.224
-563.558	707.454	-0.117	0.314
-562.544	44.489	0.183	-0.171
-561.529	195.318	-0.027	0.041
-560.515	-200.000	-0.062	-0.311
-559.500	88.530	-0.159	-0.179
-558.485	53.108	0.101	-0.098
-557.471	61.442	0.190	0.191
-556.456	-72.750	-0.237	0.089
-555.442	-116.862	-0.384	0.071
-554.427	-200.000	0.000	-0.012
-553.412	-200.000	-0.009	-0.184
-552.398	19.586	-0.076	-0.062
-551.383	134.345	0.132	0.174
-550.369	209.016	-0.070	-0.111
-549.354	800.000	0.105	-0.425
-548.339	-200.000	-0.035	-0.291
-547.325	366.448	0.090	0.183
-546.310	148.446	-0.071	-0.098
-545.296	88.328	-0.136	-0.153
-544.281	-0.736	-0.088	-0.064
-543.266	-20.530	-0.112	-0.070
-542.252	35.922	0.049	-0.044
-541.237	304.064	0.073	0.137
-540.223	250.797	0.112	0.193
-539.208	-49.173	0.170	-0.082
-538.193	-65.671	0.123	-0.050
-537.179	-147.669	0.109	-0.009
-536.164	139.578	0.191	-0.255
-535.150	218.756	-0.006	0.009
-534.135	-168.446	-0.220	0.009
-533.121	55.475	-0.113	-0.111
-532.106	328.592	-0.049	-0.096
-531.091	18.793	-0.269	-0.219
-530.077	-200.000	0.290	-0.001
-529.062	144.498	0.027	-0.037
-528.048	800.000	-0.012	-0.041
-527.033	-200.000	-0.004	-0.259
-526.018	800.000	0.034	0.099
-525.004	-54.116	0.201	0.093
-523.989	-149.400	0.255	0.021
-522.975	-66.592	-0.145	-0.058
-521.960	19.926	0.239	-0.195
-520.945	694.794	0.075	0.199
-519.931	328.558	-0.018	0.035
-518.916	-7.443	0.297	0.204
-517.902	300.388	-0.064	0.119
-516.887	-200.000	-0.009	0.221
-515.872	306.527	0.109	-0.206
-514.858	296.249	0.084	-0.155
-513.843	170.973	-0.253	0.367
-512.829	-200.000	-0.048	-0.352
-511.814	20.519	-0.138	0.113
-510.799	368.765	0.019	-0.039
-509.785	-200.000	0.050	-0.383
-508.770	13.853	0.244	-0.192
-507.756	-119.055	-0.347	0.062
-506.741	126.031	0.206	0.264
-505.726	58.615	-0.191	0.190
-504.712	-200.000	0.042	-0.378
-503.697	-46.457	0.150	-0.075
-502.683	508.000	0.034	0.080
-501.668	-21.931	0.083	0.051
-500.653	-20.256	0.210	-0.131
-499.639	800.000	0.114	0.348
-498.624	31.021	0.050	0.044
-497.610	-4.433	-0.243	0.170
-496.595	-121.445	-0.369	-0.062
-495.581	363.153	-0.056	0.113
-494.566	-200.000	0.005	0.136
-493.551	-200.000	-0.008	-0.215
-492.537	-200.000	0.003	0.043
-491.522	24.241	-0.159	-0.133
-490.508	-19.916	0.072	-0.045
-489.493	-200.000	0.015	0.204
-488.478	11.992	0.150	0.117
-487.464	104.184	-0.070	-0.083
-486.449	-17.311	0.408	-0.260
-485.435	800.000	0.059	0.191
-484.420	-11.149	-0.174	0.116
-483.405	459.125	0.112	0.251
-482.391	-86.103	0.184	-0.057
-481.376	746.750	-0.037	-0.099
-480.362	219.233	0.094	-0.152
-479.347	146.304	-0.106	0.144
-478.332	264.869	0.024	0.042
-477.318	-104.790	0.131	0.031
-476.303	-103.400	-0.299	-0.071
-475.289	800.000	-0.004	-0.015
-474.274	-16.544	-0.312	-0.200
-473.259	-144.778	-0.439	-0.041
-472.245	566.232	0.076	0.186
-471.230	15.661	-0.054	0.043
-470.216	0.797	-0.164	0.119
-469.201	-92.426	0.096	-0.027
-468.186	-42.332	0.182	0.094
-467.172	513.379	0.049	-0.116
-466.157	59.641	0.162	-0.161
-465.143	-19.986	-0.293	-0.183
-464.128	85.715	0.019	0.021
-463.113	106.171	-0.098	-0.117
-462.099	-0.785	-0.005	0.004
-461.084	39.359	0.146	-0.132
-460.070	-152.912	-0.319	-0.023
-459.055	134.268	0.056	-0.074
-458.040	-25.974	0.127	-0.076
-457.026	104.830	0.079	0.094
-456.011	308.057	-0.104	0.196
-454.997	-124.441	0.175	0.028
-453.982	23.269	0.140	-0.116
-452.968	-100.622	-0.094	-0.023
-451.953	-200.000	0.050	0.253
-450.938	-200.000	0.030	0.164
-449.924	389.685	-0.065	0.135
-448.909	312.976	-0.173	0.329
-447.895	-200.000	0.015	0.223
-446.880	-10.051	0.100	-0.067
-445.865	-51.977	0.135	0.063
-444.851	800.000	0.052	0.170
-443.836	-200.000	0.009	-0.143
-442.822	800.000	-0.004	0.011
-441.807	-16.301	-0.077	0.049
-440.792	-174.851	0.170	0.005
-439.778	103.461	0.048	0.056
-438.763	161.275	0.073	-0.103
-437.749	-67.433	0.162	0.064
-436.734	800.000	0.049	-0.208
-435.719	627.756	-0.034	-0.086
-434.705	-103.361	-0.104	0.025
-433.690	67.489	0.031	0.031
-432.676	87.917	0.068	0.076
-431.661	-151.671	0.186	0.014
-430.646	-79.397	-0.202	0.069
-429.632	-138.716	0.237	0.026
-428.617	-188.105	0.087	0.001
-427.603	-74.062	-0.314	-0.115
-426.588	-143.518	-0.229	0.022
-425.573	-95.283	-0.264	-0.072
-424.559	-200.000	0.022	0.239
-423.544	25.328	0.301	0.253
-422.530	800.000	-0.042	-0.135
-421.515	183.706	0.028	-0.042
-420.500	32.348	0.221	0.192
-419.486	-84.882	0.118	-0.038
-418.471	-200.000	0.002	0.172
-417.457	-159.407	-0.194	-0.011
-416.442	-66.426	0.305	-0.122
-415.428	-87.905	0.355	-0.108
-414.413	-200.000	-0.025	-0.123
-413.398	800.000	-0.029	0.102
-412.384	-56.337	0.146	0.065
-411.369	187.215	0.208	0.312
-410.355	-128.862	-0.192	0.027
-409.340	-200.000	-0.004	-0.093
-408.325	406.586	-0.118	0.252
-407.311	511.830	-0.214	0.503
-406.296	11.134	0.196	-0.151
-405.282	-41.034	-0.114	-0.060
-404.267	-43.769	-0.157	-0.080
-403.252	4.338	0.084	0.062
-402.238	-54.033	0.163	-0.075
-401.223	-9.842	0.065	0.044
-400.209	-88.152	-0.296	0.090
-399.194	79.251	0.059	0.064
-398.179	-80.503	0.129	-0.043
-397.165	100.391	0.203	0.238
-396.150	800.000	-0.078	0.254
-395.136	41.419	-0.243	0.222
-394.121	-200.000	-0.024	0.138
-393.106	21.373	0.285	0.233
-392.092	-70.805	0.094	-0.036
-391.077	54.693	-0.346	0.337
-390.063	82.824	0.224	0.246
-389.048	-200.000	0.007	-0.172
-388.033	800.000	-0.019	-0.061
-387.019	-83.064	0.177	-0.057
-386.004	145.390	0.136	0.184
-384.990	-8.530	-0.135	-0.091
-383.975	57.310	-0.285	0.281
-382.960	76.290	0.115	-0.123
-381.946	-85.701	0.263	0.082
-380.931	-200.000	0.016	0.137
-379.917	63.212	-0.082	-0.083
-378.902	-104.920	-0.278	0.064
-377.888	18.939	0.146	0.118
-376.873	800.000	-0.059	-0.239
-375.858	-200.000	-0.017	-0.262
-374.844	59.180	-0.112	-0.111
-373.829	-34.069	-0.150	-0.083
-372.815	800.000	0.104	-0.376
-371.800	89.797	0.135	-0.152
-370.785	7.482	-0.431	0.325
-369.771	-200.000	0.086	0.449
-368.756	-56.858	0.068	0.030
-367.742	-200.000	0.000	-0.001
-366.727	-200.000	0.004	0.145
-365.712	-37.121	-0.120	0.065
-364.698	174.320	0.180	-0.262
-363.683	-59.489	0.281	0.122
-362.669	343.790	-0.042	-0.084
-361.654	-200.000	0.072	-0.344
-360.639	69.086	-0.220	-0.228
-359.625	-100.409	0.250	0.062
-358.610	156.862	-0.034	0.048
-357.596	-200.000	0.002	0.088
-356.581	-29.698	0.144	0.083
-355.566	-63.191	-0.263	-0.109
-354.552	800.000	0.029	0.086
-353.537	-119.182	0.286	0.050
-352.523	-200.000	0.006	-0.119
-351.508	-84.217	0.184	0.059
-350.493	89.923	-0.294	0.330
-349.479	137.080	-0.070	0.093
-348.464	236.294	0.119	0.199
-347.450	800.000	-0.025	-0.075
-346.435	332.791	-0.176	-0.342
-345.420	211.932	0.142	0.226
-344.406	-173.656	0.341	0.010
-343.391	423.615	0.030	0.064
-342.377	69.535	-0.054	0.056
-341.362	579.691	0.194	0.478
-340.348	12.499	-0.382	0.296
-339.333	34.598	0.118	-0.104
-338.318	-142.066	0.144	-0.014
-337.304	116.166	-0.187	-0.230
-336.289	-200.000	-0.021	-0.259
-335.275	99.921	0.219	-0.256
-334.260	-99.515	0.412	-0.104
-333.245	-28.035	-0.160	0.093
-332.231	31.331	0.147	-0.127
-331.216	-142.300	0.147	-0.015
-330.202	117.812	-0.337	0.417
-329.187	724.584	-0.098	0.262
-328.172	-200.000	0.003	-0.132
-327.158	-200.000	0.040	-0.201
-326.143	-200.000	0.023	-0.210
-325.129	-200.000	-0.061	0.331
-324.114	-200.000	-0.016	-0.114
-323.099	282.133	-0.085	-0.154
-322.085	68.976	-0.139	-0.143
-321.070	104.713	-0.122	-0.144
-320.056	-70.942	0.256	0.097
-319.041	800.000	-0.050	0.200
-318.026	95.549	0.137	-0.157
-317.012	110.597	0.158	0.191
-315.997	149.994	-0.195	0.265
-314.983	143.090	-0.016	-0.021
-313.968	-38.123	0.223	-0.119
-312.953	-82.190	0.286	-0.094
-311.939	-124.716	-0.160	0.025
-310.924	119.961	0.093	-0.115
-309.910	-200.000	0.070	-0.346
-308.895	-200.000	0.003	-0.039
-307.880	800.000	-0.060	-0.170
-306.866	180.733	-0.147	-0.218
-305.851	-200.000	0.009	-0.143
-304.837	-107.573	-0.227	0.050
-303.822	800.000	0.043	0.153
-302.807	229.793	0.189	0.309
-301.793	-200.000	0.009	-0.084
-300.778	31.772	0.187	-0.161
-299.764	-200.000	-0.050	0.284
-298.749	-200.000	-0.006	-0.270
-297.735	-62.851	0.186	0.077
-296.720	-129.875	-0.346	0.048
-295.705	-200.000	0.280	0.001
-294.691	529.660	0.044	-0.104
-293.676	246.609	-0.137	-0.232
-292.662	-176.022	-0.108	-0.003
-291.647	213.730	0.064	-0.102
-290.632	-53.920	-0.138	0.063
-289.618	800.000	-0.039	0.120
-288.603	-200.000	0.045	0.214
-287.589	45.147	0.162	0.150
-286.574	-200.000	0.042	0.343
-285.559	800.000	0.021	0.065
-284.545	243.814	0.096	0.161
-283.530	-53.201	-0.398	0.184
-282.516	58.800	0.058	0.058
-281.501	-12.919	0.248	-0.162
-280.486	57.142	-0.124	-0.121
-279.472	-200.000	0.020	-0.328
-278.457	-200.000	-0.002	0.102
-277.443	162.405	-0.094	-0.133
-276.428	295.268	-0.191	-0.351
-275.413	127.365	-0.071	-0.091
-274.399	-134.178	0.135	0.017
-273.384	-200.000	0.007	-0.235
-272.370	-200.000	0.145	-0.001
-271.355	434.755	0.101	0.221
-270.340	800.000	0.105	0.337
-269.326	-200.000	0.000	0.146
-268.311	-11.132	-0.084	-0.056
-267.297	-57.404	0.247	0.109
-266.282	-200.000	-0.014	-0.251
-265.267	-162.142	-0.549	0.028
-264.253	18.879	-0.159	0.128
-263.238	-200.000	0.038	-0.237
-262.224	-200.000	0.041	0.269
-261.209	800.000	0.064	0.265
-260.195	46.055	-0.283	0.263
-259.180	-200.000	-0.053	0.276
-258.165	-17.080	-0.278	0.176
-257.151	10.964	-0.062	-0.047
-256.136	-200.000	0.003	-0.164
-255.122	35.801	-0.225	0.199
-254.107	208.112	-0.078	-0.122
-253.092	-122.583	0.288	-0.047
-252.078	-181.872	-0.423	0.008
-251.063	-200.000	0.035	0.295
-250.049	-94.473	0.279	-0.076
-249.034	800.000	-0.073	0.234
-248.019	537.147	0.048	-0.114
-247.005	57.509	0.179	-0.175
-245.990	190.514	0.164	0.247
-244.976	150.800	0.200	-0.272
-243.961	800.000	-0.059	-0.178
-242.946	16.606	0.392	0.311
-241.932	37.693	-0.130	0.116
-240.917	16.502	0.051	-0.040
-239.903	-92.425	0.254	0.072
-238.888	-127.494	-0.513	-0.075
-237.873	-108.948	0.429	0.092
-236.859	346.112	0.098	-0.193
-235.844	-200.000	-0.058	-0.428
-234.830	-200.000	0.002	0.064
-233.815	-168.003	-0.426	-0.017
-232.800	-16.051	0.081	-0.051
-231.786	-104.665	0.090	0.021
-230.771	-58.502	0.113	0.049
-229.757	97.307	-0.069	0.079
-228.742	-52.658	0.111	-0.051
-227.727	105.312	0.082	-0.097
-226.713	800.000	-0.210	0.596
-225.698	-94.685	0.335	0.091
-224.684	-184.318	-0.110	0.002
-223.669	-134.188	-0.124	0.015
-222.655	-21.454	-0.026	0.016
-221.640	-3.941	-0.138	0.096
-220.625	324.275	-0.196	0.374
-219.611	-74.150	0.269	-0.098
-218.596	-99.312	-0.285	-0.072
-217.582	-53.945	-0.255	-0.116
-216.567	-132.958	-0.283	-0.036
-215.552	-200.000	0.008	-0.365
-214.538	-111.185	0.188	0.039
-213.523	-116.896	-0.249	0.046
-212.509	229.861	-0.053	0.086
-211.494	-55.188	0.217	0.098
-210.479	-121.422	0.353	-0.059
-209.465	-58.741	0.221	-0.096
-208.450	199.985	-0.019	-0.029
-207.436	-30.200	0.054	0.031
-206.421	90.763	-0.184	-0.207
-205.406	-200.000	-0.045	-0.229
-204.392	-200.000	0.061	-0.290
-203.377	800.000	0.063	-0.263
-202.363	800.000	-0.039	-0.112
-201.348	149.815	0.185	0.251
-200.333	146.588	-0.124	0.167
-199.319	-8.583	0.119	-0.080
-198.304	157.900	-0.061	-0.084
-197.290	-172.757	0.226	0.007
-196.275	-84.849	-0.243	-0.076
-195.260	-17.981	-0.051	-0.032
-194.246	81.234	-0.109	0.118
-193.231	9.151	-0.014	0.010
-192.217	-8.857	-0.057	0.038
-191.202	-141.612	-0.319	0.032
-190.187	-169.177	-0.195	-0.007
-189.173	338.195	-0.068	-0.132
-188.158	800.000	0.058	0.181
-187.144	-200.000	0.005	0.026
-186.129	102.794	0.272	-0.319
-185.114	-138.185	-0.207	0.023
-184.100	53.554	-0.129	-0.123
-183.085	-200.000	0.023	0.168
-182.071	31.464	-0.264	-0.227
-181.056	-200.000	-0.062	-0.279
-180.042	-200.000	0.047	-0.310
-179.027	-19.730	-0.083	-0.052
-178.012	72.917	-0.205	0.214
-176.998	3.997	-0.318	0.233
-175.983	27.236	0.124	-0.104
-174.969	137.483	-0.216	0.282
-173.954	-200.000	0.000	0.101
-172.939	45.167	0.127	-0.117
-171.925	553.703	0.122	0.293
-170.910	248.763	0.142	0.240
-169.896	-72.440	0.105	0.039
-168.881	-200.000	0.031	-0.159
-167.866	-200.000	0.010	-0.109
-166.852	-112.782	0.377	-0.075
-165.837	17.632	0.335	-0.266
-164.823	239.623	0.146	0.244
-163.808	-200.000	0.007	0.188
-162.793	-75.164	0.083	0.030
-161.779	74.962	-0.195	-0.205
-160.764	-70.059	0.251	0.095
-159.750	-37.386	-0.203	-0.108
-158.735	800.000	0.051	-0.209
-157.720	-145.963	0.087	-0.008
-156.706	501.534	0.132	0.304
-155.691	-62.515	-0.365	0.152
-154.677	800.000	0.146	0.443
-153.662	-46.145	-0.354	-0.174
-152.647	0.082	0.427	0.304
-151.633	-200.000	-0.004	0.099
-150.618	-26.384	0.027	0.016
-149.604	-1.477	-0.278	0.196
-148.589	14.047	-0.114	0.089
-147.574	-52.590	-0.133	-0.061
-146.560	-200.000	0.033	-0.207
-145.545	78.267	-0.131	0.139
-144.531	-46.401	-0.260	0.128
-143.516	-128.862	-0.281	0.039
-142.502	-200.000	-0.026	0.235
-141.487	-95.555	-0.248	-0.066
-140.472	-57.438	0.209	-0.092
-139.458	800.000	-0.127	0.367
-138.443	231.831	-0.065	-0.106
-137.429	-200.000	0.015	0.167
-136.414	61.263	-0.114	0.113
-135.399	-200.000	0.070	-0.310
-134.385	-200.000	-0.005	-0.072
-133.370	-23.245	-0.276	-0.165
-132.356	209.292	0.141	-0.221
-131.341	-72.789	-0.150	-0.055
-130.326	55.147	-0.111	-0.107
-129.312	-200.000	-0.014	0.081
-128.297	371.235	0.059	-0.120
-127.283	-58.481	0.101	-0.044
-126.268	24.176	0.116	0.096
-125.253	-76.687	-0.271	0.095
-124.239	222.475	-0.062	0.099
-123.224	-200.000	0.003	-0.055
-122.210	126.271	0.071	0.090
-121.195	-200.000	0.053	0.236
