DTS Sentinel unit serial number:	SN413079Multiplexer serial number:	ORYXHardware model number:	OX4-SRSoftware version number:	ORYX F/W v4.00 Oryx Data Collector v3.7.2.0data status	okinstallation	princeton_trtdifferential loss correction	single-endedforward channel	channel 4reverse channel	N/Adate	2019/09/17time	16:17:35forward acquisition time	60.00reverse acquisition time	0.00gamma	496.2192k internal	0.2285k external	0.2285temperature offset calibration	0.9979default loss term (dB/km)	0.3790temperature slope calibration	1.0000multiplexer offset coefficient	1.0000multiplexer slope coefficient	1.0000fibre end	0.00T internal ref (°C)	40.94T ext. ref 1 (°C)	0.36T ext. ref 2 (°C)	38.76length (m)	temperature (°C)	Stokes	anti-Stokes-747.200	-200.000	0.025	0.138
-746.185	647.031	0.078	0.206
-745.171	-200.000	0.021	0.115
-744.156	176.619	0.226	0.338
-743.142	11.920	0.058	-0.046
-742.127	800.000	0.030	0.105
-741.112	-200.000	0.043	-0.265
-740.098	189.143	0.185	-0.285
-739.083	577.505	0.148	-0.372
-738.069	800.000	-0.094	0.306
-737.054	-200.000	0.011	0.086
-736.039	-84.189	0.132	0.043
-735.025	101.928	0.261	-0.313
-734.010	516.447	-0.064	-0.153
-732.996	-200.000	-0.014	0.147
-731.981	-50.602	0.321	0.155
-730.966	106.118	-0.103	-0.125
-729.952	-65.732	0.087	-0.036
-728.937	74.559	0.078	-0.084
-727.923	391.047	-0.117	-0.250
-726.908	-200.000	0.013	-0.080
-725.894	-56.846	0.125	0.057
-724.879	46.263	-0.185	0.176
-723.864	-45.860	-0.317	0.160
-722.850	-200.000	-0.021	0.306
-721.835	226.648	0.191	0.318
-720.821	-200.000	-0.042	-0.603
-719.806	132.701	0.206	-0.273
-718.791	800.000	-0.123	-0.492
-717.777	-200.000	-0.001	0.255
-716.762	654.192	0.023	0.060
-715.748	75.401	0.282	0.306
-714.733	-61.762	0.293	-0.126
-713.718	-39.370	-0.033	0.018
-712.704	-18.925	-0.384	0.245
-711.689	-80.998	-0.117	-0.040
-710.675	-28.414	-0.337	0.199
-709.660	-18.948	-0.133	0.085
-708.645	206.619	-0.099	-0.157
-707.631	472.120	-0.085	0.195
-706.616	-200.000	-0.013	0.180
-705.602	25.852	-0.217	0.185
-704.587	55.192	0.265	0.263
-703.572	-76.436	0.140	0.050
-702.558	392.052	-0.098	0.208
-701.543	-14.838	0.088	0.058
-700.529	-133.710	-0.185	-0.024
-699.514	20.999	0.281	-0.233
-698.499	23.099	0.226	-0.190
-697.485	543.147	0.069	0.168
-696.470	168.625	0.105	0.154
-695.456	-68.979	0.206	0.081
-694.441	246.859	-0.194	-0.335
-693.426	-95.535	-0.261	0.072
-692.412	-79.883	-0.166	-0.057
-691.397	-103.194	-0.289	-0.070
-690.383	-121.643	-0.293	-0.050
-689.368	800.000	0.070	0.221
-688.354	-40.284	-0.309	-0.165
-687.339	32.280	-0.114	-0.101
-686.324	304.631	-0.052	0.098
-685.310	-168.957	0.299	-0.011
-684.295	-97.571	-0.094	-0.025
-683.281	-98.291	-0.096	0.025
-682.266	369.314	0.032	0.066
-681.251	-130.978	0.344	0.047
-680.237	-200.000	-0.014	0.213
-679.222	247.341	0.092	-0.159
-678.208	73.258	0.140	-0.150
-677.193	-80.255	0.214	0.073
-676.178	-73.435	-0.154	0.058
-675.164	-19.004	0.223	0.142
-674.149	-43.370	0.194	-0.100
-673.135	800.000	0.034	0.108
-672.120	-200.000	-0.004	0.237
-671.105	81.013	0.108	0.120
-670.091	0.254	0.062	-0.046
-669.076	109.939	0.069	-0.085
-668.062	-119.849	-0.269	0.047
-667.047	800.000	0.066	0.197
-666.032	-82.665	-0.423	0.140
-665.018	-23.585	0.033	0.020
-664.003	-200.000	0.013	-0.339
-662.989	-152.210	0.189	-0.014
-661.974	-33.520	0.170	0.096
-660.959	40.998	-0.179	-0.166
-659.945	-62.411	-0.119	-0.051
-658.930	-200.000	0.006	0.284
-657.916	-62.927	0.192	0.081
-656.901	-151.917	0.183	-0.014
-655.886	-19.037	0.226	-0.143
-654.872	-200.000	-0.022	0.217
-653.857	-81.619	0.083	0.028
-652.843	-34.094	-0.090	-0.050
-651.828	-200.000	-0.014	-0.245
-650.814	99.873	-0.125	-0.148
-649.799	726.126	0.050	-0.137
-648.784	434.579	0.078	-0.172
-647.770	401.747	0.035	0.075
-646.755	-200.000	0.035	0.236
-645.741	623.095	0.160	0.411
-644.726	-136.784	0.364	0.043
-643.711	-37.165	-0.152	0.083
-642.697	147.616	0.083	-0.114
-641.682	169.978	-0.124	0.181
-640.668	305.314	0.184	0.350
-639.653	-20.599	-0.190	-0.119
-638.638	163.033	0.021	-0.030
-637.624	-200.000	-0.035	-0.189
-636.609	760.390	-0.094	0.259
-635.595	45.799	0.202	-0.191
-634.580	800.000	0.041	-0.160
-633.565	-200.000	-0.017	0.388
-632.551	133.528	0.180	0.238
-631.536	-111.934	0.336	0.069
-630.522	-200.000	-0.041	0.269
-629.507	-21.616	-0.269	0.168
-628.492	-73.360	-0.038	0.014
-627.478	800.000	0.111	-0.329
-626.463	309.553	0.070	0.134
-625.449	118.884	0.259	-0.327
-624.434	583.213	-0.059	-0.148
-623.419	-42.649	-0.458	-0.238
-622.405	252.727	0.027	-0.046
-621.390	-149.229	-0.084	0.007
-620.376	-113.017	-0.118	-0.024
-619.361	800.000	0.085	-0.357
-618.346	-69.527	-0.205	0.080
-617.332	411.280	0.091	0.198
-616.317	8.013	-0.040	0.031
-615.303	59.501	-0.144	-0.145
-614.288	-118.825	-0.226	-0.041
-613.273	-200.000	-0.012	-0.309
-612.259	-78.415	0.063	-0.022
-611.244	-200.000	-0.004	0.130
-610.230	800.000	-0.103	-0.328
-609.215	351.721	-0.174	0.352
-608.201	40.329	-0.109	0.100
-607.186	18.085	0.170	0.138
-606.171	-26.703	-0.254	0.152
-605.157	438.709	0.078	0.173
-604.142	236.083	-0.072	-0.122
-603.128	92.534	0.167	0.192
-602.113	-200.000	-0.021	-0.493
-601.098	556.357	-0.078	0.192
-600.084	-95.722	0.205	0.056
-599.069	168.031	0.049	0.071
-598.055	-200.000	0.006	-0.066
-597.040	-186.707	-0.348	-0.005
-596.025	-27.470	0.098	-0.058
-595.011	-10.718	0.188	0.127
-593.996	470.131	0.064	-0.147
-592.982	226.448	0.099	0.164
-591.967	118.934	0.110	0.139
-590.952	654.741	0.087	0.229
-589.938	800.000	-0.035	-0.132
-588.923	-140.366	-0.239	-0.025
-587.909	62.183	0.168	-0.171
-586.894	26.869	0.229	-0.196
-585.879	-200.000	0.013	0.264
-584.865	-48.731	-0.443	0.217
-583.850	-29.160	-0.157	0.092
-582.836	723.076	-0.020	-0.053
-581.821	-135.653	-0.110	0.013
-580.806	42.841	-0.047	-0.043
-579.792	-200.000	0.047	-0.330
-578.777	800.000	0.027	0.082
-577.763	-200.000	0.060	-0.294
-576.748	423.343	-0.023	0.050
-575.733	-200.000	0.035	-0.393
-574.719	-124.540	-0.222	0.035
-573.704	800.000	-0.049	-0.204
-572.690	-200.000	-0.001	0.288
-571.675	645.525	-0.144	-0.375
-570.661	-80.059	-0.201	-0.069
-569.646	24.171	0.213	-0.180
-568.631	800.000	0.013	0.038
-567.617	-49.678	-0.218	0.106
-566.602	136.205	0.227	0.302
-565.588	-43.608	-0.192	0.099
-564.573	634.219	-0.115	0.297
-563.558	80.596	-0.149	0.164
-562.544	213.202	-0.167	-0.268
-561.529	-1.183	0.079	0.057
-560.515	-200.000	0.052	-0.339
-559.500	-200.000	-0.045	-0.365
-558.485	-25.084	-0.217	-0.131
-557.471	70.921	-0.142	0.150
-556.456	303.177	0.140	-0.264
-555.442	-15.411	0.098	-0.064
-554.427	377.490	0.175	0.364
-553.412	-47.595	-0.220	-0.109
-552.398	-200.000	0.061	0.275
-551.383	-28.640	0.219	-0.128
-550.369	246.653	0.062	-0.106
-549.354	556.180	-0.048	0.119
-548.339	212.347	0.124	0.199
-547.325	64.583	-0.104	-0.107
-546.310	-130.623	0.050	-0.007
-545.296	14.062	0.089	-0.071
-544.281	-200.000	0.006	-0.140
-543.266	-11.259	-0.130	-0.087
-542.252	-200.000	-0.010	0.066
-541.237	-51.893	0.206	0.098
-540.223	381.642	-0.059	0.124
-539.208	800.000	-0.087	0.260
-538.193	-200.000	0.023	-0.118
-537.179	-197.027	-0.374	0.002
-536.164	-56.891	-0.123	0.055
-535.150	-4.627	0.145	0.102
-534.135	-49.420	0.122	0.059
-533.121	27.600	0.169	-0.145
-532.106	32.308	-0.061	-0.054
-531.091	-19.117	0.402	-0.254
-530.077	-25.170	0.109	0.066
-529.062	-17.047	-0.240	0.154
-528.048	9.834	-0.062	0.048
-527.033	-200.000	0.012	-0.151
-526.018	9.679	0.318	-0.245
-525.004	-24.556	-0.198	-0.120
-523.989	-150.610	0.307	0.024
-522.975	800.000	-0.075	0.261
-521.960	-81.650	-0.310	-0.104
-520.945	-145.644	-0.126	-0.011
-519.931	-134.963	0.055	0.007
-518.916	156.099	0.249	0.350
-517.902	-131.048	-0.136	-0.018
-516.887	-191.299	-0.034	-0.000
-515.872	-174.729	0.202	0.006
-514.858	-200.000	-0.028	-0.196
-513.843	-57.584	0.331	-0.148
-512.829	12.336	0.332	0.261
-511.814	-200.000	0.033	-0.189
-510.799	-163.894	0.236	0.011
-509.785	-132.527	0.257	-0.034
-508.770	111.581	0.085	0.104
-507.756	-200.000	0.013	0.267
-506.741	-82.046	-0.015	0.005
-505.726	251.155	0.048	-0.082
-504.712	800.000	0.076	0.329
-503.697	197.339	0.045	-0.070
-502.683	182.350	-0.202	-0.302
-501.668	-77.511	-0.301	0.106
-500.653	-200.000	0.012	0.430
-499.639	-200.000	0.004	0.161
-498.624	-200.000	-0.011	0.155
-497.610	207.988	0.236	-0.374
-496.595	50.853	-0.068	-0.065
-495.581	97.615	0.118	0.138
-494.566	450.217	0.141	0.315
-493.551	-145.151	0.057	0.005
-492.537	279.088	-0.214	-0.389
-491.522	-200.000	-0.002	-0.065
-490.508	-1.800	-0.187	-0.134
-489.493	-200.000	0.049	0.218
-488.478	580.474	-0.157	0.391
-487.464	15.259	0.087	-0.069
-486.449	10.193	0.015	0.011
-485.435	-120.570	-0.245	0.042
-484.420	800.000	0.059	0.215
-483.405	-16.164	0.204	-0.132
-482.391	800.000	-0.059	0.167
-481.376	-16.937	0.252	0.162
-480.362	-200.000	-0.038	0.349
-479.347	-200.000	-0.037	-0.444
-478.332	-6.696	-0.172	-0.119
-477.318	204.315	-0.034	0.053
-476.303	-50.551	0.241	-0.116
-475.289	505.122	-0.033	0.079
-474.274	-128.477	0.198	0.029
-473.259	-200.000	0.020	0.095
-472.245	-200.000	-0.077	0.352
-471.230	-29.470	-0.208	-0.121
-470.216	-37.604	0.192	0.104
-469.201	-200.000	-0.014	0.106
-468.186	-75.787	-0.125	0.045
-467.172	800.000	0.037	0.115
-466.157	-22.466	0.089	0.055
-465.143	-4.337	-0.195	-0.137
-464.128	-8.721	-0.381	0.260
-463.113	800.000	0.102	0.317
-462.099	-155.962	0.178	0.012
-461.084	196.754	0.042	-0.064
-460.070	-143.563	0.070	0.007
-459.055	-154.054	0.100	-0.007
-458.040	151.850	0.172	-0.238
-457.026	-166.720	0.294	0.012
-456.011	65.325	0.120	0.123
-454.997	-3.243	0.114	0.081
-453.982	-87.657	0.125	0.038
-452.968	-102.983	0.479	-0.115
-451.953	-111.275	-0.367	0.076
-450.938	800.000	-0.116	-0.335
-449.924	-1.101	0.212	-0.152
-448.909	318.715	0.062	0.119
-447.895	-20.632	-0.075	0.046
-446.880	-200.000	-0.005	-0.164
-445.865	-91.548	0.092	0.027
-444.851	-80.887	-0.271	0.091
-443.836	36.655	-0.050	-0.045
-442.822	-69.413	-0.014	0.006
-441.807	-200.000	0.025	0.271
-440.792	-200.000	0.003	0.107
-439.778	78.434	0.065	-0.070
-438.763	-176.996	0.580	-0.015
-437.749	86.837	0.326	0.365
-436.734	126.436	0.114	-0.146
-435.719	-66.364	0.178	-0.072
-434.705	660.921	-0.053	-0.140
-433.690	18.357	0.104	-0.084
-432.676	-200.000	-0.035	0.225
-431.661	123.785	0.263	-0.335
-430.646	-154.108	-0.435	-0.030
-429.632	800.000	0.092	0.314
-428.617	78.158	0.208	-0.225
-427.603	800.000	0.093	0.280
-426.588	-50.059	0.289	-0.139
-425.573	800.000	-0.115	-0.407
-424.559	124.520	0.239	0.305
-423.544	211.815	0.054	0.086
-422.530	-200.000	0.058	-0.259
-421.515	-200.000	-0.032	-0.192
-420.500	800.000	0.063	-0.232
-419.486	-128.474	0.121	-0.017
-418.471	186.720	-0.075	-0.114
-417.457	-19.983	-0.260	-0.163
-416.442	99.867	-0.176	0.207
-415.428	-200.000	0.006	0.117
-414.413	35.651	0.128	-0.114
-413.398	800.000	0.057	-0.166
-412.384	356.575	0.037	0.074
-411.369	-75.932	-0.119	-0.043
-410.355	-135.995	0.235	0.028
-409.340	-87.377	-0.213	-0.066
-408.325	-200.000	-0.148	0.000
-407.311	-200.000	-0.030	0.197
-406.296	-200.000	-0.003	-0.053
-405.282	-41.861	-0.245	-0.127
-404.267	607.033	0.099	0.251
-403.252	14.151	-0.209	-0.165
-402.238	800.000	-0.048	0.187
-401.223	-105.277	0.141	0.033
-400.209	800.000	-0.082	-0.283
-399.194	293.235	-0.164	-0.303
-398.179	118.440	-0.174	-0.218
-397.165	337.609	-0.049	-0.096
-396.150	49.680	0.335	-0.320
-395.136	172.302	-0.076	0.111
-394.121	70.354	-0.081	0.085
-393.106	19.159	-0.230	-0.187
-392.092	-33.707	0.271	-0.151
-391.077	-101.674	0.149	0.037
-390.063	-200.000	-0.020	-0.095
-389.048	329.437	-0.180	0.350
-388.033	377.166	0.041	0.084
-387.019	49.030	-0.268	-0.255
-386.004	-110.778	-0.067	-0.014
-384.990	-200.000	0.008	-0.036
-383.975	149.508	-0.024	-0.032
-382.960	-178.021	0.021	-0.001
-381.946	37.553	0.246	0.221
-380.931	-13.946	0.174	0.114
-379.917	34.681	-0.189	-0.167
-378.902	-41.252	-0.097	-0.050
-377.888	-111.876	0.341	-0.070
-376.873	307.925	0.122	-0.231
-375.858	53.204	0.080	-0.078
-374.844	-143.344	-0.354	-0.034
-373.829	-200.000	0.043	0.295
-372.815	800.000	0.032	-0.095
-371.800	-11.016	0.197	-0.131
-370.785	48.441	0.049	0.046
-369.771	-42.370	0.337	0.174
-368.756	89.288	-0.198	-0.223
-367.742	-63.676	0.233	-0.097
-366.727	-107.812	-0.091	0.020
-365.712	-200.000	-0.027	-0.200
-364.698	-200.000	0.028	-0.169
-363.683	-200.000	-0.020	-0.135
-362.669	-81.040	0.141	-0.047
-361.654	-150.160	-0.249	-0.020
-360.639	-59.287	0.067	0.029
-359.625	106.342	-0.142	0.170
-358.610	-85.008	0.103	0.033
-357.596	72.610	-0.226	-0.238
-356.581	-128.462	0.131	0.019
-355.566	800.000	0.048	-0.188
-354.552	-117.043	0.206	0.038
-353.537	800.000	-0.071	0.207
-352.523	391.910	-0.077	0.161
-351.508	-123.600	0.100	-0.016
-350.493	-62.136	-0.218	0.092
-349.479	217.304	-0.070	-0.113
-348.464	521.721	-0.056	-0.133
-347.450	-75.491	0.071	-0.025
-346.435	800.000	0.038	0.128
-345.420	-41.698	0.183	-0.095
-344.406	4.132	-0.196	-0.145
-343.391	-200.000	-0.057	0.354
-342.377	-106.951	0.258	0.058
-341.362	-11.440	0.039	-0.026
-340.348	188.768	0.108	-0.163
-339.333	87.905	0.224	0.251
-338.318	-200.000	0.034	0.597
-337.304	637.843	0.123	-0.316
-336.289	-128.756	0.167	-0.024
-335.275	-139.389	-0.166	0.018
-334.260	725.568	-0.070	0.188
-333.245	-77.207	0.340	-0.119
-332.231	-65.909	-0.181	0.073
-331.216	29.861	-0.177	-0.152
-330.202	-133.840	-0.228	-0.029
-329.187	-20.761	-0.205	-0.127
-328.172	129.149	-0.179	0.230
-327.158	800.000	0.048	0.169
-326.143	357.966	0.054	0.110
-325.129	727.717	-0.081	0.218
-324.114	-157.196	0.263	0.016
-323.099	15.945	-0.130	0.103
-322.085	92.283	0.113	-0.129
-321.070	-200.000	-0.055	-0.320
-320.056	-185.960	-0.334	0.005
-319.041	30.419	-0.169	-0.146
-318.026	800.000	-0.098	-0.430
-317.012	-76.122	0.123	0.044
-315.997	71.481	0.153	0.160
-314.983	213.773	-0.088	-0.141
-313.968	-200.000	0.035	0.195
-312.953	58.373	0.258	0.255
-311.939	185.697	-0.250	-0.375
-310.924	-105.544	-0.101	-0.023
-309.910	800.000	-0.042	-0.149
-308.895	-166.037	-0.220	-0.009
-307.880	-32.333	0.102	-0.057
-306.866	800.000	-0.088	-0.360
-305.851	262.306	0.040	0.070
-304.837	202.688	-0.224	-0.349
-303.822	142.763	0.144	-0.193
-302.807	209.441	0.140	0.221
-301.793	800.000	0.131	-0.476
-300.778	-105.008	0.109	-0.025
-299.764	-21.890	-0.357	-0.219
-298.749	-200.000	-0.053	0.333
-297.735	800.000	0.087	-0.309
-296.720	115.330	0.087	0.107
-295.705	108.291	0.168	-0.202
-294.691	67.189	-0.168	0.173
-293.676	-47.872	0.174	-0.085
-292.662	800.000	0.032	-0.129
-291.647	52.993	0.254	-0.245
-290.632	487.826	-0.127	-0.293
-289.618	-137.786	-0.221	0.025
-288.603	-51.645	0.262	-0.123
-287.589	800.000	-0.031	0.137
-286.574	-172.225	0.049	-0.002
-285.559	-200.000	-0.007	-0.113
-284.545	-102.983	0.180	0.043
-283.530	-94.777	0.120	-0.033
-282.516	-88.646	-0.142	-0.043
-281.501	800.000	-0.016	-0.055
-280.486	-174.545	0.220	-0.006
-279.472	-200.000	0.019	-0.335
-278.457	800.000	0.051	0.172
-277.443	-134.416	-0.370	-0.046
-276.428	-157.025	-0.302	0.019
-275.413	-26.386	-0.032	0.019
-274.399	-85.465	-0.160	-0.050
-273.384	-22.079	0.053	0.033
-272.370	-74.726	-0.286	-0.104
-271.355	-200.000	0.007	0.161
-270.340	56.546	-0.061	-0.060
-269.326	-200.000	0.019	0.091
-268.311	172.965	-0.049	0.071
-267.297	73.296	0.143	-0.151
-266.282	137.718	-0.081	0.107
-265.267	-64.455	-0.308	-0.126
-264.253	319.263	-0.158	0.302
-263.238	800.000	-0.035	0.119
-262.224	191.362	0.021	0.032
-261.209	800.000	-0.084	0.239
-260.195	1.816	0.116	-0.084
-259.180	589.898	-0.064	0.159
-258.165	310.379	0.054	-0.102
-257.151	112.062	-0.012	-0.014
-256.136	-200.000	-0.027	0.471
-255.122	413.360	0.045	0.096
-254.107	-200.000	-0.001	-0.235
-253.092	-91.469	-0.245	-0.070
-252.078	79.331	-0.155	0.167
-251.063	32.160	-0.199	-0.172
-250.049	-116.890	-0.309	-0.057
-249.034	800.000	0.078	-0.261
-248.019	-173.009	-0.321	0.010
-247.005	-200.000	0.099	0.654
-245.990	189.803	0.061	-0.092
-244.976	-200.000	-0.004	0.282
-243.961	-96.078	0.079	-0.021
-242.946	383.775	-0.126	-0.262
-241.932	-127.930	0.312	0.045
-240.917	43.274	-0.193	-0.177
-239.903	-100.246	-0.098	0.025
-238.888	-1.553	0.250	-0.177
-237.873	-70.577	0.365	-0.139
-236.859	-115.981	0.180	-0.034
-235.844	-200.000	-0.025	0.148
-234.830	285.270	-0.053	0.096
-233.815	-200.000	-0.019	0.311
-232.800	568.277	-0.054	-0.133
-231.786	531.857	-0.086	0.205
-230.771	-4.159	0.133	-0.093
-229.757	99.836	-0.081	-0.095
-228.742	-3.911	0.339	0.237
-227.727	-100.130	-0.234	-0.059
-226.713	754.997	0.099	-0.269
-225.698	-60.586	0.190	-0.081
-224.684	436.055	0.147	0.321
-223.669	-200.000	-0.015	0.190
-222.655	76.163	0.011	0.012
-221.640	287.047	-0.049	0.089
-220.625	143.026	0.021	-0.028
-219.611	-200.000	-0.018	-0.138
-218.596	227.220	-0.109	0.178
-217.582	-124.455	-0.579	0.091
-216.567	800.000	-0.076	0.259
-215.552	680.318	-0.017	-0.043
-214.538	36.574	-0.092	0.082
-213.523	-200.000	0.018	-0.164
-212.509	-22.150	0.057	0.035
-211.494	-30.429	-0.066	0.038
-210.479	-122.286	0.378	-0.062
-209.465	-3.910	-0.066	0.046
-208.450	-200.000	-0.002	0.276
-207.436	800.000	-0.067	0.198
-206.421	74.414	-0.218	0.231
-205.406	800.000	0.035	0.125
-204.392	-200.000	0.013	0.123
-203.377	800.000	0.104	-0.310
-202.363	-115.094	-0.189	0.036
-201.348	-27.550	-0.306	-0.179
-200.333	-104.393	0.211	0.049
-199.319	288.281	0.046	-0.083
-198.304	800.000	0.039	0.156
-197.290	-60.711	-0.199	0.085
-196.275	-68.036	0.086	0.034
-195.260	-123.229	-0.123	0.020
-194.246	-200.000	-0.022	-0.107
-193.231	1.449	0.085	-0.062
-192.217	-81.591	0.203	0.067
-191.202	22.503	-0.186	0.153
-190.187	-200.000	0.003	0.145
-189.173	-5.062	-0.009	-0.006
-188.158	-23.841	-0.145	0.087
-187.144	132.568	-0.181	0.235
-186.129	104.944	0.074	-0.088
-185.114	200.874	0.057	-0.088
-184.100	-59.333	-0.163	-0.071
-183.085	800.000	-0.017	-0.050
-182.071	22.006	-0.308	0.252
-181.056	-200.000	-0.034	0.231
-180.042	58.142	-0.259	-0.255
-179.027	282.837	0.073	-0.132
-178.012	679.520	-0.010	0.026
-176.998	95.209	-0.122	-0.140
-175.983	-200.000	0.378	0.001
-174.969	-140.688	-0.292	-0.030
-173.954	73.199	0.218	-0.229
-172.939	-82.139	-0.295	0.097
-171.925	-200.000	-0.011	-0.086
-170.910	115.012	-0.101	-0.124
-169.896	277.604	0.030	-0.054
-168.881	-27.631	0.141	-0.082
-167.866	-39.555	-0.195	-0.102
-166.852	800.000	-0.012	0.044
-165.837	-106.133	-0.233	-0.053
-164.823	800.000	0.029	0.081
-163.808	-114.801	0.277	0.053
-162.793	-111.716	-0.315	-0.064
-161.779	-119.409	-0.213	0.037
-160.764	-121.004	-0.025	0.004
-159.750	78.082	0.110	-0.118
-158.735	-33.398	-0.256	-0.142
-157.720	800.000	0.013	0.055
-156.706	209.231	0.093	0.146
-155.691	-116.030	0.243	0.045
-154.677	-164.657	0.110	-0.005
-153.662	-139.350	0.257	0.028
-152.647	-127.231	0.185	-0.027
-151.633	-200.000	0.091	0.410
-150.618	42.963	0.290	0.266
-149.604	88.668	-0.233	0.260
-148.589	-92.232	0.287	0.081
-147.574	-200.000	0.028	0.125
-146.560	-200.000	0.012	0.084
-145.545	685.867	0.100	0.263
-144.531	-142.057	-0.130	0.013
-143.516	-200.000	-0.058	-0.386
-142.502	-146.973	0.341	0.029
-141.487	-200.000	-0.008	0.121
-140.472	-200.000	0.027	0.137
-139.458	436.532	-0.069	0.150
-138.443	800.000	0.052	0.164
-137.429	800.000	0.057	0.213
-136.414	105.133	-0.162	0.192
-135.399	689.144	-0.038	-0.099
-134.385	43.043	0.121	-0.110
-133.370	-3.331	0.171	0.119
-132.356	54.430	-0.279	0.269
-131.341	-23.660	0.183	0.110
-130.326	800.000	0.099	0.298
-129.312	63.568	-0.179	0.180
-128.297	-28.485	-0.269	-0.155
-127.283	141.770	0.039	-0.052
-126.268	224.053	-0.062	0.100
-125.253	-200.000	0.004	0.240
-124.239	-144.801	0.089	0.008
-123.224	-200.000	0.023	-0.345
-122.210	-53.721	0.202	0.092
-121.195	-175.039	-0.108	-0.003
