DTS Sentinel unit serial number:	SN413079Multiplexer serial number:	ORYXHardware model number:	OX4-SRSoftware version number:	ORYX F/W v4.00 Oryx Data Collector v3.7.2.0data status	okinstallation	princeton_trtdifferential loss correction	single-endedforward channel	channel 4reverse channel	N/Adate	2019/09/14time	05:01:35forward acquisition time	60.00reverse acquisition time	0.00gamma	496.2192k internal	0.2320k external	0.2320temperature offset calibration	1.0137default loss term (dB/km)	0.3790temperature slope calibration	1.0000multiplexer offset coefficient	1.0000multiplexer slope coefficient	1.0000fibre end	0.00T internal ref (°C)	26.87T ext. ref 1 (°C)	3.37T ext. ref 2 (°C)	22.00length (m)	temperature (°C)	Stokes	anti-Stokes-747.200	-125.121	-0.149	0.023
-746.185	86.343	0.237	0.264
-745.171	-86.212	0.152	0.047
-744.156	-200.000	-0.023	0.238
-743.142	369.441	0.083	0.170
-742.127	-200.000	0.019	-0.212
-741.112	229.239	0.022	0.037
-740.098	-200.000	-0.010	0.181
-739.083	800.000	-0.013	0.040
-738.069	-126.779	-0.302	0.045
-737.054	221.413	-0.061	-0.100
-736.039	-99.682	-0.476	-0.121
-735.025	235.980	0.095	0.158
-734.010	-80.667	-0.168	-0.056
-732.996	-34.735	-0.234	-0.129
-731.981	-200.000	0.019	-0.117
-730.966	-23.395	0.270	-0.164
-729.952	376.335	0.086	-0.177
-728.937	457.363	-0.097	-0.218
-727.923	95.283	0.062	-0.072
-726.908	-72.225	-0.016	0.006
-725.894	-147.860	-0.213	0.018
-724.879	36.100	-0.191	-0.170
-723.864	-200.000	-0.031	-0.204
-722.850	250.947	0.119	-0.204
-721.835	-200.000	0.055	-0.348
-720.821	66.744	-0.162	0.167
-719.806	800.000	0.125	0.413
-718.791	800.000	-0.069	0.287
-717.777	-200.000	-0.028	0.311
-716.762	68.523	-0.077	0.080
-715.748	-69.142	-0.310	0.120
-714.733	-200.000	0.016	0.124
-713.718	-87.622	-0.257	0.078
-712.704	24.413	-0.429	-0.359
-711.689	94.489	0.169	0.194
-710.675	358.410	0.110	-0.221
-709.660	800.000	-0.015	0.063
-708.645	280.549	-0.057	-0.103
-707.631	274.205	0.067	-0.120
-706.616	-160.390	-0.108	-0.006
-705.602	-147.659	-0.070	0.006
-704.587	436.157	0.046	0.101
-703.572	52.604	0.135	-0.130
-702.558	316.850	0.064	-0.121
-701.543	160.715	0.149	0.210
-700.529	-57.312	0.379	0.168
-699.514	-38.685	0.004	0.002
-698.499	-113.713	-0.220	0.043
-697.485	334.150	-0.087	-0.170
-696.470	341.489	-0.156	-0.307
-695.456	233.620	0.087	0.145
-694.441	347.828	0.103	0.204
-693.426	-93.820	0.325	0.090
-692.412	-200.000	-0.046	0.313
-691.397	307.781	-0.088	-0.166
-690.383	-61.691	-0.094	0.040
-689.368	-131.130	0.100	-0.013
-688.354	-41.447	0.197	-0.102
-687.339	-200.000	0.006	0.027
-686.324	719.946	-0.102	-0.273
-685.310	82.544	-0.142	-0.155
-684.295	475.204	0.074	-0.170
-683.281	116.218	-0.100	0.123
-682.266	800.000	-0.072	0.220
-681.251	-161.654	0.071	-0.004
-680.237	-200.000	-0.064	0.287
-679.222	193.963	0.061	-0.093
-678.208	-135.320	-0.224	-0.027
-677.193	-200.000	0.026	-0.122
-676.178	-22.845	-0.346	-0.210
-675.164	-200.000	-0.038	-0.229
-674.149	-42.770	-0.223	0.114
-673.135	-55.883	0.099	-0.045
-672.120	-169.908	0.293	0.011
-671.105	-9.908	0.047	-0.031
-670.091	-100.496	-0.216	0.054
-669.076	-67.456	0.088	-0.035
-668.062	-80.405	-0.324	-0.109
-667.047	404.919	-0.065	-0.138
-666.032	-127.439	0.250	-0.037
-665.018	-200.000	0.016	-0.206
-664.003	800.000	0.135	-0.405
-662.989	-200.000	0.013	-0.295
-661.974	-200.000	-0.028	-0.486
-660.959	54.571	-0.148	0.144
-659.945	-200.000	-0.027	-0.159
-658.930	-43.023	0.156	-0.080
-657.916	-107.004	0.065	0.014
-656.901	800.000	0.020	0.062
-655.886	800.000	-0.080	0.230
-654.872	-23.705	-0.160	0.096
-653.857	800.000	-0.062	0.186
-652.843	-200.000	0.041	-0.378
-651.828	537.929	0.096	-0.229
-650.814	-200.000	-0.032	-0.419
-649.799	101.055	-0.299	-0.350
-648.784	-123.138	0.097	0.016
-647.770	-4.084	0.198	-0.138
-646.755	800.000	0.110	-0.349
-645.741	800.000	0.082	-0.236
-644.726	-99.522	0.061	0.015
-643.711	-110.465	-0.127	-0.026
-642.697	800.000	0.050	0.160
-641.682	16.193	-0.156	-0.124
-640.668	46.453	0.289	-0.270
-639.653	-18.739	-0.143	-0.090
-638.638	-77.338	-0.391	-0.137
-637.624	-68.371	0.233	-0.091
-636.609	-69.527	-0.032	0.012
-635.595	37.185	0.299	0.267
-634.580	-200.000	-0.003	0.158
-633.565	-33.860	-0.204	0.113
-632.551	-200.000	-0.007	-0.144
-631.536	70.211	0.128	0.133
-630.522	-200.000	-0.056	0.269
-629.507	37.750	0.158	0.141
-628.492	-156.245	-0.107	-0.007
-627.478	800.000	-0.065	-0.182
-626.463	-122.560	0.140	-0.023
-625.449	73.388	-0.136	-0.143
-624.434	-10.200	-0.151	0.101
-623.419	-76.554	0.148	0.052
-622.405	-139.332	0.374	-0.040
-621.390	-42.518	-0.145	0.074
-620.376	95.382	0.098	-0.113
-619.361	623.029	-0.050	-0.127
-618.346	800.000	0.100	0.284
-617.332	178.448	-0.183	-0.269
-616.317	-200.000	-0.042	-0.203
-615.303	712.055	0.136	0.362
-614.288	108.158	-0.266	-0.319
-613.273	-117.924	-0.196	-0.035
-612.259	254.702	0.134	-0.231
-611.244	66.669	-0.228	-0.234
-610.230	-44.087	0.166	-0.084
-609.215	-98.011	-0.317	-0.082
-608.201	-58.237	0.045	-0.020
-607.186	471.235	-0.107	-0.243
-606.171	15.371	0.151	0.119
-605.157	216.072	0.006	0.010
-604.142	-25.007	-0.247	-0.148
-603.128	-200.000	-0.044	0.314
-602.113	-78.599	0.076	-0.026
-601.098	-175.305	-0.254	0.007
-600.084	-200.000	-0.025	0.174
-599.069	-200.000	0.004	-0.065
-598.055	-87.141	0.553	-0.169
-597.040	-157.419	-0.423	-0.026
-596.025	-200.000	0.343	-0.001
-595.011	-115.689	0.211	-0.040
-593.996	-105.715	-0.090	0.020
-592.982	125.172	0.088	-0.111
-591.967	-25.609	0.190	0.113
-590.952	40.643	0.098	-0.089
-589.938	-54.296	0.247	0.113
-588.923	695.704	-0.071	-0.188
-587.909	-48.491	-0.208	-0.101
-586.894	800.000	-0.088	-0.355
-585.879	800.000	-0.052	-0.190
-584.865	-108.293	0.066	0.014
-583.850	-91.103	-0.064	0.018
-582.836	-98.135	0.116	-0.030
-581.821	127.546	-0.089	-0.113
-580.806	-154.059	0.132	-0.009
-579.792	-110.679	-0.462	0.096
-578.777	13.348	-0.063	-0.049
-577.763	120.237	0.084	-0.104
-576.748	144.451	-0.111	0.149
-575.733	615.264	-0.030	0.076
-574.719	-200.000	0.014	0.152
-573.704	-164.012	0.095	-0.004
-572.690	31.179	-0.043	-0.037
-571.675	-124.771	-0.244	-0.038
-570.661	38.018	0.220	0.197
-569.646	-114.439	-0.236	-0.045
-568.631	166.379	0.101	0.144
-567.617	-111.905	0.343	0.070
-566.602	-200.000	-0.008	-0.172
-565.588	478.270	0.082	0.186
-564.573	-200.000	-0.036	-0.157
-563.558	800.000	-0.088	-0.339
-562.544	211.095	-0.062	-0.098
-561.529	-171.187	-0.253	-0.009
-560.515	-200.000	-0.012	-0.091
-559.500	-96.698	0.096	-0.025
-558.485	267.452	-0.034	0.059
-557.471	-200.000	0.045	-0.243
-556.456	-75.476	-0.174	0.062
-555.442	300.787	-0.047	-0.086
-554.427	-118.380	0.442	-0.079
-553.412	-70.018	0.154	-0.059
-552.398	-200.000	0.009	-0.333
-551.383	613.298	-0.056	0.141
-550.369	800.000	0.073	-0.202
-549.354	-20.559	-0.234	-0.144
-548.339	-96.155	-0.434	0.116
-547.325	-175.625	-0.028	0.001
-546.310	246.527	0.192	-0.325
-545.296	351.492	0.160	-0.318
-544.281	-112.814	0.038	0.007
-543.266	-200.000	-0.030	-0.290
-542.252	-25.300	0.354	0.210
-541.237	203.291	-0.132	-0.204
-540.223	-200.000	-0.011	-0.070
-539.208	58.956	-0.233	0.230
-538.193	-16.186	-0.110	0.070
-537.179	-48.117	-0.287	0.139
-536.164	31.699	0.178	-0.154
-535.150	800.000	0.143	-0.451
-534.135	-3.300	0.256	-0.179
-533.121	-200.000	-0.032	0.222
-532.106	-200.000	-0.018	-0.210
-531.091	264.901	0.085	-0.148
-530.077	-200.000	0.003	0.041
-529.062	36.999	-0.178	0.158
-528.048	-200.000	-0.001	-0.306
-527.033	64.554	-0.105	0.106
-526.018	-136.246	0.188	0.022
-525.004	15.994	-0.168	-0.133
-523.989	90.320	-0.111	-0.124
-522.975	286.607	0.093	-0.168
-521.960	-135.218	-0.129	0.015
-520.945	16.647	0.136	0.108
-519.931	39.778	-0.035	0.031
-518.916	-33.600	0.141	-0.078
-517.902	-6.476	0.397	-0.271
-516.887	800.000	-0.026	-0.080
-515.872	100.682	-0.125	-0.146
-514.858	163.088	-0.134	-0.188
-513.843	56.964	0.201	0.196
-512.829	101.327	0.285	0.333
-511.814	800.000	-0.046	0.137
-510.799	-46.340	-0.427	-0.210
-509.785	-182.500	0.156	0.003
-508.770	251.368	-0.042	-0.072
-507.756	-126.642	0.338	0.050
-506.741	-125.439	0.272	-0.041
-505.726	-52.753	-0.251	0.116
-504.712	-75.301	-0.205	0.073
-503.697	505.309	0.087	-0.201
-502.683	62.524	-0.113	0.113
-501.668	-115.040	0.416	0.079
-500.653	-44.070	-0.218	0.110
-499.639	-134.309	0.257	0.032
-498.624	63.476	-0.173	0.174
-497.610	534.243	0.068	0.162
-496.595	-200.000	0.019	-0.345
-495.581	-5.435	-0.163	0.112
-494.566	-183.948	-0.213	0.004
-493.551	223.409	-0.134	0.216
-492.537	-132.666	0.155	-0.020
-491.522	800.000	-0.088	-0.305
-490.508	-200.000	-0.025	0.174
-489.493	23.677	0.158	-0.130
-488.478	97.338	0.169	0.194
-487.464	-27.652	-0.209	-0.121
-486.449	8.944	0.101	-0.076
-485.435	-122.794	-0.221	0.036
-484.420	-200.000	0.011	-0.108
-483.405	-5.221	0.172	-0.118
-482.391	-200.000	0.020	0.111
-481.376	-48.080	0.221	-0.107
-480.362	-88.851	-0.571	-0.170
-479.347	205.844	0.247	0.384
-478.332	15.745	0.171	0.135
-477.318	238.982	-0.116	0.193
-476.303	-132.978	0.172	-0.022
-475.289	-7.309	0.077	-0.052
-474.274	60.083	-0.046	0.046
-473.259	-200.000	-0.015	0.138
-472.245	80.207	0.180	0.194
-471.230	-200.000	0.007	0.188
-470.216	-158.374	0.281	0.016
-469.201	-142.159	-0.317	0.031
-468.186	-108.977	-0.183	0.039
-467.172	800.000	0.026	0.085
-466.157	-177.735	-0.073	-0.002
-465.143	-133.074	-0.102	-0.013
-464.128	242.312	0.073	-0.121
-463.113	178.972	0.074	0.108
-462.099	221.293	-0.088	-0.141
-461.084	-200.000	-0.040	0.195
-460.070	789.611	0.013	0.037
-459.055	-63.360	0.214	0.088
-458.040	8.143	-0.140	-0.105
-457.026	30.660	0.122	-0.104
-456.011	-133.155	-0.110	-0.014
-454.997	46.652	0.152	0.141
-453.982	-106.060	-0.170	0.038
-452.968	72.400	0.182	-0.190
-451.953	61.678	-0.162	0.161
-450.938	342.831	0.051	0.101
-449.924	-200.000	-0.013	0.171
-448.909	-200.000	-0.012	-0.466
-447.895	658.056	-0.157	-0.403
-446.880	-152.032	0.260	-0.019
-445.865	196.532	0.062	-0.094
-444.851	-93.427	-0.124	0.034
-443.836	163.815	-0.034	0.047
-442.822	-49.075	-0.183	0.088
-441.807	-29.969	-0.123	0.070
-440.792	66.669	-0.187	-0.191
-439.778	-200.000	-0.013	0.195
-438.763	-152.637	-0.606	0.043
-437.749	80.848	0.129	-0.139
-436.734	442.551	0.045	0.098
-435.719	-110.104	0.294	-0.061
-434.705	-200.000	0.006	0.297
-433.690	100.138	0.176	-0.203
-432.676	-93.657	0.144	-0.040
-431.661	-200.000	-0.032	-0.177
-430.646	-200.000	0.000	-0.134
-429.632	800.000	-0.034	0.099
-428.617	-60.497	0.154	-0.065
-427.603	-49.859	0.097	-0.046
-426.588	75.420	0.133	0.140
-425.573	7.488	0.255	0.190
-424.559	57.729	0.193	-0.188
-423.544	-47.281	0.155	-0.075
-422.530	87.208	-0.065	-0.072
-421.515	731.640	0.061	-0.163
-420.500	-200.000	-0.007	0.234
-419.486	-64.595	0.432	-0.175
-418.471	-54.673	-0.343	-0.155
-417.457	-56.889	0.252	-0.111
-416.442	-200.000	-0.017	0.097
-415.428	-200.000	0.014	0.084
-414.413	-200.000	-0.033	-0.361
-413.398	34.008	-0.105	0.091
-412.384	271.454	-0.039	-0.069
-411.369	81.601	0.092	-0.099
-410.355	167.186	0.174	0.246
-409.340	-74.831	-0.310	-0.111
-408.325	-200.000	0.011	0.251
-407.311	-200.000	-0.030	-0.353
-406.296	105.323	0.056	-0.066
-405.282	-151.090	0.104	-0.008
-404.267	-61.900	-0.047	0.019
-403.252	386.677	-0.115	0.236
-402.238	-52.204	-0.094	-0.044
-401.223	-200.000	-0.020	0.222
-400.209	197.094	-0.029	0.043
-399.194	-200.000	0.076	-0.376
-398.179	-194.659	0.087	-0.001
-397.165	800.000	0.066	0.264
-396.150	-200.000	0.005	0.331
-395.136	511.934	-0.171	0.397
-394.121	800.000	-0.048	0.179
-393.106	-200.000	-0.050	0.257
-392.092	219.127	0.051	-0.082
-391.077	-200.000	0.014	0.063
-390.063	27.649	-0.173	0.145
-389.048	58.182	0.068	-0.067
-388.033	33.773	-0.241	-0.209
-387.019	134.564	-0.147	-0.190
-386.004	29.766	0.122	0.104
-384.990	-153.086	0.176	0.012
-383.975	-200.000	0.046	0.278
-382.960	248.610	-0.278	0.470
-381.946	800.000	-0.090	0.274
-380.931	-200.000	-0.018	-0.214
-379.917	-75.768	-0.313	-0.111
-378.902	-22.238	0.217	-0.131
-377.888	13.761	0.184	-0.142
-376.873	63.613	-0.049	-0.049
-375.858	800.000	-0.025	0.081
-374.844	-200.000	0.010	0.217
-373.829	299.651	0.143	-0.262
-372.815	-117.028	0.056	0.010
-371.800	800.000	0.028	-0.110
-370.785	17.904	0.118	-0.094
-369.771	800.000	-0.034	0.108
-368.756	195.825	0.143	-0.217
-367.742	505.386	-0.102	0.235
-366.727	-101.556	0.109	-0.026
-365.712	25.015	-0.024	0.020
-364.698	332.789	0.111	0.213
-363.683	105.549	-0.107	-0.126
-362.669	800.000	-0.079	0.301
-361.654	-200.000	-0.040	0.270
-360.639	136.742	-0.297	0.386
-359.625	276.491	-0.034	0.061
-358.610	28.865	-0.195	-0.165
-357.596	-200.000	0.016	-0.228
-356.581	215.366	-0.283	-0.447
-355.566	328.454	-0.068	0.130
-354.552	800.000	-0.050	-0.144
-353.537	-77.453	-0.312	0.108
-352.523	-200.000	0.002	-0.089
-351.508	348.948	0.256	-0.503
-350.493	-200.000	0.005	0.149
-349.479	-78.278	-0.331	-0.113
-348.464	-67.859	0.394	-0.153
-347.450	217.719	0.108	-0.171
-346.435	-120.170	0.278	0.047
-345.420	-70.117	-0.162	0.061
-344.406	31.152	0.035	-0.030
-343.391	-175.590	-0.244	0.007
-342.377	-73.848	0.110	-0.040
-341.362	467.282	-0.199	0.445
-340.348	-142.871	-0.201	0.019
-339.333	-80.763	0.092	0.030
-338.318	-136.349	-0.068	0.008
-337.304	21.847	-0.285	0.231
-336.289	20.375	0.413	0.332
-335.275	-142.382	0.229	-0.022
-334.260	-71.861	0.073	0.027
-333.245	-34.520	-0.320	0.174
-332.231	7.344	0.048	-0.035
-331.216	800.000	0.051	0.151
-330.202	-200.000	0.027	0.176
-329.187	-78.889	0.081	0.027
-328.172	56.582	0.364	0.352
-327.158	54.728	-0.056	-0.053
-326.143	-151.899	-0.108	0.008
-325.129	-7.100	0.098	-0.066
-324.114	279.469	0.141	-0.251
-323.099	-31.130	0.212	-0.119
-322.085	196.964	0.106	-0.161
-321.070	-113.004	-0.294	0.058
-320.056	-6.296	0.057	-0.039
-319.041	-21.183	0.213	0.130
-318.026	-200.000	0.016	-0.096
-317.012	95.693	0.161	-0.183
-315.997	-123.059	0.072	-0.012
-314.983	-200.000	0.033	-0.348
-313.968	-140.678	0.098	-0.010
-312.953	-117.701	-0.190	0.034
-311.939	-200.000	0.048	0.237
-310.924	15.803	0.105	0.082
-309.910	-47.780	0.307	-0.148
-308.895	-150.784	-0.085	0.006
-307.880	39.137	0.094	0.083
-306.866	-200.000	-0.015	0.341
-305.851	68.817	0.011	-0.011
-304.837	242.527	-0.116	-0.193
-303.822	-163.987	-0.357	0.016
-302.807	-90.424	0.303	-0.087
-301.793	788.396	-0.035	0.095
-300.778	154.504	0.154	-0.211
-299.764	-30.773	-0.218	0.123
-298.749	800.000	-0.011	-0.045
-297.735	-59.017	0.205	-0.088
-296.720	36.126	0.148	0.129
-295.705	-200.000	-0.029	-0.209
-294.691	795.041	0.085	-0.233
-293.676	-58.350	-0.123	-0.053
-292.662	-27.470	0.099	-0.057
-291.647	97.676	0.241	0.276
-290.632	-109.458	-0.024	-0.005
-289.618	435.581	0.087	-0.187
-288.603	-200.000	0.008	0.231
-287.589	285.231	0.115	-0.205
-286.574	479.196	-0.135	0.304
-285.559	60.702	-0.259	0.255
-284.545	-200.000	-0.020	-0.221
-283.530	56.214	0.161	-0.155
-282.516	-118.749	0.234	0.041
-281.501	198.304	-0.146	-0.222
-280.486	-148.917	-0.090	0.007
-279.472	496.677	0.035	-0.079
-278.457	-22.118	0.189	-0.114
-277.443	-19.758	-0.140	0.086
-276.428	510.828	0.085	-0.196
-275.413	-147.789	-0.159	0.013
-274.399	6.864	0.049	-0.036
-273.384	4.544	-0.280	-0.204
-272.370	-200.000	0.034	0.161
-271.355	800.000	0.074	0.322
-270.340	356.155	0.145	0.287
-269.326	185.983	-0.230	0.339
-268.311	-200.000	0.019	-0.346
-267.297	-200.000	0.015	-0.205
-266.282	800.000	0.117	0.346
-265.267	-174.897	-0.240	0.007
-264.253	249.985	-0.172	-0.289
-263.238	-190.287	0.297	-0.003
-262.224	148.367	0.258	0.346
-261.209	-200.000	-0.016	-0.174
-260.195	-19.444	-0.159	-0.098
-259.180	38.862	-0.267	0.237
-258.165	-27.507	0.318	0.183
-257.151	60.926	0.226	0.222
-256.136	800.000	-0.112	0.319
-255.122	38.644	0.056	0.049
-254.107	-200.000	-0.025	-0.260
-253.092	-200.000	-0.003	-0.197
-252.078	-200.000	0.034	-0.159
-251.063	779.845	-0.096	0.261
-250.049	-102.195	0.371	0.089
-249.034	-22.037	-0.468	0.282
-248.019	-88.528	-0.361	-0.107
-247.005	-64.522	0.081	-0.033
-245.990	-31.944	-0.090	0.050
-244.976	105.490	-0.158	-0.185
-243.961	-200.000	0.046	0.204
-242.946	-138.297	-0.373	-0.041
-241.932	-200.000	0.012	0.302
-240.917	95.474	0.310	-0.350
-239.903	800.000	-0.109	0.324
-238.888	49.536	0.331	0.309
-237.873	47.978	0.329	0.305
-236.859	-200.000	-0.011	-0.153
-235.844	800.000	-0.022	0.063
-234.830	-41.026	-0.298	0.153
-233.815	-177.190	0.160	-0.004
-232.800	-200.000	0.043	-0.216
-231.786	-114.581	-0.194	-0.037
-230.771	21.137	-0.190	0.153
-229.757	1.317	-0.265	0.189
-228.742	156.631	0.114	0.156
-227.727	515.347	0.121	0.281
-226.713	674.847	-0.036	-0.094
-225.698	113.936	-0.236	0.284
-224.684	-200.000	0.004	0.095
-223.669	-200.000	0.030	-0.135
-222.655	-196.177	-0.305	0.002
-221.640	-200.000	-0.032	0.181
-220.625	800.000	-0.028	0.119
-219.611	198.627	0.128	-0.194
-218.596	-93.798	0.351	0.096
-217.582	-124.420	-0.189	-0.029
-216.567	-82.834	-0.115	0.037
-215.552	-132.218	-0.263	-0.034
-214.538	115.451	-0.184	0.222
-213.523	-2.533	0.206	0.143
-212.509	718.237	0.064	-0.169
-211.494	-109.221	-0.304	0.064
-210.479	-91.791	0.371	0.104
-209.465	419.177	-0.052	-0.111
-208.450	-200.000	-0.013	0.075
-207.436	-96.164	-0.103	-0.027
-206.421	5.135	-0.103	-0.075
-205.406	243.461	-0.135	-0.224
-204.392	-200.000	-0.026	0.258
-203.377	-200.000	-0.017	-0.151
-202.363	-200.000	0.004	-0.153
-201.348	-67.826	-0.049	-0.019
-200.333	41.585	-0.034	-0.031
-199.319	-200.000	0.029	-0.359
-198.304	-115.155	0.201	-0.038
-197.290	-117.169	0.271	-0.049
-196.275	-92.977	-0.312	-0.086
-195.260	-124.700	0.461	-0.071
-194.246	315.799	0.102	0.191
-193.231	153.400	0.142	-0.192
-192.217	-127.068	-0.168	-0.024
-191.202	-62.481	0.060	-0.025
-190.187	-115.308	0.175	-0.033
-189.173	800.000	0.055	-0.214
-188.158	-138.404	-0.225	0.024
-187.144	69.411	-0.143	0.145
-186.129	101.587	-0.204	0.235
-185.114	-161.798	0.140	0.007
-184.100	155.495	0.087	0.118
-183.085	800.000	0.039	-0.118
-182.071	-152.329	-0.117	0.008
-181.056	-32.980	0.218	-0.120
-180.042	-108.989	0.167	0.035
-179.027	446.268	-0.107	0.233
-178.012	43.011	-0.093	0.084
-176.998	-45.579	-0.092	0.045
-175.983	-200.000	-0.035	0.243
-174.969	147.608	0.120	-0.160
-173.954	800.000	0.034	0.103
-172.939	-200.000	-0.036	-0.160
-171.925	-66.729	0.127	-0.050
-170.910	-149.188	-0.211	0.017
-169.896	39.851	0.185	0.164
-168.881	800.000	0.113	0.393
-167.866	-103.858	-0.201	0.046
-166.852	-168.007	-0.167	-0.006
-165.837	168.303	0.168	-0.236
-164.823	-74.523	0.158	-0.056
-163.808	206.560	-0.071	-0.110
-162.793	-63.120	-0.305	0.124
-161.779	-200.000	0.023	0.148
-160.764	331.794	-0.199	0.379
-159.750	160.753	-0.195	0.268
-158.735	-8.494	0.326	-0.217
-157.720	163.902	0.222	0.308
-156.706	-39.850	-0.147	0.076
-155.691	-35.525	0.118	0.063
-154.677	-119.140	-0.346	0.060
-153.662	-81.729	-0.255	-0.083
-152.647	-200.000	-0.030	0.156
-151.633	800.000	0.013	-0.047
-150.618	-91.818	-0.245	0.069
-149.604	660.497	-0.051	0.130
-148.589	112.417	-0.059	0.070
-147.574	201.712	0.066	-0.100
-146.560	-99.618	0.195	-0.048
-145.545	-59.803	-0.248	0.105
-144.531	-200.000	-0.004	-0.129
-143.516	-119.421	0.074	0.013
-142.502	100.599	-0.140	-0.160
-141.487	-23.454	-0.192	0.114
-140.472	54.731	0.293	0.279
-139.458	-31.062	0.231	0.129
-138.443	287.408	-0.075	0.133
-137.429	141.848	-0.028	0.037
-136.414	-200.000	-0.057	-0.284
-135.399	-15.274	0.284	0.179
-134.385	27.485	0.066	-0.055
-133.370	-76.707	0.299	-0.103
-132.356	-41.698	0.157	0.080
-131.341	-92.137	-0.219	-0.061
-130.326	-83.103	-0.047	-0.015
-129.312	-97.591	0.111	0.028
-128.297	-14.781	0.455	0.288
-127.283	235.078	-0.120	-0.195
-126.268	-200.000	0.023	0.379
-125.253	8.641	-0.151	-0.112
-124.239	-132.150	-0.146	0.019
-123.224	-40.904	-0.192	-0.098
-122.210	-74.901	-0.223	0.079
