DTS Sentinel unit serial number:	SN413079Multiplexer serial number:	ORYXHardware model number:	OX4-SRSoftware version number:	ORYX F/W v4.00 Oryx Data Collector v3.7.2.0data status	okinstallation	princeton_trtdifferential loss correction	single-endedforward channel	channel 4reverse channel	N/Adate	2019/09/18time	20:49:35forward acquisition time	60.00reverse acquisition time	0.00gamma	496.2192k internal	0.2327k external	0.2327temperature offset calibration	1.0037default loss term (dB/km)	0.3790temperature slope calibration	1.0000multiplexer offset coefficient	1.0000multiplexer slope coefficient	1.0000fibre end	0.00T internal ref (°C)	27.12T ext. ref 1 (°C)	0.95T ext. ref 2 (°C)	18.45length (m)	temperature (°C)	Stokes	anti-Stokes-747.200	98.116	0.144	-0.167
-746.185	-96.110	-0.172	0.046
-745.171	-200.000	0.022	0.298
-744.156	-145.303	-0.058	0.005
-743.142	-95.338	-0.175	-0.047
-742.127	251.417	-0.172	0.296
-741.112	624.040	-0.114	0.289
-740.098	-81.904	-0.183	0.060
-739.083	-39.408	-0.070	-0.037
-738.069	800.000	0.032	0.098
-737.054	311.516	0.066	-0.125
-736.039	-64.924	-0.318	-0.130
-735.025	-82.670	0.262	-0.085
-734.010	33.655	-0.264	-0.231
-732.996	-200.000	0.016	-0.177
-731.981	-59.989	-0.148	0.064
-730.966	36.910	0.060	-0.053
-729.952	263.911	0.065	0.113
-728.937	-69.356	-0.378	0.146
-727.923	-91.350	0.102	-0.029
-726.908	-159.197	-0.074	-0.004
-725.894	800.000	0.063	0.229
-724.879	134.223	0.069	-0.090
-723.864	142.503	0.042	-0.056
-722.850	-178.633	0.368	-0.009
-721.835	-78.926	-0.278	0.095
-720.821	-200.000	-0.028	0.226
-719.806	-143.144	-0.059	-0.006
-718.791	-44.673	0.266	-0.134
-717.777	110.851	-0.210	0.255
-716.762	-146.556	-0.202	-0.018
-715.748	-78.637	-0.288	0.099
-714.733	-127.438	0.244	-0.036
-713.718	-39.624	-0.374	-0.197
-712.704	-200.000	0.038	-0.174
-711.689	800.000	0.136	0.406
-710.675	39.848	-0.433	-0.391
-709.660	-47.929	0.292	-0.142
-708.645	-88.176	0.197	0.059
-707.631	8.122	0.179	-0.135
-706.616	-31.855	-0.137	0.077
-705.602	-200.000	-0.003	-0.036
-704.587	-36.616	-0.235	0.127
-703.572	68.028	0.042	-0.043
-702.558	-78.441	-0.622	-0.215
-701.543	156.750	-0.060	-0.083
-700.529	-122.514	0.114	-0.019
-699.514	661.883	-0.108	-0.280
-698.499	-200.000	-0.001	-0.066
-697.485	106.299	-0.208	-0.248
-696.470	-22.671	-0.235	-0.143
-695.456	-123.133	0.215	-0.035
-694.441	-200.000	0.002	-0.099
-693.426	-54.023	0.315	0.144
-692.412	800.000	0.012	0.044
-691.397	-8.123	-0.079	0.053
-690.383	-59.566	-0.139	0.060
-689.368	-24.836	0.069	0.041
-688.354	-200.000	-0.015	-0.359
-687.339	-26.132	0.088	-0.052
-686.324	-200.000	0.040	0.227
-685.310	289.885	0.078	0.143
-684.295	28.687	0.250	-0.213
-683.281	-136.870	-0.375	-0.043
-682.266	-155.639	0.050	0.003
-681.251	-200.000	0.065	-0.636
-680.237	800.000	0.077	0.217
-679.222	-171.707	0.257	-0.009
-678.208	800.000	-0.061	-0.196
-677.193	-102.246	0.193	0.047
-676.178	97.448	0.036	0.042
-675.164	-124.655	-0.210	-0.033
-674.149	-200.000	-0.087	0.501
-673.135	-200.000	-0.009	0.112
-672.120	-73.518	0.303	-0.111
-671.105	111.729	-0.204	-0.247
-670.091	-163.244	-0.331	-0.016
-669.076	31.974	0.066	-0.057
-668.062	-100.669	0.306	0.076
-667.047	20.351	0.058	0.047
-666.032	800.000	-0.042	0.122
-665.018	-200.000	-0.021	0.108
-664.003	308.846	0.153	0.288
-662.989	-53.821	0.207	-0.095
-661.974	530.524	-0.081	0.193
-660.959	134.188	-0.049	0.064
-659.945	-14.014	-0.224	0.145
-658.930	800.000	-0.052	0.146
-657.916	800.000	-0.064	-0.185
-656.901	-23.799	-0.263	-0.159
-655.886	-153.498	-0.150	-0.010
-654.872	773.088	-0.086	-0.236
-653.857	54.197	-0.087	-0.084
-652.843	-88.252	-0.134	-0.040
-651.828	800.000	-0.059	0.177
-650.814	74.461	0.119	0.126
-649.799	-83.450	0.240	-0.077
-648.784	293.308	-0.090	0.165
-647.770	306.849	-0.088	-0.164
-646.755	325.793	0.183	-0.351
-645.741	-109.383	-0.504	-0.107
-644.726	-21.187	-0.186	-0.114
-643.711	55.241	0.327	-0.317
-642.697	13.727	-0.047	0.037
-641.682	-13.270	0.179	-0.116
-640.668	-16.374	-0.156	-0.099
-639.653	-21.820	-0.182	0.111
-638.638	204.341	0.124	0.194
-637.624	-200.000	-0.053	-0.249
-636.609	39.495	0.104	0.093
-635.595	20.564	-0.174	0.141
-634.580	257.238	-0.133	-0.229
-633.565	-56.272	0.236	-0.105
-632.551	-200.000	-0.037	-0.258
-631.536	-177.945	-0.165	0.004
-630.522	-57.460	0.073	-0.032
-629.507	281.398	-0.183	-0.329
-628.492	-112.098	0.203	0.041
-627.478	-128.357	0.574	-0.082
-626.463	3.304	-0.299	-0.218
-625.449	85.020	-0.017	0.019
-624.434	117.662	-0.215	-0.265
-623.419	-37.683	0.076	0.040
-622.405	132.822	-0.205	-0.266
-621.390	626.069	-0.090	-0.227
-620.376	-200.000	-0.003	0.335
-619.361	-34.258	-0.186	0.103
-618.346	800.000	-0.090	-0.389
-617.332	-170.022	0.007	0.000
-616.317	185.616	0.128	0.191
-615.303	28.465	-0.216	0.183
-614.288	426.110	0.146	0.316
-613.273	800.000	-0.061	0.193
-612.259	-4.295	0.070	0.048
-611.244	-96.722	-0.068	-0.018
-610.230	-108.413	0.206	0.044
-609.215	-139.976	0.341	-0.036
-608.201	55.947	0.202	0.197
-607.186	71.220	-0.170	0.177
-606.171	-151.275	-0.328	0.025
-605.157	28.969	0.287	0.244
-604.142	56.559	-0.250	0.244
-603.128	-114.260	-0.228	0.044
-602.113	496.969	0.078	-0.181
-601.098	-91.233	-0.367	0.105
-600.084	-55.772	-0.308	0.138
-599.069	-66.518	0.262	-0.104
-598.055	4.203	0.052	-0.038
-597.040	-87.510	-0.164	0.050
-596.025	4.738	0.141	-0.103
-595.011	-44.895	-0.156	-0.078
-593.996	-46.920	0.220	-0.108
-592.982	-51.826	-0.263	0.123
-591.967	94.831	-0.244	0.278
-590.952	-165.694	0.170	0.007
-589.938	-143.307	-0.447	0.043
-588.923	6.456	-0.073	-0.055
-587.909	201.176	-0.077	-0.119
-586.894	156.140	0.132	0.182
-585.879	-27.999	-0.313	0.181
-584.865	800.000	-0.035	-0.111
-583.850	529.458	0.146	-0.345
-582.836	12.779	-0.231	0.179
-581.821	-76.783	0.319	-0.112
-580.806	90.633	0.166	-0.186
-579.792	-200.000	0.021	-0.124
-578.777	-156.659	-0.116	-0.007
-577.763	7.431	-0.268	0.201
-576.748	-200.000	0.003	-0.090
-575.733	-200.000	0.032	-0.378
-574.719	427.461	0.037	0.080
-573.704	-132.171	0.167	0.022
-572.690	-2.900	-0.083	0.058
-571.675	759.984	0.028	-0.075
-570.661	-200.000	-0.028	-0.377
-569.646	229.846	0.102	-0.166
-568.631	4.883	-0.131	-0.096
-567.617	-18.166	0.365	0.229
-566.602	800.000	0.057	-0.189
-565.588	89.473	0.106	-0.119
-564.573	-200.000	0.015	-0.260
-563.558	1.862	-0.206	0.149
-562.544	-67.951	0.379	-0.148
-561.529	-65.985	-0.143	-0.057
-560.515	372.569	0.050	0.101
-559.500	160.041	-0.122	0.171
-558.485	-200.000	-0.001	0.085
-557.471	-12.118	0.075	0.049
-556.456	-139.797	-0.175	-0.019
-555.442	-200.000	-0.028	-0.249
-554.427	577.568	0.076	-0.185
-553.412	-135.957	-0.008	-0.001
-552.398	-25.939	-0.349	0.205
-551.383	-92.039	-0.109	0.031
-550.369	-200.000	0.091	-0.547
-549.354	-0.531	-0.134	0.095
-548.339	-137.278	0.248	-0.028
-547.325	136.353	0.028	0.036
-546.310	-69.936	-0.104	0.040
-545.296	-54.391	-0.327	0.149
-544.281	179.332	0.187	0.274
-543.266	381.636	-0.143	0.294
-542.252	189.085	-0.122	0.182
-541.237	-49.489	-0.066	0.031
-540.223	-106.422	-0.125	0.028
-539.208	-200.000	-0.006	-0.072
-538.193	-200.000	-0.001	-0.019
-537.179	165.052	-0.138	0.195
-536.164	-200.000	-0.020	-0.215
-535.150	-30.795	0.382	-0.216
-534.135	-44.594	-0.378	0.189
-533.121	206.918	0.073	0.113
-532.106	-171.668	-0.363	0.012
-531.091	-51.427	0.382	-0.178
-530.077	54.872	0.161	-0.155
-529.062	75.025	-0.308	0.324
-528.048	-117.382	-0.188	0.034
-527.033	800.000	-0.059	0.244
-526.018	-90.585	0.309	0.089
-525.004	756.797	-0.080	0.217
-523.989	-128.404	0.159	-0.023
-522.975	-48.082	0.058	0.028
-521.960	-130.139	0.325	0.044
-520.945	338.916	-0.053	-0.104
-519.931	-74.304	-0.311	0.112
-518.916	-63.924	0.148	0.061
-517.902	448.770	-0.037	-0.082
-516.887	210.605	-0.104	0.163
-515.872	-59.585	-0.116	0.050
-514.858	210.113	-0.052	-0.082
-513.843	-123.001	0.191	-0.031
-512.829	-126.609	0.214	-0.032
-511.814	-52.051	-0.150	0.069
-510.799	-200.000	0.050	0.236
-509.785	-123.773	-0.133	0.021
-508.770	250.343	0.137	0.233
-507.756	800.000	0.051	0.157
-506.741	800.000	0.080	-0.300
-505.726	667.579	0.091	0.236
-504.712	-200.000	-0.117	0.583
-503.697	-103.310	0.061	-0.014
-502.683	800.000	0.031	-0.091
-501.668	-125.982	0.229	0.034
-500.653	0.871	-0.250	-0.179
-499.639	51.946	0.314	-0.298
-498.624	-133.192	-0.024	0.003
-497.610	-81.563	-0.240	0.079
-496.595	-22.180	-0.207	0.126
-495.581	351.294	0.050	-0.098
-494.566	-99.422	0.080	0.020
-493.551	133.012	-0.078	-0.100
-492.537	-120.706	-0.291	-0.049
-491.522	-59.902	-0.138	-0.059
-490.508	143.789	0.040	-0.053
-489.493	-78.616	-0.220	0.075
-488.478	-7.487	-0.105	0.071
-487.464	129.381	0.109	-0.139
-486.449	800.000	-0.069	-0.193
-485.435	-75.462	0.247	-0.088
-484.420	-69.878	-0.258	0.098
-483.405	126.743	-0.271	-0.343
-482.391	-24.314	-0.163	-0.097
-481.376	-200.000	-0.013	-0.078
-480.362	-62.368	0.083	-0.035
-479.347	-200.000	0.053	0.245
-478.332	-200.000	0.001	0.015
-477.318	409.539	0.097	-0.205
-476.303	800.000	0.084	-0.356
-475.289	722.015	-0.037	-0.097
-474.274	-145.868	0.361	0.032
-473.259	142.064	-0.164	-0.217
-472.245	-48.498	0.235	-0.113
-471.230	-104.255	-0.061	0.014
-470.216	-200.000	-0.038	0.232
-469.201	-52.275	0.382	-0.176
-468.186	-63.538	-0.390	0.160
-467.172	535.160	0.015	-0.037
-466.157	-97.772	0.153	0.040
-465.143	635.746	-0.111	-0.280
-464.128	218.020	0.200	-0.318
-463.113	-118.630	-0.192	0.034
-462.099	-80.993	-0.162	0.054
-461.084	-59.998	0.199	0.085
-460.070	-115.341	0.259	-0.049
-459.055	-18.565	0.149	0.093
-458.040	800.000	-0.111	-0.383
-457.026	467.720	0.145	-0.325
-456.011	103.439	-0.215	-0.251
-454.997	-38.104	-0.084	-0.045
-453.982	-39.451	0.263	0.137
-452.968	800.000	-0.098	-0.304
-451.953	-10.779	0.120	-0.079
-450.938	-200.000	-0.033	0.353
-449.924	658.755	0.110	-0.281
-448.909	437.550	-0.066	-0.143
-447.895	87.363	0.133	-0.146
-446.880	-200.000	0.096	-0.543
-445.865	-200.000	0.031	-0.149
-444.851	-156.703	0.297	-0.018
-443.836	75.021	0.107	0.112
-442.822	-200.000	-0.004	-0.133
-441.807	184.494	-0.116	0.171
-440.792	588.443	0.004	0.010
-439.778	-124.687	-0.074	0.011
-438.763	-200.000	-0.023	-0.361
-437.749	-5.518	-0.076	0.052
-436.734	-43.820	0.332	-0.167
-435.719	-42.735	-0.217	0.110
-434.705	-166.272	0.059	0.002
-433.690	219.227	0.134	0.214
-432.676	30.534	0.148	-0.126
-431.661	-79.238	-0.341	0.115
-430.646	27.789	0.273	0.229
-429.632	-200.000	0.016	0.173
-428.617	358.522	-0.086	-0.171
-427.603	-200.000	-0.036	0.230
-426.588	-200.000	-0.010	-0.155
-425.573	370.582	-0.104	-0.210
-424.559	-200.000	0.065	0.298
-423.544	233.649	-0.117	0.191
-422.530	-30.605	-0.228	-0.128
-421.515	21.293	0.162	0.131
-420.500	-120.119	0.191	0.033
-419.486	-200.000	0.023	-0.236
-418.471	-200.000	0.021	-0.113
-417.457	-123.442	0.129	0.020
-416.442	800.000	0.029	-0.101
-415.428	-126.124	-0.076	0.011
-414.413	-92.115	0.321	0.090
-413.398	1.747	-0.267	0.192
-412.384	-104.908	0.128	0.029
-411.369	-73.191	-0.147	-0.053
-410.355	164.011	-0.098	0.137
-409.340	36.813	-0.239	-0.210
-408.325	-115.477	0.194	-0.036
-407.311	-35.572	-0.145	0.078
-406.296	-200.000	0.004	0.269
-405.282	-53.566	-0.247	0.112
-404.267	733.640	-0.035	-0.093
-403.252	32.602	-0.098	-0.084
-402.238	-40.937	0.204	-0.105
-401.223	230.884	0.132	-0.216
-400.209	-160.629	-0.125	0.007
-399.194	435.720	-0.045	0.096
-398.179	-134.311	0.153	0.019
-397.165	126.688	0.167	0.210
-396.150	-200.000	-0.025	0.326
-395.136	-200.000	-0.012	-0.346
-394.121	30.348	-0.135	-0.114
-393.106	35.845	-0.103	0.091
-392.092	800.000	0.080	0.254
-391.077	71.750	0.179	-0.185
-390.063	404.624	-0.070	-0.146
-389.048	-5.220	-0.255	-0.174
-388.033	-141.733	0.059	-0.006
-387.019	166.206	0.170	-0.239
-386.004	-85.480	-0.437	-0.135
-384.990	-10.839	-0.196	-0.129
-383.975	800.000	-0.141	-0.419
-382.960	-200.000	0.052	0.242
-381.946	-95.263	-0.121	-0.032
-380.931	-36.887	0.134	-0.071
-379.917	-15.379	0.199	-0.126
-378.902	22.524	0.165	0.134
-377.888	24.422	-0.274	-0.225
-376.873	23.929	0.095	-0.078
-375.858	5.808	0.185	0.136
-374.844	235.578	0.211	0.347
-373.829	232.508	-0.086	-0.140
-372.815	75.112	0.019	0.020
-371.800	-109.923	0.278	0.058
-370.785	-200.000	0.009	-0.078
-369.771	-148.346	-0.201	0.016
-368.756	800.000	0.194	0.560
-367.742	130.059	-0.167	0.212
-366.727	-72.458	0.314	0.115
-365.712	42.926	-0.183	-0.166
-364.698	-200.000	0.021	-0.385
-363.683	-200.000	0.001	-0.044
-362.669	-200.000	-0.028	-0.151
-361.654	53.126	0.277	0.264
-360.639	-200.000	-0.017	-0.095
-359.625	235.713	0.100	0.165
-358.610	-1.079	0.076	0.053
-357.596	-23.791	-0.107	-0.064
-356.581	518.583	0.080	-0.186
-355.566	128.813	-0.080	0.101
-354.552	194.953	-0.245	0.369
-353.537	81.642	-0.127	0.137
-352.523	-63.766	-0.297	0.121
-351.508	800.000	-0.128	0.397
-350.493	-200.000	0.033	-0.363
-349.479	-164.492	0.198	-0.009
-348.464	296.245	-0.133	0.242
-347.450	-200.000	-0.000	0.008
-346.435	2.536	-0.243	-0.175
-345.420	-171.800	0.245	0.008
-344.406	-141.037	0.290	0.029
-343.391	195.772	-0.057	-0.086
-342.377	-181.961	0.195	0.004
-341.362	-130.803	0.181	-0.024
-340.348	-78.521	-0.187	0.064
-339.333	152.295	0.179	0.242
-338.318	-111.759	0.481	-0.097
-337.304	-200.000	-0.001	-0.114
-336.289	149.162	-0.192	-0.258
-335.275	179.140	0.043	0.062
-334.260	503.718	-0.130	0.298
-333.245	743.520	-0.167	0.445
-332.231	626.268	-0.112	-0.280
-331.216	-200.000	0.026	0.124
-330.202	-76.378	0.188	-0.066
-329.187	800.000	0.069	-0.232
-328.172	-33.088	0.154	0.085
-327.158	-159.587	-0.183	0.010
-326.143	70.560	0.123	-0.127
-325.129	116.500	0.151	-0.183
-324.114	-93.056	-0.050	0.014
-323.099	217.515	0.032	0.051
-322.085	302.828	-0.078	0.142
-321.070	543.690	-0.078	0.186
-320.056	-127.053	-0.231	0.034
-319.041	403.021	0.114	-0.239
-318.026	-106.894	0.140	0.031
-317.012	800.000	-0.046	0.191
-315.997	800.000	0.055	0.157
-314.983	800.000	-0.054	0.193
-313.968	298.383	0.090	0.163
-312.953	51.157	-0.091	-0.086
-311.939	-200.000	0.017	0.293
-310.924	-200.000	-0.034	-0.273
-309.910	800.000	0.097	-0.342
-308.895	-24.742	0.353	-0.208
-307.880	800.000	-0.059	0.207
-306.866	205.508	0.123	-0.189
-305.851	800.000	-0.111	-0.356
-304.837	-126.162	0.203	0.030
-303.822	74.557	-0.282	-0.294
-302.807	-200.000	0.004	-0.145
-301.793	-46.607	0.256	-0.124
-300.778	800.000	0.020	0.058
-299.764	-66.635	-0.277	0.109
-298.749	526.300	0.138	-0.323
-297.735	800.000	-0.135	0.561
-296.720	746.021	0.042	-0.111
-295.705	27.794	-0.148	0.123
-294.691	240.242	-0.125	0.206
-293.676	-200.000	-0.036	0.167
-292.662	70.990	-0.196	0.201
-291.647	-56.237	-0.246	0.108
-290.632	800.000	-0.063	-0.232
-289.618	28.260	0.272	-0.227
-288.603	-161.906	-0.374	-0.019
-287.589	-29.851	0.062	-0.035
-286.574	255.385	0.102	0.173
-285.559	5.824	-0.134	0.098
-284.545	105.095	-0.072	-0.084
-283.530	-154.979	0.062	-0.004
-282.516	-149.057	-0.275	0.022
-281.501	97.497	0.143	-0.163
-280.486	-51.088	0.276	0.128
-279.472	339.684	-0.131	0.254
-278.457	-71.012	0.307	0.114
-277.443	-164.809	0.273	0.012
-276.428	-165.691	-0.088	-0.004
-275.413	-173.376	0.352	-0.011
-274.399	-200.000	-0.096	0.438
-273.384	-200.000	0.020	-0.216
-272.370	470.972	-0.184	-0.409
-271.355	-112.001	-0.047	-0.009
-270.340	181.172	-0.212	0.308
-269.326	117.004	-0.193	0.234
-268.311	287.618	0.103	-0.184
-267.297	-108.546	-0.149	-0.032
-266.282	-83.702	0.233	0.074
-265.267	69.393	0.153	0.156
-264.253	14.271	0.038	-0.029
-263.238	-110.779	0.289	-0.059
-262.224	-20.494	-0.095	-0.058
-261.209	-133.901	0.464	0.057
-260.195	441.602	0.129	0.279
-259.180	567.905	0.043	-0.103
-258.165	-89.190	0.171	-0.050
-257.151	235.723	-0.150	-0.245
-256.136	-68.454	0.058	-0.022
-255.122	464.118	0.027	-0.059
-254.107	800.000	0.060	0.209
-253.092	-200.000	0.013	0.116
-252.078	-67.376	-0.158	0.061
-251.063	-200.000	-0.003	-0.340
-250.049	-103.203	0.170	0.040
-249.034	-61.250	-0.091	0.038
-248.019	-200.000	-0.009	-0.113
-247.005	378.613	-0.078	0.158
-245.990	751.968	-0.050	0.134
-244.976	115.758	0.034	-0.041
-243.961	-200.000	0.014	0.212
-242.946	435.087	-0.084	0.180
-241.932	599.880	-0.155	0.380
-240.917	71.693	0.427	-0.439
-239.903	-91.777	-0.061	0.017
-238.888	-200.000	-0.053	0.313
-237.873	800.000	-0.068	0.218
-236.859	6.695	-0.385	-0.283
-235.844	184.432	0.136	-0.199
-234.830	123.048	0.045	0.056
-233.815	90.462	0.293	0.324
-232.800	204.247	-0.123	-0.188
-231.786	800.000	-0.052	-0.155
-230.771	-200.000	0.005	0.149
-229.757	80.351	0.062	0.066
-228.742	29.452	0.149	-0.125
-227.727	-125.323	-0.108	-0.016
-226.713	96.222	0.208	-0.235
-225.698	15.554	-0.233	0.181
-224.684	-139.786	0.187	0.020
-223.669	-1.929	0.187	0.130
-222.655	-17.946	-0.097	-0.060
-221.640	-173.978	-0.135	-0.004
-220.625	-137.374	0.249	0.028
-219.611	104.242	0.092	0.107
-218.596	24.594	-0.054	-0.044
-217.582	124.930	-0.283	-0.352
-216.567	-192.458	-0.189	0.002
-215.552	39.250	0.481	0.425
-214.538	136.188	0.113	-0.146
-213.523	-200.000	-0.053	0.265
-212.509	-200.000	-0.042	-0.267
-211.494	208.740	-0.057	0.089
-210.479	-200.000	0.026	-0.316
-209.465	-200.000	0.022	0.178
-208.450	-200.000	-0.009	-0.104
-207.436	-200.000	0.006	0.514
-206.421	132.058	-0.145	0.185
-205.406	-89.811	0.181	0.052
-204.392	239.591	0.143	0.235
-203.377	533.089	-0.104	0.244
-202.363	235.162	0.205	0.334
-201.348	62.762	0.033	-0.032
-200.333	536.255	0.158	-0.370
-199.319	-56.000	-0.331	0.146
-198.304	-6.556	-0.255	0.171
-197.290	14.609	0.210	0.162
-196.275	-72.982	0.285	0.103
-195.260	-152.916	-0.169	-0.012
-194.246	-89.508	0.317	-0.092
-193.231	800.000	-0.128	0.381
-192.217	275.852	0.146	0.255
-191.202	-140.191	0.235	0.024
-190.187	155.073	-0.122	-0.166
-189.173	119.346	-0.176	-0.215
-188.158	-163.991	0.166	-0.008
-187.144	-182.099	-0.277	0.005
-186.129	-183.741	0.170	-0.003
-185.114	564.582	-0.125	-0.298
-184.100	-200.000	0.060	0.393
-183.085	-184.633	-0.025	0.000
-182.071	-66.363	-0.303	-0.119
-181.056	98.564	0.029	-0.033
-180.042	-8.561	0.096	0.064
-179.027	39.930	0.220	-0.195
-178.012	800.000	0.060	0.187
-176.998	103.016	-0.060	0.069
-175.983	3.522	-0.179	0.129
-174.969	-19.934	-0.030	0.018
-173.954	800.000	-0.047	0.167
-172.939	204.229	0.187	0.286
-171.925	-88.936	0.222	-0.065
-170.910	247.660	-0.142	0.237
-169.896	113.285	0.115	-0.137
-168.881	638.025	0.108	-0.270
-167.866	-99.914	-0.160	-0.039
-166.852	-200.000	-0.045	0.201
-165.837	-200.000	-0.033	-0.372
-164.823	402.137	0.084	-0.173
-163.808	-54.208	-0.204	-0.091
-162.793	116.118	-0.087	0.105
-161.779	-200.000	-0.097	0.470
-160.764	-144.244	-0.093	-0.009
-159.750	3.521	0.136	-0.098
-158.735	-86.282	-0.277	-0.084
-157.720	-37.091	0.363	-0.191
-156.706	-89.272	0.102	-0.030
-155.691	-200.000	0.021	-0.145
-154.677	-107.097	-0.096	0.021
-153.662	-23.063	-0.342	0.203
-152.647	-148.452	-0.240	0.019
-151.633	11.292	0.219	0.165
-150.618	307.237	-0.084	0.154
-149.604	-28.406	-0.173	-0.098
-148.589	-108.267	0.192	0.041
-147.574	152.404	0.073	-0.098
-146.560	296.702	-0.003	0.006
-145.545	-200.000	-0.052	-0.322
-144.531	337.417	0.112	0.215
-143.516	503.043	-0.025	-0.057
-142.502	329.737	0.266	-0.504
-141.487	116.393	0.038	0.046
-140.472	184.108	0.107	0.156
-139.458	-200.000	-0.087	0.539
-138.443	-200.000	-0.010	0.119
-137.429	-20.707	0.341	0.206
-136.414	179.198	-0.102	0.147
-135.399	-53.559	0.138	-0.062
-134.385	-18.959	0.428	-0.262
-133.370	800.000	0.093	-0.402
-132.356	-59.081	0.246	-0.104
-131.341	-146.909	0.060	-0.005
-130.326	55.792	-0.221	0.210
-129.312	-23.793	0.178	-0.105
-128.297	-200.000	0.059	0.411
-127.283	-103.778	-0.078	0.018
-126.268	-71.707	0.165	-0.061
-125.253	743.604	0.041	-0.108
-124.239	436.275	-0.039	-0.084
-123.224	-187.788	0.187	-0.002
-122.210	-104.833	-0.409	-0.092
