DTS Sentinel unit serial number:	SN413079Multiplexer serial number:	ORYXHardware model number:	OX4-SRSoftware version number:	ORYX F/W v4.00 Oryx Data Collector v3.7.2.0data status	okinstallation	princeton_trtdifferential loss correction	single-endedforward channel	channel 4reverse channel	N/Adate	2019/09/14time	12:37:35forward acquisition time	60.00reverse acquisition time	0.00gamma	496.2192k internal	0.2292k external	0.2292temperature offset calibration	1.0156default loss term (dB/km)	0.3790temperature slope calibration	1.0000multiplexer offset coefficient	1.0000multiplexer slope coefficient	1.0000fibre end	0.00T internal ref (°C)	38.00T ext. ref 1 (°C)	4.79T ext. ref 2 (°C)	33.83length (m)	temperature (°C)	Stokes	anti-Stokes-747.200	22.374	-0.155	-0.130
-746.185	-86.539	-0.337	0.106
-745.171	-17.698	0.143	0.092
-744.156	-200.000	-0.025	0.183
-743.142	-200.000	0.028	0.321
-742.127	79.977	0.160	-0.176
-741.112	-95.767	-0.223	-0.061
-740.098	40.507	-0.241	0.222
-739.083	174.717	0.149	0.221
-738.069	284.768	-0.109	0.201
-737.054	-105.654	-0.254	0.059
-736.039	-200.000	0.009	-0.189
-735.025	-74.464	0.272	0.100
-734.010	0.031	-0.160	0.117
-732.996	-200.000	-0.076	-0.363
-731.981	-200.000	-0.069	-0.315
-730.966	800.000	0.040	0.158
-729.952	-0.852	-0.209	-0.152
-728.937	800.000	-0.132	-0.439
-727.923	-200.000	0.001	-0.230
-726.908	375.642	-0.035	-0.073
-725.894	745.000	0.050	0.137
-724.879	274.931	0.222	-0.403
-723.864	800.000	-0.018	-0.074
-722.850	-34.136	-0.211	-0.119
-721.835	-200.000	-0.025	0.326
-720.821	233.124	0.068	-0.114
-719.806	49.300	0.164	0.158
-718.791	25.326	0.135	0.114
-717.777	-200.000	-0.020	-0.401
-716.762	355.950	0.050	-0.102
-715.748	-1.115	0.234	-0.169
-714.733	-86.114	-0.227	0.072
-713.718	77.876	-0.090	-0.098
-712.704	3.202	0.127	-0.094
-711.689	233.922	-0.102	-0.172
-710.675	117.951	-0.232	-0.292
-709.660	-119.487	0.189	-0.034
-708.645	-116.370	-0.429	-0.081
-707.631	-46.791	0.134	0.067
-706.616	800.000	0.075	0.315
-705.602	800.000	0.042	0.158
-704.587	-86.461	-0.171	-0.054
-703.572	-200.000	-0.000	-0.101
-702.558	29.096	-0.061	-0.053
-701.543	800.000	0.030	-0.103
-700.529	298.831	-0.015	-0.027
-699.514	289.654	0.128	0.237
-698.499	194.936	-0.078	0.122
-697.485	183.652	-0.034	0.052
-696.470	35.814	-0.178	-0.160
-695.456	-161.859	-0.247	-0.013
-694.441	-95.834	-0.098	-0.027
-693.426	-147.087	0.153	-0.013
-692.412	68.553	-0.162	0.169
-691.397	800.000	0.026	0.103
-690.383	-55.307	0.044	0.020
-689.368	386.163	-0.032	-0.068
-688.354	-200.000	0.003	0.101
-687.339	292.547	0.014	0.025
-686.324	-49.354	-0.338	-0.165
-685.310	-96.726	0.152	0.041
-684.295	-61.522	-0.234	-0.100
-683.281	56.256	-0.187	0.186
-682.266	136.447	-0.100	-0.133
-681.251	800.000	0.077	0.266
-680.237	67.670	-0.176	-0.184
-679.222	-84.359	0.207	-0.067
-678.208	30.408	-0.087	-0.076
-677.193	66.513	-0.178	-0.185
-676.178	282.309	-0.032	-0.059
-675.164	-200.000	0.000	-0.317
-674.149	17.036	-0.298	-0.241
-673.135	326.608	0.133	-0.261
-672.120	90.046	-0.394	-0.449
-671.105	-52.125	-0.187	0.089
-670.091	163.829	-0.145	-0.208
-669.076	-200.000	-0.031	-0.299
-668.062	-12.498	0.235	0.157
-667.047	110.382	-0.184	0.226
-666.032	-134.256	0.148	0.019
-665.018	-32.593	0.255	-0.145
-664.003	-186.493	0.548	0.008
-662.989	-200.000	-0.033	-0.357
-661.974	6.398	0.107	0.081
-660.959	-200.000	-0.020	-0.104
-659.945	134.249	0.121	0.160
-658.930	70.033	0.238	0.250
-657.916	800.000	0.016	-0.066
-656.901	-80.514	-0.169	-0.057
-655.886	-200.000	-0.001	-0.027
-654.872	5.401	0.092	-0.070
-653.857	-16.031	-0.230	-0.149
-652.843	15.813	-0.097	-0.078
-651.828	-36.132	0.241	0.133
-650.814	74.151	-0.119	0.128
-649.799	292.860	-0.107	0.199
-648.784	-15.758	0.132	-0.086
-647.770	299.019	-0.171	-0.321
-646.755	444.258	0.148	0.331
-645.741	-32.948	-0.206	-0.117
-644.726	-93.859	0.213	-0.060
-643.711	379.550	-0.030	0.063
-642.697	-92.395	0.545	-0.157
-641.682	-10.488	0.030	0.020
-640.668	741.013	0.058	0.160
-639.653	-165.655	-0.095	-0.004
-638.638	25.157	-0.141	0.119
-637.624	-200.000	0.011	0.219
-636.609	-200.000	-0.088	-0.449
-635.595	-1.843	0.320	-0.230
-634.580	367.312	-0.094	-0.193
-633.565	-60.465	-0.327	-0.142
-632.551	-61.392	-0.222	0.095
-631.536	183.955	-0.119	0.179
-630.522	148.264	-0.046	-0.064
-629.507	48.241	0.090	0.086
-628.492	-42.463	-0.223	0.116
-627.478	320.149	-0.156	-0.301
-626.463	-17.588	-0.181	-0.116
-625.449	-83.004	0.175	-0.057
-624.434	176.041	0.195	0.288
-623.419	-200.000	0.012	0.209
-622.405	-113.225	0.197	0.039
-621.390	-120.995	0.010	0.002
-620.376	800.000	-0.007	0.022
-619.361	579.945	0.080	0.200
-618.346	146.513	0.089	0.122
-617.332	-200.000	-0.018	0.234
-616.317	311.926	-0.197	-0.377
-615.303	-200.000	0.070	-0.315
-614.288	-200.000	0.286	-0.000
-613.273	-12.029	-0.055	0.037
-612.259	-5.921	-0.149	0.104
-611.244	-174.796	0.295	-0.008
-610.230	198.069	0.068	0.106
-609.215	755.099	-0.056	-0.154
-608.201	-30.139	-0.196	-0.114
-607.186	239.217	0.053	0.091
-606.171	-38.069	-0.064	0.034
-605.157	36.093	0.035	0.031
-604.142	-96.659	-0.072	0.019
-603.128	552.566	-0.037	0.090
-602.113	-200.000	-0.008	-0.196
-601.098	-76.041	-0.267	-0.096
-600.084	-200.000	-0.001	0.042
-599.069	51.631	-0.270	-0.262
-598.055	-109.970	-0.258	0.055
-597.040	308.296	-0.060	-0.114
-596.025	58.532	-0.206	-0.206
-595.011	-42.796	-0.196	-0.101
-593.996	-95.375	-0.197	0.054
-592.982	-200.000	0.056	0.320
-591.967	-42.505	-0.079	-0.041
-590.952	135.300	-0.111	-0.147
-589.938	479.433	-0.079	-0.181
-588.923	-102.795	0.207	0.050
-587.909	-117.973	0.255	0.046
-586.894	19.235	0.101	-0.083
-585.879	117.344	0.320	-0.401
-584.865	-28.032	0.315	-0.185
-583.850	-71.785	-0.171	0.065
-582.836	800.000	-0.049	0.183
-581.821	209.909	-0.060	-0.096
-580.806	43.111	-0.181	-0.168
-579.792	167.815	-0.069	-0.100
-578.777	-56.303	0.214	0.097
-577.763	-192.026	0.162	0.002
-576.748	374.220	0.102	-0.210
-575.733	5.584	-0.114	-0.085
-574.719	444.770	0.071	0.158
-573.704	-165.628	-0.251	0.011
-572.690	75.842	-0.203	-0.218
-571.675	-200.000	-0.030	0.173
-570.661	800.000	0.050	0.184
-569.646	127.125	0.138	0.178
-568.631	79.125	0.140	0.152
-567.617	267.013	0.131	-0.233
-566.602	-68.653	-0.255	-0.100
-565.588	-95.032	0.197	-0.054
-564.573	262.546	-0.046	-0.082
-563.558	450.234	-0.167	0.375
-562.544	-74.285	0.151	0.055
-561.529	-178.581	0.052	-0.001
-560.515	-194.389	0.040	-0.000
-559.500	64.929	0.100	0.102
-558.485	-39.638	0.312	0.166
-557.471	-45.153	0.223	-0.113
-556.456	-81.504	-0.187	0.063
-555.442	403.171	-0.122	-0.260
-554.427	337.591	0.087	0.171
-553.412	364.503	-0.137	0.281
-552.398	-200.000	0.007	0.079
-551.383	-57.599	0.395	-0.176
-550.369	12.316	0.182	-0.142
-549.354	-200.000	-0.034	0.281
-548.339	123.111	0.089	-0.113
-547.325	598.694	-0.138	0.347
-546.310	-185.828	0.070	-0.001
-545.296	-97.289	-0.366	-0.097
-544.281	4.443	-0.179	-0.133
-543.266	-62.173	-0.208	0.088
-542.252	348.231	0.113	0.225
-541.237	-200.000	-0.018	0.100
-540.223	-200.000	-0.043	-0.223
-539.208	800.000	-0.071	-0.260
-538.193	334.862	0.051	0.100
-537.179	295.603	0.056	-0.104
-536.164	-6.923	-0.275	-0.189
-535.150	800.000	0.048	0.152
-534.135	800.000	-0.096	-0.297
-533.121	800.000	-0.078	0.283
-532.106	-200.000	0.063	0.353
-531.091	-200.000	0.029	0.328
-530.077	-29.284	0.239	0.139
-529.062	800.000	0.039	0.112
-528.048	235.418	0.063	-0.106
-527.033	-117.755	-0.562	0.103
-526.018	214.642	-0.118	0.190
-525.004	325.581	-0.149	0.290
-523.989	-125.738	-0.271	0.042
-522.975	-39.456	-0.399	-0.212
-521.960	258.316	0.087	0.153
-520.945	-66.320	-0.216	-0.087
-519.931	77.044	-0.196	0.211
-518.916	12.730	-0.092	-0.072
-517.902	602.085	-0.051	0.128
-516.887	-128.166	0.551	0.080
-515.872	-96.983	0.338	0.090
-514.858	297.538	0.073	-0.136
-513.843	585.779	-0.031	-0.077
-512.829	332.564	-0.192	0.376
-511.814	-200.000	-0.021	-0.123
-510.799	-19.951	-0.213	-0.134
-509.785	-61.768	-0.095	-0.041
-508.770	-74.973	-0.203	-0.074
-507.756	800.000	0.110	0.341
-506.741	800.000	0.027	0.081
-505.726	83.390	0.076	0.084
-504.712	783.442	-0.066	0.183
-503.697	-90.763	-0.286	-0.084
-502.683	315.976	0.063	0.121
-501.668	-200.000	0.027	-0.256
-500.653	800.000	0.086	-0.246
-499.639	800.000	0.072	0.210
-498.624	-185.674	-0.207	-0.003
-497.610	-88.599	-0.120	0.036
-496.595	622.915	-0.055	-0.141
-495.581	-200.000	0.004	-0.525
-494.566	-200.000	-0.200	0.001
-493.551	-42.479	-0.117	-0.061
-492.537	40.097	-0.274	0.249
-491.522	800.000	0.050	-0.184
-490.508	-168.592	0.097	-0.004
-489.493	-8.372	0.117	-0.080
-488.478	157.961	0.055	0.077
-487.464	211.543	-0.155	-0.247
-486.449	-200.000	0.049	0.362
-485.435	-31.275	0.128	0.073
-484.420	688.039	0.098	0.260
-483.405	-81.488	0.452	0.151
-482.391	83.402	0.030	-0.033
-481.376	82.049	0.056	-0.062
-480.362	-67.265	-0.092	-0.037
-479.347	225.970	-0.064	0.105
-478.332	58.215	0.269	-0.267
-477.318	109.096	0.162	0.197
-476.303	-14.513	0.158	0.103
-475.289	432.207	0.107	-0.234
-474.274	17.282	-0.057	0.046
-473.259	144.888	0.134	0.182
-472.245	48.276	-0.199	0.189
-471.230	42.020	-0.163	-0.150
-470.216	800.000	-0.082	-0.252
-469.201	33.977	-0.137	0.121
-468.186	186.870	0.101	0.153
-467.172	-13.915	0.214	0.140
-466.157	273.801	-0.157	-0.281
-465.143	-200.000	-0.016	-0.194
-464.128	310.301	-0.217	-0.412
-463.113	245.495	0.045	0.077
-462.099	68.061	0.109	0.113
-461.084	-200.000	-0.001	0.278
-460.070	-115.352	-0.311	0.059
-459.055	161.812	0.025	-0.035
-458.040	-63.580	0.038	-0.016
-457.026	585.629	-0.074	-0.183
-456.011	-95.121	-0.353	0.096
-454.997	-116.291	0.069	0.013
-453.982	366.382	-0.147	-0.300
-452.968	54.218	-0.371	0.361
-451.953	330.894	-0.227	-0.442
-450.938	-83.911	-0.284	-0.091
-449.924	166.982	0.220	0.316
-448.909	530.906	0.176	0.421
-447.895	27.412	-0.094	-0.080
-446.880	-96.299	-0.162	-0.044
-445.865	-26.736	-0.133	-0.079
-444.851	-83.990	-0.074	0.024
-443.836	-43.426	-0.224	-0.115
-442.822	199.368	0.035	-0.055
-441.807	-11.842	-0.202	0.134
-440.792	-83.052	-0.076	0.025
-439.778	-200.000	0.004	-0.195
-438.763	-149.416	0.400	-0.032
-437.749	64.120	0.114	0.116
-436.734	399.248	-0.077	-0.163
-435.719	800.000	0.021	-0.079
-434.705	800.000	-0.057	0.224
-433.690	-129.445	0.163	0.023
-432.676	-200.000	-0.017	0.369
-431.661	-200.000	-0.000	-0.077
-430.646	-57.114	0.455	-0.203
-429.632	9.310	-0.371	0.284
-428.617	-92.884	0.410	0.116
-427.603	-175.886	0.202	0.005
-426.588	-34.413	-0.215	0.119
-425.573	-79.424	-0.175	0.060
-424.559	-200.000	-0.020	0.305
-423.544	-23.621	-0.056	-0.034
-422.530	-89.408	-0.105	-0.031
-421.515	800.000	0.043	-0.163
-420.500	-108.492	0.149	0.032
-419.486	-167.875	-0.264	0.010
-418.471	290.969	0.196	-0.361
-417.457	-124.965	0.087	0.013
-416.442	368.034	0.231	0.472
-415.428	160.649	0.066	0.093
-414.413	17.826	-0.349	-0.281
-413.398	-81.005	-0.076	-0.026
-412.384	72.077	-0.169	0.178
-411.369	-126.940	0.369	0.055
-410.355	-200.000	-0.037	0.253
-409.340	51.839	-0.176	-0.169
-408.325	101.435	-0.083	-0.098
-407.311	622.316	-0.078	0.198
-406.296	-48.945	0.351	-0.170
-405.282	-80.329	0.264	-0.089
-404.267	72.937	-0.062	0.065
-403.252	-2.084	0.336	-0.238
-402.238	800.000	0.114	-0.327
-401.223	-101.613	0.384	-0.094
-400.209	-22.422	0.118	-0.072
-399.194	-26.365	0.331	-0.196
-398.179	498.024	0.071	-0.165
-397.165	432.304	0.064	0.141
-396.150	-91.965	0.076	-0.022
-395.136	-200.000	-0.045	-0.208
-394.121	-55.373	-0.260	0.118
-393.106	-60.763	0.299	-0.128
-392.092	-36.772	-0.281	-0.152
-391.077	462.791	0.043	-0.096
-390.063	-200.000	-0.243	-0.001
-389.048	-192.295	0.439	-0.004
-388.033	-200.000	0.018	-0.197
-387.019	218.036	0.144	-0.233
-386.004	-200.000	-0.005	0.175
-384.990	-147.467	0.285	0.024
-383.975	-78.599	0.128	-0.044
-382.960	800.000	-0.009	0.042
-381.946	-124.391	-0.184	0.029
-380.931	194.214	-0.134	0.205
-379.917	-115.730	0.261	-0.049
-378.902	283.598	-0.205	0.372
-377.888	-85.617	0.400	-0.125
-376.873	-200.000	-0.072	-0.496
-375.858	210.355	0.080	-0.126
-374.844	-82.616	0.339	0.111
-373.829	-118.326	-0.218	0.039
-372.815	104.186	0.066	0.078
-371.800	-200.000	0.001	0.170
-370.785	55.736	0.066	-0.064
-369.771	-72.683	-0.097	-0.036
-368.756	-200.000	-0.033	0.305
-367.742	15.408	-0.195	0.154
-366.727	-200.000	0.040	0.175
-365.712	10.213	-0.135	-0.104
-364.698	-200.000	-0.008	-0.063
-363.683	-200.000	-0.044	0.337
-362.669	-123.864	0.226	0.036
-361.654	-111.204	0.273	0.056
-360.639	-73.489	0.071	0.026
-359.625	-130.034	0.533	-0.074
-358.610	-19.909	-0.257	-0.160
-357.596	-200.000	-0.018	-0.153
-356.581	4.058	0.073	0.054
-355.566	-133.541	0.298	-0.038
-354.552	-182.111	-0.167	-0.003
-353.537	-200.000	-0.059	-0.397
-352.523	-106.557	-0.067	-0.015
-351.508	-110.512	-0.100	0.021
-350.493	-200.000	-0.007	0.057
-349.479	-59.520	-0.145	0.063
-348.464	-78.115	-0.196	0.068
-347.450	-95.280	0.378	-0.102
-346.435	-116.539	0.139	-0.026
-345.420	-101.497	-0.326	-0.080
-344.406	-34.932	0.057	-0.031
-343.391	174.526	0.149	0.217
-342.377	86.532	-0.073	0.081
-341.362	800.000	0.111	-0.438
-340.348	80.215	0.114	0.124
-339.333	260.098	-0.125	-0.217
-338.318	36.566	-0.074	-0.066
-337.304	-2.760	-0.266	-0.187
-336.289	-73.162	0.066	0.024
-335.275	-70.993	0.083	0.031
-334.260	637.176	-0.061	0.156
-333.245	800.000	0.074	-0.257
-332.231	800.000	-0.029	-0.094
-331.216	-92.741	-0.228	0.064
-330.202	-126.505	-0.162	0.024
-329.187	-129.207	0.331	0.046
-328.172	-63.092	-0.195	0.081
-327.158	800.000	0.064	0.260
-326.143	240.620	-0.125	-0.210
-325.129	-47.483	-0.276	0.135
-324.114	517.344	-0.124	0.292
-323.099	-115.031	-0.126	0.024
-322.085	98.901	0.108	-0.125
-321.070	-44.888	0.284	0.142
-320.056	-200.000	-0.020	-0.205
-319.041	4.754	-0.158	0.117
-318.026	-200.000	-0.013	-0.233
-317.012	-170.774	0.147	-0.005
-315.997	612.038	0.065	0.163
-314.983	-106.289	-0.086	0.019
-313.968	53.016	-0.123	-0.119
-312.953	800.000	-0.055	0.204
-311.939	189.133	0.228	0.344
-310.924	50.592	0.038	0.036
-309.910	-83.696	0.082	0.026
-308.895	136.529	-0.237	0.311
-307.880	127.296	-0.093	0.119
-306.866	-200.000	0.016	-0.148
-305.851	-136.502	0.194	0.023
-304.837	-200.000	0.015	0.304
-303.822	-138.800	0.067	-0.007
-302.807	800.000	0.044	0.155
-301.793	131.413	-0.031	-0.040
-300.778	266.092	-0.054	-0.095
-299.764	40.369	0.131	0.119
-298.749	-200.000	0.027	0.143
-297.735	-57.431	0.075	-0.033
-296.720	800.000	-0.030	0.121
-295.705	-43.998	0.356	0.180
-294.691	-148.448	0.097	0.008
-293.676	146.783	0.137	-0.185
-292.662	652.854	-0.175	-0.450
-291.647	800.000	0.134	-0.470
-290.632	800.000	-0.085	-0.305
-289.618	142.737	-0.237	-0.317
-288.603	-21.752	-0.207	-0.127
-287.589	-89.869	-0.172	-0.051
-286.574	800.000	0.045	-0.182
-285.559	193.702	-0.180	0.274
-284.545	-159.375	-0.261	0.015
-283.530	-53.613	0.264	0.121
-282.516	-140.655	-0.276	-0.029
-281.501	-136.981	0.018	0.002
-280.486	10.748	-0.086	0.066
-279.472	6.488	0.124	0.093
-278.457	281.953	-0.109	-0.196
-277.443	302.151	0.085	0.158
-276.428	-50.035	0.416	-0.198
-275.413	800.000	-0.028	0.092
-274.399	72.136	0.211	0.221
-273.384	256.555	0.175	0.302
-272.370	394.478	-0.073	-0.153
-271.355	-33.415	-0.246	-0.137
-270.340	-94.660	0.173	-0.047
-269.326	-200.000	-0.038	0.218
-268.311	233.486	0.021	-0.035
-267.297	-32.816	-0.260	-0.145
-266.282	30.610	0.174	0.150
-265.267	-67.874	0.339	-0.133
-264.253	18.713	0.103	-0.083
-263.238	-95.546	-0.064	-0.017
-262.224	-126.448	-0.088	-0.013
-261.209	-200.000	0.064	-0.303
-260.195	64.589	0.189	-0.192
-259.180	525.380	-0.063	-0.149
-258.165	237.478	-0.043	0.072
-257.151	-108.013	0.015	-0.003
-256.136	-180.740	-0.081	-0.002
-255.122	195.732	0.063	0.096
-254.107	49.746	0.133	0.126
-253.092	67.291	0.154	-0.157
-252.078	-84.529	-0.136	-0.043
-251.063	579.150	0.102	-0.252
-250.049	-21.975	0.185	-0.113
-249.034	27.623	0.169	-0.143
-248.019	-138.536	-0.181	-0.020
-247.005	-54.925	-0.145	0.066
-245.990	-76.162	-0.089	0.031
-244.976	800.000	-0.046	-0.137
-243.961	-139.271	-0.281	-0.030
-242.946	-40.029	0.045	0.024
-241.932	572.786	0.162	-0.397
-240.917	308.286	0.139	0.260
-239.903	-111.632	-0.146	0.030
-238.888	800.000	-0.053	-0.221
-237.873	-200.000	0.008	-0.052
-236.859	800.000	-0.043	0.139
-235.844	-182.408	0.194	-0.004
-234.830	400.846	-0.089	-0.188
-233.815	-97.923	0.336	0.087
-232.800	178.424	0.043	0.062
-231.786	-200.000	0.007	0.196
-230.771	-109.150	0.240	0.051
-229.757	-200.000	0.028	0.195
-228.742	-200.000	-0.047	0.324
-227.727	-25.425	-0.258	0.153
-226.713	-200.000	0.008	0.298
-225.698	-38.257	-0.136	0.072
-224.684	625.496	0.056	-0.142
-223.669	-49.227	-0.330	-0.158
-222.655	-40.867	-0.300	0.156
-221.640	-200.000	0.027	0.185
-220.625	-27.156	-0.061	0.036
-219.611	113.097	0.166	0.201
-218.596	-175.649	0.177	-0.005
-217.582	156.747	0.045	-0.063
-216.567	225.430	0.247	0.402
-215.552	104.749	-0.163	0.193
-214.538	162.375	-0.165	-0.232
-213.523	228.886	-0.119	-0.194
-212.509	-108.648	-0.031	-0.007
-211.494	-6.561	0.175	0.120
-210.479	800.000	-0.107	-0.362
-209.465	15.909	-0.166	-0.131
-208.450	612.780	-0.135	-0.340
-207.436	-200.000	-0.013	0.372
-206.421	9.327	-0.172	0.130
-205.406	0.820	0.145	-0.104
-204.392	154.739	-0.180	0.248
-203.377	-200.000	0.031	-0.143
-202.363	-200.000	-0.003	-0.227
-201.348	-175.044	-0.107	-0.003
-200.333	1.991	0.378	-0.273
-199.319	370.282	-0.161	0.327
-198.304	54.411	0.257	0.248
-197.290	-26.987	0.233	-0.136
-196.275	-109.158	0.214	0.046
-195.260	-111.843	-0.369	0.075
-194.246	-1.640	0.333	-0.235
-193.231	-192.734	0.116	-0.001
-192.217	164.453	-0.147	0.208
-191.202	800.000	0.074	-0.292
-190.187	-49.977	-0.111	-0.053
-189.173	51.360	0.221	-0.211
-188.158	80.234	0.186	-0.200
-187.144	-130.088	-0.266	-0.036
-186.129	426.836	0.078	-0.168
-185.114	-200.000	0.006	0.135
-184.100	65.146	0.099	-0.101
-183.085	332.518	-0.036	0.070
-182.071	-93.837	0.062	0.017
-181.056	211.095	0.075	0.118
-180.042	-73.284	-0.230	0.084
-179.027	-11.244	0.230	-0.152
-178.012	-200.000	-0.026	0.171
-176.998	49.564	-0.248	-0.234
-175.983	-200.000	-0.003	0.036
-174.969	-200.000	-0.065	0.378
-173.954	-59.041	-0.154	-0.067
-172.939	328.783	-0.110	-0.211
-171.925	250.882	-0.052	-0.089
-170.910	120.297	0.074	0.092
-169.896	-63.872	-0.162	-0.066
-168.881	-200.000	0.010	0.237
-167.866	-200.000	-0.021	-0.153
-166.852	-127.764	0.138	-0.020
-165.837	181.756	0.083	0.122
-164.823	-95.658	-0.293	0.079
-163.808	-200.000	0.006	-0.076
-162.793	80.082	0.028	-0.030
-161.779	189.728	0.204	0.306
-160.764	-85.559	-0.142	-0.044
-159.750	-200.000	-0.017	0.081
-158.735	38.424	-0.073	0.065
-157.720	-200.000	0.021	0.223
-156.706	-152.055	0.212	-0.015
-155.691	-200.000	-0.027	-0.131
-154.677	-74.558	-0.023	0.008
-153.662	-27.300	0.238	0.139
-152.647	-200.000	0.010	-0.362
-151.633	-55.699	-0.075	0.034
-150.618	-92.443	0.142	-0.040
-149.604	-46.310	-0.180	0.089
-148.589	-200.000	0.018	-0.216
-147.574	800.000	0.028	-0.098
-146.560	800.000	-0.101	0.308
-145.545	-200.000	0.002	-0.197
-144.531	18.172	-0.188	0.150
-143.516	-200.000	0.028	0.220
-142.502	-94.822	-0.177	0.048
-141.487	800.000	-0.074	0.266
-140.472	-128.927	-0.181	0.025
-139.458	169.982	0.199	-0.284
-138.443	-69.292	0.238	0.091
-137.429	-152.550	0.197	0.014
-136.414	-112.592	-0.143	-0.029
-135.399	-54.655	0.151	-0.068
-134.385	436.148	-0.079	0.173
-133.370	158.307	0.163	0.227
-132.356	-40.945	0.171	0.088
-131.341	175.807	0.049	-0.071
-130.326	800.000	-0.025	-0.086
-129.312	272.254	-0.032	0.057
-128.297	-126.924	0.230	0.034
-127.283	-200.000	-0.058	0.256
-126.268	-200.000	0.006	-0.040
-125.253	-84.164	0.139	0.044
-124.239	-32.531	-0.132	-0.073
-123.224	-47.234	0.407	0.198
-122.210	-9.989	-0.087	-0.057
-121.195	63.415	-0.108	-0.108
