DTS Sentinel unit serial number:	SN413079Multiplexer serial number:	ORYXHardware model number:	OX4-SRSoftware version number:	ORYX F/W v4.00 Oryx Data Collector v3.7.2.0data status	okinstallation	princeton_trtdifferential loss correction	single-endedforward channel	channel 4reverse channel	N/Adate	2019/09/17time	05:45:35forward acquisition time	60.00reverse acquisition time	0.00gamma	496.2192k internal	0.2314k external	0.2314temperature offset calibration	0.9984default loss term (dB/km)	0.3790temperature slope calibration	1.0000multiplexer offset coefficient	1.0000multiplexer slope coefficient	1.0000fibre end	0.00T internal ref (°C)	29.02T ext. ref 1 (°C)	0.14T ext. ref 2 (°C)	22.78length (m)	temperature (°C)	Stokes	anti-Stokes-747.200	-200.000	0.026	0.186
-746.185	-200.000	-0.006	0.199
-745.171	-181.229	-0.176	0.004
-744.156	14.195	-0.241	0.190
-743.142	204.895	0.052	-0.081
-742.127	213.859	-0.047	-0.075
-741.112	-200.000	-0.042	-0.206
-740.098	20.081	-0.185	0.152
-739.083	508.301	0.051	-0.120
-738.069	-58.783	-0.192	0.084
-737.054	-200.000	0.008	-0.197
-736.039	-42.013	-0.168	-0.087
-735.025	-147.300	0.322	-0.028
-734.010	-200.000	0.010	-0.061
-732.996	-200.000	0.007	-0.099
-731.981	-61.925	-0.407	0.172
-730.966	-200.000	-0.034	0.157
-729.952	-157.910	-0.286	0.017
-728.937	-23.175	0.088	0.054
-727.923	-146.026	-0.178	-0.016
-726.908	-58.158	-0.184	0.081
-725.894	-200.000	0.057	-0.557
-724.879	166.955	-0.168	-0.242
-723.864	-128.848	-0.195	-0.028
-722.850	-15.496	-0.236	-0.152
-721.835	-200.000	0.014	-0.068
-720.821	327.730	0.206	0.400
-719.806	-30.512	-0.347	0.199
-718.791	-200.000	0.091	-0.477
-717.777	-200.000	0.010	-0.075
-716.762	8.681	0.307	-0.234
-715.748	224.689	-0.098	0.160
-714.733	-200.000	0.010	-0.173
-713.718	122.216	0.181	0.229
-712.704	190.074	-0.181	0.276
-711.689	-200.000	0.000	-0.104
-710.675	-0.482	-0.084	-0.060
-709.660	32.819	-0.191	0.167
-708.645	-200.000	-0.011	0.072
-707.631	-200.000	0.040	0.252
-706.616	-98.900	-0.192	-0.049
-705.602	479.247	-0.011	0.025
-704.587	142.171	0.207	-0.278
-703.572	379.303	0.077	0.160
-702.558	245.803	0.061	0.104
-701.543	-90.419	0.347	-0.102
-700.529	377.656	-0.083	-0.172
-699.514	-200.000	-0.044	0.210
-698.499	-200.000	0.009	-0.140
-697.485	-200.000	0.028	-0.135
-696.470	253.172	0.078	-0.135
-695.456	-147.395	-0.262	0.022
-694.441	130.718	-0.129	0.168
-693.426	-156.575	0.365	-0.023
-692.412	800.000	-0.071	-0.312
-691.397	-179.289	-0.328	-0.007
-690.383	50.405	-0.232	0.222
-689.368	-200.000	-0.026	0.367
-688.354	4.772	0.179	0.133
-687.339	-200.000	0.004	-0.017
-686.324	-200.000	0.063	0.287
-685.310	316.441	0.142	-0.271
-684.295	47.182	-0.102	0.096
-683.281	-104.909	-0.454	0.105
-682.266	657.703	0.047	0.121
-681.251	-45.449	-0.332	-0.166
-680.237	-0.775	-0.134	0.096
-679.222	-63.701	0.327	-0.135
-678.208	190.305	-0.049	-0.075
-677.193	-4.157	0.050	0.035
-676.178	-200.000	0.005	-0.080
-675.164	-124.931	-0.117	0.018
-674.149	30.852	-0.136	-0.118
-673.135	-13.403	-0.110	0.072
-672.120	-121.531	0.296	0.050
-671.105	800.000	0.053	0.157
-670.091	-89.126	-0.161	-0.048
-669.076	264.539	0.021	0.037
-668.062	27.397	0.212	0.180
-667.047	303.409	-0.038	0.070
-666.032	-200.000	-0.004	0.249
-665.018	-154.592	0.111	-0.007
-664.003	-102.364	-0.086	-0.021
-662.989	307.815	-0.059	0.112
-661.974	800.000	0.041	-0.164
-660.959	-91.302	-0.262	-0.076
-659.945	190.458	0.146	-0.222
-658.930	-14.997	0.140	-0.091
-657.916	800.000	0.169	-0.471
-656.901	40.141	-0.176	-0.160
-655.886	103.895	0.282	-0.335
-654.872	18.498	0.161	-0.130
-653.857	340.361	-0.086	-0.169
-652.843	-0.555	-0.185	0.133
-651.828	-72.088	-0.239	-0.090
-650.814	800.000	0.020	0.076
-649.799	195.024	0.136	0.208
-648.784	800.000	-0.048	0.184
-647.770	-198.452	-0.589	0.003
-646.755	-42.155	-0.162	-0.084
-645.741	-200.000	0.076	-0.340
-644.726	234.798	-0.153	0.255
-643.711	-127.524	-0.086	0.013
-642.697	172.274	-0.199	-0.289
-641.682	-188.991	0.364	0.004
-640.668	-71.185	-0.236	-0.089
-639.653	48.511	-0.058	-0.055
-638.638	800.000	0.103	0.372
-637.624	27.786	0.198	-0.168
-636.609	-82.383	-0.139	-0.046
-635.595	277.311	-0.084	0.151
-634.580	800.000	0.032	0.118
-633.565	-200.000	-0.041	0.439
-632.551	-141.382	0.169	-0.017
-631.536	64.100	0.164	0.166
-630.522	178.241	-0.099	-0.146
-629.507	-15.349	0.048	0.031
-628.492	-89.534	0.165	-0.049
-627.478	-200.000	-0.067	0.383
-626.463	122.700	-0.120	0.151
-625.449	23.884	0.194	-0.161
-624.434	52.922	0.043	-0.042
-623.419	800.000	0.037	-0.112
-622.405	421.484	-0.085	-0.184
-621.390	28.175	-0.151	0.129
-620.376	-200.000	-0.001	0.054
-619.361	186.969	-0.105	0.157
-618.346	-159.390	-0.454	-0.026
-617.332	12.724	0.156	0.121
-616.317	160.472	-0.122	-0.171
-615.303	-142.592	-0.139	0.014
-614.288	-93.084	-0.303	-0.085
-613.273	-143.564	0.185	-0.018
-612.259	-11.829	0.238	-0.158
-611.244	-145.869	-0.235	-0.021
-610.230	29.278	0.222	-0.190
-609.215	-30.951	0.219	-0.125
-608.201	-144.603	0.216	-0.020
-607.186	-200.000	0.010	0.240
-606.171	141.711	0.100	0.134
-605.157	800.000	0.069	0.214
-604.142	63.093	-0.061	0.062
-603.128	330.159	0.084	-0.163
-602.113	-67.836	-0.317	0.125
-601.098	59.001	-0.131	0.130
-600.084	442.328	-0.188	-0.416
-599.069	325.285	0.032	0.062
-598.055	68.335	-0.118	0.122
-597.040	800.000	-0.055	-0.161
-596.025	770.003	0.081	-0.222
-595.011	-92.145	-0.048	0.014
-593.996	13.091	0.061	0.048
-592.982	-69.619	0.238	0.092
-591.967	259.974	0.129	0.224
-590.952	-98.367	0.161	0.042
-589.938	100.437	0.058	-0.068
-588.923	-200.000	-0.029	-0.260
-587.909	257.639	-0.038	-0.066
-586.894	800.000	0.069	-0.193
-585.879	175.337	0.151	-0.220
-584.865	-145.272	-0.472	-0.043
-583.850	-46.765	-0.195	-0.096
-582.836	-98.602	-0.172	0.044
-581.821	165.370	-0.139	-0.197
-580.806	318.324	-0.110	-0.209
-579.792	111.296	-0.250	-0.304
-578.777	-200.000	0.013	-0.333
-577.763	-136.816	-0.337	-0.039
-576.748	-200.000	-0.108	-0.000
-575.733	-4.061	0.173	0.121
-574.719	79.860	-0.191	0.206
-573.704	252.896	-0.191	-0.329
-572.690	14.089	0.189	0.148
-571.675	64.318	-0.118	-0.120
-570.661	-4.135	0.068	-0.048
-569.646	7.522	-0.287	0.217
-568.631	-200.000	0.091	0.550
-567.617	-200.000	-0.013	0.242
-566.602	-200.000	-0.020	-0.207
-565.588	-64.191	-0.390	0.160
-564.573	63.361	0.206	-0.208
-563.558	-138.165	-0.040	0.005
-562.544	495.298	-0.113	-0.261
-561.529	-85.877	0.215	-0.067
-560.515	3.646	-0.204	0.150
-559.500	-23.744	0.209	0.126
-558.485	345.781	0.057	-0.113
-557.471	232.171	0.066	-0.109
-556.456	-200.000	-0.027	-0.266
-555.442	-19.873	0.098	-0.061
-554.427	-60.514	0.324	0.138
-553.412	-164.181	-0.277	-0.013
-552.398	27.788	0.264	-0.224
-551.383	42.111	0.132	-0.121
-550.369	-104.474	-0.328	0.076
-549.354	182.294	0.071	0.105
-548.339	-64.429	0.321	-0.131
-547.325	-160.769	-0.283	-0.015
-546.310	31.215	0.031	-0.027
-545.296	-42.293	-0.258	-0.133
-544.281	-192.976	0.248	-0.002
-543.266	114.378	0.142	0.173
-542.252	-59.102	-0.249	0.108
-541.237	-200.000	0.052	-0.343
-540.223	543.140	0.041	0.099
-539.208	192.584	0.123	0.187
-538.193	800.000	-0.068	0.267
-537.179	-70.301	-0.202	-0.077
-536.164	-200.000	-0.055	0.300
-535.150	-95.677	0.249	-0.067
-534.135	285.356	-0.091	0.165
-533.121	-200.000	-0.010	-0.373
-532.106	-120.966	0.039	0.007
-531.091	621.751	0.091	0.231
-530.077	800.000	-0.088	-0.302
-529.062	319.323	-0.054	0.103
-528.048	-200.000	-0.010	-0.211
-527.033	37.889	-0.303	-0.271
-526.018	800.000	0.029	-0.089
-525.004	209.686	-0.281	-0.443
-523.989	-200.000	-0.011	0.067
-522.975	-200.000	-0.005	0.065
-521.960	-6.136	-0.337	0.231
-520.945	-142.046	0.177	-0.018
-519.931	-41.994	-0.129	0.067
-518.916	800.000	0.044	-0.170
-517.902	-200.000	0.001	-0.046
-516.887	-114.241	-0.085	-0.016
-515.872	-105.261	-0.362	-0.083
-514.858	492.411	-0.034	-0.079
-513.843	-81.125	0.287	-0.095
-512.829	800.000	-0.133	-0.391
-511.814	-25.720	-0.207	-0.122
-510.799	800.000	-0.015	0.048
-509.785	-200.000	0.030	-0.408
-508.770	380.552	0.069	-0.143
-507.756	-94.462	-0.236	0.065
-506.741	1.594	-0.242	-0.175
-505.726	-176.487	0.154	0.004
-504.712	-4.488	-0.136	-0.094
-503.697	179.437	-0.136	-0.199
-502.683	-70.661	0.280	0.106
-501.668	-141.882	-0.245	0.025
-500.653	800.000	0.060	-0.234
-499.639	-50.030	-0.356	0.170
-498.624	-79.336	-0.140	0.048
-497.610	281.707	0.096	-0.173
-496.595	51.636	0.190	-0.182
-495.581	407.762	-0.098	0.209
-494.566	-200.000	0.001	-0.360
-493.551	-24.026	0.174	0.104
-492.537	260.028	-0.130	-0.226
-491.522	164.175	-0.091	0.128
-490.508	800.000	0.059	-0.182
-489.493	-194.448	0.330	0.003
-488.478	14.618	0.093	0.073
-487.464	-24.205	-0.235	-0.141
-486.449	-57.767	-0.171	0.075
-485.435	135.323	0.132	-0.173
-484.420	-200.000	0.000	0.135
-483.405	800.000	0.023	0.080
-482.391	120.423	0.071	-0.088
-481.376	191.955	-0.158	-0.239
-480.362	-45.116	0.135	0.068
-479.347	211.851	-0.160	-0.253
-478.332	593.244	0.034	-0.084
-477.318	-84.513	0.220	0.070
-476.303	-200.000	0.036	0.285
-475.289	-51.600	-0.088	-0.041
-474.274	-85.756	-0.203	0.063
-473.259	-132.333	0.342	-0.044
-472.245	185.684	-0.122	-0.182
-471.230	-200.000	-0.023	0.298
-470.216	-77.018	-0.018	0.006
-469.201	-115.342	0.045	0.009
-468.186	106.860	-0.202	-0.240
-467.172	-122.800	0.213	-0.035
-466.157	800.000	-0.041	0.173
-465.143	-68.885	-0.193	0.075
-464.128	642.210	-0.072	-0.184
-463.113	-200.000	0.052	0.252
-462.099	326.029	-0.097	-0.187
-461.084	800.000	-0.034	-0.137
-460.070	-103.444	0.077	0.018
-459.055	57.961	0.263	-0.258
-458.040	-200.000	-0.009	-0.064
-457.026	-106.855	0.510	-0.113
-456.011	800.000	0.114	-0.454
-454.997	-86.931	0.089	-0.027
-453.982	234.755	0.046	0.076
-452.968	157.503	0.255	-0.353
-451.953	38.386	0.110	0.098
-450.938	-200.000	0.001	-0.243
-449.924	85.152	-0.157	-0.173
-448.909	-44.319	0.153	-0.077
-447.895	800.000	-0.040	0.134
-446.880	-82.268	-0.216	-0.071
-445.865	-83.571	0.236	0.076
-444.851	800.000	-0.069	-0.218
-443.836	-106.339	-0.241	-0.054
-442.822	800.000	-0.032	0.099
-441.807	211.476	-0.038	0.059
-440.792	-98.962	-0.273	0.070
-439.778	34.477	-0.066	0.058
-438.763	-200.000	-0.218	0.001
-437.749	-200.000	-0.013	-0.223
-436.734	222.166	-0.044	-0.071
-435.719	-67.677	-0.262	0.103
-434.705	-200.000	0.017	0.460
-433.690	-128.894	-0.212	-0.030
-432.676	-8.154	-0.125	0.084
-431.661	-23.985	-0.251	0.150
-430.646	-200.000	0.016	-0.247
-429.632	-122.195	0.255	-0.042
-428.617	-192.541	0.081	-0.001
-427.603	10.453	-0.130	-0.099
-426.588	-200.000	0.031	0.216
-425.573	-9.873	0.207	-0.138
-424.559	-200.000	0.009	-0.211
-423.544	97.125	-0.388	0.446
-422.530	-200.000	-0.004	-0.194
-421.515	-189.727	-0.292	-0.003
-420.500	-0.309	0.065	-0.046
-419.486	-112.448	0.301	-0.060
-418.471	-124.603	-0.384	-0.060
-417.457	-65.060	0.239	0.097
-416.442	361.174	0.040	-0.081
-415.428	-200.000	0.106	0.581
-414.413	-59.779	-0.099	-0.042
-413.398	-55.562	-0.254	0.114
-412.384	-123.899	0.382	-0.060
-411.369	-193.781	-0.151	-0.001
-410.355	54.628	-0.077	0.075
-409.340	248.419	0.033	0.056
-408.325	190.721	-0.164	-0.246
-407.311	-200.000	-0.040	0.298
-406.296	-79.279	-0.400	0.136
-405.282	-200.000	-0.004	0.077
-404.267	7.127	-0.062	0.046
-403.252	-104.324	0.322	0.075
-402.238	-96.414	-0.034	0.009
-401.223	52.139	-0.193	-0.184
-400.209	-99.310	0.210	-0.053
-399.194	800.000	-0.090	-0.263
-398.179	-66.170	0.128	0.051
-397.165	-200.000	-0.006	0.343
-396.150	-200.000	-0.019	-0.234
-395.136	137.042	0.083	-0.108
-394.121	-21.180	-0.265	-0.162
-393.106	563.096	0.075	-0.182
-392.092	800.000	-0.062	-0.238
-391.077	4.419	-0.032	-0.024
-390.063	-174.844	-0.126	0.004
-389.048	-155.259	0.028	0.002
-388.033	181.514	0.047	0.069
-387.019	-74.537	-0.026	0.009
-386.004	800.000	-0.113	0.319
-384.990	2.221	-0.075	-0.054
-383.975	144.007	-0.094	0.125
-382.960	-102.356	-0.209	-0.050
-381.946	800.000	0.053	-0.230
-380.931	138.614	0.124	0.163
-379.917	800.000	0.039	0.157
-378.902	68.108	0.133	0.136
-377.888	212.472	0.068	-0.107
-376.873	-200.000	0.005	-0.189
-375.858	151.541	-0.076	0.103
-374.844	-25.289	0.124	0.073
-373.829	32.101	-0.121	0.105
-372.815	7.906	-0.172	0.129
-371.800	-80.868	0.192	0.064
-370.785	-32.408	-0.030	0.017
-369.771	42.568	-0.050	0.045
-368.756	343.632	-0.128	0.251
-367.742	272.929	-0.093	0.164
-366.727	-82.219	0.254	0.083
-365.712	439.178	-0.092	-0.201
-364.698	800.000	-0.025	-0.075
-363.683	30.211	0.159	-0.135
-362.669	529.609	-0.097	-0.228
-361.654	-55.470	0.312	0.140
-360.639	530.580	-0.097	0.230
-359.625	-200.000	-0.008	0.253
-358.610	54.666	0.126	0.121
-357.596	178.912	-0.113	0.165
-356.581	150.044	0.190	0.257
-355.566	74.608	0.104	-0.109
-354.552	40.981	0.155	-0.140
-353.537	-200.000	-0.026	0.205
-352.523	-136.373	0.320	-0.037
-351.508	800.000	-0.003	-0.013
-350.493	529.988	-0.069	-0.162
-349.479	28.983	0.097	-0.082
-348.464	-101.503	0.161	0.039
-347.450	800.000	-0.063	-0.177
-346.435	-200.000	0.041	-0.239
-345.420	91.141	0.222	0.249
-344.406	-130.226	-0.022	0.003
-343.391	365.005	0.102	-0.205
-342.377	67.413	-0.224	0.229
-341.362	66.452	-0.102	-0.103
-340.348	174.806	0.272	-0.392
-339.333	-74.656	0.199	0.071
-338.318	-200.000	-0.013	-0.063
-337.304	-145.405	0.434	0.039
-336.289	-54.370	0.188	-0.085
-335.275	-200.000	-0.013	-0.106
-334.260	-200.000	0.006	0.161
-333.245	-62.758	-0.202	-0.083
-332.231	-1.113	0.111	0.078
-331.216	-31.684	0.126	-0.070
-330.202	-21.709	0.359	0.218
-329.187	463.507	-0.091	-0.203
-328.172	800.000	0.017	0.058
-327.158	-66.222	0.054	0.021
-326.143	-152.589	0.211	0.015
-325.129	140.188	-0.085	-0.112
-324.114	-200.000	-0.013	0.615
-323.099	-104.451	0.317	0.073
-322.085	62.864	0.149	-0.149
-321.070	-47.412	-0.210	0.102
-320.056	-101.101	-0.159	0.039
-319.041	-61.779	-0.086	-0.036
-318.026	-121.537	-0.018	-0.003
-317.012	66.430	0.113	0.115
-315.997	-127.199	-0.113	-0.017
-314.983	-145.594	-0.086	0.008
-313.968	-116.229	0.088	0.016
-312.953	-91.969	-0.081	-0.023
-311.939	135.736	0.150	0.194
-310.924	45.653	-0.179	0.165
-309.910	-200.000	-0.000	-0.049
-308.895	39.325	0.198	-0.177
-307.880	43.480	0.176	0.160
-306.866	380.448	-0.009	-0.018
-305.851	-200.000	0.025	-0.213
-304.837	-77.076	-0.210	0.073
-303.822	-86.161	-0.184	-0.056
-302.807	-79.841	-0.108	-0.036
-301.793	-200.000	-0.025	0.159
-300.778	115.380	0.162	0.198
-299.764	254.457	0.118	0.202
-298.749	163.764	0.153	-0.215
-297.735	-1.687	-0.110	-0.077
-296.720	-180.432	0.044	-0.001
-295.705	-118.429	-0.097	-0.017
-294.691	85.863	0.109	0.119
-293.676	-18.062	0.124	0.077
-292.662	-25.523	-0.289	0.170
-291.647	22.129	0.041	-0.034
-290.632	-141.915	-0.180	0.018
-289.618	131.260	-0.059	0.076
-288.603	17.770	0.087	0.069
-287.589	609.096	-0.031	0.077
-286.574	-28.625	-0.138	0.079
-285.559	771.022	-0.102	0.278
-284.545	339.395	0.012	0.022
-283.530	-3.149	-0.054	-0.037
-282.516	324.015	0.142	-0.270
-281.501	302.170	0.136	0.250
-280.486	-200.000	0.017	0.088
-279.472	800.000	-0.056	0.180
-278.457	78.897	-0.097	0.103
-277.443	662.451	0.020	-0.050
-276.428	-200.000	-0.011	-0.085
-275.413	-5.155	-0.113	-0.077
-274.399	-19.546	0.245	0.151
-273.384	42.032	-0.116	0.105
-272.370	-101.337	-0.210	0.051
-271.355	28.495	-0.121	-0.102
-270.340	5.239	0.171	0.125
-269.326	-53.838	0.059	-0.027
-268.311	214.008	0.109	0.172
-267.297	800.000	0.068	0.239
-266.282	-200.000	0.002	0.055
-265.267	19.748	-0.049	0.039
-264.253	-35.003	0.176	-0.096
-263.238	-175.210	0.079	-0.002
-262.224	-200.000	-0.004	-0.325
-261.209	-200.000	0.054	0.290
-260.195	-8.821	0.035	0.023
-259.180	-122.563	0.338	0.055
-258.165	-5.776	-0.186	0.127
-257.151	800.000	-0.019	0.081
-256.136	-94.090	0.249	0.068
-255.122	2.645	0.004	0.003
-254.107	43.241	0.192	0.174
-253.092	71.778	0.091	-0.094
-252.078	-200.000	0.004	0.107
-251.063	-75.147	0.299	-0.106
-250.049	40.539	-0.291	0.260
-249.034	-86.045	0.307	0.094
-248.019	1.632	-0.192	-0.138
-247.005	-105.083	-0.236	0.054
-245.990	-0.049	-0.128	0.091
-244.976	313.678	-0.007	-0.013
-243.961	-155.363	-0.094	0.006
-242.946	-173.303	-0.227	0.007
-241.932	-182.775	0.280	0.005
-240.917	64.231	0.187	-0.187
-239.903	333.194	0.133	0.256
-238.888	272.535	0.101	0.178
-237.873	-70.980	0.220	0.082
-236.859	-200.000	0.028	0.269
-235.844	-162.323	0.399	-0.020
-234.830	-200.000	0.015	0.276
-233.815	-102.160	-0.248	-0.059
-232.800	-145.496	0.281	0.025
-231.786	800.000	0.041	-0.133
-230.771	-200.000	-0.055	0.263
-229.757	-200.000	-0.012	-0.210
-228.742	24.442	0.102	0.084
-227.727	33.410	0.073	-0.063
-226.713	-200.000	0.026	-0.308
-225.698	90.720	0.160	0.178
-224.684	18.561	-0.174	0.139
-223.669	-48.245	0.156	-0.075
-222.655	-200.000	-0.012	-0.216
-221.640	6.639	0.150	0.111
-220.625	327.310	0.098	0.187
-219.611	-6.052	-0.128	-0.087
-218.596	-15.583	-0.218	-0.138
-217.582	2.977	-0.172	0.124
-216.567	46.931	0.217	-0.200
-215.552	11.434	0.453	-0.345
-214.538	128.128	-0.173	-0.218
-213.523	-9.179	-0.230	-0.153
-212.509	-78.018	-0.183	-0.062
-211.494	-79.194	-0.328	0.111
-210.479	-61.930	0.249	0.103
-209.465	800.000	0.055	0.219
-208.450	19.124	-0.135	0.108
-207.436	106.323	-0.256	0.301
-206.421	-200.000	-0.009	-0.258
-205.406	-200.000	0.014	0.192
-204.392	139.959	0.080	-0.104
-203.377	800.000	-0.047	-0.145
-202.363	800.000	0.062	0.210
-201.348	72.003	-0.090	-0.093
-200.333	94.695	0.233	-0.263
-199.319	-76.615	0.261	-0.091
-198.304	49.964	-0.179	0.167
-197.290	419.994	-0.041	-0.087
-196.275	-30.763	0.179	-0.101
-195.260	-20.908	-0.250	0.152
-194.246	-106.547	0.121	0.027
-193.231	122.449	0.088	-0.110
-192.217	488.792	-0.024	0.055
-191.202	800.000	-0.068	-0.285
-190.187	-192.457	0.105	-0.001
-189.173	-200.000	-0.068	0.355
-188.158	-9.732	-0.179	0.118
-187.144	-200.000	-0.030	0.450
-186.129	174.398	0.105	0.151
-185.114	-200.000	-0.047	-0.325
-184.100	274.134	-0.097	0.170
-183.085	162.659	-0.110	0.153
-182.071	81.784	0.118	-0.127
-181.056	460.689	0.147	0.325
-180.042	-100.681	0.276	0.068
-179.027	-200.000	0.042	-0.247
-178.012	-40.026	0.226	0.117
-176.998	-9.483	-0.140	-0.093
-175.983	6.212	-0.090	0.066
-174.969	18.846	-0.149	0.119
-173.954	-71.451	0.416	0.154
-172.939	-200.000	0.028	-0.240
-171.925	-73.386	0.443	-0.161
-170.910	800.000	0.093	0.272
-169.896	385.414	-0.053	0.107
-168.881	-96.380	-0.209	-0.055
-167.866	-157.292	0.095	-0.006
-166.852	-89.563	-0.079	0.023
-165.837	16.414	-0.301	-0.235
-164.823	19.245	0.202	-0.161
-163.808	800.000	-0.138	-0.397
-162.793	-105.213	0.379	-0.086
-161.779	-48.710	0.160	0.076
-160.764	-160.462	-0.279	-0.015
-159.750	86.153	0.149	-0.163
-158.735	519.177	-0.042	-0.097
-157.720	-200.000	0.037	0.218
-156.706	15.872	0.120	0.093
-155.691	-200.000	0.046	0.252
-154.677	137.630	0.030	-0.038
-153.662	546.780	0.111	0.263
-152.647	-144.133	0.083	0.008
-151.633	800.000	0.048	0.154
-150.618	-200.000	-0.024	0.264
-149.604	70.104	0.202	0.207
-148.589	-156.328	-0.139	-0.009
-147.574	91.047	-0.168	0.187
-146.560	-200.000	-0.008	0.307
-145.545	329.578	0.195	-0.371
-144.531	-200.000	-0.027	-0.314
-143.516	-200.000	-0.038	-0.494
-142.502	-120.305	0.491	-0.083
-141.487	-166.919	0.399	0.016
-140.472	-200.000	-0.014	0.338
-139.458	-67.964	-0.317	0.123
-138.443	-59.164	-0.148	0.063
-137.429	11.106	-0.066	0.050
-136.414	-77.032	0.301	0.104
-135.399	54.845	-0.139	-0.133
-134.385	-148.396	0.104	-0.008
-133.370	-26.629	0.045	0.026
-132.356	67.677	0.210	0.213
-131.341	-200.000	0.050	0.355
-130.326	-200.000	-0.031	0.361
-129.312	340.817	-0.082	0.158
-128.297	-200.000	-0.018	0.098
-127.283	800.000	0.047	0.191
-126.268	-44.017	0.216	0.107
-125.253	477.646	-0.149	0.333
-124.239	186.225	-0.092	-0.135
-123.224	66.554	0.141	-0.142
-122.210	-178.587	0.123	0.003
-121.195	-72.141	0.172	-0.063
