DTS Sentinel unit serial number:	SN413079Multiplexer serial number:	ORYXHardware model number:	OX4-SRSoftware version number:	ORYX F/W v4.00 Oryx Data Collector v3.7.2.0data status	okinstallation	princeton_trtdifferential loss correction	single-endedforward channel	channel 4reverse channel	N/Adate	2019/09/14time	14:01:35forward acquisition time	60.00reverse acquisition time	0.00gamma	496.2192k internal	0.2290k external	0.2290temperature offset calibration	1.0145default loss term (dB/km)	0.3790temperature slope calibration	1.0000multiplexer offset coefficient	1.0000multiplexer slope coefficient	1.0000fibre end	0.00T internal ref (°C)	38.02T ext. ref 1 (°C)	4.97T ext. ref 2 (°C)	36.88length (m)	temperature (°C)	Stokes	anti-Stokes-747.200	493.897	0.088	-0.206
-746.185	241.985	0.111	0.190
-745.171	-18.385	0.273	0.175
-744.156	31.031	-0.086	0.076
-743.142	27.068	0.070	-0.061
-742.127	178.827	-0.167	0.251
-741.112	253.483	0.023	0.040
-740.098	33.373	0.223	0.198
-739.083	800.000	-0.055	-0.192
-738.069	106.489	-0.128	0.155
-737.054	-31.890	0.299	-0.171
-736.039	105.859	-0.119	-0.144
-735.025	18.801	0.110	-0.090
-734.010	-38.144	-0.173	-0.094
-732.996	-200.000	-0.021	-0.171
-731.981	-200.000	-0.009	0.239
-730.966	60.285	-0.156	0.158
-729.952	-63.761	-0.246	-0.103
-728.937	166.757	-0.038	0.056
-727.923	162.590	-0.178	0.255
-726.908	-73.875	0.119	0.044
-725.894	36.118	0.135	-0.122
-724.879	-16.330	-0.387	0.251
-723.864	-95.536	-0.232	0.064
-722.850	89.685	0.043	0.049
-721.835	-100.740	-0.381	-0.096
-720.821	-78.762	0.288	-0.101
-719.806	-18.891	0.202	-0.129
-718.791	24.951	0.259	0.220
-717.777	-200.000	0.024	-0.131
-716.762	800.000	0.049	-0.146
-715.748	-167.962	0.413	0.017
-714.733	-107.487	-0.069	-0.016
-713.718	-47.760	0.054	-0.027
-712.704	45.201	0.067	-0.063
-711.689	-200.000	-0.020	0.155
-710.675	176.659	0.067	-0.099
-709.660	-80.488	-0.318	-0.108
-708.645	-200.000	-0.020	0.104
-707.631	-200.000	0.006	0.174
-706.616	216.906	0.109	0.178
-705.602	-200.000	0.023	-0.217
-704.587	-129.698	-0.366	0.052
-703.572	-66.195	0.115	0.047
-702.558	123.307	0.115	0.148
-701.543	11.498	-0.146	0.115
-700.529	-70.725	-0.132	-0.051
-699.514	-45.759	0.042	-0.021
-698.499	-9.425	-0.263	0.179
-697.485	-33.098	-0.259	-0.147
-696.470	-101.149	-0.151	-0.038
-695.456	258.316	0.143	-0.251
-694.441	110.862	-0.100	-0.123
-693.426	112.953	0.154	0.191
-692.412	-148.716	-0.167	0.014
-691.397	800.000	0.103	0.382
-690.383	-5.368	-0.315	-0.221
-689.368	543.243	0.083	0.203
-688.354	-152.125	0.103	0.008
-687.339	551.745	-0.108	-0.265
-686.324	-36.610	0.117	-0.064
-685.310	-200.000	0.019	-0.085
-684.295	-32.740	0.098	0.055
-683.281	197.050	0.112	-0.174
-682.266	-119.773	-0.270	-0.048
-681.251	59.811	-0.310	0.313
-680.237	-85.032	0.127	-0.041
-679.222	800.000	0.075	-0.212
-678.208	206.033	-0.085	-0.135
-677.193	-93.944	-0.182	-0.051
-676.178	31.788	-0.076	-0.067
-675.164	-70.142	0.073	-0.028
-674.149	-84.770	0.233	-0.075
-673.135	-93.986	0.211	0.059
-672.120	29.891	-0.141	-0.123
-671.105	317.156	-0.056	-0.107
-670.091	-75.141	0.186	-0.068
-669.076	-90.745	-0.140	0.041
-668.062	119.035	-0.219	-0.277
-667.047	-41.352	0.279	-0.147
-666.032	232.753	-0.112	-0.188
-665.018	-142.527	0.402	-0.040
-664.003	800.000	0.069	0.202
-662.989	-200.000	-0.010	-0.308
-661.974	-200.000	0.038	-0.322
-660.959	800.000	0.029	-0.099
-659.945	32.739	-0.114	0.101
-658.930	12.051	0.111	0.087
-657.916	-53.998	0.173	-0.081
-656.901	-80.746	-0.235	-0.080
-655.886	-137.872	0.089	0.010
-654.872	23.052	-0.194	0.163
-653.857	198.618	0.062	-0.096
-652.843	-109.189	-0.182	-0.039
-651.828	-155.445	0.143	0.009
-650.814	258.568	0.054	-0.094
-649.799	800.000	-0.081	0.327
-648.784	-131.455	-0.186	-0.025
-647.770	-200.000	0.013	-0.176
-646.755	73.585	-0.156	-0.167
-645.741	144.045	-0.130	-0.177
-644.726	-135.468	0.385	-0.047
-643.711	-174.316	-0.214	-0.006
-642.697	79.580	0.384	0.420
-641.682	-108.023	-0.398	-0.088
-640.668	28.425	0.125	0.107
-639.653	-86.724	-0.230	-0.072
-638.638	-48.108	-0.104	0.051
-637.624	800.000	-0.071	-0.215
-636.609	-59.062	0.091	-0.040
-635.595	-21.650	0.034	-0.021
-634.580	223.684	0.090	-0.147
-633.565	-90.788	-0.166	-0.049
-632.551	-62.632	-0.117	0.050
-631.536	800.000	-0.038	-0.123
-630.522	-200.000	0.033	0.195
-629.507	-83.602	0.065	-0.021
-628.492	800.000	0.083	-0.294
-627.478	-60.815	-0.174	0.075
-626.463	-90.534	-0.176	-0.052
-625.449	-56.151	-0.238	0.108
-624.434	-200.000	0.034	-0.297
-623.419	209.159	0.158	-0.252
-622.405	-49.313	-0.241	-0.117
-621.390	-102.057	0.287	0.070
-620.376	-14.817	-0.123	0.081
-619.361	63.132	0.114	-0.117
-618.346	253.114	-0.231	-0.402
-617.332	57.670	0.245	0.244
-616.317	-200.000	-0.017	0.137
-615.303	40.565	0.125	0.114
-614.288	-118.382	0.306	-0.055
-613.273	-47.023	0.249	-0.124
-612.259	143.516	0.205	-0.278
-611.244	-52.596	0.086	0.041
-610.230	-78.320	-0.303	0.106
-609.215	-132.604	0.119	-0.016
-608.201	-200.000	-0.016	0.173
-607.186	-69.616	0.102	0.040
-606.171	-184.512	0.103	0.002
-605.157	-74.352	-0.244	0.090
-604.142	396.889	-0.049	-0.104
-603.128	-98.118	-0.159	-0.042
-602.113	800.000	0.014	0.059
-601.098	-61.940	-0.066	0.028
-600.084	290.174	0.099	0.183
-599.069	800.000	0.133	-0.428
-598.055	109.841	0.234	-0.285
-597.040	78.421	-0.261	-0.284
-596.025	-154.214	-0.068	0.005
-595.011	5.843	-0.261	0.196
-593.996	-114.265	-0.187	0.037
-592.982	8.797	0.362	0.278
-591.967	-143.246	0.447	0.044
-590.952	-200.000	-0.157	0.000
-589.938	206.170	-0.127	0.201
-588.923	140.428	-0.050	-0.067
-587.909	31.016	-0.097	-0.084
-586.894	-58.282	-0.160	-0.071
-585.879	45.216	0.052	-0.049
-584.865	59.396	0.068	0.068
-583.850	335.787	-0.034	0.066
-582.836	-123.278	-0.074	0.012
-581.821	-124.515	-0.266	0.042
-580.806	-7.909	0.111	-0.076
-579.792	402.732	-0.030	-0.064
-578.777	213.922	0.085	-0.137
-577.763	-200.000	-0.031	0.262
-576.748	-113.047	0.336	0.067
-575.733	-200.000	0.042	-0.208
-574.719	-200.000	0.004	0.075
-573.704	800.000	-0.080	0.296
-572.690	-147.422	0.358	-0.031
-571.675	146.893	-0.145	-0.198
-570.661	-132.719	-0.416	0.054
-569.646	-68.561	-0.233	-0.092
-568.631	62.126	0.276	0.280
-567.617	-33.099	-0.186	-0.105
-566.602	37.110	-0.077	0.069
-565.588	-145.670	0.197	0.018
-564.573	287.130	0.080	0.148
-563.558	-29.007	-0.426	-0.249
-562.544	125.973	-0.219	-0.281
-561.529	14.824	0.066	0.052
-560.515	-107.757	-0.142	-0.032
-559.500	569.934	-0.067	0.165
-558.485	-9.516	-0.099	0.067
-557.471	800.000	-0.022	0.068
-556.456	7.926	0.235	-0.179
-555.442	-200.000	-0.024	-0.144
-554.427	-85.848	-0.028	0.009
-553.412	473.692	0.060	-0.138
-552.398	-200.000	-0.008	-0.233
-551.383	164.408	0.150	0.214
-550.369	-132.074	-0.080	0.011
-549.354	-200.000	0.019	-0.166
-548.339	-104.700	0.045	-0.010
-547.325	569.150	-0.074	-0.183
-546.310	529.155	-0.137	-0.328
-545.296	-200.000	-0.333	0.001
-544.281	800.000	0.037	0.109
-543.266	224.310	-0.119	0.195
-542.252	800.000	0.114	0.323
-541.237	-83.751	0.110	0.036
-540.223	800.000	-0.026	0.111
-539.208	-200.000	-0.014	0.267
-538.193	-200.000	-0.002	-0.285
-537.179	-159.639	0.273	-0.015
-536.164	-58.975	-0.170	0.075
-535.150	139.659	-0.162	-0.217
-534.135	321.805	-0.054	-0.105
-533.121	51.901	0.160	-0.155
-532.106	66.160	0.125	-0.129
-531.091	10.255	-0.235	-0.182
-530.077	-108.037	-0.179	-0.040
-529.062	-9.584	0.091	-0.062
-528.048	-50.550	-0.145	-0.069
-527.033	-185.667	-0.315	0.005
-526.018	-200.000	0.016	-0.100
-525.004	-55.750	-0.149	-0.068
-523.989	-62.437	0.219	0.092
-522.975	-200.000	0.000	-0.198
-521.960	-139.623	-0.130	-0.014
-520.945	676.137	-0.089	0.236
-519.931	195.899	0.091	-0.140
-518.916	-80.598	0.172	0.058
-517.902	-127.662	-0.087	0.013
-516.887	-114.321	0.309	-0.060
-515.872	18.504	0.052	-0.042
-514.858	-149.605	-0.397	-0.032
-513.843	-125.115	0.315	0.049
-512.829	800.000	-0.094	0.284
-511.814	271.575	-0.045	-0.080
-510.799	32.175	-0.026	-0.023
-509.785	-97.814	-0.298	-0.078
-508.770	-200.000	0.024	0.323
-507.756	-141.612	0.236	0.024
-506.741	-31.170	-0.116	-0.066
-505.726	-131.945	0.178	-0.024
-504.712	-1.792	-0.143	0.102
-503.697	-200.000	-0.006	-0.073
-502.683	-191.439	0.124	0.001
-501.668	-200.000	-0.014	0.158
-500.653	235.063	-0.148	0.247
-499.639	565.216	0.025	0.061
-498.624	-56.308	-0.387	0.175
-497.610	113.473	-0.068	0.084
-496.595	314.197	0.155	0.296
-495.581	769.448	0.089	0.246
-494.566	-110.799	0.077	0.016
-493.551	-85.981	0.107	-0.034
-492.537	800.000	-0.036	-0.150
-491.522	800.000	-0.112	-0.347
-490.508	-21.627	0.209	-0.129
-489.493	46.567	0.128	-0.120
-488.478	-0.897	-0.301	-0.216
-487.464	345.502	0.093	-0.185
-486.449	248.787	0.162	-0.279
-485.435	139.298	0.185	-0.246
-484.420	-200.000	0.005	-0.067
-483.405	800.000	-0.035	0.107
-482.391	157.566	-0.050	-0.070
-481.376	477.431	-0.095	-0.218
-480.362	158.630	0.112	-0.158
-479.347	800.000	-0.067	-0.225
-478.332	800.000	0.068	0.231
-477.318	-157.193	-0.351	0.022
-476.303	-42.172	-0.471	-0.244
-475.289	-126.170	-0.037	-0.006
-474.274	105.590	-0.039	-0.047
-473.259	-169.358	-0.476	0.018
-472.245	339.692	0.133	-0.263
-471.230	-200.000	0.000	-0.119
-470.216	-76.999	-0.189	0.067
-469.201	-144.553	-0.261	-0.024
-468.186	-181.741	-0.210	0.004
-467.172	629.504	-0.110	-0.281
-466.157	-169.346	-0.313	0.012
-465.143	61.579	0.189	0.190
-464.128	-200.000	-0.062	0.435
-463.113	175.380	-0.120	-0.176
-462.099	518.202	0.085	-0.202
-461.084	-93.419	0.286	0.080
-460.070	-87.665	0.261	-0.080
-459.055	-200.000	0.020	-0.351
-458.040	-200.000	-0.067	0.349
-457.026	-63.178	-0.462	-0.193
-456.011	-96.334	0.491	0.132
-454.997	-97.555	-0.275	-0.072
-453.982	-3.588	0.348	0.245
-452.968	20.392	0.164	-0.134
-451.953	34.636	0.152	0.134
-450.938	204.238	0.213	-0.334
-449.924	-71.125	-0.134	0.051
-448.909	-137.482	-0.082	0.009
-447.895	-200.000	-0.032	-0.156
-446.880	-139.004	0.483	-0.053
-445.865	-32.952	0.194	0.109
-444.851	-200.000	-0.024	-0.118
-443.836	-35.552	-0.205	0.113
-442.822	-79.916	0.089	-0.030
-441.807	-91.152	-0.318	-0.092
-440.792	217.841	0.094	-0.152
-439.778	-108.069	0.171	0.038
-438.763	-200.000	0.003	0.149
-437.749	31.997	0.037	-0.032
-436.734	118.181	0.097	-0.121
-435.719	-143.179	-0.127	0.012
-434.705	800.000	-0.122	0.387
-433.690	-200.000	0.360	0.001
-432.676	-152.655	0.328	-0.024
-431.661	-120.059	0.283	0.049
-430.646	-76.241	0.109	0.039
-429.632	-169.923	0.100	0.004
-428.617	-83.002	0.169	0.055
-427.603	430.144	0.031	-0.068
-426.588	-200.000	-0.008	0.149
-425.573	80.072	0.091	-0.099
-424.559	800.000	0.032	0.137
-423.544	706.403	-0.051	-0.136
-422.530	-44.160	-0.371	-0.188
-421.515	800.000	0.042	-0.177
-420.500	800.000	0.040	0.133
-419.486	-26.440	0.226	0.134
-418.471	4.522	-0.159	0.118
-417.457	-154.330	-0.221	-0.015
-416.442	-200.000	-0.005	0.036
-415.428	121.082	-0.265	-0.333
-414.413	17.889	0.235	-0.189
-413.398	25.123	-0.173	0.145
-412.384	-1.853	0.072	0.051
-411.369	-70.651	0.130	-0.050
-410.355	800.000	0.067	0.269
-409.340	77.451	-0.085	0.091
-408.325	601.792	-0.104	0.260
-407.311	9.028	0.111	0.084
-406.296	145.652	-0.081	-0.110
-405.282	-139.166	0.171	-0.019
-404.267	-97.175	-0.148	0.039
-403.252	-200.000	0.046	0.281
-402.238	100.727	0.319	0.375
-401.223	-200.000	0.001	-0.179
-400.209	-147.636	-0.188	-0.016
-399.194	-129.738	0.197	0.027
-398.179	-200.000	-0.036	0.215
-397.165	-56.701	0.252	0.113
-396.150	800.000	-0.096	0.346
-395.136	71.385	0.072	0.076
-394.121	-1.052	-0.044	0.031
-393.106	76.215	0.193	0.206
-392.092	158.730	0.145	-0.204
-391.077	-198.480	0.322	-0.002
-390.063	516.887	0.050	0.118
-389.048	-200.000	-0.016	-0.338
-388.033	-63.708	0.098	0.040
-387.019	92.596	-0.178	-0.203
-386.004	-0.372	0.135	0.097
-384.990	800.000	-0.066	-0.287
-383.975	214.796	-0.188	-0.301
-382.960	403.021	-0.133	-0.282
-381.946	-44.628	0.276	0.139
-380.931	800.000	-0.055	-0.192
-379.917	-129.089	0.154	-0.022
-378.902	-200.000	0.076	0.392
-377.888	119.938	-0.371	0.465
-376.873	-40.856	-0.260	0.136
-375.858	125.444	-0.166	-0.211
-374.844	74.217	-0.080	-0.084
-373.829	800.000	-0.082	0.247
-372.815	70.484	-0.231	-0.241
-371.800	2.910	-0.126	0.093
-370.785	-102.151	-0.338	-0.082
-369.771	168.673	-0.254	-0.366
-368.756	136.830	0.107	0.141
-367.742	37.355	-0.362	-0.323
-366.727	-32.189	0.132	0.075
-365.712	112.248	-0.071	-0.087
-364.698	-117.665	0.187	0.034
-363.683	103.370	-0.083	-0.098
-362.669	682.344	0.105	0.277
-361.654	-87.045	-0.336	0.103
-360.639	104.363	-0.322	-0.383
-359.625	62.960	-0.081	0.082
-358.610	59.412	-0.070	-0.070
-357.596	-98.414	0.381	-0.099
-356.581	464.175	-0.167	0.378
-355.566	75.972	-0.136	0.145
-354.552	-200.000	0.051	-0.249
-353.537	35.212	-0.450	0.398
-352.523	116.585	-0.272	0.337
-351.508	-99.490	0.401	0.102
-350.493	-37.623	-0.231	0.124
-349.479	800.000	-0.055	-0.190
-348.464	-200.000	-0.046	0.210
-347.450	-69.568	-0.265	-0.103
-346.435	194.709	0.277	-0.423
-345.420	-116.018	0.398	-0.075
-344.406	-106.178	0.047	-0.011
-343.391	321.551	-0.033	-0.064
-342.377	-160.512	-0.230	-0.012
-341.362	172.870	-0.071	0.104
-340.348	-200.000	0.004	0.046
-339.333	57.665	0.121	0.119
-338.318	232.152	0.124	0.204
-337.304	-165.409	0.150	0.007
-336.289	-40.391	-0.238	-0.125
-335.275	-82.601	0.192	0.063
-334.260	-78.921	-0.162	0.056
-333.245	-41.292	-0.148	0.077
-332.231	47.083	-0.252	0.237
-331.216	-60.231	0.101	0.043
-330.202	101.868	0.340	-0.399
-329.187	14.862	-0.177	-0.139
-328.172	-200.000	0.020	0.226
-327.158	0.238	0.157	0.113
-326.143	-179.363	-0.043	-0.001
-325.129	288.156	0.150	0.274
-324.114	-105.803	0.219	-0.050
-323.099	-112.132	-0.146	0.030
-322.085	-200.000	-0.015	-0.471
-321.070	800.000	-0.032	0.113
-320.056	95.216	-0.169	0.194
-319.041	82.727	-0.280	-0.306
-318.026	-28.566	-0.148	0.086
-317.012	-146.305	0.532	0.047
-315.997	-49.556	-0.063	-0.030
-314.983	800.000	0.026	0.076
-313.968	427.946	0.069	-0.149
-312.953	399.903	-0.031	-0.066
-311.939	-102.377	-0.165	0.040
-310.924	-96.480	0.134	0.036
-309.910	-95.474	-0.026	0.007
-308.895	29.220	-0.164	-0.141
-307.880	131.651	-0.135	-0.175
-306.866	-200.000	-0.005	-0.212
-305.851	-200.000	-0.006	0.109
-304.837	270.527	-0.061	0.107
-303.822	194.624	0.140	0.214
-302.807	131.059	0.034	0.044
-301.793	20.001	0.136	0.110
-300.778	90.113	-0.071	0.079
-299.764	476.258	-0.118	0.269
-298.749	-163.227	0.155	-0.007
-297.735	152.895	-0.070	0.097
-296.720	444.088	-0.203	-0.448
-295.705	97.981	0.151	0.175
-294.691	800.000	0.077	0.277
-293.676	-200.000	0.032	-0.318
-292.662	88.499	0.189	0.211
-291.647	-200.000	0.057	-0.271
-290.632	800.000	0.081	0.231
-289.618	-41.888	0.113	0.058
-288.603	-90.832	0.371	0.108
-287.589	800.000	0.076	0.239
-286.574	-170.821	0.006	-0.000
-285.559	-17.857	-0.160	0.101
-284.545	-200.000	0.094	0.462
-283.530	548.550	-0.027	0.065
-282.516	-65.513	0.159	0.064
-281.501	446.911	0.136	0.301
-280.486	-94.469	0.179	-0.049
-279.472	48.183	0.169	-0.159
-278.457	-164.642	-0.214	-0.010
-277.443	-200.000	-0.059	0.270
-276.428	-109.994	-0.163	0.034
-275.413	800.000	0.108	-0.345
-274.399	20.596	-0.088	-0.072
-273.384	-200.000	0.034	-0.174
-272.370	-200.000	-0.026	0.153
-271.355	654.435	-0.148	0.383
-270.340	-174.846	0.333	0.009
-269.326	800.000	0.019	0.054
-268.311	173.606	-0.169	0.245
-267.297	-13.738	-0.180	-0.117
-266.282	-79.055	0.067	-0.023
-265.267	-89.222	0.268	-0.080
-264.253	-69.433	-0.262	-0.101
-263.238	666.355	0.056	0.146
-262.224	-172.795	-0.253	0.008
-261.209	376.130	0.098	-0.201
-260.195	-110.637	-0.059	0.012
-259.180	-129.351	-0.279	0.039
-258.165	-200.000	-0.018	0.128
-257.151	251.821	0.077	0.131
-256.136	-200.000	0.002	-0.081
-255.122	-158.031	-0.230	-0.014
-254.107	-137.760	-0.363	0.041
-253.092	-200.000	-0.020	0.253
-252.078	-200.000	-0.001	-0.035
-251.063	-120.319	0.259	-0.044
-250.049	-186.070	-0.146	-0.002
-249.034	346.818	0.094	-0.185
-248.019	-150.101	0.149	0.012
-247.005	-10.837	0.146	0.097
-245.990	341.903	-0.169	0.332
-244.976	208.363	-0.082	-0.128
-243.961	-70.356	-0.307	0.117
-242.946	-200.000	-0.083	0.000
-241.932	39.989	0.097	-0.087
-240.917	-59.571	-0.283	0.122
-239.903	-169.665	0.377	-0.014
-238.888	271.573	-0.122	-0.217
-237.873	-8.019	-0.117	0.079
-236.859	-200.000	-0.010	0.095
-235.844	294.801	0.082	-0.151
-234.830	-119.072	0.131	-0.023
-233.815	163.250	0.100	-0.141
-232.800	-10.208	0.128	-0.086
-231.786	-61.836	-0.250	0.105
-230.771	-200.000	0.017	0.245
-229.757	-54.721	0.184	0.084
-228.742	-73.660	-0.336	0.123
-227.727	47.421	0.098	-0.092
-226.713	-103.904	0.183	-0.043
-225.698	210.506	0.137	-0.217
-224.684	-32.079	-0.153	0.086
-223.669	800.000	-0.062	-0.204
-222.655	800.000	-0.060	0.204
-221.640	734.408	-0.019	-0.051
-220.625	580.416	0.069	0.170
-219.611	-200.000	0.013	0.263
-218.596	-48.392	0.156	0.076
-217.582	-1.046	-0.154	-0.109
-216.567	145.743	0.086	-0.115
-215.552	-7.906	-0.112	0.076
-214.538	44.855	0.158	-0.146
-213.523	800.000	-0.042	-0.155
-212.509	123.512	0.123	-0.155
-211.494	-43.711	0.372	0.188
-210.479	49.048	-0.087	-0.082
-209.465	-200.000	0.010	0.121
-208.450	-23.568	0.227	-0.137
-207.436	800.000	0.094	-0.328
-206.421	-61.429	0.084	0.036
-205.406	211.524	-0.221	0.349
-204.392	-200.000	0.011	0.049
-203.377	800.000	-0.070	-0.202
-202.363	-26.121	0.202	-0.119
-201.348	-188.592	0.150	0.002
-200.333	99.350	0.238	-0.276
-199.319	182.255	0.122	-0.180
-198.304	-100.362	-0.140	0.035
-197.290	-200.000	0.024	0.249
-196.275	-1.491	0.143	-0.101
-195.260	-200.000	0.022	0.147
-194.246	-109.487	-0.425	0.090
-193.231	-88.148	0.191	-0.057
-192.217	384.278	0.036	-0.074
-191.202	-170.964	-0.098	-0.003
-190.187	545.984	0.054	-0.130
-189.173	-200.000	-0.004	0.206
-188.158	70.038	0.184	0.190
-187.144	59.515	-0.093	-0.092
-186.129	21.580	0.259	0.211
-185.114	-104.985	0.102	-0.024
-184.100	579.189	-0.081	-0.198
-183.085	66.481	0.281	0.286
-182.071	44.490	-0.188	0.173
-181.056	154.888	0.092	-0.127
-180.042	-200.000	0.033	0.147
-179.027	-29.927	0.291	-0.166
-178.012	403.991	0.089	-0.188
-176.998	-131.523	0.375	0.050
-175.983	800.000	0.020	-0.081
-174.969	-144.246	0.363	0.034
-173.954	83.615	0.086	0.094
-172.939	-44.142	-0.271	0.136
-171.925	28.771	0.133	0.112
-170.910	-59.550	0.123	-0.053
-169.896	-200.000	-0.003	0.193
-168.881	800.000	-0.032	-0.101
-167.866	-33.548	0.426	0.236
-166.852	241.846	-0.070	0.118
-165.837	-156.480	-0.134	-0.008
-164.823	-130.068	0.184	0.025
-163.808	-70.040	-0.114	-0.043
-162.793	-88.631	-0.305	-0.091
-161.779	-78.269	0.228	-0.078
-160.764	-200.000	0.008	-0.103
-159.750	519.455	-0.054	-0.126
-158.735	-46.002	-0.140	-0.069
-157.720	21.220	0.261	-0.213
-156.706	137.522	0.085	0.112
-155.691	-200.000	-0.001	0.052
-154.677	-83.899	0.316	0.101
-153.662	65.147	-0.042	-0.043
-152.647	-154.718	-0.285	-0.019
-151.633	-9.023	0.242	-0.162
-150.618	133.357	0.200	0.259
-149.604	89.873	0.128	0.143
-148.589	-200.000	-0.065	0.312
-147.574	-112.031	-0.251	-0.051
-146.560	442.175	0.079	0.172
-145.545	-200.000	0.018	-0.147
-144.531	-200.000	-0.049	0.253
-143.516	-200.000	0.060	0.322
-142.502	-64.925	0.134	-0.054
-141.487	-5.534	0.172	-0.118
-140.472	-156.417	0.488	-0.031
-139.458	-10.965	-0.158	0.104
-138.443	-42.172	0.252	-0.129
-137.429	-114.542	0.470	0.090
-136.414	193.429	-0.186	-0.282
-135.399	-89.146	0.231	-0.068
-134.385	-71.043	0.236	-0.089
-133.370	-75.833	0.224	0.080
-132.356	281.884	-0.101	0.181
-131.341	194.445	0.065	-0.098
-130.326	168.647	-0.056	-0.080
-129.312	-82.386	0.212	-0.069
-128.297	348.058	-0.156	0.308
-127.283	-200.000	-0.006	-0.472
-126.268	99.738	-0.151	0.175
-125.253	267.905	-0.117	0.204
-124.239	-200.000	-0.014	0.553
-123.224	319.803	-0.036	-0.068
-122.210	-3.698	0.305	0.212
-121.195	-53.488	-0.296	0.135
