DTS Sentinel unit serial number:	SN413079Multiplexer serial number:	ORYXHardware model number:	OX4-SRSoftware version number:	ORYX F/W v4.00 Oryx Data Collector v3.7.2.0data status	okinstallation	princeton_trtdifferential loss correction	single-endedforward channel	channel 4reverse channel	N/Adate	2019/09/13time	08:13:34forward acquisition time	60.00reverse acquisition time	0.00gamma	496.2192k internal	0.2318k external	0.2318temperature offset calibration	1.0200default loss term (dB/km)	0.3790temperature slope calibration	1.0000multiplexer offset coefficient	1.0000multiplexer slope coefficient	1.0000fibre end	0.00T internal ref (°C)	27.12T ext. ref 1 (°C)	4.27T ext. ref 2 (°C)	23.08length (m)	temperature (°C)	Stokes	anti-Stokes-747.200	-39.616	-0.186	-0.099
-746.185	-33.601	0.271	-0.152
-745.171	-200.000	0.015	-0.137
-744.156	95.229	-0.176	-0.203
-743.142	-148.655	-0.323	0.027
-742.127	-144.106	-0.257	0.024
-741.112	682.459	-0.017	0.045
-740.098	-14.011	-0.307	0.200
-739.083	-117.205	0.117	0.022
-738.069	352.859	-0.102	0.204
-737.054	264.578	-0.084	-0.148
-736.039	-78.982	0.281	-0.097
-735.025	-200.000	0.018	0.156
-734.010	-157.402	-0.130	0.008
-732.996	-200.000	0.026	0.120
-731.981	800.000	-0.013	-0.044
-730.966	-121.588	-0.288	0.048
-729.952	51.336	-0.259	-0.249
-728.937	-168.561	-0.279	-0.011
-727.923	-23.791	0.136	0.082
-726.908	-200.000	0.037	-0.232
-725.894	-127.065	-0.241	0.036
-724.879	9.902	0.060	0.046
-723.864	69.594	-0.170	-0.177
-722.850	325.591	-0.178	0.345
-721.835	134.600	-0.103	-0.136
-720.821	-36.597	-0.174	-0.095
-719.806	336.788	-0.226	-0.444
-718.791	38.327	0.224	0.202
-717.777	800.000	0.088	0.345
-716.762	76.793	-0.076	0.081
-715.748	-81.792	-0.428	-0.142
-714.733	159.660	0.180	-0.253
-713.718	-122.266	-0.375	-0.062
-712.704	453.907	0.026	-0.058
-711.689	44.719	-0.104	0.097
-710.675	-200.000	-0.057	0.333
-709.660	757.281	-0.083	0.226
-708.645	-140.766	-0.281	-0.029
-707.631	121.596	0.186	-0.235
-706.616	334.042	0.181	-0.353
-705.602	-15.569	0.176	-0.113
-704.587	800.000	0.088	-0.373
-703.572	-200.000	0.049	-0.493
-702.558	-107.267	-0.188	0.042
-701.543	-170.880	-0.376	-0.013
-700.529	-200.000	-0.002	0.252
-699.514	449.376	0.224	-0.500
-698.499	-68.763	-0.062	-0.024
-697.485	-127.685	-0.123	0.018
-696.470	-200.000	-0.032	-0.541
-695.456	-134.556	0.111	-0.014
-694.441	-94.400	0.194	0.053
-693.426	-200.000	-0.001	-0.038
-692.412	-135.299	0.018	-0.002
-691.397	-200.000	-0.030	0.151
-690.383	-187.046	-0.389	0.005
-689.368	-200.000	-0.002	0.132
-688.354	-200.000	0.004	0.353
-687.339	800.000	0.114	-0.325
-686.324	-200.000	-0.012	0.340
-685.310	69.595	-0.246	0.256
-684.295	-34.016	-0.183	0.102
-683.281	800.000	0.011	0.029
-682.266	126.151	0.182	0.232
-681.251	-127.258	-0.197	-0.029
-680.237	486.773	0.035	0.081
-679.222	50.126	-0.225	-0.214
-678.208	497.785	-0.097	-0.225
-677.193	-27.286	0.264	-0.155
-676.178	11.588	-0.208	0.161
-675.164	-55.113	-0.275	-0.125
-674.149	546.018	0.129	-0.311
-673.135	151.610	0.054	0.075
-672.120	98.775	-0.113	-0.131
-671.105	27.140	-0.035	0.030
-670.091	-8.524	0.087	0.059
-669.076	-85.747	-0.245	0.077
-668.062	800.000	0.030	0.089
-667.047	82.941	0.115	-0.126
-666.032	322.429	-0.291	0.559
-665.018	54.139	-0.159	0.154
-664.003	-200.000	-0.008	-0.192
-662.989	-13.486	-0.034	0.022
-661.974	-48.947	0.199	-0.096
-660.959	-200.000	-0.004	-0.156
-659.945	-200.000	-0.056	-0.246
-658.930	-200.000	-0.010	0.099
-657.916	129.086	-0.091	0.117
-656.901	-200.000	-0.004	-0.178
-655.886	-160.867	-0.230	-0.012
-654.872	-35.856	0.233	-0.127
-653.857	-116.809	0.110	0.020
-652.843	800.000	0.063	-0.202
-651.828	212.251	0.106	0.168
-650.814	26.664	-0.291	-0.246
-649.799	-44.533	-0.245	0.124
-648.784	800.000	-0.029	-0.105
-647.770	-200.000	0.023	0.180
-646.755	347.193	0.058	0.116
-645.741	94.319	-0.045	0.052
-644.726	-88.335	0.189	0.057
-643.711	-111.532	-0.270	0.055
-642.697	-200.000	0.077	-0.665
-641.682	-105.937	-0.305	-0.069
-640.668	-200.000	0.000	-0.078
-639.653	-57.869	-0.120	0.053
-638.638	716.745	-0.005	-0.012
-637.624	445.461	-0.085	-0.187
-636.609	237.178	0.094	-0.156
-635.595	-58.323	-0.166	-0.073
-634.580	74.607	0.248	0.263
-633.565	-150.295	-0.153	0.012
-632.551	800.000	-0.046	0.195
-631.536	-105.894	0.029	-0.007
-630.522	19.260	-0.068	-0.055
-629.507	606.831	0.081	-0.204
-628.492	93.170	0.213	-0.242
-627.478	40.765	0.189	-0.171
-626.463	-200.000	0.033	0.234
-625.449	-200.000	-0.036	-0.273
-624.434	800.000	-0.072	-0.257
-623.419	800.000	-0.070	0.250
-622.405	-117.263	0.129	0.024
-621.390	-26.627	0.148	0.087
-620.376	-73.601	-0.259	0.095
-619.361	532.973	-0.138	-0.330
-618.346	800.000	-0.092	0.324
-617.332	17.325	-0.220	-0.176
-616.317	154.532	0.101	-0.140
-615.303	-200.000	0.001	0.037
-614.288	800.000	-0.051	-0.166
-613.273	242.751	-0.134	0.225
-612.259	-200.000	-0.024	-0.162
-611.244	-200.000	0.071	-0.323
-610.230	67.949	-0.088	-0.091
-609.215	-54.601	0.063	-0.029
-608.201	796.080	-0.073	-0.203
-607.186	-200.000	-0.005	-0.318
-606.171	795.688	-0.188	-0.520
-605.157	-8.458	-0.285	-0.193
-604.142	28.713	-0.154	-0.131
-603.128	800.000	0.018	-0.065
-602.113	-86.365	-0.033	0.010
-601.098	224.640	0.154	0.251
-600.084	-116.226	-0.398	-0.074
-599.069	-38.351	0.050	0.027
-598.055	110.114	-0.273	0.329
-597.040	-108.225	-0.295	-0.064
-596.025	-73.780	0.127	-0.046
-595.011	61.910	0.269	-0.270
-593.996	-101.121	0.240	0.059
-592.982	51.491	0.052	-0.049
-591.967	98.123	0.169	0.196
-590.952	377.310	0.016	-0.032
-589.938	188.211	-0.076	-0.114
-588.923	199.315	0.174	-0.269
-587.909	369.399	0.039	-0.079
-586.894	235.063	-0.130	-0.216
-585.879	-6.408	0.169	-0.116
-584.865	-110.740	-0.181	0.038
-583.850	-200.000	-0.118	-0.531
-582.836	-200.000	-0.031	-0.206
-581.821	-150.779	0.145	-0.011
-580.806	602.498	-0.034	-0.085
-579.792	-135.405	0.178	0.021
-578.777	800.000	0.048	0.152
-577.763	24.927	0.141	-0.118
-576.748	249.284	-0.028	0.049
-575.733	-51.739	0.161	0.075
-574.719	68.386	0.121	0.124
-573.704	47.475	-0.185	0.173
-572.690	-200.000	0.001	-0.025
-571.675	-84.321	-0.062	-0.020
-570.661	213.503	-0.261	0.415
-569.646	-33.428	-0.260	-0.144
-568.631	-13.706	0.055	-0.036
-567.617	85.794	-0.118	-0.130
-566.602	-47.600	-0.148	0.072
-565.588	-200.000	-0.037	-0.443
-564.573	-56.043	0.068	-0.030
-563.558	-122.506	-0.151	-0.025
-562.544	6.762	0.078	0.058
-561.529	800.000	0.072	0.257
-560.515	727.815	0.053	0.141
-559.500	800.000	0.027	0.094
-558.485	800.000	-0.037	-0.111
-557.471	-45.403	-0.255	0.127
-556.456	16.091	-0.273	0.216
-555.442	-87.208	0.122	-0.037
-554.427	589.047	0.130	-0.322
-553.412	640.500	-0.116	0.297
-552.398	-95.858	0.110	-0.029
-551.383	-56.426	-0.338	0.151
-550.369	-116.393	0.278	-0.052
-549.354	49.970	0.134	-0.127
-548.339	396.062	0.046	-0.096
-547.325	447.192	0.076	0.167
-546.310	-33.713	0.400	0.222
-545.296	404.125	0.125	-0.263
-544.281	185.090	-0.268	-0.399
-543.266	-200.000	-0.022	-0.197
-542.252	-80.830	0.567	0.189
-541.237	9.036	-0.225	0.171
-540.223	-27.359	0.250	-0.146
-539.208	116.250	0.271	0.334
-538.193	-200.000	-0.017	-0.124
-537.179	-200.000	0.029	0.305
-536.164	431.502	0.069	0.151
-535.150	744.659	0.009	0.024
-534.135	9.867	-0.197	0.150
-533.121	133.739	-0.077	-0.100
-532.106	-200.000	0.020	0.289
-531.091	-57.253	0.184	-0.081
-530.077	298.437	0.136	-0.250
-529.062	-200.000	-0.019	-0.172
-528.048	-179.439	0.111	-0.002
-527.033	800.000	-0.075	-0.218
-526.018	-61.313	0.146	-0.062
-525.004	-135.432	0.035	-0.004
-523.989	-200.000	0.045	-0.211
-522.975	-126.675	-0.324	0.048
-521.960	28.543	0.183	-0.156
-520.945	4.755	-0.056	0.041
-519.931	-148.310	0.303	-0.025
-518.916	180.487	0.121	0.179
-517.902	-79.891	0.277	-0.093
-516.887	-48.331	0.096	0.046
-515.872	-98.204	-0.201	-0.052
-514.858	56.582	-0.156	0.153
-513.843	-120.936	0.159	-0.027
-512.829	-200.000	0.002	0.122
-511.814	-96.822	0.193	-0.051
-510.799	-200.000	0.003	-0.355
-509.785	-79.822	0.094	0.032
-508.770	-200.000	0.055	0.389
-507.756	84.368	0.147	-0.161
-506.741	-200.000	-0.001	-0.214
-505.726	332.610	0.145	-0.281
-504.712	611.381	0.127	-0.318
-503.697	-143.211	0.228	-0.022
-502.683	-40.767	-0.111	0.058
-501.668	-7.549	-0.125	-0.085
-500.653	-130.241	-0.680	-0.093
-499.639	-200.000	-0.012	0.387
-498.624	84.360	0.076	-0.084
-497.610	228.135	-0.179	-0.293
-496.595	-32.560	0.155	-0.087
-495.581	800.000	0.147	-0.505
-494.566	-200.000	0.017	-0.083
-493.551	217.609	-0.049	-0.078
-492.537	-200.000	0.089	-0.445
-491.522	-151.465	0.019	0.001
-490.508	90.806	-0.058	0.066
-489.493	-109.405	0.379	-0.080
-488.478	362.588	0.148	-0.298
-487.464	-25.093	-0.092	0.055
-486.449	-1.628	-0.096	0.068
-485.435	519.695	-0.049	0.115
-484.420	-200.000	0.004	-0.361
-483.405	-200.000	0.004	0.261
-482.391	424.498	-0.096	-0.208
-481.376	-59.106	-0.084	-0.036
-480.362	194.229	-0.102	-0.154
-479.347	-200.000	-0.052	0.257
-478.332	64.941	-0.098	0.099
-477.318	47.895	-0.178	0.167
-476.303	278.991	-0.077	0.137
-475.289	-120.323	0.045	0.008
-474.274	55.695	0.172	-0.167
-473.259	-105.251	-0.211	0.048
-472.245	211.346	0.232	0.366
-471.230	-38.301	-0.232	0.123
-470.216	522.178	-0.051	0.119
-469.201	-200.000	-0.032	0.184
-468.186	666.646	0.162	0.418
-467.172	800.000	0.048	0.145
-466.157	800.000	-0.085	-0.240
-465.143	-29.794	-0.122	0.070
-464.128	8.295	0.413	0.310
-463.113	-200.000	0.018	-0.201
-462.099	-63.557	0.170	-0.070
-461.084	-200.000	-0.035	0.231
-460.070	-132.214	-0.202	0.026
-459.055	-99.018	-0.157	0.040
-458.040	-111.058	0.215	0.044
-457.026	800.000	0.102	-0.367
-456.011	800.000	-0.011	-0.037
-454.997	-83.822	0.258	0.082
-453.982	-134.093	-0.188	-0.023
-452.968	-45.202	-0.290	-0.144
-451.953	223.383	0.166	-0.268
-450.938	398.423	-0.136	0.285
-449.924	100.063	0.162	0.187
-448.909	70.642	0.278	-0.287
-447.895	0.893	0.134	0.096
-446.880	207.846	-0.022	0.034
-445.865	-46.180	-0.035	-0.017
-444.851	62.102	-0.162	0.162
-443.836	-63.119	0.013	0.005
-442.822	-156.676	0.171	0.011
-441.807	55.186	-0.141	0.136
-440.792	45.571	0.168	0.155
-439.778	551.025	0.028	-0.066
-438.763	21.183	-0.253	0.205
-437.749	182.337	-0.178	-0.262
-436.734	-19.611	0.058	-0.036
-435.719	525.411	-0.016	-0.038
-434.705	-200.000	0.047	-0.382
-433.690	-200.000	0.000	-0.264
-432.676	212.277	0.075	-0.117
-431.661	-200.000	0.014	0.145
-430.646	404.255	-0.024	0.051
-429.632	-70.023	-0.112	0.043
-428.617	-107.819	0.296	-0.065
-427.603	159.600	-0.097	-0.135
-426.588	-14.155	0.268	-0.173
-425.573	413.971	0.116	0.246
-424.559	92.999	0.028	-0.032
-423.544	-200.000	-0.046	-0.235
-422.530	-24.868	0.095	0.056
-421.515	-155.873	-0.266	0.017
-420.500	-100.911	-0.143	0.035
-419.486	-55.415	0.064	0.029
-418.471	389.032	-0.169	-0.349
-417.457	-39.558	0.209	0.109
-416.442	347.179	0.105	0.206
-415.428	-38.872	-0.243	0.128
-414.413	577.928	-0.104	-0.253
-413.398	-200.000	0.043	-0.360
-412.384	-168.863	0.282	0.011
-411.369	800.000	0.102	0.325
-410.355	220.726	-0.034	-0.055
-409.340	314.588	-0.083	0.156
-408.325	25.431	-0.115	-0.096
-407.311	-119.764	-0.173	-0.030
-406.296	432.004	0.056	-0.122
-405.282	-110.087	-0.150	0.031
-404.267	54.674	-0.373	-0.359
-403.252	-21.817	-0.165	0.100
-402.238	-22.102	-0.220	0.134
-401.223	-150.616	0.432	0.033
-400.209	557.750	-0.107	0.257
-399.194	-1.966	-0.055	-0.038
-398.179	164.420	0.137	-0.193
-397.165	800.000	0.078	0.242
-396.150	281.542	-0.031	-0.055
-395.136	800.000	0.055	-0.220
-394.121	34.217	-0.153	-0.133
-393.106	96.332	0.236	0.270
-392.092	-200.000	0.020	0.247
-391.077	60.563	0.193	0.191
-390.063	7.194	0.040	-0.030
-389.048	-200.000	0.002	0.114
-388.033	130.329	-0.157	0.200
-387.019	-86.667	-0.172	0.053
-386.004	800.000	-0.049	0.189
-384.990	-200.000	-0.045	-0.367
-383.975	-20.313	-0.259	-0.159
-382.960	-165.329	0.109	0.005
-381.946	68.105	-0.079	0.080
-380.931	-200.000	0.037	-0.563
-379.917	800.000	0.011	0.035
-378.902	-200.000	-0.028	0.396
-377.888	144.740	-0.178	-0.237
-376.873	21.759	-0.153	-0.124
-375.858	-47.027	-0.166	0.081
-374.844	579.386	0.175	0.428
-373.829	27.972	0.123	0.104
-372.815	-30.383	0.245	0.139
-371.800	38.522	0.271	0.241
-370.785	800.000	0.049	-0.210
-369.771	75.788	-0.091	0.096
-368.756	162.347	-0.219	0.306
-367.742	738.027	-0.053	-0.143
-366.727	-19.230	-0.271	0.168
-365.712	7.583	0.218	0.163
-364.698	103.914	-0.212	0.248
-363.683	-200.000	0.008	-0.078
-362.669	196.809	-0.062	-0.094
-361.654	132.962	-0.317	-0.408
-360.639	-40.163	0.294	-0.152
-359.625	-54.828	0.075	0.034
-358.610	66.315	-0.091	-0.092
-357.596	-58.563	0.173	0.075
-356.581	-194.280	-0.227	0.002
-355.566	134.717	0.140	-0.181
-354.552	-31.141	0.197	-0.111
-353.537	-6.770	-0.286	-0.194
-352.523	-137.083	-0.116	0.013
-351.508	171.959	-0.161	-0.231
-350.493	-166.066	0.379	0.016
-349.479	-75.434	-0.129	0.046
-348.464	-200.000	0.029	0.194
-347.450	38.721	0.444	0.395
-346.435	-31.902	0.142	0.079
-345.420	206.035	-0.030	-0.047
-344.406	-12.407	0.142	0.092
-343.391	-35.333	0.031	0.017
-342.377	-128.203	-0.438	-0.062
-341.362	67.086	0.133	0.135
-340.348	-200.000	0.003	0.026
-339.333	113.972	-0.218	-0.264
-338.318	444.374	0.067	0.147
-337.304	292.623	-0.017	0.030
-336.289	18.757	-0.027	-0.021
-335.275	-11.398	0.323	0.212
-334.260	-106.615	0.328	0.073
-333.245	800.000	0.074	0.310
-332.231	-121.942	-0.135	-0.022
-331.216	-33.365	0.150	0.083
-330.202	168.161	0.178	0.252
-329.187	-55.229	0.086	0.038
-328.172	-91.767	-0.312	-0.088
-327.158	-174.730	0.045	0.001
-326.143	-75.604	0.217	0.077
-325.129	-37.146	0.242	0.129
-324.114	501.851	-0.031	-0.072
-323.099	-88.995	-0.331	0.098
-322.085	742.855	-0.167	0.448
-321.070	-94.718	-0.078	0.021
-320.056	102.264	-0.135	0.157
-319.041	436.724	0.051	-0.111
-318.026	-200.000	-0.077	-0.343
-317.012	64.513	-0.110	-0.110
-315.997	-132.109	-0.371	0.048
-314.983	-200.000	0.001	0.277
-313.968	-120.938	-0.149	0.025
-312.953	800.000	0.028	-0.109
-311.939	-120.999	-0.098	-0.016
-310.924	-200.000	-0.032	0.231
-309.910	800.000	0.085	-0.361
-308.895	91.238	0.033	0.036
-307.880	140.898	0.338	0.445
-306.866	800.000	-0.079	0.228
-305.851	-200.000	0.017	-0.349
-304.837	44.072	-0.121	-0.110
-303.822	52.142	0.150	-0.142
-302.807	50.972	-0.194	-0.183
-301.793	-200.000	-0.049	0.297
-300.778	-138.315	0.276	0.030
-299.764	55.693	0.198	-0.191
-298.749	1.596	0.233	-0.167
-297.735	-200.000	0.087	0.540
-296.720	82.625	-0.171	-0.184
-295.705	-178.510	0.217	-0.005
-294.691	-128.776	0.142	-0.020
-293.676	50.343	-0.173	0.163
-292.662	-129.807	-0.336	-0.046
-291.647	125.980	0.145	-0.183
-290.632	-107.919	-0.355	-0.077
-289.618	800.000	-0.027	-0.093
-288.603	457.583	0.069	0.152
-287.589	-145.286	-0.233	0.021
-286.574	800.000	-0.124	0.355
-285.559	89.339	-0.191	0.212
-284.545	54.788	0.186	0.178
-283.530	800.000	0.091	-0.277
-282.516	-200.000	-0.140	-0.000
-281.501	252.932	-0.080	0.135
-280.486	-99.919	0.189	-0.047
-279.472	252.610	-0.091	-0.155
-278.457	-11.480	0.403	-0.263
-277.443	166.180	0.045	0.064
-276.428	25.302	-0.161	-0.133
-275.413	-153.902	0.209	-0.014
-274.399	-116.345	-0.192	0.035
-273.384	-200.000	-0.015	0.441
-272.370	800.000	-0.024	-0.081
-271.355	-156.127	0.225	0.014
-270.340	800.000	0.039	-0.135
-269.326	-66.077	0.218	-0.086
-268.311	601.180	0.185	0.457
-267.297	268.698	0.029	0.050
-266.282	24.687	-0.322	-0.265
-265.267	402.583	-0.172	0.360
-264.253	41.336	-0.179	0.161
-263.238	-31.775	-0.358	0.199
-262.224	-107.402	-0.175	-0.038
-261.209	800.000	-0.043	0.125
-260.195	-75.295	0.169	0.060
-259.180	-200.000	0.054	-0.270
-258.165	-200.000	-0.009	0.090
-257.151	-65.429	0.211	0.084
-256.136	249.625	-0.131	-0.220
-255.122	-200.000	-0.014	-0.218
-254.107	-200.000	0.003	-0.020
-253.092	-200.000	0.014	0.078
-252.078	556.434	-0.173	0.414
-251.063	-72.508	0.214	-0.079
-250.049	-200.000	0.009	-0.305
-249.034	-200.000	0.012	-0.066
-248.019	572.378	0.069	0.167
-247.005	-200.000	0.098	0.517
-245.990	-103.177	0.542	0.127
-244.976	-158.703	-0.249	-0.014
-243.961	800.000	-0.108	0.303
-242.946	784.312	-0.014	-0.037
-241.932	800.000	-0.098	0.379
-240.917	800.000	-0.056	0.176
-239.903	-200.000	0.001	-0.394
-238.888	59.270	-0.157	-0.154
-237.873	118.292	-0.103	0.126
-236.859	-200.000	0.025	0.431
-235.844	-127.046	-0.364	-0.053
-234.830	90.072	-0.196	-0.217
-233.815	258.587	0.099	0.168
-232.800	-91.162	0.258	0.073
-231.786	-83.463	-0.258	-0.082
-230.771	-112.848	-0.116	0.023
-229.757	40.783	0.266	0.238
-228.742	-76.977	-0.068	-0.024
-227.727	50.584	-0.160	-0.151
-226.713	-122.561	-0.036	-0.006
-225.698	-13.319	-0.088	-0.056
-224.684	10.138	0.050	-0.038
-223.669	88.805	0.073	-0.080
-222.655	-44.197	-0.176	0.087
-221.640	0.319	0.185	-0.131
-220.625	-67.566	0.012	0.005
-219.611	223.757	-0.070	-0.113
-218.596	800.000	-0.087	-0.284
-217.582	-200.000	0.002	0.093
-216.567	-200.000	0.070	0.313
-215.552	-140.774	0.150	0.015
-214.538	-10.432	0.281	0.184
-213.523	5.370	0.088	-0.064
-212.509	-117.533	-0.110	0.020
-211.494	12.799	-0.024	0.019
-210.479	-135.371	-0.042	-0.005
-209.465	-106.296	-0.258	-0.057
-208.450	-180.181	0.166	0.003
-207.436	-200.000	-0.031	0.270
-206.421	-27.066	-0.179	0.104
-205.406	141.696	-0.099	0.130
-204.392	-63.992	-0.140	0.057
-203.377	132.286	0.236	0.301
-202.363	350.405	-0.030	0.059
-201.348	-200.000	-0.014	-0.164
-200.333	69.584	-0.271	0.277
-199.319	-158.012	0.288	-0.017
-198.304	800.000	0.089	-0.294
-197.290	52.383	0.185	0.175
-196.275	-200.000	-0.001	-0.090
-195.260	-19.640	-0.243	0.149
-194.246	80.730	-0.061	-0.065
-193.231	-200.000	0.003	0.155
-192.217	-115.180	0.225	0.042
-191.202	800.000	-0.102	0.359
-190.187	167.302	0.128	0.180
-189.173	-200.000	-0.003	0.098
-188.158	84.125	-0.115	0.124
-187.144	-60.917	-0.315	-0.132
-186.129	475.898	0.058	-0.129
-185.114	310.064	0.140	0.259
-184.100	127.753	0.216	-0.271
-183.085	-71.811	-0.185	-0.068
-182.071	501.000	-0.097	-0.221
-181.056	2.053	0.061	0.044
-180.042	38.830	0.093	-0.082
-179.027	-2.928	0.218	0.151
-178.012	-75.895	-0.193	0.068
-176.998	-85.127	0.150	-0.046
-175.983	-5.449	-0.035	-0.024
-174.969	321.699	0.043	0.081
-173.954	88.277	-0.082	0.090
-172.939	288.473	0.030	-0.054
-171.925	18.775	0.324	-0.257
-170.910	116.414	0.115	-0.139
-169.896	-50.113	0.319	-0.149
-168.881	207.969	0.132	-0.204
-167.866	-128.077	0.068	0.010
-166.852	20.734	-0.223	0.178
-165.837	-200.000	0.010	0.138
-164.823	-100.663	0.106	-0.026
-163.808	800.000	0.157	-0.496
-162.793	215.737	-0.179	0.282
-161.779	800.000	-0.041	-0.116
-160.764	508.172	0.038	0.087
-159.750	-55.819	-0.076	-0.034
-158.735	800.000	-0.131	-0.361
-157.720	-117.611	-0.124	-0.022
-156.706	-200.000	0.032	0.265
-155.691	-9.244	-0.068	0.045
-154.677	-1.738	0.195	0.136
-153.662	-96.379	0.161	0.042
-152.647	174.719	0.058	-0.084
-151.633	-121.643	0.089	-0.015
-150.618	800.000	0.006	-0.019
-149.604	105.700	-0.136	0.159
-148.589	129.124	0.097	0.123
-147.574	-75.206	-0.095	-0.033
-146.560	457.315	-0.073	-0.161
-145.545	-73.405	0.269	-0.097
-144.531	-40.776	0.218	0.112
-143.516	196.149	-0.146	0.220
-142.502	239.749	-0.102	-0.167
-141.487	-1.310	0.226	0.157
-140.472	-43.385	0.346	0.173
-139.458	-104.441	-0.140	0.032
-138.443	-39.968	-0.179	0.092
-137.429	-74.057	-0.048	0.017
-136.414	211.968	0.264	0.411
-135.399	328.632	0.007	-0.013
-134.385	125.512	-0.025	-0.032
-133.370	-67.621	-0.110	-0.043
-132.356	223.628	-0.135	0.216
-131.341	-21.501	-0.209	-0.126
-130.326	800.000	-0.114	0.311
-129.312	3.194	-0.448	0.322
-128.297	91.060	-0.137	0.152
-127.283	-89.993	0.298	0.086
-126.268	-200.000	-0.027	0.129
-125.253	168.542	0.142	-0.201
-124.239	-126.259	-0.321	0.047
-123.224	-11.911	-0.174	-0.113
-122.210	-61.250	0.075	-0.031
-121.195	-200.000	0.059	-0.327
