DTS Sentinel unit serial number:	SN413079Multiplexer serial number:	ORYXHardware model number:	OX4-SRSoftware version number:	ORYX F/W v4.00 Oryx Data Collector v3.7.2.0data status	okinstallation	princeton_trtdifferential loss correction	single-endedforward channel	channel 4reverse channel	N/Adate	2019/09/18time	07:45:34forward acquisition time	60.00reverse acquisition time	0.00gamma	496.2192k internal	0.2333k external	0.2333temperature offset calibration	0.9992default loss term (dB/km)	0.3790temperature slope calibration	1.0000multiplexer offset coefficient	1.0000multiplexer slope coefficient	1.0000fibre end	0.00T internal ref (°C)	23.31T ext. ref 1 (°C)	0.20T ext. ref 2 (°C)	18.49length (m)	temperature (°C)	Stokes	anti-Stokes-747.200	-133.356	-0.226	0.029
-746.185	66.846	-0.227	0.232
-745.171	-49.072	0.019	0.009
-744.156	33.506	0.078	0.068
-743.142	255.907	0.191	-0.329
-742.127	186.223	0.044	0.065
-741.112	-200.000	-0.008	0.086
-740.098	800.000	-0.093	0.364
-739.083	268.933	-0.145	-0.256
-738.069	-200.000	-0.005	-0.079
-737.054	-35.260	-0.252	0.138
-736.039	106.621	-0.070	-0.083
-735.025	-22.899	0.126	-0.076
-734.010	-156.026	-0.170	-0.011
-732.996	-111.954	0.228	0.046
-731.981	-101.023	0.097	-0.024
-730.966	110.129	-0.126	-0.152
-729.952	-13.224	-0.328	-0.214
-728.937	198.181	0.075	-0.116
-727.923	-24.025	-0.244	-0.147
-726.908	-140.820	-0.305	0.032
-725.894	800.000	0.122	-0.427
-724.879	-190.461	-0.118	-0.001
-723.864	-122.846	-0.311	0.050
-722.850	-200.000	-0.006	-0.032
-721.835	-43.200	-0.117	0.059
-720.821	-129.542	-0.222	0.031
-719.806	-52.607	-0.171	0.079
-718.791	184.842	-0.082	0.122
-717.777	-200.000	0.000	0.047
-716.762	-108.261	-0.081	0.018
-715.748	182.180	-0.133	-0.197
-714.733	-81.691	0.455	-0.150
-713.718	-35.101	-0.465	-0.255
-712.704	139.327	-0.087	0.114
-711.689	-124.185	-0.040	-0.006
-710.675	-114.352	-0.166	0.032
-709.660	195.312	-0.076	-0.116
-708.645	800.000	-0.059	-0.225
-707.631	38.885	0.092	-0.082
-706.616	63.011	-0.100	0.100
-705.602	-132.271	0.175	0.023
-704.587	-200.000	-0.007	0.034
-703.572	-200.000	-0.105	-0.471
-702.558	-21.140	0.094	0.058
-701.543	34.113	-0.114	0.100
-700.529	-200.000	0.004	-0.144
-699.514	384.329	-0.094	-0.194
-698.499	-65.862	0.232	-0.093
-697.485	800.000	0.130	-0.391
-696.470	-200.000	-0.027	0.132
-695.456	-135.489	0.067	0.008
-694.441	17.165	-0.241	-0.191
-693.426	-53.965	-0.085	0.039
-692.412	84.697	-0.076	-0.084
-691.397	-200.000	-0.013	-0.122
-690.383	-200.000	0.002	-0.044
-689.368	-54.954	0.168	-0.076
-688.354	800.000	0.064	-0.184
-687.339	-118.502	-0.251	-0.045
-686.324	-125.055	-0.074	0.011
-685.310	-36.745	-0.148	0.080
-684.295	-69.129	0.208	0.080
-683.281	521.984	-0.161	-0.380
-682.266	239.561	0.212	0.354
-681.251	186.353	-0.048	-0.072
-680.237	-87.866	0.260	-0.079
-679.222	-153.763	0.188	0.013
-678.208	-182.045	-0.185	-0.004
-677.193	47.785	0.117	0.110
-676.178	-68.007	-0.250	-0.098
-675.164	-200.000	0.053	-0.372
-674.149	-28.714	-0.178	0.103
-673.135	8.432	-0.191	0.144
-672.120	119.144	-0.045	0.056
-671.105	-98.235	-0.203	0.052
-670.091	-135.061	-0.263	0.032
-669.076	-200.000	-0.032	-0.367
-668.062	-2.693	-0.065	-0.046
-667.047	-110.411	-0.259	-0.054
-666.032	-87.001	0.315	-0.096
-665.018	-200.000	-0.018	-0.139
-664.003	-131.081	0.088	-0.012
-662.989	-200.000	-0.021	-0.268
-661.974	-200.000	0.022	-0.159
-660.959	412.517	0.119	0.253
-659.945	262.002	-0.156	0.272
-658.930	99.343	0.157	-0.182
-657.916	90.669	-0.076	0.085
-656.901	-59.535	-0.280	-0.121
-655.886	125.485	0.043	-0.054
-654.872	55.872	-0.119	-0.115
-653.857	-69.028	-0.102	0.039
-652.843	-173.399	0.229	-0.007
-651.828	-200.000	-0.056	-0.349
-650.814	800.000	-0.073	-0.321
-649.799	-200.000	0.024	-0.176
-648.784	-99.666	0.165	-0.041
-647.770	-139.429	-0.319	0.034
-646.755	800.000	0.037	0.158
-645.741	-200.000	0.028	-0.298
-644.726	28.376	-0.167	0.141
-643.711	686.317	-0.071	-0.185
-642.697	-105.625	-0.404	0.092
-641.682	-7.446	0.188	-0.127
-640.668	-162.847	0.313	0.015
-639.653	800.000	-0.105	-0.414
-638.638	15.268	-0.078	0.061
-637.624	-17.892	0.192	0.120
-636.609	800.000	-0.026	-0.075
-635.595	8.929	0.111	-0.084
-634.580	54.198	0.128	0.123
-633.565	-156.439	0.062	0.004
-632.551	-59.516	0.433	-0.186
-631.536	-123.586	-0.021	-0.003
-630.522	491.528	-0.088	-0.202
-629.507	-79.560	-0.204	0.069
-628.492	800.000	0.047	0.205
-627.478	22.216	-0.278	0.227
-626.463	-86.908	-0.080	-0.024
-625.449	49.494	0.120	-0.113
-624.434	-200.000	0.054	0.258
-623.419	-200.000	0.052	-0.275
-622.405	-6.396	0.116	0.079
-621.390	800.000	-0.063	0.189
-620.376	-118.434	0.317	0.056
-619.361	-200.000	-0.030	0.288
-618.346	-139.202	0.028	0.003
-617.332	67.863	0.115	0.117
-616.317	-200.000	0.016	-0.141
-615.303	-200.000	0.010	-0.424
-614.288	-30.594	0.191	-0.108
-613.273	-200.000	-0.007	0.093
-612.259	-154.233	0.140	-0.009
-611.244	70.741	0.229	0.238
-610.230	-200.000	-0.006	-0.197
-609.215	-200.000	0.014	0.113
-608.201	-107.759	-0.400	0.087
-607.186	567.669	0.026	-0.062
-606.171	-185.491	-0.203	-0.003
-605.157	60.667	-0.067	-0.066
-604.142	161.624	0.246	-0.344
-603.128	-6.069	0.112	-0.076
-602.113	78.723	0.092	-0.099
-601.098	-200.000	0.041	-0.278
-600.084	159.503	0.187	-0.260
-599.069	521.311	-0.021	-0.050
-598.055	-200.000	0.040	-0.397
-597.040	800.000	-0.033	-0.108
-596.025	800.000	-0.072	-0.237
-595.011	-8.590	-0.207	-0.139
-593.996	63.459	0.176	0.176
-592.982	-13.824	-0.245	0.158
-591.967	744.395	-0.021	-0.057
-590.952	-18.062	0.113	0.071
-589.938	-42.310	0.319	0.163
-588.923	-27.455	0.188	0.109
-587.909	343.790	0.026	-0.052
-586.894	491.292	0.067	-0.154
-585.879	-85.710	0.109	-0.034
-584.865	-93.625	-0.186	0.051
-583.850	-200.000	-0.044	-0.234
-582.836	800.000	-0.034	-0.135
-581.821	171.328	0.132	0.190
-580.806	-23.976	-0.270	-0.161
-579.792	97.528	0.254	-0.291
-578.777	-38.829	-0.066	-0.035
-577.763	6.784	-0.124	-0.092
-576.748	-131.938	-0.204	0.027
-575.733	154.691	-0.113	-0.155
-574.719	-177.774	-0.261	0.006
-573.704	-200.000	0.003	0.079
-572.690	116.373	-0.296	-0.362
-571.675	8.042	0.222	-0.167
-570.661	143.146	0.157	-0.209
-569.646	-190.084	-0.082	0.001
-568.631	2.138	0.083	0.060
-567.617	-105.817	-0.194	-0.044
-566.602	-112.384	-0.146	0.029
-565.588	-23.114	0.128	0.077
-564.573	-200.000	-0.005	-0.295
-563.558	60.884	-0.181	-0.179
-562.544	124.978	0.092	-0.115
-561.529	-200.000	-0.023	-0.345
-560.515	429.831	-0.155	-0.335
-559.500	274.138	0.105	0.186
-558.485	732.481	0.075	-0.200
-557.471	-200.000	0.048	0.356
-556.456	-70.182	-0.446	0.169
-555.442	-200.000	-0.018	0.194
-554.427	105.804	-0.210	0.248
-553.412	-133.383	-0.175	0.022
-552.398	64.809	0.121	0.122
-551.383	-118.828	0.402	0.071
-550.369	-105.307	-0.135	0.031
-549.354	331.376	-0.037	0.071
-548.339	65.387	0.214	0.216
-547.325	-176.282	0.348	0.009
-546.310	29.101	-0.142	-0.120
-545.296	-110.895	-0.265	-0.054
-544.281	17.946	0.141	0.112
-543.266	34.296	0.132	-0.115
-542.252	238.510	-0.104	-0.173
-541.237	800.000	0.046	-0.176
-540.223	106.116	0.142	-0.167
-539.208	-154.382	-0.279	0.019
-538.193	-200.000	0.037	-0.252
-537.179	612.590	-0.020	0.049
-536.164	-120.365	0.199	0.034
-535.150	-74.756	0.271	-0.097
-534.135	-62.164	-0.267	0.111
-533.121	-67.996	-0.047	0.018
-532.106	34.230	-0.228	0.198
-531.091	-200.000	0.022	-0.185
-530.077	57.734	-0.090	-0.088
-529.062	13.817	-0.323	0.250
-528.048	33.016	-0.230	-0.199
-527.033	176.887	0.065	0.094
-526.018	715.632	-0.110	-0.291
-525.004	-200.000	0.038	-0.318
-523.989	369.213	-0.117	0.237
-522.975	-20.309	-0.154	0.094
-521.960	-130.295	0.357	0.048
-520.945	150.058	0.147	-0.199
-519.931	79.492	0.133	-0.142
-518.916	123.761	0.157	0.197
-517.902	345.626	-0.129	0.253
-516.887	48.194	-0.159	0.148
-515.872	-40.143	0.388	0.201
-514.858	800.000	0.050	0.204
-513.843	-43.648	-0.323	0.162
-512.829	48.246	0.096	-0.089
-511.814	80.196	0.157	-0.168
-510.799	-200.000	0.007	0.059
-509.785	684.256	0.101	-0.263
-508.770	-85.344	-0.191	-0.059
-507.756	-106.329	0.315	0.070
-506.741	800.000	0.089	0.267
-505.726	232.309	-0.147	-0.240
-504.712	217.114	-0.065	-0.102
-503.697	800.000	0.022	-0.067
-502.683	-200.000	0.005	-0.237
-501.668	800.000	-0.093	-0.397
-500.653	-106.514	-0.334	-0.074
-499.639	800.000	0.045	-0.191
-498.624	230.412	0.144	-0.234
-497.610	-112.488	-0.085	-0.017
-496.595	-200.000	-0.040	-0.305
-495.581	-21.563	-0.261	0.158
-494.566	9.115	-0.283	0.213
-493.551	-20.723	0.172	-0.105
-492.537	-93.343	0.304	-0.084
-491.522	148.624	-0.059	-0.080
-490.508	-55.004	-0.159	0.071
-489.493	112.716	0.198	0.239
-488.478	-59.809	-0.153	-0.065
-487.464	-39.603	-0.172	0.089
-486.449	-200.000	0.019	-0.172
-485.435	305.912	0.031	0.058
-484.420	0.121	-0.244	-0.173
-483.405	-128.227	0.172	0.025
-482.391	-200.000	0.001	0.079
-481.376	-200.000	0.003	-0.158
-480.362	105.318	-0.102	-0.120
-479.347	83.278	0.186	-0.202
-478.332	-127.266	0.237	-0.034
-477.318	-48.710	-0.088	-0.042
-476.303	-74.298	-0.137	0.049
-475.289	-7.030	0.189	0.128
-474.274	-200.000	0.039	0.264
-473.259	-159.087	-0.255	-0.014
-472.245	-200.000	-0.029	0.156
-471.230	152.929	-0.187	0.254
-470.216	-108.440	-0.208	0.044
-469.201	-200.000	0.000	-0.098
-468.186	-72.866	0.195	0.071
-467.172	57.672	-0.152	-0.147
-466.157	-200.000	-0.040	-0.194
-465.143	-73.562	-0.150	0.054
-464.128	-110.148	-0.044	0.009
-463.113	-34.462	0.191	-0.104
-462.099	359.043	-0.210	-0.417
-461.084	-7.350	-0.214	0.144
-460.070	45.258	-0.296	0.271
-459.055	-26.293	-0.262	0.153
-458.040	-111.304	-0.201	-0.041
-457.026	-182.063	0.398	0.007
-456.011	-200.000	-0.027	-0.309
-454.997	215.494	0.014	0.022
-453.982	-200.000	-0.043	0.256
-452.968	-200.000	-0.026	-0.223
-451.953	370.530	-0.061	0.122
-450.938	83.801	-0.121	-0.131
-449.924	192.993	-0.154	0.231
-448.909	127.556	-0.124	0.157
-447.895	-200.000	-0.020	0.206
-446.880	66.455	-0.297	0.300
-445.865	-12.303	-0.181	-0.117
-444.851	-2.317	-0.091	-0.063
-443.836	17.585	-0.177	-0.140
-442.822	188.594	-0.187	0.277
-441.807	288.714	0.028	-0.051
-440.792	800.000	-0.033	0.138
-439.778	-30.228	-0.361	-0.204
-438.763	262.866	0.074	-0.128
-437.749	-12.979	0.193	0.125
-436.734	-59.319	0.364	0.156
-435.719	800.000	-0.049	-0.210
-434.705	-108.771	0.051	-0.011
-433.690	181.697	-0.116	0.170
-432.676	101.024	-0.046	0.054
-431.661	163.251	-0.028	0.039
-430.646	-129.427	0.221	-0.030
-429.632	-47.502	-0.025	-0.012
-428.617	-138.852	-0.205	0.022
-427.603	-94.561	-0.294	0.080
-426.588	-20.847	0.388	-0.236
-425.573	-90.535	0.110	-0.032
-424.559	-200.000	0.015	0.297
-423.544	365.793	-0.021	0.042
-422.530	-200.000	0.004	-0.146
-421.515	-96.595	-0.179	0.047
-420.500	284.704	0.037	0.067
-419.486	-24.811	-0.147	-0.087
-418.471	286.513	0.116	-0.208
-417.457	-6.834	0.133	-0.090
-416.442	50.864	-0.088	0.083
-415.428	-112.940	-0.136	-0.027
-414.413	-77.246	0.108	0.037
-413.398	-200.000	-0.065	-0.315
-412.384	-40.471	-0.091	0.047
-411.369	-139.721	0.202	-0.021
-410.355	-200.000	-0.038	0.435
-409.340	534.765	0.096	0.226
-408.325	-155.582	0.238	-0.015
-407.311	261.978	0.019	-0.033
-406.296	-200.000	-0.054	-0.283
-405.282	-94.211	0.185	-0.050
-404.267	48.016	0.106	0.099
-403.252	655.843	-0.044	0.112
-402.238	800.000	-0.012	0.038
-401.223	-200.000	0.028	0.270
-400.209	438.186	-0.131	0.283
-399.194	159.412	-0.146	0.202
-398.179	-200.000	-0.003	0.118
-397.165	384.829	-0.021	0.042
-396.150	114.102	0.024	0.029
-395.136	4.010	-0.119	-0.086
-394.121	106.314	-0.012	0.015
-393.106	-125.491	-0.262	0.040
-392.092	-111.833	0.222	-0.045
-391.077	-200.000	0.008	-0.130
-390.063	73.983	-0.157	-0.164
-389.048	-200.000	-0.014	0.074
-388.033	797.094	0.115	-0.315
-387.019	-200.000	-0.008	0.164
-386.004	-103.654	0.144	-0.033
-384.990	800.000	-0.041	-0.175
-383.975	-172.861	0.078	0.002
-382.960	-46.152	-0.108	0.053
-381.946	-200.000	-0.001	0.015
-380.931	451.495	-0.138	-0.302
-379.917	-109.374	0.067	0.014
-378.902	-200.000	-0.014	0.350
-377.888	38.935	-0.256	0.227
-376.873	189.438	-0.142	0.211
-375.858	-167.092	0.278	-0.011
-374.844	-59.619	0.129	0.055
-373.829	-78.629	0.215	-0.073
-372.815	-55.131	-0.194	-0.087
-371.800	557.169	0.055	0.133
-370.785	77.838	0.078	0.082
-369.771	-5.691	0.084	0.057
-368.756	282.866	-0.131	0.232
-367.742	775.877	-0.085	0.230
-366.727	-40.504	-0.247	-0.127
-365.712	-46.110	-0.101	-0.049
-364.698	26.912	0.154	-0.128
-363.683	497.689	0.037	-0.084
-362.669	-200.000	0.014	-0.145
-361.654	581.599	0.114	0.277
-360.639	153.011	0.125	0.169
-359.625	194.633	-0.068	-0.101
-358.610	153.577	-0.090	0.122
-357.596	220.233	-0.164	-0.260
-356.581	-200.000	-0.027	-0.281
-355.566	460.605	0.054	-0.119
-354.552	5.815	0.065	-0.047
-353.537	-32.047	-0.085	0.047
-352.523	-200.000	-0.005	0.053
-351.508	181.392	0.140	0.204
-350.493	-38.546	-0.220	-0.115
-349.479	-200.000	0.083	-0.449
-348.464	207.402	0.041	-0.064
-347.450	-108.302	-0.236	0.050
-346.435	22.739	0.101	0.082
-345.420	-77.348	-0.070	0.024
-344.406	-168.488	-0.438	-0.017
-343.391	-119.686	-0.202	-0.034
-342.377	115.448	-0.166	-0.201
-341.362	-200.000	0.011	0.063
-340.348	-200.000	-0.009	-0.204
-339.333	126.059	0.153	0.191
-338.318	-130.047	-0.041	0.006
-337.304	800.000	-0.019	-0.058
-336.289	144.212	-0.170	0.224
-335.275	91.505	-0.335	-0.372
-334.260	-114.440	0.222	-0.042
-333.245	-148.515	-0.259	0.021
-332.231	-140.022	0.403	-0.042
-331.216	-40.762	0.231	-0.118
-330.202	-50.068	0.229	0.107
-329.187	16.894	0.135	-0.105
-328.172	38.657	-0.500	0.441
-327.158	-200.000	0.017	0.207
-326.143	-175.394	0.220	0.006
-325.129	113.114	0.194	0.232
-324.114	-20.297	0.134	0.082
-323.099	800.000	-0.053	0.162
-322.085	-43.225	0.019	-0.010
-321.070	-6.614	-0.250	-0.168
-320.056	39.457	-0.441	-0.391
-319.041	533.206	0.031	0.073
-318.026	716.608	0.060	-0.157
-317.012	-80.663	0.234	0.077
-315.997	154.476	0.237	-0.321
-314.983	193.540	0.215	-0.321
-313.968	13.272	0.125	0.096
-312.953	-120.542	-0.030	0.005
-311.939	115.852	0.343	0.415
-310.924	-149.052	-0.081	-0.006
-309.910	549.008	-0.100	0.236
-308.895	156.819	-0.049	0.067
-307.880	-104.179	0.082	-0.019
-306.866	25.329	-0.154	-0.126
-305.851	249.511	0.144	0.242
-304.837	50.432	-0.282	0.263
-303.822	-148.574	-0.195	-0.016
-302.807	800.000	0.053	0.162
-301.793	-149.185	0.384	0.030
-300.778	224.870	-0.125	0.200
-299.764	-81.677	0.171	0.056
-298.749	-200.000	-0.067	-0.337
-297.735	-133.210	0.419	-0.052
-296.720	-167.544	0.242	0.010
-295.705	94.686	0.125	0.141
-294.691	195.160	0.034	-0.052
-293.676	160.348	0.117	-0.162
-292.662	132.195	0.110	-0.141
-291.647	-79.865	0.131	-0.044
-290.632	-200.000	0.003	-0.029
-289.618	-200.000	0.069	0.322
-288.603	600.334	0.049	-0.120
-287.589	-78.045	-0.179	0.061
-286.574	37.270	-0.152	0.133
-285.559	800.000	0.013	0.042
-284.545	-194.287	-0.087	-0.001
-283.530	-105.134	0.487	0.110
-282.516	-200.000	0.048	-0.360
-281.501	276.320	-0.152	-0.267
-280.486	-50.373	-0.038	0.018
-279.472	-200.000	0.044	0.284
-278.457	-22.825	-0.122	0.073
-277.443	34.056	0.272	0.234
-276.428	251.938	0.243	-0.408
-275.413	207.865	0.229	0.352
-274.399	-105.394	-0.148	0.033
-273.384	-120.660	-0.308	-0.051
-272.370	8.994	-0.120	0.089
-271.355	-144.059	-0.301	0.028
-270.340	-114.203	-0.370	0.071
-269.326	-86.658	-0.057	0.017
-268.311	-200.000	0.014	0.159
-267.297	5.380	0.075	-0.055
-266.282	79.238	0.059	0.062
-265.267	-35.702	-0.109	-0.058
-264.253	-200.000	-0.051	0.315
-263.238	-2.365	-0.222	0.154
-262.224	293.486	-0.043	0.078
-261.209	-200.000	0.004	-0.159
-260.195	25.319	0.230	0.188
-259.180	-200.000	0.037	0.469
-258.165	256.404	-0.120	0.203
-257.151	152.922	0.209	0.282
-256.136	-200.000	0.019	-0.194
-255.122	800.000	0.127	-0.390
-254.107	-109.425	-0.245	-0.051
-253.092	204.169	0.062	0.094
-252.078	-52.656	-0.222	0.101
-251.063	-200.000	0.083	0.000
-250.049	-64.440	-0.153	-0.061
-249.034	539.770	0.066	0.154
-248.019	-131.123	0.306	-0.040
-247.005	72.953	0.189	0.194
-245.990	-200.000	0.073	0.500
-244.976	301.108	0.073	0.133
-243.961	-103.162	0.072	-0.017
-242.946	307.775	-0.207	-0.381
-241.932	800.000	0.074	0.229
-240.917	-200.000	-0.041	-0.228
-239.903	800.000	0.085	0.267
-238.888	338.600	0.199	0.382
-237.873	76.691	-0.249	-0.260
-236.859	-200.000	0.007	-0.047
-235.844	-200.000	-0.027	0.303
-234.830	-107.529	-0.104	-0.023
-233.815	13.884	0.057	-0.044
-232.800	466.233	-0.146	0.322
-231.786	112.349	0.181	-0.216
-230.771	-101.118	-0.210	-0.051
-229.757	-147.025	0.453	0.038
-228.742	189.643	0.183	0.270
-227.727	-106.800	0.213	0.047
-226.713	800.000	0.060	0.172
-225.698	-119.035	-0.048	-0.008
-224.684	62.263	0.293	-0.288
-223.669	167.139	-0.155	0.217
-222.655	-200.000	-0.008	0.050
-221.640	-200.000	-0.018	0.137
-220.625	800.000	0.022	-0.078
-219.611	612.373	-0.148	-0.364
-218.596	-163.320	-0.334	0.016
-217.582	297.082	-0.143	0.258
-216.567	-109.750	-0.341	-0.071
-215.552	63.481	0.034	-0.034
-214.538	305.272	-0.106	0.195
-213.523	-36.235	0.071	-0.038
-212.509	383.552	0.038	0.078
-211.494	-27.052	-0.223	-0.128
-210.479	118.819	0.278	0.338
-209.465	-35.887	-0.083	-0.044
-208.450	-24.869	-0.097	0.057
-207.436	49.191	-0.269	0.249
-206.421	477.889	0.174	-0.389
-205.406	-99.519	0.218	0.054
-204.392	-86.607	-0.324	-0.098
-203.377	-104.355	0.294	-0.067
-202.363	149.283	0.117	-0.156
-201.348	-200.000	0.454	-0.001
-200.333	260.516	0.073	0.125
-199.319	-7.972	-0.372	0.247
-198.304	46.116	0.087	-0.079
-197.290	-35.754	0.078	0.042
-196.275	9.418	0.067	-0.050
-195.260	-81.691	0.288	0.093
-194.246	-166.658	-0.338	0.014
-193.231	57.719	-0.365	0.351
-192.217	-200.000	0.066	-0.337
-191.202	-115.549	0.237	0.044
-190.187	-26.798	-0.144	-0.083
-189.173	-156.166	-0.084	0.005
-188.158	75.407	0.144	-0.150
-187.144	5.284	0.251	0.182
-186.129	-29.629	0.207	0.116
-185.114	504.984	-0.081	0.186
-184.100	800.000	0.113	-0.354
-183.085	-161.242	0.279	0.014
-182.071	39.319	0.223	-0.197
-181.056	-123.765	0.137	0.021
-180.042	206.514	-0.143	-0.219
-179.027	-90.713	0.214	-0.061
-178.012	477.915	0.078	-0.173
-176.998	-79.443	0.092	0.031
-175.983	800.000	0.031	0.101
-174.969	-32.589	-0.015	-0.008
-173.954	32.178	0.066	0.056
-172.939	-78.839	-0.169	-0.057
-171.925	20.088	-0.103	0.082
-170.910	-200.000	0.041	0.197
-169.896	-200.000	-0.008	0.205
-168.881	-122.862	0.130	0.021
-167.866	182.531	0.098	-0.142
-166.852	-200.000	0.063	0.299
-165.837	800.000	0.099	-0.342
-164.823	-0.760	-0.113	-0.079
-163.808	800.000	-0.160	0.496
-162.793	32.050	0.099	-0.084
-161.779	800.000	-0.022	-0.059
-160.764	-116.725	0.503	0.091
-159.750	43.465	0.275	0.247
-158.735	-63.955	0.380	-0.153
-157.720	-200.000	0.029	-0.148
-156.706	373.149	-0.084	0.167
-155.691	-190.894	-0.271	-0.003
-154.677	-200.000	-0.005	-0.603
-153.662	141.211	-0.097	0.126
-152.647	-200.000	-0.006	0.127
-151.633	213.340	-0.068	-0.106
-150.618	-115.467	-0.351	0.065
-149.604	31.491	0.262	0.222
-148.589	-200.000	-0.029	0.189
-147.574	605.661	-0.155	-0.379
-146.560	-31.401	0.351	0.194
-145.545	74.243	-0.105	-0.108
-144.531	234.125	0.106	-0.172
-143.516	476.510	0.101	-0.225
-142.502	208.576	-0.097	0.149
-141.487	245.253	0.185	-0.305
-140.472	-200.000	0.037	-0.169
-139.458	-17.800	0.367	-0.226
-138.443	61.282	-0.229	0.224
-137.429	-85.240	0.114	0.035
-136.414	-97.511	0.389	0.099
-135.399	-200.000	-0.014	0.067
-134.385	-200.000	0.013	-0.161
-133.370	28.423	-0.061	-0.050
-132.356	-83.680	0.220	0.069
-131.341	-90.686	-0.184	0.052
-130.326	800.000	0.113	0.432
-129.312	-114.979	0.285	0.053
-128.297	-145.695	0.347	0.030
-127.283	-10.714	0.027	-0.017
-126.268	-200.000	0.007	-0.215
-125.253	-83.300	0.187	0.059
-124.239	250.952	0.206	0.344
-123.224	800.000	-0.097	0.271
-122.210	800.000	0.020	-0.068
