DTS Sentinel unit serial number:	SN413079Multiplexer serial number:	ORYXHardware model number:	OX4-SRSoftware version number:	ORYX F/W v4.00 Oryx Data Collector v3.7.2.0data status	okinstallation	princeton_trtdifferential loss correction	single-endedforward channel	channel 4reverse channel	N/Adate	2019/09/13time	17:17:35forward acquisition time	60.00reverse acquisition time	0.00gamma	496.2192k internal	0.2289k external	0.2289temperature offset calibration	1.0205default loss term (dB/km)	0.3790temperature slope calibration	1.0000multiplexer offset coefficient	1.0000multiplexer slope coefficient	1.0000fibre end	0.00T internal ref (°C)	35.84T ext. ref 1 (°C)	4.79T ext. ref 2 (°C)	35.07length (m)	temperature (°C)	Stokes	anti-Stokes-747.200	215.033	-0.082	-0.133
-746.185	-200.000	-0.121	0.626
-745.171	359.502	-0.107	0.219
-744.156	-60.680	0.121	0.052
-743.142	72.011	0.111	0.118
-742.127	-149.596	-0.138	0.011
-741.112	105.805	0.056	-0.068
-740.098	253.242	-0.149	0.260
-739.083	-63.392	0.056	0.023
-738.069	84.068	0.120	0.134
-737.054	800.000	0.049	0.161
-736.039	-132.756	-0.297	-0.039
-735.025	-200.000	-0.049	0.376
-734.010	-50.189	-0.242	-0.117
-732.996	-200.000	0.012	-0.071
-731.981	-10.104	-0.077	-0.052
-730.966	268.329	0.092	-0.165
-729.952	365.207	0.124	0.256
-728.937	-61.667	-0.117	-0.050
-727.923	-66.109	-0.225	0.092
-726.908	400.412	0.096	0.206
-725.894	-200.000	0.184	0.001
-724.879	-98.068	-0.399	-0.105
-723.864	-36.043	0.065	-0.036
-722.850	800.000	-0.085	0.259
-721.835	-92.147	0.106	-0.031
-720.821	-120.289	0.042	0.007
-719.806	-3.105	-0.172	-0.123
-718.791	188.640	0.095	0.145
-717.777	-106.321	0.176	-0.040
-716.762	-155.385	0.102	-0.007
-715.748	42.746	-0.281	0.262
-714.733	-21.173	0.066	0.041
-713.718	-108.044	-0.042	-0.009
-712.704	-200.000	-0.006	-0.045
-711.689	221.217	-0.156	-0.256
-710.675	-56.475	-0.016	-0.007
-709.660	-56.615	-0.186	0.084
-708.645	57.466	0.033	-0.033
-707.631	130.651	-0.112	0.147
-706.616	158.607	-0.040	-0.057
-705.602	-86.579	0.085	-0.027
-704.587	-158.146	-0.331	-0.020
-703.572	-200.000	-0.036	0.171
-702.558	-147.777	-0.124	0.011
-701.543	800.000	-0.073	-0.302
-700.529	32.195	-0.075	0.066
-699.514	-200.000	-0.059	0.316
-698.499	-174.590	-0.292	0.009
-697.485	-46.951	0.129	-0.064
-696.470	-22.493	-0.211	0.131
-695.456	627.426	0.097	0.250
-694.441	-22.695	-0.387	-0.239
-693.426	-95.247	-0.134	0.037
-692.412	800.000	0.074	0.266
-691.397	-159.879	-0.515	-0.029
-690.383	-136.437	-0.219	0.026
-689.368	75.074	0.170	0.183
-688.354	-98.223	0.164	-0.043
-687.339	151.884	-0.095	0.133
-686.324	-77.645	-0.145	-0.051
-685.310	120.973	-0.208	0.265
-684.295	-200.000	0.017	-0.129
-683.281	800.000	0.170	-0.584
-682.266	-49.871	0.246	-0.119
-681.251	158.356	0.099	0.140
-680.237	47.116	-0.200	-0.190
-679.222	80.754	0.264	-0.291
-678.208	147.108	0.147	-0.203
-677.193	-126.174	0.191	-0.029
-676.178	73.698	-0.253	-0.271
-675.164	160.357	-0.270	-0.385
-674.149	-200.000	0.011	0.228
-673.135	-57.426	-0.200	-0.090
-672.120	-112.913	-0.048	-0.010
-671.105	-116.710	-0.238	0.045
-670.091	-200.000	0.034	0.177
-669.076	181.505	0.176	-0.265
-668.062	194.993	0.199	-0.308
-667.047	224.854	0.197	-0.325
-666.032	137.899	0.311	-0.416
-665.018	-26.089	-0.117	-0.071
-664.003	800.000	-0.026	-0.107
-662.989	800.000	-0.110	-0.331
-661.974	-42.429	-0.247	-0.129
-660.959	-40.989	0.129	-0.068
-659.945	-80.841	-0.093	0.032
-658.930	800.000	0.087	-0.325
-657.916	800.000	-0.027	-0.108
-656.901	-200.000	0.063	-0.355
-655.886	800.000	-0.035	0.120
-654.872	5.269	0.162	-0.122
-653.857	-8.994	0.333	0.228
-652.843	423.507	0.061	0.133
-651.828	15.174	-0.148	-0.118
-650.814	76.099	-0.296	-0.320
-649.799	40.424	0.052	-0.047
-648.784	-21.855	-0.361	0.224
-647.770	-200.000	0.046	-0.253
-646.755	-93.068	-0.227	0.064
-645.741	-200.000	0.039	0.253
-644.726	-86.166	0.088	0.028
-643.711	6.850	0.208	0.158
-642.697	-145.493	-0.243	0.022
-641.682	42.672	0.048	-0.045
-640.668	800.000	0.024	-0.099
-639.653	-103.728	-0.179	-0.043
-638.638	-200.000	0.016	0.180
-637.624	800.000	0.043	0.123
-636.609	-160.801	0.183	-0.010
-635.595	-53.378	-0.415	-0.194
-634.580	-71.866	-0.059	0.022
-633.565	769.863	-0.081	0.224
-632.551	-74.561	-0.234	0.086
-631.536	-39.306	0.083	0.045
-630.522	-61.488	-0.218	-0.094
-629.507	142.962	0.111	-0.150
-628.492	-200.000	0.032	-0.399
-627.478	-62.220	0.297	-0.126
-626.463	-200.000	0.008	-0.081
-625.449	-158.793	-0.019	0.001
-624.434	-110.339	-0.174	-0.037
-623.419	497.373	0.205	-0.482
-622.405	142.540	0.049	-0.066
-621.390	-97.483	-0.165	0.044
-620.376	-21.300	-0.100	-0.063
-619.361	-40.627	-0.275	-0.145
-618.346	-47.049	-0.122	0.061
-617.332	800.000	0.064	-0.206
-616.317	61.702	-0.156	-0.158
-615.303	247.261	0.175	-0.301
-614.288	184.217	0.103	0.156
-613.273	11.005	0.110	-0.085
-612.259	-68.286	-0.394	0.156
-611.244	346.060	0.129	0.259
-610.230	-83.389	0.153	0.050
-609.215	-129.782	0.308	0.043
-608.201	625.743	0.025	0.063
-607.186	-200.000	-0.048	0.426
-606.171	-79.594	0.098	-0.034
-605.157	20.448	0.270	-0.222
-604.142	723.198	-0.025	-0.068
-603.128	324.209	0.063	0.123
-602.113	-64.969	-0.149	-0.062
-601.098	53.772	-0.063	0.061
-600.084	-200.000	0.038	-0.368
-599.069	-60.932	-0.089	0.038
-598.055	780.017	0.055	-0.153
-597.040	-200.000	-0.015	-0.272
-596.025	800.000	-0.050	-0.170
-595.011	122.723	0.169	-0.215
-593.996	84.565	0.106	-0.118
-592.982	352.611	-0.147	0.296
-591.967	-138.148	-0.113	0.013
-590.952	-200.000	-0.006	-0.099
-589.938	-98.154	-0.216	-0.057
-588.923	299.834	-0.102	0.191
-587.909	21.818	-0.056	-0.046
-586.894	-16.927	0.302	-0.194
-585.879	102.989	0.133	-0.159
-584.865	387.815	-0.236	-0.496
-583.850	-47.331	-0.096	-0.048
-582.836	-121.106	-0.283	0.048
-581.821	-192.591	0.134	-0.001
-580.806	170.292	-0.205	0.299
-579.792	325.258	0.057	0.111
-578.777	11.584	-0.150	0.117
-577.763	536.787	-0.046	0.111
-576.748	-8.207	-0.085	0.058
-575.733	13.666	-0.154	-0.122
-574.719	20.812	-0.239	-0.197
-573.704	-88.863	0.276	0.083
-572.690	277.042	-0.104	-0.188
-571.675	-200.000	-0.003	0.228
-570.661	125.847	-0.190	-0.244
-569.646	-200.000	-0.004	0.041
-568.631	151.950	0.159	-0.221
-567.617	261.504	-0.089	-0.157
-566.602	84.531	0.090	0.100
-565.588	-144.239	-0.404	-0.038
-564.573	-76.804	-0.118	-0.042
-563.558	-125.737	0.155	0.024
-562.544	127.014	-0.092	0.119
-561.529	353.511	-0.018	-0.036
-560.515	-57.153	0.233	-0.104
-559.500	237.608	-0.056	0.094
-558.485	213.895	-0.186	0.300
-557.471	-23.304	0.184	0.113
-556.456	-135.250	-0.335	-0.041
-555.442	13.470	-0.323	0.255
-554.427	-162.387	-0.263	-0.013
-553.412	-122.109	0.207	0.034
-552.398	800.000	-0.026	-0.104
-551.383	16.684	0.315	-0.253
-550.369	-32.826	0.105	-0.059
-549.354	584.117	-0.150	-0.375
-548.339	211.911	0.059	0.095
-547.325	-200.000	-0.055	0.359
-546.310	-200.000	0.037	-0.240
-545.296	143.968	0.163	0.220
-544.281	684.417	-0.090	-0.239
-543.266	193.138	0.291	-0.447
-542.252	103.332	0.111	-0.132
-541.237	-200.000	0.007	-0.064
-540.223	618.584	-0.079	0.202
-539.208	800.000	0.028	0.102
-538.193	-135.798	-0.374	-0.045
-537.179	-200.000	0.004	-0.062
-536.164	87.503	0.071	-0.080
-535.150	-27.960	-0.172	-0.101
-534.135	38.432	-0.060	0.054
-533.121	-17.231	-0.081	-0.052
-532.106	796.118	0.088	0.247
-531.091	174.558	0.060	-0.088
-530.077	-3.666	0.207	-0.146
-529.062	800.000	0.089	0.302
-528.048	767.244	-0.038	0.105
-527.033	-67.976	-0.354	-0.140
-526.018	-200.000	0.014	-0.183
-525.004	-13.574	0.196	0.129
-523.989	-73.699	0.255	0.094
-522.975	43.983	0.103	0.096
-521.960	80.726	-0.178	0.194
-520.945	-200.000	0.004	-0.288
-519.931	800.000	0.033	-0.145
-518.916	-95.646	0.374	0.102
-517.902	-128.691	0.288	0.041
-516.887	-92.652	-0.416	-0.118
-515.872	800.000	0.101	-0.307
-514.858	-200.000	0.002	0.013
-513.843	-62.683	0.099	-0.042
-512.829	2.471	-0.176	-0.129
-511.814	-116.454	0.295	0.055
-510.799	314.186	-0.117	-0.224
-509.785	-31.415	-0.098	-0.056
-508.770	-155.992	-0.225	-0.014
-507.756	-200.000	0.020	-0.138
-506.741	79.230	0.303	0.330
-505.726	74.836	-0.118	0.127
-504.712	339.605	0.097	0.191
-503.697	588.575	0.051	-0.128
-502.683	-200.000	0.026	-0.266
-501.668	282.272	0.088	-0.161
-500.653	-200.000	-0.165	-0.001
-499.639	-65.096	0.064	-0.026
-498.624	-81.015	0.039	-0.013
-497.610	-24.309	-0.121	-0.073
-496.595	-4.036	-0.144	0.101
-495.581	8.130	0.343	-0.261
-494.566	-160.596	0.075	0.004
-493.551	-17.920	-0.115	0.073
-492.537	-200.000	-0.034	0.306
-491.522	-73.164	-0.245	0.091
-490.508	-29.881	-0.311	-0.180
-489.493	-200.000	-0.011	-0.174
-488.478	-57.445	0.302	-0.134
-487.464	-200.000	0.008	0.181
-486.449	303.563	0.034	-0.064
-485.435	-106.788	-0.390	0.088
-484.420	-48.998	0.081	0.039
-483.405	197.149	0.103	-0.160
-482.391	-116.549	0.163	-0.030
-481.376	-70.765	-0.256	0.098
-480.362	-12.844	-0.348	0.230
-479.347	-11.707	-0.141	-0.094
-478.332	49.068	-0.201	0.192
-477.318	-186.057	0.243	0.004
-476.303	82.689	0.063	0.069
-475.289	-32.611	-0.355	0.200
-474.274	230.988	-0.164	-0.272
-473.259	307.525	-0.026	-0.049
-472.245	130.894	0.195	-0.254
-471.230	-87.376	0.051	-0.016
-470.216	-128.985	0.067	0.010
-469.201	-26.982	0.101	-0.060
-468.186	147.486	0.309	-0.422
-467.172	291.986	0.074	0.137
-466.157	338.580	0.149	0.295
-465.143	288.347	-0.144	0.264
-464.128	-67.078	-0.094	0.037
-463.113	-149.732	-0.179	0.014
-462.099	-175.966	-0.344	0.009
-461.084	241.257	-0.253	0.428
-460.070	62.392	-0.011	0.011
-459.055	395.075	-0.267	0.564
-458.040	-53.267	0.151	-0.070
-457.026	-16.714	0.075	0.048
-456.011	698.980	0.163	-0.433
-454.997	12.758	-0.117	-0.092
-453.982	-158.563	-0.458	-0.027
-452.968	-161.496	0.221	-0.012
-451.953	-23.966	-0.152	-0.092
-450.938	-165.578	-0.102	0.005
-449.924	120.639	0.232	0.292
-448.909	-200.000	-0.008	0.341
-447.895	64.798	0.107	0.109
-446.880	-38.626	-0.262	0.140
-445.865	12.121	-0.040	0.032
-444.851	-200.000	-0.013	-0.182
-443.836	11.930	0.118	0.092
-442.822	-200.000	-0.036	0.320
-441.807	-184.081	0.374	-0.006
-440.792	-6.824	0.278	-0.192
-439.778	-41.050	-0.066	-0.034
-438.763	-10.030	0.259	0.174
-437.749	693.003	-0.051	0.136
-436.734	-200.000	-0.048	0.220
-435.719	31.040	0.342	-0.297
-434.705	-127.255	-0.469	0.069
-433.690	-200.000	-0.002	-0.191
-432.676	-92.991	0.342	-0.097
-431.661	263.750	-0.167	0.294
-430.646	-78.164	0.311	-0.108
-429.632	-73.500	0.207	-0.076
-428.617	-200.000	0.040	-0.223
-427.603	800.000	0.041	0.143
-426.588	-86.341	-0.111	-0.035
-425.573	-16.738	-0.195	-0.125
-424.559	152.154	-0.046	0.063
-423.544	-145.461	-0.164	-0.015
-422.530	182.385	-0.131	0.196
-421.515	183.155	0.170	-0.254
-420.500	339.018	-0.172	0.340
-419.486	800.000	0.057	-0.186
-418.471	309.176	-0.112	-0.211
-417.457	800.000	-0.064	0.285
-416.442	-64.946	-0.130	0.053
-415.428	-97.233	0.588	-0.155
-414.413	-200.000	-0.003	-0.232
-413.398	800.000	-0.038	-0.122
-412.384	24.586	-0.021	-0.017
-411.369	-166.257	0.592	-0.025
-410.355	61.458	0.098	-0.098
-409.340	-200.000	0.011	0.056
-408.325	-0.871	-0.247	-0.177
-407.311	800.000	0.071	-0.308
-406.296	31.410	0.170	-0.148
-405.282	-34.446	-0.288	-0.159
-404.267	88.196	-0.076	0.086
-403.252	91.364	0.071	-0.081
-402.238	-200.000	-0.016	-0.111
-401.223	86.715	-0.015	0.017
-400.209	440.187	0.068	-0.150
-399.194	-147.105	-0.047	-0.004
-398.179	-145.031	-0.086	0.008
-397.165	-110.624	0.228	-0.048
-396.150	221.517	0.179	0.291
-395.136	164.717	0.219	-0.312
-394.121	96.142	-0.262	-0.302
-393.106	800.000	-0.027	-0.098
-392.092	-16.434	-0.203	0.130
-391.077	-7.339	0.048	-0.033
-390.063	61.802	-0.140	-0.141
-389.048	182.795	0.151	0.226
-388.033	-200.000	-0.052	0.245
-387.019	-35.245	-0.078	-0.043
-386.004	28.602	-0.185	-0.158
-384.990	16.260	0.132	0.105
-383.975	-72.951	0.241	-0.090
-382.960	-200.000	-0.008	-0.144
-381.946	60.356	0.154	-0.154
-380.931	-110.162	-0.221	0.047
-379.917	800.000	0.024	0.105
-378.902	-94.913	0.466	0.127
-377.888	485.985	-0.143	-0.330
-376.873	-73.702	-0.162	-0.060
-375.858	237.309	-0.034	-0.057
-374.844	-51.163	0.113	0.053
-373.829	-200.000	0.055	-0.319
-372.815	-168.168	-0.229	-0.009
-371.800	-88.663	0.135	0.041
-370.785	800.000	0.048	-0.134
-369.771	-200.000	0.082	0.369
-368.756	203.968	0.064	0.101
-367.742	186.119	0.080	-0.120
-366.727	-60.833	-0.319	-0.136
-365.712	-132.825	-0.436	-0.056
-364.698	216.493	0.104	0.167
-363.683	98.857	0.219	0.256
-362.669	-45.962	0.426	-0.212
-361.654	-145.364	0.368	-0.033
-360.639	275.615	0.099	-0.177
-359.625	-120.564	-0.140	-0.024
-358.610	-35.499	0.310	-0.170
-357.596	225.736	0.081	-0.133
-356.581	256.551	0.089	-0.154
-355.566	800.000	-0.122	-0.373
-354.552	252.414	0.208	-0.358
-353.537	38.059	0.293	-0.263
-352.523	240.985	0.032	-0.053
-351.508	-133.100	0.182	-0.023
-350.493	800.000	-0.008	0.035
-349.479	-2.611	0.155	-0.110
-348.464	800.000	0.053	-0.167
-347.450	-200.000	-0.007	-0.057
-346.435	-9.878	-0.130	-0.087
-345.420	38.052	-0.247	-0.222
-344.406	-108.449	0.310	0.067
-343.391	-104.866	-0.204	-0.047
-342.377	-200.000	-0.051	0.415
-341.362	6.687	-0.259	0.195
-340.348	89.881	-0.119	-0.135
-339.333	800.000	0.012	-0.045
-338.318	30.493	0.200	-0.173
-337.304	-99.124	0.019	0.005
-336.289	19.181	0.082	-0.066
-335.275	351.986	-0.159	-0.317
-334.260	109.670	-0.252	0.305
-333.245	209.978	0.051	-0.080
-332.231	-184.685	0.188	-0.003
-331.216	-97.567	0.160	-0.042
-330.202	-200.000	-0.051	-0.232
-329.187	-142.879	-0.187	-0.018
-328.172	-87.112	0.149	-0.046
-327.158	212.851	-0.089	0.142
-326.143	141.394	0.067	0.089
-325.129	-98.107	0.125	0.032
-324.114	89.631	-0.185	0.208
-323.099	-118.685	0.221	0.039
-322.085	-92.877	0.240	-0.068
-321.070	-23.500	0.418	-0.253
-320.056	-120.079	0.203	0.035
-319.041	-200.000	0.016	0.115
-318.026	-171.357	-0.319	0.011
-317.012	-90.797	0.293	0.085
-315.997	-86.741	-0.306	0.094
-314.983	2.779	0.113	-0.083
-313.968	-28.227	0.348	0.202
-312.953	-114.829	0.312	0.060
-311.939	110.400	0.055	-0.067
-310.924	-51.541	0.073	0.034
-309.910	504.345	-0.148	0.345
-308.895	-200.000	0.008	0.224
-307.880	241.410	-0.199	-0.335
-306.866	-82.376	0.243	0.080
-305.851	-98.891	0.320	0.082
-304.837	-164.568	-0.067	-0.003
-303.822	76.699	0.232	-0.247
-302.807	-95.660	-0.207	-0.056
-301.793	576.783	-0.042	-0.104
-300.778	-164.939	0.159	0.007
-299.764	128.554	-0.256	0.329
-298.749	9.653	-0.291	-0.222
-297.735	-118.455	0.218	0.039
-296.720	506.568	0.109	-0.255
-295.705	-38.775	-0.187	0.099
-294.691	-80.748	0.383	-0.128
-293.676	800.000	-0.055	-0.161
-292.662	-200.000	-0.013	-0.169
-291.647	800.000	-0.109	0.333
-290.632	800.000	0.031	0.132
-289.618	261.415	-0.202	-0.352
-288.603	547.251	-0.071	0.171
-287.589	67.102	-0.096	0.099
-286.574	-47.172	0.209	0.102
-285.559	113.657	-0.176	0.216
-284.545	9.736	-0.155	-0.119
-283.530	-200.000	-0.006	-0.048
-282.516	471.919	0.059	0.134
-281.501	-200.000	0.003	0.066
-280.486	-31.423	-0.434	0.245
-279.472	-5.350	0.210	-0.145
-278.457	91.393	0.270	0.306
-277.443	-108.182	0.052	-0.011
-276.428	254.351	-0.123	0.212
-275.413	240.717	-0.061	-0.102
-274.399	-119.735	0.119	0.021
-273.384	70.159	0.157	-0.163
-272.370	-24.744	-0.316	-0.189
-271.355	20.681	0.282	-0.230
-270.340	83.599	0.190	-0.208
-269.326	-200.000	-0.061	-0.332
-268.311	-92.489	0.325	-0.092
-267.297	-110.339	-0.259	-0.054
-266.282	776.492	0.028	0.077
-265.267	135.856	-0.244	0.319
-264.253	-155.640	-0.042	0.003
-263.238	-44.156	-0.210	0.106
-262.224	-200.000	-0.011	0.080
-261.209	800.000	-0.170	0.566
-260.195	-200.000	0.036	0.175
-259.180	192.245	-0.218	0.331
-258.165	270.275	0.123	0.217
-257.151	-118.372	0.400	-0.071
-256.136	-70.595	0.193	0.074
-255.122	-32.552	0.295	0.166
-254.107	800.000	0.016	-0.059
-253.092	25.528	0.101	0.084
-252.078	-100.388	0.192	-0.048
-251.063	167.529	0.086	0.122
-250.049	-200.000	-0.017	0.158
-249.034	47.033	-0.343	0.321
-248.019	21.327	-0.413	-0.337
-247.005	-156.345	-0.147	0.009
-245.990	-200.000	-0.033	0.186
-244.976	-121.808	0.184	0.030
-243.961	-79.105	0.235	-0.080
-242.946	286.912	0.058	0.106
-241.932	-140.165	0.385	-0.041
-240.917	116.926	-0.209	-0.258
-239.903	-200.000	-0.019	0.288
-238.888	-166.285	0.117	-0.005
-237.873	-87.767	-0.192	0.058
-236.859	210.496	0.024	0.039
-235.844	-200.000	0.014	0.156
-234.830	-26.097	-0.183	0.108
-233.815	-102.581	-0.329	0.079
-232.800	151.406	-0.050	0.069
-231.786	-177.589	-0.089	-0.002
-230.771	21.540	0.268	-0.219
-229.757	-53.665	-0.381	-0.175
-228.742	-111.568	0.115	0.024
-227.727	92.076	-0.007	-0.008
-226.713	184.646	-0.122	0.182
-225.698	-200.000	-0.010	0.160
-224.684	8.353	0.238	-0.180
-223.669	-200.000	-0.020	0.088
-222.655	184.037	0.049	-0.074
-221.640	-0.205	-0.192	0.137
-220.625	-200.000	-0.085	0.491
-219.611	-51.785	0.221	-0.103
-218.596	-155.004	-0.291	0.019
-217.582	-187.369	0.289	0.004
-216.567	-200.000	-0.026	0.177
-215.552	10.710	-0.283	0.216
-214.538	-200.000	0.041	0.256
-213.523	-200.000	0.034	0.273
-212.509	275.363	0.058	0.104
-211.494	-8.493	-0.458	0.309
-210.479	69.916	-0.290	0.300
-209.465	84.855	0.044	0.049
-208.450	240.008	-0.032	0.054
-207.436	215.076	-0.085	0.135
-206.421	-200.000	0.002	-0.358
-205.406	-200.000	-0.069	-0.357
-204.392	-59.198	0.186	-0.080
-203.377	154.034	-0.082	-0.113
-202.363	323.248	-0.198	0.378
-201.348	-107.597	-0.050	0.011
-200.333	800.000	-0.078	0.344
-199.319	275.492	0.120	0.213
-198.304	-54.352	0.096	-0.044
-197.290	20.043	0.211	-0.170
-196.275	95.783	-0.098	0.112
-195.260	-36.095	0.248	0.134
-194.246	-92.960	-0.276	0.077
-193.231	227.128	-0.113	-0.184
-192.217	-52.428	0.280	0.130
-191.202	-41.171	-0.370	0.192
-190.187	516.126	-0.057	-0.133
-189.173	-200.000	-0.026	-0.256
-188.158	273.496	-0.149	0.263
-187.144	-200.000	-0.001	0.210
-186.129	-200.000	0.023	0.132
-185.114	-200.000	-0.001	-0.114
-184.100	-200.000	0.016	-0.162
-183.085	-200.000	-0.021	-0.186
-182.071	-200.000	0.002	-0.137
-181.056	-32.022	0.188	0.106
-180.042	-200.000	0.029	-0.166
-179.027	25.915	-0.117	0.097
-178.012	-187.089	0.329	-0.005
-176.998	-200.000	-0.001	0.166
-175.983	66.891	0.065	-0.067
-174.969	-91.893	0.316	-0.090
-173.954	39.199	-0.017	-0.016
-172.939	-19.278	-0.118	0.073
-171.925	188.076	-0.194	0.291
-170.910	74.745	-0.057	0.060
-169.896	448.826	-0.039	0.087
-168.881	800.000	0.088	-0.255
-167.866	-9.727	-0.219	-0.146
-166.852	-200.000	-0.050	0.267
-165.837	-64.352	0.033	0.013
-164.823	249.937	0.249	0.424
-163.808	100.581	-0.108	0.125
-162.793	-51.548	-0.053	-0.025
-161.779	800.000	0.080	0.300
-160.764	-189.008	0.217	-0.003
-159.750	-64.385	-0.215	0.088
-158.735	-87.517	0.246	0.074
-157.720	-15.499	0.224	-0.143
-156.706	-65.951	-0.224	0.090
-155.691	375.652	-0.064	0.131
-154.677	-2.708	0.302	0.212
-153.662	372.444	-0.075	-0.152
-152.647	-101.339	0.197	-0.048
-151.633	-175.435	-0.328	0.009
-150.618	-1.230	0.111	0.079
-149.604	-163.589	-0.058	-0.003
-148.589	163.834	-0.111	-0.156
-147.574	-2.362	-0.123	-0.086
-146.560	-90.861	-0.016	0.005
-145.545	-19.814	-0.341	0.211
-144.531	177.639	0.133	0.194
-143.516	-128.920	0.411	0.058
-142.502	-34.261	0.179	-0.098
-141.487	16.616	-0.139	-0.110
-140.472	800.000	-0.025	0.085
-139.458	-31.515	0.085	0.048
-138.443	174.318	0.171	0.247
-137.429	52.568	-0.101	-0.096
-136.414	86.125	0.202	0.222
-135.399	370.289	0.190	0.385
-134.385	-2.998	-0.422	-0.295
-133.370	-169.411	-0.160	-0.006
-132.356	337.631	-0.025	-0.048
-131.341	-134.199	0.317	-0.039
-130.326	256.748	-0.106	-0.182
-129.312	35.644	0.062	-0.055
-128.297	-113.813	0.262	0.051
-127.283	-3.009	0.336	0.235
-126.268	115.803	-0.098	0.120
-125.253	-141.406	0.151	0.015
-124.239	1.646	-0.151	0.109
-123.224	-58.600	0.117	0.051
-122.210	-61.083	-0.058	-0.025
-121.195	-129.109	-0.139	-0.019
