DTS Sentinel unit serial number:	SN413079Multiplexer serial number:	ORYXHardware model number:	OX4-SRSoftware version number:	ORYX F/W v4.00 Oryx Data Collector v3.7.2.0data status	okinstallation	princeton_trtdifferential loss correction	single-endedforward channel	channel 4reverse channel	N/Adate	2019/09/12time	00:11:11forward acquisition time	60.00reverse acquisition time	0.00gamma	496.2192k internal	0.2308k external	0.2308temperature offset calibration	1.0089default loss term (dB/km)	0.3790temperature slope calibration	1.0000multiplexer offset coefficient	1.0000multiplexer slope coefficient	1.0000fibre end	0.00T internal ref (°C)	33.62T ext. ref 1 (°C)	2.01T ext. ref 2 (°C)	28.25length (m)	temperature (°C)	Stokes	anti-Stokes-747.200	214.342	0.085	0.136
-746.185	576.166	-0.092	0.228
-745.171	413.805	-0.224	0.484
-744.156	800.000	0.074	0.235
-743.142	425.754	0.025	-0.055
-742.127	16.818	-0.091	0.073
-741.112	-74.158	0.155	0.057
-740.098	-200.000	-0.023	0.695
-739.083	-200.000	0.042	0.363
-738.069	-200.000	-0.020	0.302
-737.054	-155.457	-0.374	0.025
-736.039	-94.422	-0.303	-0.084
-735.025	51.824	0.135	0.131
-734.010	54.291	-0.134	0.131
-732.996	55.157	-0.178	0.175
-731.981	-102.704	0.130	-0.031
-730.966	172.708	-0.027	-0.040
-729.952	-93.986	-0.219	0.061
-728.937	800.000	0.036	0.121
-727.923	-200.000	0.015	0.202
-726.908	800.000	0.030	-0.133
-725.894	-139.572	-0.235	0.025
-724.879	-200.000	0.022	-0.177
-723.864	800.000	0.131	0.475
-722.850	12.313	0.232	0.182
-721.835	-0.059	0.140	0.101
-720.821	-154.387	-0.447	-0.031
-719.806	43.642	-0.302	-0.281
-718.791	606.570	-0.084	0.212
-717.777	-200.000	0.021	0.211
-716.762	-79.902	-0.147	0.050
-715.748	108.960	0.254	-0.308
-714.733	-200.000	-0.043	0.206
-713.718	-149.580	-0.290	0.023
-712.704	433.971	0.186	-0.409
-711.689	543.139	-0.089	-0.215
-710.675	524.404	-0.046	-0.109
-709.660	-113.456	-0.165	0.033
-708.645	-8.842	-0.182	0.124
-707.631	-194.809	-0.026	0.000
-706.616	-200.000	-0.033	0.252
-705.602	800.000	-0.052	0.149
-704.587	58.818	-0.317	-0.316
-703.572	115.684	0.129	-0.160
-702.558	800.000	0.071	-0.261
-701.543	363.991	-0.056	-0.114
-700.529	-22.514	-0.138	-0.085
-699.514	-55.790	-0.188	0.085
-698.499	-200.000	-0.020	0.240
-697.485	-100.808	-0.322	0.081
-696.470	-119.007	0.345	0.061
-695.456	-21.651	-0.135	-0.083
-694.441	-84.104	0.120	-0.039
-693.426	-135.663	0.214	-0.026
-692.412	-200.000	-0.024	-0.136
-691.397	-111.629	0.158	-0.033
-690.383	20.733	-0.348	-0.286
-689.368	647.890	-0.104	0.270
-688.354	-12.341	0.376	0.249
-687.339	-84.157	0.055	-0.018
-686.324	-200.000	-0.001	0.169
-685.310	70.586	-0.384	0.402
-684.295	-58.211	0.226	0.100
-683.281	-200.000	0.022	-0.218
-682.266	213.861	0.119	0.192
-681.251	284.091	-0.028	-0.052
-680.237	-200.000	-0.045	-0.209
-679.222	-200.000	-0.007	0.416
-678.208	-64.645	0.137	0.056
-677.193	-200.000	0.061	-0.283
-676.178	-103.880	-0.270	0.064
-675.164	-97.986	-0.332	-0.087
-674.149	-71.625	-0.197	0.075
-673.135	-200.000	0.008	0.060
-672.120	800.000	0.042	-0.133
-671.105	-188.889	0.080	-0.001
-670.091	-200.000	-0.041	-0.200
-669.076	-200.000	-0.027	0.173
-668.062	28.636	-0.035	-0.030
-667.047	54.260	0.219	0.214
-666.032	710.166	-0.097	0.260
-665.018	-200.000	-0.011	0.225
-664.003	-167.707	0.261	0.010
-662.989	592.618	0.095	-0.237
-661.974	-200.000	0.026	-0.359
-660.959	-115.748	-0.405	0.077
-659.945	283.793	0.019	-0.035
-658.930	-98.151	0.091	0.024
-657.916	330.868	-0.120	-0.234
-656.901	-200.000	0.028	-0.434
-655.886	800.000	0.035	0.101
-654.872	188.140	-0.103	-0.156
-653.857	-200.000	0.001	0.091
-652.843	-124.599	0.293	0.046
-651.828	134.859	-0.144	-0.190
-650.814	-200.000	0.023	-0.113
-649.799	800.000	-0.060	-0.204
-648.784	-95.075	-0.211	-0.058
-647.770	-67.731	0.315	-0.125
-646.755	274.333	-0.208	0.373
-645.741	-89.082	-0.311	0.093
-644.726	194.759	-0.093	0.143
-643.711	6.083	-0.190	-0.143
-642.697	-13.254	-0.148	0.098
-641.682	-161.132	0.136	-0.007
-640.668	-10.125	-0.226	0.152
-639.653	69.567	-0.141	0.147
-638.638	-200.000	-0.010	-0.080
-637.624	469.709	-0.174	-0.396
-636.609	-0.066	-0.279	0.201
-635.595	195.454	-0.041	-0.064
-634.580	9.094	0.122	0.094
-633.565	62.027	-0.222	-0.224
-632.551	282.583	0.122	0.222
-631.536	-13.349	-0.347	-0.228
-630.522	632.174	0.078	-0.201
-629.507	33.818	-0.324	-0.285
-628.492	202.768	-0.239	0.374
-627.478	-67.379	0.172	-0.068
-626.463	-64.756	-0.303	-0.124
-625.449	-127.473	-0.121	0.018
-624.434	46.597	0.188	-0.176
-623.419	75.338	0.176	0.188
-622.405	760.531	0.088	0.242
-621.390	-200.000	-0.010	-0.219
-620.376	800.000	-0.091	0.292
-619.361	-200.000	0.017	-0.350
-618.346	352.669	-0.057	0.114
-617.332	800.000	0.078	0.239
-616.317	142.641	-0.101	0.135
-615.303	800.000	0.133	-0.485
-614.288	-5.852	-0.274	-0.190
-613.273	800.000	0.012	-0.045
-612.259	800.000	-0.058	-0.178
-611.244	-200.000	0.002	-0.014
-610.230	-58.189	-0.128	0.056
-609.215	186.459	-0.203	-0.305
-608.201	-200.000	0.010	-0.122
-607.186	-133.580	-0.025	0.003
-606.171	-83.634	-0.150	-0.048
-605.157	800.000	0.131	-0.445
-604.142	105.734	-0.097	-0.116
-603.128	-181.335	-0.317	-0.006
-602.113	-200.000	0.004	0.044
-601.098	563.304	-0.039	0.096
-600.084	-123.981	0.144	0.023
-599.069	24.109	0.015	0.013
-598.055	-58.959	0.261	0.114
-597.040	375.657	0.039	-0.080
-596.025	-72.611	-0.204	-0.076
-595.011	116.379	-0.117	-0.145
-593.996	-126.696	-0.141	-0.021
-592.982	87.944	0.385	-0.431
-591.967	-169.082	-0.251	-0.009
-590.952	-37.472	0.270	0.146
-589.938	263.147	0.102	0.179
-588.923	318.181	-0.108	0.207
-587.909	800.000	0.103	-0.383
-586.894	-143.436	0.227	-0.022
-585.879	293.416	-0.063	0.115
-584.865	-200.000	0.024	0.121
-583.850	-122.148	0.387	0.064
-582.836	478.960	-0.058	-0.132
-581.821	3.404	-0.155	-0.114
-580.806	-200.000	-0.014	0.141
-579.792	800.000	-0.130	0.417
-578.777	800.000	0.037	0.125
-577.763	22.335	-0.056	0.046
-576.748	-27.016	0.043	0.025
-575.733	5.611	0.157	-0.117
-574.719	2.410	0.071	0.052
-573.704	-0.828	0.018	0.013
-572.690	-12.601	-0.128	0.084
-571.675	123.452	0.015	0.020
-570.661	80.212	-0.089	0.096
-569.646	12.656	-0.327	-0.255
-568.631	515.917	0.061	0.143
-567.617	442.624	-0.094	0.209
-566.602	-14.492	0.158	-0.102
-565.588	-136.081	-0.085	0.010
-564.573	-123.057	-0.174	0.028
-563.558	800.000	0.103	-0.414
-562.544	18.590	-0.124	-0.100
-561.529	344.367	-0.051	0.101
-560.515	-158.921	0.283	-0.016
-559.500	800.000	-0.054	-0.190
-558.485	182.657	-0.063	-0.093
-557.471	-48.202	-0.097	-0.047
-556.456	-131.189	0.185	-0.025
-555.442	-164.275	-0.245	0.011
-554.427	673.703	-0.166	-0.434
-553.412	-130.519	0.128	-0.017
-552.398	-38.186	-0.229	-0.123
-551.383	12.547	-0.213	-0.166
-550.369	-125.002	0.156	0.024
-549.354	11.384	0.138	-0.107
-548.339	-47.987	-0.323	0.158
-547.325	-79.802	0.269	-0.091
-546.310	48.180	0.021	0.020
-545.296	68.431	-0.046	-0.047
-544.281	113.269	0.133	0.163
-543.266	-114.940	-0.052	0.010
-542.252	-41.657	-0.264	0.137
-541.237	-200.000	-0.026	-0.179
-540.223	101.439	-0.112	-0.132
-539.208	11.618	0.084	-0.065
-538.193	-30.499	0.035	-0.020
-537.179	-124.887	-0.487	0.076
-536.164	277.552	0.213	-0.381
-535.150	38.011	0.194	-0.174
-534.135	179.131	0.235	0.347
-533.121	-200.000	0.019	0.244
-532.106	86.238	-0.158	-0.175
-531.091	800.000	0.168	-0.507
-530.077	-36.666	0.088	-0.047
-529.062	-18.683	-0.102	-0.064
-528.048	439.381	-0.078	-0.171
-527.033	4.531	0.055	0.041
-526.018	114.272	0.337	0.414
-525.004	216.074	-0.063	0.100
-523.989	-200.000	0.018	-0.092
-522.975	13.212	0.110	-0.086
-521.960	-200.000	0.035	0.211
-520.945	287.673	0.114	-0.209
-519.931	-200.000	0.003	0.013
-518.916	-17.817	0.216	0.136
-517.902	-59.999	-0.160	0.069
-516.887	-169.386	0.051	-0.002
-515.872	800.000	-0.018	-0.061
-514.858	-172.789	0.096	0.003
-513.843	242.715	0.074	0.125
-512.829	800.000	0.145	-0.426
-511.814	-15.275	0.196	0.126
-510.799	800.000	-0.078	0.279
-509.785	275.790	-0.212	0.378
-508.770	10.129	0.322	0.247
-507.756	-51.830	0.175	-0.082
-506.741	-200.000	-0.013	0.108
-505.726	-82.232	-0.135	0.044
-504.712	-200.000	0.043	0.235
-503.697	274.507	0.043	0.077
-502.683	-12.023	0.171	0.113
-501.668	333.796	0.037	-0.072
-500.653	499.408	0.125	0.290
-499.639	145.813	-0.091	0.123
-498.624	-60.648	-0.134	-0.057
-497.610	-53.514	0.205	-0.094
-496.595	121.178	-0.192	-0.241
-495.581	491.131	0.102	0.235
-494.566	800.000	-0.014	0.058
-493.551	36.067	-0.028	-0.025
-492.537	800.000	-0.022	-0.088
-491.522	-38.391	0.527	0.281
-490.508	351.818	0.005	0.009
-489.493	-200.000	-0.056	0.317
-488.478	294.985	0.076	-0.139
-487.464	640.379	-0.093	-0.239
-486.449	-174.511	0.219	0.006
-485.435	-59.214	0.169	-0.073
-484.420	136.058	0.065	-0.086
-483.405	-153.920	0.116	0.008
-482.391	168.319	-0.190	-0.273
-481.376	255.161	0.156	-0.269
-480.362	349.878	-0.021	-0.042
-479.347	158.342	0.112	-0.156
-478.332	-200.000	0.015	-0.291
-477.318	92.071	0.357	0.404
-476.303	-117.335	-0.399	-0.073
-475.289	-115.259	0.186	-0.035
-474.274	-112.527	0.103	0.021
-473.259	-200.000	0.002	0.471
-472.245	278.948	-0.045	0.080
-471.230	-200.000	0.065	0.489
-470.216	-48.143	-0.005	-0.002
-469.201	798.296	-0.062	0.172
-468.186	27.952	-0.333	-0.282
-467.172	-78.611	0.186	0.064
-466.157	-200.000	0.033	0.291
-465.143	-140.660	-0.249	-0.026
-464.128	613.623	0.143	0.360
-463.113	442.379	0.040	-0.089
-462.099	800.000	0.056	-0.218
-461.084	303.849	-0.101	-0.189
-460.070	-34.560	-0.227	0.125
-459.055	-200.000	0.052	-0.377
-458.040	800.000	0.032	-0.131
-457.026	240.583	-0.085	-0.142
-456.011	-51.964	-0.097	-0.045
-454.997	-108.082	-0.112	0.024
-453.982	382.820	-0.092	-0.191
-452.968	341.949	0.089	0.175
-451.953	75.943	-0.127	-0.135
-450.938	-41.106	-0.150	0.078
-449.924	-110.760	-0.264	-0.055
-448.909	-24.570	0.178	-0.107
-447.895	-3.738	0.051	-0.036
-446.880	81.367	0.039	0.043
-445.865	166.412	-0.189	0.269
-444.851	-69.608	0.225	-0.087
-443.836	-103.147	0.280	-0.067
-442.822	800.000	0.056	-0.186
-441.807	90.959	-0.200	-0.226
-440.792	115.492	-0.096	0.117
-439.778	409.646	0.178	-0.379
-438.763	281.578	0.038	-0.069
-437.749	563.815	-0.085	-0.207
-436.734	-200.000	-0.002	-0.478
-435.719	382.425	0.037	0.076
-434.705	-79.284	0.164	0.056
-433.690	-200.000	0.034	-0.201
-432.676	-200.000	-0.380	-0.000
-431.661	-89.356	0.166	0.049
-430.646	80.723	0.075	0.082
-429.632	-103.727	0.138	0.032
-428.617	-200.000	-0.020	0.163
-427.603	-200.000	0.040	-0.515
-426.588	-19.182	0.267	-0.167
-425.573	800.000	0.131	0.450
-424.559	-200.000	-0.032	-0.289
-423.544	-21.978	0.059	-0.036
-422.530	-140.947	-0.297	-0.031
-421.515	800.000	-0.060	0.252
-420.500	2.371	-0.057	0.041
-419.486	-200.000	0.064	0.325
-418.471	-139.329	-0.213	0.023
-417.457	-200.000	0.023	-0.236
-416.442	800.000	0.042	-0.180
-415.428	-73.675	-0.193	0.071
-414.413	-11.565	0.277	-0.183
-413.398	-13.781	-0.029	-0.019
-412.384	349.026	0.148	0.293
-411.369	800.000	0.072	-0.254
-410.355	77.663	-0.233	0.249
-409.340	800.000	0.062	0.200
-408.325	-16.773	0.218	0.138
-407.311	-72.585	-0.075	0.028
-406.296	479.434	0.010	0.024
-405.282	800.000	0.099	-0.338
-404.267	-200.000	0.037	-0.170
-403.252	-140.833	-0.389	-0.040
-402.238	-80.964	0.208	-0.069
-401.223	379.418	0.140	0.287
-400.209	-200.000	0.003	0.321
-399.194	-197.451	-0.086	-0.001
-398.179	-53.125	-0.178	-0.082
-397.165	75.570	-0.097	-0.103
-396.150	143.426	0.077	-0.103
-395.136	248.771	0.090	0.153
-394.121	-84.241	-0.107	-0.034
-393.106	-200.000	0.038	0.187
-392.092	166.252	-0.088	-0.125
-391.077	-115.766	0.185	-0.035
-390.063	800.000	-0.073	-0.278
-389.048	36.293	0.177	-0.157
-388.033	87.837	0.119	-0.132
-387.019	-73.509	-0.175	-0.064
-386.004	-200.000	0.016	0.072
-384.990	-108.458	-0.035	0.008
-383.975	723.587	0.079	0.211
-382.960	476.272	-0.074	0.168
-381.946	-142.537	0.194	-0.019
-380.931	-135.781	0.265	-0.031
-379.917	-64.454	-0.288	0.117
-378.902	-200.000	0.004	0.094
-377.888	-200.000	-0.006	0.056
-376.873	529.038	-0.122	-0.289
-375.858	-113.598	0.430	-0.084
-374.844	131.770	0.129	0.166
-373.829	-154.151	0.183	0.012
-372.815	-142.358	-0.246	0.024
-371.800	-100.943	-0.139	0.034
-370.785	-121.875	-0.308	-0.051
-369.771	-1.638	-0.128	0.091
-368.756	-200.000	-0.004	0.032
-367.742	158.446	-0.112	-0.155
-366.727	-13.654	0.094	-0.061
-365.712	-60.046	0.124	-0.053
-364.698	-134.725	-0.249	0.030
-363.683	44.270	0.255	-0.234
-362.669	-200.000	-0.075	0.414
-361.654	-120.138	0.144	-0.025
-360.639	187.448	-0.045	0.067
-359.625	-93.667	-0.166	-0.046
-358.610	457.731	-0.038	-0.086
-357.596	-200.000	-0.009	0.309
-356.581	219.276	-0.189	0.302
-355.566	-19.887	-0.169	0.105
-354.552	-66.827	0.212	0.084
-353.537	-60.637	-0.119	-0.051
-352.523	6.262	0.029	0.022
-351.508	52.707	-0.214	0.204
-350.493	-112.245	-0.312	0.063
-349.479	-151.721	0.241	-0.018
-348.464	38.987	0.310	0.277
-347.450	-121.649	-0.149	-0.025
-346.435	452.848	0.120	-0.265
-345.420	-152.167	-0.249	-0.018
-344.406	-58.170	-0.183	-0.080
-343.391	-41.452	-0.257	-0.132
-342.377	-45.042	0.192	-0.096
-341.362	800.000	0.031	0.099
-340.348	-200.000	-0.019	-0.211
-339.333	-4.115	0.272	0.189
-338.318	265.246	-0.196	0.342
-337.304	-67.128	-0.301	0.119
-336.289	800.000	-0.071	-0.280
-335.275	-200.000	0.055	0.311
-334.260	176.026	0.103	0.149
-333.245	283.764	-0.090	-0.161
-332.231	800.000	-0.032	0.090
-331.216	170.743	0.142	-0.203
-330.202	-200.000	-0.002	-0.089
-329.187	-151.935	0.251	0.018
-328.172	499.351	-0.064	0.148
-327.158	-200.000	0.000	0.048
-326.143	-154.280	0.167	-0.011
-325.129	100.788	0.097	0.113
-324.114	-64.977	0.079	-0.032
-323.099	295.205	-0.064	-0.118
-322.085	229.451	0.067	-0.110
-321.070	256.207	-0.130	0.224
-320.056	-128.861	-0.213	-0.030
-319.041	-82.585	-0.232	0.075
-318.026	-19.889	0.353	-0.218
-317.012	-200.000	0.016	0.159
-315.997	106.322	0.021	0.024
-314.983	-30.434	-0.229	0.130
-313.968	79.779	-0.292	-0.314
-312.953	192.648	-0.109	-0.165
-311.939	-126.964	-0.086	0.013
-310.924	135.404	-0.184	-0.240
-309.910	65.405	0.187	-0.189
-308.895	-200.000	0.005	0.303
-307.880	-122.191	-0.227	-0.037
-306.866	-8.112	0.153	0.103
-305.851	-79.101	0.522	0.177
-304.837	9.631	-0.154	-0.116
-303.822	33.092	0.164	0.142
-302.807	14.859	-0.123	-0.096
-301.793	-67.779	-0.310	-0.121
-300.778	-200.000	-0.031	0.257
-299.764	314.793	-0.083	0.156
-298.749	-200.000	0.020	0.376
-297.735	13.004	-0.134	-0.104
-296.720	441.451	-0.065	-0.142
-295.705	-100.760	0.336	0.083
-294.691	-62.333	0.261	0.109
-293.676	45.932	0.242	-0.224
-292.662	446.220	0.024	-0.052
-291.647	214.920	0.132	0.209
-290.632	-5.003	-0.076	0.052
-289.618	176.216	0.241	0.350
-288.603	-61.346	0.304	-0.128
-287.589	-200.000	-0.001	0.240
-286.574	-148.595	-0.127	0.010
-285.559	369.057	0.073	0.148
-284.545	22.911	-0.211	0.173
-283.530	67.448	0.140	-0.143
-282.516	132.382	-0.192	-0.247
-281.501	-46.480	0.132	0.064
-280.486	-200.000	0.003	0.042
-279.472	728.834	0.066	0.175
-278.457	-192.542	0.039	-0.000
-277.443	400.104	0.072	0.151
-276.428	48.818	-0.355	0.333
-275.413	-146.192	-0.144	0.013
-274.399	-4.312	-0.163	0.113
-273.384	-14.818	-0.122	-0.078
-272.370	-52.179	-0.334	-0.154
-271.355	-87.561	-0.087	0.026
-270.340	-31.299	-0.143	0.080
-269.326	-147.153	-0.405	0.035
-268.311	64.258	0.027	0.027
-267.297	29.144	0.090	0.077
-266.282	-200.000	-0.038	-0.171
-265.267	34.258	-0.041	0.036
-264.253	-200.000	-0.013	-0.180
-263.238	-200.000	0.023	0.318
-262.224	70.675	0.185	0.190
-261.209	-200.000	-0.049	0.281
-260.195	198.043	-0.199	0.304
-259.180	-200.000	-0.005	-0.093
-258.165	51.779	0.253	0.240
-257.151	136.517	0.106	0.138
-256.136	40.141	-0.220	-0.198
-255.122	-71.335	0.336	-0.126
-254.107	294.773	-0.151	-0.276
-253.092	272.693	0.144	-0.254
-252.078	70.732	0.204	0.211
-251.063	28.062	0.152	0.128
-250.049	-200.000	0.045	-0.213
-249.034	75.681	0.148	-0.156
-248.019	-23.839	0.204	-0.122
-247.005	89.794	0.115	-0.129
-245.990	-19.899	0.251	0.155
-244.976	-8.662	-0.193	0.129
-243.961	33.821	-0.103	-0.089
-242.946	-200.000	0.005	0.083
-241.932	-200.000	0.005	0.117
-240.917	292.565	0.190	-0.345
-239.903	-200.000	-0.007	0.153
-238.888	-160.988	-0.121	-0.006
-237.873	-80.219	0.228	-0.076
-236.859	168.016	0.213	0.302
-235.844	-111.688	0.083	-0.017
-234.830	-105.203	0.212	0.048
-233.815	-118.999	0.288	-0.050
-232.800	1.588	0.274	-0.197
-231.786	92.381	0.114	-0.128
-230.771	800.000	0.016	0.059
-229.757	143.531	0.114	-0.152
-228.742	123.059	-0.089	0.111
-227.727	-200.000	-0.038	0.173
-226.713	191.719	0.085	-0.128
-225.698	148.471	-0.087	-0.116
-224.684	-117.753	-0.146	-0.026
-223.669	130.214	0.240	0.306
-222.655	-130.794	0.328	-0.044
-221.640	-17.676	0.141	-0.088
-220.625	-54.966	0.229	0.103
-219.611	-48.322	-0.486	0.233
-218.596	-103.229	0.325	-0.076
-217.582	-109.777	-0.164	-0.034
-216.567	40.958	-0.099	-0.089
-215.552	-200.000	-0.018	0.307
-214.538	411.148	0.016	-0.033
-213.523	-126.274	-0.273	0.041
-212.509	-200.000	0.036	0.192
-211.494	212.491	0.060	0.095
-210.479	38.491	-0.125	0.111
-209.465	536.490	0.093	-0.220
-208.450	17.775	-0.324	-0.257
-207.436	94.801	0.158	-0.179
-206.421	800.000	0.044	-0.136
-205.406	-114.731	-0.274	0.052
-204.392	264.189	-0.170	0.295
-203.377	-200.000	0.004	0.253
-202.363	-109.696	-0.564	0.118
-201.348	-25.993	0.077	0.045
-200.333	-200.000	-0.011	0.078
-199.319	-200.000	0.016	0.072
-198.304	452.310	-0.191	-0.419
-197.290	90.793	-0.060	-0.067
-196.275	83.372	-0.171	0.185
-195.260	-12.064	-0.137	0.089
-194.246	116.531	0.036	0.044
-193.231	-61.929	-0.147	-0.061
-192.217	95.448	-0.225	0.255
-191.202	-50.399	0.151	0.071
-190.187	-68.416	0.374	-0.144
-189.173	800.000	0.039	0.127
-188.158	157.605	0.208	-0.287
-187.144	-105.158	0.202	-0.046
-186.129	-6.230	0.074	-0.050
-185.114	-200.000	0.023	-0.324
-184.100	32.552	-0.208	-0.178
-183.085	75.741	0.172	-0.181
-182.071	-79.546	0.339	0.114
-181.056	-30.498	-0.190	0.107
-180.042	-33.112	0.288	-0.159
-179.027	-83.288	0.235	-0.075
-178.012	24.723	0.162	-0.133
-176.998	221.452	-0.102	0.163
-175.983	-111.589	-0.107	-0.022
-174.969	-31.733	-0.207	0.116
-173.954	800.000	-0.005	-0.014
-172.939	-200.000	-0.082	-0.389
-171.925	-107.694	0.353	0.077
-170.910	-87.278	0.057	-0.017
-169.896	800.000	0.045	0.145
-168.881	330.451	0.138	-0.263
-167.866	139.454	-0.163	-0.213
-166.852	-83.133	-0.118	0.038
-165.837	800.000	0.094	0.315
-164.823	181.262	-0.064	0.093
-163.808	-57.517	-0.074	-0.032
-162.793	-62.109	0.480	0.199
-161.779	-163.002	-0.221	-0.011
-160.764	-120.647	-0.204	0.034
-159.750	-131.790	0.121	-0.016
-158.735	-200.000	-0.039	0.271
-157.720	204.735	-0.089	-0.136
-156.706	-105.878	0.112	0.025
-155.691	-47.049	-0.209	-0.101
-154.677	41.251	-0.087	-0.078
-153.662	320.464	0.143	0.269
-152.647	-33.965	-0.170	-0.093
-151.633	-115.981	0.476	-0.088
-150.618	36.078	-0.269	-0.235
-149.604	-94.778	-0.146	0.039
-148.589	-133.525	0.181	-0.022
-147.574	169.526	0.083	-0.117
-146.560	119.481	0.157	-0.193
-145.545	800.000	0.021	-0.076
-144.531	7.051	0.122	0.090
-143.516	631.527	0.073	-0.185
-142.502	1.851	-0.107	0.077
-141.487	800.000	0.050	0.155
-140.472	-162.881	0.171	0.008
-139.458	-122.601	-0.025	-0.004
-138.443	-40.476	-0.370	0.191
-137.429	-200.000	0.029	0.139
-136.414	9.383	-0.186	0.140
-135.399	210.774	-0.116	-0.180
-134.385	-173.132	0.334	0.010
-133.370	-200.000	0.062	0.270
-132.356	-1.207	0.069	-0.048
-131.341	-36.493	0.110	-0.059
-130.326	182.474	0.161	-0.236
-129.312	-200.000	0.020	-0.378
-128.297	-123.896	0.073	-0.011
-127.283	-139.636	-0.075	0.008
-126.268	216.924	-0.234	0.369
-125.253	106.080	0.212	0.249
-124.239	-32.057	-0.092	0.051
-123.224	-25.101	0.023	-0.014
-122.210	-31.818	0.178	-0.099
-121.195	800.000	-0.123	0.446
