DTS Sentinel unit serial number:	SN413079Multiplexer serial number:	ORYXHardware model number:	OX4-SRSoftware version number:	ORYX F/W v4.00 Oryx Data Collector v3.7.2.0data status	okinstallation	princeton_trtdifferential loss correction	single-endedforward channel	channel 4reverse channel	N/Adate	2019/09/13time	17:57:35forward acquisition time	60.00reverse acquisition time	0.00gamma	496.2192k internal	0.2299k external	0.2299temperature offset calibration	1.0215default loss term (dB/km)	0.3790temperature slope calibration	1.0000multiplexer offset coefficient	1.0000multiplexer slope coefficient	1.0000fibre end	0.00T internal ref (°C)	35.12T ext. ref 1 (°C)	4.81T ext. ref 2 (°C)	28.02length (m)	temperature (°C)	Stokes	anti-Stokes-747.200	73.698	0.140	0.150
-746.185	800.000	0.036	0.130
-745.171	31.590	-0.110	0.097
-744.156	33.177	-0.318	0.282
-743.142	69.755	-0.085	0.089
-742.127	-200.000	-0.019	-0.088
-741.112	-82.031	0.193	-0.064
-740.098	-117.762	-0.288	-0.053
-739.083	-55.771	0.024	0.011
-738.069	310.074	-0.068	0.130
-737.054	602.451	0.199	-0.505
-736.039	5.895	-0.330	0.249
-735.025	-171.690	0.473	0.016
-734.010	-103.350	0.113	0.027
-732.996	-200.000	-0.171	-0.001
-731.981	176.443	0.100	0.148
-730.966	246.033	-0.076	0.130
-729.952	-200.000	-0.015	0.234
-728.937	-83.632	-0.213	-0.069
-727.923	-118.237	-0.283	-0.051
-726.908	-200.000	0.000	0.028
-725.894	-200.000	-0.017	-0.297
-724.879	-43.036	0.199	-0.103
-723.864	-76.198	0.121	-0.044
-722.850	800.000	0.031	-0.090
-721.835	-146.244	-0.181	-0.016
-720.821	-60.039	-0.363	-0.158
-719.806	471.401	0.107	-0.245
-718.791	241.525	-0.165	0.281
-717.777	-130.596	0.082	-0.011
-716.762	-67.881	0.421	-0.168
-715.748	-200.000	-0.038	-0.183
-714.733	71.630	-0.217	-0.230
-713.718	38.707	-0.260	-0.236
-712.704	-200.000	0.028	-0.150
-711.689	137.957	0.073	-0.097
-710.675	-200.000	-0.010	-0.100
-709.660	153.213	-0.168	0.234
-708.645	45.130	0.023	0.021
-707.631	-13.861	-0.268	-0.177
-706.616	-82.140	-0.304	-0.101
-705.602	-53.984	0.116	0.054
-704.587	800.000	0.069	-0.211
-703.572	239.463	-0.065	-0.110
-702.558	-92.083	0.109	-0.032
-701.543	92.721	0.198	0.227
-700.529	-162.028	0.040	-0.002
-699.514	-80.085	-0.326	0.111
-698.499	-74.226	-0.206	-0.076
-697.485	-200.000	-0.025	-0.352
-696.470	-25.656	-0.049	0.030
-695.456	374.146	-0.132	0.274
-694.441	9.875	0.313	-0.242
-693.426	-200.000	0.098	-0.506
-692.412	-50.261	-0.190	0.091
-691.397	153.620	0.148	0.207
-690.383	289.618	-0.167	-0.309
-689.368	48.624	0.228	-0.218
-688.354	24.663	-0.175	-0.148
-687.339	800.000	-0.046	0.161
-686.324	800.000	0.116	-0.347
-685.310	320.855	0.185	-0.359
-684.295	185.186	0.067	-0.101
-683.281	-121.614	0.123	0.021
-682.266	-194.506	-0.132	0.001
-681.251	800.000	0.055	0.221
-680.237	-5.805	0.232	0.161
-679.222	-111.851	0.232	0.048
-678.208	37.603	0.241	0.218
-677.193	277.950	-0.170	0.309
-676.178	-71.994	-0.162	-0.061
-675.164	-78.166	-0.152	0.053
-674.149	800.000	0.099	0.332
-673.135	-105.884	-0.399	-0.092
-672.120	-128.580	0.087	0.012
-671.105	800.000	-0.035	0.118
-670.091	6.700	-0.218	0.165
-669.076	-68.710	0.005	-0.002
-668.062	-147.547	0.110	-0.009
-667.047	-200.000	-0.004	-0.019
-666.032	-17.032	-0.246	-0.158
-665.018	-42.971	0.314	0.162
-664.003	207.370	-0.055	-0.087
-662.989	-200.000	-0.010	-0.054
-661.974	-200.000	0.011	0.113
-660.959	-200.000	-0.021	-0.127
-659.945	-200.000	-0.013	0.267
-658.930	306.281	-0.063	0.119
-657.916	137.662	-0.066	0.088
-656.901	-66.429	0.234	0.095
-655.886	-62.686	-0.101	0.043
-654.872	800.000	-0.100	0.303
-653.857	178.090	-0.054	0.080
-652.843	800.000	-0.056	-0.216
-651.828	-200.000	0.013	-0.275
-650.814	800.000	0.031	0.120
-649.799	17.194	-0.200	-0.162
-648.784	-1.224	-0.233	-0.168
-647.770	800.000	-0.066	-0.198
-646.755	-4.841	-0.166	0.116
-645.741	-41.059	0.274	0.144
-644.726	76.990	-0.212	0.229
-643.711	-108.915	-0.258	0.056
-642.697	-77.656	-0.257	0.090
-641.682	89.652	-0.227	0.258
-640.668	-200.000	0.065	-0.497
-639.653	-88.901	-0.120	0.036
-638.638	-23.801	0.024	0.014
-637.624	-200.000	-0.006	0.151
-636.609	289.073	-0.019	-0.034
-635.595	36.557	-0.151	0.136
-634.580	58.375	-0.177	0.176
-633.565	-177.560	-0.115	0.003
-632.551	238.504	0.229	0.387
-631.536	-108.784	-0.267	0.058
-630.522	85.376	0.319	0.356
-629.507	-18.549	0.217	0.137
-628.492	195.622	0.039	-0.061
-627.478	-169.951	-0.281	-0.010
-626.463	800.000	0.038	0.113
-625.449	-22.510	-0.145	-0.089
-624.434	-200.000	0.024	-0.258
-623.419	-74.134	-0.189	-0.070
-622.405	172.828	-0.219	-0.320
-621.390	281.143	-0.023	-0.042
-620.376	551.675	-0.084	0.204
-619.361	110.734	-0.062	0.076
-618.346	426.094	0.089	-0.194
-617.332	-200.000	0.032	-0.159
-616.317	-200.000	-0.032	-0.382
-615.303	-24.487	0.132	0.080
-614.288	-70.290	0.133	0.051
-613.273	11.152	0.071	0.055
-612.259	-125.105	-0.299	0.047
-611.244	-100.367	0.205	-0.052
-610.230	158.319	-0.172	-0.243
-609.215	118.144	0.333	0.417
-608.201	258.852	-0.092	-0.162
-607.186	91.775	0.137	-0.157
-606.171	-81.948	0.155	0.051
-605.157	-150.387	-0.207	0.016
-604.142	758.396	-0.073	-0.202
-603.128	-200.000	-0.029	-0.152
-602.113	-109.633	-0.429	-0.092
-601.098	292.770	0.078	-0.145
-600.084	-112.287	-0.264	-0.054
-599.069	41.047	-0.291	0.267
-598.055	800.000	-0.060	-0.213
-597.040	213.983	-0.253	0.406
-596.025	-110.837	0.081	0.017
-595.011	-89.831	-0.222	0.066
-593.996	207.219	0.189	0.299
-592.982	-93.376	-0.150	0.042
-591.967	800.000	-0.045	0.190
-590.952	-24.776	-0.100	-0.060
-589.938	-64.081	-0.225	-0.093
-588.923	800.000	0.072	-0.271
-587.909	40.594	-0.155	-0.142
-586.894	40.667	0.131	-0.120
-585.879	800.000	-0.052	-0.221
-584.865	-200.000	-0.027	0.470
-583.850	81.528	-0.103	0.113
-582.836	800.000	0.091	-0.331
-581.821	52.813	0.028	0.027
-580.806	-11.012	0.082	-0.055
-579.792	580.434	0.055	0.138
-578.777	154.369	-0.203	-0.282
-577.763	-173.593	0.286	0.009
-576.748	-22.218	0.166	-0.102
-575.733	247.629	-0.084	0.144
-574.719	299.028	-0.209	0.390
-573.704	32.375	0.201	0.176
-572.690	-114.276	0.253	-0.049
-571.675	73.265	-0.056	-0.059
-570.661	332.409	-0.084	-0.163
-569.646	-173.477	0.027	0.001
-568.631	-124.126	-0.118	-0.019
-567.617	156.075	-0.123	0.171
-566.602	-105.957	-0.136	0.031
-565.588	348.767	0.046	0.093
-564.573	24.108	0.183	-0.153
-563.558	199.259	0.142	0.221
-562.544	-151.536	0.156	0.012
-561.529	-73.263	-0.277	0.103
-560.515	-133.695	-0.149	-0.019
-559.500	-200.000	-0.024	0.195
-558.485	-200.000	0.049	-0.272
-557.471	43.983	0.087	-0.081
-556.456	206.870	-0.120	-0.189
-555.442	-200.000	-0.059	0.274
-554.427	55.697	-0.158	-0.155
-553.412	800.000	0.117	-0.406
-552.398	154.331	0.199	-0.277
-551.383	800.000	-0.040	0.162
-550.369	-47.019	-0.281	-0.139
-549.354	-200.000	-0.034	-0.169
-548.339	-200.000	-0.001	0.112
-547.325	153.653	-0.163	-0.226
-546.310	-11.410	0.145	-0.097
-545.296	137.959	-0.066	0.088
-544.281	-200.000	-0.021	0.196
-543.266	-144.513	-0.118	-0.011
-542.252	-19.145	-0.351	0.221
-541.237	-47.907	-0.215	-0.105
-540.223	-200.000	0.038	-0.265
-539.208	-115.252	-0.308	0.059
-538.193	33.707	0.122	-0.108
-537.179	-55.193	-0.126	0.057
-536.164	800.000	0.107	-0.331
-535.150	-179.311	-0.110	0.002
-534.135	703.494	-0.093	0.247
-533.121	-75.638	0.118	0.042
-532.106	-82.387	-0.318	-0.105
-531.091	236.932	-0.037	-0.061
-530.077	69.335	0.245	-0.255
-529.062	523.871	0.042	0.100
-528.048	-30.852	0.211	-0.121
-527.033	127.467	0.238	0.306
-526.018	33.060	-0.148	0.130
-525.004	22.297	-0.215	0.177
-523.989	-177.797	0.157	-0.004
-522.975	800.000	-0.093	-0.289
-521.960	-200.000	0.002	-0.136
-520.945	-126.284	-0.325	0.049
-519.931	-129.314	-0.039	0.006
-518.916	-112.682	0.132	-0.027
-517.902	135.960	-0.112	0.147
-516.887	10.703	-0.036	0.028
-515.872	116.176	0.103	0.128
-514.858	378.857	0.064	-0.133
-513.843	-200.000	-0.017	-0.226
-512.829	445.200	-0.026	0.059
-511.814	311.155	-0.075	0.141
-510.799	27.602	-0.132	-0.112
-509.785	21.879	-0.174	-0.144
-508.770	140.356	-0.168	-0.224
-507.756	-30.812	-0.133	0.076
-506.741	-32.243	0.080	0.045
-505.726	174.122	-0.219	-0.320
-504.712	800.000	0.054	-0.177
-503.697	-200.000	-0.059	0.275
-502.683	800.000	-0.041	0.118
-501.668	-40.850	0.214	-0.112
-500.653	800.000	-0.030	-0.095
-499.639	-109.227	0.147	0.032
-498.624	-43.993	0.119	0.061
-497.610	266.017	0.101	0.179
-496.595	148.009	-0.150	-0.205
-495.581	131.907	-0.122	0.158
-494.566	71.923	0.134	0.141
-493.551	800.000	0.061	0.221
-492.537	68.765	0.200	0.207
-491.522	-37.946	0.164	0.088
-490.508	-189.688	-0.123	0.001
-489.493	-87.047	-0.257	-0.079
-488.478	34.530	-0.186	-0.164
-487.464	7.781	-0.025	0.019
-486.449	259.116	0.217	-0.379
-485.435	-200.000	0.034	-0.240
-484.420	-49.593	0.001	0.000
-483.405	63.279	-0.313	0.317
-482.391	-39.112	0.245	0.130
-481.376	-111.160	-0.175	-0.036
-480.362	-200.000	0.019	-0.619
-479.347	-19.533	-0.147	-0.092
-478.332	72.098	0.266	-0.279
-477.318	-10.377	-0.143	-0.096
-476.303	-200.000	0.009	0.162
-475.289	41.567	0.317	0.290
-474.274	-19.824	0.093	-0.058
-473.259	-78.587	-0.107	-0.037
-472.245	-145.123	0.236	-0.022
-471.230	800.000	-0.013	-0.045
-470.216	800.000	0.044	-0.149
-469.201	-200.000	0.004	0.087
-468.186	333.592	0.054	0.105
-467.172	569.336	-0.091	-0.222
-466.157	-200.000	0.015	0.167
-465.143	-144.651	-0.247	0.023
-464.128	574.932	-0.150	-0.369
-463.113	-120.486	0.300	0.051
-462.099	800.000	0.029	0.102
-461.084	511.393	0.147	0.345
-460.070	-51.751	0.318	0.150
-459.055	211.275	0.159	0.252
-458.040	-200.000	-0.038	-0.418
-457.026	-24.370	-0.282	-0.170
-456.011	-47.940	0.228	0.111
-454.997	-200.000	0.012	0.157
-453.982	-118.312	0.289	0.052
-452.968	-109.826	0.141	0.030
-451.953	237.017	-0.043	-0.072
-450.938	800.000	-0.074	-0.229
-449.924	12.653	0.321	0.250
-448.909	103.225	0.103	-0.122
-447.895	-133.829	-0.057	0.007
-446.880	800.000	-0.072	-0.201
-445.865	-21.071	-0.196	0.121
-444.851	148.854	0.154	0.210
-443.836	-29.475	-0.117	0.067
-442.822	157.420	-0.257	-0.358
-441.807	22.898	0.132	0.109
-440.792	-143.614	0.425	-0.041
-439.778	-200.000	-0.014	-0.397
-438.763	-200.000	-0.344	0.000
-437.749	-200.000	0.061	-0.419
-436.734	-200.000	0.054	-0.271
-435.719	-167.893	-0.253	0.010
-434.705	320.465	0.060	-0.115
-433.690	404.389	0.093	-0.197
-432.676	238.856	0.085	0.142
-431.661	-178.677	-0.055	0.001
-430.646	-58.499	-0.177	-0.077
-429.632	-200.000	-0.016	-0.356
-428.617	-35.762	0.104	0.057
-427.603	628.264	0.092	0.235
-426.588	800.000	-0.025	0.097
-425.573	-102.136	-0.270	0.066
-424.559	-66.481	0.296	0.118
-423.544	-119.954	0.026	-0.005
-422.530	-98.765	-0.179	-0.046
-421.515	-200.000	0.027	-0.281
-420.500	-35.259	-0.204	-0.112
-419.486	30.393	0.117	0.101
-418.471	72.825	0.080	-0.085
-417.457	-200.000	0.007	0.614
-416.442	541.171	0.074	0.179
-415.428	-108.011	0.057	0.012
-414.413	-74.864	-0.051	0.019
-413.398	-200.000	0.028	0.201
-412.384	9.543	0.331	-0.252
-411.369	-200.000	-0.025	-0.188
-410.355	98.684	0.216	0.251
-409.340	507.180	-0.085	0.199
-408.325	733.583	0.042	-0.114
-407.311	800.000	-0.084	-0.245
-406.296	-39.922	-0.280	0.147
-405.282	253.247	0.170	-0.292
-404.267	-200.000	0.072	0.402
-403.252	21.508	0.087	0.071
-402.238	-12.014	0.277	-0.183
-401.223	-200.000	0.048	-0.370
-400.209	300.943	0.120	-0.223
-399.194	800.000	-0.043	0.126
-398.179	1.759	0.037	-0.027
-397.165	-200.000	0.037	-0.267
-396.150	212.866	-0.034	-0.055
-395.136	-164.135	0.431	-0.020
-394.121	-83.261	0.167	0.054
-393.106	-30.338	0.398	0.228
-392.092	28.681	-0.152	0.129
-391.077	-102.245	-0.200	-0.048
-390.063	-200.000	0.006	0.195
-389.048	-61.612	-0.157	-0.066
-388.033	75.555	-0.047	0.050
-387.019	187.133	0.013	0.019
-386.004	434.836	-0.146	0.320
-384.990	137.425	0.206	-0.271
-383.975	-77.718	0.108	0.038
-382.960	63.125	0.036	-0.037
-381.946	800.000	-0.053	0.167
-380.931	-35.646	0.182	0.099
-379.917	-132.549	-0.075	0.010
-378.902	-200.000	-0.002	0.256
-377.888	-200.000	-0.027	0.272
-376.873	-98.839	0.550	-0.141
-375.858	800.000	0.030	0.129
-374.844	-5.917	-0.126	-0.086
-373.829	-136.426	-0.081	-0.009
-372.815	-120.265	-0.286	0.049
-371.800	-200.000	0.001	0.088
-370.785	188.682	0.254	-0.382
-369.771	-16.500	0.400	-0.255
-368.756	70.556	0.085	-0.088
-367.742	800.000	-0.044	-0.180
-366.727	-200.000	0.025	0.199
-365.712	56.794	0.348	-0.340
-364.698	-110.204	0.292	0.061
-363.683	-21.734	-0.132	0.081
-362.669	317.940	-0.225	0.428
-361.654	-54.702	0.120	0.055
-360.639	-91.951	-0.312	0.089
-359.625	-200.000	-0.065	-0.356
-358.610	240.278	-0.061	0.101
-357.596	-92.169	-0.120	0.034
-356.581	-200.000	-0.012	0.130
-355.566	-58.736	0.306	-0.133
-354.552	135.457	0.215	0.281
-353.537	-200.000	-0.010	-0.065
-352.523	800.000	0.044	-0.193
-351.508	217.078	-0.164	-0.262
-350.493	67.384	0.077	0.079
-349.479	-200.000	-0.092	0.404
-348.464	800.000	-0.103	-0.336
-347.450	-112.678	-0.132	-0.026
-346.435	-169.880	-0.088	-0.003
-345.420	203.992	0.173	0.269
-344.406	125.745	-0.015	0.019
-343.391	317.060	-0.110	-0.209
-342.377	-52.509	-0.179	-0.083
-341.362	-200.000	0.048	-0.278
-340.348	-34.447	-0.206	-0.113
-339.333	800.000	0.046	0.130
-338.318	39.700	0.131	0.118
-337.304	64.755	0.196	0.198
-336.289	-200.000	-0.232	-0.000
-335.275	531.880	0.007	0.016
-334.260	-56.555	-0.303	0.135
-333.245	106.473	0.134	0.160
-332.231	495.652	0.128	0.296
-331.216	800.000	-0.065	0.228
-330.202	164.544	-0.177	-0.251
-329.187	-95.109	0.133	-0.036
-328.172	285.521	0.046	-0.082
-327.158	-34.583	-0.407	-0.224
-326.143	120.771	-0.151	0.189
-325.129	46.236	0.248	-0.231
-324.114	104.098	-0.191	0.225
-323.099	-67.907	-0.244	0.096
-322.085	59.052	-0.238	0.235
-321.070	390.911	0.051	-0.106
-320.056	-26.073	-0.260	0.154
-319.041	448.295	-0.067	0.148
-318.026	-19.672	-0.212	0.132
-317.012	-191.652	-0.116	-0.001
-315.997	800.000	-0.103	-0.345
-314.983	-132.049	0.066	-0.009
-313.968	461.504	-0.123	0.276
-312.953	372.301	0.078	0.159
-311.939	-14.135	0.104	-0.067
-310.924	107.788	-0.136	-0.162
-309.910	-60.131	0.166	0.071
-308.895	-150.667	0.411	0.031
-307.880	-127.024	-0.209	-0.031
-306.866	38.913	-0.057	-0.051
-305.851	800.000	-0.084	0.286
-304.837	-141.976	0.197	-0.020
-303.822	-200.000	-0.027	0.129
-302.807	5.470	-0.210	-0.155
-301.793	-68.894	0.251	-0.097
-300.778	800.000	-0.045	-0.147
-299.764	666.815	0.035	-0.091
-298.749	-65.431	-0.230	-0.093
-297.735	-74.157	-0.174	0.063
-296.720	686.059	0.120	0.314
-295.705	138.739	0.164	0.216
-294.691	-22.046	-0.333	0.203
-293.676	-93.919	0.345	-0.095
-292.662	-89.189	0.062	-0.018
-291.647	-200.000	-0.110	-0.495
-290.632	800.000	0.090	-0.303
-289.618	-144.118	0.084	-0.008
-288.603	92.852	0.182	-0.206
-287.589	800.000	-0.021	-0.062
-286.574	199.894	-0.100	0.154
-285.559	-67.021	0.166	-0.066
-284.545	-83.998	-0.262	0.083
-283.530	-61.979	-0.329	-0.138
-282.516	-200.000	0.019	-0.202
-281.501	-100.761	-0.239	-0.059
-280.486	11.382	0.215	-0.165
-279.472	-200.000	0.317	0.001
-278.457	-200.000	-0.007	-0.173
-277.443	-200.000	-0.035	0.169
-276.428	-200.000	0.003	-0.073
-275.413	800.000	-0.028	0.119
-274.399	218.999	0.129	-0.206
-273.384	-16.355	0.218	-0.139
-272.370	17.091	-0.112	-0.089
-271.355	-26.000	0.217	0.128
-270.340	74.957	0.235	0.248
-269.326	2.570	-0.393	0.285
-268.311	800.000	-0.067	0.239
-267.297	-72.333	0.176	-0.065
-266.282	202.436	-0.148	0.229
-265.267	31.511	0.202	0.174
-264.253	118.907	0.092	-0.114
-263.238	-45.443	-0.090	0.045
-262.224	-156.760	-0.273	-0.017
-261.209	-99.599	-0.096	-0.024
-260.195	87.015	-0.019	0.021
-259.180	-193.215	-0.229	0.002
-258.165	52.160	-0.064	-0.061
-257.151	-67.269	-0.144	-0.057
-256.136	-31.416	0.020	0.011
-255.122	-200.000	0.022	-0.317
-254.107	-54.097	-0.088	0.040
-253.092	-118.666	0.375	0.066
-252.078	-200.000	-0.048	0.285
-251.063	158.067	-0.054	-0.075
-250.049	-200.000	0.049	-0.344
-249.034	-53.572	-0.098	-0.045
-248.019	4.241	-0.311	-0.228
-247.005	-70.943	-0.303	0.114
-245.990	-200.000	-0.002	0.229
-244.976	-43.345	0.102	-0.051
-243.961	-200.000	-0.022	-0.147
-242.946	-43.365	-0.296	0.150
-241.932	-200.000	-0.043	-0.198
-240.917	1.136	-0.101	0.073
-239.903	498.816	0.136	0.314
-238.888	-68.427	0.124	0.048
-237.873	-91.212	0.212	-0.061
-236.859	405.214	-0.105	-0.221
-235.844	-135.830	-0.270	0.032
-234.830	-200.000	0.005	0.360
-233.815	529.976	-0.046	0.108
-232.800	-55.576	0.070	0.031
-231.786	800.000	-0.041	-0.157
-230.771	-200.000	-0.012	-0.098
-229.757	150.381	-0.031	-0.042
-228.742	3.096	0.223	0.162
-227.727	152.908	0.136	0.186
-226.713	93.210	0.182	-0.206
-225.698	-200.000	-0.033	0.397
-224.684	15.322	0.063	-0.049
-223.669	280.475	0.125	-0.224
-222.655	-12.615	0.099	0.065
-221.640	304.248	0.244	-0.452
-220.625	168.256	-0.010	0.014
-219.611	111.333	0.189	0.228
-218.596	75.242	-0.044	0.046
-217.582	-200.000	0.287	-0.001
-216.567	-41.922	0.298	-0.153
-215.552	316.688	0.137	0.258
-214.538	-50.203	-0.038	-0.018
-213.523	51.825	0.185	-0.176
-212.509	-200.000	-0.069	0.488
-211.494	-200.000	-0.005	0.269
-210.479	406.703	-0.078	0.165
-209.465	310.878	-0.127	-0.237
-208.450	787.016	0.155	-0.424
-207.436	-107.412	0.176	-0.039
-206.421	103.764	-0.041	0.048
-205.406	187.334	-0.077	0.114
-204.392	18.892	-0.108	0.087
-203.377	-77.889	0.125	0.043
-202.363	-88.447	0.154	0.046
-201.348	-31.114	0.182	0.103
-200.333	8.094	0.163	-0.122
-199.319	150.000	0.083	-0.112
-198.304	-62.813	0.324	-0.134
-197.290	138.993	0.070	-0.092
-196.275	-100.299	-0.128	0.032
-195.260	-11.580	0.294	0.193
-194.246	48.575	0.238	0.223
-193.231	169.396	-0.042	-0.060
-192.217	308.739	0.079	0.148
-191.202	218.674	0.257	0.410
-190.187	800.000	-0.031	0.102
-189.173	-200.000	0.013	-0.186
-188.158	-200.000	0.027	-0.171
-187.144	-200.000	-0.015	-0.258
-186.129	-50.046	-0.098	0.046
-185.114	319.535	0.026	-0.048
-184.100	-28.461	-0.356	-0.205
-183.085	-200.000	-0.007	0.072
-182.071	-59.874	0.339	0.145
-181.056	-49.996	-0.439	0.208
-180.042	-28.104	-0.234	0.135
-179.027	594.889	-0.017	0.041
-178.012	800.000	0.095	0.286
-176.998	-65.695	0.133	-0.053
-175.983	-105.624	0.054	0.012
-174.969	-200.000	0.006	0.123
-173.954	-91.073	-0.061	-0.017
-172.939	278.489	-0.054	-0.097
-171.925	-15.760	0.182	0.116
-170.910	-11.022	-0.155	-0.102
-169.896	-42.242	-0.243	-0.124
-168.881	800.000	0.105	0.294
-167.866	-95.377	0.143	-0.038
-166.852	-200.000	-0.002	-0.073
-165.837	295.075	-0.084	0.153
-164.823	-74.999	-0.052	0.019
-163.808	35.779	0.205	0.179
-162.793	-88.156	0.347	-0.104
-161.779	33.323	0.123	0.107
-160.764	339.506	0.090	0.176
-159.750	-125.289	0.204	0.031
-158.735	393.492	0.101	-0.209
-157.720	176.834	0.177	-0.256
-156.706	276.233	-0.058	-0.103
-155.691	5.196	0.247	-0.182
-154.677	385.472	0.180	0.370
-153.662	132.430	-0.081	-0.104
-152.647	792.661	-0.032	0.087
-151.633	800.000	0.066	0.274
-150.618	188.249	0.249	0.371
-149.604	40.551	0.216	-0.194
-148.589	-103.619	-0.410	-0.096
-147.574	-200.000	0.032	-0.153
-146.560	276.483	0.043	-0.076
-145.545	53.726	0.284	-0.272
-144.531	658.376	0.061	-0.157
-143.516	34.310	0.178	0.155
-142.502	253.470	-0.091	0.155
-141.487	-32.885	0.241	0.134
-140.472	200.118	0.182	0.278
-139.458	-95.251	-0.246	0.066
-138.443	-200.000	0.002	-0.153
-137.429	-10.099	-0.322	-0.214
-136.414	738.869	0.048	0.128
-135.399	-200.000	0.004	-0.081
-134.385	43.560	-0.216	0.197
-133.370	329.246	-0.147	-0.282
-132.356	-76.314	0.124	0.043
-131.341	-141.639	0.378	0.038
-130.326	188.030	-0.057	0.085
-129.312	-50.197	0.517	0.243
-128.297	-29.916	0.314	0.178
-127.283	-34.512	-0.169	-0.092
-126.268	13.299	-0.169	0.131
-125.253	291.608	-0.060	0.108
-124.239	403.779	0.111	-0.233
-123.224	-113.240	0.123	-0.024
-122.210	-164.639	0.188	0.008
-121.195	-145.878	0.024	-0.002
