DTS Sentinel unit serial number:	SN413079Multiplexer serial number:	ORYXHardware model number:	OX4-SRSoftware version number:	ORYX F/W v4.00 Oryx Data Collector v3.7.2.0data status	okinstallation	princeton_trtdifferential loss correction	single-endedforward channel	channel 4reverse channel	N/Adate	2019/09/16time	23:25:35forward acquisition time	60.00reverse acquisition time	0.00gamma	496.2192k internal	0.2314k external	0.2314temperature offset calibration	0.9976default loss term (dB/km)	0.3790temperature slope calibration	1.0000multiplexer offset coefficient	1.0000multiplexer slope coefficient	1.0000fibre end	0.00T internal ref (°C)	29.94T ext. ref 1 (°C)	0.09T ext. ref 2 (°C)	23.59length (m)	temperature (°C)	Stokes	anti-Stokes-747.200	566.822	0.038	-0.093
-746.185	276.781	0.160	0.288
-745.171	716.712	-0.184	0.496
-744.156	-52.566	-0.363	0.170
-743.142	-31.840	-0.260	-0.148
-742.127	-1.367	0.119	-0.085
-741.112	-200.000	-0.042	0.312
-740.098	800.000	0.124	0.536
-739.083	121.090	0.083	0.104
-738.069	-70.255	-0.205	0.079
-737.054	-192.136	-0.235	-0.002
-736.039	-62.724	0.205	-0.086
-735.025	-23.731	0.167	0.101
-734.010	-200.000	-0.038	-0.298
-732.996	49.402	0.025	0.024
-731.981	-200.000	-0.010	0.130
-730.966	-171.107	-0.269	-0.009
-729.952	-1.854	-0.195	-0.139
-728.937	-39.300	-0.052	-0.027
-727.923	-200.000	0.063	0.291
-726.908	160.023	0.148	-0.209
-725.894	-87.368	0.086	-0.026
-724.879	800.000	0.085	-0.240
-723.864	-46.344	-0.162	-0.081
-722.850	-39.542	-0.100	-0.053
-721.835	-115.557	-0.276	0.053
-720.821	-200.000	0.027	-0.135
-719.806	201.617	0.216	0.337
-718.791	281.886	-0.212	0.385
-717.777	-200.000	0.029	0.385
-716.762	800.000	-0.067	0.221
-715.748	800.000	-0.080	0.242
-714.733	-24.389	-0.108	0.065
-713.718	364.859	-0.193	-0.394
-712.704	65.262	0.221	-0.227
-711.689	68.375	0.109	-0.113
-710.675	-56.204	-0.263	-0.119
-709.660	-200.000	-0.108	0.506
-708.645	357.759	0.041	0.082
-707.631	101.874	0.091	0.108
-706.616	21.744	0.273	0.225
-705.602	-18.203	0.164	0.104
-704.587	-85.226	0.156	0.049
-703.572	176.692	-0.147	0.217
-702.558	-35.713	-0.129	0.071
-701.543	21.668	0.397	-0.327
-700.529	-200.000	-0.032	-0.270
-699.514	39.690	0.147	0.134
-698.499	-200.000	-0.040	0.402
-697.485	238.655	-0.100	-0.168
-696.470	151.465	-0.055	0.076
-695.456	-200.000	0.019	0.381
-694.441	257.836	-0.066	-0.116
-693.426	407.395	-0.117	0.250
-692.412	-60.056	-0.212	-0.092
-691.397	455.749	0.087	0.195
-690.383	800.000	-0.030	0.091
-689.368	-62.680	-0.361	0.151
-688.354	-19.008	-0.290	0.182
-687.339	23.920	0.203	-0.169
-686.324	-200.000	-0.040	-0.340
-685.310	800.000	-0.018	0.057
-684.295	-77.415	-0.153	0.054
-683.281	-200.000	-0.002	-0.166
-682.266	800.000	-0.077	0.245
-681.251	-0.255	0.105	-0.075
-680.237	-61.103	0.318	0.136
-679.222	279.401	0.099	-0.179
-678.208	12.335	-0.195	0.152
-677.193	-0.603	-0.082	0.059
-676.178	-75.523	-0.210	0.076
-675.164	55.412	0.094	0.092
-674.149	-93.037	-0.143	-0.040
-673.135	196.607	-0.046	0.071
-672.120	-105.871	0.091	0.021
-671.105	62.109	-0.056	0.057
-670.091	78.888	0.065	0.071
-669.076	800.000	-0.060	0.168
-668.062	-25.198	-0.291	-0.175
-667.047	-200.000	-0.043	-0.329
-666.032	389.654	0.152	0.319
-665.018	-200.000	-0.005	-0.075
-664.003	75.195	0.172	0.183
-662.989	-106.210	-0.246	0.056
-661.974	71.888	-0.076	0.080
-660.959	35.429	0.138	0.123
-659.945	-174.911	0.122	-0.003
-658.930	-97.916	0.141	0.037
-657.916	444.943	-0.052	0.115
-656.901	-200.000	-0.067	0.325
-655.886	-196.785	-0.125	0.001
-654.872	-108.186	-0.303	-0.066
-653.857	76.906	0.071	-0.076
-652.843	17.694	-0.128	-0.103
-651.828	77.811	-0.069	-0.075
-650.814	-13.475	-0.256	-0.167
-649.799	661.226	-0.083	-0.217
-648.784	-57.394	0.085	0.038
-647.770	222.312	-0.084	-0.136
-646.755	548.289	0.071	0.171
-645.741	-24.733	-0.111	0.066
-644.726	800.000	-0.086	-0.287
-643.711	36.818	-0.311	0.277
-642.697	-16.855	0.077	0.049
-641.682	-15.074	0.218	0.141
-640.668	91.351	0.044	-0.050
-639.653	-200.000	0.019	0.202
-638.638	-26.135	0.166	0.099
-637.624	800.000	0.081	-0.264
-636.609	-103.041	-0.128	0.031
-635.595	199.980	0.005	-0.007
-634.580	196.794	0.030	0.046
-633.565	21.215	0.194	0.159
-632.551	-128.723	-0.247	-0.035
-631.536	-200.000	0.036	-0.336
-630.522	122.165	0.106	-0.134
-629.507	84.254	0.095	0.105
-628.492	800.000	-0.029	0.104
-627.478	441.921	0.039	0.087
-626.463	353.101	0.028	0.056
-625.449	-59.020	0.269	0.117
-624.434	800.000	-0.108	0.465
-623.419	-72.999	-0.225	0.083
-622.405	494.994	-0.075	0.173
-621.390	-100.850	0.062	0.015
-620.376	-116.057	0.344	0.065
-619.361	650.420	-0.138	0.357
-618.346	218.853	0.173	0.279
-617.332	240.176	-0.109	-0.184
-616.317	488.445	0.133	-0.305
-615.303	26.315	-0.078	-0.066
-614.288	-12.640	0.119	0.079
-613.273	95.466	-0.084	0.097
-612.259	82.829	0.079	0.086
-611.244	-200.000	0.044	-0.415
-610.230	24.056	-0.120	-0.100
-609.215	128.535	0.072	-0.093
-608.201	413.229	-0.089	-0.190
-607.186	338.295	-0.114	-0.224
-606.171	476.899	-0.048	-0.109
-605.157	20.207	0.183	-0.149
-604.142	-200.000	-0.077	-0.452
-603.128	27.804	-0.179	-0.152
-602.113	-109.019	-0.190	-0.041
-601.098	322.155	-0.100	0.192
-600.084	-135.541	0.155	-0.019
-599.069	-89.971	-0.056	-0.017
-598.055	-124.528	0.232	-0.036
-597.040	-200.000	-0.066	-0.419
-596.025	-154.344	-0.192	-0.013
-595.011	-92.207	-0.308	-0.088
-593.996	13.597	-0.156	-0.122
-592.982	8.557	0.399	-0.303
-591.967	797.997	0.055	-0.153
-590.952	115.717	-0.139	-0.172
-589.938	-177.442	-0.220	-0.005
-588.923	788.335	-0.127	0.352
-587.909	60.089	0.214	0.214
-586.894	-111.001	-0.239	-0.050
-585.879	271.774	-0.104	0.185
-584.865	-200.000	0.003	-0.214
-583.850	15.836	-0.075	0.059
-582.836	-75.850	0.208	-0.074
-581.821	-200.000	-0.004	-0.022
-580.806	-19.956	-0.249	-0.155
-579.792	-200.000	-0.009	-0.096
-578.777	-11.790	0.097	-0.064
-577.763	-200.000	0.037	-0.280
-576.748	-200.000	0.013	-0.187
-575.733	-89.708	-0.130	-0.039
-574.719	107.188	-0.044	-0.052
-573.704	665.356	0.077	0.200
-572.690	30.325	0.244	-0.210
-571.675	-14.963	-0.087	-0.056
-570.661	-138.859	0.236	-0.026
-569.646	-78.728	-0.387	0.133
-568.631	-163.205	-0.336	0.016
-567.617	-53.984	0.185	-0.085
-566.602	-200.000	0.100	0.528
-565.588	-42.975	0.221	-0.113
-564.573	22.768	-0.168	-0.139
-563.558	-138.616	-0.117	-0.013
-562.544	55.762	0.044	-0.043
-561.529	-200.000	0.005	0.063
-560.515	-39.895	-0.146	-0.077
-559.500	-200.000	0.039	-0.457
-558.485	800.000	-0.066	0.196
-557.471	-135.146	-0.215	0.026
-556.456	-27.484	-0.258	0.151
-555.442	-63.847	0.174	-0.072
-554.427	-200.000	-0.002	0.312
-553.412	11.175	-0.152	0.117
-552.398	191.530	-0.048	-0.073
-551.383	-174.500	0.359	-0.010
-550.369	800.000	0.033	0.095
-549.354	800.000	-0.091	-0.308
-548.339	-22.365	0.117	0.071
-547.325	27.584	0.232	0.196
-546.310	56.800	-0.139	0.136
-545.296	350.048	-0.056	-0.111
-544.281	-46.912	-0.301	-0.148
-543.266	-116.516	0.456	0.085
-542.252	800.000	-0.025	-0.075
-541.237	-35.090	-0.119	0.065
-540.223	4.287	0.119	-0.088
-539.208	188.737	0.124	-0.187
-538.193	-176.770	0.507	0.013
-537.179	153.975	0.158	-0.218
-536.164	-78.316	-0.093	0.032
-535.150	-17.702	-0.524	0.331
-534.135	-110.833	0.134	0.028
-533.121	-200.000	0.005	-0.040
-532.106	-3.435	-0.196	0.137
-531.091	-140.548	0.196	-0.020
-530.077	70.031	-0.196	-0.204
-529.062	800.000	-0.041	-0.116
-528.048	-93.681	-0.247	-0.069
-527.033	-200.000	-0.078	-0.558
-526.018	348.311	0.079	0.156
-525.004	96.455	-0.260	0.299
-523.989	-95.230	0.073	-0.020
-522.975	-150.401	-0.279	-0.022
-521.960	800.000	0.067	0.209
-520.945	100.104	0.219	0.255
-519.931	-200.000	-0.051	0.000
-518.916	800.000	0.019	0.058
-517.902	-31.564	-0.332	0.188
-516.887	78.563	0.137	0.147
-515.872	65.456	0.184	0.187
-514.858	191.859	-0.107	0.163
-513.843	118.648	-0.193	-0.240
-512.829	30.877	0.370	0.319
-511.814	800.000	-0.062	-0.261
-510.799	100.814	-0.117	0.136
-509.785	-200.000	0.058	-0.333
-508.770	179.566	0.147	-0.216
-507.756	-200.000	0.038	0.315
-506.741	33.354	0.045	0.039
-505.726	681.043	-0.106	0.277
-504.712	-144.292	-0.177	-0.017
-503.697	-200.000	0.014	-0.099
-502.683	-128.382	-0.181	-0.026
-501.668	169.231	0.049	0.071
-500.653	-127.232	0.202	-0.030
-499.639	63.473	-0.080	0.081
-498.624	800.000	0.122	-0.342
-497.610	-61.697	0.193	-0.081
-496.595	800.000	0.074	0.253
-495.581	-34.099	-0.134	-0.074
-494.566	101.930	0.112	0.131
-493.551	-200.000	0.018	0.134
-492.537	325.546	0.086	-0.165
-491.522	303.743	0.104	-0.194
-490.508	-15.757	-0.380	-0.243
-489.493	-200.000	-0.020	-0.133
-488.478	800.000	0.030	0.118
-487.464	6.681	-0.182	-0.136
-486.449	365.601	-0.116	-0.234
-485.435	-200.000	0.009	-0.051
-484.420	-4.708	0.070	-0.048
-483.405	97.310	0.122	0.140
-482.391	-25.817	-0.068	-0.040
-481.376	268.932	-0.190	-0.335
-480.362	-122.019	-0.189	0.031
-479.347	-152.145	0.079	0.006
-478.332	-34.344	-0.012	-0.007
-477.318	-91.113	-0.052	0.015
-476.303	-13.845	-0.341	0.221
-475.289	-141.809	0.050	0.005
-474.274	-158.699	0.238	0.014
-473.259	-200.000	-0.506	-0.001
-472.245	-0.612	0.217	-0.154
-471.230	-66.540	-0.213	0.085
-470.216	800.000	0.037	-0.112
-469.201	783.876	0.077	-0.211
-468.186	-132.956	-0.229	-0.029
-467.172	800.000	0.030	-0.096
-466.157	-24.638	0.144	-0.086
-465.143	-200.000	-0.046	0.395
-464.128	219.652	-0.060	-0.096
-463.113	-12.200	0.122	-0.080
-462.099	498.419	0.076	-0.175
-461.084	800.000	-0.086	-0.292
-460.070	-52.266	-0.169	-0.079
-459.055	-200.000	0.027	0.460
-458.040	-184.392	0.120	0.002
-457.026	187.944	-0.100	0.150
-456.011	800.000	0.039	0.115
-454.997	-88.034	-0.166	-0.050
-453.982	-200.000	0.006	0.139
-452.968	800.000	0.014	-0.057
-451.953	766.870	-0.031	-0.083
-450.938	-51.544	-0.178	-0.083
-449.924	-31.894	-0.231	0.129
-448.909	-17.406	-0.286	0.181
-447.895	102.714	0.060	0.071
-446.880	-7.800	-0.186	-0.126
-445.865	-200.000	-0.004	0.084
-444.851	224.534	0.090	-0.145
-443.836	-37.212	-0.258	-0.138
-442.822	176.651	0.006	-0.009
-441.807	48.392	0.114	0.107
-440.792	-11.887	0.083	0.055
-439.778	-24.811	0.246	0.146
-438.763	-13.550	0.059	-0.038
-437.749	-165.069	-0.217	0.010
-436.734	800.000	-0.062	-0.177
-435.719	-126.611	0.348	0.052
-434.705	-32.871	-0.186	0.103
-433.690	-134.348	-0.191	0.023
-432.676	253.454	0.166	0.284
-431.661	3.426	-0.063	-0.046
-430.646	800.000	0.050	0.187
-429.632	27.939	0.180	-0.152
-428.617	217.235	0.226	-0.360
-427.603	-117.416	-0.252	-0.046
-426.588	193.322	0.052	-0.079
-425.573	3.823	-0.238	0.174
-424.559	619.498	0.102	0.257
-423.544	21.927	0.134	0.109
-422.530	800.000	-0.040	-0.150
-421.515	-31.338	-0.072	0.040
-420.500	279.060	0.164	0.294
-419.486	314.522	0.156	0.294
-418.471	-200.000	-0.002	0.217
-417.457	-200.000	0.036	0.234
-416.442	231.233	0.057	0.093
-415.428	-124.104	0.164	-0.026
-414.413	-67.569	-0.231	0.091
-413.398	-99.253	0.148	0.037
-412.384	530.841	0.007	-0.017
-411.369	-14.992	-0.108	-0.069
-410.355	800.000	-0.089	0.269
-409.340	-64.505	-0.123	0.050
-408.325	-72.053	0.251	0.093
-407.311	533.911	-0.038	0.091
-406.296	-200.000	0.006	-0.062
-405.282	-97.874	-0.105	0.027
-404.267	-200.000	0.026	0.227
-403.252	-200.000	0.013	0.151
-402.238	-200.000	0.007	0.218
-401.223	5.589	-0.252	0.186
-400.209	800.000	-0.071	-0.226
-399.194	-144.889	-0.104	0.010
-398.179	-81.326	0.062	-0.021
-397.165	-200.000	-0.034	-0.316
-396.150	287.097	0.084	-0.153
-395.136	-32.209	-0.246	-0.138
-394.121	94.811	0.171	0.195
-393.106	33.761	0.087	-0.076
-392.092	800.000	0.042	-0.131
-391.077	74.208	-0.083	0.087
-390.063	35.527	0.215	-0.189
-389.048	-95.979	0.083	0.022
-388.033	-200.000	-0.013	0.205
-387.019	-108.506	0.033	-0.007
-386.004	-200.000	0.039	-0.425
-384.990	683.459	-0.059	-0.154
-383.975	708.527	0.032	-0.086
-382.960	104.018	0.092	0.109
-381.946	-17.493	-0.147	0.092
-380.931	-111.412	0.146	0.030
-379.917	-97.872	0.289	0.075
-378.902	-108.244	-0.286	0.062
-377.888	-79.363	-0.063	0.021
-376.873	-200.000	-0.013	-0.115
-375.858	-0.886	0.219	-0.155
-374.844	-113.631	0.069	-0.013
-373.829	800.000	0.170	0.613
-372.815	-108.918	-0.158	0.034
-371.800	-79.609	-0.344	-0.116
-370.785	-12.796	0.139	0.090
-369.771	21.097	-0.110	-0.089
-368.756	-54.874	-0.156	0.070
-367.742	-200.000	0.001	-0.072
-366.727	188.979	0.095	0.141
-365.712	-66.350	-0.274	0.109
-364.698	-114.251	-0.338	0.065
-363.683	-200.000	-0.028	0.305
-362.669	-200.000	-0.023	0.466
-361.654	-34.395	0.218	-0.119
-360.639	-79.015	0.397	0.135
-359.625	-200.000	-0.011	-0.219
-358.610	189.637	-0.255	-0.382
-357.596	-67.551	0.480	-0.188
-356.581	66.165	0.224	-0.227
-355.566	-200.000	-0.010	0.080
-354.552	353.990	0.072	-0.143
-353.537	-80.208	0.249	-0.083
-352.523	-25.330	-0.312	-0.185
-351.508	64.587	-0.180	0.181
-350.493	-48.786	0.090	0.043
-349.479	477.939	0.155	0.351
-348.464	-82.635	0.304	0.098
-347.450	-75.683	-0.100	-0.035
-346.435	-200.000	0.003	0.103
-345.420	-64.744	0.215	-0.087
-344.406	800.000	0.036	0.138
-343.391	-174.213	-0.273	-0.008
-342.377	13.525	0.113	-0.088
-341.362	800.000	0.079	0.246
-340.348	157.320	0.129	0.178
-339.333	-141.211	0.386	0.039
-338.318	-200.000	0.001	-0.189
-337.304	-74.350	0.138	-0.050
-336.289	-200.000	0.021	-0.303
-335.275	66.247	0.221	-0.224
-334.260	-200.000	-0.026	-0.236
-333.245	-99.655	-0.110	0.028
-332.231	-200.000	-0.005	0.142
-331.216	-36.219	-0.068	-0.037
-330.202	285.648	0.066	0.119
-329.187	800.000	0.059	-0.194
-328.172	-200.000	-0.006	-0.034
-327.158	-200.000	-0.008	-0.158
-326.143	-167.162	-0.127	-0.005
-325.129	0.173	-0.080	0.057
-324.114	-130.324	0.272	-0.037
-323.099	-200.000	-0.017	0.169
-322.085	-200.000	0.141	0.000
-321.070	181.282	-0.132	-0.193
-320.056	-141.414	-0.271	-0.027
-319.041	-2.854	0.067	0.047
-318.026	4.499	-0.011	-0.008
-317.012	408.846	-0.058	0.123
-315.997	800.000	0.081	-0.249
-314.983	-83.432	-0.155	-0.049
-313.968	800.000	-0.106	0.307
-312.953	90.033	0.020	0.022
-311.939	-110.346	-0.383	0.079
-310.924	6.941	0.371	-0.276
-309.910	-200.000	0.024	-0.258
-308.895	-128.888	0.198	-0.028
-307.880	-118.082	-0.359	-0.064
-306.866	-168.776	0.258	-0.010
-305.851	-20.388	-0.184	0.113
-304.837	-125.929	-0.155	0.023
-303.822	-186.455	-0.200	0.003
-302.807	278.244	-0.089	0.158
-301.793	-200.000	0.033	0.274
-300.778	-59.074	0.179	0.077
-299.764	800.000	-0.072	-0.264
-298.749	800.000	0.034	0.124
-297.735	-200.000	-0.048	-0.216
-296.720	-200.000	0.003	0.337
-295.705	41.525	-0.149	-0.134
-294.691	51.323	-0.117	0.111
-293.676	422.543	-0.119	-0.254
-292.662	137.501	0.100	-0.130
-291.647	800.000	0.099	0.320
-290.632	115.343	-0.164	0.200
-289.618	337.375	-0.126	-0.245
-288.603	10.391	-0.111	-0.084
-287.589	-200.000	-0.010	-0.075
-286.574	-200.000	0.010	0.056
-285.559	-173.671	0.193	-0.006
-284.545	-11.909	-0.141	-0.092
-283.530	-200.000	0.037	0.165
-282.516	-60.094	-0.175	0.074
-281.501	-155.595	-0.322	0.021
-280.486	-200.000	-0.021	-0.175
-279.472	-126.276	0.435	-0.065
-278.457	22.490	-0.079	0.064
-277.443	3.001	0.287	-0.208
-276.428	65.549	-0.072	-0.073
-275.413	-163.157	-0.350	0.017
-274.399	124.447	0.035	0.044
-273.384	-126.266	0.104	0.015
-272.370	248.297	0.285	0.481
-271.355	241.848	-0.106	0.176
-270.340	709.259	-0.068	-0.178
-269.326	-53.597	-0.279	-0.127
-268.311	-181.093	-0.256	-0.005
-267.297	171.451	-0.164	-0.235
-266.282	-53.715	-0.317	-0.144
-265.267	2.743	-0.097	0.070
-264.253	94.288	0.111	-0.125
-263.238	60.242	-0.120	0.118
-262.224	800.000	0.123	0.508
-261.209	-122.943	0.158	0.025
-260.195	-200.000	0.027	0.206
-259.180	-15.845	0.082	0.052
-258.165	-90.440	0.181	0.052
-257.151	3.273	0.159	0.115
-256.136	-174.730	-0.255	-0.007
-255.122	236.926	-0.151	-0.248
-254.107	351.798	0.187	-0.368
-253.092	-200.000	-0.042	-0.183
-252.078	-149.056	-0.101	0.008
-251.063	-200.000	-0.016	0.073
-250.049	-199.647	-0.185	-0.001
-249.034	225.410	0.151	0.244
-248.019	73.810	0.359	0.375
-247.005	-36.115	0.131	0.070
-245.990	-135.198	0.108	0.013
-244.976	-50.974	-0.118	-0.055
-243.961	17.219	-0.183	-0.145
-242.946	-26.341	0.079	-0.046
-241.932	-5.763	-0.276	-0.188
-240.917	-159.064	0.252	-0.014
-239.903	51.238	0.202	0.190
-238.888	-200.000	0.006	0.030
-237.873	800.000	0.084	-0.341
-236.859	57.871	0.170	-0.165
-235.844	259.527	0.083	-0.143
-234.830	-200.000	0.001	0.149
-233.815	-160.427	-0.091	0.005
-232.800	608.287	0.108	-0.269
-231.786	-159.714	0.206	-0.011
-230.771	227.919	-0.150	0.243
-229.757	-104.135	0.212	0.049
-228.742	195.599	0.096	0.146
-227.727	-200.000	0.013	-0.313
-226.713	-54.818	0.260	0.117
-225.698	92.385	0.121	-0.135
-224.684	142.768	0.024	-0.032
-223.669	574.873	-0.142	0.345
-222.655	13.064	0.050	0.038
-221.640	167.686	-0.127	-0.179
-220.625	27.610	0.164	-0.137
-219.611	-142.660	0.219	-0.021
-218.596	-39.446	-0.238	-0.124
-217.582	340.585	0.150	-0.290
-216.567	-92.585	0.396	-0.110
-215.552	800.000	0.059	-0.241
-214.538	1.824	-0.143	-0.103
-213.523	-22.310	-0.149	-0.089
-212.509	162.816	-0.318	-0.443
-211.494	116.860	-0.168	0.205
-210.479	-21.467	-0.087	0.053
-209.465	241.370	-0.058	0.097
-208.450	-115.710	-0.179	0.033
-207.436	-200.000	0.002	0.238
-206.421	197.230	0.164	0.248
-205.406	-8.297	0.251	-0.168
-204.392	189.645	0.094	0.139
-203.377	90.515	0.036	0.040
-202.363	-200.000	0.032	0.217
-201.348	-98.984	-0.307	-0.077
-200.333	4.753	-0.035	-0.025
-199.319	65.605	0.256	-0.257
-198.304	800.000	0.076	0.251
-197.290	363.749	-0.113	-0.225
-196.275	442.463	-0.065	0.141
-195.260	194.259	-0.105	0.158
-194.246	418.094	0.124	-0.262
-193.231	800.000	0.035	0.129
-192.217	-122.733	0.143	-0.023
-191.202	-152.007	0.220	-0.016
-190.187	82.433	0.190	0.204
-189.173	-155.674	-0.069	0.004
-188.158	-200.000	0.019	0.233
-187.144	378.192	-0.105	0.213
-186.129	800.000	0.081	-0.329
-185.114	800.000	0.049	0.135
-184.100	-48.201	0.130	0.062
-183.085	-200.000	0.037	-0.301
-182.071	34.595	-0.028	-0.024
-181.056	-181.287	0.133	0.003
-180.042	-200.000	-0.030	0.159
-179.027	14.910	0.305	0.237
-178.012	-105.661	0.229	0.051
-176.998	432.339	0.042	-0.090
-175.983	-200.000	-0.041	-0.181
-174.969	375.592	0.124	-0.250
-173.954	-155.610	0.250	-0.016
-172.939	-104.622	0.193	-0.044
-171.925	-106.392	0.121	0.027
-170.910	287.274	-0.190	0.340
-169.896	-77.315	-0.225	0.077
-168.881	-200.000	0.005	0.024
-167.866	-200.000	0.011	0.208
-166.852	103.278	0.113	0.132
-165.837	211.467	-0.023	0.035
-164.823	147.627	-0.184	-0.246
-163.808	-92.969	-0.130	0.036
-162.793	-200.000	-0.025	0.150
-161.779	15.928	0.138	-0.108
-160.764	466.026	-0.094	0.208
-159.750	-126.757	0.203	-0.030
-158.735	-14.483	0.049	-0.031
-157.720	800.000	0.074	0.294
-156.706	-17.423	0.244	0.152
-155.691	-66.584	-0.235	-0.092
-154.677	-200.000	-0.070	-0.386
-153.662	800.000	0.052	0.168
-152.647	-68.393	-0.098	0.038
-151.633	-167.590	-0.029	-0.001
-150.618	-112.400	-0.085	0.017
-149.604	-36.233	-0.123	0.066
-148.589	364.488	0.074	0.147
-147.574	-147.127	0.317	-0.027
-146.560	-37.928	-0.336	0.177
-145.545	-126.800	0.033	-0.005
-144.531	-200.000	0.050	-0.229
-143.516	-159.677	0.067	-0.004
-142.502	37.060	0.084	0.073
-141.487	601.141	-0.129	0.318
-140.472	-182.565	-0.504	0.009
-139.458	171.238	-0.084	0.119
-138.443	-154.698	-0.254	0.017
-137.429	87.583	-0.122	0.134
-136.414	-58.139	0.234	0.101
-135.399	39.624	-0.220	-0.195
-134.385	23.020	0.158	-0.128
-133.370	-105.766	0.116	-0.026
-132.356	672.009	0.090	-0.231
-131.341	-154.977	0.044	0.003
-130.326	15.101	0.269	0.208
-129.312	-200.000	0.004	0.264
-128.297	-200.000	0.000	0.203
-127.283	800.000	0.049	0.207
-126.268	-200.000	-0.031	0.182
-125.253	-34.790	0.212	0.115
-124.239	96.693	0.121	-0.137
-123.224	-81.812	-0.153	0.050
-122.210	264.018	-0.131	0.226
-121.195	66.763	0.112	0.113
-120.180	800.000	0.027	0.109
