DTS Sentinel unit serial number:	SN413079Multiplexer serial number:	ORYXHardware model number:	OX4-SRSoftware version number:	ORYX F/W v4.00 Oryx Data Collector v3.7.2.0data status	okinstallation	princeton_trtdifferential loss correction	single-endedforward channel	channel 4reverse channel	N/Adate	2019/09/19time	10:37:34forward acquisition time	60.00reverse acquisition time	0.00gamma	496.2192k internal	0.2328k external	0.2328temperature offset calibration	1.0015default loss term (dB/km)	0.3790temperature slope calibration	1.0000multiplexer offset coefficient	1.0000multiplexer slope coefficient	1.0000fibre end	0.00T internal ref (°C)	24.50T ext. ref 1 (°C)	0.72T ext. ref 2 (°C)	20.01length (m)	temperature (°C)	Stokes	anti-Stokes-747.200	364.258	-0.074	0.150
-746.185	-200.000	-0.035	0.226
-745.171	-200.000	-0.009	-0.127
-744.156	29.177	-0.084	0.072
-743.142	800.000	-0.040	0.129
-742.127	135.020	0.158	-0.207
-741.112	-44.882	0.059	0.029
-740.098	58.752	0.142	0.141
-739.083	-54.802	0.397	0.180
-738.069	-200.000	0.031	0.257
-737.054	429.651	-0.117	-0.255
-736.039	-200.000	-0.015	-0.342
-735.025	800.000	-0.052	0.222
-734.010	558.978	-0.057	0.139
-732.996	101.236	-0.179	-0.210
-731.981	-35.220	-0.317	0.174
-730.966	237.552	-0.104	0.174
-729.952	-74.167	0.196	-0.071
-728.937	140.566	-0.071	0.095
-727.923	48.023	-0.117	-0.110
-726.908	-91.431	0.217	-0.062
-725.894	800.000	-0.041	-0.162
-724.879	117.976	-0.111	0.138
-723.864	435.662	0.153	-0.334
-722.850	796.289	-0.165	-0.457
-721.835	311.497	0.117	-0.221
-720.821	-8.265	0.160	0.109
-719.806	-61.529	-0.141	0.060
-718.791	800.000	0.086	-0.278
-717.777	-200.000	0.004	-0.043
-716.762	-64.338	0.098	0.040
-715.748	-89.054	-0.244	-0.073
-714.733	183.115	-0.130	-0.194
-713.718	-85.131	-0.524	-0.165
-712.704	-83.916	-0.245	-0.079
-711.689	-200.000	0.026	0.239
-710.675	800.000	-0.057	0.213
-709.660	-34.448	0.204	0.112
-708.645	-200.000	0.043	-0.218
-707.631	426.115	-0.037	0.081
-706.616	-174.423	0.099	-0.003
-705.602	19.576	0.073	0.059
-704.587	277.384	-0.055	-0.098
-703.572	797.629	-0.074	0.204
-702.558	-200.000	-0.025	-0.217
-701.543	558.219	-0.113	0.273
-700.529	270.802	0.032	0.057
-699.514	13.720	-0.174	0.136
-698.499	-66.582	-0.137	0.054
-697.485	133.552	0.138	0.180
-696.470	100.012	-0.293	0.342
-695.456	482.286	0.061	-0.140
-694.441	-56.319	-0.081	-0.036
-693.426	-18.905	0.146	0.092
-692.412	-128.961	-0.241	-0.034
-691.397	-101.885	-0.286	0.070
-690.383	800.000	0.018	-0.065
-689.368	168.099	0.128	-0.183
-688.354	88.173	0.200	0.223
-687.339	-200.000	0.013	-0.063
-686.324	53.446	0.087	0.084
-685.310	800.000	-0.004	0.018
-684.295	-20.136	0.098	0.061
-683.281	-66.284	0.153	-0.061
-682.266	800.000	-0.065	-0.223
-681.251	800.000	0.076	0.309
-680.237	-83.197	0.143	-0.046
-679.222	-140.480	-0.298	-0.031
-678.208	800.000	-0.096	0.385
-677.193	-93.141	-0.228	0.064
-676.178	80.399	-0.027	-0.029
-675.164	800.000	-0.024	-0.105
-674.149	309.492	0.021	0.040
-673.135	800.000	0.111	-0.320
-672.120	10.184	-0.137	0.105
-671.105	800.000	-0.037	0.146
-670.091	-77.545	-0.153	0.053
-669.076	-108.151	-0.306	0.066
-668.062	-85.827	0.075	-0.023
-667.047	34.181	-0.341	-0.299
-666.032	602.379	0.082	0.204
-665.018	33.525	-0.072	0.063
-664.003	-36.450	0.367	-0.199
-662.989	-61.090	-0.060	-0.026
-661.974	2.641	0.021	-0.015
-660.959	-43.171	-0.255	-0.129
-659.945	-91.423	0.132	-0.038
-658.930	353.743	-0.036	-0.071
-657.916	302.378	0.024	0.044
-656.901	154.562	0.035	0.048
-655.886	800.000	-0.093	0.365
-654.872	-145.446	-0.345	0.031
-653.857	800.000	0.061	0.209
-652.843	-200.000	-0.024	0.157
-651.828	800.000	0.029	0.095
-650.814	-7.026	-0.140	-0.095
-649.799	-122.612	0.174	0.028
-648.784	101.326	0.192	-0.225
-647.770	9.938	-0.188	0.143
-646.755	159.949	-0.168	0.235
-645.741	-41.533	0.051	-0.026
-644.726	-86.108	-0.240	-0.074
-643.711	216.666	-0.212	-0.339
-642.697	-20.762	-0.260	0.160
-641.682	-62.656	-0.239	-0.100
-640.668	800.000	-0.068	-0.268
-639.653	-200.000	0.041	-0.379
-638.638	578.558	-0.120	-0.295
-637.624	800.000	0.140	-0.435
-636.609	125.239	-0.038	0.048
-635.595	46.912	0.148	0.138
-634.580	-63.486	0.247	0.102
-633.565	-165.108	0.507	-0.023
-632.551	-200.000	0.022	-0.104
-631.536	-107.947	-0.421	0.092
-630.522	-106.540	-0.535	0.120
-629.507	-105.279	-0.122	0.028
-628.492	252.351	0.268	-0.459
-627.478	-161.756	-0.274	-0.014
-626.463	29.639	0.098	0.084
-625.449	165.238	-0.144	0.204
-624.434	-84.729	0.102	-0.032
-623.419	800.000	-0.063	0.196
-622.405	590.634	0.012	-0.029
-621.390	18.710	-0.172	0.138
-620.376	356.184	-0.086	0.173
-619.361	-200.000	0.014	-0.103
-618.346	-102.260	-0.373	-0.090
-617.332	-65.968	0.135	-0.054
-616.317	-94.825	-0.212	-0.058
-615.303	-200.000	0.013	0.092
-614.288	-50.678	0.218	-0.103
-613.273	308.242	-0.057	-0.107
-612.259	8.711	-0.074	0.056
-611.244	-127.534	-0.210	-0.031
-610.230	116.218	-0.181	-0.222
-609.215	800.000	0.038	0.156
-608.201	-19.157	-0.198	0.123
-607.186	800.000	0.033	-0.144
-606.171	800.000	-0.118	-0.364
-605.157	-25.299	0.345	-0.205
-604.142	-73.608	-0.073	0.027
-603.128	-84.612	-0.174	-0.055
-602.113	349.617	0.062	0.124
-601.098	135.390	0.109	-0.143
-600.084	-51.340	0.223	-0.105
-599.069	136.787	-0.180	0.236
-598.055	-60.120	0.252	0.108
-597.040	-200.000	-0.005	-0.077
-596.025	800.000	-0.085	-0.254
-595.011	-85.319	0.253	-0.079
-593.996	-120.971	0.123	0.021
-592.982	-200.000	-0.024	0.168
-591.967	-106.786	0.238	0.053
-590.952	652.260	-0.036	-0.092
-589.938	0.574	0.050	-0.036
-588.923	-77.590	0.243	0.084
-587.909	-91.639	0.005	-0.002
-586.894	293.958	0.066	0.122
-585.879	800.000	-0.020	-0.081
-584.865	170.730	-0.081	-0.117
-583.850	-200.000	-0.027	0.122
-582.836	1.885	0.155	0.112
-581.821	-124.973	-0.154	0.024
-580.806	-55.206	0.164	0.074
-579.792	764.638	-0.058	-0.159
-578.777	-200.000	-0.026	0.187
-577.763	-69.787	-0.530	-0.203
-576.748	281.094	-0.125	0.224
-575.733	-54.562	0.257	0.116
-574.719	-89.532	-0.568	-0.167
-573.704	213.210	0.140	-0.222
-572.690	-62.871	0.234	0.097
-571.675	454.676	-0.138	-0.305
-570.661	-61.970	-0.158	-0.066
-569.646	204.441	-0.058	-0.089
-568.631	-175.863	0.309	0.008
-567.617	-30.004	0.142	-0.081
-566.602	-21.866	0.383	-0.233
-565.588	336.616	0.101	-0.196
-564.573	178.397	-0.179	0.262
-563.558	126.258	-0.144	-0.182
-562.544	-3.711	-0.122	-0.085
-561.529	800.000	-0.079	-0.331
-560.515	388.608	-0.111	-0.230
-559.500	407.567	-0.016	-0.034
-558.485	9.856	-0.359	0.272
-557.471	800.000	-0.078	-0.288
-556.456	-147.855	-0.148	0.012
-555.442	800.000	-0.072	0.233
-554.427	-24.462	0.271	-0.162
-553.412	-40.208	0.275	-0.143
-552.398	-200.000	0.000	0.060
-551.383	-169.794	-0.257	0.009
-550.369	-122.281	0.248	0.041
-549.354	-22.712	-0.157	0.095
-548.339	116.670	0.239	0.293
-547.325	-100.497	0.062	0.015
-546.310	433.060	-0.060	-0.129
-545.296	403.883	-0.072	0.153
-544.281	165.063	-0.019	-0.027
-543.266	800.000	-0.036	-0.129
-542.252	372.585	0.128	-0.259
-541.237	760.122	-0.100	-0.271
-540.223	631.215	0.139	-0.353
-539.208	800.000	-0.055	0.221
-538.193	-71.770	-0.341	0.127
-537.179	11.563	0.252	-0.194
-536.164	53.830	-0.204	0.196
-535.150	584.489	-0.110	0.271
-534.135	-182.747	-0.134	-0.002
-533.121	800.000	0.070	0.238
-532.106	-195.217	-0.421	-0.003
-531.091	-102.032	-0.332	-0.080
-530.077	117.431	-0.017	-0.021
-529.062	-74.895	0.126	-0.045
-528.048	-79.881	-0.029	0.010
-527.033	11.532	0.516	-0.396
-526.018	-27.645	-0.026	-0.015
-525.004	-145.144	-0.351	-0.032
-523.989	800.000	0.025	-0.077
-522.975	-17.579	-0.148	0.093
-521.960	-4.187	0.247	0.171
-520.945	61.163	0.068	0.068
-519.931	106.065	-0.169	-0.199
-518.916	70.132	0.040	0.041
-517.902	-191.793	0.518	-0.005
-516.887	139.792	-0.159	0.209
-515.872	482.195	-0.196	-0.446
-514.858	-200.000	-0.008	0.169
-513.843	98.209	-0.132	0.152
-512.829	399.138	0.220	0.460
-511.814	-66.035	-0.109	-0.044
-510.799	87.352	-0.254	-0.281
-509.785	33.662	0.101	-0.088
-508.770	-200.000	0.025	-0.210
-507.756	-52.534	-0.254	0.117
-506.741	-16.765	-0.273	0.172
-505.726	-200.000	0.046	0.485
-504.712	-42.449	0.300	0.153
-503.697	-51.306	0.323	-0.151
-502.683	-86.896	-0.097	-0.030
-501.668	-93.373	-0.174	-0.048
-500.653	-10.591	-0.166	0.110
-499.639	87.168	0.301	-0.332
-498.624	-58.799	0.267	-0.115
-497.610	-133.821	0.100	0.012
-496.595	-200.000	-0.060	-0.419
-495.581	-125.633	0.220	0.033
-494.566	800.000	-0.029	-0.082
-493.551	-113.722	0.151	-0.029
-492.537	-120.227	-0.042	-0.007
-491.522	2.059	0.215	-0.155
-490.508	64.268	0.144	-0.145
-489.493	-120.209	-0.480	-0.082
-488.478	-18.115	-0.139	-0.087
-487.464	-2.709	-0.474	-0.330
-486.449	-29.635	-0.184	-0.105
-485.435	-200.000	-0.070	-0.319
-484.420	66.371	-0.125	0.127
-483.405	430.121	0.140	-0.301
-482.391	250.256	-0.177	-0.300
-481.376	50.297	0.147	-0.139
-480.362	-200.000	0.009	-0.348
-479.347	800.000	-0.046	-0.153
-478.332	279.903	-0.108	-0.193
-477.318	-200.000	0.038	0.228
-476.303	-200.000	0.000	0.053
-475.289	-132.486	0.234	-0.030
-474.274	-147.983	0.221	-0.018
-473.259	-77.439	-0.033	0.011
-472.245	165.338	-0.050	-0.070
-471.230	293.849	0.032	-0.058
-470.216	-200.000	0.001	-0.078
-469.201	-107.881	0.116	-0.025
-468.186	-170.543	0.165	-0.006
-467.172	800.000	0.155	0.628
-466.157	155.283	-0.115	0.158
-465.143	266.915	-0.069	0.120
-464.128	-116.046	-0.202	-0.037
-463.113	-156.371	-0.432	0.027
-462.099	61.732	-0.030	0.030
-461.084	280.151	-0.218	-0.388
-460.070	197.510	-0.192	0.292
-459.055	-83.783	-0.074	-0.024
-458.040	-57.434	0.362	0.158
-457.026	-56.788	0.278	-0.123
-456.011	-43.147	0.120	0.061
-454.997	-111.149	0.392	-0.080
-453.982	-200.000	0.010	-0.058
-452.968	27.395	-0.222	-0.186
-451.953	341.763	0.104	0.203
-450.938	-59.129	0.097	0.042
-449.924	-121.047	-0.081	0.014
-448.909	137.166	0.209	0.272
-447.895	-153.740	0.283	-0.019
-446.880	253.167	-0.081	0.137
-445.865	800.000	-0.019	0.054
-444.851	-21.779	-0.136	-0.083
-443.836	-97.995	0.176	-0.045
-442.822	49.277	0.065	0.061
-441.807	17.817	0.194	-0.154
-440.792	587.672	-0.152	0.374
-439.778	82.336	-0.152	0.164
-438.763	-126.025	-0.191	-0.029
-437.749	-158.175	-0.212	0.012
-436.734	-200.000	0.009	-0.323
-435.719	-85.498	-0.276	-0.085
-434.705	374.460	0.039	-0.079
-433.690	800.000	0.080	-0.305
-432.676	-144.501	-0.233	0.021
-431.661	800.000	-0.123	0.341
-430.646	-39.971	0.351	0.182
-429.632	-154.700	0.151	0.010
-428.617	800.000	-0.067	0.210
-427.603	-61.279	-0.188	0.079
-426.588	-200.000	0.020	-0.153
-425.573	-93.669	-0.300	-0.083
-424.559	211.399	0.119	-0.186
-423.544	-200.000	0.024	0.228
-422.530	-50.238	0.398	0.187
-421.515	330.837	-0.112	0.215
-420.500	692.866	0.054	0.141
-419.486	-141.300	-0.263	-0.027
-418.471	43.435	0.150	0.137
-417.457	-72.138	0.112	-0.041
-416.442	-78.065	0.328	0.112
-415.428	-67.291	0.250	0.098
-414.413	-70.188	-0.248	-0.094
-413.398	46.320	-0.157	-0.145
-412.384	800.000	0.040	0.148
-411.369	221.013	-0.083	-0.132
-410.355	46.362	-0.206	-0.190
-409.340	-200.000	-0.048	0.429
-408.325	153.356	0.199	0.271
-407.311	704.734	-0.024	-0.063
-406.296	800.000	0.044	0.173
-405.282	-119.849	-0.111	-0.019
-404.267	95.475	0.170	-0.193
-403.252	-100.888	-0.208	0.051
-402.238	195.236	-0.092	0.140
-401.223	-75.779	0.045	-0.016
-400.209	93.344	-0.153	-0.172
-399.194	-184.802	0.220	-0.003
-398.179	-117.900	-0.200	-0.036
-397.165	20.868	-0.290	0.234
-396.150	-46.412	0.052	0.025
-395.136	-65.529	0.198	0.079
-394.121	-200.000	0.002	0.113
-393.106	157.319	0.159	-0.219
-392.092	-99.436	-0.121	-0.030
-391.077	-95.239	0.106	0.028
-390.063	-150.483	0.217	-0.017
-389.048	338.261	0.105	-0.203
-388.033	-200.000	-0.012	-0.252
-387.019	-136.011	-0.289	0.034
-386.004	-137.638	-0.285	-0.032
-384.990	16.162	0.243	-0.190
-383.975	79.489	0.276	-0.294
-382.960	34.923	0.027	0.023
-381.946	-31.198	-0.152	0.085
-380.931	-44.047	0.158	-0.079
-379.917	324.518	0.235	-0.445
-378.902	-97.637	-0.145	0.037
-377.888	-200.000	-0.087	-0.508
-376.873	302.869	-0.137	-0.252
-375.858	-135.948	-0.075	-0.009
-374.844	-81.218	0.339	-0.111
-373.829	-123.460	0.341	0.054
-372.815	307.493	-0.101	0.188
-371.800	-120.815	-0.168	-0.028
-370.785	236.304	-0.088	-0.145
-369.771	-137.256	0.202	0.023
-368.756	62.229	0.106	-0.105
-367.742	55.861	0.125	-0.120
-366.727	-13.833	0.242	0.155
-365.712	200.587	0.145	0.221
-364.698	-39.953	-0.238	-0.123
-363.683	-90.802	0.224	0.064
-362.669	-200.000	-0.028	-0.242
-361.654	326.139	-0.309	0.588
-360.639	-200.000	0.062	0.310
-359.625	-14.241	-0.140	-0.090
-358.610	-141.380	0.183	-0.018
-357.596	-121.181	0.244	0.041
-356.581	-11.384	0.107	0.070
-355.566	169.481	0.037	-0.052
-354.552	-108.917	0.306	0.065
-353.537	800.000	-0.015	0.065
-352.523	69.778	-0.170	0.174
-351.508	-151.783	0.105	0.008
-350.493	-200.000	-0.010	-0.065
-349.479	800.000	0.091	0.276
-348.464	-105.724	-0.237	0.053
-347.450	-7.461	0.018	0.012
-346.435	800.000	0.082	-0.339
-345.420	333.540	0.054	-0.104
-344.406	89.402	-0.118	0.131
-343.391	800.000	0.003	-0.009
-342.377	-59.703	0.198	0.084
-341.362	-200.000	0.039	0.514
-340.348	-16.710	0.077	-0.048
-339.333	178.872	-0.172	0.249
-338.318	207.419	0.180	-0.279
-337.304	-26.880	-0.289	-0.168
-336.289	120.778	-0.072	-0.088
-335.275	120.547	-0.118	-0.145
-334.260	227.365	0.131	0.211
-333.245	-99.360	-0.187	0.047
-332.231	-163.170	-0.331	-0.016
-331.216	19.617	0.095	0.075
-330.202	100.274	0.055	-0.063
-329.187	800.000	0.077	0.265
-328.172	287.418	0.067	-0.120
-327.158	644.659	-0.108	-0.272
-326.143	-110.055	-0.213	0.044
-325.129	-159.019	-0.263	0.015
-324.114	259.439	-0.047	0.081
-323.099	665.084	0.090	0.231
-322.085	46.928	-0.356	0.329
-321.070	-42.987	-0.184	-0.093
-320.056	-195.712	0.032	-0.000
-319.041	-200.000	0.006	-0.206
-318.026	44.264	-0.238	0.217
-317.012	-18.619	0.258	0.159
-315.997	79.636	0.171	-0.182
-314.983	-200.000	-0.012	0.098
-313.968	-165.723	0.244	0.010
-312.953	457.485	-0.086	0.189
-311.939	-66.461	0.082	0.032
-310.924	-90.365	-0.056	0.016
-309.910	-195.909	0.180	-0.001
-308.895	780.930	-0.019	-0.053
-307.880	78.467	-0.138	-0.146
-306.866	31.655	0.125	-0.106
-305.851	13.461	0.330	0.253
-304.837	-200.000	0.010	-0.057
-303.822	196.608	-0.176	0.265
-302.807	-86.344	-0.127	-0.039
-301.793	47.327	0.130	0.120
-300.778	102.727	0.039	-0.045
-299.764	33.188	0.115	0.099
-298.749	-200.000	-0.006	0.135
-297.735	-166.302	-0.144	0.006
-296.720	-29.461	-0.113	0.064
-295.705	18.270	-0.092	0.073
-294.691	-106.881	0.148	0.032
-293.676	800.000	0.141	0.559
-292.662	258.327	0.148	0.252
-291.647	-200.000	-0.033	0.321
-290.632	800.000	-0.059	-0.173
-289.618	283.043	-0.098	-0.173
-288.603	-60.127	-0.175	0.074
-287.589	61.913	0.060	-0.059
-286.574	-39.000	-0.211	0.110
-285.559	108.248	-0.164	-0.193
-284.545	-14.314	0.022	0.014
-283.530	-55.294	0.301	-0.134
-282.516	255.613	0.081	0.137
-281.501	6.318	-0.024	0.018
-280.486	-102.562	-0.233	-0.055
-279.472	-95.255	0.102	-0.027
-278.457	-154.405	0.438	-0.029
-277.443	800.000	-0.120	0.483
-276.428	-134.818	-0.194	0.023
-275.413	312.246	0.046	0.086
-274.399	71.521	0.108	0.111
-273.384	-83.548	0.196	0.062
-272.370	710.953	-0.039	-0.103
-271.355	-200.000	-0.028	0.314
-270.340	-200.000	0.002	0.141
-269.326	-200.000	-0.022	0.159
-268.311	-133.318	-0.235	0.029
-267.297	-200.000	0.002	-0.253
-266.282	800.000	0.023	0.090
-265.267	326.385	-0.114	0.216
-264.253	-200.000	-0.023	-0.246
-263.238	-76.352	-0.446	-0.155
-262.224	176.862	-0.072	0.104
-261.209	5.518	0.268	-0.196
-260.195	-197.181	-0.227	0.001
-259.180	124.680	-0.130	-0.162
-258.165	-26.947	-0.156	-0.090
-257.151	-10.331	-0.201	-0.132
-256.136	-173.639	-0.087	-0.003
-255.122	62.169	0.126	0.124
-254.107	18.435	0.167	-0.132
-253.092	-42.156	0.322	0.163
-252.078	800.000	-0.058	0.168
-251.063	-35.601	-0.128	0.069
-250.049	-163.256	-0.434	0.021
-249.034	-93.160	-0.210	0.058
-248.019	70.056	-0.318	0.324
-247.005	81.981	0.338	0.362
-245.990	-200.000	-0.041	0.220
-244.976	132.806	0.052	-0.067
-243.961	15.955	0.165	-0.129
-242.946	740.556	-0.113	-0.301
-241.932	-149.624	-0.398	-0.031
-240.917	-167.064	-0.238	-0.010
-239.903	214.441	-0.090	0.141
-238.888	-63.283	-0.171	0.070
-237.873	197.415	0.082	-0.124
-236.859	-178.511	0.133	-0.003
-235.844	-77.734	0.277	-0.094
-234.830	46.686	-0.155	-0.142
-233.815	-53.673	-0.514	0.232
-232.800	-76.837	0.029	0.010
-231.786	800.000	-0.105	0.376
-230.771	-104.507	0.169	0.039
-229.757	91.059	-0.217	-0.240
-228.742	800.000	-0.034	0.112
-227.727	251.320	0.130	-0.218
-226.713	-92.191	0.221	0.062
-225.698	800.000	-0.064	0.190
-224.684	-150.402	0.331	0.025
-223.669	61.675	-0.183	-0.180
-222.655	-152.018	0.506	0.036
-221.640	16.176	0.048	-0.037
-220.625	555.545	-0.002	0.004
-219.611	82.998	-0.173	0.186
-218.596	95.607	0.127	0.143
-217.582	75.624	0.089	-0.093
-216.567	-137.098	0.315	-0.036
-215.552	209.423	0.063	0.097
-214.538	240.299	-0.101	0.167
-213.523	-102.795	-0.094	-0.022
-212.509	800.000	-0.109	-0.300
-211.494	-200.000	0.002	-0.230
-210.479	-35.988	0.348	-0.186
-209.465	-85.477	-0.204	0.063
-208.450	-152.277	0.583	0.042
-207.436	14.034	0.203	0.156
-206.421	191.314	-0.067	0.099
-205.406	-77.037	-0.084	-0.029
-204.392	-7.026	0.079	0.053
-203.377	-200.000	-0.118	0.532
-202.363	1.937	-0.260	0.185
-201.348	-63.966	0.216	-0.087
-200.333	-200.000	-0.009	-0.159
-199.319	115.915	0.200	0.242
-198.304	22.889	-0.200	0.161
-197.290	-43.419	-0.132	-0.066
-196.275	-26.533	-0.268	-0.155
-195.260	-47.424	0.193	-0.093
-194.246	-110.072	0.338	0.070
-193.231	800.000	-0.025	0.088
-192.217	-171.776	-0.204	0.007
-191.202	-177.439	0.439	0.011
-190.187	-200.000	0.063	0.643
-189.173	-4.485	0.130	-0.089
-188.158	315.267	-0.132	0.246
-187.144	-108.848	0.335	-0.071
-186.129	-46.015	-0.090	-0.044
-185.114	-200.000	0.046	0.215
-184.100	-90.469	0.039	-0.011
-183.085	342.039	0.111	0.213
-182.071	194.222	0.037	-0.055
-181.056	-127.845	0.253	-0.036
-180.042	12.913	0.028	-0.021
-179.027	-148.095	0.242	-0.020
-178.012	-14.495	-0.320	0.203
-176.998	57.515	-0.265	-0.255
-175.983	-200.000	-0.041	-0.201
-174.969	38.161	-0.104	0.091
-173.954	46.748	-0.097	0.089
-172.939	-200.000	0.010	0.166
-171.925	-142.146	0.524	-0.051
-170.910	66.522	0.140	-0.141
-169.896	-106.128	-0.035	0.008
-168.881	800.000	-0.077	-0.251
-167.866	-71.337	0.404	0.149
-166.852	-177.278	-0.101	0.002
-165.837	800.000	0.045	0.124
-164.823	-5.600	0.160	-0.108
-163.808	-200.000	0.012	-0.131
-162.793	-23.249	0.152	-0.090
-161.779	800.000	-0.108	0.326
-160.764	8.874	0.170	-0.126
-159.750	665.153	-0.077	0.196
-158.735	-59.142	0.230	0.097
-157.720	58.424	0.073	0.070
-156.706	-112.366	0.274	-0.054
-155.691	800.000	0.126	-0.378
-154.677	460.262	-0.042	-0.092
-153.662	107.179	0.106	-0.124
-152.647	-200.000	-0.035	-0.346
-151.633	20.644	0.148	-0.118
-150.618	-200.000	-0.048	0.370
-149.604	-72.146	0.044	0.016
-148.589	-35.888	-0.339	-0.181
-147.574	-200.000	0.008	0.065
-146.560	18.280	0.200	0.157
-145.545	-18.880	-0.267	-0.164
-144.531	-30.796	0.089	0.049
-143.516	-76.766	0.180	0.062
-142.502	-50.315	-0.144	-0.067
-141.487	-68.872	0.182	0.069
-140.472	290.589	0.034	-0.061
-139.458	-50.210	0.058	-0.027
-138.443	800.000	0.007	0.019
-137.429	-200.000	0.018	-0.232
-136.414	-200.000	0.044	-0.253
-135.399	-182.384	0.249	-0.005
-134.385	90.035	0.323	0.355
-133.370	-60.224	0.358	0.150
-132.356	-108.696	0.263	-0.055
-131.341	70.017	-0.121	0.123
-130.326	-38.849	0.356	-0.185
-129.312	-161.607	0.122	0.006
-128.297	26.408	0.202	-0.166
-127.283	70.405	-0.119	0.121
-126.268	-12.235	-0.262	-0.169
-125.253	-21.020	0.223	-0.135
-124.239	285.752	0.082	0.146
-123.224	-111.740	-0.367	0.073
-122.210	-141.988	-0.211	0.021
-121.195	213.169	0.197	0.306
