DTS Sentinel unit serial number:	SN413079Multiplexer serial number:	ORYXHardware model number:	OX4-SRSoftware version number:	ORYX F/W v4.00 Oryx Data Collector v3.7.2.0data status	okinstallation	princeton_trtdifferential loss correction	single-endedforward channel	channel 4reverse channel	N/Adate	2019/09/15time	00:05:35forward acquisition time	60.00reverse acquisition time	0.00gamma	496.2192k internal	0.2306k external	0.2306temperature offset calibration	1.0047default loss term (dB/km)	0.3790temperature slope calibration	1.0000multiplexer offset coefficient	1.0000multiplexer slope coefficient	1.0000fibre end	0.00T internal ref (°C)	32.19T ext. ref 1 (°C)	4.58T ext. ref 2 (°C)	27.17length (m)	temperature (°C)	Stokes	anti-Stokes-747.200	-111.634	0.257	-0.053
-746.185	-67.386	-0.221	-0.088
-745.171	800.000	0.090	-0.296
-744.156	-21.411	-0.311	0.193
-743.142	-170.950	0.335	0.012
-742.127	127.084	-0.370	0.477
-741.112	158.079	0.041	-0.057
-740.098	39.049	-0.269	0.244
-739.083	192.128	0.288	0.442
-738.069	-49.758	-0.210	-0.101
-737.054	53.514	-0.275	-0.268
-736.039	127.002	-0.103	0.132
-735.025	-200.000	0.070	0.377
-734.010	-52.090	-0.202	-0.095
-732.996	-112.048	-0.312	-0.064
-731.981	187.181	-0.087	-0.133
-730.966	-41.615	0.256	0.134
-729.952	-200.000	0.004	-0.114
-728.937	-63.935	-0.189	-0.078
-727.923	0.642	-0.122	-0.089
-726.908	-200.000	-0.016	0.338
-725.894	105.881	-0.146	0.176
-724.879	-45.795	0.126	-0.063
-723.864	481.284	-0.044	-0.101
-722.850	73.362	-0.128	-0.136
-721.835	-200.000	0.061	-0.284
-720.821	-163.700	-0.412	-0.020
-719.806	36.455	-0.192	-0.172
-718.791	-117.390	-0.049	-0.009
-717.777	-55.107	-0.167	-0.076
-716.762	-34.055	-0.067	0.038
-715.748	340.849	0.094	-0.186
-714.733	161.033	0.111	0.158
-713.718	-77.675	-0.141	-0.049
-712.704	-106.256	-0.027	-0.006
-711.689	-51.146	0.309	-0.147
-710.675	-73.319	-0.093	-0.035
-709.660	-147.557	-0.102	0.009
-708.645	172.935	0.128	-0.187
-707.631	-54.444	0.122	-0.056
-706.616	100.061	0.133	-0.156
-705.602	-200.000	0.015	-0.079
-704.587	800.000	0.054	-0.237
-703.572	-61.320	-0.350	0.149
-702.558	-108.770	-0.160	-0.035
-701.543	-113.731	-0.115	-0.023
-700.529	-200.000	-0.283	-0.000
-699.514	376.378	0.072	0.149
-698.499	-67.695	-0.438	-0.174
-697.485	201.795	0.062	0.097
-696.470	304.517	0.145	-0.274
-695.456	-127.896	-0.131	0.019
-694.441	308.712	0.070	-0.133
-693.426	-200.000	-0.128	0.584
-692.412	-200.000	-0.019	-0.095
-691.397	-200.000	-0.007	-0.422
-690.383	78.773	0.333	-0.362
-689.368	-17.538	0.373	-0.238
-688.354	-153.831	-0.166	-0.012
-687.339	-200.000	-0.041	-0.406
-686.324	-200.000	-0.006	0.090
-685.310	26.572	-0.111	0.095
-684.295	47.231	-0.113	0.107
-683.281	69.849	-0.188	0.197
-682.266	-200.000	-0.006	-0.028
-681.251	-81.932	0.339	-0.113
-680.237	53.250	-0.210	-0.204
-679.222	800.000	-0.063	0.242
-678.208	347.853	-0.145	-0.290
-677.193	179.695	0.063	-0.094
-676.178	329.785	-0.121	0.236
-675.164	116.271	0.267	0.332
-674.149	4.189	0.259	0.192
-673.135	-73.619	0.260	0.096
-672.120	-134.868	-0.029	0.004
-671.105	-200.000	0.000	-0.196
-670.091	264.936	0.152	0.269
-669.076	-34.635	-0.171	-0.095
-668.062	208.702	0.047	0.074
-667.047	20.076	0.123	0.101
-666.032	-86.406	-0.198	0.062
-665.018	800.000	0.112	0.337
-664.003	51.591	0.244	-0.235
-662.989	-67.014	-0.164	0.065
-661.974	512.813	-0.049	-0.115
-660.959	-9.373	0.076	-0.052
-659.945	77.960	0.223	-0.241
-658.930	-13.825	0.168	-0.110
-657.916	-200.000	-0.015	-0.327
-656.901	-117.513	-0.166	-0.030
-655.886	-6.264	-0.149	0.103
-654.872	-200.000	-0.012	0.317
-653.857	154.492	0.215	0.299
-652.843	-78.817	-0.097	0.033
-651.828	-151.425	0.268	0.020
-650.814	566.933	-0.082	0.202
-649.799	35.119	-0.054	0.048
-648.784	35.140	0.069	0.061
-647.770	198.975	0.126	-0.196
-646.755	-37.408	-0.213	-0.115
-645.741	-59.577	0.293	0.128
-644.726	-200.000	0.043	0.207
-643.711	-200.000	0.003	0.090
-642.697	80.165	0.168	-0.184
-641.682	125.218	0.050	-0.064
-640.668	323.635	-0.064	-0.124
-639.653	-22.648	0.157	-0.096
-638.638	-122.903	-0.161	-0.026
-637.624	-74.967	0.277	0.101
-636.609	-0.433	0.376	0.270
-635.595	-200.000	-0.016	0.157
-634.580	247.544	-0.103	0.176
-633.565	-116.383	-0.257	-0.048
-632.551	800.000	-0.042	0.154
-631.536	18.783	0.192	-0.156
-630.522	-60.866	-0.055	0.024
-629.507	172.003	-0.148	0.216
-628.492	58.756	-0.090	0.089
-627.478	430.055	0.115	0.253
-626.463	337.389	0.037	0.073
-625.449	-164.996	0.063	0.003
-624.434	-107.919	-0.347	0.076
-623.419	151.292	-0.352	-0.486
-622.405	-200.000	-0.024	-0.123
-621.390	-200.000	0.020	0.238
-620.376	65.174	-0.089	0.091
-619.361	-48.990	-0.082	0.040
-618.346	-44.817	-0.186	-0.094
-617.332	615.291	-0.163	0.414
-616.317	-114.857	-0.122	-0.024
-615.303	-73.614	0.254	-0.094
-614.288	-200.000	-0.013	-0.281
-613.273	-171.151	0.294	-0.010
-612.259	-200.000	0.012	0.223
-611.244	-200.000	-0.007	0.070
-610.230	-200.000	0.016	0.089
-609.215	-52.251	0.276	-0.130
-608.201	-200.000	0.064	-0.313
-607.186	111.296	0.196	0.239
-606.171	-98.113	0.273	0.071
-605.157	-109.940	-0.131	-0.028
-604.142	254.522	-0.252	-0.436
-603.128	157.015	0.191	-0.267
-602.113	16.520	-0.167	0.134
-601.098	-93.860	0.377	-0.105
-600.084	104.544	-0.131	-0.156
-599.069	-33.521	-0.274	0.153
-598.055	19.787	0.166	0.135
-597.040	-147.595	-0.097	-0.008
-596.025	93.839	0.237	0.272
-595.011	-80.571	-0.049	0.017
-593.996	-56.880	-0.158	-0.070
-592.982	4.358	0.010	-0.008
-591.967	543.210	0.092	0.223
-590.952	-11.091	0.149	0.099
-589.938	28.132	-0.256	-0.219
-588.923	6.544	0.306	0.230
-587.909	-148.638	-0.375	0.031
-586.894	-33.333	0.261	-0.146
-585.879	643.219	-0.143	-0.370
-584.865	-200.000	0.002	-0.206
-583.850	-163.497	-0.077	0.004
-582.836	44.969	-0.162	-0.151
-581.821	703.552	0.018	0.048
-580.806	-132.887	0.139	-0.018
-579.792	-200.000	-0.006	-0.222
-578.777	-68.191	0.169	-0.067
-577.763	800.000	-0.085	0.352
-576.748	-163.649	0.297	0.014
-575.733	-92.449	0.193	0.055
-574.719	2.742	0.130	0.095
-573.704	-200.000	-0.061	-0.271
-572.690	-88.282	0.170	-0.051
-571.675	-94.523	-0.124	0.034
-570.661	-200.000	0.013	0.224
-569.646	-200.000	-0.026	0.193
-568.631	124.557	-0.109	-0.139
-567.617	-36.501	0.158	-0.086
-566.602	-34.994	0.280	-0.154
-565.588	-119.748	0.189	0.033
-564.573	243.352	0.108	0.182
-563.558	-10.990	0.043	0.029
-562.544	99.043	-0.169	0.197
-561.529	-183.341	0.152	-0.003
-560.515	800.000	-0.094	-0.359
-559.500	240.212	0.090	-0.152
-558.485	202.400	0.113	-0.176
-557.471	131.622	0.015	-0.020
-556.456	-76.296	0.275	-0.098
-555.442	273.450	-0.095	-0.169
-554.427	-200.000	0.011	0.543
-553.412	-11.501	-0.057	-0.038
-552.398	-102.919	0.291	0.070
-551.383	-200.000	-0.009	0.077
-550.369	-64.073	-0.153	-0.063
-549.354	-200.000	0.015	0.085
-548.339	53.866	0.136	0.132
-547.325	-0.623	0.168	0.121
-546.310	726.744	0.095	0.255
-545.296	-68.016	0.389	0.153
-544.281	480.143	0.140	-0.321
-543.266	-200.000	-0.008	0.096
-542.252	355.307	-0.170	0.341
-541.237	200.679	0.155	0.241
-540.223	-130.486	-0.251	-0.034
-539.208	92.779	-0.129	-0.147
-538.193	-200.000	0.038	0.272
-537.179	541.023	0.054	0.129
-536.164	-104.544	-0.376	-0.088
-535.150	-75.712	0.312	-0.112
-534.135	-92.354	-0.198	0.056
-533.121	-115.948	0.256	0.048
-532.106	-200.000	0.313	0.001
-531.091	-109.782	0.359	0.076
-530.077	-200.000	0.003	0.145
-529.062	-200.000	-0.002	-0.156
-528.048	360.745	-0.131	0.265
-527.033	75.580	0.048	0.051
-526.018	74.773	-0.222	0.236
-525.004	-200.000	0.000	-0.171
-523.989	118.888	-0.206	-0.257
-522.975	-166.171	-0.236	-0.010
-521.960	58.487	0.095	0.094
-520.945	686.148	-0.088	-0.233
-519.931	800.000	0.028	0.079
-518.916	17.999	0.174	-0.140
-517.902	79.322	-0.091	-0.098
-516.887	104.460	0.131	0.155
-515.872	324.915	-0.129	-0.248
-514.858	-200.000	-0.030	0.277
-513.843	319.781	0.093	0.178
-512.829	89.307	-0.041	-0.046
-511.814	84.160	-0.131	-0.144
-510.799	94.000	-0.153	-0.175
-509.785	-133.588	0.238	0.030
-508.770	409.653	0.048	-0.103
-507.756	248.280	-0.139	0.237
-506.741	-46.396	0.104	-0.052
-505.726	-172.925	-0.158	0.005
-504.712	29.268	-0.086	0.073
-503.697	-12.598	-0.127	0.083
-502.683	57.229	-0.133	-0.131
-501.668	-26.774	0.378	-0.222
-500.653	136.471	0.140	-0.184
-499.639	-163.169	0.422	-0.020
-498.624	82.835	0.277	0.304
-497.610	-200.000	-0.038	-0.179
-496.595	211.042	-0.137	-0.217
-495.581	111.018	-0.089	-0.108
-494.566	-200.000	0.053	0.386
-493.551	86.869	-0.150	-0.167
-492.537	-49.462	0.183	0.088
-491.522	24.574	-0.114	-0.095
-490.508	800.000	-0.059	-0.168
-489.493	-76.273	0.116	-0.041
-488.478	23.989	0.140	0.117
-487.464	110.619	-0.119	-0.144
-486.449	373.478	0.163	0.334
-485.435	-50.966	-0.256	0.121
-484.420	-29.570	0.458	0.264
-483.405	-53.211	0.287	0.133
-482.391	-58.717	0.385	-0.168
-481.376	254.092	0.070	-0.120
-480.362	-109.982	-0.275	-0.058
-479.347	-200.000	0.022	-0.226
-478.332	92.507	0.062	0.071
-477.318	296.769	0.030	-0.055
-476.303	-113.365	-0.174	0.034
-475.289	158.073	0.013	0.018
-474.274	432.642	0.091	0.198
-473.259	-151.164	0.338	-0.026
-472.245	-68.868	-0.349	-0.136
-471.230	-95.567	-0.405	-0.109
-470.216	-200.000	-0.052	-0.234
-469.201	250.327	0.094	-0.160
-468.186	-200.000	0.089	0.396
-467.172	401.518	0.101	-0.214
-466.157	87.145	-0.095	-0.106
-465.143	202.593	-0.134	0.209
-464.128	-88.780	-0.205	-0.061
-463.113	-43.855	-0.144	0.073
-462.099	800.000	0.030	0.106
-461.084	-62.866	0.069	-0.029
-460.070	-55.355	-0.239	0.108
-459.055	-144.826	-0.280	0.026
-458.040	-109.647	-0.354	0.075
-457.026	26.987	-0.084	-0.071
-456.011	-21.085	0.301	-0.186
-454.997	-200.000	0.012	-0.079
-453.982	7.164	-0.148	-0.111
-452.968	-135.866	-0.316	-0.038
-451.953	-119.487	-0.146	-0.026
-450.938	66.163	-0.161	-0.165
-449.924	800.000	-0.041	-0.151
-448.909	26.420	0.217	0.182
-447.895	-85.519	-0.306	0.096
-446.880	205.008	-0.148	-0.231
-445.865	-25.234	0.056	0.033
-444.851	-200.000	-0.023	0.114
-443.836	-125.763	0.226	-0.034
-442.822	-145.415	-0.243	0.022
-441.807	-98.176	-0.300	-0.078
-440.792	-171.718	0.206	-0.007
-439.778	281.932	0.045	-0.081
-438.763	-7.169	-0.197	-0.134
-437.749	139.611	-0.097	-0.129
-436.734	-70.454	0.163	-0.062
-435.719	385.321	-0.055	0.114
-434.705	-200.000	0.044	0.254
-433.690	0.504	-0.074	-0.053
-432.676	39.313	0.083	-0.075
-431.661	-200.000	-0.018	-0.142
-430.646	-54.035	-0.204	-0.093
-429.632	-119.993	0.275	-0.047
-428.617	27.514	-0.100	0.084
-427.603	-102.221	-0.131	-0.032
-426.588	-76.200	0.242	0.086
-425.573	-200.000	-0.014	-0.210
-424.559	-105.003	-0.277	-0.064
-423.544	666.017	0.094	0.243
-422.530	89.049	0.210	-0.235
-421.515	-47.408	-0.228	-0.111
-420.500	-179.825	0.311	0.007
-419.486	-16.249	-0.139	-0.089
-418.471	221.048	0.087	-0.140
-417.457	-89.294	-0.283	0.084
-416.442	61.857	0.280	-0.281
-415.428	145.923	-0.175	0.235
-414.413	-124.054	-0.083	0.013
-413.398	-63.824	-0.284	-0.117
-412.384	-129.525	-0.064	-0.009
-411.369	800.000	0.084	-0.313
-410.355	-113.806	-0.228	-0.045
-409.340	61.657	-0.228	-0.228
-408.325	85.637	-0.332	0.366
-407.311	-194.524	-0.260	-0.002
-406.296	-186.173	0.231	-0.003
-405.282	-35.254	-0.300	0.164
-404.267	-60.590	0.093	-0.039
-403.252	51.641	-0.199	-0.190
-402.238	800.000	0.047	-0.153
-401.223	-28.271	-0.228	0.132
-400.209	-200.000	-0.008	-0.114
-399.194	-200.000	0.036	0.249
-398.179	39.534	-0.109	0.098
-397.165	-100.585	0.214	-0.053
-396.150	800.000	-0.134	0.394
-395.136	-128.178	-0.224	0.032
-394.121	-131.557	-0.174	-0.023
-393.106	-29.430	-0.227	-0.130
-392.092	-30.481	-0.217	-0.123
-391.077	49.033	0.221	-0.208
-390.063	36.260	-0.127	0.112
-389.048	-200.000	-0.021	0.117
-388.033	141.483	0.020	-0.027
-387.019	-78.462	0.048	-0.017
-386.004	-110.394	0.046	-0.010
-384.990	-200.000	-0.019	0.136
-383.975	-82.634	-0.216	-0.070
-382.960	-4.187	0.162	0.112
-381.946	149.934	0.084	0.114
-380.931	-200.000	-0.009	0.240
-379.917	14.962	-0.207	0.163
-378.902	-124.445	0.123	-0.019
-377.888	-110.376	-0.251	0.052
-376.873	-40.567	0.249	0.129
-375.858	-105.851	0.220	-0.050
-374.844	398.117	0.099	0.207
-373.829	-111.355	-0.195	0.040
-372.815	-148.116	-0.157	-0.013
-371.800	491.314	-0.105	-0.241
-370.785	-23.479	0.108	0.065
-369.771	-45.076	-0.200	-0.100
-368.756	-102.194	0.298	-0.072
-367.742	-77.780	0.441	0.153
-366.727	321.134	-0.145	0.276
-365.712	250.554	-0.104	0.178
-364.698	75.097	0.229	-0.242
-363.683	-116.856	-0.211	0.039
-362.669	-200.000	-0.014	0.241
-361.654	654.358	0.080	-0.206
-360.639	212.320	-0.174	-0.274
-359.625	-135.725	-0.466	-0.055
-358.610	-200.000	-0.029	-0.224
-357.596	-200.000	0.008	-0.320
-356.581	-85.733	0.293	0.091
-355.566	800.000	-0.014	0.046
-354.552	53.908	0.175	0.169
-353.537	-200.000	-0.051	-0.253
-352.523	448.746	-0.062	0.137
-351.508	-60.158	-0.164	0.070
-350.493	-161.762	-0.381	0.019
-349.479	525.118	0.136	-0.319
-348.464	-0.378	-0.075	-0.053
-347.450	-104.904	0.055	-0.013
-346.435	-61.898	0.077	-0.032
-345.420	-53.793	-0.129	0.059
-344.406	-153.312	0.289	-0.020
-343.391	-75.075	0.243	0.087
-342.377	55.114	-0.106	-0.102
-341.362	-82.452	-0.108	-0.035
-340.348	-125.669	-0.245	0.037
-339.333	327.940	-0.126	-0.242
-338.318	-200.000	-0.017	0.107
-337.304	-65.406	-0.113	-0.046
-336.289	-154.565	0.349	0.023
-335.275	311.803	0.075	-0.142
-334.260	-114.453	-0.160	0.031
-333.245	521.988	0.112	0.264
-332.231	-158.092	0.258	0.015
-331.216	150.320	0.168	0.228
-330.202	181.057	0.175	-0.258
-329.187	-108.620	-0.243	-0.052
-328.172	-200.000	-0.005	0.302
-327.158	-92.518	0.196	-0.055
-326.143	-200.000	0.028	0.186
-325.129	193.898	-0.063	0.095
-324.114	-200.000	-0.015	0.289
-323.099	99.491	-0.145	0.168
-322.085	800.000	-0.040	-0.118
-321.070	-163.595	0.075	-0.004
-320.056	-150.093	0.283	0.022
-319.041	236.348	-0.161	0.266
-318.026	69.003	0.133	-0.137
-317.012	311.948	-0.077	0.145
-315.997	73.723	-0.163	0.170
-314.983	-32.764	-0.078	-0.044
-313.968	38.067	0.114	-0.102
-312.953	-111.254	0.042	0.008
-311.939	-5.992	-0.288	-0.197
-310.924	-200.000	-0.018	-0.286
-309.910	-200.000	0.066	-0.508
-308.895	-30.457	0.267	-0.152
-307.880	-130.443	-0.198	0.027
-306.866	281.092	0.139	0.248
-305.851	759.258	0.084	-0.227
-304.837	227.382	0.027	-0.043
-303.822	-200.000	0.014	0.277
-302.807	14.671	-0.145	0.113
-301.793	-44.806	-0.164	-0.082
-300.778	61.880	-0.186	0.185
-299.764	-200.000	0.036	0.194
-298.749	260.018	0.107	0.185
-297.735	65.298	0.095	0.096
-296.720	800.000	0.004	-0.013
-295.705	-200.000	0.023	-0.400
-294.691	-13.623	0.069	0.045
-293.676	151.955	-0.157	-0.214
-292.662	-5.047	0.287	-0.197
-291.647	-32.629	-0.488	0.272
-290.632	684.502	0.083	-0.217
-289.618	-200.000	0.067	-0.357
-288.603	-200.000	-0.006	-0.177
-287.589	800.000	0.053	-0.212
-286.574	-196.823	0.321	0.002
-285.559	32.486	-0.288	0.248
-284.545	-82.381	-0.196	-0.064
-283.530	-160.400	0.393	-0.021
-282.516	77.008	0.082	-0.087
-281.501	-200.000	0.006	0.369
-280.486	-61.604	0.332	0.139
-279.472	-200.000	-0.008	-0.101
-278.457	-38.033	-0.177	-0.094
-277.443	-200.000	0.004	0.023
-276.428	-108.717	-0.196	0.042
-275.413	-46.062	-0.152	-0.075
-274.399	-200.000	0.011	-0.119
-273.384	272.189	-0.141	0.248
-272.370	49.604	-0.055	0.051
-271.355	-145.931	-0.362	-0.032
-270.340	800.000	0.050	-0.202
-269.326	-64.406	-0.097	0.039
-268.311	-200.000	-0.002	0.046
-267.297	27.215	0.073	-0.062
-266.282	-52.872	-0.081	0.037
-265.267	-73.212	0.075	-0.027
-264.253	134.966	0.115	0.149
-263.238	-51.036	-0.212	-0.099
-262.224	-52.226	-0.219	-0.101
-261.209	-83.422	0.235	-0.075
-260.195	4.396	0.128	0.093
-259.180	153.235	0.254	0.348
-258.165	-133.452	0.254	0.032
-257.151	-200.000	-0.015	0.230
-256.136	110.891	0.214	-0.257
-255.122	-200.000	0.021	0.159
-254.107	2.022	-0.284	-0.204
-253.092	389.531	0.061	-0.127
-252.078	198.343	0.163	0.249
-251.063	-67.496	-0.232	-0.091
-250.049	427.469	-0.083	0.179
-249.034	42.754	0.075	0.068
-248.019	-97.528	0.602	-0.156
-247.005	-200.000	0.020	0.159
-245.990	-7.659	0.148	0.100
-244.976	800.000	0.069	-0.268
-243.961	81.177	-0.213	0.230
-242.946	-19.526	0.347	0.215
-241.932	-161.599	-0.261	-0.013
-240.917	96.591	-0.130	0.148
-239.903	-6.467	-0.065	0.044
-238.888	800.000	0.115	-0.450
-237.873	-200.000	0.002	0.039
-236.859	-148.957	0.277	-0.022
-235.844	800.000	0.016	-0.059
-234.830	-31.096	0.127	-0.072
-233.815	-127.448	-0.234	0.034
-232.800	-98.470	-0.080	-0.020
-231.786	-140.392	0.055	-0.006
-230.771	-60.820	-0.235	-0.099
-229.757	-99.325	-0.123	-0.031
-228.742	35.496	-0.226	-0.198
-227.727	725.336	0.124	0.330
-226.713	-38.534	0.246	0.129
-225.698	24.199	-0.068	-0.056
-224.684	236.904	0.094	-0.154
-223.669	346.672	0.140	0.274
-222.655	-40.651	-0.252	-0.130
-221.640	7.548	-0.208	-0.155
-220.625	-200.000	-0.042	0.231
-219.611	-28.926	-0.410	-0.235
-218.596	594.358	-0.090	-0.222
-217.582	-200.000	0.006	-0.202
-216.567	-200.000	0.019	-0.215
-215.552	-118.312	-0.071	0.013
-214.538	42.607	-0.163	-0.148
-213.523	-100.629	0.523	-0.129
-212.509	-7.332	-0.089	-0.060
-211.494	-156.093	-0.194	0.012
-210.479	85.190	0.182	0.199
-209.465	-78.223	0.069	-0.024
-208.450	-96.569	0.163	-0.043
-207.436	-47.572	-0.222	-0.107
-206.421	340.452	0.146	-0.283
-205.406	-38.230	0.257	-0.136
-204.392	-92.343	-0.185	0.052
-203.377	745.557	0.054	0.144
-202.363	-159.806	-0.220	-0.012
-201.348	16.999	-0.259	-0.205
-200.333	-118.633	0.205	-0.036
-199.319	-73.698	0.096	0.035
-198.304	120.501	0.195	-0.241
-197.290	-94.560	-0.186	0.051
-196.275	-200.000	0.003	0.044
-195.260	-111.582	-0.208	-0.042
-194.246	349.496	-0.014	0.027
-193.231	122.147	0.078	0.097
-192.217	173.308	0.298	-0.427
-191.202	-41.100	0.210	0.108
-190.187	-200.000	-0.034	0.293
-189.173	160.334	0.094	0.130
-188.158	800.000	-0.026	-0.076
-187.144	497.731	-0.100	0.229
-186.129	70.245	-0.116	0.119
-185.114	272.667	0.082	-0.144
-184.100	441.876	0.089	0.194
-183.085	80.675	-0.070	0.075
-182.071	533.900	-0.034	-0.080
-181.056	50.937	-0.061	-0.057
-180.042	129.521	0.170	0.216
-179.027	-200.000	0.011	-0.106
-178.012	111.115	-0.177	0.212
-176.998	-97.028	-0.066	0.017
-175.983	669.671	0.037	-0.094
-174.969	-24.983	-0.192	0.113
-173.954	-28.798	0.177	0.101
-172.939	800.000	0.111	-0.411
-171.925	-62.730	0.162	0.067
-170.910	156.679	-0.062	0.086
-169.896	-4.475	0.132	0.090
-168.881	800.000	-0.174	0.527
-167.866	44.225	0.229	0.209
-166.852	1.444	-0.154	-0.110
-165.837	-200.000	-0.050	0.369
-164.823	119.483	0.143	0.177
-163.808	-56.031	-0.126	0.056
-162.793	164.428	-0.101	0.141
-161.779	-200.000	0.039	-0.352
-160.764	505.855	-0.165	0.380
-159.750	-97.613	0.127	-0.033
-158.735	-85.427	0.024	0.007
-157.720	-15.197	0.332	0.211
-156.706	800.000	0.131	-0.421
-155.691	-200.000	-0.007	-0.121
-154.677	-200.000	0.041	-0.231
-153.662	-50.366	-0.071	-0.033
-152.647	800.000	-0.077	0.235
-151.633	172.485	0.108	-0.155
-150.618	533.662	0.138	0.325
-149.604	800.000	-0.093	0.267
-148.589	-95.738	0.062	-0.017
-147.574	219.519	0.135	-0.214
-146.560	82.044	-0.349	0.376
-145.545	117.118	0.122	-0.149
-144.531	243.255	-0.134	0.223
-143.516	-124.064	-0.439	-0.069
-142.502	385.987	0.223	-0.457
-141.487	-129.323	-0.136	0.019
-140.472	-36.457	0.167	0.089
-139.458	-103.204	-0.325	0.076
-138.443	93.886	-0.344	0.387
-137.429	-86.486	0.246	-0.075
-136.414	211.323	0.027	0.042
-135.399	-96.383	-0.302	-0.079
-134.385	-141.444	-0.527	0.053
-133.370	-50.880	0.098	0.046
-132.356	191.967	-0.109	-0.163
-131.341	239.418	0.038	0.064
-130.326	-39.317	-0.215	0.112
-129.312	-59.892	-0.400	0.170
-128.297	133.611	0.146	0.188
-127.283	-200.000	0.032	0.303
-126.268	203.406	-0.147	-0.226
-125.253	-200.000	-0.019	-0.237
-124.239	31.982	-0.168	-0.144
-123.224	-43.321	0.277	0.139
-122.210	-28.286	-0.337	-0.193
