DTS Sentinel unit serial number:	SN413079Multiplexer serial number:	ORYXHardware model number:	OX4-SRSoftware version number:	ORYX F/W v4.00 Oryx Data Collector v3.7.2.0data status	okinstallation	princeton_trtdifferential loss correction	single-endedforward channel	channel 4reverse channel	N/Adate	2019/09/15time	17:13:35forward acquisition time	60.00reverse acquisition time	0.00gamma	496.2192k internal	0.2275k external	0.2275temperature offset calibration	0.9927default loss term (dB/km)	0.3790temperature slope calibration	1.0000multiplexer offset coefficient	1.0000multiplexer slope coefficient	1.0000fibre end	0.00T internal ref (°C)	44.69T ext. ref 1 (°C)	5.99T ext. ref 2 (°C)	40.42length (m)	temperature (°C)	Stokes	anti-Stokes-747.200	-200.000	0.057	0.262
-746.185	-127.852	0.174	-0.026
-745.171	25.549	0.108	0.092
-744.156	800.000	0.135	0.396
-743.142	-72.218	-0.259	0.099
-742.127	215.005	-0.246	0.403
-741.112	-54.804	-0.272	0.127
-740.098	-10.955	-0.117	0.080
-739.083	380.102	0.056	-0.118
-738.069	-72.623	-0.277	0.105
-737.054	252.088	-0.136	-0.239
-736.039	157.889	-0.210	-0.300
-735.025	-91.712	0.329	0.096
-734.010	11.157	0.167	-0.132
-732.996	-127.663	0.136	-0.020
-731.981	-25.243	-0.130	-0.079
-730.966	18.588	0.172	0.141
-729.952	800.000	0.127	-0.383
-728.937	-200.000	-0.057	-0.291
-727.923	-95.987	0.307	0.084
-726.908	723.226	-0.099	-0.271
-725.894	800.000	-0.020	-0.060
-724.879	16.801	0.085	0.069
-723.864	-200.000	0.010	-0.171
-722.850	-200.000	-0.006	0.055
-721.835	-200.000	0.078	0.401
-720.821	-88.960	-0.187	-0.057
-719.806	651.927	0.091	0.240
-718.791	-154.557	0.376	-0.026
-717.777	332.937	-0.141	-0.280
-716.762	-200.000	-0.066	-0.351
-715.748	-200.000	-0.004	0.245
-714.733	-54.441	0.216	0.101
-713.718	-63.367	-0.353	-0.150
-712.704	93.107	-0.089	-0.104
-711.689	-200.000	0.016	-0.138
-710.675	21.599	0.255	-0.214
-709.660	-178.266	0.129	0.003
-708.645	399.420	0.110	-0.237
-707.631	-85.608	0.447	-0.143
-706.616	-24.140	-0.202	-0.124
-705.602	-38.197	0.133	0.073
-704.587	-17.656	0.173	-0.112
-703.572	42.207	-0.249	-0.233
-702.558	-106.785	-0.132	0.030
-701.543	800.000	0.079	0.277
-700.529	-99.498	0.083	0.021
-699.514	648.683	0.009	0.023
-698.499	-200.000	0.003	0.122
-697.485	-55.437	-0.189	0.087
-696.470	-106.812	0.232	0.053
-695.456	-39.935	0.142	-0.076
-694.441	800.000	-0.064	-0.204
-693.426	67.490	-0.075	0.079
-692.412	535.987	-0.076	-0.184
-691.397	177.684	-0.113	-0.169
-690.383	95.353	-0.200	0.234
-689.368	262.987	-0.067	0.119
-688.354	800.000	0.053	0.186
-687.339	-151.962	0.083	-0.006
-686.324	178.472	0.112	0.168
-685.310	800.000	0.004	0.014
-684.295	119.496	-0.174	-0.222
-683.281	-129.354	-0.122	0.017
-682.266	-28.627	-0.190	0.113
-681.251	-200.000	0.030	0.277
-680.237	-200.000	-0.044	0.380
-679.222	800.000	0.062	0.180
-678.208	-84.391	0.094	0.031
-677.193	-200.000	0.002	0.049
-676.178	-24.923	-0.073	0.045
-675.164	-131.303	-0.432	0.059
-674.149	7.219	-0.141	0.108
-673.135	-37.194	-0.210	-0.115
-672.120	-168.107	-0.234	0.009
-671.105	-86.861	0.100	-0.031
-670.091	-52.509	-0.050	0.024
-669.076	-200.000	-0.014	0.321
-668.062	0.275	-0.114	0.084
-667.047	253.762	0.103	-0.181
-666.032	-87.628	-0.174	0.054
-665.018	-102.118	0.127	0.032
-664.003	-114.608	0.360	0.071
-662.989	-66.297	-0.466	0.191
-661.974	-160.925	-0.410	0.022
-660.959	116.079	-0.088	0.110
-659.945	800.000	0.075	-0.275
-658.930	2.933	-0.178	0.133
-657.916	800.000	0.146	0.423
-656.901	-98.208	-0.168	-0.044
-655.886	144.315	0.098	-0.135
-654.872	-200.000	0.027	0.365
-653.857	-200.000	-0.004	-0.081
-652.843	800.000	0.110	-0.411
-651.828	123.249	-0.153	0.198
-650.814	-200.000	-0.043	-0.242
-649.799	-120.036	0.191	0.034
-648.784	181.237	0.082	0.124
-647.770	-200.000	0.015	0.073
-646.755	-24.931	0.205	-0.125
-645.741	53.120	0.198	0.195
-644.726	-200.000	0.022	0.321
-643.711	800.000	0.070	0.204
-642.697	-105.188	0.319	0.075
-641.682	-200.000	0.023	-0.265
-640.668	13.686	-0.095	0.076
-639.653	-200.000	0.011	-0.281
-638.638	-106.848	-0.188	-0.043
-637.624	-113.316	0.145	-0.029
-636.609	337.196	-0.070	-0.140
-635.595	800.000	-0.108	-0.366
-634.580	-68.596	0.070	0.028
-633.565	800.000	0.034	-0.116
-632.551	-27.202	-0.301	-0.180
-631.536	323.540	-0.117	0.230
-630.522	-188.911	0.287	0.004
-629.507	208.259	-0.080	-0.128
-628.492	-101.787	-0.162	-0.040
-627.478	366.397	0.123	0.255
-626.463	-38.310	-0.168	0.092
-625.449	-200.000	-0.032	-0.264
-624.434	-20.989	-0.150	-0.095
-623.419	376.197	0.069	0.144
-622.405	-200.000	0.024	0.153
-621.390	-65.289	0.305	0.126
-620.376	-48.440	-0.236	0.117
-619.361	-158.804	-0.164	-0.010
-618.346	-200.000	-0.029	-0.257
-617.332	-92.359	-0.076	-0.022
-616.317	212.167	-0.096	-0.155
-615.303	424.239	0.200	-0.441
-614.288	-75.577	-0.140	0.051
-613.273	53.008	0.240	0.236
-612.259	580.032	-0.075	-0.187
-611.244	800.000	-0.056	-0.214
-610.230	84.328	0.402	0.451
-609.215	-134.857	0.220	0.027
-608.201	-200.000	-0.029	-0.345
-607.186	163.962	0.262	-0.378
-606.171	-105.479	-0.153	-0.036
-605.157	-166.528	-0.045	0.002
-604.142	96.669	0.326	-0.383
-603.128	133.260	0.091	0.121
-602.113	-136.304	0.047	-0.006
-601.098	-116.394	0.208	0.039
-600.084	800.000	-0.064	-0.234
-599.069	-58.440	-0.211	0.094
-598.055	-200.000	-0.013	-0.198
-597.040	63.704	-0.083	-0.086
-596.025	-172.707	-0.226	0.007
-595.011	51.658	0.172	-0.168
-593.996	18.715	-0.129	0.106
-592.982	93.414	0.217	-0.252
-591.967	-200.000	0.055	-0.305
-590.952	-30.766	-0.159	0.092
-589.938	101.107	0.104	0.124
-588.923	208.061	-0.095	-0.153
-587.909	-144.803	-0.208	-0.020
-586.894	-128.644	0.620	0.090
-585.879	-96.720	0.250	0.067
-584.865	-87.184	-0.282	-0.088
-583.850	120.927	-0.095	0.121
-582.836	-84.971	0.129	-0.041
-581.821	-106.361	0.105	-0.024
-580.806	-55.420	-0.218	0.100
-579.792	-66.155	0.307	0.125
-578.777	17.449	-0.230	-0.187
-577.763	444.985	-0.125	-0.281
-576.748	47.216	-0.172	-0.164
-575.733	-44.471	0.290	-0.148
-574.719	-102.786	0.297	-0.072
-573.704	111.983	-0.037	-0.045
-572.690	302.192	-0.037	-0.071
-571.675	-31.058	0.275	0.159
-570.661	69.335	-0.028	0.030
-569.646	-95.529	0.304	-0.083
-568.631	-200.000	0.056	-0.258
-567.617	-117.901	-0.325	0.060
-566.602	-98.773	-0.243	-0.063
-565.588	-35.728	-0.302	0.168
-564.573	-45.892	0.206	0.104
-563.558	49.076	0.131	0.126
-562.544	-73.872	-0.114	0.043
-561.529	-123.752	-0.280	-0.045
-560.515	-10.556	0.108	-0.073
-559.500	644.491	-0.097	-0.254
-558.485	-200.000	0.014	-0.110
-557.471	391.942	-0.093	-0.198
-556.456	36.085	0.221	0.199
-555.442	-75.702	-0.280	0.102
-554.427	39.832	0.114	-0.105
-553.412	99.379	-0.139	0.164
-552.398	244.435	-0.140	0.241
-551.383	-164.355	-0.186	-0.009
-550.369	800.000	-0.031	-0.094
-549.354	27.069	0.233	0.200
-548.339	192.651	0.132	-0.204
-547.325	744.992	-0.019	0.051
-546.310	-65.957	-0.332	0.136
-545.296	-145.232	-0.502	-0.047
-544.281	-80.142	0.375	0.128
-543.266	-182.227	0.101	0.002
-542.252	116.117	-0.131	0.164
-541.237	-103.022	-0.151	-0.037
-540.223	105.267	-0.123	0.148
-539.208	-200.000	-0.013	0.182
-538.193	371.948	0.134	0.278
-537.179	168.675	-0.098	0.143
-536.164	48.445	-0.066	-0.064
-535.150	-176.041	0.279	-0.008
-534.135	261.595	-0.112	0.198
-533.121	22.157	-0.238	-0.199
-532.106	-122.060	0.144	0.024
-531.091	-94.188	0.123	0.034
-530.077	800.000	-0.036	-0.127
-529.062	41.084	-0.094	0.087
-528.048	-200.000	0.015	-0.087
-527.033	39.489	-0.073	0.067
-526.018	-137.454	0.128	0.015
-525.004	800.000	0.044	-0.190
-523.989	-159.904	-0.073	0.004
-522.975	-144.579	-0.188	-0.018
-521.960	-200.000	0.038	-0.261
-520.945	92.137	0.155	-0.178
-519.931	219.743	-0.064	0.104
-518.916	-200.000	-0.010	0.175
-517.902	68.038	0.420	-0.439
-516.887	40.855	-0.053	-0.049
-515.872	-29.402	-0.033	0.020
-514.858	800.000	-0.040	-0.134
-513.843	-13.362	0.246	-0.163
-512.829	-200.000	-0.177	0.001
-511.814	-108.159	-0.084	-0.019
-510.799	-148.378	0.129	-0.011
-509.785	-62.528	-0.194	0.082
-508.770	-200.000	0.016	-0.146
-507.756	0.211	-0.072	0.052
-506.741	-43.272	-0.266	-0.137
-505.726	-144.714	0.065	-0.006
-504.712	344.740	0.060	-0.120
-503.697	604.843	-0.082	0.208
-502.683	0.465	-0.109	-0.080
-501.668	357.745	-0.133	-0.271
-500.653	-200.000	-0.023	0.169
-499.639	-8.684	0.147	0.101
-498.624	81.228	-0.115	-0.127
-497.610	-126.309	-0.185	0.028
-496.595	-200.000	-0.011	0.125
-495.581	-200.000	-0.051	-0.252
-494.566	44.665	-0.092	0.086
-493.551	800.000	-0.088	0.336
-492.537	21.631	-0.260	0.216
-491.522	-89.110	0.151	-0.045
-490.508	-63.998	-0.323	-0.135
-489.493	-200.000	0.050	0.258
-488.478	10.388	0.055	0.043
-487.464	-49.172	-0.215	-0.105
-486.449	-20.112	-0.379	-0.239
-485.435	368.047	-0.152	0.314
-484.420	800.000	0.095	-0.357
-483.405	-200.000	0.003	-0.179
-482.391	-200.000	0.009	0.310
-481.376	22.093	0.075	0.063
-480.362	124.268	-0.115	0.148
-479.347	800.000	0.050	-0.212
-478.332	58.022	0.180	0.180
-477.318	-67.233	0.080	-0.032
-476.303	-45.889	0.147	0.074
-475.289	348.803	0.025	0.050
-474.274	-200.000	-0.033	-0.161
-473.259	-155.088	0.428	-0.029
-472.245	-30.002	0.307	0.179
-471.230	103.639	-0.236	-0.283
-470.216	-97.346	0.149	0.040
-469.201	26.354	0.191	0.162
-468.186	-200.000	-0.020	-0.124
-467.172	-48.044	-0.212	-0.105
-466.157	-133.801	0.308	0.039
-465.143	-61.043	-0.211	0.091
-464.128	-84.748	0.161	0.052
-463.113	-7.485	-0.197	0.136
-462.099	-200.000	0.023	0.149
-461.084	20.262	0.196	-0.161
-460.070	-151.235	0.184	0.014
-459.055	-23.044	-0.043	-0.026
-458.040	-77.134	-0.363	-0.129
-457.026	241.169	-0.046	0.078
-456.011	64.326	0.116	-0.119
-454.997	-123.405	0.290	0.047
-453.982	-200.000	-0.046	0.293
-452.968	-4.777	-0.173	-0.122
-451.953	-95.445	0.113	0.031
-450.938	-12.177	-0.140	-0.093
-449.924	-200.000	-0.021	0.279
-448.909	-139.540	-0.416	-0.045
-447.895	-200.000	-0.045	0.208
-446.880	5.669	-0.165	0.124
-445.865	-1.313	0.193	-0.139
-444.851	-200.000	-0.005	0.104
-443.836	800.000	0.050	0.216
-442.822	7.409	-0.115	0.087
-441.807	25.910	-0.245	-0.208
-440.792	58.933	-0.208	0.209
-439.778	-57.248	-0.248	0.111
-438.763	-200.000	0.031	-0.201
-437.749	3.252	-0.059	0.044
-436.734	-74.804	-0.351	0.129
-435.719	149.550	-0.152	-0.210
-434.705	-200.000	-0.006	-0.231
-433.690	164.997	0.268	-0.386
-432.676	11.760	-0.110	-0.086
-431.661	-200.000	-0.041	0.293
-430.646	-41.628	-0.311	-0.163
-429.632	-71.045	-0.123	0.047
-428.617	395.251	0.067	0.141
-427.603	-117.006	0.372	-0.069
-426.588	-81.172	-0.211	-0.071
-425.573	-151.018	0.260	0.020
-424.559	184.892	0.054	-0.082
-423.544	-133.910	0.136	-0.017
-422.530	298.234	0.057	0.107
-421.515	-53.808	0.091	0.042
-420.500	316.239	-0.150	-0.288
-419.486	-200.000	-0.036	0.237
-418.471	403.052	0.154	0.329
-417.457	-91.105	0.411	0.120
-416.442	-103.431	0.165	0.039
-415.428	-31.801	-0.545	-0.311
-414.413	800.000	-0.104	-0.304
-413.398	282.159	-0.103	-0.187
-412.384	-66.509	0.180	-0.073
-411.369	83.873	-0.164	-0.182
-410.355	-92.376	-0.176	0.050
-409.340	-49.308	-0.237	-0.115
-408.325	-48.478	0.227	-0.111
-407.311	-8.814	-0.251	0.171
-406.296	774.263	0.027	-0.075
-405.282	-5.113	0.153	0.107
-404.267	-119.365	0.190	0.034
-403.252	8.095	0.164	0.125
-402.238	-170.707	-0.137	0.005
-401.223	-156.360	-0.251	-0.016
-400.209	-200.000	-0.026	-0.120
-399.194	-182.122	0.317	-0.006
-398.179	326.374	-0.128	-0.248
-397.165	-88.743	0.111	0.034
-396.150	800.000	0.065	0.231
-395.136	53.529	0.092	-0.090
-394.121	305.745	-0.091	-0.172
-393.106	-182.880	0.260	0.005
-392.092	66.965	0.092	-0.095
-391.077	-109.023	0.182	-0.039
-390.063	-200.000	0.012	-0.224
-389.048	5.050	0.330	-0.247
-388.033	-91.966	0.091	0.026
-387.019	-40.457	-0.331	-0.175
-386.004	-119.101	-0.252	0.045
-384.990	16.046	0.132	0.106
-383.975	-145.333	0.120	0.011
-382.960	-48.367	-0.360	-0.176
-381.946	800.000	0.022	0.095
-380.931	94.923	0.199	0.230
-379.917	-46.420	0.205	-0.102
-378.902	150.804	-0.092	0.127
-377.888	-58.744	0.232	-0.102
-376.873	-106.286	0.202	-0.046
-375.858	505.486	-0.144	-0.340
-374.844	800.000	0.025	-0.073
-373.829	678.286	-0.063	-0.166
-372.815	-43.064	-0.072	-0.037
-371.800	-3.796	-0.114	0.080
-370.785	800.000	-0.070	0.201
-369.771	66.987	-0.108	0.112
-368.756	800.000	-0.124	-0.369
-367.742	800.000	0.076	-0.219
-366.727	-187.128	-0.340	-0.005
-365.712	219.794	-0.140	0.228
-364.698	800.000	0.100	-0.290
-363.683	-169.054	0.067	0.003
-362.669	-103.788	0.239	0.057
-361.654	690.779	-0.057	-0.152
-360.639	-67.820	-0.107	-0.042
-359.625	183.516	-0.189	0.284
-358.610	-69.094	-0.045	-0.018
-357.596	-151.815	-0.225	-0.017
-356.581	-136.469	0.515	0.061
-355.566	-137.117	-0.439	0.051
-354.552	-200.000	0.071	0.318
-353.537	-81.128	0.051	0.017
-352.523	-107.983	0.203	0.045
-351.508	-168.765	-0.350	-0.013
-350.493	-200.000	0.036	0.256
-349.479	800.000	0.016	-0.060
-348.464	-200.000	0.029	-0.182
-347.450	378.214	0.052	-0.109
-346.435	-124.499	0.112	-0.018
-345.420	125.262	0.035	0.045
-344.406	138.762	-0.065	0.087
-343.391	-87.605	-0.198	-0.061
-342.377	18.356	0.120	0.097
-341.362	800.000	-0.024	0.101
-340.348	-200.000	-0.028	0.162
-339.333	-158.080	0.091	0.005
-338.318	-92.913	0.232	-0.066
-337.304	-11.762	0.345	0.230
-336.289	281.133	0.092	-0.167
-335.275	-24.866	-0.187	-0.113
-334.260	62.363	-0.055	-0.056
-333.245	86.019	0.132	0.148
-332.231	-64.495	0.094	-0.039
-331.216	-76.263	0.564	0.202
-330.202	-71.092	-0.449	0.171
-329.187	-22.731	-0.253	0.155
-328.172	13.677	0.073	0.057
-327.158	14.792	-0.093	0.074
-326.143	800.000	-0.012	0.042
-325.129	287.597	0.054	0.100
-324.114	800.000	0.109	0.383
-323.099	-41.815	0.226	-0.118
-322.085	800.000	-0.053	-0.155
-321.070	613.122	-0.080	-0.203
-320.056	224.114	0.149	-0.244
-319.041	1.413	0.109	0.079
-318.026	-63.549	-0.354	0.147
-317.012	-66.181	0.175	0.071
-315.997	466.025	-0.042	-0.096
-314.983	18.809	0.174	-0.142
-313.968	317.937	0.040	0.076
-312.953	-97.877	-0.282	0.074
-311.939	292.517	-0.090	-0.166
-310.924	-39.202	-0.137	0.073
-309.910	162.968	0.084	-0.119
-308.895	4.443	-0.142	0.105
-307.880	95.745	0.052	0.060
-306.866	-43.520	-0.254	-0.130
-305.851	800.000	-0.123	-0.431
-304.837	288.596	0.048	-0.088
-303.822	-47.255	0.162	0.080
-302.807	-91.080	-0.142	0.041
-301.793	-83.635	-0.136	0.044
-300.778	-59.804	0.076	0.033
-299.764	-112.283	0.138	0.028
-298.749	6.532	0.040	-0.030
-297.735	9.957	0.196	0.151
-296.720	257.616	-0.142	0.248
-295.705	60.495	-0.116	0.117
-294.691	468.913	0.104	0.236
-293.676	-200.000	-0.023	-0.267
-292.662	138.825	0.199	0.265
-291.647	-157.809	-0.010	-0.001
-290.632	-66.894	0.282	0.113
-289.618	59.384	0.079	-0.079
-288.603	-41.552	-0.360	0.188
-287.589	27.715	0.521	-0.444
-286.574	224.654	0.234	-0.383
-285.559	68.812	0.246	0.256
-284.545	1.000	0.220	-0.160
-283.530	481.740	0.095	0.218
-282.516	361.267	0.178	-0.362
-281.501	-153.312	-0.271	-0.019
-280.486	-200.000	0.040	-0.239
-279.472	-94.708	-0.251	0.069
-278.457	800.000	-0.069	0.199
-277.443	-157.961	-0.402	-0.024
-276.428	-76.049	-0.240	0.086
-275.413	-192.321	0.339	-0.003
-274.399	-200.000	0.014	-0.063
-273.384	29.870	0.083	0.071
-272.370	-159.999	0.145	0.008
-271.355	-30.606	-0.231	0.132
-270.340	-169.350	0.078	0.003
-269.326	39.116	0.213	-0.192
-268.311	-200.000	0.014	0.176
-267.297	243.225	-0.063	0.106
-266.282	-87.990	-0.143	0.043
-265.267	-136.116	0.246	-0.029
-264.253	-200.000	0.047	0.396
-263.238	491.806	-0.126	0.292
-262.224	-200.000	0.020	-0.161
-261.209	-200.000	0.007	0.134
-260.195	-101.136	-0.096	-0.024
-259.180	-200.000	-0.002	-0.034
-258.165	21.124	0.190	0.156
-257.151	330.216	-0.181	-0.353
-256.136	-53.330	-0.269	0.125
-255.122	800.000	-0.102	-0.286
-254.107	-156.905	-0.309	0.019
-253.092	60.894	0.130	-0.131
-252.078	-98.761	0.146	-0.038
-251.063	-32.018	-0.239	0.135
-250.049	-146.197	0.259	0.023
-249.034	-76.905	-0.310	0.110
-248.019	269.843	-0.103	0.183
-247.005	800.000	0.053	-0.171
-245.990	97.905	-0.282	0.327
-244.976	-23.079	0.272	0.166
-243.961	16.997	-0.224	-0.180
-242.946	229.367	0.157	0.260
-241.932	-133.927	0.222	-0.028
-240.917	-129.565	-0.420	-0.059
-239.903	-176.406	0.249	0.007
-238.888	-200.000	-0.005	-0.141
-237.873	204.339	0.210	-0.329
-236.859	67.382	-0.155	0.160
-235.844	-102.394	0.434	0.105
-234.830	583.701	0.096	0.239
-233.815	22.518	-0.168	-0.139
-232.800	-200.000	0.012	-0.168
-231.786	-40.214	-0.114	-0.060
-230.771	-13.636	-0.137	0.090
-229.757	-19.725	-0.198	0.124
-228.742	16.083	0.172	0.137
-227.727	800.000	-0.062	0.175
-226.713	70.221	0.087	0.091
-225.698	289.659	-0.124	-0.228
-224.684	195.332	0.087	-0.133
-223.669	-200.000	0.004	-0.124
-222.655	-200.000	-0.047	0.236
-221.640	800.000	0.021	0.063
-220.625	-96.232	0.202	-0.054
-219.611	171.479	-0.090	-0.130
-218.596	800.000	-0.030	0.087
-217.582	-117.653	-0.280	-0.051
-216.567	157.878	0.221	-0.309
-215.552	-200.000	0.066	0.522
-214.538	800.000	0.168	0.487
-213.523	-59.564	0.394	0.171
-212.509	159.487	0.104	-0.146
-211.494	-6.483	0.233	0.160
-210.479	125.079	-0.323	-0.411
-209.465	108.801	0.156	-0.188
-208.450	-200.000	-0.047	0.220
-207.436	139.362	-0.172	-0.229
-206.421	-40.776	0.137	0.072
-205.406	47.396	-0.168	0.158
-204.392	223.769	-0.131	-0.214
-203.377	166.463	-0.152	0.218
-202.363	-65.361	-0.143	0.058
-201.348	134.051	-0.114	-0.149
-200.333	-95.644	0.309	0.084
-199.319	-200.000	0.005	0.147
-198.304	-134.888	0.182	-0.022
-197.290	-131.211	0.093	-0.012
-196.275	25.102	0.158	0.133
-195.260	37.486	-0.178	0.159
-194.246	-200.000	0.009	0.250
-193.231	-106.200	-0.302	0.068
-192.217	35.922	-0.102	0.091
-191.202	-200.000	-0.009	0.295
-190.187	85.835	0.228	-0.253
-189.173	25.522	0.385	0.323
-188.158	11.184	-0.161	0.124
-187.144	-200.000	-0.010	-0.056
-186.129	-200.000	0.009	-0.248
-185.114	65.467	0.175	-0.179
-184.100	-9.507	-0.158	0.106
-183.085	9.390	0.175	0.134
-182.071	-200.000	0.019	0.218
-181.056	-132.656	-0.321	-0.041
-180.042	-8.309	0.179	0.121
-179.027	154.626	-0.085	-0.118
-178.012	800.000	0.016	0.068
-176.998	502.145	-0.100	-0.234
-175.983	-174.396	0.250	-0.007
-174.969	-200.000	0.004	0.249
-173.954	-100.404	-0.201	0.050
-172.939	-16.668	0.173	-0.110
-171.925	105.451	-0.229	-0.273
-170.910	-60.557	0.234	0.100
-169.896	-90.471	-0.191	-0.056
-168.881	-97.296	-0.436	-0.115
-167.866	55.016	0.153	-0.149
-166.852	-36.702	-0.127	0.069
-165.837	-40.811	-0.067	-0.035
-164.823	800.000	-0.104	0.336
-163.808	-200.000	-0.003	-0.159
-162.793	195.923	0.137	0.210
-161.779	-200.000	-0.037	0.340
-160.764	-126.565	-0.115	0.017
-159.750	442.863	-0.048	-0.105
-158.735	59.346	0.117	-0.116
-157.720	-37.190	0.180	0.097
-156.706	-39.209	0.295	0.156
-155.691	-117.393	-0.074	0.013
-154.677	193.632	0.141	-0.215
-153.662	560.546	-0.028	0.069
-152.647	647.632	0.100	0.259
-151.633	800.000	0.027	0.083
-150.618	-2.691	0.123	-0.086
-149.604	211.766	0.175	0.278
-148.589	800.000	0.054	0.231
-147.574	800.000	-0.088	-0.254
-146.560	-200.000	0.049	-0.235
-145.545	430.615	-0.045	0.098
-144.531	298.439	0.264	0.489
-143.516	91.623	0.118	0.133
-142.502	194.040	0.118	0.179
-141.487	647.852	0.176	0.454
-140.472	-36.320	0.169	0.092
-139.458	7.647	0.146	0.110
-138.443	-2.894	0.075	-0.052
-137.429	11.848	-0.166	-0.129
-136.414	800.000	-0.047	-0.168
-135.399	200.459	0.098	0.151
-134.385	800.000	0.140	0.471
-133.370	-107.760	0.127	0.028
-132.356	-200.000	0.021	-0.251
-131.341	609.979	0.170	-0.429
-130.326	-156.030	-0.389	-0.025
-129.312	99.571	0.146	-0.170
-128.297	231.032	-0.024	-0.039
-127.283	146.307	0.083	-0.112
-126.268	-200.000	0.049	-0.242
-125.253	-45.076	-0.131	0.065
-124.239	556.310	-0.092	-0.224
-123.224	-45.957	0.222	0.110
-122.210	-16.164	0.293	-0.187
-121.195	86.355	0.142	0.157
-120.180	-200.000	0.021	0.220
