DTS Sentinel unit serial number:	SN413079Multiplexer serial number:	ORYXHardware model number:	OX4-SRSoftware version number:	ORYX F/W v4.00 Oryx Data Collector v3.7.2.0data status	okinstallation	princeton_trtdifferential loss correction	single-endedforward channel	channel 4reverse channel	N/Adate	2019/09/16time	15:45:35forward acquisition time	60.00reverse acquisition time	0.00gamma	496.2192k internal	0.2288k external	0.2288temperature offset calibration	0.9939default loss term (dB/km)	0.3790temperature slope calibration	1.0000multiplexer offset coefficient	1.0000multiplexer slope coefficient	1.0000fibre end	0.00T internal ref (°C)	41.16T ext. ref 1 (°C)	14.78T ext. ref 2 (°C)	36.36length (m)	temperature (°C)	Stokes	anti-Stokes-747.200	-200.000	0.036	-0.580
-746.185	615.579	-0.119	0.306
-745.171	398.151	-0.081	-0.174
-744.156	58.572	0.176	0.177
-743.142	800.000	0.124	0.385
-742.127	-166.019	-0.322	0.014
-741.112	-186.394	-0.182	0.003
-740.098	-22.473	0.143	-0.089
-739.083	190.106	0.088	0.136
-738.069	800.000	0.082	0.291
-737.054	-19.698	-0.144	0.091
-736.039	-46.411	-0.427	0.215
-735.025	-27.106	-0.141	-0.084
-734.010	725.346	0.125	0.341
-732.996	54.692	-0.105	0.104
-731.981	-200.000	0.031	-0.207
-730.966	118.405	0.098	-0.124
-729.952	800.000	0.086	-0.367
-728.937	-200.000	-0.044	0.269
-727.923	800.000	-0.015	0.047
-726.908	-183.388	-0.207	-0.004
-725.894	350.664	-0.056	-0.114
-724.879	201.784	-0.099	-0.157
-723.864	-130.168	-0.095	0.013
-722.850	-44.217	0.119	0.061
-721.835	-33.289	-0.251	-0.142
-720.821	159.503	-0.203	-0.290
-719.806	560.701	-0.077	0.190
-718.791	295.878	-0.080	-0.150
-717.777	800.000	-0.029	0.111
-716.762	-96.989	0.235	0.063
-715.748	-42.824	0.148	0.077
-714.733	-83.763	-0.240	-0.079
-713.718	-162.569	-0.358	-0.018
-712.704	-200.000	-0.037	-0.221
-711.689	800.000	0.079	0.247
-710.675	122.593	-0.045	-0.057
-709.660	-200.000	0.052	-0.303
-708.645	261.628	0.022	0.039
-707.631	-200.000	0.005	0.286
-706.616	606.535	0.090	-0.230
-705.602	-42.556	0.299	-0.156
-704.587	-49.321	-0.350	-0.171
-703.572	33.315	0.154	0.137
-702.558	800.000	-0.046	-0.162
-701.543	37.196	0.152	-0.138
-700.529	15.837	-0.325	0.262
-699.514	250.382	0.119	0.207
-698.499	83.080	-0.238	-0.265
-697.485	0.760	-0.290	-0.213
-696.470	-2.832	0.088	-0.063
-695.456	800.000	-0.033	-0.107
-694.441	42.818	-0.156	-0.146
-693.426	48.219	0.119	0.113
-692.412	-171.954	0.044	-0.001
-691.397	110.077	-0.079	0.097
-690.383	-139.202	-0.122	-0.013
-689.368	-87.898	-0.248	0.076
-688.354	359.184	-0.162	-0.331
-687.339	-6.357	0.203	-0.141
-686.324	3.051	0.399	0.296
-685.310	152.134	0.247	0.345
-684.295	-180.463	-0.287	0.006
-683.281	82.093	0.328	-0.364
-682.266	173.851	-0.166	-0.245
-681.251	-163.655	-0.019	-0.001
-680.237	-140.987	0.176	-0.019
-679.222	-138.611	0.292	-0.033
-678.208	303.123	0.133	-0.252
-677.193	64.480	0.194	-0.200
-676.178	323.368	0.214	-0.418
-675.164	-50.022	-0.150	-0.073
-674.149	213.399	0.169	-0.273
-673.135	-64.679	0.276	0.114
-672.120	231.611	0.015	0.025
-671.105	-75.045	0.319	-0.117
-670.091	-57.263	0.125	-0.056
-669.076	106.248	0.088	-0.106
-668.062	-47.489	-0.168	0.083
-667.047	360.289	-0.070	-0.144
-666.032	-67.743	-0.316	0.126
-665.018	221.092	0.141	-0.232
-664.003	25.916	-0.186	0.158
-662.989	-27.210	0.237	-0.141
-661.974	45.906	-0.406	0.384
-660.959	-200.000	-0.057	-0.350
-659.945	-145.408	0.275	-0.025
-658.930	-63.729	-0.062	-0.026
-657.916	-151.560	-0.131	-0.010
-656.901	-55.839	0.078	-0.036
-655.886	0.250	0.224	0.163
-654.872	-63.639	0.128	0.053
-653.857	418.295	-0.091	-0.199
-652.843	-93.187	0.311	-0.088
-651.828	-134.764	0.229	0.028
-650.814	-7.485	-0.203	0.140
-649.799	41.198	-0.223	0.206
-648.784	107.178	-0.151	-0.183
-647.770	-78.797	-0.255	-0.089
-646.755	21.975	-0.132	0.110
-645.741	-119.797	-0.069	0.012
-644.726	6.681	0.191	0.145
-643.711	-7.993	-0.158	0.109
-642.697	89.801	0.290	0.331
-641.682	7.053	-0.285	0.217
-640.668	800.000	-0.117	-0.342
-639.653	765.274	0.037	0.103
-638.638	162.792	0.139	-0.199
-637.624	137.702	-0.054	-0.072
-636.609	-184.393	0.365	-0.006
-635.595	-200.000	-0.006	-0.227
-634.580	-183.388	-0.184	-0.003
-633.565	-173.532	-0.618	0.019
-632.551	-17.520	-0.174	0.111
-631.536	800.000	0.057	-0.193
-630.522	162.517	0.162	0.231
-629.507	-200.000	0.048	0.357
-628.492	235.577	-0.157	0.265
-627.478	-79.759	-0.338	0.116
-626.463	-179.805	-0.229	0.005
-625.449	-109.379	0.156	-0.034
-624.434	-57.160	0.210	-0.094
-623.419	267.819	-0.139	0.249
-622.405	101.934	0.263	-0.313
-621.390	800.000	0.085	-0.283
-620.376	-137.905	0.318	0.036
-619.361	174.864	0.157	-0.232
-618.346	-29.906	0.106	0.061
-617.332	640.849	-0.064	0.166
-616.317	324.901	0.029	-0.057
-615.303	29.840	-0.267	-0.232
-614.288	-77.592	-0.123	-0.044
-613.273	-24.535	0.059	0.036
-612.259	79.796	0.133	-0.146
-611.244	55.423	0.136	0.135
-610.230	-95.745	-0.017	-0.005
-609.215	96.107	0.105	0.122
-608.201	190.332	0.186	-0.284
-607.186	-39.751	0.112	-0.060
-606.171	800.000	-0.018	-0.059
-605.157	53.074	-0.158	-0.154
-604.142	-117.097	-0.120	0.022
-603.128	-200.000	-0.021	0.136
-602.113	-109.223	-0.507	0.110
-601.098	-43.551	0.082	0.042
-600.084	370.120	-0.103	0.214
-599.069	-200.000	-0.043	0.377
-598.055	159.239	-0.134	-0.191
-597.040	-148.928	-0.063	0.005
-596.025	-63.890	-0.159	-0.066
-595.011	221.618	0.111	0.181
-593.996	-200.000	0.039	0.179
-592.982	77.488	0.224	-0.243
-591.967	33.831	-0.119	-0.106
-590.952	-30.108	-0.303	-0.175
-589.938	800.000	-0.036	-0.141
-588.923	62.442	-0.049	0.050
-587.909	-200.000	0.049	-0.371
-586.894	-146.952	-0.266	0.023
-585.879	113.915	0.234	0.290
-584.865	-124.100	0.226	0.036
-583.850	-189.436	0.148	0.002
-582.836	-78.837	0.208	-0.072
-581.821	-38.900	-0.069	-0.037
-580.806	-118.309	-0.096	-0.017
-579.792	-41.389	0.112	-0.059
-578.777	-200.000	-0.038	-0.375
-577.763	-200.000	0.017	0.401
-576.748	-200.000	-0.015	0.095
-575.733	200.864	-0.373	0.584
-574.719	553.011	-0.065	0.159
-573.704	-105.228	-0.151	-0.035
-572.690	-102.504	0.155	0.038
-571.675	385.633	0.073	0.154
-570.661	-200.000	-0.055	0.304
-569.646	-200.000	-0.116	-0.518
-568.631	-81.104	-0.156	0.052
-567.617	800.000	0.045	0.157
-566.602	334.607	0.094	0.185
-565.588	17.630	0.087	0.070
-564.573	-111.856	-0.047	0.010
-563.558	-134.662	-0.225	-0.028
-562.544	-108.769	0.133	-0.029
-561.529	-36.241	-0.230	0.126
-560.515	-44.552	-0.123	0.063
-559.500	-18.941	-0.154	-0.098
-558.485	780.126	-0.096	-0.267
-557.471	-107.501	-0.126	0.028
-556.456	800.000	-0.158	0.518
-555.442	-200.000	-0.058	0.392
-554.427	-61.292	-0.301	-0.129
-553.412	-35.454	0.233	-0.129
-552.398	-57.147	-0.293	0.131
-551.383	42.801	0.305	-0.283
-550.369	-150.220	0.100	0.008
-549.354	-200.000	-0.007	-0.177
-548.339	121.172	-0.122	-0.154
-547.325	-86.161	-0.353	0.111
-546.310	-97.788	-0.038	-0.010
-545.296	-106.182	-0.156	0.036
-544.281	-25.140	0.236	0.143
-543.266	639.882	0.093	0.242
-542.252	-23.638	0.207	0.127
-541.237	0.234	0.110	-0.080
-540.223	800.000	0.031	-0.126
-539.208	49.257	0.200	-0.191
-538.193	-26.678	-0.187	0.112
-537.179	457.770	0.088	0.199
-536.164	145.633	-0.044	-0.060
-535.150	800.000	-0.033	0.137
-534.135	-176.621	0.148	0.004
-533.121	22.895	0.173	0.144
-532.106	41.617	0.073	-0.067
-531.091	-200.000	-0.022	-0.157
-530.077	-200.000	0.054	0.290
-529.062	-200.000	-0.045	0.236
-528.048	136.189	-0.073	0.096
-527.033	-14.399	-0.110	-0.072
-526.018	-1.659	-0.194	-0.139
-525.004	53.953	-0.169	-0.165
-523.989	282.699	0.054	-0.098
-522.975	-61.577	-0.206	-0.088
-521.960	531.818	-0.057	-0.136
-520.945	-76.993	-0.526	0.187
-519.931	-200.000	-0.002	0.061
-518.916	800.000	0.030	0.089
-517.902	-6.823	0.207	-0.143
-516.887	-79.252	-0.160	-0.055
-515.872	63.611	-0.101	-0.103
-514.858	-72.556	-0.122	-0.046
-513.843	397.954	-0.148	-0.315
-512.829	189.740	-0.227	-0.346
-511.814	-57.115	-0.426	-0.191
-510.799	73.202	-0.119	-0.126
-509.785	-3.744	-0.156	-0.110
-508.770	-200.000	-0.004	-0.024
-507.756	-120.578	-0.475	-0.082
-506.741	51.125	0.147	-0.141
-505.726	-7.106	0.225	0.155
-504.712	-140.923	-0.327	-0.034
-503.697	-118.700	-0.218	0.039
-502.683	45.108	0.116	0.109
-501.668	181.893	-0.091	0.136
-500.653	193.165	-0.106	0.163
-499.639	159.066	-0.033	0.047
-498.624	-37.269	-0.076	-0.041
-497.610	-137.976	0.212	-0.024
-496.595	35.027	0.031	-0.027
-495.581	800.000	-0.040	0.157
-494.566	546.932	0.106	-0.257
-493.551	800.000	-0.036	0.133
-492.537	303.280	0.069	0.129
-491.522	-69.673	0.279	0.108
-490.508	-40.027	-0.119	-0.063
-489.493	-127.301	0.428	0.063
-488.478	-200.000	0.005	0.039
-487.464	-200.000	0.010	-0.107
-486.449	326.017	0.055	0.107
-485.435	-200.000	0.018	0.261
-484.420	-178.607	0.317	0.007
-483.405	101.524	-0.095	-0.113
-482.391	-25.491	0.227	0.136
-481.376	20.317	0.071	-0.058
-480.362	69.075	0.261	0.272
-479.347	47.228	-0.079	-0.074
-478.332	-85.319	-0.136	-0.043
-477.318	-200.000	0.000	-0.042
-476.303	800.000	-0.043	-0.121
-475.289	799.870	-0.091	-0.254
-474.274	-200.000	0.034	-0.252
-473.259	-200.000	-0.024	-0.180
-472.245	-0.043	0.105	-0.076
-471.230	-28.103	0.275	-0.161
-470.216	74.174	-0.291	0.310
-469.201	585.416	0.121	0.303
-468.186	-135.553	-0.208	-0.025
-467.172	-79.137	0.140	0.048
-466.157	-82.367	-0.011	-0.004
-465.143	800.000	-0.043	0.131
-464.128	330.452	-0.085	-0.167
-463.113	800.000	-0.082	-0.243
-462.099	247.065	0.139	0.239
-461.084	133.588	0.070	-0.092
-460.070	-6.256	-0.200	0.139
-459.055	-200.000	0.099	-0.000
-458.040	-81.217	-0.315	0.106
-457.026	-45.124	-0.102	-0.051
-456.011	633.393	0.105	-0.270
-454.997	-27.817	-0.123	-0.072
-453.982	-54.043	-0.140	0.065
-452.968	-65.751	0.084	-0.034
-451.953	-75.129	0.363	-0.132
-450.938	800.000	0.013	-0.044
-449.924	148.362	-0.057	0.078
-448.909	148.256	-0.165	0.226
-447.895	62.543	0.195	0.198
-446.880	317.903	0.175	-0.336
-445.865	622.162	0.092	0.235
-444.851	-38.040	0.020	-0.011
-443.836	-178.638	0.241	0.006
-442.822	94.175	-0.098	-0.112
-441.807	-68.679	0.148	0.058
-440.792	226.212	0.132	-0.217
-439.778	-143.826	0.350	-0.034
-438.763	540.416	0.089	-0.215
-437.749	-3.053	0.124	0.088
-436.734	32.814	-0.281	-0.246
-435.719	7.633	-0.110	-0.083
-434.705	800.000	-0.035	-0.145
-433.690	-162.730	0.218	-0.011
-432.676	79.650	-0.032	0.035
-431.661	173.984	0.121	0.176
-430.646	-200.000	-0.065	0.339
-429.632	-109.297	0.135	-0.029
-428.617	-200.000	0.003	-0.269
-427.603	-200.000	-0.044	0.210
-426.588	78.517	0.078	-0.084
-425.573	-200.000	0.013	0.072
-424.559	800.000	-0.034	-0.095
-423.544	-147.920	-0.167	0.014
-422.530	-50.081	-0.135	0.065
-421.515	169.778	0.063	0.092
-420.500	800.000	-0.048	0.191
-419.486	-200.000	0.011	0.183
-418.471	-82.930	0.108	0.035
-417.457	-97.520	0.072	-0.019
-416.442	45.647	-0.413	0.386
-415.428	-87.227	-0.358	0.110
-414.413	-105.342	0.283	-0.065
-413.398	800.000	-0.079	0.270
-412.384	800.000	0.061	-0.208
-411.369	43.194	0.247	-0.229
-410.355	-155.591	0.223	0.015
-409.340	-2.926	0.047	-0.033
-408.325	-200.000	0.029	-0.323
-407.311	-96.590	-0.067	-0.018
-406.296	-169.290	-0.325	-0.012
-405.282	16.206	0.095	0.076
-404.267	-89.389	-0.242	0.072
-403.252	26.062	-0.100	0.084
-402.238	-200.000	0.000	-0.053
-401.223	89.820	-0.067	0.076
-400.209	-30.632	0.247	-0.142
-399.194	-200.000	0.092	-0.490
-398.179	45.836	0.117	-0.109
-397.165	-77.415	0.038	0.013
-396.150	-114.020	0.139	0.027
-395.136	-157.827	-0.242	0.015
-394.121	-7.962	-0.107	0.073
-393.106	-200.000	0.035	-0.171
-392.092	-57.620	0.252	-0.112
-391.077	130.500	-0.113	-0.146
-390.063	-161.946	-0.130	-0.007
-389.048	-200.000	-0.001	0.076
-388.033	-200.000	0.042	-0.203
-387.019	-33.938	0.087	-0.048
-386.004	790.966	-0.157	0.437
-384.990	175.677	0.067	0.098
-383.975	-60.899	0.371	0.159
-382.960	25.871	0.127	0.107
-381.946	-74.032	-0.013	-0.005
-380.931	215.905	-0.154	0.247
-379.917	217.912	-0.223	0.360
-378.902	750.555	0.071	-0.194
-377.888	522.658	-0.079	-0.189
-376.873	-200.000	-0.039	0.302
-375.858	-76.023	0.095	0.034
-374.844	800.000	0.037	0.162
-373.829	-90.047	0.146	0.043
-372.815	462.609	0.129	0.291
-371.800	4.609	0.216	0.160
-370.785	800.000	0.090	0.256
-369.771	800.000	-0.005	0.022
-368.756	-11.803	-0.135	-0.090
-367.742	-1.516	-0.096	-0.069
-366.727	21.010	0.045	0.037
-365.712	-30.963	-0.478	0.273
-364.698	800.000	0.079	0.327
-363.683	700.482	-0.072	0.192
-362.669	800.000	0.077	-0.325
-361.654	5.627	0.175	-0.131
-360.639	122.969	0.075	0.095
-359.625	141.105	0.110	0.147
-358.610	398.762	-0.075	-0.159
-357.596	56.786	0.124	0.122
-356.581	-50.130	0.324	0.155
-355.566	-200.000	0.007	-0.134
-354.552	800.000	0.064	0.195
-353.537	-90.593	0.247	0.072
-352.523	149.749	0.147	-0.201
-351.508	46.685	-0.077	-0.072
-350.493	-86.013	0.224	0.070
-349.479	-86.485	0.144	-0.045
-348.464	-124.501	0.284	0.045
-347.450	454.273	0.055	0.124
-346.435	178.488	0.060	-0.089
-345.420	43.038	-0.247	0.228
-344.406	38.732	-0.084	0.076
-343.391	-16.164	0.121	-0.078
-342.377	541.957	0.055	-0.133
-341.362	4.262	-0.272	0.201
-340.348	140.269	0.083	-0.110
-339.333	281.286	-0.060	-0.109
-338.318	291.114	0.019	-0.035
-337.304	25.321	0.236	0.198
-336.289	108.086	-0.255	-0.306
-335.275	-107.777	0.203	-0.045
-334.260	-73.405	-0.260	-0.096
-333.245	-200.000	0.060	-0.302
-332.231	-165.527	0.135	0.006
-331.216	680.298	0.056	-0.148
-330.202	-165.172	-0.146	0.007
-329.187	-84.753	0.474	-0.151
-328.172	-11.491	0.170	-0.112
-327.158	-67.877	-0.191	0.075
-326.143	-169.454	-0.309	-0.011
-325.129	-200.000	-0.005	0.084
-324.114	121.191	-0.169	-0.212
-323.099	44.095	0.124	0.115
-322.085	139.218	-0.054	0.072
-321.070	699.735	0.106	-0.281
-320.056	131.265	0.064	-0.083
-319.041	-200.000	-0.006	-0.186
-318.026	-126.923	-0.366	0.054
-317.012	3.213	-0.157	0.115
-315.997	157.680	0.132	0.184
-314.983	-81.108	-0.226	-0.075
-313.968	300.740	-0.082	-0.152
-312.953	-92.324	-0.332	-0.094
-311.939	-113.733	-0.556	-0.109
-310.924	508.627	-0.058	-0.136
-309.910	500.073	-0.144	-0.335
-308.895	42.714	-0.138	-0.127
-307.880	800.000	-0.072	-0.255
-306.866	99.045	-0.320	-0.372
-305.851	-26.014	-0.122	-0.072
-304.837	758.823	0.166	0.453
-303.822	-187.195	0.141	-0.002
-302.807	-39.415	0.167	0.088
-301.793	25.600	-0.187	0.157
-300.778	-30.611	0.098	0.056
-299.764	347.260	-0.056	-0.112
-298.749	800.000	0.072	0.318
-297.735	-200.000	0.043	0.329
-296.720	-200.000	-0.031	0.238
-295.705	-40.189	-0.132	0.069
-294.691	800.000	0.074	0.217
-293.676	46.607	0.062	0.058
-292.662	-200.000	0.036	0.172
-291.647	231.705	0.123	-0.203
-290.632	-169.844	0.114	-0.004
-289.618	81.130	-0.106	0.116
-288.603	364.163	-0.049	-0.099
-287.589	786.876	0.118	-0.326
-286.574	210.178	0.187	-0.296
-285.559	800.000	-0.098	-0.321
-284.545	800.000	0.058	0.229
-283.530	434.895	0.103	-0.226
-282.516	48.614	0.164	-0.154
-281.501	290.047	0.036	-0.066
-280.486	-15.028	-0.103	-0.066
-279.472	239.702	-0.108	0.181
-278.457	-35.705	0.170	-0.093
-277.443	163.291	-0.063	-0.089
-276.428	121.240	-0.168	0.211
-275.413	-200.000	-0.002	-0.022
-274.399	-124.791	0.072	0.011
-273.384	9.798	0.135	0.103
-272.370	-200.000	0.051	-0.232
-271.355	-3.062	-0.194	-0.136
-270.340	-200.000	0.019	-0.233
-269.326	-118.795	0.371	-0.066
-268.311	13.050	0.263	-0.205
-267.297	55.079	-0.274	-0.266
-266.282	-24.716	-0.148	0.089
-265.267	-167.221	0.178	0.007
-264.253	-155.531	-0.128	-0.008
-263.238	203.395	-0.092	0.143
-262.224	800.000	0.084	0.306
-261.209	-108.488	0.205	0.044
-260.195	800.000	-0.052	0.198
-259.180	71.755	0.162	-0.169
-258.165	-200.000	0.010	0.114
-257.151	783.629	-0.065	-0.179
-256.136	-200.000	0.057	-0.333
-255.122	-127.232	0.365	-0.054
-254.107	-3.698	-0.253	0.176
-253.092	-40.484	-0.023	0.012
-252.078	-97.579	0.219	0.057
-251.063	5.224	0.220	-0.163
-250.049	-200.000	0.028	-0.190
-249.034	140.307	-0.244	-0.323
-248.019	800.000	0.052	-0.222
-247.005	-200.000	-0.001	0.018
-245.990	-58.819	-0.298	-0.130
-244.976	-200.000	0.013	0.260
-243.961	-178.960	0.177	0.004
-242.946	258.990	-0.114	0.198
-241.932	-80.277	0.507	-0.171
-240.917	-138.906	0.144	0.016
-239.903	-39.904	-0.136	-0.072
-238.888	-20.576	-0.219	-0.135
-237.873	-144.602	-0.059	-0.005
-236.859	-66.905	-0.334	0.133
-235.844	25.114	-0.245	0.205
-234.830	-138.911	-0.092	-0.010
-233.815	-60.608	-0.144	0.062
-232.800	611.030	-0.134	0.338
-231.786	-85.790	-0.166	0.052
-230.771	74.189	-0.086	-0.091
-229.757	-49.351	0.235	0.113
-228.742	-128.117	-0.205	-0.029
-227.727	-70.861	0.111	0.042
-226.713	-200.000	-0.004	-0.278
-225.698	-168.330	-0.383	-0.015
-224.684	-144.503	0.443	0.041
-223.669	-104.738	0.414	0.096
-222.655	49.744	0.061	-0.058
-221.640	25.122	-0.216	0.180
-220.625	-132.386	0.346	0.045
-219.611	-200.000	0.041	0.398
-218.596	-40.023	0.310	0.163
-217.582	-200.000	0.031	-0.191
-216.567	-200.000	0.011	0.179
-215.552	-64.655	-0.143	-0.058
-214.538	281.280	-0.079	-0.141
-213.523	-89.194	-0.279	-0.083
-212.509	-26.472	-0.150	0.088
-211.494	-32.141	-0.161	-0.091
-210.479	171.170	0.187	-0.270
-209.465	800.000	-0.133	-0.427
-208.450	-22.428	0.313	-0.190
-207.436	-4.177	0.244	0.169
-206.421	-42.659	0.154	0.079
-205.406	800.000	0.111	-0.323
-204.392	-178.217	-0.277	-0.007
-203.377	-128.622	-0.136	-0.019
-202.363	-200.000	-0.054	-0.404
-201.348	-95.041	0.382	-0.104
-200.333	800.000	0.132	-0.415
-199.319	-75.292	0.088	0.032
-198.304	150.578	0.295	0.403
-197.290	-18.604	0.455	-0.285
-196.275	207.921	-0.105	-0.165
-195.260	409.684	0.078	-0.165
-194.246	-154.966	0.106	-0.007
-193.231	35.634	0.303	0.267
-192.217	231.383	-0.138	-0.226
-191.202	800.000	0.104	0.295
-190.187	800.000	0.078	0.250
-189.173	-55.808	0.202	0.090
-188.158	84.683	-0.201	0.221
-187.144	-133.397	0.135	-0.017
-186.129	-200.000	-0.016	-0.093
-185.114	18.068	0.026	0.021
-184.100	-200.000	-0.017	0.215
-183.085	283.347	0.069	0.125
-182.071	157.535	0.151	0.209
-181.056	-156.454	-0.301	0.019
-180.042	53.364	-0.277	0.267
-179.027	800.000	-0.130	-0.561
-178.012	-39.521	0.175	-0.092
-176.998	72.115	0.293	0.306
-175.983	445.641	0.060	0.133
-174.969	155.119	0.125	-0.172
-173.954	-107.507	0.017	0.004
-172.939	-200.000	-0.053	-0.303
-171.925	133.974	0.168	0.218
-170.910	800.000	-0.069	0.220
-169.896	-144.689	0.212	-0.020
-168.881	36.661	0.083	-0.073
-167.866	389.593	-0.103	0.214
-166.852	165.596	-0.077	-0.109
-165.837	25.528	-0.191	-0.159
-164.823	50.047	0.117	0.111
-163.808	800.000	0.082	0.279
-162.793	46.138	0.128	-0.119
-161.779	-200.000	-0.005	-0.286
-160.764	-19.184	0.240	-0.149
-159.750	-58.998	0.198	0.085
-158.735	-3.322	-0.168	0.117
-157.720	-200.000	-0.015	-0.435
-156.706	498.625	0.042	-0.097
-155.691	57.156	-0.072	-0.070
-154.677	359.050	0.124	0.248
-153.662	183.001	0.112	0.165
-152.647	-200.000	0.023	0.351
-151.633	-78.937	-0.267	0.091
-150.618	-179.737	0.151	0.003
-149.604	44.474	-0.208	0.192
-148.589	-33.245	0.380	-0.211
-147.574	-200.000	-0.008	0.092
-146.560	-93.547	0.248	-0.069
-145.545	800.000	-0.030	-0.084
-144.531	800.000	0.023	0.063
-143.516	-99.401	-0.294	0.074
-142.502	-101.281	-0.283	-0.069
-141.487	800.000	0.045	-0.159
-140.472	-200.000	-0.039	-0.282
-139.458	-16.027	0.173	-0.110
-138.443	56.698	-0.318	0.310
-137.429	-200.000	-0.020	0.109
-136.414	-200.000	-0.007	0.031
-135.399	349.566	-0.166	0.327
-134.385	-149.180	-0.277	-0.022
-133.370	-200.000	-0.037	-0.163
-132.356	-200.000	0.030	-0.306
-131.341	-42.625	0.137	0.070
-130.326	460.036	0.059	-0.131
-129.312	-135.505	0.220	-0.026
-128.297	-15.287	0.175	-0.112
-127.283	-35.136	-0.017	-0.009
-126.268	383.924	0.059	0.122
-125.253	137.435	0.147	-0.193
-124.239	-47.182	0.218	0.107
-123.224	30.742	0.271	-0.232
-122.210	-161.258	0.328	0.017
-121.195	12.401	0.494	0.381
-120.180	-26.618	-0.512	0.300
