DTS Sentinel unit serial number:	SN413079Multiplexer serial number:	ORYXHardware model number:	OX4-SRSoftware version number:	ORYX F/W v4.00 Oryx Data Collector v3.7.2.0data status	okinstallation	princeton_trtdifferential loss correction	single-endedforward channel	channel 4reverse channel	N/Adate	2019/09/18time	18:17:35forward acquisition time	60.00reverse acquisition time	0.00gamma	496.2192k internal	0.2292k external	0.2292temperature offset calibration	1.0020default loss term (dB/km)	0.3790temperature slope calibration	1.0000multiplexer offset coefficient	1.0000multiplexer slope coefficient	1.0000fibre end	0.00T internal ref (°C)	38.84T ext. ref 1 (°C)	0.92T ext. ref 2 (°C)	32.13length (m)	temperature (°C)	Stokes	anti-Stokes-747.200	-200.000	0.004	0.474
-746.185	-200.000	-0.030	0.206
-745.171	-107.509	-0.072	0.016
-744.156	800.000	-0.063	0.241
-743.142	105.381	-0.047	0.057
-742.127	-171.598	-0.118	0.004
-741.112	-19.532	0.090	-0.057
-740.098	-200.000	0.010	-0.095
-739.083	-113.252	0.314	0.063
-738.069	800.000	0.100	0.370
-737.054	-131.168	-0.076	-0.010
-736.039	-200.000	-0.004	-0.039
-735.025	-74.916	0.338	-0.124
-734.010	-130.037	0.110	-0.015
-732.996	800.000	0.058	0.229
-731.981	-36.785	-0.098	-0.054
-730.966	-200.000	0.000	-0.131
-729.952	63.882	0.134	-0.138
-728.937	-200.000	-0.016	-0.146
-727.923	20.341	-0.395	0.326
-726.908	-46.442	-0.129	0.065
-725.894	-107.255	-0.417	-0.094
-724.879	800.000	-0.096	-0.284
-723.864	255.271	-0.029	0.051
-722.850	800.000	-0.029	-0.087
-721.835	-112.949	-0.265	-0.054
-720.821	56.324	-0.221	-0.219
-719.806	280.177	-0.135	0.247
-718.791	-200.000	-0.009	-0.045
-717.777	-153.509	0.212	0.015
-716.762	-59.509	0.334	0.147
-715.748	313.541	-0.232	0.446
-714.733	132.123	0.146	-0.192
-713.718	800.000	0.010	0.044
-712.704	800.000	-0.030	0.118
-711.689	191.836	0.096	-0.147
-710.675	800.000	0.067	-0.286
-709.660	28.487	0.180	-0.156
-708.645	164.150	0.237	-0.342
-707.631	-124.630	-0.443	0.070
-706.616	560.429	0.160	-0.395
-705.602	-200.000	0.021	-0.318
-704.587	-115.039	-0.194	-0.038
-703.572	-200.000	0.033	-0.157
-702.558	112.007	0.151	0.187
-701.543	-80.567	0.150	-0.051
-700.529	800.000	-0.017	0.060
-699.514	424.372	0.079	-0.173
-698.499	35.367	-0.095	0.085
-697.485	-99.870	0.153	-0.039
-696.470	110.971	0.103	0.127
-695.456	170.559	0.101	-0.148
-694.441	-37.481	0.430	-0.235
-693.426	225.972	-0.067	0.112
-692.412	165.238	0.028	0.041
-691.397	197.448	-0.160	0.249
-690.383	-200.000	0.031	-0.248
-689.368	2.052	-0.259	-0.191
-688.354	-114.391	-0.325	0.064
-687.339	78.134	-0.128	-0.139
-686.324	112.741	-0.087	0.108
-685.310	426.743	0.069	0.152
-684.295	-120.466	0.160	0.028
-683.281	666.469	0.072	0.189
-682.266	-84.048	0.161	-0.052
-681.251	-60.138	0.109	-0.047
-680.237	-200.000	0.011	-0.059
-679.222	71.827	0.081	0.086
-678.208	488.594	-0.090	-0.211
-677.193	710.665	0.048	0.129
-676.178	306.958	-0.077	-0.147
-675.164	-200.000	-0.019	0.375
-674.149	-105.878	0.235	-0.054
-673.135	-200.000	-0.003	-0.447
-672.120	-116.363	0.180	0.034
-671.105	37.791	0.133	0.120
-670.091	56.662	0.154	0.153
-669.076	196.122	-0.174	0.270
-668.062	263.715	-0.048	-0.086
-667.047	-114.901	0.320	-0.062
-666.032	-98.248	-0.172	-0.045
-665.018	800.000	0.061	-0.258
-664.003	-194.018	0.281	0.002
-662.989	-200.000	0.032	0.484
-661.974	-105.135	-0.277	-0.065
-660.959	-49.788	0.036	0.018
-659.945	-90.133	-0.147	0.044
-658.930	-200.000	0.016	-0.312
-657.916	-200.000	-0.014	0.167
-656.901	-200.000	0.067	0.379
-655.886	-70.352	0.231	0.089
-654.872	800.000	-0.033	0.111
-653.857	-200.000	0.082	-0.371
-652.843	-117.581	-0.316	-0.058
-651.828	800.000	0.088	-0.251
-650.814	276.891	0.098	0.178
-649.799	-200.000	-0.015	-0.150
-648.784	-168.408	-0.102	-0.004
-647.770	800.000	-0.111	-0.350
-646.755	106.415	0.196	-0.237
-645.741	-200.000	-0.087	0.535
-644.726	15.921	-0.219	-0.175
-643.711	-200.000	0.030	0.138
-642.697	-91.460	0.347	0.101
-641.682	800.000	0.043	-0.146
-640.668	88.385	-0.040	-0.045
-639.653	58.344	-0.136	-0.136
-638.638	-200.000	0.039	-0.232
-637.624	129.091	0.051	0.066
-636.609	-87.659	0.105	-0.032
-635.595	800.000	0.039	-0.174
-634.580	362.002	-0.086	0.175
-633.565	-200.000	0.074	0.342
-632.551	-44.469	0.086	-0.044
-631.536	339.329	-0.111	-0.220
-630.522	452.980	0.106	0.238
-629.507	-10.278	-0.234	0.158
-628.492	258.280	-0.078	-0.136
-627.478	-124.786	-0.235	-0.037
-626.463	800.000	-0.035	-0.131
-625.449	-58.243	0.123	0.055
-624.434	10.133	-0.208	0.161
-623.419	-120.219	0.136	0.024
-622.405	-200.000	0.073	-0.349
-621.390	-200.000	-0.009	0.171
-620.376	624.495	-0.044	-0.112
-619.361	-50.583	-0.195	0.094
-618.346	-144.753	-0.485	0.045
-617.332	-128.942	-0.126	-0.018
-616.317	297.876	0.096	-0.179
-615.303	281.686	0.126	-0.230
-614.288	-99.593	-0.175	-0.045
-613.273	-200.000	0.063	0.412
-612.259	-130.109	0.166	-0.023
-611.244	131.905	-0.130	-0.171
-610.230	-200.000	-0.066	0.325
-609.215	-200.000	-0.030	-0.202
-608.201	105.801	-0.155	0.186
-607.186	-90.292	-0.100	-0.030
-606.171	6.158	-0.153	-0.115
-605.157	-141.373	0.306	-0.032
-604.142	78.952	-0.156	0.170
-603.128	22.773	-0.057	0.048
-602.113	-11.406	0.168	-0.112
-601.098	-77.786	0.201	-0.071
-600.084	56.122	0.081	-0.080
-599.069	648.169	0.052	0.137
-598.055	-200.000	-0.053	-0.323
-597.040	7.897	0.024	0.019
-596.025	64.422	-0.084	0.086
-595.011	132.578	0.044	0.057
-593.996	-90.555	0.105	0.031
-592.982	-200.000	-0.009	-0.245
-591.967	-200.000	-0.011	0.146
-590.952	-176.642	0.444	0.012
-589.938	800.000	-0.036	-0.159
-588.923	725.211	0.124	-0.336
-587.909	-200.000	-0.004	-0.336
-586.894	176.581	-0.061	0.090
-585.879	-119.134	0.219	0.039
-584.865	317.485	0.021	-0.040
-583.850	-116.333	0.219	-0.041
-582.836	-18.533	-0.219	0.139
-581.821	37.414	0.132	0.119
-580.806	-200.000	0.040	-0.351
-579.792	-69.646	-0.204	-0.080
-578.777	-27.447	-0.105	0.062
-577.763	-180.248	0.083	0.002
-576.748	160.912	0.174	0.248
-575.733	-92.236	-0.352	-0.101
-574.719	-147.501	-0.193	-0.017
-573.704	265.775	0.078	0.139
-572.690	-132.239	0.252	-0.033
-571.675	129.264	0.216	0.281
-570.661	24.241	0.143	0.120
-569.646	800.000	0.023	0.093
-568.631	171.759	-0.201	-0.293
-567.617	-200.000	-0.026	-0.469
-566.602	157.349	-0.080	-0.112
-565.588	800.000	0.018	-0.053
-564.573	69.091	-0.248	0.259
-563.558	200.541	-0.212	0.331
-562.544	-50.461	-0.344	0.165
-561.529	800.000	0.034	0.121
-560.515	-62.177	-0.010	0.004
-559.500	277.984	0.094	-0.171
-558.485	800.000	0.089	0.353
-557.471	800.000	-0.073	-0.262
-556.456	19.826	0.131	0.107
-555.442	-0.854	0.211	0.152
-554.427	-105.427	0.156	0.036
-553.412	-135.985	-0.424	0.051
-552.398	-107.824	-0.166	0.037
-551.383	-39.328	-0.166	-0.089
-550.369	366.239	0.135	0.277
-549.354	15.990	-0.135	-0.108
-548.339	456.745	0.098	0.222
-547.325	-131.639	-0.044	0.006
-546.310	-56.930	-0.248	0.111
-545.296	261.168	-0.053	0.093
-544.281	-98.690	0.121	-0.031
-543.266	800.000	-0.061	0.231
-542.252	96.040	-0.151	0.176
-541.237	-121.785	0.177	0.030
-540.223	39.416	0.312	0.283
-539.208	800.000	-0.067	-0.208
-538.193	800.000	0.080	-0.283
-537.179	627.208	-0.086	-0.220
-536.164	701.226	-0.122	0.325
-535.150	34.215	0.043	-0.038
-534.135	-46.343	0.066	-0.033
-533.121	-200.000	0.011	-0.151
-532.106	261.307	0.098	-0.173
-531.091	244.501	-0.200	0.340
-530.077	-200.000	-0.069	-0.348
-529.062	800.000	-0.008	0.027
-528.048	-104.345	-0.374	0.088
-527.033	-35.132	0.146	0.081
-526.018	68.907	0.060	0.062
-525.004	-85.816	0.325	0.102
-523.989	-147.028	-0.232	0.020
-522.975	-44.360	0.122	0.062
-521.960	117.195	-0.103	-0.129
-520.945	800.000	0.032	0.097
-519.931	362.928	-0.077	0.158
-518.916	139.508	0.209	0.279
-517.902	-72.590	0.087	0.032
-516.887	-33.328	0.125	-0.070
-515.872	540.788	0.057	-0.138
-514.858	-200.000	0.015	-0.265
-513.843	-84.029	-0.281	-0.091
-512.829	300.139	0.050	-0.094
-511.814	24.251	-0.375	-0.314
-510.799	-200.000	-0.046	0.225
-509.785	-200.000	0.015	-0.167
-508.770	-158.208	-0.198	-0.012
-507.756	800.000	0.072	0.204
-506.741	-43.906	0.267	-0.136
-505.726	234.480	-0.237	-0.396
-504.712	-200.000	0.029	-0.195
-503.697	-200.000	-0.024	-0.222
-502.683	184.166	0.104	0.156
-501.668	-132.285	-0.241	0.032
-500.653	800.000	-0.057	0.220
-499.639	58.978	-0.115	-0.115
-498.624	-200.000	0.012	-0.165
-497.610	118.307	0.054	0.067
-496.595	487.223	-0.110	-0.254
-495.581	-200.000	0.008	0.258
-494.566	42.098	-0.256	0.236
-493.551	38.528	0.055	0.050
-492.537	-200.000	-0.067	-0.350
-491.522	16.803	-0.073	-0.058
-490.508	-159.030	-0.090	0.005
-489.493	-200.000	0.006	-0.067
-488.478	-89.079	0.211	-0.063
-487.464	83.451	0.188	-0.207
-486.449	174.394	0.141	-0.207
-485.435	-93.971	-0.275	0.077
-484.420	-200.000	0.007	0.276
-483.405	-200.000	0.046	-0.282
-482.391	-40.317	-0.318	0.167
-481.376	-68.571	0.246	0.097
-480.362	134.095	0.037	0.049
-479.347	-64.903	-0.119	0.049
-478.332	-200.000	-0.022	0.292
-477.318	138.880	-0.079	0.105
-476.303	-16.778	-0.248	-0.159
-475.289	-200.000	0.094	-0.427
-474.274	-117.271	0.045	-0.008
-473.259	54.233	0.135	0.131
-472.245	13.652	-0.178	0.140
-471.230	-144.800	0.077	0.007
-470.216	783.758	-0.108	-0.299
-469.201	245.799	-0.081	0.138
-468.186	-125.863	0.194	-0.030
-467.172	278.282	0.136	0.246
-466.157	-27.342	-0.272	-0.160
-465.143	-133.052	0.149	-0.019
-464.128	-111.483	-0.266	-0.055
-463.113	-97.287	0.185	-0.049
-462.099	179.978	0.084	-0.125
-461.084	-28.832	-0.080	0.046
-460.070	-142.290	0.252	-0.025
-459.055	-127.860	0.300	0.044
-458.040	-91.796	-0.117	0.034
-457.026	-63.261	-0.230	0.096
-456.011	36.476	0.168	0.150
-454.997	108.086	0.110	0.133
-453.982	187.705	0.059	-0.090
-452.968	86.683	-0.154	-0.171
-451.953	-175.402	0.177	0.005
-450.938	-89.773	-0.169	0.050
-449.924	-98.916	0.104	0.027
-448.909	1.179	-0.361	0.262
-447.895	609.780	-0.116	-0.293
-446.880	-200.000	0.000	0.112
-445.865	-200.000	-0.027	-0.269
-444.851	456.661	0.159	0.356
-443.836	-143.232	0.088	0.009
-442.822	-29.695	-0.143	-0.082
-441.807	-200.000	0.025	0.349
-440.792	1.890	-0.326	0.238
-439.778	250.761	-0.092	-0.159
-438.763	283.758	0.103	-0.187
-437.749	-200.000	0.019	0.105
-436.734	-3.887	-0.007	-0.005
-435.719	13.129	0.164	0.128
-434.705	-159.976	-0.126	-0.007
-433.690	-114.561	-0.247	0.048
-432.676	-79.159	-0.179	0.062
-431.661	-75.641	0.076	-0.027
-430.646	608.275	-0.020	0.051
-429.632	-200.000	-0.063	0.336
-428.617	188.292	0.060	-0.091
-427.603	192.025	-0.149	-0.226
-426.588	800.000	-0.059	-0.204
-425.573	-80.998	-0.078	-0.026
-424.559	-52.524	0.199	-0.093
-423.544	800.000	-0.072	0.258
-422.530	21.289	-0.089	-0.073
-421.515	87.087	-0.163	-0.182
-420.500	135.718	0.115	-0.151
-419.486	-200.000	-0.005	0.191
-418.471	800.000	-0.038	-0.127
-417.457	56.993	-0.175	-0.173
-416.442	173.019	-0.165	0.240
-415.428	-107.743	0.327	-0.072
-414.413	-87.197	-0.151	-0.046
-413.398	3.239	-0.189	0.139
-412.384	32.729	-0.051	-0.044
-411.369	800.000	-0.135	-0.415
-410.355	-148.913	0.302	-0.025
-409.340	62.473	-0.087	0.087
-408.325	25.286	-0.359	0.302
-407.311	-108.244	0.322	0.070
-406.296	55.793	0.085	-0.084
-405.282	-200.000	0.415	-0.001
-404.267	67.124	0.076	0.078
-403.252	228.489	0.064	-0.106
-402.238	81.813	-0.060	-0.066
-401.223	-200.000	0.024	0.228
-400.209	-185.009	-0.448	-0.007
-399.194	172.111	0.074	0.108
-398.179	-119.828	-0.133	0.023
-397.165	68.410	-0.163	-0.168
-396.150	226.710	-0.148	-0.243
-395.136	-1.008	0.223	0.159
-394.121	-172.016	0.394	0.013
-393.106	297.703	-0.168	0.311
-392.092	-200.000	-0.028	-0.541
-391.077	-101.223	0.120	0.030
-390.063	-200.000	0.054	-0.309
-389.048	-171.726	-0.152	0.005
-388.033	26.838	-0.137	-0.116
-387.019	-38.804	-0.323	0.172
-386.004	-104.547	-0.064	0.015
-384.990	215.475	-0.154	0.247
-383.975	-154.293	0.271	0.018
-382.960	-200.000	0.023	0.384
-381.946	135.674	-0.302	-0.397
-380.931	205.301	-0.267	-0.419
-379.917	379.732	-0.019	0.040
-378.902	-200.000	0.020	-0.282
-377.888	67.960	-0.137	-0.142
-376.873	210.952	-0.069	0.109
-375.858	-71.833	0.241	0.090
-374.844	40.906	0.394	0.359
-373.829	-200.000	-0.000	-0.055
-372.815	-200.000	-0.035	-0.197
-371.800	23.567	-0.208	0.173
-370.785	-103.139	0.103	-0.025
-369.771	-145.205	0.141	0.013
-368.756	143.138	0.214	-0.287
-367.742	-66.867	-0.145	0.058
-366.727	-25.037	-0.445	0.266
-365.712	8.943	0.364	0.277
-364.698	-74.754	0.142	-0.052
-363.683	132.252	-0.155	-0.202
-362.669	177.503	-0.074	-0.109
-361.654	-75.776	0.066	0.023
-360.639	61.213	0.303	-0.304
-359.625	130.859	0.112	0.144
-358.610	-200.000	-0.039	0.255
-357.596	35.345	0.241	-0.213
-356.581	183.766	-0.160	-0.239
-355.566	-27.152	-0.030	0.017
-354.552	-200.000	-0.000	0.212
-353.537	-65.726	-0.066	-0.027
-352.523	-109.089	-0.300	-0.064
-351.508	312.300	0.154	0.292
-350.493	-19.328	-0.337	0.211
-349.479	-200.000	0.067	-0.306
-348.464	-90.142	-0.241	-0.071
-347.450	-63.280	0.161	-0.067
-346.435	5.611	0.349	-0.260
-345.420	122.822	0.101	-0.128
-344.406	-200.000	-0.010	0.153
-343.391	-55.045	-0.135	-0.061
-342.377	325.256	-0.079	-0.153
-341.362	-123.753	0.308	0.049
-340.348	742.399	0.050	0.137
-339.333	-51.271	-0.323	-0.152
-338.318	164.227	0.157	-0.223
-337.304	3.445	-0.052	0.038
-336.289	-200.000	-0.049	-0.224
-335.275	-38.946	0.236	-0.125
-334.260	-176.590	-0.229	0.006
-333.245	119.878	-0.174	0.217
-332.231	-84.229	0.145	0.046
-331.216	-55.253	0.189	-0.086
-330.202	5.573	0.082	-0.061
-329.187	-147.560	0.339	0.029
-328.172	69.010	0.173	0.179
-327.158	-200.000	0.044	-0.249
-326.143	800.000	-0.044	-0.178
-325.129	28.132	-0.078	0.066
-324.114	110.776	0.089	0.108
-323.099	-200.000	-0.011	0.054
-322.085	228.278	0.106	-0.174
-321.070	211.700	0.061	-0.097
-320.056	800.000	-0.126	-0.424
-319.041	31.248	-0.113	0.097
-318.026	-50.996	-0.145	0.069
-317.012	-43.559	0.056	-0.028
-315.997	-36.664	-0.118	0.064
-314.983	92.075	0.076	-0.086
-313.968	230.190	0.203	0.333
-312.953	72.281	-0.116	0.121
-311.939	-200.000	-0.057	-0.264
-310.924	135.739	-0.113	-0.148
-309.910	270.459	0.063	-0.112
-308.895	-139.731	0.301	-0.032
-307.880	11.310	-0.176	0.135
-306.866	398.864	0.071	0.150
-305.851	800.000	0.034	-0.117
-304.837	800.000	-0.070	-0.288
-303.822	7.325	0.232	-0.175
-302.807	65.187	0.114	-0.116
-301.793	158.820	0.111	0.155
-300.778	165.810	-0.027	-0.038
-299.764	54.482	-0.187	-0.181
-298.749	800.000	0.064	-0.193
-297.735	800.000	-0.020	-0.086
-296.720	15.892	-0.197	0.156
-295.705	-52.245	-0.195	0.091
-294.691	73.116	-0.115	-0.121
-293.676	184.922	-0.034	-0.051
-292.662	-175.604	0.589	0.016
-291.647	735.444	-0.070	-0.189
-290.632	49.957	0.118	-0.112
-289.618	-122.608	0.094	0.015
-288.603	-78.577	0.285	-0.098
-287.589	-12.849	0.137	-0.090
-286.574	-4.127	0.211	0.147
-285.559	-61.066	-0.098	-0.042
-284.545	-148.908	0.393	0.032
-283.530	-74.089	-0.154	0.056
-282.516	547.292	-0.046	-0.111
-281.501	58.277	0.097	0.096
-280.486	-147.550	-0.107	0.009
-279.472	138.312	0.232	0.306
-278.457	765.470	-0.037	0.100
-277.443	342.719	0.100	0.197
-276.428	728.108	-0.103	0.277
-275.413	57.759	0.214	0.210
-274.399	-200.000	0.005	0.106
-273.384	479.985	-0.158	0.360
-272.370	128.600	-0.121	0.155
-271.355	-200.000	-0.031	-0.304
-270.340	-57.859	0.137	-0.060
-269.326	-200.000	-0.028	0.186
-268.311	306.088	-0.080	0.149
-267.297	-200.000	0.011	0.082
-266.282	9.683	-0.200	0.153
-265.267	800.000	0.140	-0.420
-264.253	-125.797	0.520	0.079
-263.238	687.041	0.124	-0.325
-262.224	800.000	0.021	-0.078
-261.209	-120.077	-0.244	0.042
-260.195	230.285	-0.042	-0.070
-259.180	-33.975	-0.223	-0.123
-258.165	49.793	0.125	-0.118
-257.151	-81.090	0.245	-0.081
-256.136	-64.176	0.191	-0.078
-255.122	11.399	0.072	-0.056
-254.107	-200.000	0.039	0.211
-253.092	-200.000	-0.028	0.320
-252.078	63.197	0.239	-0.240
-251.063	-146.461	-0.144	-0.013
-250.049	-200.000	0.002	0.026
-249.034	-89.477	-0.174	0.051
-248.019	-200.000	-0.043	0.246
-247.005	-200.000	-0.021	-0.135
-245.990	-200.000	0.038	-0.193
-244.976	5.168	-0.238	0.176
-243.961	359.809	0.094	0.190
-242.946	800.000	-0.087	0.281
-241.932	-108.001	0.324	-0.071
-240.917	223.037	0.148	-0.239
-239.903	68.377	0.370	0.380
-238.888	-36.208	-0.177	0.096
-237.873	-200.000	0.008	0.036
-236.859	800.000	0.076	0.243
-235.844	-200.000	-0.006	0.150
-234.830	-138.476	-0.267	-0.030
-233.815	70.942	-0.154	0.160
-232.800	100.447	0.243	0.284
-231.786	-163.141	0.098	0.005
-230.771	800.000	-0.052	-0.217
-229.757	-126.342	0.159	-0.024
-228.742	-97.426	-0.342	0.089
-227.727	85.467	-0.041	0.045
-226.713	-152.082	0.368	-0.027
-225.698	-43.578	0.231	-0.117
-224.684	517.425	0.142	0.333
-223.669	45.947	-0.093	-0.086
-222.655	-200.000	-0.033	0.216
-221.640	83.108	-0.149	-0.163
-220.625	-200.000	-0.017	-0.214
-219.611	247.184	-0.103	0.175
-218.596	800.000	-0.057	-0.191
-217.582	485.755	-0.085	0.194
-216.567	-111.285	0.071	0.015
-215.552	-200.000	-0.003	-0.091
-214.538	-165.472	0.403	0.018
-213.523	-29.605	-0.173	-0.099
-212.509	-154.558	-0.250	0.017
-211.494	-99.459	-0.122	-0.031
-210.479	800.000	-0.148	0.448
-209.465	62.509	-0.174	-0.175
-208.450	424.524	0.208	0.449
-207.436	180.422	0.159	0.234
-206.421	732.727	-0.086	0.231
-205.406	-200.000	0.025	0.222
-204.392	-54.735	0.160	-0.072
-203.377	735.112	-0.041	-0.110
-202.363	-188.472	0.178	0.002
-201.348	-200.000	0.031	0.218
-200.333	237.560	0.072	0.119
-199.319	800.000	-0.008	0.027
-198.304	-17.100	0.195	0.123
-197.290	-200.000	0.161	-0.000
-196.275	112.155	0.133	0.160
-195.260	-115.861	-0.162	0.030
-194.246	-190.537	0.137	0.001
-193.231	-88.597	0.120	0.036
-192.217	-18.996	-0.167	0.104
-191.202	-73.252	0.227	0.083
-190.187	-40.236	0.283	-0.148
-189.173	147.825	-0.080	-0.107
-188.158	800.000	0.073	-0.230
-187.144	55.316	-0.134	0.129
-186.129	-66.397	-0.330	-0.131
-185.114	-117.297	-0.217	-0.039
-184.100	-122.788	-0.289	0.047
-183.085	-200.000	0.000	-0.231
-182.071	46.232	0.219	0.203
-181.056	-60.624	-0.247	-0.105
-180.042	800.000	0.053	-0.148
-179.027	-200.000	0.068	-0.311
-178.012	-150.379	-0.287	0.022
-176.998	800.000	0.067	0.220
-175.983	273.637	0.116	-0.205
-174.969	-72.512	-0.271	0.100
-173.954	131.931	0.099	-0.128
-172.939	14.018	0.240	-0.187
-171.925	-200.000	-0.090	-0.414
-170.910	96.456	-0.025	0.029
-169.896	-200.000	-0.010	0.066
-168.881	44.005	-0.181	0.166
-167.866	-24.157	0.368	0.220
-166.852	-17.039	-0.145	0.091
-165.837	-200.000	-0.015	-0.317
-164.823	-200.000	0.033	-0.241
-163.808	-200.000	-0.040	0.370
-162.793	226.769	-0.197	0.321
-161.779	45.600	0.152	0.140
-160.764	539.803	-0.078	-0.187
-159.750	297.238	0.222	0.407
-158.735	135.632	-0.128	0.166
-157.720	-103.936	0.284	-0.066
-156.706	-107.423	0.049	-0.011
-155.691	-136.653	0.226	-0.026
-154.677	-200.000	0.011	0.192
-153.662	517.746	-0.027	-0.063
-152.647	-200.000	0.011	-0.132
-151.633	-200.000	-0.047	-0.255
-150.618	-132.173	0.325	-0.042
-149.604	26.581	0.170	0.143
-148.589	102.435	0.040	0.046
-147.574	4.346	0.200	0.147
-146.560	-200.000	-0.062	-0.274
-145.545	-153.895	0.339	-0.023
-144.531	-79.617	0.261	0.088
-143.516	60.442	-0.199	-0.197
-142.502	-200.000	-0.039	-0.180
-141.487	-10.517	-0.091	-0.060
-140.472	70.585	-0.060	-0.062
-139.458	-21.552	0.137	-0.083
-138.443	-200.000	0.027	0.131
-137.429	-24.544	0.210	-0.125
-136.414	-200.000	-0.001	-0.267
-135.399	-115.671	0.219	0.041
-134.385	-25.887	0.274	0.161
-133.370	800.000	0.022	-0.092
-132.356	-130.978	0.139	-0.019
-131.341	-65.740	0.342	-0.137
-130.326	144.719	0.014	0.018
-129.312	200.571	0.188	-0.289
-128.297	-80.904	-0.184	-0.061
-127.283	800.000	0.043	-0.159
-126.268	239.860	-0.056	-0.094
-125.253	-0.294	0.280	0.199
-124.239	339.198	0.103	-0.200
-123.224	218.393	0.163	-0.261
-122.210	-200.000	-0.022	-0.277
