DTS Sentinel unit serial number:	SN413079Multiplexer serial number:	ORYXHardware model number:	OX4-SRSoftware version number:	ORYX F/W v4.00 Oryx Data Collector v3.7.2.0data status	okinstallation	princeton_trtdifferential loss correction	single-endedforward channel	channel 4reverse channel	N/Adate	2019/09/18time	07:33:35forward acquisition time	60.00reverse acquisition time	0.00gamma	496.2192k internal	0.2333k external	0.2333temperature offset calibration	0.9999default loss term (dB/km)	0.3790temperature slope calibration	1.0000multiplexer offset coefficient	1.0000multiplexer slope coefficient	1.0000fibre end	0.00T internal ref (°C)	23.19T ext. ref 1 (°C)	0.19T ext. ref 2 (°C)	17.67length (m)	temperature (°C)	Stokes	anti-Stokes-747.200	-200.000	-0.022	-0.223
-746.185	-76.019	-0.419	-0.149
-745.171	800.000	-0.155	0.457
-744.156	411.938	-0.135	0.288
-743.142	-200.000	-0.104	0.486
-742.127	148.552	0.307	0.417
-741.112	10.177	0.140	-0.107
-740.098	46.568	-0.263	-0.245
-739.083	-200.000	-0.257	-0.000
-738.069	-200.000	-0.022	0.160
-737.054	-78.341	0.359	-0.124
-736.039	94.071	-0.184	-0.210
-735.025	-200.000	-0.007	-0.164
-734.010	-90.367	-0.125	-0.036
-732.996	-46.355	-0.372	0.184
-731.981	-131.363	-0.406	0.054
-730.966	-200.000	0.087	-0.569
-729.952	-200.000	0.003	-0.194
-728.937	-200.000	-0.015	0.265
-727.923	-200.000	-0.189	0.000
-726.908	19.518	-0.100	0.081
-725.894	-130.319	-0.585	-0.080
-724.879	-200.000	-0.022	-0.111
-723.864	193.936	-0.248	-0.377
-722.850	-16.398	0.330	-0.210
-721.835	-174.561	-0.302	0.009
-720.821	53.006	0.166	-0.159
-719.806	-81.148	-0.252	-0.084
-718.791	96.633	-0.068	0.078
-717.777	-200.000	-0.002	0.124
-716.762	-51.392	0.190	0.089
-715.748	151.070	0.071	-0.097
-714.733	62.111	-0.099	-0.099
-713.718	187.003	0.126	-0.189
-712.704	-191.235	-0.142	0.001
-711.689	-45.130	-0.149	0.075
-710.675	-131.520	-0.306	-0.040
-709.660	711.578	-0.030	0.079
-708.645	563.185	0.025	0.060
-707.631	82.980	-0.134	0.146
-706.616	65.302	0.275	-0.280
-705.602	-99.574	0.087	-0.022
-704.587	44.674	-0.110	0.102
-703.572	-17.847	0.380	-0.239
-702.558	-86.261	-0.333	0.103
-701.543	214.583	-0.119	-0.189
-700.529	-103.622	0.051	0.012
-699.514	-35.592	0.292	-0.159
-698.499	-127.088	-0.406	-0.060
-697.485	-75.680	-0.661	0.236
-696.470	55.068	0.034	-0.033
-695.456	475.446	-0.096	-0.217
-694.441	-200.000	-0.004	0.191
-693.426	362.643	-0.133	-0.269
-692.412	800.000	0.015	0.052
-691.397	77.289	0.184	0.196
-690.383	-115.438	-0.299	0.057
-689.368	-200.000	0.026	0.146
-688.354	66.765	-0.388	0.397
-687.339	-42.916	-0.064	-0.033
-686.324	240.448	-0.190	0.318
-685.310	84.890	-0.065	0.071
-684.295	136.115	0.145	0.189
-683.281	152.004	0.075	0.103
-682.266	-163.503	-0.155	0.007
-681.251	218.317	0.146	-0.234
-680.237	-153.895	-0.188	0.013
-679.222	-5.364	-0.315	-0.217
-678.208	-200.000	0.055	0.273
-677.193	-168.156	0.185	-0.007
-676.178	70.442	-0.154	-0.159
-675.164	-33.420	0.311	-0.172
-674.149	-145.204	-0.173	-0.016
-673.135	-102.833	0.313	-0.075
-672.120	-29.251	-0.372	-0.214
-671.105	-200.000	-0.002	-0.148
-670.091	257.367	0.112	0.193
-669.076	-200.000	-0.078	-0.419
-668.062	-200.000	-0.038	0.205
-667.047	-7.077	-0.174	-0.118
-666.032	-123.461	0.120	0.019
-665.018	751.442	-0.153	-0.414
-664.003	-19.844	-0.239	0.148
-662.989	297.618	-0.053	0.097
-661.974	-131.139	-0.206	0.028
-660.959	-200.000	0.015	-0.069
-659.945	-32.110	0.089	0.050
-658.930	-89.751	0.230	0.068
-657.916	160.955	0.252	0.352
-656.901	-44.545	-0.053	0.027
-655.886	800.000	-0.044	0.133
-654.872	104.973	-0.104	0.124
-653.857	-56.084	-0.179	-0.080
-652.843	-3.851	-0.119	-0.083
-651.828	-200.000	0.016	0.234
-650.814	325.992	0.119	0.227
-649.799	91.363	0.181	0.203
-648.784	-103.556	-0.168	0.040
-647.770	-130.783	-0.107	0.014
-646.755	105.649	-0.123	-0.145
-645.741	-54.784	0.231	0.105
-644.726	-135.813	-0.135	-0.016
-643.711	111.279	0.265	0.320
-642.697	720.396	-0.036	-0.096
-641.682	-200.000	0.030	0.284
-640.668	-200.000	0.047	0.288
-639.653	-110.771	-0.250	-0.052
-638.638	54.886	-0.168	0.163
-637.624	-27.674	0.095	0.055
-636.609	-27.587	0.270	-0.157
-635.595	-103.453	0.032	-0.008
-634.580	183.452	-0.114	-0.169
-633.565	50.386	0.114	0.108
-632.551	-22.294	-0.282	-0.171
-631.536	27.018	0.173	0.146
-630.522	800.000	-0.069	0.209
-629.507	-10.120	0.265	0.176
-628.492	-28.194	-0.076	0.044
-627.478	-200.000	-0.023	0.406
-626.463	800.000	0.105	0.434
-625.449	11.223	-0.066	0.051
-624.434	-122.730	-0.082	0.013
-623.419	54.216	-0.047	-0.046
-622.405	93.531	-0.121	-0.137
-621.390	-100.121	-0.243	-0.060
-620.376	28.668	0.152	0.129
-619.361	-200.000	-0.041	-0.192
-618.346	21.000	-0.181	0.147
-617.332	800.000	-0.084	-0.282
-616.317	-56.857	-0.227	0.100
-615.303	38.461	0.154	0.137
-614.288	-190.428	0.294	-0.003
-613.273	200.659	0.093	-0.143
-612.259	81.173	0.099	-0.107
-611.244	621.528	-0.071	-0.178
-610.230	41.984	0.182	-0.166
-609.215	490.535	-0.090	-0.206
-608.201	-200.000	-0.058	0.263
-607.186	-120.936	0.262	-0.044
-606.171	-37.112	0.259	-0.139
-605.157	271.706	0.258	-0.455
-604.142	800.000	0.044	-0.145
-603.128	-74.202	0.091	0.033
-602.113	800.000	0.048	0.202
-601.098	134.871	-0.074	0.097
-600.084	-200.000	0.010	-0.064
-599.069	-160.340	-0.185	-0.010
-598.055	-142.314	0.330	-0.033
-597.040	-116.549	-0.243	0.045
-596.025	398.089	0.138	-0.289
-595.011	-200.000	0.040	-0.249
-593.996	-142.064	-0.132	-0.013
-592.982	103.862	0.194	0.228
-591.967	32.067	-0.170	-0.147
-590.952	-33.282	0.133	-0.074
-589.938	503.315	-0.028	-0.064
-588.923	11.707	0.290	0.222
-587.909	157.818	0.194	-0.269
-586.894	219.771	-0.166	-0.265
-585.879	-102.727	-0.318	-0.076
-584.865	-200.000	-0.032	-0.158
-583.850	30.804	-0.028	-0.024
-582.836	-200.000	0.053	-0.261
-581.821	800.000	0.064	0.181
-580.806	636.076	0.048	-0.121
-579.792	800.000	0.073	-0.241
-578.777	-98.076	-0.244	-0.063
-577.763	-171.681	0.345	-0.011
-576.748	245.044	0.036	-0.061
-575.733	228.036	0.080	-0.131
-574.719	-11.587	0.279	0.183
-573.704	103.668	-0.071	0.084
-572.690	800.000	0.046	0.141
-571.675	54.915	-0.094	0.091
-570.661	-200.000	-0.033	-0.159
-569.646	-200.000	-0.013	-0.103
-568.631	121.110	-0.178	-0.221
-567.617	-200.000	0.039	-0.191
-566.602	80.372	0.228	0.245
-565.588	-145.000	0.366	-0.033
-564.573	-120.680	-0.410	0.069
-563.558	98.831	0.077	0.089
-562.544	800.000	0.009	0.029
-561.529	219.865	-0.143	0.229
-560.515	-53.513	-0.329	-0.150
-559.500	-94.445	0.147	0.040
-558.485	214.873	-0.140	-0.222
-557.471	68.761	-0.080	0.082
-556.456	484.335	0.071	0.162
-555.442	73.726	-0.210	0.219
-554.427	90.532	-0.226	-0.252
-553.412	266.385	-0.014	0.024
-552.398	76.485	0.135	0.143
-551.383	-109.616	-0.277	-0.058
-550.369	17.751	0.118	-0.094
-549.354	165.503	0.127	0.179
-548.339	-55.780	0.115	-0.051
-547.325	276.742	-0.142	-0.251
-546.310	-182.062	-0.424	0.008
-545.296	26.213	0.106	0.088
-544.281	-155.007	-0.208	-0.014
-543.266	-59.083	-0.151	0.065
-542.252	211.467	-0.211	-0.332
-541.237	-141.413	0.307	0.031
-540.223	66.204	0.088	0.089
-539.208	-200.000	-0.070	0.364
-538.193	-152.916	0.016	0.001
-537.179	-107.433	-0.233	-0.051
-536.164	-200.000	-0.079	-0.347
-535.150	205.151	0.173	0.267
-534.135	287.863	-0.094	0.170
-533.121	800.000	-0.053	0.160
-532.106	137.779	-0.094	0.123
-531.091	67.885	0.235	-0.239
-530.077	-34.978	0.285	0.155
-529.062	-102.523	0.416	0.099
-528.048	-57.484	0.115	0.050
-527.033	-99.212	0.321	0.081
-526.018	107.130	-0.197	-0.233
-525.004	-200.000	0.008	-0.045
-523.989	-69.146	-0.055	-0.021
-522.975	737.977	-0.044	-0.117
-521.960	116.206	-0.048	-0.058
-520.945	211.383	0.058	0.091
-519.931	-200.000	0.008	-0.178
-518.916	-200.000	-0.005	0.171
-517.902	-24.886	0.432	-0.256
-516.887	-200.000	-0.067	-0.305
-515.872	-200.000	0.035	-0.181
-514.858	101.718	0.216	0.251
-513.843	542.304	-0.104	-0.248
-512.829	-63.787	-0.381	-0.155
-511.814	698.225	-0.088	0.230
-510.799	800.000	0.113	-0.351
-509.785	55.306	-0.151	-0.145
-508.770	-200.000	-0.040	0.237
-507.756	68.266	0.058	-0.059
-506.741	-80.024	0.330	-0.110
-505.726	-151.300	0.059	0.004
-504.712	-200.000	0.010	0.627
-503.697	-200.000	-0.325	-0.001
-502.683	-77.572	-0.154	0.053
-501.668	71.100	0.114	-0.117
-500.653	-97.168	0.092	0.024
-499.639	-112.622	-0.275	-0.055
-498.624	-36.262	-0.167	-0.090
-497.610	-200.000	0.012	-0.087
-496.595	-56.933	-0.114	-0.050
-495.581	122.435	0.080	0.100
-494.566	130.231	0.227	0.290
-493.551	-105.140	-0.100	0.023
-492.537	-104.036	0.293	0.068
-491.522	-86.200	-0.246	0.076
-490.508	-200.000	-0.072	0.318
-489.493	-42.977	-0.288	-0.145
-488.478	-65.158	-0.222	-0.089
-487.464	-28.185	-0.253	0.146
-486.449	-148.466	0.283	0.023
-485.435	141.595	-0.131	0.173
-484.420	129.917	0.157	-0.200
-483.405	343.256	-0.285	0.557
-482.391	-94.062	0.203	-0.055
-481.376	-112.586	0.308	0.061
-480.362	-200.000	-0.014	0.240
-479.347	-178.533	0.239	-0.006
-478.332	-43.703	-0.287	-0.144
-477.318	-64.467	0.057	-0.023
-476.303	-54.671	-0.192	-0.087
-475.289	-200.000	0.006	0.134
-474.274	-14.940	-0.390	-0.249
-473.259	-9.964	-0.244	-0.161
-472.245	19.116	0.170	0.136
-471.230	-149.568	-0.205	0.016
-470.216	257.360	0.190	-0.326
-469.201	800.000	-0.136	0.502
-468.186	800.000	-0.108	0.341
-467.172	-49.715	-0.454	0.215
-466.157	-99.150	-0.255	0.064
-465.143	467.859	-0.085	0.189
-464.128	23.112	0.083	-0.068
-463.113	6.487	0.178	-0.132
-462.099	90.894	-0.183	-0.205
-461.084	31.103	0.182	0.155
-460.070	796.495	-0.072	-0.196
-459.055	-34.613	-0.064	-0.035
-458.040	-200.000	0.011	-0.074
-457.026	-92.015	-0.332	0.094
-456.011	-54.667	0.081	0.037
-454.997	775.373	0.062	-0.168
-453.982	-142.255	-0.207	0.020
-452.968	310.504	-0.238	-0.443
-451.953	384.206	-0.110	-0.226
-450.938	-52.199	0.188	-0.087
-449.924	34.393	-0.066	0.057
-448.909	-149.786	-0.325	-0.025
-447.895	-200.000	-0.000	-0.182
-446.880	-66.684	0.196	0.077
-445.865	-51.799	-0.127	-0.059
-444.851	354.461	0.032	0.064
-443.836	182.486	-0.138	-0.202
-442.822	800.000	-0.043	-0.153
-441.807	83.909	-0.126	0.137
-440.792	-200.000	0.054	-0.283
-439.778	-6.625	-0.085	0.058
-438.763	-144.875	-0.272	0.025
-437.749	193.586	-0.103	-0.154
-436.734	-116.689	0.130	-0.024
-435.719	-8.362	0.153	0.102
-434.705	75.639	-0.036	0.037
-433.690	-45.395	-0.121	-0.059
-432.676	-25.140	-0.015	-0.009
-431.661	-200.000	0.029	-0.150
-430.646	-39.524	-0.372	-0.193
-429.632	-2.123	-0.282	-0.197
-428.617	-200.000	-0.048	0.224
-427.603	-43.510	0.282	0.141
-426.588	-159.360	-0.059	-0.003
-425.573	-200.000	-0.010	-0.082
-424.559	800.000	0.027	0.087
-423.544	-58.690	0.166	0.072
-422.530	247.255	-0.009	-0.016
-421.515	76.671	-0.252	-0.265
-420.500	96.487	0.258	-0.294
-419.486	274.667	0.099	0.175
-418.471	-200.000	-0.005	0.042
-417.457	-164.875	-0.321	0.014
-416.442	272.707	0.060	0.106
-415.428	-88.735	0.205	0.061
-414.413	-200.000	-0.020	0.112
-413.398	-200.000	0.004	-0.084
-412.384	244.520	-0.193	0.322
-411.369	-200.000	0.006	0.181
-410.355	-148.017	-0.112	-0.009
-409.340	402.243	0.166	-0.347
-408.325	-133.067	-0.196	-0.025
-407.311	-200.000	0.051	-0.310
-406.296	-86.473	0.113	-0.035
-405.282	800.000	-0.121	-0.375
-404.267	-65.694	-0.239	0.095
-403.252	-200.000	0.022	0.211
-402.238	-103.586	0.252	0.059
-401.223	-163.728	-0.126	-0.006
-400.209	534.162	0.087	-0.204
-399.194	201.410	-0.129	0.197
-398.179	323.004	-0.092	-0.174
-397.165	-113.828	-0.076	0.015
-396.150	78.070	0.215	0.228
-395.136	-200.000	0.023	0.225
-394.121	103.341	0.021	-0.024
-393.106	800.000	-0.050	0.172
-392.092	-93.098	0.201	0.056
-391.077	464.530	0.090	0.200
-390.063	-25.007	0.233	-0.137
-389.048	277.117	0.289	0.510
-388.033	-115.854	0.098	-0.018
-387.019	61.928	-0.056	-0.055
-386.004	-200.000	0.246	-0.000
-384.990	65.601	-0.126	-0.127
-383.975	-200.000	-0.008	-0.201
-382.960	-161.552	-0.225	0.011
-381.946	147.654	0.271	0.362
-380.931	222.543	-0.043	0.068
-379.917	175.995	0.162	-0.233
-378.902	59.122	-0.107	0.105
-377.888	-55.542	-0.191	0.085
-376.873	800.000	-0.113	-0.321
-375.858	203.090	0.200	-0.306
-374.844	-19.743	0.085	-0.052
-373.829	7.052	-0.243	0.180
-372.815	-179.940	0.129	0.003
-371.800	14.953	0.206	0.160
-370.785	-128.067	0.123	-0.017
-369.771	430.313	0.149	0.320
-368.756	-200.000	0.029	-0.141
-367.742	-200.000	0.000	-0.114
-366.727	-184.808	-0.483	0.008
-365.712	-74.740	0.168	-0.060
-364.698	73.981	-0.230	0.239
-363.683	-122.461	0.252	0.041
-362.669	708.871	0.034	-0.088
-361.654	-12.363	-0.207	-0.134
-360.639	-29.595	0.259	0.147
-359.625	-48.867	-0.271	0.129
-358.610	-64.269	0.220	-0.089
-357.596	800.000	0.027	0.100
-356.581	-200.000	-0.005	0.164
-355.566	-114.836	0.216	0.041
-354.552	-92.657	0.086	-0.024
-353.537	-153.366	0.357	0.025
-352.523	60.282	0.216	-0.211
-351.508	74.440	-0.134	0.139
-350.493	-141.088	0.229	0.023
-349.479	762.106	-0.094	0.252
-348.464	-156.086	-0.068	-0.004
-347.450	-200.000	-0.019	-0.119
-346.435	-159.349	-0.472	0.026
-345.420	800.000	-0.054	0.190
-344.406	34.962	0.135	-0.117
-343.391	-153.113	-0.320	0.022
-342.377	800.000	0.078	0.237
-341.362	-200.000	-0.001	0.041
-340.348	87.498	-0.278	0.304
-339.333	-103.440	-0.241	-0.056
-338.318	-19.948	-0.233	0.142
-337.304	15.790	0.125	0.098
-336.289	-91.819	0.247	-0.069
-335.275	353.613	-0.222	-0.436
-334.260	-200.000	0.006	-0.075
-333.245	136.634	-0.147	-0.190
-332.231	-4.573	-0.130	0.089
-331.216	-127.577	0.180	-0.026
-330.202	-156.328	0.324	0.020
-329.187	-68.374	0.229	-0.088
-328.172	-11.805	-0.392	0.255
-327.158	538.209	-0.237	0.558
-326.143	-152.286	0.366	0.026
-325.129	6.866	-0.235	0.173
-324.114	783.898	0.076	0.207
-323.099	14.946	0.192	-0.149
-322.085	-62.436	0.151	0.062
-321.070	20.806	0.309	0.248
-320.056	81.569	-0.207	-0.221
-319.041	44.508	0.186	0.169
-318.026	-200.000	0.018	-0.208
-317.012	728.413	0.050	0.131
-315.997	800.000	-0.048	-0.141
-314.983	-98.332	0.214	-0.054
-313.968	800.000	0.113	0.415
-312.953	326.569	0.076	-0.144
-311.939	-50.923	-0.041	-0.019
-310.924	15.340	-0.256	-0.198
-309.910	-63.067	0.147	0.060
-308.895	263.153	0.078	0.134
-307.880	350.490	-0.024	-0.048
-306.866	102.939	0.061	-0.071
-305.851	-32.296	0.195	0.108
-304.837	77.735	0.128	0.134
-303.822	-200.000	0.001	-0.017
-302.807	173.850	0.164	0.234
-301.793	612.581	0.048	0.119
-300.778	-22.601	-0.133	0.080
-299.764	248.452	0.097	-0.162
-298.749	-64.237	0.240	0.097
-297.735	-200.000	0.090	-0.424
-296.720	800.000	-0.069	0.298
-295.705	99.199	-0.306	0.349
-294.691	800.000	-0.034	0.133
-293.676	366.308	-0.053	0.105
-292.662	-33.105	0.124	-0.068
-291.647	-157.905	-0.309	-0.018
-290.632	800.000	0.109	-0.352
-289.618	-43.287	0.120	0.060
-288.603	249.586	0.136	0.228
-287.589	-57.500	-0.357	0.155
-286.574	-195.986	0.237	-0.002
-285.559	800.000	0.055	0.154
-284.545	409.521	0.130	-0.272
-283.530	13.498	-0.213	-0.163
-282.516	-133.034	-0.282	0.035
-281.501	18.690	0.243	-0.192
-280.486	-118.867	-0.255	0.044
-279.472	-98.111	-0.202	-0.051
-278.457	46.507	0.288	-0.264
-277.443	-40.013	0.063	0.033
-276.428	518.359	-0.086	0.198
-275.413	-94.497	-0.119	-0.032
-274.399	-181.245	-0.355	0.007
-273.384	-85.755	0.066	-0.020
-272.370	800.000	0.080	-0.309
-271.355	20.741	0.280	-0.224
-270.340	779.073	0.051	0.138
-269.326	310.943	0.135	-0.251
-268.311	-101.863	-0.284	0.068
-267.297	86.942	0.253	0.276
-266.282	203.522	0.045	0.068
-265.267	-37.241	0.254	-0.134
-264.253	800.000	0.133	-0.372
-263.238	-158.450	-0.258	0.015
-262.224	-200.000	0.007	0.051
-261.209	-48.164	-0.160	-0.076
-260.195	-1.488	0.161	0.112
-259.180	-200.000	0.086	0.391
-258.165	-72.535	0.356	-0.130
-257.151	-37.330	-0.171	0.090
-256.136	800.000	0.141	0.456
-255.122	800.000	0.017	-0.058
-254.107	-9.723	0.239	0.157
-253.092	-200.000	-0.019	0.224
-252.078	-142.087	0.194	-0.019
-251.063	-62.481	-0.240	-0.099
-250.049	167.169	0.027	0.038
-249.034	-99.989	-0.274	-0.067
-248.019	-82.679	-0.153	-0.049
-247.005	-109.444	0.405	0.084
-245.990	39.065	0.186	0.164
-244.976	-13.245	0.211	-0.135
-243.961	-29.150	0.158	0.089
-242.946	18.764	0.107	-0.085
-241.932	41.461	-0.139	0.124
-240.917	-131.641	-0.260	-0.034
-239.903	-110.081	-0.275	0.057
-238.888	145.237	0.125	0.165
-237.873	607.214	0.083	-0.204
-236.859	-134.389	-0.026	0.003
-235.844	800.000	0.107	-0.295
-234.830	704.567	0.131	-0.340
-233.815	283.182	-0.148	-0.261
-232.800	142.070	0.204	0.266
-231.786	555.817	-0.043	-0.102
-230.771	-124.843	0.244	-0.037
-229.757	-141.912	-0.253	-0.025
-228.742	-119.089	-0.136	-0.024
-227.727	-51.690	0.100	-0.046
-226.713	-91.668	-0.278	0.078
-225.698	242.688	0.132	-0.217
-224.684	48.414	-0.174	-0.160
-223.669	-142.868	-0.231	-0.022
-222.655	11.403	0.228	-0.172
-221.640	22.657	-0.094	-0.076
-220.625	264.716	0.122	0.209
-219.611	-200.000	-0.012	0.159
-218.596	440.028	-0.074	0.160
-217.582	1.123	0.226	-0.160
-216.567	-3.180	-0.364	0.250
-215.552	-92.458	0.131	-0.036
-214.538	800.000	-0.111	-0.305
-213.523	-200.000	0.001	0.200
-212.509	-200.000	-0.032	0.223
-211.494	66.485	0.126	-0.126
-210.479	-200.000	0.027	-0.143
-209.465	-10.474	0.170	0.111
-208.450	724.017	-0.048	0.126
-207.436	800.000	0.062	-0.231
-206.421	23.231	0.201	0.163
-205.406	370.325	0.100	-0.199
-204.392	-7.034	-0.101	-0.067
-203.377	44.305	-0.071	0.064
-202.363	-200.000	0.012	-0.132
-201.348	488.809	0.092	0.207
-200.333	-98.762	-0.200	0.050
-199.319	410.522	0.107	-0.223
-198.304	800.000	-0.086	-0.344
-197.290	-27.739	0.071	-0.041
-196.275	-142.160	0.213	0.021
-195.260	-200.000	-0.037	-0.227
-194.246	-135.925	0.331	-0.038
-193.231	148.850	0.223	0.296
-192.217	-156.593	-0.164	-0.010
-191.202	-130.905	0.183	0.024
-190.187	138.948	0.073	0.094
-189.173	365.856	-0.036	0.071
-188.158	-89.440	0.509	-0.147
-187.144	-116.307	-0.367	0.067
-186.129	206.811	0.056	-0.086
-185.114	113.438	0.071	0.085
-184.100	-17.076	0.248	0.154
-183.085	96.132	-0.214	0.241
-182.071	151.067	-0.157	-0.210
-181.056	-65.598	0.174	-0.069
-180.042	68.121	-0.072	0.072
-179.027	435.833	-0.191	0.408
-178.012	263.150	-0.195	-0.333
-176.998	-11.266	-0.104	0.067
-175.983	3.238	0.233	0.167
-174.969	13.782	-0.163	-0.125
-173.954	800.000	0.031	-0.113
-172.939	536.467	0.066	-0.155
-171.925	-79.666	0.034	-0.011
-170.910	141.982	-0.074	0.097
-169.896	-200.000	-0.026	-0.167
-168.881	-200.000	0.005	-0.027
-167.866	-52.348	-0.099	-0.045
-166.852	-200.000	-0.002	-0.218
-165.837	66.735	-0.167	-0.167
-164.823	146.583	0.019	0.025
-163.808	-66.946	0.341	-0.133
-162.793	279.668	-0.087	0.153
-161.779	-56.872	0.178	-0.077
-160.764	84.352	-0.236	-0.253
-159.750	-98.020	-0.117	-0.030
-158.735	-49.467	0.244	-0.114
-157.720	-80.412	-0.078	-0.025
-156.706	-184.478	-0.240	0.004
-155.691	-96.595	-0.148	-0.038
-154.677	-17.067	-0.094	-0.058
-153.662	-151.929	-0.333	0.024
-152.647	717.235	0.048	-0.126
-151.633	-88.275	0.191	0.056
-150.618	800.000	0.032	0.101
-149.604	-70.006	-0.466	0.175
-148.589	37.991	-0.172	-0.150
-147.574	150.994	-0.082	-0.110
-146.560	-14.670	-0.566	-0.357
-145.545	-200.000	-0.029	-0.125
-144.531	330.700	-0.177	-0.336
-143.516	-38.446	0.305	0.158
-142.502	304.805	-0.163	0.298
-141.487	800.000	0.076	0.282
-140.472	-113.311	0.184	-0.035
-139.458	30.535	0.051	0.042
-138.443	-20.053	-0.206	0.125
-137.429	-26.949	0.050	0.029
-136.414	69.996	0.208	0.211
-135.399	111.545	-0.142	0.169
-134.385	-184.384	-0.404	0.006
-133.370	-164.489	0.121	0.005
-132.356	800.000	0.066	-0.265
-131.341	-200.000	-0.032	0.201
-130.326	271.379	0.054	-0.094
-129.312	-70.347	0.239	-0.089
-128.297	-200.000	-0.008	-0.203
-127.283	-36.388	0.081	0.043
-126.268	113.966	-0.227	-0.271
-125.253	-44.871	0.109	-0.053
-124.239	800.000	-0.050	0.175
-123.224	800.000	0.087	-0.253
-122.210	159.289	0.092	0.125
-121.195	490.208	0.152	0.341
