DTS Sentinel unit serial number:	SN413079Multiplexer serial number:	ORYXHardware model number:	OX4-SRSoftware version number:	ORYX F/W v4.00 Oryx Data Collector v3.7.2.0data status	okinstallation	princeton_trtdifferential loss correction	single-endedforward channel	channel 4reverse channel	N/Adate	2019/09/13time	16:09:34forward acquisition time	60.00reverse acquisition time	0.00gamma	496.2192k internal	0.2296k external	0.2296temperature offset calibration	1.0213default loss term (dB/km)	0.3790temperature slope calibration	1.0000multiplexer offset coefficient	1.0000multiplexer slope coefficient	1.0000fibre end	0.00T internal ref (°C)	34.75T ext. ref 1 (°C)	4.84T ext. ref 2 (°C)	31.52length (m)	temperature (°C)	Stokes	anti-Stokes-747.200	-59.283	-0.189	-0.083
-746.185	800.000	-0.058	0.205
-745.171	-200.000	-0.002	-0.124
-744.156	-155.462	-0.303	-0.020
-743.142	126.453	0.172	-0.222
-742.127	-85.106	0.151	0.048
-741.112	-84.583	0.121	0.039
-740.098	-200.000	-0.013	0.189
-739.083	-49.675	0.058	-0.028
-738.069	-107.436	-0.315	0.071
-737.054	-200.000	-0.001	-0.307
-736.039	-84.352	-0.362	-0.117
-735.025	-132.554	-0.211	-0.028
-734.010	-66.091	-0.204	-0.083
-732.996	-91.696	-0.295	0.086
-731.981	-24.716	-0.181	0.110
-730.966	-200.000	-0.006	-0.159
-729.952	267.028	0.088	0.156
-728.937	-135.823	-0.302	-0.036
-727.923	-16.384	-0.253	-0.164
-726.908	-48.995	-0.148	-0.073
-725.894	18.057	-0.109	-0.089
-724.879	50.195	0.226	-0.218
-723.864	214.171	-0.131	-0.212
-722.850	29.997	-0.029	0.025
-721.835	-200.000	-0.037	0.281
-720.821	-74.279	-0.089	-0.033
-719.806	-49.105	-0.098	-0.048
-718.791	-200.000	0.036	-0.208
-717.777	-200.000	0.055	-0.376
-716.762	45.405	0.042	0.040
-715.748	-200.000	-0.022	-0.372
-714.733	68.832	0.206	-0.216
-713.718	324.817	-0.153	-0.298
-712.704	119.014	0.084	-0.105
-711.689	800.000	0.080	-0.336
-710.675	518.868	-0.074	0.177
-709.660	-86.953	0.059	0.018
-708.645	48.749	-0.171	-0.163
-707.631	210.646	-0.046	0.073
-706.616	-36.865	0.053	-0.029
-705.602	321.682	0.102	0.199
-704.587	88.231	-0.279	0.316
-703.572	-100.978	0.370	0.093
-702.558	800.000	0.085	-0.288
-701.543	-154.615	0.216	0.015
-700.529	129.882	-0.221	-0.288
-699.514	-50.109	-0.182	-0.088
-698.499	-200.000	-0.077	-0.423
-697.485	-158.054	-0.436	0.026
-696.470	275.374	0.031	-0.057
-695.456	10.049	-0.323	-0.250
-694.441	-132.085	0.318	-0.042
-693.426	48.737	-0.273	-0.261
-692.412	-200.000	0.005	0.152
-691.397	-200.000	0.017	0.288
-690.383	-200.000	0.013	0.115
-689.368	-200.000	0.007	-0.070
-688.354	-138.704	-0.155	-0.017
-687.339	728.306	-0.065	-0.176
-686.324	-28.250	-0.183	-0.108
-685.310	97.596	-0.129	0.151
-684.295	-200.000	0.014	0.249
-683.281	-200.000	0.029	-0.193
-682.266	800.000	-0.089	-0.288
-681.251	642.087	0.049	0.129
-680.237	105.764	0.280	-0.338
-679.222	32.368	-0.073	-0.064
-678.208	-200.000	-0.017	-0.191
-677.193	384.762	-0.164	0.345
-676.178	257.619	-0.031	-0.054
-675.164	-200.000	0.005	-0.112
-674.149	13.959	-0.065	0.051
-673.135	-200.000	-0.031	-0.163
-672.120	-200.000	-0.032	0.225
-671.105	-29.632	-0.258	-0.150
-670.091	203.920	-0.095	-0.150
-669.076	-200.000	-0.015	-0.146
-668.062	-200.000	0.010	-0.086
-667.047	260.296	0.181	0.318
-666.032	-12.302	-0.278	-0.185
-665.018	481.488	0.059	0.136
-664.003	183.730	0.036	-0.054
-662.989	243.603	-0.242	-0.414
-661.974	-99.587	-0.369	0.094
-660.959	186.198	0.042	0.064
-659.945	-43.702	-0.324	-0.166
-658.930	70.033	0.074	0.077
-657.916	-164.892	-0.229	-0.010
-656.901	-114.569	-0.541	0.106
-655.886	-200.000	-0.042	0.284
-654.872	-116.765	0.288	-0.054
-653.857	-59.167	0.055	-0.024
-652.843	50.813	-0.126	-0.121
-651.828	24.126	-0.135	-0.114
-650.814	-43.571	-0.052	-0.027
-649.799	800.000	0.062	-0.236
-648.784	-40.984	-0.148	0.078
-647.770	800.000	0.083	0.319
-646.755	-144.174	-0.208	-0.020
-645.741	-200.000	-0.200	0.001
-644.726	-200.000	0.075	-0.396
-643.711	-53.577	-0.280	0.131
-642.697	-104.495	-0.203	-0.048
-641.682	-24.137	-0.232	0.141
-640.668	-93.203	-0.192	-0.054
-639.653	234.983	-0.080	-0.134
-638.638	-63.038	0.205	0.086
-637.624	-139.633	0.094	0.010
-636.609	-19.461	-0.203	-0.128
-635.595	-200.000	-0.012	-0.150
-634.580	-60.633	-0.228	-0.098
-633.565	164.307	-0.028	-0.040
-632.551	213.532	0.031	-0.051
-631.536	800.000	-0.137	-0.422
-630.522	-148.827	0.231	0.019
-629.507	-34.899	-0.151	0.084
-628.492	132.137	0.081	0.106
-627.478	323.964	-0.044	-0.086
-626.463	-2.840	-0.119	-0.085
-625.449	-200.000	-0.013	0.180
-624.434	-200.000	-0.052	0.365
-623.419	-176.716	0.340	-0.009
-622.405	800.000	-0.095	-0.398
-621.390	-131.557	0.186	-0.025
-620.376	-88.603	0.156	0.047
-619.361	-200.000	0.000	0.277
-618.346	-200.000	0.037	-0.187
-617.332	-20.822	0.183	-0.114
-616.317	-200.000	0.055	-0.265
-615.303	120.672	-0.153	-0.193
-614.288	-131.462	0.136	-0.018
-613.273	-200.000	-0.014	-0.232
-612.259	150.704	0.260	-0.359
-611.244	128.782	0.163	-0.211
-610.230	-115.482	0.326	0.062
-609.215	-16.629	-0.232	-0.149
-608.201	327.815	0.090	-0.175
-607.186	83.513	0.072	0.080
-606.171	-13.111	-0.256	-0.169
-605.157	800.000	0.015	-0.046
-604.142	-6.752	-0.123	-0.085
-603.128	-112.798	0.293	-0.059
-602.113	364.172	0.118	-0.242
-601.098	75.179	0.189	0.202
-600.084	-140.440	0.327	-0.035
-599.069	-41.079	-0.270	-0.142
-598.055	-95.793	-0.366	-0.099
-597.040	-200.000	0.008	0.230
-596.025	209.441	-0.301	0.479
-595.011	-17.799	0.194	-0.124
-593.996	96.944	-0.019	-0.022
-592.982	-24.258	-0.074	-0.045
-591.967	73.627	-0.243	-0.258
-590.952	-200.000	-0.024	0.196
-589.938	800.000	0.071	-0.292
-588.923	-92.170	-0.142	-0.041
-587.909	-99.371	0.255	-0.065
-586.894	25.638	0.011	0.009
-585.879	-200.000	0.023	-0.158
-584.865	49.673	0.141	0.135
-583.850	27.678	0.203	-0.174
-582.836	90.155	-0.077	-0.088
-581.821	28.600	0.205	-0.176
-580.806	-200.000	-0.022	-0.217
-579.792	800.000	0.019	-0.084
-578.777	653.896	-0.094	0.244
-577.763	104.360	0.101	0.120
-576.748	76.194	-0.056	-0.061
-575.733	351.667	-0.025	-0.049
-574.719	206.624	-0.037	-0.059
-573.704	12.149	0.116	-0.091
-572.690	800.000	0.046	-0.137
-571.675	230.432	0.104	0.173
-570.661	-83.695	-0.103	0.033
-569.646	200.886	-0.070	0.109
-568.631	-200.000	0.032	0.327
-567.617	24.051	0.047	0.039
-566.602	-120.829	0.219	-0.037
-565.588	-28.024	-0.476	-0.279
-564.573	-47.745	0.173	0.085
-563.558	-200.000	-0.012	0.143
-562.544	-94.426	-0.118	-0.033
-561.529	-46.622	-0.039	-0.019
-560.515	505.264	0.060	0.141
-559.500	547.938	-0.172	-0.419
-558.485	800.000	0.058	-0.240
-557.471	-200.000	0.024	-0.397
-556.456	282.494	0.210	-0.382
-555.442	-120.809	-0.133	-0.023
-554.427	7.879	-0.400	-0.304
-553.412	304.525	0.093	0.175
-552.398	800.000	-0.055	0.234
-551.383	-200.000	-0.022	-0.119
-550.369	171.493	0.170	0.247
-549.354	49.066	0.037	0.035
-548.339	-0.824	0.056	-0.040
-547.325	189.882	0.033	0.051
-546.310	-200.000	-0.038	0.190
-545.296	-162.832	-0.360	0.018
-544.281	-24.831	-0.263	0.159
-543.266	422.181	0.112	0.244
-542.252	-177.175	0.179	0.005
-541.237	69.120	0.110	0.115
-540.223	-38.883	-0.250	-0.133
-539.208	-124.935	0.207	-0.032
-538.193	367.440	0.122	-0.250
-537.179	-114.236	-0.391	-0.076
-536.164	204.919	-0.248	-0.391
-535.150	79.524	0.099	0.107
-534.135	-200.000	-0.046	-0.226
-533.121	-124.464	0.214	-0.034
-532.106	-29.297	-0.331	0.192
-531.091	-200.000	0.001	-0.080
-530.077	-57.529	0.382	-0.170
-529.062	131.348	0.240	0.313
-528.048	-167.924	0.024	0.001
-527.033	-42.653	0.016	0.008
-526.018	-200.000	-0.011	-0.239
-525.004	65.034	-0.316	-0.323
-523.989	-200.000	0.000	-0.334
-522.975	-173.277	-0.246	0.008
-521.960	-70.603	0.245	0.094
-520.945	-200.000	0.009	0.060
-519.931	228.760	0.135	-0.223
-518.916	-132.023	-0.109	-0.014
-517.902	261.555	0.114	-0.200
-516.887	800.000	0.019	0.083
-515.872	42.493	-0.069	-0.063
-514.858	108.409	0.153	-0.185
-513.843	-155.310	-0.418	0.027
-512.829	138.034	0.195	0.259
-511.814	-17.389	-0.281	0.179
-510.799	-200.000	-0.010	0.245
-509.785	-200.000	-0.010	0.044
-508.770	76.040	-0.257	0.275
-507.756	353.204	0.165	0.331
-506.741	225.126	-0.057	0.094
-505.726	-173.034	-0.344	0.011
-504.712	-200.000	0.020	0.095
-503.697	-200.000	-0.008	0.293
-502.683	-151.714	0.257	0.019
-501.668	-45.659	0.223	-0.112
-500.653	366.342	-0.118	-0.241
-499.639	-79.315	-0.112	-0.038
-498.624	25.473	0.054	-0.045
-497.610	691.908	-0.091	-0.241
-496.595	659.267	-0.111	-0.288
-495.581	-45.344	0.255	0.128
-494.566	-200.000	0.010	0.202
-493.551	280.100	-0.075	0.135
-492.537	-89.290	0.263	-0.078
-491.522	-200.000	0.020	-0.191
-490.508	-200.000	-0.038	0.181
-489.493	-125.193	0.046	-0.007
-488.478	-61.897	-0.132	-0.056
-487.464	-117.492	0.082	-0.015
-486.449	800.000	0.052	0.157
-485.435	28.726	0.102	-0.087
-484.420	-12.173	0.161	-0.107
-483.405	-60.799	0.415	0.178
-482.391	-200.000	0.008	-0.145
-481.376	-200.000	0.015	0.135
-480.362	-108.079	-0.145	-0.032
-479.347	196.333	-0.266	0.410
-478.332	103.135	-0.192	0.227
-477.318	34.016	0.258	-0.227
-476.303	148.795	0.076	-0.104
-475.289	411.029	0.079	-0.170
-474.274	369.002	-0.098	0.200
-473.259	69.002	0.201	0.209
-472.245	-135.328	-0.252	-0.031
-471.230	-91.403	-0.228	-0.066
-470.216	-14.500	0.416	-0.270
-469.201	-200.000	-0.026	-0.206
-468.186	-127.797	-0.149	-0.022
-467.172	-200.000	0.038	0.217
-466.157	-66.735	0.225	0.090
-465.143	-146.424	-0.194	0.017
-464.128	70.473	-0.141	-0.147
-463.113	-200.000	-0.027	-0.160
-462.099	129.870	-0.138	0.178
-461.084	-200.000	0.067	-0.324
-460.070	5.081	-0.158	0.118
-459.055	-63.297	0.056	0.023
-458.040	-140.490	-0.098	-0.010
-457.026	-200.000	0.032	-0.231
-456.011	-200.000	-0.057	0.348
-454.997	628.306	-0.022	-0.056
-453.982	-70.545	-0.111	0.042
-452.968	800.000	0.106	-0.394
-451.953	-79.485	0.113	-0.039
-450.938	-200.000	0.008	-0.153
-449.924	-25.563	0.024	-0.014
-448.909	-155.375	-0.191	-0.013
-447.895	127.532	0.097	0.124
-446.880	84.192	0.109	-0.121
-445.865	-49.151	0.222	-0.107
-444.851	28.623	0.193	0.165
-443.836	-149.651	-0.455	0.036
-442.822	-200.000	-0.014	0.320
-441.807	-81.172	0.376	-0.126
-440.792	-103.572	0.277	-0.066
-439.778	-35.494	-0.239	-0.131
-438.763	562.512	0.104	-0.253
-437.749	-200.000	0.009	-0.091
-436.734	37.689	0.164	-0.147
-435.719	-50.380	-0.331	0.158
-434.705	241.925	-0.108	0.182
-433.690	800.000	0.032	0.136
-432.676	-75.018	0.312	-0.113
-431.661	-200.000	-0.001	-0.019
-430.646	-28.626	-0.299	-0.174
-429.632	220.859	0.204	0.330
-428.617	-178.683	-0.125	-0.003
-427.603	204.880	-0.237	-0.372
-426.588	44.176	0.083	-0.077
-425.573	241.301	0.087	0.147
-424.559	118.949	0.209	-0.261
-423.544	-74.425	0.151	-0.055
-422.530	-54.273	-0.094	0.043
-421.515	188.112	-0.043	-0.065
-420.500	390.394	0.172	0.360
-419.486	-161.829	0.246	0.013
-418.471	-16.227	0.090	0.058
-417.457	31.535	-0.164	-0.143
-416.442	-170.688	-0.253	0.009
-415.428	91.054	-0.231	-0.261
-414.413	-126.489	-0.442	-0.066
-413.398	-64.104	-0.194	-0.080
-412.384	-200.000	0.006	-0.053
-411.369	-0.800	-0.165	-0.118
-410.355	278.598	0.015	-0.027
-409.340	-143.196	0.220	0.021
-408.325	-2.025	-0.179	-0.127
-407.311	-81.712	0.107	-0.036
-406.296	54.386	0.126	-0.122
-405.282	800.000	0.084	-0.249
-404.267	-200.000	0.011	0.290
-403.252	-146.295	-0.202	0.018
-402.238	-5.185	-0.114	0.079
-401.223	-104.946	-0.266	0.062
-400.209	800.000	-0.119	-0.436
-399.194	-119.844	0.123	0.021
-398.179	18.721	-0.286	-0.231
-397.165	-147.188	0.296	-0.025
-396.150	-73.692	-0.270	0.099
-395.136	144.903	0.173	0.233
-394.121	-58.955	-0.195	-0.085
-393.106	-40.414	-0.170	0.089
-392.092	-157.370	-0.165	0.010
-391.077	454.448	-0.142	0.316
-390.063	-37.901	-0.135	-0.072
-389.048	75.327	0.175	0.186
-388.033	577.317	-0.059	-0.146
-387.019	-142.443	-0.068	0.007
-386.004	-200.000	-0.013	0.084
-384.990	-104.039	-0.267	0.063
-383.975	-200.000	-0.001	0.065
-382.960	196.987	0.141	-0.216
-381.946	135.648	0.226	-0.296
-380.931	29.938	0.220	-0.189
-379.917	-1.345	0.162	-0.115
-378.902	-80.093	-0.166	0.056
-377.888	-200.000	0.000	0.105
-376.873	539.923	0.106	0.254
-375.858	-200.000	-0.029	0.138
-374.844	800.000	0.068	-0.212
-373.829	105.316	-0.187	0.222
-372.815	-54.202	-0.305	0.139
-371.800	40.014	0.099	-0.089
-370.785	-121.157	-0.171	0.029
-369.771	-200.000	0.041	-0.226
-368.756	-83.100	0.201	-0.065
-367.742	800.000	-0.061	0.187
-366.727	-95.966	-0.129	-0.035
-365.712	16.526	0.249	-0.198
-364.698	-200.000	-0.006	0.140
-363.683	800.000	-0.003	0.010
-362.669	800.000	0.045	-0.187
-361.654	-75.908	0.319	0.114
-360.639	-145.522	0.221	-0.020
-359.625	800.000	-0.120	0.382
-358.610	120.092	-0.193	0.241
-357.596	-18.666	0.137	-0.086
-356.581	-78.535	0.181	-0.062
-355.566	800.000	-0.065	0.219
-354.552	-101.618	-0.323	0.079
-353.537	800.000	-0.069	-0.205
-352.523	-75.077	0.216	-0.078
-351.508	-200.000	-0.003	-0.215
-350.493	40.236	0.382	0.345
-349.479	17.987	-0.073	0.058
-348.464	179.907	-0.129	-0.190
-347.450	572.408	0.136	0.334
-346.435	32.084	0.114	0.099
-345.420	-109.087	-0.152	-0.033
-344.406	218.090	0.155	0.249
-343.391	-200.000	-0.007	0.114
-342.377	261.410	0.199	0.347
-341.362	274.946	0.047	0.083
-340.348	751.553	-0.049	0.133
-339.333	-160.832	-0.166	0.009
-338.318	-122.150	-0.129	0.021
-337.304	2.987	0.135	-0.099
-336.289	-64.821	-0.308	0.125
-335.275	-200.000	0.014	0.209
-334.260	-99.895	0.315	0.079
-333.245	-128.506	0.206	-0.029
-332.231	-200.000	0.004	0.159
-331.216	-200.000	-0.041	0.234
-330.202	37.899	-0.171	0.153
-329.187	-64.667	-0.067	-0.027
-328.172	206.243	0.128	0.201
-327.158	-25.424	-0.240	0.143
-326.143	526.887	-0.058	0.136
-325.129	-138.150	0.160	-0.018
-324.114	800.000	0.090	0.330
-323.099	-146.397	0.185	0.016
-322.085	-142.673	-0.381	0.037
-321.070	-41.116	-0.267	-0.139
-320.056	-200.000	-0.001	0.427
-319.041	247.199	-0.061	0.104
-318.026	-107.709	0.241	0.053
-317.012	-200.000	-0.028	0.229
-315.997	275.579	0.091	0.162
-314.983	-200.000	-0.031	0.369
-313.968	800.000	-0.168	-0.565
-312.953	-200.000	-0.003	-0.330
-311.939	-109.493	0.397	-0.084
-310.924	42.906	0.113	-0.104
-309.910	-162.953	0.249	-0.012
-308.895	-200.000	-0.035	-0.157
-307.880	-102.492	0.194	-0.047
-306.866	-68.364	0.064	0.025
-305.851	273.548	0.134	-0.238
-304.837	-105.782	-0.172	-0.039
-303.822	-90.360	-0.090	0.026
-302.807	-94.277	-0.090	0.025
-301.793	800.000	0.161	0.501
-300.778	-6.108	0.192	0.131
-299.764	-48.704	0.319	-0.154
-298.749	-104.396	-0.097	0.023
-297.735	157.945	-0.156	0.217
-296.720	800.000	0.077	-0.272
-295.705	208.027	-0.066	-0.104
-294.691	-200.000	-0.012	-0.145
-293.676	-159.735	0.066	-0.004
-292.662	34.756	-0.183	0.160
-291.647	-44.654	0.200	-0.100
-290.632	800.000	0.107	-0.463
-289.618	800.000	0.029	0.111
-288.603	-200.000	-0.020	0.308
-287.589	-47.952	0.260	0.126
-286.574	61.762	0.108	0.108
-285.559	800.000	-0.147	0.498
-284.545	286.798	0.129	0.234
-283.530	-109.267	-0.122	-0.026
-282.516	-75.813	0.171	0.061
-281.501	17.131	-0.049	0.039
-280.486	-71.170	0.244	-0.092
-279.472	-75.789	0.096	-0.034
-278.457	-41.562	-0.079	0.041
-277.443	459.476	-0.139	0.311
-276.428	-96.275	-0.295	0.078
-275.413	-200.000	0.006	-0.440
-274.399	-27.016	0.262	0.153
-273.384	-64.605	-0.114	-0.046
-272.370	280.788	0.107	-0.192
-271.355	20.445	-0.191	0.155
-270.340	-37.342	-0.078	-0.042
-269.326	-190.581	0.044	0.000
-268.311	-55.224	0.226	-0.102
-267.297	-200.000	0.019	-0.145
-266.282	-78.174	0.347	-0.120
-265.267	-200.000	-0.004	-0.159
-264.253	69.440	-0.168	0.173
-263.238	89.753	-0.224	-0.251
-262.224	161.253	0.208	0.292
-261.209	104.653	0.232	0.275
-260.195	-200.000	-0.006	0.208
-259.180	800.000	-0.051	-0.141
-258.165	-52.988	0.208	-0.096
-257.151	-16.419	-0.169	-0.107
-256.136	253.565	-0.121	-0.207
-255.122	172.579	-0.143	0.207
-254.107	323.679	-0.031	0.060
-253.092	109.998	0.219	0.263
-252.078	26.723	0.197	0.165
-251.063	-76.052	0.155	-0.055
-250.049	-91.048	0.194	-0.056
-249.034	-59.262	0.056	-0.024
-248.019	-102.378	-0.103	-0.025
-247.005	462.168	-0.072	-0.161
-245.990	-200.000	-0.055	0.368
-244.976	662.352	0.081	0.209
-243.961	491.136	0.152	0.348
-242.946	-200.000	0.019	0.117
-241.932	-200.000	0.014	-0.231
-240.917	-12.540	0.171	0.112
-239.903	-134.075	-0.397	0.049
-238.888	-200.000	-0.039	-0.225
-237.873	220.474	-0.100	-0.161
-236.859	104.666	-0.043	-0.050
-235.844	-67.671	-0.163	-0.064
-234.830	19.722	0.067	0.054
-233.815	258.190	-0.278	0.479
-232.800	-120.909	0.226	0.038
-231.786	43.775	-0.201	0.184
-230.771	800.000	-0.117	0.366
-229.757	727.462	0.016	-0.044
-228.742	-200.000	-0.025	0.187
-227.727	15.077	0.143	0.112
-226.713	-160.572	0.325	0.017
-225.698	111.201	0.219	0.264
-224.684	54.937	-0.184	-0.178
-223.669	151.956	-0.169	-0.231
-222.655	261.588	0.039	0.068
-221.640	-63.455	0.105	0.043
-220.625	-16.770	-0.184	-0.116
-219.611	-120.239	-0.350	-0.060
-218.596	-62.660	-0.287	-0.119
-217.582	-62.165	0.179	0.075
-216.567	-91.540	0.202	0.058
-215.552	-82.854	0.257	-0.083
-214.538	10.781	0.074	-0.056
-213.523	-63.979	0.151	-0.062
-212.509	-200.000	0.038	-0.337
-211.494	-200.000	-0.034	0.242
-210.479	198.861	0.103	-0.157
-209.465	271.859	-0.154	0.271
-208.450	266.292	0.151	0.264
-207.436	236.538	0.029	-0.048
-206.421	-142.037	0.139	0.014
-205.406	375.332	0.055	-0.112
-204.392	-200.000	-0.000	-0.077
-203.377	-40.723	-0.352	-0.182
-202.363	-166.913	-0.319	0.013
-201.348	800.000	-0.093	0.358
-200.333	5.957	-0.115	-0.085
-199.319	11.255	0.110	-0.084
-198.304	570.610	-0.062	0.150
-197.290	-200.000	0.001	0.009
-196.275	-7.115	0.218	0.148
-195.260	455.219	0.134	-0.296
-194.246	506.726	-0.083	-0.193
-193.231	304.409	-0.056	0.104
-192.217	575.755	-0.070	0.171
-191.202	-200.000	0.018	0.237
-190.187	-200.000	0.012	0.057
-189.173	699.762	0.127	0.335
-188.158	647.949	-0.147	0.375
-187.144	800.000	-0.077	0.262
-186.129	52.540	-0.221	0.211
-185.114	800.000	0.023	-0.093
-184.100	-112.540	-0.382	0.076
-183.085	106.357	-0.036	-0.043
-182.071	-200.000	-0.018	-0.311
-181.056	-92.886	0.115	-0.032
-180.042	800.000	-0.047	-0.131
-179.027	-183.126	-0.180	-0.003
-178.012	100.320	0.242	-0.281
-176.998	-70.533	0.369	-0.140
-175.983	32.557	0.275	-0.238
-174.969	800.000	0.058	-0.230
-173.954	800.000	-0.015	0.042
-172.939	-122.661	0.206	0.033
-171.925	-76.165	-0.138	0.049
-170.910	-37.712	0.102	0.054
-169.896	95.758	0.085	-0.097
-168.881	28.970	0.246	-0.208
-167.866	130.598	-0.038	0.049
-166.852	673.952	-0.111	0.288
-165.837	-184.643	-0.127	-0.002
-164.823	154.381	-0.106	0.146
-163.808	-72.611	-0.027	0.010
-162.793	56.636	-0.225	0.218
-161.779	124.714	-0.140	0.176
-160.764	161.768	-0.175	0.244
-159.750	62.311	0.101	-0.101
-158.735	-82.736	-0.118	-0.038
-157.720	-200.000	0.019	-0.158
-156.706	-113.142	-0.174	0.034
-155.691	800.000	0.015	-0.058
-154.677	92.386	-0.181	-0.204
-153.662	-200.000	0.016	-0.354
-152.647	-63.034	0.220	0.091
-151.633	326.384	0.121	-0.232
-150.618	-64.497	0.174	0.071
-149.604	-6.705	-0.229	0.155
-148.589	169.558	0.264	0.376
-147.574	-20.241	-0.200	-0.123
-146.560	41.816	-0.281	-0.255
-145.545	-83.779	0.277	-0.088
-144.531	-150.300	-0.203	0.016
-143.516	48.012	-0.064	-0.060
-142.502	185.601	-0.119	0.176
-141.487	800.000	-0.066	0.202
-140.472	-130.340	0.075	0.010
-139.458	-154.329	0.126	0.008
-138.443	-171.271	0.219	-0.007
-137.429	12.545	0.092	0.071
-136.414	-45.362	0.205	0.101
-135.399	-108.911	-0.218	0.046
-134.385	207.576	0.145	-0.226
-133.370	360.200	0.032	0.063
-132.356	-33.111	0.261	0.144
-131.341	-132.199	-0.243	0.031
-130.326	124.174	0.075	0.094
-129.312	28.711	0.294	-0.248
-128.297	-109.133	0.288	0.061
-127.283	462.869	-0.063	-0.141
-126.268	-68.665	-0.165	-0.064
-125.253	648.267	0.032	-0.082
-124.239	-47.999	0.317	0.153
-123.224	-200.000	0.001	0.243
