DTS Sentinel unit serial number:	SN413079Multiplexer serial number:	ORYXHardware model number:	OX4-SRSoftware version number:	ORYX F/W v4.00 Oryx Data Collector v3.7.2.0data status	okinstallation	princeton_trtdifferential loss correction	single-endedforward channel	channel 4reverse channel	N/Adate	2019/09/13time	01:13:35forward acquisition time	60.00reverse acquisition time	0.00gamma	496.2192k internal	0.2318k external	0.2318temperature offset calibration	1.0169default loss term (dB/km)	0.3790temperature slope calibration	1.0000multiplexer offset coefficient	1.0000multiplexer slope coefficient	1.0000fibre end	0.00T internal ref (°C)	27.94T ext. ref 1 (°C)	3.68T ext. ref 2 (°C)	22.58length (m)	temperature (°C)	Stokes	anti-Stokes-747.200	-200.000	-0.036	0.323
-746.185	13.361	0.198	0.155
-745.171	-58.833	-0.084	-0.037
-744.156	126.483	0.135	-0.173
-743.142	-18.877	0.203	0.128
-742.127	306.524	-0.072	0.136
-741.112	105.935	0.172	-0.206
-740.098	-200.000	-0.058	0.505
-739.083	-200.000	0.040	-0.222
-738.069	9.881	-0.293	-0.225
-737.054	-153.676	-0.307	-0.021
-736.039	-99.078	-0.297	-0.076
-735.025	-200.000	-0.029	0.362
-734.010	170.141	0.205	0.297
-732.996	232.740	0.153	-0.254
-731.981	416.064	0.126	0.271
-730.966	-140.684	-0.175	-0.018
-729.952	800.000	0.086	0.292
-728.937	204.270	-0.056	-0.087
-727.923	-58.486	0.154	-0.068
-726.908	-145.037	-0.324	-0.030
-725.894	12.000	-0.093	0.072
-724.879	-37.506	0.194	0.105
-723.864	-200.000	0.008	0.038
-722.850	-200.000	-0.033	0.233
-721.835	-53.132	-0.109	0.051
-720.821	-200.000	-0.044	-0.423
-719.806	97.663	0.100	-0.117
-718.791	-23.514	0.256	0.155
-717.777	-200.000	-0.026	0.201
-716.762	800.000	0.022	0.068
-715.748	-183.044	-0.121	-0.002
-714.733	-27.267	0.091	0.053
-713.718	-200.000	-0.047	-0.346
-712.704	419.172	0.068	-0.147
-711.689	103.726	-0.148	-0.176
-710.675	800.000	-0.015	-0.043
-709.660	-53.153	0.046	0.022
-708.645	51.142	-0.078	-0.074
-707.631	-136.720	0.107	0.012
-706.616	749.597	0.119	0.326
-705.602	-147.363	0.245	-0.021
-704.587	671.788	-0.043	-0.114
-703.572	12.835	0.061	0.048
-702.558	-200.000	0.044	0.216
-701.543	83.672	0.193	-0.213
-700.529	-200.000	-0.093	-0.608
-699.514	800.000	0.076	-0.235
-698.499	-89.650	0.094	-0.028
-697.485	-159.278	-0.313	-0.018
-696.470	-69.295	-0.164	-0.063
-695.456	-48.750	0.321	-0.156
-694.441	-106.292	0.304	-0.069
-693.426	-83.065	0.268	-0.087
-692.412	800.000	-0.060	-0.174
-691.397	-55.315	0.277	0.125
-690.383	800.000	-0.051	-0.175
-689.368	-200.000	0.015	-0.213
-688.354	144.655	-0.224	0.303
-687.339	517.559	-0.103	0.244
-686.324	800.000	-0.096	-0.305
-685.310	-171.728	0.383	-0.013
-684.295	-181.345	0.025	-0.001
-683.281	-60.166	0.078	-0.034
-682.266	-34.987	-0.167	0.092
-681.251	800.000	-0.072	-0.311
-680.237	-124.201	-0.172	-0.027
-679.222	738.967	-0.071	-0.192
-678.208	-87.428	-0.231	0.071
-677.193	-184.685	0.076	0.001
-676.178	-50.293	-0.532	-0.254
-675.164	-200.000	-0.056	-0.305
-674.149	-200.000	-0.096	0.493
-673.135	425.449	-0.119	-0.258
-672.120	137.667	-0.164	-0.217
-671.105	-200.000	0.017	0.151
-670.091	37.242	-0.164	-0.147
-669.076	800.000	0.186	-0.699
-668.062	800.000	-0.093	-0.283
-667.047	-110.453	-0.338	-0.071
-666.032	-200.000	0.015	-0.158
-665.018	800.000	-0.020	0.082
-664.003	-161.982	0.263	-0.013
-662.989	432.200	0.106	0.232
-661.974	51.866	-0.233	-0.224
-660.959	483.174	0.115	-0.263
-659.945	28.639	0.304	0.260
-658.930	-152.356	0.103	0.007
-657.916	-15.142	0.207	-0.134
-656.901	145.264	-0.199	-0.269
-655.886	-200.000	-0.006	-0.142
-654.872	-21.782	0.228	-0.140
-653.857	800.000	0.066	-0.219
-652.843	-200.000	0.113	0.000
-651.828	800.000	-0.093	0.300
-650.814	-111.246	-0.205	0.042
-649.799	-200.000	-0.005	0.064
-648.784	-16.239	-0.255	0.163
-647.770	667.347	-0.081	-0.212
-646.755	105.166	0.090	0.107
-645.741	23.805	-0.307	0.255
-644.726	-200.000	0.015	-0.099
-643.711	-200.000	-0.009	0.285
-642.697	691.177	-0.055	-0.145
-641.682	-200.000	0.029	-0.193
-640.668	-26.857	0.125	0.073
-639.653	-95.874	0.366	-0.098
-638.638	-123.777	-0.332	-0.053
-637.624	-70.792	0.157	-0.060
-636.609	-200.000	0.009	-0.128
-635.595	-200.000	-0.056	0.355
-634.580	-83.800	-0.050	0.016
-633.565	7.155	0.117	0.088
-632.551	-6.620	0.030	0.021
-631.536	105.669	0.022	0.026
-630.522	-86.253	-0.133	-0.041
-629.507	16.588	-0.056	0.045
-628.492	-83.635	-0.095	0.031
-627.478	478.632	-0.105	0.239
-626.463	-200.000	-0.057	-0.261
-625.449	-41.144	-0.202	0.105
-624.434	20.924	-0.233	0.190
-623.419	15.113	0.165	0.131
-622.405	208.516	-0.087	0.138
-621.390	-200.000	0.374	0.001
-620.376	-63.329	-0.492	-0.204
-619.361	117.266	-0.162	0.200
-618.346	339.615	-0.107	0.211
-617.332	-200.000	-0.040	0.220
-616.317	294.628	0.039	-0.071
-615.303	-10.105	0.067	0.045
-614.288	800.000	0.090	0.368
-613.273	-165.417	0.223	-0.010
-612.259	11.504	-0.102	-0.079
-611.244	-68.250	0.032	-0.012
-610.230	-166.141	0.362	0.015
-609.215	-67.822	-0.173	0.068
-608.201	-115.759	0.223	0.042
-607.186	145.631	-0.071	-0.096
-606.171	132.479	-0.156	-0.203
-605.157	41.030	0.105	0.095
-604.142	32.999	0.048	0.042
-603.128	-100.396	-0.293	0.073
-602.113	593.562	-0.160	0.398
-601.098	-102.085	-0.174	-0.042
-600.084	-2.293	-0.097	-0.069
-599.069	564.826	0.070	-0.171
-598.055	-67.215	-0.072	-0.028
-597.040	166.339	0.080	-0.113
-596.025	296.141	-0.054	0.099
-595.011	329.378	0.091	0.177
-593.996	233.736	0.081	0.134
-592.982	-200.000	0.005	-0.109
-591.967	5.409	0.135	-0.100
-590.952	-50.413	-0.239	0.114
-589.938	77.432	-0.101	-0.108
-588.923	-78.362	-0.016	0.006
-587.909	-84.221	-0.206	-0.066
-586.894	-101.703	0.178	0.043
-585.879	-123.858	-0.132	-0.021
-584.865	47.699	-0.156	-0.146
-583.850	-74.552	-0.271	-0.098
-582.836	87.770	-0.074	-0.083
-581.821	-142.809	-0.242	-0.024
-580.806	-200.000	-0.034	-0.188
-579.792	-52.242	-0.558	-0.260
-578.777	75.983	0.055	0.059
-577.763	-102.781	0.129	-0.031
-576.748	163.988	0.229	-0.325
-575.733	6.006	-0.158	0.117
-574.719	-122.824	0.230	-0.037
-573.704	-200.000	-0.031	0.256
-572.690	5.710	-0.085	-0.063
-571.675	85.116	0.176	0.193
-570.661	-90.243	0.216	-0.063
-569.646	4.518	-0.277	-0.204
-568.631	74.533	-0.048	0.051
-567.617	-200.000	-0.006	-0.093
-566.602	-0.351	-0.113	-0.081
-565.588	-200.000	-0.008	-0.038
-564.573	-21.490	0.053	0.033
-563.558	-200.000	0.033	-0.145
-562.544	80.980	-0.171	-0.185
-561.529	239.933	-0.246	0.412
-560.515	-35.739	0.060	-0.033
-559.500	-140.907	0.226	-0.023
-558.485	5.347	0.278	0.206
-557.471	-200.000	-0.012	-0.062
-556.456	-200.000	-0.015	-0.113
-555.442	800.000	-0.016	-0.054
-554.427	-103.494	0.289	0.068
-553.412	-92.020	0.120	-0.034
-552.398	800.000	-0.046	0.171
-551.383	356.286	-0.094	0.187
-550.369	-152.028	-0.197	-0.014
-549.354	-200.000	0.029	0.203
-548.339	47.157	0.214	0.200
-547.325	25.956	-0.219	-0.183
-546.310	31.089	0.194	-0.167
-545.296	-82.946	0.245	-0.079
-544.281	19.919	-0.222	0.179
-543.266	40.780	0.142	-0.128
-542.252	307.947	-0.007	-0.013
-541.237	340.940	-0.142	0.279
-540.223	143.327	0.125	-0.167
-539.208	-13.113	-0.295	-0.193
-538.193	42.449	0.047	0.042
-537.179	135.187	0.064	0.084
-536.164	-200.000	-0.021	-0.108
-535.150	-145.113	-0.170	-0.016
-534.135	9.577	-0.105	0.080
-533.121	225.941	0.162	-0.264
-532.106	146.782	0.188	-0.253
-531.091	-124.744	0.108	-0.017
-530.077	-64.192	0.167	0.068
-529.062	-154.267	0.268	0.018
-528.048	800.000	0.029	-0.088
-527.033	-128.925	0.129	-0.018
-526.018	111.139	-0.222	0.268
-525.004	75.343	0.281	-0.297
-523.989	181.430	-0.150	-0.222
-522.975	-132.719	-0.338	0.043
-521.960	181.753	-0.051	0.075
-520.945	-142.558	0.011	0.001
-519.931	164.573	0.170	-0.241
-518.916	-118.241	0.219	0.039
-517.902	-200.000	-0.045	-0.198
-516.887	-136.106	-0.131	-0.015
-515.872	-84.897	-0.391	-0.123
-514.858	-142.501	0.219	0.022
-513.843	800.000	-0.131	-0.370
-512.829	-57.106	-0.062	-0.027
-511.814	225.516	0.040	0.064
-510.799	260.540	0.137	-0.237
-509.785	-119.365	0.408	-0.071
-508.770	-66.312	-0.319	0.127
-507.756	210.773	0.153	-0.241
-506.741	-41.891	-0.205	-0.105
-505.726	-100.534	0.255	-0.063
-504.712	249.792	0.008	0.014
-503.697	-69.756	0.407	0.156
-502.683	365.950	0.016	0.032
-501.668	-200.000	-0.017	-0.312
-500.653	-200.000	-0.004	-0.018
-499.639	-110.398	0.145	0.030
-498.624	-42.475	0.193	0.099
-497.610	457.115	-0.195	-0.434
-496.595	-58.067	-0.166	-0.072
-495.581	170.820	-0.085	0.121
-494.566	-164.213	-0.179	-0.008
-493.551	-200.000	-0.014	0.114
-492.537	-200.000	-0.008	0.061
-491.522	-133.330	0.210	0.026
-490.508	-52.864	-0.290	-0.134
-489.493	-200.000	0.020	0.266
-488.478	800.000	0.036	0.143
-487.464	-38.937	0.228	-0.120
-486.449	800.000	0.109	0.330
-485.435	-200.000	0.014	0.237
-484.420	435.182	0.078	-0.170
-483.405	221.484	-0.121	0.195
-482.391	79.243	-0.151	-0.162
-481.376	-53.893	0.049	0.022
-480.362	-59.690	0.298	0.128
-479.347	-70.677	-0.399	0.151
-478.332	-11.867	0.218	0.143
-477.318	22.220	0.240	0.197
-476.303	-48.558	0.240	-0.116
-475.289	88.574	-0.100	-0.112
-474.274	-178.529	-0.139	-0.003
-473.259	93.017	-0.039	-0.044
-472.245	800.000	0.085	0.299
-471.230	-105.670	0.253	-0.057
-470.216	-100.709	-0.162	0.040
-469.201	514.345	0.009	-0.022
-468.186	354.646	-0.180	-0.358
-467.172	16.194	-0.129	-0.102
-466.157	-102.300	0.129	0.031
-465.143	106.619	0.084	0.099
-464.128	-200.000	0.007	-0.063
-463.113	-13.669	0.382	0.247
-462.099	253.472	0.092	-0.157
-461.084	289.195	-0.080	-0.146
-460.070	-200.000	-0.001	-0.693
-459.055	-60.476	0.207	0.088
-458.040	800.000	-0.029	-0.091
-457.026	800.000	0.030	-0.114
-456.011	-146.686	0.295	0.026
-454.997	296.693	-0.027	0.050
-453.982	-11.908	-0.154	0.101
-452.968	-200.000	0.030	-0.165
-451.953	-64.646	-0.291	0.118
-450.938	-128.908	0.087	0.012
-449.924	-169.945	0.221	0.008
-448.909	800.000	-0.083	0.254
-447.895	-200.000	0.049	0.281
-446.880	149.373	-0.127	-0.172
-445.865	42.825	-0.197	0.179
-444.851	-68.712	0.067	0.026
-443.836	-109.619	0.188	-0.040
-442.822	73.958	-0.014	0.014
-441.807	-200.000	-0.001	0.182
-440.792	400.351	-0.060	0.126
-439.778	800.000	0.094	0.273
-438.763	-51.018	-0.201	-0.094
-437.749	-68.394	-0.137	-0.053
-436.734	800.000	-0.038	0.111
-435.719	-70.497	-0.127	0.048
-434.705	59.328	0.279	-0.275
-433.690	-126.076	-0.071	-0.011
-432.676	-5.886	-0.102	-0.070
-431.661	-6.252	0.433	0.295
-430.646	-12.024	-0.169	0.111
-429.632	-200.000	0.005	-0.044
-428.617	-81.061	0.131	-0.043
-427.603	-48.924	0.175	-0.084
-426.588	-200.000	-0.001	-0.125
-425.573	800.000	-0.087	0.277
-424.559	-51.256	-0.207	0.097
-423.544	-200.000	0.022	-0.248
-422.530	800.000	-0.035	0.121
-421.515	-200.000	0.006	-0.152
-420.500	636.343	0.167	0.423
-419.486	322.523	0.061	0.116
-418.471	387.692	-0.024	0.049
-417.457	160.010	0.071	-0.099
-416.442	-168.700	-0.334	-0.013
-415.428	-200.000	0.006	0.145
-414.413	800.000	0.056	-0.215
-413.398	735.403	-0.058	0.155
-412.384	-137.167	-0.093	0.011
-411.369	800.000	0.014	0.038
-410.355	204.835	-0.216	0.335
-409.340	10.739	0.122	-0.093
-408.325	-85.665	-0.190	-0.059
-407.311	-200.000	-0.022	-0.112
-406.296	54.173	-0.203	-0.195
-405.282	-89.892	0.076	0.022
-404.267	14.680	-0.180	0.140
-403.252	-74.822	-0.299	0.107
-402.238	409.518	0.032	-0.067
-401.223	265.498	0.077	0.134
-400.209	800.000	0.063	0.228
-399.194	800.000	0.071	-0.228
-398.179	257.044	-0.058	-0.100
-397.165	-113.948	-0.201	-0.039
-396.150	300.885	-0.037	0.069
-395.136	654.963	-0.170	0.436
-394.121	189.760	0.125	0.188
-393.106	-17.053	-0.319	-0.201
-392.092	6.094	0.181	-0.134
-391.077	97.924	0.145	-0.166
-390.063	-15.408	0.229	-0.146
-389.048	-175.843	0.299	-0.008
-388.033	51.611	-0.149	0.141
-387.019	-33.838	0.437	0.240
-386.004	-0.565	-0.178	0.126
-384.990	-134.603	-0.286	-0.035
-383.975	-133.722	0.307	-0.038
-382.960	-140.173	0.097	0.010
-381.946	295.822	-0.234	-0.427
-380.931	800.000	-0.086	0.258
-379.917	149.826	-0.077	0.104
-378.902	-53.596	-0.126	0.057
-377.888	-200.000	-0.012	0.149
-376.873	-58.631	0.103	0.044
-375.858	69.753	-0.060	-0.061
-374.844	7.926	-0.065	0.049
-373.829	-140.920	-0.087	-0.009
-372.815	800.000	0.028	-0.115
-371.800	102.200	0.020	-0.023
-370.785	-121.378	-0.160	0.027
-369.771	19.896	-0.172	0.139
-368.756	138.237	-0.170	-0.223
-367.742	-200.000	0.035	-0.296
-366.727	-134.524	0.189	-0.023
-365.712	145.469	0.053	0.071
-364.698	448.768	-0.003	0.007
-363.683	135.971	-0.202	-0.263
-362.669	-167.216	-0.245	-0.010
-361.654	-88.866	-0.492	0.145
-360.639	325.704	0.078	0.149
-359.625	-25.881	-0.046	0.027
-358.610	800.000	-0.096	-0.362
-357.596	-59.209	0.012	0.005
-356.581	221.547	-0.273	0.437
-355.566	56.246	0.105	-0.102
-354.552	-103.199	-0.151	0.036
-353.537	48.265	-0.131	0.122
-352.523	-50.757	0.242	-0.114
-351.508	800.000	0.087	-0.247
-350.493	-200.000	0.042	0.203
-349.479	-200.000	0.057	-0.266
-348.464	531.212	-0.044	0.103
-347.450	324.301	0.150	0.285
-346.435	-130.841	-0.351	0.047
-345.420	-32.008	0.119	0.066
-344.406	-32.078	0.139	0.078
-343.391	-10.956	-0.223	0.147
-342.377	132.144	0.224	-0.287
-341.362	41.533	0.149	-0.134
-340.348	358.074	-0.067	-0.134
-339.333	-149.659	0.276	-0.022
-338.318	60.522	0.079	-0.078
-337.304	-200.000	0.009	-0.129
-336.289	-133.486	0.249	-0.031
-335.275	60.730	0.062	0.061
-334.260	-200.000	-0.025	-0.285
-333.245	800.000	0.065	-0.225
-332.231	-51.769	-0.083	-0.038
-331.216	-200.000	0.066	0.335
-330.202	800.000	0.067	-0.258
-329.187	179.989	0.204	0.297
-328.172	553.063	0.019	-0.046
-327.158	800.000	0.024	0.093
-326.143	203.673	-0.205	0.316
-325.129	-22.616	0.177	-0.106
-324.114	-57.648	0.226	0.098
-323.099	138.328	-0.195	0.255
-322.085	-140.485	-0.272	-0.028
-321.070	-173.050	0.056	0.002
-320.056	-200.000	-0.083	-0.497
-319.041	-200.000	0.040	0.338
-318.026	83.167	0.161	-0.175
-317.012	589.337	0.187	-0.459
-315.997	-112.738	0.113	0.022
-314.983	-54.603	0.236	0.106
-313.968	-8.595	-0.171	-0.114
-312.953	23.485	0.160	-0.131
-311.939	-47.046	-0.260	0.126
-310.924	-175.901	0.054	0.001
-309.910	94.919	-0.252	0.285
-308.895	262.658	0.078	-0.134
-307.880	-102.626	-0.056	0.013
-306.866	108.018	-0.015	-0.018
-305.851	-177.663	-0.115	-0.003
-304.837	-68.199	-0.035	-0.014
-303.822	-114.645	0.230	-0.044
-302.807	214.543	0.027	-0.043
-301.793	170.303	-0.048	0.068
-300.778	-122.865	-0.197	-0.032
-299.764	71.603	0.203	0.209
-298.749	-100.461	-0.318	-0.078
-297.735	60.806	-0.215	-0.212
-296.720	-145.890	0.214	0.019
-295.705	-200.000	-0.004	-0.073
-294.691	176.458	0.182	-0.263
-293.676	800.000	-0.023	-0.096
-292.662	-200.000	0.005	-0.049
-291.647	678.088	-0.040	0.102
-290.632	374.719	0.211	0.427
-289.618	-200.000	-0.013	-0.107
-288.603	-151.233	0.053	0.004
-287.589	-72.139	0.316	0.117
-286.574	-27.079	0.076	-0.044
-285.559	800.000	0.043	0.142
-284.545	800.000	-0.096	-0.305
-283.530	-17.291	0.145	0.091
-282.516	-99.266	0.060	0.015
-281.501	353.297	0.129	-0.255
-280.486	-34.656	0.288	0.156
-279.472	800.000	0.100	0.283
-278.457	82.544	-0.196	-0.211
-277.443	-200.000	-0.001	-0.215
-276.428	800.000	0.017	0.066
-275.413	-200.000	-0.011	0.090
-274.399	12.028	-0.272	-0.208
-273.384	-76.685	0.205	0.071
-272.370	9.387	0.126	-0.094
-271.355	49.927	0.203	-0.190
-270.340	203.060	-0.215	-0.330
-269.326	340.109	-0.117	-0.227
-268.311	-70.019	-0.130	-0.049
-267.297	-117.259	0.366	0.066
-266.282	298.155	-0.072	0.131
-265.267	474.320	0.043	0.097
-264.253	159.204	-0.217	0.300
-263.238	-171.317	0.306	-0.010
-262.224	-104.765	-0.181	0.041
-261.209	495.426	-0.032	0.074
-260.195	-102.714	0.151	0.036
-259.180	-51.505	0.154	0.071
-258.165	-117.936	-0.095	-0.017
-257.151	55.849	-0.120	-0.116
-256.136	67.345	-0.052	0.053
-255.122	-153.151	0.185	-0.013
-254.107	774.985	-0.023	-0.062
-253.092	-83.502	0.178	0.057
-252.078	433.449	0.196	0.422
-251.063	391.964	0.133	0.275
-250.049	-170.937	-0.462	0.016
-249.034	-45.287	-0.117	0.057
-248.019	-68.323	-0.319	0.123
-247.005	-163.373	0.333	0.016
-245.990	-95.892	-0.093	-0.025
-244.976	31.649	0.224	-0.191
-243.961	-200.000	0.032	-0.412
-242.946	205.002	-0.091	-0.141
-241.932	-133.393	0.092	-0.011
-240.917	23.311	0.361	-0.295
-239.903	-200.000	-0.031	0.188
-238.888	-123.454	0.255	-0.040
-237.873	-200.000	0.000	0.119
-236.859	-200.000	-0.027	0.238
-235.844	37.089	-0.229	-0.201
-234.830	64.834	-0.092	-0.092
-233.815	64.719	0.096	-0.097
-232.800	526.117	-0.055	0.129
-231.786	160.456	0.045	-0.063
-230.771	-200.000	-0.011	0.205
-229.757	37.886	-0.290	-0.255
-228.742	676.882	0.037	0.095
-227.727	-58.003	0.137	-0.059
-226.713	800.000	-0.031	-0.089
-225.698	-50.110	-0.111	-0.052
-224.684	309.258	-0.075	-0.139
-223.669	-123.240	-0.064	-0.010
-222.655	281.752	0.246	-0.436
-221.640	-200.000	0.025	-0.172
-220.625	62.374	0.114	0.113
-219.611	137.394	0.088	-0.114
-218.596	-9.990	-0.129	-0.085
-217.582	-200.000	-0.001	0.218
-216.567	-200.000	-0.002	0.114
-215.552	105.499	0.315	0.369
-214.538	11.629	-0.206	-0.157
-213.523	-90.642	0.260	0.075
-212.509	181.331	0.125	-0.182
-211.494	800.000	0.047	0.130
-210.479	127.393	0.244	0.307
-209.465	-17.088	-0.165	-0.103
-208.450	-89.896	0.277	0.080
-207.436	-200.000	0.001	0.297
-206.421	-86.206	-0.078	-0.024
-205.406	-40.581	-0.088	-0.045
-204.392	-25.413	0.204	0.119
-203.377	800.000	-0.049	-0.199
-202.363	312.517	-0.008	0.015
-201.348	118.108	0.154	-0.189
-200.333	-1.767	0.159	0.111
-199.319	129.128	-0.131	-0.165
-198.304	-127.364	0.102	-0.015
-197.290	-64.421	-0.342	-0.138
-196.275	85.829	-0.126	-0.137
-195.260	-165.117	-0.214	-0.009
-194.246	45.931	-0.354	0.324
-193.231	-89.506	0.113	0.033
-192.217	-200.000	0.045	-0.290
-191.202	-90.848	-0.216	-0.062
-190.187	-200.000	0.089	-0.435
-189.173	410.354	-0.141	0.296
-188.158	800.000	-0.051	0.157
-187.144	-1.381	-0.263	0.183
-186.129	800.000	-0.044	-0.122
-185.114	53.445	-0.151	0.143
-184.100	-103.519	0.161	0.037
-183.085	198.634	-0.069	0.104
-182.071	-23.160	-0.069	0.041
-181.056	800.000	0.016	0.066
-180.042	3.505	0.085	-0.061
-179.027	-104.709	0.259	0.059
-178.012	800.000	0.121	-0.386
-176.998	-200.000	-0.015	-0.213
-175.983	327.776	-0.091	-0.173
-174.969	264.721	0.061	0.105
-173.954	-200.000	0.008	-0.056
-172.939	-138.920	0.141	-0.015
-171.925	-200.000	-0.063	0.567
-170.910	-38.077	0.228	0.120
-169.896	12.409	-0.222	0.169
-168.881	-76.233	-0.159	0.055
-167.866	-120.153	0.255	-0.043
-166.852	-113.918	0.335	-0.064
-165.837	-10.193	-0.291	0.191
-164.823	44.467	0.143	0.130
-163.808	-200.000	0.057	-0.342
-162.793	800.000	-0.044	-0.171
-161.779	0.945	-0.160	-0.114
-160.764	-39.577	-0.191	0.099
-159.750	-39.984	0.235	0.121
-158.735	-200.000	0.001	0.114
-157.720	358.410	0.190	0.374
-156.706	-32.001	0.238	0.132
-155.691	105.206	-0.134	0.156
-154.677	72.947	-0.401	-0.414
-153.662	197.174	0.055	-0.083
-152.647	800.000	0.038	-0.118
-151.633	-133.044	-0.283	0.035
-150.618	427.704	-0.100	-0.213
-149.604	509.082	0.108	0.249
-148.589	-39.583	0.094	0.049
-147.574	629.054	0.049	0.122
-146.560	-200.000	0.047	-0.214
-145.545	-86.821	0.162	-0.049
-144.531	79.172	-0.280	0.296
-143.516	447.054	0.047	-0.103
-142.502	4.724	-0.086	-0.063
-141.487	-76.770	-0.338	-0.117
-140.472	-200.000	-0.051	0.230
-139.458	337.539	-0.050	-0.095
-138.443	21.827	0.064	0.052
-137.429	-200.000	0.014	-0.096
-136.414	309.326	0.113	-0.209
-135.399	800.000	0.035	0.141
-134.385	700.403	0.039	0.103
-133.370	324.820	-0.226	0.427
-132.356	800.000	-0.017	0.057
-131.341	683.925	0.226	0.582
-130.326	-94.212	-0.291	0.079
-129.312	0.574	-0.019	0.013
-128.297	-200.000	0.038	0.227
-127.283	-127.465	0.147	0.021
-126.268	-72.731	-0.256	0.093
-125.253	-100.334	0.218	-0.053
-124.239	141.394	0.186	-0.243
-123.224	163.234	-0.139	-0.193
-122.210	39.077	0.440	0.389
