DTS Sentinel unit serial number:	SN413079Multiplexer serial number:	ORYXHardware model number:	OX4-SRSoftware version number:	ORYX F/W v4.00 Oryx Data Collector v3.7.2.0data status	okinstallation	princeton_trtdifferential loss correction	single-endedforward channel	channel 4reverse channel	N/Adate	2019/09/14time	10:45:34forward acquisition time	60.00reverse acquisition time	0.00gamma	496.2192k internal	0.2296k external	0.2296temperature offset calibration	1.0149default loss term (dB/km)	0.3790temperature slope calibration	1.0000multiplexer offset coefficient	1.0000multiplexer slope coefficient	1.0000fibre end	0.00T internal ref (°C)	35.44T ext. ref 1 (°C)	4.28T ext. ref 2 (°C)	32.63length (m)	temperature (°C)	Stokes	anti-Stokes-747.200	-108.055	-0.271	-0.060
-746.185	800.000	0.046	0.163
-745.171	398.791	-0.090	0.192
-744.156	-200.000	0.005	-0.175
-743.142	800.000	0.046	-0.162
-742.127	-140.490	-0.508	0.054
-741.112	-13.199	0.105	-0.070
-740.098	800.000	-0.136	0.598
-739.083	2.852	0.202	-0.150
-738.069	-35.092	-0.233	-0.130
-737.054	-19.964	-0.088	-0.055
-736.039	-64.639	0.240	-0.099
-735.025	-181.234	0.190	0.004
-734.010	295.494	-0.089	-0.167
-732.996	800.000	0.038	-0.114
-731.981	-99.180	-0.571	0.147
-730.966	-128.535	0.154	0.022
-729.952	800.000	-0.133	-0.419
-728.937	-141.285	0.140	0.015
-727.923	-72.692	0.215	-0.081
-726.908	-200.000	-0.010	-0.056
-725.894	-200.000	0.033	0.337
-724.879	-90.280	-0.143	0.043
-723.864	-189.132	-0.100	0.001
-722.850	-20.888	-0.111	0.069
-721.835	-82.645	0.298	0.099
-720.821	-36.036	-0.196	0.108
-719.806	-160.530	-0.035	-0.002
-718.791	-59.781	-0.223	-0.097
-717.777	-79.286	0.098	-0.034
-716.762	-104.262	0.283	0.067
-715.748	724.215	0.070	-0.191
-714.733	800.000	0.067	-0.280
-713.718	588.170	-0.234	0.588
-712.704	-177.392	-0.153	0.004
-711.689	22.743	0.110	0.092
-710.675	800.000	0.011	0.047
-709.660	-200.000	-0.019	0.228
-708.645	99.348	-0.090	-0.107
-707.631	17.750	0.179	-0.145
-706.616	138.006	0.430	-0.575
-705.602	432.739	-0.121	0.268
-704.587	776.894	-0.090	0.250
-703.572	-200.000	0.013	0.118
-702.558	191.904	0.072	-0.111
-701.543	-46.645	0.098	0.049
-700.529	-99.185	-0.164	-0.042
-699.514	-200.000	-0.020	0.231
-698.499	800.000	0.053	0.163
-697.485	-131.755	0.137	0.018
-696.470	-40.670	-0.152	-0.080
-695.456	-33.540	0.076	0.043
-694.441	800.000	-0.125	0.462
-693.426	-20.443	0.366	0.229
-692.412	-200.000	-0.024	-0.139
-691.397	-0.433	-0.142	0.103
-690.383	-24.159	-0.138	0.084
-689.368	140.123	0.040	-0.053
-688.354	-131.748	-0.280	0.037
-687.339	800.000	-0.099	-0.289
-686.324	62.997	-0.056	-0.057
-685.310	-190.726	0.188	-0.002
-684.295	-99.873	0.220	0.056
-683.281	120.192	0.059	0.075
-682.266	118.187	0.042	0.053
-681.251	-99.268	-0.260	-0.067
-680.237	-53.679	0.346	-0.161
-679.222	358.975	0.127	-0.258
-678.208	-200.000	0.009	-0.071
-677.193	96.951	-0.155	0.181
-676.178	330.743	0.080	0.156
-675.164	26.382	-0.170	-0.145
-674.149	25.199	-0.128	-0.109
-673.135	76.112	0.277	0.299
-672.120	800.000	0.102	-0.294
-671.105	-101.084	-0.280	0.070
-670.091	800.000	-0.028	-0.084
-669.076	-129.501	-0.338	0.048
-668.062	-89.118	-0.249	0.075
-667.047	800.000	0.088	0.257
-666.032	69.173	-0.352	-0.369
-665.018	-18.072	-0.349	-0.223
-664.003	60.452	-0.099	0.100
-662.989	37.789	0.144	0.130
-661.974	669.851	-0.128	0.338
-660.959	-144.921	-0.223	-0.021
-659.945	-83.010	-0.136	-0.045
-658.930	-151.128	0.123	0.009
-657.916	616.861	-0.139	0.356
-656.901	-6.645	-0.217	0.150
-655.886	800.000	-0.064	0.220
-654.872	-24.216	-0.142	0.086
-653.857	41.177	-0.102	-0.094
-652.843	1.634	-0.183	-0.134
-651.828	108.886	-0.128	-0.155
-650.814	-103.889	-0.273	0.065
-649.799	-200.000	0.006	0.093
-648.784	76.313	-0.118	-0.127
-647.770	-61.281	-0.188	-0.081
-646.755	-200.000	-0.048	-0.296
-645.741	421.729	0.037	0.080
-644.726	110.331	0.045	0.055
-643.711	357.137	0.118	-0.239
-642.697	-80.470	-0.194	0.066
-641.682	-144.400	0.271	0.026
-640.668	279.079	-0.201	-0.365
-639.653	343.482	0.140	-0.279
-638.638	-200.000	0.011	-0.208
-637.624	-103.565	0.187	-0.045
-636.609	-86.717	0.106	-0.033
-635.595	380.954	0.071	0.149
-634.580	-200.000	-0.025	0.162
-633.565	-101.856	0.174	-0.043
-632.551	-15.462	0.320	-0.208
-631.536	-4.577	0.427	0.300
-630.522	-142.032	-0.112	0.011
-629.507	365.384	-0.089	0.182
-628.492	25.821	0.343	0.291
-627.478	-92.444	-0.299	0.086
-626.463	226.190	-0.034	0.056
-625.449	107.994	-0.051	0.062
-624.434	-132.366	-0.227	0.030
-623.419	570.382	0.052	-0.128
-622.405	-172.668	0.210	0.007
-621.390	-200.000	-0.008	0.220
-620.376	-197.388	0.112	-0.001
-619.361	-85.486	-0.260	-0.082
-618.346	800.000	-0.120	0.452
-617.332	74.308	-0.180	-0.192
-616.317	101.894	-0.063	0.074
-615.303	201.257	-0.219	-0.342
-614.288	-200.000	-0.029	0.172
-613.273	362.454	-0.108	-0.221
-612.259	-200.000	0.099	0.446
-611.244	800.000	0.078	0.288
-610.230	41.953	0.067	0.062
-609.215	307.125	-0.078	0.147
-608.201	12.302	-0.139	-0.109
-607.186	-101.562	-0.307	0.076
-606.171	-200.000	-0.010	-0.480
-605.157	-200.000	0.010	0.183
-604.142	800.000	0.085	-0.256
-603.128	-77.779	-0.345	-0.121
-602.113	15.407	-0.121	-0.096
-601.098	177.648	-0.097	0.143
-600.084	-200.000	-0.011	0.205
-599.069	800.000	0.049	-0.150
-598.055	161.635	0.109	0.156
-597.040	-67.996	-0.080	0.032
-596.025	-198.123	-0.194	-0.001
-595.011	41.296	0.016	0.015
-593.996	-28.248	0.281	0.165
-592.982	3.475	-0.157	0.116
-591.967	-200.000	0.006	0.091
-590.952	373.830	-0.136	-0.282
-589.938	-41.575	-0.251	0.131
-588.923	-34.879	0.282	-0.156
-587.909	-200.000	-0.065	0.376
-586.894	-19.954	0.293	0.184
-585.879	55.555	-0.131	-0.128
-584.865	394.537	0.105	0.222
-583.850	-200.000	-0.009	0.224
-582.836	-200.000	0.034	0.286
-581.821	-107.372	0.311	0.069
-580.806	-90.423	-0.152	-0.045
-579.792	18.384	-0.442	-0.359
-578.777	484.784	-0.091	-0.211
-577.763	-136.371	0.319	0.038
-576.748	-115.326	-0.333	-0.064
-575.733	800.000	0.073	-0.244
-574.719	284.502	-0.088	-0.160
-573.704	-200.000	0.045	-0.320
-572.690	171.227	-0.142	-0.207
-571.675	139.957	-0.074	0.098
-570.661	800.000	0.088	0.351
-569.646	-36.736	0.153	-0.083
-568.631	-136.873	0.263	0.031
-567.617	-24.585	0.240	0.145
-566.602	-59.463	0.083	-0.036
-565.588	-200.000	0.019	0.150
-564.573	-148.546	0.374	0.031
-563.558	98.080	-0.252	-0.294
-562.544	194.487	0.069	-0.106
-561.529	206.827	-0.059	0.093
-560.515	178.045	-0.058	-0.085
-559.500	-103.756	0.127	0.030
-558.485	266.872	0.112	-0.199
-557.471	-145.222	0.105	0.010
-556.456	191.272	0.090	-0.138
-555.442	-29.425	-0.158	-0.092
-554.427	-107.597	-0.171	-0.038
-553.412	79.241	0.262	0.284
-552.398	676.953	0.148	-0.391
-551.383	-128.653	-0.178	0.026
-550.369	-200.000	0.019	-0.145
-549.354	-200.000	-0.194	-0.000
-548.339	-79.074	0.470	0.162
-547.325	600.211	0.166	-0.419
-546.310	731.996	-0.059	0.160
-545.296	-101.322	-0.153	0.038
-544.281	800.000	0.110	0.359
-543.266	142.878	-0.191	0.258
-542.252	-200.000	-0.037	0.263
-541.237	-51.971	-0.080	0.038
-540.223	-200.000	0.005	0.108
-539.208	648.908	-0.124	0.322
-538.193	-114.195	-0.083	-0.016
-537.179	-52.039	0.214	0.101
-536.164	-133.303	-0.075	-0.010
-535.150	-64.601	0.218	0.090
-534.135	137.548	0.185	0.246
-533.121	-200.000	0.000	0.153
-532.106	-141.566	0.303	-0.031
-531.091	73.051	0.122	0.129
-530.077	-117.173	0.186	0.034
-529.062	-59.720	-0.216	0.094
-528.048	142.292	-0.058	-0.078
-527.033	39.139	-0.132	-0.120
-526.018	173.671	0.136	0.199
-525.004	401.227	0.136	-0.290
-523.989	-199.412	0.393	-0.002
-522.975	-200.000	-0.023	-0.120
-521.960	800.000	-0.029	0.110
-520.945	2.427	0.383	-0.281
-519.931	-200.000	-0.029	-0.248
-518.916	-132.626	-0.178	0.023
-517.902	-65.124	-0.153	0.063
-516.887	-25.934	0.204	-0.122
-515.872	-200.000	0.004	0.235
-514.858	-5.640	-0.244	-0.170
-513.843	143.985	-0.148	-0.200
-512.829	26.884	0.107	-0.091
-511.814	800.000	-0.136	0.385
-510.799	-41.224	0.259	0.136
-509.785	-25.088	-0.447	0.268
-508.770	85.503	0.413	-0.459
-507.756	27.370	-0.129	-0.110
-506.741	-16.548	0.215	-0.138
-505.726	800.000	0.041	-0.128
-504.712	-7.948	-0.331	0.226
-503.697	-200.000	0.012	0.106
-502.683	-200.000	-0.048	-0.313
-501.668	-40.050	0.246	0.130
-500.653	-62.688	-0.377	0.158
-499.639	-200.000	-0.041	-0.201
-498.624	-130.040	0.287	0.040
-497.610	-33.303	0.063	-0.035
-496.595	-96.234	0.034	-0.009
-495.581	-200.000	-0.034	0.406
-494.566	-128.338	-0.123	-0.018
-493.551	283.950	-0.068	-0.123
-492.537	75.293	-0.081	0.086
-491.522	284.908	-0.085	0.156
-490.508	-24.474	0.299	-0.180
-489.493	-121.507	0.255	0.043
-488.478	-68.019	0.393	-0.155
-487.464	-131.513	-0.073	0.010
-486.449	-200.000	-0.024	-0.165
-485.435	-200.000	-0.042	-0.261
-484.420	-60.285	0.105	0.045
-483.405	-200.000	-0.068	0.321
-482.391	-129.225	-0.298	0.042
-481.376	43.025	0.418	-0.386
-480.362	73.535	-0.287	-0.304
-479.347	113.008	0.193	-0.237
-478.332	41.409	-0.090	-0.082
-477.318	129.874	-0.172	-0.223
-476.303	-92.757	0.100	0.028
-475.289	48.740	-0.164	-0.156
-474.274	-200.000	0.007	-0.406
-473.259	94.568	-0.175	-0.201
-472.245	4.773	0.278	-0.207
-471.230	-71.251	-0.441	0.167
-470.216	98.369	-0.034	-0.039
-469.201	-55.771	0.204	-0.092
-468.186	-200.000	0.034	0.284
-467.172	91.886	-0.215	0.245
-466.157	336.288	-0.028	-0.054
-465.143	-26.263	-0.115	-0.068
-464.128	-152.973	-0.046	0.003
-463.113	412.761	-0.028	0.061
-462.099	800.000	0.089	-0.345
-461.084	-122.884	-0.098	-0.016
-460.070	163.777	-0.131	0.186
-459.055	260.220	0.073	-0.128
-458.040	369.366	0.125	0.255
-457.026	-99.803	-0.026	-0.007
-456.011	-71.202	-0.301	-0.114
-454.997	-200.000	-0.042	0.203
-453.982	-24.118	0.069	0.042
-452.968	-200.000	-0.004	-0.183
-451.953	136.980	0.148	0.195
-450.938	148.032	-0.115	-0.157
-449.924	-200.000	-0.014	0.246
-448.909	580.145	-0.050	0.123
-447.895	172.798	0.077	0.112
-446.880	270.608	-0.130	0.231
-445.865	-125.963	-0.186	0.028
-444.851	-130.807	-0.175	0.024
-443.836	-200.000	0.075	0.472
-442.822	800.000	0.100	-0.323
-441.807	0.270	-0.305	0.220
-440.792	-62.376	0.272	0.114
-439.778	-101.268	-0.062	0.015
-438.763	6.368	-0.039	-0.029
-437.749	230.018	0.253	-0.417
-436.734	291.681	-0.092	0.169
-435.719	638.078	0.062	-0.160
-434.705	-23.747	0.237	0.144
-433.690	647.752	0.126	0.326
-432.676	-200.000	0.061	-0.357
-431.661	191.590	-0.043	0.066
-430.646	51.623	0.161	0.155
-429.632	-42.255	-0.133	0.068
-428.617	182.105	0.069	-0.103
-427.603	-200.000	0.011	0.304
-426.588	-155.060	0.159	0.011
-425.573	-18.746	-0.114	0.072
-424.559	-200.000	0.022	-0.145
-423.544	-69.085	0.310	0.121
-422.530	1.630	0.182	-0.132
-421.515	-153.934	0.124	-0.009
-420.500	800.000	-0.048	0.143
-419.486	-82.602	-0.328	-0.107
-418.471	91.919	-0.271	0.308
-417.457	154.451	0.080	0.110
-416.442	-35.366	0.117	-0.064
-415.428	111.937	0.088	-0.107
-414.413	-42.792	0.252	-0.129
-413.398	387.552	-0.051	0.106
-412.384	540.930	0.129	-0.310
-411.369	-90.209	-0.199	0.058
-410.355	-52.724	0.044	-0.020
-409.340	153.951	-0.162	-0.225
-408.325	-200.000	0.026	-0.216
-407.311	-47.401	0.047	-0.023
-406.296	-117.842	0.211	-0.038
-405.282	-200.000	-0.020	-0.281
-404.267	-200.000	0.043	0.349
-403.252	-200.000	0.048	0.447
-402.238	-200.000	0.019	-0.115
-401.223	-64.639	-0.286	0.117
-400.209	-125.985	-0.266	-0.040
-399.194	28.740	0.252	-0.215
-398.179	800.000	0.085	-0.314
-397.165	268.834	0.035	-0.063
-396.150	735.953	-0.034	-0.091
-395.136	-200.000	-0.035	0.269
-394.121	2.632	-0.211	0.154
-393.106	149.887	0.200	0.273
-392.092	800.000	0.089	-0.353
-391.077	-119.579	0.127	-0.022
-390.063	-200.000	-0.012	0.161
-389.048	-85.213	0.113	0.036
-388.033	-54.106	0.037	0.017
-387.019	-19.938	-0.211	-0.131
-386.004	800.000	-0.072	-0.314
-384.990	-55.420	0.311	0.140
-383.975	327.004	0.020	-0.039
-382.960	230.868	-0.042	0.069
-381.946	-127.618	0.228	0.033
-380.931	-44.857	0.204	-0.102
-379.917	-92.516	0.149	-0.042
-378.902	274.758	-0.101	0.180
-377.888	125.926	0.176	0.224
-376.873	-146.558	0.279	-0.024
-375.858	56.649	0.073	-0.071
-374.844	-138.587	-0.288	-0.032
-373.829	800.000	-0.090	0.273
-372.815	669.754	0.140	0.365
-371.800	383.033	0.098	0.204
-370.785	-21.470	-0.264	0.162
-369.771	-29.241	0.317	-0.183
-368.756	-50.533	-0.124	-0.059
-367.742	282.924	0.198	-0.358
-366.727	641.084	0.088	-0.226
-365.712	-200.000	0.027	-0.368
-364.698	478.946	-0.019	0.044
-363.683	-177.093	-0.159	-0.004
-362.669	-96.848	-0.187	0.049
-361.654	541.802	0.075	0.180
-360.639	41.241	-0.394	0.359
-359.625	800.000	0.017	0.055
-358.610	-12.969	-0.275	0.180
-357.596	749.837	-0.030	-0.081
-356.581	54.044	0.174	-0.168
-355.566	-117.614	0.056	0.010
-354.552	-71.596	-0.296	-0.111
-353.537	61.649	-0.064	0.064
-352.523	180.009	0.104	-0.154
-351.508	-128.914	0.212	-0.030
-350.493	-130.465	0.214	-0.029
-349.479	158.312	0.106	0.149
-348.464	4.418	-0.052	-0.038
-347.450	800.000	0.015	0.054
-346.435	271.473	-0.143	0.254
-345.420	-100.223	-0.049	-0.012
-344.406	800.000	-0.021	0.081
-343.391	274.264	0.129	-0.229
-342.377	111.696	0.209	-0.253
-341.362	28.818	0.149	-0.127
-340.348	278.882	-0.168	-0.302
-339.333	61.336	-0.140	0.140
-338.318	-200.000	0.039	-0.254
-337.304	500.058	0.049	0.113
-336.289	-21.213	0.420	-0.258
-335.275	-200.000	-0.058	-0.271
-334.260	-163.641	0.051	0.002
-333.245	-140.547	0.200	-0.021
-332.231	-176.631	-0.179	0.005
-331.216	-200.000	0.014	-0.115
-330.202	206.286	0.250	-0.391
-329.187	-87.873	-0.251	0.076
-328.172	65.120	0.127	0.129
-327.158	-81.816	0.191	-0.063
-326.143	19.161	0.240	0.194
-325.129	-7.761	-0.057	0.039
-324.114	-93.053	0.232	0.065
-323.099	-77.150	-0.157	0.055
-322.085	123.249	-0.054	-0.069
-321.070	-44.705	0.186	-0.093
-320.056	-200.000	-0.028	0.168
-319.041	7.277	-0.087	0.066
-318.026	800.000	-0.080	-0.223
-317.012	-12.532	0.108	-0.071
-315.997	-12.073	0.195	-0.128
-314.983	-132.195	0.196	0.025
-313.968	189.178	0.196	0.296
-312.953	107.208	-0.248	0.297
-311.939	135.335	-0.308	0.402
-310.924	-18.477	0.176	-0.110
-309.910	-200.000	0.026	0.145
-308.895	-113.805	-0.422	-0.083
-307.880	66.665	-0.131	-0.134
-306.866	-118.880	0.173	-0.031
-305.851	-73.843	-0.147	-0.053
-304.837	173.604	0.085	-0.123
-303.822	197.022	0.181	0.278
-302.807	-19.731	-0.201	0.125
-301.793	800.000	0.089	0.284
-300.778	800.000	0.094	0.324
-299.764	-200.000	-0.043	0.359
-298.749	746.166	0.026	0.070
-297.735	-124.207	-0.392	-0.062
-296.720	10.350	0.247	0.189
-295.705	-48.128	0.075	0.036
-294.691	135.630	0.101	0.132
-293.676	65.084	-0.158	-0.160
-292.662	44.978	0.326	0.301
-291.647	-73.418	-0.121	-0.044
-290.632	551.025	0.090	0.216
-289.618	-200.000	-0.062	-0.329
-288.603	144.126	0.188	-0.251
-287.589	-40.957	0.180	-0.093
-286.574	-61.305	-0.426	0.180
-285.559	31.602	0.307	0.265
-284.545	131.968	-0.200	-0.259
-283.530	-66.291	0.545	-0.218
-282.516	-168.628	0.136	0.005
-281.501	285.719	0.122	-0.220
-280.486	-200.000	-0.028	-0.365
-279.472	-200.000	-0.024	-0.123
-278.457	260.609	-0.098	0.170
-277.443	-90.651	0.195	-0.056
-276.428	-99.164	-0.349	0.088
-275.413	182.401	0.210	-0.310
-274.399	153.260	-0.170	-0.233
-273.384	-98.765	-0.085	0.022
-272.370	83.611	0.173	-0.189
-271.355	-200.000	0.075	0.420
-270.340	-74.037	0.345	-0.125
-269.326	17.589	-0.222	0.177
-268.311	-55.218	0.021	0.009
-267.297	246.559	-0.072	-0.122
-266.282	-200.000	0.006	-0.240
-265.267	181.663	0.124	0.183
-264.253	-41.531	0.105	-0.054
-263.238	-200.000	0.033	0.171
-262.224	394.234	-0.034	0.071
-261.209	-36.662	0.173	-0.093
-260.195	-200.000	0.011	-0.178
-259.180	-128.035	-0.185	-0.027
-258.165	223.753	-0.124	0.201
-257.151	307.709	-0.209	-0.391
-256.136	-108.356	-0.294	0.064
-255.122	-160.744	0.065	0.003
-254.107	800.000	-0.026	0.092
-253.092	259.966	-0.197	-0.341
-252.078	489.713	0.060	-0.137
-251.063	-200.000	-0.013	-0.132
-250.049	198.368	-0.070	0.107
-249.034	119.724	-0.206	-0.255
-248.019	-155.002	-0.232	-0.015
-247.005	-71.180	-0.378	-0.142
-245.990	76.158	0.037	-0.040
-244.976	-47.403	-0.099	-0.048
-243.961	-148.011	-0.207	-0.017
-242.946	-145.145	0.129	0.012
-241.932	32.058	-0.112	-0.097
-240.917	-175.860	0.206	0.006
-239.903	-75.949	0.161	0.057
-238.888	-191.633	-0.479	0.005
-237.873	118.313	0.223	0.276
-236.859	800.000	0.080	0.281
-235.844	675.797	0.066	-0.173
-234.830	-85.431	-0.194	-0.060
-233.815	-106.244	-0.364	0.082
-232.800	-66.883	-0.229	-0.091
-231.786	627.195	-0.064	-0.161
-230.771	432.439	0.048	-0.104
-229.757	-78.519	-0.214	-0.073
-228.742	-200.000	-0.025	0.284
-227.727	205.155	0.084	0.131
-226.713	209.599	-0.053	-0.084
-225.698	-93.113	-0.027	-0.008
-224.684	-200.000	-0.056	-0.359
-223.669	376.987	-0.064	0.131
-222.655	800.000	-0.073	-0.228
-221.640	82.366	-0.078	0.085
-220.625	338.573	0.006	0.011
-219.611	66.061	0.162	-0.165
-218.596	11.706	0.192	0.148
-217.582	-66.149	0.097	-0.039
-216.567	54.558	-0.091	-0.088
-215.552	-78.707	-0.226	0.077
-214.538	800.000	-0.065	0.209
-213.523	-200.000	0.073	0.372
-212.509	-10.260	0.111	-0.073
-211.494	48.413	-0.112	0.104
-210.479	-108.679	-0.058	-0.012
-209.465	-153.664	0.155	-0.011
-208.450	800.000	-0.058	-0.212
-207.436	95.991	0.161	-0.184
-206.421	-66.279	-0.489	-0.195
-205.406	-65.685	0.359	-0.144
-204.392	12.040	0.092	0.070
-203.377	282.419	-0.034	0.062
-202.363	-60.607	-0.358	-0.152
-201.348	-97.321	-0.066	-0.017
-200.333	117.075	-0.197	-0.242
-199.319	-23.638	-0.073	-0.044
-198.304	-200.000	0.095	-0.458
-197.290	110.089	-0.048	-0.058
-196.275	-119.540	-0.074	0.013
-195.260	-84.036	-0.436	-0.138
-194.246	714.469	0.045	0.119
-193.231	146.586	0.159	0.213
-192.217	-200.000	0.010	0.255
-191.202	-200.000	0.017	0.122
-190.187	-200.000	0.021	0.135
-189.173	-56.159	-0.268	0.119
-188.158	800.000	0.058	-0.166
-187.144	31.248	0.137	-0.117
-186.129	-191.934	-0.247	0.002
-185.114	25.268	-0.183	0.152
-184.100	-58.656	0.236	0.102
-183.085	-115.935	-0.226	0.042
-182.071	-200.000	0.047	0.207
-181.056	18.740	-0.127	-0.102
-180.042	-69.024	0.189	0.073
-179.027	-200.000	0.046	0.418
-178.012	-200.000	0.001	0.294
-176.998	-64.234	-0.016	-0.007
-175.983	46.294	-0.111	0.103
-174.969	-200.000	0.010	-0.181
-173.954	558.165	0.009	0.023
-172.939	-120.162	-0.260	0.044
-171.925	-200.000	-0.095	0.417
-170.910	-200.000	-0.020	-0.162
-169.896	-125.110	0.099	-0.015
-168.881	595.981	0.033	-0.081
-167.866	48.036	0.082	-0.077
-166.852	-121.183	-0.215	-0.036
-165.837	-200.000	0.002	0.095
-164.823	-200.000	-0.007	-0.097
-163.808	-150.822	0.225	0.017
-162.793	-96.302	0.052	-0.014
-161.779	800.000	-0.080	-0.311
-160.764	-70.148	-0.379	0.144
-159.750	-146.811	0.296	0.026
-158.735	72.638	-0.045	-0.047
-157.720	41.912	-0.129	0.117
-156.706	-128.964	-0.121	0.017
-155.691	-200.000	-0.057	-0.277
-154.677	800.000	0.064	0.237
-153.662	800.000	-0.045	0.151
-152.647	148.573	-0.172	0.231
-151.633	105.177	0.143	0.168
-150.618	22.333	0.232	-0.190
-149.604	31.686	0.269	0.231
-148.589	-200.000	0.026	0.225
-147.574	-200.000	0.017	-0.112
-146.560	103.879	0.106	0.125
-145.545	-75.311	0.211	0.075
-144.531	-200.000	-0.003	-0.098
-143.516	800.000	-0.034	0.140
-142.502	46.975	-0.145	-0.134
-141.487	-66.801	-0.085	0.034
-140.472	-200.000	-0.018	0.187
-139.458	800.000	0.058	0.173
-138.443	28.662	0.308	0.260
-137.429	335.998	0.014	0.027
-136.414	342.799	0.136	0.266
-135.399	-200.000	-0.012	0.073
-134.385	800.000	0.041	0.129
-133.370	-200.000	0.017	0.385
-132.356	-73.682	0.308	-0.112
-131.341	-200.000	-0.019	0.334
-130.326	24.597	-0.331	0.273
-129.312	16.182	0.241	0.190
-128.297	36.422	0.209	-0.184
-127.283	-200.000	-0.001	0.244
-126.268	-70.532	0.216	-0.082
-125.253	-164.551	0.354	0.016
-124.239	-1.206	0.096	0.068
-123.224	-86.504	-0.167	-0.051
-122.210	-114.935	0.310	-0.059
-121.195	210.317	0.025	0.038
