DTS Sentinel unit serial number:	SN413079Multiplexer serial number:	ORYXHardware model number:	OX4-SRSoftware version number:	ORYX F/W v4.00 Oryx Data Collector v3.7.2.0data status	okinstallation	princeton_trtdifferential loss correction	single-endedforward channel	channel 4reverse channel	N/Adate	2019/09/11time	16:19:10forward acquisition time	60.00reverse acquisition time	0.00gamma	496.2192k internal	0.2275k external	0.2275temperature offset calibration	1.0016default loss term (dB/km)	0.3790temperature slope calibration	1.0000multiplexer offset coefficient	1.0000multiplexer slope coefficient	1.0000fibre end	0.00T internal ref (°C)	43.44T ext. ref 1 (°C)	1.07T ext. ref 2 (°C)	39.14length (m)	temperature (°C)	Stokes	anti-Stokes-747.200	-101.877	0.169	0.042
-746.185	26.452	0.130	0.112
-745.171	289.034	-0.307	0.573
-744.156	800.000	0.149	0.535
-743.142	-102.127	-0.287	0.071
-742.127	-8.557	0.031	0.022
-741.112	142.791	0.110	0.150
-740.098	-32.930	-0.219	0.125
-739.083	800.000	0.032	-0.109
-738.069	-138.131	-0.421	0.048
-737.054	-120.134	-0.246	-0.043
-736.039	-13.895	0.133	0.088
-735.025	-53.676	-0.164	0.077
-734.010	28.713	0.106	0.093
-732.996	-200.000	-0.004	-0.085
-731.981	-151.360	-0.442	0.034
-730.966	-165.498	-0.150	-0.007
-729.952	120.511	-0.135	0.173
-728.937	-32.277	-0.230	-0.132
-727.923	-47.035	-0.119	0.060
-726.908	-200.000	0.023	-0.228
-725.894	136.743	-0.127	0.171
-724.879	-94.793	0.212	0.059
-723.864	-200.000	-0.004	-0.153
-722.850	447.964	-0.124	-0.282
-721.835	-200.000	0.059	-0.278
-720.821	-200.000	0.006	-0.047
-719.806	455.817	-0.195	0.445
-718.791	-53.884	-0.238	-0.112
-717.777	-68.929	0.179	0.071
-716.762	-200.000	-0.001	0.032
-715.748	319.113	0.165	-0.322
-714.733	-63.705	-0.286	-0.121
-713.718	-80.536	-0.088	0.030
-712.704	-19.917	0.114	-0.073
-711.689	-200.000	0.003	0.135
-710.675	-94.518	-0.208	0.058
-709.660	-162.330	0.087	-0.004
-708.645	-200.000	0.035	0.214
-707.631	-94.709	-0.427	0.119
-706.616	-68.219	-0.132	-0.053
-705.602	95.453	0.142	-0.167
-704.587	148.287	-0.177	-0.246
-703.572	-133.298	-0.198	-0.026
-702.558	-147.365	0.174	0.015
-701.543	-68.728	0.368	0.147
-700.529	-200.000	0.040	0.329
-699.514	-200.000	-0.051	0.248
-698.499	-96.246	0.134	-0.037
-697.485	-3.109	-0.102	0.073
-696.470	-200.000	0.049	-0.263
-695.456	21.839	-0.252	-0.211
-694.441	454.122	0.056	0.127
-693.426	-13.721	0.102	-0.068
-692.412	-200.000	0.068	-0.337
-691.397	24.684	-0.216	-0.184
-690.383	800.000	-0.016	0.052
-689.368	25.410	-0.174	0.149
-688.354	-155.554	0.276	-0.018
-687.339	38.542	-0.136	-0.125
-686.324	800.000	0.036	0.116
-685.310	357.084	-0.129	-0.264
-684.295	18.497	0.244	-0.201
-683.281	-200.000	0.060	-0.420
-682.266	-200.000	-0.012	0.134
-681.251	-11.460	-0.242	-0.164
-680.237	-200.000	0.002	-0.456
-679.222	-1.153	-0.073	-0.053
-678.208	-99.544	-0.228	-0.059
-677.193	-200.000	0.017	0.195
-676.178	-52.582	-0.224	0.107
-675.164	800.000	0.123	0.369
-674.149	-153.158	-0.175	0.013
-673.135	-60.717	-0.131	0.057
-672.120	30.649	0.093	0.082
-671.105	-48.256	-0.185	0.092
-670.091	190.165	0.067	-0.104
-669.076	-17.015	0.313	-0.203
-668.062	217.897	0.044	-0.073
-667.047	-200.000	-0.003	0.177
-666.032	83.603	0.222	0.249
-665.018	98.513	0.111	0.132
-664.003	800.000	-0.073	-0.226
-662.989	-200.000	0.002	-0.013
-661.974	-21.625	-0.221	-0.138
-660.959	-88.633	-0.112	-0.034
-659.945	182.987	-0.053	-0.080
-658.930	212.999	0.052	0.085
-657.916	-95.895	0.070	-0.019
-656.901	-67.744	0.265	0.107
-655.886	-96.280	-0.120	0.033
-654.872	283.469	-0.045	0.083
-653.857	-98.806	-0.173	0.045
-652.843	683.729	-0.045	0.121
-651.828	0.139	-0.031	0.023
-650.814	108.763	-0.078	-0.095
-649.799	45.124	-0.089	0.084
-648.784	368.639	0.206	0.429
-647.770	64.305	-0.152	-0.158
-646.755	-80.492	-0.337	-0.115
-645.741	-116.729	-0.183	0.035
-644.726	-122.075	-0.108	0.018
-643.711	-77.878	0.155	-0.055
-642.697	800.000	0.108	-0.379
-641.682	800.000	0.129	-0.408
-640.668	800.000	-0.122	0.444
-639.653	800.000	-0.042	-0.127
-638.638	191.139	0.035	-0.053
-637.624	-200.000	-0.033	-0.339
-636.609	301.059	0.090	0.171
-635.595	41.959	0.022	-0.020
-634.580	-200.000	-0.020	-0.300
-633.565	-66.872	-0.205	0.083
-632.551	-200.000	0.033	0.232
-631.536	800.000	0.106	-0.407
-630.522	132.453	-0.035	0.046
-629.507	119.476	-0.156	0.198
-628.492	-72.685	-0.271	-0.103
-627.478	28.388	0.090	0.078
-626.463	315.187	-0.068	0.132
-625.449	53.302	0.155	0.152
-624.434	49.778	0.095	-0.092
-623.419	-200.000	-0.023	-0.205
-622.405	800.000	0.037	0.133
-621.390	336.694	-0.089	0.178
-620.376	-93.819	0.235	-0.066
-619.361	-155.682	-0.166	-0.011
-618.346	595.119	0.048	-0.122
-617.332	93.294	0.123	-0.142
-616.317	-47.713	-0.065	0.032
-615.303	-132.340	-0.180	-0.024
-614.288	53.508	0.249	-0.245
-613.273	-53.814	0.437	-0.204
-612.259	754.483	-0.025	0.069
-611.244	-87.365	0.081	0.025
-610.230	110.953	-0.199	-0.246
-609.215	-103.650	0.255	-0.061
-608.201	57.979	0.028	0.028
-607.186	12.506	0.145	-0.115
-606.171	-15.237	-0.142	0.093
-605.157	124.320	-0.344	-0.443
-604.142	-200.000	-0.010	-0.092
-603.128	-200.000	-0.051	-0.414
-602.113	-200.000	0.011	-0.112
-601.098	-109.746	0.065	0.014
-600.084	-163.913	-0.179	0.009
-599.069	-58.911	-0.217	0.096
-598.055	-48.772	-0.349	-0.172
-597.040	-200.000	-0.004	0.383
-596.025	-32.371	0.191	0.109
-595.011	328.715	0.053	0.104
-593.996	526.245	-0.116	0.279
-592.982	-164.663	-0.455	0.021
-591.967	635.112	0.102	-0.264
-590.952	-165.245	-0.159	-0.007
-589.938	36.029	-0.204	-0.184
-588.923	-200.000	0.016	0.224
-587.909	0.398	0.108	-0.079
-586.894	172.710	-0.139	0.206
-585.879	21.958	0.234	0.195
-584.865	-114.123	-0.229	-0.045
-583.850	-200.000	-0.006	-0.037
-582.836	-200.000	0.001	-0.029
-581.821	32.723	0.115	0.102
-580.806	645.018	-0.181	-0.472
-579.792	264.315	-0.124	0.220
-578.777	15.253	-0.166	0.133
-577.763	-145.963	-0.238	0.022
-576.748	49.531	-0.145	0.140
-575.733	66.789	0.222	0.232
-574.719	243.705	-0.087	-0.150
-573.704	-46.755	0.542	0.272
-572.690	15.367	-0.109	0.087
-571.675	-121.401	-0.288	0.049
-570.661	-64.988	0.025	0.010
-569.646	-200.000	0.009	0.169
-568.631	-167.531	-0.289	-0.012
-567.617	418.269	0.129	-0.282
-566.602	-200.000	0.001	0.212
-565.588	-120.717	0.265	0.046
-564.573	-116.813	-0.191	0.036
-563.558	800.000	0.075	-0.284
-562.544	353.406	-0.124	0.252
-561.529	358.773	-0.011	-0.022
-560.515	707.634	0.124	-0.336
-559.500	188.197	0.088	0.135
-558.485	214.078	0.134	-0.217
-557.471	160.631	-0.192	-0.274
-556.456	-60.038	0.132	-0.058
-555.442	800.000	0.009	0.038
-554.427	-200.000	0.046	-0.267
-553.412	800.000	0.011	0.033
-552.398	-200.000	0.002	-0.131
-551.383	800.000	-0.011	0.042
-550.369	-200.000	0.039	-0.225
-549.354	800.000	0.088	-0.270
-548.339	-200.000	-0.009	0.145
-547.325	-200.000	-0.023	0.277
-546.310	198.159	-0.266	0.416
-545.296	49.366	-0.204	-0.196
-544.281	-151.684	-0.066	0.005
-543.266	-200.000	-0.004	-0.128
-542.252	98.017	-0.043	-0.050
-541.237	-125.433	0.091	-0.014
-540.223	-200.000	-0.002	0.249
-539.208	-46.712	-0.206	-0.103
-538.193	-116.057	-0.254	0.048
-537.179	-80.718	-0.257	0.087
-536.164	800.000	-0.030	0.134
-535.150	-81.457	-0.339	-0.114
-534.135	-22.482	-0.203	0.126
-533.121	26.968	-0.082	0.071
-532.106	-25.639	0.255	-0.154
-531.091	800.000	-0.052	-0.188
-530.077	-30.516	0.204	-0.118
-529.062	-165.593	-0.163	0.007
-528.048	-11.862	0.197	-0.132
-527.033	-122.020	0.033	-0.006
-526.018	109.311	-0.270	-0.330
-525.004	-118.729	-0.099	-0.018
-523.989	-119.447	0.509	-0.090
-522.975	16.287	0.098	-0.079
-521.960	-12.193	-0.099	0.066
-520.945	12.238	-0.268	0.211
-519.931	800.000	0.077	0.229
-518.916	-156.227	-0.431	0.028
-517.902	82.502	0.146	-0.162
-516.887	4.116	0.200	0.150
-515.872	46.319	0.230	-0.218
-514.858	-200.000	-0.014	-0.212
-513.843	205.053	0.083	-0.132
-512.829	30.890	0.197	-0.173
-511.814	-77.036	-0.182	-0.065
-510.799	-79.988	0.177	0.061
-509.785	9.822	0.150	-0.116
-508.770	-75.596	0.098	-0.036
-507.756	-200.000	-0.003	0.172
-506.741	800.000	-0.043	-0.133
-505.726	129.079	-0.082	0.106
-504.712	-138.956	0.101	0.011
-503.697	119.744	-0.231	0.292
-502.683	-3.414	-0.183	0.130
-501.668	-32.416	-0.410	0.234
-500.653	29.902	-0.173	-0.151
-499.639	65.055	-0.117	0.121
-498.624	-200.000	-0.023	0.156
-497.610	753.464	-0.021	0.059
-496.595	-24.854	0.155	-0.094
-495.581	16.440	-0.304	-0.245
-494.566	-105.193	-0.073	-0.017
-493.551	330.546	0.073	-0.144
-492.537	-95.643	-0.173	0.047
-491.522	-145.502	0.089	0.008
-490.508	-200.000	-0.021	-0.176
-489.493	800.000	-0.057	-0.213
-488.478	-200.000	0.051	-0.343
-487.464	-200.000	-0.011	0.158
-486.449	-130.818	-0.313	0.043
-485.435	-200.000	-0.050	0.291
-484.420	175.575	-0.077	0.115
-483.405	800.000	-0.070	-0.206
-482.391	-29.470	-0.163	0.095
-481.376	283.060	-0.073	-0.133
-480.362	-123.029	0.111	0.018
-479.347	78.379	0.221	0.240
-478.332	-200.000	0.065	-0.318
-477.318	137.632	-0.130	0.174
-476.303	795.398	-0.024	-0.067
-475.289	-186.557	0.208	0.003
-474.274	-34.715	0.203	-0.113
-473.259	-50.181	-0.069	-0.033
-472.245	51.787	-0.166	-0.161
-471.230	252.479	0.040	-0.069
-470.216	-164.823	0.233	0.011
-469.201	-200.000	0.000	0.139
-468.186	50.402	-0.243	-0.234
-467.172	-200.000	0.009	-0.251
-466.157	-19.406	0.265	0.167
-465.143	-166.445	0.483	0.021
-464.128	800.000	-0.019	-0.059
-463.113	-200.000	0.012	0.068
-462.099	-200.000	-0.016	-0.377
-461.084	-200.000	-0.028	-0.364
-460.070	800.000	-0.035	-0.116
-459.055	81.623	-0.217	0.239
-458.040	-200.000	-0.032	-0.183
-457.026	-43.105	-0.143	0.074
-456.011	7.107	-0.241	0.183
-454.997	-200.000	0.038	0.274
-453.982	-47.474	0.211	-0.104
-452.968	532.321	-0.020	0.049
-451.953	200.280	-0.106	0.166
-450.938	58.427	-0.064	0.064
-449.924	-120.815	0.081	0.014
-448.909	-200.000	0.020	-0.152
-447.895	-32.449	-0.092	-0.052
-446.880	-162.690	-0.263	-0.013
-445.865	-74.663	-0.237	-0.087
-444.851	-144.536	0.322	-0.030
-443.836	135.078	0.158	0.209
-442.822	-30.572	-0.196	-0.113
-441.807	-98.473	0.120	-0.031
-440.792	-200.000	0.006	0.041
-439.778	-171.988	0.319	-0.011
-438.763	-200.000	0.026	0.153
-437.749	289.208	0.047	-0.086
-436.734	-68.329	0.463	-0.183
-435.719	24.179	0.120	0.101
-434.705	-22.935	-0.233	-0.143
-433.690	60.128	-0.084	0.085
-432.676	111.695	-0.277	0.341
-431.661	-177.988	0.215	-0.005
-430.646	-186.986	0.112	-0.002
-429.632	-56.625	-0.192	-0.087
-428.617	37.666	0.047	0.042
-427.603	800.000	-0.131	0.514
-426.588	-64.217	-0.079	0.033
-425.573	-113.999	0.112	0.022
-424.559	-21.477	0.350	-0.217
-423.544	-200.000	-0.046	-0.209
-422.530	84.828	0.160	0.179
-421.515	68.764	0.262	0.274
-420.500	-85.308	0.081	0.026
-419.486	-66.697	-0.137	-0.055
-418.471	-58.253	0.258	0.114
-417.457	443.655	-0.041	0.091
-416.442	800.000	-0.014	0.061
-415.428	72.361	-0.117	0.124
-414.413	-35.164	0.045	-0.025
-413.398	800.000	-0.015	-0.054
-412.384	800.000	-0.068	-0.293
-411.369	465.275	0.076	-0.173
-410.355	381.890	-0.154	-0.322
-409.340	-54.216	0.212	-0.098
-408.325	-200.000	-0.014	0.343
-407.311	30.648	-0.157	-0.136
-406.296	800.000	0.055	-0.224
-405.282	-200.000	0.007	0.067
-404.267	297.087	-0.081	0.151
-403.252	-160.016	0.211	-0.012
-402.238	677.799	0.028	0.074
-401.223	139.744	-0.021	0.029
-400.209	-155.451	-0.062	-0.004
-399.194	84.971	-0.317	-0.354
-398.179	-200.000	-0.018	0.256
-397.165	753.128	0.161	0.442
-396.150	-181.919	-0.179	0.003
-395.136	3.931	-0.085	0.064
-394.121	-38.325	0.129	0.069
-393.106	-106.898	-0.146	0.033
-392.092	19.588	0.191	-0.156
-391.077	-152.995	0.304	0.022
-390.063	33.329	-0.238	-0.210
-389.048	-72.887	-0.336	0.125
-388.033	-172.881	0.264	0.008
-387.019	291.494	0.172	0.319
-386.004	-200.000	0.024	-0.178
-384.990	800.000	0.092	-0.261
-383.975	800.000	0.075	0.215
-382.960	23.081	-0.156	0.131
-381.946	-5.411	0.301	0.210
-380.931	-200.000	0.001	0.031
-379.917	122.749	0.089	0.114
-378.902	800.000	-0.070	0.288
-377.888	-200.000	0.023	0.196
-376.873	70.580	0.103	0.109
-375.858	253.830	-0.050	0.087
-374.844	-200.000	0.011	0.370
-373.829	419.252	0.153	0.332
-372.815	-172.552	-0.328	-0.011
-371.800	161.553	0.124	-0.176
-370.785	78.337	0.068	0.073
-369.771	-200.000	0.071	-0.369
-368.756	-200.000	0.024	-0.214
-367.742	92.115	0.083	0.095
-366.727	154.526	0.062	0.086
-365.712	-67.482	-0.319	0.127
-364.698	-200.000	0.040	-0.297
-363.683	-125.670	-0.517	-0.080
-362.669	-162.323	0.373	-0.019
-361.654	442.502	0.153	-0.339
-360.639	457.151	-0.117	-0.264
-359.625	-200.000	0.011	-0.303
-358.610	351.677	-0.093	0.187
-357.596	-106.968	0.085	-0.019
-356.581	150.832	-0.115	-0.159
-355.566	-130.045	0.340	0.047
-354.552	64.699	0.035	0.036
-353.537	-200.000	-0.004	-0.045
-352.523	800.000	0.030	-0.118
-351.508	-40.341	-0.019	0.010
-350.493	129.970	-0.147	-0.191
-349.479	-200.000	0.010	0.133
-348.464	145.530	-0.108	-0.147
-347.450	290.241	0.133	0.246
-346.435	-78.616	0.211	-0.073
-345.420	-7.778	0.284	-0.195
-344.406	-67.424	0.206	-0.082
-343.391	-200.000	-0.045	0.258
-342.377	800.000	-0.025	0.088
-341.362	183.591	0.062	-0.092
-340.348	-200.000	-0.009	-0.146
-339.333	201.398	0.050	-0.078
-338.318	236.068	0.148	0.249
-337.304	800.000	0.045	0.151
-336.289	-200.000	-0.003	-0.143
-335.275	689.322	-0.105	-0.279
-334.260	16.818	0.087	0.070
-333.245	-200.000	0.022	0.192
-332.231	-141.136	0.022	-0.002
-331.216	244.990	0.061	0.105
-330.202	38.339	-0.179	0.161
-329.187	-200.000	0.009	0.195
-328.172	-200.000	-0.042	0.191
-327.158	800.000	0.080	0.303
-326.143	222.585	0.086	0.140
-325.129	39.501	-0.112	0.102
-324.114	-117.144	0.196	-0.036
-323.099	-200.000	-0.027	-0.192
-322.085	126.347	-0.245	0.315
-321.070	-200.000	-0.024	0.121
-320.056	-59.045	-0.091	-0.040
-319.041	-43.727	0.197	0.101
-318.026	65.671	-0.049	0.050
-317.012	223.266	0.036	0.059
-315.997	86.234	0.104	0.116
-314.983	-200.000	0.026	0.310
-313.968	-21.852	-0.041	-0.025
-312.953	-200.000	0.012	-0.289
-311.939	70.999	-0.133	-0.140
-310.924	-116.392	-0.145	0.027
-309.910	15.362	0.135	0.107
-308.895	230.463	-0.108	-0.179
-307.880	-179.671	-0.493	-0.011
-306.866	-138.890	0.166	-0.018
-305.851	645.075	-0.118	0.305
-304.837	63.224	0.179	-0.182
-303.822	228.596	-0.236	0.391
-302.807	640.078	-0.171	0.441
-301.793	-27.070	-0.133	-0.079
-300.778	-200.000	-0.030	0.265
-299.764	-45.988	0.294	0.147
-298.749	6.937	0.333	0.252
-297.735	-200.000	0.015	0.147
-296.720	-134.714	0.091	0.011
-295.705	-77.940	-0.027	0.009
-294.691	-26.458	-0.127	0.076
-293.676	-55.918	-0.180	0.081
-292.662	22.427	-0.226	-0.187
-291.647	-200.000	0.009	-0.528
-290.632	581.740	-0.019	0.047
-289.618	800.000	-0.033	0.145
-288.603	24.403	-0.142	-0.119
-287.589	-73.442	0.264	-0.098
-286.574	-23.318	0.183	0.111
-285.559	155.321	-0.098	0.137
-284.545	503.095	0.089	-0.209
-283.530	19.860	-0.226	0.184
-282.516	603.689	0.109	0.275
-281.501	800.000	0.043	-0.171
-280.486	-101.163	0.230	-0.057
-279.472	-112.963	-0.039	0.008
-278.457	-79.504	0.053	-0.018
-277.443	-109.493	0.189	-0.040
-276.428	28.368	0.081	-0.069
-275.413	-154.497	0.442	0.030
-274.399	-47.177	0.158	0.078
-273.384	-84.119	-0.374	0.120
-272.370	-200.000	-0.070	-0.320
-271.355	-132.000	0.062	0.008
-270.340	-101.529	0.231	0.057
-269.326	-200.000	-0.026	0.289
-268.311	800.000	0.063	-0.250
-267.297	-200.000	0.009	0.112
-266.282	-65.584	0.155	0.063
-265.267	294.739	0.048	0.089
-264.253	-146.866	0.399	-0.035
-263.238	-89.114	0.293	-0.088
-262.224	800.000	0.008	-0.032
-261.209	224.699	-0.133	0.217
-260.195	0.796	-0.051	-0.037
-259.180	-141.298	-0.170	0.017
-258.165	129.528	0.064	0.082
-257.151	-200.000	0.004	-0.149
-256.136	92.713	0.186	-0.212
-255.122	536.535	0.016	-0.038
-254.107	-68.606	-0.145	-0.057
-253.092	135.040	0.030	0.040
-252.078	89.733	0.176	-0.199
-251.063	-200.000	-0.045	-0.259
-250.049	546.065	-0.131	0.317
-249.034	-2.279	-0.128	0.091
-248.019	-95.800	0.187	0.050
-247.005	-200.000	0.018	-0.082
-245.990	33.286	-0.139	-0.122
-244.976	5.635	-0.184	-0.138
-243.961	84.853	-0.156	-0.173
-242.946	127.921	0.071	-0.091
-241.932	-200.000	-0.012	0.094
-240.917	-60.849	0.121	-0.052
-239.903	-104.038	-0.391	-0.092
-238.888	101.137	0.031	-0.037
-237.873	-200.000	0.017	0.419
-236.859	446.332	0.101	0.225
-235.844	31.446	0.128	-0.112
-234.830	57.118	0.124	-0.122
-233.815	-100.622	0.178	0.045
-232.800	505.365	-0.187	-0.438
-231.786	-145.859	-0.138	0.012
-230.771	25.780	0.152	0.128
-229.757	-142.681	-0.253	0.025
-228.742	-200.000	0.000	0.026
-227.727	265.386	0.066	-0.117
-226.713	108.330	-0.073	0.089
-225.698	46.859	0.112	0.106
-224.684	-42.576	-0.272	-0.140
-223.669	10.143	-0.292	-0.224
-222.655	-138.448	0.177	-0.020
-221.640	800.000	-0.075	0.317
-220.625	-66.214	0.279	0.112
-219.611	160.181	-0.275	0.387
-218.596	28.531	-0.237	0.203
-217.582	-39.677	0.250	-0.132
-216.567	-64.066	0.249	-0.103
-215.552	-122.641	0.088	0.014
-214.538	-60.722	-0.061	0.026
-213.523	76.985	-0.283	-0.303
-212.509	-93.339	0.221	0.062
-211.494	41.902	-0.184	-0.169
-210.479	179.709	0.211	-0.313
-209.465	260.398	-0.042	0.074
-208.450	121.301	-0.146	-0.183
-207.436	146.315	-0.175	0.237
-206.421	264.172	0.149	-0.262
-205.406	-187.868	-0.286	0.004
-204.392	-24.113	-0.246	0.148
-203.377	105.548	0.210	-0.251
-202.363	800.000	-0.077	-0.306
-201.348	759.989	-0.080	0.219
-200.333	163.625	0.254	0.361
-199.319	-72.621	-0.118	-0.044
-198.304	-186.519	-0.091	0.001
-197.290	550.500	0.130	0.314
-196.275	90.164	0.091	-0.103
-195.260	65.122	0.088	0.090
-194.246	4.216	0.153	-0.113
-193.231	282.270	0.192	0.347
-192.217	-126.212	0.230	0.035
-191.202	531.443	-0.052	0.124
-190.187	58.667	-0.098	0.097
-189.173	266.117	0.180	-0.317
-188.158	33.718	-0.060	-0.053
-187.144	-97.258	0.281	-0.074
-186.129	-127.756	0.145	0.021
-185.114	10.738	-0.193	0.149
-184.100	-42.874	0.091	-0.047
-183.085	224.584	0.102	-0.167
-182.071	-78.659	0.194	-0.067
-181.056	800.000	-0.056	0.195
-180.042	800.000	-0.063	-0.185
-179.027	-200.000	-0.023	-0.459
-178.012	-109.617	0.339	-0.072
-176.998	800.000	-0.063	-0.185
-175.983	-200.000	0.017	-0.215
-174.969	-172.073	0.235	-0.008
-173.954	-184.445	-0.215	0.004
-172.939	800.000	-0.100	0.279
-171.925	515.313	0.073	0.172
-170.910	19.880	0.135	0.110
-169.896	611.682	-0.074	0.187
-168.881	333.269	-0.067	-0.130
-167.866	-167.755	0.401	0.016
-166.852	453.574	0.026	0.059
-165.837	-6.877	-0.259	-0.178
-164.823	386.690	0.040	0.083
-163.808	-128.322	0.267	-0.038
-162.793	-200.000	-0.039	-0.197
-161.779	800.000	-0.048	0.162
-160.764	187.287	0.045	0.068
-159.750	800.000	0.101	0.350
-158.735	-88.365	-0.342	-0.103
-157.720	-164.681	-0.227	0.010
-156.706	733.407	-0.094	-0.253
-155.691	-176.406	0.566	0.015
-154.677	579.726	-0.040	-0.098
-153.662	-163.665	-0.306	-0.015
-152.647	-200.000	0.039	0.460
-151.633	769.294	0.069	0.190
-150.618	90.395	0.166	-0.188
-149.604	149.175	0.090	-0.122
-148.589	800.000	-0.049	-0.139
-147.574	282.358	0.058	0.104
-146.560	-51.021	-0.163	-0.077
-145.545	-78.287	-0.058	0.020
-144.531	-84.610	0.226	-0.072
-143.516	-200.000	0.013	-0.179
-142.502	-55.059	-0.124	0.056
-141.487	481.351	-0.101	0.230
-140.472	-200.000	0.014	-0.247
-139.458	-158.321	-0.164	0.010
-138.443	-137.707	-0.278	0.031
-137.429	263.613	-0.144	0.252
-136.414	92.293	0.152	0.172
-135.399	-102.461	0.245	0.059
-134.385	17.427	-0.143	0.114
-133.370	800.000	-0.036	-0.100
-132.356	800.000	0.057	-0.236
-131.341	561.042	0.054	-0.132
-130.326	-86.176	0.029	-0.009
-129.312	-200.000	-0.037	0.244
-128.297	-200.000	-0.017	0.120
-127.283	139.398	0.100	-0.132
-126.268	190.917	0.181	-0.275
-125.253	-106.895	0.108	0.024
-124.239	101.214	0.169	-0.197
-123.224	800.000	0.137	0.394
-122.210	1.651	-0.204	0.148
-121.195	-58.923	-0.055	0.024
