DTS Sentinel unit serial number:	SN413079Multiplexer serial number:	ORYXHardware model number:	OX4-SRSoftware version number:	ORYX F/W v4.00 Oryx Data Collector v3.7.2.0data status	okinstallation	princeton_trtdifferential loss correction	single-endedforward channel	channel 4reverse channel	N/Adate	2019/09/16time	22:49:34forward acquisition time	60.00reverse acquisition time	0.00gamma	496.2192k internal	0.2314k external	0.2314temperature offset calibration	0.9975default loss term (dB/km)	0.3790temperature slope calibration	1.0000multiplexer offset coefficient	1.0000multiplexer slope coefficient	1.0000fibre end	0.00T internal ref (°C)	30.50T ext. ref 1 (°C)	0.08T ext. ref 2 (°C)	24.16length (m)	temperature (°C)	Stokes	anti-Stokes-747.200	-200.000	0.025	0.113
-746.185	91.710	0.219	0.249
-745.171	800.000	0.047	0.189
-744.156	429.242	-0.135	0.295
-743.142	800.000	-0.056	0.216
-742.127	-143.434	0.210	-0.020
-741.112	66.708	-0.133	-0.137
-740.098	-148.807	-0.219	-0.018
-739.083	-178.099	0.149	0.004
-738.069	670.598	-0.116	0.305
-737.054	156.234	0.071	0.099
-736.039	-200.000	0.037	-0.219
-735.025	-115.722	0.276	-0.052
-734.010	-129.505	-0.231	-0.032
-732.996	7.451	-0.104	0.079
-731.981	98.156	-0.080	0.093
-730.966	800.000	-0.051	-0.182
-729.952	-200.000	0.002	-0.027
-728.937	-200.000	-0.061	-0.312
-727.923	-109.150	-0.183	-0.039
-726.908	-161.665	-0.111	-0.006
-725.894	800.000	-0.030	0.124
-724.879	394.871	0.065	-0.137
-723.864	-45.045	-0.145	-0.073
-722.850	-66.307	0.081	0.032
-721.835	-73.484	-0.173	0.064
-720.821	800.000	0.034	-0.122
-719.806	106.532	-0.333	-0.400
-718.791	235.759	0.054	0.090
-717.777	-118.329	-0.255	-0.046
-716.762	-49.220	0.220	-0.107
-715.748	62.005	-0.226	-0.228
-714.733	-200.000	-0.059	-0.000
-713.718	-99.815	-0.364	-0.092
-712.704	94.368	-0.040	-0.046
-711.689	800.000	-0.029	-0.112
-710.675	110.877	-0.107	0.130
-709.660	-67.696	0.202	-0.080
-708.645	-145.069	0.122	0.011
-707.631	-200.000	-0.006	0.128
-706.616	-200.000	-0.013	-0.067
-705.602	-130.350	-0.247	0.034
-704.587	-200.000	-0.003	-0.160
-703.572	-81.576	0.199	0.066
-702.558	-128.893	-0.429	0.061
-701.543	-82.019	0.309	-0.102
-700.529	-142.319	0.184	0.018
-699.514	-85.675	0.321	-0.101
-698.499	37.613	-0.142	-0.128
-697.485	165.288	-0.111	-0.159
-696.470	73.151	-0.121	0.128
-695.456	-182.402	0.187	0.004
-694.441	58.422	-0.034	-0.034
-693.426	-200.000	0.028	-0.221
-692.412	-1.866	-0.092	-0.066
-691.397	800.000	-0.105	-0.325
-690.383	203.057	0.062	0.098
-689.368	494.797	-0.094	-0.218
-688.354	-200.000	0.058	-0.284
-687.339	188.596	0.191	0.289
-686.324	800.000	-0.061	0.176
-685.310	-200.000	-0.004	0.059
-684.295	71.503	-0.075	0.079
-683.281	-200.000	-0.033	-0.155
-682.266	-200.000	0.020	0.167
-681.251	-110.070	-0.256	0.054
-680.237	625.979	0.093	-0.238
-679.222	121.602	0.079	-0.100
-678.208	-106.572	-0.291	-0.066
-677.193	-92.297	-0.382	-0.109
-676.178	-8.090	-0.366	0.249
-675.164	-141.727	-0.644	-0.065
-674.149	-200.000	-0.033	-0.236
-673.135	-200.000	0.014	0.313
-672.120	261.758	-0.138	0.241
-671.105	166.882	0.135	-0.194
-670.091	-200.000	-0.012	0.300
-669.076	800.000	-0.072	0.235
-668.062	404.075	-0.155	0.330
-667.047	-106.006	0.344	0.078
-666.032	-36.829	-0.139	0.075
-665.018	-17.174	-0.105	0.067
-664.003	327.248	-0.152	-0.294
-662.989	-125.076	0.188	-0.029
-661.974	289.405	0.144	-0.264
-660.959	-45.623	-0.364	0.182
-659.945	-96.570	-0.147	0.039
-658.930	201.469	0.071	0.110
-657.916	-124.768	0.378	0.059
-656.901	-74.893	-0.208	0.075
-655.886	186.821	0.022	-0.034
-654.872	-98.395	-0.392	0.101
-653.857	-181.966	-0.217	0.004
-652.843	-200.000	-0.011	0.124
-651.828	-123.021	0.122	0.020
-650.814	-77.763	0.082	-0.029
-649.799	-200.000	0.025	0.129
-648.784	-139.162	-0.044	-0.005
-647.770	-140.259	0.228	-0.024
-646.755	-134.346	-0.173	0.021
-645.741	-44.185	0.038	-0.019
-644.726	14.093	0.333	0.262
-643.711	-200.000	0.005	0.322
-642.697	383.630	-0.102	-0.212
-641.682	93.073	-0.053	0.060
-640.668	-200.000	-0.018	0.192
-639.653	-53.506	-0.222	0.103
-638.638	71.092	-0.075	-0.079
-637.624	44.361	0.121	0.112
-636.609	-151.310	0.420	0.032
-635.595	-139.400	-0.134	0.015
-634.580	26.768	-0.153	-0.129
-633.565	800.000	-0.120	-0.386
-632.551	-65.671	-0.141	0.057
-631.536	164.919	0.099	-0.141
-630.522	800.000	0.081	-0.295
-629.507	35.269	-0.105	0.093
-628.492	-120.435	-0.242	0.041
-627.478	673.062	-0.119	-0.313
-626.463	464.183	-0.102	-0.230
-625.449	265.145	-0.209	0.368
-624.434	15.912	-0.244	0.194
-623.419	-200.000	-0.033	-0.241
-622.405	-23.811	0.223	0.135
-621.390	196.536	0.105	0.161
-620.376	-66.902	-0.151	-0.060
-619.361	800.000	-0.090	0.307
-618.346	-200.000	0.043	-0.301
-617.332	-200.000	0.034	0.165
-616.317	54.705	-0.132	0.128
-615.303	-79.913	0.168	-0.057
-614.288	-200.000	-0.139	0.000
-613.273	63.363	0.135	0.137
-612.259	-100.891	-0.253	0.063
-611.244	-200.000	-0.008	-0.196
-610.230	-200.000	0.032	-0.411
-609.215	-200.000	-0.022	-0.119
-608.201	-200.000	0.035	0.211
-607.186	29.945	0.151	-0.129
-606.171	540.974	-0.092	-0.221
-605.157	111.012	-0.251	0.305
-604.142	0.350	0.214	-0.154
-603.128	-122.766	-0.157	0.026
-602.113	-118.112	-0.338	0.061
-601.098	-40.116	0.157	0.082
-600.084	102.752	0.119	0.140
-599.069	248.440	0.073	0.124
-598.055	168.024	-0.120	-0.172
-597.040	-104.065	0.076	0.018
-596.025	36.910	-0.168	-0.150
-595.011	-99.083	0.103	0.026
-593.996	-18.073	-0.203	0.128
-592.982	30.170	-0.245	-0.210
-591.967	-200.000	-0.021	-0.128
-590.952	-103.684	0.138	0.033
-589.938	276.209	0.238	0.427
-588.923	61.806	-0.057	0.057
-587.909	40.245	-0.119	-0.108
-586.894	340.508	-0.087	-0.171
-585.879	-200.000	0.035	0.239
-584.865	-53.759	0.186	-0.086
-583.850	-200.000	0.034	-0.398
-582.836	-200.000	-0.016	0.320
-581.821	-113.086	0.370	0.074
-580.806	140.467	-0.085	-0.113
-579.792	617.751	0.101	0.256
-578.777	-32.321	-0.105	-0.059
-577.763	-107.251	0.165	-0.037
-576.748	17.167	0.200	-0.160
-575.733	-118.764	-0.266	-0.047
-574.719	-64.876	0.182	-0.074
-573.704	125.234	0.253	0.321
-572.690	-90.342	-0.173	-0.051
-571.675	-200.000	0.082	0.457
-570.661	800.000	-0.049	-0.147
-569.646	-200.000	0.061	-0.297
-568.631	-106.028	0.234	-0.053
-567.617	360.901	0.100	0.201
-566.602	-190.632	0.276	0.003
-565.588	-47.264	0.107	-0.053
-564.573	-132.709	0.163	-0.021
-563.558	-41.018	-0.050	0.026
-562.544	293.649	-0.174	-0.320
-561.529	42.990	0.127	-0.117
-560.515	800.000	-0.057	-0.207
-559.500	89.610	-0.165	0.185
-558.485	213.437	0.221	0.351
-557.471	-101.201	0.194	-0.048
-556.456	9.706	0.079	0.060
-555.442	252.877	0.082	-0.141
-554.427	403.601	-0.072	0.153
-553.412	8.173	-0.326	0.247
-552.398	66.958	-0.174	0.178
-551.383	55.721	-0.173	0.169
-550.369	119.138	0.246	0.307
-549.354	-65.884	0.235	-0.095
-548.339	800.000	-0.108	0.330
-547.325	187.789	-0.171	0.257
-546.310	800.000	-0.070	0.226
-545.296	800.000	-0.065	-0.197
-544.281	252.685	-0.237	-0.407
-543.266	-77.524	-0.180	0.063
-542.252	-91.540	0.299	0.086
-541.237	800.000	-0.069	-0.245
-540.223	-21.141	-0.094	0.058
-539.208	800.000	-0.066	-0.183
-538.193	127.556	0.184	-0.235
-537.179	-113.911	-0.276	0.054
-536.164	212.034	-0.104	0.165
-535.150	-144.345	0.078	-0.007
-534.135	-109.340	0.020	0.004
-533.121	43.057	0.179	0.164
-532.106	271.093	-0.114	0.201
-531.091	92.009	0.243	-0.275
-530.077	-138.245	-0.064	-0.007
-529.062	-131.333	-0.076	0.010
-528.048	-200.000	-0.014	0.138
-527.033	-200.000	-0.012	0.239
-526.018	-67.107	0.109	0.043
-525.004	800.000	-0.019	0.058
-523.989	-200.000	0.021	-0.125
-522.975	553.029	-0.013	0.031
-521.960	576.124	-0.080	-0.197
-520.945	-10.747	-0.126	-0.084
-519.931	-181.218	0.342	0.007
-518.916	-20.899	-0.364	0.224
-517.902	800.000	-0.063	0.260
-516.887	-13.664	0.187	0.122
-515.872	800.000	0.070	-0.283
-514.858	244.389	0.036	0.061
-513.843	425.369	-0.031	0.066
-512.829	104.365	-0.088	0.104
-511.814	-200.000	-0.012	-0.215
-510.799	-31.969	-0.216	0.122
-509.785	800.000	-0.069	-0.213
-508.770	136.133	-0.080	0.104
-507.756	-149.942	-0.227	0.018
-506.741	-73.099	0.217	-0.080
-505.726	-55.576	0.195	-0.088
-504.712	800.000	0.085	0.355
-503.697	-200.000	-0.063	-0.312
-502.683	800.000	0.066	0.190
-501.668	-50.046	0.221	-0.105
-500.653	-200.000	-0.002	-0.371
-499.639	-54.992	-0.173	0.078
-498.624	800.000	0.036	-0.130
-497.610	164.382	-0.164	-0.232
-496.595	8.107	-0.251	-0.189
-495.581	800.000	0.044	-0.149
-494.566	759.602	-0.040	0.110
-493.551	-200.000	0.038	0.000
-492.537	-57.878	0.179	-0.079
-491.522	225.811	-0.147	-0.240
-490.508	95.942	-0.118	-0.135
-489.493	800.000	-0.050	-0.185
-488.478	-44.045	0.124	-0.063
-487.464	800.000	-0.077	-0.229
-486.449	-14.283	0.232	-0.150
-485.435	800.000	0.071	-0.280
-484.420	-200.000	-0.002	-0.052
-483.405	800.000	-0.011	0.036
-482.391	-200.000	-0.037	-0.167
-481.376	61.508	-0.145	-0.145
-480.362	134.160	-0.318	0.413
-479.347	21.252	0.284	-0.232
-478.332	370.643	0.118	-0.241
-477.318	-52.731	-0.350	0.162
-476.303	-18.199	0.153	-0.096
-475.289	-75.331	-0.329	-0.118
-474.274	-95.724	0.047	-0.013
-473.259	800.000	-0.056	0.205
-472.245	800.000	0.038	-0.114
-471.230	83.924	0.113	-0.124
-470.216	135.916	-0.160	0.210
-469.201	-98.161	-0.410	0.106
-468.186	-100.203	0.195	-0.049
-467.172	-153.982	0.212	-0.015
-466.157	171.896	-0.103	0.148
-465.143	441.209	0.280	0.614
-464.128	-65.168	-0.397	0.160
-463.113	48.712	0.096	-0.090
-462.099	542.994	-0.071	0.170
-461.084	27.782	0.169	-0.143
-460.070	100.694	0.190	0.221
-459.055	63.373	-0.300	0.302
-458.040	564.894	0.093	0.225
-457.026	219.714	0.084	0.135
-456.011	72.249	-0.224	0.234
-454.997	-200.000	0.007	0.050
-453.982	800.000	0.051	-0.145
-452.968	33.564	0.177	-0.154
-451.953	-5.019	-0.073	-0.051
-450.938	-6.470	0.071	-0.049
-449.924	0.364	-0.142	0.101
-448.909	76.141	-0.237	0.252
-447.895	-80.489	-0.291	0.097
-446.880	-3.795	0.125	-0.087
-445.865	9.518	0.121	0.092
-444.851	9.971	-0.169	0.129
-443.836	562.892	-0.032	0.078
-442.822	-150.374	0.075	0.006
-441.807	535.279	-0.114	-0.271
-440.792	94.206	-0.231	0.263
-439.778	30.961	-0.120	-0.103
-438.763	-200.000	0.068	0.342
-437.749	12.438	-0.293	-0.227
-436.734	-200.000	-0.082	-0.394
-435.719	800.000	-0.032	-0.110
-434.705	-187.413	-0.397	0.005
-433.690	-94.763	0.248	0.067
-432.676	-200.000	0.028	-0.144
-431.661	-146.861	-0.249	0.021
-430.646	583.880	-0.157	-0.386
-429.632	45.191	0.114	-0.106
-428.617	537.483	-0.047	-0.111
-427.603	30.664	-0.112	-0.096
-426.588	-162.575	-0.183	-0.009
-425.573	-115.952	-0.328	0.061
-424.559	-129.119	-0.198	-0.028
-423.544	699.852	0.018	0.048
-422.530	115.523	0.067	-0.082
-421.515	-200.000	0.008	-0.080
-420.500	-94.814	0.027	0.007
-419.486	111.248	-0.177	0.214
-418.471	-119.033	0.252	-0.044
-417.457	-40.339	0.178	-0.092
-416.442	201.117	0.105	0.162
-415.428	357.105	0.159	0.317
-414.413	-95.661	0.187	0.050
-413.398	107.059	0.042	0.050
-412.384	-200.000	0.001	0.040
-411.369	445.391	0.107	0.236
-410.355	-200.000	-0.012	0.301
-409.340	-77.747	-0.480	-0.166
-408.325	-92.338	0.129	-0.036
-407.311	231.311	-0.184	0.302
-406.296	800.000	-0.139	-0.399
-405.282	-140.327	-0.188	0.020
-404.267	800.000	0.091	0.282
-403.252	337.840	-0.093	-0.181
-402.238	185.383	-0.162	0.241
-401.223	-200.000	0.007	-0.337
-400.209	-32.138	-0.107	-0.060
-399.194	95.803	-0.200	0.229
-398.179	-200.000	-0.022	0.103
-397.165	409.228	0.190	0.403
-396.150	95.984	-0.047	-0.054
-395.136	800.000	0.082	-0.331
-394.121	-200.000	-0.049	0.302
-393.106	-21.927	-0.034	-0.021
-392.092	50.990	-0.239	-0.226
-391.077	800.000	-0.016	-0.060
-390.063	-152.076	-0.028	-0.002
-389.048	800.000	-0.092	0.298
-388.033	-21.088	-0.057	-0.035
-387.019	-200.000	0.012	0.072
-386.004	-123.934	0.326	-0.051
-384.990	-195.770	0.137	0.001
-383.975	150.928	-0.198	0.269
-382.960	646.547	-0.145	0.370
-381.946	-200.000	0.002	0.145
-380.931	344.491	0.198	0.387
-379.917	12.446	0.151	-0.116
-378.902	-88.766	0.312	-0.093
-377.888	-82.434	-0.262	-0.085
-376.873	9.299	0.327	-0.247
-375.858	-14.381	-0.239	-0.154
-374.844	-63.578	0.231	0.095
-373.829	135.985	-0.427	-0.556
-372.815	82.388	-0.041	0.044
-371.800	115.818	-0.074	0.091
-370.785	378.871	0.038	0.078
-369.771	94.091	-0.292	-0.331
-368.756	86.592	-0.174	-0.192
-367.742	92.852	-0.103	0.117
-366.727	54.432	0.134	0.129
-365.712	-19.053	0.482	0.299
-364.698	54.991	0.177	0.170
-363.683	-38.901	0.168	-0.088
-362.669	28.714	-0.192	0.163
-361.654	-200.000	0.103	0.507
-360.639	-68.495	0.083	-0.032
-359.625	-171.819	-0.104	-0.003
-358.610	-138.759	-0.115	-0.013
-357.596	236.110	-0.120	-0.198
-356.581	7.368	0.300	0.224
-355.566	-53.753	-0.438	-0.200
-354.552	-126.297	0.013	-0.002
-353.537	493.529	0.108	-0.247
-352.523	471.215	0.112	0.252
-351.508	-200.000	0.027	0.297
-350.493	395.756	0.155	-0.323
-349.479	-200.000	0.029	-0.135
-348.464	-137.362	0.319	-0.036
-347.450	-200.000	0.017	0.210
-346.435	-131.153	-0.061	0.008
-345.420	106.489	0.293	0.347
-344.406	-200.000	0.008	0.076
-343.391	94.778	0.082	0.093
-342.377	45.308	-0.270	-0.248
-341.362	579.754	0.078	0.192
-340.348	800.000	0.100	-0.366
-339.333	-5.859	-0.023	-0.016
-338.318	-50.990	0.083	0.039
-337.304	-200.000	0.048	0.215
-336.289	492.723	-0.093	0.212
-335.275	-114.708	-0.245	-0.047
-334.260	153.172	-0.133	0.181
-333.245	227.698	0.157	0.255
-332.231	88.915	0.173	0.193
-331.216	-189.862	-0.314	-0.004
-330.202	-200.000	0.026	-0.292
-329.187	-181.052	0.296	-0.006
-328.172	-77.790	0.405	0.140
-327.158	-151.081	-0.178	0.013
-326.143	-200.000	-0.016	-0.158
-325.129	69.510	-0.243	0.249
-324.114	365.478	0.027	0.054
-323.099	-55.104	0.256	-0.115
-322.085	-39.332	0.169	-0.088
-321.070	-36.980	0.184	0.098
-320.056	-200.000	-0.011	-0.273
-319.041	-20.461	-0.255	-0.157
-318.026	100.525	-0.191	-0.221
-317.012	-130.545	-0.178	-0.024
-315.997	-167.684	-0.297	-0.012
-314.983	-200.000	-0.059	-0.269
-313.968	475.439	-0.220	-0.495
-312.953	-144.624	0.408	-0.037
-311.939	33.306	-0.082	0.071
-310.924	-33.569	0.316	-0.174
-309.910	39.591	-0.077	-0.069
-308.895	40.122	0.080	0.072
-307.880	244.867	-0.071	-0.119
-306.866	-123.841	0.499	0.079
-305.851	-196.426	-0.117	-0.001
-304.837	88.059	-0.336	-0.371
-303.822	332.079	-0.174	-0.335
-302.807	29.108	0.077	-0.065
-301.793	-55.260	0.240	-0.107
-300.778	-134.169	0.255	0.031
-299.764	-53.397	0.126	-0.057
-298.749	-200.000	-0.030	0.185
-297.735	-89.652	-0.129	0.038
-296.720	-29.781	-0.249	0.142
-295.705	405.331	-0.146	0.307
-294.691	-111.546	0.132	-0.027
-293.676	-24.410	-0.153	-0.091
-292.662	-23.954	0.182	0.109
-291.647	20.570	-0.106	0.085
-290.632	-42.924	-0.068	-0.035
-289.618	414.555	0.225	0.477
-288.603	800.000	-0.043	-0.118
-287.589	318.706	-0.124	-0.235
-286.574	-29.652	0.155	-0.088
-285.559	460.598	0.146	0.324
-284.545	800.000	-0.084	0.264
-283.530	-200.000	-0.005	-0.263
-282.516	-64.364	-0.317	-0.129
-281.501	193.596	-0.150	-0.226
-280.486	0.005	-0.328	0.232
-279.472	4.053	-0.206	0.150
-278.457	-200.000	0.007	-0.094
-277.443	356.363	-0.111	0.220
-276.428	-131.220	-0.182	-0.024
-275.413	287.776	-0.053	-0.095
-274.399	122.248	0.313	-0.389
-273.384	54.869	0.041	0.039
-272.370	8.532	-0.164	0.123
-271.355	397.457	0.156	-0.325
-270.340	-5.301	-0.293	-0.200
-269.326	326.459	0.086	0.164
-268.311	185.685	0.098	0.145
-267.297	800.000	-0.016	-0.046
-266.282	-103.489	0.255	-0.060
-265.267	-96.945	0.174	0.045
-264.253	-200.000	-0.031	-0.147
-263.238	-56.130	0.035	0.016
-262.224	286.464	0.175	0.314
-261.209	234.965	0.104	0.171
-260.195	310.889	0.101	-0.189
-259.180	-50.451	-0.292	-0.137
-258.165	-136.106	-0.229	0.027
-257.151	-173.259	-0.090	-0.003
-256.136	-59.941	-0.185	-0.079
-255.122	170.714	-0.178	-0.254
-254.107	13.098	0.075	-0.058
-253.092	-74.301	0.251	-0.090
-252.078	693.350	-0.085	0.222
-251.063	165.035	0.192	-0.270
-250.049	-200.000	-0.071	0.413
-249.034	667.465	-0.076	-0.195
-248.019	515.583	0.220	0.511
-247.005	134.051	-0.046	-0.059
-245.990	-196.232	-0.279	-0.002
-244.976	119.665	0.328	-0.404
-243.961	-200.000	-0.009	-0.439
-242.946	800.000	0.061	0.190
-241.932	-61.859	-0.214	-0.089
-240.917	-162.764	-0.093	0.005
-239.903	510.413	-0.010	-0.024
-238.888	106.065	-0.058	-0.068
-237.873	3.985	0.223	0.162
-236.859	-105.120	0.412	-0.094
-235.844	-200.000	-0.015	0.292
-234.830	-27.131	-0.274	0.159
-233.815	-200.000	-0.014	-0.324
-232.800	-73.123	0.279	0.102
-231.786	-48.969	0.227	0.108
-230.771	-200.000	-0.052	-0.259
-229.757	300.997	-0.081	0.148
-228.742	-39.955	-0.160	-0.083
-227.727	-136.807	-0.176	-0.020
-226.713	57.358	0.224	-0.218
-225.698	800.000	-0.075	-0.312
-224.684	-73.200	0.140	0.051
-223.669	-76.751	0.052	-0.018
-222.655	-150.410	0.065	-0.005
-221.640	445.195	0.163	0.355
-220.625	28.396	-0.149	-0.125
-219.611	-105.807	0.242	-0.054
-218.596	-54.153	0.269	0.122
-217.582	-114.023	0.487	0.094
-216.567	-61.306	-0.189	0.079
-215.552	800.000	0.029	0.094
-214.538	783.022	-0.145	-0.394
-213.523	129.617	0.059	-0.074
-212.509	-86.180	0.265	0.081
-211.494	-58.255	-0.253	0.110
-210.479	237.199	0.187	0.307
-209.465	12.259	-0.206	-0.157
-208.450	43.756	-0.189	-0.172
-207.436	122.277	0.169	0.210
-206.421	-13.829	0.224	0.144
-205.406	-162.462	-0.271	-0.013
-204.392	-200.000	-0.005	0.205
-203.377	-130.783	-0.208	-0.028
-202.363	-200.000	0.055	0.260
-201.348	111.502	0.100	0.119
-200.333	-159.726	0.099	0.005
-199.319	800.000	0.031	-0.119
-198.304	-162.944	-0.140	0.007
-197.290	-57.549	0.257	-0.112
-196.275	378.603	-0.089	0.180
-195.260	107.962	0.146	-0.172
-194.246	-76.318	0.191	-0.067
-193.231	-36.812	0.292	0.156
-192.217	67.355	-0.140	-0.141
-191.202	411.320	0.111	0.234
-190.187	800.000	0.056	-0.160
-189.173	-140.777	0.151	0.015
-188.158	-137.982	0.225	0.025
-187.144	-200.000	0.046	0.320
-186.129	800.000	-0.008	-0.033
-185.114	800.000	-0.027	-0.107
-184.100	-200.000	-0.035	-0.191
-183.085	800.000	0.038	-0.156
-182.071	25.209	0.133	-0.110
-181.056	-200.000	-0.042	-0.324
-180.042	800.000	-0.049	-0.145
-179.027	141.537	0.220	-0.289
-178.012	-157.649	-0.159	0.009
-176.998	-43.185	-0.272	-0.137
-175.983	-0.348	0.066	0.047
-174.969	170.405	-0.095	-0.135
-173.954	87.477	-0.158	-0.173
-172.939	-176.318	0.315	-0.008
-171.925	123.263	-0.329	0.409
-170.910	-152.749	-0.206	-0.015
-169.896	-143.273	0.475	-0.045
-168.881	-79.779	0.205	0.068
-167.866	-145.709	0.249	-0.022
-166.852	552.651	-0.123	-0.293
-165.837	218.286	0.137	-0.217
-164.823	434.256	0.277	-0.596
-163.808	36.014	0.129	-0.113
-162.793	-200.000	-0.023	0.243
-161.779	144.602	-0.049	-0.065
-160.764	151.063	0.117	-0.158
-159.750	409.665	0.154	0.324
-158.735	242.496	0.046	-0.076
-157.720	800.000	0.026	-0.111
-156.706	241.776	0.140	0.231
-155.691	555.010	-0.131	-0.312
-154.677	184.535	0.068	0.100
-153.662	800.000	0.032	0.117
-152.647	471.722	-0.084	0.187
-151.633	-58.664	0.467	0.201
-150.618	98.293	-0.088	0.100
-149.604	76.840	0.164	0.173
-148.589	-160.433	0.354	-0.019
-147.574	800.000	-0.012	-0.046
-146.560	192.931	0.139	0.208
-145.545	9.088	0.291	-0.218
-144.531	-36.093	-0.161	-0.086
-143.516	-200.000	-0.030	-0.221
-142.502	168.182	-0.049	0.069
-141.487	-90.257	0.348	0.100
-140.472	-162.476	0.112	0.005
-139.458	338.834	-0.097	-0.187
-138.443	177.209	0.148	0.213
-137.429	198.249	-0.138	0.210
-136.414	29.128	-0.198	-0.167
-135.399	344.201	-0.040	-0.078
-134.385	243.254	-0.120	-0.199
-133.370	136.817	0.064	-0.082
-132.356	-85.193	-0.206	0.064
-131.341	-77.360	-0.233	0.080
-130.326	102.132	-0.177	-0.205
-129.312	-109.375	-0.305	0.064
-128.297	446.174	0.160	0.347
-127.283	203.753	0.100	-0.153
-126.268	90.561	0.203	0.225
-125.253	-116.524	-0.283	0.052
-124.239	451.413	-0.135	0.295
-123.224	-200.000	-0.074	-0.436
-122.210	800.000	-0.027	-0.098
