DTS Sentinel unit serial number:	SN413079Multiplexer serial number:	ORYXHardware model number:	OX4-SRSoftware version number:	ORYX F/W v4.00 Oryx Data Collector v3.7.2.0data status	okinstallation	princeton_trtdifferential loss correction	single-endedforward channel	channel 4reverse channel	N/Adate	2019/09/12time	20:49:35forward acquisition time	60.00reverse acquisition time	0.00gamma	496.2192k internal	0.2312k external	0.2312temperature offset calibration	1.0165default loss term (dB/km)	0.3790temperature slope calibration	1.0000multiplexer offset coefficient	1.0000multiplexer slope coefficient	1.0000fibre end	0.00T internal ref (°C)	31.00T ext. ref 1 (°C)	3.62T ext. ref 2 (°C)	25.51length (m)	temperature (°C)	Stokes	anti-Stokes-747.200	228.216	-0.083	0.137
-746.185	-25.665	0.074	0.044
-745.171	-102.930	-0.240	-0.058
-744.156	-13.511	-0.206	0.135
-743.142	19.063	0.107	0.087
-742.127	246.342	-0.189	0.324
-741.112	-43.271	-0.033	-0.017
-740.098	-12.816	0.218	0.144
-739.083	-99.066	0.158	0.041
-738.069	-200.000	-0.012	0.084
-737.054	-200.000	-0.067	0.456
-736.039	-178.014	-0.376	0.009
-735.025	-74.880	-0.069	-0.025
-734.010	-39.981	-0.327	-0.173
-732.996	7.725	-0.288	0.219
-731.981	-200.000	0.049	-0.217
-730.966	303.275	-0.066	-0.124
-729.952	64.071	0.200	-0.204
-728.937	-123.674	-0.150	-0.024
-727.923	-136.476	0.166	0.020
-726.908	-26.897	-0.255	-0.151
-725.894	800.000	-0.049	-0.151
-724.879	36.323	0.099	-0.089
-723.864	-6.062	0.130	0.090
-722.850	-169.890	0.096	-0.004
-721.835	309.037	-0.163	0.308
-720.821	-11.434	-0.373	0.248
-719.806	800.000	0.109	-0.317
-718.791	25.052	-0.023	-0.019
-717.777	-200.000	-0.001	-0.317
-716.762	240.027	0.098	-0.166
-715.748	115.621	0.274	0.339
-714.733	-65.545	0.104	-0.042
-713.718	-200.000	-0.009	-0.083
-712.704	-107.706	-0.144	-0.032
-711.689	270.569	0.086	-0.153
-710.675	177.060	0.081	-0.119
-709.660	67.176	0.128	0.132
-708.645	40.232	-0.277	0.253
-707.631	-156.289	-0.040	0.003
-706.616	-38.479	-0.253	-0.135
-705.602	800.000	0.021	-0.080
-704.587	-33.196	-0.131	-0.073
-703.572	-200.000	-0.001	0.224
-702.558	-106.091	0.300	-0.068
-701.543	52.640	-0.097	0.094
-700.529	-30.762	-0.212	0.121
-699.514	-200.000	0.005	0.291
-698.499	0.479	0.099	-0.072
-697.485	78.034	0.021	0.023
-696.470	60.392	-0.146	-0.146
-695.456	-7.596	0.152	-0.104
-694.441	93.400	-0.150	-0.171
-693.426	-200.000	-0.012	0.119
-692.412	587.052	-0.092	0.229
-691.397	460.230	0.175	-0.395
-690.383	-77.443	0.197	-0.069
-689.368	78.953	0.194	0.210
-688.354	-78.256	-0.298	0.104
-687.339	-56.821	0.057	-0.025
-686.324	58.145	-0.177	-0.176
-685.310	207.309	-0.194	-0.306
-684.295	800.000	-0.057	-0.224
-683.281	-77.428	0.477	-0.168
-682.266	685.513	0.073	0.194
-681.251	-128.784	-0.162	0.023
-680.237	800.000	-0.088	0.256
-679.222	418.686	0.114	0.247
-678.208	164.658	0.322	0.460
-677.193	494.925	-0.123	-0.285
-676.178	-200.000	0.019	-0.137
-675.164	-200.000	-0.034	0.388
-674.149	-200.000	-0.008	0.170
-673.135	213.123	0.025	-0.040
-672.120	433.259	-0.008	0.018
-671.105	800.000	0.044	0.127
-670.091	135.965	-0.185	-0.244
-669.076	607.560	-0.065	-0.163
-668.062	40.280	0.257	-0.234
-667.047	-200.000	-0.095	-0.504
-666.032	-90.862	-0.369	0.107
-665.018	-200.000	-0.023	0.326
-664.003	-23.753	-0.107	0.065
-662.989	420.691	0.157	-0.340
-661.974	160.932	0.122	-0.172
-660.959	18.236	0.087	0.070
-659.945	800.000	0.060	-0.179
-658.930	-200.000	0.003	0.055
-657.916	-53.876	-0.109	0.050
-656.901	-21.114	0.073	0.045
-655.886	39.217	-0.142	0.128
-654.872	-51.771	0.315	0.148
-653.857	-177.373	-0.419	0.010
-652.843	-36.914	0.154	0.083
-651.828	800.000	-0.015	-0.047
-650.814	97.906	-0.138	0.161
-649.799	-200.000	0.033	0.185
-648.784	-92.876	-0.284	0.080
-647.770	-119.583	0.391	0.068
-646.755	-168.831	-0.207	0.008
-645.741	235.545	-0.054	-0.090
-644.726	197.147	0.075	0.115
-643.711	-48.734	0.145	0.070
-642.697	800.000	-0.084	-0.260
-641.682	800.000	-0.038	-0.162
-640.668	-200.000	-0.052	0.253
-639.653	107.874	0.230	0.277
-638.638	0.058	-0.147	0.106
-637.624	177.575	0.045	-0.066
-636.609	-81.594	-0.209	-0.069
-635.595	-200.000	-0.051	0.258
-634.580	90.424	-0.112	-0.126
-633.565	-200.000	-0.003	-0.213
-632.551	265.051	0.041	0.072
-631.536	42.291	0.090	-0.083
-630.522	-112.207	-0.307	0.062
-629.507	-154.903	-0.082	-0.005
-628.492	57.270	0.134	-0.132
-627.478	-53.944	-0.388	-0.179
-626.463	-82.673	0.072	0.023
-625.449	-25.989	0.383	-0.227
-624.434	129.551	0.147	-0.190
-623.419	-83.212	0.167	-0.054
-622.405	34.821	-0.111	0.098
-621.390	265.050	-0.089	-0.156
-620.376	800.000	-0.155	-0.555
-619.361	-56.069	-0.160	-0.072
-618.346	-45.897	0.060	0.030
-617.332	181.348	0.269	-0.399
-616.317	-200.000	-0.079	-0.426
-615.303	800.000	-0.029	-0.085
-614.288	15.835	-0.204	-0.162
-613.273	-65.259	-0.075	-0.031
-612.259	-200.000	-0.023	0.189
-611.244	129.507	0.159	0.205
-610.230	174.281	-0.065	-0.095
-609.215	-200.000	-0.005	-0.354
-608.201	-200.000	0.060	0.320
-607.186	-200.000	0.041	-0.296
-606.171	-200.000	0.004	-0.063
-605.157	-70.996	-0.057	0.022
-604.142	34.570	0.178	-0.157
-603.128	645.322	-0.119	-0.306
-602.113	-200.000	-0.045	0.237
-601.098	-200.000	-0.059	-0.276
-600.084	-72.232	-0.379	-0.142
-599.069	-97.346	0.243	-0.064
-598.055	689.639	0.176	-0.464
-597.040	-200.000	0.023	0.126
-596.025	-79.486	-0.190	-0.065
-595.011	-200.000	0.015	0.110
-593.996	800.000	0.083	0.245
-592.982	-63.148	-0.245	-0.102
-591.967	-114.468	0.374	0.073
-590.952	-172.685	0.181	-0.006
-589.938	175.539	0.093	-0.136
-588.923	28.112	0.175	-0.149
-587.909	41.016	0.096	-0.087
-586.894	-200.000	0.024	-0.176
-585.879	-190.005	-0.369	0.004
-584.865	204.030	0.047	-0.074
-583.850	-69.749	-0.159	-0.061
-582.836	-200.000	-0.002	0.063
-581.821	-200.000	0.030	0.280
-580.806	-184.801	-0.188	0.003
-579.792	226.828	-0.080	-0.132
-578.777	8.784	0.104	-0.079
-577.763	-55.529	-0.274	0.124
-576.748	85.922	0.197	-0.219
-575.733	620.735	-0.174	-0.441
-574.719	143.189	-0.068	-0.091
-573.704	595.530	0.070	0.174
-572.690	-200.000	0.003	0.109
-571.675	-200.000	-0.025	-0.211
-570.661	-62.386	-0.263	0.110
-569.646	-48.284	-0.153	0.074
-568.631	292.309	0.165	0.303
-567.617	118.024	-0.105	0.131
-566.602	-200.000	-0.016	0.342
-565.588	-12.496	0.078	-0.052
-564.573	85.548	-0.114	-0.126
-563.558	-200.000	0.062	0.345
-562.544	-182.340	-0.130	0.002
-561.529	-153.746	0.317	-0.022
-560.515	-114.417	-0.163	0.032
-559.500	-100.312	0.191	0.048
-558.485	-124.122	-0.153	-0.024
-557.471	800.000	-0.064	0.191
-556.456	112.441	0.091	0.110
-555.442	24.543	-0.471	0.392
-554.427	800.000	0.155	0.471
-553.412	47.493	-0.213	0.200
-552.398	-14.923	-0.426	0.275
-551.383	-18.460	0.184	0.116
-550.369	-52.744	-0.206	-0.096
-549.354	-97.388	0.151	-0.040
-548.339	215.004	-0.218	-0.348
-547.325	-74.681	0.142	-0.052
-546.310	79.259	0.155	0.167
-545.296	-200.000	0.021	0.129
-544.281	800.000	0.044	0.136
-543.266	-107.644	0.245	-0.054
-542.252	-141.342	-0.195	0.020
-541.237	800.000	-0.018	0.075
-540.223	65.399	0.118	0.121
-539.208	60.140	-0.134	-0.133
-538.193	-130.075	-0.082	-0.011
-537.179	-89.883	-0.292	0.086
-536.164	156.695	-0.177	-0.246
-535.150	267.150	0.153	0.270
-534.135	-6.954	0.101	-0.069
-533.121	84.533	0.117	-0.129
-532.106	-53.370	-0.167	0.077
-531.091	-136.001	0.086	-0.010
-530.077	-144.774	0.139	0.013
-529.062	19.279	0.174	-0.141
-528.048	2.344	-0.178	0.130
-527.033	800.000	-0.058	-0.203
-526.018	46.051	-0.127	-0.118
-525.004	423.823	0.023	-0.050
-523.989	-59.216	0.193	-0.084
-522.975	7.880	-0.112	0.085
-521.960	97.334	-0.174	0.201
-520.945	800.000	0.022	0.070
-519.931	52.877	0.192	0.184
-518.916	-200.000	-0.003	-0.035
-517.902	335.000	-0.078	-0.152
-516.887	-68.021	-0.181	0.071
-515.872	107.578	0.067	0.080
-514.858	355.298	0.120	-0.240
-513.843	-200.000	-0.005	0.086
-512.829	104.226	0.283	-0.335
-511.814	121.194	0.029	-0.037
-510.799	4.657	-0.057	0.042
-509.785	800.000	0.054	-0.176
-508.770	15.306	0.098	-0.077
-507.756	125.232	0.159	-0.202
-506.741	77.374	-0.032	0.034
-505.726	260.939	-0.035	0.061
-504.712	144.442	-0.154	-0.206
-503.697	22.541	-0.071	0.058
-502.683	-32.037	0.129	-0.073
-501.668	133.844	0.120	0.157
-500.653	693.755	-0.041	-0.108
-499.639	800.000	0.012	0.038
-498.624	15.008	-0.108	-0.085
-497.610	657.826	0.039	-0.101
-496.595	-170.788	-0.232	0.008
-495.581	800.000	0.025	-0.082
-494.566	-200.000	0.003	0.039
-493.551	-122.769	-0.141	0.023
-492.537	-200.000	0.046	0.331
-491.522	59.468	0.081	0.080
-490.508	102.266	-0.133	0.156
-489.493	412.571	-0.067	0.143
-488.478	800.000	-0.024	-0.105
-487.464	292.459	0.157	-0.288
-486.449	-125.910	-0.271	-0.041
-485.435	-200.000	-0.012	0.232
-484.420	64.478	-0.146	0.148
-483.405	-141.592	0.389	-0.039
-482.391	-3.136	-0.347	0.243
-481.376	-75.370	-0.104	0.037
-480.362	-150.510	0.208	0.016
-479.347	-171.452	-0.130	0.004
-478.332	-108.424	0.258	-0.056
-477.318	23.108	0.073	0.060
-476.303	-65.852	0.249	0.100
-475.289	360.180	-0.088	0.177
-474.274	1.386	-0.102	0.074
-473.259	-75.197	0.168	-0.060
-472.245	800.000	-0.099	0.314
-471.230	61.884	-0.303	-0.304
-470.216	-4.668	-0.102	-0.071
-469.201	357.406	0.024	-0.048
-468.186	-63.638	0.170	0.070
-467.172	-88.078	0.096	0.029
-466.157	-37.466	-0.121	0.065
-465.143	-140.385	0.264	0.028
-464.128	-200.000	0.072	0.343
-463.113	631.661	0.099	0.251
-462.099	-200.000	0.008	-0.123
-461.084	-200.000	-0.003	-0.144
-460.070	-148.721	0.320	0.026
-459.055	-200.000	-0.023	-0.253
-458.040	309.836	-0.140	-0.264
-457.026	-129.373	0.317	0.044
-456.011	800.000	-0.011	-0.033
-454.997	800.000	0.054	-0.159
-453.982	-101.036	0.096	-0.024
-452.968	264.719	0.157	0.274
-451.953	-200.000	-0.032	-0.148
-450.938	-200.000	0.028	-0.137
-449.924	-35.698	0.142	0.077
-448.909	-200.000	0.047	-0.314
-447.895	103.225	-0.264	-0.310
-446.880	-114.182	-0.136	0.026
-445.865	96.106	-0.084	0.096
-444.851	358.824	-0.077	-0.155
-443.836	-117.648	-0.404	-0.073
-442.822	-54.311	0.243	-0.111
-441.807	0.901	-0.100	0.072
-440.792	-132.873	0.190	-0.024
-439.778	-112.846	0.212	-0.042
-438.763	-94.397	-0.230	-0.063
-437.749	159.031	0.217	-0.302
-436.734	-80.013	-0.377	-0.127
-435.719	-110.171	0.598	0.125
-434.705	405.600	0.038	-0.080
-433.690	-51.507	0.370	-0.173
-432.676	11.139	0.088	-0.068
-431.661	800.000	0.031	-0.104
-430.646	-7.432	0.024	-0.016
-429.632	-102.318	-0.232	0.056
-428.617	-200.000	-0.039	0.332
-427.603	574.689	-0.117	0.286
-426.588	-200.000	0.018	0.140
-425.573	-200.000	-0.003	0.218
-424.559	-119.045	0.100	0.018
-423.544	133.594	0.102	-0.132
-422.530	-200.000	0.035	-0.269
-421.515	231.884	-0.049	-0.080
-420.500	266.068	-0.063	-0.109
-419.486	-6.290	-0.162	-0.111
-418.471	-200.000	-0.026	0.342
-417.457	800.000	0.020	0.088
-416.442	163.911	-0.065	0.091
-415.428	-145.762	-0.189	-0.017
-414.413	-51.660	0.202	0.094
-413.398	395.713	0.167	-0.349
-412.384	-43.021	-0.273	0.138
-411.369	-108.161	0.131	0.028
-410.355	-30.713	0.193	0.110
-409.340	-32.425	0.140	0.078
-408.325	800.000	-0.048	0.196
-407.311	-200.000	0.063	0.350
-406.296	-200.000	-0.047	0.312
-405.282	-120.534	0.156	-0.027
-404.267	2.774	-0.135	-0.098
-403.252	21.942	-0.231	0.188
-402.238	80.165	-0.132	-0.142
-401.223	198.721	0.196	0.301
-400.209	-129.197	-0.243	-0.034
-399.194	-62.643	-0.172	-0.071
-398.179	-200.000	0.008	-0.084
-397.165	-173.383	-0.221	0.007
-396.150	223.531	0.133	0.214
-395.136	-60.167	-0.058	-0.025
-394.121	68.683	0.053	0.055
-393.106	-200.000	0.005	-0.375
-392.092	-200.000	-0.089	0.518
-391.077	-68.523	0.161	-0.062
-390.063	65.922	-0.141	0.143
-389.048	230.320	0.054	0.088
-388.033	-200.000	0.011	0.136
-387.019	-200.000	-0.001	0.083
-386.004	143.702	0.148	-0.197
-384.990	800.000	-0.059	0.197
-383.975	196.633	-0.156	-0.238
-382.960	-154.002	-0.357	0.024
-381.946	-55.239	0.327	-0.147
-380.931	23.053	-0.146	0.120
-379.917	800.000	-0.057	0.184
-378.902	27.895	-0.027	-0.023
-377.888	-69.105	-0.562	0.216
-376.873	-102.279	0.284	-0.068
-375.858	297.008	0.112	0.206
-374.844	-10.240	0.200	-0.132
-373.829	34.959	0.201	0.176
-372.815	66.417	0.169	0.172
-371.800	114.524	0.054	-0.066
-370.785	295.350	-0.103	0.189
-369.771	-120.991	-0.199	-0.033
-368.756	175.342	-0.029	-0.042
-367.742	52.015	0.097	0.093
-366.727	-118.916	0.252	-0.044
-365.712	800.000	0.070	0.206
-364.698	-72.489	0.152	0.056
-363.683	-125.340	0.492	0.075
-362.669	281.057	-0.160	0.286
-361.654	-200.000	-0.009	0.043
-360.639	-8.841	-0.253	0.170
-359.625	345.426	-0.053	-0.104
-358.610	18.688	0.114	0.091
-357.596	-200.000	0.019	-0.319
-356.581	-200.000	0.004	0.093
-355.566	800.000	0.100	-0.377
-354.552	205.184	0.040	0.063
-353.537	-50.509	0.169	-0.080
-352.523	-16.885	0.184	-0.116
-351.508	173.298	-0.206	-0.296
-350.493	800.000	-0.090	-0.304
-349.479	800.000	-0.091	-0.263
-348.464	-57.415	-0.092	0.040
-347.450	-200.000	0.031	-0.310
-346.435	408.791	-0.066	0.139
-345.420	-87.557	-0.160	0.048
-344.406	-200.000	0.005	0.327
-343.391	-125.318	-0.140	0.021
-342.377	11.326	-0.199	-0.152
-341.362	12.835	-0.352	-0.272
-340.348	-190.737	-0.263	-0.003
-339.333	-200.000	0.017	-0.302
-338.318	-200.000	0.014	-0.127
-337.304	224.411	0.124	0.200
-336.289	-84.588	-0.422	0.133
-335.275	94.664	0.135	-0.153
-334.260	-85.590	0.281	-0.087
-333.245	-84.791	-0.212	-0.067
-332.231	216.588	-0.020	-0.032
-331.216	-117.742	0.048	-0.009
-330.202	-122.748	0.203	-0.033
-329.187	800.000	-0.014	0.045
-328.172	-4.810	0.261	0.180
-327.158	-107.862	0.258	-0.056
-326.143	142.674	0.181	-0.239
-325.129	387.724	-0.036	0.075
-324.114	-110.886	-0.304	-0.063
-323.099	44.908	0.062	-0.057
-322.085	-200.000	0.010	-0.121
-321.070	189.651	0.079	-0.117
-320.056	143.700	-0.143	-0.190
-319.041	-136.755	0.015	0.002
-318.026	800.000	-0.039	-0.150
-317.012	-79.953	0.286	0.096
-315.997	-35.482	0.228	-0.124
-314.983	-18.866	-0.380	-0.236
-313.968	52.866	0.255	-0.243
-312.953	-200.000	0.050	-0.232
-311.939	466.257	-0.067	0.151
-310.924	149.894	0.142	0.193
-309.910	234.281	0.202	0.331
-308.895	-155.321	0.362	0.023
-307.880	-200.000	-0.042	-0.277
-306.866	107.518	0.053	-0.063
-305.851	-113.400	0.292	0.057
-304.837	84.012	0.299	0.325
-303.822	115.071	-0.167	0.203
-302.807	14.052	0.112	0.087
-301.793	-0.376	-0.288	0.204
-300.778	-17.718	0.240	0.150
-299.764	-200.000	-0.003	0.158
-298.749	800.000	0.104	0.448
-297.735	-200.000	0.054	0.243
-296.720	800.000	0.152	0.496
-295.705	-200.000	0.071	-0.365
-294.691	-50.770	0.369	0.173
-293.676	8.071	-0.303	-0.226
-292.662	176.055	0.075	-0.109
-291.647	47.215	0.272	-0.252
-290.632	-200.000	-0.066	-0.373
-289.618	-60.006	-0.146	0.062
-288.603	-54.331	-0.392	0.177
-287.589	26.292	0.029	-0.024
-286.574	-111.822	-0.240	0.048
-285.559	32.318	0.032	0.028
-284.545	44.312	0.159	0.145
-283.530	-41.280	0.144	0.074
-282.516	-189.141	0.195	-0.002
-281.501	246.331	-0.084	-0.141
-280.486	-77.638	-0.355	-0.122
-279.472	-200.000	0.050	0.236
-278.457	92.563	-0.192	-0.215
-277.443	9.708	0.178	0.135
-276.428	-145.492	-0.264	0.024
-275.413	-146.884	-0.189	0.016
-274.399	-200.000	-0.030	-0.154
-273.384	312.514	0.160	-0.299
-272.370	-200.000	-0.027	0.176
-271.355	31.315	-0.054	-0.046
-270.340	692.131	0.173	-0.451
-269.326	-200.000	0.012	-0.689
-268.311	-122.016	-0.142	0.023
-267.297	-200.000	-0.021	0.174
-266.282	800.000	0.098	0.327
-265.267	-59.190	0.273	0.117
-264.253	136.311	-0.062	-0.080
-263.238	-125.298	-0.065	-0.010
-262.224	800.000	-0.050	-0.217
-261.209	-200.000	0.001	0.227
-260.195	-120.576	-0.386	-0.065
-259.180	-74.020	0.055	-0.020
-258.165	-200.000	0.040	0.200
-257.151	800.000	-0.132	0.464
-256.136	50.732	0.057	0.054
-255.122	268.567	0.071	0.123
-254.107	306.370	0.112	0.208
-253.092	-184.923	-0.105	0.002
-252.078	115.201	-0.073	-0.088
-251.063	202.125	0.125	0.192
-250.049	-129.953	0.244	0.033
-249.034	-200.000	0.011	0.048
-248.019	800.000	0.011	0.033
-247.005	38.998	0.213	-0.189
-245.990	16.868	-0.054	-0.042
-244.976	-169.563	0.169	0.006
-243.961	-57.192	-0.184	-0.081
-242.946	121.442	0.046	0.057
-241.932	6.762	0.033	0.025
-240.917	800.000	-0.122	0.346
-239.903	321.626	-0.119	-0.225
-238.888	186.737	0.181	0.268
-237.873	188.689	-0.253	-0.376
-236.859	215.480	0.241	-0.380
-235.844	-94.644	0.220	-0.059
-234.830	-23.342	-0.164	0.098
-233.815	-200.000	-0.005	-0.046
-232.800	800.000	0.122	-0.420
-231.786	35.338	0.093	0.081
-230.771	-10.311	-0.260	0.171
-229.757	-113.444	0.374	-0.073
-228.742	800.000	-0.131	0.412
-227.727	169.203	0.106	0.151
-226.713	-7.334	-0.199	-0.134
-225.698	166.690	-0.090	-0.127
-224.684	17.241	0.229	0.180
-223.669	-52.322	0.385	-0.177
-222.655	-4.686	-0.237	-0.163
-221.640	-69.751	-0.262	0.100
-220.625	219.966	0.248	-0.395
-219.611	625.984	-0.097	-0.244
-218.596	800.000	-0.027	0.099
-217.582	79.818	-0.215	0.229
-216.567	-132.732	0.252	-0.032
-215.552	-95.654	0.215	0.057
-214.538	377.260	0.021	-0.043
-213.523	27.583	0.127	0.106
-212.509	-200.000	-0.037	-0.244
-211.494	120.182	-0.119	0.147
-210.479	-200.000	0.001	-0.136
-209.465	-122.813	-0.300	0.048
-208.450	207.775	-0.092	0.142
-207.436	-190.175	0.395	0.004
-206.421	55.833	-0.332	-0.320
-205.406	-200.000	0.007	0.119
-204.392	-164.090	-0.120	0.006
-203.377	36.202	-0.120	0.105
-202.363	12.082	-0.103	-0.079
-201.348	800.000	-0.084	-0.231
-200.333	-200.000	0.059	-0.264
-199.319	-107.186	0.267	-0.058
-198.304	260.572	-0.132	-0.226
-197.290	45.425	-0.103	0.094
-196.275	229.203	0.151	0.244
-195.260	419.769	-0.142	0.301
-194.246	800.000	0.059	-0.236
-193.231	-200.000	0.036	-0.276
-192.217	800.000	0.088	-0.356
-191.202	-200.000	0.028	0.132
-190.187	-78.397	-0.443	-0.151
-189.173	535.612	-0.139	0.327
-188.158	800.000	-0.040	0.130
-187.144	-20.597	0.223	-0.136
-186.129	22.141	0.129	0.105
-185.114	404.148	-0.104	0.218
-184.100	170.816	0.172	-0.245
-183.085	-130.723	-0.270	-0.036
-182.071	-28.604	0.029	0.016
-181.056	-61.715	-0.151	-0.063
-180.042	800.000	-0.012	-0.033
-179.027	800.000	-0.068	-0.244
-178.012	-1.342	0.079	-0.055
-176.998	-200.000	0.063	0.444
-175.983	-200.000	0.027	0.292
-174.969	-200.000	-0.012	-0.165
-173.954	-107.874	0.296	0.064
-172.939	-157.143	-0.200	0.012
-171.925	155.029	-0.105	0.143
-170.910	108.873	0.012	-0.014
-169.896	800.000	0.101	0.359
-168.881	-187.119	-0.353	0.005
-167.866	326.197	0.223	-0.424
-166.852	800.000	-0.117	0.335
-165.837	-41.532	0.210	0.107
-164.823	-200.000	-0.035	0.275
-163.808	800.000	-0.072	0.242
-162.793	183.726	-0.118	-0.172
-161.779	163.156	0.069	-0.096
-160.764	515.286	-0.085	0.197
-159.750	-143.147	0.307	0.029
-158.735	-180.066	-0.320	0.007
-157.720	155.843	-0.191	0.261
-156.706	-183.878	0.112	-0.002
-155.691	150.672	0.112	0.151
-154.677	-200.000	-0.011	0.195
-153.662	15.039	0.081	0.063
-152.647	-200.000	0.009	0.063
-151.633	138.598	-0.035	-0.046
-150.618	-48.457	-0.163	-0.078
-149.604	-80.134	0.135	-0.045
-148.589	-120.315	-0.419	0.071
-147.574	-200.000	0.077	0.461
-146.560	-66.022	0.381	0.151
-145.545	-35.380	0.156	0.084
-144.531	-166.946	-0.167	-0.007
-143.516	-158.270	0.065	0.004
-142.502	-73.133	-0.271	0.099
-141.487	-105.139	-0.497	0.113
-140.472	84.364	-0.145	0.157
-139.458	45.689	0.293	0.268
-138.443	800.000	0.059	-0.198
-137.429	-200.000	-0.002	0.133
-136.414	173.758	-0.159	-0.227
-135.399	-34.426	0.177	-0.096
-134.385	58.018	-0.162	-0.157
-133.370	-3.149	-0.182	0.126
-132.356	-125.394	0.140	-0.021
-131.341	-135.313	0.541	-0.064
-130.326	307.076	-0.101	0.186
-129.312	51.600	0.061	-0.057
-128.297	-7.459	-0.372	0.249
-127.283	-103.537	-0.178	-0.041
-126.268	30.020	0.121	0.102
-125.253	-166.729	-0.242	-0.010
-124.239	-119.727	0.265	0.045
-123.224	-50.117	0.514	-0.241
-122.210	200.998	0.111	-0.170
-121.195	-48.991	0.170	-0.080
