DTS Sentinel unit serial number:	SN413079Multiplexer serial number:	ORYXHardware model number:	OX4-SRSoftware version number:	ORYX F/W v4.00 Oryx Data Collector v3.7.2.0data status	okinstallation	princeton_trtdifferential loss correction	single-endedforward channel	channel 4reverse channel	N/Adate	2019/09/17time	12:01:35forward acquisition time	60.00reverse acquisition time	0.00gamma	496.2192k internal	0.2307k external	0.2307temperature offset calibration	0.9990default loss term (dB/km)	0.3790temperature slope calibration	1.0000multiplexer offset coefficient	1.0000multiplexer slope coefficient	1.0000fibre end	0.00T internal ref (°C)	31.12T ext. ref 1 (°C)	0.42T ext. ref 2 (°C)	27.21length (m)	temperature (°C)	Stokes	anti-Stokes-747.200	259.015	0.064	0.112
-746.185	60.968	-0.078	-0.079
-745.171	-181.001	0.076	-0.002
-744.156	-7.825	-0.177	0.122
-743.142	76.871	-0.031	0.034
-742.127	291.939	-0.191	0.354
-741.112	139.207	-0.110	-0.147
-740.098	-200.000	-0.058	0.311
-739.083	800.000	0.083	0.302
-738.069	-42.808	0.291	-0.151
-737.054	-62.149	-0.351	-0.149
-736.039	578.015	-0.092	-0.229
-735.025	75.519	0.031	-0.033
-734.010	276.212	0.104	-0.187
-732.996	-81.633	-0.247	-0.082
-731.981	-90.217	-0.123	0.036
-730.966	-200.000	0.064	-0.502
-729.952	-200.000	-0.006	-0.110
-728.937	-200.000	0.005	-0.102
-727.923	68.203	0.219	-0.228
-726.908	551.520	-0.050	-0.123
-725.894	93.848	0.099	-0.114
-724.879	-132.661	-0.372	0.048
-723.864	100.450	0.236	-0.278
-722.850	-87.373	-0.086	0.026
-721.835	71.256	0.096	0.101
-720.821	-200.000	-0.002	-0.033
-719.806	-96.441	-0.167	0.045
-718.791	-29.145	0.212	-0.124
-717.777	-59.033	0.219	-0.096
-716.762	70.518	-0.228	0.239
-715.748	-55.033	-0.174	-0.080
-714.733	-108.869	-0.269	-0.058
-713.718	-58.589	0.132	-0.058
-712.704	134.515	-0.309	-0.407
-711.689	40.686	-0.106	-0.097
-710.675	-29.794	0.127	-0.073
-709.660	-186.965	-0.120	0.002
-708.645	-100.064	0.155	0.039
-707.631	369.158	-0.079	-0.161
-706.616	-98.370	-0.094	-0.025
-705.602	-49.831	0.321	0.155
-704.587	277.782	0.120	-0.216
-703.572	13.640	-0.127	0.100
-702.558	-89.669	-0.258	0.077
-701.543	-149.269	0.246	-0.020
-700.529	15.037	0.192	0.152
-699.514	64.528	-0.152	-0.155
-698.499	-200.000	-0.007	-0.199
-697.485	60.980	0.041	0.042
-696.470	-54.005	0.032	0.015
-695.456	-79.773	-0.249	0.085
-694.441	-42.359	-0.230	-0.119
-693.426	-82.335	0.226	-0.075
-692.412	-200.000	-0.005	-0.048
-691.397	-46.105	0.092	-0.046
-690.383	171.657	0.155	-0.226
-689.368	-92.513	-0.145	-0.041
-688.354	171.894	0.051	0.074
-687.339	-87.040	0.202	0.062
-686.324	-200.000	-0.011	0.266
-685.310	155.745	0.111	0.155
-684.295	124.106	-0.081	0.104
-683.281	747.849	0.050	0.137
-682.266	144.301	0.067	0.091
-681.251	-106.104	0.302	-0.069
-680.237	-200.000	0.638	-0.002
-679.222	-200.000	-0.075	-0.408
-678.208	800.000	-0.029	-0.096
-677.193	-200.000	0.014	-0.171
-676.178	-147.102	-0.209	-0.018
-675.164	-176.216	-0.392	0.010
-674.149	48.956	0.198	0.188
-673.135	292.092	0.080	0.147
-672.120	-142.109	-0.071	-0.007
-671.105	147.112	0.231	-0.315
-670.091	-200.000	0.100	-0.464
-669.076	234.599	0.158	0.264
-668.062	800.000	0.057	0.190
-667.047	-153.039	-0.323	-0.023
-666.032	-11.126	0.391	-0.262
-665.018	618.423	-0.053	0.135
-664.003	-121.745	-0.286	0.048
-662.989	-200.000	0.009	-0.047
-661.974	72.073	0.118	-0.125
-660.959	-46.172	0.310	-0.155
-659.945	-200.000	-0.042	-0.458
-658.930	35.148	-0.103	0.091
-657.916	-131.614	0.154	-0.021
-656.901	-112.879	-0.182	0.037
-655.886	115.637	0.190	-0.236
-654.872	-43.644	0.063	0.032
-653.857	-111.979	-0.097	0.020
-652.843	-200.000	-0.005	-0.062
-651.828	-175.130	0.250	-0.007
-650.814	-94.465	0.464	0.128
-649.799	-195.746	-0.276	0.002
-648.784	-112.635	0.304	-0.061
-647.770	-16.623	0.173	0.111
-646.755	214.455	-0.093	0.149
-645.741	98.316	0.022	-0.026
-644.726	10.778	0.279	0.216
-643.711	-101.343	0.202	-0.050
-642.697	47.774	0.169	0.160
-641.682	-102.500	0.278	-0.067
-640.668	-19.025	-0.095	-0.060
-639.653	137.919	-0.164	0.218
-638.638	-200.000	0.023	-0.152
-637.624	-200.000	0.036	0.323
-636.609	33.823	-0.083	-0.073
-635.595	689.547	-0.132	0.351
-634.580	587.978	-0.044	0.111
-633.565	151.205	0.177	-0.244
-632.551	24.369	0.125	0.104
-631.536	90.226	0.102	0.116
-630.522	-162.124	-0.142	-0.007
-629.507	-3.002	-0.169	0.119
-628.492	688.755	0.023	-0.062
-627.478	800.000	0.159	-0.499
-626.463	-200.000	0.042	0.239
-625.449	-113.495	0.103	-0.020
-624.434	-200.000	-0.026	-0.261
-623.419	47.305	0.157	0.148
-622.405	121.402	-0.145	-0.183
-621.390	-65.627	0.147	0.060
-620.376	97.512	-0.057	-0.067
-619.361	-50.755	-0.081	-0.038
-618.346	-200.000	0.043	-0.211
-617.332	-98.736	-0.441	0.114
-616.317	-53.569	0.203	-0.094
-615.303	78.127	0.129	-0.139
-614.288	19.287	0.137	-0.111
-613.273	81.562	0.256	-0.280
-612.259	761.650	-0.050	-0.136
-611.244	-137.981	0.275	-0.031
-610.230	-200.000	-0.010	-0.334
-609.215	-200.000	-0.011	0.182
-608.201	-130.762	-0.120	-0.016
-607.186	676.132	-0.159	0.418
-606.171	-200.000	-0.051	0.277
-605.157	206.340	0.085	0.133
-604.142	215.895	0.068	0.109
-603.128	59.501	0.089	0.088
-602.113	-200.000	0.011	0.150
-601.098	55.330	-0.228	-0.223
-600.084	-55.466	0.373	-0.169
-599.069	161.446	0.178	0.251
-598.055	-150.370	-0.420	-0.033
-597.040	800.000	0.038	0.166
-596.025	-31.922	-0.157	-0.089
-595.011	-200.000	0.025	-0.146
-593.996	35.342	0.303	0.268
-592.982	59.077	-0.066	-0.065
-591.967	-168.016	0.388	0.015
-590.952	48.401	-0.262	-0.248
-589.938	-99.256	-0.235	-0.060
-588.923	74.517	0.092	-0.098
-587.909	-140.813	-0.170	0.018
-586.894	-200.000	0.026	-0.242
-585.879	81.681	0.102	-0.111
-584.865	185.184	0.212	-0.318
-583.850	-200.000	0.018	-0.230
-582.836	339.761	-0.152	-0.300
-581.821	-153.667	-0.515	-0.036
-580.806	21.341	-0.604	-0.496
-579.792	229.137	-0.137	-0.225
-578.777	319.843	0.200	0.383
-577.763	-25.388	-0.217	0.130
-576.748	-116.901	0.163	-0.030
-575.733	800.000	0.090	-0.305
-574.719	800.000	0.036	-0.103
-573.704	-8.178	0.243	0.165
-572.690	608.570	-0.088	0.222
-571.675	-170.068	0.271	-0.010
-570.661	-133.091	0.043	-0.006
-569.646	644.490	-0.035	-0.091
-568.631	-96.783	0.005	0.001
-567.617	500.342	-0.092	-0.214
-566.602	-200.000	-0.054	-0.242
-565.588	-48.372	0.272	-0.132
-564.573	-163.573	-0.281	0.013
-563.558	-43.425	-0.116	0.059
-562.544	-40.358	0.040	-0.021
-561.529	581.305	0.078	0.193
-560.515	607.503	0.134	0.338
-559.500	585.851	0.062	-0.155
-558.485	-200.000	-0.013	-0.199
-557.471	-200.000	-0.017	-0.593
-556.456	4.972	-0.096	-0.072
-555.442	-151.818	0.253	0.019
-554.427	-61.807	0.239	0.101
-553.412	255.042	0.109	0.189
-552.398	-32.874	0.168	0.094
-551.383	500.543	-0.103	-0.239
-550.369	-69.085	0.228	0.089
-549.354	-200.000	0.015	0.204
-548.339	124.608	0.178	0.226
-547.325	577.157	0.083	0.205
-546.310	-57.900	-0.180	0.080
-545.296	800.000	-0.165	0.537
-544.281	246.136	0.102	0.174
-543.266	115.439	-0.138	-0.170
-542.252	-76.379	-0.329	0.117
-541.237	108.297	0.079	-0.095
-540.223	-106.607	-0.093	0.021
-539.208	311.543	-0.108	0.205
-538.193	95.027	-0.109	0.125
-537.179	362.288	0.199	-0.403
-536.164	800.000	0.042	-0.155
-535.150	368.447	-0.120	0.244
-534.135	111.886	0.165	-0.201
-533.121	-122.239	-0.266	0.044
-532.106	366.523	0.145	-0.295
-531.091	139.885	0.207	0.275
-530.077	-52.227	-0.155	0.072
-529.062	-200.000	-0.010	0.172
-528.048	65.982	-0.160	-0.163
-527.033	-72.908	-0.201	-0.075
-526.018	-200.000	0.004	0.132
-525.004	-50.187	0.371	-0.177
-523.989	-121.137	-0.110	-0.019
-522.975	-65.480	-0.168	0.068
-521.960	66.304	-0.159	0.163
-520.945	-112.653	0.215	-0.043
-519.931	140.432	-0.147	-0.195
-518.916	-139.380	0.162	0.018
-517.902	-107.989	0.184	-0.040
-516.887	118.616	-0.090	-0.112
-515.872	-200.000	0.023	-0.296
-514.858	127.855	-0.203	0.260
-513.843	57.767	-0.233	0.230
-512.829	800.000	0.034	0.114
-511.814	-31.866	0.230	0.130
-510.799	800.000	0.026	0.090
-509.785	-88.144	-0.227	-0.069
-508.770	391.477	0.088	-0.184
-507.756	800.000	0.047	-0.153
-506.741	-56.759	0.159	0.071
-505.726	-134.207	-0.135	-0.017
-504.712	-200.000	-0.000	0.068
-503.697	-84.566	-0.076	0.024
-502.683	151.425	-0.162	0.222
-501.668	800.000	-0.013	0.037
-500.653	-105.956	-0.199	0.045
-499.639	-93.115	0.298	0.084
-498.624	173.378	-0.112	0.163
-497.610	-38.737	0.103	0.055
-496.595	340.494	0.180	0.354
-495.581	-74.501	0.189	0.069
-494.566	-200.000	-0.156	0.000
-493.551	-13.869	-0.207	0.135
-492.537	47.487	0.058	0.054
-491.522	145.877	0.103	-0.139
-490.508	-93.237	-0.185	0.052
-489.493	18.345	0.305	-0.245
-488.478	-80.751	0.109	0.037
-487.464	-62.134	-0.408	0.171
-486.449	-53.238	0.223	-0.103
-485.435	29.079	0.147	-0.126
-484.420	281.773	0.129	0.232
-483.405	135.542	-0.108	0.141
-482.391	-37.815	-0.321	0.172
-481.376	800.000	0.025	0.087
-480.362	800.000	-0.025	0.071
-479.347	-200.000	0.091	0.505
-478.332	-111.956	0.145	-0.029
-477.318	163.421	0.203	-0.287
-476.303	505.689	-0.076	-0.177
-475.289	124.045	0.108	0.137
-474.274	-200.000	-0.012	0.251
-473.259	-55.050	0.336	-0.152
-472.245	800.000	-0.122	-0.409
-471.230	8.330	0.139	-0.105
-470.216	-200.000	0.009	-0.366
-469.201	-200.000	-0.022	0.239
-468.186	1.172	0.117	0.084
-467.172	-152.592	0.285	-0.021
-466.157	371.395	-0.212	0.432
-465.143	664.103	0.097	0.252
-464.128	800.000	0.177	0.558
-463.113	-23.404	-0.248	0.150
-462.099	-38.921	0.099	-0.053
-461.084	9.931	-0.124	-0.094
-460.070	-104.636	-0.281	-0.065
-459.055	-80.634	0.536	0.180
-458.040	800.000	-0.042	0.146
-457.026	237.291	0.162	-0.269
-456.011	430.851	-0.162	-0.353
-454.997	-61.629	0.255	0.107
-453.982	-52.925	-0.333	0.154
-452.968	-59.243	-0.304	-0.132
-451.953	659.890	0.148	0.382
-450.938	-116.725	-0.260	-0.048
-449.924	30.601	-0.055	0.048
-448.909	82.466	0.158	-0.172
-447.895	-200.000	0.011	0.060
-446.880	7.092	0.101	0.075
-445.865	486.666	-0.074	-0.169
-444.851	-1.529	-0.393	-0.279
-443.836	-1.593	-0.272	-0.192
-442.822	-9.611	-0.250	0.167
-441.807	25.220	0.149	0.124
-440.792	-38.749	-0.184	-0.098
-439.778	-200.000	0.026	-0.203
-438.763	145.519	-0.054	0.073
-437.749	229.682	0.110	0.181
-436.734	-200.000	-0.020	-0.207
-435.719	-200.000	-0.043	0.231
-434.705	306.996	-0.135	-0.253
-433.690	-6.159	0.206	-0.142
-432.676	60.304	0.096	-0.096
-431.661	-200.000	-0.002	-0.203
-430.646	-200.000	0.037	-0.164
-429.632	29.737	0.218	-0.186
-428.617	75.924	-0.054	0.058
-427.603	195.788	-0.081	-0.123
-426.588	516.648	-0.106	0.248
-425.573	24.688	-0.066	0.055
-424.559	416.922	-0.116	0.249
-423.544	309.622	-0.107	-0.201
-422.530	-29.314	0.145	0.083
-421.515	-200.000	0.029	0.249
-420.500	-200.000	-0.001	-0.213
-419.486	800.000	0.035	-0.111
-418.471	326.366	-0.108	0.207
-417.457	-61.323	-0.311	-0.132
-416.442	-200.000	-0.045	0.355
-415.428	-116.502	-0.252	-0.047
-414.413	56.018	-0.151	0.147
-413.398	-200.000	-0.020	0.197
-412.384	-90.092	0.236	-0.069
-411.369	-47.970	-0.340	0.165
-410.355	-170.566	0.160	0.006
-409.340	-59.691	-0.375	0.161
-408.325	800.000	-0.077	0.255
-407.311	-200.000	-0.005	-0.335
-406.296	-132.145	0.088	-0.011
-405.282	66.446	0.142	-0.145
-404.267	-39.895	-0.311	0.163
-403.252	-11.906	0.125	-0.082
-402.238	-148.543	-0.081	0.007
-401.223	-100.070	-0.496	-0.124
-400.209	-200.000	-0.030	0.466
-399.194	-119.747	-0.705	0.122
-398.179	-57.282	-0.212	0.093
-397.165	-61.820	-0.196	0.082
-396.150	-200.000	0.002	0.206
-395.136	800.000	-0.034	0.130
-394.121	-42.484	-0.217	0.111
-393.106	494.386	0.063	0.145
-392.092	-200.000	-0.003	0.107
-391.077	800.000	-0.078	-0.284
-390.063	487.832	0.188	0.431
-389.048	800.000	0.069	0.273
-388.033	347.391	0.108	0.214
-387.019	-128.951	0.256	0.036
-386.004	-9.447	0.166	0.111
-384.990	99.460	0.093	-0.108
-383.975	-29.642	0.175	0.100
-382.960	-200.000	0.020	-0.313
-381.946	-68.017	-0.164	-0.064
-380.931	-112.367	0.213	-0.043
-379.917	155.375	-0.076	0.105
-378.902	163.314	-0.143	-0.202
-377.888	34.208	-0.129	-0.113
-376.873	-71.930	-0.132	0.049
-375.858	800.000	0.028	0.108
-374.844	165.360	-0.137	0.194
-373.829	102.650	-0.158	-0.186
-372.815	800.000	0.072	-0.268
-371.800	-70.460	0.255	-0.097
-370.785	-88.368	0.205	0.061
-369.771	-147.920	-0.218	0.018
-368.756	-155.187	-0.135	0.009
-367.742	-138.295	-0.347	0.038
-366.727	800.000	0.085	0.374
-365.712	226.210	-0.118	0.191
-364.698	-54.194	0.172	0.078
-363.683	-107.554	0.222	-0.049
-362.669	-94.894	0.184	0.050
-361.654	800.000	0.016	-0.051
-360.639	-200.000	0.029	0.287
-359.625	-89.496	-0.454	-0.134
-358.610	-74.882	0.366	0.132
-357.596	-142.006	-0.074	0.007
-356.581	-154.620	-0.194	0.013
-355.566	800.000	0.054	-0.228
-354.552	-121.037	0.278	-0.047
-353.537	-115.251	0.356	0.067
-352.523	-200.000	-0.014	-0.215
-351.508	-3.169	0.126	-0.088
-350.493	172.190	0.024	-0.035
-349.479	-145.681	0.052	-0.005
-348.464	800.000	0.124	0.433
-347.450	82.448	0.096	0.104
-346.435	800.000	-0.089	0.246
-345.420	-200.000	-0.011	-0.276
-344.406	-112.262	-0.084	0.017
-343.391	585.579	0.033	0.082
-342.377	79.316	0.170	0.182
-341.362	790.811	0.102	-0.280
-340.348	-135.003	0.609	0.074
-339.333	-150.307	-0.327	-0.025
-338.318	800.000	0.068	-0.222
-337.304	-200.000	0.236	0.001
-336.289	154.339	-0.267	-0.367
-335.275	258.859	-0.032	-0.056
-334.260	157.938	-0.121	-0.168
-333.245	150.640	0.222	-0.302
-332.231	291.810	0.138	-0.252
-331.216	88.021	-0.123	0.136
-330.202	192.513	0.121	-0.182
-329.187	-117.665	-0.032	-0.006
-328.172	108.089	0.135	-0.161
-327.158	-32.209	-0.120	0.067
-326.143	-79.982	0.073	0.025
-325.129	797.071	-0.107	0.296
-324.114	-113.903	-0.209	0.041
-323.099	-200.000	0.016	-0.629
-322.085	-18.946	0.047	-0.029
-321.070	-200.000	0.001	-0.527
-320.056	-200.000	-0.000	-0.194
-319.041	64.271	0.235	0.237
-318.026	-200.000	0.002	-0.092
-317.012	-200.000	0.080	-0.494
-315.997	138.563	-0.062	0.082
-314.983	275.975	-0.073	-0.130
-313.968	-200.000	0.027	0.198
-312.953	-20.053	0.164	-0.101
-311.939	800.000	-0.073	0.249
-310.924	136.134	-0.084	0.110
-309.910	-200.000	-0.024	0.129
-308.895	141.117	-0.096	0.127
-307.880	-200.000	0.005	-0.071
-306.866	-32.802	0.160	-0.089
-305.851	800.000	0.072	-0.213
-304.837	-109.528	-0.047	-0.010
-303.822	-127.293	0.080	0.012
-302.807	-200.000	0.020	0.093
-301.793	516.790	0.067	0.157
-300.778	-52.358	0.089	-0.041
-299.764	-108.661	0.127	-0.027
-298.749	-200.000	-0.056	-0.332
-297.735	-200.000	0.034	-0.249
-296.720	252.848	0.120	0.204
-295.705	-106.404	0.205	0.046
-294.691	800.000	0.029	0.100
-293.676	34.284	0.173	0.151
-292.662	-107.034	0.109	0.024
-291.647	-200.000	0.252	0.001
-290.632	-156.673	0.195	-0.012
-289.618	242.104	0.128	0.214
-288.603	-200.000	-0.028	-0.178
-287.589	800.000	-0.068	-0.212
-286.574	-23.698	-0.302	-0.181
-285.559	78.246	-0.129	-0.138
-284.545	72.987	-0.061	0.063
-283.530	187.768	-0.089	0.133
-282.516	-46.311	-0.029	0.014
-281.501	-81.209	0.088	0.029
-280.486	-200.000	-0.038	0.251
-279.472	-85.298	-0.167	-0.052
-278.457	491.649	0.021	0.047
-277.443	-200.000	-0.024	-0.337
-276.428	-58.657	-0.024	-0.010
-275.413	506.447	-0.090	-0.208
-274.399	452.484	-0.099	0.219
-273.384	-47.075	0.151	-0.074
-272.370	-200.000	-0.010	0.193
-271.355	-125.664	0.331	0.050
-270.340	-162.617	-0.279	-0.014
-269.326	84.275	-0.193	0.210
-268.311	39.536	-0.102	-0.091
-267.297	13.266	0.261	0.202
-266.282	-56.204	0.275	-0.122
-265.267	-70.442	-0.191	0.072
-264.253	800.000	-0.025	-0.071
-263.238	11.972	0.204	0.157
-262.224	325.601	0.082	0.156
-261.209	51.830	0.189	0.179
-260.195	-47.354	-0.272	0.132
-259.180	292.509	0.201	0.366
-258.165	250.390	-0.108	0.183
-257.151	461.054	-0.181	0.403
-256.136	-2.037	-0.238	-0.167
-255.122	-50.851	0.109	0.051
-254.107	164.448	0.330	-0.465
-253.092	-140.907	-0.076	0.008
-252.078	-45.091	-0.232	-0.115
-251.063	-32.299	-0.278	-0.155
-250.049	-108.902	0.260	0.055
-249.034	800.000	0.033	0.103
-248.019	-151.527	-0.250	-0.018
-247.005	160.173	0.269	-0.374
-245.990	-89.389	-0.256	0.075
-244.976	-200.000	-0.038	-0.278
-243.961	-200.000	0.022	0.098
-242.946	-72.141	-0.210	-0.078
-241.932	-99.001	0.229	0.058
-240.917	10.447	0.189	-0.144
-239.903	11.197	-0.166	0.127
-238.888	-200.000	0.000	-0.039
-237.873	456.383	-0.067	-0.148
-236.859	359.249	-0.084	-0.168
-235.844	-145.097	-0.076	0.007
-234.830	202.693	0.135	-0.208
-233.815	-200.000	0.014	0.336
-232.800	-128.239	-0.489	-0.070
-231.786	101.146	0.264	-0.306
-230.771	24.125	0.220	0.181
-229.757	-54.003	0.285	-0.129
-228.742	20.842	-0.029	-0.023
-227.727	245.615	0.200	-0.335
-226.713	-66.941	-0.211	-0.083
-225.698	-94.612	0.398	-0.108
-224.684	-175.390	0.204	-0.006
-223.669	-51.990	-0.159	-0.073
-222.655	-8.438	0.309	-0.207
-221.640	-200.000	-0.005	-0.196
-220.625	27.772	0.136	-0.114
-219.611	-105.088	-0.186	-0.042
-218.596	106.374	-0.210	0.248
-217.582	425.533	-0.245	-0.526
-216.567	225.807	0.045	-0.073
-215.552	-9.119	-0.193	0.129
-214.538	-60.674	-0.404	-0.171
-213.523	148.001	0.085	0.114
-212.509	-200.000	-0.012	0.086
-211.494	800.000	0.065	0.189
-210.479	-200.000	-0.029	0.284
-209.465	-98.176	0.148	0.038
-208.450	-200.000	-0.002	-0.175
-207.436	800.000	-0.117	0.365
-206.421	-91.081	0.124	0.035
-205.406	-20.820	-0.242	0.148
-204.392	68.835	-0.031	0.032
-203.377	-69.368	-0.221	0.084
-202.363	-42.588	-0.053	0.027
-201.348	-200.000	0.052	0.272
-200.333	-153.467	0.164	0.011
-199.319	800.000	0.116	-0.359
-198.304	127.038	-0.155	-0.196
-197.290	-200.000	0.024	0.276
-196.275	-20.955	-0.143	-0.087
-195.260	-200.000	0.013	-0.222
-194.246	800.000	0.065	-0.217
-193.231	-200.000	-0.013	-0.232
-192.217	108.759	0.167	-0.199
-191.202	314.771	-0.113	0.211
-190.187	55.808	-0.170	0.164
-189.173	-200.000	-0.069	-0.324
-188.158	-54.969	0.097	0.044
-187.144	124.663	0.216	0.270
-186.129	-144.749	-0.064	0.006
-185.114	-27.111	0.376	-0.218
-184.100	-200.000	-0.024	0.169
-183.085	-200.000	-0.075	0.399
-182.071	154.929	-0.163	0.223
-181.056	155.129	0.106	0.145
-180.042	-56.037	0.428	0.190
-179.027	123.114	-0.309	-0.386
-178.012	107.730	-0.104	0.123
-176.998	-200.000	-0.008	-0.095
-175.983	-200.000	0.007	-0.266
-174.969	-79.728	-0.215	-0.072
-173.954	54.148	-0.046	0.044
-172.939	-102.784	0.130	-0.031
-171.925	-187.143	0.113	0.002
-170.910	-165.812	0.168	-0.007
-169.896	-43.833	-0.334	-0.167
-168.881	36.616	0.143	-0.126
-167.866	385.253	0.125	0.257
-166.852	126.889	0.209	0.263
-165.837	-173.170	0.207	-0.006
-164.823	800.000	0.039	-0.147
-163.808	206.340	-0.216	0.334
-162.793	-141.781	0.288	-0.029
-161.779	-53.781	-0.098	-0.045
-160.764	-107.950	-0.311	0.067
-159.750	237.360	-0.188	-0.310
-158.735	109.936	-0.205	0.245
-157.720	-37.816	-0.107	-0.057
-156.706	-30.914	-0.192	-0.108
-155.691	-200.000	-0.005	0.034
-154.677	-48.773	0.027	-0.013
-153.662	800.000	-0.042	-0.160
-152.647	-200.000	0.038	-0.192
-151.633	565.669	-0.089	-0.215
-150.618	-161.253	-0.130	-0.007
-149.604	-200.000	0.016	0.211
-148.589	59.317	-0.093	-0.091
-147.574	47.626	0.040	-0.037
-146.560	-200.000	-0.040	-0.288
-145.545	3.186	0.015	0.011
-144.531	-200.000	-0.013	-0.321
-143.516	800.000	0.039	0.112
-142.502	-21.098	0.243	0.148
-141.487	-200.000	0.023	0.108
-140.472	45.715	-0.248	-0.228
-139.458	800.000	-0.104	0.375
-138.443	-12.209	-0.040	0.026
-137.429	260.485	-0.067	0.115
-136.414	-200.000	0.027	-0.326
-135.399	111.514	0.107	-0.128
-134.385	195.544	0.039	-0.059
-133.370	341.773	-0.086	0.167
-132.356	-77.949	-0.036	-0.012
-131.341	-100.483	-0.314	0.077
-130.326	6.273	0.193	-0.142
-129.312	-35.088	0.159	-0.086
-128.297	481.433	-0.143	0.323
-127.283	490.486	0.081	-0.184
-126.268	-51.348	0.292	0.135
-125.253	189.333	0.253	0.376
-124.239	171.896	0.112	0.160
-123.224	-74.931	0.465	0.166
-122.210	-100.324	-0.185	0.045
