DTS Sentinel unit serial number:	SN413079Multiplexer serial number:	ORYXHardware model number:	OX4-SRSoftware version number:	ORYX F/W v4.00 Oryx Data Collector v3.7.2.0data status	okinstallation	princeton_trtdifferential loss correction	single-endedforward channel	channel 4reverse channel	N/Adate	2019/09/19time	06:25:34forward acquisition time	60.00reverse acquisition time	0.00gamma	496.2192k internal	0.2340k external	0.2340temperature offset calibration	1.0027default loss term (dB/km)	0.3790temperature slope calibration	1.0000multiplexer offset coefficient	1.0000multiplexer slope coefficient	1.0000fibre end	0.00T internal ref (°C)	19.06T ext. ref 1 (°C)	0.57T ext. ref 2 (°C)	12.85length (m)	temperature (°C)	Stokes	anti-Stokes-747.200	-109.390	-0.147	0.031
-746.185	27.553	-0.576	0.486
-745.171	-200.000	0.005	0.212
-744.156	-185.228	-0.322	0.005
-743.142	-99.218	-0.465	0.118
-742.127	-158.243	-0.178	-0.010
-741.112	-143.782	-0.289	0.027
-740.098	-72.292	0.119	-0.044
-739.083	579.619	-0.097	0.237
-738.069	496.085	-0.234	0.540
-737.054	341.774	0.124	-0.242
-736.039	-140.056	0.099	0.010
-735.025	-2.736	0.097	-0.068
-734.010	125.322	-0.058	-0.073
-732.996	-1.271	0.223	-0.158
-731.981	253.204	-0.156	0.266
-730.966	109.163	-0.216	-0.260
-729.952	-200.000	0.034	0.174
-728.937	65.903	0.159	0.162
-727.923	196.746	-0.104	0.159
-726.908	571.691	-0.077	-0.187
-725.894	-200.000	0.074	-0.339
-724.879	-200.000	0.033	0.192
-723.864	-200.000	-0.008	0.185
-722.850	-121.657	-0.311	0.052
-721.835	-112.942	-0.127	-0.025
-720.821	454.410	-0.097	0.216
-719.806	-150.824	-0.387	-0.029
-718.791	-0.621	-0.158	0.112
-717.777	-122.382	-0.096	-0.016
-716.762	325.761	-0.083	-0.159
-715.748	-67.640	-0.125	-0.049
-714.733	-187.884	-0.121	0.002
-713.718	800.000	-0.066	0.184
-712.704	393.873	-0.039	-0.081
-711.689	-40.372	-0.248	0.129
-710.675	6.815	-0.320	0.239
-709.660	307.266	-0.229	0.427
-708.645	-75.958	0.110	0.039
-707.631	-200.000	0.013	0.103
-706.616	800.000	-0.063	0.276
-705.602	75.145	-0.187	0.198
-704.587	7.571	-0.207	-0.155
-703.572	-50.895	0.174	-0.082
-702.558	-61.782	0.307	0.129
-701.543	272.443	-0.103	0.182
-700.529	450.832	0.089	-0.196
-699.514	800.000	0.038	0.119
-698.499	-57.600	-0.208	-0.091
-697.485	645.372	0.114	-0.292
-696.470	-32.356	0.100	-0.056
-695.456	131.067	0.187	-0.240
-694.441	505.963	0.144	-0.333
-693.426	-116.005	-0.206	0.038
-692.412	259.409	-0.087	-0.150
-691.397	800.000	0.104	-0.434
-690.383	800.000	-0.048	0.187
-689.368	-110.264	-0.230	0.048
-688.354	223.668	-0.105	-0.169
-687.339	-136.610	-0.233	-0.027
-686.324	7.350	-0.164	0.123
-685.310	371.847	-0.068	0.138
-684.295	-30.042	-0.143	-0.081
-683.281	378.717	-0.178	-0.365
-682.266	67.930	-0.147	-0.150
-681.251	187.259	0.167	0.249
-680.237	-23.602	-0.403	-0.242
-679.222	499.405	0.081	0.187
-678.208	123.797	-0.217	0.273
-677.193	15.692	0.315	-0.247
-676.178	-115.620	-0.213	-0.040
-675.164	46.566	-0.058	0.054
-674.149	308.258	-0.184	-0.344
-673.135	-85.094	0.236	0.074
-672.120	-146.038	-0.421	0.037
-671.105	-115.131	-0.089	-0.017
-670.091	-200.000	-0.039	0.509
-669.076	800.000	-0.085	-0.292
-668.062	86.062	-0.221	-0.243
-667.047	-96.783	0.307	0.081
-666.032	-200.000	-0.005	0.119
-665.018	69.000	-0.101	-0.104
-664.003	-45.946	0.482	0.238
-662.989	153.571	0.198	0.271
-661.974	22.880	0.336	-0.275
-660.959	16.700	-0.225	-0.178
-659.945	-200.000	-0.006	-0.159
-658.930	-124.870	-0.332	0.051
-657.916	-188.391	0.264	-0.003
-656.901	-100.151	0.144	0.036
-655.886	-200.000	-0.003	0.342
-654.872	-200.000	0.011	0.154
-653.857	-146.709	-0.424	-0.037
-652.843	-126.508	-0.068	-0.010
-651.828	800.000	-0.152	-0.460
-650.814	379.914	-0.052	-0.107
-649.799	379.869	0.133	-0.273
-648.784	800.000	0.081	-0.279
-647.770	0.744	-0.226	-0.161
-646.755	15.031	0.082	-0.064
-645.741	-99.428	-0.142	-0.036
-644.726	-78.209	-0.130	-0.045
-643.711	16.205	-0.169	0.133
-642.697	16.789	0.308	0.243
-641.682	505.763	-0.114	-0.264
-640.668	15.474	-0.154	-0.121
-639.653	213.852	0.227	-0.359
-638.638	-149.365	-0.212	0.017
-637.624	103.035	0.070	-0.082
-636.609	-62.345	-0.149	0.062
-635.595	278.819	0.061	-0.109
-634.580	800.000	0.083	-0.268
-633.565	121.812	-0.150	-0.187
-632.551	-128.829	0.218	-0.031
-631.536	210.051	-0.058	0.091
-630.522	51.875	0.250	-0.237
-629.507	216.955	0.114	0.181
-628.492	-32.170	0.017	-0.010
-627.478	-167.289	-0.126	-0.005
-626.463	15.898	0.141	-0.111
-625.449	19.032	-0.208	0.167
-624.434	-200.000	0.051	0.308
-623.419	269.261	0.173	-0.304
-622.405	-103.132	-0.283	0.067
-621.390	-200.000	-0.017	0.186
-620.376	-200.000	-0.028	0.124
-619.361	-26.086	0.396	0.232
-618.346	-143.988	0.106	-0.010
-617.332	77.906	0.161	0.172
-616.317	-74.479	-0.112	0.040
-615.303	-98.910	0.200	0.051
-614.288	-200.000	-0.007	0.094
-613.273	-140.672	0.124	0.013
-612.259	65.666	-0.035	-0.036
-611.244	-151.746	-0.092	0.007
-610.230	69.003	0.194	0.199
-609.215	-200.000	-0.034	0.253
-608.201	-41.109	-0.113	0.058
-607.186	-120.126	-0.201	-0.034
-606.171	-200.000	0.013	-0.161
-605.157	-200.000	-0.017	0.171
-604.142	-50.018	0.116	0.055
-603.128	-32.864	-0.218	0.121
-602.113	-63.500	-0.241	-0.099
-601.098	309.404	-0.101	0.187
-600.084	13.207	-0.214	-0.166
-599.069	-94.659	0.640	0.173
-598.055	-75.957	-0.128	0.045
-597.040	-133.440	0.139	0.017
-596.025	800.000	-0.022	-0.060
-595.011	800.000	-0.123	0.359
-593.996	-17.997	-0.042	-0.026
-592.982	-151.779	0.212	0.016
-591.967	-76.199	-0.450	-0.158
-590.952	800.000	-0.126	-0.406
-589.938	800.000	0.081	-0.243
-588.923	-200.000	-0.024	0.270
-587.909	173.578	-0.244	-0.351
-586.894	352.295	0.214	0.423
-585.879	129.449	0.023	0.029
-584.865	-87.317	-0.255	0.077
-583.850	195.317	-0.098	0.148
-582.836	600.454	0.081	-0.200
-581.821	-200.000	-0.053	-0.270
-580.806	140.096	0.035	0.046
-579.792	285.039	0.084	0.151
-578.777	453.433	0.113	0.249
-577.763	-121.861	0.314	0.052
-576.748	-91.354	-0.190	0.054
-575.733	-199.371	-0.530	0.003
-574.719	78.054	0.034	0.036
-573.704	115.657	-0.194	0.236
-572.690	53.401	0.196	0.187
-571.675	-138.565	-0.237	0.026
-570.661	88.024	-0.090	0.099
-569.646	-143.182	-0.471	0.045
-568.631	-200.000	-0.004	0.230
-567.617	29.379	-0.320	0.271
-566.602	301.407	0.285	0.523
-565.588	106.210	-0.180	0.212
-564.573	-41.579	0.366	-0.187
-563.558	138.268	-0.112	-0.146
-562.544	800.000	0.031	-0.121
-561.529	89.308	0.073	0.080
-560.515	-200.000	0.060	-0.326
-559.500	800.000	-0.105	-0.308
-558.485	-200.000	-0.039	-0.378
-557.471	535.909	-0.099	-0.235
-556.456	-200.000	-0.011	-0.114
-555.442	217.293	0.047	0.074
-554.427	-76.469	-0.502	0.176
-553.412	-47.779	-0.474	-0.229
-552.398	-40.397	0.420	-0.217
-551.383	-175.578	-0.199	-0.005
-550.369	675.578	-0.067	0.172
-549.354	-39.351	-0.133	0.070
-548.339	766.143	-0.109	-0.296
-547.325	-187.806	-0.128	-0.002
-546.310	184.928	0.164	0.242
-545.296	-25.839	-0.143	-0.084
-544.281	-31.767	-0.051	-0.029
-543.266	182.687	0.370	0.543
-542.252	20.308	-0.044	0.036
-541.237	-116.806	-0.588	0.107
-540.223	-200.000	0.067	-0.358
-539.208	3.403	-0.152	0.110
-538.193	122.342	0.269	-0.335
-537.179	155.372	0.034	0.047
-536.164	-38.393	0.256	0.135
-535.150	800.000	-0.087	0.314
-534.135	-50.966	0.094	0.044
-533.121	87.308	0.311	0.342
-532.106	-200.000	-0.019	0.198
-531.091	-200.000	-0.004	-0.140
-530.077	-200.000	0.022	0.106
-529.062	8.691	0.173	0.129
-528.048	14.925	0.219	-0.171
-527.033	-27.781	0.077	0.044
-526.018	-200.000	0.027	-0.319
-525.004	-104.856	-0.162	-0.037
-523.989	-200.000	-0.002	-0.629
-522.975	-122.115	0.247	0.040
-521.960	239.973	0.093	0.154
-520.945	-200.000	-0.028	0.312
-519.931	140.548	-0.129	-0.170
-518.916	-200.000	-0.035	0.255
-517.902	-111.011	0.074	-0.015
-516.887	-19.877	-0.223	-0.137
-515.872	-200.000	-0.006	0.171
-514.858	298.640	0.049	-0.090
-513.843	222.882	-0.101	-0.161
-512.829	-97.360	0.160	-0.041
-511.814	286.383	-0.149	0.268
-510.799	800.000	-0.039	0.136
-509.785	-75.022	0.169	0.060
-508.770	-96.124	-0.260	-0.069
-507.756	-200.000	-0.003	0.056
-506.741	-96.503	0.009	-0.002
-505.726	302.775	0.099	0.181
-504.712	-132.934	0.290	-0.037
-503.697	468.265	-0.101	-0.224
-502.683	51.909	-0.110	-0.104
-501.668	-34.228	-0.263	-0.144
-500.653	-23.485	-0.158	0.094
-499.639	-48.446	-0.054	-0.026
-498.624	86.242	-0.239	-0.262
-497.610	-126.915	-0.090	0.013
-496.595	-200.000	0.027	0.384
-495.581	107.370	-0.164	0.194
-494.566	-120.170	0.378	0.064
-493.551	-28.762	0.259	0.148
-492.537	168.423	-0.245	-0.346
-491.522	118.707	-0.027	-0.033
-490.508	-200.000	-0.013	0.464
-489.493	245.370	-0.150	-0.250
-488.478	-103.462	-0.090	-0.021
-487.464	-200.000	-0.039	0.312
-486.449	478.799	-0.095	-0.215
-485.435	-200.000	-0.008	0.108
-484.420	42.082	0.118	-0.106
-483.405	-200.000	-0.025	0.245
-482.391	-200.000	0.001	0.329
-481.376	148.201	-0.235	0.315
-480.362	-70.937	-0.226	0.084
-479.347	-171.348	0.314	-0.010
-478.332	78.965	0.184	-0.195
-477.318	352.272	-0.063	0.125
-476.303	42.126	0.059	0.053
-475.289	-72.033	-0.259	0.096
-474.274	-52.819	0.169	0.077
-473.259	59.808	-0.073	-0.071
-472.245	83.063	0.243	-0.262
-471.230	-72.499	-0.264	-0.097
-470.216	-168.207	0.329	-0.013
-469.201	-165.441	-0.312	-0.014
-468.186	5.907	-0.172	0.127
-467.172	-109.472	0.244	-0.051
-466.157	800.000	0.144	-0.412
-465.143	92.608	-0.096	-0.107
-464.128	-62.718	-0.149	-0.061
-463.113	45.936	-0.178	0.163
-462.099	-200.000	0.063	-0.316
-461.084	224.486	-0.083	0.134
-460.070	-200.000	0.001	-0.013
-459.055	206.112	-0.030	-0.046
-458.040	134.616	0.111	-0.142
-457.026	196.144	0.288	0.435
-456.011	12.506	0.128	0.097
-454.997	800.000	-0.066	0.256
-453.982	-39.586	0.142	0.073
-452.968	-200.000	-0.024	0.139
-451.953	-200.000	0.002	0.474
-450.938	18.894	-0.097	-0.077
-449.924	-73.665	-0.163	-0.059
-448.909	10.076	-0.132	0.099
-447.895	800.000	0.106	0.368
-446.880	659.378	0.078	0.198
-445.865	113.678	0.153	-0.184
-444.851	-200.000	-0.066	-0.505
-443.836	-83.804	0.171	-0.054
-442.822	-179.584	-0.183	0.004
-441.807	-78.050	-0.344	-0.117
-440.792	-88.896	0.078	0.023
-439.778	-91.633	-0.330	-0.093
-438.763	-200.000	0.018	-0.126
-437.749	-161.238	-0.152	0.008
-436.734	16.070	-0.219	-0.171
-435.719	-74.939	0.109	0.039
-434.705	-39.031	0.363	0.189
-433.690	20.992	-0.372	0.299
-432.676	-200.000	-0.012	0.158
-431.661	-200.000	-0.030	-0.171
-430.646	-55.628	-0.162	0.072
-429.632	68.589	0.226	-0.229
-428.617	143.870	-0.166	-0.219
-427.603	-21.633	-0.250	0.151
-426.588	-200.000	0.037	-0.389
-425.573	240.469	0.095	0.156
-424.559	-200.000	0.018	0.117
-423.544	-66.630	0.369	0.145
-422.530	-200.000	-0.021	-0.136
-421.515	-15.012	-0.253	-0.161
-420.500	575.931	-0.089	-0.216
-419.486	-138.067	0.211	0.023
-418.471	71.791	-0.143	0.147
-417.457	48.809	-0.136	-0.126
-416.442	-78.023	0.293	-0.100
-415.428	159.264	0.057	-0.079
-414.413	139.469	-0.136	0.177
-413.398	128.747	-0.057	0.072
-412.384	-104.662	-0.436	0.099
-411.369	-59.781	-0.071	0.030
-410.355	-50.404	0.165	-0.077
-409.340	45.435	0.269	0.246
-408.325	61.908	-0.083	0.082
-407.311	72.846	-0.123	-0.127
-406.296	-132.214	-0.278	-0.036
-405.282	800.000	0.031	-0.097
-404.267	41.142	-0.182	-0.163
-403.252	-7.447	0.055	-0.037
-402.238	-72.129	-0.167	0.061
-401.223	800.000	-0.049	0.173
-400.209	232.669	0.276	0.449
-399.194	-37.834	0.086	0.045
-398.179	-120.235	0.385	0.065
-397.165	94.860	-0.209	0.236
-396.150	-74.071	-0.074	0.026
-395.136	10.086	0.102	0.077
-394.121	-108.398	0.204	0.044
-393.106	-96.004	-0.268	-0.070
-392.092	-182.708	0.195	0.004
-391.077	198.374	0.117	0.177
-390.063	-200.000	-0.017	-0.229
-389.048	13.048	-0.361	-0.276
-388.033	-200.000	-0.002	-0.414
-387.019	66.989	0.289	-0.291
-386.004	-161.839	-0.223	0.011
-384.990	404.096	-0.096	0.200
-383.975	-65.916	-0.053	0.021
-382.960	800.000	0.058	-0.242
-381.946	-200.000	-0.041	-0.251
-380.931	155.991	-0.153	0.208
-379.917	170.383	0.047	-0.066
-378.902	116.774	0.203	-0.246
-377.888	289.247	0.052	0.094
-376.873	97.404	0.214	0.243
-375.858	413.847	0.131	0.275
-374.844	-200.000	0.009	0.047
-373.829	327.716	0.056	0.106
-372.815	-94.309	0.114	-0.031
-371.800	-69.748	-0.163	-0.061
-370.785	-149.705	-0.303	0.024
-369.771	-29.737	0.358	-0.202
-368.756	-25.011	0.045	-0.026
-367.742	800.000	0.098	-0.290
-366.727	64.539	0.123	0.122
-365.712	81.058	-0.172	0.184
-364.698	119.555	-0.056	0.068
-363.683	102.759	-0.192	0.222
-362.669	47.423	-0.148	-0.137
-361.654	-73.876	0.071	0.025
-360.639	159.855	0.085	0.118
-359.625	800.000	-0.100	0.345
-358.610	-61.611	0.221	-0.092
-357.596	22.640	0.083	0.067
-356.581	-141.252	0.255	0.026
-355.566	637.208	0.062	-0.157
-354.552	-200.000	-0.028	0.171
-353.537	-144.327	0.080	0.007
-352.523	-79.220	-0.240	0.080
-351.508	-38.272	0.119	-0.062
-350.493	800.000	0.054	-0.203
-349.479	74.878	0.131	-0.136
-348.464	-33.933	-0.155	-0.084
-347.450	514.898	0.048	-0.112
-346.435	-90.343	0.171	-0.049
-345.420	-73.355	0.257	0.093
-344.406	800.000	-0.054	-0.203
-343.391	626.322	-0.156	-0.388
-342.377	-200.000	-0.008	-0.381
-341.362	-157.642	-0.215	-0.013
-340.348	82.192	0.291	0.311
-339.333	108.229	-0.090	0.107
-338.318	2.865	-0.085	0.061
-337.304	-96.793	-0.480	0.125
-336.289	-200.000	0.000	-0.105
-335.275	68.521	-0.040	0.040
-334.260	800.000	-0.052	-0.176
-333.245	234.370	-0.056	0.091
-332.231	269.336	0.156	0.271
-331.216	-56.221	-0.321	-0.141
-330.202	-8.281	0.147	0.097
-329.187	800.000	0.080	0.234
-328.172	327.271	-0.053	0.100
-327.158	207.742	0.077	0.119
-326.143	58.256	0.181	0.175
-325.129	-200.000	-0.023	-0.424
-324.114	-180.437	0.179	0.004
-323.099	201.887	-0.177	0.269
-322.085	-52.735	0.134	0.061
-321.070	182.886	0.098	-0.143
-320.056	428.086	-0.105	-0.224
-319.041	34.298	-0.177	0.152
-318.026	-77.878	-0.339	-0.115
-317.012	-119.469	-0.248	0.042
-315.997	312.731	0.157	0.291
-314.983	-1.916	0.204	0.141
-313.968	95.326	0.270	-0.303
-312.953	-200.000	-0.014	0.108
-311.939	-100.400	-0.233	-0.057
-310.924	-87.430	0.423	-0.126
-309.910	-152.748	-0.338	0.024
-308.895	-32.696	-0.048	-0.026
-307.880	80.988	-0.063	0.067
-306.866	162.985	-0.064	-0.089
-305.851	-50.077	0.329	-0.153
-304.837	396.374	-0.177	-0.365
-303.822	-200.000	0.066	0.351
-302.807	232.708	0.055	0.090
-301.793	-22.687	-0.156	-0.093
-300.778	-142.222	0.043	-0.004
-299.764	53.221	-0.297	-0.280
-298.749	-70.850	0.251	-0.093
-297.735	-41.717	0.245	0.124
-296.720	517.840	0.087	0.200
-295.705	-61.751	0.248	-0.102
-294.691	-16.918	-0.338	0.211
-293.676	-93.253	-0.199	-0.055
-292.662	-7.969	0.390	-0.259
-291.647	-200.000	0.054	-0.406
-290.632	2.415	-0.094	-0.067
-289.618	800.000	-0.118	-0.377
-288.603	-82.727	0.365	-0.116
-287.589	800.000	-0.082	0.248
-286.574	-200.000	0.055	0.265
-285.559	45.887	-0.174	-0.158
-284.545	-79.736	-0.227	-0.075
-283.530	-121.701	0.342	0.056
-282.516	90.344	0.116	-0.128
-281.501	-76.921	-0.296	0.102
-280.486	68.450	0.157	-0.159
-279.472	-200.000	-0.001	0.072
-278.457	215.801	-0.140	0.218
-277.443	-87.082	-0.222	0.067
-276.428	-172.177	-0.120	0.004
-275.413	-139.264	-0.202	0.021
-274.399	103.794	0.253	0.293
-273.384	-200.000	-0.031	-0.216
-272.370	-162.983	-0.125	-0.006
-271.355	245.065	0.247	0.408
-270.340	800.000	0.053	0.191
-269.326	-200.000	0.007	0.080
-268.311	-200.000	-0.056	0.276
-267.297	-200.000	-0.023	-0.119
-266.282	-72.771	0.088	-0.032
-265.267	-116.836	0.249	0.045
-264.253	170.941	0.081	-0.114
-263.238	-200.000	-0.060	0.326
-262.224	-80.455	0.267	0.088
-261.209	-27.442	0.134	0.077
-260.195	184.737	0.113	0.164
-259.180	-22.504	0.188	0.112
-258.165	800.000	0.049	-0.184
-257.151	-136.913	-0.209	-0.024
-256.136	-162.318	0.235	0.012
-255.122	247.999	-0.082	0.137
-254.107	287.356	0.021	-0.038
-253.092	-170.617	-0.132	-0.004
-252.078	206.077	0.194	0.297
-251.063	39.147	0.126	-0.110
-250.049	636.499	-0.053	-0.131
-249.034	-46.126	0.168	-0.081
-248.019	66.525	-0.112	-0.112
-247.005	-148.019	0.464	0.038
-245.990	-200.000	-0.037	-0.175
-244.976	60.257	-0.154	-0.150
-243.961	-200.000	-0.008	-0.269
-242.946	36.782	0.280	0.243
-241.932	95.422	-0.028	0.032
-240.917	2.344	-0.082	-0.059
-239.903	-72.263	-0.202	-0.074
-238.888	-44.019	0.179	0.089
-237.873	800.000	-0.121	0.439
-236.859	-68.693	-0.170	0.065
-235.844	289.247	-0.120	-0.213
-234.830	196.672	-0.189	0.284
-233.815	-200.000	0.035	0.246
-232.800	-31.704	0.352	0.194
-231.786	800.000	-0.084	-0.326
-230.771	-200.000	0.080	-0.000
-229.757	607.057	-0.050	-0.124
-228.742	-38.859	-0.169	-0.088
-227.727	-0.735	-0.235	0.164
-226.713	23.079	0.177	-0.143
-225.698	126.719	0.144	-0.179
-224.684	-200.000	-0.001	-0.267
-223.669	-14.006	-0.122	0.078
-222.655	-123.882	0.242	0.037
-221.640	347.722	0.144	-0.278
-220.625	700.897	0.098	-0.253
-219.611	325.761	0.239	0.449
-218.596	-140.832	-0.392	0.040
-217.582	277.046	0.068	0.119
-216.567	-200.000	-0.065	-0.367
-215.552	800.000	-0.053	0.162
-214.538	800.000	0.076	0.253
-213.523	-29.610	-0.116	-0.065
-212.509	669.334	0.126	-0.321
-211.494	-119.744	-0.085	0.014
-210.479	-200.000	-0.013	0.111
-209.465	459.563	0.044	-0.097
-208.450	-35.195	-0.394	-0.211
-207.436	800.000	0.043	-0.149
-206.421	-39.792	-0.163	0.084
-205.406	-200.000	-0.023	-0.156
-204.392	-137.379	0.246	-0.027
-203.377	-200.000	0.033	0.213
-202.363	800.000	0.041	-0.132
-201.348	800.000	0.142	-0.394
-200.333	-130.290	0.221	-0.030
-199.319	-153.164	-0.049	0.003
-198.304	-144.959	0.406	0.036
-197.290	32.108	-0.102	0.086
-196.275	171.279	0.016	0.023
-195.260	-42.343	0.268	-0.134
-194.246	-11.659	0.144	0.093
-193.231	800.000	-0.053	0.192
-192.217	-82.496	0.070	0.022
-191.202	-200.000	0.060	-0.275
-190.187	-200.000	0.000	-0.270
-189.173	353.202	-0.098	0.191
-188.158	-126.116	-0.181	0.027
-187.144	151.588	0.100	0.133
-186.129	-156.362	0.397	-0.024
-185.114	105.456	0.215	-0.250
-184.100	-200.000	0.053	-0.296
-183.085	-70.313	-0.257	-0.096
-182.071	50.576	0.252	0.234
-181.056	-200.000	0.006	-0.326
-180.042	-150.742	0.257	-0.019
-179.027	-200.000	0.016	0.076
-178.012	800.000	0.071	-0.266
-176.998	-6.452	0.303	-0.203
-175.983	342.058	0.089	-0.170
-174.969	-200.000	-0.013	-0.427
-173.954	-123.256	0.212	0.033
-172.939	77.306	-0.126	0.131
-171.925	-47.596	-0.158	0.075
-170.910	503.577	-0.083	-0.189
-169.896	86.156	-0.125	0.135
-168.881	175.208	-0.156	-0.221
-167.866	-122.397	0.106	0.017
-166.852	-200.000	-0.086	0.378
-165.837	-200.000	-0.002	-0.241
-164.823	-142.337	-0.249	-0.024
-163.808	165.611	-0.079	-0.109
-162.793	-17.399	-0.097	0.060
-161.779	202.819	0.106	-0.161
-160.764	-200.000	0.036	-0.160
-159.750	703.702	-0.137	0.354
-158.735	582.028	-0.030	-0.072
-157.720	19.321	0.203	0.160
-156.706	263.619	0.086	-0.146
-155.691	-99.140	0.074	-0.018
-154.677	-26.787	-0.070	0.040
-153.662	-104.800	0.154	0.035
-152.647	-84.775	-0.148	-0.046
-151.633	-92.935	0.346	0.095
-150.618	7.423	-0.164	0.120
-149.604	-49.603	0.362	-0.169
-148.589	-61.914	-0.114	0.047
-147.574	76.363	0.217	-0.225
-146.560	8.635	-0.164	0.121
-145.545	-161.831	0.434	0.022
-144.531	-47.612	0.142	0.068
-143.516	12.267	-0.198	-0.149
-142.502	-127.866	-0.275	-0.039
-141.487	250.889	-0.202	0.337
-140.472	23.413	0.195	0.157
-139.458	-165.160	0.240	-0.010
-138.443	226.887	0.065	-0.103
-137.429	800.000	-0.086	-0.241
-136.414	729.668	-0.171	-0.447
-135.399	-37.222	0.054	0.028
-134.385	800.000	0.056	0.230
-133.370	233.131	-0.058	-0.094
-132.356	800.000	-0.025	0.105
-131.341	280.573	-0.033	-0.059
-130.326	-100.247	-0.093	-0.023
-129.312	-96.255	-0.267	0.069
-128.297	-110.333	-0.215	0.044
-127.283	15.495	-0.111	-0.085
-126.268	-120.563	-0.085	0.014
-125.253	-35.195	-0.087	0.047
-124.239	-200.000	0.002	0.391
-123.224	45.928	0.176	0.159
-122.210	318.560	-0.106	0.196
