DTS Sentinel unit serial number:	SN413079Multiplexer serial number:	ORYXHardware model number:	OX4-SRSoftware version number:	ORYX F/W v4.00 Oryx Data Collector v3.7.2.0data status	okinstallation	princeton_trtdifferential loss correction	single-endedforward channel	channel 4reverse channel	N/Adate	2019/09/19time	08:45:34forward acquisition time	60.00reverse acquisition time	0.00gamma	496.2192k internal	0.2339k external	0.2339temperature offset calibration	1.0022default loss term (dB/km)	0.3790temperature slope calibration	1.0000multiplexer offset coefficient	1.0000multiplexer slope coefficient	1.0000fibre end	0.00T internal ref (°C)	21.05T ext. ref 1 (°C)	0.59T ext. ref 2 (°C)	16.66length (m)	temperature (°C)	Stokes	anti-Stokes-747.200	800.000	-0.026	-0.086
-746.185	-200.000	-0.033	-0.196
-745.171	-12.900	0.094	-0.061
-744.156	800.000	-0.211	0.732
-743.142	800.000	-0.047	0.178
-742.127	-10.960	0.173	-0.114
-741.112	-142.964	-0.032	-0.003
-740.098	-130.823	-0.209	-0.028
-739.083	302.959	-0.179	0.333
-738.069	-172.043	-0.318	-0.010
-737.054	-200.000	-0.031	0.299
-736.039	-56.489	-0.258	-0.115
-735.025	33.331	-0.157	0.137
-734.010	182.446	0.174	0.257
-732.996	-149.665	0.104	0.008
-731.981	394.096	0.101	-0.210
-730.966	-200.000	0.012	0.152
-729.952	679.541	0.089	-0.231
-728.937	-97.400	-0.261	0.068
-727.923	-200.000	0.003	0.108
-726.908	-110.331	0.249	0.052
-725.894	214.959	-0.158	-0.252
-724.879	-101.427	0.336	0.082
-723.864	183.047	-0.154	-0.228
-722.850	-200.000	-0.010	-0.244
-721.835	428.922	0.117	-0.253
-720.821	-184.330	-0.093	0.002
-719.806	274.510	0.064	-0.114
-718.791	-200.000	-0.044	0.198
-717.777	161.104	-0.087	0.122
-716.762	459.715	0.052	0.116
-715.748	11.108	0.257	0.197
-714.733	-106.207	-0.214	-0.048
-713.718	-160.047	-0.238	-0.013
-712.704	-151.217	0.125	0.009
-711.689	800.000	-0.055	-0.201
-710.675	-200.000	0.003	-0.054
-709.660	-140.635	0.165	-0.017
-708.645	442.947	-0.033	0.072
-707.631	800.000	0.073	-0.285
-706.616	800.000	-0.065	0.242
-705.602	-59.045	0.212	0.092
-704.587	166.046	-0.125	0.177
-703.572	25.444	-0.048	0.040
-702.558	-179.086	0.064	-0.001
-701.543	252.091	-0.175	0.299
-700.529	-109.057	0.293	0.063
-699.514	800.000	-0.163	-0.711
-698.499	-135.153	-0.255	-0.031
-697.485	125.002	0.077	0.097
-696.470	173.820	0.051	0.074
-695.456	-200.000	0.000	0.454
-694.441	-139.207	0.030	-0.003
-693.426	62.870	-0.169	-0.169
-692.412	112.359	-0.251	-0.304
-691.397	197.267	-0.141	0.216
-690.383	141.316	-0.219	0.290
-689.368	15.917	0.206	0.163
-688.354	169.162	0.113	-0.162
-687.339	309.700	-0.110	0.206
-686.324	-200.000	-0.050	0.361
-685.310	-200.000	0.005	0.109
-684.295	138.591	-0.044	0.057
-683.281	-200.000	0.011	0.251
-682.266	406.997	-0.117	-0.247
-681.251	82.360	-0.347	-0.377
-680.237	-61.427	-0.076	-0.032
-679.222	-20.481	-0.264	0.163
-678.208	-125.688	0.220	-0.033
-677.193	0.155	0.059	-0.042
-676.178	135.080	-0.074	0.097
-675.164	-131.844	-0.423	0.055
-674.149	-200.000	-0.044	0.339
-673.135	321.767	-0.105	0.199
-672.120	-200.000	-0.068	0.309
-671.105	157.448	-0.152	0.210
-670.091	550.987	-0.071	0.170
-669.076	293.940	0.123	-0.225
-668.062	-104.987	-0.080	0.018
-667.047	-55.696	-0.121	0.054
-666.032	800.000	0.047	-0.148
-665.018	-5.576	0.265	0.182
-664.003	208.701	0.115	-0.180
-662.989	-12.127	-0.300	-0.197
-661.974	-200.000	-0.003	0.032
-660.959	132.258	0.109	-0.140
-659.945	12.430	-0.302	-0.233
-658.930	-200.000	0.045	-0.285
-657.916	-162.991	-0.200	0.010
-656.901	-200.000	-0.048	-0.269
-655.886	628.413	-0.114	-0.289
-654.872	-65.849	-0.244	0.097
-653.857	70.488	-0.105	-0.108
-652.843	59.310	0.039	0.039
-651.828	-57.036	0.076	-0.033
-650.814	13.216	0.177	0.137
-649.799	-56.235	0.313	0.139
-648.784	63.701	0.075	0.076
-647.770	-45.567	-0.123	-0.061
-646.755	-200.000	0.018	0.336
-645.741	-200.000	0.047	0.226
-644.726	158.035	0.128	-0.177
-643.711	-200.000	0.022	-0.209
-642.697	-70.068	0.316	-0.120
-641.682	26.259	-0.232	-0.194
-640.668	-200.000	0.025	0.121
-639.653	800.000	-0.109	-0.363
-638.638	-200.000	0.018	-0.119
-637.624	-156.856	-0.344	0.021
-636.609	-38.494	-0.199	0.105
-635.595	-117.727	0.261	0.047
-634.580	-200.000	-0.001	-0.126
-633.565	800.000	0.065	-0.210
-632.551	800.000	-0.117	-0.464
-631.536	-89.603	0.227	-0.067
-630.522	-200.000	-0.006	0.055
-629.507	-128.690	0.240	0.034
-628.492	561.834	-0.182	-0.438
-627.478	51.830	0.180	-0.171
-626.463	800.000	-0.012	-0.038
-625.449	51.799	0.090	-0.086
-624.434	-142.466	0.112	0.011
-623.419	298.520	-0.216	-0.397
-622.405	-200.000	-0.019	0.306
-621.390	-42.151	-0.179	-0.092
-620.376	-200.000	-0.014	-0.123
-619.361	-200.000	0.030	-0.303
-618.346	18.608	0.159	-0.127
-617.332	334.662	0.118	-0.229
-616.317	-160.746	0.030	-0.002
-615.303	-125.591	-0.578	0.088
-614.288	187.549	0.137	-0.204
-613.273	89.217	-0.194	-0.216
-612.259	745.266	-0.099	0.266
-611.244	2.481	-0.217	0.157
-610.230	800.000	-0.061	-0.170
-609.215	151.205	-0.205	-0.279
-608.201	83.011	-0.204	0.221
-607.186	-105.348	-0.134	-0.030
-606.171	10.845	-0.031	0.024
-605.157	106.794	-0.099	-0.117
-604.142	356.053	0.049	0.098
-603.128	-200.000	0.009	0.265
-602.113	360.006	0.117	-0.233
-601.098	25.398	-0.153	-0.127
-600.084	-70.899	0.300	0.113
-599.069	602.953	-0.067	-0.167
-598.055	-89.177	-0.161	-0.047
-597.040	-200.000	-0.003	-0.170
-596.025	800.000	-0.015	0.054
-595.011	-27.599	0.139	0.081
-593.996	-200.000	0.004	-0.157
-592.982	-200.000	-0.026	0.210
-591.967	112.298	0.041	0.049
-590.952	800.000	-0.068	0.242
-589.938	-70.140	-0.417	0.158
-588.923	-23.360	0.306	-0.184
-587.909	-27.286	0.200	-0.116
-586.894	-62.356	-0.196	0.081
-585.879	290.673	-0.159	-0.288
-584.865	-199.744	-0.079	-0.000
-583.850	800.000	-0.037	0.114
-582.836	-97.848	-0.204	-0.053
-581.821	-19.190	0.214	-0.132
-580.806	-41.521	0.207	-0.106
-579.792	-66.639	-0.307	0.121
-578.777	800.000	-0.050	0.212
-577.763	-200.000	0.033	0.279
-576.748	-70.771	-0.095	-0.036
-575.733	83.042	-0.253	0.274
-574.719	-200.000	0.016	0.271
-573.704	542.708	0.064	-0.152
-572.690	-200.000	0.042	0.475
-571.675	-200.000	-0.001	-0.062
-570.661	115.465	-0.149	-0.181
-569.646	-93.596	-0.279	-0.077
-568.631	258.816	-0.220	-0.377
-567.617	-200.000	0.030	0.180
-566.602	-53.912	0.017	0.008
-565.588	-200.000	0.030	0.259
-564.573	674.676	0.082	-0.213
-563.558	347.569	-0.118	0.232
-562.544	367.420	-0.134	0.270
-561.529	69.763	0.086	-0.088
-560.515	800.000	-0.172	-0.554
-559.500	364.752	0.067	-0.134
-558.485	-124.051	0.225	-0.035
-557.471	757.549	0.057	0.154
-556.456	30.104	0.220	-0.187
-555.442	741.434	-0.059	0.157
-554.427	-18.443	0.097	-0.060
-553.412	800.000	0.049	-0.212
-552.398	740.733	0.092	-0.246
-551.383	-59.300	0.234	0.100
-550.369	-136.083	-0.236	0.028
-549.354	-155.316	0.474	-0.031
-548.339	-200.000	0.007	-0.141
-547.325	-56.201	0.435	-0.193
-546.310	-93.551	-0.200	0.055
-545.296	-200.000	-0.008	-0.363
-544.281	-76.368	-0.210	-0.073
-543.266	49.487	0.248	-0.232
-542.252	800.000	-0.035	0.112
-541.237	100.332	-0.133	0.153
-540.223	789.959	-0.079	0.216
-539.208	9.151	0.198	0.149
-538.193	-200.000	0.008	-0.387
-537.179	-171.481	-0.187	-0.006
-536.164	19.737	0.122	-0.098
-535.150	-0.924	0.263	0.185
-534.135	117.599	-0.143	0.175
-533.121	-15.427	-0.238	-0.151
-532.106	-82.382	-0.373	0.121
-531.091	174.419	-0.138	0.198
-530.077	547.366	0.171	-0.407
-529.062	793.105	0.097	0.266
-528.048	-200.000	-0.042	-0.285
-527.033	4.370	-0.253	-0.185
-526.018	-86.832	-0.239	-0.073
-525.004	-108.080	-0.192	-0.041
-523.989	800.000	-0.036	-0.133
-522.975	-132.328	0.188	0.024
-521.960	-124.095	-0.117	-0.018
-520.945	-46.384	-0.266	0.130
-519.931	-10.219	-0.245	-0.162
-518.916	-54.784	-0.178	0.080
-517.902	-198.925	0.400	-0.002
-516.887	-113.002	-0.283	-0.056
-515.872	-200.000	0.021	0.115
-514.858	-134.753	0.238	0.029
-513.843	4.983	-0.307	0.225
-512.829	-200.000	0.054	0.351
-511.814	-200.000	0.002	-0.254
-510.799	-118.234	0.271	-0.048
-509.785	-138.036	0.086	0.010
-508.770	84.007	-0.044	-0.047
-507.756	22.912	-0.123	-0.100
-506.741	-200.000	-0.002	-0.042
-505.726	64.751	0.234	0.235
-504.712	-72.083	0.059	-0.022
-503.697	800.000	-0.030	-0.084
-502.683	-200.000	-0.036	0.344
-501.668	-91.914	-0.190	0.053
-500.653	800.000	0.021	-0.059
-499.639	296.510	0.285	-0.519
-498.624	-110.069	-0.079	0.016
-497.610	62.149	0.127	0.126
-496.595	679.440	0.084	-0.217
-495.581	-200.000	0.028	0.279
-494.566	450.554	0.049	-0.106
-493.551	182.942	-0.211	-0.309
-492.537	-59.541	0.353	-0.151
-491.522	76.986	-0.161	-0.170
-490.508	788.136	-0.190	0.517
-489.493	47.060	0.148	0.136
-488.478	76.785	-0.180	0.190
-487.464	-200.000	-0.015	-0.116
-486.449	-102.850	-0.331	-0.078
-485.435	-133.967	0.162	0.020
-484.420	24.925	0.107	-0.088
-483.405	-55.141	0.098	0.044
-482.391	-22.476	0.238	-0.143
-481.376	-145.197	-0.139	-0.013
-480.362	529.821	0.069	0.163
-479.347	0.213	0.229	0.163
-478.332	84.262	0.211	-0.229
-477.318	-109.549	-0.179	0.038
-476.303	217.504	0.065	0.104
-475.289	-49.059	0.230	0.109
-474.274	-93.841	0.302	0.083
-473.259	-200.000	-0.044	-0.246
-472.245	76.666	0.156	-0.164
-471.230	228.470	0.089	0.144
-470.216	-107.864	-0.350	-0.076
-469.201	-200.000	0.079	0.348
-468.186	800.000	0.026	0.086
-467.172	103.129	0.233	-0.272
-466.157	-27.191	-0.139	-0.080
-465.143	-200.000	0.020	0.389
-464.128	110.483	-0.286	-0.341
-463.113	269.171	0.168	0.293
-462.099	-174.257	-0.285	0.008
-461.084	-132.613	0.257	-0.033
-460.070	-81.826	0.159	-0.052
-459.055	-200.000	-0.002	-0.427
-458.040	-76.954	-0.358	-0.124
-457.026	630.322	-0.166	-0.417
-456.011	-31.947	0.142	-0.079
-454.997	800.000	-0.097	0.289
-453.982	482.937	0.123	0.278
-452.968	-66.306	0.163	0.064
-451.953	-89.949	-0.094	-0.027
-450.938	-200.000	0.006	-0.095
-449.924	763.008	0.101	0.271
-448.909	-200.000	-0.080	0.429
-447.895	339.461	-0.126	0.243
-446.880	213.789	-0.045	-0.071
-445.865	9.670	-0.098	-0.073
-444.851	-200.000	0.015	-0.098
-443.836	-96.170	-0.460	0.121
-442.822	-171.011	0.201	-0.007
-441.807	-95.777	-0.111	-0.029
-440.792	35.910	0.258	0.225
-439.778	-27.944	0.107	0.062
-438.763	-94.737	0.055	0.015
-437.749	-62.497	0.216	0.089
-436.734	-200.000	0.012	-0.273
-435.719	-18.096	0.142	-0.088
-434.705	-200.000	0.027	-0.255
-433.690	800.000	-0.154	-0.429
-432.676	364.460	-0.140	0.280
-431.661	502.051	0.065	-0.149
-430.646	213.180	-0.147	0.231
-429.632	-91.127	-0.204	-0.058
-428.617	77.098	0.092	-0.097
-427.603	309.633	0.147	0.271
-426.588	-13.807	-0.232	0.149
-425.573	-0.124	0.139	0.098
-424.559	-200.000	-0.003	0.161
-423.544	-141.856	0.164	-0.016
-422.530	-176.180	-0.327	0.008
-421.515	-54.454	-0.360	0.161
-420.500	229.214	0.108	0.175
-419.486	-84.394	0.284	-0.089
-418.471	-127.932	0.050	-0.007
-417.457	79.184	0.083	-0.088
-416.442	-35.734	0.084	-0.045
-415.428	-117.713	-0.169	-0.030
-414.413	254.055	-0.081	-0.138
-413.398	-120.093	0.221	0.038
-412.384	-95.395	0.175	-0.047
-411.369	218.603	-0.189	0.299
-410.355	165.534	0.106	-0.148
-409.340	219.202	0.154	-0.244
-408.325	-34.104	0.128	0.070
-407.311	274.414	0.022	0.038
-406.296	800.000	0.076	-0.247
-405.282	-60.643	-0.052	0.022
-404.267	144.741	0.157	0.208
-403.252	231.696	-0.111	-0.180
-402.238	44.567	0.223	0.203
-401.223	3.294	0.125	-0.090
-400.209	-5.365	0.117	-0.079
-399.194	-88.290	0.384	-0.114
-398.179	800.000	-0.051	0.208
-397.165	53.091	-0.114	0.108
-396.150	-20.617	-0.059	-0.036
-395.136	-135.980	0.182	-0.021
-394.121	-200.000	0.051	-0.269
-393.106	288.671	-0.103	-0.185
-392.092	800.000	0.072	-0.282
-391.077	-36.608	0.086	-0.046
-390.063	-200.000	-0.015	0.305
-389.048	226.179	0.086	0.138
-388.033	7.189	-0.205	0.151
-387.019	636.712	-0.079	0.198
-386.004	297.432	0.046	0.083
-384.990	31.547	-0.120	0.102
-383.975	376.691	0.073	-0.148
-382.960	-99.189	0.352	0.088
-381.946	0.023	-0.164	0.116
-380.931	365.349	-0.011	-0.021
-379.917	-78.309	-0.236	-0.080
-378.902	-55.680	-0.134	0.059
-377.888	-122.828	0.344	-0.055
-376.873	-57.183	-0.203	0.089
-375.858	81.119	-0.075	0.080
-374.844	-119.732	-0.149	-0.025
-373.829	-71.918	-0.086	0.031
-372.815	800.000	-0.051	-0.198
-371.800	251.896	0.024	-0.040
-370.785	800.000	0.176	0.497
-369.771	-200.000	0.004	-0.022
-368.756	35.584	-0.113	0.098
-367.742	-200.000	-0.046	0.297
-366.727	-54.931	-0.228	-0.102
-365.712	140.531	0.117	-0.153
-364.698	379.091	-0.090	-0.183
-363.683	-200.000	-0.068	-0.336
-362.669	15.053	-0.268	-0.208
-361.654	-107.784	-0.345	0.074
-360.639	-80.850	0.052	0.017
-359.625	-149.991	0.225	-0.017
-358.610	208.533	0.115	0.178
-357.596	3.672	0.179	-0.129
-356.581	800.000	-0.086	-0.279
-355.566	184.995	-0.133	-0.194
-354.552	461.229	0.013	-0.028
-353.537	-200.000	-0.006	-0.142
-352.523	-200.000	-0.064	0.299
-351.508	196.587	-0.126	0.190
-350.493	-200.000	0.008	0.147
-349.479	21.286	0.156	-0.125
-348.464	-66.981	-0.092	0.036
-347.450	-62.935	0.153	0.063
-346.435	36.855	-0.154	-0.135
-345.420	-200.000	0.003	0.108
-344.406	443.991	0.112	0.243
-343.391	-25.966	-0.084	0.049
-342.377	-91.388	-0.454	0.128
-341.362	238.765	0.177	-0.290
-340.348	100.484	-0.206	-0.236
-339.333	-200.000	-0.023	-0.208
-338.318	-73.198	-0.296	0.107
-337.304	105.886	0.028	0.032
-336.289	-3.214	0.225	0.155
-335.275	-154.064	-0.167	-0.011
-334.260	163.066	0.016	0.022
-333.245	-200.000	0.026	0.268
-332.231	-51.569	0.081	0.037
-331.216	800.000	0.043	-0.119
-330.202	-200.000	-0.004	-0.266
-329.187	22.120	-0.200	0.161
-328.172	-21.988	-0.326	0.195
-327.158	-188.130	-0.227	0.003
-326.143	800.000	-0.105	0.305
-325.129	-98.439	0.406	0.102
-324.114	74.490	-0.307	0.319
-323.099	17.862	-0.285	0.224
-322.085	-200.000	0.015	-0.268
-321.070	800.000	0.062	0.212
-320.056	-12.006	-0.080	0.052
-319.041	-119.735	0.123	0.021
-318.026	-144.529	0.051	0.005
-317.012	152.107	0.230	-0.310
-315.997	132.283	-0.056	0.071
-314.983	23.959	0.196	0.160
-313.968	-5.588	0.038	-0.026
-312.953	-128.965	-0.085	-0.012
-311.939	800.000	0.017	0.049
-310.924	-1.085	-0.123	0.086
-309.910	227.434	-0.080	0.128
-308.895	-47.366	0.374	0.179
-307.880	119.441	0.082	-0.100
-306.866	-98.086	0.268	-0.068
-305.851	-37.074	-0.071	0.037
-304.837	-200.000	-0.028	0.261
-303.822	800.000	-0.059	-0.199
-302.807	-3.366	0.040	-0.027
-301.793	524.009	-0.066	-0.154
-300.778	66.504	-0.046	-0.046
-299.764	800.000	-0.079	0.298
-298.749	268.829	-0.021	-0.037
-297.735	-17.659	0.313	-0.194
-296.720	76.254	0.172	-0.179
-295.705	-44.483	-0.260	-0.128
-294.691	432.524	0.145	-0.310
-293.676	-122.279	0.043	0.007
-292.662	-175.305	0.133	0.004
-291.647	-2.574	0.138	0.095
-290.632	800.000	-0.044	0.144
-289.618	-1.564	-0.242	-0.168
-288.603	134.099	0.136	0.174
-287.589	52.167	-0.188	-0.176
-286.574	-200.000	-0.046	0.274
-285.559	-4.821	-0.220	0.150
-284.545	-200.000	-0.005	0.039
-283.530	129.461	0.018	0.023
-282.516	21.111	-0.081	0.065
-281.501	94.033	0.110	-0.123
-280.486	-200.000	0.050	0.297
-279.472	800.000	-0.111	-0.371
-278.457	-200.000	-0.042	0.254
-277.443	-146.916	-0.194	-0.016
-276.428	330.184	-0.122	-0.231
-275.413	392.156	0.122	0.249
-274.399	693.167	0.019	0.050
-273.384	255.832	-0.052	0.088
-272.370	-128.917	0.037	0.005
-271.355	446.040	0.082	-0.178
-270.340	-200.000	-0.059	-0.461
-269.326	-200.000	0.002	-0.255
-268.311	-200.000	-0.016	0.497
-267.297	76.276	-0.195	-0.203
-266.282	314.324	-0.137	-0.254
-265.267	-122.817	0.211	-0.034
-264.253	-101.425	-0.052	-0.012
-263.238	-200.000	0.048	-0.249
-262.224	-91.225	-0.336	-0.095
-261.209	-36.919	0.205	-0.108
-260.195	17.585	0.112	0.087
-259.180	-200.000	-0.094	-0.425
-258.165	127.400	0.126	0.158
-257.151	207.139	0.127	0.195
-256.136	800.000	-0.126	0.426
-255.122	-97.776	-0.124	-0.032
-254.107	529.157	0.082	-0.190
-253.092	551.754	0.035	-0.083
-252.078	161.012	0.129	0.178
-251.063	508.657	-0.024	-0.055
-250.049	-70.813	0.094	0.035
-249.034	-71.697	-0.165	0.061
-248.019	-118.694	-0.176	0.031
-247.005	-55.825	0.333	-0.146
-245.990	-200.000	0.010	-0.131
-244.976	92.145	-0.052	0.057
-243.961	-163.489	0.182	0.008
-242.946	800.000	-0.051	0.151
-241.932	-192.336	-0.458	-0.004
-240.917	247.562	0.041	0.067
-239.903	34.852	0.094	-0.081
-238.888	-11.690	0.137	-0.088
-237.873	800.000	-0.042	-0.118
-236.859	-63.111	0.046	-0.019
-235.844	-52.801	0.480	0.217
-234.830	800.000	-0.054	0.217
-233.815	-42.903	0.169	-0.084
-232.800	-23.624	0.213	0.126
-231.786	406.296	0.010	0.022
-230.771	165.574	0.059	-0.082
-229.757	38.091	-0.093	0.081
-228.742	-114.995	0.060	-0.011
-227.727	50.525	0.042	0.039
-226.713	-64.300	0.127	-0.051
-225.698	-200.000	-0.058	-0.318
-224.684	-161.031	-0.475	0.024
-223.669	-135.831	0.145	0.017
-222.655	72.274	-0.103	0.105
-221.640	138.808	0.112	0.144
-220.625	83.772	0.160	0.171
-219.611	57.479	0.055	0.052
-218.596	117.097	-0.081	0.098
-217.582	-88.725	-0.026	-0.008
-216.567	129.010	0.115	0.144
-215.552	3.493	-0.235	-0.168
-214.538	-41.052	0.246	0.125
-213.523	106.228	0.158	0.183
-212.509	-200.000	-0.031	-0.287
-211.494	-102.580	0.134	-0.031
-210.479	30.231	0.277	0.232
-209.465	-200.000	-0.005	-0.131
-208.450	-119.806	0.088	-0.015
-207.436	106.330	-0.107	0.124
-206.421	-31.087	0.302	-0.167
-205.406	-89.627	-0.175	-0.050
-204.392	-200.000	-0.004	-0.318
-203.377	-35.475	-0.050	0.027
-202.363	-200.000	0.001	0.111
-201.348	530.507	0.114	0.265
-200.333	-200.000	0.001	0.305
-199.319	270.815	0.105	-0.182
-198.304	33.268	-0.059	0.050
-197.290	-200.000	0.009	0.094
-196.275	217.894	0.240	-0.377
-195.260	-24.215	0.338	0.198
-194.246	97.787	0.187	-0.211
-193.231	218.194	-0.120	0.189
-192.217	-38.161	0.080	0.041
-191.202	342.569	0.014	-0.026
-190.187	-117.112	0.165	-0.029
-189.173	-73.081	-0.286	-0.103
-188.158	-200.000	-0.026	-0.299
-187.144	310.035	-0.137	0.251
-186.129	-200.000	-0.012	0.107
-185.114	-200.000	0.023	0.203
-184.100	800.000	0.023	0.064
-183.085	355.519	-0.052	0.102
-182.071	88.071	-0.254	0.276
-181.056	-142.296	0.214	-0.021
-180.042	-15.918	0.354	0.221
-179.027	311.063	-0.146	0.268
-178.012	-16.615	0.255	-0.159
-176.998	70.052	-0.204	0.206
-175.983	800.000	-0.027	-0.102
-174.969	-200.000	-0.044	0.285
-173.954	800.000	-0.044	0.168
-172.939	-200.000	0.001	0.136
-171.925	652.051	0.073	0.185
-170.910	-200.000	0.026	0.199
-169.896	-200.000	0.024	-0.133
-168.881	-76.162	0.216	0.075
-167.866	800.000	-0.078	-0.240
-166.852	223.301	0.085	-0.134
-165.837	280.245	0.047	-0.083
-164.823	-26.997	-0.255	0.146
-163.808	-3.486	0.085	0.058
-162.793	-104.755	-0.181	-0.041
-161.779	106.125	-0.218	0.253
-160.764	396.760	0.024	-0.048
-159.750	108.391	0.270	-0.316
-158.735	-200.000	0.027	0.282
-157.720	544.485	-0.047	-0.110
-156.706	-80.957	-0.182	0.059
-155.691	-200.000	0.013	0.141
-154.677	-59.719	0.300	-0.126
-153.662	55.390	0.252	-0.239
-152.647	-32.961	-0.117	-0.063
-151.633	184.090	-0.254	0.369
-150.618	159.065	-0.117	0.160
-149.604	-67.192	0.137	-0.053
-148.589	544.125	0.134	0.315
-147.574	-6.157	0.126	0.084
-146.560	268.676	0.146	0.251
-145.545	28.122	-0.062	0.051
-144.531	800.000	-0.057	0.230
-143.516	-200.000	0.021	-0.383
-142.502	800.000	0.056	-0.176
-141.487	57.552	-0.064	0.061
-140.472	412.656	-0.097	-0.202
-139.458	800.000	-0.044	0.124
-138.443	-102.369	-0.306	0.072
-137.429	428.068	-0.076	-0.162
-136.414	-76.560	0.368	0.127
-135.399	61.062	0.202	-0.196
-134.385	169.310	-0.075	0.104
-133.370	220.923	-0.133	0.210
-132.356	-67.885	-0.258	0.099
-131.341	-40.830	0.353	0.179
-130.326	223.562	-0.041	-0.065
-129.312	452.171	-0.128	0.278
-128.297	-200.000	-0.008	-0.056
-127.283	-200.000	-0.020	0.279
-126.268	67.465	-0.099	-0.099
-125.253	800.000	0.027	-0.095
-124.239	-50.761	0.235	0.108
-123.224	-9.807	-0.193	-0.126
-122.210	-182.772	0.086	0.002
-121.195	316.619	-0.068	-0.127
