DTS Sentinel unit serial number:	SN413079Multiplexer serial number:	ORYXHardware model number:	OX4-SRSoftware version number:	ORYX F/W v4.00 Oryx Data Collector v3.7.2.0data status	okinstallation	princeton_trtdifferential loss correction	single-endedforward channel	channel 4reverse channel	N/Adate	2019/09/16time	10:45:35forward acquisition time	60.00reverse acquisition time	0.00gamma	496.2192k internal	0.2298k external	0.2298temperature offset calibration	0.9957default loss term (dB/km)	0.3790temperature slope calibration	1.0000multiplexer offset coefficient	1.0000multiplexer slope coefficient	1.0000fibre end	0.00T internal ref (°C)	36.09T ext. ref 1 (°C)	12.67T ext. ref 2 (°C)	34.40length (m)	temperature (°C)	Stokes	anti-Stokes-747.200	-41.862	-0.183	0.096
-746.185	289.876	-0.124	-0.230
-745.171	-93.818	0.029	0.008
-744.156	205.548	-0.129	0.205
-743.142	-200.000	-0.006	0.188
-742.127	-6.786	0.091	-0.063
-741.112	108.559	0.124	0.151
-740.098	-96.687	-0.238	0.064
-739.083	-17.746	0.279	0.179
-738.069	-200.000	-0.066	0.436
-737.054	173.896	-0.066	0.097
-736.039	-114.442	-0.219	0.043
-735.025	0.583	0.132	-0.096
-734.010	3.192	-0.239	-0.177
-732.996	69.007	-0.152	0.159
-731.981	-200.000	0.036	0.162
-730.966	-14.093	-0.159	0.105
-729.952	-134.058	-0.286	-0.036
-728.937	-200.000	-0.017	-0.153
-727.923	523.247	-0.157	-0.377
-726.908	-200.000	-0.056	-0.368
-725.894	182.079	0.079	-0.118
-724.879	-47.882	-0.061	-0.030
-723.864	-86.655	-0.301	-0.094
-722.850	296.802	-0.134	-0.251
-721.835	74.676	-0.196	-0.211
-720.821	-126.609	-0.340	0.051
-719.806	-132.940	-0.211	-0.027
-718.791	-37.768	0.224	0.122
-717.777	-200.000	-0.002	0.018
-716.762	-200.000	0.005	0.033
-715.748	-140.490	0.123	0.013
-714.733	328.896	-0.161	0.315
-713.718	-200.000	0.001	0.023
-712.704	719.490	-0.120	-0.324
-711.689	-68.039	-0.247	-0.098
-710.675	-25.850	-0.211	0.127
-709.660	-51.295	-0.073	0.035
-708.645	-9.237	0.150	-0.102
-707.631	-69.763	-0.139	-0.054
-706.616	-27.690	0.232	-0.137
-705.602	-152.072	0.343	-0.025
-704.587	144.048	-0.114	-0.154
-703.572	-10.964	-0.196	-0.132
-702.558	-71.156	-0.372	-0.142
-701.543	-80.577	0.224	0.076
-700.529	-114.877	-0.258	0.050
-699.514	297.895	-0.080	0.150
-698.499	82.271	-0.074	0.082
-697.485	800.000	-0.121	0.426
-696.470	148.754	0.079	-0.109
-695.456	-200.000	0.003	-0.134
-694.441	-27.590	0.435	0.258
-693.426	-200.000	-0.020	0.258
-692.412	10.109	-0.157	0.122
-691.397	86.240	-0.094	-0.106
-690.383	-200.000	0.040	-0.216
-689.368	184.226	0.071	-0.107
-688.354	56.180	-0.197	0.195
-687.339	184.332	0.065	0.098
-686.324	-200.000	0.048	-0.231
-685.310	-200.000	-0.001	-0.059
-684.295	64.479	-0.223	0.229
-683.281	-40.484	-0.152	-0.080
-682.266	569.546	-0.077	-0.189
-681.251	-200.000	-0.013	0.173
-680.237	18.890	-0.331	0.270
-679.222	27.863	-0.136	0.117
-678.208	800.000	0.058	-0.236
-677.193	800.000	-0.068	-0.296
-676.178	197.690	0.204	-0.318
-675.164	-200.000	0.040	-0.351
-674.149	-200.000	0.028	-0.353
-673.135	64.086	-0.154	0.157
-672.120	68.151	-0.046	-0.048
-671.105	463.780	0.114	-0.260
-670.091	249.416	-0.279	-0.482
-669.076	-200.000	-0.011	-0.115
-668.062	-169.490	-0.153	0.006
-667.047	-139.073	0.172	-0.019
-666.032	-200.000	0.053	-0.371
-665.018	76.299	0.346	0.373
-664.003	-44.438	-0.142	0.072
-662.989	76.462	-0.096	-0.103
-661.974	750.716	-0.136	-0.372
-660.959	800.000	0.060	-0.234
-659.945	-152.071	-0.137	0.010
-658.930	-156.766	-0.311	0.020
-657.916	800.000	-0.050	-0.169
-656.901	-200.000	0.014	-0.290
-655.886	52.530	-0.196	-0.190
-654.872	-200.000	-0.006	0.149
-653.857	306.488	0.030	0.057
-652.843	171.386	-0.079	0.115
-651.828	439.219	0.116	-0.257
-650.814	208.695	-0.088	-0.140
-649.799	33.165	0.069	-0.061
-648.784	800.000	0.108	-0.319
-647.770	800.000	-0.028	-0.110
-646.755	378.756	-0.082	0.172
-645.741	-200.000	0.008	-0.143
-644.726	-200.000	-0.008	0.062
-643.711	-96.520	-0.094	-0.025
-642.697	718.481	0.069	-0.186
-641.682	373.475	-0.072	0.149
-640.668	-200.000	0.022	0.148
-639.653	-14.061	0.318	-0.209
-638.638	57.991	-0.195	0.194
-637.624	-76.483	0.369	0.132
-636.609	592.878	-0.105	-0.265
-635.595	86.858	-0.078	-0.087
-634.580	800.000	0.101	-0.354
-633.565	-129.017	-0.240	0.034
-632.551	140.868	-0.215	-0.289
-631.536	189.520	-0.052	0.079
-630.522	-100.323	0.039	0.010
-629.507	245.939	-0.061	0.104
-628.492	86.630	-0.137	0.154
-627.478	-104.735	0.265	-0.062
-626.463	443.108	-0.024	-0.054
-625.449	-200.000	0.057	-0.258
-624.434	25.460	-0.101	-0.085
-623.419	800.000	-0.036	-0.148
-622.405	571.143	-0.139	0.345
-621.390	-200.000	0.010	0.228
-620.376	-148.041	-0.295	-0.025
-619.361	-200.000	-0.013	-0.282
-618.346	-200.000	0.006	-0.226
-617.332	-200.000	-0.051	-0.339
-616.317	-68.089	0.210	-0.083
-615.303	-82.107	-0.389	-0.129
-614.288	-200.000	-0.004	0.243
-613.273	196.322	-0.062	-0.096
-612.259	78.701	-0.232	-0.252
-611.244	-179.831	0.114	-0.002
-610.230	800.000	-0.057	0.162
-609.215	658.658	0.041	0.108
-608.201	47.608	0.027	0.026
-607.186	-108.588	-0.225	-0.049
-606.171	270.977	0.133	0.238
-605.157	-6.036	-0.096	0.067
-604.142	119.952	-0.171	0.216
-603.128	200.877	-0.095	-0.148
-602.113	-200.000	-0.026	-0.296
-601.098	68.019	-0.152	0.158
-600.084	19.918	0.053	0.043
-599.069	733.255	-0.019	0.051
-598.055	-59.582	0.230	0.100
-597.040	-200.000	-0.010	0.064
-596.025	-145.607	-0.189	0.017
-595.011	629.690	-0.042	0.107
-593.996	37.586	-0.142	0.128
-592.982	98.886	-0.137	0.161
-591.967	-84.902	0.101	-0.032
-590.952	-200.000	-0.004	-0.088
-589.938	120.565	-0.048	-0.061
-588.923	-91.299	0.054	0.016
-587.909	-110.477	0.251	-0.053
-586.894	-2.535	-0.148	0.105
-585.879	-200.000	-0.021	-0.222
-584.865	68.638	0.154	-0.161
-583.850	-200.000	0.018	0.125
-582.836	114.285	0.232	-0.286
-581.821	-141.044	-0.198	0.021
-580.806	67.247	0.172	0.178
-579.792	-62.805	-0.299	-0.125
-578.777	-49.919	0.135	0.065
-577.763	-29.452	0.184	0.107
-576.748	161.167	0.372	-0.528
-575.733	281.869	-0.066	0.121
-574.719	-200.000	-0.002	-0.189
-573.704	-200.000	0.018	0.100
-572.690	-15.973	0.349	0.225
-571.675	48.862	0.127	0.121
-570.661	-188.613	0.175	-0.002
-569.646	-22.099	0.048	-0.029
-568.631	76.361	-0.093	0.100
-567.617	91.269	0.299	-0.340
-566.602	-45.012	-0.207	0.105
-565.588	-200.000	0.025	-0.177
-564.573	58.879	-0.186	0.186
-563.558	332.217	-0.068	0.133
-562.544	-75.563	0.236	0.085
-561.529	274.597	-0.030	0.054
-560.515	800.000	-0.074	-0.241
-559.500	-19.197	-0.210	-0.132
-558.485	-64.381	0.032	-0.013
-557.471	-200.000	-0.021	0.332
-556.456	-21.104	0.028	-0.017
-555.442	43.684	0.220	0.204
-554.427	346.351	0.095	0.190
-553.412	-0.465	-0.638	0.459
-552.398	-200.000	-0.128	-0.585
-551.383	-200.000	0.006	-0.146
-550.369	555.375	0.143	0.348
-549.354	-107.646	-0.368	0.082
-548.339	-145.013	0.257	-0.024
-547.325	318.663	-0.061	-0.116
-546.310	81.270	-0.102	-0.112
-545.296	-200.000	0.001	-0.080
-544.281	-200.000	0.034	0.183
-543.266	-103.397	0.132	0.032
-542.252	-125.393	-0.216	0.033
-541.237	-109.556	0.053	-0.011
-540.223	25.975	-0.358	0.302
-539.208	271.177	0.111	0.199
-538.193	512.454	0.043	-0.102
-537.179	800.000	-0.010	-0.037
-536.164	-127.377	0.217	0.032
-535.150	-90.781	0.135	-0.040
-534.135	-33.237	0.163	0.091
-533.121	192.375	-0.132	-0.202
-532.106	162.945	0.081	-0.115
-531.091	-36.488	0.341	-0.186
-530.077	-107.601	0.079	0.017
-529.062	-200.000	0.004	0.058
-528.048	100.195	0.044	-0.051
-527.033	-109.361	0.299	-0.064
-526.018	-86.338	0.117	-0.036
-525.004	800.000	0.053	-0.201
-523.989	370.595	-0.089	0.183
-522.975	128.048	-0.124	0.160
-521.960	-119.933	-0.167	0.029
-520.945	209.883	0.049	0.078
-519.931	-200.000	-0.005	0.179
-518.916	-172.488	-0.179	0.006
-517.902	138.588	0.260	0.346
-516.887	-34.343	-0.190	-0.106
-515.872	509.677	-0.096	-0.227
-514.858	800.000	-0.067	0.251
-513.843	61.687	0.017	0.017
-512.829	-23.246	0.185	0.113
-511.814	270.336	0.122	-0.217
-510.799	59.404	-0.140	0.139
-509.785	-39.558	-0.154	0.082
-508.770	487.288	0.025	-0.058
-507.756	-200.000	0.027	0.179
-506.741	800.000	0.032	0.135
-505.726	-41.795	0.138	0.072
-504.712	-18.890	-0.116	0.073
-503.697	800.000	0.048	-0.181
-502.683	45.581	0.186	-0.174
-501.668	264.239	0.207	0.365
-500.653	95.691	0.035	0.040
-499.639	-58.797	-0.133	0.058
-498.624	800.000	-0.051	0.165
-497.610	-44.038	-0.366	-0.186
-496.595	-161.975	-0.179	0.009
-495.581	-59.327	0.071	-0.031
-494.566	163.203	-0.105	-0.149
-493.551	-156.565	0.227	0.014
-492.537	73.403	-0.219	-0.232
-491.522	79.739	-0.311	-0.338
-490.508	-200.000	-0.003	-0.112
-489.493	42.630	-0.180	-0.165
-488.478	-117.970	-0.261	0.047
-487.464	139.323	0.040	0.053
-486.449	-53.336	0.120	-0.056
-485.435	-200.000	-0.027	-0.326
-484.420	35.026	0.111	-0.098
-483.405	-200.000	0.005	-0.145
-482.391	800.000	-0.082	0.239
-481.376	64.965	0.159	0.163
-480.362	45.439	0.114	0.106
-479.347	130.853	-0.142	0.184
-478.332	-78.519	0.138	0.048
-477.318	121.383	-0.198	0.249
-476.303	-200.000	0.002	-0.156
-475.289	63.144	0.208	0.210
-474.274	-37.532	-0.349	-0.188
-473.259	-92.820	0.138	0.039
-472.245	-200.000	-0.005	-0.089
-471.230	-200.000	0.022	-0.112
-470.216	155.330	-0.116	0.162
-469.201	264.121	0.144	-0.252
-468.186	-1.073	0.211	-0.151
-467.172	106.866	0.329	-0.394
-466.157	85.304	-0.258	0.285
-465.143	-150.970	-0.143	0.011
-464.128	-58.799	-0.148	0.065
-463.113	-53.733	-0.186	0.086
-462.099	-200.000	0.004	-0.033
-461.084	147.831	-0.199	0.271
-460.070	143.288	0.154	0.207
-459.055	-62.663	-0.357	0.149
-458.040	800.000	0.069	0.299
-457.026	322.662	0.036	0.069
-456.011	410.606	0.095	-0.203
-454.997	16.653	-0.299	-0.239
-453.982	-200.000	0.047	-0.342
-452.968	305.211	-0.121	0.227
-451.953	800.000	0.044	-0.154
-450.938	193.341	-0.101	0.153
-449.924	-200.000	0.017	-0.326
-448.909	42.709	0.144	-0.132
-447.895	-23.518	0.307	-0.186
-446.880	7.002	0.070	-0.053
-445.865	225.870	0.158	0.258
-444.851	-82.483	-0.214	-0.070
-443.836	-82.547	-0.312	-0.102
-442.822	-200.000	0.033	0.175
-441.807	111.798	0.062	0.076
-440.792	-117.944	0.131	-0.024
-439.778	17.876	-0.123	-0.099
-438.763	347.965	0.173	-0.345
-437.749	200.506	0.111	0.173
-436.734	163.507	-0.117	0.166
-435.719	-56.459	-0.220	0.098
-434.705	124.840	0.111	-0.141
-433.690	676.796	0.098	0.256
-432.676	87.618	0.136	0.152
-431.661	-92.696	-0.178	0.050
-430.646	-200.000	-0.067	-0.508
-429.632	800.000	-0.083	-0.241
-428.617	33.092	-0.073	-0.064
-427.603	-164.463	0.212	0.010
-426.588	-108.102	-0.267	-0.058
-425.573	800.000	0.126	0.377
-424.559	-125.680	0.093	-0.014
-423.544	800.000	-0.010	0.035
-422.530	0.039	-0.051	-0.037
-421.515	-122.681	0.257	0.042
-420.500	775.710	-0.106	0.292
-419.486	-200.000	0.005	0.352
-418.471	-200.000	-0.239	-0.000
-417.457	-115.893	0.390	0.073
-416.442	320.283	-0.052	0.099
-415.428	800.000	-0.050	-0.140
-414.413	27.168	-0.040	-0.034
-413.398	800.000	-0.054	0.177
-412.384	611.364	0.052	0.130
-411.369	74.276	0.133	0.141
-410.355	258.834	-0.027	0.047
-409.340	-200.000	-0.025	-0.406
-408.325	-200.000	-0.117	-0.581
-407.311	-153.721	-0.115	0.008
-406.296	-35.587	0.201	-0.110
-405.282	800.000	0.175	-0.545
-404.267	16.679	0.259	-0.206
-403.252	-45.011	0.077	-0.038
-402.238	-200.000	0.025	-0.247
-401.223	-117.558	0.230	-0.042
-400.209	-88.594	0.058	-0.017
-399.194	-63.242	0.251	0.104
-398.179	-122.927	-0.231	0.037
-397.165	800.000	0.039	0.125
-396.150	446.257	-0.051	0.112
-395.136	123.811	-0.143	0.180
-394.121	194.278	0.123	0.188
-393.106	0.396	0.273	-0.196
-392.092	-115.038	0.229	-0.044
-391.077	800.000	-0.088	-0.336
-390.063	49.022	0.049	0.047
-389.048	62.676	0.167	0.168
-388.033	4.702	-0.094	-0.069
-387.019	797.231	-0.069	0.193
-386.004	-200.000	0.004	-0.303
-384.990	673.454	-0.031	-0.080
-383.975	29.646	0.133	0.114
-382.960	117.934	0.132	0.164
-381.946	1.604	0.111	-0.080
-380.931	-69.517	0.218	-0.084
-379.917	800.000	-0.014	-0.046
-378.902	50.731	-0.151	0.144
-377.888	25.402	-0.160	0.134
-376.873	33.908	0.091	-0.080
-375.858	714.722	-0.019	-0.050
-374.844	-200.000	0.033	-0.170
-373.829	-200.000	-0.021	-0.311
-372.815	-3.628	-0.390	-0.273
-371.800	234.975	-0.304	0.505
-370.785	-200.000	0.026	0.290
-369.771	800.000	0.058	-0.244
-368.756	-65.866	0.515	0.207
-367.742	-78.772	-0.105	-0.036
-366.727	122.903	0.164	-0.207
-365.712	800.000	0.086	-0.322
-364.698	-63.174	-0.239	0.099
-363.683	20.976	0.156	0.127
-362.669	94.869	-0.136	0.155
-361.654	-1.081	-0.092	-0.066
-360.639	257.957	0.307	0.532
-359.625	-106.093	0.121	-0.027
-358.610	23.061	-0.301	0.249
-357.596	-200.000	0.025	0.334
-356.581	76.333	-0.120	-0.128
-355.566	114.184	0.167	0.204
-354.552	-59.434	0.154	0.067
-353.537	701.121	-0.084	-0.223
-352.523	-104.646	-0.218	-0.051
-351.508	-200.000	-0.025	0.289
-350.493	-191.147	-0.267	0.003
-349.479	-200.000	-0.032	0.406
-348.464	-107.512	0.295	-0.065
-347.450	-138.363	-0.312	0.035
-346.435	443.511	-0.067	-0.148
-345.420	195.015	-0.177	0.271
-344.406	-176.787	0.397	-0.010
-343.391	-200.000	0.001	-0.053
-342.377	624.114	-0.096	-0.243
-341.362	-39.277	-0.193	0.102
-340.348	26.903	-0.073	-0.061
-339.333	-35.435	0.099	-0.054
-338.318	-64.595	0.256	0.105
-337.304	99.983	0.263	-0.306
-336.289	52.278	-0.153	0.146
-335.275	-81.706	-0.292	-0.096
-334.260	-80.018	-0.227	-0.077
-333.245	-97.405	0.194	-0.051
-332.231	478.192	-0.041	0.093
-331.216	-91.137	-0.145	-0.042
-330.202	309.279	0.069	-0.130
-329.187	298.667	0.085	-0.157
-328.172	76.728	-0.224	0.239
-327.158	-106.246	0.349	0.079
-326.143	283.266	-0.038	0.069
-325.129	144.576	0.201	-0.270
-324.114	-42.068	0.177	0.091
-323.099	-128.876	-0.226	0.032
-322.085	565.771	0.041	-0.099
-321.070	97.777	0.112	-0.129
-320.056	-200.000	-0.001	0.015
-319.041	253.944	0.088	0.151
-318.026	95.688	-0.059	0.068
-317.012	-200.000	-0.002	0.144
-315.997	50.988	-0.265	-0.252
-314.983	-85.936	0.365	0.113
-313.968	-27.129	0.204	0.119
-312.953	-98.383	-0.206	-0.053
-311.939	178.736	0.299	-0.438
-310.924	-117.709	-0.125	0.023
-309.910	12.480	0.339	-0.262
-308.895	214.951	-0.095	-0.151
-307.880	800.000	-0.040	-0.152
-306.866	-35.786	0.414	-0.225
-305.851	-79.177	-0.119	0.040
-304.837	-52.917	0.173	-0.080
-303.822	-123.513	0.186	0.030
-302.807	800.000	-0.111	0.382
-301.793	-60.272	0.467	0.200
-300.778	-200.000	0.008	0.202
-299.764	-200.000	-0.019	-0.088
-298.749	478.028	-0.124	-0.282
-297.735	19.283	0.296	-0.238
-296.720	70.988	0.092	-0.096
-295.705	-200.000	0.043	0.294
-294.691	46.080	-0.307	0.285
-293.676	-23.078	-0.283	-0.171
-292.662	-82.923	0.421	0.136
-291.647	-200.000	0.039	-0.468
-290.632	80.511	0.305	0.329
-289.618	-168.388	0.167	-0.006
-288.603	-200.000	-0.088	-0.468
-287.589	-115.024	-0.241	-0.046
-286.574	-134.602	-0.327	0.040
-285.559	800.000	-0.092	-0.343
-284.545	-198.941	-0.238	-0.001
-283.530	-11.668	-0.180	0.118
-282.516	-200.000	0.013	0.111
-281.501	-58.092	0.152	0.067
-280.486	-19.238	-0.079	-0.049
-279.472	800.000	-0.157	-0.439
-278.457	145.479	0.048	-0.065
-277.443	45.834	0.204	0.189
-276.428	-78.358	0.341	-0.117
-275.413	-167.659	0.206	-0.008
-274.399	-131.232	0.359	0.048
-273.384	-96.732	0.159	0.042
-272.370	67.344	-0.213	-0.218
-271.355	390.200	-0.154	0.321
-270.340	417.546	0.102	0.218
-269.326	-92.055	0.199	-0.056
-268.311	-200.000	0.017	0.309
-267.297	419.829	0.019	0.042
-266.282	-144.072	-0.416	0.039
-265.267	-200.000	0.045	0.266
-264.253	-55.850	0.271	0.121
-263.238	800.000	-0.085	0.255
-262.224	-63.673	0.144	-0.059
-261.209	800.000	0.038	0.143
-260.195	-200.000	0.018	0.211
-259.180	800.000	-0.011	0.038
-258.165	25.099	-0.204	0.169
-257.151	800.000	-0.078	0.249
-256.136	-79.219	-0.335	-0.114
-255.122	-200.000	0.023	0.121
-254.107	545.437	-0.094	0.224
-253.092	130.175	0.210	0.269
-252.078	-142.957	-0.138	0.013
-251.063	-32.251	0.168	-0.094
-250.049	65.960	-0.021	-0.021
-249.034	-59.153	0.163	-0.071
-248.019	-8.892	-0.178	-0.120
-247.005	800.000	0.044	0.158
-245.990	-200.000	-0.005	-0.208
-244.976	-200.000	-0.015	0.251
-243.961	-48.335	-0.276	0.133
-242.946	204.545	0.116	0.180
-241.932	71.646	0.159	0.165
-240.917	116.507	0.236	-0.289
-239.903	330.275	0.028	-0.055
-238.888	-45.709	-0.337	0.167
-237.873	800.000	-0.102	0.285
-236.859	-77.943	-0.211	-0.073
-235.844	-115.853	0.319	-0.060
-234.830	-87.585	-0.275	0.083
-233.815	35.493	0.171	0.150
-232.800	35.729	-0.203	0.179
-231.786	-200.000	0.342	0.001
-230.771	249.279	-0.188	-0.319
-229.757	213.035	0.146	0.231
-228.742	-200.000	0.023	0.282
-227.727	-34.806	-0.293	0.160
-226.713	-104.635	0.130	0.030
-225.698	-79.742	-0.149	-0.050
-224.684	-10.363	-0.338	-0.224
-223.669	110.718	0.100	-0.120
-222.655	-25.512	-0.157	-0.093
-221.640	346.300	-0.056	-0.110
-220.625	-27.477	0.296	0.172
-219.611	-129.879	-0.189	-0.026
-218.596	-108.812	-0.251	-0.054
-217.582	800.000	-0.040	-0.155
-216.567	-164.304	0.342	0.016
-215.552	2.004	-0.038	0.027
-214.538	151.490	0.113	-0.154
-213.523	315.848	0.075	-0.141
-212.509	-155.069	0.166	-0.011
-211.494	-200.000	-0.020	0.134
-210.479	-63.507	0.200	-0.082
-209.465	-97.833	-0.193	-0.050
-208.450	-58.110	-0.048	0.021
-207.436	-200.000	0.033	-0.203
-206.421	-39.322	0.069	0.036
-205.406	388.203	0.041	-0.086
-204.392	-200.000	-0.005	0.128
-203.377	-81.266	0.141	-0.047
-202.363	613.839	-0.086	-0.216
-201.348	800.000	-0.072	0.219
-200.333	-200.000	-0.015	-0.076
-199.319	-87.860	0.246	0.074
-198.304	800.000	0.046	0.147
-197.290	-19.703	0.374	0.231
-196.275	-85.952	-0.287	0.089
-195.260	-43.399	-0.194	-0.098
-194.246	-0.184	-0.473	-0.336
-193.231	705.888	-0.023	-0.059
-192.217	-71.478	-0.156	-0.058
-191.202	-91.212	-0.270	-0.077
-190.187	-200.000	-0.046	-0.235
-189.173	6.863	0.106	0.079
-188.158	99.924	0.149	-0.173
-187.144	-184.324	0.215	-0.004
-186.129	-116.885	-0.132	0.024
-185.114	267.718	0.111	0.194
-184.100	49.753	0.209	-0.197
-183.085	800.000	0.040	-0.148
-182.071	176.764	-0.101	0.146
-181.056	23.918	0.205	-0.169
-180.042	1.151	0.132	-0.095
-179.027	-12.263	-0.268	-0.175
-178.012	-73.713	-0.160	0.058
-176.998	-68.339	0.242	0.094
-175.983	800.000	-0.024	-0.079
-174.969	-142.754	-0.285	0.028
-173.954	-135.907	-0.336	-0.040
-172.939	-33.493	-0.043	0.024
-171.925	-46.292	0.161	0.079
-170.910	171.800	-0.106	0.152
-169.896	81.109	-0.204	-0.220
-168.881	-200.000	0.038	-0.295
-167.866	760.813	0.141	-0.382
-166.852	-31.526	-0.227	-0.127
-165.837	-115.593	-0.251	-0.047
-164.823	202.889	-0.155	0.240
-163.808	51.693	0.092	0.088
-162.793	696.301	0.083	-0.219
-161.779	-3.688	0.125	0.087
-160.764	800.000	0.058	0.212
-159.750	115.756	0.193	-0.236
-158.735	137.187	0.199	0.259
-157.720	-189.748	-0.408	-0.005
-156.706	753.669	-0.091	0.244
-155.691	800.000	-0.085	0.362
-154.677	-38.910	-0.212	0.111
-153.662	245.693	-0.098	0.164
-152.647	22.899	-0.061	0.050
-151.633	-110.485	0.184	-0.038
-150.618	-110.189	0.073	0.015
-149.604	-102.812	-0.395	0.094
-148.589	-0.704	-0.143	0.101
-147.574	-200.000	0.023	-0.311
-146.560	-71.377	-0.367	-0.137
-145.545	800.000	-0.120	-0.468
-144.531	-102.365	0.291	0.069
-143.516	298.571	0.086	0.157
-142.502	12.350	-0.077	0.059
-141.487	130.071	0.161	-0.205
-140.472	-85.406	-0.088	-0.027
-139.458	-59.020	-0.119	-0.051
-138.443	185.825	-0.151	-0.223
-137.429	-117.335	-0.228	0.041
-136.414	-111.396	0.219	0.044
-135.399	266.858	-0.091	-0.159
-134.385	152.124	-0.101	0.138
-133.370	-79.683	0.222	-0.075
-132.356	290.042	-0.100	0.180
-131.341	5.514	0.080	0.059
-130.326	-14.716	-0.264	-0.169
-129.312	70.370	-0.028	-0.029
-128.297	-200.000	0.030	0.391
-127.283	279.722	0.135	0.241
-126.268	-113.800	-0.336	0.065
-125.253	-32.050	0.133	0.074
-124.239	800.000	0.036	-0.104
-123.224	-119.184	0.160	-0.028
-122.210	-8.129	0.324	-0.217
-121.195	-200.000	0.027	0.257
