DTS Sentinel unit serial number:	SN413079Multiplexer serial number:	ORYXHardware model number:	OX4-SRSoftware version number:	ORYX F/W v4.00 Oryx Data Collector v3.7.2.0data status	okinstallation	princeton_trtdifferential loss correction	single-endedforward channel	channel 4reverse channel	N/Adate	2019/09/17time	01:25:34forward acquisition time	60.00reverse acquisition time	0.00gamma	496.2192k internal	0.2313k external	0.2313temperature offset calibration	0.9975default loss term (dB/km)	0.3790temperature slope calibration	1.0000multiplexer offset coefficient	1.0000multiplexer slope coefficient	1.0000fibre end	0.00T internal ref (°C)	29.50T ext. ref 1 (°C)	0.11T ext. ref 2 (°C)	24.32length (m)	temperature (°C)	Stokes	anti-Stokes-747.200	-200.000	-0.047	0.233
-746.185	-200.000	0.015	0.093
-745.171	27.862	0.212	-0.181
-744.156	0.431	-0.221	-0.160
-743.142	27.429	0.065	-0.055
-742.127	227.353	-0.245	-0.404
-741.112	800.000	-0.057	0.225
-740.098	410.810	-0.060	-0.128
-739.083	-73.853	0.075	-0.028
-738.069	-63.365	-0.195	-0.082
-737.054	-200.000	0.005	-0.102
-736.039	-95.297	-0.123	-0.034
-735.025	125.574	-0.054	-0.069
-734.010	-189.070	-0.499	0.006
-732.996	627.232	0.144	-0.370
-731.981	356.079	-0.022	-0.044
-730.966	800.000	0.017	-0.068
-729.952	436.866	-0.155	-0.342
-728.937	174.481	-0.106	-0.156
-727.923	-200.000	0.050	0.350
-726.908	5.804	0.407	0.305
-725.894	-200.000	-0.008	-0.224
-724.879	800.000	0.022	-0.073
-723.864	800.000	-0.164	-0.541
-722.850	-166.356	-0.211	0.009
-721.835	-116.650	-0.117	-0.022
-720.821	-69.082	0.198	0.077
-719.806	-145.038	0.251	-0.023
-718.791	-5.665	0.170	0.118
-717.777	-43.489	-0.291	-0.149
-716.762	82.447	-0.089	-0.098
-715.748	-62.193	0.112	0.047
-714.733	168.812	-0.073	-0.106
-713.718	-200.000	0.024	-0.156
-712.704	-45.477	-0.290	0.146
-711.689	-200.000	-0.120	-0.000
-710.675	800.000	-0.069	0.199
-709.660	373.836	0.061	-0.126
-708.645	-122.520	0.054	-0.009
-707.631	472.887	0.104	-0.238
-706.616	289.060	0.121	0.223
-705.602	-194.699	-0.132	-0.001
-704.587	-1.855	0.127	-0.090
-703.572	-44.987	-0.228	-0.115
-702.558	-54.975	0.139	0.063
-701.543	-103.673	0.385	-0.091
-700.529	116.389	0.083	-0.103
-699.514	800.000	0.058	-0.179
-698.499	800.000	-0.059	-0.182
-697.485	-79.914	-0.233	0.079
-696.470	-99.653	0.209	-0.053
-695.456	-200.000	-0.009	0.087
-694.441	800.000	0.026	0.102
-693.426	57.201	0.120	0.119
-692.412	-200.000	-0.069	-0.311
-691.397	-82.713	-0.282	-0.092
-690.383	-5.535	-0.330	0.229
-689.368	-112.728	-0.416	-0.084
-688.354	-116.861	0.083	-0.015
-687.339	-140.062	-0.318	0.034
-686.324	-200.000	-0.010	-0.067
-685.310	-172.766	0.300	0.009
-684.295	800.000	-0.077	0.234
-683.281	800.000	0.041	0.157
-682.266	3.574	0.126	0.093
-681.251	685.636	-0.120	-0.317
-680.237	-100.736	-0.381	-0.095
-679.222	-200.000	-0.009	-0.194
-678.208	-163.549	-0.469	0.022
-677.193	-95.326	-0.148	0.040
-676.178	-153.239	-0.408	0.029
-675.164	-69.524	0.072	0.028
-674.149	292.528	-0.157	0.290
-673.135	-200.000	-0.006	0.121
-672.120	-200.000	-0.058	0.406
-671.105	534.561	0.062	0.149
-670.091	65.072	0.080	0.081
-669.076	-200.000	0.030	0.238
-668.062	-175.264	-0.061	-0.002
-667.047	-25.529	-0.346	-0.207
-666.032	73.672	-0.088	-0.093
-665.018	-111.454	0.378	-0.078
-664.003	93.952	0.090	-0.103
-662.989	-127.233	0.382	0.056
-661.974	28.654	-0.110	0.094
-660.959	-105.557	-0.116	-0.027
-659.945	800.000	0.069	0.212
-658.930	-107.864	-0.287	-0.063
-657.916	410.916	0.101	-0.217
-656.901	-147.444	0.279	0.024
-655.886	-41.434	0.085	0.044
-654.872	78.320	-0.136	-0.147
-653.857	-51.003	-0.070	0.033
-652.843	-200.000	-0.004	0.282
-651.828	-13.247	-0.134	-0.088
-650.814	-200.000	-0.017	-0.124
-649.799	-200.000	-0.028	-0.253
-648.784	800.000	0.087	0.326
-647.770	-55.672	0.099	0.045
-646.755	6.747	0.050	-0.038
-645.741	-168.158	-0.262	-0.010
-644.726	-12.270	0.304	0.201
-643.711	800.000	0.068	0.221
-642.697	776.807	-0.045	-0.125
-641.682	-200.000	0.009	0.231
-640.668	133.760	-0.153	0.200
-639.653	394.540	-0.075	0.158
-638.638	-114.416	-0.143	0.028
-637.624	131.848	-0.214	0.278
-636.609	-107.761	-0.316	0.070
-635.595	-14.950	-0.207	0.134
-634.580	61.000	-0.243	-0.244
-633.565	-125.259	0.041	0.006
-632.551	102.113	0.137	-0.161
-631.536	-117.891	0.061	-0.011
-630.522	51.090	-0.225	0.216
-629.507	133.256	-0.111	0.146
-628.492	167.341	0.100	-0.143
-627.478	-85.642	0.107	-0.034
-626.463	-78.571	0.129	-0.044
-625.449	475.383	0.068	-0.155
-624.434	-200.000	0.032	0.166
-623.419	43.417	-0.266	0.245
-622.405	317.085	0.147	0.280
-621.390	-28.442	-0.328	-0.191
-620.376	-200.000	0.036	-0.200
-619.361	-78.771	0.215	0.074
-618.346	-18.786	0.094	0.059
-617.332	61.442	0.223	-0.224
-616.317	-9.178	-0.274	-0.185
-615.303	315.414	0.123	-0.234
-614.288	342.336	-0.049	0.097
-613.273	800.000	0.087	0.323
-612.259	495.162	-0.163	-0.378
-611.244	25.044	0.171	0.143
-610.230	-143.875	0.310	0.029
-609.215	-200.000	-0.002	0.092
-608.201	-200.000	0.019	0.210
-607.186	-83.723	-0.213	-0.069
-606.171	-200.000	-0.026	-0.164
-605.157	236.952	-0.167	0.278
-604.142	-21.532	0.088	-0.054
-603.128	-131.956	-0.298	0.039
-602.113	-175.405	0.171	0.005
-601.098	-155.627	0.122	-0.008
-600.084	-120.664	0.357	0.061
-599.069	-112.116	-0.303	0.061
-598.055	405.860	0.031	-0.065
-597.040	41.987	0.205	0.187
-596.025	-200.000	0.011	0.183
-595.011	-41.978	-0.252	0.130
-593.996	-200.000	0.014	0.085
-592.982	-62.159	-0.401	-0.169
-591.967	593.037	-0.068	0.170
-590.952	87.775	-0.115	-0.129
-589.938	-139.589	-0.076	-0.008
-588.923	-82.904	0.073	-0.024
-587.909	167.054	-0.153	-0.219
-586.894	113.436	0.304	0.372
-585.879	-200.000	0.069	-0.410
-584.865	225.842	-0.110	0.180
-583.850	89.537	0.080	0.090
-582.836	-171.898	-0.160	-0.005
-581.821	57.269	0.136	0.134
-580.806	800.000	0.021	-0.090
-579.792	253.087	-0.032	0.056
-578.777	-168.227	0.290	-0.011
-577.763	-101.097	-0.056	-0.014
-576.748	-200.000	0.032	-0.158
-575.733	46.808	-0.245	0.229
-574.719	-11.418	-0.224	-0.148
-573.704	-71.937	-0.397	0.149
-572.690	-65.245	-0.287	-0.116
-571.675	-58.771	0.150	0.065
-570.661	374.368	-0.148	0.303
-569.646	-136.148	-0.181	-0.021
-568.631	269.368	-0.052	0.093
-567.617	-200.000	-0.001	-0.151
-566.602	-159.581	0.059	-0.003
-565.588	196.269	0.015	-0.022
-564.573	235.118	0.219	-0.365
-563.558	396.326	0.131	0.276
-562.544	800.000	0.091	0.318
-561.529	800.000	-0.033	0.092
-560.515	104.309	0.042	-0.050
-559.500	-122.796	-0.328	0.053
-558.485	118.909	-0.124	-0.154
-557.471	10.201	0.018	-0.014
-556.456	-7.386	0.144	-0.098
-555.442	-200.000	0.019	0.278
-554.427	92.957	-0.266	-0.303
-553.412	151.125	-0.044	0.060
-552.398	267.210	0.244	0.429
-551.383	278.860	-0.063	-0.113
-550.369	-144.929	0.031	-0.003
-549.354	-98.613	-0.060	-0.015
-548.339	-41.617	-0.106	-0.055
-547.325	-196.664	0.572	0.004
-546.310	65.965	0.380	-0.388
-545.296	-200.000	0.043	-0.216
-544.281	-200.000	0.108	-0.001
-543.266	-200.000	0.004	0.146
-542.252	-200.000	0.011	-0.071
-541.237	214.381	0.153	-0.244
-540.223	-2.984	0.069	-0.049
-539.208	443.466	-0.049	0.107
-538.193	-28.879	0.138	-0.080
-537.179	146.908	-0.138	-0.186
-536.164	800.000	0.047	0.145
-535.150	82.089	0.198	-0.216
-534.135	681.220	-0.054	0.140
-533.121	-200.000	0.017	0.170
-532.106	685.089	-0.083	-0.219
-531.091	148.283	0.150	0.203
-530.077	24.008	0.104	-0.086
-529.062	-81.855	0.162	0.053
-528.048	-31.196	0.117	0.066
-527.033	-153.844	0.207	-0.014
-526.018	387.739	-0.052	-0.108
-525.004	714.326	-0.031	0.082
-523.989	-118.897	0.143	-0.025
-522.975	13.469	0.158	0.124
-521.960	-123.731	-0.295	-0.047
-520.945	-200.000	-0.060	0.495
-519.931	-200.000	0.021	0.188
-518.916	-76.813	-0.076	0.027
-517.902	-114.777	-0.160	0.031
-516.887	257.742	0.111	-0.192
-515.872	-200.000	-0.006	0.043
-514.858	-200.000	0.017	-0.134
-513.843	-121.813	0.175	0.029
-512.829	800.000	0.046	-0.160
-511.814	-20.170	0.154	-0.096
-510.799	-200.000	-0.043	0.225
-509.785	-15.785	0.045	0.029
-508.770	361.979	-0.245	-0.495
-507.756	505.750	-0.066	-0.153
-506.741	66.374	0.093	-0.095
-505.726	682.110	-0.083	-0.216
-504.712	412.640	-0.163	-0.347
-503.697	127.792	-0.036	-0.047
-502.683	-21.780	-0.157	0.096
-501.668	-83.654	-0.212	-0.068
-500.653	3.703	-0.089	-0.065
-499.639	-127.901	-0.051	0.007
-498.624	-200.000	0.005	-0.255
-497.610	11.510	-0.184	0.141
-496.595	465.593	-0.096	0.215
-495.581	-200.000	0.033	0.173
-494.566	800.000	0.091	-0.302
-493.551	340.381	0.035	-0.068
-492.537	-162.072	-0.153	-0.008
-491.522	-76.027	0.287	-0.102
-490.508	-126.320	0.062	-0.009
-489.493	407.841	-0.157	-0.334
-488.478	18.947	-0.079	-0.064
-487.464	-117.739	-0.068	-0.012
-486.449	-200.000	-0.007	0.179
-485.435	-131.705	0.246	0.032
-484.420	-57.583	0.072	0.032
-483.405	383.938	-0.121	-0.250
-482.391	348.622	-0.116	-0.230
-481.376	-84.438	-0.302	0.096
-480.362	-65.030	0.213	-0.086
-479.347	-107.703	0.065	-0.014
-478.332	415.254	0.069	0.148
-477.318	124.214	-0.179	0.225
-476.303	-200.000	0.002	-0.063
-475.289	84.772	-0.287	-0.315
-474.274	800.000	-0.140	-0.417
-473.259	-200.000	0.002	0.243
-472.245	23.528	0.145	0.120
-471.230	19.443	-0.073	0.059
-470.216	-157.107	0.327	0.020
-469.201	-64.461	0.209	0.085
-468.186	-193.429	-0.121	-0.001
-467.172	-200.000	0.033	-0.275
-466.157	435.041	-0.138	-0.302
-465.143	-39.993	-0.130	0.068
-464.128	283.593	0.036	-0.065
-463.113	-200.000	-0.003	-0.108
-462.099	54.708	-0.294	-0.284
-461.084	-35.632	0.447	-0.243
-460.070	56.172	-0.082	0.079
-459.055	7.472	-0.087	0.065
-458.040	-200.000	0.056	0.476
-457.026	156.829	0.042	-0.058
-456.011	-200.000	0.026	0.139
-454.997	-116.461	-0.146	0.027
-453.982	-43.994	0.163	0.082
-452.968	-88.823	0.246	-0.073
-451.953	74.190	-0.084	-0.088
-450.938	65.713	-0.180	0.183
-449.924	-71.109	-0.295	0.111
-448.909	115.655	0.118	0.144
-447.895	-116.546	0.449	0.083
-446.880	-106.942	0.058	-0.013
-445.865	-155.205	-0.317	0.021
-444.851	-99.024	0.105	-0.027
-443.836	406.709	-0.112	-0.238
-442.822	68.608	0.177	0.182
-441.807	800.000	-0.016	0.068
-440.792	9.514	0.152	-0.115
-439.778	568.074	0.023	-0.056
-438.763	133.665	-0.140	-0.182
-437.749	152.464	-0.190	0.261
-436.734	20.871	-0.045	0.036
-435.719	-200.000	0.015	-0.067
-434.705	192.917	0.024	0.037
-433.690	-33.192	0.276	-0.153
-432.676	-200.000	0.012	-0.078
-431.661	157.060	-0.207	-0.287
-430.646	-52.308	-0.183	-0.085
-429.632	46.690	-0.167	0.155
-428.617	-21.060	0.102	-0.063
-427.603	-200.000	-0.020	0.164
-426.588	-68.852	-0.197	-0.076
-425.573	-200.000	0.040	-0.402
-424.559	119.642	-0.116	-0.144
-423.544	-82.097	0.308	0.101
-422.530	236.745	0.161	0.266
-421.515	800.000	0.093	0.325
-420.500	-88.171	-0.277	-0.083
-419.486	-15.793	0.229	0.146
-418.471	507.601	0.104	0.241
-417.457	800.000	0.037	-0.119
-416.442	-88.926	-0.123	-0.037
-415.428	-32.478	-0.185	-0.103
-414.413	800.000	-0.069	-0.248
-413.398	-25.410	-0.256	-0.152
-412.384	67.976	0.155	-0.159
-411.369	800.000	0.068	-0.190
-410.355	-200.000	0.045	-0.313
-409.340	-199.948	0.240	-0.001
-408.325	-200.000	0.044	0.314
-407.311	-0.990	-0.231	-0.164
-406.296	-55.242	0.218	-0.098
-405.282	-170.015	-0.353	-0.013
-404.267	-185.418	0.178	-0.003
-403.252	68.169	-0.143	-0.146
-402.238	34.429	0.133	0.116
-401.223	573.725	-0.125	-0.304
-400.209	19.753	-0.241	-0.194
-399.194	-200.000	-0.082	-0.524
-398.179	9.928	0.141	-0.107
-397.165	-200.000	0.047	0.283
-396.150	41.675	0.107	-0.097
-395.136	168.241	0.070	0.099
-394.121	800.000	-0.015	-0.041
-393.106	-89.128	-0.265	-0.078
-392.092	800.000	-0.044	-0.134
-391.077	30.777	-0.159	-0.136
-390.063	12.789	-0.231	0.178
-389.048	800.000	-0.023	-0.080
-388.033	95.335	0.215	-0.246
-387.019	53.043	0.100	-0.096
-386.004	146.470	0.096	0.129
-384.990	33.083	0.203	0.176
-383.975	192.624	0.162	-0.244
-382.960	373.028	-0.124	-0.252
-381.946	-10.675	0.074	-0.049
-380.931	202.787	0.293	0.453
-379.917	60.318	0.242	0.240
-378.902	800.000	0.042	0.116
-377.888	20.214	0.137	-0.111
-376.873	158.526	-0.102	-0.142
-375.858	-45.356	0.219	0.108
-374.844	-87.561	-0.209	0.063
-373.829	217.380	0.130	-0.207
-372.815	68.496	-0.212	0.217
-371.800	354.430	0.192	-0.381
-370.785	20.672	-0.084	0.068
-369.771	-200.000	-0.013	0.266
-368.756	-200.000	-0.006	-0.234
-367.742	-94.693	-0.252	-0.068
-366.727	-200.000	-0.000	-0.003
-365.712	53.254	0.458	0.439
-364.698	181.994	0.055	0.081
-363.683	124.941	-0.324	-0.408
-362.669	-200.000	0.005	0.259
-361.654	95.500	-0.403	-0.459
-360.639	-200.000	-0.045	0.559
-359.625	-200.000	-0.031	0.168
-358.610	-42.330	0.355	-0.181
-357.596	-100.866	-0.351	0.086
-356.581	12.610	-0.133	-0.103
-355.566	-126.549	-0.033	-0.005
-354.552	376.847	-0.162	-0.330
-353.537	-200.000	-0.008	0.259
-352.523	800.000	0.058	0.250
-351.508	3.376	-0.134	0.097
-350.493	-2.685	0.201	-0.140
-349.479	-49.529	0.365	-0.173
-348.464	-132.678	-0.099	-0.013
-347.450	141.857	0.182	-0.241
-346.435	-164.320	-0.288	-0.013
-345.420	-62.668	-0.265	-0.110
-344.406	-138.105	-0.243	0.027
-343.391	800.000	0.017	0.051
-342.377	-189.611	-0.439	-0.005
-341.362	-51.679	-0.327	-0.152
-340.348	388.100	0.055	0.113
-339.333	-11.788	-0.193	0.126
-338.318	235.411	0.197	-0.326
-337.304	-200.000	0.001	0.214
-336.289	-142.035	0.374	0.037
-335.275	306.605	-0.062	0.114
-334.260	-29.024	0.114	-0.065
-333.245	800.000	0.009	0.033
-332.231	-106.450	-0.324	0.072
-331.216	-128.696	0.127	0.018
-330.202	-200.000	0.006	-0.241
-329.187	5.997	0.110	0.082
-328.172	800.000	-0.018	0.053
-327.158	649.546	0.112	-0.287
-326.143	-200.000	0.060	0.356
-325.129	-200.000	-0.017	0.076
-324.114	10.738	0.202	-0.154
-323.099	-118.042	-0.248	0.044
-322.085	-200.000	0.050	-0.281
-321.070	30.282	0.251	-0.214
-320.056	-73.789	0.357	0.130
-319.041	707.032	0.032	0.085
-318.026	-98.850	-0.363	0.092
-317.012	66.291	0.166	0.168
-315.997	-132.648	-0.234	0.030
-314.983	-11.180	-0.224	0.148
-313.968	-98.112	0.237	-0.061
-312.953	55.513	0.144	-0.139
-311.939	-13.188	0.093	-0.060
-310.924	800.000	0.005	0.014
-309.910	-200.000	-0.012	0.150
-308.895	36.884	-0.233	0.205
-307.880	-110.326	0.118	-0.024
-306.866	240.191	0.169	0.281
-305.851	-120.581	-0.120	0.020
-304.837	165.391	-0.113	0.159
-303.822	334.439	0.065	-0.126
-302.807	-200.000	0.045	0.219
-301.793	-200.000	-0.030	0.227
-300.778	800.000	-0.099	-0.326
-299.764	-35.482	-0.220	-0.119
-298.749	133.377	-0.108	-0.139
-297.735	-200.000	0.073	0.369
-296.720	9.640	-0.144	0.109
-295.705	-200.000	-0.033	0.226
-294.691	-40.528	0.333	-0.172
-293.676	-59.265	-0.255	0.109
-292.662	-200.000	-0.052	-0.311
-291.647	166.959	0.125	-0.176
-290.632	190.891	0.018	0.027
-289.618	1.836	-0.089	0.064
-288.603	800.000	0.081	-0.261
-287.589	156.001	0.215	0.296
-286.574	800.000	-0.106	-0.364
-285.559	-200.000	-0.036	-0.196
-284.545	-43.887	0.262	0.131
-283.530	-200.000	-0.070	0.393
-282.516	-200.000	0.032	0.195
-281.501	-25.087	0.038	0.022
-280.486	-79.523	0.219	0.074
-279.472	-200.000	0.059	0.290
-278.457	-125.093	0.220	-0.034
-277.443	508.447	0.141	-0.326
-276.428	85.058	-0.182	-0.199
-275.413	-131.142	-0.131	0.017
-274.399	-152.365	-0.082	0.006
-273.384	73.555	-0.038	-0.039
-272.370	-149.444	-0.190	-0.015
-271.355	-200.000	-0.069	0.381
-270.340	54.452	0.209	0.200
-269.326	38.032	-0.149	0.132
-268.311	-200.000	0.008	0.042
-267.297	35.942	-0.213	-0.186
-266.282	-89.326	-0.141	0.041
-265.267	-6.578	0.145	-0.099
-264.253	-200.000	0.029	-0.194
-263.238	-52.500	0.281	-0.129
-262.224	800.000	0.037	-0.152
-261.209	17.865	0.304	0.241
-260.195	-200.000	0.018	0.235
-259.180	-22.624	0.257	-0.155
-258.165	-64.995	-0.286	-0.115
-257.151	-16.987	-0.083	0.052
-256.136	-200.000	-0.025	-0.124
-255.122	-6.716	-0.226	-0.153
-254.107	-122.583	0.553	0.089
-253.092	-200.000	0.009	0.061
-252.078	-117.583	-0.023	-0.004
-251.063	-200.000	-0.045	-0.372
-250.049	-171.732	0.411	0.013
-249.034	-68.292	-0.197	0.076
-248.019	-105.144	-0.409	0.093
-247.005	-90.781	0.180	-0.052
-245.990	-132.456	0.180	-0.023
-244.976	79.653	-0.200	0.214
-243.961	-106.420	-0.333	0.074
-242.946	-74.517	-0.293	0.105
-241.932	108.213	0.117	-0.139
-240.917	-200.000	0.015	-0.346
-239.903	-120.680	0.060	0.010
-238.888	-148.648	0.438	-0.035
-237.873	64.960	-0.112	-0.113
-236.859	800.000	0.055	-0.215
-235.844	-186.154	0.272	0.004
-234.830	211.429	-0.029	0.045
-233.815	187.167	0.120	0.178
-232.800	6.696	-0.150	0.111
-231.786	-73.140	0.259	-0.094
-230.771	800.000	-0.046	-0.163
-229.757	-200.000	-0.041	-0.187
-228.742	-26.847	0.411	-0.239
-227.727	-19.381	-0.205	-0.127
-226.713	-122.873	0.079	0.013
-225.698	209.217	0.132	-0.205
-224.684	-141.793	-0.131	-0.013
-223.669	394.582	0.116	0.241
-222.655	-80.372	0.077	0.025
-221.640	83.617	-0.089	-0.096
-220.625	115.708	-0.157	0.190
-219.611	-132.323	0.110	-0.014
-218.596	-183.075	0.310	0.005
-217.582	662.896	-0.054	0.138
-216.567	800.000	-0.042	0.118
-215.552	-38.061	-0.203	0.107
-214.538	104.230	0.092	0.108
-213.523	800.000	-0.031	0.126
-212.509	41.310	0.065	-0.059
-211.494	220.396	-0.091	0.145
-210.479	216.727	-0.111	0.176
-209.465	-31.907	-0.390	0.217
-208.450	-19.079	0.234	-0.144
-207.436	242.673	0.056	-0.093
-206.421	135.955	0.035	-0.046
-205.406	800.000	0.047	0.173
-204.392	23.480	0.265	0.217
-203.377	77.866	-0.094	-0.100
-202.363	800.000	0.062	-0.225
-201.348	107.785	0.304	0.360
-200.333	170.449	0.260	-0.369
-199.319	-74.756	-0.035	0.013
-198.304	32.196	0.156	0.134
-197.290	147.704	0.182	0.243
-196.275	-53.676	-0.276	0.125
-195.260	-200.000	0.029	0.389
-194.246	145.731	0.153	0.203
-193.231	199.841	-0.257	0.392
-192.217	-11.304	-0.060	0.039
-191.202	28.049	0.122	-0.102
-190.187	-67.961	0.299	-0.116
-189.173	-200.000	-0.027	-0.320
-188.158	-28.136	-0.119	0.068
-187.144	-200.000	-0.009	0.084
-186.129	0.082	0.275	0.194
-185.114	-200.000	0.004	-0.361
-184.100	234.334	0.027	-0.044
-183.085	208.781	-0.183	0.285
-182.071	-182.194	-0.128	-0.002
-181.056	71.437	0.106	-0.109
-180.042	-57.149	-0.160	-0.070
-179.027	-95.438	-0.150	-0.040
-178.012	-141.307	-0.416	-0.042
-176.998	438.230	-0.192	0.415
-175.983	-200.000	-0.026	0.200
-174.969	181.256	-0.132	-0.192
-173.954	-146.338	-0.243	-0.021
-172.939	-93.443	-0.288	0.079
-171.925	-6.186	0.009	0.006
-170.910	-200.000	0.028	0.215
-169.896	-200.000	0.063	-0.459
-168.881	-18.955	-0.299	-0.185
-167.866	-149.629	-0.172	0.013
-166.852	-89.081	0.236	-0.069
-165.837	-146.552	0.196	-0.017
-164.823	800.000	0.017	0.051
-163.808	8.266	0.024	-0.018
-162.793	-59.733	0.357	-0.152
-161.779	85.300	-0.307	0.334
-160.764	389.129	0.113	0.232
-159.750	-200.000	-0.014	0.313
-158.735	-59.850	0.214	0.091
-157.720	-66.880	0.150	-0.059
-156.706	-137.018	0.103	0.012
-155.691	-82.324	0.094	-0.030
-154.677	19.919	0.036	0.028
-153.662	-31.953	0.302	-0.168
-152.647	-2.330	-0.043	0.030
-151.633	-200.000	0.025	0.147
-150.618	45.565	0.093	0.085
-149.604	-25.915	-0.182	-0.106
-148.589	130.069	0.091	-0.116
-147.574	-200.000	-0.040	-0.313
-146.560	-132.795	0.383	0.048
-145.545	62.215	0.128	-0.127
-144.531	-77.170	-0.182	0.063
-143.516	242.939	0.181	-0.300
-142.502	800.000	-0.121	-0.406
-141.487	2.496	-0.134	-0.096
-140.472	800.000	-0.080	0.299
-139.458	-177.752	-0.254	0.006
-138.443	-90.127	0.268	0.077
-137.429	106.721	-0.276	0.324
-136.414	260.411	0.067	0.114
-135.399	-133.315	0.252	-0.031
-134.385	-200.000	-0.006	0.181
-133.370	-136.601	0.147	0.017
-132.356	-157.579	-0.294	-0.017
-131.341	-58.707	0.241	-0.103
-130.326	-91.204	-0.447	0.127
-129.312	61.897	0.222	0.219
-128.297	800.000	-0.050	0.144
-127.283	241.850	0.167	-0.276
-126.268	-18.596	0.108	-0.067
-125.253	147.252	0.013	-0.018
-124.239	-96.349	-0.213	-0.056
-123.224	-33.213	0.213	0.117
-122.210	185.496	-0.051	0.074
-121.195	-101.813	0.187	-0.045
