DTS Sentinel unit serial number:	SN413079Multiplexer serial number:	ORYXHardware model number:	OX4-SRSoftware version number:	ORYX F/W v4.00 Oryx Data Collector v3.7.2.0data status	okinstallation	princeton_trtdifferential loss correction	single-endedforward channel	channel 4reverse channel	N/Adate	2019/09/16time	18:25:35forward acquisition time	60.00reverse acquisition time	0.00gamma	496.2192k internal	0.2302k external	0.2302temperature offset calibration	0.9946default loss term (dB/km)	0.3790temperature slope calibration	1.0000multiplexer offset coefficient	1.0000multiplexer slope coefficient	1.0000fibre end	0.00T internal ref (°C)	36.80T ext. ref 1 (°C)	15.80T ext. ref 2 (°C)	30.29length (m)	temperature (°C)	Stokes	anti-Stokes-747.200	-65.028	-0.183	-0.075
-746.185	-200.000	-0.019	0.189
-745.171	-115.941	-0.345	0.066
-744.156	46.541	-0.159	-0.151
-743.142	-123.052	-0.281	-0.046
-742.127	-200.000	0.008	0.065
-741.112	-124.026	-0.163	-0.026
-740.098	693.982	0.123	0.329
-739.083	47.662	-0.180	0.172
-738.069	800.000	0.042	0.138
-737.054	-25.481	0.043	0.026
-736.039	800.000	-0.019	-0.063
-735.025	-200.000	0.062	-0.388
-734.010	79.422	0.193	0.211
-732.996	-200.000	-0.023	-0.142
-731.981	101.145	-0.105	-0.125
-730.966	-91.636	-0.259	-0.075
-729.952	-200.000	-0.033	-0.311
-728.937	-200.000	0.017	-0.329
-727.923	166.078	-0.370	-0.534
-726.908	-121.574	-0.144	-0.024
-725.894	-200.000	-0.009	-0.199
-724.879	-171.962	-0.247	0.008
-723.864	-4.854	0.250	-0.176
-722.850	6.310	-0.373	-0.282
-721.835	-136.049	-0.288	0.034
-720.821	86.866	-0.145	-0.163
-719.806	-200.000	-0.035	-0.292
-718.791	-178.099	-0.345	0.008
-717.777	57.994	0.294	-0.294
-716.762	-112.396	0.179	-0.036
-715.748	-27.092	0.308	-0.183
-714.733	347.447	-0.109	-0.218
-713.718	-6.930	0.346	-0.239
-712.704	-63.447	-0.215	0.090
-711.689	-200.000	0.030	-0.331
-710.675	-119.862	-0.100	0.018
-709.660	800.000	0.053	0.165
-708.645	204.142	-0.129	0.204
-707.631	-72.567	0.174	-0.065
-706.616	-200.000	0.020	0.369
-705.602	77.239	0.215	-0.233
-704.587	-143.448	0.093	-0.009
-703.572	-200.000	0.013	0.184
-702.558	800.000	0.087	0.255
-701.543	303.791	-0.087	-0.165
-700.529	-51.084	-0.575	-0.274
-699.514	800.000	0.061	-0.190
-698.499	800.000	-0.026	0.082
-697.485	15.122	0.163	-0.130
-696.470	323.909	0.025	-0.048
-695.456	-50.189	0.201	0.097
-694.441	11.907	0.251	-0.196
-693.426	-110.090	-0.391	-0.083
-692.412	19.217	0.244	0.199
-691.397	-31.926	-0.143	-0.082
-690.383	66.224	-0.177	0.183
-689.368	-48.316	0.301	0.148
-688.354	-163.545	-0.289	-0.014
-687.339	-61.260	-0.197	-0.084
-686.324	-200.000	-0.005	-0.133
-685.310	800.000	-0.009	0.040
-684.295	228.674	-0.129	0.214
-683.281	76.672	0.054	-0.058
-682.266	439.373	-0.048	0.107
-681.251	-111.680	-0.101	0.021
-680.237	-96.232	-0.031	-0.008
-679.222	-64.467	0.262	0.108
-678.208	-200.000	-0.027	-0.243
-677.193	-200.000	0.024	0.244
-676.178	695.702	-0.151	-0.403
-675.164	-103.989	-0.265	0.063
-674.149	202.380	0.139	-0.218
-673.135	-200.000	0.001	0.206
-672.120	-200.000	0.025	-0.157
-671.105	-200.000	0.030	-0.178
-670.091	-200.000	-0.021	-0.166
-669.076	-200.000	-0.016	0.096
-668.062	44.767	0.181	0.169
-667.047	147.830	-0.105	-0.144
-666.032	800.000	-0.129	-0.487
-665.018	800.000	0.069	0.221
-664.003	800.000	0.050	0.149
-662.989	800.000	0.022	-0.084
-661.974	800.000	0.076	0.234
-660.959	-42.765	-0.165	-0.085
-659.945	313.839	-0.104	0.198
-658.930	-72.749	0.198	0.074
-657.916	-82.366	-0.189	0.063
-656.901	60.648	-0.172	0.173
-655.886	-111.803	0.102	-0.021
-654.872	-187.684	-0.223	-0.003
-653.857	15.516	0.117	-0.093
-652.843	669.497	0.096	-0.252
-651.828	-200.000	-0.004	0.075
-650.814	390.245	0.039	0.083
-649.799	-48.751	0.059	-0.029
-648.784	313.150	-0.110	-0.210
-647.770	-88.743	-0.408	-0.123
-646.755	800.000	-0.104	-0.321
-645.741	16.826	-0.099	0.079
-644.726	-74.217	0.119	0.044
-643.711	800.000	-0.085	0.252
-642.697	-112.764	-0.206	-0.042
-641.682	-90.366	-0.417	0.123
-640.668	26.560	-0.153	0.130
-639.653	-178.507	-0.272	0.006
-638.638	37.647	-0.315	-0.283
-637.624	172.812	-0.068	0.099
-636.609	34.949	-0.278	0.247
-635.595	685.663	0.060	0.160
-634.580	800.000	-0.006	-0.020
-633.565	775.813	0.102	-0.282
-632.551	-75.676	0.217	0.078
-631.536	154.526	0.111	-0.154
-630.522	-200.000	-0.052	-0.232
-629.507	-59.552	-0.190	-0.083
-628.492	-200.000	0.003	-0.120
-627.478	-113.033	-0.102	-0.020
-626.463	513.864	0.159	-0.376
-625.449	-200.000	-0.011	0.159
-624.434	-200.000	-0.024	0.241
-623.419	32.704	0.175	-0.154
-622.405	133.735	0.097	-0.127
-621.390	-117.948	-0.166	-0.030
-620.376	41.311	-0.092	-0.084
-619.361	57.306	-0.162	0.161
-618.346	-4.333	0.137	-0.096
-617.332	140.411	-0.049	-0.066
-616.317	119.591	0.158	-0.198
-615.303	-166.287	0.381	-0.016
-614.288	0.861	-0.195	-0.141
-613.273	800.000	-0.093	0.338
-612.259	-198.925	-0.184	0.001
-611.244	-200.000	0.020	0.281
-610.230	18.637	-0.182	-0.148
-609.215	-200.000	-0.022	-0.296
-608.201	-19.986	-0.132	-0.083
-607.186	800.000	-0.052	-0.154
-606.171	-132.981	-0.214	-0.028
-605.157	-30.794	-0.205	-0.118
-604.142	800.000	0.076	-0.303
-603.128	-148.866	0.185	0.015
-602.113	260.586	-0.113	-0.197
-601.098	800.000	-0.055	-0.226
-600.084	-7.827	0.160	0.110
-599.069	-50.413	-0.331	-0.159
-598.055	800.000	0.025	-0.071
-597.040	-101.787	-0.166	0.041
-596.025	-15.024	-0.093	-0.060
-595.011	-3.496	0.076	0.053
-593.996	-106.677	0.268	0.060
-592.982	-81.220	-0.536	0.179
-591.967	-108.609	0.424	0.092
-590.952	386.357	0.096	0.201
-589.938	191.417	0.179	-0.272
-588.923	93.521	0.146	-0.167
-587.909	-33.425	0.153	-0.086
-586.894	800.000	0.047	0.155
-585.879	-67.027	-0.122	0.049
-584.865	46.888	-0.041	-0.039
-583.850	-200.000	-0.023	0.186
-582.836	376.976	0.086	0.177
-581.821	-38.509	-0.089	-0.048
-580.806	-200.000	-0.003	-0.039
-579.792	-153.406	-0.040	0.003
-578.777	131.373	-0.036	0.047
-577.763	-49.363	0.196	0.095
-576.748	800.000	0.054	0.165
-575.733	800.000	0.091	0.268
-574.719	112.586	-0.106	-0.130
-573.704	593.354	0.105	0.264
-572.690	-93.368	-0.092	0.026
-571.675	-200.000	0.017	0.000
-570.661	-69.661	-0.074	0.028
-569.646	-32.548	0.075	0.042
-568.631	-200.000	0.001	-0.069
-567.617	273.592	-0.142	-0.254
-566.602	463.713	0.065	0.147
-565.588	-105.223	-0.193	-0.044
-564.573	-200.000	-0.006	-0.090
-563.558	-200.000	0.043	0.291
-562.544	237.829	-0.241	0.405
-561.529	-167.619	-0.177	-0.007
-560.515	74.623	0.092	-0.098
-559.500	72.946	-0.061	0.064
-558.485	-94.244	0.119	-0.033
-557.471	-106.744	-0.158	-0.036
-556.456	574.366	-0.089	-0.218
-555.442	-86.373	-0.089	-0.028
-554.427	-0.999	0.078	0.056
-553.412	-119.395	0.174	-0.031
-552.398	6.796	-0.185	0.139
-551.383	800.000	0.036	0.124
-550.369	-30.792	0.256	-0.146
-549.354	-101.957	-0.222	0.054
-548.339	110.832	0.015	-0.018
-547.325	252.422	-0.147	-0.253
-546.310	-108.728	-0.077	-0.017
-545.296	50.775	0.131	0.126
-544.281	219.549	-0.065	0.105
-543.266	250.816	-0.017	-0.029
-542.252	78.136	0.375	-0.404
-541.237	-99.384	-0.093	0.024
-540.223	-200.000	-0.000	0.212
-539.208	7.272	0.407	0.307
-538.193	-10.176	-0.190	-0.127
-537.179	436.686	-0.049	0.108
-536.164	554.489	-0.149	-0.362
-535.150	-157.265	-0.112	-0.007
-534.135	-100.946	0.065	-0.016
-533.121	100.109	-0.168	0.196
-532.106	-200.000	0.006	-0.170
-531.091	145.888	0.209	-0.283
-530.077	102.954	-0.124	0.147
-529.062	233.436	-0.097	0.161
-528.048	-132.201	-0.221	-0.029
-527.033	14.733	0.168	-0.133
-526.018	-165.946	-0.038	0.002
-525.004	-200.000	-0.035	-0.157
-523.989	-15.789	-0.131	-0.084
-522.975	-161.165	0.078	0.004
-521.960	43.598	-0.092	-0.085
-520.945	-35.368	0.206	-0.113
-519.931	800.000	-0.168	-0.554
-518.916	55.624	-0.278	-0.272
-517.902	-176.523	0.200	0.005
-516.887	-200.000	0.035	-0.182
-515.872	113.324	0.064	-0.079
-514.858	217.150	-0.176	-0.283
-513.843	-65.588	0.312	0.127
-512.829	-25.992	-0.145	-0.086
-511.814	800.000	0.068	-0.229
-510.799	144.155	-0.048	0.065
-509.785	-200.000	-0.006	-0.197
-508.770	-200.000	0.009	0.064
-507.756	-65.772	0.208	0.084
-506.741	333.006	0.127	-0.247
-505.726	17.048	0.054	-0.043
-504.712	-39.552	0.170	-0.090
-503.697	-63.610	-0.304	-0.126
-502.683	-200.000	-0.076	0.456
-501.668	120.973	-0.188	0.236
-500.653	-48.137	-0.162	-0.079
-499.639	800.000	0.033	-0.110
-498.624	273.628	0.094	0.167
-497.610	-200.000	0.007	-0.152
-496.595	54.879	0.180	-0.176
-495.581	21.461	-0.204	-0.168
-494.566	169.250	-0.206	0.297
-493.551	185.246	-0.080	0.119
-492.537	465.475	0.059	0.133
-491.522	127.010	0.191	0.244
-490.508	-102.866	0.596	0.143
-489.493	127.563	0.030	0.038
-488.478	162.002	0.036	-0.051
-487.464	175.615	0.151	0.221
-486.449	11.093	-0.178	0.137
-485.435	521.979	-0.007	0.017
-484.420	-44.281	0.097	0.049
-483.405	-30.621	0.243	-0.139
-482.391	183.138	-0.082	-0.122
-481.376	-17.240	0.244	-0.155
-480.362	-137.528	-0.093	-0.011
-479.347	-58.779	0.289	-0.126
-478.332	164.591	0.386	-0.549
-477.318	-20.787	-0.162	-0.100
-476.303	-95.474	-0.183	-0.050
-475.289	33.123	0.209	-0.182
-474.274	5.761	0.183	-0.136
-473.259	10.305	0.131	-0.101
-472.245	165.815	-0.069	-0.098
-471.230	-1.983	0.257	-0.182
-470.216	113.961	-0.127	-0.156
-469.201	-183.257	0.100	-0.002
-468.186	-159.988	-0.334	0.018
-467.172	-200.000	-0.034	0.278
-466.157	266.961	0.072	0.128
-465.143	-70.168	-0.118	0.045
-464.128	-200.000	-0.020	0.220
-463.113	-84.881	0.304	0.096
-462.099	14.075	-0.141	-0.111
-461.084	-200.000	-0.035	0.368
-460.070	-99.152	-0.247	0.063
-459.055	-37.175	-0.277	-0.150
-458.040	-200.000	-0.048	0.530
-457.026	800.000	0.011	0.040
-456.011	428.712	0.067	-0.146
-454.997	294.765	-0.080	0.148
-453.982	800.000	-0.048	0.181
-452.968	800.000	-0.112	0.403
-451.953	483.185	0.034	0.078
-450.938	-200.000	0.014	-0.081
-449.924	412.475	0.153	0.327
-448.909	-43.218	-0.081	0.042
-447.895	-159.341	-0.161	-0.009
-446.880	33.888	-0.247	-0.217
-445.865	186.435	0.204	-0.307
-444.851	-39.337	-0.251	-0.133
-443.836	445.611	0.109	0.241
-442.822	76.769	-0.084	-0.089
-441.807	-65.351	-0.255	0.103
-440.792	-164.652	0.218	0.010
-439.778	-48.447	-0.276	-0.134
-438.763	-200.000	-0.004	-0.224
-437.749	800.000	-0.094	-0.411
-436.734	-140.857	-0.101	-0.011
-435.719	31.554	-0.101	-0.087
-434.705	274.109	-0.077	-0.137
-433.690	-200.000	0.005	-0.123
-432.676	-200.000	0.026	-0.377
-431.661	16.784	0.186	-0.148
-430.646	58.694	0.263	-0.260
-429.632	-200.000	0.034	-0.190
-428.617	-28.821	0.240	0.139
-427.603	-58.218	0.417	0.183
-426.588	615.711	-0.054	-0.135
-425.573	0.615	0.114	0.082
-424.559	-89.009	0.175	0.052
-423.544	-173.941	0.125	-0.004
-422.530	-168.944	0.350	-0.013
-421.515	53.214	0.281	-0.271
-420.500	41.867	0.063	-0.057
-419.486	247.017	-0.135	-0.229
-418.471	-45.183	0.300	-0.150
-417.457	-115.236	-0.219	0.042
-416.442	137.226	0.260	0.342
-415.428	-129.358	0.161	0.023
-414.413	-200.000	-0.003	0.102
-413.398	132.091	-0.213	-0.275
-412.384	-26.145	-0.058	0.034
-411.369	-90.201	-0.257	0.075
-410.355	-5.657	-0.196	-0.135
-409.340	-200.000	0.029	0.130
-408.325	-2.153	-0.144	-0.102
-407.311	-50.184	0.320	0.152
-406.296	-135.978	0.287	-0.034
-405.282	800.000	0.025	-0.079
-404.267	-200.000	0.006	0.111
-403.252	598.797	0.137	-0.342
-402.238	36.517	-0.192	0.171
-401.223	800.000	0.076	-0.252
-400.209	-109.415	0.288	-0.061
-399.194	-108.305	-0.206	-0.045
-398.179	272.763	0.039	0.070
-397.165	91.519	0.369	-0.416
-396.150	12.375	0.158	0.123
-395.136	-90.574	0.192	-0.056
-394.121	-200.000	0.061	0.392
-393.106	-72.570	0.167	0.062
-392.092	-200.000	-0.008	0.034
-391.077	800.000	0.066	-0.242
-390.063	-200.000	-0.022	0.323
-389.048	800.000	0.053	-0.231
-388.033	-200.000	-0.049	-0.244
-387.019	-103.747	-0.050	0.012
-386.004	179.016	0.031	-0.045
-384.990	111.506	0.215	0.261
-383.975	-16.211	0.347	-0.222
-382.960	-128.262	-0.170	0.024
-381.946	94.465	0.200	-0.229
-380.931	340.528	0.091	-0.178
-379.917	-31.604	0.050	-0.028
-378.902	23.943	0.084	-0.070
-377.888	-42.026	-0.346	-0.178
-376.873	-200.000	-0.261	0.001
-375.858	104.237	-0.162	0.192
-374.844	254.131	0.102	0.175
-373.829	103.731	-0.130	0.154
-372.815	-131.494	-0.137	0.018
-371.800	387.584	0.088	-0.182
-370.785	-78.643	-0.011	0.004
-369.771	800.000	0.126	0.369
-368.756	-200.000	0.026	0.259
-367.742	-200.000	0.009	-0.079
-366.727	-200.000	0.040	0.374
-365.712	-50.797	0.195	-0.092
-364.698	319.464	0.121	-0.230
-363.683	-48.319	-0.028	0.014
-362.669	43.323	-0.226	-0.207
-361.654	302.708	0.218	-0.406
-360.639	-113.580	0.197	0.039
-359.625	800.000	-0.035	-0.099
-358.610	14.445	0.245	-0.192
-357.596	83.021	0.289	0.315
-356.581	-15.752	0.217	0.139
-355.566	-53.329	0.515	-0.237
-354.552	800.000	-0.058	0.165
-353.537	-2.448	-0.121	0.085
-352.523	-200.000	0.010	0.202
-351.508	-123.352	-0.131	-0.021
-350.493	-190.226	0.454	0.005
-349.479	166.725	-0.150	-0.213
-348.464	-56.853	-0.188	0.083
-347.450	-149.679	0.148	-0.012
-346.435	1.037	-0.193	0.139
-345.420	208.512	-0.103	0.161
-344.406	412.882	0.120	0.255
-343.391	-88.558	-0.121	0.036
-342.377	296.149	-0.246	-0.452
-341.362	31.641	0.243	0.210
-340.348	126.662	0.105	0.134
-339.333	407.135	-0.100	0.213
-338.318	31.875	-0.326	0.282
-337.304	-200.000	-0.013	-0.078
-336.289	-114.066	-0.118	-0.023
-335.275	-24.940	0.112	0.066
-334.260	-3.021	0.296	-0.207
-333.245	-172.410	-0.292	-0.009
-332.231	268.003	0.136	0.239
-331.216	-101.009	-0.174	0.043
-330.202	800.000	0.040	-0.159
-329.187	83.774	0.215	0.235
-328.172	-200.000	0.010	0.136
-327.158	687.924	-0.010	0.026
-326.143	-200.000	-0.027	-0.251
-325.129	-60.258	-0.477	0.204
-324.114	-81.574	-0.156	-0.051
-323.099	800.000	0.145	0.406
-322.085	800.000	-0.023	0.086
-321.070	-136.267	0.252	-0.029
-320.056	-128.758	-0.378	-0.053
-319.041	-99.142	-0.212	-0.054
-318.026	459.676	0.097	0.217
-317.012	67.035	-0.189	0.193
-315.997	-142.472	0.084	0.008
-314.983	-91.940	-0.291	0.083
-313.968	-129.718	-0.206	-0.028
-312.953	-200.000	-0.019	0.134
-311.939	385.107	0.103	0.214
-310.924	-200.000	-0.004	-0.102
-309.910	800.000	0.070	-0.215
-308.895	-11.515	0.261	0.172
-307.880	-200.000	-0.050	-0.348
-306.866	-12.115	-0.259	-0.170
-305.851	-200.000	-0.035	0.217
-304.837	800.000	0.095	-0.335
-303.822	608.366	0.134	0.334
-302.807	69.286	-0.185	0.190
-301.793	-161.082	0.184	-0.010
-300.778	-66.479	0.107	0.043
-299.764	289.576	-0.122	0.222
-298.749	-130.233	0.181	0.025
-297.735	-98.376	0.125	0.032
-296.720	-24.862	-0.077	-0.046
-295.705	593.742	-0.139	-0.345
-294.691	502.488	0.056	-0.130
-293.676	66.773	0.090	-0.092
-292.662	-92.356	-0.224	-0.063
-291.647	-80.431	0.075	0.025
-290.632	-21.001	-0.552	-0.338
-289.618	662.042	0.029	-0.076
-288.603	-133.146	-0.394	0.050
-287.589	-15.013	-0.190	-0.122
-286.574	-73.641	-0.190	-0.069
-285.559	-37.878	-0.110	-0.058
-284.545	-181.753	0.069	-0.001
-283.530	109.299	-0.127	0.153
-282.516	59.797	0.120	0.118
-281.501	-21.813	-0.093	-0.057
-280.486	-49.106	0.230	-0.110
-279.472	-7.484	0.185	0.126
-278.457	-26.636	-0.264	-0.155
-277.443	8.885	0.329	0.248
-276.428	-172.289	0.176	-0.006
-275.413	42.436	-0.202	0.184
-274.399	-50.631	0.313	0.147
-273.384	-35.974	0.300	-0.162
-272.370	-69.098	0.209	-0.080
-271.355	-64.606	-0.158	-0.064
-270.340	97.471	-0.107	-0.123
-269.326	-200.000	0.012	0.156
-268.311	138.994	-0.015	0.019
-267.297	-200.000	-0.014	-0.221
-266.282	80.578	-0.133	-0.143
-265.267	800.000	0.039	0.108
-264.253	42.430	-0.236	0.215
-263.238	-69.742	0.049	0.019
-262.224	-200.000	-0.114	0.589
-261.209	-54.088	-0.152	-0.069
-260.195	640.267	0.088	-0.225
-259.180	-200.000	-0.006	0.284
-258.165	57.277	-0.137	-0.133
-257.151	57.102	0.193	0.189
-256.136	-88.974	0.165	-0.049
-255.122	-75.886	0.276	-0.098
-254.107	287.454	-0.110	-0.198
-253.092	278.304	-0.153	0.273
-252.078	2.382	-0.053	0.038
-251.063	299.968	-0.105	0.193
-250.049	-200.000	-0.010	-0.208
-249.034	-200.000	-0.026	-0.239
-248.019	-13.017	-0.295	0.192
-247.005	-27.186	0.047	0.027
-245.990	-200.000	-0.003	0.068
-244.976	-41.914	-0.227	0.116
-243.961	7.945	0.045	-0.034
-242.946	0.086	0.154	0.110
-241.932	203.125	-0.095	-0.147
-240.917	-200.000	-0.045	-0.241
-239.903	-32.377	-0.422	0.235
-238.888	-5.817	0.079	0.054
-237.873	50.698	0.090	-0.085
-236.859	399.619	0.081	0.169
-235.844	-170.788	-0.203	-0.007
-234.830	-45.241	0.293	-0.146
-233.815	398.878	0.158	0.330
-232.800	39.440	-0.180	0.161
-231.786	70.724	0.133	0.137
-230.771	305.308	0.120	0.224
-229.757	607.286	0.040	0.100
-228.742	327.486	0.086	0.165
-227.727	800.000	0.154	-0.426
-226.713	800.000	0.116	-0.433
-225.698	80.260	0.125	-0.135
-224.684	-115.998	-0.328	0.061
-223.669	277.700	0.062	0.110
-222.655	-96.451	0.131	-0.035
-221.640	-131.969	-0.091	0.012
-220.625	-134.950	-0.177	0.021
-219.611	128.183	0.050	-0.063
-218.596	-52.131	0.304	0.141
-217.582	100.307	-0.237	-0.274
-216.567	-37.513	-0.069	0.037
-215.552	-97.128	0.151	0.039
-214.538	-106.699	-0.104	-0.023
-213.523	-84.494	-0.212	0.067
-212.509	-200.000	-0.036	0.336
-211.494	85.548	-0.124	-0.136
-210.479	351.081	-0.261	0.515
-209.465	-200.000	0.063	0.286
-208.450	-163.436	0.234	0.011
-207.436	429.743	-0.091	0.197
-206.421	87.717	-0.165	-0.183
-205.406	-94.312	0.194	0.053
-204.392	-66.313	-0.221	0.088
-203.377	-3.550	0.203	-0.141
-202.363	-200.000	0.036	0.180
-201.348	9.343	-0.137	-0.103
-200.333	-20.353	0.126	0.077
-199.319	244.999	-0.031	-0.053
-198.304	43.397	-0.126	-0.115
-197.290	150.071	-0.223	0.302
-196.275	473.083	-0.199	0.446
-195.260	-200.000	-0.014	-0.069
-194.246	128.907	-0.163	0.208
-193.231	307.841	-0.086	0.160
-192.217	-130.786	-0.097	0.013
-191.202	-149.211	0.281	-0.022
-190.187	-200.000	-0.014	-0.300
-189.173	88.782	-0.103	-0.114
-188.158	-98.558	0.259	-0.066
-187.144	194.934	-0.097	0.147
-186.129	-85.440	0.207	0.064
-185.114	800.000	0.024	0.069
-184.100	-200.000	-0.073	0.328
-183.085	96.826	0.147	0.168
-182.071	-107.627	0.015	0.003
-181.056	-35.499	0.451	0.244
-180.042	-193.881	-0.389	0.003
-179.027	-200.000	0.029	0.337
-178.012	206.730	0.071	0.110
-176.998	-89.479	0.235	0.069
-175.983	-200.000	0.015	0.284
-174.969	-157.358	0.261	-0.016
-173.954	659.944	-0.120	-0.309
-172.939	-143.835	0.183	-0.017
-171.925	-111.460	-0.101	0.021
-170.910	356.710	-0.151	-0.301
-169.896	-200.000	0.019	0.299
-168.881	590.776	0.084	-0.206
-167.866	800.000	-0.041	-0.129
-166.852	800.000	0.019	0.057
-165.837	-200.000	-0.000	0.086
-164.823	-153.751	0.286	0.020
-163.808	-7.150	0.232	0.157
-162.793	-186.920	-0.054	0.001
-161.779	-48.283	0.065	-0.031
-160.764	-33.754	0.217	-0.119
-159.750	433.392	-0.091	-0.196
-158.735	111.936	0.182	0.219
-157.720	93.913	0.044	0.050
-156.706	75.822	-0.168	0.177
-155.691	-12.168	-0.167	0.109
-154.677	-171.508	-0.049	-0.002
-153.662	73.884	-0.175	0.183
-152.647	-120.983	0.215	-0.036
-151.633	-200.000	0.000	-0.505
-150.618	-65.799	0.297	-0.118
-149.604	276.502	0.076	-0.134
-148.589	-90.719	-0.337	0.097
-147.574	-200.000	-0.082	-0.368
-146.560	-101.615	0.132	0.032
-145.545	-200.000	-0.001	-0.080
-144.531	39.242	0.293	-0.261
-143.516	-8.518	-0.155	0.104
-142.502	-21.330	0.308	-0.188
-141.487	-44.102	-0.086	-0.043
-140.472	226.051	-0.192	0.309
-139.458	-16.451	0.243	0.153
-138.443	150.043	-0.118	0.159
-137.429	159.024	-0.066	-0.091
-136.414	5.080	-0.097	0.071
-135.399	41.271	0.054	-0.048
-134.385	59.965	-0.046	-0.045
-133.370	1.252	0.419	-0.300
-132.356	256.369	0.088	0.150
-131.341	-200.000	-0.003	-0.384
-130.326	97.117	-0.211	-0.240
-129.312	-200.000	0.001	0.078
-128.297	-49.731	0.155	0.073
-127.283	-45.176	-0.273	0.135
-126.268	3.813	0.313	0.227
-125.253	-24.774	-0.291	0.172
-124.239	-200.000	0.021	0.260
-123.224	539.680	-0.106	0.251
-122.210	272.702	0.138	0.243
-121.195	170.722	-0.140	0.199
