DTS Sentinel unit serial number:	SN413079Multiplexer serial number:	ORYXHardware model number:	OX4-SRSoftware version number:	ORYX F/W v4.00 Oryx Data Collector v3.7.2.0data status	okinstallation	princeton_trtdifferential loss correction	single-endedforward channel	channel 4reverse channel	N/Adate	2019/09/12time	18:36:19forward acquisition time	15.00reverse acquisition time	0.00gamma	496.2192k internal	0.2306k external	0.2306temperature offset calibration	1.0141default loss term (dB/km)	0.3790temperature slope calibration	1.0000multiplexer offset coefficient	1.0000multiplexer slope coefficient	1.0000fibre end	0.00T internal ref (°C)	33.12T ext. ref 1 (°C)	3.00T ext. ref 2 (°C)	27.74length (m)	temperature (°C)	Stokes	anti-Stokes-747.200	-51.433	-0.484	0.230
-746.185	124.795	0.595	-0.762
-745.171	-61.190	0.610	-0.262
-744.156	11.225	-0.997	-0.776
-743.142	471.744	0.379	-0.869
-742.127	59.262	0.142	0.143
-741.112	134.553	-0.429	0.567
-740.098	-200.000	-0.120	0.673
-739.083	446.371	0.347	0.775
-738.069	-79.330	0.526	-0.181
-737.054	127.146	0.660	0.851
-736.039	-155.545	-1.042	-0.068
-735.025	-29.372	-0.404	0.235
-734.010	145.336	0.151	-0.205
-732.996	69.944	-0.372	-0.390
-731.981	800.000	0.237	-0.898
-730.966	-95.848	0.454	0.123
-729.952	-200.000	-0.101	-0.463
-728.937	176.905	0.337	0.498
-727.923	28.201	0.263	-0.226
-726.908	85.894	0.704	-0.787
-725.894	-148.760	0.212	-0.017
-724.879	8.559	-0.848	0.649
-723.864	-144.397	0.534	-0.050
-722.850	289.009	-0.510	0.939
-721.835	34.631	0.162	0.144
-720.821	-156.270	-0.728	0.046
-719.806	-39.303	-0.458	0.244
-718.791	-69.509	0.351	0.137
-717.777	-104.412	0.337	0.079
-716.762	-145.584	-0.529	-0.048
-715.748	-55.945	-0.344	-0.156
-714.733	-183.642	-0.505	0.009
-713.718	-200.000	-0.018	-0.519
-712.704	-110.567	-0.634	-0.133
-711.689	-62.839	0.203	-0.085
-710.675	-174.432	-1.142	-0.033
-709.660	-51.805	-0.471	-0.223
-708.645	-99.126	-0.825	0.212
-707.631	34.196	-0.187	0.165
-706.616	29.408	0.411	0.355
-705.602	225.521	-0.257	0.423
-704.587	210.336	0.195	-0.310
-703.572	-58.700	-0.877	-0.386
-702.558	-78.811	-0.018	-0.006
-701.543	-104.456	0.497	-0.117
-700.529	-0.064	-0.357	0.258
-699.514	46.818	0.495	-0.467
-698.499	-133.105	-0.319	0.041
-697.485	-164.457	1.010	-0.047
-696.470	172.857	0.409	-0.597
-695.456	654.875	-0.145	-0.378
-694.441	-97.568	-0.024	0.006
-693.426	-171.937	-0.489	-0.016
-692.412	-200.000	0.028	-0.447
-691.397	21.894	0.352	0.292
-690.383	-200.000	0.172	-0.980
-689.368	-200.000	0.030	-0.421
-688.354	-167.434	-0.585	-0.024
-687.339	112.112	0.545	-0.669
-686.324	508.398	-0.145	0.342
-685.310	-0.561	0.773	-0.557
-684.295	-200.000	-0.022	-0.110
-683.281	-200.000	0.047	0.677
-682.266	269.239	-0.136	0.243
-681.251	568.914	0.392	-0.966
-680.237	-200.000	-0.043	-0.518
-679.222	33.362	0.425	-0.374
-678.208	-22.158	0.632	0.389
-677.193	-106.609	0.396	0.089
-676.178	45.946	-0.398	-0.374
-675.164	-31.772	0.408	-0.232
-674.149	163.445	0.052	-0.074
-673.135	-153.501	-0.524	-0.037
-672.120	-73.163	0.666	0.248
-671.105	41.856	0.677	-0.623
-670.091	141.252	-0.250	0.336
-669.076	-120.145	0.385	0.067
-668.062	290.401	-0.136	0.251
-667.047	91.392	-0.156	-0.178
-666.032	-81.352	-0.791	0.265
-665.018	-156.380	-1.060	-0.067
-664.003	786.233	-0.422	-1.175
-662.989	-200.000	0.254	-1.206
-661.974	-200.000	0.058	-0.683
-660.959	348.197	0.126	0.251
-659.945	57.782	-0.579	-0.574
-658.930	-181.317	0.808	-0.016
-657.916	-122.335	0.098	0.016
-656.901	800.000	0.112	-0.434
-655.886	234.455	0.339	-0.567
-654.872	571.749	0.203	0.502
-653.857	-69.720	-0.540	0.209
-652.843	800.000	-0.040	0.151
-651.828	613.630	0.184	0.466
-650.814	233.173	0.324	0.540
-649.799	800.000	0.085	-0.359
-648.784	-24.878	0.319	0.192
-647.770	97.104	0.132	0.154
-646.755	117.242	-0.317	-0.394
-645.741	-0.584	0.165	0.118
-644.726	157.233	-0.148	-0.207
-643.711	46.561	-0.167	-0.157
-642.697	-200.000	-0.051	-0.639
-641.682	207.965	-0.128	0.202
-640.668	-62.216	0.351	-0.148
-639.653	28.628	-0.251	-0.215
-638.638	202.683	0.246	0.385
-637.624	18.745	0.493	-0.400
-636.609	88.476	-0.589	0.663
-635.595	98.965	-0.750	0.877
-634.580	2.030	0.070	-0.051
-633.565	652.758	0.242	-0.629
-632.551	771.018	0.360	0.994
-631.536	198.794	-0.260	0.403
-630.522	14.544	-0.288	-0.228
-629.507	-200.000	-0.058	-0.455
-628.492	-18.451	-0.881	0.557
-627.478	-108.566	-0.479	0.104
-626.463	-84.827	-0.432	0.137
-625.449	-66.268	0.389	-0.157
-624.434	800.000	0.073	0.301
-623.419	-200.000	-0.045	-0.259
-622.405	308.945	-0.402	0.761
-621.390	132.028	0.220	0.287
-620.376	-6.795	-0.405	-0.279
-619.361	185.033	-0.324	0.487
-618.346	-75.440	-0.617	0.223
-617.332	-200.000	-0.012	-0.358
-616.317	114.666	-0.285	0.352
-615.303	62.048	-0.293	-0.296
-614.288	-3.922	0.600	0.421
-613.273	190.380	0.233	-0.354
-612.259	42.664	-0.133	0.123
-611.244	-141.051	0.612	-0.063
-610.230	-57.512	0.301	0.134
-609.215	-200.000	0.035	-0.350
-608.201	276.947	0.253	-0.455
-607.186	-200.000	-0.137	0.808
-606.171	367.659	0.229	-0.468
-605.157	217.286	0.169	0.272
-604.142	-81.211	-0.494	0.165
-603.128	-92.388	0.887	-0.253
-602.113	-200.000	0.142	0.693
-601.098	-129.785	0.825	-0.115
-600.084	-107.012	0.628	0.140
-599.069	81.596	-0.621	-0.679
-598.055	63.763	-0.600	-0.609
-597.040	45.705	0.816	0.763
-596.025	800.000	-0.299	-1.040
-595.011	-200.000	-0.020	0.180
-593.996	264.577	0.375	-0.661
-592.982	800.000	0.267	1.062
-591.967	54.318	-0.514	0.500
-590.952	-200.000	0.082	-0.576
-589.938	145.790	0.421	-0.570
-588.923	-73.727	0.337	0.124
-587.909	259.618	-0.748	1.306
-586.894	47.901	-0.769	-0.727
-585.879	-135.760	0.741	-0.089
-584.865	609.804	0.106	-0.268
-583.850	-25.004	-0.578	-0.347
-582.836	-76.348	-0.150	-0.053
-581.821	-200.000	0.024	-0.619
-580.806	800.000	-0.124	-0.531
-579.792	53.158	-0.515	-0.499
-578.777	-114.544	-0.484	0.094
-577.763	5.665	0.679	-0.507
-576.748	-125.487	-0.527	0.081
-575.733	800.000	0.277	1.112
-574.719	-200.000	-0.027	0.800
-573.704	54.910	-0.704	-0.687
-572.690	-124.788	0.633	-0.099
-571.675	79.194	0.287	0.311
-570.661	800.000	0.047	0.192
-569.646	-16.674	0.125	-0.080
-568.631	-121.409	0.473	-0.080
-567.617	309.749	-0.273	0.516
-566.602	-144.036	1.094	0.104
-565.588	-82.873	0.400	-0.130
-564.573	81.415	0.531	-0.580
-563.558	800.000	-0.241	-0.797
-562.544	113.469	0.304	-0.372
-561.529	60.022	0.104	0.103
-560.515	-114.476	-0.262	0.051
-559.500	368.888	0.225	-0.459
-558.485	211.081	0.210	-0.333
-557.471	800.000	-0.037	-0.153
-556.456	16.447	-0.033	-0.027
-555.442	-112.160	-1.023	-0.207
-554.427	633.065	-0.165	0.423
-553.412	604.747	-0.379	-0.954
-552.398	-133.219	0.527	0.067
-551.383	603.338	-0.140	-0.351
-550.369	-200.000	-0.151	-0.851
-549.354	26.457	-0.465	0.393
-548.339	553.036	0.049	-0.120
-547.325	115.890	-0.323	-0.399
-546.310	-200.000	-0.007	0.264
-545.296	454.469	0.130	-0.291
-544.281	212.868	-0.438	0.698
-543.266	800.000	-0.159	-0.492
-542.252	68.913	-0.548	0.568
-541.237	127.386	-0.553	0.708
-540.223	216.446	0.656	1.053
-539.208	116.429	0.605	0.749
-538.193	-118.788	-0.413	-0.073
-537.179	-20.339	-0.782	-0.486
-536.164	-76.033	-0.547	-0.195
-535.150	-5.040	-0.404	0.281
-534.135	510.224	0.088	0.206
-533.121	324.633	0.680	-1.310
-532.106	-200.000	-0.021	-0.419
-531.091	-41.101	0.312	0.163
-530.077	460.871	-0.167	-0.375
-529.062	-129.732	-0.227	-0.032
-528.048	-200.000	-0.098	0.995
-527.033	475.694	-0.317	-0.723
-526.018	-130.822	0.821	-0.111
-525.004	-71.408	0.397	0.150
-523.989	-54.809	-0.327	-0.149
-522.975	-110.097	-0.629	0.132
-521.960	-166.159	0.759	0.032
-520.945	90.960	0.644	-0.728
-519.931	74.325	-0.290	-0.307
-518.916	-39.135	0.405	0.215
-517.902	-200.000	-0.076	-1.072
-516.887	15.200	0.755	0.596
-515.872	254.053	-0.182	0.315
-514.858	-200.000	0.090	0.569
-513.843	-81.361	-0.503	0.167
-512.829	165.520	-0.295	-0.420
-511.814	82.778	0.328	-0.359
-510.799	-28.406	-0.247	-0.144
-509.785	-168.507	1.113	0.043
-508.770	-102.931	0.319	0.076
-507.756	-74.132	-0.256	0.093
-506.741	420.430	-0.300	0.648
-505.726	107.975	0.083	0.099
-504.712	-42.197	-0.342	0.176
-503.697	800.000	-0.202	0.748
-502.683	-81.824	-0.468	0.154
-501.668	114.915	0.310	0.381
-500.653	31.831	0.211	-0.183
-499.639	107.873	0.825	-0.990
-498.624	-36.040	-0.370	0.202
-497.610	50.930	-0.277	-0.264
-496.595	-138.949	0.185	0.020
-495.581	683.157	-0.322	0.846
-494.566	-50.284	-0.556	0.265
-493.551	-61.207	-0.724	-0.307
-492.537	44.717	-0.162	-0.150
-491.522	69.973	-0.566	0.588
-490.508	-68.814	-0.081	0.031
-489.493	800.000	-0.230	0.754
-488.478	438.261	0.515	-1.132
-487.464	368.048	0.290	-0.590
-486.449	-200.000	-0.059	-0.760
-485.435	-158.795	0.377	0.022
-484.420	219.988	0.203	0.327
-483.405	-200.000	0.116	-0.587
-482.391	525.780	0.300	-0.712
-481.376	172.556	0.347	-0.503
-480.362	-116.949	0.536	0.099
-479.347	-82.932	0.449	0.146
-478.332	-63.979	0.628	-0.258
-477.318	3.066	0.543	-0.397
-476.303	270.676	0.380	-0.674
-475.289	-200.000	-0.001	0.086
-474.274	-156.762	-0.466	-0.029
-473.259	800.000	-0.140	0.469
-472.245	-124.725	-0.343	-0.053
-471.230	35.834	0.260	-0.230
-470.216	110.259	0.370	0.447
-469.201	393.624	-0.155	0.324
-468.186	-113.346	-0.257	0.051
-467.172	-42.118	0.596	-0.307
-466.157	-13.819	-0.418	0.272
-465.143	30.178	0.726	0.623
-464.128	56.399	-0.107	-0.104
-463.113	-70.820	-0.425	-0.161
-462.099	-46.401	-0.321	0.159
-461.084	-200.000	0.129	1.015
-460.070	309.175	-0.128	-0.241
-459.055	6.338	0.344	0.257
-458.040	200.107	-0.306	-0.472
-457.026	570.281	0.238	0.583
-456.011	-94.170	1.469	0.405
-454.997	71.368	-0.298	0.312
-453.982	-37.948	0.656	-0.351
-452.968	243.390	-0.291	0.490
-451.953	190.789	-0.251	0.379
-450.938	800.000	0.259	0.954
-449.924	192.278	-0.366	-0.555
-448.909	53.920	-0.475	-0.459
-447.895	-200.000	-0.021	0.206
-446.880	230.966	0.424	-0.698
-445.865	58.363	0.404	-0.399
-444.851	-200.000	0.071	-0.337
-443.836	149.260	0.398	0.542
-442.822	171.839	0.184	-0.266
-441.807	24.270	-0.262	0.218
-440.792	56.330	-0.589	-0.575
-439.778	277.585	0.057	-0.101
-438.763	-13.740	-0.192	-0.125
-437.749	-20.061	-0.656	0.407
-436.734	-45.819	0.617	0.307
-435.719	-200.000	0.012	0.965
-434.705	132.672	-0.334	-0.433
-433.690	-165.264	-0.803	-0.036
-432.676	395.174	-0.140	-0.293
-431.661	-106.062	0.419	0.095
-430.646	800.000	0.123	-0.497
-429.632	165.786	0.194	0.276
-428.617	-133.849	-0.568	-0.071
-427.603	-38.064	0.427	0.228
-426.588	-60.672	0.479	-0.204
-425.573	199.069	0.200	0.308
-424.559	-58.707	-0.472	0.205
-423.544	181.496	-0.269	-0.398
-422.530	800.000	-0.169	-0.689
-421.515	-200.000	-0.053	0.660
-420.500	454.607	-0.142	0.317
-419.486	-153.896	-0.164	0.011
-418.471	-200.000	-0.006	0.366
-417.457	741.853	-0.224	0.605
-416.442	-200.000	-0.020	0.141
-415.428	104.533	-0.265	0.313
-414.413	-54.194	-0.459	0.209
-413.398	691.260	-0.168	0.441
-412.384	-200.000	0.172	0.913
-411.369	119.626	0.469	0.583
-410.355	-1.811	-0.598	-0.422
-409.340	800.000	-0.152	-0.478
-408.325	194.389	0.369	0.562
-407.311	-61.958	0.628	-0.263
-406.296	800.000	-0.142	0.416
-405.282	211.047	-0.490	0.774
-404.267	-8.158	0.391	0.265
-403.252	800.000	0.099	-0.368
-402.238	-200.000	-0.025	0.249
-401.223	53.969	0.147	-0.142
-400.209	272.221	0.236	0.418
-399.194	314.932	-0.426	-0.806
-398.179	800.000	0.104	-0.372
-397.165	-146.625	0.788	-0.069
-396.150	-137.916	0.083	-0.009
-395.136	21.018	0.847	-0.690
-394.121	800.000	-0.370	-1.103
-393.106	344.859	0.080	-0.158
-392.092	53.344	0.248	-0.239
-391.077	800.000	-0.141	0.486
-390.063	245.403	-0.298	-0.503
-389.048	800.000	0.195	0.700
-388.033	-129.119	-0.671	0.094
-387.019	320.544	0.238	-0.454
-386.004	-200.000	0.129	0.569
-384.990	-44.256	0.631	0.317
-383.975	-200.000	-0.017	0.229
-382.960	74.983	0.173	-0.183
-381.946	-64.880	-0.485	0.197
-380.931	259.518	0.158	0.274
-379.917	-88.168	0.500	0.150
-378.902	-200.000	-0.179	-1.075
-377.888	-175.042	0.351	0.010
-376.873	675.313	0.251	0.654
-375.858	800.000	0.075	-0.252
-374.844	356.737	0.562	-1.123
-373.829	128.653	0.574	-0.733
-372.815	424.084	0.307	-0.661
-371.800	199.165	0.224	0.344
-370.785	-20.247	-0.114	0.071
-369.771	-123.927	0.334	0.053
-368.756	26.441	-0.475	0.398
-367.742	-10.058	-0.133	-0.089
-366.727	-16.319	-0.411	-0.262
-365.712	248.848	-0.559	-0.949
-364.698	721.703	-0.131	0.351
-363.683	-98.180	-0.758	-0.195
-362.669	-12.403	0.164	-0.107
-361.654	-99.433	-0.510	-0.129
-360.639	304.300	0.182	0.339
-359.625	800.000	-0.096	0.275
-358.610	-15.607	-0.676	0.432
-357.596	-59.992	-0.450	0.193
-356.581	-153.835	-0.409	-0.028
-355.566	101.042	0.153	0.178
-354.552	128.143	-0.182	-0.232
-353.537	-200.000	0.109	-0.659
-352.523	100.611	-0.855	-0.995
-351.508	-113.804	0.340	-0.066
-350.493	321.849	0.316	-0.602
-349.479	-200.000	0.005	-0.408
-348.464	-200.000	-0.094	0.806
-347.450	-87.810	-0.501	-0.151
-346.435	440.135	0.181	0.396
-345.420	-104.628	-0.477	-0.110
-344.406	-81.462	0.542	-0.179
-343.391	18.252	-0.333	-0.266
-342.377	89.814	0.824	0.921
-341.362	-17.492	-0.306	0.193
-340.348	158.774	-0.389	-0.541
-339.333	272.687	-0.512	-0.905
-338.318	282.843	-0.116	0.208
-337.304	-88.208	0.522	-0.156
-336.289	-148.651	-0.340	-0.028
-335.275	737.684	-0.201	-0.541
-334.260	-200.000	-0.014	-0.482
-333.245	136.905	-0.205	0.269
-332.231	-146.550	-0.893	-0.078
-331.216	-15.510	-0.380	-0.243
-330.202	800.000	-0.251	0.981
-329.187	-7.870	0.301	0.204
-328.172	37.362	0.396	0.351
-327.158	-14.249	-0.628	0.405
-326.143	800.000	-0.240	-0.702
-325.129	-103.781	0.839	-0.196
-324.114	51.380	-0.615	0.584
-323.099	-200.000	0.023	0.448
-322.085	25.515	0.329	0.274
-321.070	-80.714	-0.461	0.153
-320.056	-200.000	-0.019	-0.463
-319.041	-108.240	0.968	0.209
-318.026	-28.084	-0.228	-0.132
-317.012	-108.066	-0.475	0.103
-315.997	-123.201	0.776	-0.124
-314.983	-55.762	-0.230	0.103
-313.968	-21.018	0.558	-0.342
-312.953	-110.842	-0.844	0.174
-311.939	800.000	0.343	0.971
-310.924	26.473	0.165	-0.138
-309.910	-171.633	-1.161	0.038
-308.895	145.867	-0.239	-0.320
-307.880	83.612	1.045	-1.140
-306.866	57.541	-0.442	0.432
-305.851	454.168	-0.045	0.101
-304.837	-43.962	-0.458	0.230
-303.822	-200.000	-0.042	-0.638
-302.807	-42.737	0.539	0.274
-301.793	-180.132	0.454	0.010
-300.778	63.778	-0.383	-0.384
-299.764	-38.291	-0.450	-0.238
-298.749	-81.721	-0.221	0.072
-297.735	358.539	-0.371	0.740
-296.720	-117.932	0.168	-0.030
-295.705	-11.079	-0.178	0.118
-294.691	91.754	-0.274	0.308
-293.676	-82.461	-0.544	0.177
-292.662	-200.000	-0.047	-0.263
-291.647	-200.000	0.098	0.792
-290.632	49.314	-0.278	-0.261
-289.618	42.322	0.256	-0.233
-288.603	-54.996	0.654	0.295
-287.589	-88.086	-0.729	0.219
-286.574	350.426	-0.108	0.213
-285.559	10.723	-0.227	-0.173
-284.545	-151.301	-0.398	0.030
-283.530	41.140	0.126	-0.114
-282.516	800.000	-0.108	0.359
-281.501	61.713	-0.415	0.412
-280.486	-62.606	-0.820	0.340
-279.472	-62.130	0.698	0.291
-278.457	6.043	-0.082	0.060
-277.443	22.491	-0.400	-0.327
-276.428	800.000	-0.220	0.655
-275.413	11.772	0.264	-0.202
-274.399	-57.525	-0.745	0.327
-273.384	-200.000	0.014	-0.280
-272.370	-135.516	0.208	-0.025
-271.355	-74.718	0.491	-0.176
-270.340	-200.000	-0.013	0.176
-269.326	381.216	0.188	0.385
-268.311	212.286	-0.130	-0.205
-267.297	800.000	0.217	0.600
-266.282	-200.000	-0.084	-0.887
-265.267	800.000	0.137	-0.414
-264.253	-35.535	0.417	-0.226
-263.238	-38.701	0.349	-0.184
-262.224	388.110	0.128	0.265
-261.209	-116.821	-0.164	-0.030
-260.195	470.709	0.204	-0.457
-259.180	50.576	0.199	0.188
-258.165	-122.803	1.692	0.273
-257.151	48.050	0.520	-0.486
-256.136	9.809	0.767	0.580
-255.122	-35.435	0.727	0.394
-254.107	-200.000	0.015	0.479
-253.092	-200.000	-0.056	-0.477
-252.078	-150.136	0.449	0.035
-251.063	-19.225	0.354	-0.219
-250.049	-49.975	-0.769	0.364
-249.034	-200.000	0.098	0.612
-248.019	62.485	0.357	-0.356
-247.005	175.413	-0.340	0.491
-245.990	-200.000	0.165	1.020
-244.976	212.299	0.224	0.352
-243.961	-13.780	-0.146	0.094
-242.946	8.218	-0.135	-0.101
-241.932	416.041	0.041	0.088
-240.917	-200.000	0.149	-1.209
-239.903	-200.000	0.002	-0.800
-238.888	-200.000	-0.012	0.217
-237.873	323.953	-0.120	0.229
-236.859	-156.627	0.374	0.023
-235.844	-200.000	-0.052	-0.328
-234.830	-200.000	0.215	-0.999
-233.815	-162.043	-0.189	0.009
-232.800	-33.185	-0.668	0.369
-231.786	-200.000	0.069	-0.398
-230.771	-87.499	0.275	0.083
-229.757	-200.000	0.048	0.455
-228.742	240.820	-0.225	-0.374
-227.727	-200.000	0.047	-0.357
-226.713	-117.733	-0.789	0.141
-225.698	64.283	0.644	-0.647
-224.684	800.000	0.209	0.786
-223.669	-26.884	-0.636	-0.370
-222.655	-157.172	-0.775	-0.047
-221.640	-80.983	0.309	0.102
-220.625	-110.677	-0.931	-0.192
-219.611	725.802	-0.253	-0.672
-218.596	-36.517	-0.272	0.146
-217.582	800.000	0.128	-0.358
-216.567	-69.645	0.400	-0.153
-215.552	-51.825	0.583	-0.270
-214.538	-11.966	0.954	0.623
-213.523	-58.006	-0.513	0.223
-212.509	-49.642	0.908	0.430
-211.494	-200.000	0.114	0.656
-210.479	440.543	0.201	0.439
-209.465	-46.322	-0.594	0.291
-208.450	44.886	0.283	-0.259
-207.436	172.289	-0.239	0.342
-206.421	-200.000	-0.013	0.498
-205.406	152.944	0.273	0.371
-204.392	5.901	-0.306	-0.225
-203.377	31.482	-0.476	-0.407
-202.363	-33.007	-0.822	-0.454
-201.348	-200.000	-0.048	0.335
-200.333	198.402	-0.056	0.085
-199.319	-29.983	0.052	0.029
-198.304	10.675	0.502	0.381
-197.290	58.329	-0.540	-0.527
-196.275	317.489	-0.151	0.284
-195.260	-132.974	-0.405	-0.051
-194.246	-200.000	-0.099	-0.545
-193.231	800.000	0.143	-0.441
-192.217	-80.536	0.262	0.087
-191.202	-200.000	-0.052	0.298
-190.187	-58.242	0.256	-0.111
-189.173	-69.073	0.103	0.040
-188.158	-200.000	-0.164	1.075
-187.144	-38.099	-0.369	0.195
-186.129	59.768	-0.415	-0.407
-185.114	-200.000	-0.084	-0.587
-184.100	-40.567	0.505	-0.261
-183.085	-114.577	0.841	-0.160
-182.071	12.009	-0.304	0.233
-181.056	745.502	0.038	-0.101
-180.042	-200.000	0.047	0.407
-179.027	15.488	0.181	-0.141
-178.012	-91.202	0.216	-0.062
-176.998	785.702	0.096	-0.263
-175.983	-140.755	-0.335	0.034
-174.969	-81.177	0.922	0.303
-173.954	-116.323	0.125	-0.023
-172.939	253.101	-0.199	0.337
-171.925	5.363	-0.104	-0.076
-170.910	-143.602	-0.569	-0.054
-169.896	-173.937	0.172	0.005
-168.881	-26.743	0.175	0.102
-167.866	580.933	-0.255	-0.621
-166.852	15.083	0.328	-0.255
-165.837	-98.946	1.065	0.269
-164.823	800.000	-0.257	-0.805
-163.808	22.022	-0.389	-0.316
-162.793	800.000	0.056	0.225
-161.779	-200.000	-0.007	0.113
-160.764	-179.668	-0.105	0.002
-159.750	-6.319	0.241	-0.163
-158.735	-200.000	0.005	-0.371
-157.720	155.652	-0.345	0.473
-156.706	-23.720	-0.645	0.385
-155.691	-89.099	0.903	-0.265
-154.677	-200.000	-0.027	-0.130
-153.662	62.767	0.495	0.493
-152.647	187.076	0.613	0.908
-151.633	48.901	-0.318	-0.296
-150.618	88.747	-0.232	-0.256
-149.604	6.008	0.544	-0.400
-148.589	-96.923	-0.167	-0.044
-147.574	-47.510	-0.714	-0.345
-146.560	514.412	0.380	-0.880
-145.545	-200.000	-0.020	0.153
-144.531	-32.761	0.491	-0.271
-143.516	-200.000	0.040	-1.264
-142.502	-200.000	-0.033	0.253
-141.487	800.000	0.192	0.685
-140.472	113.705	0.436	-0.527
-139.458	51.633	-0.429	0.405
-138.443	800.000	0.260	0.807
-137.429	-149.507	0.102	0.008
-136.414	15.233	0.376	-0.293
-135.399	-47.108	-0.663	0.321
-134.385	63.162	0.087	-0.087
-133.370	800.000	-0.197	-0.626
-132.356	-120.679	1.127	0.189
-131.341	704.802	-0.270	-0.708
-130.326	-68.356	-0.461	-0.178
-129.312	-113.314	0.402	-0.078
-128.297	-198.009	0.439	0.003
-127.283	-92.040	0.749	-0.210
-126.268	-137.966	0.900	-0.100
-125.253	-105.553	-1.134	0.255
-124.239	-126.698	-0.030	0.004
-123.224	156.003	-0.042	0.058
-122.210	-200.000	-0.089	-0.795
-121.195	49.577	0.599	0.560
