DTS Sentinel unit serial number:	SN413079Multiplexer serial number:	ORYXHardware model number:	OX4-SRSoftware version number:	ORYX F/W v4.00 Oryx Data Collector v3.7.2.0data status	okinstallation	princeton_trtdifferential loss correction	single-endedforward channel	channel 4reverse channel	N/Adate	2019/09/15time	21:37:35forward acquisition time	60.00reverse acquisition time	0.00gamma	496.2192k internal	0.2318k external	0.2318temperature offset calibration	0.9941default loss term (dB/km)	0.3790temperature slope calibration	1.0000multiplexer offset coefficient	1.0000multiplexer slope coefficient	1.0000fibre end	0.00T internal ref (°C)	30.52T ext. ref 1 (°C)	8.36T ext. ref 2 (°C)	23.51length (m)	temperature (°C)	Stokes	anti-Stokes-747.200	256.898	0.035	0.062
-746.185	446.671	-0.091	0.203
-745.171	-96.196	0.135	-0.036
-744.156	800.000	0.042	-0.135
-743.142	-98.951	-0.115	0.030
-742.127	-200.000	0.008	0.064
-741.112	473.141	0.118	0.269
-740.098	-146.619	-0.286	-0.025
-739.083	-141.237	0.152	-0.016
-738.069	405.736	0.074	-0.158
-737.054	-69.542	0.391	-0.151
-736.039	265.448	0.091	0.161
-735.025	87.380	0.085	-0.096
-734.010	-29.572	-0.122	0.071
-732.996	800.000	0.073	0.221
-731.981	-99.111	0.206	0.053
-730.966	-119.313	-0.231	-0.041
-729.952	82.986	-0.168	-0.184
-728.937	-68.551	0.082	0.032
-727.923	-200.000	-0.048	-0.369
-726.908	800.000	0.043	0.135
-725.894	602.774	0.128	-0.321
-724.879	-91.320	0.392	0.113
-723.864	800.000	-0.054	0.190
-722.850	101.860	0.212	0.250
-721.835	-113.497	0.114	0.023
-720.821	23.391	-0.031	0.025
-719.806	713.275	-0.032	-0.085
-718.791	144.636	-0.238	-0.321
-717.777	-10.293	-0.241	0.162
-716.762	33.895	-0.283	0.249
-715.748	104.760	0.138	0.165
-714.733	409.287	0.046	-0.098
-713.718	-140.764	-0.153	-0.016
-712.704	-63.587	0.194	-0.080
-711.689	-20.874	-0.163	-0.101
-710.675	-200.000	-0.008	-0.121
-709.660	64.859	0.102	-0.104
-708.645	-124.947	0.166	0.026
-707.631	368.283	-0.080	-0.163
-706.616	98.811	0.180	0.210
-705.602	771.739	0.109	0.300
-704.587	24.089	-0.175	0.146
-703.572	142.256	0.078	-0.104
-702.558	800.000	0.057	0.172
-701.543	173.153	-0.051	0.074
-700.529	800.000	0.113	-0.399
-699.514	-200.000	-0.056	-0.260
-698.499	-200.000	0.013	0.245
-697.485	800.000	0.021	0.066
-696.470	800.000	0.031	0.108
-695.456	-69.910	-0.243	0.094
-694.441	800.000	0.020	0.087
-693.426	76.857	-0.058	0.062
-692.412	-173.317	0.270	-0.008
-691.397	122.694	-0.070	-0.088
-690.383	800.000	-0.021	0.072
-689.368	-200.000	-0.024	-0.157
-688.354	66.583	0.301	-0.309
-687.339	-200.000	0.015	-0.085
-686.324	-200.000	-0.018	-0.310
-685.310	-159.832	-0.138	-0.008
-684.295	3.947	0.219	0.162
-683.281	-32.854	-0.309	-0.173
-682.266	-98.139	-0.323	-0.084
-681.251	-107.863	-0.301	-0.066
-680.237	-73.266	-0.160	-0.059
-679.222	501.673	0.061	-0.143
-678.208	114.127	-0.034	-0.042
-677.193	-138.040	0.361	-0.041
-676.178	-181.327	-0.268	-0.005
-675.164	-134.978	-0.032	-0.004
-674.149	510.137	0.038	0.089
-673.135	800.000	-0.067	-0.215
-672.120	400.227	0.089	0.188
-671.105	272.455	-0.130	0.231
-670.091	800.000	0.090	-0.272
-669.076	143.439	-0.115	-0.155
-668.062	41.617	0.147	-0.134
-667.047	-25.316	0.289	-0.173
-666.032	761.090	0.116	0.318
-665.018	-111.815	0.097	-0.020
-664.003	-200.000	0.039	-0.228
-662.989	117.971	0.087	-0.108
-661.974	218.453	0.092	-0.149
-660.959	-78.318	-0.406	-0.140
-659.945	45.198	-0.050	0.047
-658.930	410.987	-0.208	-0.445
-657.916	800.000	-0.108	0.303
-656.901	-153.871	-0.210	-0.014
-655.886	162.980	0.156	0.221
-654.872	221.301	-0.120	-0.194
-653.857	-100.370	-0.292	0.073
-652.843	-200.000	0.010	0.117
-651.828	-56.684	-0.124	-0.055
-650.814	-133.833	-0.199	-0.025
-649.799	156.582	-0.196	-0.273
-648.784	-132.679	-0.242	0.031
-647.770	-154.049	-0.255	-0.017
-646.755	585.426	0.088	-0.218
-645.741	-178.114	-0.305	0.007
-644.726	34.049	-0.218	0.191
-643.711	584.180	0.106	-0.263
-642.697	-123.843	0.299	0.048
-641.682	-52.263	0.100	0.047
-640.668	147.917	0.148	0.201
-639.653	103.713	0.144	-0.171
-638.638	-200.000	0.004	0.047
-637.624	-72.751	0.093	-0.035
-636.609	96.353	-0.133	0.153
-635.595	26.373	-0.093	-0.078
-634.580	-41.398	0.241	-0.125
-633.565	-22.981	0.201	0.122
-632.551	-88.277	-0.113	0.034
-631.536	68.515	0.348	0.359
-630.522	54.207	0.172	0.167
-629.507	-99.467	-0.212	0.054
-628.492	75.380	0.096	0.102
-627.478	211.668	-0.148	-0.236
-626.463	-36.067	-0.211	-0.115
-625.449	14.024	-0.040	-0.031
-624.434	-200.000	-0.048	0.260
-623.419	490.156	0.105	-0.242
-622.405	521.673	-0.066	-0.157
-621.390	-56.176	0.175	0.078
-620.376	800.000	0.116	-0.444
-619.361	222.555	-0.266	-0.431
-618.346	-200.000	-0.031	-0.266
-617.332	-200.000	0.049	-0.248
-616.317	800.000	-0.034	0.129
-615.303	-200.000	0.008	-0.140
-614.288	-91.372	-0.505	-0.145
-613.273	-54.134	-0.242	-0.111
-612.259	-200.000	-0.096	-0.582
-611.244	800.000	0.032	-0.127
-610.230	184.508	0.179	-0.267
-609.215	234.035	0.025	-0.041
-608.201	188.363	0.086	-0.129
-607.186	800.000	0.018	-0.064
-606.171	-142.316	-0.345	0.034
-605.157	-65.479	0.343	-0.139
-604.142	800.000	-0.044	-0.178
-603.128	192.174	-0.167	0.253
-602.113	34.218	-0.237	-0.208
-601.098	-52.805	0.203	0.094
-600.084	-17.228	0.324	0.206
-599.069	-200.000	0.033	0.172
-598.055	2.519	0.118	0.086
-597.040	-156.472	0.281	0.018
-596.025	-55.816	0.177	-0.080
-595.011	72.225	0.157	0.165
-593.996	-2.497	0.233	-0.164
-592.982	255.315	0.152	-0.262
-591.967	247.904	-0.127	-0.216
-590.952	-144.558	-0.247	-0.023
-589.938	228.016	0.151	-0.248
-588.923	84.034	0.024	0.026
-587.909	-89.628	0.139	0.041
-586.894	-127.060	-0.164	0.024
-585.879	-200.000	-0.030	-0.222
-584.865	-200.000	0.007	0.054
-583.850	-61.613	-0.225	-0.095
-582.836	-200.000	-0.004	0.229
-581.821	78.153	-0.090	0.096
-580.806	175.050	0.179	0.261
-579.792	334.272	0.169	0.330
-578.777	510.653	-0.071	-0.166
-577.763	119.133	-0.072	0.089
-576.748	91.809	0.060	-0.067
-575.733	191.083	0.120	0.181
-574.719	-33.573	-0.154	0.085
-573.704	-131.917	0.569	0.075
-572.690	-127.435	0.079	-0.012
-571.675	239.609	0.068	0.114
-570.661	35.822	0.096	-0.085
-569.646	156.631	-0.127	-0.176
-568.631	31.362	0.077	-0.067
-567.617	-105.661	0.030	-0.007
-566.602	104.531	0.101	-0.119
-565.588	-200.000	0.016	0.217
-564.573	800.000	-0.115	-0.340
-563.558	-177.509	-0.334	0.008
-562.544	-138.114	-0.275	-0.031
-561.529	-200.000	-0.011	0.230
-560.515	-107.069	-0.140	-0.031
-559.500	97.899	0.153	0.177
-558.485	800.000	-0.077	-0.297
-557.471	-200.000	0.017	0.189
-556.456	800.000	0.081	-0.340
-555.442	474.829	0.093	-0.211
-554.427	461.646	0.116	0.259
-553.412	-200.000	-0.002	0.428
-552.398	84.346	-0.121	0.133
-551.383	41.439	0.171	0.156
-550.369	-18.742	0.181	0.113
-549.354	-124.132	-0.173	0.027
-548.339	22.126	-0.260	-0.213
-547.325	403.732	0.091	0.192
-546.310	-52.538	-0.274	0.127
-545.296	-78.241	-0.350	-0.121
-544.281	800.000	0.032	0.107
-543.266	460.198	0.184	-0.412
-542.252	-200.000	-0.022	0.273
-541.237	461.169	0.067	0.150
-540.223	-200.000	0.024	0.303
-539.208	-111.394	-0.296	0.061
-538.193	-88.266	0.397	-0.119
-537.179	51.152	-0.127	0.121
-536.164	800.000	-0.062	-0.190
-535.150	-21.604	0.143	0.088
-534.135	-108.209	0.242	-0.052
-533.121	645.314	0.111	-0.285
-532.106	-200.000	0.016	-0.291
-531.091	20.687	-0.141	0.114
-530.077	800.000	-0.041	0.130
-529.062	-77.501	-0.177	0.062
-528.048	800.000	-0.037	0.161
-527.033	-200.000	-0.056	-0.332
-526.018	116.077	0.157	-0.193
-525.004	800.000	0.059	0.234
-523.989	97.166	-0.322	-0.370
-522.975	44.662	-0.260	-0.239
-521.960	-102.718	0.290	0.069
-520.945	283.314	-0.085	-0.152
-519.931	-139.212	0.217	0.023
-518.916	286.014	-0.067	-0.121
-517.902	-200.000	-0.003	-0.014
-516.887	-134.881	-0.190	-0.023
-515.872	-200.000	0.000	-0.162
-514.858	800.000	-0.077	-0.317
-513.843	-148.934	-0.179	-0.015
-512.829	800.000	0.073	-0.236
-511.814	-67.052	-0.348	-0.138
-510.799	150.684	-0.190	-0.259
-509.785	-82.252	0.161	0.053
-508.770	-42.499	0.096	-0.049
-507.756	50.707	-0.335	-0.318
-506.741	22.160	-0.120	0.098
-505.726	800.000	0.062	0.258
-504.712	48.564	0.089	-0.083
-503.697	-20.361	0.166	-0.103
-502.683	-4.098	0.015	-0.010
-501.668	-134.808	-0.284	-0.035
-500.653	800.000	0.030	-0.130
-499.639	-114.886	-0.210	-0.040
-498.624	800.000	-0.057	0.174
-497.610	-200.000	-0.002	0.236
-496.595	-88.585	-0.249	-0.074
-495.581	29.107	0.180	0.153
-494.566	-114.044	0.135	0.026
-493.551	147.168	0.055	-0.074
-492.537	-200.000	0.005	0.044
-491.522	2.774	0.192	0.140
-490.508	-200.000	0.007	0.141
-489.493	-47.177	-0.249	0.121
-488.478	-200.000	0.109	0.526
-487.464	-11.042	0.190	0.126
-486.449	19.655	-0.367	0.296
-485.435	-74.092	0.063	-0.023
-484.420	800.000	-0.089	-0.265
-483.405	-42.848	0.288	-0.147
-482.391	34.366	-0.100	0.087
-481.376	800.000	0.054	0.169
-480.362	276.420	0.168	-0.298
-479.347	96.331	0.081	-0.093
-478.332	800.000	0.047	0.191
-477.318	800.000	0.064	0.231
-476.303	-31.697	0.163	0.091
-475.289	434.601	-0.077	-0.167
-474.274	-103.417	-0.203	-0.048
-473.259	-200.000	-0.010	0.146
-472.245	800.000	0.099	0.364
-471.230	277.706	0.075	0.134
-470.216	-182.571	0.214	0.004
-469.201	-200.000	0.068	-0.351
-468.186	19.787	-0.190	0.153
-467.172	79.129	0.276	0.296
-466.157	11.341	-0.188	-0.144
-465.143	-200.000	-0.001	-0.122
-464.128	-200.000	-0.009	-0.292
-463.113	-200.000	0.013	-0.111
-462.099	-36.743	0.266	0.143
-461.084	61.810	-0.226	0.225
-460.070	-80.920	-0.068	0.022
-459.055	-200.000	-0.041	0.275
-458.040	-200.000	0.348	0.001
-457.026	42.998	-0.178	0.162
-456.011	-71.652	-0.114	0.043
-454.997	-29.752	-0.085	-0.048
-453.982	-200.000	-0.005	-0.383
-452.968	-141.928	-0.343	-0.034
-451.953	244.920	-0.196	0.330
-450.938	329.775	-0.214	0.413
-449.924	-133.211	0.208	-0.026
-448.909	-30.654	-0.147	0.083
-447.895	-200.000	-0.029	0.245
-446.880	204.330	-0.154	-0.238
-445.865	800.000	0.026	0.090
-444.851	800.000	-0.065	0.249
-443.836	-200.000	-0.014	0.156
-442.822	32.957	0.113	-0.098
-441.807	-87.733	-0.160	0.048
-440.792	266.010	0.108	0.189
-439.778	-200.000	0.019	-0.248
-438.763	-166.777	-0.173	0.007
-437.749	212.672	0.165	0.261
-436.734	-11.510	0.197	0.130
-435.719	-200.000	-0.026	-0.118
-434.705	-101.692	-0.211	-0.051
-433.690	18.256	-0.090	0.072
-432.676	-200.000	-0.014	0.107
-431.661	-8.538	-0.178	0.119
-430.646	-27.441	-0.043	0.025
-429.632	48.979	-0.067	-0.063
-428.617	41.669	-0.136	0.123
-427.603	167.914	0.058	-0.082
-426.588	-200.000	0.036	0.253
-425.573	800.000	0.041	0.170
-424.559	692.670	-0.032	0.083
-423.544	-200.000	0.017	-0.209
-422.530	800.000	-0.023	0.074
-421.515	-13.410	-0.387	0.251
-420.500	-200.000	0.024	0.173
-419.486	-200.000	-0.008	-0.210
-418.471	12.820	-0.295	-0.228
-417.457	245.926	-0.137	-0.231
-416.442	162.630	-0.117	0.165
-415.428	-30.819	-0.165	0.093
-414.413	-93.884	-0.045	0.012
-413.398	-68.071	0.309	-0.120
-412.384	800.000	0.035	0.109
-411.369	207.948	0.139	-0.216
-410.355	-200.000	0.032	-0.385
-409.340	-120.054	-0.432	0.074
-408.325	800.000	0.052	-0.158
-407.311	392.721	-0.018	-0.036
-406.296	-20.408	-0.254	0.156
-405.282	-200.000	0.071	0.475
-404.267	-200.000	0.080	0.422
-403.252	-100.197	0.294	-0.073
-402.238	-92.666	0.188	-0.053
-401.223	-92.753	-0.129	0.036
-400.209	-85.771	-0.037	-0.012
-399.194	-21.175	0.179	-0.109
-398.179	23.212	-0.354	0.290
-397.165	-1.317	0.194	-0.137
-396.150	-117.187	-0.324	-0.059
-395.136	-200.000	0.006	0.031
-394.121	-200.000	-0.034	-0.289
-393.106	-113.420	0.284	-0.056
-392.092	661.692	-0.080	0.206
-391.077	800.000	-0.043	0.132
-390.063	-120.333	-0.112	0.019
-389.048	218.691	0.180	-0.287
-388.033	38.748	0.218	-0.194
-387.019	81.281	-0.199	0.215
-386.004	746.379	0.028	-0.076
-384.990	421.539	0.064	-0.138
-383.975	-200.000	-0.057	0.339
-382.960	301.381	-0.148	-0.274
-381.946	-24.115	0.232	0.138
-380.931	143.844	-0.175	0.233
-379.917	-60.565	-0.102	0.043
-378.902	-26.393	-0.135	0.079
-377.888	-200.000	-0.032	-0.188
-376.873	46.325	0.068	0.063
-375.858	-200.000	0.028	-0.134
-374.844	-200.000	-0.044	0.349
-373.829	-15.078	0.160	-0.102
-372.815	35.116	0.057	-0.049
-371.800	-200.000	0.013	-0.170
-370.785	180.366	0.122	0.178
-369.771	290.786	0.082	0.148
-368.756	-99.762	-0.136	-0.034
-367.742	14.335	0.299	0.232
-366.727	800.000	0.009	-0.034
-365.712	204.272	0.045	0.069
-364.698	-26.517	-0.357	-0.209
-363.683	-91.734	-0.189	0.054
-362.669	-136.556	0.347	0.040
-361.654	-118.808	0.206	0.036
-360.639	-148.023	-0.185	-0.015
-359.625	-97.693	0.206	0.053
-358.610	54.882	0.056	-0.054
-357.596	-106.096	-0.141	-0.032
-356.581	800.000	-0.035	0.126
-355.566	-171.258	0.102	-0.003
-354.552	-200.000	0.003	-0.157
-353.537	205.624	-0.128	-0.198
-352.523	-171.887	-0.199	-0.006
-351.508	301.768	0.110	-0.203
-350.493	-88.820	-0.183	0.054
-349.479	-200.000	-0.045	-0.217
-348.464	-133.587	-0.098	-0.012
-347.450	578.620	-0.076	-0.184
-346.435	-107.321	-0.082	0.018
-345.420	-84.609	-0.226	-0.071
-344.406	800.000	-0.071	-0.199
-343.391	-38.773	0.116	0.061
-342.377	-123.068	0.545	0.087
-341.362	100.536	-0.120	-0.139
-340.348	293.289	0.022	0.040
-339.333	-78.495	-0.168	0.057
-338.318	800.000	0.065	-0.198
-337.304	800.000	0.036	-0.140
-336.289	118.393	0.090	0.110
-335.275	435.281	0.151	-0.328
-334.260	-53.602	0.342	-0.156
-333.245	50.248	-0.034	0.032
-332.231	-42.102	-0.091	0.046
-331.216	-26.264	0.091	-0.053
-330.202	-60.718	0.301	-0.127
-329.187	-200.000	-0.060	0.277
-328.172	-28.832	0.179	-0.102
-327.158	800.000	-0.040	-0.128
-326.143	-198.986	0.208	-0.001
-325.129	-166.007	0.223	-0.009
-324.114	58.440	0.238	0.233
-323.099	-64.404	0.023	0.009
-322.085	-200.000	0.000	0.269
-321.070	800.000	0.036	0.148
-320.056	800.000	-0.029	-0.092
-319.041	-70.318	0.124	-0.047
-318.026	7.569	0.052	0.039
-317.012	-35.230	-0.196	-0.106
-315.997	-143.568	-0.164	-0.016
-314.983	-200.000	-0.008	-0.220
-313.968	-200.000	0.003	0.026
-312.953	800.000	0.026	0.097
-311.939	-89.925	-0.053	0.015
-310.924	-200.000	-0.015	0.089
-309.910	-200.000	-0.033	-0.372
-308.895	800.000	-0.038	0.111
-307.880	800.000	0.010	-0.037
-306.866	-11.699	0.190	0.124
-305.851	168.792	-0.087	-0.123
-304.837	68.078	0.088	-0.089
-303.822	160.740	-0.130	0.181
-302.807	800.000	0.019	-0.070
-301.793	-200.000	-0.029	0.188
-300.778	-67.869	0.027	0.010
-299.764	-145.931	0.119	-0.010
-298.749	284.465	0.083	0.149
-297.735	224.334	-0.017	-0.027
-296.720	371.283	-0.089	0.179
-295.705	-40.532	-0.099	0.051
-294.691	-7.444	0.276	-0.186
-293.676	85.888	-0.050	-0.054
-292.662	240.296	-0.128	-0.213
-291.647	11.675	0.047	0.035
-290.632	661.223	-0.089	-0.229
-289.618	-200.000	-0.006	-0.043
-288.603	28.888	0.155	-0.130
-287.589	342.553	0.161	-0.313
-286.574	800.000	-0.052	0.156
-285.559	107.264	0.116	-0.138
-284.545	32.168	-0.092	-0.079
-283.530	-11.956	0.224	-0.146
-282.516	-15.974	0.158	-0.100
-281.501	-168.321	-0.242	0.009
-280.486	2.056	0.045	0.032
-279.472	-32.108	-0.102	-0.057
-278.457	-65.065	0.233	0.094
-277.443	-101.093	0.262	-0.064
-276.428	-135.338	-0.114	0.013
-275.413	-6.452	0.339	-0.229
-274.399	-10.208	0.337	0.222
-273.384	-134.194	0.135	0.017
-272.370	371.719	-0.119	-0.241
-271.355	123.686	0.146	0.182
-270.340	-34.856	0.064	0.035
-269.326	-27.828	0.133	0.077
-268.311	-200.000	-0.032	0.335
-267.297	57.464	0.081	-0.078
-266.282	-15.060	-0.282	-0.179
-265.267	-200.000	-0.010	-0.197
-264.253	184.533	0.036	-0.053
-263.238	54.773	-0.006	-0.006
-262.224	800.000	-0.087	-0.250
-261.209	-89.596	0.335	-0.098
-260.195	158.852	0.063	0.087
-259.180	-81.192	-0.523	0.172
-258.165	117.147	0.282	0.344
-257.151	800.000	0.081	0.314
-256.136	375.623	-0.123	0.249
-255.122	-82.064	-0.362	-0.117
-254.107	-200.000	-0.007	-0.153
-253.092	-59.922	0.197	0.084
-252.078	-171.997	-0.355	0.011
-251.063	-200.000	-0.001	-0.095
-250.049	-200.000	0.045	-0.261
-249.034	354.772	-0.112	0.221
-248.019	137.017	0.075	-0.098
-247.005	-143.425	0.248	-0.024
-245.990	800.000	-0.126	-0.457
-244.976	-77.128	0.289	0.100
-243.961	-33.373	0.192	-0.105
-242.946	49.123	0.235	-0.219
-241.932	102.225	-0.086	-0.099
-240.917	293.896	0.174	-0.315
-239.903	80.196	0.175	-0.187
-238.888	580.381	-0.139	-0.339
-237.873	15.877	0.184	-0.143
-236.859	221.641	0.061	0.098
-235.844	-22.463	0.138	0.083
-234.830	-200.000	-0.014	0.201
-233.815	86.289	-0.232	0.253
-232.800	-200.000	-0.009	0.243
-231.786	-18.459	0.234	-0.145
-230.771	-172.570	-0.461	0.014
-229.757	131.801	-0.054	-0.069
-228.742	84.916	0.085	0.092
-227.727	237.218	-0.025	0.041
-226.713	-147.306	0.270	0.023
-225.698	-46.026	0.075	-0.037
-224.684	277.077	0.133	-0.235
-223.669	586.833	-0.148	0.361
-222.655	20.102	-0.407	0.325
-221.640	-39.122	0.121	0.063
-220.625	800.000	-0.047	-0.131
-219.611	-74.061	-0.170	-0.061
-218.596	800.000	-0.018	0.066
-217.582	800.000	-0.101	-0.336
-216.567	373.994	0.066	0.133
-215.552	-94.583	-0.313	-0.084
-214.538	-22.140	-0.213	0.128
-213.523	-141.347	0.056	-0.006
-212.509	800.000	-0.036	-0.137
-211.494	161.493	0.132	0.183
-210.479	-118.689	-0.246	0.043
-209.465	-122.261	0.018	-0.003
-208.450	209.084	0.124	0.192
-207.436	152.253	-0.149	-0.202
-206.421	800.000	-0.108	-0.334
-205.406	-101.601	0.350	0.084
-204.392	318.368	-0.174	0.327
-203.377	-142.154	0.161	-0.016
-202.363	800.000	-0.090	0.343
-201.348	313.415	0.295	0.549
-200.333	-96.515	-0.148	-0.039
-199.319	-50.926	0.077	0.036
-198.304	38.122	-0.019	0.016
-197.290	153.614	0.281	0.381
-196.275	-36.112	-0.089	-0.048
-195.260	-200.000	0.015	-0.190
-194.246	10.861	0.071	-0.054
-193.231	-200.000	-0.023	0.126
-192.217	33.513	-0.235	0.202
-191.202	-200.000	0.013	0.266
-190.187	544.783	-0.171	0.404
-189.173	249.134	-0.184	-0.309
-188.158	-38.232	0.069	0.036
-187.144	-143.339	-0.300	0.028
-186.129	-194.227	0.209	0.002
-185.114	-199.574	-0.115	-0.001
-184.100	-6.810	0.193	0.130
-183.085	-125.944	0.226	0.034
-182.071	-114.386	0.186	-0.036
-181.056	-138.544	-0.236	0.026
-180.042	-66.322	-0.218	0.086
-179.027	151.486	-0.161	0.217
-178.012	608.922	-0.082	-0.203
-176.998	-126.478	-0.456	0.067
-175.983	670.718	-0.095	-0.245
-174.969	51.154	0.217	0.203
-173.954	14.715	-0.107	0.082
-172.939	46.334	-0.062	0.057
-171.925	-200.000	0.001	0.160
-170.910	-2.348	0.112	-0.077
-169.896	-200.000	-0.001	-0.342
-168.881	-103.758	-0.145	0.034
-167.866	101.043	-0.274	0.315
-166.852	-200.000	-0.038	0.309
-165.837	-114.659	-0.260	-0.049
-164.823	134.874	0.052	-0.067
-163.808	-55.381	0.337	0.150
-162.793	-200.000	-0.046	0.349
-161.779	-127.496	0.261	0.038
-160.764	800.000	-0.021	0.065
-159.750	98.741	0.054	-0.062
-158.735	-200.000	0.008	-0.193
-157.720	-39.273	0.255	-0.132
-156.706	710.548	0.068	-0.179
-155.691	108.174	0.357	0.421
-154.677	-182.770	0.423	0.008
-153.662	-200.000	-0.011	-0.286
-152.647	-200.000	0.016	0.103
-151.633	-59.949	-0.290	-0.123
-150.618	663.743	0.010	-0.025
-149.604	-28.586	-0.013	0.008
-148.589	-4.919	0.186	0.126
-147.574	-200.000	0.006	-0.481
-146.560	-200.000	0.026	-0.226
-145.545	-3.241	0.510	0.352
-144.531	-200.000	0.055	0.549
-143.516	-200.000	0.002	0.124
-142.502	-200.000	0.055	0.311
-141.487	558.969	0.170	0.405
-140.472	-200.000	-0.028	-0.144
-139.458	-200.000	0.001	-0.219
-138.443	125.943	0.083	-0.104
-137.429	51.782	-0.139	0.131
-136.414	28.438	0.180	-0.150
-135.399	253.273	-0.142	-0.240
-134.385	787.784	0.143	0.388
-133.370	-200.000	0.041	0.190
-132.356	-160.290	0.225	-0.012
-131.341	23.300	-0.233	0.189
-130.326	349.169	-0.282	0.550
-129.312	-200.000	-0.004	0.243
-128.297	761.203	-0.054	-0.144
-127.283	-80.791	-0.298	-0.098
-126.268	-93.924	0.015	0.004
-125.253	-200.000	-0.017	0.139
-124.239	-200.000	-0.021	0.093
-123.224	-200.000	-0.015	-0.369
-122.210	-200.000	-0.028	-0.139
