DTS Sentinel unit serial number:	SN413079Multiplexer serial number:	ORYXHardware model number:	OX4-SRSoftware version number:	ORYX F/W v4.00 Oryx Data Collector v3.7.2.0data status	okinstallation	princeton_trtdifferential loss correction	single-endedforward channel	channel 4reverse channel	N/Adate	2019/09/16time	13:33:35forward acquisition time	60.00reverse acquisition time	0.00gamma	496.2192k internal	0.2286k external	0.2286temperature offset calibration	0.9933default loss term (dB/km)	0.3790temperature slope calibration	1.0000multiplexer offset coefficient	1.0000multiplexer slope coefficient	1.0000fibre end	0.00T internal ref (°C)	41.89T ext. ref 1 (°C)	13.84T ext. ref 2 (°C)	40.11length (m)	temperature (°C)	Stokes	anti-Stokes-747.200	-124.214	0.252	0.041
-746.185	800.000	-0.106	0.418
-745.171	15.012	-0.102	0.082
-744.156	-200.000	0.015	0.150
-743.142	-36.317	-0.253	0.140
-742.127	90.133	-0.131	-0.150
-741.112	-200.000	-0.010	-0.113
-740.098	29.915	0.160	-0.140
-739.083	800.000	0.024	0.072
-738.069	-49.886	-0.189	0.092
-737.054	800.000	-0.048	0.176
-736.039	-79.924	-0.352	-0.121
-735.025	422.213	0.171	0.377
-734.010	-25.066	-0.168	0.102
-732.996	-200.000	-0.020	0.244
-731.981	-53.648	-0.395	-0.185
-730.966	352.023	-0.056	-0.114
-729.952	47.758	-0.228	0.219
-728.937	98.588	-0.239	-0.282
-727.923	112.066	-0.178	-0.220
-726.908	-136.132	-0.253	0.030
-725.894	407.031	0.077	-0.167
-724.879	105.104	0.195	-0.236
-723.864	276.303	0.122	-0.221
-722.850	-200.000	-0.064	-0.318
-721.835	-67.843	0.321	0.129
-720.821	-200.000	-0.020	-0.353
-719.806	-200.000	0.029	0.333
-718.791	183.662	-0.185	0.280
-717.777	104.644	-0.177	0.214
-716.762	-39.459	-0.330	-0.177
-715.748	-80.890	-0.230	-0.078
-714.733	-200.000	-0.025	-0.270
-713.718	-120.275	-0.191	-0.033
-712.704	227.027	0.118	0.196
-711.689	-12.156	-0.045	0.030
-710.675	-115.955	-0.247	-0.047
-709.660	213.364	-0.083	-0.134
-708.645	356.816	0.074	0.152
-707.631	-52.763	0.190	-0.090
-706.616	80.658	-0.269	0.297
-705.602	277.239	-0.112	-0.204
-704.587	79.158	0.149	0.164
-703.572	-47.248	-0.020	-0.010
-702.558	800.000	-0.089	0.259
-701.543	-182.032	0.204	-0.004
-700.529	-56.373	0.242	-0.110
-699.514	-137.739	0.247	-0.028
-698.499	-198.065	0.176	0.001
-697.485	92.460	0.173	-0.200
-696.470	-89.682	0.126	0.038
-695.456	-186.447	-0.185	0.003
-694.441	90.219	0.130	-0.149
-693.426	325.984	0.069	-0.136
-692.412	-200.000	-0.053	-0.253
-691.397	12.324	-0.100	0.079
-690.383	-57.772	-0.269	-0.120
-689.368	-72.207	0.119	-0.045
-688.354	147.484	0.092	0.126
-687.339	329.864	0.135	0.267
-686.324	-93.890	-0.396	-0.112
-685.310	-43.037	-0.273	0.142
-684.295	-200.000	0.049	0.225
-683.281	-146.390	0.261	-0.023
-682.266	-83.291	-0.126	0.041
-681.251	-200.000	-0.002	-0.212
-680.237	555.907	0.092	0.227
-679.222	-37.743	-0.189	-0.103
-678.208	173.704	0.110	0.162
-677.193	-25.026	0.091	-0.055
-676.178	243.798	-0.160	-0.275
-675.164	-200.000	0.022	-0.282
-674.149	-200.000	0.023	0.361
-673.135	119.361	0.264	-0.335
-672.120	478.760	-0.079	-0.183
-671.105	38.597	-0.140	0.128
-670.091	-64.478	-0.279	-0.116
-669.076	-131.976	-0.116	-0.016
-668.062	-46.012	0.323	-0.163
-667.047	183.900	0.083	-0.126
-666.032	279.197	0.130	-0.238
-665.018	-200.000	0.053	0.249
-664.003	146.726	-0.092	-0.126
-662.989	800.000	0.013	-0.040
-661.974	-200.000	0.014	0.104
-660.959	178.668	0.170	0.254
-659.945	770.812	0.113	-0.315
-658.930	97.665	0.074	0.087
-657.916	-75.766	0.274	-0.100
-656.901	116.999	-0.079	0.099
-655.886	800.000	-0.052	0.150
-654.872	800.000	0.050	0.199
-653.857	99.470	-0.083	0.098
-652.843	-27.833	0.105	-0.062
-651.828	800.000	-0.074	-0.245
-650.814	-71.850	-0.059	-0.022
-649.799	600.928	0.118	-0.300
-648.784	-24.284	0.111	-0.068
-647.770	81.440	-0.195	0.216
-646.755	-24.329	-0.111	-0.067
-645.741	800.000	-0.082	-0.334
-644.726	97.220	-0.212	-0.248
-643.711	454.460	-0.051	0.115
-642.697	-1.401	-0.099	0.072
-641.682	800.000	-0.057	-0.182
-640.668	87.116	0.070	0.079
-639.653	58.654	-0.059	-0.060
-638.638	-39.018	-0.070	-0.038
-637.624	24.500	0.221	0.187
-636.609	-16.419	-0.161	0.105
-635.595	299.150	-0.220	0.414
-634.580	-200.000	0.012	-0.195
-633.565	338.058	0.048	-0.096
-632.551	-39.519	-0.124	0.066
-631.536	19.652	-0.149	0.122
-630.522	-200.000	-0.036	0.306
-629.507	-200.000	0.002	0.205
-628.492	-80.170	0.070	-0.024
-627.478	231.477	-0.131	0.220
-626.463	334.374	0.056	-0.111
-625.449	346.160	-0.078	0.156
-624.434	-77.319	0.196	0.069
-623.419	-148.287	-0.124	0.010
-622.405	48.201	-0.200	-0.191
-621.390	-43.089	-0.101	0.052
-620.376	-146.684	-0.217	-0.019
-619.361	-107.275	0.202	-0.045
-618.346	145.783	-0.045	-0.062
-617.332	-52.131	-0.356	-0.169
-616.317	101.015	0.163	-0.194
-615.303	-74.523	0.441	0.162
-614.288	-5.898	-0.110	0.077
-613.273	-200.000	-0.036	-0.190
-612.259	79.787	0.106	-0.116
-611.244	-41.219	-0.198	0.104
-610.230	503.852	-0.143	0.339
-609.215	382.868	-0.063	-0.132
-608.201	-200.000	-0.139	-0.000
-607.186	-66.118	0.152	-0.062
-606.171	317.154	-0.094	-0.182
-605.157	75.846	0.174	-0.188
-604.142	71.067	-0.238	-0.252
-603.128	800.000	-0.146	-0.469
-602.113	236.455	0.030	0.050
-601.098	152.040	-0.148	0.205
-600.084	-175.540	-0.244	-0.007
-599.069	321.069	0.187	0.363
-598.055	-171.727	0.215	-0.007
-597.040	235.607	0.151	-0.255
-596.025	-146.643	0.436	0.039
-595.011	207.383	-0.022	-0.035
-593.996	21.738	-0.235	-0.196
-592.982	-123.120	0.204	0.033
-591.967	17.047	0.018	-0.015
-590.952	-134.860	0.136	0.017
-589.938	-52.093	-0.267	0.127
-588.923	800.000	0.022	-0.064
-587.909	-200.000	-0.031	0.184
-586.894	-200.000	0.019	0.383
-585.879	-71.260	-0.173	-0.066
-584.865	-200.000	-0.026	0.167
-583.850	648.418	-0.039	-0.103
-582.836	-12.449	-0.325	-0.216
-581.821	150.405	-0.188	-0.260
-580.806	256.766	-0.059	0.104
-579.792	65.029	0.338	0.348
-578.777	17.026	-0.062	0.050
-577.763	448.177	-0.037	-0.083
-576.748	268.304	0.185	-0.331
-575.733	-127.788	0.166	-0.024
-574.719	209.961	-0.165	0.264
-573.704	-200.000	-0.018	0.165
-572.690	30.090	-0.234	0.203
-571.675	-97.804	-0.063	-0.017
-570.661	800.000	0.064	0.192
-569.646	-75.342	0.089	-0.032
-568.631	-67.388	-0.087	-0.035
-567.617	98.489	0.193	-0.227
-566.602	328.862	0.050	-0.097
-565.588	243.322	-0.249	-0.426
-564.573	191.998	-0.120	0.185
-563.558	24.164	0.056	-0.047
-562.544	800.000	-0.058	-0.231
-561.529	-4.795	-0.227	0.160
-560.515	437.197	-0.051	0.113
-559.500	-200.000	-0.028	-0.205
-558.485	-105.727	0.193	-0.044
-557.471	184.824	-0.075	0.114
-556.456	800.000	0.048	-0.146
-555.442	22.381	0.121	0.101
-554.427	-75.763	-0.048	-0.017
-553.412	-139.787	-0.222	-0.024
-552.398	-200.000	0.015	0.268
-551.383	378.775	-0.072	-0.151
-550.369	245.717	0.164	-0.281
-549.354	-200.000	-0.029	-0.156
-548.339	-200.000	-0.010	0.280
-547.325	800.000	0.031	-0.088
-546.310	-200.000	-0.033	0.233
-545.296	-108.743	-0.310	-0.068
-544.281	85.386	-0.031	0.035
-543.266	362.487	0.045	0.092
-542.252	800.000	0.033	-0.102
-541.237	-12.000	0.158	-0.106
-540.223	-200.000	-0.005	-0.042
-539.208	-141.589	-0.206	-0.021
-538.193	800.000	-0.100	-0.298
-537.179	-200.000	-0.160	0.001
-536.164	116.239	0.138	-0.172
-535.150	218.333	0.102	-0.166
-534.135	-200.000	-0.019	-0.402
-533.121	206.848	0.067	-0.106
-532.106	-55.217	0.311	0.142
-531.091	19.982	-0.048	0.040
-530.077	127.177	0.128	-0.165
-529.062	-48.707	-0.019	0.009
-528.048	20.499	0.185	-0.152
-527.033	-144.051	0.330	0.032
-526.018	-200.000	-0.040	0.249
-525.004	-38.022	0.353	0.191
-523.989	51.997	0.111	-0.108
-522.975	132.072	0.127	0.167
-521.960	-73.128	-0.321	-0.120
-520.945	-124.732	0.267	-0.042
-519.931	-200.000	-0.011	-0.106
-518.916	102.522	0.118	0.140
-517.902	-114.254	-0.145	-0.028
-516.887	-52.228	0.220	-0.104
-515.872	279.703	0.064	-0.116
-514.858	-200.000	-0.004	0.023
-513.843	-33.871	0.152	0.085
-512.829	-118.934	-0.222	-0.040
-511.814	-150.355	-0.290	0.023
-510.799	-200.000	0.027	0.176
-509.785	-68.397	0.050	-0.020
-508.770	-3.212	-0.076	-0.054
-507.756	-76.843	0.125	0.045
-506.741	-200.000	0.003	-0.095
-505.726	800.000	-0.047	-0.186
-504.712	-57.474	-0.476	0.212
-503.697	151.082	-0.159	0.220
-502.683	-127.664	-0.099	0.015
-501.668	87.613	0.111	-0.125
-500.653	-200.000	-0.010	-0.107
-499.639	-112.067	0.206	0.042
-498.624	-90.740	0.443	-0.130
-497.610	343.821	0.198	0.394
-496.595	238.545	0.245	-0.414
-495.581	800.000	-0.042	-0.138
-494.566	361.596	0.196	0.400
-493.551	-115.616	0.392	-0.075
-492.537	-136.156	0.187	-0.022
-491.522	-37.013	-0.143	0.078
-490.508	-121.585	0.343	0.058
-489.493	44.481	-0.095	-0.089
-488.478	-25.639	-0.028	-0.017
-487.464	-200.000	0.012	0.154
-486.449	327.503	-0.153	0.299
-485.435	196.225	-0.142	-0.220
-484.420	-119.264	-0.089	0.016
-483.405	-70.600	-0.315	-0.121
-482.391	106.448	0.091	0.109
-481.376	385.895	0.089	-0.188
-480.362	-94.358	0.104	0.029
-479.347	15.645	-0.251	-0.201
-478.332	-200.000	-0.044	-0.250
-477.318	46.384	-0.090	0.084
-476.303	319.452	0.094	0.181
-475.289	436.194	-0.135	-0.299
-474.274	104.252	-0.033	0.039
-473.259	20.182	-0.209	-0.171
-472.245	-143.342	0.133	0.013
-471.230	168.006	-0.128	0.185
-470.216	-167.662	0.288	0.012
-469.201	-200.000	0.015	-0.089
-468.186	107.344	0.046	0.056
-467.172	741.492	0.091	-0.248
-466.157	338.278	0.045	-0.089
-465.143	-80.388	0.205	-0.069
-464.128	-14.565	0.183	0.119
-463.113	-138.702	0.223	-0.025
-462.099	-117.627	-0.398	0.073
-461.084	150.372	-0.091	0.125
-460.070	493.406	0.129	-0.301
-459.055	-108.121	-0.077	0.017
-458.040	-200.000	0.004	0.364
-457.026	334.529	-0.054	-0.107
-456.011	-34.602	0.127	-0.070
-454.997	-172.186	0.105	0.003
-453.982	-200.000	-0.017	0.357
-452.968	-200.000	0.055	0.290
-451.953	212.417	-0.114	-0.182
-450.938	-165.138	0.578	0.026
-449.924	101.275	-0.082	0.097
-448.909	-130.874	0.113	-0.015
-447.895	42.099	0.327	-0.301
-446.880	-54.225	-0.194	-0.090
-445.865	36.504	-0.234	0.210
-444.851	-166.661	-0.343	0.014
-443.836	800.000	0.028	-0.124
-442.822	30.171	-0.050	-0.043
-441.807	-51.638	0.119	-0.056
-440.792	-200.000	-0.008	0.049
-439.778	189.693	0.059	-0.090
-438.763	-200.000	0.081	-0.377
-437.749	499.617	0.056	0.132
-436.734	56.917	-0.131	-0.130
-435.719	-82.136	-0.184	0.061
-434.705	34.026	-0.090	0.080
-433.690	82.011	-0.270	0.297
-432.676	-60.780	-0.276	0.119
-431.661	39.933	0.078	0.071
-430.646	800.000	0.039	0.135
-429.632	-200.000	-0.008	0.160
-428.617	-31.058	-0.247	0.141
-427.603	301.744	0.075	0.140
-426.588	-47.927	-0.149	0.073
-425.573	382.260	0.039	-0.081
-424.559	-117.541	-0.264	0.048
-423.544	800.000	-0.082	0.300
-422.530	800.000	-0.113	-0.360
-421.515	45.525	-0.252	-0.236
-420.500	250.755	-0.176	0.303
-419.486	246.371	0.050	0.086
-418.471	42.903	0.248	0.230
-417.457	-29.275	0.198	0.115
-416.442	448.566	-0.037	0.082
-415.428	-55.742	0.215	0.097
-414.413	-132.662	-0.101	0.013
-413.398	46.629	-0.092	-0.087
-412.384	-200.000	-0.012	-0.319
-411.369	-200.000	0.004	0.203
-410.355	103.012	0.056	0.066
-409.340	-4.950	-0.195	-0.136
-408.325	800.000	-0.071	-0.244
-407.311	-103.047	0.120	0.029
-406.296	-76.387	-0.204	0.073
-405.282	115.074	0.146	0.181
-404.267	308.115	0.173	0.327
-403.252	-200.000	0.020	0.265
-402.238	-163.573	0.362	-0.017
-401.223	272.761	-0.111	-0.198
-400.209	207.090	0.175	0.276
-399.194	330.204	0.220	0.428
-398.179	453.977	0.191	-0.428
-397.165	-43.457	0.089	-0.046
-396.150	-58.559	0.309	0.136
-395.136	335.840	0.084	-0.165
-394.121	90.621	-0.234	0.265
-393.106	94.793	-0.136	-0.157
-392.092	-200.000	-0.029	-0.204
-391.077	-102.602	-0.190	0.046
-390.063	800.000	-0.032	-0.108
-389.048	-26.959	0.165	-0.098
-388.033	-141.275	-0.223	-0.023
-387.019	531.542	-0.037	0.089
-386.004	216.236	0.125	-0.202
-384.990	-139.859	-0.169	0.018
-383.975	-200.000	0.002	0.015
-382.960	1.092	0.270	-0.196
-381.946	-200.000	0.005	0.045
-380.931	161.845	-0.214	0.303
-379.917	6.482	-0.325	0.245
-378.902	-200.000	0.024	-0.237
-377.888	77.109	0.042	0.045
-376.873	251.444	-0.033	-0.056
-375.858	185.402	0.074	-0.111
-374.844	148.531	-0.153	0.209
-373.829	-60.877	0.192	0.082
-372.815	-132.058	-0.189	0.025
-371.800	18.019	0.149	-0.120
-370.785	716.189	-0.076	-0.203
-369.771	28.418	0.065	0.056
-368.756	-64.225	0.286	0.118
-367.742	76.964	0.055	0.059
-366.727	-200.000	-0.013	-0.125
-365.712	136.395	0.129	0.170
-364.698	284.661	0.105	0.191
-363.683	6.623	-0.312	0.235
-362.669	-120.346	0.228	-0.039
-361.654	-4.668	-0.261	0.182
-360.639	270.929	0.092	0.164
-359.625	-78.773	0.118	0.041
-358.610	306.615	0.138	0.260
-357.596	333.033	-0.068	0.134
-356.581	504.157	-0.135	-0.316
-355.566	178.588	-0.161	0.238
-354.552	20.481	0.103	-0.084
-353.537	-178.025	0.128	-0.003
-352.523	-148.867	-0.112	-0.009
-351.508	-0.442	-0.188	0.135
-350.493	35.300	0.190	-0.169
-349.479	-200.000	0.201	0.000
-348.464	299.363	-0.079	-0.146
-347.450	145.826	0.171	-0.232
-346.435	800.000	-0.087	-0.309
-345.420	800.000	0.047	0.146
-344.406	-97.091	-0.381	-0.101
-343.391	-0.597	-0.233	0.167
-342.377	39.656	0.279	0.252
-341.362	-25.908	-0.259	0.154
-340.348	178.085	0.108	0.160
-339.333	42.738	-0.104	0.096
-338.318	800.000	0.039	0.118
-337.304	20.225	0.074	0.060
-336.289	151.507	-0.098	-0.134
-335.275	-48.801	-0.051	-0.025
-334.260	-200.000	0.017	0.106
-333.245	-105.591	-0.092	-0.021
-332.231	52.330	-0.269	0.260
-331.216	84.041	-0.116	-0.128
-330.202	139.642	0.045	-0.059
-329.187	94.063	-0.141	-0.162
-328.172	53.713	0.128	0.124
-327.158	41.724	-0.207	-0.189
-326.143	-72.667	0.187	0.070
-325.129	-200.000	-0.002	0.133
-324.114	267.271	-0.152	-0.269
-323.099	-118.443	0.084	-0.015
-322.085	59.569	-0.143	0.142
-321.070	-56.168	0.401	0.180
-320.056	-60.610	-0.132	0.057
-319.041	-23.529	0.148	-0.090
-318.026	800.000	-0.080	-0.279
-317.012	-81.282	0.225	0.075
-315.997	175.822	0.145	-0.212
-314.983	-164.353	-0.407	-0.019
-313.968	200.747	-0.145	0.226
-312.953	-200.000	0.017	-0.399
-311.939	93.568	0.128	-0.146
-310.924	132.733	0.225	-0.293
-309.910	445.263	0.057	0.127
-308.895	800.000	0.051	0.217
-307.880	65.419	-0.140	0.142
-306.866	87.416	-0.308	-0.343
-305.851	-64.743	0.140	-0.057
-304.837	18.831	-0.163	-0.131
-303.822	-127.452	0.404	0.059
-302.807	-200.000	0.034	-0.184
-301.793	29.052	-0.089	0.076
-300.778	396.572	0.090	-0.191
-299.764	485.640	-0.077	-0.178
-298.749	314.817	0.177	0.336
-297.735	-82.628	0.185	0.060
-296.720	-200.000	0.012	0.122
-295.705	-65.053	-0.239	0.097
-294.691	-68.038	0.275	0.108
-293.676	187.398	-0.067	0.101
-292.662	126.188	0.015	-0.019
-291.647	76.474	-0.086	0.092
-290.632	774.999	-0.099	-0.273
-289.618	-101.408	-0.478	0.118
-288.603	800.000	0.048	0.206
-287.589	-170.004	0.065	-0.002
-286.574	-7.618	0.263	0.179
-285.559	800.000	0.110	-0.470
-284.545	137.591	0.145	-0.191
-283.530	35.267	0.391	-0.346
-282.516	-200.000	0.008	0.237
-281.501	22.125	-0.156	0.128
-280.486	-90.273	0.286	0.084
-279.472	-200.000	-0.002	0.057
-278.457	-5.245	0.070	-0.048
-277.443	800.000	0.103	-0.350
-276.428	-10.815	-0.078	0.052
-275.413	-115.260	-0.059	0.011
-274.399	-190.781	0.081	-0.001
-273.384	-200.000	0.043	-0.398
-272.370	800.000	0.028	-0.119
-271.355	-119.672	-0.191	0.033
-270.340	114.814	-0.029	0.035
-269.326	68.812	-0.121	-0.125
-268.311	211.006	-0.087	-0.138
-267.297	76.956	-0.066	-0.071
-266.282	68.467	0.027	-0.028
-265.267	-200.000	-0.039	-0.177
-264.253	26.532	-0.207	0.174
-263.238	34.324	-0.199	-0.175
-262.224	-200.000	-0.016	0.086
-261.209	78.969	-0.081	0.087
-260.195	16.651	0.215	0.172
-259.180	115.526	0.218	0.268
-258.165	-6.724	0.114	-0.078
-257.151	-169.320	-0.073	0.003
-256.136	-200.000	-0.012	-0.276
-255.122	157.182	-0.082	0.115
-254.107	169.901	0.057	-0.083
-253.092	800.000	-0.057	0.253
-252.078	-29.553	0.190	0.109
-251.063	-200.000	0.021	0.165
-250.049	784.580	-0.024	0.067
-249.034	24.379	0.192	-0.160
-248.019	219.988	-0.106	-0.171
-247.005	80.489	-0.042	0.045
-245.990	10.379	0.208	-0.160
-244.976	11.363	-0.164	-0.127
-243.961	103.256	-0.066	-0.078
-242.946	-102.005	-0.522	0.127
-241.932	0.228	0.078	-0.056
-240.917	205.138	0.050	-0.078
-239.903	-66.269	-0.221	-0.088
-238.888	-200.000	-0.003	-0.286
-237.873	800.000	0.050	-0.217
-236.859	-127.525	-0.165	0.024
-235.844	80.838	0.297	-0.323
-234.830	139.015	-0.103	-0.136
-233.815	-85.070	-0.176	0.055
-232.800	138.222	-0.104	0.138
-231.786	-135.172	-0.260	0.031
-230.771	-60.624	0.046	-0.020
-229.757	-28.565	-0.190	0.110
-228.742	666.776	-0.025	0.066
-227.727	-200.000	0.037	-0.327
-226.713	40.008	0.233	0.210
-225.698	316.133	0.093	0.176
-224.684	-39.528	0.223	-0.118
-223.669	178.817	-0.136	-0.200
-222.655	-200.000	-0.010	-0.180
-221.640	-128.534	0.204	-0.029
-220.625	174.821	0.153	0.223
-219.611	115.870	0.049	-0.060
-218.596	-100.282	-0.384	0.096
-217.582	-126.196	0.188	-0.028
-216.567	121.986	-0.043	0.054
-215.552	3.684	0.232	0.170
-214.538	-89.380	0.222	-0.066
-213.523	168.999	0.231	0.331
-212.509	-35.215	-0.129	0.071
-211.494	-93.997	-0.283	-0.078
-210.479	-79.480	0.381	-0.129
-209.465	-72.847	-0.187	-0.069
-208.450	172.438	-0.102	-0.148
-207.436	-87.731	0.251	0.076
-206.421	193.383	0.100	0.152
-205.406	300.600	-0.052	0.097
-204.392	-110.015	0.234	0.049
-203.377	-93.487	0.119	0.033
-202.363	-70.227	0.162	-0.062
-201.348	-57.592	0.220	-0.097
-200.333	713.247	0.135	0.360
-199.319	-110.130	0.173	0.036
-198.304	-87.287	-0.243	-0.074
-197.290	-95.345	-0.158	-0.043
-196.275	-35.374	0.138	-0.075
-195.260	575.552	-0.060	0.147
-194.246	-200.000	-0.001	-0.253
-193.231	49.162	-0.050	0.048
-192.217	-4.606	-0.244	0.169
-191.202	-3.954	-0.231	-0.161
-190.187	-7.561	0.163	-0.111
-189.173	-200.000	-0.020	-0.238
-188.158	-3.009	-0.227	-0.159
-187.144	770.973	0.161	0.442
-186.129	-93.845	0.065	-0.018
-185.114	242.014	0.092	0.154
-184.100	-162.742	-0.609	-0.030
-183.085	56.681	-0.131	0.129
-182.071	400.045	0.172	0.363
-181.056	302.257	0.251	0.466
-180.042	-113.419	-0.059	-0.012
-179.027	398.612	-0.090	-0.188
-178.012	800.000	-0.095	-0.312
-176.998	285.051	0.050	-0.091
-175.983	98.904	0.076	-0.088
-174.969	531.902	-0.218	0.519
-173.954	-200.000	0.026	0.134
-172.939	-134.805	0.179	0.022
-171.925	21.580	0.210	-0.172
-170.910	800.000	0.105	0.448
-169.896	-12.076	0.047	0.031
-168.881	-7.661	-0.342	-0.232
-167.866	10.271	-0.222	0.169
-166.852	75.681	-0.059	0.063
-165.837	12.661	0.082	0.064
-164.823	187.490	-0.110	-0.165
-163.808	-159.836	0.161	-0.009
-162.793	-200.000	0.061	-0.341
-161.779	-88.566	0.094	-0.028
-160.764	27.486	-0.184	0.156
-159.750	-32.961	-0.193	-0.107
-158.735	-14.485	0.066	-0.042
-157.720	-44.240	0.325	0.163
-156.706	116.589	-0.069	0.085
-155.691	329.337	-0.005	-0.010
-154.677	-23.173	0.178	0.108
-153.662	154.143	0.245	0.337
-152.647	181.674	0.213	-0.315
-151.633	-49.774	0.006	0.003
-150.618	-200.000	0.038	0.186
-149.604	59.658	-0.197	0.195
-148.589	268.887	-0.177	0.311
-147.574	-9.527	0.067	0.045
-146.560	-200.000	0.038	0.224
-145.545	800.000	0.067	-0.223
-144.531	-87.234	-0.309	-0.094
-143.516	227.465	-0.099	0.161
-142.502	567.758	-0.189	0.460
-141.487	-176.238	-0.200	0.005
-140.472	-200.000	0.039	0.202
-139.458	-67.708	0.272	-0.107
-138.443	-21.173	-0.209	0.128
-137.429	-119.376	0.229	0.040
-136.414	-25.933	-0.200	0.118
-135.399	157.803	0.241	0.334
-134.385	486.165	-0.098	0.225
-133.370	120.857	0.276	0.344
-132.356	-108.894	0.156	-0.034
-131.341	-90.603	-0.327	0.095
-130.326	481.459	-0.199	0.453
-129.312	25.777	0.108	-0.090
-128.297	800.000	-0.083	-0.243
-127.283	1.203	-0.201	-0.145
-126.268	689.558	-0.112	0.294
-125.253	580.988	0.044	-0.107
-124.239	688.059	-0.008	-0.020
-123.224	-200.000	0.003	-0.413
-122.210	-139.117	0.158	0.017
-121.195	27.023	0.178	-0.150
-120.180	800.000	-0.021	0.071
