DTS Sentinel unit serial number:	SN413079Multiplexer serial number:	ORYXHardware model number:	OX4-SRSoftware version number:	ORYX F/W v4.00 Oryx Data Collector v3.7.2.0data status	okinstallation	princeton_trtdifferential loss correction	single-endedforward channel	channel 4reverse channel	N/Adate	2019/09/14time	00:29:34forward acquisition time	60.00reverse acquisition time	0.00gamma	496.2192k internal	0.2324k external	0.2324temperature offset calibration	1.0130default loss term (dB/km)	0.3790temperature slope calibration	1.0000multiplexer offset coefficient	1.0000multiplexer slope coefficient	1.0000fibre end	0.00T internal ref (°C)	26.47T ext. ref 1 (°C)	3.17T ext. ref 2 (°C)	21.22length (m)	temperature (°C)	Stokes	anti-Stokes-747.200	800.000	0.109	0.328
-746.185	-103.934	-0.272	0.064
-745.171	-50.644	-0.078	0.037
-744.156	-200.000	-0.027	0.226
-743.142	800.000	0.075	-0.228
-742.127	-37.228	0.161	-0.087
-741.112	258.107	0.081	-0.141
-740.098	76.476	0.216	0.231
-739.083	-100.444	-0.062	-0.016
-738.069	-51.766	-0.272	0.128
-737.054	-119.726	0.315	-0.055
-736.039	120.632	0.190	-0.239
-735.025	-172.865	0.449	-0.014
-734.010	-200.000	-0.009	-0.194
-732.996	-19.371	-0.317	-0.198
-731.981	246.977	-0.135	0.231
-730.966	-23.108	-0.256	-0.156
-729.952	-200.000	-0.031	-0.136
-728.937	-86.088	0.073	-0.023
-727.923	-8.912	-0.186	-0.126
-726.908	800.000	-0.043	-0.184
-725.894	-94.483	-0.342	-0.094
-724.879	800.000	-0.091	-0.256
-723.864	-150.355	0.198	0.015
-722.850	-21.330	-0.239	0.147
-721.835	29.000	0.256	-0.219
-720.821	-197.249	0.137	0.001
-719.806	74.610	0.142	-0.151
-718.791	-57.118	-0.081	0.036
-717.777	-45.141	-0.230	0.115
-716.762	503.485	-0.082	-0.191
-715.748	-148.569	0.496	0.041
-714.733	-41.617	-0.177	0.092
-713.718	190.881	-0.181	0.274
-712.704	-18.671	0.427	-0.269
-711.689	-200.000	-0.077	0.416
-710.675	-200.000	0.038	-0.241
-709.660	-13.810	-0.235	-0.153
-708.645	-200.000	-0.034	-0.160
-707.631	-12.923	0.136	0.089
-706.616	-14.799	-0.219	-0.141
-705.602	53.360	0.261	0.252
-704.587	-34.675	0.230	0.127
-703.572	15.443	-0.117	-0.093
-702.558	174.154	-0.087	-0.126
-701.543	800.000	-0.008	0.025
-700.529	-200.000	0.007	0.207
-699.514	353.158	-0.122	0.245
-698.499	57.743	0.203	0.200
-697.485	42.374	-0.123	-0.113
-696.470	-200.000	-0.050	0.366
-695.456	51.818	-0.154	-0.148
-694.441	-69.720	-0.145	0.056
-693.426	800.000	-0.035	-0.100
-692.412	-21.646	0.223	0.137
-691.397	384.179	0.108	0.224
-690.383	298.501	-0.089	0.164
-689.368	800.000	0.036	0.108
-688.354	748.488	0.053	0.144
-687.339	265.760	-0.084	-0.148
-686.324	293.300	-0.183	-0.336
-685.310	-5.967	0.076	-0.052
-684.295	-54.487	0.133	-0.061
-683.281	-200.000	-0.028	0.173
-682.266	-6.693	-0.096	-0.066
-681.251	-124.920	0.312	-0.048
-680.237	-14.166	-0.105	-0.068
-679.222	-76.929	0.170	0.060
-678.208	79.279	0.156	0.168
-677.193	-200.000	0.024	-0.175
-676.178	-117.714	0.221	0.040
-675.164	-142.073	-0.193	0.019
-674.149	-166.475	-0.370	-0.016
-673.135	213.061	0.044	-0.069
-672.120	-200.000	-0.001	0.242
-671.105	-51.201	0.376	-0.178
-670.091	213.912	-0.064	0.102
-669.076	800.000	0.049	0.140
-668.062	-166.834	-0.236	-0.010
-667.047	30.595	0.400	-0.345
-666.032	-104.047	-0.331	-0.078
-665.018	60.058	-0.093	0.093
-664.003	66.414	-0.141	0.144
-662.989	45.910	0.110	0.103
-661.974	-200.000	-0.004	-0.088
-660.959	42.134	0.068	0.062
-659.945	-117.175	-0.223	-0.041
-658.930	603.863	0.028	0.070
-657.916	23.856	-0.432	-0.358
-656.901	54.505	-0.187	0.181
-655.886	-181.735	0.054	-0.001
-654.872	-200.000	0.042	-0.394
-653.857	-73.708	-0.025	0.009
-652.843	-33.317	-0.343	0.191
-651.828	-200.000	0.036	0.256
-650.814	214.659	-0.157	-0.250
-649.799	309.204	-0.159	-0.298
-648.784	698.757	0.107	0.282
-647.770	800.000	0.080	0.267
-646.755	253.580	-0.121	-0.207
-645.741	-63.196	-0.109	-0.045
-644.726	799.687	0.045	0.125
-643.711	222.970	-0.150	0.244
-642.697	-52.720	0.161	-0.074
-641.682	-66.616	-0.179	0.071
-640.668	-176.498	0.255	0.007
-639.653	-102.335	0.181	0.044
-638.638	-54.613	-0.049	0.022
-637.624	-200.000	0.057	0.419
-636.609	32.200	0.182	0.158
-635.595	-200.000	0.004	0.181
-634.580	-41.445	-0.254	-0.132
-633.565	197.336	-0.048	-0.074
-632.551	-78.162	-0.445	0.154
-631.536	18.712	0.073	-0.059
-630.522	800.000	-0.092	-0.321
-629.507	-56.198	-0.137	0.061
-628.492	-132.043	-0.220	-0.029
-627.478	-17.235	0.276	0.175
-626.463	29.213	-0.046	0.039
-625.449	58.235	-0.212	0.209
-624.434	164.497	0.120	-0.169
-623.419	197.592	-0.173	-0.265
-622.405	-154.724	0.359	-0.024
-621.390	-72.115	-0.136	0.051
-620.376	75.033	0.055	0.058
-619.361	91.635	0.178	-0.201
-618.346	196.774	0.099	-0.152
-617.332	-200.000	-0.002	-0.106
-616.317	-151.801	0.041	-0.003
-615.303	397.371	-0.090	-0.188
-614.288	-13.053	0.109	-0.071
-613.273	-87.514	-0.170	0.052
-612.259	-132.106	-0.100	-0.013
-611.244	-200.000	0.014	-0.172
-610.230	112.277	-0.044	-0.054
-609.215	800.000	-0.046	-0.188
-608.201	69.770	0.035	-0.037
-607.186	574.066	0.090	0.220
-606.171	57.848	-0.054	0.053
-605.157	-2.384	-0.117	0.082
-604.142	-95.416	0.383	-0.103
-603.128	-200.000	-0.070	-0.417
-602.113	215.034	-0.146	0.233
-601.098	-64.888	-0.072	-0.029
-600.084	780.290	0.102	0.280
-599.069	110.966	-0.229	-0.277
-598.055	-35.647	0.413	0.225
-597.040	-97.325	-0.174	0.045
-596.025	107.650	-0.228	-0.273
-595.011	217.848	-0.064	0.102
-593.996	-177.482	0.159	-0.004
-592.982	-51.529	-0.032	0.015
-591.967	289.666	-0.144	0.261
-590.952	800.000	-0.050	-0.144
-589.938	-47.486	0.297	-0.145
-588.923	-200.000	-0.003	0.037
-587.909	-42.689	-0.237	-0.121
-586.894	15.963	-0.225	0.178
-585.879	-130.961	-0.887	0.119
-584.865	800.000	-0.071	-0.222
-583.850	-2.358	0.172	0.121
-582.836	196.903	0.171	0.261
-581.821	60.599	-0.129	0.128
-580.806	-136.909	0.201	-0.023
-579.792	101.178	0.037	-0.043
-578.777	39.397	-0.140	-0.126
-577.763	-51.741	-0.139	-0.065
-576.748	167.979	-0.093	0.132
-575.733	-73.344	0.240	-0.088
-574.719	86.238	0.037	-0.041
-573.704	-106.397	0.415	-0.093
-572.690	10.965	0.193	-0.148
-571.675	-200.000	0.041	0.243
-570.661	713.118	0.021	0.055
-569.646	-200.000	-0.000	0.025
-568.631	539.960	0.129	0.307
-567.617	390.631	0.125	0.260
-566.602	-143.747	-0.120	0.011
-565.588	-141.549	0.254	-0.026
-564.573	338.549	-0.135	0.263
-563.558	389.158	-0.143	0.296
-562.544	294.644	-0.148	-0.271
-561.529	-122.371	0.299	-0.049
-560.515	403.649	-0.046	0.097
-559.500	-200.000	-0.021	-0.132
-558.485	-59.234	-0.462	0.199
-557.471	-165.642	0.264	-0.011
-556.456	-18.448	-0.184	0.115
-555.442	-100.966	-0.320	0.079
-554.427	-155.381	0.306	0.020
-553.412	-32.320	-0.143	-0.080
-552.398	-105.263	-0.131	-0.030
-551.383	-141.649	0.305	-0.031
-550.369	12.020	-0.210	-0.162
-549.354	-200.000	-0.008	0.102
-548.339	-200.000	-0.081	0.383
-547.325	-183.359	-0.402	-0.007
-546.310	45.539	-0.286	0.264
-545.296	324.695	-0.066	0.127
-544.281	309.791	0.093	-0.174
-543.266	335.007	-0.115	-0.222
-542.252	-200.000	0.003	0.187
-541.237	671.933	-0.074	0.191
-540.223	94.901	-0.123	0.140
-539.208	-200.000	-0.004	0.084
-538.193	-86.702	-0.215	0.066
-537.179	-125.159	-0.170	-0.026
-536.164	-58.552	-0.169	-0.073
-535.150	800.000	0.037	-0.159
-534.135	-200.000	-0.005	0.240
-533.121	4.801	0.228	-0.168
-532.106	59.164	-0.105	-0.104
-531.091	63.868	-0.205	0.206
-530.077	282.130	-0.063	-0.114
-529.062	-129.255	-0.147	-0.021
-528.048	358.902	-0.052	0.105
-527.033	-79.254	0.099	-0.034
-526.018	-122.404	-0.186	0.030
-525.004	441.002	-0.070	-0.153
-523.989	417.312	0.071	-0.152
-522.975	-119.809	0.334	0.058
-521.960	-136.131	0.345	-0.040
-520.945	800.000	0.149	0.503
-519.931	-155.751	-0.310	-0.020
-518.916	180.360	-0.058	0.084
-517.902	19.836	-0.180	-0.145
-516.887	147.060	-0.046	0.062
-515.872	307.464	0.143	-0.267
-514.858	46.976	0.121	-0.112
-513.843	101.848	0.207	-0.242
-512.829	82.660	-0.084	-0.092
-511.814	-200.000	0.013	0.212
-510.799	-86.182	-0.401	0.124
-509.785	800.000	-0.030	-0.090
-508.770	-200.000	-0.020	0.223
-507.756	-29.678	-0.237	0.135
-506.741	-130.338	-0.091	-0.012
-505.726	-200.000	0.032	-0.247
-504.712	20.099	-0.244	-0.197
-503.697	-200.000	0.027	0.207
-502.683	377.448	0.103	-0.211
-501.668	-41.092	0.043	-0.022
-500.653	-200.000	-0.042	-0.203
-499.639	-49.149	0.195	-0.093
-498.624	-125.864	-0.238	-0.036
-497.610	800.000	0.101	-0.376
-496.595	-200.000	-0.016	-0.304
-495.581	-50.885	0.383	0.180
-494.566	-200.000	0.023	-0.141
-493.551	245.378	-0.091	0.154
-492.537	-73.524	0.016	0.006
-491.522	-82.759	0.161	0.052
-490.508	-96.307	0.205	-0.054
-489.493	631.928	-0.114	-0.290
-488.478	-200.000	0.024	-0.113
-487.464	547.624	-0.079	-0.189
-486.449	-68.166	-0.176	0.069
-485.435	-159.782	-0.450	0.025
-484.420	-4.827	-0.204	-0.140
-483.405	120.936	0.042	-0.052
-482.391	-160.480	0.223	-0.012
-481.376	-64.065	0.371	0.151
-480.362	-40.326	0.111	0.058
-479.347	174.361	0.164	0.237
-478.332	-30.991	0.142	-0.080
-477.318	800.000	-0.078	0.338
-476.303	182.290	0.125	0.185
-475.289	108.191	0.216	-0.258
-474.274	-164.944	-0.517	0.023
-473.259	109.991	-0.103	0.123
-472.245	3.154	0.111	-0.081
-471.230	141.787	0.164	-0.217
-470.216	298.359	0.112	0.206
-469.201	209.897	0.094	-0.147
-468.186	203.828	0.100	0.155
-467.172	-116.405	0.154	-0.028
-466.157	-200.000	0.003	0.132
-465.143	-200.000	-0.018	-0.095
-464.128	-47.612	0.438	-0.212
-463.113	32.063	0.159	0.137
-462.099	-56.906	0.329	-0.145
-461.084	-50.185	-0.133	-0.063
-460.070	-97.713	0.111	0.029
-459.055	-200.000	-0.003	-0.106
-458.040	45.193	-0.133	0.122
-457.026	-19.845	-0.149	-0.092
-456.011	216.732	0.031	-0.049
-454.997	50.955	-0.215	-0.204
-453.982	-158.293	-0.156	-0.009
-452.968	106.998	0.175	-0.208
-451.953	38.329	0.133	-0.118
-450.938	-89.867	0.261	0.076
-449.924	-200.000	-0.016	-0.112
-448.909	-23.081	0.124	0.075
-447.895	800.000	0.063	0.258
-446.880	-14.423	0.159	-0.102
-445.865	-171.703	0.205	-0.007
-444.851	-42.559	-0.219	0.111
-443.836	-78.973	0.338	-0.115
-442.822	22.370	0.253	-0.206
-441.807	435.931	0.033	0.073
-440.792	-115.972	0.367	0.068
-439.778	57.830	0.010	-0.010
-438.763	-46.183	0.103	-0.050
-437.749	-200.000	-0.323	0.000
-436.734	800.000	-0.164	0.459
-435.719	215.523	0.256	-0.405
-434.705	-184.803	-0.411	-0.007
-433.690	173.459	0.169	-0.244
-432.676	800.000	0.048	0.205
-431.661	-190.203	-0.314	-0.003
-430.646	3.346	0.167	0.121
-429.632	0.752	-0.030	0.022
-428.617	21.298	-0.201	0.163
-427.603	-41.340	-0.009	-0.005
-426.588	210.903	-0.081	0.127
-425.573	4.998	0.250	-0.184
-424.559	-200.000	-0.017	0.191
-423.544	-42.799	0.251	-0.127
-422.530	800.000	0.049	0.161
-421.515	397.355	-0.140	-0.292
-420.500	-97.104	0.217	-0.057
-419.486	-14.702	-0.173	0.111
-418.471	-61.325	-0.238	-0.100
-417.457	790.223	-0.138	0.377
-416.442	-200.000	-0.012	0.445
-415.428	250.654	0.052	0.088
-414.413	123.175	-0.184	0.230
-413.398	-200.000	-0.098	0.449
-412.384	58.329	-0.067	-0.066
-411.369	-115.631	-0.270	0.050
-410.355	-36.408	0.037	0.020
-409.340	-180.324	0.168	0.004
-408.325	314.081	-0.057	-0.106
-407.311	6.928	-0.273	0.203
-406.296	112.901	-0.038	0.046
-405.282	-25.617	-0.220	0.129
-404.267	362.045	-0.070	-0.139
-403.252	-200.000	-0.031	0.312
-402.238	-161.430	-0.196	0.010
-401.223	-92.873	0.176	-0.049
-400.209	800.000	0.012	0.042
-399.194	800.000	-0.027	-0.105
-398.179	800.000	-0.061	0.171
-397.165	800.000	-0.064	-0.199
-396.150	-85.388	-0.336	-0.104
-395.136	104.698	-0.140	-0.165
-394.121	800.000	-0.033	0.133
-393.106	-200.000	-0.029	0.248
-392.092	-139.132	-0.056	0.006
-391.077	226.242	0.070	-0.113
-390.063	267.086	-0.067	0.117
-389.048	-200.000	0.008	0.271
-388.033	261.824	0.164	-0.283
-387.019	-200.000	0.032	0.223
-386.004	109.035	0.148	-0.176
-384.990	-94.298	0.167	0.045
-383.975	31.828	0.104	0.090
-382.960	-124.073	-0.287	0.045
-381.946	47.337	-0.100	-0.093
-380.931	-9.968	0.266	0.176
-379.917	-109.260	-0.290	0.061
-378.902	-81.588	0.274	0.090
-377.888	-200.000	-0.007	-0.263
-376.873	-156.180	-0.287	-0.018
-375.858	183.492	-0.120	-0.176
-374.844	-200.000	-0.023	0.311
-373.829	398.260	-0.075	-0.155
-372.815	13.974	0.262	-0.203
-371.800	-52.648	-0.032	0.015
-370.785	357.623	0.132	0.262
-369.771	338.776	0.038	-0.074
-368.756	-7.727	0.082	-0.055
-367.742	-159.169	-0.098	-0.005
-366.727	-18.899	0.199	0.123
-365.712	246.807	-0.055	0.092
-364.698	14.078	0.101	0.078
-363.683	-200.000	0.020	0.154
-362.669	-200.000	0.010	0.382
-361.654	619.259	-0.059	-0.146
-360.639	455.702	0.119	0.263
-359.625	-106.114	0.395	0.088
-358.610	-93.108	0.157	-0.043
-357.596	-200.000	0.021	0.544
-356.581	298.728	-0.132	-0.241
-355.566	-110.698	0.341	0.070
-354.552	800.000	-0.168	-0.527
-353.537	800.000	-0.050	-0.141
-352.523	-200.000	0.032	-0.467
-351.508	-200.000	-0.277	0.000
-350.493	-80.410	0.065	-0.022
-349.479	-58.147	-0.061	0.026
-348.464	-16.855	0.060	-0.038
-347.450	73.729	0.129	0.134
-346.435	-143.522	0.018	0.002
-345.420	237.277	0.023	-0.038
-344.406	800.000	-0.054	-0.161
-343.391	-200.000	-0.031	0.292
-342.377	-137.590	-0.350	0.039
-341.362	-200.000	0.028	-0.190
-340.348	264.995	0.055	0.095
-339.333	654.752	-0.081	0.205
-338.318	-200.000	0.038	0.216
-337.304	-119.756	0.398	-0.068
-336.289	-157.727	0.265	0.016
-335.275	494.492	0.062	-0.142
-334.260	-173.950	-0.245	-0.007
-333.245	-180.057	0.084	0.002
-332.231	74.249	0.169	-0.176
-331.216	250.277	-0.077	-0.131
-330.202	-200.000	-0.011	-0.137
-329.187	20.306	0.165	-0.132
-328.172	-200.000	-0.015	0.123
-327.158	-41.816	0.286	-0.146
-326.143	-200.000	0.028	-0.217
-325.129	-200.000	-0.011	0.264
-324.114	800.000	-0.091	0.332
-323.099	-144.881	0.320	0.029
-322.085	-200.000	-0.002	-0.082
-321.070	58.762	0.065	0.064
-320.056	104.327	-0.088	0.102
-319.041	-200.000	0.001	0.024
-318.026	233.430	0.086	0.141
-317.012	-107.732	0.371	0.080
-315.997	800.000	0.027	-0.098
-314.983	-200.000	-0.009	-0.268
-313.968	800.000	-0.092	0.304
-312.953	-37.268	0.249	0.132
-311.939	-151.975	-0.179	0.013
-310.924	-66.248	0.445	-0.176
-309.910	-35.495	-0.134	-0.072
-308.895	65.928	-0.039	-0.039
-307.880	-200.000	-0.018	-0.352
-306.866	800.000	0.073	0.276
-305.851	-200.000	-0.034	-0.150
-304.837	-64.155	0.153	0.062
-303.822	156.447	0.166	-0.227
-302.807	193.800	0.031	0.047
-301.793	-92.218	-0.117	0.033
-300.778	143.703	-0.177	-0.233
-299.764	-200.000	-0.017	-0.196
-298.749	-55.595	0.182	0.081
-297.735	-200.000	0.012	-0.080
-296.720	-200.000	0.012	-0.128
-295.705	-121.606	-0.246	-0.041
-294.691	378.002	0.102	0.208
-293.676	90.287	-0.097	-0.107
-292.662	-132.386	0.185	0.024
-291.647	192.643	-0.107	-0.161
-290.632	-60.155	0.242	-0.102
-289.618	29.805	-0.233	-0.196
-288.603	-200.000	0.037	-0.325
-287.589	138.534	-0.110	-0.143
-286.574	-6.140	-0.183	0.124
-285.559	-188.425	-0.231	-0.003
-284.545	-200.000	0.015	0.278
-283.530	-158.789	-0.241	-0.014
-282.516	463.659	-0.136	-0.301
-281.501	64.154	0.150	0.150
-280.486	415.829	0.152	0.321
-279.472	524.496	-0.138	0.323
-278.457	-115.010	0.390	-0.073
-277.443	-109.999	-0.402	0.083
-276.428	25.593	0.147	-0.121
-275.413	236.040	0.184	0.301
-274.399	-141.443	-0.226	-0.023
-273.384	-200.000	0.007	0.220
-272.370	123.692	0.145	-0.180
-271.355	-51.332	-0.164	-0.076
-270.340	-200.000	-0.024	0.179
-269.326	721.954	-0.054	-0.142
-268.311	-17.761	-0.048	0.030
-267.297	-163.517	-0.116	0.005
-266.282	44.284	-0.095	-0.087
-265.267	214.580	0.138	0.216
-264.253	439.419	-0.092	0.198
-263.238	-55.482	0.173	0.077
-262.224	-121.407	0.278	-0.046
-261.209	-163.029	0.154	0.007
-260.195	146.562	0.175	-0.233
-259.180	-8.101	0.296	0.198
-258.165	-168.142	0.115	0.004
-257.151	-200.000	-0.004	-0.219
-256.136	-115.356	-0.193	0.036
-255.122	-96.053	-0.159	-0.042
-254.107	-159.202	-0.311	-0.017
-253.092	-164.900	0.153	0.007
-252.078	0.425	-0.081	0.058
-251.063	183.580	-0.083	-0.122
-250.049	232.983	-0.120	-0.196
-249.034	800.000	0.131	-0.372
-248.019	-11.844	0.325	0.211
-247.005	-57.832	0.190	-0.082
-245.990	-81.769	-0.132	0.043
-244.976	800.000	-0.045	0.140
-243.961	338.191	0.109	0.211
-242.946	-100.440	-0.043	-0.011
-241.932	-132.717	-0.414	-0.052
-240.917	323.787	-0.137	-0.259
-239.903	-200.000	-0.018	-0.213
-238.888	-57.844	0.124	0.054
-237.873	-46.574	0.159	-0.077
-236.859	-120.246	0.219	-0.037
-235.844	-74.806	0.128	0.046
-234.830	-200.000	-0.009	-0.215
-233.815	450.502	0.061	-0.133
-232.800	407.649	0.020	-0.042
-231.786	657.287	-0.026	-0.066
-230.771	-200.000	-0.008	0.051
-229.757	34.525	-0.079	0.068
-228.742	-91.178	-0.126	0.036
-227.727	-122.864	-0.227	0.036
-226.713	203.272	0.061	0.093
-225.698	800.000	0.079	-0.228
-224.684	-54.352	-0.042	-0.019
-223.669	151.336	-0.204	-0.275
-222.655	800.000	0.056	0.208
-221.640	-126.705	-0.257	0.038
-220.625	391.210	0.051	-0.105
-219.611	-81.078	-0.062	0.020
-218.596	800.000	-0.101	-0.298
-217.582	-200.000	0.003	-0.161
-216.567	-100.412	0.213	-0.052
-215.552	800.000	-0.068	-0.188
-214.538	-73.269	-0.228	-0.083
-213.523	-30.948	0.083	-0.046
-212.509	-136.059	0.117	-0.014
-211.494	75.346	-0.126	-0.132
-210.479	-200.000	-0.037	0.286
-209.465	481.480	0.119	0.268
-208.450	33.346	0.057	-0.049
-207.436	800.000	-0.067	-0.217
-206.421	-118.359	-0.066	0.012
-205.406	142.497	0.198	-0.260
-204.392	-55.777	0.271	0.120
-203.377	195.371	-0.154	0.231
-202.363	55.515	-0.304	0.291
-201.348	-173.850	-0.168	-0.005
-200.333	31.762	-0.178	-0.152
-199.319	-89.396	-0.188	-0.055
-198.304	287.637	-0.056	0.100
-197.290	-115.516	0.308	0.057
-196.275	-49.717	0.205	-0.096
-195.260	566.728	0.150	-0.361
-194.246	505.051	-0.035	0.081
-193.231	-45.902	-0.396	-0.193
-192.217	-82.086	0.059	0.019
-191.202	-200.000	-0.001	0.151
-190.187	76.312	-0.133	0.139
-189.173	479.246	0.120	0.268
-188.158	48.467	-0.065	-0.060
-187.144	22.942	-0.063	0.051
-186.129	800.000	0.095	-0.314
-185.114	189.770	-0.126	0.187
-184.100	800.000	0.041	0.172
-183.085	-157.495	-0.160	0.009
-182.071	-20.962	0.126	-0.076
-181.056	163.378	0.074	-0.103
-180.042	102.593	-0.228	0.263
-179.027	-200.000	-0.049	0.221
-178.012	-159.310	0.146	-0.008
-176.998	-200.000	-0.007	-0.226
-175.983	-60.067	-0.323	-0.136
-174.969	-115.054	0.384	-0.072
-173.954	211.418	0.244	0.379
-172.939	122.707	-0.182	-0.224
-171.925	800.000	0.050	0.160
-170.910	131.985	0.150	-0.190
-169.896	-200.000	0.036	-0.525
-168.881	-54.256	0.268	-0.120
-167.866	-186.175	-0.107	-0.002
-166.852	143.595	-0.111	0.146
-165.837	21.359	-0.126	-0.101
-164.823	11.422	0.059	0.044
-163.808	-200.000	0.007	-0.059
-162.793	167.836	0.086	-0.120
-161.779	149.336	-0.323	-0.431
-160.764	-76.261	0.289	-0.101
-159.750	-200.000	-0.015	-0.134
-158.735	-103.481	0.139	0.032
-157.720	-127.051	-0.006	0.001
-156.706	264.134	-0.080	0.137
-155.691	185.290	0.139	0.204
-154.677	222.346	0.187	0.297
-153.662	111.717	0.115	-0.136
-152.647	151.671	-0.045	-0.060
-151.633	137.400	0.139	0.179
-150.618	653.338	0.087	-0.221
-149.604	89.174	0.014	-0.015
-148.589	-94.042	0.209	-0.057
-147.574	101.035	0.276	-0.317
-146.560	-30.704	0.110	0.061
-145.545	-86.334	0.281	0.085
-144.531	415.206	-0.031	-0.066
-143.516	520.716	0.157	-0.362
-142.502	0.367	0.124	-0.087
-141.487	-200.000	-0.045	-0.230
-140.472	695.938	-0.130	0.336
-139.458	5.512	0.098	0.072
-138.443	21.958	0.301	-0.242
-137.429	-94.564	-0.199	-0.053
-136.414	-81.888	-0.227	-0.073
-135.399	-78.192	-0.312	0.106
-134.385	-200.000	-0.044	0.338
-133.370	-75.460	0.322	0.113
-132.356	-179.814	-0.301	-0.006
-131.341	-50.926	0.029	-0.013
-130.326	153.864	0.064	-0.086
-129.312	-200.000	-0.043	-0.210
-128.297	-200.000	0.042	-0.202
-127.283	349.155	-0.248	-0.483
-126.268	80.654	-0.013	0.014
-125.253	-111.223	0.120	0.024
-124.239	11.391	0.179	-0.135
-123.224	205.670	-0.041	-0.063
