DTS Sentinel unit serial number:	SN413079Multiplexer serial number:	ORYXHardware model number:	OX4-SRSoftware version number:	ORYX F/W v4.00 Oryx Data Collector v3.7.2.0data status	okinstallation	princeton_trtdifferential loss correction	single-endedforward channel	channel 4reverse channel	N/Adate	2019/09/18time	03:29:35forward acquisition time	60.00reverse acquisition time	0.00gamma	496.2192k internal	0.2334k external	0.2334temperature offset calibration	0.9995default loss term (dB/km)	0.3790temperature slope calibration	1.0000multiplexer offset coefficient	1.0000multiplexer slope coefficient	1.0000fibre end	0.00T internal ref (°C)	22.80T ext. ref 1 (°C)	0.17T ext. ref 2 (°C)	17.43length (m)	temperature (°C)	Stokes	anti-Stokes-747.200	800.000	0.067	0.197
-746.185	-94.665	0.112	0.031
-745.171	-109.296	-0.193	-0.041
-744.156	-44.118	-0.202	-0.102
-743.142	68.385	0.198	0.204
-742.127	800.000	0.022	0.088
-741.112	-22.945	0.090	0.055
-740.098	4.866	-0.118	-0.087
-739.083	-103.803	-0.130	-0.031
-738.069	31.029	-0.045	0.039
-737.054	-13.923	-0.118	0.077
-736.039	-200.000	-0.007	0.096
-735.025	248.584	0.134	-0.229
-734.010	-43.310	0.309	-0.157
-732.996	-92.286	-0.123	0.035
-731.981	-75.225	-0.085	0.030
-730.966	19.106	0.108	0.087
-729.952	800.000	-0.056	0.210
-728.937	75.925	0.269	-0.286
-727.923	-200.000	0.000	-0.318
-726.908	81.303	0.268	0.291
-725.894	-38.970	-0.144	0.076
-724.879	-22.661	-0.231	-0.140
-723.864	350.922	-0.053	-0.105
-722.850	800.000	0.092	0.297
-721.835	-200.000	0.016	0.136
-720.821	141.872	0.192	0.256
-719.806	42.005	0.212	-0.193
-718.791	-200.000	-0.017	-0.190
-717.777	222.099	-0.102	0.165
-716.762	800.000	-0.069	0.287
-715.748	-102.423	-0.053	0.013
-714.733	-46.431	0.213	-0.105
-713.718	-77.813	0.302	0.105
-712.704	-128.056	0.111	-0.016
-711.689	14.946	-0.172	-0.135
-710.675	223.005	0.064	0.103
-709.660	512.902	0.064	0.150
-708.645	800.000	-0.041	0.117
-707.631	-18.323	0.234	0.147
-706.616	-51.874	0.253	0.118
-705.602	341.048	-0.006	-0.012
-704.587	-137.069	0.429	-0.049
-703.572	-166.177	0.188	0.008
-702.558	-112.970	0.245	-0.049
-701.543	-200.000	-0.009	0.223
-700.529	73.115	-0.057	-0.060
-699.514	-200.000	0.023	0.179
-698.499	-154.633	-0.327	0.022
-697.485	-0.042	0.287	0.205
-696.470	7.471	0.219	0.165
-695.456	-21.394	0.169	-0.104
-694.441	-200.000	-0.002	-0.107
-693.426	247.381	-0.070	-0.118
-692.412	149.192	-0.124	0.168
-691.397	-56.945	0.198	0.087
-690.383	-91.281	0.085	-0.024
-689.368	-90.666	0.157	0.046
-688.354	-200.000	-0.034	0.248
-687.339	-200.000	0.039	0.189
-686.324	800.000	0.137	0.513
-685.310	37.916	-0.127	0.113
-684.295	-86.581	0.259	0.080
-683.281	-138.722	-0.176	0.019
-682.266	83.104	0.039	0.043
-681.251	36.996	-0.105	-0.093
-680.237	-160.450	0.127	-0.007
-679.222	-138.572	-0.140	-0.015
-678.208	-79.273	-0.198	-0.067
-677.193	87.236	-0.181	-0.200
-676.178	-82.826	0.064	-0.021
-675.164	105.849	-0.108	0.129
-674.149	-200.000	-0.022	0.144
-673.135	-200.000	0.015	-0.196
-672.120	566.142	-0.065	0.157
-671.105	229.516	-0.211	0.345
-670.091	21.297	-0.236	-0.192
-669.076	-200.000	-0.000	0.264
-668.062	-47.900	-0.230	-0.111
-667.047	-8.673	-0.233	0.157
-666.032	54.898	-0.305	-0.295
-665.018	-183.783	-0.167	-0.003
-664.003	-93.303	0.155	0.043
-662.989	-160.521	0.063	0.003
-661.974	113.111	-0.182	0.221
-660.959	106.014	-0.225	0.267
-659.945	-25.095	0.189	-0.112
-658.930	116.791	-0.239	-0.294
-657.916	561.770	0.077	-0.186
-656.901	776.093	-0.081	-0.221
-655.886	-6.969	0.064	-0.044
-654.872	-200.000	-0.038	-0.338
-653.857	34.587	0.107	-0.094
-652.843	-81.379	-0.155	0.051
-651.828	-48.411	0.135	-0.065
-650.814	266.677	0.030	-0.052
-649.799	-59.802	0.092	0.040
-648.784	-200.000	-0.006	-0.127
-647.770	-101.299	-0.245	0.060
-646.755	-200.000	-0.040	-0.247
-645.741	800.000	0.055	-0.226
-644.726	-200.000	0.051	-0.403
-643.711	196.167	-0.066	0.100
-642.697	-162.898	0.305	-0.015
-641.682	-17.530	0.108	0.068
-640.668	-90.497	-0.012	-0.003
-639.653	-53.730	-0.138	-0.063
-638.638	70.883	-0.068	0.071
-637.624	188.761	0.068	0.102
-636.609	-187.754	0.205	-0.003
-635.595	185.673	0.178	-0.265
-634.580	-104.363	-0.268	-0.062
-633.565	800.000	0.018	0.073
-632.551	-64.107	-0.135	-0.055
-631.536	-200.000	-0.015	0.433
-630.522	-35.804	0.320	-0.174
-629.507	-176.621	-0.156	0.004
-628.492	-43.550	-0.190	0.096
-627.478	-200.000	-0.041	-0.455
-626.463	34.181	-0.277	-0.242
-625.449	-60.660	-0.210	-0.089
-624.434	12.054	-0.262	-0.202
-623.419	-200.000	-0.014	0.276
-622.405	340.034	0.137	-0.268
-621.390	103.717	0.268	-0.315
-620.376	118.801	0.263	0.325
-619.361	-25.386	0.138	0.082
-618.346	-200.000	0.022	-0.267
-617.332	-68.725	-0.172	-0.066
-616.317	-80.147	-0.307	0.103
-615.303	-17.766	0.063	0.040
-614.288	-136.768	0.259	-0.030
-613.273	800.000	-0.058	0.182
-612.259	-61.425	-0.273	0.115
-611.244	116.392	0.070	0.085
-610.230	-200.000	0.095	0.501
-609.215	-200.000	-0.046	0.402
-608.201	132.257	0.160	-0.206
-607.186	175.080	0.158	-0.229
-606.171	-19.680	0.203	0.125
-605.157	-131.330	0.117	0.015
-604.142	-46.097	0.170	0.084
-603.128	311.226	0.038	-0.071
-602.113	-126.656	-0.200	0.030
-601.098	237.710	-0.280	-0.464
-600.084	411.568	-0.088	0.186
-599.069	-145.089	0.199	0.018
-598.055	800.000	0.032	-0.096
-597.040	-150.969	0.077	-0.006
-596.025	20.571	-0.247	-0.200
-595.011	325.318	-0.018	-0.035
-593.996	-200.000	-0.029	0.172
-592.982	47.203	0.310	-0.289
-591.967	16.294	0.135	0.107
-590.952	328.803	0.035	-0.068
-589.938	261.502	-0.125	-0.216
-588.923	-71.809	0.187	0.070
-587.909	100.417	0.420	0.487
-586.894	800.000	0.026	0.113
-585.879	-123.916	-0.200	0.032
-584.865	-106.879	0.006	0.001
-583.850	800.000	-0.055	-0.237
-582.836	543.814	-0.083	0.198
-581.821	-87.203	-0.132	-0.040
-580.806	-17.154	0.131	-0.082
-579.792	-200.000	-0.049	-0.225
-578.777	-120.023	-0.341	-0.058
-577.763	232.574	0.226	-0.370
-576.748	-45.236	0.095	-0.047
-575.733	800.000	-0.071	0.262
-574.719	-200.000	0.009	0.322
-573.704	16.315	0.135	0.106
-572.690	-169.053	-0.183	-0.007
-571.675	800.000	0.040	0.130
-570.661	-90.247	-0.206	-0.060
-569.646	-200.000	0.008	-0.055
-568.631	177.917	-0.067	-0.098
-567.617	-170.785	0.169	-0.006
-566.602	-200.000	0.045	0.265
-565.588	100.961	-0.095	-0.111
-564.573	-23.165	0.381	0.229
-563.558	-73.469	-0.065	0.024
-562.544	-48.706	0.085	0.041
-561.529	134.197	0.437	0.565
-560.515	92.695	0.141	-0.159
-559.500	48.039	-0.137	0.128
-558.485	-62.362	0.195	0.081
-557.471	61.994	-0.113	0.112
-556.456	-164.966	-0.097	0.004
-555.442	-131.522	-0.260	-0.034
-554.427	800.000	0.098	-0.357
-553.412	-147.754	-0.325	-0.027
-552.398	0.858	-0.088	0.063
-551.383	-11.258	0.139	0.092
-550.369	-90.463	-0.145	0.042
-549.354	-50.118	-0.116	0.055
-548.339	-50.377	-0.495	0.233
-547.325	200.037	0.143	0.219
-546.310	140.458	-0.302	-0.398
-545.296	-99.234	-0.203	-0.051
-544.281	719.678	-0.137	0.364
-543.266	-88.309	0.130	-0.039
-542.252	800.000	-0.118	-0.383
-541.237	-131.133	-0.361	-0.048
-540.223	-0.716	-0.245	0.173
-539.208	-85.221	0.104	-0.032
-538.193	110.748	0.201	-0.241
-537.179	-189.251	0.098	0.001
-536.164	-200.000	0.024	0.108
-535.150	800.000	0.054	-0.191
-534.135	800.000	-0.038	0.166
-533.121	-56.997	0.067	0.029
-532.106	-158.510	-0.180	-0.010
-531.091	87.096	-0.202	-0.222
-530.077	800.000	-0.050	-0.214
-529.062	214.884	0.081	-0.128
-528.048	385.953	0.078	0.161
-527.033	-200.000	-0.036	-0.374
-526.018	68.497	-0.108	-0.111
-525.004	227.363	-0.152	-0.246
-523.989	-100.857	0.359	0.088
-522.975	35.403	-0.125	0.109
-521.960	-68.641	-0.191	0.074
-520.945	-73.280	-0.186	0.068
-519.931	-200.000	0.035	0.235
-518.916	86.660	-0.263	0.289
-517.902	-173.883	0.318	0.009
-516.887	249.663	-0.125	0.211
-515.872	-122.604	0.316	-0.051
-514.858	-55.105	0.140	-0.063
-513.843	30.706	-0.181	-0.154
-512.829	-108.155	0.283	-0.061
-511.814	-73.895	0.250	-0.091
-510.799	800.000	-0.087	-0.269
-509.785	-84.871	0.098	0.031
-508.770	-43.839	0.133	-0.066
-507.756	43.039	0.170	-0.155
-506.741	800.000	-0.020	-0.079
-505.726	-92.543	0.127	-0.036
-504.712	-143.903	0.170	0.016
-503.697	800.000	0.092	0.256
-502.683	106.018	0.108	-0.127
-501.668	-10.980	-0.101	-0.066
-500.653	-200.000	-0.003	-0.248
-499.639	-124.437	0.451	0.070
-498.624	-148.675	0.252	0.020
-497.610	27.716	-0.153	-0.128
-496.595	-99.096	0.353	-0.089
-495.581	317.457	0.180	0.340
-494.566	800.000	0.063	-0.202
-493.551	-32.126	-0.351	-0.196
-492.537	-8.809	-0.283	0.189
-491.522	-200.000	0.015	0.324
-490.508	124.106	-0.064	0.081
-489.493	281.299	-0.020	0.036
-488.478	800.000	0.081	-0.337
-487.464	-200.000	-0.021	-0.124
-486.449	-60.037	0.197	0.084
-485.435	-69.581	0.126	-0.048
-484.420	-80.391	-0.243	-0.081
-483.405	-59.430	0.463	0.198
-482.391	3.804	-0.242	-0.176
-481.376	65.426	0.198	-0.199
-480.362	-138.396	0.514	0.056
-479.347	-200.000	0.003	-0.207
-478.332	243.696	0.294	-0.491
-477.318	-63.366	-0.231	-0.095
-476.303	123.012	-0.140	0.175
-475.289	800.000	-0.110	0.321
-474.274	800.000	0.175	0.497
-473.259	-200.000	-0.021	0.123
-472.245	166.153	-0.092	-0.129
-471.230	-111.489	-0.245	-0.050
-470.216	316.285	0.117	-0.221
-469.201	-129.321	-0.203	-0.028
-468.186	-101.487	-0.038	-0.009
-467.172	264.969	-0.111	0.193
-466.157	-200.000	-0.009	0.202
-465.143	-148.578	0.201	-0.016
-464.128	-140.220	0.266	-0.028
-463.113	75.344	0.176	0.185
-462.099	-146.173	-0.389	-0.034
-461.084	-86.103	-0.066	-0.020
-460.070	-200.000	0.043	-0.266
-459.055	97.054	-0.251	-0.286
-458.040	-4.509	0.117	0.080
-457.026	-47.802	-0.273	0.131
-456.011	55.127	0.035	0.033
-454.997	-192.527	0.239	-0.002
-453.982	72.853	0.184	0.191
-452.968	-58.330	0.425	-0.184
-451.953	-164.258	-0.184	0.008
-450.938	-200.000	-0.013	-0.199
-449.924	-200.000	0.042	0.208
-448.909	753.334	-0.083	0.223
-447.895	3.197	0.202	-0.146
-446.880	176.013	0.200	-0.289
-445.865	384.434	0.107	0.219
-444.851	-133.191	0.227	-0.028
-443.836	-81.840	-0.255	0.083
-442.822	108.402	-0.022	0.026
-441.807	41.420	-0.137	-0.123
-440.792	-114.327	0.225	0.043
-439.778	17.123	0.431	-0.340
-438.763	-200.000	-0.003	-0.051
-437.749	49.540	0.198	-0.185
-436.734	-200.000	-0.031	-0.273
-435.719	50.924	0.479	0.451
-434.705	-116.885	0.204	-0.037
-433.690	-132.736	-0.189	-0.024
-432.676	342.767	0.161	0.313
-431.661	-94.987	-0.155	0.042
-430.646	-37.777	-0.181	0.096
-429.632	-200.000	-0.024	-0.138
-428.617	233.087	-0.055	-0.090
-427.603	778.937	0.104	-0.282
-426.588	-5.710	-0.141	-0.096
-425.573	-48.745	-0.207	-0.099
-424.559	-200.000	-0.115	-0.528
-423.544	-200.000	-0.031	-0.151
-422.530	-200.000	-0.032	0.261
-421.515	800.000	-0.051	0.192
-420.500	214.380	-0.134	-0.210
-419.486	-200.000	-0.074	0.331
-418.471	26.006	-0.052	0.043
-417.457	-30.277	-0.084	0.047
-416.442	110.110	-0.244	-0.291
-415.428	-156.291	-0.095	0.006
-414.413	5.781	-0.051	-0.038
-413.398	5.155	-0.139	0.102
-412.384	-200.000	-0.006	0.284
-411.369	-21.345	-0.160	0.097
-410.355	-67.358	-0.099	0.039
-409.340	-200.000	-0.045	0.213
-408.325	638.342	0.068	0.172
-407.311	185.567	-0.046	-0.067
-406.296	-17.456	0.403	0.252
-405.282	-90.067	-0.423	0.122
-404.267	640.144	-0.021	-0.054
-403.252	-200.000	-0.063	0.300
-402.238	56.020	-0.102	0.098
-401.223	390.158	-0.018	0.038
-400.209	-125.538	-0.213	0.032
-399.194	26.790	-0.211	-0.175
-398.179	-158.899	0.250	0.014
-397.165	-98.174	-0.158	-0.040
-396.150	-200.000	-0.046	-0.382
-395.136	800.000	-0.054	-0.175
-394.121	-200.000	-0.027	-0.461
-393.106	-60.835	0.282	-0.118
-392.092	-120.118	-0.193	-0.033
-391.077	-7.896	0.114	0.076
-390.063	329.815	0.063	-0.119
-389.048	42.628	-0.188	-0.170
-388.033	-105.218	0.113	-0.025
-387.019	-73.854	0.189	0.068
-386.004	506.136	0.059	0.135
-384.990	-200.000	0.016	0.121
-383.975	-94.976	0.049	-0.013
-382.960	-54.619	-0.068	0.030
-381.946	-14.675	0.029	0.019
-380.931	224.232	0.061	-0.098
-379.917	304.020	-0.122	-0.223
-378.902	-61.108	0.173	0.072
-377.888	100.126	-0.204	-0.234
-376.873	187.079	-0.107	-0.159
-375.858	-72.163	-0.182	-0.067
-374.844	800.000	0.024	0.081
-373.829	238.753	0.086	0.141
-372.815	-200.000	0.040	-0.236
-371.800	-29.896	-0.159	-0.090
-370.785	23.561	-0.136	-0.111
-369.771	292.396	-0.170	-0.307
-368.756	-102.844	0.166	0.039
-367.742	5.892	-0.267	0.195
-366.727	-75.004	0.464	-0.165
-365.712	27.354	-0.225	-0.187
-364.698	-74.724	0.180	-0.064
-363.683	-78.861	-0.142	-0.048
-362.669	-200.000	0.035	-0.159
-361.654	-52.985	-0.099	-0.045
-360.639	246.888	0.048	-0.081
-359.625	-3.383	0.067	-0.046
-358.610	-200.000	0.050	-0.315
-357.596	-79.268	0.005	0.002
-356.581	-105.749	0.045	-0.010
-355.566	-33.918	0.139	0.075
-354.552	-55.411	0.192	-0.085
-353.537	15.215	-0.205	-0.159
-352.523	1.503	0.172	0.123
-351.508	-65.588	-0.140	0.055
-350.493	-200.000	0.005	0.221
-349.479	68.287	-0.183	0.185
-348.464	494.687	0.062	0.142
-347.450	-23.318	0.139	-0.083
-346.435	-200.000	-0.015	-0.128
-345.420	5.626	-0.186	-0.136
-344.406	-59.799	0.339	0.144
-343.391	425.396	-0.099	0.210
-342.377	-200.000	0.000	0.064
-341.362	423.556	-0.055	0.117
-340.348	-200.000	0.036	-0.224
-339.333	47.429	0.249	0.230
-338.318	110.549	-0.102	-0.121
-337.304	-105.993	-0.202	0.045
-336.289	-200.000	-0.032	0.397
-335.275	-200.000	0.040	0.396
-334.260	17.887	0.271	-0.214
-333.245	-200.000	0.078	0.345
-332.231	73.949	0.225	0.233
-331.216	322.144	-0.182	-0.343
-330.202	-3.781	-0.029	-0.020
-329.187	800.000	0.052	0.155
-328.172	337.535	-0.153	0.295
-327.158	-108.008	0.134	0.029
-326.143	-51.678	-0.077	0.035
-325.129	-16.480	0.162	0.102
-324.114	-123.500	-0.200	0.031
-323.099	-37.682	0.066	-0.035
-322.085	-48.102	-0.342	0.163
-321.070	-79.613	0.176	-0.059
-320.056	0.488	-0.177	-0.125
-319.041	-59.106	0.286	0.122
-318.026	-142.793	-0.144	-0.014
-317.012	572.359	0.026	0.062
-315.997	-33.853	0.161	0.088
-314.983	-200.000	0.023	0.277
-313.968	138.405	-0.194	0.252
-312.953	147.970	-0.075	0.100
-311.939	-34.036	-0.144	0.078
-310.924	425.947	-0.064	0.137
-309.910	50.738	-0.231	0.216
-308.895	-200.000	0.000	0.194
-307.880	73.925	-0.077	0.080
-306.866	-150.759	0.257	-0.019
-305.851	-86.090	0.258	-0.079
-304.837	-199.251	-0.200	0.001
-303.822	252.699	-0.131	-0.220
-302.807	-49.063	-0.191	-0.090
-301.793	-14.895	0.218	0.138
-300.778	137.506	0.299	-0.387
-299.764	-19.831	-0.336	-0.205
-298.749	110.321	-0.173	-0.206
-297.735	-200.000	0.025	0.110
-296.720	-54.697	-0.148	0.066
-295.705	-16.719	-0.343	-0.214
-294.691	16.010	0.292	0.227
-293.676	156.293	-0.025	-0.034
-292.662	199.708	0.063	-0.095
-291.647	-200.000	0.009	0.084
-290.632	-119.049	0.269	0.047
-289.618	-24.563	-0.132	0.078
-288.603	80.431	0.267	-0.284
-287.589	-200.000	-0.063	-0.291
-286.574	28.068	-0.311	0.259
-285.559	-134.763	0.228	-0.027
-284.545	123.141	0.229	0.284
-283.530	-32.100	0.109	-0.060
-282.516	-77.718	-0.310	-0.106
-281.501	617.649	-0.043	0.107
-280.486	-139.931	0.542	-0.056
-279.472	-93.055	-0.391	-0.108
-278.457	76.868	-0.342	-0.358
-277.443	47.609	-0.205	-0.189
-276.428	153.141	0.267	-0.361
-275.413	-53.109	-0.009	-0.004
-274.399	-68.423	-0.394	0.151
-273.384	-200.000	-0.012	-0.146
-272.370	-83.807	-0.170	0.054
-271.355	800.000	0.122	-0.480
-270.340	420.432	0.120	0.253
-269.326	-80.845	0.055	-0.018
-268.311	-182.426	0.196	0.004
-267.297	-154.323	-0.639	-0.042
-266.282	-40.023	-0.046	-0.023
-265.267	-7.393	0.155	0.104
-264.253	-200.000	-0.064	-0.381
-263.238	21.787	-0.405	-0.326
-262.224	-85.001	-0.381	0.118
-261.209	-86.118	-0.185	0.056
-260.195	-117.976	0.490	-0.086
-259.180	-69.896	0.204	0.077
-258.165	-200.000	-0.018	0.187
-257.151	-106.627	0.161	0.035
-256.136	-191.759	0.106	-0.001
-255.122	800.000	-0.092	0.271
-254.107	800.000	0.001	0.005
-253.092	230.971	-0.187	0.301
-252.078	-88.455	0.215	-0.063
-251.063	116.598	-0.053	0.064
-250.049	-75.393	0.153	-0.054
-249.034	748.291	0.081	0.216
-248.019	-200.000	-0.027	0.229
-247.005	-75.743	-0.128	0.045
-245.990	-102.004	-0.177	-0.042
-244.976	47.701	0.094	-0.087
-243.961	-125.338	0.158	0.024
-242.946	393.153	0.114	-0.234
-241.932	56.844	-0.229	0.220
-240.917	15.477	-0.267	0.207
-239.903	157.206	-0.049	0.066
-238.888	-93.473	-0.067	0.018
-237.873	252.994	0.068	0.114
-236.859	236.028	0.172	0.280
-235.844	240.029	-0.093	-0.153
-234.830	-200.000	-0.000	0.109
-233.815	232.458	0.085	0.137
-232.800	-110.391	-0.059	0.012
-231.786	-82.765	-0.198	-0.063
-230.771	12.356	0.050	-0.038
-229.757	235.257	-0.125	-0.204
-228.742	-124.660	0.170	0.026
-227.727	-200.000	-0.021	0.191
-226.713	800.000	-0.086	0.248
-225.698	275.845	0.116	0.202
-224.684	108.879	0.296	-0.349
-223.669	311.504	-0.025	0.046
-222.655	-38.699	0.227	0.118
-221.640	-136.783	-0.228	0.026
-220.625	47.772	0.143	-0.132
-219.611	-200.000	-0.024	-0.224
-218.596	1.117	-0.144	-0.102
-217.582	-15.291	0.401	-0.252
-216.567	800.000	0.026	0.106
-215.552	-13.529	0.262	-0.167
-214.538	-64.644	-0.278	0.111
-213.523	-6.761	-0.179	-0.120
-212.509	-200.000	0.026	0.293
-211.494	91.996	0.033	-0.036
-210.479	34.542	0.099	0.085
-209.465	-200.000	-0.008	0.111
-208.450	38.366	-0.177	0.155
-207.436	-200.000	0.040	-0.341
-206.421	142.614	0.049	0.064
-205.406	-22.529	0.326	-0.194
-204.392	800.000	0.084	-0.310
-203.377	-200.000	0.040	0.284
-202.363	-158.342	0.108	0.006
-201.348	-125.112	0.103	0.016
-200.333	-163.191	0.267	-0.013
-199.319	670.830	-0.121	0.308
-198.304	176.357	0.128	0.183
-197.290	-200.000	0.028	0.132
-196.275	456.688	0.121	0.263
-195.260	-30.428	-0.238	0.133
-194.246	-167.134	-0.218	0.009
-193.231	-134.812	-0.206	0.025
-192.217	14.381	-0.214	-0.164
-191.202	-159.250	-0.266	0.015
-190.187	-49.496	0.167	0.078
-189.173	800.000	0.035	0.118
-188.158	-75.620	0.069	0.024
-187.144	564.040	0.212	-0.506
-186.129	800.000	-0.095	-0.345
-185.114	13.102	-0.153	0.117
-184.100	211.215	0.184	-0.285
-183.085	-52.203	0.179	-0.082
-182.071	-200.000	0.025	0.204
-181.056	262.297	0.127	0.216
-180.042	2.838	0.159	0.113
-179.027	-49.636	-0.136	-0.064
-178.012	-200.000	0.035	0.234
-176.998	-37.844	0.257	0.134
-175.983	39.125	-0.187	0.164
-174.969	-42.998	0.328	0.164
-173.954	147.807	-0.144	0.190
-172.939	576.090	-0.116	-0.279
-171.925	178.455	0.175	-0.251
-170.910	-15.294	-0.357	0.224
-169.896	-197.111	0.020	0.000
-168.881	-200.000	0.031	-0.151
-167.866	-200.000	-0.006	-0.090
-166.852	77.262	-0.162	-0.169
-165.837	116.459	0.104	0.125
-164.823	-200.000	-0.011	0.123
-163.808	800.000	0.077	0.250
-162.793	46.523	-0.373	0.340
-161.779	-124.719	0.232	-0.035
-160.764	100.966	0.147	-0.167
-159.750	-200.000	-0.004	0.343
-158.735	319.949	0.068	0.126
-157.720	800.000	-0.031	0.091
-156.706	11.111	-0.355	0.267
-155.691	-200.000	0.008	0.085
-154.677	88.576	0.173	-0.189
-153.662	-200.000	0.021	-0.099
-152.647	-141.045	-0.382	0.038
-151.633	-42.902	-0.144	-0.072
-150.618	-173.928	0.236	0.007
-149.604	-200.000	-0.002	-0.341
-148.589	-116.914	-0.110	-0.020
-147.574	102.426	-0.202	0.232
-146.560	128.112	0.063	-0.079
-145.545	394.158	0.091	0.186
-144.531	-78.706	-0.098	-0.033
-143.516	39.652	-0.216	0.190
-142.502	-139.914	-0.220	-0.023
-141.487	800.000	0.140	-0.431
-140.472	-149.354	0.085	-0.007
-139.458	-18.158	-0.103	-0.063
-138.443	-194.037	0.181	-0.001
-137.429	800.000	0.011	-0.041
-136.414	-200.000	-0.071	-0.335
-135.399	-115.606	-0.155	-0.029
-134.385	-132.342	-0.225	-0.028
-133.370	8.652	-0.169	0.125
-132.356	36.270	0.108	0.093
-131.341	388.936	0.142	0.288
-130.326	460.980	-0.187	-0.409
-129.312	-1.731	0.072	0.050
-128.297	-65.262	0.223	0.088
-127.283	35.978	-0.093	-0.080
-126.268	572.008	0.069	0.166
-125.253	-75.673	-0.433	-0.151
-124.239	154.256	0.134	-0.180
-123.224	57.351	0.217	-0.208
-122.210	-29.730	0.247	-0.138
-121.195	335.577	-0.196	-0.374
