DTS Sentinel unit serial number:	SN413079Multiplexer serial number:	ORYXHardware model number:	OX4-SRSoftware version number:	ORYX F/W v4.00 Oryx Data Collector v3.7.2.0data status	okinstallation	princeton_trtdifferential loss correction	single-endedforward channel	channel 4reverse channel	N/Adate	2019/09/12time	07:47:11forward acquisition time	60.00reverse acquisition time	0.00gamma	496.2192k internal	0.2303k external	0.2303temperature offset calibration	1.0064default loss term (dB/km)	0.3790temperature slope calibration	1.0000multiplexer offset coefficient	1.0000multiplexer slope coefficient	1.0000fibre end	0.00T internal ref (°C)	32.81T ext. ref 1 (°C)	1.63T ext. ref 2 (°C)	28.91length (m)	temperature (°C)	Stokes	anti-Stokes-747.200	-200.000	-0.002	0.154
-746.185	151.050	0.240	0.332
-745.171	-200.000	-0.057	0.326
-744.156	377.691	-0.228	0.476
-743.142	-8.352	0.078	0.053
-742.127	151.487	-0.018	-0.026
-741.112	-41.331	0.167	0.088
-740.098	50.585	-0.151	0.145
-739.083	-150.034	-0.179	0.014
-738.069	-67.628	0.222	-0.088
-737.054	386.535	-0.093	0.195
-736.039	800.000	0.052	0.166
-735.025	-161.345	0.308	0.016
-734.010	-180.002	-0.073	-0.002
-732.996	-200.000	-0.072	-0.379
-731.981	518.686	0.090	0.214
-730.966	40.351	-0.181	-0.166
-729.952	276.201	0.068	0.122
-728.937	-65.889	-0.198	0.081
-727.923	-59.192	-0.074	-0.032
-726.908	-68.121	-0.169	-0.067
-725.894	-97.735	-0.247	0.065
-724.879	800.000	-0.140	-0.429
-723.864	159.093	-0.094	-0.133
-722.850	303.753	-0.098	0.184
-721.835	-147.523	-0.400	0.034
-720.821	-200.000	0.041	0.269
-719.806	45.179	0.048	-0.045
-718.791	-124.634	-0.447	0.071
-717.777	-74.466	0.125	0.046
-716.762	-43.428	-0.117	-0.060
-715.748	800.000	-0.059	-0.197
-714.733	24.641	-0.099	-0.083
-713.718	-136.807	-0.416	0.049
-712.704	350.407	-0.042	-0.085
-711.689	-35.717	0.057	-0.032
-710.675	-200.000	-0.004	0.070
-709.660	-200.000	0.018	0.157
-708.645	800.000	0.072	0.256
-707.631	-82.774	0.137	0.045
-706.616	-109.394	-0.232	-0.050
-705.602	-10.023	0.143	-0.097
-704.587	-64.150	-0.038	-0.016
-703.572	60.292	-0.274	-0.276
-702.558	87.842	0.186	-0.209
-701.543	-200.000	-0.013	-0.108
-700.529	-57.668	0.263	-0.117
-699.514	-31.283	-0.284	0.163
-698.499	-45.674	-0.239	-0.120
-697.485	355.986	0.032	0.066
-696.470	-78.685	-0.348	-0.121
-695.456	-8.012	-0.279	0.191
-694.441	-112.402	-0.095	-0.019
-693.426	-135.647	0.152	0.018
-692.412	-35.108	0.311	0.172
-691.397	451.146	-0.120	0.270
-690.383	25.281	0.137	-0.116
-689.368	-94.645	0.148	0.041
-688.354	800.000	-0.065	0.214
-687.339	19.653	-0.139	-0.114
-686.324	119.210	0.213	-0.268
-685.310	-59.625	0.108	-0.047
-684.295	800.000	0.123	-0.500
-683.281	628.004	-0.174	-0.446
-682.266	-200.000	-0.024	0.167
-681.251	-200.000	0.030	0.190
-680.237	-51.158	-0.351	-0.167
-679.222	-128.717	-0.130	-0.019
-678.208	-149.373	-0.170	0.014
-677.193	146.288	0.118	-0.160
-676.178	-176.499	0.212	-0.006
-675.164	56.050	-0.357	0.352
-674.149	-200.000	-0.029	0.154
-673.135	-200.000	0.047	-0.269
-672.120	677.823	-0.128	-0.339
-671.105	-156.940	-0.068	-0.004
-670.091	-95.022	-0.287	0.079
-669.076	-200.000	0.029	-0.211
-668.062	465.736	0.060	0.137
-667.047	344.896	-0.037	0.073
-666.032	-35.922	-0.234	0.128
-665.018	-84.317	0.093	0.030
-664.003	-125.755	0.118	0.018
-662.989	800.000	-0.076	-0.242
-661.974	-129.396	0.149	-0.021
-660.959	-137.107	0.125	-0.014
-659.945	-118.554	-0.217	-0.039
-658.930	-69.784	-0.120	-0.046
-657.916	-141.328	0.211	0.022
-656.901	195.866	0.116	-0.179
-655.886	-81.186	-0.364	-0.122
-654.872	10.687	0.232	-0.179
-653.857	32.807	-0.433	0.381
-652.843	-142.761	0.260	-0.026
-651.828	800.000	0.099	0.347
-650.814	102.404	-0.240	0.285
-649.799	-180.888	-0.163	0.003
-648.784	-200.000	-0.037	-0.235
-647.770	146.083	-0.282	0.385
-646.755	-145.248	0.469	0.043
-645.741	-126.986	-0.194	-0.029
-644.726	-88.476	-0.117	-0.035
-643.711	22.646	-0.163	0.135
-642.697	800.000	-0.078	0.263
-641.682	-96.565	0.225	0.060
-640.668	169.494	0.124	0.180
-639.653	-73.371	-0.103	-0.038
-638.638	-56.031	-0.273	-0.123
-637.624	800.000	0.024	0.084
-636.609	0.027	0.110	-0.079
-635.595	69.685	-0.131	0.137
-634.580	242.700	-0.021	0.036
-633.565	-46.786	-0.193	-0.096
-632.551	800.000	0.102	-0.307
-631.536	-55.595	-0.203	-0.092
-630.522	-200.000	-0.000	0.094
-629.507	-12.454	0.250	-0.166
-628.492	800.000	-0.222	-0.663
-627.478	51.659	-0.311	-0.300
-626.463	428.978	0.119	-0.261
-625.449	-200.000	-0.005	-0.283
-624.434	-48.780	0.446	-0.217
-623.419	431.172	0.133	-0.292
-622.405	-25.984	-0.220	0.131
-621.390	57.390	0.114	0.113
-620.376	-128.029	0.277	0.040
-619.361	210.833	-0.105	-0.166
-618.346	176.658	-0.062	-0.091
-617.332	800.000	0.063	0.217
-616.317	590.914	-0.045	0.112
-615.303	42.301	-0.049	0.045
-614.288	42.757	-0.068	0.062
-613.273	314.197	0.077	0.148
-612.259	-200.000	0.002	-0.018
-611.244	-126.768	0.244	0.037
-610.230	132.963	0.059	0.077
-609.215	168.926	0.147	-0.212
-608.201	-200.000	-0.010	-0.169
-607.186	-55.503	0.146	-0.066
-606.171	355.120	-0.064	0.128
-605.157	144.926	-0.154	-0.208
-604.142	-120.707	-0.002	-0.000
-603.128	-200.000	0.015	0.220
-602.113	-62.326	-0.305	0.128
-601.098	-50.961	-0.346	-0.165
-600.084	486.651	0.184	-0.426
-599.069	166.864	0.084	-0.120
-598.055	-115.698	-0.233	0.044
-597.040	-109.887	0.324	0.069
-596.025	6.789	0.232	0.175
-595.011	-200.000	-0.025	-0.437
-593.996	-66.052	0.264	-0.107
-592.982	800.000	-0.068	-0.205
-591.967	660.128	0.035	0.091
-590.952	-128.265	0.160	-0.023
-589.938	-200.000	-0.015	-0.257
-588.923	3.194	0.235	0.173
-587.909	177.250	0.256	0.377
-586.894	9.460	0.136	-0.104
-585.879	-200.000	0.021	-0.190
-584.865	-23.067	0.279	-0.170
-583.850	218.852	-0.085	-0.138
-582.836	145.410	0.046	0.062
-581.821	-130.819	-0.155	-0.021
-580.806	-200.000	0.011	-0.067
-579.792	-38.167	-0.304	0.163
-578.777	59.050	-0.140	-0.139
-577.763	-200.000	0.064	-0.502
-576.748	132.634	-0.110	0.144
-575.733	-143.882	-0.055	0.005
-574.719	160.266	-0.168	-0.237
-573.704	-28.400	-0.384	0.224
-572.690	574.955	0.022	-0.054
-571.675	-130.261	-0.432	0.059
-570.661	-2.794	0.158	0.112
-569.646	-200.000	-0.061	-0.313
-568.631	-141.962	0.278	-0.028
-567.617	-77.660	-0.214	0.075
-566.602	431.596	-0.049	-0.107
-565.588	-63.555	-0.216	-0.090
-564.573	-200.000	0.052	-0.269
-563.558	-108.490	-0.065	-0.014
-562.544	-85.106	0.068	-0.022
-561.529	105.447	-0.154	0.184
-560.515	520.979	-0.031	0.074
-559.500	-200.000	-0.006	0.080
-558.485	800.000	-0.111	0.313
-557.471	-55.009	0.049	-0.022
-556.456	800.000	0.019	-0.076
-555.442	-152.867	-0.265	-0.019
-554.427	-35.534	0.194	-0.106
-553.412	-112.730	0.287	-0.058
-552.398	-36.570	-0.101	0.055
-551.383	-73.804	0.157	-0.058
-550.369	505.566	0.044	-0.102
-549.354	800.000	0.143	0.480
-548.339	-200.000	0.010	-0.089
-547.325	-33.908	-0.184	0.102
-546.310	-59.748	0.219	0.095
-545.296	-111.282	-0.375	-0.077
-544.281	-200.000	0.042	0.233
-543.266	-98.967	-0.207	0.053
-542.252	-200.000	-0.301	-0.001
-541.237	70.169	0.252	0.263
-540.223	28.363	-0.173	-0.147
-539.208	58.068	-0.270	-0.267
-538.193	-57.779	-0.481	-0.213
-537.179	115.949	0.114	-0.140
-536.164	-99.688	0.215	-0.054
-535.150	-200.000	-0.017	-0.261
-534.135	-109.773	0.259	0.055
-533.121	574.065	-0.055	0.136
-532.106	725.758	-0.080	0.215
-531.091	9.673	0.175	0.134
-530.077	-92.785	0.559	-0.158
-529.062	800.000	-0.041	0.140
-528.048	432.433	0.090	0.198
-527.033	-200.000	-0.018	0.103
-526.018	800.000	0.052	0.177
-525.004	22.826	0.193	0.159
-523.989	-94.715	-0.107	-0.029
-522.975	-200.000	0.041	0.198
-521.960	-79.391	0.049	0.017
-520.945	581.874	-0.022	-0.055
-519.931	42.418	-0.288	0.264
-518.916	-92.579	0.282	0.080
-517.902	-200.000	0.021	0.366
-516.887	-45.045	0.057	-0.029
-515.872	-130.219	0.133	-0.018
-514.858	37.638	0.130	-0.116
-513.843	-82.439	-0.129	-0.042
-512.829	-200.000	-0.012	-0.255
-511.814	800.000	0.030	0.126
-510.799	-200.000	0.006	-0.337
-509.785	616.405	0.043	0.109
-508.770	-153.571	-0.127	-0.009
-507.756	-49.208	0.324	-0.156
-506.741	800.000	-0.015	-0.062
-505.726	14.930	-0.348	0.275
-504.712	-106.114	0.308	-0.070
-503.697	-200.000	0.014	-0.190
-502.683	-200.000	-0.040	-0.250
-501.668	-144.160	0.175	0.017
-500.653	800.000	-0.085	-0.311
-499.639	-200.000	-0.008	0.047
-498.624	522.811	-0.095	0.225
-497.610	800.000	0.122	0.411
-496.595	-32.456	0.398	0.224
-495.581	44.206	-0.099	0.092
-494.566	-141.996	-0.146	-0.015
-493.551	18.925	-0.128	0.104
-492.537	-64.277	-0.115	0.047
-491.522	-200.000	-0.016	0.243
-490.508	325.122	0.112	0.217
-489.493	-74.167	0.328	-0.120
-488.478	-84.241	0.141	-0.045
-487.464	800.000	0.068	-0.261
-486.449	438.173	-0.038	-0.083
-485.435	-200.000	0.014	-0.107
-484.420	-200.000	0.000	-0.077
-483.405	-200.000	-0.015	-0.092
-482.391	695.995	0.077	0.203
-481.376	-200.000	0.026	-0.120
-480.362	48.246	-0.188	0.178
-479.347	57.036	-0.309	0.304
-478.332	-63.509	-0.233	0.096
-477.318	68.714	-0.056	0.058
-476.303	292.638	-0.043	0.080
-475.289	35.657	-0.278	0.247
-474.274	17.734	0.100	0.081
-473.259	-72.599	0.310	-0.115
-472.245	15.593	-0.128	0.101
-471.230	-194.933	0.142	-0.001
-470.216	800.000	0.022	-0.084
-469.201	-151.003	0.104	-0.008
-468.186	-16.090	-0.252	-0.161
-467.172	-200.000	0.009	-0.215
-466.157	-148.386	-0.293	-0.024
-465.143	504.694	0.057	0.134
-464.128	-200.000	-0.020	-0.146
-463.113	800.000	0.022	0.074
-462.099	332.176	0.055	0.107
-461.084	-33.579	0.392	-0.218
-460.070	-61.000	0.113	0.048
-459.055	-127.897	0.140	0.020
-458.040	-155.965	-0.337	0.022
-457.026	-138.754	0.092	-0.010
-456.011	-108.288	-0.299	-0.065
-454.997	19.459	-0.269	-0.217
-453.982	-86.762	0.306	0.094
-452.968	-200.000	0.001	0.036
-451.953	710.712	-0.017	0.046
-450.938	-200.000	-0.028	-0.193
-449.924	-64.998	0.235	-0.096
-448.909	-187.000	-0.111	-0.002
-447.895	9.594	-0.157	0.120
-446.880	-35.701	0.246	0.134
-445.865	-160.447	0.081	0.004
-444.851	542.155	-0.049	-0.118
-443.836	-200.000	0.086	0.392
-442.822	-23.558	-0.039	-0.024
-441.807	-200.000	0.003	-0.069
-440.792	172.833	-0.261	0.379
-439.778	-109.486	0.401	0.085
-438.763	800.000	-0.070	0.271
-437.749	47.269	-0.166	0.155
-436.734	-60.181	-0.058	-0.025
-435.719	-200.000	-0.052	-0.265
-434.705	800.000	0.077	-0.225
-433.690	-200.000	0.004	0.124
-432.676	800.000	-0.058	-0.224
-431.661	-134.451	0.170	0.021
-430.646	-23.874	0.062	0.037
-429.632	241.882	-0.153	-0.258
-428.617	-200.000	-0.049	-0.227
-427.603	114.983	0.156	-0.191
-426.588	-200.000	-0.000	0.423
-425.573	-200.000	0.028	0.221
-424.559	301.023	0.080	-0.149
-423.544	-200.000	0.025	-0.261
-422.530	-166.282	-0.449	-0.019
-421.515	153.715	-0.070	0.096
-420.500	-85.126	0.257	0.081
-419.486	71.067	-0.112	0.116
-418.471	-92.484	-0.105	-0.030
-417.457	-10.985	-0.293	-0.194
-416.442	800.000	0.041	0.116
-415.428	-200.000	0.007	0.439
-414.413	105.808	-0.144	-0.171
-413.398	-67.133	0.092	-0.037
-412.384	-200.000	-0.039	0.178
-411.369	174.573	-0.198	-0.287
-410.355	800.000	-0.031	0.117
-409.340	50.285	-0.159	-0.151
-408.325	-200.000	0.001	-0.296
-407.311	400.962	0.083	0.175
-406.296	-45.827	-0.072	0.036
-405.282	-200.000	0.000	0.136
-404.267	-200.000	0.003	-0.156
-403.252	27.191	-0.184	-0.155
-402.238	-43.467	-0.324	-0.165
-401.223	800.000	0.027	0.095
-400.209	-44.999	-0.077	-0.038
-399.194	420.367	-0.086	-0.185
-398.179	5.262	0.148	0.110
-397.165	437.865	0.105	-0.231
-396.150	-161.528	0.234	0.012
-395.136	-33.131	0.265	-0.148
-394.121	61.671	0.206	-0.206
-393.106	-38.493	0.178	-0.094
-392.092	428.877	-0.131	-0.285
-391.077	-97.981	0.304	-0.079
-390.063	800.000	0.100	-0.372
-389.048	-105.331	-0.189	0.043
-388.033	201.835	-0.069	-0.107
-387.019	-85.171	-0.349	0.110
-386.004	157.787	-0.237	-0.329
-384.990	-25.853	0.248	0.147
-383.975	241.477	0.285	0.477
-382.960	800.000	-0.085	0.256
-381.946	46.791	0.305	-0.285
-380.931	-200.000	-0.063	-0.568
-379.917	492.214	0.129	-0.297
-378.902	-200.000	0.006	0.065
-377.888	-137.906	0.272	0.030
-376.873	-78.785	0.360	-0.123
-375.858	167.731	-0.144	-0.205
-374.844	-200.000	-0.010	-0.279
-373.829	49.961	-0.087	0.082
-372.815	62.816	-0.076	-0.076
-371.800	681.095	-0.121	-0.316
-370.785	-200.000	-0.021	0.122
-369.771	-160.457	0.371	0.020
-368.756	-144.922	-0.199	0.018
-367.742	-92.449	-0.093	0.026
-366.727	254.290	-0.018	-0.032
-365.712	-200.000	-0.044	0.313
-364.698	800.000	0.052	0.185
-363.683	-30.313	0.300	0.171
-362.669	199.502	-0.105	-0.161
-361.654	800.000	0.055	-0.160
-360.639	-143.250	0.099	0.010
-359.625	-160.443	0.244	0.013
-358.610	-63.206	-0.065	0.027
-357.596	800.000	-0.052	0.210
-356.581	131.062	-0.150	-0.193
-355.566	-200.000	-0.009	0.411
-354.552	-98.603	-0.325	-0.083
-353.537	198.559	-0.045	-0.068
-352.523	79.471	0.141	-0.152
-351.508	32.150	-0.065	0.056
-350.493	800.000	0.028	0.091
-349.479	-47.874	0.327	-0.159
-348.464	43.621	0.307	0.282
-347.450	216.032	0.141	0.224
-346.435	33.520	0.336	0.293
-345.420	168.492	-0.206	0.294
-344.406	15.883	-0.246	0.194
-343.391	729.277	0.057	-0.154
-342.377	7.590	-0.245	0.184
-341.362	49.095	0.250	0.235
-340.348	800.000	-0.104	0.410
-339.333	-28.574	0.022	-0.013
-338.318	-200.000	-0.026	-0.196
-337.304	-149.247	0.118	-0.009
-336.289	485.458	-0.078	0.177
-335.275	800.000	-0.053	-0.212
-334.260	89.524	0.115	-0.128
-333.245	-200.000	0.016	0.157
-332.231	52.182	0.292	-0.279
-331.216	-200.000	-0.001	0.003
-330.202	800.000	-0.033	0.109
-329.187	-200.000	0.011	-0.140
-328.172	1.162	0.147	-0.106
-327.158	800.000	0.039	0.139
-326.143	80.581	0.158	0.171
-325.129	-200.000	0.034	-0.154
-324.114	-108.328	-0.325	0.070
-323.099	-110.515	0.135	-0.028
-322.085	-53.844	-0.214	0.098
-321.070	-159.988	-0.227	0.012
-320.056	200.834	-0.269	-0.415
-319.041	800.000	0.016	0.065
-318.026	800.000	-0.089	-0.288
-317.012	-105.549	0.269	0.061
-315.997	800.000	-0.099	-0.368
-314.983	-140.693	-0.135	-0.014
-313.968	35.578	0.315	0.277
-312.953	382.436	0.149	0.307
-311.939	394.542	-0.104	-0.216
-310.924	-7.417	0.124	-0.084
-309.910	-62.081	-0.058	-0.024
-308.895	-71.741	0.424	-0.158
-307.880	31.373	0.289	0.249
-306.866	-17.078	0.194	0.123
-305.851	73.427	0.324	0.340
-304.837	-55.229	-0.102	-0.046
-303.822	333.078	0.102	0.197
-302.807	-200.000	-0.000	-0.095
-301.793	42.469	-0.184	-0.167
-300.778	-200.000	-0.034	0.211
-299.764	-74.008	0.122	-0.044
-298.749	-158.096	-0.241	-0.014
-297.735	-200.000	-0.002	0.054
-296.720	-200.000	-0.018	-0.094
-295.705	-98.268	0.103	-0.026
-294.691	54.829	-0.261	-0.252
-293.676	-56.676	0.080	0.036
-292.662	-87.309	-0.220	-0.067
-291.647	87.736	0.059	0.065
-290.632	27.955	0.120	0.102
-289.618	-200.000	0.041	0.189
-288.603	140.155	0.091	-0.120
-287.589	-32.705	0.115	0.064
-286.574	-200.000	-0.099	-0.463
-285.559	800.000	-0.080	0.259
-284.545	199.662	-0.150	-0.230
-283.530	-14.802	-0.358	-0.230
-282.516	-46.274	-0.224	0.110
-281.501	696.578	-0.110	0.290
-280.486	-95.682	-0.024	-0.006
-279.472	-88.082	-0.011	-0.003
-278.457	800.000	-0.083	0.279
-277.443	800.000	0.039	-0.115
-276.428	-200.000	0.028	0.424
-275.413	-200.000	-0.035	0.192
-274.399	499.781	0.105	-0.241
-273.384	800.000	0.035	0.138
-272.370	-168.553	-0.169	0.006
-271.355	393.712	-0.035	0.073
-270.340	320.810	-0.114	0.216
-269.326	-128.041	-0.089	-0.013
-268.311	57.599	-0.072	-0.071
-267.297	-200.000	-0.055	0.240
-266.282	765.982	-0.119	-0.324
-265.267	-58.120	-0.309	0.135
-264.253	159.366	-0.170	-0.236
-263.238	-33.387	0.368	0.203
-262.224	329.475	-0.106	0.204
-261.209	800.000	0.057	-0.239
-260.195	-79.383	-0.183	0.062
-259.180	101.536	-0.178	-0.208
-258.165	-200.000	-0.040	-0.183
-257.151	313.295	-0.048	0.091
-256.136	169.669	0.074	0.106
-255.122	-92.772	-0.040	0.011
-254.107	-104.625	-0.175	0.040
-253.092	-200.000	-0.042	-0.481
-252.078	-21.646	0.310	0.189
-251.063	56.765	-0.186	0.181
-250.049	76.499	-0.133	-0.141
-249.034	-61.992	-0.154	0.064
-248.019	800.000	0.013	-0.053
-247.005	-200.000	-0.061	-0.354
-245.990	800.000	0.057	0.177
-244.976	-155.410	0.081	0.005
-243.961	313.320	-0.183	0.343
-242.946	45.698	0.102	0.095
-241.932	205.880	-0.137	-0.213
-240.917	2.928	0.111	-0.080
-239.903	-51.480	0.240	-0.112
-238.888	-46.300	0.059	-0.029
-237.873	1.419	0.206	0.148
-236.859	-26.722	0.093	0.054
-235.844	-127.631	0.120	0.017
-234.830	82.837	0.049	-0.053
-233.815	-137.912	-0.207	-0.023
-232.800	800.000	0.071	0.266
-231.786	-91.565	0.171	-0.049
-230.771	-200.000	-0.003	-0.161
-229.757	-70.893	-0.237	0.089
-228.742	-2.610	0.046	-0.032
-227.727	778.570	0.050	0.137
-226.713	160.716	0.025	-0.034
-225.698	-15.160	-0.226	-0.145
-224.684	199.094	0.237	0.363
-223.669	-200.000	0.056	0.369
-222.655	25.442	-0.073	0.061
-221.640	88.952	0.106	-0.118
-220.625	225.091	0.165	0.267
-219.611	-200.000	0.039	0.313
-218.596	-57.258	0.321	0.141
-217.582	-200.000	-0.059	-0.518
-216.567	-200.000	-0.007	0.231
-215.552	-53.281	-0.101	-0.046
-214.538	2.084	-0.134	-0.097
-213.523	-200.000	-0.047	0.245
-212.509	800.000	-0.046	-0.187
-211.494	237.220	0.050	-0.082
-210.479	136.560	0.130	-0.170
-209.465	-83.777	-0.052	0.016
-208.450	-48.005	0.179	0.087
-207.436	63.580	-0.257	0.257
-206.421	800.000	0.035	0.114
-205.406	800.000	-0.041	-0.140
-204.392	-129.834	0.188	-0.026
-203.377	440.632	-0.173	-0.377
-202.363	336.758	0.076	-0.147
-201.348	398.991	0.073	-0.153
-200.333	361.547	0.061	-0.121
-199.319	-200.000	-0.040	0.469
-198.304	712.300	0.139	0.366
-197.290	579.285	-0.006	-0.016
-196.275	-200.000	-0.002	-0.246
-195.260	146.554	0.165	0.220
-194.246	-57.276	0.258	-0.113
-193.231	-200.000	-0.013	-0.153
-192.217	-5.805	-0.237	0.162
-191.202	191.763	-0.234	0.351
-190.187	-11.660	-0.132	0.086
-189.173	-32.481	-0.209	0.116
-188.158	616.643	0.064	0.161
-187.144	318.285	0.167	0.315
-186.129	247.131	0.222	-0.373
-185.114	-154.369	-0.165	0.011
-184.100	-200.000	-0.015	-0.149
-183.085	-14.917	-0.043	-0.027
-182.071	101.189	-0.026	0.030
-181.056	356.562	-0.188	-0.374
-180.042	376.661	0.137	-0.280
-179.027	33.906	0.056	-0.048
-178.012	-200.000	0.006	0.123
-176.998	800.000	0.031	0.095
-175.983	-3.140	-0.109	-0.076
-174.969	-130.682	-0.293	-0.039
-173.954	-200.000	0.017	-0.186
-172.939	-102.031	0.279	0.067
-171.925	800.000	0.057	0.229
-170.910	800.000	0.083	0.257
-169.896	488.563	-0.033	0.075
-168.881	-182.573	-0.167	0.003
-167.866	428.487	0.096	0.208
-166.852	452.694	-0.106	-0.233
-165.837	209.276	0.128	0.200
-164.823	574.590	0.102	0.248
-163.808	557.974	0.023	-0.055
-162.793	-117.650	0.268	-0.048
-161.779	88.678	-0.121	-0.134
-160.764	-200.000	0.032	0.342
-159.750	-165.032	-0.098	0.004
-158.735	-154.853	-0.380	-0.025
-157.720	-128.779	-0.407	-0.057
-156.706	-18.123	0.205	0.127
-155.691	-138.268	0.440	0.048
-154.677	-79.005	-0.475	-0.161
-153.662	188.124	0.019	-0.028
-152.647	-150.812	0.105	0.008
-151.633	144.799	-0.076	0.101
-150.618	-200.000	0.039	0.310
-149.604	-63.849	0.527	0.215
-148.589	-40.401	-0.018	-0.010
-147.574	225.175	0.091	0.146
-146.560	337.943	0.023	0.045
-145.545	-200.000	-0.009	-0.067
-144.531	69.659	-0.223	-0.229
-143.516	625.110	0.151	0.378
-142.502	271.573	0.173	0.303
-141.487	-140.997	0.044	0.005
-140.472	-200.000	0.010	0.279
-139.458	-96.187	-0.218	0.057
-138.443	-200.000	0.157	0.000
-137.429	189.433	-0.079	0.117
-136.414	-86.413	-0.118	0.036
-135.399	-200.000	-0.006	0.096
-134.385	-200.000	-0.023	0.169
-133.370	-76.915	-0.214	-0.074
-132.356	-101.140	0.037	-0.009
-131.341	61.306	0.052	0.052
-130.326	-200.000	-0.023	-0.112
-129.312	-85.143	-0.243	0.076
-128.297	-20.266	0.183	0.112
-127.283	-200.000	0.021	0.164
-126.268	800.000	0.026	0.072
-125.253	60.199	-0.124	0.122
-124.239	-193.531	-0.146	-0.001
-123.224	800.000	0.040	0.112
-122.210	29.877	0.119	-0.101
