DTS Sentinel unit serial number:	SN413079Multiplexer serial number:	ORYXHardware model number:	OX4-SRSoftware version number:	ORYX F/W v4.00 Oryx Data Collector v3.7.2.0data status	okinstallation	princeton_trtdifferential loss correction	single-endedforward channel	channel 4reverse channel	N/Adate	2019/09/12time	08:23:10forward acquisition time	60.00reverse acquisition time	0.00gamma	496.2192k internal	0.2302k external	0.2302temperature offset calibration	1.0065default loss term (dB/km)	0.3790temperature slope calibration	1.0000multiplexer offset coefficient	1.0000multiplexer slope coefficient	1.0000fibre end	0.00T internal ref (°C)	33.55T ext. ref 1 (°C)	1.70T ext. ref 2 (°C)	30.05length (m)	temperature (°C)	Stokes	anti-Stokes-747.200	796.186	0.073	0.206
-746.185	-0.598	0.332	0.240
-745.171	-90.459	0.469	0.138
-744.156	93.647	-0.117	0.135
-743.142	40.037	-0.064	-0.058
-742.127	580.498	0.134	0.334
-741.112	-28.630	0.132	0.078
-740.098	40.121	-0.264	0.242
-739.083	800.000	0.124	-0.547
-738.069	800.000	-0.125	0.505
-737.054	-44.795	0.208	-0.106
-736.039	-87.771	-0.087	-0.027
-735.025	614.469	0.107	0.273
-734.010	-18.964	-0.055	-0.035
-732.996	800.000	-0.113	-0.369
-731.981	91.423	-0.033	-0.038
-730.966	375.257	0.057	0.118
-729.952	-200.000	0.013	0.089
-728.937	-153.344	-0.223	-0.016
-727.923	-171.383	-0.028	0.001
-726.908	338.237	0.129	0.256
-725.894	-83.192	-0.211	-0.069
-724.879	-200.000	0.016	-0.296
-723.864	800.000	-0.034	-0.150
-722.850	622.095	-0.102	-0.261
-721.835	-167.304	-0.432	-0.018
-720.821	63.090	-0.110	-0.112
-719.806	-99.242	-0.063	0.016
-718.791	-142.380	-0.150	-0.015
-717.777	-200.000	0.036	0.213
-716.762	-11.659	-0.212	-0.142
-715.748	46.917	0.127	-0.121
-714.733	800.000	0.137	-0.419
-713.718	-166.940	0.669	0.028
-712.704	157.286	0.086	-0.121
-711.689	-12.565	-0.149	0.099
-710.675	-164.518	0.197	-0.009
-709.660	-43.415	-0.153	0.079
-708.645	800.000	-0.046	0.176
-707.631	-108.508	0.151	0.033
-706.616	-6.659	-0.091	-0.063
-705.602	6.860	0.110	0.084
-704.587	93.799	-0.165	0.190
-703.572	575.113	0.137	0.339
-702.558	-76.840	-0.172	0.061
-701.543	306.658	-0.188	0.356
-700.529	32.921	0.170	0.150
-699.514	-29.371	-0.048	0.028
-698.499	103.924	-0.223	-0.266
-697.485	-60.651	-0.102	0.044
-696.470	-86.968	-0.190	0.059
-695.456	547.388	0.154	0.374
-694.441	425.865	0.109	-0.240
-693.426	-59.461	0.347	0.152
-692.412	-124.950	0.460	-0.072
-691.397	-100.003	-0.253	-0.064
-690.383	150.775	0.234	-0.324
-689.368	-130.109	0.158	-0.022
-688.354	-32.465	-0.328	-0.186
-687.339	800.000	0.080	-0.266
-686.324	-182.972	-0.086	0.002
-685.310	67.878	0.220	-0.228
-684.295	-38.908	0.193	0.104
-683.281	-200.000	-0.042	-0.402
-682.266	-83.840	0.475	-0.154
-681.251	29.629	0.060	0.052
-680.237	209.574	-0.187	0.299
-679.222	21.001	0.169	0.139
-678.208	-91.890	0.067	0.019
-677.193	-200.000	-0.009	-0.132
-676.178	92.796	-0.154	-0.177
-675.164	-130.915	-0.262	-0.036
-674.149	-81.350	-0.196	-0.066
-673.135	343.226	-0.115	0.228
-672.120	-22.550	-0.224	-0.137
-671.105	80.701	-0.166	0.182
-670.091	114.342	0.101	0.125
-669.076	170.306	0.134	-0.195
-668.062	-92.535	0.056	0.016
-667.047	-30.231	-0.316	0.182
-666.032	800.000	-0.083	0.315
-665.018	800.000	0.007	0.028
-664.003	-200.000	-0.061	-0.333
-662.989	11.703	0.148	0.115
-661.974	-143.681	0.255	0.025
-660.959	-200.000	-0.005	0.046
-659.945	136.142	0.239	-0.316
-658.930	800.000	0.032	0.112
-657.916	-200.000	0.002	0.150
-656.901	-200.000	0.010	0.045
-655.886	6.283	0.245	-0.184
-654.872	-19.616	0.284	0.179
-653.857	-8.553	0.308	0.210
-652.843	-200.000	0.019	-0.171
-651.828	-91.049	0.323	-0.094
-650.814	-85.916	-0.231	-0.073
-649.799	-67.794	-0.294	0.117
-648.784	-18.399	-0.404	-0.256
-647.770	431.508	0.025	0.054
-646.755	800.000	-0.067	-0.289
-645.741	170.741	-0.232	-0.337
-644.726	-117.297	-0.162	-0.030
-643.711	10.572	0.224	-0.174
-642.697	-200.000	0.028	0.151
-641.682	447.998	-0.141	0.314
-640.668	40.627	-0.091	-0.084
-639.653	-81.599	0.125	0.042
-638.638	217.862	0.098	0.159
-637.624	-117.485	-0.245	0.045
-636.609	-15.162	-0.184	0.120
-635.595	55.647	0.242	0.238
-634.580	-200.000	-0.020	0.267
-633.565	-200.000	-0.005	-0.084
-632.551	210.403	-0.094	0.149
-631.536	-67.058	-0.257	0.103
-630.522	-200.000	0.039	-0.238
-629.507	-14.571	-0.211	-0.138
-628.492	-18.408	-0.175	-0.111
-627.478	182.251	-0.157	-0.235
-626.463	300.454	0.131	0.246
-625.449	-113.714	-0.406	0.080
-624.434	148.184	-0.128	0.176
-623.419	315.375	0.120	0.230
-622.405	800.000	-0.029	-0.091
-621.390	-200.000	-0.020	-0.132
-620.376	-71.754	-0.369	-0.139
-619.361	-49.056	0.375	0.182
-618.346	-112.651	0.265	-0.053
-617.332	-183.051	0.136	0.002
-616.317	-200.000	0.032	-0.150
-615.303	-24.157	0.220	-0.133
-614.288	-64.777	0.275	0.113
-613.273	-200.000	-0.023	0.171
-612.259	-200.000	0.019	-0.153
-611.244	-100.614	0.206	-0.052
-610.230	34.615	0.217	-0.192
-609.215	-86.619	0.084	0.026
-608.201	-200.000	-0.020	0.116
-607.186	102.188	-0.061	0.072
-606.171	614.317	0.103	0.260
-605.157	49.715	-0.117	0.111
-604.142	-33.573	-0.203	0.114
-603.128	-79.252	-0.061	0.021
-602.113	-200.000	-0.001	-0.168
-601.098	-56.630	-0.242	0.109
-600.084	39.857	0.205	-0.187
-599.069	102.080	-0.136	0.160
-598.055	152.362	-0.143	-0.198
-597.040	-81.400	-0.405	-0.135
-596.025	168.421	0.182	-0.263
-595.011	229.100	-0.203	-0.336
-593.996	-200.000	-0.007	-0.036
-592.982	199.888	-0.177	0.276
-591.967	74.188	-0.249	0.265
-590.952	323.721	0.017	0.033
-589.938	800.000	0.112	-0.402
-588.923	108.230	0.164	0.198
-587.909	800.000	-0.017	-0.065
-586.894	-125.232	0.319	-0.049
-585.879	-140.159	-0.154	-0.016
-584.865	-200.000	0.008	-0.255
-583.850	800.000	-0.012	0.043
-582.836	39.348	0.047	0.043
-581.821	168.524	0.222	-0.321
-580.806	106.859	-0.209	-0.251
-579.792	311.653	-0.040	0.076
-578.777	-200.000	-0.015	0.176
-577.763	-68.432	-0.087	0.034
-576.748	25.720	0.075	0.064
-575.733	-200.000	-0.021	-0.170
-574.719	-117.478	0.274	-0.050
-573.704	105.115	-0.059	0.071
-572.690	-121.630	-0.281	-0.047
-571.675	66.761	-0.329	0.339
-570.661	101.503	0.093	-0.109
-569.646	-11.324	-0.202	-0.134
-568.631	108.367	-0.107	0.129
-567.617	326.819	-0.206	0.399
-566.602	-142.272	-0.383	-0.038
-565.588	133.974	0.057	-0.074
-564.573	273.547	0.061	-0.109
-563.558	120.347	0.168	-0.211
-562.544	-10.342	0.047	0.031
-561.529	-135.371	-0.134	0.016
-560.515	168.316	-0.126	-0.181
-559.500	-28.952	-0.170	-0.099
-558.485	-119.967	-0.047	-0.008
-557.471	-151.961	-0.296	0.022
-556.456	-200.000	0.014	-0.077
-555.442	-92.744	0.220	-0.062
-554.427	-200.000	0.040	-0.360
-553.412	5.444	-0.079	0.059
-552.398	134.409	-0.062	0.081
-551.383	50.258	-0.249	0.238
-550.369	-200.000	0.019	0.297
-549.354	-2.824	0.243	0.172
-548.339	372.696	-0.050	0.104
-547.325	-7.969	-0.181	0.124
-546.310	-198.496	-0.271	-0.002
-545.296	85.717	-0.085	0.095
-544.281	429.003	-0.093	-0.204
-543.266	181.301	-0.084	0.125
-542.252	-84.810	0.234	-0.074
-541.237	11.862	0.236	0.183
-540.223	417.845	0.108	0.234
-539.208	-131.567	-0.243	-0.032
-538.193	-200.000	-0.018	0.152
-537.179	420.878	0.112	0.242
-536.164	-200.000	-0.076	0.339
-535.150	800.000	-0.057	0.211
-534.135	-14.381	0.103	0.067
-533.121	172.292	-0.146	-0.213
-532.106	146.337	0.124	0.168
-531.091	63.555	-0.076	-0.077
-530.077	234.456	0.149	-0.248
-529.062	69.765	0.088	-0.092
-528.048	447.130	-0.082	0.181
-527.033	13.803	0.227	-0.178
-526.018	-136.125	0.121	-0.014
-525.004	-130.441	-0.160	-0.022
-523.989	-69.577	-0.212	0.082
-522.975	5.461	0.260	-0.194
-521.960	-75.462	-0.219	-0.079
-520.945	-39.488	0.266	-0.141
-519.931	800.000	-0.043	-0.132
-518.916	-200.000	-0.009	-0.058
-517.902	-89.520	0.237	0.070
-516.887	61.327	-0.166	-0.166
-515.872	-200.000	-0.012	-0.125
-514.858	800.000	-0.069	-0.228
-513.843	186.053	-0.096	-0.145
-512.829	-3.110	0.132	-0.093
-511.814	-200.000	-0.071	0.388
-510.799	27.334	-0.252	0.214
-509.785	192.206	-0.046	-0.070
-508.770	296.284	-0.172	-0.318
-507.756	-84.169	0.188	0.060
-506.741	800.000	-0.079	-0.271
-505.726	151.648	-0.165	0.227
-504.712	319.946	0.032	-0.060
-503.697	-110.807	0.594	-0.124
-502.683	123.634	-0.041	0.051
-501.668	440.545	0.012	0.027
-500.653	-200.000	0.001	-0.334
-499.639	800.000	0.158	-0.466
-498.624	-200.000	-0.041	0.185
-497.610	81.585	0.089	-0.098
-496.595	303.853	0.097	-0.181
-495.581	-111.433	0.479	-0.099
-494.566	-109.462	-0.150	0.032
-493.551	-171.938	-0.309	-0.010
-492.537	-133.059	0.205	-0.026
-491.522	-109.012	0.295	0.064
-490.508	-68.726	0.299	-0.117
-489.493	-35.745	-0.059	-0.032
-488.478	-144.887	0.241	0.022
-487.464	205.354	0.036	0.056
-486.449	-168.469	-0.236	0.009
-485.435	280.689	-0.097	0.175
-484.420	465.848	0.152	0.343
-483.405	800.000	-0.006	-0.018
-482.391	-43.275	0.153	-0.078
-481.376	-187.338	-0.332	-0.005
-480.362	0.302	0.267	0.192
-479.347	-200.000	0.040	0.310
-478.332	-121.567	-0.214	0.036
-477.318	-29.780	-0.041	-0.023
-476.303	144.500	0.040	-0.054
-475.289	-22.180	-0.161	0.098
-474.274	800.000	0.037	-0.111
-473.259	-77.975	0.209	0.073
-472.245	319.760	-0.067	0.128
-471.230	36.803	0.093	-0.083
-470.216	800.000	0.044	-0.129
-469.201	-40.844	-0.079	-0.041
-468.186	-195.356	-0.245	0.002
-467.172	84.735	0.293	-0.323
-466.157	800.000	-0.017	-0.070
-465.143	-40.434	-0.360	0.189
-464.128	43.308	-0.063	0.058
-463.113	-126.489	-0.310	0.046
-462.099	-119.784	0.086	0.015
-461.084	311.246	0.124	-0.234
-460.070	8.672	-0.092	0.070
-459.055	-60.869	-0.429	-0.183
-458.040	129.989	-0.173	-0.223
-457.026	19.201	-0.271	-0.219
-456.011	-4.631	0.175	0.122
-454.997	133.971	-0.073	0.096
-453.982	-161.852	-0.100	-0.005
-452.968	-166.480	-0.339	0.014
-451.953	-24.126	-0.389	-0.234
-450.938	-156.378	-0.328	0.021
-449.924	-58.160	0.167	-0.073
-448.909	622.940	0.101	-0.255
-447.895	67.213	0.163	-0.167
-446.880	-78.222	0.164	-0.057
-445.865	-109.631	0.235	0.050
-444.851	541.595	0.076	0.182
-443.836	800.000	-0.072	0.267
-442.822	-90.090	0.058	0.017
-441.807	800.000	-0.042	-0.166
-440.792	-53.045	0.331	-0.153
-439.778	-55.284	0.300	-0.136
-438.763	-23.765	0.309	-0.187
-437.749	229.626	0.137	0.225
-436.734	-9.122	-0.049	-0.033
-435.719	602.253	-0.011	0.026
-434.705	-70.375	0.058	0.022
-433.690	9.724	0.320	-0.244
-432.676	116.740	0.114	0.141
-431.661	-3.047	0.105	-0.074
-430.646	57.193	0.162	-0.160
-429.632	-200.000	-0.006	0.095
-428.617	-133.916	0.105	0.013
-427.603	1.592	-0.261	-0.189
-426.588	-200.000	-0.039	-0.181
-425.573	-200.000	0.049	0.266
-424.559	-144.102	-0.281	0.026
-423.544	800.000	0.075	0.215
-422.530	-200.000	0.022	-0.151
-421.515	-33.054	-0.199	0.111
-420.500	-200.000	0.034	-0.188
-419.486	800.000	0.086	-0.281
-418.471	-200.000	-0.014	0.178
-417.457	755.372	-0.065	0.177
-416.442	34.754	-0.105	-0.093
-415.428	28.101	0.109	-0.093
-414.413	-42.669	-0.360	0.184
-413.398	84.068	0.109	0.120
-412.384	-99.296	0.122	0.031
-411.369	-74.031	-0.179	-0.065
-410.355	-200.000	0.077	-0.365
-409.340	-200.000	0.021	0.218
-408.325	258.452	0.075	-0.131
-407.311	50.893	-0.141	-0.134
-406.296	222.506	0.094	0.152
-405.282	7.785	0.491	0.370
-404.267	260.072	0.030	0.052
-403.252	151.105	-0.101	0.138
-402.238	-115.740	-0.085	-0.016
-401.223	29.860	-0.366	-0.313
-400.209	-190.322	0.168	0.002
-399.194	800.000	-0.089	0.292
-398.179	789.672	0.098	0.270
-397.165	-175.812	0.277	0.007
-396.150	-71.247	-0.131	-0.050
-395.136	-200.000	-0.009	0.061
-394.121	-16.915	0.199	-0.126
-393.106	133.263	0.232	0.301
-392.092	130.517	0.092	0.119
-391.077	61.595	-0.357	-0.357
-390.063	543.666	0.058	0.140
-389.048	-21.305	-0.143	0.088
-388.033	800.000	-0.036	-0.130
-387.019	525.770	0.119	0.282
-386.004	-200.000	-0.065	-0.326
-384.990	-200.000	0.056	-0.319
-383.975	123.964	-0.178	0.225
-382.960	-118.304	0.463	0.083
-381.946	648.129	0.016	-0.042
-380.931	800.000	0.026	0.085
-379.917	-200.000	0.002	0.045
-378.902	188.061	0.148	-0.223
-377.888	-200.000	0.016	-0.282
-376.873	-36.656	0.114	-0.062
-375.858	507.839	-0.075	0.175
-374.844	-200.000	-0.058	0.359
-373.829	81.505	-0.264	0.287
-372.815	800.000	-0.060	-0.230
-371.800	2.410	0.339	0.246
-370.785	138.906	-0.220	-0.290
-369.771	-84.069	-0.022	-0.007
-368.756	-158.068	-0.414	-0.024
-367.742	725.878	-0.021	-0.057
-366.727	-23.492	-0.113	0.068
-365.712	-200.000	0.002	-0.257
-364.698	377.810	-0.204	0.420
-363.683	-114.524	0.220	-0.042
-362.669	-54.974	-0.113	0.051
-361.654	244.603	-0.037	-0.062
-360.639	-200.000	-0.030	-0.220
-359.625	319.633	-0.035	0.066
-358.610	116.098	0.364	0.447
-357.596	-182.790	-0.282	0.005
-356.581	32.080	0.047	0.040
-355.566	163.937	0.127	0.179
-354.552	-22.225	-0.165	-0.100
-353.537	-105.387	0.324	0.074
-352.523	800.000	0.073	0.290
-351.508	800.000	-0.066	-0.187
-350.493	4.045	-0.360	-0.265
-349.479	-200.000	-0.037	0.174
-348.464	401.725	0.083	-0.175
-347.450	-78.191	0.407	-0.140
-346.435	295.095	-0.027	-0.050
-345.420	51.525	-0.062	-0.059
-344.406	236.702	-0.213	0.353
-343.391	-11.940	-0.046	0.030
-342.377	159.652	-0.114	-0.159
-341.362	-200.000	0.106	-0.535
-340.348	296.829	0.184	0.338
-339.333	189.284	0.088	0.133
-338.318	-13.863	-0.234	-0.152
-337.304	-119.756	-0.199	0.034
-336.289	2.425	-0.134	-0.098
-335.275	-200.000	0.005	0.077
-334.260	-118.901	0.043	0.008
-333.245	-200.000	0.006	-0.246
-332.231	1.570	0.051	0.037
-331.216	-28.457	-0.186	0.107
-330.202	281.332	-0.143	-0.257
-329.187	-57.211	-0.264	0.117
-328.172	-183.824	-0.285	-0.005
-327.158	218.746	-0.112	0.180
-326.143	-83.922	-0.105	-0.034
-325.129	439.470	0.093	0.203
-324.114	641.067	0.099	0.252
-323.099	-20.006	0.201	0.124
-322.085	-200.000	0.009	-0.330
-321.070	-200.000	0.004	0.186
-320.056	75.800	-0.086	-0.091
-319.041	-200.000	0.003	0.195
-318.026	100.338	0.191	0.223
-317.012	-200.000	0.015	-0.163
-315.997	44.880	-0.101	0.093
-314.983	73.180	-0.197	0.206
-313.968	220.454	0.154	0.247
-312.953	-200.000	0.059	-0.297
-311.939	-54.953	0.127	-0.057
-310.924	614.179	0.071	0.178
-309.910	-200.000	-0.071	0.345
-308.895	-78.527	-0.137	0.047
-307.880	-90.511	-0.238	-0.069
-306.866	-200.000	0.001	-0.124
-305.851	-132.566	0.163	0.021
-304.837	-102.107	0.398	0.096
-303.822	48.706	0.238	0.223
-302.807	180.139	-0.195	-0.287
-301.793	-200.000	-0.019	0.155
-300.778	-69.647	-0.039	0.015
-299.764	719.339	0.090	-0.240
-298.749	-111.490	0.033	0.007
-297.735	-53.330	0.327	-0.150
-296.720	-17.072	0.150	-0.095
-295.705	13.674	0.171	-0.133
-294.691	-200.000	0.019	0.122
-293.676	-166.348	-0.094	-0.004
-292.662	-15.805	-0.219	0.140
-291.647	-2.339	0.104	0.073
-290.632	-200.000	0.052	-0.384
-289.618	-200.000	-0.041	-0.197
-288.603	800.000	0.017	-0.061
-287.589	-200.000	0.012	-0.352
-286.574	-200.000	0.051	0.381
-285.559	-23.379	0.214	-0.128
-284.545	-103.280	-0.375	0.089
-283.530	50.487	-0.179	-0.170
-282.516	-66.900	0.228	-0.090
-281.501	-33.467	0.390	0.216
-280.486	-149.686	0.340	-0.027
-279.472	471.212	-0.141	0.317
-278.457	-58.592	0.218	-0.095
-277.443	800.000	-0.050	0.158
-276.428	-81.823	-0.277	-0.091
-275.413	109.807	-0.239	0.287
-274.399	244.192	-0.201	-0.338
-273.384	800.000	0.011	0.043
-272.370	-17.363	0.250	0.158
-271.355	67.565	-0.085	-0.086
-270.340	487.832	-0.137	-0.314
-269.326	-106.530	0.164	-0.037
-268.311	-83.596	-0.166	0.053
-267.297	-6.235	0.111	-0.076
-266.282	800.000	0.026	0.074
-265.267	-200.000	-0.054	0.272
-264.253	-120.367	0.148	0.025
-263.238	-58.438	0.516	0.224
-262.224	-101.595	0.300	0.073
-261.209	120.498	-0.184	-0.229
-260.195	-200.000	0.039	-0.377
-259.180	101.837	0.096	-0.112
-258.165	-34.641	0.116	-0.064
-257.151	39.758	-0.167	-0.150
-256.136	-94.539	-0.128	0.035
-255.122	132.069	-0.012	-0.016
-254.107	250.373	0.047	-0.081
-253.092	-200.000	0.019	-0.256
-252.078	-200.000	-0.067	0.347
-251.063	800.000	0.050	0.157
-250.049	-200.000	0.016	-0.368
-249.034	-200.000	-0.008	0.107
-248.019	-41.603	-0.136	-0.070
-247.005	24.129	0.152	-0.125
-245.990	-200.000	-0.012	-0.165
-244.976	-171.433	0.189	0.006
-243.961	-47.047	-0.114	-0.056
-242.946	291.014	0.141	-0.256
-241.932	189.648	-0.082	0.122
-240.917	-200.000	0.026	-0.326
-239.903	182.494	-0.213	-0.314
-238.888	-193.328	-0.112	-0.001
-237.873	-200.000	-0.007	0.164
-236.859	370.290	0.128	-0.260
-235.844	800.000	-0.089	0.257
-234.830	186.280	0.141	-0.210
-233.815	110.531	-0.048	-0.058
-232.800	-200.000	-0.004	0.141
-231.786	-135.218	0.320	0.038
-230.771	110.831	-0.170	0.205
-229.757	-200.000	0.032	0.252
-228.742	-3.266	-0.133	0.092
-227.727	-58.552	-0.207	0.090
-226.713	-90.728	0.197	0.057
-225.698	123.872	-0.306	0.383
-224.684	-200.000	0.052	0.238
-223.669	11.780	0.174	-0.133
-222.655	46.636	0.206	0.191
-221.640	-200.000	0.048	0.000
-220.625	-31.109	-0.070	0.039
-219.611	-106.628	-0.276	-0.061
-218.596	459.673	-0.123	-0.273
-217.582	203.092	0.109	0.169
-216.567	-200.000	-0.059	-0.300
-215.552	-69.498	0.098	-0.037
-214.538	-200.000	-0.036	0.165
-213.523	417.912	0.104	-0.222
-212.509	119.049	-0.116	0.143
-211.494	-48.978	-0.074	0.035
-210.479	36.043	0.190	0.167
-209.465	-56.526	-0.357	-0.158
-208.450	232.051	-0.136	0.222
-207.436	181.948	-0.048	0.070
-206.421	28.468	0.185	-0.156
-205.406	179.554	0.166	0.243
-204.392	-90.909	0.132	0.038
-203.377	-109.922	0.164	-0.034
-202.363	800.000	0.074	-0.238
-201.348	112.675	-0.167	0.202
-200.333	800.000	-0.058	0.250
-199.319	-55.465	0.349	0.156
-198.304	577.305	-0.025	0.061
-197.290	8.337	0.112	0.084
-196.275	-200.000	-0.001	0.146
-195.260	157.321	-0.151	0.209
-194.246	800.000	0.027	-0.076
-193.231	578.016	-0.054	-0.132
-192.217	800.000	0.074	0.248
-191.202	52.980	-0.400	-0.381
-190.187	-200.000	-0.001	-0.242
-189.173	27.098	0.247	-0.207
-188.158	18.668	0.151	0.121
-187.144	-200.000	0.036	-0.499
-186.129	-133.535	-0.163	0.020
-185.114	-99.367	0.247	-0.062
-184.100	-127.272	-0.111	-0.016
-183.085	-200.000	0.007	-0.059
-182.071	-200.000	-0.030	0.161
-181.056	800.000	0.067	-0.239
-180.042	556.784	0.029	0.069
-179.027	255.226	-0.092	0.157
-178.012	224.419	0.231	-0.372
-176.998	44.872	-0.117	0.108
-175.983	-93.881	-0.101	-0.028
-174.969	-169.067	0.314	-0.012
-173.954	-36.956	0.239	-0.128
-172.939	384.237	0.065	-0.134
-171.925	-30.217	0.079	0.045
-170.910	-61.101	0.217	0.091
-169.896	-58.091	-0.212	-0.092
-168.881	193.913	0.096	0.144
-167.866	345.304	0.069	0.136
-166.852	50.697	0.174	-0.164
-165.837	-98.117	-0.101	0.026
-164.823	800.000	0.053	0.200
-163.808	-98.062	0.271	-0.069
-162.793	23.350	0.342	0.280
-161.779	-200.000	0.034	0.299
-160.764	-9.587	-0.043	-0.028
-159.750	800.000	-0.096	-0.265
-158.735	120.261	0.107	0.133
-157.720	-45.110	-0.102	0.051
-156.706	127.987	0.177	0.224
-155.691	146.683	-0.171	0.229
-154.677	158.145	-0.177	0.244
-153.662	67.131	0.213	0.216
-152.647	705.335	0.078	0.205
-151.633	-59.821	0.049	0.021
-150.618	21.861	0.126	0.102
-149.604	-113.326	0.266	-0.052
-148.589	-112.919	-0.057	0.011
-147.574	64.089	0.154	0.154
-146.560	669.045	0.064	-0.164
-145.545	-90.960	0.366	0.105
-144.531	429.556	-0.023	-0.050
-143.516	136.126	-0.182	-0.236
-142.502	-177.373	0.203	-0.005
-141.487	-113.292	-0.117	-0.023
-140.472	5.309	0.225	-0.165
-139.458	35.710	0.270	0.236
-138.443	46.463	0.260	0.240
-137.429	770.816	-0.153	0.415
-136.414	-200.000	-0.001	0.190
-135.399	-200.000	0.109	0.681
-134.385	-200.000	-0.024	0.168
-133.370	-72.202	-0.067	-0.025
-132.356	86.322	0.062	-0.068
-131.341	-64.974	-0.260	-0.105
-130.326	113.200	-0.155	-0.187
-129.312	44.247	-0.251	-0.229
-128.297	-94.261	-0.121	-0.033
-127.283	-87.239	-0.213	-0.064
-126.268	-200.000	0.061	-0.268
-125.253	280.072	0.049	-0.087
-124.239	-106.598	-0.336	0.074
-123.224	-118.081	-0.292	0.052
-122.210	-25.925	-0.097	0.057
-121.195	64.635	0.134	0.134
