DTS Sentinel unit serial number:	SN413079Multiplexer serial number:	ORYXHardware model number:	OX4-SRSoftware version number:	ORYX F/W v4.00 Oryx Data Collector v3.7.2.0data status	okinstallation	princeton_trtdifferential loss correction	single-endedforward channel	channel 4reverse channel	N/Adate	2019/09/15time	18:01:35forward acquisition time	60.00reverse acquisition time	0.00gamma	496.2192k internal	0.2275k external	0.2275temperature offset calibration	0.9919default loss term (dB/km)	0.3790temperature slope calibration	1.0000multiplexer offset coefficient	1.0000multiplexer slope coefficient	1.0000fibre end	0.00T internal ref (°C)	44.75T ext. ref 1 (°C)	6.47T ext. ref 2 (°C)	39.20length (m)	temperature (°C)	Stokes	anti-Stokes-747.200	-130.958	0.155	-0.021
-746.185	800.000	0.082	0.245
-745.171	-200.000	0.040	0.330
-744.156	186.110	-0.120	0.184
-743.142	-55.797	0.454	0.209
-742.127	-200.000	-0.000	0.295
-741.112	18.659	0.190	0.157
-740.098	-200.000	0.048	0.378
-739.083	-15.778	-0.190	-0.125
-738.069	-24.387	-0.119	0.073
-737.054	-5.689	-0.114	0.081
-736.039	114.800	0.048	-0.060
-735.025	-200.000	-0.064	0.365
-734.010	110.307	-0.048	0.060
-732.996	25.828	-0.103	-0.089
-731.981	800.000	-0.067	-0.200
-730.966	-183.914	-0.067	-0.001
-729.952	32.046	0.108	0.096
-728.937	-20.179	-0.067	-0.043
-727.923	214.750	0.011	0.017
-726.908	-94.861	0.140	-0.039
-725.894	241.863	0.067	-0.116
-724.879	-200.000	-0.003	0.185
-723.864	800.000	0.106	-0.325
-722.850	106.154	-0.229	0.280
-721.835	800.000	-0.077	0.256
-720.821	-200.000	0.027	0.233
-719.806	-200.000	-0.022	-0.192
-718.791	-34.941	0.117	-0.066
-717.777	-100.406	0.058	-0.015
-716.762	466.660	-0.058	-0.135
-715.748	-200.000	-0.018	-0.086
-714.733	30.802	0.255	-0.225
-713.718	-101.213	-0.321	-0.081
-712.704	-200.000	-0.008	-0.246
-711.689	-200.000	0.039	-0.253
-710.675	-56.137	0.211	0.097
-709.660	-80.017	0.293	-0.101
-708.645	-200.000	0.007	0.287
-707.631	28.740	0.168	-0.146
-706.616	-200.000	0.038	-0.251
-705.602	86.288	0.264	0.299
-704.587	-200.000	-0.019	-0.112
-703.572	-200.000	-0.018	-0.114
-702.558	-0.512	-0.089	-0.065
-701.543	-72.902	-0.299	-0.113
-700.529	-200.000	0.027	0.237
-699.514	-86.817	0.193	-0.061
-698.499	-112.844	0.230	-0.047
-697.485	193.130	-0.098	-0.152
-696.470	-200.000	-0.149	-0.690
-695.456	-36.924	-0.142	-0.078
-694.441	-200.000	-0.038	-0.192
-693.426	52.653	0.050	-0.049
-692.412	533.251	0.113	-0.275
-691.397	127.150	-0.216	0.282
-690.383	-200.000	0.051	0.369
-689.368	-200.000	0.041	-0.385
-688.354	81.247	-0.087	0.097
-687.339	-45.131	-0.755	0.386
-686.324	213.801	0.148	0.241
-685.310	-63.291	0.090	-0.038
-684.295	142.342	-0.183	0.250
-683.281	-50.196	-0.406	0.198
-682.266	753.463	-0.056	0.156
-681.251	126.350	-0.195	0.254
-680.237	345.041	0.137	-0.277
-679.222	-142.563	-0.292	-0.029
-678.208	190.346	-0.088	-0.136
-677.193	22.904	-0.099	0.083
-676.178	7.082	-0.107	0.082
-675.164	800.000	-0.041	-0.139
-674.149	15.163	-0.197	-0.159
-673.135	-200.000	0.007	0.104
-672.120	800.000	0.067	-0.248
-671.105	-167.757	0.050	-0.002
-670.091	800.000	-0.067	-0.297
-669.076	25.620	-0.220	0.188
-668.062	-175.304	-0.298	-0.008
-667.047	-103.618	0.288	-0.070
-666.032	-105.550	-0.181	-0.042
-665.018	-12.528	-0.029	0.020
-664.003	129.183	0.158	-0.207
-662.989	-94.197	0.298	-0.084
-661.974	-200.000	0.022	-0.139
-660.959	-110.228	-0.142	0.030
-659.945	-130.434	-0.268	0.037
-658.930	185.425	-0.188	0.287
-657.916	110.950	0.330	-0.408
-656.901	155.268	0.118	-0.167
-655.886	800.000	0.105	-0.406
-654.872	270.523	-0.181	-0.327
-653.857	-112.623	0.087	0.018
-652.843	-200.000	0.008	-0.104
-651.828	800.000	-0.063	0.220
-650.814	-100.945	-0.425	0.107
-649.799	73.712	-0.350	-0.377
-648.784	-151.697	-0.211	0.016
-647.770	-200.000	0.047	0.330
-646.755	143.011	0.223	0.305
-645.741	517.453	-0.089	-0.214
-644.726	-9.999	0.290	-0.198
-643.711	-125.880	-0.264	0.041
-642.697	-42.812	0.275	0.143
-641.682	-114.430	0.145	0.029
-640.668	549.270	-0.113	-0.278
-639.653	-88.071	0.051	0.016
-638.638	215.926	0.074	-0.120
-637.624	515.819	-0.078	0.186
-636.609	143.606	-0.061	-0.084
-635.595	-200.000	0.023	-0.207
-634.580	651.298	0.060	0.158
-633.565	-30.106	0.287	-0.168
-632.551	800.000	0.044	-0.124
-631.536	-11.065	-0.421	0.285
-630.522	800.000	0.088	0.253
-629.507	410.313	-0.117	0.254
-628.492	800.000	0.071	0.223
-627.478	-120.585	0.108	0.019
-626.463	84.035	-0.095	0.107
-625.449	-87.121	0.079	-0.025
-624.434	-90.073	-0.211	0.063
-623.419	627.566	0.048	0.123
-622.405	87.735	0.130	-0.148
-621.390	-200.000	-0.036	-0.203
-620.376	303.157	0.232	-0.441
-619.361	4.523	-0.338	-0.254
-618.346	-110.441	0.381	-0.081
-617.332	-200.000	0.006	-0.090
-616.317	-200.000	-0.018	-0.356
-615.303	800.000	0.046	0.196
-614.288	-41.351	0.130	-0.069
-613.273	-200.000	-0.005	-0.272
-612.259	89.580	-0.153	-0.175
-611.244	13.774	-0.168	-0.134
-610.230	-43.912	0.494	0.255
-609.215	-87.200	0.311	-0.097
-608.201	-200.000	0.065	-0.303
-607.186	-75.577	-0.104	-0.038
-606.171	436.427	0.055	0.123
-605.157	100.699	-0.067	-0.079
-604.142	58.003	-0.238	-0.239
-603.128	-78.088	0.272	-0.096
-602.113	-28.497	0.218	-0.129
-601.098	-33.983	-0.126	-0.071
-600.084	265.937	-0.095	0.171
-599.069	-22.207	0.298	0.185
-598.055	-49.711	-0.310	0.151
-597.040	38.316	-0.461	0.421
-596.025	39.429	-0.233	-0.214
-595.011	-200.000	-0.025	-0.393
-593.996	-101.918	-0.260	-0.064
-592.982	465.798	0.051	0.116
-591.967	800.000	-0.094	0.280
-590.952	-102.713	-0.197	0.048
-589.938	-56.650	0.263	0.120
-588.923	251.120	0.034	-0.059
-587.909	-200.000	0.031	0.262
-586.894	-43.317	0.295	0.153
-585.879	-200.000	-0.011	0.116
-584.865	200.688	0.091	0.143
-583.850	-12.306	0.126	0.085
-582.836	23.540	0.290	0.244
-581.821	800.000	0.045	-0.150
-580.806	-62.880	-0.237	-0.101
-579.792	-132.557	0.262	0.034
-578.777	800.000	-0.126	0.358
-577.763	-156.260	0.285	-0.018
-576.748	-200.000	0.014	0.111
-575.733	-84.348	-0.273	-0.089
-574.719	-128.276	-0.230	-0.034
-573.704	98.647	-0.055	-0.066
-572.690	-48.639	0.303	-0.149
-571.675	14.003	0.160	-0.128
-570.661	285.860	-0.095	0.175
-569.646	-54.358	-0.331	0.154
-568.631	-35.709	-0.173	0.096
-567.617	-176.638	-0.087	0.002
-566.602	-49.050	-0.189	-0.093
-565.588	390.755	0.196	-0.416
-564.573	-200.000	-0.006	0.105
-563.558	-75.691	-0.149	-0.054
-562.544	-86.172	0.160	-0.050
-561.529	33.600	0.114	0.102
-560.515	-100.112	-0.124	-0.032
-559.500	-5.299	-0.346	-0.244
-558.485	800.000	0.041	0.165
-557.471	800.000	0.103	-0.454
-556.456	-104.291	-0.247	-0.059
-555.442	-95.494	-0.325	0.089
-554.427	173.017	-0.062	0.091
-553.412	-150.167	0.345	-0.027
-552.398	314.549	0.040	0.076
-551.383	142.343	0.120	0.163
-550.369	-200.000	-0.052	0.340
-549.354	800.000	-0.051	-0.209
-548.339	-153.095	-0.113	-0.008
-547.325	716.158	0.073	0.199
-546.310	-115.880	-0.237	-0.045
-545.296	-46.244	-0.221	0.111
-544.281	423.054	0.074	-0.162
-543.266	-37.958	-0.115	-0.062
-542.252	-67.084	-0.063	0.026
-541.237	56.467	0.112	0.111
-540.223	-179.752	0.283	0.006
-539.208	16.027	-0.357	-0.288
-538.193	-158.019	-0.101	0.006
-537.179	-152.281	-0.266	0.020
-536.164	-79.170	0.187	-0.065
-535.150	-12.985	0.138	0.092
-534.135	62.709	-0.059	-0.060
-533.121	469.657	0.047	0.107
-532.106	-200.000	0.052	-0.240
-531.091	-200.000	0.032	0.162
-530.077	373.297	0.051	-0.106
-529.062	-67.184	0.179	-0.072
-528.048	-80.822	0.597	-0.203
-527.033	125.612	0.124	-0.160
-526.018	-200.000	-0.004	0.114
-525.004	-64.784	0.335	0.139
-523.989	-64.572	-0.379	-0.157
-522.975	85.145	-0.196	0.220
-521.960	145.753	-0.112	0.153
-520.945	168.135	-0.131	0.191
-519.931	-28.089	0.073	-0.043
-518.916	4.354	-0.405	0.303
-517.902	-24.993	0.057	0.034
-516.887	-115.780	0.169	0.032
-515.872	-189.316	0.162	0.002
-514.858	407.099	0.020	0.044
-513.843	0.744	0.247	-0.181
-512.829	49.861	-0.200	-0.193
-511.814	-45.770	-0.162	-0.082
-510.799	-120.517	-0.313	0.054
-509.785	127.793	-0.140	-0.181
-508.770	-56.424	-0.339	0.154
-507.756	-39.712	-0.112	-0.060
-506.741	5.379	-0.189	0.142
-505.726	800.000	0.008	-0.031
-504.712	679.886	-0.139	0.369
-503.697	297.565	0.097	-0.182
-502.683	-75.362	-0.150	0.055
-501.668	-60.778	0.159	0.069
-500.653	-13.816	-0.294	-0.194
-499.639	-200.000	0.029	-0.180
-498.624	-50.145	0.154	-0.074
-497.610	-200.000	-0.008	-0.136
-496.595	73.401	-0.131	0.140
-495.581	-200.000	-0.018	-0.177
-494.566	26.696	0.076	-0.065
-493.551	109.955	-0.212	-0.260
-492.537	-2.539	0.244	0.174
-491.522	-119.515	-0.189	-0.034
-490.508	326.288	-0.158	-0.310
-489.493	-157.185	-0.091	0.006
-488.478	-200.000	-0.025	-0.290
-487.464	-67.025	0.077	0.031
-486.449	-37.806	-0.180	-0.098
-485.435	-47.202	-0.366	-0.182
-484.420	491.536	0.151	-0.354
-483.405	-200.000	0.004	0.182
-482.391	-153.153	-0.548	0.039
-481.376	-200.000	0.014	0.205
-480.362	-200.000	-0.004	0.307
-479.347	-73.301	0.108	0.040
-478.332	-8.240	-0.230	0.158
-477.318	-65.794	-0.201	0.082
-476.303	329.481	0.028	0.056
-475.289	-200.000	-0.030	0.155
-474.274	-137.333	-0.362	-0.042
-473.259	-61.653	0.434	0.186
-472.245	625.996	0.059	-0.151
-471.230	-139.403	-0.266	-0.029
-470.216	104.725	-0.095	-0.114
-469.201	-21.359	0.115	0.072
-468.186	67.548	0.242	0.252
-467.172	-10.300	0.255	-0.173
-466.157	-200.000	0.022	-0.144
-465.143	-28.004	0.149	0.088
-464.128	133.108	0.119	0.157
-463.113	334.978	0.152	0.301
-462.099	-50.895	-0.168	0.081
-461.084	48.486	-0.166	-0.159
-460.070	73.515	0.158	0.168
-459.055	272.640	-0.173	0.311
-458.040	-81.072	-0.210	0.071
-457.026	800.000	-0.097	-0.277
-456.011	676.136	-0.079	-0.209
-454.997	18.639	0.206	-0.168
-453.982	129.107	0.106	0.138
-452.968	29.596	-0.153	-0.133
-451.953	170.978	0.093	0.135
-450.938	-94.093	0.240	-0.067
-449.924	-200.000	-0.043	-0.352
-448.909	-21.432	0.196	0.122
-447.895	-132.375	-0.196	-0.026
-446.880	-91.224	-0.254	-0.074
-445.865	-200.000	0.043	0.258
-444.851	-94.007	-0.088	0.025
-443.836	96.907	0.168	-0.196
-442.822	653.829	-0.040	0.106
-441.807	-91.902	0.241	0.070
-440.792	-22.117	-0.148	0.092
-439.778	-73.666	0.157	0.058
-438.763	163.942	-0.210	-0.301
-437.749	115.637	-0.194	-0.242
-436.734	-196.529	0.198	0.001
-435.719	-22.449	-0.201	-0.124
-434.705	-73.510	0.098	-0.036
-433.690	-200.000	0.014	-0.353
-432.676	-114.523	-0.209	-0.041
-431.661	800.000	-0.144	0.420
-430.646	-187.175	0.393	-0.005
-429.632	-114.767	0.203	0.040
-428.617	305.211	0.089	-0.169
-427.603	-127.313	0.130	-0.019
-426.588	2.888	-0.232	-0.171
-425.573	60.342	0.078	0.079
-424.559	46.549	0.171	0.161
-423.544	113.500	0.140	-0.173
-422.530	9.617	-0.150	0.116
-421.515	-100.502	-0.187	0.047
-420.500	13.188	0.130	-0.103
-419.486	472.539	0.086	0.198
-418.471	446.275	0.139	-0.311
-417.457	181.864	0.168	0.252
-416.442	552.408	0.086	0.210
-415.428	111.146	0.105	-0.129
-414.413	207.473	-0.170	0.270
-413.398	-20.507	-0.084	0.052
-412.384	-141.667	0.333	-0.034
-411.369	-200.000	-0.050	-0.246
-410.355	7.541	0.111	0.085
-409.340	-113.441	0.084	0.017
-408.325	-158.912	0.166	-0.010
-407.311	5.000	0.164	-0.123
-406.296	-31.743	0.288	-0.165
-405.282	-80.343	0.117	0.040
-404.267	495.300	-0.137	-0.321
-403.252	114.213	-0.113	0.140
-402.238	23.106	0.229	0.191
-401.223	94.355	-0.093	0.108
-400.209	11.623	0.136	0.106
-399.194	691.017	0.052	-0.138
-398.179	679.549	0.022	-0.059
-397.165	-200.000	0.013	-0.388
-396.150	800.000	0.095	-0.322
-395.136	-200.000	-0.010	0.305
-394.121	47.177	0.292	-0.276
-393.106	-52.498	-0.246	-0.116
-392.092	549.510	-0.124	0.303
-391.077	495.954	-0.155	0.361
-390.063	46.663	0.219	0.207
-389.048	-200.000	-0.008	-0.051
-388.033	800.000	-0.053	-0.237
-387.019	105.257	0.111	-0.133
-386.004	-99.434	-0.213	0.055
-384.990	-200.000	-0.008	0.114
-383.975	-128.175	0.338	-0.049
-382.960	115.764	-0.145	-0.180
-381.946	800.000	-0.061	0.249
-380.931	-93.446	-0.184	0.052
-379.917	214.522	0.093	-0.149
-378.902	298.377	0.098	-0.183
-377.888	-200.000	0.011	0.085
-376.873	-194.121	0.242	-0.002
-375.858	-35.924	-0.089	-0.049
-374.844	-0.149	0.219	0.158
-373.829	-34.159	0.133	-0.074
-372.815	-77.829	0.234	-0.082
-371.800	800.000	-0.026	0.077
-370.785	198.888	0.113	0.176
-369.771	-200.000	-0.001	0.194
-368.756	63.988	0.102	0.105
-367.742	-76.599	0.166	-0.059
-366.727	-10.945	0.122	0.082
-365.712	444.542	0.038	0.084
-364.698	-200.000	-0.057	0.404
-363.683	354.791	-0.153	0.310
-362.669	-37.708	-0.175	-0.094
-361.654	-84.513	0.155	-0.050
-360.639	-10.643	0.357	-0.240
-359.625	393.578	0.060	-0.127
-358.610	-11.830	0.156	-0.104
-357.596	398.298	0.234	-0.498
-356.581	800.000	0.082	-0.288
-355.566	-23.497	-0.248	-0.151
-354.552	-181.508	0.115	0.002
-353.537	-35.044	0.391	0.217
-352.523	76.746	-0.212	-0.229
-351.508	418.532	-0.036	-0.078
-350.493	800.000	-0.057	-0.187
-349.479	-103.509	-0.212	-0.051
-348.464	-28.713	-0.080	-0.047
-347.450	-91.654	0.186	0.054
-346.435	98.743	0.166	-0.195
-345.420	-200.000	-0.021	0.323
-344.406	-93.360	0.388	-0.109
-343.391	-200.000	0.009	-0.453
-342.377	91.741	-0.284	-0.324
-341.362	-76.718	0.091	-0.032
-340.348	184.635	-0.066	-0.100
-339.333	64.434	-0.183	-0.188
-338.318	350.319	0.065	0.130
-337.304	47.647	-0.173	-0.164
-336.289	775.546	-0.074	0.206
-335.275	800.000	-0.089	0.254
-334.260	-200.000	-0.012	0.107
-333.245	-200.000	0.004	0.132
-332.231	-200.000	-0.003	-0.235
-331.216	-102.620	-0.342	-0.083
-330.202	-60.099	0.196	-0.085
-329.187	110.670	0.141	-0.172
-328.172	41.874	-0.119	-0.110
-327.158	-101.546	0.128	0.032
-326.143	2.031	-0.249	-0.182
-325.129	-98.057	-0.269	-0.070
-324.114	616.647	-0.068	0.172
-323.099	184.622	-0.131	0.197
-322.085	-200.000	0.042	-0.191
-321.070	-112.768	0.247	-0.050
-320.056	-200.000	0.021	0.251
-319.041	53.956	-0.059	-0.057
-318.026	-11.192	-0.119	-0.080
-317.012	-149.087	0.073	-0.006
-315.997	166.925	-0.158	0.228
-314.983	428.363	0.236	0.517
-313.968	-127.523	0.340	0.050
-312.953	-84.829	-0.301	0.096
-311.939	-68.127	-0.133	0.052
-310.924	-60.815	-0.109	-0.047
-309.910	-191.440	-0.212	-0.002
-308.895	295.943	0.104	-0.193
-307.880	-47.238	-0.183	0.090
-306.866	-34.815	-0.163	0.091
-305.851	152.408	-0.168	-0.232
-304.837	800.000	0.034	0.138
-303.822	-93.181	-0.039	-0.011
-302.807	-69.375	0.101	-0.039
-301.793	-65.833	-0.165	-0.067
-300.778	-117.505	0.054	0.010
-299.764	283.234	0.060	0.108
-298.749	-10.961	0.366	0.245
-297.735	-7.815	-0.035	-0.024
-296.720	-23.470	-0.180	0.109
-295.705	800.000	0.059	0.176
-294.691	23.546	0.119	0.099
-293.676	800.000	-0.021	0.088
-292.662	334.541	-0.147	-0.289
-291.647	300.127	-0.019	0.036
-290.632	-26.421	-0.192	-0.114
-289.618	-200.000	-0.003	-0.762
-288.603	-71.863	0.272	-0.103
-287.589	-200.000	0.068	-0.337
-286.574	111.273	0.138	0.168
-285.559	7.090	0.019	-0.014
-284.545	-120.415	-0.398	-0.069
-283.530	-41.497	0.310	-0.162
-282.516	11.307	0.165	0.128
-281.501	-84.163	0.190	-0.061
-280.486	-21.734	-0.264	-0.162
-279.472	-200.000	-0.004	0.024
-278.457	100.506	-0.180	-0.211
-277.443	192.123	0.260	-0.398
-276.428	300.758	-0.072	0.134
-275.413	-18.643	0.159	-0.101
-274.399	-77.203	-0.102	0.036
-273.384	162.499	-0.053	-0.075
-272.370	185.834	-0.209	-0.315
-271.355	519.425	0.090	-0.214
-270.340	-111.316	-0.333	0.069
-269.326	-200.000	-0.027	0.233
-268.311	-96.557	-0.148	0.039
-267.297	-200.000	-0.037	0.402
-266.282	-13.851	-0.432	-0.283
-265.267	800.000	-0.020	-0.071
-264.253	251.190	0.019	0.033
-263.238	-200.000	-0.035	0.392
-262.224	-200.000	-0.013	-0.132
-261.209	-169.745	-0.127	0.005
-260.195	33.360	-0.111	-0.097
-259.180	254.247	-0.033	-0.058
-258.165	-70.509	-0.125	-0.048
-257.151	-44.944	-0.085	-0.043
-256.136	179.722	-0.189	0.281
-255.122	-52.300	0.168	-0.079
-254.107	-200.000	-0.002	0.058
-253.092	800.000	0.058	0.165
-252.078	-153.311	0.113	-0.008
-251.063	-117.494	0.266	0.049
-250.049	-200.000	0.005	-0.041
-249.034	150.955	-0.111	0.152
-248.019	-200.000	0.020	-0.149
-247.005	260.268	-0.146	0.254
-245.990	571.989	0.078	-0.193
-244.976	800.000	-0.080	-0.225
-243.961	-120.922	0.197	-0.034
-242.946	693.677	-0.067	0.179
-241.932	800.000	-0.057	0.224
-240.917	-200.000	-0.004	-0.336
-239.903	-200.000	0.008	0.205
-238.888	78.689	-0.077	-0.083
-237.873	800.000	0.047	-0.168
-236.859	-120.166	-0.261	0.045
-235.844	800.000	0.085	0.315
-234.830	-5.115	-0.152	0.106
-233.815	-49.068	0.009	0.004
-232.800	800.000	0.097	0.271
-231.786	-56.109	-0.068	0.030
-230.771	-200.000	0.012	-0.127
-229.757	40.617	-0.183	-0.167
-228.742	-200.000	-0.019	0.239
-227.727	-74.905	-0.238	0.086
-226.713	-145.862	-0.293	0.026
-225.698	14.885	-0.217	0.172
-224.684	17.081	-0.293	-0.235
-223.669	214.156	0.125	0.199
-222.655	-109.927	0.312	0.066
-221.640	-3.771	0.243	0.171
-220.625	-15.106	0.208	0.135
-219.611	-33.059	-0.203	0.114
-218.596	-109.623	-0.143	-0.031
-217.582	-200.000	0.004	0.054
-216.567	-87.606	-0.342	0.104
-215.552	65.896	0.214	0.219
-214.538	92.331	-0.230	-0.262
-213.523	142.817	0.068	0.091
-212.509	-103.952	-0.177	0.042
-211.494	-200.000	0.014	0.145
-210.479	80.244	0.172	-0.187
-209.465	800.000	-0.061	-0.245
-208.450	-53.011	0.122	0.057
-207.436	-43.303	-0.011	0.006
-206.421	378.361	0.108	0.223
-205.406	-118.141	0.268	0.048
-204.392	258.633	-0.055	-0.096
-203.377	800.000	0.037	0.110
-202.363	6.717	-0.159	0.119
-201.348	-200.000	0.008	0.107
-200.333	600.841	-0.042	0.104
-199.319	107.066	-0.267	0.320
-198.304	274.142	0.116	0.207
-197.290	207.110	-0.122	-0.192
-196.275	-200.000	-0.004	-0.125
-195.260	609.762	0.050	0.125
-194.246	800.000	0.089	0.277
-193.231	-134.467	-0.051	-0.006
-192.217	-95.662	-0.127	-0.034
-191.202	-200.000	0.002	-0.256
-190.187	-150.247	0.396	0.031
-189.173	757.023	-0.106	-0.289
-188.158	800.000	0.103	-0.352
-187.144	-200.000	0.025	0.126
-186.129	-136.820	0.213	0.025
-185.114	-47.739	0.209	-0.102
-184.100	-67.362	0.148	-0.059
-183.085	-65.552	0.249	0.101
-182.071	-66.773	-0.101	0.040
-181.056	117.068	0.074	0.092
-180.042	329.791	-0.148	0.288
-179.027	-169.244	0.387	0.014
-178.012	176.003	0.215	0.315
-176.998	233.524	-0.095	-0.158
-175.983	-64.507	0.161	-0.066
-174.969	94.019	0.126	0.144
-173.954	-67.868	0.136	-0.054
-172.939	132.515	0.239	0.311
-171.925	6.137	0.203	-0.152
-170.910	751.131	0.062	-0.170
-169.896	800.000	0.027	0.104
-168.881	97.584	-0.185	-0.215
-167.866	27.717	0.131	-0.112
-166.852	800.000	0.008	-0.027
-165.837	-16.175	0.175	0.112
-164.823	-157.512	0.422	0.026
-163.808	-200.000	-0.035	0.387
-162.793	-121.967	0.126	-0.021
-161.779	-50.633	-0.185	-0.088
-160.764	-147.034	-0.287	0.025
-159.750	85.325	-0.107	-0.119
-158.735	160.051	-0.123	0.173
-157.720	736.519	-0.118	0.319
-156.706	87.176	-0.108	-0.120
-155.691	-200.000	-0.045	0.356
-154.677	-15.635	0.224	0.144
-153.662	-99.330	0.330	0.084
-152.647	333.277	-0.101	0.196
-151.633	-200.000	0.062	0.276
-150.618	800.000	0.024	-0.086
-149.604	177.379	0.125	0.184
-148.589	69.830	-0.058	-0.060
-147.574	-176.889	-0.072	0.002
-146.560	800.000	-0.099	-0.372
-145.545	-200.000	-0.017	-0.166
-144.531	-7.320	-0.153	0.104
-143.516	800.000	-0.034	-0.141
-142.502	79.565	0.190	-0.205
-141.487	-200.000	0.037	0.165
-140.472	-191.428	0.420	-0.004
-139.458	242.359	-0.112	-0.188
-138.443	-87.819	-0.078	0.024
-137.429	-114.765	0.488	-0.094
-136.414	-39.076	0.093	0.049
-135.399	86.265	0.212	-0.235
-134.385	-55.957	-0.075	-0.034
-133.370	-55.022	0.183	0.083
-132.356	800.000	0.025	-0.076
-131.341	-37.692	-0.304	-0.163
-130.326	800.000	0.061	0.236
-129.312	-114.694	0.048	-0.009
-128.297	39.508	-0.086	-0.078
-127.283	-106.356	-0.130	-0.029
-126.268	153.795	-0.106	-0.147
-125.253	29.260	-0.179	0.153
-124.239	67.567	-0.257	0.264
-123.224	-12.393	-0.117	0.077
-122.210	-43.765	0.176	-0.089
-121.195	-200.000	-0.027	-0.314
