DTS Sentinel unit serial number:	SN413079Multiplexer serial number:	ORYXHardware model number:	OX4-SRSoftware version number:	ORYX F/W v4.00 Oryx Data Collector v3.7.2.0data status	okinstallation	princeton_trtdifferential loss correction	single-endedforward channel	channel 4reverse channel	N/Adate	2019/09/14time	13:45:35forward acquisition time	60.00reverse acquisition time	0.00gamma	496.2192k internal	0.2293k external	0.2293temperature offset calibration	1.0153default loss term (dB/km)	0.3790temperature slope calibration	1.0000multiplexer offset coefficient	1.0000multiplexer slope coefficient	1.0000fibre end	0.00T internal ref (°C)	37.83T ext. ref 1 (°C)	4.93T ext. ref 2 (°C)	32.88length (m)	temperature (°C)	Stokes	anti-Stokes-747.200	79.232	0.095	-0.104
-746.185	471.946	-0.158	0.365
-745.171	800.000	-0.010	-0.038
-744.156	151.355	0.166	0.231
-743.142	131.387	-0.062	-0.081
-742.127	196.696	-0.194	0.303
-741.112	131.950	0.143	-0.189
-740.098	75.434	-0.310	0.335
-739.083	171.135	0.138	0.202
-738.069	215.895	0.248	0.403
-737.054	-113.328	-0.388	0.078
-736.039	-128.238	-0.293	0.043
-735.025	-200.000	-0.032	-0.208
-734.010	221.307	-0.126	0.206
-732.996	-143.340	-0.286	-0.028
-731.981	-200.000	-0.040	-0.204
-730.966	-183.282	-0.176	0.003
-729.952	9.875	-0.278	-0.216
-728.937	-110.143	-0.142	-0.030
-727.923	-200.000	0.009	0.157
-726.908	-54.884	0.201	-0.093
-725.894	-62.820	-0.132	0.056
-724.879	47.755	-0.187	-0.179
-723.864	-16.261	-0.206	-0.134
-722.850	12.891	-0.180	0.143
-721.835	-73.566	-0.469	0.175
-720.821	-57.806	-0.377	0.169
-719.806	140.805	0.079	0.107
-718.791	-124.843	-0.138	0.022
-717.777	-158.141	0.253	0.015
-716.762	396.744	0.055	-0.118
-715.748	39.631	-0.356	0.326
-714.733	-4.310	-0.100	-0.070
-713.718	-200.000	0.002	-0.052
-712.704	127.182	0.266	-0.344
-711.689	800.000	0.065	0.225
-710.675	-200.000	0.032	-0.277
-709.660	-158.285	-0.533	0.032
-708.645	-159.427	-0.154	0.009
-707.631	-200.000	0.036	0.432
-706.616	800.000	-0.048	-0.206
-705.602	-148.833	0.106	-0.009
-704.587	-55.654	0.094	0.043
-703.572	8.384	-0.184	0.142
-702.558	119.116	0.161	-0.203
-701.543	-179.632	-0.200	-0.004
-700.529	756.587	-0.033	0.092
-699.514	800.000	0.034	-0.110
-698.499	-141.502	0.094	0.010
-697.485	-135.981	0.095	0.011
-696.470	360.775	-0.114	-0.233
-695.456	19.531	0.048	0.039
-694.441	-200.000	0.073	0.506
-693.426	-22.204	-0.042	-0.026
-692.412	-200.000	0.004	-0.266
-691.397	-151.765	-0.591	-0.044
-690.383	-56.895	-0.189	0.085
-689.368	800.000	0.094	0.366
-688.354	-66.168	-0.103	-0.042
-687.339	-81.186	0.190	-0.064
-686.324	-103.822	-0.291	-0.070
-685.310	265.957	-0.030	0.053
-684.295	133.064	-0.179	-0.237
-683.281	17.729	-0.153	-0.124
-682.266	-200.000	0.015	0.243
-681.251	214.600	0.119	-0.193
-680.237	800.000	-0.083	-0.281
-679.222	-138.589	0.054	-0.006
-678.208	800.000	-0.015	0.048
-677.193	-154.732	-0.123	0.008
-676.178	58.159	-0.028	0.028
-675.164	-200.000	-0.005	-0.138
-674.149	135.017	-0.232	0.308
-673.135	-200.000	0.016	0.211
-672.120	-76.248	0.098	-0.035
-671.105	241.584	-0.019	-0.032
-670.091	-145.951	-0.304	0.027
-669.076	239.123	0.069	0.118
-668.062	-128.146	-0.302	-0.044
-667.047	-31.736	-0.202	0.116
-666.032	-158.872	0.267	-0.016
-665.018	-188.690	0.143	0.002
-664.003	800.000	0.055	-0.189
-662.989	-96.362	-0.173	0.047
-661.974	171.051	0.066	0.096
-660.959	19.322	-0.227	0.186
-659.945	-41.135	-0.290	-0.152
-658.930	243.382	-0.146	-0.249
-657.916	43.776	-0.245	0.229
-656.901	-200.000	0.051	0.314
-655.886	120.358	-0.146	-0.185
-654.872	66.351	-0.214	0.221
-653.857	-200.000	-0.019	0.250
-652.843	-65.289	0.254	-0.104
-651.828	76.517	-0.086	0.093
-650.814	608.385	-0.015	-0.038
-649.799	-200.000	-0.021	0.210
-648.784	40.501	0.287	-0.264
-647.770	-200.000	0.046	-0.284
-646.755	-1.763	-0.193	0.138
-645.741	-30.350	0.195	0.113
-644.726	366.535	-0.029	-0.060
-643.711	-200.000	0.008	-0.128
-642.697	-92.261	-0.284	-0.082
-641.682	-109.567	-0.158	-0.034
-640.668	95.579	-0.090	-0.105
-639.653	439.189	-0.050	-0.112
-638.638	-200.000	-0.014	0.107
-637.624	-152.488	0.399	-0.029
-636.609	210.778	0.076	-0.121
-635.595	-64.805	-0.205	0.084
-634.580	-57.225	-0.298	-0.134
-633.565	-200.000	-0.016	-0.195
-632.551	143.428	0.116	0.157
-631.536	800.000	0.095	0.321
-630.522	-74.947	-0.117	0.043
-629.507	800.000	-0.045	-0.200
-628.492	477.895	-0.160	0.369
-627.478	89.504	0.380	0.432
-626.463	100.227	-0.246	-0.290
-625.449	346.011	0.159	-0.318
-624.434	-108.947	-0.197	-0.043
-623.419	-179.616	-0.373	-0.008
-622.405	-36.272	0.271	0.149
-621.390	-20.602	-0.300	-0.188
-620.376	539.275	-0.082	0.198
-619.361	502.871	0.083	0.195
-618.346	-159.136	-0.222	0.013
-617.332	211.875	0.082	-0.131
-616.317	173.021	0.145	0.212
-615.303	175.896	-0.201	-0.298
-614.288	-70.339	-0.132	0.051
-613.273	-64.927	0.189	0.078
-612.259	65.794	0.133	-0.137
-611.244	99.945	0.031	0.037
-610.230	311.728	0.103	0.197
-609.215	-102.113	-0.065	-0.016
-608.201	-79.784	-0.141	-0.048
-607.186	-200.000	-0.030	-0.199
-606.171	-13.468	-0.121	-0.080
-605.157	-200.000	0.002	-0.148
-604.142	63.683	0.226	-0.231
-603.128	-24.803	-0.226	0.136
-602.113	-200.000	-0.018	0.260
-601.098	-182.135	-0.137	-0.003
-600.084	61.402	0.045	0.046
-599.069	61.778	-0.225	0.228
-598.055	-4.794	0.065	0.046
-597.040	-78.827	0.211	-0.073
-596.025	800.000	-0.072	0.286
-595.011	16.532	0.285	0.229
-593.996	462.082	0.146	-0.331
-592.982	-78.661	0.483	-0.168
-591.967	74.716	0.214	0.229
-590.952	-137.680	-0.061	-0.007
-589.938	-82.284	-0.111	0.037
-588.923	608.009	-0.018	0.045
-587.909	88.897	-0.250	-0.283
-586.894	119.194	0.115	-0.145
-585.879	-29.132	-0.303	-0.177
-584.865	-113.577	0.341	0.068
-583.850	800.000	-0.032	-0.104
-582.836	275.233	0.139	-0.251
-581.821	49.418	0.180	-0.172
-580.806	335.008	0.035	0.068
-579.792	-200.000	0.038	0.185
-578.777	-200.000	-0.025	0.167
-577.763	157.037	0.118	-0.166
-576.748	-34.109	-0.128	-0.071
-575.733	29.223	0.177	-0.153
-574.719	-94.130	0.142	0.040
-573.704	53.335	-0.334	0.326
-572.690	-132.146	0.109	0.014
-571.675	187.579	-0.009	0.013
-570.661	-200.000	-0.029	0.143
-569.646	800.000	0.035	-0.144
-568.631	800.000	-0.054	-0.227
-567.617	-71.011	-0.121	-0.046
-566.602	-200.000	-0.029	-0.250
-565.588	-200.000	-0.017	-0.359
-564.573	-187.951	-0.087	-0.001
-563.558	-136.614	0.350	0.041
-562.544	698.673	0.131	0.349
-561.529	-200.000	-0.001	0.128
-560.515	800.000	-0.072	-0.273
-559.500	590.511	0.121	0.304
-558.485	-3.441	-0.132	0.093
-557.471	-163.198	0.273	-0.013
-556.456	-107.324	0.125	-0.028
-555.442	-60.932	0.343	0.147
-554.427	322.253	0.027	0.052
-553.412	11.398	0.120	0.093
-552.398	288.190	0.044	-0.080
-551.383	14.599	0.130	0.103
-550.369	-43.240	-0.055	0.028
-549.354	102.986	-0.053	-0.063
-548.339	152.183	0.285	0.395
-547.325	624.241	0.145	0.370
-546.310	330.251	-0.190	-0.371
-545.296	-91.419	-0.044	0.013
-544.281	-58.525	-0.206	0.091
-543.266	-46.399	-0.067	0.033
-542.252	-188.012	-0.257	-0.003
-541.237	800.000	-0.053	-0.153
-540.223	51.415	0.128	-0.123
-539.208	-68.453	0.238	-0.094
-538.193	-30.522	-0.152	-0.087
-537.179	128.834	-0.164	0.213
-536.164	280.428	-0.077	0.140
-535.150	486.094	0.092	0.214
-534.135	-200.000	0.038	0.254
-533.121	-27.269	-0.160	0.094
-532.106	-87.085	-0.134	-0.041
-531.091	-74.794	-0.278	-0.101
-530.077	476.609	0.087	-0.199
-529.062	70.405	0.135	-0.142
-528.048	-120.761	-0.153	0.026
-527.033	729.345	-0.094	0.255
-526.018	-2.507	0.510	-0.362
-525.004	20.476	0.065	0.053
-523.989	-11.639	-0.160	0.107
-522.975	44.863	0.243	-0.227
-521.960	-167.359	-0.099	0.004
-520.945	35.232	-0.205	-0.183
-519.931	-79.080	0.242	0.084
-518.916	12.129	0.069	-0.054
-517.902	-200.000	-0.028	-0.251
-516.887	-155.185	-0.195	0.013
-515.872	-53.252	-0.302	0.141
-514.858	174.588	-0.146	-0.214
-513.843	-24.461	0.387	-0.234
-512.829	-109.695	-0.186	-0.040
-511.814	-110.621	0.215	-0.045
-510.799	-32.801	0.409	0.230
-509.785	-62.993	0.149	0.062
-508.770	-60.639	-0.061	-0.026
-507.756	40.454	-0.361	0.329
-506.741	447.461	-0.135	0.301
-505.726	273.805	0.026	0.048
-504.712	179.072	-0.031	-0.046
-503.697	-133.022	-0.201	-0.026
-502.683	-27.685	-0.160	-0.094
-501.668	0.669	-0.330	-0.239
-500.653	158.302	0.117	0.165
-499.639	-200.000	-0.012	-0.083
-498.624	-34.111	-0.275	-0.153
-497.610	-127.975	0.147	0.021
-496.595	-100.434	0.294	0.074
-495.581	-200.000	-0.037	-0.318
-494.566	54.987	-0.099	0.097
-493.551	267.619	0.067	0.120
-492.537	-139.504	0.338	0.037
-491.522	-112.583	-0.207	0.042
-490.508	17.928	0.135	0.109
-489.493	-5.002	0.239	0.167
-488.478	4.340	0.283	0.210
-487.464	-53.437	-0.109	-0.050
-486.449	160.692	-0.067	0.094
-485.435	-4.819	0.093	0.065
-484.420	-200.000	-0.075	0.352
-483.405	754.603	0.070	0.190
-482.391	-11.978	-0.027	0.018
-481.376	800.000	-0.060	-0.179
-480.362	104.205	0.142	-0.169
-479.347	800.000	0.025	-0.094
-478.332	-200.000	0.016	0.087
-477.318	604.565	-0.036	0.090
-476.303	-200.000	0.012	-0.231
-475.289	-54.202	0.132	-0.061
-474.274	-200.000	0.023	0.140
-473.259	-200.000	0.030	-0.262
-472.245	151.318	-0.288	-0.397
-471.230	-200.000	-0.072	-0.516
-470.216	-200.000	-0.003	-0.200
-469.201	21.545	-0.169	-0.139
-468.186	-166.430	0.070	-0.003
-467.172	-200.000	-0.020	0.195
-466.157	-87.879	-0.068	-0.021
-465.143	84.039	0.071	0.079
-464.128	403.375	-0.064	0.137
-463.113	313.696	0.026	0.050
-462.099	-171.869	-0.148	-0.005
-461.084	-49.458	0.042	0.020
-460.070	-77.835	0.355	0.124
-459.055	-70.626	-0.144	-0.055
-458.040	-181.382	0.157	0.003
-457.026	138.457	-0.127	-0.169
-456.011	-172.979	0.143	0.004
-454.997	-132.265	0.103	-0.013
-453.982	456.429	-0.144	0.323
-452.968	39.152	-0.101	0.092
-451.953	179.642	-0.080	0.119
-450.938	-200.000	0.010	-0.097
-449.924	53.345	-0.216	-0.209
-448.909	-6.659	-0.414	-0.285
-447.895	800.000	0.045	-0.183
-446.880	-200.000	-0.039	-0.207
-445.865	-142.064	-0.224	-0.023
-444.851	800.000	0.076	0.272
-443.836	-200.000	0.017	0.216
-442.822	262.484	0.132	0.231
-441.807	57.601	-0.042	0.042
-440.792	208.102	0.166	-0.263
-439.778	44.490	-0.091	-0.084
-438.763	325.177	0.181	0.350
-437.749	-200.000	-0.027	0.120
-436.734	100.673	-0.185	-0.217
-435.719	241.053	0.028	-0.047
-434.705	-141.877	-0.341	0.034
-433.690	-137.975	0.276	0.031
-432.676	136.083	0.168	-0.222
-431.661	258.609	-0.034	0.060
-430.646	56.585	0.172	0.169
-429.632	-153.401	-0.038	0.003
-428.617	28.184	0.176	0.150
-427.603	-85.620	0.445	0.140
-426.588	54.376	0.229	0.223
-425.573	-73.260	-0.267	-0.099
-424.559	-90.228	-0.077	-0.022
-423.544	-120.544	0.434	0.074
-422.530	-28.939	-0.123	-0.071
-421.515	-2.433	0.096	-0.068
-420.500	-46.470	0.383	-0.190
-419.486	176.487	-0.208	-0.306
-418.471	-200.000	-0.003	-0.311
-417.457	-86.188	0.283	0.088
-416.442	41.734	0.193	0.177
-415.428	148.923	-0.193	-0.264
-414.413	36.209	-0.245	-0.218
-413.398	-19.000	0.113	0.071
-412.384	21.312	-0.194	0.159
-411.369	152.313	0.171	0.235
-410.355	58.115	0.181	-0.179
-409.340	-31.695	0.166	-0.094
-408.325	-83.797	-0.114	0.037
-407.311	-200.000	0.022	-0.113
-406.296	-45.936	0.093	-0.046
-405.282	356.207	0.186	-0.374
-404.267	-200.000	0.001	-0.073
-403.252	-60.315	-0.182	0.078
-402.238	800.000	0.067	-0.244
-401.223	-108.040	0.448	0.098
-400.209	161.223	0.168	0.237
-399.194	-120.945	-0.232	0.039
-398.179	290.702	0.085	-0.156
-397.165	5.606	-0.318	-0.237
-396.150	-3.580	0.077	0.054
-395.136	-114.457	0.138	0.027
-394.121	467.202	0.161	0.363
-393.106	-98.105	0.096	-0.025
-392.092	83.355	-0.091	0.100
-391.077	355.869	-0.021	0.042
-390.063	259.396	0.198	-0.344
-389.048	-83.831	-0.076	0.024
-388.033	9.615	-0.095	0.073
-387.019	-161.692	-0.331	-0.017
-386.004	-63.495	-0.334	0.138
-384.990	-200.000	-0.019	0.402
-383.975	-4.870	0.129	-0.090
-382.960	94.353	0.244	-0.279
-381.946	-132.474	-0.134	0.017
-380.931	-30.352	0.133	-0.076
-379.917	800.000	-0.113	-0.403
-378.902	540.818	0.140	-0.337
-377.888	224.431	0.081	0.131
-376.873	296.260	0.121	0.223
-375.858	76.933	-0.241	0.258
-374.844	800.000	-0.053	-0.179
-373.829	420.991	-0.062	-0.135
-372.815	257.049	0.049	-0.085
-371.800	92.606	-0.052	0.059
-370.785	-97.867	-0.322	0.084
-369.771	-9.516	-0.226	0.152
-368.756	580.798	0.032	0.080
-367.742	465.216	0.172	0.387
-366.727	84.711	-0.099	-0.109
-365.712	-200.000	0.034	-0.287
-364.698	800.000	0.034	0.131
-363.683	10.487	0.165	-0.127
-362.669	-151.339	0.248	-0.019
-361.654	405.980	-0.076	0.161
-360.639	14.874	-0.128	0.101
-359.625	-54.801	0.055	0.025
-358.610	-200.000	-0.024	-0.409
-357.596	-200.000	-0.003	-0.226
-356.581	-200.000	0.003	0.181
-355.566	800.000	0.092	0.283
-354.552	34.909	0.096	0.085
-353.537	15.331	-0.143	-0.113
-352.523	162.032	0.208	-0.294
-351.508	-200.000	-0.048	0.521
-350.493	-76.811	-0.228	0.080
-349.479	305.217	0.190	0.355
-348.464	-200.000	-0.062	0.631
-347.450	-156.837	-0.140	-0.009
-346.435	81.982	-0.163	-0.178
-345.420	-136.166	-0.096	-0.011
-344.406	-200.000	0.037	-0.173
-343.391	-200.000	-0.021	0.231
-342.377	-200.000	0.023	0.316
-341.362	215.206	-0.025	0.040
-340.348	56.401	-0.179	0.175
-339.333	800.000	-0.018	-0.075
-338.318	-158.391	0.117	-0.007
-337.304	129.091	0.126	-0.162
-336.289	213.205	-0.182	0.289
-335.275	-32.801	0.159	0.089
-334.260	458.684	-0.035	-0.079
-333.245	-169.932	-0.344	-0.012
-332.231	800.000	0.017	0.050
-331.216	-190.965	0.390	-0.004
-330.202	56.544	0.125	0.123
-329.187	-111.777	-0.160	0.033
-328.172	-166.982	-0.245	-0.010
-327.158	171.882	-0.050	0.073
-326.143	800.000	0.035	0.111
-325.129	13.195	0.060	-0.047
-324.114	-107.800	-0.463	0.102
-323.099	-76.467	0.122	-0.043
-322.085	176.597	0.023	0.034
-321.070	14.464	-0.110	-0.086
-320.056	-200.000	-0.031	-0.143
-319.041	-76.331	-0.098	-0.035
-318.026	-145.622	-0.067	-0.006
-317.012	-27.974	-0.264	0.154
-315.997	-104.972	-0.239	0.055
-314.983	-200.000	0.013	-0.317
-313.968	-128.714	-0.141	0.020
-312.953	-200.000	-0.010	-0.049
-311.939	-56.081	0.294	0.132
-310.924	800.000	0.016	-0.048
-309.910	-41.940	-0.166	-0.086
-308.895	-67.060	-0.273	0.108
-307.880	46.332	-0.111	-0.103
-306.866	-141.471	-0.193	0.020
-305.851	-59.221	0.098	0.043
-304.837	-200.000	-0.059	-0.264
-303.822	-161.576	0.264	-0.014
-302.807	-63.026	0.285	-0.118
-301.793	800.000	-0.055	0.226
-300.778	231.007	-0.209	0.344
-299.764	-200.000	0.002	-0.097
-298.749	-200.000	0.022	-0.138
-297.735	800.000	0.088	-0.304
-296.720	-123.407	-0.106	0.017
-295.705	-199.445	0.228	0.001
-294.691	800.000	0.035	0.107
-293.676	66.651	0.121	0.124
-292.662	-200.000	-0.038	-0.218
-291.647	800.000	0.017	0.063
-290.632	-200.000	0.012	-0.058
-289.618	-200.000	0.018	-0.383
-288.603	-24.440	-0.278	0.167
-287.589	-189.763	-0.143	0.002
-286.574	800.000	0.044	-0.172
-285.559	-130.862	0.165	0.022
-284.545	307.877	-0.141	0.264
-283.530	41.050	-0.087	-0.079
-282.516	78.331	-0.165	0.177
-281.501	187.517	-0.164	-0.246
-280.486	-63.569	0.335	0.138
-279.472	-75.868	-0.210	0.075
-278.457	18.528	-0.114	0.091
-277.443	-70.879	0.183	0.069
-276.428	39.104	0.178	-0.160
-275.413	-122.538	-0.307	-0.050
-274.399	-124.252	0.061	-0.010
-273.384	800.000	0.028	0.080
-272.370	377.184	-0.117	-0.240
-271.355	-181.169	0.103	-0.002
-270.340	800.000	0.065	0.250
-269.326	-200.000	-0.021	-0.206
-268.311	-200.000	-0.015	-0.099
-267.297	-87.029	-0.017	-0.005
-266.282	319.532	0.143	0.273
-265.267	-200.000	0.027	0.143
-264.253	-55.915	-0.101	0.045
-263.238	-200.000	0.012	-0.105
-262.224	359.470	0.056	0.112
-261.209	5.726	-0.298	-0.222
-260.195	196.055	-0.159	-0.242
-259.180	800.000	-0.088	0.338
-258.165	191.929	-0.148	0.223
-257.151	11.105	-0.211	-0.162
-256.136	109.510	-0.076	0.092
-255.122	-70.883	-0.164	-0.062
-254.107	-175.242	-0.191	-0.005
-253.092	-7.730	-0.125	-0.085
-252.078	61.310	0.136	0.135
-251.063	172.974	-0.066	-0.096
-250.049	746.107	0.179	0.484
-249.034	-155.909	0.367	0.023
-248.019	353.052	0.122	-0.243
-247.005	-200.000	-0.005	-0.250
-245.990	-26.396	0.159	-0.094
-244.976	-192.037	-0.198	-0.002
-243.961	-200.000	0.005	0.169
-242.946	-125.482	0.039	0.006
-241.932	52.129	0.194	0.185
-240.917	-73.777	-0.305	-0.111
-239.903	-127.933	0.222	-0.032
-238.888	-171.487	-0.214	0.007
-237.873	100.897	0.205	-0.239
-236.859	649.387	0.048	0.124
-235.844	296.357	0.207	-0.380
-234.830	-200.000	0.025	0.235
-233.815	-109.132	-0.252	-0.054
-232.800	128.327	0.137	-0.175
-231.786	-49.644	-0.161	0.077
-230.771	800.000	0.073	-0.203
-229.757	-200.000	0.016	-0.158
-228.742	800.000	0.053	-0.225
-227.727	-164.296	0.471	0.022
-226.713	-200.000	-0.005	-0.030
-225.698	176.386	0.061	-0.089
-224.684	-200.000	0.018	-0.225
-223.669	9.409	0.179	-0.136
-222.655	4.725	-0.277	0.204
-221.640	800.000	-0.044	-0.126
-220.625	-21.802	-0.141	0.086
-219.611	-200.000	-0.077	0.345
-218.596	-95.849	0.073	-0.019
-217.582	221.009	0.177	0.286
-216.567	-26.614	0.039	0.023
-215.552	204.841	-0.267	-0.416
-214.538	-200.000	-0.070	-0.529
-213.523	193.470	-0.099	-0.150
-212.509	-200.000	0.033	0.210
-211.494	591.035	-0.076	0.187
-210.479	-200.000	0.002	0.345
-209.465	-200.000	0.039	0.256
-208.450	-134.204	0.226	0.028
-207.436	227.404	-0.107	-0.175
-206.421	452.166	0.163	0.361
-205.406	800.000	-0.059	0.204
-204.392	800.000	-0.099	-0.312
-203.377	-169.121	-0.420	0.016
-202.363	714.365	-0.095	-0.253
-201.348	297.326	0.136	0.251
-200.333	-72.337	0.095	-0.035
-199.319	183.243	-0.070	0.104
-198.304	17.265	0.232	0.185
-197.290	-30.766	-0.331	-0.188
-196.275	-200.000	-0.039	-0.223
-195.260	800.000	0.022	-0.096
-194.246	-200.000	-0.019	-0.186
-193.231	-150.059	0.231	0.018
-192.217	-200.000	-0.028	-0.397
-191.202	-47.496	0.350	-0.170
-190.187	-168.403	-0.077	0.003
-189.173	-100.075	-0.073	0.018
-188.158	29.172	0.103	0.088
-187.144	-75.371	-0.228	0.081
-186.129	694.066	0.040	-0.105
-185.114	-123.749	0.207	-0.033
-184.100	-200.000	0.020	0.117
-183.085	800.000	0.035	-0.151
-182.071	-121.880	-0.115	0.019
-181.056	-115.849	-0.277	0.052
-180.042	38.475	-0.189	0.168
-179.027	655.896	-0.148	0.381
-178.012	33.696	-0.259	-0.225
-176.998	143.797	-0.203	-0.271
-175.983	-87.975	0.235	0.071
-174.969	197.538	0.143	0.219
-173.954	93.117	0.103	-0.117
-172.939	-21.432	-0.364	0.222
-171.925	-159.094	0.191	-0.011
-170.910	-35.350	0.319	0.173
-169.896	474.205	0.123	0.278
-168.881	-100.793	0.425	0.105
-167.866	800.000	-0.072	-0.303
-166.852	-22.592	0.155	-0.094
-165.837	-200.000	0.047	0.371
-164.823	-200.000	0.030	0.495
-163.808	-200.000	-0.010	0.168
-162.793	-200.000	-0.247	0.001
-161.779	799.807	-0.032	-0.087
-160.764	-141.223	0.270	0.027
-159.750	-200.000	0.001	-0.020
-158.735	127.545	-0.045	-0.057
-157.720	-5.969	0.092	0.063
-156.706	-200.000	-0.001	-0.026
-155.691	800.000	0.130	0.401
-154.677	1.179	-0.031	-0.022
-153.662	36.879	0.292	-0.258
-152.647	-22.413	-0.486	-0.294
-151.633	-111.311	0.137	-0.028
-150.618	584.501	-0.122	-0.299
-149.604	330.644	-0.072	-0.138
-148.589	800.000	0.066	0.188
-147.574	-92.547	0.347	-0.097
-146.560	-200.000	-0.040	-0.358
-145.545	-160.609	-0.220	-0.012
-144.531	-139.998	0.083	0.009
-143.516	-68.585	0.336	-0.130
-142.502	800.000	0.125	0.443
-141.487	800.000	-0.020	-0.069
-140.472	-192.161	0.129	0.001
-139.458	-200.000	-0.011	0.154
-138.443	280.511	0.050	0.089
-137.429	7.722	0.130	0.097
-136.414	-163.473	-0.213	0.010
-135.399	-200.000	0.004	-0.155
-134.385	368.744	0.100	0.203
-133.370	152.185	0.123	0.167
-132.356	248.043	-0.158	0.267
-131.341	-82.631	0.185	0.060
-130.326	58.604	0.154	-0.151
-129.312	-141.656	0.323	0.032
-128.297	-200.000	-0.014	0.235
-127.283	800.000	0.022	-0.091
-126.268	-200.000	0.032	-0.159
-125.253	-9.595	-0.338	0.225
-124.239	-200.000	0.021	0.161
-123.224	14.827	0.199	0.155
-122.210	-28.223	-0.252	-0.145
