DTS Sentinel unit serial number:	SN413079Multiplexer serial number:	ORYXHardware model number:	OX4-SRSoftware version number:	ORYX F/W v4.00 Oryx Data Collector v3.7.2.0data status	okinstallation	princeton_trtdifferential loss correction	single-endedforward channel	channel 4reverse channel	N/Adate	2019/09/12time	12:43:11forward acquisition time	60.00reverse acquisition time	0.00gamma	496.2192k internal	0.2287k external	0.2287temperature offset calibration	1.0077default loss term (dB/km)	0.3790temperature slope calibration	1.0000multiplexer offset coefficient	1.0000multiplexer slope coefficient	1.0000fibre end	0.00T internal ref (°C)	40.50T ext. ref 1 (°C)	2.05T ext. ref 2 (°C)	37.29length (m)	temperature (°C)	Stokes	anti-Stokes-747.200	66.849	0.289	0.301
-746.185	93.884	0.202	0.235
-745.171	343.141	0.075	-0.150
-744.156	-200.000	-0.001	0.052
-743.142	169.940	0.053	-0.078
-742.127	615.776	0.055	-0.141
-741.112	800.000	0.045	-0.148
-740.098	73.346	-0.340	0.365
-739.083	-146.792	-0.189	-0.017
-738.069	-52.479	-0.125	-0.059
-737.054	40.442	-0.147	0.136
-736.039	221.149	-0.153	0.252
-735.025	195.033	-0.105	0.163
-734.010	-200.000	0.002	-0.207
-732.996	-44.028	-0.110	-0.057
-731.981	-200.000	-0.038	0.223
-730.966	291.741	-0.102	0.191
-729.952	-187.623	-0.196	-0.003
-728.937	-200.000	-0.079	0.359
-727.923	-48.070	-0.150	-0.074
-726.908	196.864	-0.087	0.135
-725.894	702.589	0.098	-0.264
-724.879	406.703	-0.077	-0.166
-723.864	75.918	-0.094	0.101
-722.850	230.658	-0.095	-0.160
-721.835	-130.477	-0.262	0.036
-720.821	800.000	-0.124	-0.376
-719.806	-144.628	-0.187	0.018
-718.791	132.505	0.140	0.185
-717.777	-112.787	-0.273	0.055
-716.762	-200.000	-0.034	0.211
-715.748	-66.786	-0.291	0.118
-714.733	259.528	-0.157	-0.278
-713.718	-200.000	-0.034	-0.230
-712.704	-200.000	0.027	-0.201
-711.689	142.246	-0.097	-0.132
-710.675	800.000	0.062	0.190
-709.660	-54.530	0.185	0.086
-708.645	-0.976	-0.138	0.100
-707.631	156.359	-0.114	0.162
-706.616	-18.398	-0.037	-0.024
-705.602	354.478	-0.069	-0.141
-704.587	-66.327	0.418	0.170
-703.572	-56.788	-0.321	-0.145
-702.558	580.525	-0.050	-0.126
-701.543	-117.400	-0.124	-0.023
-700.529	-200.000	0.017	0.106
-699.514	-43.423	-0.132	0.068
-698.499	800.000	0.020	0.071
-697.485	624.790	0.119	0.308
-696.470	-4.277	-0.111	-0.079
-695.456	800.000	-0.036	0.123
-694.441	29.766	-0.077	0.067
-693.426	53.971	-0.094	0.092
-692.412	-22.743	-0.098	0.061
-691.397	540.783	-0.113	0.275
-690.383	34.232	-0.251	0.224
-689.368	-138.279	-0.243	-0.028
-688.354	-200.000	-0.004	-0.065
-687.339	183.697	-0.163	0.246
-686.324	134.347	-0.199	0.263
-685.310	-128.576	-0.376	-0.055
-684.295	-200.000	-0.017	-0.086
-683.281	-200.000	0.035	-0.370
-682.266	800.000	0.092	0.296
-681.251	135.515	0.080	-0.106
-680.237	-32.873	-0.314	0.178
-679.222	-200.000	-0.022	-0.154
-678.208	21.563	-0.101	0.084
-677.193	800.000	-0.160	-0.657
-676.178	635.763	0.061	0.159
-675.164	18.106	-0.251	-0.205
-674.149	189.876	-0.151	-0.232
-673.135	151.009	-0.194	0.270
-672.120	120.594	-0.080	-0.101
-671.105	-123.802	-0.248	-0.040
-670.091	800.000	-0.045	0.129
-669.076	-76.491	0.155	-0.056
-668.062	387.474	-0.147	-0.311
-667.047	-200.000	-0.034	-0.263
-666.032	-200.000	-0.055	0.262
-665.018	-58.924	-0.057	-0.025
-664.003	-145.640	-0.188	-0.017
-662.989	-17.579	-0.130	-0.083
-661.974	-119.356	0.072	-0.013
-660.959	102.759	0.055	0.065
-659.945	19.882	-0.264	-0.217
-658.930	62.986	-0.302	0.309
-657.916	-159.082	-0.154	-0.009
-656.901	-5.447	0.222	-0.155
-655.886	-200.000	0.052	-0.382
-654.872	-37.793	0.158	0.086
-653.857	211.906	-0.121	0.194
-652.843	72.150	0.194	-0.207
-651.828	314.014	0.113	0.217
-650.814	800.000	-0.120	0.358
-649.799	154.983	-0.071	-0.100
-648.784	-151.455	-0.242	0.018
-647.770	112.751	-0.257	-0.318
-646.755	-186.821	0.373	-0.005
-645.741	251.174	-0.074	-0.129
-644.726	-9.587	0.162	0.110
-643.711	-21.306	-0.239	0.149
-642.697	-200.000	-0.010	0.123
-641.682	79.827	-0.114	0.125
-640.668	-100.249	0.191	0.048
-639.653	61.679	-0.075	-0.077
-638.638	25.496	-0.042	0.035
-637.624	800.000	0.018	-0.075
-636.609	-104.797	0.216	0.051
-635.595	800.000	0.080	-0.344
-634.580	-200.000	-0.027	0.210
-633.565	5.579	0.180	0.136
-632.551	82.428	-0.054	-0.060
-631.536	46.958	-0.122	-0.116
-630.522	800.000	-0.099	0.332
-629.507	-200.000	0.047	0.240
-628.492	52.243	0.043	0.042
-627.478	-17.555	0.440	0.283
-626.463	-200.000	-0.023	0.381
-625.449	-40.963	-0.092	-0.048
-624.434	-200.000	0.001	-0.197
-623.419	-174.391	0.298	0.009
-622.405	-200.000	-0.022	-0.444
-621.390	-70.873	0.353	0.136
-620.376	800.000	-0.060	0.221
-619.361	-41.564	0.196	0.103
-618.346	-94.205	0.157	0.044
-617.332	111.140	-0.024	-0.029
-616.317	160.073	-0.131	-0.186
-615.303	-170.285	0.235	-0.008
-614.288	-37.763	0.191	-0.104
-613.273	565.431	-0.072	-0.177
-612.259	-88.702	-0.223	0.068
-611.244	63.909	0.174	-0.179
-610.230	16.552	0.233	-0.187
-609.215	-127.338	-0.263	-0.039
-608.201	-108.768	0.435	0.095
-607.186	-41.505	0.232	0.122
-606.171	-15.844	0.239	-0.156
-605.157	570.981	-0.156	0.387
-604.142	-66.232	0.061	0.025
-603.128	459.174	0.044	-0.100
-602.113	-200.000	0.006	-0.126
-601.098	34.205	0.140	-0.125
-600.084	226.295	0.079	-0.131
-599.069	-29.391	-0.400	0.233
-598.055	-134.733	0.080	-0.010
-597.040	-22.513	0.329	-0.203
-596.025	-34.607	0.085	-0.048
-595.011	-200.000	0.080	0.373
-593.996	-200.000	-0.008	-0.182
-592.982	-200.000	-0.105	0.538
-591.967	-7.657	-0.271	0.187
-590.952	115.238	-0.233	0.291
-589.938	-36.648	-0.092	-0.050
-588.923	-200.000	0.005	-0.286
-587.909	800.000	-0.077	0.218
-586.894	65.200	-0.153	-0.158
-585.879	-179.637	-0.254	-0.006
-584.865	9.049	0.190	0.146
-583.850	11.236	0.284	-0.221
-582.836	148.202	-0.251	-0.346
-581.821	800.000	-0.057	-0.254
-580.806	800.000	-0.073	-0.281
-579.792	800.000	0.064	-0.243
-578.777	-112.636	0.543	-0.110
-577.763	-173.874	-0.300	-0.009
-576.748	516.531	-0.154	-0.367
-575.733	-23.900	-0.166	0.101
-574.719	800.000	0.105	0.406
-573.704	575.506	-0.091	0.226
-572.690	-118.949	-0.295	-0.053
-571.675	-14.302	0.264	-0.173
-570.661	73.679	-0.039	-0.041
-569.646	-85.625	-0.183	0.058
-568.631	87.553	0.161	0.181
-567.617	-120.317	-0.086	-0.015
-566.602	-110.236	-0.395	-0.084
-565.588	-12.217	-0.288	-0.192
-564.573	30.517	-0.236	-0.205
-563.558	-3.586	0.108	0.076
-562.544	-172.078	0.113	0.004
-561.529	-200.000	0.022	-0.264
-560.515	-87.985	-0.358	0.109
-559.500	589.755	-0.096	-0.242
-558.485	39.401	-0.201	-0.183
-557.471	800.000	0.034	-0.128
-556.456	800.000	0.045	-0.157
-555.442	-85.674	0.120	0.038
-554.427	-200.000	0.040	-0.489
-553.412	179.585	0.237	-0.353
-552.398	-95.075	0.456	0.125
-551.383	800.000	0.043	0.164
-550.369	68.987	-0.070	0.074
-549.354	221.871	-0.034	0.056
-548.339	33.849	-0.376	-0.333
-547.325	468.687	0.092	0.211
-546.310	-13.356	-0.268	0.177
-545.296	155.482	0.147	0.206
-544.281	-200.000	-0.042	0.414
-543.266	-133.310	0.141	0.018
-542.252	78.981	-0.181	-0.198
-541.237	800.000	0.075	0.283
-540.223	-31.613	0.205	0.117
-539.208	73.616	0.223	0.238
-538.193	-170.976	0.253	0.009
-537.179	-200.000	-0.019	0.103
-536.164	269.745	0.137	0.245
-535.150	9.874	-0.250	-0.193
-534.135	-151.968	-0.319	-0.024
-533.121	70.902	-0.176	-0.185
-532.106	88.552	-0.161	-0.182
-531.091	471.508	-0.118	-0.269
-530.077	326.837	-0.133	-0.260
-529.062	-17.171	0.267	-0.171
-528.048	21.341	-0.065	-0.054
-527.033	-101.508	0.177	0.044
-526.018	15.448	0.187	-0.150
-525.004	124.497	0.121	0.154
-523.989	96.305	0.076	0.088
-522.975	-12.819	0.170	-0.112
-521.960	-7.068	0.135	-0.093
-520.945	226.802	-0.208	0.343
-519.931	-147.919	0.228	0.019
-518.916	317.315	-0.092	0.178
-517.902	-139.820	-0.194	0.021
-516.887	800.000	0.009	0.028
-515.872	-200.000	0.004	-0.044
-514.858	414.143	-0.037	-0.079
-513.843	-174.402	0.304	0.009
-512.829	-7.430	-0.235	-0.162
-511.814	800.000	-0.075	0.259
-510.799	800.000	-0.031	0.114
-509.785	-141.587	0.337	-0.035
-508.770	-109.408	-0.121	0.026
-507.756	-113.417	-0.242	-0.048
-506.741	-122.314	-0.255	-0.042
-505.726	-200.000	0.001	0.008
-504.712	-200.000	-0.009	0.327
-503.697	-67.639	0.134	-0.053
-502.683	-129.645	-0.294	0.041
-501.668	-144.745	-0.119	0.011
-500.653	41.483	-0.242	-0.222
-499.639	47.523	-0.243	-0.230
-498.624	-200.000	-0.046	0.213
-497.610	-200.000	-0.031	-0.253
-496.595	47.303	0.162	-0.153
-495.581	353.275	-0.004	0.008
-494.566	-26.972	-0.475	0.282
-493.551	-33.466	0.073	-0.041
-492.537	133.179	-0.068	-0.090
-491.522	15.025	-0.075	-0.060
-490.508	0.238	0.140	0.101
-489.493	-200.000	0.035	-0.178
-488.478	70.344	-0.242	-0.254
-487.464	34.793	-0.120	-0.106
-486.449	470.679	0.076	0.174
-485.435	-108.693	0.063	0.014
-484.420	85.118	0.147	0.163
-483.405	476.555	-0.134	0.307
-482.391	33.197	-0.056	-0.049
-481.376	167.491	0.167	0.241
-480.362	-200.000	-0.005	-0.078
-479.347	-25.844	-0.206	0.123
-478.332	325.460	0.021	0.042
-477.318	451.387	0.041	0.092
-476.303	184.000	0.052	-0.078
-475.289	779.771	0.006	0.016
-474.274	-60.896	0.088	-0.038
-473.259	800.000	-0.035	-0.123
-472.245	1.162	0.187	-0.136
-471.230	-111.046	-0.399	0.083
-470.216	-200.000	0.002	0.108
-469.201	-41.026	-0.238	0.125
-468.186	-27.476	-0.235	0.139
-467.172	8.542	0.050	0.038
-466.157	-46.782	0.021	-0.010
-465.143	-200.000	0.024	0.333
-464.128	130.557	0.063	0.082
-463.113	458.026	-0.041	-0.093
-462.099	-10.418	0.157	-0.106
-461.084	-200.000	0.038	0.225
-460.070	254.291	-0.054	0.093
-459.055	800.000	0.023	-0.065
-458.040	116.896	0.091	0.114
-457.026	291.833	0.053	0.098
-456.011	67.396	0.213	0.221
-454.997	322.237	0.173	-0.334
-453.982	-200.000	-0.001	0.032
-452.968	-53.371	-0.064	-0.030
-451.953	800.000	0.051	-0.156
-450.938	314.175	0.114	-0.218
-449.924	800.000	-0.041	-0.171
-448.909	-9.101	-0.196	0.133
-447.895	-86.946	-0.205	0.063
-446.880	14.587	-0.181	0.143
-445.865	800.000	-0.006	-0.021
-444.851	104.482	-0.186	0.222
-443.836	-88.228	0.295	-0.090
-442.822	-120.652	-0.057	0.010
-441.807	-33.954	0.056	0.031
-440.792	69.743	-0.151	-0.158
-439.778	-200.000	0.018	0.088
-438.763	-200.000	-0.030	-0.141
-437.749	-200.000	-0.296	0.001
-436.734	737.135	0.071	-0.192
-435.719	800.000	0.073	-0.222
-434.705	75.324	-0.133	0.142
-433.690	-159.953	0.192	-0.011
-432.676	42.242	0.102	-0.094
-431.661	-104.227	-0.171	0.040
-430.646	329.415	-0.108	0.210
-429.632	-200.000	0.006	0.085
-428.617	105.634	0.084	-0.101
-427.603	147.866	0.141	-0.192
-426.588	-100.162	0.108	-0.027
-425.573	-200.000	0.022	-0.155
-424.559	-92.125	0.469	-0.134
-423.544	-140.920	0.145	0.015
-422.530	-200.000	-0.040	0.339
-421.515	107.961	0.063	0.075
-420.500	161.115	0.042	0.059
-419.486	-105.466	-0.182	0.042
-418.471	-101.558	0.434	-0.107
-417.457	23.364	0.337	0.280
-416.442	-76.045	-0.068	0.024
-415.428	138.961	0.138	0.184
-414.413	-60.565	0.195	0.084
-413.398	-44.591	-0.222	0.112
-412.384	81.769	0.068	-0.075
-411.369	-200.000	-0.031	0.243
-410.355	800.000	-0.098	0.404
-409.340	-95.850	0.170	-0.046
-408.325	113.653	-0.119	0.147
-407.311	-200.000	0.004	0.079
-406.296	13.607	0.245	0.192
-405.282	112.537	-0.097	0.119
-404.267	-48.747	0.131	-0.063
-403.252	-24.449	-0.312	-0.188
-402.238	-200.000	-0.023	0.283
-401.223	52.720	0.306	-0.296
-400.209	-89.010	0.200	-0.060
-399.194	-200.000	0.024	0.233
-398.179	-113.983	-0.228	0.045
-397.165	-200.000	0.013	-0.068
-396.150	-200.000	-0.026	0.154
-395.136	-150.582	-0.186	0.014
-394.121	38.396	-0.136	0.122
-393.106	-200.000	-0.006	-0.183
-392.092	201.840	-0.133	-0.208
-391.077	251.280	-0.147	0.253
-390.063	-26.175	-0.040	-0.024
-389.048	-200.000	-0.010	0.187
-388.033	-100.301	0.128	0.032
-387.019	610.834	-0.119	0.301
-386.004	-200.000	0.032	-0.324
-384.990	82.070	-0.140	-0.153
-383.975	677.193	0.067	0.175
-382.960	-159.178	0.317	-0.018
-381.946	-150.889	-0.193	-0.015
-380.931	-200.000	-0.022	0.130
-379.917	-84.337	0.262	-0.084
-378.902	-46.763	-0.204	0.101
-377.888	-38.422	-0.217	-0.116
-376.873	-200.000	0.009	0.140
-375.858	-200.000	-0.011	0.104
-374.844	277.297	-0.096	-0.173
-373.829	-200.000	0.012	0.256
-372.815	20.099	-0.123	-0.100
-371.800	238.875	0.055	-0.092
-370.785	374.721	0.066	-0.136
-369.771	241.341	-0.124	-0.209
-368.756	800.000	0.046	-0.191
-367.742	111.948	-0.182	-0.222
-366.727	501.910	-0.076	0.178
-365.712	72.788	-0.222	-0.235
-364.698	-21.405	0.166	0.102
-363.683	65.748	-0.234	0.239
-362.669	-115.616	0.021	0.004
-361.654	-3.058	0.042	-0.029
-360.639	-163.686	0.131	-0.006
-359.625	800.000	0.020	-0.080
-358.610	80.518	0.007	0.008
-357.596	425.779	-0.096	-0.209
-356.581	800.000	-0.098	0.304
-355.566	133.517	0.049	0.063
-354.552	133.668	0.102	-0.134
-353.537	-200.000	-0.064	0.341
-352.523	136.648	0.065	-0.086
-351.508	800.000	0.052	-0.201
-350.493	-74.111	-0.063	-0.023
-349.479	304.751	0.105	0.196
-348.464	222.393	0.262	-0.426
-347.450	59.007	0.263	-0.261
-346.435	-130.872	0.416	0.056
-345.420	475.697	0.139	0.316
-344.406	-134.547	0.226	-0.028
-343.391	-200.000	-0.019	0.117
-342.377	-200.000	-0.001	0.303
-341.362	-100.050	-0.117	-0.029
-340.348	104.806	0.193	-0.230
-339.333	-29.551	0.150	-0.086
-338.318	800.000	0.015	-0.067
-337.304	-200.000	0.028	-0.289
-336.289	-4.582	0.094	-0.066
-335.275	-73.020	0.189	0.070
-334.260	-63.506	-0.307	0.127
-333.245	-72.724	0.131	-0.049
-332.231	75.234	-0.214	0.228
-331.216	331.099	-0.119	-0.231
-330.202	-200.000	-0.001	-0.241
-329.187	-98.176	0.229	-0.059
-328.172	169.001	0.056	-0.080
-327.158	-132.657	-0.042	-0.005
-326.143	-200.000	-0.079	0.389
-325.129	166.614	0.117	-0.168
-324.114	209.328	-0.039	-0.061
-323.099	-200.000	0.009	-0.185
-322.085	712.725	-0.083	0.223
-321.070	-200.000	-0.034	0.321
-320.056	-120.639	-0.176	-0.030
-319.041	337.500	0.120	-0.235
-318.026	-54.803	-0.226	0.103
-317.012	-200.000	0.022	0.198
-315.997	255.267	-0.017	0.030
-314.983	-131.887	0.200	0.026
-313.968	-95.599	-0.310	-0.084
-312.953	69.719	-0.176	0.183
-311.939	345.751	-0.085	0.169
-310.924	-81.754	0.334	0.110
-309.910	-200.000	-0.008	0.136
-308.895	-142.936	-0.296	0.029
-307.880	579.124	-0.043	-0.105
-306.866	-20.117	0.179	0.111
-305.851	-200.000	-0.017	0.208
-304.837	-49.009	0.077	-0.037
-303.822	800.000	0.066	0.192
-302.807	-103.497	-0.418	0.099
-301.793	-61.407	-0.229	-0.097
-300.778	-200.000	-0.004	-0.058
-299.764	-200.000	-0.008	0.156
-298.749	-200.000	0.004	-0.249
-297.735	291.826	0.210	-0.385
-296.720	-23.855	-0.452	0.272
-295.705	212.256	0.182	0.289
-294.691	218.471	0.064	0.103
-293.676	-120.479	-0.430	0.074
-292.662	-173.211	-0.110	-0.003
-291.647	-184.619	0.165	0.003
-290.632	232.933	-0.019	-0.031
-289.618	147.722	-0.034	-0.046
-288.603	-48.503	0.312	-0.151
-287.589	-148.981	-0.210	0.017
-286.574	-200.000	-0.011	-0.220
-285.559	-83.643	0.259	-0.083
-284.545	-200.000	-0.031	0.149
-283.530	-122.262	-0.143	0.024
-282.516	90.619	0.127	0.143
-281.501	-7.373	-0.074	-0.050
-280.486	24.194	-0.163	-0.136
-279.472	3.141	-0.152	0.112
-278.457	258.774	-0.120	-0.209
-277.443	-114.024	-0.250	-0.049
-276.428	-25.176	-0.484	0.289
-275.413	-200.000	0.006	-0.090
-274.399	30.355	0.224	0.193
-273.384	328.188	-0.050	-0.097
-272.370	11.417	0.049	0.038
-271.355	800.000	0.015	0.062
-270.340	-47.237	0.192	0.094
-269.326	191.103	0.059	0.089
-268.311	-173.427	0.219	-0.007
-267.297	-200.000	0.019	-0.187
-266.282	406.686	-0.116	-0.246
-265.267	-25.738	-0.056	0.033
-264.253	484.995	-0.073	0.168
-263.238	-96.995	0.194	-0.051
-262.224	800.000	-0.102	-0.298
-261.209	-200.000	0.042	0.237
-260.195	800.000	0.045	-0.197
-259.180	256.344	0.008	0.015
-258.165	-153.660	-0.265	-0.018
-257.151	133.916	0.149	-0.194
-256.136	148.730	0.144	0.196
-255.122	130.901	0.044	-0.057
-254.107	-36.718	-0.338	0.183
-253.092	-55.429	-0.084	0.038
-252.078	-14.843	0.306	0.197
-251.063	541.523	-0.081	-0.194
-250.049	1.686	0.080	-0.058
-249.034	581.178	-0.077	-0.189
-248.019	-159.021	-0.169	-0.010
-247.005	-13.590	0.169	-0.110
-245.990	-120.957	0.332	0.056
-244.976	-200.000	0.055	-0.268
-243.961	124.905	0.140	0.178
-242.946	-107.507	-0.164	0.036
-241.932	-78.773	0.182	-0.063
-240.917	-119.006	-0.102	0.018
-239.903	-80.270	0.093	0.031
-238.888	-131.437	-0.260	-0.035
-237.873	-101.620	0.362	-0.088
-236.859	145.279	-0.134	-0.180
-235.844	-169.572	-0.304	0.011
-234.830	584.124	0.143	0.353
-233.815	-200.000	0.038	0.376
-232.800	-113.553	0.301	-0.059
-231.786	743.154	-0.013	0.035
-230.771	-146.697	-0.116	-0.010
-229.757	132.220	-0.130	-0.168
-228.742	-7.497	-0.263	-0.179
-227.727	223.842	-0.155	0.251
-226.713	-200.000	-0.006	0.397
-225.698	596.031	-0.035	0.086
-224.684	239.750	0.127	-0.212
-223.669	-109.298	0.262	0.056
-222.655	-40.748	0.253	0.132
-221.640	-83.982	0.344	-0.110
-220.625	-200.000	0.010	-0.390
-219.611	71.213	0.139	0.145
-218.596	-200.000	0.009	-0.188
-217.582	-200.000	0.030	-0.297
-216.567	-48.942	-0.221	-0.106
-215.552	-8.923	0.192	0.130
-214.538	-102.154	-0.039	-0.009
-213.523	85.862	0.180	0.199
-212.509	-200.000	-0.068	-0.420
-211.494	-191.841	-0.270	-0.003
-210.479	-99.277	0.068	0.017
-209.465	-65.631	0.214	-0.086
-208.450	-49.878	-0.102	0.049
-207.436	63.391	0.106	-0.106
-206.421	184.642	-0.152	0.226
-205.406	10.110	0.241	0.184
-204.392	240.120	-0.048	-0.081
-203.377	685.038	-0.106	-0.278
-202.363	-5.093	0.144	-0.100
-201.348	27.145	-0.074	-0.062
-200.333	411.172	0.123	-0.262
-199.319	432.712	-0.030	-0.066
-198.304	-23.684	-0.249	0.150
-197.290	198.590	0.188	-0.290
-196.275	-48.377	-0.115	-0.056
-195.260	-134.321	-0.178	-0.022
-194.246	-11.205	-0.323	0.214
-193.231	-31.818	0.295	0.166
-192.217	139.103	0.126	-0.166
-191.202	38.910	-0.032	0.029
-190.187	-200.000	0.018	-0.198
-189.173	149.736	-0.174	0.237
-188.158	-182.576	0.274	-0.005
-187.144	-200.000	-0.003	-0.427
-186.129	96.370	-0.080	-0.092
-185.114	111.625	0.081	-0.098
-184.100	800.000	0.056	-0.225
-183.085	-71.441	0.192	-0.072
-182.071	-200.000	0.028	0.166
-181.056	-141.666	-0.420	-0.042
-180.042	-72.261	0.310	0.115
-179.027	269.580	-0.122	-0.216
-178.012	-47.676	-0.303	-0.147
-176.998	88.913	-0.200	0.223
-175.983	-134.354	-0.069	-0.008
-174.969	-138.680	-0.135	-0.015
-173.954	-200.000	0.013	0.238
-172.939	-200.000	0.042	-0.193
-171.925	-200.000	-0.032	0.194
-170.910	-71.014	-0.108	0.041
-169.896	693.107	-0.111	-0.293
-168.881	669.817	0.055	0.144
-167.866	20.707	-0.109	-0.088
-166.852	-55.992	-0.224	-0.100
-165.837	146.006	0.103	0.139
-164.823	-200.000	0.021	0.153
-163.808	8.701	0.159	-0.120
-162.793	-200.000	0.069	-0.469
-161.779	-177.966	-0.125	0.003
-160.764	115.432	-0.208	-0.255
-159.750	-50.118	0.093	0.044
-158.735	-179.539	0.148	-0.003
-157.720	154.477	0.275	0.378
-156.706	-200.000	-0.028	0.239
-155.691	-105.841	0.565	0.128
-154.677	253.836	-0.171	0.293
-153.662	93.304	0.112	-0.127
-152.647	-81.326	0.145	0.048
-151.633	800.000	-0.042	-0.168
-150.618	18.998	-0.231	0.185
-149.604	174.621	0.142	-0.206
-148.589	-23.814	0.170	-0.102
-147.574	46.169	-0.091	0.085
-146.560	18.612	0.121	-0.097
-145.545	69.707	-0.045	0.046
-144.531	-103.301	-0.250	-0.059
-143.516	16.077	0.033	0.026
-142.502	130.642	-0.228	0.292
-141.487	222.326	0.128	-0.206
-140.472	38.168	0.077	0.069
-139.458	-200.000	-0.035	0.284
-138.443	-200.000	0.002	0.217
-137.429	-66.950	-0.200	0.079
-136.414	-36.392	0.212	0.115
-135.399	-50.564	-0.189	0.089
-134.385	80.205	0.255	-0.275
-133.370	-14.778	-0.079	-0.051
-132.356	-172.715	0.213	0.007
-131.341	341.977	-0.087	-0.171
-130.326	251.058	0.129	0.220
-129.312	-200.000	0.204	0.001
-128.297	309.676	-0.179	-0.335
-127.283	-172.349	-0.473	-0.015
-126.268	32.609	0.239	0.207
-125.253	-150.659	-0.513	0.039
-124.239	-191.994	-0.246	0.002
-123.224	-107.003	0.044	-0.010
-122.210	102.912	-0.156	0.182
