DTS Sentinel unit serial number:	SN413079Multiplexer serial number:	ORYXHardware model number:	OX4-SRSoftware version number:	ORYX F/W v4.00 Oryx Data Collector v3.7.2.0data status	okinstallation	princeton_trtdifferential loss correction	single-endedforward channel	channel 4reverse channel	N/Adate	2019/09/17time	10:49:35forward acquisition time	60.00reverse acquisition time	0.00gamma	496.2192k internal	0.2310k external	0.2310temperature offset calibration	0.9975default loss term (dB/km)	0.3790temperature slope calibration	1.0000multiplexer offset coefficient	1.0000multiplexer slope coefficient	1.0000fibre end	0.00T internal ref (°C)	30.19T ext. ref 1 (°C)	0.19T ext. ref 2 (°C)	25.77length (m)	temperature (°C)	Stokes	anti-Stokes-747.200	-200.000	0.033	0.206
-746.185	56.023	-0.045	0.044
-745.171	299.257	0.059	0.110
-744.156	800.000	0.070	0.305
-743.142	-200.000	0.017	0.082
-742.127	800.000	-0.140	0.578
-741.112	-200.000	-0.071	0.622
-740.098	104.443	0.225	-0.269
-739.083	136.733	-0.056	-0.074
-738.069	87.805	-0.296	0.334
-737.054	161.780	-0.142	-0.203
-736.039	-200.000	-0.044	-0.490
-735.025	60.829	0.092	-0.093
-734.010	-153.143	-0.055	0.004
-732.996	-139.646	-0.307	-0.033
-731.981	-165.086	-0.176	0.008
-730.966	-82.917	0.284	0.093
-729.952	-67.828	-0.075	0.030
-728.937	171.333	-0.088	-0.128
-727.923	-64.093	0.125	0.052
-726.908	321.910	-0.258	-0.499
-725.894	-105.936	-0.155	-0.035
-724.879	161.770	-0.132	-0.187
-723.864	-52.617	-0.272	-0.128
-722.850	-53.380	-0.484	0.225
-721.835	-200.000	-0.007	-0.120
-720.821	18.284	-0.206	0.167
-719.806	234.941	-0.095	-0.160
-718.791	71.474	-0.165	0.174
-717.777	629.698	0.099	0.254
-716.762	-141.197	0.137	0.014
-715.748	-30.009	-0.246	0.142
-714.733	197.353	0.311	-0.482
-713.718	800.000	-0.166	-0.488
-712.704	198.829	0.177	0.274
-711.689	339.134	-0.121	0.240
-710.675	27.418	-0.093	-0.080
-709.660	45.792	0.076	-0.071
-708.645	800.000	0.098	0.291
-707.631	94.636	-0.166	-0.192
-706.616	217.137	0.083	-0.134
-705.602	-159.063	0.130	-0.007
-704.587	-97.334	-0.223	0.059
-703.572	111.564	0.134	-0.163
-702.558	-44.420	-0.033	0.017
-701.543	-4.532	-0.065	0.046
-700.529	182.365	-0.152	0.227
-699.514	-172.294	-0.231	0.007
-698.499	-200.000	0.023	0.347
-697.485	-200.000	-0.003	-0.038
-696.470	-200.000	0.004	-0.025
-695.456	180.606	0.091	-0.136
-694.441	-200.000	0.052	-0.349
-693.426	24.124	0.249	-0.208
-692.412	-42.653	0.174	0.090
-691.397	800.000	0.114	-0.324
-690.383	-35.446	-0.428	-0.236
-689.368	68.978	-0.206	-0.215
-688.354	-131.904	0.389	-0.051
-687.339	533.123	-0.122	0.292
-686.324	-189.137	-0.278	0.003
-685.310	63.056	0.292	0.296
-684.295	-200.000	-0.003	-0.066
-683.281	-179.219	-0.201	0.005
-682.266	-69.229	-0.055	0.022
-681.251	-60.518	-0.120	0.052
-680.237	206.146	-0.122	0.193
-679.222	-200.000	0.008	0.184
-678.208	5.668	-0.090	-0.067
-677.193	-104.514	0.229	-0.054
-676.178	13.143	-0.071	-0.056
-675.164	-169.890	-0.145	-0.005
-674.149	73.928	0.169	-0.180
-673.135	-78.681	0.029	0.010
-672.120	107.435	-0.129	-0.155
-671.105	2.001	-0.199	0.145
-670.091	325.949	-0.043	-0.083
-669.076	70.962	0.079	0.083
-668.062	785.661	-0.044	-0.121
-667.047	11.060	-0.310	0.240
-666.032	-1.407	0.081	-0.058
-665.018	65.319	0.254	0.260
-664.003	800.000	0.062	-0.193
-662.989	222.741	-0.126	-0.206
-661.974	-42.067	-0.276	-0.143
-660.959	366.688	-0.069	0.140
-659.945	-101.304	-0.140	-0.035
-658.930	-59.984	0.202	-0.088
-657.916	-120.553	0.248	0.042
-656.901	-103.305	-0.472	-0.113
-655.886	-20.285	0.166	-0.104
-654.872	-2.964	0.274	0.194
-653.857	-200.000	-0.211	-0.001
-652.843	400.083	0.116	0.245
-651.828	95.822	0.074	-0.085
-650.814	362.271	0.111	-0.226
-649.799	425.630	0.014	0.030
-648.784	256.599	-0.071	-0.123
-647.770	800.000	-0.010	0.034
-646.755	90.617	-0.264	0.299
-645.741	281.478	-0.016	-0.028
-644.726	-200.000	0.024	-0.136
-643.711	95.855	-0.091	0.105
-642.697	176.073	0.065	0.095
-641.682	-16.149	0.063	-0.040
-640.668	-111.522	0.083	-0.017
-639.653	-138.367	0.430	0.048
-638.638	510.867	-0.079	0.185
-637.624	-200.000	-0.505	0.000
-636.609	-41.695	-0.047	0.024
-635.595	-2.776	0.265	0.187
-634.580	800.000	0.051	-0.198
-633.565	-128.238	0.130	-0.019
-632.551	-65.907	0.115	0.046
-631.536	182.140	0.091	-0.136
-630.522	148.095	-0.080	-0.109
-629.507	-91.047	-0.188	0.055
-628.492	73.894	0.168	-0.178
-627.478	14.047	0.082	-0.065
-626.463	6.835	0.121	-0.091
-625.449	800.000	-0.046	0.133
-624.434	-200.000	-0.063	0.346
-623.419	-200.000	-0.055	0.268
-622.405	-11.279	0.172	0.115
-621.390	-149.466	0.092	0.007
-620.376	106.426	-0.380	0.456
-619.361	368.726	0.039	0.080
-618.346	-107.390	-0.198	-0.044
-617.332	-66.243	0.308	-0.124
-616.317	60.906	0.080	0.080
-615.303	48.881	-0.149	-0.141
-614.288	158.059	0.108	0.151
-613.273	-76.112	-0.225	0.080
-612.259	87.740	0.220	0.246
-611.244	75.003	-0.226	-0.240
-610.230	84.946	0.125	-0.138
-609.215	-94.858	0.208	-0.057
-608.201	800.000	-0.025	-0.080
-607.186	-142.247	-0.344	-0.034
-606.171	159.969	-0.298	0.419
-605.157	-157.935	0.263	0.016
-604.142	-18.276	0.362	-0.228
-603.128	234.673	-0.081	-0.134
-602.113	-200.000	0.008	-0.216
-601.098	107.301	0.305	0.366
-600.084	-200.000	-0.046	-0.216
-599.069	118.309	0.086	-0.107
-598.055	800.000	0.075	0.236
-597.040	572.240	0.111	-0.274
-596.025	220.519	0.115	0.187
-595.011	-28.714	0.114	0.066
-593.996	37.307	-0.084	0.075
-592.982	194.490	-0.063	-0.097
-591.967	-157.821	0.442	0.026
-590.952	-102.742	0.226	-0.054
-589.938	-142.147	0.032	-0.003
-588.923	87.891	-0.218	-0.244
-587.909	271.923	-0.100	-0.178
-586.894	-30.814	0.391	-0.223
-585.879	248.288	0.097	-0.165
-584.865	59.399	-0.287	0.286
-583.850	1.216	0.199	0.144
-582.836	-171.824	0.208	-0.007
-581.821	-75.576	-0.151	0.054
-580.806	59.585	-0.106	0.105
-579.792	-95.502	-0.119	0.032
-578.777	-101.678	0.070	-0.017
-577.763	-27.148	-0.269	-0.158
-576.748	-200.000	0.024	0.257
-575.733	800.000	-0.084	0.269
-574.719	464.532	0.104	0.234
-573.704	24.464	0.120	0.100
-572.690	-15.795	0.141	-0.091
-571.675	139.344	0.096	-0.127
-570.661	54.828	0.240	-0.234
-569.646	-65.406	-0.452	-0.183
-568.631	-153.443	0.267	-0.019
-567.617	240.664	0.139	0.233
-566.602	219.414	0.175	0.283
-565.588	-120.688	-0.079	0.013
-564.573	267.075	0.109	0.193
-563.558	100.620	-0.096	0.112
-562.544	-200.000	-0.032	0.155
-561.529	800.000	-0.069	-0.237
-560.515	-62.577	0.218	-0.091
-559.500	800.000	-0.075	0.237
-558.485	-200.000	0.027	0.206
-557.471	-132.587	-0.190	0.025
-556.456	11.567	-0.423	0.327
-555.442	-111.261	-0.095	-0.019
-554.427	28.910	-0.140	-0.120
-553.412	141.192	-0.255	0.340
-552.398	-107.192	-0.137	0.030
-551.383	-200.000	0.015	0.278
-550.369	144.402	-0.032	0.042
-549.354	16.274	0.033	-0.026
-548.339	-57.694	-0.043	0.019
-547.325	165.286	0.093	0.133
-546.310	-200.000	0.071	0.441
-545.296	-174.601	-0.230	0.007
-544.281	17.281	-0.118	-0.095
-543.266	6.919	0.124	0.093
-542.252	-91.007	-0.270	0.078
-541.237	-129.039	0.279	-0.039
-540.223	-58.871	-0.106	0.046
-539.208	157.951	0.083	-0.116
-538.193	-200.000	0.094	-0.502
-537.179	-198.200	0.241	0.001
-536.164	62.479	-0.121	-0.122
-535.150	-200.000	0.018	0.095
-534.135	-63.093	-0.081	-0.034
-533.121	220.478	-0.222	-0.359
-532.106	800.000	0.092	-0.337
-531.091	166.198	0.076	-0.109
-530.077	-185.588	-0.347	0.005
-529.062	-156.438	-0.263	0.017
-528.048	601.420	0.084	-0.211
-527.033	354.492	-0.065	-0.129
-526.018	30.071	-0.192	-0.165
-525.004	-200.000	-0.004	-0.139
-523.989	800.000	0.028	-0.124
-522.975	-35.484	-0.313	-0.171
-521.960	5.690	0.242	-0.180
-520.945	-106.401	-0.236	0.053
-519.931	132.953	0.076	-0.098
-518.916	8.116	0.284	-0.215
-517.902	70.677	-0.123	0.128
-516.887	533.808	-0.049	0.117
-515.872	373.713	0.103	0.212
-514.858	501.517	0.105	-0.243
-513.843	-200.000	-0.018	0.128
-512.829	-200.000	0.025	0.227
-511.814	120.783	-0.155	-0.193
-510.799	-200.000	0.007	0.070
-509.785	800.000	-0.041	-0.148
-508.770	152.588	0.004	0.005
-507.756	-37.642	-0.322	-0.173
-506.741	28.960	0.117	-0.100
-505.726	-200.000	-0.070	0.362
-504.712	-136.594	0.353	-0.041
-503.697	112.221	0.066	0.080
-502.683	-24.215	-0.258	-0.155
-501.668	-200.000	-0.004	-0.155
-500.653	-137.691	-0.219	-0.025
-499.639	800.000	-0.048	-0.145
-498.624	-84.983	0.237	0.075
-497.610	499.387	0.123	-0.286
-496.595	-182.273	0.202	0.004
-495.581	168.637	-0.093	0.134
-494.566	73.152	-0.140	0.147
-493.551	-200.000	0.026	-0.203
-492.537	240.822	-0.061	0.102
-491.522	215.442	-0.111	0.178
-490.508	-200.000	-0.042	-0.203
-489.493	-64.183	-0.126	-0.051
-488.478	224.935	-0.106	0.172
-487.464	-179.736	0.063	-0.001
-486.449	-200.000	0.052	-0.294
-485.435	800.000	0.047	-0.183
-484.420	-200.000	-0.000	0.086
-483.405	144.167	-0.138	-0.185
-482.391	800.000	-0.016	-0.061
-481.376	394.270	-0.084	-0.175
-480.362	68.837	-0.127	-0.131
-479.347	-78.723	0.446	-0.153
-478.332	-200.000	-0.007	-0.178
-477.318	-73.662	-0.247	-0.090
-476.303	-200.000	0.018	0.244
-475.289	-11.401	0.200	0.132
-474.274	-138.169	0.039	-0.004
-473.259	800.000	-0.066	-0.270
-472.245	-160.632	0.311	-0.017
-471.230	235.420	-0.186	0.308
-470.216	-101.505	-0.256	-0.062
-469.201	539.880	0.115	0.274
-468.186	5.765	0.019	-0.014
-467.172	-53.726	-0.353	-0.162
-466.157	340.889	0.187	0.367
-465.143	-200.000	-0.073	-0.432
-464.128	31.706	-0.144	-0.124
-463.113	-104.617	-0.073	0.017
-462.099	800.000	0.083	0.262
-461.084	-51.651	-0.079	0.037
-460.070	244.481	0.141	-0.238
-459.055	-29.239	0.032	-0.018
-458.040	-71.542	0.284	0.107
-457.026	14.400	0.131	0.103
-456.011	-37.146	0.061	-0.033
-454.997	-200.000	-0.013	0.188
-453.982	-200.000	-0.006	0.037
-452.968	120.531	0.257	-0.321
-451.953	-62.871	0.233	-0.097
-450.938	-28.578	-0.075	-0.043
-449.924	-200.000	0.070	-0.398
-448.909	67.289	-0.121	0.123
-447.895	-200.000	0.069	-0.415
-446.880	800.000	0.083	-0.266
-445.865	-11.400	0.139	0.092
-444.851	8.106	0.159	-0.120
-443.836	-156.490	-0.150	-0.009
-442.822	-116.628	0.123	-0.023
-441.807	-56.538	0.150	0.067
-440.792	-36.258	0.058	0.031
-439.778	0.134	-0.230	0.165
-438.763	-200.000	-0.006	-0.100
-437.749	-46.931	0.141	-0.069
-436.734	800.000	0.042	0.143
-435.719	800.000	0.023	0.094
-434.705	122.807	-0.108	0.135
-433.690	784.578	-0.047	0.129
-432.676	35.090	0.174	-0.153
-431.661	39.659	0.081	-0.073
-430.646	-200.000	0.019	-0.169
-429.632	736.972	-0.040	0.107
-428.617	-200.000	0.017	-0.115
-427.603	-187.316	0.464	-0.006
-426.588	180.907	0.018	-0.026
-425.573	-97.916	-0.273	-0.071
-424.559	-200.000	-0.054	-0.268
-423.544	343.898	0.173	-0.339
-422.530	126.902	0.239	0.304
-421.515	11.194	-0.099	0.076
-420.500	4.610	0.075	-0.055
-419.486	800.000	-0.093	0.376
-418.471	-200.000	0.030	-0.250
-417.457	-200.000	-0.003	-0.052
-416.442	87.562	-0.121	-0.135
-415.428	725.679	-0.134	0.359
-414.413	79.525	-0.169	-0.181
-413.398	-114.234	0.262	0.051
-412.384	138.450	-0.040	-0.053
-411.369	-200.000	-0.007	-0.165
-410.355	800.000	0.094	-0.335
-409.340	125.128	0.317	-0.400
-408.325	61.264	-0.239	0.238
-407.311	62.812	0.073	0.073
-406.296	-28.261	0.138	-0.080
-405.282	1.821	0.064	-0.047
-404.267	800.000	-0.043	0.158
-403.252	800.000	0.025	-0.088
-402.238	-147.154	0.292	0.025
-401.223	-99.388	-0.115	-0.029
-400.209	-35.222	0.061	-0.033
-399.194	-123.212	-0.317	-0.051
-398.179	3.444	-0.148	0.108
-397.165	-97.160	0.351	0.092
-396.150	377.846	0.179	0.366
-395.136	-47.628	-0.092	-0.045
-394.121	-29.540	-0.091	-0.052
-393.106	86.157	0.127	0.140
-392.092	770.869	-0.009	0.026
-391.077	72.366	0.183	0.191
-390.063	-93.154	-0.112	0.031
-389.048	800.000	-0.013	0.051
-388.033	-188.890	-0.284	-0.003
-387.019	-200.000	0.036	-0.272
-386.004	-192.214	-0.104	0.001
-384.990	800.000	0.039	0.173
-383.975	-86.984	-0.294	0.090
-382.960	-20.597	-0.205	-0.126
-381.946	76.770	0.199	-0.212
-380.931	-33.407	-0.314	0.174
-379.917	334.518	0.165	-0.319
-378.902	-48.221	-0.410	-0.198
-377.888	-52.569	-0.192	0.089
-376.873	800.000	-0.031	-0.085
-375.858	-63.748	-0.268	0.110
-374.844	144.479	0.082	0.110
-373.829	361.396	-0.136	-0.272
-372.815	52.404	0.079	-0.075
-371.800	-200.000	0.005	-0.031
-370.785	70.224	0.111	-0.114
-369.771	-25.847	0.241	0.142
-368.756	800.000	0.122	-0.405
-367.742	800.000	-0.068	-0.214
-366.727	32.583	0.141	0.122
-365.712	343.109	0.154	0.301
-364.698	20.593	0.166	0.134
-363.683	-135.247	0.255	-0.031
-362.669	514.377	0.098	-0.230
-361.654	-43.260	-0.238	-0.121
-360.639	-150.926	-0.458	0.035
-359.625	69.339	-0.209	0.215
-358.610	800.000	0.057	0.188
-357.596	-100.026	0.203	-0.051
-356.581	800.000	0.072	0.293
-355.566	-200.000	-0.009	0.101
-354.552	-154.271	-0.206	0.014
-353.537	-57.446	0.335	0.147
-352.523	45.043	-0.127	-0.117
-351.508	-200.000	0.008	-0.103
-350.493	134.484	-0.027	0.035
-349.479	33.518	-0.136	0.118
-348.464	-200.000	0.059	0.284
-347.450	-200.000	0.009	0.170
-346.435	-115.077	-0.226	-0.043
-345.420	4.301	0.267	-0.196
-344.406	233.750	0.064	-0.105
-343.391	-165.136	-0.203	0.009
-342.377	80.002	0.129	-0.139
-341.362	3.505	-0.203	-0.148
-340.348	177.017	-0.175	0.255
-339.333	-105.696	-0.366	-0.083
-338.318	-43.112	-0.225	0.114
-337.304	-18.967	0.097	-0.060
-336.289	722.727	-0.154	-0.410
-335.275	62.006	0.157	-0.156
-334.260	326.203	0.072	-0.138
-333.245	86.989	-0.130	-0.143
-332.231	354.523	-0.058	-0.115
-331.216	-83.634	-0.374	0.120
-330.202	-147.033	-0.041	-0.003
-329.187	800.000	0.045	-0.131
-328.172	-9.366	0.142	-0.094
-327.158	-86.245	-0.380	-0.117
-326.143	-14.588	0.283	0.182
-325.129	-67.841	0.286	0.112
-324.114	-52.071	-0.222	-0.103
-323.099	217.392	-0.133	-0.211
-322.085	-150.161	0.102	-0.008
-321.070	222.870	0.102	-0.164
-320.056	-73.938	-0.228	0.082
-319.041	-157.134	-0.058	0.004
-318.026	-200.000	0.010	-0.099
-317.012	-21.691	0.069	0.042
-315.997	-57.582	0.215	0.094
-314.983	716.204	0.012	-0.032
-313.968	10.594	-0.132	0.100
-312.953	-137.756	0.065	-0.007
-311.939	-147.188	0.085	0.007
-310.924	800.000	0.080	0.221
-309.910	274.177	0.076	0.134
-308.895	-200.000	0.033	0.166
-307.880	800.000	-0.104	0.298
-306.866	95.596	-0.029	0.034
-305.851	-200.000	0.039	0.308
-304.837	401.165	-0.124	-0.260
-303.822	-46.224	0.264	-0.129
-302.807	115.072	0.055	0.068
-301.793	520.166	0.113	0.263
-300.778	48.674	-0.279	-0.262
-299.764	-34.519	-0.102	-0.056
-298.749	119.474	-0.069	0.085
-297.735	-64.082	-0.150	-0.061
-296.720	-104.952	-0.198	-0.045
-295.705	4.636	0.034	-0.025
-294.691	-138.457	-0.397	-0.044
-293.676	-0.452	0.299	0.212
-292.662	115.926	-0.100	0.122
-291.647	382.963	0.150	0.309
-290.632	-115.986	-0.357	0.066
-289.618	-59.940	-0.191	-0.081
-288.603	339.194	0.086	0.167
-287.589	72.693	-0.135	-0.141
-286.574	185.781	0.169	-0.251
-285.559	498.091	0.035	-0.080
-284.545	137.158	-0.191	0.249
-283.530	-200.000	0.066	-0.295
-282.516	161.369	0.076	-0.106
-281.501	-12.944	0.282	-0.183
-280.486	207.663	0.166	0.259
-279.472	-200.000	-0.002	-0.111
-278.457	-74.278	-0.553	-0.199
-277.443	-67.015	-0.146	-0.057
-276.428	206.638	-0.132	-0.206
-275.413	-200.000	0.001	-0.174
-274.399	-200.000	-0.010	0.183
-273.384	800.000	0.011	0.036
-272.370	-38.776	0.239	-0.126
-271.355	-52.922	-0.218	0.100
-270.340	63.347	-0.331	0.331
-269.326	-59.441	-0.143	-0.061
-268.311	-88.653	0.222	-0.066
-267.297	78.051	-0.329	-0.349
-266.282	559.823	0.096	-0.231
-265.267	-64.099	-0.176	-0.072
-264.253	-41.045	0.071	0.037
-263.238	-200.000	-0.009	-0.196
-262.224	-200.000	-0.010	-0.223
-261.209	-28.479	-0.185	0.106
-260.195	39.777	-0.080	-0.071
-259.180	-33.866	0.237	-0.130
-258.165	-98.679	0.189	0.048
-257.151	-200.000	-0.050	0.371
-256.136	-200.000	-0.095	0.581
-255.122	-200.000	-0.033	0.149
-254.107	-80.010	0.177	-0.059
-253.092	-200.000	-0.039	0.491
-252.078	394.080	0.060	0.125
-251.063	26.836	-0.264	-0.220
-250.049	50.461	0.333	0.314
-249.034	41.030	0.166	-0.150
-248.019	17.932	0.082	-0.065
-247.005	-200.000	-0.052	0.349
-245.990	361.178	0.131	0.262
-244.976	-200.000	-0.130	-0.650
-243.961	-89.166	0.356	-0.105
-242.946	785.563	-0.037	-0.101
-241.932	-81.725	0.364	-0.119
-240.917	-16.802	-0.259	0.163
-239.903	-171.222	-0.167	0.006
-238.888	167.808	-0.109	0.155
-237.873	13.707	-0.399	-0.309
-236.859	-51.913	0.093	-0.043
-235.844	91.928	-0.094	-0.105
-234.830	-16.089	0.251	0.159
-233.815	-24.417	0.132	-0.078
-232.800	-152.074	0.152	-0.011
-231.786	-7.274	0.341	0.230
-230.771	16.650	0.333	-0.262
-229.757	-100.299	0.126	-0.031
-228.742	-200.000	0.014	-0.169
-227.727	-138.926	0.153	-0.016
-226.713	-200.000	-0.016	-0.159
-225.698	-114.461	0.228	0.044
-224.684	800.000	0.010	-0.032
-223.669	-101.353	-0.109	0.026
-222.655	138.349	-0.117	-0.152
-221.640	-34.122	0.173	-0.095
-220.625	65.051	-0.074	0.074
-219.611	57.480	-0.044	0.043
-218.596	-35.833	-0.285	-0.153
-217.582	435.892	0.112	0.242
-216.567	-119.213	0.159	-0.028
-215.552	4.034	0.083	0.061
-214.538	14.978	0.179	-0.139
-213.523	-41.283	-0.314	0.161
-212.509	-115.691	0.197	0.037
-211.494	171.659	-0.099	0.142
-210.479	39.534	0.203	0.181
-209.465	3.893	0.437	-0.318
-208.450	-64.687	0.248	-0.100
-207.436	240.180	-0.127	-0.210
-206.421	-200.000	-0.009	-0.263
-205.406	-120.130	-0.142	0.024
-204.392	-36.905	-0.378	0.202
-203.377	-200.000	-0.220	-0.001
-202.363	-50.198	-0.266	0.125
-201.348	321.365	-0.115	-0.218
-200.333	176.633	0.045	0.066
-199.319	-200.000	-0.058	-0.281
-198.304	180.981	0.207	0.302
-197.290	-43.684	-0.102	-0.051
-196.275	-154.326	0.209	0.014
-195.260	164.134	-0.278	0.390
-194.246	-14.388	-0.158	0.101
-193.231	800.000	0.148	0.442
-192.217	16.119	0.276	-0.216
-191.202	-119.990	0.114	0.020
-190.187	74.254	-0.103	0.108
-189.173	201.423	0.276	0.423
-188.158	80.788	-0.144	0.154
-187.144	-82.182	0.337	-0.109
-186.129	254.727	-0.209	0.356
-185.114	-200.000	-0.002	0.168
-184.100	26.704	-0.162	-0.135
-183.085	59.784	0.142	0.139
-182.071	568.744	0.008	0.020
-181.056	735.803	0.124	0.330
-180.042	-200.000	0.054	-0.345
-179.027	-115.864	-0.094	0.017
-178.012	218.435	0.140	0.223
-176.998	728.621	-0.036	-0.095
-175.983	138.297	-0.118	-0.154
-174.969	625.690	-0.041	0.102
-173.954	-100.698	-0.078	0.019
-172.939	-2.002	-0.167	0.116
-171.925	326.068	0.111	0.211
-170.910	16.587	-0.156	-0.122
-169.896	-100.250	-0.122	0.030
-168.881	367.011	0.122	0.245
-167.866	98.928	-0.190	-0.217
-166.852	-200.000	0.031	-0.189
-165.837	-139.877	-0.238	-0.025
-164.823	-200.000	-0.002	0.231
-163.808	-16.043	0.318	0.201
-162.793	-20.273	0.129	0.079
-161.779	-200.000	0.026	-0.188
-160.764	625.734	-0.099	0.247
-159.750	-200.000	-0.023	-0.104
-158.735	-35.633	0.080	-0.043
-157.720	800.000	0.044	-0.155
-156.706	-178.170	0.173	-0.004
-155.691	-80.501	0.162	-0.054
-154.677	119.010	0.232	0.284
-153.662	-155.613	-0.059	-0.004
-152.647	159.988	-0.239	0.330
-151.633	-135.376	0.063	0.007
-150.618	-98.167	0.237	0.060
-149.604	800.000	0.042	0.180
-148.589	327.349	-0.074	0.140
-147.574	-200.000	0.019	0.166
-146.560	-42.689	-0.158	0.080
-145.545	-200.000	-0.009	-0.244
-144.531	-62.043	-0.143	-0.059
-143.516	-137.269	0.215	0.024
-142.502	32.789	0.319	-0.274
-141.487	112.570	0.090	-0.108
-140.472	800.000	0.033	0.100
-139.458	156.393	0.221	0.303
-138.443	-126.373	0.076	-0.011
-137.429	174.226	-0.124	0.178
-136.414	-200.000	0.009	-0.347
-135.399	10.880	0.072	-0.054
-134.385	28.794	0.037	0.031
-133.370	-66.638	-0.200	-0.078
-132.356	82.146	-0.072	0.078
-131.341	132.288	-0.110	0.141
-130.326	-124.121	0.298	0.046
-129.312	-200.000	-0.052	-0.248
-128.297	-101.157	0.286	-0.069
-127.283	158.332	-0.336	0.462
-126.268	-63.727	0.302	0.123
-125.253	58.806	0.310	-0.302
-124.239	194.315	-0.123	-0.185
-123.224	172.908	-0.238	0.341
-122.210	800.000	0.125	0.486
-121.195	444.247	0.057	-0.124
-120.180	-94.480	0.311	-0.084
