DTS Sentinel unit serial number:	SN413079Multiplexer serial number:	ORYXHardware model number:	OX4-SRSoftware version number:	ORYX F/W v4.00 Oryx Data Collector v3.7.2.0data status	okinstallation	princeton_trtdifferential loss correction	single-endedforward channel	channel 4reverse channel	N/Adate	2019/09/18time	06:25:34forward acquisition time	60.00reverse acquisition time	0.00gamma	496.2192k internal	0.2332k external	0.2332temperature offset calibration	0.9996default loss term (dB/km)	0.3790temperature slope calibration	1.0000multiplexer offset coefficient	1.0000multiplexer slope coefficient	1.0000fibre end	0.00T internal ref (°C)	23.25T ext. ref 1 (°C)	0.19T ext. ref 2 (°C)	17.66length (m)	temperature (°C)	Stokes	anti-Stokes-747.200	800.000	0.039	-0.171
-746.185	1.733	0.162	0.118
-745.171	-100.028	0.283	-0.071
-744.156	145.849	-0.213	-0.287
-743.142	800.000	-0.052	-0.220
-742.127	-200.000	-0.050	0.280
-741.112	-200.000	0.035	0.202
-740.098	-149.544	-0.336	0.027
-739.083	326.962	-0.151	-0.291
-738.069	161.023	-0.224	-0.315
-737.054	800.000	-0.050	-0.208
-736.039	800.000	-0.073	0.256
-735.025	-113.183	0.329	0.065
-734.010	-94.680	-0.170	0.046
-732.996	163.574	-0.181	-0.256
-731.981	124.827	-0.096	-0.121
-730.966	-200.000	-0.012	-0.170
-729.952	-200.000	0.057	0.348
-728.937	-7.587	-0.152	0.103
-727.923	-53.216	-0.095	0.044
-726.908	-33.596	-0.300	-0.167
-725.894	70.008	0.099	0.103
-724.879	-132.362	0.278	0.036
-723.864	38.603	0.211	0.189
-722.850	41.015	0.194	-0.176
-721.835	51.657	0.148	-0.142
-720.821	73.867	-0.227	0.239
-719.806	87.351	-0.190	0.211
-718.791	619.033	-0.144	0.363
-717.777	-71.117	0.213	0.081
-716.762	60.190	-0.179	-0.177
-715.748	-33.695	-0.034	-0.019
-714.733	800.000	-0.118	-0.372
-713.718	-142.041	0.062	0.006
-712.704	-200.000	-0.022	-0.148
-711.689	-86.886	-0.102	-0.031
-710.675	356.078	0.074	-0.147
-709.660	60.420	0.086	-0.085
-708.645	-81.324	0.126	0.042
-707.631	133.221	-0.289	0.375
-706.616	-85.420	0.231	-0.072
-705.602	43.473	-0.163	0.149
-704.587	-1.501	0.097	-0.069
-703.572	68.932	-0.193	0.199
-702.558	-31.179	0.131	0.074
-701.543	-200.000	-0.010	0.139
-700.529	800.000	-0.039	0.112
-699.514	-200.000	-0.003	-0.018
-698.499	-172.363	0.030	-0.001
-697.485	-50.657	0.120	0.057
-696.470	-96.262	0.285	0.076
-695.456	-104.933	-0.100	-0.023
-694.441	-166.736	-0.137	-0.006
-693.426	-200.000	0.029	0.314
-692.412	-200.000	-0.074	0.482
-691.397	800.000	-0.056	0.211
-690.383	-9.581	0.231	0.155
-689.368	-200.000	0.001	0.116
-688.354	-133.070	-0.280	0.036
-687.339	667.552	0.067	-0.174
-686.324	10.841	0.221	0.169
-685.310	-6.788	-0.130	-0.089
-684.295	43.856	0.238	-0.219
-683.281	133.805	-0.147	-0.191
-682.266	14.142	-0.107	0.084
-681.251	-200.000	-0.089	0.405
-680.237	-200.000	0.056	-0.303
-679.222	-200.000	-0.075	0.336
-678.208	800.000	-0.046	-0.139
-677.193	-91.819	0.259	0.074
-676.178	62.435	-0.103	-0.103
-675.164	-87.051	-0.132	-0.040
-674.149	625.521	0.099	0.251
-673.135	608.691	-0.122	0.305
-672.120	-200.000	0.008	0.186
-671.105	475.015	0.071	0.161
-670.091	-196.726	0.299	-0.002
-669.076	692.739	0.098	0.259
-668.062	-69.810	0.330	-0.126
-667.047	73.978	-0.310	0.326
-666.032	-83.607	-0.249	0.080
-665.018	-33.071	-0.037	-0.020
-664.003	-200.000	-0.028	0.127
-662.989	121.039	-0.101	-0.126
-661.974	2.840	0.331	-0.241
-660.959	-57.732	0.259	-0.114
-659.945	-69.126	0.154	-0.060
-658.930	-149.828	-0.177	-0.014
-657.916	-200.000	-0.032	0.224
-656.901	-3.350	-0.070	-0.049
-655.886	-104.671	-0.493	0.114
-654.872	249.225	-0.088	-0.149
-653.857	-176.389	0.230	-0.006
-652.843	83.987	-0.140	0.153
-651.828	-51.206	-0.255	0.120
-650.814	347.364	-0.085	-0.168
-649.799	113.678	-0.133	-0.162
-648.784	-164.618	0.284	0.013
-647.770	-87.215	0.238	-0.072
-646.755	-101.801	-0.317	-0.077
-645.741	57.513	0.061	-0.060
-644.726	-6.303	0.088	-0.060
-643.711	416.461	0.048	-0.102
-642.697	53.820	0.119	0.114
-641.682	160.977	-0.151	0.212
-640.668	-15.257	-0.307	0.197
-639.653	-90.000	0.044	-0.013
-638.638	-200.000	-0.005	-0.247
-637.624	-200.000	0.007	0.168
-636.609	800.000	0.104	0.331
-635.595	59.940	-0.078	-0.077
-634.580	421.010	-0.110	-0.236
-633.565	165.664	-0.095	-0.135
-632.551	201.278	0.053	0.081
-631.536	15.041	0.072	0.057
-630.522	-7.439	0.106	-0.072
-629.507	-6.882	-0.132	-0.090
-628.492	-130.993	0.028	-0.004
-627.478	-200.000	0.035	-0.206
-626.463	-125.277	-0.151	0.023
-625.449	-116.958	-0.255	-0.047
-624.434	195.170	0.118	0.180
-623.419	102.886	0.189	-0.222
-622.405	37.736	0.016	0.014
-621.390	612.120	0.094	-0.234
-620.376	-200.000	0.072	-0.316
-619.361	-145.056	-0.614	0.056
-618.346	95.417	-0.112	0.128
-617.332	45.828	-0.188	0.174
-616.317	-137.778	-0.193	-0.022
-615.303	12.351	0.055	-0.042
-614.288	800.000	-0.070	0.252
-613.273	-189.763	-0.112	0.001
-612.259	-200.000	-0.018	0.253
-611.244	785.815	0.082	0.224
-610.230	-200.000	-0.012	-0.123
-609.215	-66.644	0.070	-0.028
-608.201	361.790	-0.071	0.143
-607.186	-200.000	0.023	0.236
-606.171	-200.000	0.018	0.085
-605.157	15.714	0.134	0.106
-604.142	-21.656	0.201	-0.122
-603.128	499.634	-0.042	0.098
-602.113	-185.922	0.299	-0.004
-601.098	-85.927	0.065	0.020
-600.084	800.000	-0.030	-0.127
-599.069	27.034	-0.176	0.148
-598.055	-116.896	-0.258	0.047
-597.040	-200.000	0.005	0.055
-596.025	180.890	-0.073	0.108
-595.011	-200.000	-0.044	-0.563
-593.996	212.766	-0.230	-0.363
-592.982	-168.188	-0.159	0.006
-591.967	-11.680	-0.136	-0.089
-590.952	88.017	-0.262	0.290
-589.938	173.172	-0.089	0.128
-588.923	-156.602	-0.162	0.010
-587.909	-200.000	-0.014	0.219
-586.894	-0.205	0.290	0.206
-585.879	-61.684	0.420	0.176
-584.865	-87.235	0.382	0.116
-583.850	478.171	-0.107	0.241
-582.836	-19.778	0.235	0.145
-581.821	262.891	-0.136	-0.235
-580.806	337.762	-0.112	0.218
-579.792	-200.000	0.001	-0.166
-578.777	-148.276	0.136	0.011
-577.763	800.000	-0.082	-0.285
-576.748	-200.000	0.027	-0.425
-575.733	98.041	0.136	-0.156
-574.719	362.272	-0.128	0.257
-573.704	800.000	0.041	0.156
-572.690	17.263	0.245	0.194
-571.675	330.082	0.105	-0.202
-570.661	800.000	0.070	-0.222
-569.646	-100.782	-0.153	-0.038
-568.631	-130.725	0.079	0.011
-567.617	-124.235	-0.310	-0.048
-566.602	344.843	0.017	0.033
-565.588	-86.589	-0.188	-0.058
-564.573	-87.359	0.326	-0.099
-563.558	800.000	0.061	-0.235
-562.544	-200.000	-0.025	0.140
-561.529	-162.910	-0.281	0.014
-560.515	216.580	0.067	0.106
-559.500	-179.030	-0.139	0.003
-558.485	-57.462	-0.221	-0.097
-557.471	-200.000	0.095	0.423
-556.456	-18.241	0.399	-0.250
-555.442	-69.415	-0.160	-0.061
-554.427	45.100	0.140	-0.129
-553.412	34.245	-0.147	-0.128
-552.398	123.248	-0.057	-0.071
-551.383	247.978	0.010	-0.016
-550.369	3.072	0.118	-0.086
-549.354	-200.000	-0.020	0.314
-548.339	-99.324	0.389	0.098
-547.325	-56.837	-0.231	-0.102
-546.310	587.188	-0.043	-0.106
-545.296	-150.425	-0.071	-0.005
-544.281	-200.000	0.024	-0.224
-543.266	148.612	0.118	-0.159
-542.252	-116.316	-0.156	-0.029
-541.237	666.361	-0.122	-0.314
-540.223	-105.464	0.396	-0.090
-539.208	-74.557	-0.154	0.055
-538.193	-110.505	-0.056	-0.012
-537.179	187.510	0.156	0.232
-536.164	800.000	0.056	-0.165
-535.150	-37.376	0.347	0.185
-534.135	-98.514	-0.261	-0.067
-533.121	456.526	-0.100	-0.222
-532.106	190.368	0.071	-0.106
-531.091	117.480	-0.165	0.202
-530.077	-200.000	0.002	0.165
-529.062	438.229	0.172	-0.374
-528.048	401.249	0.119	-0.248
-527.033	117.753	0.173	0.212
-526.018	-54.221	-0.223	-0.101
-525.004	25.430	0.256	-0.212
-523.989	-100.604	0.237	-0.058
-522.975	722.813	-0.103	0.274
-521.960	-82.707	0.122	0.040
-520.945	-200.000	-0.016	-0.322
-519.931	-99.004	-0.095	0.024
-518.916	-200.000	0.039	0.222
-517.902	-192.740	0.234	-0.002
-516.887	-110.549	0.106	0.022
-515.872	-89.613	0.095	-0.028
-514.858	9.865	0.186	-0.141
-513.843	15.140	0.248	-0.194
-512.829	54.587	0.248	-0.238
-511.814	151.146	0.098	0.133
-510.799	512.501	-0.127	-0.295
-509.785	-0.909	-0.230	0.162
-508.770	120.745	-0.147	0.182
-507.756	722.501	-0.113	0.301
-506.741	-200.000	-0.010	-0.043
-505.726	800.000	-0.101	-0.401
-504.712	800.000	-0.025	0.070
-503.697	800.000	0.035	-0.120
-502.683	21.216	-0.269	0.217
-501.668	800.000	-0.007	-0.030
-500.653	-53.814	-0.234	0.106
-499.639	-2.029	0.145	-0.101
-498.624	-39.220	0.162	0.085
-497.610	-200.000	0.007	-0.214
-496.595	173.505	0.097	0.139
-495.581	800.000	0.052	0.224
-494.566	49.157	-0.104	0.097
-493.551	-160.085	0.117	0.006
-492.537	0.253	0.302	-0.215
-491.522	43.702	-0.271	0.247
-490.508	-200.000	-0.003	0.236
-489.493	24.698	-0.259	0.214
-488.478	-96.977	0.153	0.040
-487.464	780.121	0.040	-0.109
-486.449	-200.000	-0.040	0.213
-485.435	179.233	0.137	-0.199
-484.420	57.836	-0.346	0.337
-483.405	-87.268	-0.097	0.029
-482.391	-200.000	0.035	-0.160
-481.376	0.022	0.275	0.195
-480.362	-80.491	-0.135	0.045
-479.347	126.345	-0.146	0.184
-478.332	109.141	-0.175	0.209
-477.318	-123.248	-0.304	0.048
-476.303	-200.000	0.000	-0.298
-475.289	62.577	0.191	-0.190
-474.274	-163.261	-0.323	-0.015
-473.259	115.846	0.150	0.183
-472.245	57.918	0.155	0.151
-471.230	5.369	-0.394	0.289
-470.216	133.582	0.017	-0.022
-469.201	36.688	-0.228	0.201
-468.186	-116.976	0.306	0.056
-467.172	-145.531	-0.247	0.022
-466.157	-37.688	0.319	0.169
-465.143	-200.000	-0.061	0.281
-464.128	278.031	0.085	-0.151
-463.113	89.386	0.157	0.174
-462.099	3.052	-0.219	0.159
-461.084	73.804	0.077	-0.080
-460.070	-134.657	-0.149	0.018
-459.055	-136.989	0.464	-0.053
-458.040	-200.000	-0.042	0.297
-457.026	-14.477	-0.112	0.072
-456.011	-34.277	0.274	-0.149
-454.997	-10.531	-0.111	-0.073
-453.982	800.000	0.021	-0.079
-452.968	-129.321	0.095	-0.013
-451.953	45.392	0.154	-0.141
-450.938	-14.567	-0.218	-0.139
-449.924	800.000	0.122	0.460
-448.909	159.785	0.202	0.279
-447.895	800.000	0.105	-0.296
-446.880	-147.169	-0.369	-0.031
-445.865	-111.927	-0.024	-0.005
-444.851	92.010	-0.038	-0.042
-443.836	-200.000	0.364	-0.000
-442.822	-103.985	0.366	-0.085
-441.807	64.179	0.216	-0.216
-440.792	98.599	0.236	-0.271
-439.778	-38.444	-0.136	0.071
-438.763	147.420	-0.098	-0.132
-437.749	-32.445	-0.121	-0.067
-436.734	-106.226	-0.203	0.045
-435.719	-46.894	-0.263	-0.128
-434.705	-13.625	0.150	0.097
-433.690	78.199	0.066	0.070
-432.676	-172.130	-0.205	-0.007
-431.661	-55.867	0.257	-0.114
-430.646	-66.068	0.102	-0.040
-429.632	-200.000	0.021	0.117
-428.617	440.232	-0.044	-0.097
-427.603	325.165	0.065	0.124
-426.588	-10.671	0.206	-0.136
-425.573	-189.366	-0.316	-0.004
-424.559	140.493	0.161	-0.212
-423.544	-139.917	0.138	-0.015
-422.530	58.879	0.041	0.040
-421.515	-53.403	-0.251	-0.114
-420.500	-200.000	-0.005	-0.491
-419.486	-6.202	0.268	0.182
-418.471	356.217	-0.084	0.166
-417.457	121.879	-0.175	-0.217
-416.442	585.833	0.062	0.150
-415.428	402.043	0.063	-0.131
-414.413	-120.247	-0.300	0.051
-413.398	-50.844	0.138	0.065
-412.384	-24.046	0.093	0.055
-411.369	63.800	0.142	-0.142
-410.355	-164.890	0.291	-0.013
-409.340	800.000	0.055	0.186
-408.325	661.037	-0.097	0.248
-407.311	-80.777	-0.326	-0.107
-406.296	-127.108	-0.210	0.031
-405.282	-61.482	0.066	0.028
-404.267	-95.489	0.314	0.084
-403.252	41.233	0.094	-0.084
-402.238	335.221	0.052	0.099
-401.223	-200.000	0.003	0.198
-400.209	-160.055	-0.221	0.012
-399.194	20.682	0.157	-0.126
-398.179	418.599	-0.043	-0.091
-397.165	197.536	-0.102	-0.155
-396.150	-158.685	-0.329	-0.019
-395.136	-127.145	0.200	-0.029
-394.121	800.000	0.072	-0.223
-393.106	-200.000	0.035	0.285
-392.092	-200.000	0.070	0.405
-391.077	-112.799	0.179	-0.035
-390.063	51.286	-0.019	-0.018
-389.048	800.000	-0.096	0.272
-388.033	-37.135	-0.319	0.169
-387.019	800.000	0.024	-0.087
-386.004	-183.564	0.265	0.005
-384.990	38.533	-0.208	-0.184
-383.975	15.339	-0.100	0.078
-382.960	-200.000	-0.002	-0.592
-381.946	-94.533	0.375	0.101
-380.931	11.558	-0.147	0.111
-379.917	187.825	-0.070	-0.104
-378.902	-125.084	0.426	-0.065
-377.888	557.453	-0.109	-0.260
-376.873	800.000	0.027	0.118
-375.858	448.483	0.066	0.143
-374.844	-200.000	-0.011	0.055
-373.829	-83.804	-0.245	-0.078
-372.815	182.623	0.142	0.208
-371.800	2.385	0.190	0.136
-370.785	800.000	-0.166	-0.507
-369.771	-120.043	-0.260	0.044
-368.756	-200.000	-0.017	0.244
-367.742	800.000	-0.074	-0.290
-366.727	456.991	-0.060	-0.133
-365.712	-200.000	0.013	-0.062
-364.698	-78.238	0.284	0.097
-363.683	-113.587	-0.245	-0.047
-362.669	-27.542	0.119	-0.068
-361.654	-33.703	0.158	-0.087
-360.639	-200.000	0.023	0.195
-359.625	22.451	0.132	-0.107
-358.610	-109.371	0.083	-0.017
-357.596	-138.937	0.060	0.006
-356.581	-95.576	0.207	0.055
-355.566	-107.909	-0.233	-0.050
-354.552	76.293	-0.274	0.288
-353.537	56.759	-0.107	-0.103
-352.523	-26.244	-0.061	-0.035
-351.508	-200.000	-0.033	-0.174
-350.493	-36.495	0.197	0.105
-349.479	455.049	-0.109	0.239
-348.464	-66.008	0.201	0.080
-347.450	-24.015	-0.022	-0.013
-346.435	-5.116	0.157	0.107
-345.420	800.000	0.028	-0.096
-344.406	-179.132	-0.041	0.001
-343.391	-200.000	-0.016	-0.134
-342.377	-28.800	0.327	0.186
-341.362	63.910	-0.110	0.109
-340.348	-89.351	0.118	-0.034
-339.333	-200.000	-0.035	-0.318
-338.318	-200.000	0.012	0.431
-337.304	-200.000	-0.041	0.187
-336.289	-45.845	0.022	-0.011
-335.275	115.480	0.032	0.039
-334.260	-40.617	-0.313	-0.161
-333.245	-165.009	-0.190	-0.008
-332.231	406.548	0.153	0.319
-331.216	-142.552	-0.485	-0.047
-330.202	-133.804	0.126	0.016
-329.187	36.206	0.041	0.036
-328.172	73.227	-0.199	0.206
-327.158	800.000	-0.034	0.143
-326.143	83.495	0.155	0.167
-325.129	-120.088	-0.188	-0.032
-324.114	-1.896	0.304	-0.212
-323.099	277.888	0.072	0.127
-322.085	223.656	-0.084	-0.134
-321.070	-200.000	-0.020	-0.102
-320.056	-50.979	-0.208	0.097
-319.041	-79.540	0.196	-0.065
-318.026	254.839	-0.113	0.192
-317.012	-200.000	0.006	0.106
-315.997	62.538	-0.268	0.265
-314.983	32.496	-0.188	-0.161
-313.968	213.996	0.138	0.216
-312.953	-200.000	-0.021	-0.096
-311.939	135.678	-0.147	0.189
-310.924	800.000	0.092	0.313
-309.910	18.321	-0.104	0.082
-308.895	-24.515	0.022	0.013
-307.880	398.783	0.153	0.317
-306.866	-15.948	0.146	0.092
-305.851	33.100	0.057	0.049
-304.837	105.565	0.229	0.267
-303.822	197.735	-0.057	-0.087
-302.807	-120.973	-0.324	0.054
-301.793	89.306	-0.102	0.113
-300.778	274.130	0.148	0.258
-299.764	800.000	-0.007	-0.025
-298.749	-81.052	-0.151	-0.049
-297.735	-200.000	-0.060	-0.383
-296.720	-65.650	-0.265	-0.105
-295.705	-97.773	0.268	-0.068
-294.691	-40.520	-0.073	-0.037
-293.676	-200.000	-0.016	-0.073
-292.662	734.673	0.070	-0.185
-291.647	27.367	0.316	-0.263
-290.632	-89.191	-0.293	-0.086
-289.618	800.000	-0.028	-0.096
-288.603	-100.314	-0.104	-0.026
-287.589	29.066	-0.189	-0.158
-286.574	-40.657	-0.080	0.041
-285.559	219.944	-0.167	0.265
-284.545	46.886	-0.102	0.094
-283.530	-55.884	-0.457	-0.201
-282.516	322.320	-0.024	0.045
-281.501	57.313	0.116	0.112
-280.486	-147.295	-0.185	0.016
-279.472	51.788	-0.235	-0.221
-278.457	69.322	0.096	0.097
-277.443	548.913	0.130	0.307
-276.428	-130.686	0.335	-0.045
-275.413	-200.000	0.032	-0.277
-274.399	-4.253	0.205	-0.140
-273.384	-200.000	-0.041	0.276
-272.370	184.379	-0.114	-0.167
-271.355	371.374	-0.203	-0.407
-270.340	161.401	0.133	0.183
-269.326	-6.340	-0.126	-0.085
-268.311	-27.509	0.229	-0.132
-267.297	-124.349	0.185	-0.028
-266.282	-200.000	0.023	0.195
-265.267	-26.128	0.264	-0.153
-264.253	-148.301	-0.275	0.022
-263.238	-120.111	-0.177	0.030
-262.224	118.643	-0.138	0.168
-261.209	-200.000	0.015	-0.285
-260.195	108.042	0.084	-0.099
-259.180	-200.000	0.025	-0.135
-258.165	-69.163	0.205	0.078
-257.151	589.274	-0.102	0.247
-256.136	-78.425	-0.264	-0.089
-255.122	-162.485	0.033	-0.002
-254.107	-39.692	-0.193	0.100
-253.092	63.426	0.059	0.058
-252.078	-200.000	-0.003	0.037
-251.063	-78.812	-0.249	-0.084
-250.049	800.000	0.036	0.134
-249.034	550.829	-0.091	0.216
-248.019	-12.198	-0.181	0.117
-247.005	-200.000	-0.011	0.173
-245.990	179.901	-0.052	-0.075
-244.976	-200.000	0.000	0.004
-243.961	299.354	0.119	-0.217
-242.946	-191.248	-0.174	-0.002
-241.932	800.000	0.032	-0.126
-240.917	597.461	0.090	-0.220
-239.903	-112.059	-0.368	0.073
-238.888	70.130	0.276	0.281
-237.873	8.021	0.186	0.138
-236.859	-90.055	-0.132	0.038
-235.844	-45.969	0.328	-0.160
-234.830	-77.737	-0.243	-0.083
-233.815	-200.000	-0.012	0.147
-232.800	800.000	-0.053	-0.158
-231.786	20.388	0.216	-0.172
-230.771	35.740	0.194	-0.168
-229.757	-200.000	0.120	0.573
-228.742	-68.049	-0.141	0.054
-227.727	180.507	-0.145	0.209
-226.713	-120.816	0.219	-0.036
-225.698	800.000	0.013	0.051
-224.684	258.954	-0.246	0.418
-223.669	181.992	-0.164	0.238
-222.655	-24.043	0.120	-0.071
-221.640	346.121	0.061	-0.119
-220.625	800.000	-0.070	0.242
-219.611	270.537	0.047	-0.081
-218.596	-111.622	-0.343	-0.069
-217.582	511.919	0.038	0.087
-216.567	9.269	-0.099	-0.074
-215.552	-200.000	0.007	0.048
-214.538	-200.000	-0.026	-0.167
-213.523	-97.663	-0.217	0.055
-212.509	-200.000	-0.054	-0.281
-211.494	-91.545	-0.178	0.050
-210.479	525.874	0.066	-0.152
-209.465	-72.495	0.147	-0.053
-208.450	-25.014	0.103	-0.060
-207.436	49.654	0.077	-0.072
-206.421	-200.000	0.027	-0.267
-205.406	-152.442	0.319	-0.023
-204.392	67.847	-0.208	-0.210
-203.377	144.945	0.128	0.169
-202.363	-200.000	-0.074	-0.340
-201.348	585.857	0.055	-0.134
-200.333	-147.501	-0.241	0.020
-199.319	-107.210	0.554	0.120
-198.304	144.794	-0.118	-0.155
-197.290	369.030	-0.126	-0.250
-196.275	-187.813	-0.137	-0.002
-195.260	-60.719	0.113	-0.047
-194.246	-91.145	-0.216	0.061
-193.231	44.441	0.241	-0.218
-192.217	195.779	0.066	-0.099
-191.202	212.053	0.149	-0.230
-190.187	-200.000	-0.015	-0.080
-189.173	800.000	0.042	0.144
-188.158	-86.805	0.142	0.043
-187.144	-136.123	0.561	-0.065
-186.129	-117.825	-0.311	0.055
-185.114	557.433	0.051	0.120
-184.100	-200.000	0.038	0.265
-183.085	-124.309	-0.196	-0.030
-182.071	-200.000	0.075	-0.405
-181.056	-10.714	-0.099	-0.065
-180.042	-117.749	0.497	-0.088
-179.027	-20.767	-0.182	-0.110
-178.012	9.762	0.154	-0.115
-176.998	-64.949	-0.467	-0.186
-175.983	-60.866	-0.061	-0.025
-174.969	-65.112	-0.170	-0.068
-173.954	104.718	-0.047	-0.055
-172.939	1.581	-0.075	-0.053
-171.925	-112.470	0.232	-0.046
-170.910	356.034	-0.131	-0.257
-169.896	-61.155	0.150	-0.062
-168.881	-120.554	0.289	0.048
-167.866	-104.170	0.322	-0.074
-166.852	-94.741	-0.189	-0.050
-165.837	-95.487	0.340	-0.090
-164.823	800.000	-0.069	-0.202
-163.808	-107.672	-0.362	0.078
-162.793	-92.808	0.418	-0.115
-161.779	113.015	0.204	-0.243
-160.764	-74.348	-0.109	0.039
-159.750	800.000	-0.063	0.171
-158.735	800.000	0.046	0.146
-157.720	267.094	0.137	0.235
-156.706	7.338	0.315	0.231
-155.691	10.791	0.131	0.098
-154.677	-33.978	-0.160	0.086
-153.662	-74.565	-0.020	0.007
-152.647	-41.740	-0.280	0.142
-151.633	-52.059	-0.255	0.116
-150.618	-106.485	0.135	0.030
-149.604	290.267	0.125	0.223
-148.589	-10.252	0.302	0.197
-147.574	61.284	0.126	0.123
-146.560	-0.635	-0.120	0.084
-145.545	-48.412	-0.268	0.127
-144.531	-200.000	0.000	-0.006
-143.516	-147.887	0.250	0.020
-142.502	-200.000	-0.009	-0.112
-141.487	-200.000	-0.004	0.192
-140.472	-112.755	0.129	-0.025
-139.458	800.000	-0.117	0.494
-138.443	790.466	-0.113	-0.305
-137.429	800.000	-0.088	-0.270
-136.414	-100.603	0.314	-0.076
-135.399	-200.000	-0.239	-0.000
-134.385	-200.000	-0.035	0.190
-133.370	-56.445	0.419	-0.183
-132.356	-93.371	-0.150	0.041
-131.341	-200.000	0.051	0.225
-130.326	800.000	0.074	-0.290
-129.312	-200.000	0.009	0.062
-128.297	-200.000	-0.012	0.427
-127.283	691.742	0.049	0.125
-126.268	-57.349	0.269	-0.116
-125.253	-200.000	0.062	0.287
-124.239	800.000	-0.053	0.152
-123.224	-148.667	0.286	0.023
-122.210	-68.799	-0.217	-0.082
-121.195	800.000	-0.031	-0.127
