DTS Sentinel unit serial number:	SN413079Multiplexer serial number:	ORYXHardware model number:	OX4-SRSoftware version number:	ORYX F/W v4.00 Oryx Data Collector v3.7.2.0data status	okinstallation	princeton_trtdifferential loss correction	single-endedforward channel	channel 4reverse channel	N/Adate	2019/09/14time	18:05:35forward acquisition time	60.00reverse acquisition time	0.00gamma	496.2192k internal	0.2297k external	0.2297temperature offset calibration	1.0108default loss term (dB/km)	0.3790temperature slope calibration	1.0000multiplexer offset coefficient	1.0000multiplexer slope coefficient	1.0000fibre end	0.00T internal ref (°C)	37.25T ext. ref 1 (°C)	4.95T ext. ref 2 (°C)	31.68length (m)	temperature (°C)	Stokes	anti-Stokes-747.200	12.079	0.024	-0.019
-746.185	52.116	0.161	0.157
-745.171	522.692	0.041	0.098
-744.156	-56.774	-0.274	-0.124
-743.142	-54.220	0.194	0.090
-742.127	-15.327	-0.277	0.181
-741.112	-75.350	0.086	-0.031
-740.098	-200.000	0.059	0.350
-739.083	-59.799	-0.288	-0.126
-738.069	800.000	-0.068	0.218
-737.054	-141.744	0.014	0.001
-736.039	-148.149	-0.227	-0.019
-735.025	-123.772	-0.039	0.006
-734.010	27.340	-0.348	-0.298
-732.996	800.000	0.072	-0.292
-731.981	-120.431	-0.115	-0.020
-730.966	-46.178	0.144	0.072
-729.952	-7.166	-0.047	0.033
-728.937	800.000	-0.106	-0.346
-727.923	152.084	0.127	0.177
-726.908	-200.000	0.012	0.218
-725.894	210.460	-0.036	0.058
-724.879	357.064	0.086	-0.175
-723.864	5.954	-0.189	-0.143
-722.850	132.835	-0.125	-0.165
-721.835	-59.151	-0.283	-0.125
-720.821	85.391	-0.031	-0.034
-719.806	2.903	-0.162	-0.120
-718.791	-38.928	-0.188	0.101
-717.777	-124.808	-0.320	0.050
-716.762	800.000	0.025	0.074
-715.748	41.220	-0.115	-0.106
-714.733	76.369	-0.154	-0.166
-713.718	-83.113	-0.245	0.080
-712.704	30.414	-0.140	0.122
-711.689	-200.000	-0.019	0.154
-710.675	22.637	0.166	-0.138
-709.660	148.263	0.056	-0.077
-708.645	-113.014	-0.188	-0.038
-707.631	19.550	0.253	0.208
-706.616	-2.234	-0.164	-0.118
-705.602	-200.000	0.001	0.248
-704.587	-84.534	-0.323	0.104
-703.572	126.184	-0.118	0.152
-702.558	-77.802	-0.127	0.045
-701.543	-80.601	0.065	0.022
-700.529	-157.692	-0.379	-0.023
-699.514	208.343	0.067	-0.107
-698.499	800.000	0.048	-0.159
-697.485	358.067	-0.073	-0.149
-696.470	-120.270	-0.086	-0.015
-695.456	412.339	-0.045	0.098
-694.441	-137.883	0.370	-0.042
-693.426	-200.000	-0.017	0.196
-692.412	-118.314	0.139	0.025
-691.397	119.602	-0.086	-0.109
-690.383	-200.000	-0.003	0.232
-689.368	-98.154	0.113	0.030
-688.354	-200.000	-0.032	-0.181
-687.339	21.722	0.050	0.042
-686.324	20.096	-0.140	-0.115
-685.310	42.704	-0.210	-0.195
-684.295	-92.107	-0.184	-0.053
-683.281	-86.038	-0.150	-0.047
-682.266	800.000	0.036	0.139
-681.251	99.892	-0.082	-0.097
-680.237	-200.000	-0.026	0.139
-679.222	-200.000	0.002	-0.244
-678.208	426.911	-0.122	-0.268
-677.193	44.151	0.065	0.061
-676.178	100.457	-0.257	0.304
-675.164	127.832	0.013	0.017
-674.149	257.689	0.266	-0.467
-673.135	-171.781	-0.304	-0.010
-672.120	800.000	-0.054	0.228
-671.105	17.504	-0.206	-0.167
-670.091	-30.638	0.125	-0.072
-669.076	99.150	0.103	-0.121
-668.062	504.307	-0.131	-0.310
-667.047	-200.000	0.070	0.376
-666.032	-80.159	0.194	-0.066
-665.018	-36.884	-0.299	-0.163
-664.003	-191.718	0.393	0.004
-662.989	170.781	-0.187	-0.272
-661.974	404.713	-0.126	-0.270
-660.959	-35.356	-0.103	0.057
-659.945	800.000	0.124	0.448
-658.930	-149.945	0.055	-0.004
-657.916	-100.430	-0.299	0.075
-656.901	67.490	-0.124	-0.129
-655.886	228.136	-0.065	0.108
-654.872	117.789	0.049	-0.062
-653.857	-106.657	-0.397	0.090
-652.843	39.590	0.042	0.038
-651.828	-144.965	-0.183	0.017
-650.814	151.884	-0.075	0.105
-649.799	497.182	0.050	-0.116
-648.784	101.860	-0.037	-0.044
-647.770	285.631	-0.060	-0.109
-646.755	-200.000	-0.020	-0.094
-645.741	-17.017	0.206	-0.132
-644.726	367.559	-0.069	0.141
-643.711	800.000	-0.008	-0.028
-642.697	800.000	0.008	-0.027
-641.682	31.409	-0.190	0.166
-640.668	-106.989	0.199	0.045
-639.653	431.223	-0.099	-0.219
-638.638	139.292	0.270	0.362
-637.624	82.504	0.069	-0.077
-636.609	617.706	0.122	-0.311
-635.595	-57.839	-0.144	0.064
-634.580	428.768	-0.081	-0.179
-633.565	119.722	0.113	0.143
-632.551	-24.410	-0.171	0.104
-631.536	346.542	0.053	-0.107
-630.522	180.554	-0.024	0.036
-629.507	-89.049	0.204	0.061
-628.492	-11.886	-0.191	0.127
-627.478	-200.000	0.017	-0.197
-626.463	-27.622	-0.128	0.076
-625.449	-84.156	0.071	0.023
-624.434	-106.833	-0.367	0.083
-623.419	38.811	0.181	0.165
-622.405	-114.159	-0.171	-0.034
-621.390	-43.107	-0.083	0.043
-620.376	-105.097	-0.400	0.093
-619.361	-128.690	0.201	0.029
-618.346	190.031	0.141	0.216
-617.332	322.548	0.069	-0.134
-616.317	132.489	-0.126	0.165
-615.303	208.164	0.092	-0.147
-614.288	800.000	-0.123	0.363
-613.273	-109.148	-0.151	0.033
-612.259	198.945	-0.097	0.151
-611.244	-106.319	0.196	-0.045
-610.230	165.654	-0.149	-0.214
-609.215	621.162	-0.117	-0.299
-608.201	569.070	0.101	-0.251
-607.186	-139.891	-0.318	0.034
-606.171	25.307	0.240	0.202
-605.157	575.890	0.017	0.042
-604.142	697.763	-0.068	0.182
-603.128	132.956	-0.183	0.240
-602.113	-135.263	0.022	-0.003
-601.098	-57.874	-0.334	-0.148
-600.084	293.666	0.084	0.155
-599.069	135.069	-0.201	0.265
-598.055	583.612	-0.043	-0.107
-597.040	-136.721	-0.453	0.053
-596.025	156.894	-0.177	-0.249
-595.011	-200.000	-0.006	-0.313
-593.996	259.348	-0.070	-0.122
-592.982	800.000	-0.076	0.215
-591.967	-57.486	-0.343	-0.153
-590.952	83.328	0.155	-0.172
-589.938	-78.661	0.317	-0.110
-588.923	-58.490	0.179	-0.079
-587.909	61.044	0.117	0.118
-586.894	-200.000	0.022	0.129
-585.879	-200.000	-0.022	0.341
-584.865	-200.000	-0.008	0.098
-583.850	-113.551	-0.207	-0.041
-582.836	-200.000	-0.031	-0.318
-581.821	-22.824	-0.278	0.170
-580.806	75.971	-0.145	-0.156
-579.792	-200.000	-0.017	0.151
-578.777	800.000	0.024	0.099
-577.763	-164.816	0.431	0.020
-576.748	-48.515	-0.095	0.046
-575.733	164.322	0.144	0.207
-574.719	441.573	-0.070	0.156
-573.704	140.873	-0.170	-0.227
-572.690	556.732	-0.044	-0.107
-571.675	-112.915	0.091	-0.018
-570.661	-67.055	0.088	-0.035
-569.646	-116.840	-0.217	0.040
-568.631	-69.897	-0.297	-0.115
-567.617	800.000	-0.047	-0.198
-566.602	-74.884	0.194	0.071
-565.588	-60.410	-0.350	-0.151
-564.573	-200.000	0.006	0.095
-563.558	-105.152	0.302	-0.070
-562.544	800.000	-0.069	0.220
-561.529	800.000	-0.089	0.321
-560.515	-200.000	-0.015	0.180
-559.500	-200.000	0.051	0.460
-558.485	800.000	-0.118	0.446
-557.471	36.273	-0.071	-0.064
-556.456	674.504	0.105	-0.277
-555.442	800.000	0.061	-0.195
-554.427	156.467	-0.365	-0.511
-553.412	-25.218	-0.059	-0.036
-552.398	800.000	0.079	-0.240
-551.383	-65.141	0.250	-0.102
-550.369	800.000	0.063	-0.251
-549.354	-147.326	0.051	0.004
-548.339	135.076	-0.218	0.286
-547.325	246.026	0.053	0.091
-546.310	257.157	-0.241	-0.420
-545.296	-12.058	-0.291	-0.193
-544.281	800.000	0.092	-0.261
-543.266	-89.410	-0.233	0.070
-542.252	-200.000	-0.015	-0.249
-541.237	514.494	0.109	-0.257
-540.223	-200.000	0.048	0.400
-539.208	-169.229	-0.211	-0.008
-538.193	155.171	-0.070	-0.097
-537.179	180.107	0.063	0.093
-536.164	-200.000	0.036	0.411
-535.150	-86.637	0.280	-0.087
-534.135	-200.000	-0.049	-0.362
-533.121	165.875	-0.143	-0.205
-532.106	-62.201	-0.400	-0.169
-531.091	-50.125	0.081	0.039
-530.077	15.216	0.233	-0.185
-529.062	-88.490	0.327	0.099
-528.048	676.740	0.045	-0.118
-527.033	-200.000	0.010	-0.167
-526.018	105.321	-0.184	-0.221
-525.004	-138.318	0.075	0.008
-523.989	-81.628	0.167	-0.056
-522.975	-80.726	-0.319	0.107
-521.960	-200.000	0.009	0.125
-520.945	35.091	-0.146	-0.129
-519.931	-11.999	-0.043	0.029
-518.916	381.103	-0.216	-0.449
-517.902	105.044	-0.070	-0.084
-516.887	-200.000	0.018	-0.201
-515.872	-200.000	-0.005	-0.108
-514.858	-102.539	-0.068	-0.017
-513.843	-70.983	0.126	0.048
-512.829	-96.877	-0.251	-0.067
-511.814	101.190	-0.086	-0.101
-510.799	122.593	0.121	0.153
-509.785	-52.517	0.032	-0.015
-508.770	81.911	0.398	0.436
-507.756	-173.749	-0.087	0.003
-506.741	-83.517	0.063	-0.021
-505.726	-200.000	0.002	0.162
-504.712	-200.000	0.003	0.072
-503.697	44.974	-0.173	0.162
-502.683	-105.688	0.017	-0.004
-501.668	-87.943	-0.184	-0.056
-500.653	604.563	0.150	0.378
-499.639	398.555	0.092	-0.195
-498.624	-200.000	-0.022	-0.248
-497.610	-50.402	0.242	-0.116
-496.595	-133.485	-0.600	0.076
-495.581	43.967	-0.172	0.159
-494.566	637.892	0.152	0.390
-493.551	-6.210	0.295	0.203
-492.537	41.581	-0.160	-0.147
-491.522	-152.544	0.427	-0.031
-490.508	-13.685	-0.173	0.113
-489.493	-51.871	-0.246	-0.116
-488.478	-200.000	0.041	0.480
-487.464	-162.352	-0.320	0.016
-486.449	-79.687	0.127	0.043
-485.435	-131.563	0.266	0.035
-484.420	-182.911	0.225	0.004
-483.405	124.983	-0.062	-0.079
-482.391	-153.675	-0.451	0.031
-481.376	-146.098	-0.147	-0.013
-480.362	-162.418	0.253	0.013
-479.347	11.411	0.158	0.122
-478.332	-17.011	0.183	0.117
-477.318	-43.562	0.111	-0.057
-476.303	-15.456	0.023	-0.015
-475.289	-200.000	-0.038	-0.196
-474.274	-28.566	-0.135	-0.078
-473.259	-42.662	-0.317	-0.163
-472.245	342.861	-0.205	0.405
-471.230	-83.941	0.023	0.007
-470.216	-102.501	-0.209	-0.051
-469.201	-85.304	-0.192	0.060
-468.186	800.000	0.070	0.270
-467.172	-200.000	-0.014	0.070
-466.157	17.562	0.134	-0.108
-465.143	-68.522	0.326	-0.128
-464.128	-44.131	0.412	-0.209
-463.113	71.325	-0.172	-0.180
-462.099	-102.411	0.245	-0.059
-461.084	4.363	0.212	0.157
-460.070	800.000	-0.083	-0.266
-459.055	-134.669	-0.291	-0.036
-458.040	-161.729	-0.091	-0.005
-457.026	-69.082	0.187	0.073
-456.011	-200.000	0.016	-0.196
-454.997	-154.090	-0.139	-0.010
-453.982	-77.849	0.104	0.036
-452.968	168.374	-0.103	0.148
-451.953	-28.073	0.150	-0.088
-450.938	-89.721	0.224	0.066
-449.924	-118.061	0.299	-0.054
-448.909	-200.000	0.010	-0.087
-447.895	-96.372	-0.302	0.081
-446.880	0.377	0.055	-0.040
-445.865	309.153	0.206	-0.388
-444.851	-200.000	0.050	-0.503
-443.836	-67.498	-0.136	-0.054
-442.822	800.000	-0.032	0.124
-441.807	74.455	0.056	-0.059
-440.792	-164.526	0.221	-0.010
-439.778	-145.485	0.151	0.014
-438.763	152.906	-0.029	0.040
-437.749	280.323	-0.087	0.158
-436.734	-87.533	0.115	-0.035
-435.719	-179.413	0.111	0.002
-434.705	189.593	-0.153	0.232
-433.690	-200.000	-0.072	0.359
-432.676	-112.563	-0.076	0.015
-431.661	-200.000	-0.047	-0.306
-430.646	-200.000	-0.037	-0.225
-429.632	239.027	-0.155	-0.260
-428.617	800.000	-0.068	0.282
-427.603	13.274	0.249	-0.195
-426.588	-55.969	-0.102	-0.046
-425.573	-162.423	-0.496	-0.025
-424.559	800.000	0.048	0.181
-423.544	800.000	-0.139	-0.416
-422.530	-47.886	-0.056	-0.027
-421.515	-200.000	0.031	-0.189
-420.500	60.374	0.098	-0.098
-419.486	-73.438	0.236	-0.087
-418.471	332.101	0.142	0.277
-417.457	-4.920	0.039	-0.027
-416.442	-75.456	-0.293	-0.105
-415.428	-12.827	-0.073	-0.048
-414.413	-3.849	0.164	0.115
-413.398	-187.542	0.237	-0.003
-412.384	-64.492	-0.079	0.032
-411.369	-27.611	-0.143	-0.084
-410.355	-200.000	-0.015	-0.383
-409.340	447.965	-0.043	-0.095
-408.325	800.000	0.049	-0.152
-407.311	33.470	-0.170	0.149
-406.296	622.161	-0.084	0.212
-405.282	235.335	-0.050	-0.084
-404.267	346.613	-0.072	0.142
-403.252	113.124	0.052	0.064
-402.238	123.366	0.200	0.253
-401.223	75.843	-0.211	-0.224
-400.209	-64.255	0.198	0.081
-399.194	-128.702	0.159	0.023
-398.179	-200.000	-0.024	-0.118
-397.165	800.000	-0.049	0.207
-396.150	-170.290	0.294	-0.010
-395.136	-200.000	-0.020	0.101
-394.121	340.865	0.049	-0.097
-393.106	-99.266	0.163	-0.041
-392.092	800.000	-0.118	0.478
-391.077	96.107	-0.074	-0.086
-390.063	800.000	-0.063	-0.264
-389.048	46.330	-0.065	0.061
-388.033	-161.883	0.097	-0.005
-387.019	-40.901	0.214	0.111
-386.004	-154.865	-0.348	-0.023
-384.990	-75.327	0.076	-0.027
-383.975	-154.490	0.291	-0.020
-382.960	-70.535	-0.199	-0.076
-381.946	-81.377	0.119	-0.040
-380.931	-200.000	0.077	0.368
-379.917	-200.000	-0.032	0.621
-378.902	-89.561	0.075	-0.022
-377.888	228.540	-0.075	0.123
-376.873	256.189	0.037	0.063
-375.858	-167.172	-0.387	0.016
-374.844	-51.392	0.055	-0.026
-373.829	800.000	0.022	0.069
-372.815	-93.589	-0.167	0.046
-371.800	-200.000	-0.021	-0.149
-370.785	268.012	-0.017	-0.030
-369.771	-89.929	0.352	0.103
-368.756	275.317	0.055	0.097
-367.742	-135.028	-0.077	0.009
-366.727	-132.593	0.541	-0.070
-365.712	195.067	0.092	0.140
-364.698	-83.513	-0.102	-0.033
-363.683	40.522	0.231	0.209
-362.669	36.437	0.037	0.033
-361.654	-79.979	0.247	0.083
-360.639	-94.134	0.102	0.028
-359.625	137.246	-0.072	0.095
-358.610	800.000	0.039	0.150
-357.596	-96.502	0.227	-0.060
-356.581	72.161	0.065	-0.069
-355.566	-177.124	-0.258	0.006
-354.552	9.103	0.081	-0.061
-353.537	57.791	0.277	0.273
-352.523	120.748	0.236	0.295
-351.508	167.474	-0.168	0.241
-350.493	-72.702	0.202	-0.075
-349.479	800.000	-0.054	-0.173
-348.464	-44.643	-0.390	-0.196
-347.450	-200.000	-0.001	-0.307
-346.435	675.445	0.169	0.442
-345.420	431.493	-0.203	-0.443
-344.406	800.000	-0.146	-0.418
-343.391	-95.897	0.395	0.106
-342.377	800.000	-0.050	-0.203
-341.362	216.330	0.196	0.314
-340.348	-15.702	0.117	-0.075
-339.333	-200.000	-0.019	0.161
-338.318	-159.329	-0.257	-0.014
-337.304	-6.763	0.187	0.128
-336.289	800.000	-0.063	-0.174
-335.275	-11.632	-0.355	0.235
-334.260	-182.383	0.148	0.003
-333.245	-115.792	-0.157	0.029
-332.231	800.000	-0.079	-0.255
-331.216	-72.729	0.296	0.110
-330.202	800.000	-0.037	0.107
-329.187	-55.730	-0.067	-0.030
-328.172	-200.000	0.076	-0.494
-327.158	343.347	0.154	0.302
-326.143	172.171	-0.059	-0.085
-325.129	301.415	0.070	-0.130
-324.114	-39.217	0.220	-0.116
-323.099	210.518	0.112	0.176
-322.085	6.780	0.226	0.169
-321.070	-58.858	-0.382	-0.166
-320.056	29.431	-0.215	-0.184
-319.041	-200.000	-0.231	-0.000
-318.026	341.039	-0.116	-0.227
-317.012	172.876	-0.185	0.268
-315.997	592.952	-0.071	0.175
-314.983	-12.796	-0.168	-0.110
-313.968	-14.698	-0.174	-0.112
-312.953	80.920	0.141	-0.153
-311.939	59.202	-0.303	-0.299
-310.924	165.321	-0.080	-0.114
-309.910	51.726	0.162	0.155
-308.895	-83.265	0.203	0.065
-307.880	-169.417	0.248	0.009
-306.866	-108.639	-0.149	-0.032
-305.851	-45.284	-0.127	-0.063
-304.837	-102.548	0.435	0.104
-303.822	21.152	0.344	-0.280
-302.807	800.000	-0.047	-0.137
-301.793	-200.000	0.014	0.073
-300.778	-116.120	-0.106	0.020
-299.764	-129.353	-0.148	-0.021
-298.749	-59.280	0.096	0.042
-297.735	-141.187	-0.056	-0.006
-296.720	-72.066	0.377	-0.141
-295.705	-158.852	-0.431	-0.025
-294.691	-200.000	-0.102	-0.472
-293.676	800.000	-0.151	-0.596
-292.662	29.378	0.213	0.182
-291.647	-1.791	0.265	0.187
-290.632	-140.980	-0.370	0.038
-289.618	-5.079	-0.049	0.034
-288.603	-125.994	0.165	-0.025
-287.589	179.027	0.240	0.352
-286.574	73.454	0.285	-0.300
-285.559	-131.964	0.408	-0.053
-284.545	-200.000	0.004	-0.186
-283.530	35.248	0.134	-0.118
-282.516	480.946	-0.036	0.083
-281.501	746.516	0.118	-0.319
-280.486	372.190	0.046	0.094
-279.472	-200.000	-0.012	-0.316
-278.457	-200.000	-0.018	-0.258
-277.443	-168.839	0.320	0.012
-276.428	118.361	0.178	-0.220
-275.413	244.371	0.173	-0.291
-274.399	-106.652	0.218	-0.049
-273.384	12.762	-0.035	-0.027
-272.370	-141.614	0.250	0.025
-271.355	-79.667	0.233	0.079
-270.340	800.000	0.038	0.107
-269.326	5.660	-0.073	-0.054
-268.311	800.000	0.052	-0.212
-267.297	-200.000	0.003	0.221
-266.282	-51.731	0.351	-0.164
-265.267	-10.184	0.187	0.125
-264.253	800.000	0.081	0.266
-263.238	-23.689	-0.056	-0.034
-262.224	800.000	-0.050	0.193
-261.209	-55.014	0.247	0.111
-260.195	-9.564	-0.208	0.139
-259.180	-17.825	-0.105	0.066
-258.165	697.849	-0.004	-0.011
-257.151	-200.000	-0.029	0.304
-256.136	-75.299	-0.344	0.123
-255.122	464.991	-0.031	-0.069
-254.107	139.874	0.116	0.153
-253.092	-19.032	0.150	-0.093
-252.078	-200.000	0.062	-0.354
-251.063	-200.000	0.002	-0.233
-250.049	178.191	0.059	0.086
-249.034	-100.389	-0.138	0.034
-248.019	139.259	-0.276	0.363
-247.005	-95.284	-0.112	-0.030
-245.990	617.881	-0.126	0.316
-244.976	98.057	0.108	0.124
-243.961	-200.000	0.015	-0.420
-242.946	800.000	0.039	0.154
-241.932	-55.716	-0.129	-0.058
-240.917	30.824	0.293	-0.251
-239.903	-200.000	-0.050	-0.334
-238.888	-1.024	-0.238	-0.169
-237.873	-148.332	0.116	0.010
-236.859	-200.000	-0.011	0.143
-235.844	-200.000	0.000	0.151
-234.830	-151.315	-0.217	0.016
-233.815	-139.863	0.431	-0.046
-232.800	541.990	-0.047	0.113
-231.786	800.000	0.022	-0.083
-230.771	-200.000	0.011	0.062
-229.757	-92.813	-0.047	-0.013
-228.742	-9.019	0.195	0.131
-227.727	-200.000	-0.048	0.250
-226.713	-107.650	-0.137	0.030
-225.698	8.200	0.262	0.197
-224.684	-104.383	0.038	-0.009
-223.669	-119.760	0.232	0.040
-222.655	-83.088	-0.187	-0.060
-221.640	333.809	-0.036	-0.070
-220.625	-37.371	-0.167	0.089
-219.611	-169.532	-0.269	-0.010
-218.596	800.000	-0.028	-0.097
-217.582	-77.395	-0.145	0.050
-216.567	241.212	-0.219	-0.365
-215.552	35.045	0.057	-0.050
-214.538	-170.487	-0.193	-0.007
-213.523	620.787	0.085	0.215
-212.509	-76.222	0.147	-0.052
-211.494	-200.000	0.082	-0.388
-210.479	571.199	-0.093	-0.228
-209.465	27.902	0.398	-0.336
-208.450	-200.000	-0.028	-0.237
-207.436	-4.080	-0.369	0.256
-206.421	172.870	-0.012	-0.017
-205.406	-53.733	0.092	0.042
-204.392	-72.906	0.212	0.078
-203.377	-108.642	0.154	-0.033
-202.363	177.733	-0.235	0.343
-201.348	-200.000	-0.023	-0.305
-200.333	-31.789	0.327	-0.183
-199.319	-123.269	-0.146	0.023
-198.304	476.815	-0.094	0.212
-197.290	555.162	0.032	0.077
-196.275	313.204	-0.198	0.373
-195.260	-200.000	0.011	-0.183
-194.246	-10.246	0.321	0.213
-193.231	-16.485	-0.318	-0.202
-192.217	-8.585	-0.046	-0.031
-191.202	-85.019	-0.235	-0.074
-190.187	-78.502	0.291	0.100
-189.173	-46.980	0.276	0.135
-188.158	800.000	0.036	0.139
-187.144	-83.512	0.178	0.057
-186.129	462.708	0.188	0.420
-185.114	50.960	-0.381	0.361
-184.100	198.564	0.177	0.271
-183.085	269.656	0.230	0.403
-182.071	-124.352	-0.256	0.040
-181.056	56.780	-0.138	-0.134
-180.042	-13.608	-0.057	-0.037
-179.027	90.881	0.188	0.210
-178.012	-200.000	-0.071	0.360
-176.998	116.756	-0.093	0.114
-175.983	384.544	-0.083	0.170
-174.969	800.000	-0.052	0.175
-173.954	68.857	0.052	0.054
-172.939	-166.411	0.160	-0.007
-171.925	-200.000	-0.011	-0.078
-170.910	474.226	-0.054	-0.121
-169.896	800.000	0.044	-0.168
-168.881	45.658	-0.083	-0.076
-167.866	214.283	0.068	0.108
-166.852	11.758	0.280	0.215
-165.837	-55.657	-0.117	-0.052
-164.823	-98.895	0.103	0.026
-163.808	383.318	-0.069	-0.142
-162.793	135.216	-0.151	0.197
-161.779	-200.000	0.058	0.492
-160.764	-5.915	-0.190	0.130
-159.750	-159.955	-0.148	0.008
-158.735	-119.340	-0.191	-0.033
-157.720	-142.544	-0.157	-0.015
-156.706	23.765	-0.097	0.079
-155.691	-27.238	0.068	0.040
-154.677	341.639	-0.153	-0.299
-153.662	-200.000	-0.009	-0.265
-152.647	800.000	-0.046	0.152
-151.633	104.868	0.187	0.220
-150.618	-200.000	0.074	0.470
-149.604	126.449	-0.020	-0.026
-148.589	87.892	0.145	-0.160
-147.574	-8.294	-0.130	0.087
-146.560	-200.000	-0.015	-0.233
-145.545	800.000	-0.026	-0.096
-144.531	106.120	0.318	-0.376
-143.516	-200.000	0.018	-0.143
-142.502	93.629	-0.069	-0.078
-141.487	-150.722	0.098	-0.007
-140.472	800.000	-0.188	0.576
-139.458	-200.000	0.010	-0.184
-138.443	-189.722	0.056	-0.001
-137.429	6.490	0.026	0.019
-136.414	800.000	0.019	0.073
-135.399	800.000	-0.029	0.125
-134.385	-138.413	0.297	-0.033
-133.370	-27.152	-0.280	0.163
-132.356	151.713	0.200	-0.272
-131.341	757.056	0.003	0.008
-130.326	-86.373	0.160	-0.049
-129.312	-200.000	-0.031	0.178
-128.297	-46.036	-0.380	-0.187
-127.283	493.608	0.051	0.116
-126.268	63.352	0.156	-0.156
-125.253	32.932	0.149	-0.128
-124.239	-159.583	-0.254	0.014
-123.224	-136.616	0.230	0.026
-122.210	82.626	0.136	-0.147
