DTS Sentinel unit serial number:	SN413079Multiplexer serial number:	ORYXHardware model number:	OX4-SRSoftware version number:	ORYX F/W v4.00 Oryx Data Collector v3.7.2.0data status	okinstallation	princeton_trtdifferential loss correction	single-endedforward channel	channel 4reverse channel	N/Adate	2019/09/12time	14:55:11forward acquisition time	60.00reverse acquisition time	0.00gamma	496.2192k internal	0.2289k external	0.2289temperature offset calibration	1.0085default loss term (dB/km)	0.3790temperature slope calibration	1.0000multiplexer offset coefficient	1.0000multiplexer slope coefficient	1.0000fibre end	0.00T internal ref (°C)	40.31T ext. ref 1 (°C)	2.31T ext. ref 2 (°C)	37.34length (m)	temperature (°C)	Stokes	anti-Stokes-747.200	199.312	-0.094	0.147
-746.185	-91.017	-0.022	0.007
-745.171	800.000	-0.044	0.156
-744.156	-63.674	0.246	0.104
-743.142	245.199	0.116	0.199
-742.127	433.742	0.221	0.491
-741.112	274.646	0.061	-0.110
-740.098	800.000	0.133	0.597
-739.083	-146.532	0.222	0.020
-738.069	-67.983	0.335	0.134
-737.054	-109.487	-0.391	0.085
-736.039	326.478	-0.123	0.240
-735.025	800.000	0.019	0.064
-734.010	335.871	0.192	-0.381
-732.996	-58.110	0.413	0.184
-731.981	340.373	0.087	-0.174
-730.966	64.525	-0.278	-0.287
-729.952	-121.197	-0.338	-0.058
-728.937	-81.458	-0.278	-0.094
-727.923	152.209	-0.040	-0.056
-726.908	-177.406	-0.111	-0.003
-725.894	343.414	0.008	-0.016
-724.879	-200.000	-0.024	-0.109
-723.864	105.121	0.175	0.212
-722.850	-200.000	0.012	0.099
-721.835	-200.000	0.063	-0.806
-720.821	98.006	0.091	-0.107
-719.806	-200.000	0.017	-0.332
-718.791	41.408	-0.091	-0.085
-717.777	-28.660	0.295	-0.174
-716.762	-153.161	-0.184	0.013
-715.748	173.062	0.127	0.187
-714.733	528.026	-0.141	0.341
-713.718	-28.541	0.070	-0.042
-712.704	669.148	-0.066	-0.175
-711.689	125.908	0.072	0.094
-710.675	-200.000	0.001	-0.096
-709.660	429.436	-0.021	0.047
-708.645	-200.000	0.080	-0.368
-707.631	-13.141	-0.130	0.087
-706.616	-79.455	0.175	0.061
-705.602	-17.452	-0.125	0.080
-704.587	664.195	0.128	0.337
-703.572	-146.178	-0.166	0.015
-702.558	-51.061	-0.284	0.136
-701.543	-138.020	-0.198	0.023
-700.529	55.248	-0.129	-0.127
-699.514	-200.000	-0.035	-0.215
-698.499	68.891	-0.018	0.018
-697.485	-139.460	-0.221	-0.024
-696.470	140.648	-0.052	-0.071
-695.456	-68.312	-0.236	-0.094
-694.441	-69.045	-0.262	0.103
-693.426	334.245	-0.067	-0.132
-692.412	-53.665	0.078	0.036
-691.397	-24.168	0.322	0.197
-690.383	-200.000	0.009	0.204
-689.368	-21.663	-0.130	-0.081
-688.354	-200.000	-0.031	-0.205
-687.339	-132.020	0.051	0.007
-686.324	227.334	-0.050	-0.084
-685.310	-6.519	0.474	0.330
-684.295	-9.206	-0.205	-0.140
-683.281	212.381	0.048	0.078
-682.266	-55.201	0.236	0.108
-681.251	-23.105	0.139	0.085
-680.237	300.164	-0.101	0.190
-679.222	800.000	-0.051	0.161
-678.208	140.102	-0.084	-0.113
-677.193	190.692	-0.140	-0.215
-676.178	312.915	-0.182	-0.349
-675.164	573.577	-0.139	0.345
-674.149	-200.000	-0.012	-0.383
-673.135	-101.103	-0.195	0.049
-672.120	800.000	0.106	0.452
-671.105	384.212	0.127	-0.267
-670.091	60.368	-0.053	0.053
-669.076	-86.987	-0.158	-0.049
-668.062	-200.000	-0.015	-0.111
-667.047	-44.256	-0.104	-0.053
-666.032	-70.444	-0.297	-0.115
-665.018	-200.000	-0.055	-0.325
-664.003	-97.769	-0.208	-0.055
-662.989	-200.000	-0.019	0.217
-661.974	-15.463	0.021	-0.014
-660.959	131.115	-0.181	-0.238
-659.945	5.781	0.169	-0.128
-658.930	-153.680	-0.097	0.007
-657.916	-159.250	0.233	0.013
-656.901	-61.011	-0.119	0.051
-655.886	605.085	0.099	0.251
-654.872	-66.028	-0.266	0.108
-653.857	-32.316	-0.106	-0.061
-652.843	-151.217	-0.145	0.011
-651.828	-115.845	-0.377	0.072
-650.814	-161.869	-0.086	-0.004
-649.799	45.426	-0.188	0.177
-648.784	48.556	-0.131	0.125
-647.770	800.000	-0.039	-0.148
-646.755	-65.407	-0.061	0.025
-645.741	-69.463	-0.238	0.093
-644.726	-77.074	0.293	-0.104
-643.711	-200.000	-0.006	-0.150
-642.697	267.828	0.098	-0.175
-641.682	371.440	0.035	0.072
-640.668	-200.000	0.011	-0.136
-639.653	-103.789	-0.073	-0.017
-638.638	-114.485	0.216	0.042
-637.624	11.311	0.239	-0.187
-636.609	11.180	-0.095	-0.074
-635.595	-102.755	-0.402	0.098
-634.580	-51.924	-0.355	-0.168
-633.565	666.829	-0.067	-0.177
-632.551	327.377	0.118	-0.232
-631.536	-54.838	-0.239	-0.110
-630.522	-35.163	-0.137	0.076
-629.507	-29.008	-0.040	-0.024
-628.492	-200.000	-0.026	0.354
-627.478	-40.923	0.311	0.164
-626.463	233.722	0.051	-0.086
-625.449	84.639	0.061	-0.068
-624.434	-20.803	-0.236	-0.148
-623.419	-146.877	-0.275	-0.024
-622.405	94.050	0.191	-0.221
-621.390	-129.038	0.231	0.033
-620.376	6.849	0.437	0.332
-619.361	-200.000	0.041	0.296
-618.346	-38.608	0.074	-0.040
-617.332	-144.617	0.244	-0.023
-616.317	270.090	-0.086	-0.154
-615.303	74.489	-0.100	-0.108
-614.288	41.113	0.225	0.208
-613.273	739.387	0.034	-0.093
-612.259	-37.098	-0.191	-0.104
-611.244	7.792	-0.286	-0.219
-610.230	52.120	0.125	0.121
-609.215	-28.414	0.157	0.092
-608.201	-200.000	0.012	-0.149
-607.186	-40.866	0.273	-0.144
-606.171	-79.651	-0.189	0.065
-605.157	202.395	-0.217	-0.341
-604.142	59.428	-0.061	0.061
-603.128	-31.585	-0.081	-0.047
-602.113	15.304	-0.183	-0.146
-601.098	639.657	0.057	-0.147
-600.084	-121.612	0.227	-0.038
-599.069	-102.710	-0.223	-0.054
-598.055	-62.354	0.085	-0.036
-597.040	-135.802	-0.323	0.039
-596.025	246.761	-0.103	0.176
-595.011	34.245	-0.212	-0.188
-593.996	-200.000	0.024	0.137
-592.982	24.305	0.180	0.151
-591.967	199.027	0.089	-0.139
-590.952	-20.571	-0.248	-0.155
-589.938	375.905	0.138	0.286
-588.923	768.423	0.129	-0.357
-587.909	-46.138	-0.329	0.165
-586.894	14.435	-0.286	0.227
-585.879	557.169	0.130	-0.319
-584.865	98.813	0.084	0.099
-583.850	-115.345	-0.098	0.019
-582.836	219.031	-0.061	0.099
-581.821	800.000	-0.042	-0.166
-580.806	-200.000	-0.003	-0.044
-579.792	800.000	-0.046	0.149
-578.777	-17.143	0.117	-0.075
-577.763	21.840	-0.293	0.243
-576.748	176.858	0.155	0.230
-575.733	-200.000	0.011	-0.183
-574.719	800.000	-0.042	-0.139
-573.704	-200.000	-0.011	-0.149
-572.690	97.982	0.254	0.298
-571.675	8.822	0.048	-0.037
-570.661	800.000	-0.071	-0.261
-569.646	426.076	-0.017	0.036
-568.631	36.132	-0.199	0.178
-567.617	800.000	0.074	-0.296
-566.602	-66.811	-0.288	-0.116
-565.588	5.406	0.173	0.130
-564.573	644.590	-0.080	-0.207
-563.558	80.821	0.099	0.109
-562.544	-11.396	-0.317	0.212
-561.529	-130.438	-0.193	-0.027
-560.515	-180.051	-0.191	-0.004
-559.500	-200.000	0.020	0.115
-558.485	800.000	0.076	0.267
-557.471	359.176	0.063	-0.129
-556.456	-47.736	0.100	-0.049
-555.442	-148.929	0.067	-0.006
-554.427	291.256	0.087	0.162
-553.412	190.043	-0.086	-0.131
-552.398	-195.500	0.235	-0.002
-551.383	90.503	-0.131	-0.149
-550.369	-5.010	-0.324	0.227
-549.354	-79.864	0.117	-0.040
-548.339	131.883	-0.023	-0.030
-547.325	-94.410	-0.346	-0.096
-546.310	-78.535	-0.271	-0.094
-545.296	-59.965	0.218	-0.095
-544.281	551.743	-0.015	0.036
-543.266	-131.030	-0.170	-0.023
-542.252	800.000	0.024	-0.090
-541.237	70.476	-0.191	0.201
-540.223	-41.720	-0.143	0.074
-539.208	235.861	0.170	-0.286
-538.193	-1.192	-0.111	0.080
-537.179	169.211	0.246	-0.356
-536.164	-13.088	-0.058	-0.039
-535.150	-81.487	-0.118	0.040
-534.135	202.730	-0.087	0.137
-533.121	-200.000	-0.054	-0.247
-532.106	-30.291	0.199	-0.115
-531.091	150.990	0.124	-0.171
-530.077	102.611	0.095	0.112
-529.062	154.914	-0.041	0.057
-528.048	-10.121	0.054	0.036
-527.033	-25.638	-0.139	0.083
-526.018	-13.179	-0.209	0.138
-525.004	771.259	-0.035	-0.096
-523.989	86.646	0.136	-0.153
-522.975	-69.425	-0.159	0.062
-521.960	11.834	-0.131	0.102
-520.945	190.451	0.054	0.083
-519.931	384.785	-0.077	-0.161
-518.916	-96.478	-0.104	0.028
-517.902	-122.305	0.212	-0.035
-516.887	758.730	0.086	0.237
-515.872	-112.229	-0.415	-0.085
-514.858	360.079	0.097	0.197
-513.843	-200.000	0.037	0.206
-512.829	127.185	-0.085	0.110
-511.814	22.433	0.071	0.059
-510.799	-200.000	0.011	-0.150
-509.785	800.000	0.055	0.174
-508.770	-7.548	-0.312	0.214
-507.756	-35.622	0.360	0.199
-506.741	-200.000	0.016	0.291
-505.726	-173.090	0.300	0.009
-504.712	344.198	-0.153	-0.305
-503.697	-108.441	0.121	-0.027
-502.683	-200.000	-0.034	0.217
-501.668	-200.000	0.012	0.132
-500.653	-154.461	-0.129	-0.009
-499.639	152.461	0.060	0.084
-498.624	800.000	-0.072	0.230
-497.610	800.000	0.128	-0.431
-496.595	-101.296	-0.162	-0.040
-495.581	130.877	0.162	0.211
-494.566	800.000	-0.039	0.111
-493.551	-14.741	0.046	0.030
-492.537	-6.605	0.307	0.212
-491.522	280.343	-0.193	-0.351
-490.508	800.000	-0.105	0.349
-489.493	105.222	0.116	0.139
-488.478	-200.000	0.001	0.303
-487.464	33.795	-0.204	0.180
-486.449	533.522	-0.011	0.027
-485.435	-200.000	0.022	0.111
-484.420	-171.548	-0.172	-0.006
-483.405	256.803	0.122	0.213
-482.391	313.055	-0.059	0.113
-481.376	-107.655	-0.075	0.017
-480.362	52.215	0.112	0.108
-479.347	-200.000	-0.003	0.012
-478.332	-95.358	-0.238	0.065
-477.318	7.802	0.211	0.160
-476.303	84.215	0.111	-0.123
-475.289	-200.000	-0.001	-0.056
-474.274	-108.349	0.344	-0.075
-473.259	236.799	0.131	0.220
-472.245	-121.873	-0.126	0.021
-471.230	-63.244	-0.371	0.155
-470.216	-73.157	0.312	-0.116
-469.201	-200.000	-0.034	0.173
-468.186	-200.000	0.010	0.120
-467.172	35.655	-0.124	-0.110
-466.157	800.000	0.044	-0.149
-465.143	-82.292	0.434	0.143
-464.128	-86.788	-0.319	-0.099
-463.113	800.000	-0.101	0.331
-462.099	-114.138	-0.475	0.093
-461.084	214.315	-0.055	-0.089
-460.070	-200.000	-0.040	-0.198
-459.055	-107.846	-0.116	-0.026
-458.040	629.733	0.066	-0.169
-457.026	-25.420	-0.353	-0.212
-456.011	-46.522	-0.058	0.029
-454.997	-107.270	-0.278	-0.062
-453.982	107.131	0.121	-0.146
-452.968	-200.000	-0.022	-0.255
-451.953	-105.773	-0.179	0.041
-450.938	-47.174	-0.116	-0.057
-449.924	-200.000	0.008	0.252
-448.909	800.000	-0.093	-0.377
-447.895	800.000	-0.096	-0.397
-446.880	292.454	0.042	-0.078
-445.865	77.455	-0.114	0.123
-444.851	-200.000	-0.012	0.185
-443.836	800.000	-0.076	-0.264
-442.822	86.804	0.141	0.158
-441.807	-200.000	0.001	0.102
-440.792	-122.401	-0.227	0.037
-439.778	-108.970	-0.166	-0.036
-438.763	256.003	-0.097	-0.169
-437.749	-32.159	-0.139	-0.079
-436.734	46.030	0.222	-0.208
-435.719	-200.000	0.065	0.287
-434.705	-18.022	0.069	0.044
-433.690	-200.000	-0.054	-0.248
-432.676	-184.208	-0.205	0.003
-431.661	94.897	-0.274	-0.316
-430.646	-126.864	-0.259	-0.039
-429.632	-200.000	-0.033	-0.269
-428.617	800.000	0.051	-0.147
-427.603	-89.416	0.128	-0.038
-426.588	-102.717	0.205	-0.049
-425.573	-112.885	0.382	0.077
-424.559	-75.499	-0.344	0.124
-423.544	61.600	-0.212	-0.213
-422.530	4.411	-0.149	-0.110
-421.515	222.416	-0.171	-0.278
-420.500	-34.503	0.362	0.200
-419.486	24.722	0.212	-0.178
-418.471	1.190	-0.103	-0.075
-417.457	6.141	-0.319	0.239
-416.442	238.759	0.028	-0.048
-415.428	-67.511	0.175	-0.070
-414.413	-86.036	0.232	-0.072
-413.398	56.749	0.284	0.280
-412.384	-168.096	0.468	0.018
-411.369	-36.219	0.277	0.151
-410.355	-200.000	-0.007	0.169
-409.340	-119.368	0.045	0.008
-408.325	-12.298	0.139	-0.092
-407.311	-126.792	0.067	0.010
-406.296	24.303	-0.120	0.100
-405.282	672.498	0.098	0.258
-404.267	-165.337	0.481	0.021
-403.252	288.756	-0.111	0.203
-402.238	-103.904	-0.303	0.072
-401.223	47.383	0.227	-0.214
-400.209	-39.542	0.140	0.074
-399.194	85.447	-0.076	0.085
-398.179	-141.450	0.072	-0.007
-397.165	-96.507	0.390	0.104
-396.150	-45.481	-0.198	-0.099
-395.136	88.956	-0.064	0.072
-394.121	75.681	-0.155	0.166
-393.106	-86.342	0.128	0.040
-392.092	-134.814	-0.312	-0.038
-391.077	-22.664	-0.338	-0.207
-390.063	101.325	-0.134	-0.158
-389.048	-129.873	0.462	0.064
-388.033	-200.000	-0.008	0.205
-387.019	-200.000	0.013	-0.088
-386.004	-145.914	0.144	0.013
-384.990	-74.338	-0.143	-0.052
-383.975	-163.136	-0.188	-0.009
-382.960	100.970	-0.154	-0.181
-381.946	-93.041	0.346	-0.097
-380.931	-200.000	0.011	0.099
-379.917	595.043	0.040	-0.101
-378.902	7.176	0.046	-0.034
-377.888	85.105	-0.230	0.254
-376.873	121.696	0.059	0.075
-375.858	-15.847	0.252	-0.162
-374.844	239.617	0.190	-0.319
-373.829	29.979	0.101	0.087
-372.815	-200.000	0.040	-0.383
-371.800	18.353	-0.359	-0.290
-370.785	32.666	0.334	0.292
-369.771	-116.129	0.638	0.120
-368.756	778.629	-0.062	0.170
-367.742	-22.667	-0.155	-0.095
-366.727	173.398	0.073	0.106
-365.712	-200.000	0.008	-0.219
-364.698	-15.608	-0.226	0.145
-363.683	-164.755	0.182	-0.008
-362.669	1.719	-0.217	0.158
-361.654	-84.130	-0.235	0.075
-360.639	32.220	-0.056	-0.049
-359.625	101.651	0.178	-0.209
-358.610	-200.000	-0.065	-0.328
-357.596	-200.000	-0.038	0.291
-356.581	88.659	0.084	-0.094
-355.566	-121.265	-0.296	-0.050
-354.552	-92.479	0.355	-0.101
-353.537	-200.000	-0.064	-0.365
-352.523	60.177	-0.084	0.083
-351.508	80.474	-0.064	-0.070
-350.493	800.000	0.114	-0.416
-349.479	-92.057	0.066	-0.019
-348.464	153.051	-0.026	0.035
-347.450	68.885	-0.043	-0.045
-346.435	-200.000	-0.061	-0.000
-345.420	-200.000	-0.009	-0.087
-344.406	-100.906	0.329	-0.081
-343.391	7.252	-0.131	0.099
-342.377	800.000	-0.074	0.218
-341.362	-86.764	0.342	-0.106
-340.348	800.000	-0.139	0.463
-339.333	-200.000	0.027	-0.151
-338.318	57.873	0.057	0.056
-337.304	-109.028	0.140	0.030
-336.289	25.601	0.111	0.093
-335.275	35.069	0.114	0.101
-334.260	8.379	0.179	-0.136
-333.245	-49.099	0.148	-0.071
-332.231	93.138	0.084	-0.096
-331.216	-200.000	-0.011	-0.183
-330.202	248.222	-0.175	-0.298
-329.187	216.408	0.145	-0.233
-328.172	-180.533	0.306	0.006
-327.158	56.217	-0.014	0.014
-326.143	-200.000	0.059	-0.274
-325.129	-155.292	0.183	-0.012
-324.114	41.992	0.147	-0.135
-323.099	-97.491	0.457	-0.120
-322.085	-90.935	0.317	-0.092
-321.070	-200.000	-0.036	0.349
-320.056	-83.205	-0.028	0.009
-319.041	-140.439	-0.083	-0.009
-318.026	-12.854	0.219	0.144
-317.012	206.526	-0.101	0.159
-315.997	29.173	-0.178	-0.153
-314.983	-200.000	0.169	-0.001
-313.968	-104.504	0.293	-0.068
-312.953	299.689	0.039	0.072
-311.939	108.612	-0.148	0.178
-310.924	-22.981	-0.162	0.099
-309.910	-143.657	0.211	-0.020
-308.895	52.378	0.050	-0.048
-307.880	90.596	-0.171	0.193
-306.866	-102.437	-0.131	-0.032
-305.851	48.471	-0.092	0.087
-304.837	34.926	-0.124	0.109
-303.822	-200.000	-0.033	0.275
-302.807	-200.000	-0.015	0.146
-301.793	-200.000	0.016	0.165
-300.778	289.062	-0.097	-0.176
-299.764	226.467	0.196	0.320
-298.749	99.558	0.127	-0.147
-297.735	91.957	0.251	-0.285
-296.720	-176.194	0.119	0.003
-295.705	-27.402	0.087	0.051
-294.691	-128.799	-0.050	-0.007
-293.676	278.095	0.174	0.311
-292.662	367.870	-0.108	0.219
-291.647	-157.424	-0.602	0.036
-290.632	155.355	0.054	-0.075
-289.618	-101.214	-0.214	0.053
-288.603	195.789	-0.057	0.087
-287.589	-200.000	-0.002	0.108
-286.574	-136.745	0.387	-0.045
-285.559	-200.000	0.012	0.341
-284.545	25.474	0.137	-0.115
-283.530	-200.000	-0.002	-0.242
-282.516	-171.229	0.123	0.004
-281.501	-3.921	-0.219	0.153
-280.486	282.761	-0.095	0.172
-279.472	496.678	-0.026	0.061
-278.457	43.979	0.108	0.099
-277.443	-113.761	0.388	-0.076
-276.428	27.302	0.406	-0.343
-275.413	395.248	-0.024	-0.050
-274.399	94.503	0.179	-0.205
-273.384	-200.000	0.009	-0.266
-272.370	-200.000	0.005	-0.068
-271.355	-136.781	0.167	-0.019
-270.340	208.345	-0.044	-0.069
-269.326	431.908	0.181	-0.395
-268.311	-124.875	0.051	0.008
-267.297	-61.793	0.061	0.026
-266.282	-64.340	0.288	-0.118
-265.267	81.015	-0.210	-0.228
-264.253	-200.000	0.010	-0.113
-263.238	-69.064	0.123	0.047
-262.224	-58.526	-0.236	-0.103
-261.209	-34.294	0.177	0.098
-260.195	800.000	0.034	-0.145
-259.180	-130.435	-0.154	0.021
-258.165	-130.432	-0.167	0.023
-257.151	-200.000	-0.029	0.162
-256.136	401.854	0.107	0.226
-255.122	-149.939	-0.166	-0.013
-254.107	-155.467	0.061	-0.004
-253.092	443.638	0.042	0.093
-252.078	31.312	-0.176	-0.152
-251.063	51.174	-0.065	0.062
-250.049	-125.985	-0.106	-0.016
-249.034	-200.000	-0.039	-0.346
-248.019	800.000	0.084	-0.330
-247.005	-56.031	-0.462	-0.207
-245.990	-60.608	0.066	-0.028
-244.976	26.780	0.119	0.100
-243.961	-200.000	-0.033	0.258
-242.946	65.812	-0.257	-0.261
-241.932	-149.440	0.322	0.026
-240.917	-57.744	-0.418	0.184
-239.903	-200.000	-0.004	0.217
-238.888	-122.387	0.037	-0.006
-237.873	-112.468	0.141	0.028
-236.859	-200.000	-0.018	0.171
-235.844	-200.000	-0.035	0.337
-234.830	113.912	0.095	0.116
-233.815	275.914	0.120	0.215
-232.800	132.631	-0.123	0.159
-231.786	288.378	-0.132	0.240
-230.771	101.806	0.193	0.226
-229.757	-200.000	0.014	-0.197
-228.742	-102.831	0.151	0.036
-227.727	382.771	0.193	0.399
-226.713	-99.217	0.136	0.034
-225.698	-82.826	0.352	-0.114
-224.684	-0.778	0.093	0.066
-223.669	-81.940	0.102	0.033
-222.655	281.264	0.137	-0.247
-221.640	158.979	-0.079	0.110
-220.625	-130.670	0.193	-0.026
-219.611	-200.000	-0.002	-0.064
-218.596	174.419	0.027	-0.039
-217.582	533.445	0.226	0.538
-216.567	278.788	-0.061	-0.109
-215.552	-113.810	-0.255	-0.050
-214.538	-200.000	-0.021	-0.107
-213.523	-131.467	0.286	-0.038
-212.509	-41.795	0.065	0.033
-211.494	108.015	-0.064	-0.077
-210.479	-186.341	0.358	0.005
-209.465	-200.000	0.009	-0.357
-208.450	-200.000	0.008	-0.145
-207.436	-71.725	-0.084	0.031
-206.421	21.354	-0.125	-0.102
-205.406	-200.000	0.016	0.162
-204.392	-73.566	-0.308	0.113
-203.377	308.407	0.011	-0.021
-202.363	220.228	-0.142	-0.228
-201.348	-111.498	-0.172	-0.035
-200.333	80.935	-0.293	-0.318
-199.319	697.182	0.040	-0.105
-198.304	-19.714	-0.101	0.063
-197.290	-65.606	-0.072	-0.029
-196.275	351.214	-0.031	-0.062
-195.260	111.898	0.154	-0.186
-194.246	-119.903	-0.348	0.060
-193.231	-143.441	-0.156	-0.015
-192.217	143.416	-0.061	0.081
-191.202	800.000	-0.043	0.119
-190.187	800.000	-0.056	-0.209
-189.173	-103.193	-0.326	-0.077
-188.158	699.927	-0.112	0.296
-187.144	35.778	0.083	0.073
-186.129	-85.115	0.240	-0.075
-185.114	-124.430	-0.203	0.032
-184.100	-42.604	-0.149	-0.076
-183.085	-7.290	-0.327	0.222
-182.071	-97.683	0.148	0.038
-181.056	179.819	-0.081	0.119
-180.042	-77.123	0.124	-0.043
-179.027	93.474	0.225	0.256
-178.012	605.226	0.050	0.124
-176.998	-200.000	-0.059	-0.343
-175.983	187.253	0.170	-0.253
-174.969	531.337	-0.068	-0.161
-173.954	79.160	-0.097	-0.104
-172.939	-4.183	0.158	0.110
-171.925	-25.395	-0.107	-0.063
-170.910	-32.930	-0.129	0.072
-169.896	24.716	-0.079	0.065
-168.881	-65.562	0.304	-0.122
-167.866	-56.279	0.160	-0.071
-166.852	-91.995	-0.105	0.030
-165.837	800.000	0.074	0.303
-164.823	-150.230	-0.049	-0.004
-163.808	497.522	0.178	0.410
-162.793	800.000	-0.008	0.035
-161.779	-188.813	0.159	-0.002
-160.764	280.823	0.117	-0.210
-159.750	35.486	-0.105	0.092
-158.735	72.302	-0.096	0.100
-157.720	800.000	-0.018	0.060
-156.706	-58.037	-0.146	0.064
-155.691	800.000	-0.075	0.215
-154.677	81.942	0.235	0.255
-153.662	-200.000	-0.128	0.574
-152.647	7.841	-0.304	-0.228
-151.633	-200.000	0.005	0.028
-150.618	115.707	0.188	0.230
-149.604	-76.943	0.209	-0.073
-148.589	-6.557	-0.143	0.097
-147.574	800.000	-0.069	-0.201
-146.560	206.910	-0.073	-0.113
-145.545	627.975	-0.060	0.151
-144.531	-73.497	0.128	0.047
-143.516	31.956	0.210	0.181
-142.502	-59.134	-0.226	-0.098
-141.487	322.767	-0.011	-0.022
-140.472	-62.532	-0.118	-0.049
-139.458	800.000	-0.119	0.366
-138.443	800.000	-0.062	-0.217
-137.429	-21.089	0.229	-0.140
-136.414	-200.000	-0.030	0.220
-135.399	-200.000	-0.006	0.214
-134.385	129.574	0.176	-0.225
-133.370	353.953	-0.128	-0.255
-132.356	150.962	0.122	-0.166
-131.341	-94.825	0.122	0.033
-130.326	-80.347	0.090	-0.030
-129.312	-47.952	0.088	0.043
-128.297	-137.010	0.437	0.050
-127.283	245.521	-0.151	0.255
-126.268	215.817	-0.082	-0.130
-125.253	-21.498	-0.139	0.085
-124.239	-90.850	-0.038	-0.011
-123.224	-200.000	-0.014	0.152
-122.210	597.091	-0.177	-0.439
