DTS Sentinel unit serial number:	SN413079Multiplexer serial number:	ORYXHardware model number:	OX4-SRSoftware version number:	ORYX F/W v4.00 Oryx Data Collector v3.7.2.0data status	okinstallation	princeton_trtdifferential loss correction	single-endedforward channel	channel 4reverse channel	N/Adate	2019/09/13time	22:37:35forward acquisition time	60.00reverse acquisition time	0.00gamma	496.2192k internal	0.2320k external	0.2320temperature offset calibration	1.0139default loss term (dB/km)	0.3790temperature slope calibration	1.0000multiplexer offset coefficient	1.0000multiplexer slope coefficient	1.0000fibre end	0.00T internal ref (°C)	27.69T ext. ref 1 (°C)	3.24T ext. ref 2 (°C)	21.89length (m)	temperature (°C)	Stokes	anti-Stokes-747.200	-78.112	0.229	-0.080
-746.185	-200.000	0.028	-0.169
-745.171	-119.184	-0.403	0.071
-744.156	9.807	0.362	-0.278
-743.142	800.000	-0.071	0.286
-742.127	240.976	0.165	0.279
-741.112	-112.214	0.288	-0.058
-740.098	-89.765	-0.041	0.012
-739.083	-170.505	0.401	0.014
-738.069	-183.134	-0.044	-0.001
-737.054	174.123	-0.082	-0.120
-736.039	-14.593	0.171	-0.111
-735.025	800.000	-0.092	0.407
-734.010	109.064	-0.161	0.194
-732.996	-200.000	-0.012	0.081
-731.981	-200.000	0.012	0.092
-730.966	-200.000	0.016	0.169
-729.952	501.275	-0.113	-0.264
-728.937	-29.502	-0.093	0.054
-727.923	-168.022	0.160	0.006
-726.908	85.976	-0.153	0.170
-725.894	430.246	0.046	-0.101
-724.879	23.864	-0.154	-0.128
-723.864	-49.189	-0.182	0.088
-722.850	552.375	-0.048	0.117
-721.835	-9.853	-0.346	0.233
-720.821	800.000	0.024	0.070
-719.806	6.664	0.341	-0.256
-718.791	139.452	-0.107	-0.143
-717.777	255.362	-0.154	0.267
-716.762	-200.000	-0.028	-0.195
-715.748	-200.000	0.027	0.164
-714.733	-3.414	0.305	0.214
-713.718	772.766	-0.114	-0.315
-712.704	348.435	-0.131	-0.261
-711.689	-200.000	0.002	0.040
-710.675	169.159	0.026	-0.037
-709.660	-25.983	-0.215	-0.128
-708.645	-71.962	-0.131	-0.049
-707.631	-150.849	0.280	-0.021
-706.616	-140.791	0.083	-0.009
-705.602	-200.000	-0.035	-0.366
-704.587	29.162	-0.132	-0.113
-703.572	-200.000	-0.016	0.143
-702.558	414.616	0.088	-0.189
-701.543	-69.158	-0.264	0.102
-700.529	211.365	0.097	0.153
-699.514	6.289	0.239	-0.179
-698.499	-10.274	-0.095	-0.064
-697.485	-82.931	0.266	-0.087
-696.470	-4.997	0.245	0.170
-695.456	-141.752	0.137	0.014
-694.441	232.591	-0.175	-0.290
-693.426	-67.348	0.108	0.043
-692.412	-42.894	-0.190	0.097
-691.397	4.274	0.118	0.087
-690.383	-112.110	-0.059	0.012
-689.368	-61.612	-0.577	-0.244
-688.354	36.931	-0.243	-0.217
-687.339	-200.000	0.035	-0.188
-686.324	529.544	0.037	0.088
-685.310	-108.981	0.196	-0.042
-684.295	-200.000	0.010	0.134
-683.281	182.273	-0.200	-0.297
-682.266	248.094	0.057	-0.097
-681.251	-200.000	0.000	0.232
-680.237	-200.000	0.213	-0.001
-679.222	17.872	-0.034	-0.027
-678.208	46.324	0.192	-0.179
-677.193	285.917	-0.084	0.153
-676.178	-114.885	-0.354	-0.068
-675.164	455.561	-0.030	-0.067
-674.149	-200.000	0.052	-0.266
-673.135	706.666	0.019	-0.051
-672.120	22.238	-0.220	0.181
-671.105	-200.000	-0.011	0.080
-670.091	-58.495	0.263	-0.115
-669.076	-35.488	-0.227	-0.124
-668.062	-80.706	0.085	0.029
-667.047	-200.000	-0.028	0.146
-666.032	152.729	-0.155	-0.214
-665.018	-153.787	-0.149	-0.010
-664.003	-20.493	0.129	-0.080
-662.989	-51.221	0.689	-0.325
-661.974	-200.000	-0.036	-0.232
-660.959	28.727	0.155	-0.132
-659.945	-98.254	-0.189	0.049
-658.930	-132.667	0.475	-0.061
-657.916	-51.108	-0.129	-0.061
-656.901	-200.000	0.007	-0.174
-655.886	-181.853	0.059	-0.001
-654.872	-43.451	0.330	-0.168
-653.857	-69.827	-0.083	0.032
-652.843	-200.000	0.030	-0.174
-651.828	-200.000	0.015	0.157
-650.814	-106.848	-0.196	0.044
-649.799	-200.000	-0.011	-0.205
-648.784	76.686	0.079	-0.085
-647.770	172.215	-0.151	0.219
-646.755	-124.509	0.285	-0.045
-645.741	265.973	-0.033	0.058
-644.726	-100.728	-0.102	-0.025
-643.711	-50.848	-0.167	-0.079
-642.697	-110.074	-0.249	0.052
-641.682	149.771	0.083	0.114
-640.668	87.106	0.165	-0.184
-639.653	674.383	-0.115	0.301
-638.638	238.420	0.046	0.076
-637.624	9.503	-0.285	-0.218
-636.609	4.184	0.223	-0.165
-635.595	-66.122	0.107	-0.043
-634.580	121.893	0.059	-0.075
-633.565	275.570	0.032	0.057
-632.551	162.834	-0.064	-0.091
-631.536	289.222	-0.193	-0.352
-630.522	-91.620	-0.112	-0.032
-629.507	-60.745	-0.198	-0.085
-628.492	30.100	-0.240	-0.206
-627.478	402.483	-0.012	-0.026
-626.463	-17.513	0.076	0.048
-625.449	-110.650	-0.315	0.066
-624.434	-16.010	0.230	0.147
-623.419	3.240	0.199	-0.146
-622.405	-39.120	-0.112	0.059
-621.390	349.191	0.176	-0.350
-620.376	-53.774	0.133	0.061
-619.361	102.243	0.224	-0.264
-618.346	14.039	-0.418	-0.327
-617.332	190.424	0.171	-0.259
-616.317	227.596	0.050	-0.081
-615.303	114.893	0.178	-0.218
-614.288	-85.877	-0.213	0.067
-613.273	-166.352	0.285	0.012
-612.259	-200.000	0.004	0.176
-611.244	-200.000	0.001	-0.046
-610.230	129.649	0.325	-0.418
-609.215	-149.791	0.286	0.023
-608.201	26.033	0.075	0.063
-607.186	80.193	0.075	-0.082
-606.171	31.100	0.254	-0.219
-605.157	800.000	0.040	-0.142
-604.142	-67.238	-0.220	0.087
-603.128	-138.764	0.260	0.029
-602.113	-4.290	0.040	-0.028
-601.098	-140.848	0.181	-0.019
-600.084	-200.000	0.007	0.049
-599.069	-156.449	0.271	-0.017
-598.055	-152.791	0.226	0.016
-597.040	800.000	0.037	-0.108
-596.025	200.182	-0.067	-0.104
-595.011	683.800	0.046	0.121
-593.996	73.812	0.083	0.087
-592.982	800.000	-0.121	0.440
-591.967	-200.000	0.032	0.153
-590.952	101.142	0.110	-0.128
-589.938	-200.000	-0.051	0.356
-588.923	800.000	0.167	0.519
-587.909	-80.743	-0.205	0.068
-586.894	-61.040	0.484	0.206
-585.879	67.291	-0.299	0.306
-584.865	342.552	0.064	0.126
-583.850	1.336	-0.169	-0.122
-582.836	800.000	0.142	0.490
-581.821	-34.929	0.156	0.085
-580.806	91.647	-0.187	0.211
-579.792	46.080	0.270	0.251
-578.777	-22.164	-0.228	-0.139
-577.763	-18.421	0.195	0.122
-576.748	-165.014	0.227	-0.010
-575.733	-117.171	0.066	0.012
-574.719	-155.861	-0.173	-0.011
-573.704	205.858	0.069	-0.108
-572.690	-45.312	0.202	0.101
-571.675	-81.326	0.358	0.119
-570.661	167.494	-0.205	0.293
-569.646	-200.000	-0.002	-0.031
-568.631	-40.905	0.047	-0.024
-567.617	34.936	-0.196	-0.172
-566.602	12.880	-0.050	-0.039
-565.588	788.085	0.045	-0.124
-564.573	-109.926	0.325	-0.068
-563.558	-200.000	0.027	-0.143
-562.544	81.974	0.058	0.063
-561.529	800.000	0.038	-0.130
-560.515	800.000	-0.083	0.305
-559.500	124.131	0.294	0.371
-558.485	481.882	0.175	0.398
-557.471	-200.000	-0.005	0.208
-556.456	707.584	-0.051	-0.135
-555.442	-65.362	-0.109	0.044
-554.427	-136.133	-0.223	-0.026
-553.412	-98.988	0.121	0.031
-552.398	23.358	-0.072	0.060
-551.383	-200.000	0.009	-0.071
-550.369	-72.707	-0.244	-0.090
-549.354	-200.000	-0.022	-0.231
-548.339	239.139	0.190	0.318
-547.325	167.521	-0.091	0.130
-546.310	-132.359	0.311	-0.040
-545.296	84.162	-0.252	0.276
-544.281	114.132	-0.073	0.089
-543.266	800.000	0.030	-0.096
-542.252	-67.384	0.029	-0.012
-541.237	-122.820	-0.401	0.065
-540.223	-56.505	0.196	-0.087
-539.208	368.889	0.015	-0.030
-538.193	-77.952	0.284	-0.098
-537.179	93.491	-0.216	-0.245
-536.164	-134.139	0.135	-0.017
-535.150	495.072	-0.059	-0.136
-534.135	98.677	-0.326	0.378
-533.121	9.890	-0.173	0.132
-532.106	82.392	-0.092	-0.100
-531.091	-145.783	-0.128	-0.011
-530.077	460.632	-0.040	-0.088
-529.062	540.025	0.033	0.080
-528.048	40.747	0.100	0.090
-527.033	-53.302	0.223	0.103
-526.018	-200.000	-0.287	-0.001
-525.004	71.529	0.184	0.192
-523.989	-133.387	-0.283	-0.036
-522.975	-200.000	-0.006	-0.176
-521.960	297.323	-0.088	0.162
-520.945	-200.000	-0.006	-0.124
-519.931	234.182	-0.049	0.081
-518.916	-54.156	-0.156	-0.071
-517.902	-200.000	0.005	0.063
-516.887	-90.767	0.147	-0.042
-515.872	-136.409	-0.156	-0.018
-514.858	-153.763	0.486	-0.033
-513.843	663.169	0.095	-0.244
-512.829	415.086	0.156	-0.333
-511.814	118.926	-0.053	0.066
-510.799	-41.921	-0.221	0.114
-509.785	-0.989	-0.360	-0.255
-508.770	-105.686	-0.347	0.079
-507.756	101.952	-0.147	0.171
-506.741	-200.000	0.011	0.111
-505.726	362.238	0.145	-0.290
-504.712	199.224	-0.109	0.167
-503.697	177.890	-0.100	-0.146
-502.683	800.000	0.009	0.026
-501.668	-47.725	0.349	-0.170
-500.653	348.635	-0.024	0.047
-499.639	153.182	-0.041	-0.056
-498.624	84.407	0.121	-0.132
-497.610	-121.029	0.100	-0.017
-496.595	-81.625	0.305	-0.100
-495.581	-200.000	0.006	0.210
-494.566	357.488	0.099	0.198
-493.551	-12.320	0.166	0.109
-492.537	128.205	-0.200	0.255
-491.522	-200.000	-0.014	-0.343
-490.508	668.985	0.119	-0.308
-489.493	-156.282	-0.665	-0.042
-488.478	-35.565	0.351	0.190
-487.464	-86.140	0.104	0.032
-486.449	-200.000	0.006	0.206
-485.435	-123.680	-0.323	0.051
-484.420	-200.000	0.009	-0.101
-483.405	-200.000	-0.142	0.001
-482.391	800.000	0.045	-0.126
-481.376	-18.558	-0.492	0.307
-480.362	-10.916	0.090	0.059
-479.347	800.000	0.034	-0.145
-478.332	-7.376	-0.199	-0.135
-477.318	234.974	0.066	-0.109
-476.303	456.695	-0.161	0.357
-475.289	59.189	-0.233	0.229
-474.274	335.620	-0.137	-0.265
-473.259	720.570	0.194	-0.517
-472.245	-121.925	-0.331	-0.055
-471.230	287.355	-0.072	0.130
-470.216	800.000	0.027	-0.098
-469.201	-136.561	-0.140	-0.016
-468.186	-200.000	0.008	-0.094
-467.172	20.130	-0.057	0.046
-466.157	-25.594	0.091	-0.054
-465.143	-200.000	-0.004	-0.062
-464.128	-98.444	-0.425	-0.109
-463.113	-164.780	-0.281	0.013
-462.099	-140.520	-0.234	-0.024
-461.084	-112.417	-0.060	0.012
-460.070	94.797	-0.180	0.204
-459.055	118.045	-0.112	-0.138
-458.040	55.641	0.119	-0.116
-457.026	-101.214	0.169	-0.041
-456.011	92.777	0.051	-0.058
-454.997	800.000	0.036	-0.150
-453.982	45.589	0.199	0.184
-452.968	570.091	-0.043	-0.106
-451.953	-110.194	-0.130	0.027
-450.938	-157.018	-0.283	0.017
-449.924	-97.447	-0.131	-0.034
-448.909	401.370	-0.083	0.175
-447.895	-200.000	-0.007	-0.040
-446.880	800.000	0.080	0.302
-445.865	-99.820	-0.084	-0.021
-444.851	-35.880	0.141	0.076
-443.836	778.036	-0.098	-0.268
-442.822	63.758	-0.100	-0.101
-441.807	157.778	0.231	0.320
-440.792	-128.279	-0.344	0.049
-439.778	-47.508	0.385	0.187
-438.763	800.000	0.086	-0.288
-437.749	-41.600	0.251	0.129
-436.734	-47.567	-0.348	-0.169
-435.719	-111.323	0.298	0.061
-434.705	-200.000	-0.019	0.157
-433.690	-34.302	0.106	0.058
-432.676	-200.000	-0.027	-0.242
-431.661	-79.295	0.238	-0.080
-430.646	-200.000	-0.008	0.484
-429.632	290.482	-0.077	-0.139
-428.617	-163.563	-0.280	0.013
-427.603	-157.853	0.033	-0.002
-426.588	70.505	-0.257	-0.266
-425.573	65.747	-0.076	-0.077
-424.559	-94.562	0.176	-0.048
-423.544	19.687	0.409	-0.329
-422.530	145.288	-0.254	-0.339
-421.515	131.202	0.072	0.093
-420.500	-85.775	0.289	0.089
-419.486	-175.453	-0.388	-0.011
-418.471	9.580	0.123	0.093
-417.457	-115.508	0.198	-0.037
-416.442	-73.623	0.171	-0.062
-415.428	-16.551	-0.145	0.092
-414.413	-200.000	-0.023	-0.225
-413.398	-200.000	-0.022	0.139
-412.384	-162.260	0.257	0.013
-411.369	-200.000	0.062	0.300
-410.355	-200.000	0.053	0.237
-409.340	800.000	-0.037	-0.140
-408.325	-10.858	-0.196	-0.129
-407.311	-107.445	0.319	-0.070
-406.296	-54.481	-0.144	0.065
-405.282	-135.464	0.115	0.014
-404.267	263.131	-0.061	-0.105
-403.252	-67.189	0.345	-0.136
-402.238	-155.294	0.172	0.011
-401.223	-2.139	-0.259	-0.182
-400.209	-200.000	0.038	-0.232
-399.194	151.098	-0.192	0.260
-398.179	581.602	-0.051	0.125
-397.165	-170.779	0.161	-0.006
-396.150	220.946	0.122	0.195
-395.136	-200.000	-0.001	0.091
-394.121	134.348	-0.214	0.276
-393.106	-125.899	0.125	0.019
-392.092	-49.035	-0.412	-0.197
-391.077	97.895	-0.066	0.076
-390.063	-91.978	0.368	0.104
-389.048	-142.469	-0.193	-0.019
-388.033	-83.045	0.151	-0.048
-387.019	-200.000	-0.024	0.106
-386.004	-25.680	0.118	0.069
-384.990	-200.000	0.006	-0.075
-383.975	492.353	0.153	0.349
-382.960	-200.000	-0.039	0.188
-381.946	-63.157	0.303	-0.125
-380.931	-172.418	0.171	0.005
-379.917	525.837	-0.110	-0.259
-378.902	-200.000	-0.020	-0.193
-377.888	800.000	-0.120	-0.348
-376.873	-82.247	0.140	0.045
-375.858	800.000	-0.040	0.150
-374.844	800.000	-0.099	0.350
-373.829	800.000	0.043	-0.177
-372.815	99.095	-0.215	0.247
-371.800	-200.000	0.041	0.247
-370.785	-49.847	0.305	0.144
-369.771	23.041	0.211	0.172
-368.756	-29.835	-0.029	-0.016
-367.742	-116.171	0.122	-0.023
-366.727	-119.085	0.020	0.004
-365.712	119.280	0.278	-0.342
-364.698	-73.923	-0.190	-0.069
-363.683	76.953	-0.081	-0.086
-362.669	-75.477	-0.208	0.074
-361.654	46.661	0.225	-0.209
-360.639	-200.000	-0.038	-0.238
-359.625	54.240	0.230	-0.221
-358.610	70.821	-0.304	-0.314
-357.596	-161.219	0.165	-0.009
-356.581	-200.000	0.000	-0.274
-355.566	-57.023	-0.324	-0.142
-354.552	87.426	-0.170	-0.188
-353.537	800.000	-0.040	0.149
-352.523	-11.163	0.171	-0.112
-351.508	-140.476	0.161	-0.017
-350.493	800.000	-0.054	-0.148
-349.479	-200.000	0.004	0.052
-348.464	-200.000	0.008	-0.097
-347.450	-200.000	-0.003	0.034
-346.435	800.000	-0.171	0.537
-345.420	57.153	0.171	0.166
-344.406	-102.532	0.114	0.027
-343.391	-98.839	-0.245	0.062
-342.377	-71.602	-0.097	0.036
-341.362	189.897	0.079	0.118
-340.348	-73.010	0.238	0.087
-339.333	48.218	0.046	-0.043
-338.318	206.385	0.060	-0.092
-337.304	129.035	0.090	0.115
-336.289	-44.177	-0.095	0.048
-335.275	-8.788	-0.152	-0.101
-334.260	187.210	0.036	0.053
-333.245	32.510	-0.113	-0.097
-332.231	-200.000	0.052	0.238
-331.216	800.000	0.027	-0.083
-330.202	-200.000	-0.022	0.252
-329.187	-178.554	-0.325	0.007
-328.172	200.249	-0.039	-0.060
-327.158	72.959	-0.175	0.182
-326.143	466.098	0.041	-0.091
-325.129	800.000	-0.044	0.165
-324.114	-200.000	0.028	0.238
-323.099	124.391	0.040	-0.050
-322.085	-200.000	0.028	-0.276
-321.070	-90.120	0.259	-0.075
-320.056	-51.222	-0.040	-0.019
-319.041	101.197	-0.094	0.109
-318.026	178.856	-0.324	0.471
-317.012	67.949	-0.098	0.100
-315.997	227.048	-0.070	-0.113
-314.983	126.141	-0.269	0.338
-313.968	29.510	0.222	0.187
-312.953	-200.000	-0.027	0.408
-311.939	341.333	0.154	0.299
-310.924	-200.000	-0.043	0.390
-309.910	-200.000	0.014	-0.061
-308.895	-35.582	-0.371	-0.200
-307.880	245.231	0.194	-0.324
-306.866	-200.000	-0.001	0.047
-305.851	130.220	0.133	0.169
-304.837	-1.951	0.208	0.146
-303.822	129.496	-0.100	-0.126
-302.807	382.789	0.125	-0.256
-301.793	5.605	-0.113	0.083
-300.778	-37.827	0.093	0.049
-299.764	-200.000	-0.089	0.431
-298.749	-14.249	0.092	0.059
-297.735	-174.949	-0.014	0.000
-296.720	-48.731	-0.183	-0.087
-295.705	252.425	-0.160	-0.271
-294.691	28.293	-0.250	-0.210
-293.676	-97.108	-0.338	-0.088
-292.662	-26.715	0.056	-0.033
-291.647	33.337	-0.278	-0.240
-290.632	684.616	-0.069	-0.179
-289.618	-200.000	0.007	-0.085
-288.603	-123.694	-0.358	0.056
-287.589	-48.209	-0.204	0.098
-286.574	690.798	0.092	-0.241
-285.559	127.021	-0.085	0.108
-284.545	-68.374	0.200	-0.077
-283.530	43.966	-0.160	-0.145
-282.516	-117.724	-0.185	-0.033
-281.501	800.000	0.077	-0.315
-280.486	-150.455	-0.248	0.019
-279.472	-200.000	0.034	0.217
-278.457	455.519	0.067	-0.148
-277.443	-200.000	-0.019	-0.115
-276.428	509.595	0.078	-0.180
-275.413	-91.840	-0.091	-0.026
-274.399	-1.743	0.382	0.267
-273.384	-200.000	-0.007	0.093
-272.370	-200.000	-0.028	-0.227
-271.355	800.000	0.075	-0.223
-270.340	129.577	-0.055	0.070
-269.326	800.000	0.053	-0.204
-268.311	800.000	0.007	0.029
-267.297	-84.245	0.145	-0.046
-266.282	-53.851	-0.114	-0.051
-265.267	-145.677	0.272	0.024
-264.253	96.571	-0.142	-0.162
-263.238	-200.000	0.004	-0.066
-262.224	99.171	0.118	-0.135
-261.209	-181.269	0.025	-0.000
-260.195	-29.610	-0.066	-0.037
-259.180	457.297	-0.208	-0.458
-258.165	-62.421	0.304	0.126
-257.151	-3.372	-0.138	-0.096
-256.136	-23.922	-0.183	-0.109
-255.122	586.860	0.194	-0.473
-254.107	425.328	0.050	-0.107
-253.092	-45.951	0.341	0.167
-252.078	-44.619	-0.377	-0.187
-251.063	-48.161	0.147	-0.070
-250.049	768.039	-0.102	0.275
-249.034	800.000	0.119	0.329
-248.019	-97.347	0.301	-0.078
-247.005	177.523	-0.131	0.189
-245.990	117.614	0.075	0.092
-244.976	-180.782	0.166	0.003
-243.961	-51.899	-0.048	0.022
-242.946	-124.622	-0.030	0.005
-241.932	-200.000	-0.007	0.215
-240.917	85.049	0.023	-0.025
-239.903	-151.772	-0.160	0.012
-238.888	-115.307	0.245	-0.046
-237.873	-200.000	-0.050	0.227
-236.859	800.000	0.058	0.183
-235.844	71.789	-0.017	-0.018
-234.830	-200.000	0.009	0.146
-233.815	17.607	0.027	0.021
-232.800	537.084	0.051	-0.120
-231.786	-10.394	-0.149	-0.098
-230.771	-72.915	-0.148	0.054
-229.757	-124.318	0.087	0.013
-228.742	7.163	0.079	0.058
-227.727	-108.053	0.258	-0.056
-226.713	314.329	-0.119	0.222
-225.698	-175.858	-0.233	-0.006
-224.684	259.375	0.114	-0.196
-223.669	-116.390	0.305	0.056
-222.655	-41.041	0.243	0.124
-221.640	-150.090	0.036	-0.003
-220.625	620.164	-0.071	0.176
-219.611	-27.100	0.154	0.089
-218.596	-200.000	0.052	0.250
-217.582	334.729	0.055	0.106
-216.567	122.928	-0.153	-0.189
-215.552	-146.026	-0.139	0.012
-214.538	-48.407	0.132	-0.063
-213.523	800.000	0.062	0.254
-212.509	-8.697	0.233	-0.155
-211.494	385.007	-0.159	-0.325
-210.479	800.000	0.047	0.183
-209.465	69.373	0.037	-0.037
-208.450	155.801	0.184	-0.251
-207.436	-200.000	-0.029	0.148
-206.421	-200.000	-0.046	0.209
-205.406	117.885	-0.146	-0.178
-204.392	-62.112	0.097	0.040
-203.377	27.768	0.290	0.242
-202.363	426.785	0.034	-0.073
-201.348	74.575	-0.259	-0.270
-200.333	-200.000	-0.005	0.250
-199.319	491.793	0.108	-0.244
-198.304	-185.834	-0.104	-0.002
-197.290	-101.518	0.357	-0.086
-196.275	153.100	0.064	-0.086
-195.260	-5.484	-0.114	-0.077
-194.246	-51.787	0.173	0.080
-193.231	270.001	-0.141	-0.244
-192.217	-200.000	0.021	0.100
-191.202	800.000	0.161	0.472
-190.187	-63.377	0.389	0.158
-189.173	-45.103	-0.105	0.052
-188.158	800.000	0.063	-0.260
-187.144	-200.000	-0.045	0.271
-186.129	-87.775	-0.145	0.043
-185.114	-200.000	-0.053	-0.234
-184.100	-147.229	-0.646	-0.054
-183.085	35.663	-0.268	0.233
-182.071	800.000	0.030	0.125
-181.056	-142.920	0.200	-0.019
-180.042	208.742	0.212	-0.327
-179.027	260.581	-0.115	-0.197
-178.012	800.000	-0.100	0.378
-176.998	-200.000	0.032	-0.144
-175.983	-81.249	0.155	-0.050
-174.969	25.116	0.096	-0.079
-173.954	36.660	-0.230	-0.201
-172.939	681.793	0.132	0.340
-171.925	-0.772	-0.199	-0.139
-170.910	1.213	0.107	0.076
-169.896	-90.526	-0.189	0.054
-168.881	-200.000	0.032	0.164
-167.866	-200.000	0.012	0.491
-166.852	-200.000	-0.026	-0.222
-165.837	-200.000	-0.022	-0.629
-164.823	120.378	0.121	-0.149
-163.808	-200.000	0.041	-0.234
-162.793	-85.897	0.011	-0.003
-161.779	-1.226	-0.239	-0.167
-160.764	568.164	0.072	-0.173
-159.750	102.113	-0.166	-0.191
-158.735	22.898	0.368	0.298
-157.720	232.461	0.020	-0.032
-156.706	-43.615	0.351	-0.175
-155.691	-42.565	-0.384	0.193
-154.677	-200.000	-0.012	-0.080
-153.662	-181.118	-0.484	-0.010
-152.647	61.512	0.193	0.190
-151.633	-122.514	-0.208	-0.033
-150.618	-200.000	0.044	0.236
-149.604	-200.000	0.033	-0.213
-148.589	28.835	-0.121	-0.101
-147.574	-200.000	-0.006	0.119
-146.560	800.000	0.113	0.354
-145.545	-157.944	0.293	-0.017
-144.531	800.000	0.048	0.146
-143.516	-13.841	-0.462	-0.295
-142.502	786.756	0.084	-0.227
-141.487	588.066	-0.062	-0.150
-140.472	33.233	0.240	-0.206
-139.458	223.033	0.058	0.092
-138.443	800.000	0.104	0.318
-137.429	800.000	0.097	0.340
-136.414	-50.821	-0.160	0.074
-135.399	-200.000	0.001	-0.054
-134.385	29.480	-0.199	-0.167
-133.370	-130.183	-0.277	0.037
-132.356	123.327	-0.066	0.082
-131.341	800.000	-0.038	-0.156
-130.326	131.394	0.108	-0.137
-129.312	597.050	0.067	0.163
-128.297	256.287	0.057	0.096
-127.283	-200.000	-0.017	0.091
-126.268	141.139	0.324	0.424
-125.253	-125.966	0.469	-0.070
-124.239	59.007	-0.351	-0.341
-123.224	-156.067	-0.192	0.012
-122.210	-132.853	0.045	-0.006
