DTS Sentinel unit serial number:	SN413079Multiplexer serial number:	ORYXHardware model number:	OX4-SRSoftware version number:	ORYX F/W v4.00 Oryx Data Collector v3.7.2.0data status	okinstallation	princeton_trtdifferential loss correction	single-endedforward channel	channel 4reverse channel	N/Adate	2019/09/17time	00:01:35forward acquisition time	60.00reverse acquisition time	0.00gamma	496.2192k internal	0.2314k external	0.2314temperature offset calibration	0.9979default loss term (dB/km)	0.3790temperature slope calibration	1.0000multiplexer offset coefficient	1.0000multiplexer slope coefficient	1.0000fibre end	0.00T internal ref (°C)	29.58T ext. ref 1 (°C)	0.09T ext. ref 2 (°C)	23.95length (m)	temperature (°C)	Stokes	anti-Stokes-747.200	800.000	0.055	-0.193
-746.185	800.000	-0.050	-0.218
-745.171	-33.762	0.089	0.050
-744.156	-19.593	-0.311	0.195
-743.142	104.024	-0.073	0.087
-742.127	-1.914	-0.143	-0.102
-741.112	64.297	0.177	-0.181
-740.098	800.000	-0.081	0.311
-739.083	-67.220	-0.227	0.091
-738.069	-200.000	-0.053	0.341
-737.054	-115.445	-0.133	0.025
-736.039	-128.334	-0.125	-0.018
-735.025	800.000	0.092	0.342
-734.010	-151.255	0.239	-0.018
-732.996	316.519	-0.095	-0.181
-731.981	287.406	0.134	0.246
-730.966	97.316	-0.056	0.066
-729.952	24.632	0.105	0.088
-728.937	343.689	0.043	0.085
-727.923	82.819	0.150	-0.165
-726.908	-135.525	-0.322	0.039
-725.894	572.569	0.020	-0.050
-724.879	-132.008	-0.338	0.045
-723.864	159.076	0.132	-0.186
-722.850	-126.356	-0.183	0.028
-721.835	-95.212	-0.279	-0.076
-720.821	-98.681	0.461	0.119
-719.806	262.026	-0.104	-0.183
-718.791	-200.000	-0.025	-0.169
-717.777	73.000	0.182	0.193
-716.762	54.372	-0.377	0.368
-715.748	-200.000	-0.057	-0.569
-714.733	169.254	0.181	-0.262
-713.718	42.921	-0.238	0.220
-712.704	-68.071	-0.213	0.084
-711.689	-156.402	0.269	0.017
-710.675	800.000	-0.037	-0.111
-709.660	181.462	0.073	-0.108
-708.645	55.834	-0.089	-0.087
-707.631	-149.295	-0.176	-0.014
-706.616	564.672	0.085	-0.208
-705.602	447.714	0.037	-0.082
-704.587	-13.606	-0.267	-0.175
-703.572	11.818	0.215	-0.168
-702.558	67.859	0.143	-0.148
-701.543	-28.421	-0.084	0.049
-700.529	18.284	0.142	-0.115
-699.514	76.769	-0.228	0.244
-698.499	44.294	-0.060	-0.056
-697.485	85.594	-0.066	-0.073
-696.470	-200.000	-0.051	-0.239
-695.456	35.772	-0.207	-0.184
-694.441	800.000	0.019	-0.061
-693.426	-16.949	-0.224	-0.143
-692.412	-200.000	-0.061	0.324
-691.397	-176.943	-0.325	0.008
-690.383	35.076	-0.272	-0.241
-689.368	800.000	-0.063	-0.209
-688.354	4.353	0.332	0.246
-687.339	-164.444	-0.087	-0.004
-686.324	800.000	0.040	-0.111
-685.310	-200.000	0.048	-0.436
-684.295	-198.602	-0.263	0.001
-683.281	-63.568	-0.175	-0.073
-682.266	-25.283	0.201	0.120
-681.251	-58.331	-0.351	0.154
-680.237	800.000	0.127	-0.395
-679.222	149.321	0.162	0.222
-678.208	701.577	-0.057	0.151
-677.193	-177.297	0.190	0.005
-676.178	-89.373	-0.226	0.067
-675.164	-110.808	-0.270	-0.056
-674.149	-0.944	-0.118	-0.084
-673.135	800.000	-0.038	0.108
-672.120	-200.000	-0.043	0.259
-671.105	-15.679	-0.135	0.087
-670.091	485.318	0.048	-0.110
-669.076	-132.828	0.369	0.048
-668.062	-3.513	-0.180	-0.126
-667.047	-85.757	-0.171	-0.054
-666.032	-60.697	-0.084	-0.036
-665.018	-200.000	-0.015	0.325
-664.003	218.200	0.086	-0.139
-662.989	-200.000	0.014	-0.141
-661.974	-17.442	-0.050	-0.032
-660.959	-50.789	-0.080	-0.038
-659.945	800.000	0.098	0.355
-658.930	-141.889	0.063	0.006
-657.916	-55.263	0.315	-0.143
-656.901	136.482	-0.211	0.278
-655.886	-85.126	0.151	-0.048
-654.872	297.585	-0.076	0.141
-653.857	800.000	-0.131	-0.450
-652.843	-16.911	-0.216	-0.138
-651.828	556.961	0.106	-0.258
-650.814	-200.000	-0.072	0.412
-649.799	-6.147	0.208	0.143
-648.784	-65.795	-0.159	0.064
-647.770	800.000	-0.062	-0.256
-646.755	19.730	-0.295	0.240
-645.741	587.031	-0.060	-0.149
-644.726	800.000	-0.041	-0.129
-643.711	-164.050	0.244	0.011
-642.697	476.156	-0.121	-0.276
-641.682	482.515	0.153	-0.352
-640.668	258.200	0.095	-0.165
-639.653	102.103	-0.175	-0.207
-638.638	-151.071	-0.248	-0.019
-637.624	501.644	-0.115	0.269
-636.609	6.060	-0.067	0.050
-635.595	800.000	-0.036	-0.100
-634.580	-199.555	0.114	-0.001
-633.565	623.492	-0.076	-0.193
-632.551	5.469	0.179	0.134
-631.536	240.989	-0.232	0.390
-630.522	789.669	0.009	-0.024
-629.507	238.641	0.070	0.118
-628.492	339.658	0.078	0.154
-627.478	260.360	0.143	0.250
-626.463	-200.000	0.049	0.514
-625.449	-200.000	0.036	0.380
-624.434	800.000	0.079	-0.259
-623.419	-164.925	-0.217	-0.010
-622.405	478.957	-0.247	-0.564
-621.390	-23.818	0.199	0.120
-620.376	349.781	0.131	0.262
-619.361	-36.696	0.110	-0.060
-618.346	-157.381	-0.097	0.006
-617.332	11.048	-0.176	0.136
-616.317	279.248	0.113	-0.203
-615.303	22.423	-0.158	-0.130
-614.288	-78.918	0.178	0.061
-613.273	249.926	0.104	-0.178
-612.259	88.935	-0.208	-0.233
-611.244	-200.000	-0.031	0.142
-610.230	-34.983	-0.486	0.267
-609.215	64.822	0.290	-0.295
-608.201	-12.066	-0.200	0.132
-607.186	-74.341	-0.217	0.079
-606.171	59.928	0.203	0.203
-605.157	-79.273	0.121	-0.041
-604.142	-200.000	0.064	0.318
-603.128	115.218	0.096	0.118
-602.113	-200.000	-0.032	0.198
-601.098	800.000	-0.067	-0.223
-600.084	383.987	0.047	0.097
-599.069	381.953	-0.025	-0.052
-598.055	-200.000	-0.044	-0.232
-597.040	307.847	0.130	0.244
-596.025	-124.278	-0.070	0.011
-595.011	485.536	0.094	0.215
-593.996	-156.905	-0.139	-0.009
-592.982	-59.048	0.439	-0.191
-591.967	22.812	-0.243	-0.201
-590.952	-85.869	0.158	0.049
-589.938	800.000	0.039	0.163
-588.923	-135.754	0.220	0.026
-587.909	92.510	-0.277	-0.315
-586.894	-121.751	-0.062	0.010
-585.879	-95.290	-0.284	0.077
-584.865	-45.463	-0.307	0.153
-583.850	-126.282	0.209	0.031
-582.836	632.555	0.054	0.137
-581.821	586.210	0.042	-0.104
-580.806	-50.685	-0.333	-0.158
-579.792	-64.633	0.193	-0.079
-578.777	-35.126	-0.322	-0.177
-577.763	800.000	0.056	0.233
-576.748	-161.526	0.221	0.011
-575.733	195.227	0.295	0.451
-574.719	-69.911	-0.437	0.168
-573.704	-60.091	-0.097	0.042
-572.690	-165.248	-0.481	0.021
-571.675	-75.551	0.086	0.031
-570.661	-117.811	-0.363	-0.066
-569.646	3.607	-0.215	-0.158
-568.631	-110.925	-0.090	-0.019
-567.617	31.068	0.118	0.102
-566.602	800.000	0.170	0.593
-565.588	-32.126	0.112	0.063
-564.573	-200.000	0.014	-0.240
-563.558	106.056	-0.170	-0.203
-562.544	-122.700	0.312	-0.051
-561.529	-93.840	-0.304	-0.084
-560.515	-144.309	-0.255	0.024
-559.500	-200.000	-0.098	-0.000
-558.485	800.000	0.009	-0.029
-557.471	-70.592	-0.210	-0.080
-556.456	-48.288	0.218	-0.106
-555.442	-41.153	-0.121	-0.063
-554.427	-8.478	0.105	-0.071
-553.412	90.386	0.092	0.104
-552.398	-140.449	-0.250	0.026
-551.383	253.892	0.011	0.018
-550.369	-154.959	0.121	-0.008
-549.354	-122.884	0.009	0.001
-548.339	-200.000	-0.076	-0.334
-547.325	202.874	-0.039	0.060
-546.310	269.178	0.144	-0.254
-545.296	800.000	0.031	-0.115
-544.281	-150.919	0.162	-0.012
-543.266	60.639	0.202	0.202
-542.252	-120.161	-0.110	0.019
-541.237	112.620	-0.133	-0.162
-540.223	58.177	0.340	0.335
-539.208	-119.648	0.173	0.030
-538.193	549.310	0.033	0.080
-537.179	544.121	-0.097	-0.233
-536.164	145.860	0.081	-0.110
-535.150	-101.112	-0.281	-0.069
-534.135	452.585	-0.092	0.204
-533.121	-64.499	-0.130	-0.053
-532.106	130.410	0.150	-0.193
-531.091	800.000	0.032	0.095
-530.077	-136.333	0.138	0.016
-529.062	44.015	-0.042	0.039
-528.048	-25.168	0.362	0.215
-527.033	-149.030	0.299	-0.024
-526.018	679.770	-0.087	-0.226
-525.004	-200.000	0.000	0.139
-523.989	-20.612	-0.320	0.197
-522.975	448.398	-0.107	0.238
-521.960	454.718	0.031	0.070
-520.945	-116.553	-0.019	0.004
-519.931	-144.168	0.462	-0.043
-518.916	800.000	-0.062	0.175
-517.902	16.441	-0.282	0.224
-516.887	413.711	0.063	0.135
-515.872	11.656	-0.166	-0.128
-514.858	480.658	-0.029	-0.065
-513.843	423.083	-0.129	-0.279
-512.829	58.911	0.128	-0.126
-511.814	-200.000	-0.003	0.053
-510.799	-200.000	-0.035	0.218
-509.785	-160.901	-0.213	-0.011
-508.770	33.184	-0.220	0.192
-507.756	81.546	-0.072	0.079
-506.741	-131.983	0.340	0.044
-505.726	284.418	-0.110	-0.199
-504.712	-89.877	-0.225	-0.066
-503.697	-51.097	-0.229	0.108
-502.683	-19.715	0.130	-0.081
-501.668	-26.326	-0.198	-0.117
-500.653	800.000	0.032	-0.134
-499.639	-100.435	-0.073	0.018
-498.624	-200.000	0.001	0.061
-497.610	360.469	-0.131	0.264
-496.595	-200.000	0.059	0.291
-495.581	-200.000	-0.004	0.135
-494.566	132.112	-0.130	0.168
-493.551	73.227	-0.056	-0.059
-492.537	800.000	-0.215	-0.615
-491.522	12.618	0.229	0.177
-490.508	573.390	-0.164	0.402
-489.493	-200.000	-0.024	0.162
-488.478	199.433	0.168	-0.259
-487.464	442.289	-0.038	0.084
-486.449	19.689	0.300	0.242
-485.435	53.596	0.265	0.255
-484.420	-166.855	-0.176	0.007
-483.405	135.674	0.085	-0.111
-482.391	-175.619	0.082	-0.002
-481.376	-62.248	0.269	0.112
-480.362	-16.826	-0.107	0.068
-479.347	800.000	0.116	0.334
-478.332	-60.274	0.194	0.083
-477.318	-200.000	-0.002	0.030
-476.303	-43.974	-0.061	-0.031
-475.289	-200.000	-0.005	0.163
-474.274	-200.000	0.011	0.170
-473.259	800.000	-0.071	0.306
-472.245	-14.912	0.492	-0.316
-471.230	-200.000	0.020	-0.182
-470.216	-200.000	-0.002	0.073
-469.201	-146.500	0.309	-0.027
-468.186	165.827	-0.135	0.192
-467.172	-200.000	-0.039	-0.243
-466.157	-200.000	0.021	-0.138
-465.143	-54.667	0.075	0.034
-464.128	-200.000	-0.011	-0.237
-463.113	126.614	-0.282	0.358
-462.099	-72.479	-0.145	0.054
-461.084	-76.069	0.240	-0.085
-460.070	-149.369	0.110	0.009
-459.055	-36.012	0.408	0.221
-458.040	-126.089	-0.404	0.061
-457.026	-200.000	0.014	-0.122
-456.011	633.689	-0.105	-0.267
-454.997	216.508	-0.150	0.240
-453.982	-25.886	-0.057	0.034
-452.968	2.650	0.238	-0.173
-451.953	532.408	-0.074	-0.175
-450.938	-200.000	0.045	-0.322
-449.924	-93.820	0.198	-0.055
-448.909	-68.890	0.292	0.113
-447.895	-200.000	-0.006	-0.099
-446.880	800.000	-0.094	0.278
-445.865	121.375	-0.114	0.143
-444.851	-115.736	-0.208	-0.039
-443.836	156.423	0.195	0.269
-442.822	366.158	0.130	-0.264
-441.807	-200.000	-0.039	0.337
-440.792	122.132	0.122	-0.153
-439.778	-200.000	-0.007	0.232
-438.763	521.464	0.014	0.032
-437.749	-14.627	-0.063	-0.040
-436.734	-200.000	0.004	-0.219
-435.719	78.432	-0.126	0.135
-434.705	-47.573	0.125	0.061
-433.690	-105.485	-0.293	0.067
-432.676	-6.217	-0.109	-0.074
-431.661	318.700	-0.046	-0.088
-430.646	-63.558	0.112	-0.046
-429.632	-200.000	0.019	0.116
-428.617	-117.228	-0.075	-0.014
-427.603	120.693	-0.016	-0.020
-426.588	-86.999	-0.291	-0.089
-425.573	424.097	0.088	-0.189
-424.559	-200.000	0.302	0.000
-423.544	-46.160	-0.162	0.080
-422.530	-13.161	0.188	-0.122
-421.515	-127.342	0.265	0.039
-420.500	-90.297	-0.096	0.028
-419.486	800.000	0.106	0.295
-418.471	108.952	-0.154	0.185
-417.457	69.344	0.146	-0.150
-416.442	-43.031	-0.207	0.105
-415.428	800.000	-0.104	-0.316
-414.413	-61.581	-0.226	0.095
-413.398	-171.903	0.214	-0.007
-412.384	-148.915	-0.149	0.012
-411.369	-53.082	0.206	0.095
-410.355	44.382	0.011	-0.010
-409.340	-125.053	-0.066	-0.010
-408.325	125.161	-0.198	0.250
-407.311	174.303	0.158	-0.228
-406.296	-55.664	-0.272	-0.122
-405.282	-56.121	-0.342	-0.152
-404.267	-200.000	-0.009	0.105
-403.252	629.271	0.107	0.271
-402.238	-200.000	0.001	-0.514
-401.223	780.520	0.086	-0.235
-400.209	139.930	-0.209	-0.275
-399.194	-87.020	0.117	0.036
-398.179	4.426	0.270	0.198
-397.165	-200.000	0.014	-0.258
-396.150	67.129	0.037	-0.037
-395.136	-43.543	-0.257	0.130
-394.121	704.404	-0.073	0.193
-393.106	420.150	0.084	0.179
-392.092	64.382	-0.020	-0.020
-391.077	-69.945	0.301	-0.115
-390.063	800.000	-0.133	-0.387
-389.048	100.069	-0.221	-0.256
-388.033	-133.745	-0.212	0.026
-387.019	-158.203	0.162	-0.009
-386.004	-141.853	-0.043	-0.004
-384.990	121.064	0.084	-0.104
-383.975	191.058	-0.132	-0.198
-382.960	-18.862	0.351	0.218
-381.946	-81.776	0.141	-0.046
-380.931	20.830	0.327	0.265
-379.917	800.000	0.062	-0.261
-378.902	51.745	0.203	-0.193
-377.888	79.009	-0.083	0.089
-376.873	-120.450	-0.127	0.022
-375.858	552.931	0.033	0.080
-374.844	-64.946	-0.282	0.114
-373.829	-200.000	0.003	0.225
-372.815	761.025	0.058	0.158
-371.800	-142.311	0.345	-0.034
-370.785	-200.000	-0.058	-0.335
-369.771	-200.000	-0.017	0.131
-368.756	-76.042	0.386	0.136
-367.742	97.643	0.144	0.165
-366.727	61.003	0.078	-0.077
-365.712	-200.000	-0.004	-0.117
-364.698	-83.653	0.178	-0.057
-363.683	-115.721	-0.260	-0.049
-362.669	536.224	-0.042	-0.100
-361.654	580.664	-0.020	0.050
-360.639	53.989	-0.046	-0.044
-359.625	-200.000	-0.018	0.120
-358.610	-27.109	-0.334	0.195
-357.596	78.959	0.152	-0.163
-356.581	-125.654	-0.234	-0.035
-355.566	800.000	0.022	-0.092
-354.552	203.997	0.133	-0.206
-353.537	-150.663	0.249	-0.019
-352.523	-167.386	0.199	0.008
-351.508	-75.728	0.433	-0.154
-350.493	-67.543	-0.231	-0.090
-349.479	441.034	-0.098	-0.214
-348.464	123.640	0.203	0.255
-347.450	-200.000	-0.089	-0.404
-346.435	464.500	-0.144	-0.322
-345.420	-28.467	0.114	-0.065
-344.406	-180.777	0.343	-0.007
-343.391	37.324	-0.124	0.110
-342.377	254.830	-0.035	-0.060
-341.362	37.878	0.014	0.013
-340.348	-91.620	-0.313	-0.089
-339.333	-26.397	-0.270	-0.158
-338.318	-6.110	0.182	0.124
-337.304	-83.843	0.209	-0.067
-336.289	121.602	-0.163	-0.202
-335.275	-131.824	0.314	-0.041
-334.260	-200.000	-0.010	-0.131
-333.245	-158.484	-0.043	-0.003
-332.231	-200.000	0.016	-0.127
-331.216	-28.774	0.095	0.054
-330.202	-122.802	-0.055	-0.009
-329.187	-200.000	0.032	-0.230
-328.172	-24.355	-0.432	0.257
-327.158	-46.133	-0.190	0.094
-326.143	-69.630	-0.258	-0.098
-325.129	-200.000	0.080	0.475
-324.114	-200.000	0.018	-0.408
-323.099	-155.406	-0.078	0.005
-322.085	-57.418	-0.478	-0.209
-321.070	-18.911	0.081	0.050
-320.056	-12.167	-0.200	0.131
-319.041	-101.076	0.121	-0.029
-318.026	123.835	-0.185	0.231
-317.012	-114.566	-0.209	0.040
-315.997	-57.866	0.147	0.064
-314.983	506.027	-0.081	0.187
-313.968	201.235	0.072	-0.110
-312.953	-124.810	-0.112	0.017
-311.939	-24.635	-0.172	-0.102
-310.924	-144.719	0.314	-0.029
-309.910	-200.000	-0.000	-0.062
-308.895	33.016	0.377	0.326
-307.880	-121.096	0.146	0.024
-306.866	443.867	-0.081	-0.176
-305.851	31.975	0.142	0.122
-304.837	-126.431	-0.184	0.027
-303.822	-200.000	0.015	0.167
-302.807	249.231	-0.158	0.268
-301.793	-147.731	0.245	-0.020
-300.778	-161.251	-0.083	0.004
-299.764	13.285	0.350	-0.270
-298.749	-64.757	-0.414	0.167
-297.735	-200.000	0.002	-0.025
-296.720	-200.000	0.014	-0.136
-295.705	225.431	0.132	0.213
-294.691	-60.389	-0.240	0.102
-293.676	92.838	0.084	-0.094
-292.662	800.000	0.045	-0.134
-291.647	-117.736	-0.304	-0.054
-290.632	445.713	-0.095	-0.209
-289.618	800.000	0.044	-0.152
-288.603	423.822	-0.053	0.113
-287.589	-74.091	-0.141	0.051
-286.574	-200.000	0.036	-0.355
-285.559	117.815	-0.093	-0.114
-284.545	-179.753	-0.179	-0.004
-283.530	-200.000	0.009	0.125
-282.516	800.000	0.058	-0.248
-281.501	-103.003	-0.025	-0.006
-280.486	111.828	-0.014	-0.017
-279.472	309.401	0.195	-0.363
-278.457	83.183	-0.369	0.400
-277.443	-99.228	0.351	0.088
-276.428	-200.000	-0.029	0.244
-275.413	-200.000	0.020	-0.110
-274.399	-83.799	0.150	0.048
-273.384	712.537	0.063	0.167
-272.370	128.764	0.212	-0.269
-271.355	409.113	0.115	-0.242
-270.340	233.159	-0.177	-0.289
-269.326	26.543	0.127	0.106
-268.311	-58.294	0.150	0.065
-267.297	800.000	-0.051	0.163
-266.282	197.803	-0.236	-0.358
-265.267	468.677	0.077	-0.172
-264.253	191.998	-0.017	-0.025
-263.238	338.597	-0.007	0.014
-262.224	231.336	-0.186	0.303
-261.209	-37.872	0.124	-0.066
-260.195	178.350	-0.077	0.112
-259.180	-134.527	-0.104	-0.013
-258.165	-130.993	0.117	0.016
-257.151	-200.000	-0.362	0.001
-256.136	92.345	0.131	0.147
-255.122	-26.551	0.066	0.038
-254.107	-200.000	0.064	-0.337
-253.092	-200.000	0.055	-0.303
-252.078	800.000	0.041	-0.163
-251.063	-200.000	-0.017	0.200
-250.049	54.067	0.092	-0.088
-249.034	-37.219	-0.215	0.115
-248.019	49.011	-0.156	0.146
-247.005	50.718	-0.037	-0.034
-245.990	800.000	0.059	0.236
-244.976	-109.165	0.281	0.059
-243.961	-55.857	0.112	0.050
-242.946	29.455	0.338	0.286
-241.932	-5.179	-0.178	0.122
-240.917	68.594	0.026	-0.027
-239.903	-200.000	-0.036	-0.245
-238.888	9.538	-0.142	-0.107
-237.873	800.000	0.056	0.204
-236.859	112.581	0.078	-0.094
-235.844	-4.678	-0.032	0.022
-234.830	800.000	-0.072	-0.293
-233.815	800.000	0.154	-0.458
-232.800	214.648	-0.091	-0.144
-231.786	340.384	-0.068	0.131
-230.771	314.463	-0.135	0.252
-229.757	-134.600	0.193	-0.023
-228.742	137.536	-0.030	-0.039
-227.727	147.574	-0.161	0.215
-226.713	-200.000	-0.018	-0.218
-225.698	452.999	-0.009	-0.020
-224.684	-41.344	0.054	-0.027
-223.669	548.137	0.097	-0.231
-222.655	800.000	0.027	0.075
-221.640	374.937	0.049	0.100
-220.625	348.813	0.218	0.427
-219.611	74.329	0.256	0.267
-218.596	257.332	0.091	-0.155
-217.582	137.880	0.135	0.176
-216.567	-107.931	0.187	-0.040
-215.552	-74.928	0.164	0.058
-214.538	-73.342	-0.080	0.029
-213.523	-73.232	0.066	0.024
-212.509	800.000	0.149	0.421
-211.494	-10.932	0.209	-0.137
-210.479	-64.799	0.212	-0.085
-209.465	-146.999	-0.192	0.016
-208.450	-200.000	0.031	0.486
-207.436	147.677	-0.208	0.278
-206.421	800.000	-0.101	0.297
-205.406	-187.511	0.326	0.004
-204.392	6.335	-0.214	-0.158
-203.377	574.727	-0.020	0.050
-202.363	800.000	0.067	-0.255
-201.348	-9.573	-0.200	0.133
-200.333	-21.940	0.298	-0.180
-199.319	-146.808	0.467	-0.040
-198.304	-200.000	-0.007	0.236
-197.290	12.776	-0.245	-0.187
-196.275	101.011	-0.152	-0.176
-195.260	-48.262	0.114	0.055
-194.246	-145.473	0.203	0.018
-193.231	-200.000	-0.006	0.082
-192.217	-94.428	0.112	-0.030
-191.202	-200.000	-0.062	-0.290
-190.187	224.507	0.117	-0.188
-189.173	-200.000	0.014	-0.113
-188.158	40.996	0.167	0.150
-187.144	-154.146	-0.069	0.005
-186.129	287.411	-0.028	-0.050
-185.114	-110.080	-0.165	0.034
-184.100	800.000	-0.054	0.188
-183.085	107.806	-0.187	0.221
-182.071	-41.662	-0.216	-0.110
-181.056	50.197	0.269	-0.252
-180.042	-119.821	0.223	0.038
-179.027	484.438	-0.133	0.300
-178.012	-97.414	0.238	-0.061
-176.998	-200.000	0.006	0.028
-175.983	-200.000	0.006	-0.267
-174.969	-63.552	0.255	-0.104
-173.954	-123.362	-0.237	-0.038
-172.939	-45.428	-0.150	-0.074
-171.925	-190.339	-0.055	-0.001
-170.910	-200.000	-0.009	-0.170
-169.896	-71.018	0.104	-0.039
-168.881	-200.000	0.019	0.132
-167.866	-23.147	0.134	0.080
-166.852	54.781	-0.374	-0.357
-165.837	-200.000	-0.023	-0.129
-164.823	-172.749	-0.220	-0.007
-163.808	800.000	-0.068	-0.216
-162.793	552.811	0.124	-0.295
-161.779	-89.260	-0.135	0.040
-160.764	-115.182	-0.080	-0.015
-159.750	-127.802	-0.290	0.042
-158.735	-96.970	0.167	-0.043
-157.720	19.245	0.116	-0.092
-156.706	20.532	-0.219	0.176
-155.691	-48.002	0.314	0.150
-154.677	-93.531	0.246	-0.067
-153.662	232.937	-0.037	0.060
-152.647	-200.000	0.022	-0.226
-151.633	71.339	-0.189	0.194
-150.618	-7.928	-0.118	-0.079
-149.604	-200.000	-0.009	-0.057
-148.589	-128.111	-0.388	-0.055
-147.574	191.596	0.106	-0.158
-146.560	-151.575	-0.184	-0.013
-145.545	-57.970	0.360	-0.156
-144.531	-192.099	0.310	-0.003
-143.516	-200.000	0.003	-0.294
-142.502	-106.050	-0.284	0.063
-141.487	-52.537	-0.251	0.115
-140.472	-72.593	0.096	0.035
-139.458	98.991	-0.137	0.157
-138.443	8.094	0.321	0.239
-137.429	-200.000	-0.010	0.153
-136.414	-200.000	-0.017	0.152
-135.399	12.096	0.177	-0.135
-134.385	-130.215	-0.075	-0.010
-133.370	800.000	0.096	-0.324
-132.356	-6.287	0.276	-0.186
-131.341	800.000	0.139	-0.418
-130.326	241.567	0.073	0.121
-129.312	92.201	0.158	0.176
-128.297	6.035	0.023	-0.017
-127.283	800.000	-0.119	-0.367
-126.268	237.330	0.056	0.093
-125.253	-200.000	0.005	-0.201
-124.239	274.316	0.050	-0.087
-123.224	-185.968	0.273	0.004
-122.210	-200.000	0.031	-0.418
