DTS Sentinel unit serial number:	SN413079Multiplexer serial number:	ORYXHardware model number:	OX4-SRSoftware version number:	ORYX F/W v4.00 Oryx Data Collector v3.7.2.0data status	okinstallation	princeton_trtdifferential loss correction	single-endedforward channel	channel 4reverse channel	N/Adate	2019/09/13time	01:53:34forward acquisition time	60.00reverse acquisition time	0.00gamma	496.2192k internal	0.2319k external	0.2319temperature offset calibration	1.0180default loss term (dB/km)	0.3790temperature slope calibration	1.0000multiplexer offset coefficient	1.0000multiplexer slope coefficient	1.0000fibre end	0.00T internal ref (°C)	27.66T ext. ref 1 (°C)	3.82T ext. ref 2 (°C)	22.31length (m)	temperature (°C)	Stokes	anti-Stokes-747.200	-149.553	-0.221	0.018
-746.185	-133.896	-0.125	-0.016
-745.171	109.176	-0.238	-0.288
-744.156	-200.000	0.066	0.368
-743.142	-200.000	-0.038	0.195
-742.127	47.302	-0.105	0.099
-741.112	91.896	-0.332	0.377
-740.098	-133.653	-0.110	0.014
-739.083	172.264	0.095	-0.138
-738.069	-163.788	-0.322	0.015
-737.054	-41.421	0.108	0.056
-736.039	76.990	-0.068	0.073
-735.025	-200.000	0.034	0.260
-734.010	333.731	-0.262	-0.512
-732.996	43.358	0.065	-0.060
-731.981	-47.706	-0.286	0.140
-730.966	-200.000	-0.004	0.070
-729.952	-200.000	0.002	-0.566
-728.937	-68.955	-0.232	-0.090
-727.923	268.074	-0.027	-0.049
-726.908	-200.000	0.017	-0.134
-725.894	170.247	0.091	-0.132
-724.879	-82.190	-0.234	-0.077
-723.864	-200.000	-0.003	0.272
-722.850	66.172	0.077	-0.079
-721.835	-108.369	0.266	-0.058
-720.821	-200.000	0.067	-0.378
-719.806	264.795	-0.174	-0.306
-718.791	-71.783	0.104	-0.039
-717.777	80.572	0.124	-0.135
-716.762	160.398	0.073	0.103
-715.748	800.000	0.057	0.233
-714.733	13.350	0.198	-0.155
-713.718	-164.479	0.425	0.020
-712.704	-66.354	0.139	-0.056
-711.689	392.873	0.091	-0.191
-710.675	426.674	-0.073	-0.160
-709.660	163.377	0.269	-0.382
-708.645	-29.797	0.062	-0.036
-707.631	122.667	-0.170	0.215
-706.616	-200.000	-0.034	0.182
-705.602	800.000	0.054	-0.157
-704.587	-50.408	-0.087	-0.042
-703.572	7.745	-0.283	-0.214
-702.558	-64.378	0.119	-0.049
-701.543	-198.078	0.098	-0.001
-700.529	206.001	0.074	0.116
-699.514	-113.796	-0.112	0.022
-698.499	-200.000	-0.023	0.151
-697.485	118.915	-0.132	-0.165
-696.470	-18.465	-0.180	0.114
-695.456	800.000	0.030	0.129
-694.441	-92.830	0.193	0.055
-693.426	-158.960	0.272	0.016
-692.412	-123.723	-0.352	-0.056
-691.397	-58.720	-0.097	0.042
-690.383	650.645	0.019	-0.048
-689.368	181.680	0.091	-0.136
-688.354	459.665	-0.174	0.390
-687.339	-44.226	0.099	0.050
-686.324	-198.839	0.288	-0.002
-685.310	51.749	0.141	0.135
-684.295	164.399	-0.135	0.192
-683.281	437.064	-0.113	-0.248
-682.266	-163.970	-0.331	-0.016
-681.251	-32.661	-0.165	-0.093
-680.237	215.126	0.071	-0.113
-679.222	-38.619	-0.222	-0.118
-678.208	0.034	0.246	0.177
-677.193	192.254	-0.275	0.419
-676.178	-200.000	-0.023	0.187
-675.164	-23.202	-0.096	-0.058
-674.149	-27.518	-0.170	0.099
-673.135	-142.148	0.278	0.028
-672.120	-200.000	-0.024	-0.256
-671.105	-84.656	0.282	0.090
-670.091	800.000	-0.013	0.056
-669.076	9.337	-0.082	0.063
-668.062	283.820	0.091	-0.165
-667.047	-124.448	0.166	0.026
-666.032	-177.004	0.463	0.012
-665.018	-43.387	-0.045	0.023
-664.003	-150.295	-0.085	-0.007
-662.989	-174.444	-0.261	-0.008
-661.974	800.000	0.030	-0.085
-660.959	-71.120	-0.240	-0.091
-659.945	-113.541	0.348	-0.069
-658.930	-71.075	-0.185	0.070
-657.916	-68.427	0.245	0.096
-656.901	296.014	0.155	0.286
-655.886	-200.000	0.008	-0.152
-654.872	-62.492	0.090	0.038
-653.857	-200.000	0.363	-0.000
-652.843	-200.000	-0.043	0.227
-651.828	-90.085	-0.323	0.095
-650.814	20.536	0.165	0.135
-649.799	-72.595	0.205	0.076
-648.784	-200.000	0.004	0.089
-647.770	-43.551	0.114	-0.058
-646.755	-99.815	0.058	0.015
-645.741	441.724	0.256	-0.565
-644.726	-200.000	-0.096	-0.466
-643.711	58.511	-0.255	-0.252
-642.697	-200.000	0.021	-0.181
-641.682	800.000	0.095	0.285
-640.668	-161.876	-0.221	0.011
-639.653	-89.315	0.133	-0.039
-638.638	40.496	0.209	0.190
-637.624	-37.967	0.192	0.103
-636.609	-200.000	-0.007	0.098
-635.595	-133.304	0.132	-0.017
-634.580	-8.846	-0.182	-0.123
-633.565	-124.888	0.308	-0.048
-632.551	12.534	-0.079	0.062
-631.536	-200.000	-0.033	-0.297
-630.522	17.199	-0.461	0.368
-629.507	401.059	0.043	-0.092
-628.492	631.547	-0.033	-0.084
-627.478	149.396	0.205	-0.279
-626.463	-75.328	0.056	0.020
-625.449	-42.578	0.042	-0.022
-624.434	-23.407	-0.196	0.118
-623.419	-85.613	0.315	-0.099
-622.405	-200.000	-0.012	-0.110
-621.390	-200.000	0.031	-0.227
-620.376	366.895	-0.138	-0.281
-619.361	-37.117	-0.158	-0.085
-618.346	-200.000	-0.015	0.131
-617.332	-151.335	-0.276	-0.021
-616.317	189.326	0.155	0.234
-615.303	29.019	0.331	0.283
-614.288	-148.805	0.354	-0.029
-613.273	70.159	-0.221	0.229
-612.259	-172.228	0.188	-0.006
-611.244	-83.342	0.108	-0.035
-610.230	162.666	0.144	0.203
-609.215	-45.590	-0.254	0.127
-608.201	-163.263	0.123	0.006
-607.186	-97.098	-0.271	-0.071
-606.171	800.000	0.042	-0.127
-605.157	174.777	0.178	-0.259
-604.142	20.192	-0.143	0.116
-603.128	800.000	-0.088	-0.259
-602.113	106.422	0.159	0.190
-601.098	-200.000	-0.032	0.152
-600.084	83.905	0.230	0.252
-599.069	800.000	-0.048	0.176
-598.055	50.763	-0.294	0.280
-597.040	-130.130	-0.192	0.026
-596.025	-200.000	0.005	0.195
-595.011	-153.495	0.108	-0.008
-593.996	800.000	-0.050	0.211
-592.982	-100.194	0.203	0.051
-591.967	-56.530	-0.224	-0.100
-590.952	-122.396	-0.166	0.027
-589.938	-156.094	0.047	-0.003
-588.923	-132.456	0.022	-0.003
-587.909	9.987	-0.189	0.145
-586.894	-150.087	0.209	0.016
-585.879	-200.000	-0.018	-0.256
-584.865	800.000	0.081	-0.241
-583.850	-163.744	0.235	-0.011
-582.836	130.955	0.171	0.221
-581.821	-200.000	-0.037	0.247
-580.806	-34.851	-0.285	0.157
-579.792	-52.036	-0.110	-0.052
-578.777	-170.734	0.166	-0.006
-577.763	262.400	0.177	0.309
-576.748	21.025	-0.188	-0.153
-575.733	-117.804	0.325	0.059
-574.719	-106.020	0.126	-0.028
-573.704	-200.000	-0.044	0.257
-572.690	-163.030	0.345	0.017
-571.675	185.899	0.088	0.131
-570.661	121.662	-0.093	0.116
-569.646	60.129	-0.113	0.113
-568.631	281.290	-0.046	0.083
-567.617	-103.885	-0.255	-0.060
-566.602	-78.966	0.152	0.052
-565.588	10.069	0.070	-0.053
-564.573	-188.871	-0.257	0.003
-563.558	58.552	-0.193	0.190
-562.544	578.525	0.086	0.211
-561.529	-87.652	-0.370	0.112
-560.515	-81.567	-0.097	-0.032
-559.500	-20.452	0.052	0.032
-558.485	477.993	0.016	-0.036
-557.471	-61.639	0.263	-0.111
-556.456	644.321	-0.055	0.140
-555.442	413.457	-0.043	-0.092
-554.427	36.518	-0.289	0.256
-553.412	148.098	-0.163	0.221
-552.398	103.647	0.122	0.144
-551.383	-112.927	0.207	0.041
-550.369	-200.000	-0.026	0.253
-549.354	-200.000	0.065	-0.398
-548.339	261.885	-0.180	0.314
-547.325	-180.074	0.035	0.001
-546.310	-93.501	0.181	-0.050
-545.296	-200.000	0.022	0.197
-544.281	-144.199	0.051	0.005
-543.266	800.000	0.076	-0.212
-542.252	-134.688	0.102	-0.012
-541.237	628.002	-0.023	0.059
-540.223	-200.000	-0.030	-0.132
-539.208	32.303	0.209	0.181
-538.193	23.059	-0.114	0.094
-537.179	-39.577	-0.122	-0.064
-536.164	200.422	-0.219	0.338
-535.150	-200.000	-0.013	-0.070
-534.135	-14.365	0.154	0.100
-533.121	-200.000	0.020	-0.092
-532.106	-94.260	0.146	-0.040
-531.091	416.651	0.073	0.156
-530.077	-200.000	-0.059	0.353
-529.062	-200.000	0.078	0.458
-528.048	107.899	-0.200	-0.240
-527.033	241.021	-0.175	0.293
-526.018	800.000	-0.060	0.199
-525.004	34.537	-0.175	0.153
-523.989	800.000	0.036	0.126
-522.975	144.200	-0.244	0.327
-521.960	42.633	0.325	0.297
-520.945	-198.412	0.337	0.002
-519.931	-200.000	-0.024	-0.343
-518.916	723.071	0.089	-0.238
-517.902	-122.045	-0.259	-0.043
-516.887	-98.205	0.114	0.029
-515.872	800.000	-0.057	-0.162
-514.858	111.295	-0.110	0.133
-513.843	800.000	-0.025	-0.075
-512.829	-200.000	0.005	-0.337
-511.814	196.760	0.079	-0.121
-510.799	39.011	0.105	0.094
-509.785	800.000	0.083	-0.263
-508.770	-36.433	-0.252	-0.136
-507.756	-129.853	-0.526	0.072
-506.741	-10.809	0.088	0.058
-505.726	-200.000	0.028	0.189
-504.712	-29.064	-0.310	-0.178
-503.697	-12.467	0.106	-0.069
-502.683	549.353	-0.035	0.083
-501.668	186.755	-0.168	-0.251
-500.653	178.451	0.209	-0.306
-499.639	-32.433	-0.147	0.082
-498.624	800.000	-0.034	-0.101
-497.610	-61.060	0.119	-0.050
-496.595	488.004	0.143	-0.327
-495.581	-200.000	0.045	-0.228
-494.566	-200.000	0.028	0.265
-493.551	-21.202	0.253	-0.155
-492.537	-200.000	-0.144	0.001
-491.522	-200.000	0.009	0.046
-490.508	-200.000	-0.074	-0.399
-489.493	-86.548	0.380	0.117
-488.478	-20.404	-0.089	-0.055
-487.464	505.778	-0.003	-0.007
-486.449	800.000	0.145	-0.411
-485.435	-101.207	-0.379	-0.093
-484.420	800.000	-0.011	-0.034
-483.405	-200.000	0.025	0.372
-482.391	16.590	-0.157	-0.124
-481.376	85.249	0.109	0.120
-480.362	460.221	0.035	-0.078
-479.347	-167.375	-0.328	0.013
-478.332	-84.180	-0.215	0.068
-477.318	111.018	-0.154	-0.185
-476.303	-9.027	0.199	-0.133
-475.289	-139.799	-0.222	-0.024
-474.274	-154.634	-0.089	0.006
-473.259	-78.873	0.188	0.064
-472.245	-105.403	-0.220	-0.050
-471.230	-119.129	-0.171	-0.030
-470.216	800.000	0.006	-0.018
-469.201	-85.419	0.281	0.088
-468.186	-64.657	0.391	-0.159
-467.172	-53.586	-0.166	-0.076
-466.157	35.090	-0.119	-0.104
-465.143	-200.000	0.020	-0.120
-464.128	55.883	-0.156	-0.152
-463.113	-74.647	-0.124	0.045
-462.099	10.555	0.048	-0.037
-461.084	189.848	0.057	-0.085
-460.070	-200.000	0.008	0.095
-459.055	53.053	-0.215	0.206
-458.040	560.031	0.091	0.221
-457.026	-60.181	-0.106	-0.045
-456.011	-20.587	0.274	0.168
-454.997	-200.000	-0.044	0.209
-453.982	607.014	0.065	-0.163
-452.968	49.693	0.121	0.114
-451.953	14.302	-0.155	0.121
-450.938	265.823	-0.042	0.073
-449.924	450.071	0.186	-0.411
-448.909	-200.000	-0.049	0.222
-447.895	-58.993	0.218	0.094
-446.880	-200.000	0.041	-0.215
-445.865	151.880	0.105	-0.143
-444.851	-91.623	0.187	-0.053
-443.836	74.734	-0.263	-0.277
-442.822	-200.000	-0.042	0.222
-441.807	44.388	-0.277	0.254
-440.792	-19.446	0.200	0.124
-439.778	-200.000	0.022	-0.270
-438.763	-115.111	-0.170	-0.032
-437.749	-200.000	-0.050	-0.359
-436.734	800.000	-0.028	-0.119
-435.719	70.189	0.116	0.120
-434.705	-4.843	0.212	-0.146
-433.690	-170.331	0.097	0.003
-432.676	140.533	0.318	0.420
-431.661	-98.487	0.205	-0.052
-430.646	449.065	-0.065	-0.144
-429.632	-200.000	0.044	-0.306
-428.617	-200.000	-0.052	-0.262
-427.603	-133.442	-0.081	-0.010
-426.588	800.000	-0.085	-0.257
-425.573	-200.000	0.034	-0.704
-424.559	270.475	0.136	-0.239
-423.544	-114.416	-0.221	0.043
-422.530	-200.000	0.005	0.187
-421.515	447.768	0.088	-0.194
-420.500	53.975	-0.271	0.260
-419.486	-15.496	-0.225	0.144
-418.471	-102.542	-0.274	0.065
-417.457	92.804	-0.408	-0.460
-416.442	-113.323	0.371	0.073
-415.428	27.063	-0.221	-0.185
-414.413	-73.050	-0.202	0.074
-413.398	246.265	-0.153	0.257
-412.384	-200.000	-0.026	-0.148
-411.369	-4.636	-0.101	-0.070
-410.355	641.629	-0.165	0.419
-409.340	-200.000	0.010	0.134
-408.325	-178.531	0.065	0.002
-407.311	-69.771	0.213	-0.081
-406.296	32.917	-0.351	0.303
-405.282	10.480	-0.189	0.144
-404.267	74.593	0.242	-0.254
-403.252	-42.330	0.195	0.099
-402.238	-160.836	0.168	-0.009
-401.223	-43.486	0.219	-0.110
-400.209	99.308	0.082	0.094
-399.194	-86.929	-0.209	0.064
-398.179	-45.359	-0.143	0.071
-397.165	98.506	0.276	-0.317
-396.150	-12.795	-0.204	-0.132
-395.136	36.536	-0.168	0.148
-394.121	712.277	-0.214	0.567
-393.106	-200.000	-0.011	0.090
-392.092	-68.664	-0.403	0.156
-391.077	-56.077	-0.158	-0.070
-390.063	-29.075	0.315	-0.180
-389.048	412.451	0.212	0.449
-388.033	800.000	0.080	-0.237
-387.019	-128.965	0.155	-0.022
-386.004	335.116	-0.048	-0.093
-384.990	-119.614	0.253	0.044
-383.975	-58.340	0.252	0.109
-382.960	-200.000	0.029	0.228
-381.946	-127.688	0.257	-0.037
-380.931	-99.259	-0.100	0.025
-379.917	416.109	-0.121	-0.258
-378.902	800.000	0.089	0.262
-377.888	54.609	0.036	-0.035
-376.873	800.000	-0.107	-0.327
-375.858	-17.396	-0.133	0.084
-374.844	77.757	-0.109	0.116
-373.829	-77.869	-0.121	-0.042
-372.815	-24.405	-0.032	0.019
-371.800	-162.900	-0.213	-0.010
-370.785	-13.993	-0.083	-0.054
-369.771	-90.494	0.149	-0.043
-368.756	-135.954	0.200	0.023
-367.742	-74.681	-0.286	-0.103
-366.727	-23.042	0.056	-0.034
-365.712	25.848	-0.172	-0.143
-364.698	93.993	-0.150	-0.169
-363.683	-48.024	-0.128	0.062
-362.669	22.654	0.276	-0.225
-361.654	800.000	-0.037	-0.111
-360.639	78.561	0.182	0.194
-359.625	758.234	0.138	-0.373
-358.610	-200.000	-0.019	-0.180
-357.596	-55.540	0.215	-0.096
-356.581	2.527	-0.176	0.127
-355.566	-200.000	0.003	0.303
-354.552	-174.617	0.235	-0.007
-353.537	-102.521	-0.017	-0.004
-352.523	-21.642	-0.171	-0.104
-351.508	-200.000	-0.030	-0.348
-350.493	-200.000	0.010	-0.052
-349.479	256.004	0.069	0.119
-348.464	363.795	-0.151	0.303
-347.450	399.140	-0.109	-0.227
-346.435	4.727	0.203	-0.148
-345.420	800.000	-0.056	-0.236
-344.406	-8.064	0.204	-0.137
-343.391	78.640	0.010	-0.011
-342.377	-170.275	0.275	0.010
-341.362	9.153	0.208	-0.156
-340.348	102.336	0.148	-0.172
-339.333	-75.987	0.249	-0.088
-338.318	31.468	-0.269	-0.230
-337.304	-185.992	0.200	-0.003
-336.289	86.419	-0.220	0.242
-335.275	118.837	-0.043	0.053
-334.260	-117.668	-0.434	-0.078
-333.245	145.757	0.080	0.106
-332.231	282.026	0.016	0.028
-331.216	142.440	-0.250	0.331
-330.202	-200.000	-0.006	-0.110
-329.187	800.000	-0.021	0.088
-328.172	-0.729	-0.081	0.057
-327.158	-113.129	-0.078	0.015
-326.143	-84.740	0.140	-0.044
-325.129	-200.000	0.085	-0.470
-324.114	607.430	0.150	-0.371
-323.099	119.582	0.154	0.189
-322.085	800.000	0.053	0.194
-321.070	-200.000	0.008	-0.052
-320.056	-0.190	0.237	0.168
-319.041	-200.000	0.030	-0.160
-318.026	167.241	-0.082	-0.116
-317.012	152.961	-0.017	-0.024
-315.997	800.000	0.034	-0.134
-314.983	-165.719	0.220	-0.009
-313.968	-36.688	0.067	0.036
-312.953	-139.683	-0.282	0.030
-311.939	14.865	-0.093	0.072
-310.924	800.000	0.025	0.092
-309.910	137.303	-0.118	0.154
-308.895	-200.000	-0.021	-0.164
-307.880	-29.806	0.057	-0.033
-306.866	-88.917	-0.137	0.040
-305.851	-105.089	0.260	-0.059
-304.837	800.000	0.062	-0.268
-303.822	85.888	0.081	0.088
-302.807	-119.201	0.085	-0.015
-301.793	93.393	-0.216	-0.244
-300.778	53.225	-0.140	-0.133
-299.764	-21.054	-0.203	-0.123
-298.749	-139.895	-0.152	0.016
-297.735	190.837	-0.068	-0.102
-296.720	57.436	-0.304	0.295
-295.705	99.657	-0.211	0.243
-294.691	-98.158	-0.266	0.068
-293.676	800.000	-0.076	0.294
-292.662	-200.000	0.027	-0.224
-291.647	174.610	0.206	-0.296
-290.632	674.360	0.172	-0.444
-289.618	57.495	-0.180	-0.174
-288.603	-24.048	0.068	-0.040
-287.589	-126.779	-0.197	0.029
-286.574	-200.000	-0.018	-0.120
-285.559	621.081	0.065	-0.162
-284.545	369.869	0.044	0.088
-283.530	262.821	-0.122	0.211
-282.516	800.000	0.031	0.115
-281.501	-61.823	-0.381	0.158
-280.486	-46.683	0.177	0.086
-279.472	-22.627	-0.147	0.088
-278.457	690.016	-0.038	0.099
-277.443	-24.679	0.102	-0.060
-276.428	-200.000	-0.045	0.199
-275.413	-11.708	-0.087	-0.057
-274.399	-171.499	0.120	-0.004
-273.384	-46.913	0.269	-0.131
-272.370	-47.415	-0.437	-0.211
-271.355	-91.572	0.141	-0.040
-270.340	-16.153	-0.217	-0.137
-269.326	112.708	-0.066	-0.080
-268.311	-17.469	-0.177	0.110
-267.297	-85.581	0.105	-0.032
-266.282	800.000	0.060	0.227
-265.267	170.542	0.114	-0.162
-264.253	-200.000	0.021	-0.278
-263.238	800.000	0.036	-0.113
-262.224	-200.000	-0.017	0.122
-261.209	-37.651	0.375	0.198
-260.195	-107.997	-0.286	0.062
-259.180	-133.688	0.247	-0.031
-258.165	-200.000	0.036	0.288
-257.151	614.157	-0.133	-0.332
-256.136	14.528	0.384	-0.298
-255.122	-123.982	-0.282	-0.044
-254.107	-200.000	0.056	0.339
-253.092	-200.000	0.006	0.075
-252.078	133.811	0.227	0.291
-251.063	-18.405	-0.078	-0.048
-250.049	242.108	0.191	-0.316
-249.034	389.661	0.130	0.267
-248.019	51.063	-0.278	-0.262
-247.005	-72.683	0.171	-0.062
-245.990	291.488	-0.205	-0.371
-244.976	-200.000	-0.011	-0.226
-243.961	335.842	-0.016	0.031
-242.946	240.537	-0.135	0.224
-241.932	-112.761	0.142	0.028
-240.917	82.753	-0.216	-0.233
-239.903	-30.773	-0.060	0.034
-238.888	-2.671	-0.271	0.188
-237.873	800.000	-0.030	0.105
-236.859	10.603	0.075	-0.056
-235.844	57.915	0.167	0.162
-234.830	-77.188	0.037	-0.013
-233.815	499.949	0.020	0.047
-232.800	800.000	-0.078	0.269
-231.786	14.759	0.161	-0.124
-230.771	-16.311	-0.344	0.217
-229.757	-200.000	-0.018	0.139
-228.742	267.518	-0.114	0.198
-227.727	-136.696	0.042	0.005
-226.713	-189.791	0.406	-0.005
-225.698	-34.795	-0.143	0.078
-224.684	-142.990	-0.201	0.019
-223.669	800.000	-0.046	-0.201
-222.655	145.435	0.075	0.099
-221.640	-200.000	0.001	-0.097
-220.625	-60.102	0.396	-0.167
-219.611	-140.014	-0.374	-0.039
-218.596	-200.000	0.008	-0.157
-217.582	-6.745	-0.118	-0.079
-216.567	300.760	0.044	0.080
-215.552	800.000	0.016	0.060
-214.538	353.359	-0.072	0.142
-213.523	56.585	0.116	0.111
-212.509	124.507	0.132	-0.165
-211.494	-60.337	0.057	0.024
-210.479	493.808	-0.111	-0.252
-209.465	-118.097	0.215	0.038
-208.450	88.440	-0.339	0.373
-207.436	328.272	-0.043	-0.083
-206.421	36.850	0.175	0.153
-205.406	266.345	0.087	0.151
-204.392	354.994	0.106	0.209
-203.377	27.714	0.130	0.109
-202.363	-17.679	0.214	0.133
-201.348	800.000	-0.009	0.033
-200.333	-200.000	-0.035	0.327
-199.319	-22.115	0.249	-0.150
-198.304	74.537	0.170	0.177
-197.290	-200.000	-0.002	0.152
-196.275	800.000	0.097	0.332
-195.260	-200.000	-0.007	0.223
-194.246	132.421	-0.063	-0.081
-193.231	188.572	-0.135	-0.200
-192.217	51.566	-0.302	-0.285
-191.202	649.513	-0.111	-0.280
-190.187	623.722	0.080	0.201
-189.173	139.894	-0.139	-0.181
-188.158	-44.873	-0.068	0.033
-187.144	173.886	0.159	0.227
-186.129	-200.000	0.019	-0.145
-185.114	229.774	0.047	-0.077
-184.100	-44.947	0.273	-0.134
-183.085	-200.000	0.006	0.090
-182.071	-200.000	-0.029	0.286
-181.056	-124.813	0.115	-0.018
-180.042	12.826	-0.224	-0.172
-179.027	126.287	-0.092	-0.115
-178.012	-102.367	0.227	-0.054
-176.998	-98.375	0.306	-0.078
-175.983	-200.000	0.024	0.225
-174.969	153.480	0.086	0.117
-173.954	-28.778	0.085	-0.048
-172.939	-25.707	0.185	0.108
-171.925	199.274	0.121	0.184
-170.910	-27.728	-0.401	-0.230
-169.896	-15.168	-0.107	-0.068
-168.881	126.606	0.114	-0.143
-167.866	-89.331	-0.331	0.096
-166.852	-200.000	0.022	-0.121
-165.837	-200.000	-0.012	0.232
-164.823	-106.224	0.303	-0.067
-163.808	-105.593	0.172	-0.039
-162.793	-141.956	-0.106	-0.010
-161.779	-160.059	0.333	-0.018
-160.764	-200.000	-0.066	0.797
-159.750	-91.638	0.146	-0.041
-158.735	-200.000	-0.010	0.305
-157.720	421.320	0.034	0.072
-156.706	-172.228	-0.239	0.008
-155.691	800.000	0.102	-0.329
-154.677	-119.337	0.244	0.042
-153.662	-200.000	0.032	-0.223
-152.647	-73.226	0.212	-0.077
-151.633	568.213	-0.110	0.265
-150.618	123.310	-0.083	0.103
-149.604	-45.247	0.152	0.075
-148.589	380.594	-0.064	0.129
-147.574	-128.041	0.042	-0.006
-146.560	108.609	0.058	0.069
-145.545	-200.000	-0.009	0.084
-144.531	-200.000	-0.038	-0.201
-143.516	-194.753	0.306	-0.002
-142.502	-145.813	-0.251	-0.022
-141.487	297.738	0.057	-0.103
-140.472	-92.776	-0.046	0.013
-139.458	-200.000	0.007	-0.108
-138.443	-179.097	-0.267	-0.006
-137.429	-13.444	0.279	0.179
-136.414	-43.739	-0.237	0.118
-135.399	508.035	-0.038	0.088
-134.385	-120.111	0.202	0.034
-133.370	-53.991	-0.155	0.070
-132.356	8.896	0.395	-0.294
-131.341	270.319	-0.096	-0.167
-130.326	-81.002	-0.105	-0.035
-129.312	42.428	-0.141	0.127
-128.297	-46.108	0.113	-0.055
-127.283	-138.591	0.219	-0.024
-126.268	239.860	0.060	0.099
-125.253	800.000	-0.130	-0.374
-124.239	800.000	0.066	0.262
-123.224	-24.604	0.081	0.048
-122.210	-183.529	-0.172	-0.003
