DTS Sentinel unit serial number:	SN413079Multiplexer serial number:	ORYXHardware model number:	OX4-SRSoftware version number:	ORYX F/W v4.00 Oryx Data Collector v3.7.2.0data status	okinstallation	princeton_trtdifferential loss correction	single-endedforward channel	channel 4reverse channel	N/Adate	2019/09/13time	07:49:34forward acquisition time	60.00reverse acquisition time	0.00gamma	496.2192k internal	0.2321k external	0.2321temperature offset calibration	1.0193default loss term (dB/km)	0.3790temperature slope calibration	1.0000multiplexer offset coefficient	1.0000multiplexer slope coefficient	1.0000fibre end	0.00T internal ref (°C)	26.56T ext. ref 1 (°C)	4.22T ext. ref 2 (°C)	23.08length (m)	temperature (°C)	Stokes	anti-Stokes-747.200	-24.929	-0.047	-0.028
-746.185	64.886	0.222	0.226
-745.171	-98.284	-0.116	-0.030
-744.156	453.090	0.089	0.199
-743.142	54.125	-0.117	-0.114
-742.127	-22.457	-0.462	0.283
-741.112	79.445	0.231	-0.250
-740.098	-200.000	-0.067	0.304
-739.083	15.357	-0.157	0.125
-738.069	99.376	-0.147	0.172
-737.054	-10.170	0.058	-0.039
-736.039	363.255	-0.068	0.137
-735.025	266.141	0.101	0.179
-734.010	-200.000	0.008	0.227
-732.996	58.371	0.047	-0.046
-731.981	-200.000	-0.008	0.085
-730.966	-200.000	-0.022	0.147
-729.952	-200.000	-0.004	-0.072
-728.937	800.000	-0.014	-0.057
-727.923	-200.000	-0.045	0.407
-726.908	209.553	0.032	0.051
-725.894	-200.000	-0.316	-0.002
-724.879	609.533	-0.052	-0.131
-723.864	-87.172	-0.305	-0.094
-722.850	199.002	-0.163	-0.252
-721.835	800.000	0.044	0.128
-720.821	476.018	0.197	0.450
-719.806	-69.610	-0.307	-0.119
-718.791	402.058	0.062	0.132
-717.777	265.816	0.177	0.312
-716.762	-117.079	-0.170	0.031
-715.748	292.418	-0.109	0.200
-714.733	-136.414	0.318	-0.037
-713.718	-200.000	0.005	-0.055
-712.704	-200.000	0.002	0.171
-711.689	-67.073	0.071	-0.028
-710.675	-120.400	0.415	-0.071
-709.660	-153.136	0.122	-0.009
-708.645	75.431	-0.269	0.287
-707.631	79.408	-0.140	-0.152
-706.616	800.000	-0.086	0.280
-705.602	-200.000	-0.018	-0.164
-704.587	587.732	-0.105	0.261
-703.572	-46.746	0.351	-0.173
-702.558	-107.287	-0.112	-0.025
-701.543	-200.000	0.029	0.140
-700.529	-200.000	0.031	0.286
-699.514	270.562	0.158	0.281
-698.499	92.086	-0.239	0.271
-697.485	-200.000	0.005	0.128
-696.470	287.877	0.206	-0.376
-695.456	-144.273	-0.233	0.022
-694.441	-66.738	-0.257	0.102
-693.426	563.679	-0.091	0.222
-692.412	-200.000	-0.087	-0.407
-691.397	-200.000	0.023	-0.156
-690.383	-200.000	-0.017	0.146
-689.368	-200.000	0.017	0.206
-688.354	67.678	-0.132	-0.136
-687.339	140.083	-0.086	0.114
-686.324	800.000	0.059	0.191
-685.310	-112.668	0.317	-0.064
-684.295	508.353	-0.157	-0.367
-683.281	101.333	-0.022	-0.026
-682.266	168.104	-0.048	-0.069
-681.251	218.495	-0.158	0.255
-680.237	335.091	-0.189	-0.369
-679.222	-36.694	-0.077	-0.042
-678.208	-83.929	-0.049	-0.016
-677.193	-200.000	0.017	-0.121
-676.178	-53.745	0.244	0.112
-675.164	17.348	-0.100	-0.080
-674.149	-13.332	-0.123	-0.080
-673.135	668.573	0.078	-0.203
-672.120	-139.684	-0.081	-0.009
-671.105	172.260	0.042	0.062
-670.091	82.288	0.062	-0.068
-669.076	-200.000	0.003	0.284
-668.062	280.249	-0.128	0.230
-667.047	-89.429	-0.098	-0.029
-666.032	-67.995	0.315	-0.124
-665.018	-145.292	-0.160	0.015
-664.003	800.000	-0.038	0.155
-662.989	-14.756	-0.247	0.160
-661.974	-200.000	0.015	0.115
-660.959	-200.000	0.019	0.201
-659.945	-45.711	-0.122	0.061
-658.930	296.975	-0.170	-0.314
-657.916	-86.868	-0.278	0.086
-656.901	20.965	0.151	0.124
-655.886	129.422	-0.203	-0.261
-654.872	-170.979	-0.223	0.008
-653.857	-83.630	-0.288	0.093
-652.843	97.982	0.282	-0.327
-651.828	180.415	-0.175	0.258
-650.814	-54.785	-0.364	-0.165
-649.799	274.112	0.096	-0.170
-648.784	800.000	-0.081	-0.306
-647.770	241.962	0.050	-0.084
-646.755	800.000	-0.065	-0.205
-645.741	-90.587	-0.176	-0.051
-644.726	-27.385	-0.065	-0.038
-643.711	-152.978	-0.224	0.016
-642.697	-65.062	-0.401	-0.163
-641.682	800.000	0.007	-0.026
-640.668	59.007	-0.138	-0.137
-639.653	-40.382	-0.187	-0.098
-638.638	800.000	0.016	0.060
-637.624	-44.019	-0.089	0.045
-636.609	-200.000	-0.039	-0.208
-635.595	97.319	0.234	-0.270
-634.580	-45.366	0.102	-0.051
-633.565	118.333	0.287	0.357
-632.551	219.397	-0.194	-0.312
-631.536	-136.937	-0.369	-0.043
-630.522	185.929	-0.076	0.114
-629.507	-200.000	0.005	0.048
-628.492	206.922	0.128	0.200
-627.478	800.000	0.079	-0.265
-626.463	-57.738	-0.099	-0.044
-625.449	-200.000	-0.014	-0.085
-624.434	-58.852	-0.303	0.132
-623.419	630.964	-0.073	-0.186
-622.405	328.379	-0.040	-0.077
-621.390	-200.000	-0.052	-0.434
-620.376	-200.000	-0.006	-0.148
-619.361	-124.348	0.241	-0.038
-618.346	800.000	-0.057	-0.199
-617.332	126.615	-0.047	-0.060
-616.317	-200.000	0.056	0.288
-615.303	-83.489	0.203	-0.065
-614.288	-126.335	-0.211	0.032
-613.273	-17.909	-0.189	-0.119
-612.259	25.596	0.140	0.117
-611.244	143.971	-0.128	-0.172
-610.230	800.000	0.073	-0.226
-609.215	-114.195	-0.159	-0.031
-608.201	-63.098	0.112	-0.046
-607.186	-117.065	0.207	-0.038
-606.171	-82.194	0.127	-0.042
-605.157	148.832	0.235	0.320
-604.142	-119.751	-0.114	0.020
-603.128	4.802	0.227	0.168
-602.113	-131.362	0.049	-0.007
-601.098	800.000	0.075	-0.313
-600.084	-40.790	0.175	0.091
-599.069	313.188	0.043	-0.082
-598.055	550.638	0.093	-0.223
-597.040	-87.879	-0.281	-0.085
-596.025	23.067	0.146	0.121
-595.011	-127.704	-0.155	-0.022
-593.996	282.709	0.067	0.121
-592.982	-7.870	0.046	0.031
-591.967	-67.803	0.249	-0.098
-590.952	480.447	-0.139	0.316
-589.938	243.728	0.049	-0.082
-588.923	-41.062	0.164	0.085
-587.909	-51.647	-0.142	0.066
-586.894	-37.800	0.133	0.071
-585.879	25.619	0.141	-0.118
-584.865	-79.305	-0.111	-0.038
-583.850	-200.000	-0.030	-0.362
-582.836	-52.997	0.229	0.106
-581.821	-8.796	-0.079	0.053
-580.806	-15.396	-0.054	0.035
-579.792	31.409	-0.168	0.145
-578.777	800.000	-0.074	-0.207
-577.763	-63.154	-0.075	0.031
-576.748	-193.426	-0.226	0.002
-575.733	-60.061	0.111	-0.048
-574.719	-200.000	0.019	-0.168
-573.704	565.284	-0.045	-0.110
-572.690	118.910	0.101	0.126
-571.675	-200.000	-0.004	-0.351
-570.661	15.615	-0.031	-0.024
-569.646	-69.100	-0.150	0.058
-568.631	393.884	-0.029	-0.061
-567.617	-152.599	0.131	0.009
-566.602	-54.917	-0.146	0.066
-565.588	-200.000	0.015	-0.268
-564.573	800.000	0.023	0.064
-563.558	-200.000	-0.028	-0.381
-562.544	-129.655	0.090	-0.012
-561.529	-34.624	-0.058	-0.032
-560.515	27.973	-0.223	0.189
-559.500	-200.000	0.004	-0.179
-558.485	-118.225	-0.074	0.013
-557.471	-68.203	0.183	0.072
-556.456	-120.128	0.517	0.089
-555.442	264.117	0.096	0.168
-554.427	-90.039	0.339	0.099
-553.412	-43.452	-0.188	-0.095
-552.398	-180.211	-0.339	0.007
-551.383	-72.607	0.246	0.091
-550.369	-85.269	0.190	0.059
-549.354	-200.000	-0.019	0.098
-548.339	201.179	-0.102	-0.158
-547.325	766.952	-0.053	0.143
-546.310	88.449	-0.063	0.070
-545.296	-39.157	0.109	-0.058
-544.281	-72.795	-0.193	-0.071
-543.266	800.000	0.016	0.051
-542.252	-27.110	0.325	-0.190
-541.237	111.637	-0.133	0.162
-540.223	-31.875	-0.172	-0.097
-539.208	198.930	-0.046	0.070
-538.193	-1.151	0.155	-0.110
-537.179	-63.331	-0.086	-0.036
-536.164	275.674	-0.118	-0.210
-535.150	44.801	0.073	-0.068
-534.135	-152.400	0.278	0.020
-533.121	634.919	0.157	-0.399
-532.106	-200.000	-0.060	-0.269
-531.091	65.232	-0.022	-0.023
-530.077	264.505	-0.240	0.420
-529.062	71.372	0.069	0.072
-528.048	-29.449	0.201	-0.115
-527.033	-72.507	-0.352	0.130
-526.018	-200.000	0.064	-0.303
-525.004	448.957	-0.089	-0.197
-523.989	-90.300	-0.283	0.082
-522.975	-89.020	0.203	-0.060
-521.960	-93.535	-0.331	0.092
-520.945	93.535	-0.172	0.195
-519.931	29.960	0.111	0.095
-518.916	800.000	0.018	-0.069
-517.902	-200.000	-0.026	-0.198
-516.887	-190.733	-0.562	-0.006
-515.872	30.510	0.086	-0.073
-514.858	-22.677	-0.553	-0.335
-513.843	800.000	-0.045	-0.151
-512.829	800.000	-0.038	0.147
-511.814	800.000	-0.049	-0.185
-510.799	-4.281	0.282	-0.196
-509.785	-119.366	-0.177	-0.031
-508.770	42.020	0.051	0.046
-507.756	-139.025	-0.148	0.016
-506.741	418.663	0.060	-0.128
-505.726	-20.650	-0.220	-0.136
-504.712	50.475	0.160	-0.152
-503.697	800.000	-0.060	-0.210
-502.683	-79.828	-0.163	-0.055
-501.668	-40.440	0.150	-0.078
-500.653	-59.187	0.065	0.028
-499.639	-23.745	-0.274	0.164
-498.624	0.423	-0.221	-0.158
-497.610	136.606	0.047	0.062
-496.595	534.731	-0.111	-0.264
-495.581	-61.126	-0.071	0.030
-494.566	23.453	0.096	-0.079
-493.551	-138.840	0.524	-0.057
-492.537	-181.079	-0.116	0.002
-491.522	800.000	0.057	-0.216
-490.508	-91.319	0.392	-0.112
-489.493	173.820	0.096	-0.139
-488.478	-106.890	-0.245	0.054
-487.464	259.895	0.133	0.230
-486.449	-200.000	0.018	0.340
-485.435	-58.900	0.117	0.050
-484.420	-200.000	0.050	0.418
-483.405	172.182	-0.168	0.242
-482.391	-43.819	-0.294	0.148
-481.376	-174.994	-0.041	-0.001
-480.362	134.525	-0.025	0.032
-479.347	224.040	-0.284	-0.459
-478.332	800.000	-0.113	-0.435
-477.318	13.117	-0.131	0.101
-476.303	207.965	0.101	0.157
-475.289	94.506	0.203	-0.231
-474.274	308.294	0.145	0.270
-473.259	663.550	0.114	-0.294
-472.245	551.672	-0.219	-0.526
-471.230	-200.000	-0.049	0.425
-470.216	-100.659	-0.498	0.123
-469.201	-200.000	-0.022	-0.321
-468.186	-179.494	0.314	-0.007
-467.172	119.735	-0.167	-0.207
-466.157	479.068	0.063	0.143
-465.143	-4.928	-0.209	-0.144
-464.128	108.075	-0.154	-0.184
-463.113	-200.000	-0.022	0.145
-462.099	-80.024	-0.033	0.011
-461.084	-136.214	-0.213	0.025
-460.070	293.792	-0.114	-0.208
-459.055	-145.647	0.237	-0.021
-458.040	800.000	0.089	0.293
-457.026	-72.557	-0.168	0.062
-456.011	800.000	0.066	-0.226
-454.997	-200.000	-0.065	0.498
-453.982	474.048	0.156	0.351
-452.968	-64.241	0.265	-0.108
-451.953	-145.857	-0.166	-0.015
-450.938	277.883	0.126	0.225
-449.924	-47.024	0.144	0.070
-448.909	154.223	-0.074	0.102
-447.895	61.879	0.070	0.070
-446.880	-101.360	0.250	0.061
-445.865	-77.480	-0.135	0.047
-444.851	-74.362	0.219	0.079
-443.836	516.844	-0.052	-0.122
-442.822	-76.623	-0.166	-0.058
-441.807	-200.000	0.025	0.148
-440.792	-0.357	0.306	0.217
-439.778	232.080	0.169	0.277
-438.763	800.000	-0.025	-0.070
-437.749	-22.566	-0.313	0.189
-436.734	-124.161	0.120	0.019
-435.719	-200.000	0.011	-0.298
-434.705	-200.000	-0.019	-0.152
-433.690	-21.937	-0.063	0.038
-432.676	-32.841	0.393	0.218
-431.661	41.935	0.182	-0.165
-430.646	-200.000	-0.006	0.034
-429.632	800.000	0.053	-0.225
-428.617	-200.000	0.006	0.052
-427.603	-200.000	-0.009	-0.125
-426.588	187.858	0.050	0.075
-425.573	800.000	0.079	-0.226
-424.559	292.791	-0.114	0.207
-423.544	-103.550	0.166	-0.039
-422.530	800.000	0.078	0.258
-421.515	4.384	-0.146	0.107
-420.500	562.225	0.092	-0.223
-419.486	29.119	-0.119	0.101
-418.471	-200.000	0.048	-0.421
-417.457	-79.832	0.536	-0.180
-416.442	-200.000	-0.031	-0.229
-415.428	-121.695	-0.322	0.053
-414.413	-2.023	0.202	0.142
-413.398	105.262	0.016	-0.019
-412.384	192.343	-0.229	-0.344
-411.369	28.831	0.247	0.209
-410.355	-101.154	-0.259	-0.063
-409.340	148.065	0.049	-0.066
-408.325	800.000	0.145	0.498
-407.311	-113.475	-0.035	0.007
-406.296	698.311	-0.028	0.074
-405.282	-200.000	-0.025	0.272
-404.267	81.039	0.231	0.249
-403.252	545.224	0.047	0.113
-402.238	-151.681	-0.194	0.014
-401.223	107.871	-0.089	0.106
-400.209	-45.299	0.153	-0.076
-399.194	123.401	0.173	0.216
-398.179	-7.347	-0.056	-0.038
-397.165	-24.698	-0.060	0.035
-396.150	469.700	0.069	-0.156
-395.136	798.566	0.055	-0.151
-394.121	-200.000	-0.027	-0.184
-393.106	14.261	0.079	0.062
-392.092	-32.934	0.282	-0.156
-391.077	-200.000	0.042	-0.232
-390.063	-62.969	0.190	-0.078
-389.048	800.000	-0.049	-0.173
-388.033	800.000	-0.032	-0.110
-387.019	111.801	-0.082	-0.099
-386.004	447.757	-0.208	0.457
-384.990	-61.037	-0.289	-0.121
-383.975	-200.000	-0.026	-0.161
-382.960	-200.000	0.034	0.154
-381.946	156.443	0.165	0.227
-380.931	-26.976	0.223	0.130
-379.917	14.163	0.163	0.127
-378.902	-134.309	-0.140	-0.017
-377.888	783.971	-0.043	-0.118
-376.873	-115.185	0.318	0.060
-375.858	-37.413	0.053	0.028
-374.844	-79.843	0.149	-0.050
-373.829	371.355	-0.166	0.336
-372.815	-158.222	0.223	-0.013
-371.800	281.222	-0.156	0.278
-370.785	-200.000	0.038	0.242
-369.771	27.653	0.219	0.184
-368.756	-7.580	0.263	-0.177
-367.742	93.845	-0.110	0.124
-366.727	-137.385	-0.336	0.038
-365.712	-200.000	-0.034	-0.290
-364.698	34.889	0.087	0.076
-363.683	-161.561	0.164	-0.008
-362.669	-116.521	0.340	0.062
-361.654	10.660	-0.153	-0.116
-360.639	-71.968	-0.222	0.082
-359.625	207.985	-0.063	0.097
-358.610	625.107	0.088	-0.221
-357.596	396.149	-0.110	0.228
-356.581	70.649	-0.035	-0.036
-355.566	-67.169	-0.100	-0.039
-354.552	26.599	-0.044	0.037
-353.537	-161.878	-0.206	0.010
-352.523	-200.000	-0.049	-0.243
-351.508	-83.683	-0.079	0.025
-350.493	-8.899	0.062	0.041
-349.479	351.601	0.189	0.372
-348.464	105.275	0.067	-0.079
-347.450	-200.000	0.003	-0.058
-346.435	-17.076	0.371	0.233
-345.420	-36.519	-0.218	-0.117
-344.406	-78.356	0.087	0.030
-343.391	800.000	0.067	0.191
-342.377	800.000	0.015	0.049
-341.362	11.388	-0.173	-0.132
-340.348	-141.578	-0.149	0.015
-339.333	85.732	0.101	0.110
-338.318	-94.283	0.052	-0.014
-337.304	123.837	0.157	-0.196
-336.289	-37.425	0.146	0.078
-335.275	-146.173	-0.342	0.030
-334.260	-200.000	-0.007	-0.112
-333.245	549.882	-0.148	-0.353
-332.231	449.086	0.034	0.075
-331.216	800.000	0.098	0.327
-330.202	-200.000	0.003	0.017
-329.187	-144.511	-0.323	-0.030
-328.172	-71.729	0.087	-0.032
-327.158	-112.936	-0.273	-0.054
-326.143	49.598	-0.149	-0.140
-325.129	115.252	-0.207	0.252
-324.114	-122.365	0.210	0.034
-323.099	-200.000	-0.011	0.182
-322.085	-200.000	0.000	-0.089
-321.070	-144.058	-0.077	0.007
-320.056	32.572	0.099	0.085
-319.041	711.705	0.151	0.398
-318.026	125.355	0.081	0.102
-317.012	183.483	0.068	-0.100
-315.997	-139.274	-0.328	0.035
-314.983	800.000	0.060	-0.225
-313.968	-67.339	-0.192	-0.075
-312.953	329.011	0.167	0.319
-311.939	197.330	0.167	0.253
-310.924	86.068	0.330	0.361
-309.910	-200.000	-0.006	0.166
-308.895	-200.000	0.002	-0.029
-307.880	85.567	-0.295	-0.322
-306.866	268.303	-0.033	-0.057
-305.851	-32.444	0.207	-0.115
-304.837	-200.000	0.003	-0.359
-303.822	-156.760	-0.309	0.019
-302.807	51.733	0.148	-0.140
-301.793	213.984	-0.143	-0.224
-300.778	27.394	-0.052	-0.043
-299.764	45.149	-0.086	0.079
-298.749	-165.118	0.204	-0.009
-297.735	225.537	0.053	0.085
-296.720	21.147	0.077	0.062
-295.705	-90.634	0.277	0.079
-294.691	106.860	0.144	-0.170
-293.676	-77.995	0.113	-0.039
-292.662	-102.380	-0.220	-0.052
-291.647	-200.000	0.044	-0.254
-290.632	-200.000	0.050	0.237
-289.618	-200.000	-0.007	0.304
-288.603	-46.451	-0.149	-0.073
-287.589	-57.903	-0.290	0.126
-286.574	368.699	0.182	0.365
-285.559	57.874	-0.062	0.060
-284.545	-200.000	0.011	-0.278
-283.530	-200.000	0.089	-0.406
-282.516	-200.000	-0.012	-0.119
-281.501	360.861	0.143	0.284
-280.486	800.000	-0.018	0.054
-279.472	-200.000	-0.065	0.385
-278.457	800.000	-0.062	-0.186
-277.443	-102.478	0.078	-0.018
-276.428	-134.751	0.165	0.020
-275.413	-200.000	-0.073	-0.472
-274.399	-200.000	0.015	-0.145
-273.384	-59.324	-0.103	-0.044
-272.370	160.077	-0.011	0.015
-271.355	-80.334	-0.220	0.073
-270.340	-200.000	0.008	0.179
-269.326	-200.000	0.028	-0.294
-268.311	708.879	0.038	0.099
-267.297	25.737	0.325	0.268
-266.282	-200.000	-0.027	0.303
-265.267	715.460	-0.150	0.395
-264.253	242.922	0.124	0.207
-263.238	18.431	-0.066	0.053
-262.224	109.345	-0.131	0.155
-261.209	385.371	0.103	-0.211
-260.195	386.184	-0.101	-0.208
-259.180	800.000	0.054	-0.188
-258.165	-31.628	0.126	0.070
-257.151	800.000	0.034	0.127
-256.136	658.430	-0.174	-0.443
-255.122	-200.000	0.003	-0.096
-254.107	-81.001	0.078	0.026
-253.092	-200.000	-0.034	0.276
-252.078	-74.858	0.432	0.154
-251.063	-186.215	-0.150	0.002
-250.049	-22.518	0.198	0.119
-249.034	54.635	0.008	-0.007
-248.019	800.000	-0.091	-0.377
-247.005	-107.224	0.072	0.016
-245.990	-96.110	0.261	0.069
-244.976	-90.133	0.205	-0.059
-243.961	800.000	-0.075	0.294
-242.946	-71.651	0.054	0.020
-241.932	296.804	0.095	0.173
-240.917	-200.000	0.014	-0.214
-239.903	382.234	0.133	0.272
-238.888	800.000	0.037	0.120
-237.873	56.092	-0.058	-0.056
-236.859	-50.594	-0.206	-0.096
-235.844	800.000	-0.081	0.278
-234.830	-64.523	-0.171	0.069
-233.815	67.752	0.337	-0.342
-232.800	182.820	-0.159	0.233
-231.786	800.000	0.109	0.365
-230.771	37.700	0.072	-0.063
-229.757	-65.663	-0.112	0.044
-228.742	-69.238	-0.297	0.113
-227.727	-66.962	0.164	0.064
-226.713	429.134	-0.137	0.294
-225.698	19.452	-0.456	0.363
-224.684	-128.793	-0.303	-0.042
-223.669	-200.000	0.027	-0.199
-222.655	314.658	0.059	0.111
-221.640	-22.063	-0.242	0.145
-220.625	239.745	-0.108	0.178
-219.611	-133.085	0.043	-0.005
-218.596	85.487	0.136	-0.148
-217.582	-200.000	0.074	-0.379
-216.567	-34.870	0.148	-0.080
-215.552	-172.384	0.295	-0.009
-214.538	800.000	-0.050	0.142
-213.523	-140.505	-0.311	0.032
-212.509	14.670	-0.162	-0.125
-211.494	-66.161	-0.229	0.090
-210.479	-200.000	0.073	0.322
-209.465	-200.000	0.011	-0.260
-208.450	483.449	-0.124	0.279
-207.436	3.240	-0.163	-0.118
-206.421	-59.591	0.134	-0.057
-205.406	-146.923	0.187	0.016
-204.392	800.000	0.062	0.213
-203.377	800.000	-0.020	-0.068
-202.363	-3.982	0.338	0.232
-201.348	442.150	-0.065	-0.140
-200.333	256.069	-0.062	0.105
-199.319	-60.318	0.137	-0.058
-198.304	41.691	-0.057	0.051
-197.290	-38.379	-0.122	0.064
-196.275	125.698	0.057	-0.072
-195.260	-11.519	-0.161	0.105
-194.246	-200.000	0.004	-0.105
-193.231	-93.699	-0.324	-0.088
-192.217	-174.071	-0.264	0.008
-191.202	-175.737	0.241	0.006
-190.187	-153.398	0.124	0.009
-189.173	680.645	0.069	-0.177
-188.158	800.000	-0.044	-0.133
-187.144	800.000	-0.057	0.236
-186.129	-46.178	0.274	0.133
-185.114	-89.217	0.107	-0.031
-184.100	-200.000	-0.015	0.250
-183.085	-15.909	0.129	-0.081
-182.071	-200.000	-0.063	-0.392
-181.056	-200.000	-0.017	0.128
-180.042	-200.000	0.036	0.197
-179.027	90.254	-0.316	-0.350
-178.012	283.223	0.061	-0.109
-176.998	92.733	-0.077	-0.086
-175.983	-26.606	0.222	0.129
-174.969	136.701	-0.068	-0.088
-173.954	-144.652	0.115	-0.010
-172.939	800.000	-0.080	0.271
-171.925	-72.947	0.295	-0.107
-170.910	-200.000	-0.036	-0.277
-169.896	-45.166	0.191	0.094
-168.881	-200.000	0.001	0.184
-167.866	20.550	-0.080	0.064
-166.852	-58.964	0.046	-0.020
-165.837	-88.437	0.306	-0.090
-164.823	-89.398	0.135	-0.039
-163.808	366.353	-0.108	0.216
-162.793	719.072	-0.064	-0.168
-161.779	-95.940	0.019	-0.005
-160.764	-92.132	-0.198	-0.055
-159.750	800.000	0.028	0.093
-158.735	-27.087	0.157	0.091
-157.720	269.395	-0.168	0.292
-156.706	800.000	0.070	0.285
-155.691	800.000	0.055	0.151
-154.677	106.313	-0.137	0.160
-153.662	800.000	-0.048	0.175
-152.647	-112.272	-0.154	0.030
-151.633	-53.778	0.180	0.081
-150.618	8.199	0.188	0.140
-149.604	-200.000	-0.050	-0.348
-148.589	-200.000	0.000	-0.004
-147.574	21.925	0.196	0.158
-146.560	800.000	-0.031	0.109
-145.545	323.851	0.046	0.087
-144.531	168.718	0.230	0.324
-143.516	152.837	-0.078	-0.105
-142.502	800.000	0.053	-0.215
-141.487	47.107	-0.200	0.184
-140.472	-25.182	-0.176	-0.103
-139.458	-46.299	-0.150	-0.073
-138.443	-146.891	-0.157	0.013
-137.429	800.000	-0.051	0.170
-136.414	93.059	0.062	-0.069
-135.399	-88.765	0.193	0.057
-134.385	-200.000	-0.040	-0.253
-133.370	-53.705	-0.165	-0.074
-132.356	151.417	0.036	0.049
-131.341	71.549	0.187	-0.192
-130.326	-111.203	-0.288	0.058
-129.312	87.131	-0.149	-0.162
-128.297	-200.000	0.081	0.366
-127.283	-80.029	0.242	0.080
-126.268	-200.000	0.020	-0.234
-125.253	-49.234	-0.047	0.022
-124.239	-155.628	-0.465	-0.029
-123.224	494.193	-0.075	0.170
-122.210	28.155	-0.295	0.246
-121.195	-200.000	0.019	0.129
