DTS Sentinel unit serial number:	SN413079Multiplexer serial number:	ORYXHardware model number:	OX4-SRSoftware version number:	ORYX F/W v4.00 Oryx Data Collector v3.7.2.0data status	okinstallation	princeton_trtdifferential loss correction	single-endedforward channel	channel 4reverse channel	N/Adate	2019/09/12time	18:46:18forward acquisition time	15.00reverse acquisition time	0.00gamma	496.2192k internal	0.2307k external	0.2307temperature offset calibration	1.0132default loss term (dB/km)	0.3790temperature slope calibration	1.0000multiplexer offset coefficient	1.0000multiplexer slope coefficient	1.0000fibre end	0.00T internal ref (°C)	33.00T ext. ref 1 (°C)	2.99T ext. ref 2 (°C)	27.48length (m)	temperature (°C)	Stokes	anti-Stokes-747.200	-9.004	-0.404	-0.275
-746.185	-200.000	-0.038	0.545
-745.171	800.000	0.022	0.063
-744.156	-173.445	-0.289	-0.009
-743.142	-54.494	-0.382	-0.176
-742.127	88.798	0.752	0.851
-741.112	529.089	-0.228	-0.546
-740.098	14.369	-0.783	0.621
-739.083	-127.444	1.368	0.202
-738.069	49.668	-0.622	-0.595
-737.054	-91.472	-0.912	-0.265
-736.039	49.700	0.425	0.407
-735.025	-36.529	-0.118	0.064
-734.010	40.891	-0.418	-0.383
-732.996	42.895	-0.230	-0.213
-731.981	-21.240	-0.722	0.448
-730.966	63.990	0.266	-0.272
-729.952	-200.000	-0.051	-0.807
-728.937	-2.484	-0.615	-0.438
-727.923	-90.007	-0.744	0.220
-726.908	0.681	-0.302	0.219
-725.894	460.838	0.221	-0.500
-724.879	260.079	-0.531	-0.931
-723.864	-116.154	-0.134	0.025
-722.850	69.099	-0.194	0.202
-721.835	58.457	0.441	0.440
-720.821	361.484	-0.495	-1.009
-719.806	10.165	-0.076	-0.059
-718.791	-200.000	-0.144	-0.733
-717.777	110.250	-0.175	0.213
-716.762	800.000	-0.148	-0.654
-715.748	-185.178	-0.564	0.009
-714.733	-104.364	-0.200	0.047
-713.718	800.000	-0.093	0.381
-712.704	115.749	-0.267	-0.332
-711.689	-200.000	0.029	0.953
-710.675	-19.129	-0.351	0.221
-709.660	-130.403	0.165	-0.023
-708.645	110.360	-0.152	-0.186
-707.631	89.402	0.586	0.663
-706.616	-123.136	0.542	-0.088
-705.602	-111.985	-0.253	0.052
-704.587	-200.000	-0.052	-0.847
-703.572	-137.218	1.424	0.165
-702.558	-200.000	-0.083	-0.370
-701.543	581.353	-0.229	-0.569
-700.529	800.000	0.086	0.352
-699.514	233.953	0.422	0.705
-698.499	189.083	0.238	-0.361
-697.485	182.390	0.364	-0.544
-696.470	68.904	-0.200	0.208
-695.456	348.959	-0.165	0.330
-694.441	-200.000	-0.048	-0.526
-693.426	-174.810	-1.046	0.030
-692.412	-200.000	-0.005	0.871
-691.397	406.696	-0.115	0.246
-690.383	-95.888	-0.120	-0.033
-689.368	227.566	-0.462	0.763
-688.354	450.144	-0.186	-0.416
-687.339	-70.955	0.629	-0.240
-686.324	68.789	-0.424	-0.441
-685.310	-200.000	-0.009	-0.531
-684.295	392.322	-0.236	0.497
-683.281	-47.200	-0.459	0.227
-682.266	-200.000	0.017	1.010
-681.251	-200.000	0.070	0.324
-680.237	-200.000	0.059	0.273
-679.222	143.116	-0.527	0.711
-678.208	-154.820	0.327	-0.022
-677.193	800.000	0.146	0.539
-676.178	203.363	-0.463	-0.727
-675.164	164.941	0.226	-0.323
-674.149	283.821	-0.187	0.341
-673.135	68.262	-0.284	0.295
-672.120	130.528	-0.054	-0.071
-671.105	155.323	0.399	-0.556
-670.091	800.000	-0.146	0.452
-669.076	322.627	-0.087	0.169
-668.062	-95.783	-0.975	0.264
-667.047	-200.000	-0.004	-0.613
-666.032	-93.426	0.375	-0.105
-665.018	-41.081	-0.528	-0.277
-664.003	-5.048	-0.836	-0.583
-662.989	-29.809	0.427	-0.247
-661.974	-200.000	-0.099	-0.504
-660.959	-182.335	-0.336	-0.006
-659.945	206.411	0.316	0.498
-658.930	123.964	-0.154	0.196
-657.916	-81.015	-0.931	0.312
-656.901	-124.170	0.126	-0.020
-655.886	-20.828	0.450	-0.280
-654.872	37.452	0.777	-0.698
-653.857	11.531	0.428	0.332
-652.843	73.808	-0.369	-0.392
-651.828	255.070	0.348	-0.605
-650.814	-60.052	0.286	0.124
-649.799	194.391	-0.243	0.373
-648.784	62.554	-0.518	-0.524
-647.770	102.409	0.147	0.174
-646.755	785.716	0.191	0.530
-645.741	-145.722	-0.247	0.022
-644.726	-141.916	0.510	0.052
-643.711	663.032	0.232	0.607
-642.697	41.025	0.443	0.406
-641.682	247.377	0.275	0.470
-640.668	-105.272	-0.672	-0.155
-639.653	-18.456	0.277	0.175
-638.638	437.539	0.176	-0.388
-637.624	33.698	-0.242	-0.213
-636.609	800.000	0.133	-0.460
-635.595	-200.000	-0.092	-0.684
-634.580	800.000	0.191	0.610
-633.565	43.445	0.398	0.369
-632.551	800.000	0.134	0.438
-631.536	-77.239	-0.632	-0.223
-630.522	-2.576	0.186	0.132
-629.507	-200.000	0.034	-0.382
-628.492	127.277	0.229	0.295
-627.478	242.348	-0.206	-0.349
-626.463	-114.586	-0.275	-0.053
-625.449	-21.280	-0.268	-0.166
-624.434	167.283	0.300	0.431
-623.419	-46.493	0.416	0.207
-622.405	-44.487	-0.274	0.139
-621.390	107.779	0.106	0.128
-620.376	240.511	-0.294	-0.497
-619.361	-78.517	0.986	-0.342
-618.346	-110.257	0.366	-0.077
-617.332	800.000	0.157	0.479
-616.317	-94.594	-0.581	-0.160
-615.303	6.526	-0.455	0.342
-614.288	457.420	-0.399	0.896
-613.273	243.495	0.300	0.509
-612.259	-112.066	-0.326	-0.066
-611.244	-200.000	-0.047	-0.667
-610.230	-55.808	0.802	0.363
-609.215	72.983	0.197	0.209
-608.201	800.000	0.185	-0.554
-607.186	-116.036	-0.359	-0.068
-606.171	725.549	-0.258	0.695
-605.157	413.676	0.131	0.282
-604.142	65.340	-0.555	-0.568
-603.128	-49.249	0.266	0.129
-602.113	-59.818	-0.457	-0.198
-601.098	-200.000	0.051	0.576
-600.084	-73.826	0.317	0.116
-599.069	-42.237	0.786	-0.406
-598.055	-66.735	0.651	0.261
-597.040	-81.443	-0.466	-0.155
-596.025	430.344	0.270	-0.591
-595.011	-83.383	0.137	0.045
-593.996	174.127	-0.003	0.004
-592.982	-200.000	0.021	0.266
-591.967	113.350	0.299	-0.366
-590.952	-44.347	0.059	-0.030
-589.938	-126.107	-0.778	-0.118
-588.923	-86.139	-0.391	-0.122
-587.909	-200.000	-0.101	0.488
-586.894	-75.383	0.772	0.278
-585.879	-68.817	-0.196	-0.077
-584.865	-51.918	-0.035	-0.016
-583.850	89.207	-0.150	-0.169
-582.836	-200.000	0.132	1.051
-581.821	-98.565	0.729	-0.188
-580.806	372.096	0.257	-0.527
-579.792	268.229	-0.343	0.607
-578.777	37.091	-0.109	-0.098
-577.763	27.503	1.124	-0.955
-576.748	181.905	-0.047	-0.070
-575.733	152.238	0.307	-0.423
-574.719	256.008	-0.380	0.658
-573.704	-12.314	-0.427	0.282
-572.690	87.746	0.495	0.554
-571.675	-16.680	0.518	0.331
-570.661	-90.242	0.429	-0.126
-569.646	-69.715	0.508	0.196
-568.631	800.000	-0.022	0.096
-567.617	-200.000	0.010	-0.094
-566.602	-146.305	0.473	-0.042
-565.588	-200.000	-0.121	-0.797
-564.573	32.162	-0.178	-0.155
-563.558	800.000	-0.110	-0.422
-562.544	-32.015	0.485	0.274
-561.529	800.000	0.219	-0.640
-560.515	271.273	0.060	0.107
-559.500	50.734	0.473	-0.452
-558.485	-46.591	0.406	0.201
-557.471	697.195	0.345	0.915
-556.456	188.210	0.495	-0.747
-555.442	-168.800	-0.193	-0.007
-554.427	-60.312	0.503	-0.216
-553.412	-16.884	-0.544	-0.347
-552.398	-200.000	-0.056	-0.546
-551.383	77.089	0.438	0.470
-550.369	649.779	0.215	0.555
-549.354	-200.000	-0.044	0.241
-548.339	-71.073	-0.350	-0.133
-547.325	-200.000	-0.005	0.157
-546.310	281.340	-0.132	-0.239
-545.296	-200.000	0.047	-0.300
-544.281	-127.346	-0.279	0.041
-543.266	-78.016	-0.343	-0.119
-542.252	-171.025	0.260	0.009
-541.237	-200.000	-0.032	0.757
-540.223	3.009	0.430	-0.315
-539.208	62.341	0.462	-0.465
-538.193	-170.632	-0.506	0.018
-537.179	329.647	0.317	-0.616
-536.164	-32.952	0.052	-0.029
-535.150	-200.000	0.051	-0.347
-534.135	-200.000	-0.081	0.795
-533.121	-105.323	-0.053	0.012
-532.106	-59.065	0.419	-0.182
-531.091	502.105	-0.259	0.604
-530.077	98.118	0.309	-0.359
-529.062	125.007	-0.246	-0.312
-528.048	41.750	0.404	-0.370
-527.033	40.264	-0.369	0.334
-526.018	-93.606	0.217	-0.060
-525.004	-195.021	-0.219	0.002
-523.989	-133.061	-0.746	-0.095
-522.975	-43.389	-0.162	0.083
-521.960	91.804	0.245	-0.277
-520.945	-200.000	-0.057	0.359
-519.931	-148.857	0.147	-0.012
-518.916	254.318	-0.453	0.780
-517.902	800.000	0.248	0.799
-516.887	153.773	0.378	-0.522
-515.872	187.134	0.849	-1.276
-514.858	-86.312	-0.228	-0.071
-513.843	800.000	0.105	-0.442
-512.829	0.448	0.332	0.239
-511.814	-32.033	-0.421	-0.237
-510.799	-77.455	-0.154	0.054
-509.785	97.710	0.348	0.403
-508.770	527.000	-0.237	-0.562
-507.756	168.713	-0.384	-0.551
-506.741	74.841	-0.377	-0.400
-505.726	-200.000	0.091	-0.405
-504.712	15.052	-0.431	-0.340
-503.697	-79.602	-0.231	-0.079
-502.683	556.573	0.164	-0.398
-501.668	-11.789	0.307	-0.203
-500.653	349.944	-0.170	-0.338
-499.639	283.229	-0.386	-0.698
-498.624	-6.797	0.314	-0.215
-497.610	357.956	-0.344	0.692
-496.595	-40.128	-0.335	-0.176
-495.581	-19.950	-0.409	0.254
-494.566	800.000	0.054	-0.184
-493.551	-60.376	0.236	0.101
-492.537	-89.484	0.724	0.214
-491.522	768.191	-0.115	-0.315
-490.508	-136.732	-0.210	0.024
-489.493	608.306	-0.252	-0.633
-488.478	-45.117	0.906	0.453
-487.464	-103.899	0.292	-0.069
-486.449	260.964	-0.244	-0.424
-485.435	800.000	0.023	-0.074
-484.420	-200.000	-0.055	-0.918
-483.405	5.797	-0.437	-0.325
-482.391	-161.094	0.322	0.017
-481.376	-104.689	0.227	0.053
-480.362	94.596	-0.382	0.437
-479.347	-200.000	-0.075	-0.513
-478.332	-4.794	-0.700	-0.486
-477.318	-49.739	0.666	-0.319
-476.303	428.470	-0.047	-0.102
-475.289	-52.356	-0.348	0.162
-474.274	-200.000	-0.029	-0.387
-473.259	-109.985	-0.463	-0.097
-472.245	-93.372	-0.237	-0.066
-471.230	-112.152	-0.345	0.070
-470.216	58.973	-0.423	0.418
-469.201	-37.633	0.476	-0.255
-468.186	-121.370	-0.431	0.072
-467.172	367.086	0.291	-0.590
-466.157	-29.094	-0.457	0.263
-465.143	-200.000	0.037	0.374
-464.128	72.821	-0.729	-0.766
-463.113	-42.823	-0.493	-0.252
-462.099	15.025	-0.895	0.705
-461.084	-87.605	1.072	0.326
-460.070	-200.000	-0.027	-0.664
-459.055	800.000	0.115	-0.371
-458.040	1.277	-0.424	0.306
-457.026	102.456	-0.514	-0.605
-456.011	18.880	-0.562	0.453
-454.997	-72.330	-0.600	-0.223
-453.982	-132.171	-0.556	0.073
-452.968	-95.867	0.823	-0.221
-451.953	292.839	-0.242	0.444
-450.938	-29.904	-0.355	0.203
-449.924	145.085	-0.603	0.811
-448.909	-49.429	-0.357	-0.171
-447.895	-64.619	-0.485	-0.198
-446.880	95.333	-0.420	0.481
-445.865	-125.262	0.549	-0.084
-444.851	-64.936	-0.428	-0.174
-443.836	-9.158	-0.505	0.340
-442.822	198.498	0.562	-0.864
-441.807	-102.709	0.151	0.036
-440.792	-181.522	0.522	-0.010
-439.778	-74.682	0.803	0.290
-438.763	41.640	-0.511	0.465
-437.749	-105.304	0.254	0.058
-436.734	-200.000	-0.038	0.195
-435.719	800.000	-0.100	-0.382
-434.705	107.228	-0.301	0.360
-433.690	59.441	-0.409	-0.405
-432.676	-64.141	-0.516	-0.211
-431.661	-30.546	0.732	0.417
-430.646	-69.152	0.136	-0.053
-429.632	-76.927	0.157	0.055
-428.617	313.120	0.230	0.435
-427.603	-34.566	0.366	0.201
-426.588	-11.322	0.301	0.199
-425.573	343.946	-0.204	0.401
-424.559	207.538	-0.148	-0.233
-423.544	-59.958	0.345	-0.148
-422.530	-67.348	0.779	0.307
-421.515	800.000	0.166	0.533
-420.500	125.609	-0.349	-0.442
-419.486	-128.868	0.411	0.058
-418.471	-200.000	-0.014	0.197
-417.457	-200.000	0.128	0.922
-416.442	195.995	-0.283	0.432
-415.428	-155.430	0.255	-0.017
-414.413	-152.190	-0.012	0.001
-413.398	-124.640	-0.475	-0.074
-412.384	-131.460	0.415	-0.055
-411.369	32.480	0.285	0.247
-410.355	168.766	-0.554	-0.792
-409.340	-200.000	-0.019	0.470
-408.325	-45.613	0.285	0.142
-407.311	88.867	-0.249	-0.278
-406.296	-119.973	0.500	-0.086
-405.282	-99.557	-0.295	-0.074
-404.267	-63.551	0.440	0.181
-403.252	-166.417	-0.159	0.007
-402.238	24.495	0.314	-0.261
-401.223	746.774	-0.214	0.578
-400.209	-3.370	-0.479	-0.334
-399.194	549.114	0.052	-0.124
-398.179	-38.980	0.356	-0.188
-397.165	-68.042	-0.772	0.302
-396.150	-48.340	-0.552	-0.267
-395.136	-17.389	-0.105	-0.066
-394.121	26.725	0.691	-0.580
-393.106	767.009	0.134	0.365
-392.092	619.137	0.081	0.204
-391.077	-65.156	0.654	0.264
-390.063	800.000	-0.391	-1.134
-389.048	63.691	0.145	-0.146
-388.033	-86.930	-0.479	0.147
-387.019	-28.258	-0.555	-0.321
-386.004	305.775	0.207	0.386
-384.990	-200.000	-0.017	-0.416
-383.975	-57.560	-0.555	-0.244
-382.960	-200.000	-0.139	-0.634
-381.946	-99.386	-0.780	0.197
-380.931	263.226	0.444	0.773
-379.917	-76.413	-0.766	0.270
-378.902	-15.680	0.389	0.249
-377.888	300.560	0.219	0.405
-376.873	-139.605	-0.410	0.044
-375.858	-123.926	0.710	-0.112
-374.844	800.000	-0.110	-0.406
-373.829	-102.637	0.572	-0.137
-372.815	612.737	0.167	-0.418
-371.800	-56.528	0.302	0.134
-370.785	-200.000	-0.024	-0.107
-369.771	800.000	0.152	-0.575
-368.756	150.510	0.613	0.834
-367.742	-96.026	1.268	-0.338
-366.727	-63.821	0.226	0.093
-365.712	-50.148	-0.225	-0.107
-364.698	-4.480	-0.804	-0.556
-363.683	-74.532	0.232	-0.084
-362.669	800.000	0.146	0.552
-361.654	-144.464	0.594	0.055
-360.639	-200.000	0.239	1.328
-359.625	-141.858	-0.298	0.030
-358.610	148.779	-0.436	-0.591
-357.596	35.409	0.469	0.412
-356.581	541.254	0.103	0.245
-355.566	-200.000	0.000	0.169
-354.552	800.000	0.068	0.289
-353.537	-200.000	0.014	0.094
-352.523	-103.266	0.381	0.090
-351.508	574.835	-0.111	0.271
-350.493	-91.208	-0.445	-0.128
-349.479	-200.000	-0.015	0.321
-348.464	-9.106	0.651	-0.436
-347.450	27.948	-0.218	0.184
-346.435	327.194	-0.381	-0.731
-345.420	109.993	0.384	-0.461
-344.406	104.900	-0.378	-0.446
-343.391	88.833	-0.220	0.245
-342.377	8.747	0.183	-0.138
-341.362	-85.518	0.259	0.081
-340.348	741.210	-0.117	0.314
-339.333	5.362	-0.521	0.385
-338.318	77.030	-0.287	0.305
-337.304	-200.000	-0.032	0.777
-336.289	117.198	0.142	-0.175
-335.275	-118.140	0.532	0.095
-334.260	188.018	0.390	0.583
-333.245	-6.767	-0.265	0.180
-332.231	-41.264	0.834	0.430
-331.216	-200.000	0.018	-0.587
-330.202	140.669	0.453	0.599
-329.187	800.000	0.103	-0.431
-328.172	35.492	0.484	0.425
-327.158	-174.162	-0.622	-0.018
-326.143	777.460	0.304	-0.831
-325.129	-126.663	-0.409	0.061
-324.114	41.195	0.147	0.133
-323.099	800.000	-0.103	-0.330
-322.085	-66.993	-0.208	-0.082
-321.070	6.861	-0.541	0.403
-320.056	-40.093	-0.552	-0.288
-319.041	-200.000	-0.023	0.190
-318.026	202.552	-0.230	0.356
-317.012	456.820	-0.387	-0.859
-315.997	103.871	0.291	-0.342
-314.983	-34.573	-0.254	0.139
-313.968	-133.428	-0.430	-0.054
-312.953	800.000	-0.074	-0.254
-311.939	-36.350	0.475	-0.256
-310.924	-93.115	-0.343	-0.095
-309.910	222.466	-0.265	0.427
-308.895	-109.550	-0.390	0.082
-307.880	168.724	-0.365	-0.521
-306.866	-30.450	0.560	-0.317
-305.851	194.331	0.569	-0.863
-304.837	480.342	0.248	0.563
-303.822	-84.058	0.387	0.123
-302.807	-16.497	-0.185	-0.117
-301.793	800.000	0.124	0.472
-300.778	-200.000	-0.002	0.425
-299.764	135.403	0.690	-0.896
-298.749	-200.000	-0.119	0.591
-297.735	672.353	-0.124	0.320
-296.720	-200.000	-0.132	0.649
-295.705	-43.423	0.561	-0.283
-294.691	-127.454	-0.803	-0.117
-293.676	-200.000	-0.109	-0.715
-292.662	-200.000	0.080	1.070
-291.647	-200.000	0.030	-0.539
-290.632	104.409	0.299	-0.351
-289.618	-126.783	1.031	-0.152
-288.603	263.488	0.014	0.025
-287.589	-51.395	-0.441	-0.206
-286.574	-133.035	-0.724	-0.092
-285.559	92.736	-0.164	-0.184
-284.545	800.000	0.110	-0.475
-283.530	-98.156	0.282	-0.073
-282.516	-50.185	0.496	0.234
-281.501	-94.041	-0.178	0.049
-280.486	-79.526	-0.506	-0.171
-279.472	-200.000	-0.086	0.580
-278.457	800.000	-0.167	-0.543
-277.443	-200.000	-0.072	-0.392
-276.428	39.682	0.593	0.531
-275.413	-72.035	-0.683	-0.254
-274.399	800.000	-0.023	0.094
-273.384	-200.000	0.007	-0.645
-272.370	-56.391	-0.352	0.156
-271.355	-133.309	0.440	-0.055
-270.340	-200.000	0.051	0.267
-269.326	39.084	-0.198	-0.177
-268.311	-147.309	0.420	0.036
-267.297	-200.000	0.009	0.916
-266.282	-200.000	-0.115	0.633
-265.267	-66.605	0.427	0.169
-264.253	-4.409	-0.071	0.049
-263.238	-200.000	-0.040	-0.263
-262.224	392.624	0.145	0.301
-261.209	-62.894	-0.247	0.102
-260.195	490.289	0.209	-0.476
-259.180	-69.997	0.597	0.227
-258.165	406.731	0.370	-0.779
-257.151	1.967	-0.160	-0.115
-256.136	-29.312	0.468	0.267
-255.122	-51.779	-0.542	0.252
-254.107	181.101	0.546	0.801
-253.092	-66.899	-0.905	0.357
-252.078	-16.323	-1.220	0.772
-251.063	-136.253	0.269	-0.031
-250.049	800.000	-0.211	0.703
-249.034	153.041	0.300	-0.409
-248.019	99.349	-0.044	0.051
-247.005	320.616	0.143	-0.270
-245.990	112.396	-0.309	-0.373
-244.976	800.000	0.130	0.439
-243.961	-179.279	0.579	0.013
-242.946	-40.109	-0.157	-0.082
-241.932	80.974	-0.615	0.662
-240.917	-85.606	-0.323	0.100
-239.903	84.326	-0.485	-0.529
-238.888	604.673	-0.168	-0.418
-237.873	-42.748	-0.629	0.319
-236.859	289.362	0.387	0.700
-235.844	800.000	0.107	0.309
-234.830	84.638	0.182	-0.199
-233.815	251.563	0.285	0.484
-232.800	-55.703	-0.523	-0.233
-231.786	-180.719	-1.192	0.024
-230.771	319.287	0.224	-0.424
-229.757	39.488	-0.593	-0.530
-228.742	-65.366	-0.487	-0.195
-227.727	800.000	0.088	-0.295
-226.713	-200.000	-0.042	-0.341
-225.698	282.069	0.425	-0.760
-224.684	164.954	0.168	0.237
-223.669	-90.148	0.517	-0.150
-222.655	-4.824	0.046	0.032
-221.640	-54.471	-0.911	-0.411
-220.625	64.100	0.306	-0.307
-219.611	800.000	-0.071	0.241
-218.596	800.000	0.086	0.330
-217.582	-200.000	-0.001	0.199
-216.567	-200.000	0.112	0.782
-215.552	-70.359	1.017	-0.384
-214.538	-96.069	-0.818	0.217
-213.523	-181.910	0.282	0.005
-212.509	-200.000	0.011	0.123
-211.494	-37.967	-0.741	0.392
-210.479	800.000	-0.056	0.243
-209.465	-131.420	-0.372	0.049
-208.450	-127.780	0.107	0.015
-207.436	-158.148	-0.601	0.035
-206.421	-179.256	-0.362	-0.008
-205.406	-200.000	0.084	-0.546
-204.392	-80.655	0.504	-0.167
-203.377	71.125	0.515	0.532
-202.363	-33.849	0.666	0.365
-201.348	-200.000	-0.008	0.193
-200.333	366.781	-0.402	-0.808
-199.319	800.000	0.021	-0.066
-198.304	-84.106	-0.156	-0.049
-197.290	800.000	0.134	0.448
-196.275	-200.000	-0.054	0.546
-195.260	553.447	-0.226	0.541
-194.246	-48.486	0.415	-0.199
-193.231	-72.370	-0.155	0.057
-192.217	43.831	-0.796	-0.725
-191.202	-53.083	-0.354	-0.162
-190.187	800.000	-0.150	-0.430
-189.173	-200.000	0.072	-0.608
-188.158	63.430	0.141	0.141
-187.144	-200.000	-0.012	-0.608
-186.129	-49.544	0.736	-0.349
-185.114	732.318	0.077	0.204
-184.100	390.441	0.383	0.791
-183.085	-81.279	0.422	0.139
-182.071	41.846	-0.396	-0.357
-181.056	-69.699	-0.577	0.219
-180.042	-200.000	-0.077	0.583
-179.027	-78.272	0.840	0.287
-178.012	-198.791	0.744	-0.004
-176.998	800.000	-0.055	0.194
-175.983	-167.575	-0.320	-0.013
-174.969	-152.718	-0.876	-0.062
-173.954	-200.000	0.010	0.570
-172.939	164.626	0.353	-0.495
-171.925	137.156	0.062	0.081
-170.910	-200.000	-0.078	0.607
-169.896	-136.563	0.628	-0.072
-168.881	99.194	-0.142	-0.163
-167.866	-33.368	-0.615	-0.338
-166.852	-114.933	-0.593	-0.112
-165.837	148.076	-0.200	0.268
-164.823	800.000	0.219	-0.793
-163.808	400.031	-0.414	-0.864
-162.793	20.323	0.256	-0.205
-161.779	594.374	0.058	-0.144
-160.764	171.832	-0.097	0.139
-159.750	274.808	-0.296	0.522
-158.735	800.000	0.120	0.449
-157.720	455.848	0.234	0.517
-156.706	800.000	-0.082	0.265
-155.691	800.000	-0.191	-0.658
-154.677	-115.274	-0.393	-0.074
-153.662	-75.208	0.651	0.231
-152.647	51.935	-0.486	0.460
-151.633	24.523	0.390	0.321
-150.618	-35.554	-0.774	-0.417
-149.604	-200.000	0.141	-0.877
-148.589	-59.912	-0.695	0.295
-147.574	-46.854	0.496	-0.241
-146.560	182.016	0.034	-0.050
-145.545	-117.394	0.336	0.060
-144.531	389.292	-0.186	-0.382
-143.516	-90.719	-0.914	0.262
-142.502	18.592	-0.367	0.291
-141.487	800.000	0.098	0.329
-140.472	348.641	0.349	0.683
-139.458	443.912	-0.255	0.555
-138.443	-68.366	0.632	0.244
-137.429	-14.064	0.781	0.501
-136.414	-34.215	-0.322	-0.176
-135.399	-200.000	-0.104	0.496
-134.385	-91.811	0.576	-0.163
-133.370	-200.000	0.108	-0.500
-132.356	103.406	0.294	0.342
-131.341	143.791	-0.059	-0.078
-130.326	-78.572	0.236	-0.080
-129.312	3.991	-0.473	0.343
-128.297	-109.154	0.047	-0.010
-127.283	-8.817	0.235	-0.156
-126.268	38.644	0.642	0.568
-125.253	234.813	-0.253	0.415
-124.239	-68.950	0.807	0.309
-123.224	-161.961	-0.298	0.015
-122.210	-118.038	-0.374	-0.066
-121.195	345.815	-0.401	0.783
