DTS Sentinel unit serial number:	SN413079Multiplexer serial number:	ORYXHardware model number:	OX4-SRSoftware version number:	ORYX F/W v4.00 Oryx Data Collector v3.7.2.0data status	okinstallation	princeton_trtdifferential loss correction	single-endedforward channel	channel 4reverse channel	N/Adate	2019/09/13time	14:53:34forward acquisition time	60.00reverse acquisition time	0.00gamma	496.2192k internal	0.2294k external	0.2294temperature offset calibration	1.0209default loss term (dB/km)	0.3790temperature slope calibration	1.0000multiplexer offset coefficient	1.0000multiplexer slope coefficient	1.0000fibre end	0.00T internal ref (°C)	35.62T ext. ref 1 (°C)	4.70T ext. ref 2 (°C)	31.64length (m)	temperature (°C)	Stokes	anti-Stokes-747.200	800.000	0.133	-0.402
-746.185	785.661	0.080	-0.224
-745.171	393.642	0.081	-0.173
-744.156	73.518	0.088	0.094
-743.142	-200.000	0.022	-0.221
-742.127	112.957	-0.088	0.109
-741.112	-200.000	0.005	-0.180
-740.098	-200.000	-0.027	0.382
-739.083	-146.272	-0.203	0.018
-738.069	-200.000	-0.007	0.102
-737.054	-200.000	-0.023	-0.269
-736.039	-82.031	-0.129	0.043
-735.025	-200.000	-0.043	0.341
-734.010	-166.802	-0.388	0.016
-732.996	63.045	-0.318	-0.325
-731.981	135.761	-0.034	-0.046
-730.966	-72.453	0.217	-0.082
-729.952	800.000	0.043	0.136
-728.937	-41.467	-0.349	-0.183
-727.923	664.848	0.007	-0.020
-726.908	254.409	0.160	-0.279
-725.894	159.812	-0.191	-0.272
-724.879	425.792	0.168	0.369
-723.864	-159.569	-0.317	0.018
-722.850	-76.902	-0.064	-0.023
-721.835	0.199	-0.376	-0.274
-720.821	2.098	-0.153	0.113
-719.806	-154.381	-0.133	0.009
-718.791	84.034	-0.164	-0.183
-717.777	800.000	0.051	-0.193
-716.762	281.055	-0.051	-0.094
-715.748	-200.000	-0.062	-0.304
-714.733	228.075	-0.063	-0.106
-713.718	359.202	-0.080	-0.164
-712.704	4.979	-0.360	0.270
-711.689	-90.956	-0.029	-0.009
-710.675	137.474	-0.174	-0.233
-709.660	518.526	-0.050	-0.120
-708.645	-36.039	-0.187	-0.103
-707.631	171.649	-0.174	0.255
-706.616	-200.000	-0.016	0.184
-705.602	-136.745	0.255	-0.030
-704.587	-200.000	0.053	-0.286
-703.572	20.331	0.145	0.120
-702.558	-88.065	-0.282	0.086
-701.543	-120.177	0.152	0.027
-700.529	800.000	0.033	0.105
-699.514	-14.014	0.186	-0.122
-698.499	-3.148	-0.054	0.038
-697.485	-68.704	-0.235	-0.093
-696.470	-122.519	-0.311	-0.052
-695.456	-27.948	-0.207	-0.123
-694.441	-92.599	0.271	-0.078
-693.426	48.588	-0.083	-0.079
-692.412	57.139	-0.165	-0.165
-691.397	-57.413	0.092	-0.041
-690.383	800.000	0.047	-0.172
-689.368	-48.024	-0.020	-0.010
-688.354	-200.000	-0.000	-0.025
-687.339	-200.000	-0.015	0.308
-686.324	27.489	-0.351	-0.302
-685.310	-31.271	-0.283	0.163
-684.295	-167.480	0.318	0.013
-683.281	86.174	0.139	-0.157
-682.266	36.392	-0.202	0.182
-681.251	30.012	0.071	-0.062
-680.237	-176.041	0.245	0.007
-679.222	4.256	0.105	0.078
-678.208	603.425	0.033	-0.085
-677.193	-200.000	-0.055	-0.262
-676.178	215.520	-0.254	-0.411
-675.164	-155.391	-0.210	-0.014
-674.149	-132.252	-0.164	-0.022
-673.135	-103.848	-0.226	-0.054
-672.120	65.545	-0.097	0.100
-671.105	148.725	-0.062	0.085
-670.091	-200.000	0.017	-0.141
-669.076	-84.529	-0.113	-0.036
-668.062	66.193	-0.298	-0.309
-667.047	-165.426	-0.181	0.008
-666.032	-6.941	-0.160	0.111
-665.018	-200.000	0.381	0.001
-664.003	-200.000	-0.027	-0.164
-662.989	8.845	0.177	0.136
-661.974	238.995	-0.139	-0.236
-660.959	-50.038	-0.347	0.168
-659.945	-4.466	-0.115	-0.081
-658.930	800.000	-0.060	0.184
-657.916	800.000	-0.024	0.083
-656.901	-200.000	0.032	-0.305
-655.886	425.972	0.114	-0.250
-654.872	78.381	-0.021	-0.023
-653.857	322.081	-0.124	-0.241
-652.843	800.000	0.028	-0.123
-651.828	37.673	0.153	0.138
-650.814	-129.232	0.258	0.037
-649.799	-12.296	0.212	0.141
-648.784	-23.050	0.212	0.130
-647.770	681.213	0.060	-0.160
-646.755	800.000	-0.085	0.261
-645.741	800.000	-0.030	0.096
-644.726	-84.776	0.244	-0.078
-643.711	8.273	0.166	0.127
-642.697	242.429	0.131	0.223
-641.682	-124.118	0.090	0.014
-640.668	-33.596	-0.303	0.170
-639.653	800.000	-0.052	-0.179
-638.638	-200.000	0.013	-0.251
-637.624	-122.208	0.319	0.053
-636.609	800.000	0.014	-0.062
-635.595	-200.000	-0.025	-0.156
-634.580	-33.030	0.183	-0.104
-633.565	800.000	0.013	0.053
-632.551	167.994	-0.045	0.066
-631.536	-88.458	0.285	-0.086
-630.522	-18.424	0.090	0.057
-629.507	82.631	0.156	-0.173
-628.492	152.587	-0.178	0.248
-627.478	290.895	-0.061	0.112
-626.463	81.788	-0.134	0.148
-625.449	-139.115	0.072	-0.008
-624.434	191.511	0.135	-0.206
-623.419	-200.000	0.002	-0.295
-622.405	80.371	0.341	-0.373
-621.390	800.000	0.085	0.308
-620.376	30.527	0.065	-0.056
-619.361	7.241	-0.334	0.254
-618.346	-200.000	0.013	-0.078
-617.332	24.071	0.141	0.118
-616.317	-85.007	-0.271	0.086
-615.303	-116.400	0.309	-0.058
-614.288	590.259	-0.023	0.058
-613.273	158.486	0.116	0.163
-612.259	-200.000	0.054	-0.284
-611.244	-200.000	0.022	-0.122
-610.230	708.033	0.094	-0.254
-609.215	-90.899	0.139	-0.041
-608.201	555.019	0.046	0.113
-607.186	-200.000	-0.013	-0.078
-606.171	-51.172	-0.139	-0.066
-605.157	-200.000	-0.076	0.376
-604.142	-143.563	-0.192	0.019
-603.128	800.000	-0.131	-0.461
-602.113	-33.645	-0.301	-0.169
-601.098	219.822	-0.136	-0.221
-600.084	-200.000	-0.051	-0.240
-599.069	-200.000	-0.053	0.473
-598.055	129.720	0.056	0.073
-597.040	476.762	-0.212	-0.487
-596.025	588.407	-0.063	-0.158
-595.011	-69.488	-0.208	0.081
-593.996	453.200	-0.083	-0.187
-592.982	800.000	0.076	0.226
-591.967	-27.367	0.217	0.128
-590.952	-63.649	-0.263	-0.110
-589.938	15.383	-0.418	-0.334
-588.923	249.637	0.146	0.251
-587.909	800.000	0.075	0.230
-586.894	-200.000	0.006	0.166
-585.879	800.000	-0.056	-0.233
-584.865	137.424	0.101	-0.135
-583.850	50.706	0.109	-0.105
-582.836	9.452	-0.293	0.225
-581.821	20.118	0.147	0.121
-580.806	-200.000	0.122	0.000
-579.792	-156.974	-0.032	0.002
-578.777	-200.000	-0.037	0.268
-577.763	251.991	-0.287	-0.497
-576.748	800.000	0.063	0.200
-575.733	746.335	0.045	0.123
-574.719	112.442	0.174	0.214
-573.704	181.323	-0.141	0.210
-572.690	-106.921	-0.383	0.086
-571.675	712.917	-0.017	-0.045
-570.661	-142.488	-0.061	-0.006
-569.646	210.248	-0.037	-0.058
-568.631	-89.784	-0.335	0.100
-567.617	-70.475	0.144	0.055
-566.602	68.756	0.069	0.072
-565.588	-98.945	0.018	0.005
-564.573	-200.000	0.009	-0.118
-563.558	-58.308	0.213	0.094
-562.544	-122.888	0.564	0.092
-561.529	204.317	-0.194	0.306
-560.515	7.703	0.084	0.064
-559.500	-128.749	0.093	-0.013
-558.485	-168.799	0.125	-0.005
-557.471	-42.105	-0.165	-0.086
-556.456	-1.332	-0.126	-0.090
-555.442	156.196	0.061	-0.085
-554.427	-80.761	-0.195	-0.066
-553.412	348.629	-0.108	0.217
-552.398	-44.763	0.307	-0.156
-551.383	-146.165	-0.276	-0.025
-550.369	-200.000	0.011	-0.154
-549.354	83.188	-0.084	0.093
-548.339	-136.399	-0.150	0.018
-547.325	800.000	-0.021	-0.066
-546.310	73.640	0.144	-0.153
-545.296	168.486	-0.162	-0.234
-544.281	-179.910	0.364	-0.008
-543.266	800.000	-0.067	-0.270
-542.252	56.901	0.119	0.118
-541.237	-107.354	0.091	0.020
-540.223	-63.991	-0.158	0.065
-539.208	800.000	-0.074	0.291
-538.193	142.311	0.120	-0.162
-537.179	-133.391	0.261	-0.033
-536.164	-116.909	-0.109	0.020
-535.150	48.536	-0.127	0.120
-534.135	58.334	0.145	0.145
-533.121	-184.606	0.231	-0.004
-532.106	800.000	-0.016	0.062
-531.091	800.000	-0.040	-0.176
-530.077	-182.005	0.175	0.003
-529.062	678.073	0.040	0.105
-528.048	186.579	-0.077	0.117
-527.033	-200.000	-0.027	0.184
-526.018	7.500	0.087	0.066
-525.004	-84.443	-0.142	-0.046
-523.989	415.024	0.069	-0.149
-522.975	756.122	-0.117	0.322
-521.960	-89.547	0.091	0.027
-520.945	573.049	-0.047	-0.115
-519.931	-200.000	-0.007	0.038
-518.916	274.558	0.098	0.177
-517.902	-200.000	-0.023	-0.214
-516.887	550.543	-0.099	-0.240
-515.872	-89.827	-0.191	0.057
-514.858	-16.333	-0.068	0.044
-513.843	170.929	-0.167	-0.243
-512.829	-157.242	0.474	-0.029
-511.814	282.255	-0.087	-0.158
-510.799	-200.000	0.042	-0.277
-509.785	22.075	0.119	0.099
-508.770	-79.592	0.155	0.053
-507.756	-200.000	0.042	-0.359
-506.741	-95.804	0.135	-0.037
-505.726	709.522	0.061	-0.165
-504.712	-60.390	-0.290	0.125
-503.697	800.000	0.035	0.154
-502.683	77.086	-0.141	-0.152
-501.668	133.908	-0.090	0.118
-500.653	-85.484	0.179	-0.056
-499.639	-200.000	0.052	-0.341
-498.624	104.936	-0.186	-0.223
-497.610	-200.000	0.009	0.065
-496.595	-44.145	0.114	-0.058
-495.581	-56.701	-0.338	-0.151
-494.566	-125.707	-0.327	0.050
-493.551	213.388	0.056	-0.090
-492.537	-200.000	-0.009	0.117
-491.522	-200.000	-0.031	0.152
-490.508	21.344	0.273	0.224
-489.493	-200.000	0.002	-0.437
-488.478	-200.000	-0.061	0.347
-487.464	433.600	-0.014	0.030
-486.449	-200.000	-0.042	0.549
-485.435	182.112	-0.090	-0.134
-484.420	98.995	-0.174	-0.203
-483.405	-200.000	0.058	-0.335
-482.391	-200.000	0.023	-0.213
-481.376	-104.556	-0.118	-0.028
-480.362	1.378	0.113	0.082
-479.347	410.462	0.045	-0.098
-478.332	-200.000	0.021	-0.162
-477.318	-115.340	-0.260	0.050
-476.303	-117.520	0.093	-0.017
-475.289	-145.872	0.257	0.023
-474.274	-170.567	-0.242	0.009
-473.259	101.576	-0.207	0.244
-472.245	421.736	0.101	-0.220
-471.230	37.903	0.081	0.073
-470.216	-200.000	0.013	-0.190
-469.201	-119.189	0.103	-0.018
-468.186	312.753	-0.085	-0.162
-467.172	-200.000	0.012	-0.073
-466.157	63.643	0.180	0.183
-465.143	-89.620	0.226	0.067
-464.128	132.162	-0.176	0.229
-463.113	-70.233	0.196	0.075
-462.099	800.000	-0.053	-0.195
-461.084	-51.282	0.200	0.095
-460.070	124.272	-0.050	-0.064
-459.055	-44.541	0.129	-0.065
-458.040	123.487	0.070	0.089
-457.026	204.226	0.107	0.168
-456.011	800.000	-0.066	0.261
-454.997	449.609	-0.067	0.150
-453.982	-124.013	0.195	0.031
-452.968	-103.190	0.468	0.112
-451.953	800.000	0.057	0.186
-450.938	-200.000	-0.026	-0.200
-449.924	152.520	0.036	0.050
-448.909	800.000	-0.147	0.469
-447.895	-64.750	-0.376	-0.154
-446.880	173.150	0.205	-0.299
-445.865	-94.221	0.180	0.050
-444.851	-102.251	0.260	0.063
-443.836	-11.113	0.382	0.255
-442.822	587.698	0.085	-0.212
-441.807	-9.221	-0.283	0.191
-440.792	-200.000	0.043	0.456
-439.778	-200.000	0.040	-0.350
-438.763	-200.000	0.017	-0.119
-437.749	35.934	0.053	-0.047
-436.734	-200.000	-0.057	-0.320
-435.719	-79.991	-0.090	-0.031
-434.705	-61.182	0.253	-0.108
-433.690	-154.612	0.085	-0.006
-432.676	-105.066	0.291	-0.067
-431.661	140.222	-0.181	0.241
-430.646	-7.793	0.135	-0.092
-429.632	-99.127	0.193	0.049
-428.617	512.169	-0.095	0.223
-427.603	660.870	0.022	0.056
-426.588	-200.000	0.009	-0.221
-425.573	-200.000	-0.031	-0.189
-424.559	157.234	0.107	0.149
-423.544	-200.000	0.044	-0.383
-422.530	-14.353	0.124	-0.080
-421.515	-128.745	-0.315	0.045
-420.500	-200.000	0.012	-0.170
-419.486	82.137	-0.192	0.210
-418.471	21.276	-0.237	-0.194
-417.457	-200.000	-0.012	0.060
-416.442	800.000	-0.072	-0.255
-415.428	-15.035	0.093	0.060
-414.413	674.664	0.097	0.255
-413.398	38.306	0.144	0.129
-412.384	-185.446	-0.179	0.003
-411.369	-101.226	0.116	-0.029
-410.355	124.191	0.149	-0.189
-409.340	-103.093	0.096	0.023
-408.325	-129.757	0.071	0.010
-407.311	147.282	-0.090	-0.123
-406.296	213.410	0.094	0.149
-405.282	-143.030	0.198	-0.019
-404.267	-200.000	0.045	-0.311
-403.252	242.119	-0.084	0.142
-402.238	19.412	-0.195	0.158
-401.223	93.315	0.150	0.171
-400.209	800.000	0.049	0.169
-399.194	-85.131	-0.504	-0.159
-398.179	-200.000	-0.006	0.043
-397.165	492.278	-0.116	0.268
-396.150	471.996	-0.037	0.083
-395.136	100.855	-0.021	0.025
-394.121	77.052	0.091	0.097
-393.106	-187.914	-0.198	0.003
-392.092	-55.199	-0.022	-0.010
-391.077	-200.000	-0.364	0.001
-390.063	-99.060	-0.401	0.103
-389.048	-115.572	0.085	0.016
-388.033	430.793	0.147	-0.320
-387.019	-92.334	-0.012	-0.003
-386.004	-89.588	-0.132	0.039
-384.990	194.826	0.127	0.195
-383.975	-77.060	0.135	-0.047
-382.960	800.000	-0.035	0.154
-381.946	800.000	0.062	0.172
-380.931	241.230	0.145	0.244
-379.917	800.000	0.082	0.315
-378.902	253.203	-0.070	-0.120
-377.888	-51.622	0.132	-0.062
-376.873	111.547	0.117	0.143
-375.858	-45.009	0.225	0.113
-374.844	-200.000	0.061	0.317
-373.829	113.983	0.150	0.183
-372.815	151.819	-0.090	-0.124
-371.800	-55.160	-0.042	-0.019
-370.785	-92.848	-0.292	-0.082
-369.771	171.458	0.182	0.263
-368.756	-167.996	-0.028	0.001
-367.742	-100.551	0.264	0.066
-366.727	-136.784	0.117	0.014
-365.712	-71.170	0.117	0.044
-364.698	-25.700	0.150	0.089
-363.683	800.000	-0.060	0.188
-362.669	-156.024	0.240	0.015
-361.654	-132.358	-0.167	0.022
-360.639	-200.000	0.038	0.286
-359.625	-200.000	0.008	0.074
-358.610	42.670	-0.042	0.038
-357.596	-63.048	-0.070	0.029
-356.581	-15.907	-0.265	-0.170
-355.566	18.411	0.113	0.091
-354.552	292.752	0.159	0.291
-353.537	235.514	-0.060	0.100
-352.523	800.000	-0.040	0.140
-351.508	800.000	-0.023	0.096
-350.493	68.161	-0.008	-0.009
-349.479	-142.290	0.284	-0.028
-348.464	-191.669	-0.348	0.003
-347.450	97.709	-0.087	-0.101
-346.435	-200.000	-0.014	-0.187
-345.420	59.389	-0.226	-0.225
-344.406	800.000	-0.063	0.220
-343.391	800.000	-0.077	-0.226
-342.377	49.600	-0.124	-0.117
-341.362	19.181	-0.157	0.127
-340.348	-103.169	-0.229	-0.055
-339.333	-93.602	-0.216	-0.060
-338.318	-140.206	0.303	0.032
-337.304	-200.000	-0.041	0.321
-336.289	51.729	0.233	0.223
-335.275	735.762	-0.008	0.021
-334.260	-200.000	-0.001	-0.012
-333.245	510.650	-0.134	-0.313
-332.231	-200.000	0.013	-0.204
-331.216	52.968	0.272	0.262
-330.202	-33.866	0.322	0.178
-329.187	195.971	0.119	0.183
-328.172	-200.000	-0.085	0.412
-327.158	47.157	0.115	0.107
-326.143	-200.000	-0.025	0.135
-325.129	64.997	-0.159	0.161
-324.114	-141.898	-0.352	0.035
-323.099	363.457	0.103	0.208
-322.085	-167.422	0.013	-0.001
-321.070	-22.116	0.116	-0.071
-320.056	-200.000	-0.046	0.308
-319.041	79.401	-0.023	0.025
-318.026	168.121	-0.207	0.297
-317.012	-27.818	0.334	-0.195
-315.997	-37.593	-0.195	-0.105
-314.983	-98.843	-0.157	0.040
-313.968	28.448	-0.150	0.127
-312.953	30.559	-0.151	-0.130
-311.939	443.456	0.095	-0.209
-310.924	-200.000	-0.039	-0.194
-309.910	-81.769	-0.056	-0.018
-308.895	-56.614	-0.424	0.189
-307.880	24.078	-0.084	0.070
-306.866	800.000	0.044	-0.167
-305.851	-176.528	0.254	0.007
-304.837	177.786	0.166	0.244
-303.822	-144.362	-0.185	-0.017
-302.807	213.460	0.150	0.238
-301.793	800.000	0.038	0.120
-300.778	96.496	-0.012	-0.014
-299.764	441.565	-0.103	0.227
-298.749	-73.766	0.379	0.138
-297.735	84.558	0.189	-0.208
-296.720	-148.836	-0.143	-0.012
-295.705	457.014	0.067	-0.150
-294.691	-200.000	0.007	0.053
-293.676	-187.234	0.168	-0.002
-292.662	14.672	0.116	0.091
-291.647	-124.687	0.521	0.081
-290.632	-10.428	0.036	0.024
-289.618	800.000	0.104	-0.297
-288.603	186.048	-0.140	-0.209
-287.589	-59.063	0.402	0.174
-286.574	-73.366	-0.282	-0.104
-285.559	-200.000	-0.005	-0.361
-284.545	73.054	0.165	-0.173
-283.530	-121.097	0.301	-0.051
-282.516	-100.955	0.059	-0.015
-281.501	800.000	-0.036	-0.153
-280.486	-200.000	-0.021	0.271
-279.472	-78.866	0.163	-0.056
-278.457	-30.977	0.050	0.029
-277.443	25.366	0.254	-0.212
-276.428	-146.978	0.104	0.009
-275.413	574.221	-0.244	-0.597
-274.399	505.967	-0.072	-0.167
-273.384	-200.000	0.038	0.241
-272.370	-200.000	0.045	0.217
-271.355	-200.000	0.015	0.107
-270.340	-200.000	0.020	-0.407
-269.326	-179.296	0.216	0.005
-268.311	31.222	-0.165	-0.142
-267.297	-157.989	-0.089	0.005
-266.282	242.402	0.068	-0.114
-265.267	-200.000	0.009	0.070
-264.253	-71.331	-0.254	-0.096
-263.238	165.563	-0.034	-0.049
-262.224	156.070	-0.193	0.267
-261.209	-200.000	-0.017	0.109
-260.195	-49.771	0.180	-0.086
-259.180	-153.223	-0.111	0.008
-258.165	-200.000	0.034	-0.249
-257.151	800.000	-0.031	-0.091
-256.136	-42.682	0.189	-0.096
-255.122	-55.150	-0.134	-0.060
-254.107	290.821	0.097	0.176
-253.092	265.330	0.035	0.062
-252.078	-200.000	-0.101	-0.453
-251.063	14.131	-0.266	-0.208
-250.049	34.610	-0.191	0.167
-249.034	-71.248	0.246	-0.093
-248.019	81.295	-0.143	-0.155
-247.005	70.913	-0.113	0.117
-245.990	361.437	0.154	0.309
-244.976	-118.260	0.227	0.041
-243.961	-118.900	0.058	-0.010
-242.946	3.799	-0.231	-0.169
-241.932	-35.151	-0.414	-0.226
-240.917	80.354	-0.128	-0.138
-239.903	-19.783	-0.370	-0.229
-238.888	-188.433	-0.324	0.004
-237.873	143.795	0.126	0.168
-236.859	-200.000	-0.005	0.211
-235.844	93.587	0.095	0.108
-234.830	30.643	0.104	-0.089
-233.815	800.000	-0.119	-0.347
-232.800	-41.782	0.189	-0.097
-231.786	311.727	-0.038	0.072
-230.771	68.373	-0.053	-0.054
-229.757	-200.000	-0.011	0.054
-228.742	-21.289	0.131	0.080
-227.727	-141.698	-0.420	-0.042
-226.713	182.325	0.219	0.323
-225.698	565.365	-0.114	-0.277
-224.684	-200.000	-0.013	-0.133
-223.669	89.370	-0.208	-0.232
-222.655	-106.742	-0.179	-0.040
-221.640	169.987	-0.226	0.324
-220.625	-200.000	0.033	0.231
-219.611	87.656	-0.080	-0.089
-218.596	31.856	0.345	0.297
-217.582	-8.218	0.122	-0.082
-216.567	-98.608	0.200	-0.051
-215.552	16.591	-0.173	-0.137
-214.538	-200.000	-0.009	-0.055
-213.523	-59.283	0.017	-0.007
-212.509	628.323	0.106	0.269
-211.494	37.104	-0.337	-0.299
-210.479	379.638	-0.139	-0.285
-209.465	-54.305	0.052	-0.024
-208.450	-100.131	-0.314	-0.078
-207.436	236.032	0.045	-0.074
-206.421	-200.000	-0.008	-0.052
-205.406	21.648	-0.135	0.110
-204.392	18.938	-0.112	-0.090
-203.377	-200.000	0.032	0.151
-202.363	229.088	0.126	-0.206
-201.348	-200.000	0.020	0.202
-200.333	-124.135	0.216	-0.034
-199.319	89.178	-0.049	-0.055
-198.304	-59.444	0.287	-0.124
-197.290	-133.034	-0.369	-0.047
-196.275	-200.000	-0.001	-0.191
-195.260	-94.369	0.111	0.030
-194.246	800.000	0.043	0.152
-193.231	-17.189	0.201	0.127
-192.217	-136.660	0.513	-0.059
-191.202	-200.000	0.034	-0.369
-190.187	-179.990	-0.129	-0.003
-189.173	800.000	0.046	-0.186
-188.158	-88.432	-0.256	0.077
-187.144	800.000	-0.062	0.221
-186.129	183.457	0.062	-0.092
-185.114	-160.366	-0.169	-0.009
-184.100	-144.737	0.189	0.017
-183.085	-155.900	0.316	0.020
-182.071	-139.504	-0.209	-0.022
-181.056	153.148	-0.160	0.219
-180.042	789.705	0.103	-0.282
-179.027	-71.420	-0.133	-0.050
-178.012	261.854	-0.164	0.284
-176.998	-43.880	-0.346	-0.174
-175.983	36.623	-0.289	-0.255
-174.969	-200.000	-0.001	0.059
-173.954	800.000	0.065	-0.247
-172.939	131.567	0.071	0.091
-171.925	-200.000	0.010	-0.107
-170.910	773.424	0.123	-0.337
-169.896	-200.000	0.006	-0.349
-168.881	-81.958	-0.389	-0.127
-167.866	-22.001	0.121	0.074
-166.852	117.754	-0.283	0.348
-165.837	800.000	0.020	0.072
-164.823	133.949	-0.218	0.283
-163.808	-200.000	0.014	0.293
-162.793	-31.534	-0.426	-0.239
-161.779	-176.300	0.304	0.008
-160.764	-7.377	-0.310	0.210
-159.750	738.949	-0.056	-0.151
-158.735	152.272	-0.104	0.141
-157.720	117.576	-0.050	0.062
-156.706	800.000	-0.062	-0.182
-155.691	-200.000	-0.002	-0.229
-154.677	526.845	0.045	0.105
-153.662	253.226	-0.076	-0.130
-152.647	-4.459	0.303	0.209
-151.633	62.719	-0.062	-0.062
-150.618	800.000	0.091	-0.386
-149.604	800.000	0.076	0.325
-148.589	51.701	0.198	0.188
-147.574	-200.000	-0.013	-0.109
-146.560	46.616	0.181	-0.168
-145.545	-62.127	-0.297	-0.124
-144.531	-125.118	0.136	0.021
-143.516	-11.940	0.223	0.146
-142.502	-185.740	0.145	0.002
-141.487	-200.000	0.031	0.264
-140.472	-200.000	-0.036	0.219
-139.458	292.659	0.117	-0.214
-138.443	-73.636	-0.108	0.039
-137.429	-135.089	0.480	0.058
-136.414	-105.510	0.030	0.007
-135.399	-51.778	0.249	0.116
-134.385	-3.786	-0.200	0.139
-133.370	86.854	0.064	0.070
-132.356	50.409	-0.116	0.109
-131.341	-136.480	-0.201	-0.023
-130.326	131.687	0.046	0.060
-129.312	-62.874	0.165	-0.068
-128.297	800.000	-0.103	-0.293
-127.283	304.234	0.118	-0.219
-126.268	-142.838	0.123	0.012
-125.253	-200.000	0.006	0.304
-124.239	-49.248	-0.115	0.055
-123.224	67.419	-0.250	-0.255
-122.210	30.241	-0.073	0.062
-121.195	-142.361	-0.132	0.013
