DTS Sentinel unit serial number:	SN413079Multiplexer serial number:	ORYXHardware model number:	OX4-SRSoftware version number:	ORYX F/W v4.00 Oryx Data Collector v3.7.2.0data status	okinstallation	princeton_trtdifferential loss correction	single-endedforward channel	channel 4reverse channel	N/Adate	2019/09/14time	10:01:34forward acquisition time	60.00reverse acquisition time	0.00gamma	496.2192k internal	0.2301k external	0.2301temperature offset calibration	1.0133default loss term (dB/km)	0.3790temperature slope calibration	1.0000multiplexer offset coefficient	1.0000multiplexer slope coefficient	1.0000fibre end	0.00T internal ref (°C)	33.14T ext. ref 1 (°C)	4.02T ext. ref 2 (°C)	31.87length (m)	temperature (°C)	Stokes	anti-Stokes-747.200	690.463	0.123	0.327
-746.185	91.627	-0.154	0.177
-745.171	187.286	-0.111	0.169
-744.156	499.324	-0.179	0.421
-743.142	-52.918	-0.150	0.070
-742.127	800.000	0.129	0.366
-741.112	-73.691	0.431	-0.160
-740.098	602.275	-0.067	-0.169
-739.083	564.413	0.030	-0.074
-738.069	81.215	-0.218	0.240
-737.054	-94.865	-0.112	-0.031
-736.039	-122.580	-0.313	-0.052
-735.025	800.000	0.081	0.297
-734.010	-9.775	-0.181	-0.123
-732.996	100.300	0.186	0.219
-731.981	84.239	-0.148	0.164
-730.966	354.044	-0.079	0.161
-729.952	221.016	-0.163	-0.267
-728.937	-56.238	0.317	0.144
-727.923	800.000	-0.058	0.231
-726.908	-131.567	-0.341	-0.046
-725.894	80.101	-0.156	0.171
-724.879	-125.950	-0.173	-0.027
-723.864	-200.000	-0.052	0.279
-722.850	800.000	0.032	0.137
-721.835	310.874	0.047	0.090
-720.821	76.095	-0.181	0.195
-719.806	75.802	-0.191	-0.205
-718.791	800.000	0.058	0.231
-717.777	457.653	-0.059	0.133
-716.762	164.430	0.118	0.169
-715.748	-200.000	0.032	-0.231
-714.733	-200.000	0.021	0.163
-713.718	-200.000	-0.029	0.271
-712.704	-200.000	-0.025	-0.121
-711.689	-98.893	0.287	0.074
-710.675	-35.682	0.177	0.098
-709.660	336.720	-0.031	-0.061
-708.645	800.000	0.084	-0.305
-707.631	-98.291	-0.228	0.060
-706.616	-23.754	0.122	0.075
-705.602	472.211	-0.063	0.144
-704.587	7.793	0.132	-0.100
-703.572	33.523	-0.115	-0.101
-702.558	7.882	0.186	-0.142
-701.543	-61.826	-0.165	-0.070
-700.529	242.294	-0.207	-0.353
-699.514	800.000	-0.040	-0.173
-698.499	800.000	-0.083	-0.246
-697.485	54.731	0.131	-0.128
-696.470	-78.754	0.204	0.071
-695.456	-93.129	0.063	0.018
-694.441	-74.199	-0.085	-0.031
-693.426	143.189	-0.173	-0.234
-692.412	-200.000	0.035	-0.310
-691.397	-53.131	0.070	-0.033
-690.383	-123.581	0.147	0.024
-689.368	-93.403	0.472	-0.133
-688.354	-200.000	0.002	-0.037
-687.339	-200.000	-0.019	0.101
-686.324	-41.905	-0.093	-0.049
-685.310	-92.383	-0.239	-0.068
-684.295	-80.908	-0.265	0.089
-683.281	542.870	0.108	-0.262
-682.266	-8.555	-0.238	0.162
-681.251	152.471	-0.155	-0.215
-680.237	-3.154	0.188	0.133
-679.222	-57.767	-0.208	0.092
-678.208	358.605	-0.037	0.075
-677.193	35.673	0.087	0.077
-676.178	-40.322	0.124	0.066
-675.164	158.411	0.232	-0.327
-674.149	100.749	-0.166	-0.197
-673.135	-56.352	-0.331	-0.149
-672.120	-200.000	0.010	-0.248
-671.105	-200.000	0.052	-0.343
-670.091	133.157	-0.181	-0.237
-669.076	-46.788	-0.148	0.073
-668.062	-154.687	-0.380	-0.026
-667.047	800.000	0.101	-0.435
-666.032	-152.498	-0.498	-0.036
-665.018	-200.000	0.063	-0.414
-664.003	-200.000	-0.011	0.061
-662.989	-200.000	0.041	-0.214
-661.974	-70.586	-0.049	0.019
-660.959	-200.000	0.006	0.194
-659.945	800.000	0.087	0.339
-658.930	800.000	0.037	0.105
-657.916	49.806	0.147	-0.141
-656.901	106.812	0.121	0.146
-655.886	-26.913	0.134	0.080
-654.872	171.940	-0.115	-0.168
-653.857	-84.088	-0.203	-0.065
-652.843	-200.000	0.035	0.215
-651.828	46.047	0.076	0.072
-650.814	54.875	0.124	0.122
-649.799	33.484	0.053	0.046
-648.784	-45.700	-0.504	-0.253
-647.770	78.773	-0.120	0.130
-646.755	435.779	-0.055	-0.121
-645.741	15.292	-0.432	0.344
-644.726	104.157	-0.048	-0.058
-643.711	-93.554	0.190	0.053
-642.697	-23.899	-0.308	-0.187
-641.682	-46.183	-0.296	0.148
-640.668	73.338	0.377	0.401
-639.653	-111.529	-0.205	-0.042
-638.638	157.542	-0.134	-0.188
-637.624	107.452	-0.024	0.029
-636.609	800.000	0.116	-0.336
-635.595	-200.000	-0.023	-0.236
-634.580	-51.607	-0.062	-0.029
-633.565	40.584	-0.042	0.038
-632.551	373.815	-0.057	-0.118
-631.536	54.173	0.151	-0.147
-630.522	800.000	-0.055	0.221
-629.507	791.016	-0.071	-0.199
-628.492	-200.000	-0.019	-0.356
-627.478	3.354	-0.180	-0.133
-626.463	-47.364	-0.179	-0.088
-625.449	-200.000	-0.055	0.375
-624.434	800.000	0.067	0.243
-623.419	236.678	-0.066	0.111
-622.405	-142.594	-0.133	0.013
-621.390	800.000	-0.067	-0.228
-620.376	800.000	-0.055	0.191
-619.361	-93.268	0.355	-0.100
-618.346	800.000	-0.044	-0.145
-617.332	53.846	-0.210	-0.205
-616.317	-131.418	0.200	-0.027
-615.303	-107.874	-0.130	-0.029
-614.288	-200.000	0.015	0.405
-613.273	428.679	-0.135	-0.297
-612.259	-89.291	0.257	0.077
-611.244	-142.930	-0.149	-0.015
-610.230	122.032	0.222	0.281
-609.215	381.157	0.044	0.093
-608.201	-151.529	-0.204	0.015
-607.186	-82.632	0.315	-0.103
-606.171	54.421	-0.061	-0.060
-605.157	449.316	0.117	-0.262
-604.142	80.251	-0.023	-0.026
-603.128	67.209	-0.162	0.168
-602.113	800.000	0.023	0.069
-601.098	-52.407	-0.159	-0.075
-600.084	-200.000	-0.046	0.257
-599.069	-200.000	0.008	-0.086
-598.055	597.258	0.051	0.127
-597.040	-200.000	0.022	-0.311
-596.025	-200.000	0.008	-0.069
-595.011	-114.411	0.041	-0.008
-593.996	-155.787	-0.115	0.007
-592.982	-51.534	0.118	-0.056
-591.967	-171.981	-0.124	0.004
-590.952	733.341	0.057	0.156
-589.938	-67.972	0.154	-0.061
-588.923	311.597	-0.047	-0.088
-587.909	223.093	0.272	0.444
-586.894	8.099	-0.232	-0.177
-585.879	655.172	-0.132	-0.344
-584.865	-179.557	0.154	0.003
-583.850	-113.195	-0.448	-0.089
-582.836	-121.137	-0.411	-0.070
-581.821	-67.580	-0.291	-0.116
-580.806	800.000	0.037	-0.107
-579.792	-200.000	0.011	0.320
-578.777	-48.219	0.163	0.080
-577.763	800.000	-0.094	-0.287
-576.748	-94.582	-0.324	-0.089
-575.733	492.081	-0.044	0.102
-574.719	510.052	-0.095	0.223
-573.704	-173.466	0.051	0.002
-572.690	766.775	-0.165	-0.454
-571.675	436.232	0.120	0.265
-570.661	70.217	-0.152	-0.159
-569.646	-37.304	-0.157	-0.085
-568.631	230.408	-0.090	0.149
-567.617	-51.931	-0.051	-0.024
-566.602	-200.000	0.007	-0.126
-565.588	188.733	-0.067	0.101
-564.573	-200.000	0.039	0.255
-563.558	-4.700	0.174	-0.122
-562.544	-200.000	-0.014	0.102
-561.529	95.911	0.181	-0.210
-560.515	72.824	0.314	0.332
-559.500	-200.000	0.039	0.313
-558.485	-112.311	-0.238	0.048
-557.471	-73.055	-0.152	0.057
-556.456	-155.435	-0.312	-0.020
-555.442	95.350	-0.118	-0.136
-554.427	-119.550	-0.257	-0.045
-553.412	-11.873	-0.060	-0.040
-552.398	288.142	-0.107	0.195
-551.383	-137.255	-0.342	-0.039
-550.369	-104.399	0.241	0.056
-549.354	800.000	0.095	0.321
-548.339	206.069	-0.103	0.162
-547.325	725.213	-0.260	0.700
-546.310	580.448	0.059	-0.146
-545.296	-64.344	-0.258	-0.106
-544.281	660.411	0.028	0.072
-543.266	-109.127	-0.154	-0.033
-542.252	-129.278	-0.123	0.017
-541.237	502.003	-0.071	0.166
-540.223	-80.551	0.521	0.176
-539.208	55.775	0.130	0.128
-538.193	160.540	0.145	0.204
-537.179	-149.781	0.191	0.015
-536.164	-200.000	-0.028	-0.387
-535.150	-118.663	-0.084	-0.015
-534.135	169.229	-0.142	0.205
-533.121	-150.663	0.139	0.011
-532.106	21.653	-0.094	0.077
-531.091	-200.000	-0.001	-0.255
-530.077	-103.626	-0.336	0.080
-529.062	74.963	-0.099	0.105
-528.048	72.676	-0.078	-0.082
-527.033	5.006	-0.029	0.021
-526.018	-68.547	0.127	0.050
-525.004	-100.582	-0.124	-0.031
-523.989	456.264	-0.109	0.245
-522.975	-81.102	0.045	-0.015
-521.960	-108.084	0.132	-0.029
-520.945	-200.000	0.007	0.188
-519.931	-76.503	0.274	0.097
-518.916	-95.019	0.232	-0.063
-517.902	-154.637	0.232	0.016
-516.887	90.822	0.156	-0.177
-515.872	64.369	-0.075	0.076
-514.858	290.456	-0.080	-0.147
-513.843	-200.000	-0.001	-0.044
-512.829	-200.000	0.025	0.153
-511.814	-200.000	-0.018	-0.255
-510.799	-105.605	0.216	-0.049
-509.785	89.330	0.071	-0.080
-508.770	48.754	0.139	0.132
-507.756	3.672	-0.132	0.097
-506.741	102.135	-0.175	-0.207
-505.726	73.277	-0.262	-0.277
-504.712	134.819	0.045	0.058
-503.697	331.308	0.061	-0.118
-502.683	156.293	0.164	-0.229
-501.668	181.859	0.176	-0.262
-500.653	164.890	0.207	-0.296
-499.639	-200.000	-0.065	-0.291
-498.624	-29.390	0.080	0.046
-497.610	800.000	-0.027	0.076
-496.595	210.381	0.071	0.112
-495.581	506.868	0.018	-0.043
-494.566	-98.603	0.094	-0.024
-493.551	-176.171	0.341	-0.009
-492.537	-200.000	0.058	-0.427
-491.522	3.934	0.096	-0.071
-490.508	800.000	0.093	0.261
-489.493	66.895	-0.132	-0.136
-488.478	-154.466	0.091	-0.006
-487.464	92.268	-0.125	0.142
-486.449	-200.000	-0.016	-0.073
-485.435	-4.865	-0.170	-0.119
-484.420	-200.000	0.005	0.233
-483.405	-143.542	-0.071	-0.007
-482.391	-200.000	0.009	-0.151
-481.376	-58.945	-0.316	-0.138
-480.362	369.313	0.109	0.222
-479.347	-200.000	-0.017	0.212
-478.332	-200.000	0.009	0.160
-477.318	667.546	-0.082	-0.213
-476.303	-63.920	0.159	-0.066
-475.289	208.937	-0.067	-0.106
-474.274	-185.893	-0.182	0.003
-473.259	777.457	-0.058	-0.160
-472.245	800.000	0.025	0.105
-471.230	-115.598	0.402	-0.076
-470.216	-200.000	0.065	-0.567
-469.201	381.282	-0.168	-0.348
-468.186	-100.341	-0.243	-0.061
-467.172	-100.405	0.215	0.054
-466.157	224.815	0.151	-0.246
-465.143	-200.000	0.079	-0.365
-464.128	558.891	0.100	-0.244
-463.113	55.820	-0.133	-0.130
-462.099	144.071	-0.125	-0.168
-461.084	-93.342	0.281	0.079
-460.070	395.360	-0.103	0.216
-459.055	48.020	0.264	0.248
-458.040	-200.000	0.031	-0.168
-457.026	-182.095	0.148	-0.003
-456.011	720.092	-0.061	-0.164
-454.997	-129.566	-0.306	-0.043
-453.982	134.423	0.184	0.241
-452.968	1.999	0.135	0.098
-451.953	89.437	-0.158	0.178
-450.938	348.517	-0.135	0.269
-449.924	-190.485	-0.644	0.007
-448.909	-200.000	0.041	0.219
-447.895	-15.771	0.145	-0.093
-446.880	147.399	-0.134	0.182
-445.865	-16.409	0.082	-0.053
-444.851	-88.885	-0.062	0.018
-443.836	-200.000	-0.036	0.253
-442.822	268.012	-0.105	0.185
-441.807	-163.070	-0.276	-0.013
-440.792	-200.000	-0.073	0.347
-439.778	2.970	0.382	0.279
-438.763	-23.018	-0.142	0.086
-437.749	92.220	0.312	-0.354
-436.734	-200.000	0.039	0.000
-435.719	-200.000	-0.005	0.223
-434.705	-200.000	-0.052	0.242
-433.690	-65.560	0.363	-0.147
-432.676	-51.784	0.318	-0.149
-431.661	-200.000	0.032	0.220
-430.646	-105.757	-0.287	0.065
-429.632	800.000	-0.076	0.306
-428.617	263.862	0.077	0.134
-427.603	-57.961	0.329	-0.145
-426.588	124.755	0.111	-0.141
-425.573	-200.000	0.013	-0.135
-424.559	-122.199	-0.345	-0.057
-423.544	800.000	-0.013	0.052
-422.530	-200.000	-0.013	0.081
-421.515	-50.092	-0.291	-0.139
-420.500	-109.098	-0.147	-0.032
-419.486	-133.280	0.551	-0.070
-418.471	-200.000	0.040	-0.275
-417.457	-64.875	-0.179	0.073
-416.442	19.353	0.133	0.107
-415.428	122.908	-0.204	-0.257
-414.413	-200.000	-0.031	0.169
-413.398	52.607	0.085	-0.082
-412.384	84.181	0.188	0.206
-411.369	91.180	0.121	0.137
-410.355	491.159	0.033	-0.076
-409.340	134.418	0.108	-0.141
-408.325	-200.000	-0.063	0.284
-407.311	-136.155	0.220	0.026
-406.296	-73.340	0.233	-0.086
-405.282	85.390	0.207	-0.228
-404.267	105.317	-0.127	0.151
-403.252	54.540	0.045	-0.044
-402.238	-200.000	-0.006	-0.080
-401.223	599.623	0.131	0.328
-400.209	-200.000	-0.022	-0.210
-399.194	154.067	-0.139	0.192
-398.179	-115.285	0.060	-0.011
-397.165	684.586	-0.048	0.127
-396.150	800.000	-0.048	-0.165
-395.136	-25.013	-0.201	0.120
-394.121	800.000	-0.037	-0.149
-393.106	-104.338	-0.143	0.033
-392.092	101.529	0.166	-0.194
-391.077	-41.699	-0.123	-0.063
-390.063	136.301	-0.077	0.101
-389.048	-41.003	-0.311	-0.161
-388.033	800.000	-0.089	0.331
-387.019	800.000	0.102	0.364
-386.004	-110.571	0.291	-0.061
-384.990	-139.193	-0.307	0.033
-383.975	-200.000	-0.061	-0.339
-382.960	-118.569	-0.175	-0.031
-381.946	12.677	-0.160	-0.124
-380.931	800.000	-0.038	0.128
-379.917	21.723	0.296	-0.242
-378.902	-67.411	0.278	0.110
-377.888	800.000	0.050	-0.162
-376.873	-75.392	-0.228	0.082
-375.858	-116.816	-0.167	0.031
-374.844	-140.459	-0.094	0.010
-373.829	-113.074	0.287	-0.057
-372.815	-200.000	0.047	-0.236
-371.800	9.957	0.011	0.008
-370.785	-200.000	-0.021	0.168
-369.771	294.434	0.111	0.204
-368.756	334.856	-0.093	-0.181
-367.742	-200.000	0.032	-0.398
-366.727	80.065	0.248	-0.267
-365.712	-200.000	0.002	0.149
-364.698	-19.466	-0.239	0.148
-363.683	315.259	0.090	0.170
-362.669	-67.439	0.065	0.026
-361.654	5.376	-0.123	0.091
-360.639	3.397	0.065	0.048
-359.625	62.489	0.147	-0.147
-358.610	169.234	0.180	-0.258
-357.596	50.910	0.158	-0.151
-356.581	-3.032	0.091	0.064
-355.566	-195.539	0.243	0.002
-354.552	-161.635	-0.267	-0.014
-353.537	-200.000	-0.000	-0.178
-352.523	22.777	-0.139	-0.114
-351.508	800.000	-0.056	0.172
-350.493	-96.774	0.120	0.032
-349.479	54.551	0.154	-0.149
-348.464	23.126	-0.100	0.082
-347.450	-200.000	0.037	0.397
-346.435	-128.009	0.201	-0.029
-345.420	-101.247	-0.434	0.106
-344.406	13.428	-0.215	-0.167
-343.391	-200.000	-0.013	0.088
-342.377	800.000	-0.119	-0.356
-341.362	49.582	0.083	0.078
-340.348	5.560	-0.122	-0.091
-339.333	347.005	-0.091	0.180
-338.318	561.765	-0.088	-0.214
-337.304	-63.839	-0.115	-0.047
-336.289	-111.534	-0.186	0.038
-335.275	-43.786	-0.170	0.086
-334.260	-56.525	-0.324	-0.144
-333.245	247.106	-0.133	-0.225
-332.231	367.287	0.010	0.021
-331.216	73.774	0.249	0.261
-330.202	98.291	0.076	-0.088
-329.187	-13.232	-0.208	-0.135
-328.172	-82.057	0.153	-0.050
-327.158	443.240	-0.092	0.202
-326.143	213.509	0.099	-0.157
-325.129	117.470	-0.045	-0.055
-324.114	-23.308	-0.154	-0.093
-323.099	-20.026	0.360	-0.223
-322.085	-200.000	-0.027	0.175
-321.070	126.369	-0.179	0.227
-320.056	-106.353	-0.377	-0.085
-319.041	-125.558	0.457	-0.070
-318.026	800.000	0.062	-0.208
-317.012	-124.772	0.088	0.014
-315.997	-200.000	0.004	-0.176
-314.983	76.607	-0.172	0.182
-313.968	77.304	-0.205	0.219
-312.953	-40.488	-0.141	0.073
-311.939	-26.045	-0.319	-0.188
-310.924	720.347	-0.064	0.170
-309.910	-152.616	0.276	0.020
-308.895	800.000	-0.023	-0.090
-307.880	697.910	-0.012	0.032
-306.866	18.522	0.201	-0.161
-305.851	800.000	0.104	-0.367
-304.837	-74.512	-0.290	-0.105
-303.822	-26.113	0.257	0.152
-302.807	-175.404	0.287	0.008
-301.793	-16.369	-0.130	-0.083
-300.778	-159.926	-0.062	0.003
-299.764	-200.000	-0.007	-0.120
-298.749	529.040	0.092	-0.217
-297.735	132.918	0.205	0.265
-296.720	100.322	0.107	0.124
-295.705	180.884	0.045	0.067
-294.691	-200.000	-0.007	-0.185
-293.676	40.467	0.195	-0.176
-292.662	-200.000	-0.044	-0.255
-291.647	229.039	-0.198	0.324
-290.632	-28.841	0.302	-0.174
-289.618	-127.159	0.346	-0.051
-288.603	658.304	-0.069	0.178
-287.589	-200.000	0.000	0.094
-286.574	36.002	0.182	-0.161
-285.559	106.405	-0.146	0.173
-284.545	7.073	0.126	0.094
-283.530	214.592	0.031	0.048
-282.516	232.121	0.173	-0.285
-281.501	-110.300	0.089	-0.018
-280.486	-129.878	0.116	-0.016
-279.472	-69.101	0.222	0.086
-278.457	98.717	0.054	0.062
-277.443	-55.207	-0.178	0.080
-276.428	298.329	0.055	0.102
-275.413	44.162	-0.059	0.054
-274.399	-171.074	0.310	0.011
-273.384	537.209	-0.074	-0.176
-272.370	233.414	-0.080	-0.132
-271.355	645.263	-0.114	0.292
-270.340	800.000	0.020	-0.068
-269.326	-151.424	0.075	-0.006
-268.311	-66.862	0.370	0.146
-267.297	216.033	0.230	0.365
-266.282	-81.051	0.084	0.028
-265.267	-200.000	0.032	-0.211
-264.253	651.679	0.083	0.213
-263.238	-132.228	0.059	-0.008
-262.224	48.851	-0.071	-0.066
-261.209	-114.083	-0.193	-0.037
-260.195	-148.324	0.110	0.009
-259.180	16.155	0.109	0.086
-258.165	-141.724	0.182	0.018
-257.151	173.280	0.209	-0.301
-256.136	63.774	-0.119	-0.119
-255.122	50.375	-0.154	0.145
-254.107	99.947	-0.241	0.279
-253.092	-35.649	0.265	-0.144
-252.078	-37.976	-0.104	0.055
-251.063	-200.000	0.055	0.301
-250.049	-200.000	-0.016	0.119
-249.034	3.370	0.302	-0.220
-248.019	-129.410	0.476	-0.066
-247.005	-137.282	-0.118	0.013
-245.990	-112.255	-0.220	-0.044
-244.976	-48.744	0.177	0.085
-243.961	-200.000	-0.056	-0.337
-242.946	-71.903	-0.151	0.056
-241.932	-68.416	0.348	-0.135
-240.917	-200.000	0.071	-0.426
-239.903	800.000	-0.134	0.422
-238.888	-60.467	-0.307	-0.131
-237.873	-200.000	-0.014	-0.160
-236.859	-37.209	0.320	-0.171
-235.844	-70.330	-0.203	-0.077
-234.830	-138.587	0.173	-0.019
-233.815	-200.000	-0.047	0.364
-232.800	-93.105	0.137	-0.038
-231.786	-17.599	0.031	0.020
-230.771	61.516	0.129	0.128
-229.757	360.474	0.129	0.259
-228.742	-61.415	0.062	-0.026
-227.727	-33.031	0.045	-0.025
-226.713	-59.696	-0.303	0.130
-225.698	138.537	-0.295	0.386
-224.684	-70.646	-0.065	-0.025
-223.669	-200.000	0.000	-0.075
-222.655	-73.013	0.244	0.089
-221.640	-130.238	-0.270	0.037
-220.625	319.186	-0.126	0.239
-219.611	-44.970	0.244	-0.121
-218.596	99.665	-0.175	-0.202
-217.582	-200.000	0.034	0.228
-216.567	-153.261	-0.156	0.011
-215.552	331.691	-0.039	-0.075
-214.538	-82.749	-0.161	0.052
-213.523	-77.138	0.233	-0.081
-212.509	128.865	-0.146	0.185
-211.494	722.799	0.067	-0.178
-210.479	800.000	0.150	0.461
-209.465	-200.000	-0.015	0.202
-208.450	20.792	-0.083	-0.067
-207.436	190.916	0.258	0.387
-206.421	-142.170	-0.225	-0.022
-205.406	78.489	0.292	0.312
-204.392	-200.000	-0.007	-0.366
-203.377	-112.910	-0.088	0.017
-202.363	-27.307	0.287	0.167
-201.348	-17.240	-0.082	0.051
-200.333	-34.327	0.047	-0.026
-199.319	7.096	-0.112	0.083
-198.304	567.314	0.110	0.267
-197.290	-200.000	0.048	0.292
-196.275	327.113	-0.080	0.152
-195.260	-2.238	-0.300	0.210
-194.246	-200.000	-0.003	0.035
-193.231	266.343	-0.119	-0.207
-192.217	166.022	-0.199	-0.281
-191.202	-179.588	-0.368	-0.008
-190.187	1.307	0.171	-0.122
-189.173	800.000	-0.047	-0.162
-188.158	-128.423	-0.043	-0.006
-187.144	-200.000	-0.027	-0.158
-186.129	217.322	0.061	-0.097
-185.114	29.252	0.066	0.056
-184.100	147.446	-0.131	0.176
-183.085	669.999	0.120	-0.310
-182.071	-196.103	0.331	-0.002
-181.056	-200.000	-0.003	-0.055
-180.042	799.508	0.065	0.180
-179.027	-110.215	0.178	-0.037
-178.012	684.303	0.090	0.234
-176.998	16.943	-0.162	0.128
-175.983	-98.902	-0.064	0.016
-174.969	-167.806	-0.166	0.007
-173.954	98.437	0.272	-0.313
-172.939	116.919	0.132	-0.161
-171.925	38.548	0.233	-0.207
-170.910	69.344	0.301	-0.309
-169.896	-4.789	-0.123	-0.084
-168.881	224.423	-0.108	0.174
-167.866	-89.948	0.332	0.097
-166.852	604.594	0.134	-0.334
-165.837	70.126	0.137	-0.141
-164.823	428.800	-0.096	0.208
-163.808	-88.224	0.264	0.079
-162.793	279.821	-0.080	0.142
-161.779	47.521	0.316	-0.294
-160.764	-46.032	0.157	0.077
-159.750	-134.711	-0.129	-0.016
-158.735	138.440	-0.169	0.221
-157.720	96.209	0.244	0.278
-156.706	-200.000	0.037	0.267
-155.691	127.315	-0.257	0.325
-154.677	159.855	-0.106	-0.147
-153.662	-134.791	-0.386	-0.047
-152.647	667.243	0.077	-0.198
-151.633	-105.185	-0.280	0.064
-150.618	537.234	-0.094	-0.223
-149.604	-91.345	0.086	-0.024
-148.589	800.000	-0.012	-0.033
-147.574	-106.560	0.147	0.033
-146.560	-124.513	-0.271	-0.042
-145.545	152.043	-0.246	-0.335
-144.531	-68.095	-0.013	0.005
-143.516	270.675	-0.154	0.270
-142.502	-53.444	-0.037	-0.017
-141.487	800.000	-0.018	0.063
-140.472	-0.272	-0.290	0.205
-139.458	-15.161	-0.192	-0.122
-138.443	-28.092	-0.242	-0.139
-137.429	-200.000	-0.041	0.225
-136.414	-82.591	-0.171	0.055
-135.399	-91.450	-0.126	0.036
-134.385	-22.947	0.257	0.154
-133.370	211.839	0.145	0.227
-132.356	-38.568	0.321	-0.169
-131.341	213.808	0.189	0.297
-130.326	-81.378	0.547	0.179
-129.312	436.960	-0.126	0.274
-128.297	-157.569	-0.037	-0.002
-127.283	310.673	0.069	-0.128
-126.268	9.245	-0.207	-0.156
-125.253	-20.897	0.257	-0.157
-124.239	274.089	0.107	0.188
-123.224	-42.885	0.412	-0.208
-122.210	71.704	-0.069	0.072
-121.195	133.905	0.213	-0.274
