DTS Sentinel unit serial number:	SN413079Multiplexer serial number:	ORYXHardware model number:	OX4-SRSoftware version number:	ORYX F/W v4.00 Oryx Data Collector v3.7.2.0data status	okinstallation	princeton_trtdifferential loss correction	single-endedforward channel	channel 4reverse channel	N/Adate	2019/09/15time	03:13:35forward acquisition time	60.00reverse acquisition time	0.00gamma	496.2192k internal	0.2310k external	0.2310temperature offset calibration	1.0034default loss term (dB/km)	0.3790temperature slope calibration	1.0000multiplexer offset coefficient	1.0000multiplexer slope coefficient	1.0000fibre end	0.00T internal ref (°C)	31.12T ext. ref 1 (°C)	4.59T ext. ref 2 (°C)	25.75length (m)	temperature (°C)	Stokes	anti-Stokes-747.200	-10.139	0.275	0.186
-746.185	-83.974	-0.292	0.094
-745.171	-200.000	-0.013	0.110
-744.156	-200.000	0.019	-0.297
-743.142	-47.481	0.252	0.124
-742.127	-86.370	-0.094	0.029
-741.112	-37.120	0.208	-0.113
-740.098	-200.000	0.022	-0.215
-739.083	-200.000	0.025	-0.332
-738.069	-22.942	-0.381	0.233
-737.054	37.225	-0.349	0.314
-736.039	146.276	-0.257	0.350
-735.025	208.825	-0.117	-0.186
-734.010	-88.172	-0.027	-0.008
-732.996	345.335	-0.196	-0.391
-731.981	-93.328	-0.238	0.067
-730.966	-9.553	-0.273	-0.185
-729.952	-127.916	0.162	0.024
-728.937	131.984	-0.098	0.128
-727.923	6.314	-0.123	-0.093
-726.908	-131.285	0.097	0.013
-725.894	-166.370	0.316	-0.013
-724.879	-200.000	0.026	0.285
-723.864	406.117	-0.065	0.140
-722.850	269.294	-0.136	-0.243
-721.835	97.553	-0.315	-0.368
-720.821	279.779	0.018	-0.032
-719.806	-200.000	-0.021	0.246
-718.791	800.000	0.008	0.023
-717.777	-98.064	0.190	-0.050
-716.762	204.102	0.157	-0.246
-715.748	-133.729	-0.366	0.046
-714.733	-200.000	-0.000	-0.191
-713.718	800.000	0.059	0.210
-712.704	-64.560	0.258	-0.106
-711.689	-123.068	-0.299	-0.049
-710.675	-81.386	-0.095	0.032
-709.660	-95.865	-0.235	-0.064
-708.645	-99.034	-0.297	-0.076
-707.631	-200.000	0.000	0.099
-706.616	28.391	0.032	0.028
-705.602	546.665	-0.063	0.153
-704.587	-78.553	-0.346	-0.120
-703.572	545.925	0.091	0.222
-702.558	800.000	-0.081	-0.279
-701.543	409.749	-0.075	-0.161
-700.529	52.918	0.031	0.030
-699.514	-200.000	0.070	0.345
-698.499	800.000	0.133	-0.433
-697.485	13.789	-0.029	-0.023
-696.470	800.000	0.041	-0.146
-695.456	281.565	0.059	-0.107
-694.441	-103.254	-0.288	-0.069
-693.426	-40.985	-0.401	-0.210
-692.412	5.819	0.256	-0.192
-691.397	57.735	0.141	0.140
-690.383	691.598	0.086	0.227
-689.368	572.894	-0.107	0.263
-688.354	800.000	0.058	-0.254
-687.339	800.000	-0.053	0.153
-686.324	800.000	0.049	-0.157
-685.310	-14.911	0.211	-0.137
-684.295	74.188	-0.340	-0.362
-683.281	139.088	-0.146	-0.194
-682.266	-84.491	-0.193	0.062
-681.251	-124.044	-0.231	-0.037
-680.237	55.168	-0.176	0.172
-679.222	74.862	0.157	-0.167
-678.208	800.000	-0.093	-0.285
-677.193	-160.789	-0.352	0.019
-676.178	748.812	-0.136	0.371
-675.164	-200.000	-0.013	-0.203
-674.149	-200.000	0.032	-0.287
-673.135	530.367	0.109	-0.261
-672.120	-124.083	0.269	0.043
-671.105	-31.268	-0.044	-0.025
-670.091	-200.000	0.006	-0.069
-669.076	34.710	-0.150	0.133
-668.062	-200.000	0.081	-0.391
-667.047	-200.000	-0.070	0.568
-666.032	-8.305	0.167	-0.114
-665.018	-200.000	-0.010	0.170
-664.003	153.274	-0.082	-0.114
-662.989	-49.776	-0.043	-0.020
-661.974	112.844	-0.183	-0.225
-660.959	153.265	-0.157	0.217
-659.945	-86.920	-0.061	0.019
-658.930	291.608	-0.210	0.388
-657.916	252.910	-0.117	-0.203
-656.901	78.722	0.219	0.237
-655.886	49.903	0.165	-0.157
-654.872	-71.363	-0.160	0.061
-653.857	329.370	-0.101	0.197
-652.843	-60.809	0.188	-0.080
-651.828	800.000	0.032	-0.123
-650.814	206.752	-0.048	-0.075
-649.799	800.000	-0.073	-0.224
-648.784	-43.163	0.171	0.088
-647.770	42.612	-0.351	-0.323
-646.755	202.605	0.138	-0.216
-645.741	163.665	-0.150	0.213
-644.726	-200.000	-0.104	-0.467
-643.711	-51.773	-0.161	-0.076
-642.697	188.710	0.081	-0.123
-641.682	2.057	0.167	0.122
-640.668	-80.108	-0.269	-0.091
-639.653	19.650	-0.097	0.079
-638.638	-200.000	0.010	0.419
-637.624	-200.000	0.019	0.192
-636.609	132.333	0.115	0.150
-635.595	-40.402	-0.323	0.170
-634.580	721.046	-0.031	-0.084
-633.565	-124.225	-0.161	0.025
-632.551	117.480	-0.155	0.193
-631.536	-145.361	-0.196	-0.018
-630.522	800.000	0.111	-0.439
-629.507	12.710	0.305	-0.238
-628.492	25.527	0.083	-0.070
-627.478	127.991	0.100	-0.129
-626.463	259.737	0.170	0.297
-625.449	-96.453	-0.072	0.019
-624.434	-73.300	-0.129	-0.048
-623.419	614.853	-0.062	0.157
-622.405	573.820	0.035	0.086
-621.390	34.784	0.205	-0.181
-620.376	-81.365	0.210	0.070
-619.361	11.535	-0.383	0.297
-618.346	-115.177	0.123	-0.024
-617.332	367.850	0.201	-0.411
-616.317	211.166	-0.061	0.096
-615.303	-162.318	0.122	-0.006
-614.288	136.089	-0.161	0.211
-613.273	10.849	0.116	-0.089
-612.259	-155.458	0.245	-0.016
-611.244	-132.478	-0.406	0.053
-610.230	198.675	-0.177	0.274
-609.215	125.374	-0.140	-0.178
-608.201	440.778	0.155	-0.343
-607.186	260.491	0.172	0.300
-606.171	241.440	-0.058	0.098
-605.157	-200.000	-0.015	0.317
-604.142	-7.470	0.193	-0.132
-603.128	224.145	-0.187	-0.305
-602.113	114.120	0.232	-0.285
-601.098	615.798	0.024	-0.061
-600.084	-105.060	0.257	0.059
-599.069	-77.314	0.198	-0.070
-598.055	-200.000	0.001	0.334
-597.040	-9.378	0.126	-0.085
-596.025	521.267	0.142	0.337
-595.011	-7.689	0.101	0.069
-593.996	-63.202	-0.145	0.060
-592.982	-27.135	-0.290	0.171
-591.967	221.337	0.137	0.221
-590.952	376.541	0.104	-0.214
-589.938	800.000	-0.079	-0.261
-588.923	-200.000	-0.044	-0.439
-587.909	-162.544	-0.205	-0.010
-586.894	-97.291	-0.246	0.065
-585.879	86.238	-0.111	-0.123
-584.865	19.053	-0.243	-0.196
-583.850	-200.000	-0.011	0.109
-582.836	-17.649	-0.170	-0.108
-581.821	-13.681	-0.472	-0.308
-580.806	-200.000	-0.042	-0.210
-579.792	-34.305	-0.311	0.172
-578.777	-103.002	0.331	-0.079
-577.763	122.547	0.127	-0.160
-576.748	-92.305	-0.491	-0.140
-575.733	-35.126	0.274	-0.150
-574.719	-123.643	-0.154	0.025
-573.704	167.794	-0.127	-0.182
-572.690	-200.000	0.056	-0.279
-571.675	73.781	-0.117	-0.124
-570.661	-80.252	0.112	-0.038
-569.646	-200.000	-0.021	-0.193
-568.631	137.182	0.117	-0.154
-567.617	149.405	0.181	-0.247
-566.602	-41.399	-0.142	0.074
-565.588	-66.836	-0.175	0.070
-564.573	-112.482	-0.040	0.008
-563.558	-167.379	-0.081	0.003
-562.544	-121.719	-0.090	0.015
-561.529	-64.911	-0.466	-0.190
-560.515	-35.812	-0.262	-0.143
-559.500	112.641	-0.059	0.072
-558.485	800.000	0.033	-0.099
-557.471	71.096	-0.091	0.095
-556.456	135.935	0.093	0.122
-555.442	-54.769	-0.048	0.022
-554.427	-85.382	-0.044	-0.014
-553.412	800.000	-0.012	0.039
-552.398	98.925	-0.199	0.231
-551.383	-108.117	-0.161	0.035
-550.369	-141.742	-0.249	0.025
-549.354	-91.679	-0.077	-0.022
-548.339	-147.945	-0.273	-0.023
-547.325	25.601	-0.135	0.113
-546.310	25.874	-0.146	-0.123
-545.296	74.922	0.386	-0.409
-544.281	36.006	0.179	-0.159
-543.266	408.655	-0.017	-0.036
-542.252	-168.579	0.029	0.001
-541.237	-200.000	0.002	0.308
-540.223	-155.474	0.542	0.035
-539.208	129.620	-0.185	-0.238
-538.193	-131.200	0.099	-0.013
-537.179	197.188	0.189	-0.290
-536.164	172.851	0.082	0.119
-535.150	-73.573	-0.045	0.017
-534.135	-200.000	-0.002	-0.198
-533.121	-141.166	0.056	-0.006
-532.106	316.644	0.141	0.267
-531.091	-32.882	0.046	0.026
-530.077	800.000	0.119	0.382
-529.062	523.949	-0.094	-0.222
-528.048	-73.925	0.272	-0.100
-527.033	-39.426	-0.042	0.022
-526.018	-200.000	-0.038	0.253
-525.004	-112.424	0.033	0.007
-523.989	-108.807	-0.169	-0.036
-522.975	-105.361	-0.400	-0.092
-521.960	-87.091	0.313	0.096
-520.945	71.245	0.085	-0.088
-519.931	-79.383	-0.256	-0.087
-518.916	-42.957	-0.081	0.041
-517.902	685.915	0.095	-0.249
-516.887	-200.000	0.059	-0.340
-515.872	235.931	0.066	0.110
-514.858	108.052	-0.173	-0.208
-513.843	-182.503	0.220	-0.004
-512.829	-100.586	0.256	-0.064
-511.814	800.000	0.139	0.462
-510.799	-6.298	-0.179	0.123
-509.785	544.802	-0.056	0.135
-508.770	37.816	0.082	0.073
-507.756	800.000	0.066	0.269
-506.741	127.542	0.200	0.255
-505.726	-32.716	0.375	-0.210
-504.712	149.118	0.070	-0.095
-503.697	78.812	-0.073	0.078
-502.683	800.000	-0.049	0.165
-501.668	-200.000	-0.029	-0.377
-500.653	130.703	-0.140	-0.181
-499.639	-2.514	0.423	0.298
-498.624	-200.000	-0.001	-0.128
-497.610	-16.331	0.134	0.086
-496.595	1.884	-0.197	-0.143
-495.581	-70.920	0.168	0.064
-494.566	-98.286	0.149	0.038
-493.551	800.000	-0.103	0.305
-492.537	-138.240	0.219	0.024
-491.522	282.097	0.183	0.330
-490.508	6.874	0.120	-0.090
-489.493	-124.945	-0.169	-0.026
-488.478	-200.000	0.016	0.076
-487.464	-200.000	0.029	-0.294
-486.449	6.278	-0.225	-0.168
-485.435	-12.914	0.089	0.058
-484.420	-16.904	0.069	0.044
-483.405	-25.987	-0.362	0.214
-482.391	-177.771	-0.452	-0.011
-481.376	26.934	0.058	0.049
-480.362	-65.466	-0.270	0.109
-479.347	511.425	-0.120	0.281
-478.332	-76.365	-0.238	0.084
-477.318	-80.633	-0.420	-0.141
-476.303	-93.045	-0.239	0.067
-475.289	286.041	0.112	-0.203
-474.274	53.052	0.089	-0.085
-473.259	-90.908	-0.223	0.064
-472.245	143.380	0.174	0.233
-471.230	3.461	-0.146	0.107
-470.216	103.407	0.156	-0.184
-469.201	-66.911	-0.287	-0.114
-468.186	250.651	0.038	-0.064
-467.172	242.572	-0.204	-0.343
-466.157	104.058	0.304	0.359
-465.143	280.394	-0.083	0.150
-464.128	-26.259	-0.083	-0.049
-463.113	421.108	-0.071	0.153
-462.099	-122.167	0.570	0.094
-461.084	281.056	-0.241	0.433
-460.070	447.023	0.116	0.255
-459.055	-19.485	0.225	0.140
-458.040	250.358	0.149	-0.254
-457.026	-83.681	0.151	-0.048
-456.011	56.703	-0.167	0.163
-454.997	-82.751	0.200	-0.065
-453.982	-200.000	-0.011	-0.058
-452.968	-107.309	0.353	-0.078
-451.953	490.075	0.189	0.434
-450.938	-81.383	-0.046	0.015
-449.924	-200.000	-0.068	0.333
-448.909	-138.194	0.042	0.005
-447.895	313.458	-0.098	-0.185
-446.880	421.042	-0.041	0.089
-445.865	201.939	0.040	-0.063
-444.851	-81.084	0.082	0.027
-443.836	-200.000	-0.028	0.212
-442.822	29.112	-0.035	-0.030
-441.807	-200.000	0.029	0.305
-440.792	428.906	0.145	-0.314
-439.778	800.000	0.101	-0.336
-438.763	35.123	0.168	-0.147
-437.749	-43.470	0.185	-0.094
-436.734	240.595	0.209	0.350
-435.719	61.634	-0.247	0.246
-434.705	38.369	-0.131	0.117
-433.690	-107.314	0.190	-0.042
-432.676	-122.304	0.090	0.015
-431.661	257.298	0.101	0.174
-430.646	-200.000	0.008	-0.376
-429.632	800.000	0.120	0.385
-428.617	800.000	-0.011	-0.047
-427.603	-1.179	-0.299	-0.212
-426.588	-86.424	-0.316	0.097
-425.573	-38.955	0.132	-0.070
-424.559	-106.082	0.173	0.039
-423.544	-200.000	0.009	-0.169
-422.530	-200.000	-0.067	0.302
-421.515	119.035	0.182	-0.225
-420.500	-8.532	0.050	0.033
-419.486	-200.000	0.033	-0.171
-418.471	606.554	0.075	-0.186
-417.457	585.802	0.026	-0.064
-416.442	-23.341	0.146	0.088
-415.428	-26.720	0.355	-0.208
-414.413	-200.000	-0.100	-0.449
-413.398	-158.942	-0.346	-0.020
-412.384	288.936	-0.116	-0.210
-411.369	-200.000	-0.001	0.118
-410.355	122.110	-0.161	-0.201
-409.340	112.601	-0.091	-0.111
-408.325	-200.000	0.007	-0.220
-407.311	-200.000	0.014	0.098
-406.296	39.149	0.118	-0.106
-405.282	-200.000	-0.004	0.111
-404.267	-43.662	0.160	0.081
-403.252	-96.331	-0.397	-0.105
-402.238	800.000	0.029	-0.088
-401.223	761.064	0.014	0.038
-400.209	-1.616	0.066	-0.047
-399.194	9.273	0.269	0.204
-398.179	-3.000	-0.055	0.039
-397.165	-98.847	-0.277	0.071
-396.150	367.157	0.171	0.346
-395.136	-54.693	0.267	-0.121
-394.121	106.021	0.152	-0.180
-393.106	20.500	-0.163	-0.132
-392.092	-200.000	-0.047	0.237
-391.077	50.244	0.214	-0.203
-390.063	85.912	-0.157	0.172
-389.048	-200.000	-0.048	0.235
-388.033	16.924	-0.173	0.137
-387.019	-200.000	0.018	0.096
-386.004	-56.796	0.071	0.031
-384.990	61.623	-0.099	0.099
-383.975	-200.000	0.017	0.114
-382.960	29.143	0.201	-0.171
-381.946	724.412	0.051	-0.137
-380.931	-200.000	-0.046	-0.307
-379.917	-119.697	-0.204	0.035
-378.902	536.249	0.032	0.076
-377.888	-200.000	-0.004	-0.023
-376.873	-22.494	-0.151	-0.091
-375.858	-125.557	-0.355	-0.054
-374.844	548.185	0.111	0.267
-373.829	-200.000	-0.043	-0.292
-372.815	761.137	-0.088	-0.238
-371.800	154.853	0.141	0.193
-370.785	88.632	-0.206	-0.229
-369.771	-84.658	-0.220	0.069
-368.756	118.539	0.147	0.181
-367.742	800.000	0.009	-0.030
-366.727	141.713	0.103	0.136
-365.712	-49.997	0.070	-0.033
-364.698	-97.526	-0.327	0.085
-363.683	-200.000	-0.003	-0.104
-362.669	-77.316	-0.201	0.070
-361.654	64.443	0.248	-0.250
-360.639	-200.000	-0.026	0.349
-359.625	-114.717	-0.367	-0.070
-358.610	-87.530	-0.165	0.050
-357.596	592.666	0.132	-0.327
-356.581	175.770	-0.122	0.177
-355.566	218.988	0.185	-0.295
-354.552	94.034	-0.115	-0.131
-353.537	111.289	-0.061	-0.073
-352.523	169.860	-0.014	0.020
-351.508	-53.614	-0.134	-0.061
-350.493	800.000	-0.017	0.050
-349.479	-140.711	0.308	-0.032
-348.464	-200.000	-0.005	0.083
-347.450	-80.091	0.050	0.017
-346.435	-49.833	0.051	0.024
-345.420	-200.000	-0.065	-0.309
-344.406	-150.580	0.121	0.009
-343.391	149.761	0.318	-0.430
-342.377	-200.000	0.009	0.046
-341.362	-41.648	0.182	0.093
-340.348	62.746	-0.211	0.211
-339.333	800.000	-0.035	-0.119
-338.318	800.000	-0.052	0.177
-337.304	-134.600	-0.227	-0.028
-336.289	800.000	-0.073	-0.265
-335.275	-200.000	-0.000	0.245
-334.260	-125.236	0.177	-0.027
-333.245	-37.869	-0.103	-0.055
-332.231	-200.000	-0.045	-0.307
-331.216	744.784	-0.050	0.133
-330.202	-178.845	0.149	-0.003
-329.187	116.379	0.121	0.148
-328.172	-121.512	0.201	0.033
-327.158	90.068	-0.073	0.082
-326.143	-117.586	0.273	-0.049
-325.129	800.000	0.085	-0.312
-324.114	41.089	-0.054	-0.049
-323.099	167.474	0.153	-0.217
-322.085	-77.445	0.317	0.110
-321.070	-152.611	-0.216	0.015
-320.056	153.681	-0.148	-0.203
-319.041	-131.451	-0.225	0.030
-318.026	-124.871	0.117	0.018
-317.012	-200.000	-0.076	0.381
-315.997	98.421	0.233	-0.268
-314.983	-131.301	0.246	0.033
-313.968	-86.542	0.090	0.027
-312.953	50.812	0.081	-0.076
-311.939	7.282	-0.074	0.055
-310.924	40.740	0.268	-0.241
-309.910	-98.511	0.280	-0.072
-308.895	-21.976	0.073	0.044
-307.880	800.000	0.106	0.303
-306.866	-111.915	0.178	-0.036
-305.851	-147.939	0.175	-0.015
-304.837	-57.336	0.269	0.118
-303.822	19.084	0.083	0.066
-302.807	375.949	0.102	0.207
-301.793	14.824	-0.266	0.208
-300.778	26.099	-0.101	0.084
-299.764	174.932	-0.335	0.483
-298.749	131.375	0.092	-0.118
-297.735	-200.000	-0.021	-0.299
-296.720	-200.000	-0.002	-0.314
-295.705	-114.527	-0.148	-0.028
-294.691	202.570	0.128	-0.197
-293.676	-71.385	0.077	0.029
-292.662	-137.622	0.077	-0.009
-291.647	-57.507	-0.326	-0.143
-290.632	80.736	-0.160	0.172
-289.618	30.501	-0.071	-0.061
-288.603	-78.437	0.412	0.141
-287.589	460.459	0.109	0.243
-286.574	800.000	0.119	0.379
-285.559	1.026	-0.226	0.162
-284.545	800.000	-0.083	0.260
-283.530	-85.512	0.149	0.046
-282.516	722.005	-0.042	0.110
-281.501	230.698	0.199	-0.324
-280.486	-198.897	0.179	0.001
-279.472	444.848	0.165	0.361
-278.457	-32.306	-0.249	-0.139
-277.443	73.113	0.079	0.083
-276.428	-55.113	-0.237	-0.106
-275.413	-35.999	-0.112	0.060
-274.399	-22.147	0.126	-0.076
-273.384	720.427	-0.049	-0.130
-272.370	-200.000	-0.044	-0.396
-271.355	-200.000	0.010	-0.138
-270.340	-200.000	-0.005	-0.103
-269.326	-88.115	0.082	0.025
-268.311	800.000	-0.052	0.197
-267.297	-4.882	-0.177	-0.121
-266.282	-200.000	-0.009	0.283
-265.267	-200.000	-0.003	-0.222
-264.253	201.951	0.087	-0.134
-263.238	45.800	-0.217	-0.200
-262.224	800.000	0.046	-0.149
-261.209	800.000	-0.022	-0.092
-260.195	95.863	0.248	-0.282
-259.180	215.308	-0.095	-0.150
-258.165	53.252	-0.156	0.149
-257.151	-168.173	0.191	-0.007
-256.136	-90.506	-0.128	0.037
-255.122	140.842	0.142	0.187
-254.107	-54.772	-0.399	0.180
-253.092	800.000	0.046	0.192
-252.078	33.457	0.373	0.322
-251.063	20.017	0.186	0.149
-250.049	20.407	0.131	0.106
-249.034	-42.332	-0.253	0.128
-248.019	586.440	0.105	0.257
-247.005	-53.342	-0.133	0.061
-245.990	681.529	-0.115	0.299
-244.976	800.000	0.103	0.301
-243.961	107.707	-0.100	0.119
-242.946	63.493	-0.055	0.055
-241.932	-138.476	0.182	-0.020
-240.917	-133.257	0.187	0.023
-239.903	277.573	0.128	0.228
-238.888	-14.214	-0.229	0.147
-237.873	266.800	0.064	0.112
-236.859	-91.942	-0.221	-0.062
-235.844	-200.000	0.003	-0.112
-234.830	226.175	-0.135	-0.219
-233.815	526.925	-0.046	0.108
-232.800	38.591	0.148	0.131
-231.786	-134.741	-0.518	-0.063
-230.771	65.689	0.253	-0.255
-229.757	-75.697	0.169	-0.060
-228.742	117.375	0.334	-0.409
-227.727	-41.866	-0.142	-0.073
-226.713	-200.000	0.050	0.220
-225.698	-40.464	-0.302	-0.156
-224.684	-1.482	0.064	0.045
-223.669	676.462	0.243	0.629
-222.655	-59.201	0.324	-0.139
-221.640	-93.605	-0.229	-0.063
-220.625	-17.237	-0.245	-0.153
-219.611	-200.000	0.003	-0.358
-218.596	-12.857	0.183	0.119
-217.582	-200.000	0.002	0.252
-216.567	-131.769	-0.507	-0.066
-215.552	-8.478	0.106	0.071
-214.538	800.000	-0.096	0.279
-213.523	-200.000	0.043	-0.195
-212.509	-200.000	-0.022	0.147
-211.494	-67.547	0.301	-0.117
-210.479	-200.000	0.023	0.120
-209.465	-42.041	-0.164	0.083
-208.450	580.462	0.179	-0.437
-207.436	384.393	-0.016	-0.032
-206.421	-106.628	-0.162	-0.036
-205.406	257.458	-0.034	0.058
-204.392	-71.468	-0.286	0.106
-203.377	-149.108	-0.239	0.019
-202.363	218.494	0.096	-0.153
-201.348	-65.780	0.341	-0.136
-200.333	284.990	0.047	-0.084
-199.319	-193.148	-0.091	-0.001
-198.304	-60.344	-0.334	-0.141
-197.290	-88.842	0.008	0.002
-196.275	800.000	-0.062	0.209
-195.260	643.195	-0.061	-0.154
-194.246	-59.885	0.315	0.134
-193.231	-138.900	-0.073	-0.008
-192.217	344.828	0.088	0.171
-191.202	92.638	-0.144	-0.162
-190.187	58.197	-0.209	-0.204
-189.173	22.830	-0.137	-0.112
-188.158	31.861	0.275	-0.235
-187.144	-24.271	0.275	0.163
-186.129	21.142	0.224	-0.181
-185.114	-200.000	-0.008	-0.149
-184.100	-28.833	0.325	0.186
-183.085	-95.624	0.008	0.002
-182.071	108.128	0.210	0.248
-181.056	-14.293	-0.303	0.194
-180.042	183.732	-0.178	-0.261
-179.027	33.775	-0.148	0.128
-178.012	79.131	0.061	-0.065
-176.998	-7.859	-0.155	-0.104
-175.983	-29.241	-0.237	0.135
-174.969	-73.468	0.198	-0.072
-173.954	-14.625	-0.127	0.081
-172.939	800.000	0.166	0.533
-171.925	-118.625	-0.305	-0.053
-170.910	-163.878	-0.424	-0.020
-169.896	-162.817	0.138	0.007
-168.881	276.380	0.181	-0.318
-167.866	-200.000	-0.015	-0.131
-166.852	370.852	0.110	0.221
-165.837	800.000	0.048	-0.161
-164.823	-200.000	0.038	0.235
-163.808	-200.000	0.014	0.072
-162.793	279.559	0.063	0.112
-161.779	-5.242	0.434	0.297
-160.764	800.000	-0.028	-0.089
-159.750	154.082	-0.279	0.380
-158.735	106.105	-0.070	0.082
-157.720	186.260	0.105	-0.156
-156.706	-162.397	0.243	0.012
-155.691	-37.900	-0.148	0.078
-154.677	-200.000	-0.001	0.057
-153.662	66.442	-0.168	0.169
-152.647	-104.838	0.269	-0.061
-151.633	-40.677	0.166	-0.085
-150.618	-131.893	0.181	0.023
-149.604	800.000	0.096	0.372
-148.589	-120.766	-0.042	0.007
-147.574	800.000	0.022	-0.075
-146.560	30.685	0.134	-0.114
-145.545	160.225	-0.128	0.178
-144.531	-158.413	0.229	0.013
-143.516	655.458	0.043	0.111
-142.502	-7.482	-0.279	0.188
-141.487	184.853	0.273	-0.402
-140.472	-200.000	-0.008	-0.120
-139.458	137.321	0.203	-0.264
-138.443	-59.932	-0.127	-0.054
-137.429	400.561	-0.089	0.185
-136.414	-135.772	-0.056	0.007
-135.399	-93.212	-0.386	-0.106
-134.385	93.447	0.203	-0.228
-133.370	-138.150	0.391	0.043
-132.356	-72.332	-0.385	-0.141
-131.341	-200.000	-0.028	0.214
-130.326	-200.000	0.061	0.308
-129.312	2.348	0.207	-0.148
-128.297	-66.083	0.183	-0.072
-127.283	-59.058	-0.347	0.148
-126.268	-146.165	0.101	-0.009
-125.253	303.526	0.142	-0.262
-124.239	-24.538	-0.101	0.060
-123.224	-200.000	0.039	-0.177
-122.210	525.524	-0.132	0.307
-121.195	-200.000	0.105	0.486
