DTS Sentinel unit serial number:	SN413079Multiplexer serial number:	ORYXHardware model number:	OX4-SRSoftware version number:	ORYX F/W v4.00 Oryx Data Collector v3.7.2.0data status	okinstallation	princeton_trtdifferential loss correction	single-endedforward channel	channel 4reverse channel	N/Adate	2019/09/19time	00:05:35forward acquisition time	60.00reverse acquisition time	0.00gamma	496.2192k internal	0.2336k external	0.2336temperature offset calibration	1.0030default loss term (dB/km)	0.3790temperature slope calibration	1.0000multiplexer offset coefficient	1.0000multiplexer slope coefficient	1.0000fibre end	0.00T internal ref (°C)	22.98T ext. ref 1 (°C)	0.75T ext. ref 2 (°C)	15.80length (m)	temperature (°C)	Stokes	anti-Stokes-747.200	126.249	0.121	-0.153
-746.185	-200.000	-0.002	0.273
-745.171	179.338	-0.022	-0.032
-744.156	-63.449	-0.348	0.144
-743.142	-76.711	-0.501	0.176
-742.127	-35.326	-0.268	0.146
-741.112	-200.000	-0.057	0.601
-740.098	219.337	-0.056	0.089
-739.083	-200.000	0.088	0.000
-738.069	445.125	-0.160	0.352
-737.054	-126.939	0.183	-0.027
-736.039	-64.269	-0.301	-0.123
-735.025	-200.000	-0.047	-0.369
-734.010	299.503	0.076	0.141
-732.996	-64.702	-0.084	0.034
-731.981	800.000	-0.079	-0.345
-730.966	173.077	-0.138	-0.199
-729.952	13.270	-0.189	-0.147
-728.937	-200.000	-0.005	0.141
-727.923	-30.699	-0.388	-0.220
-726.908	16.697	-0.072	-0.057
-725.894	-105.704	0.171	0.039
-724.879	-155.951	-0.223	0.014
-723.864	-90.845	-0.086	-0.025
-722.850	74.884	-0.113	0.120
-721.835	19.280	0.113	0.091
-720.821	-59.981	-0.103	0.044
-719.806	-159.946	0.110	-0.006
-718.791	-129.341	-0.101	-0.014
-717.777	-46.984	-0.187	-0.091
-716.762	20.132	-0.141	-0.114
-715.748	-6.180	0.279	0.191
-714.733	-200.000	-0.004	-0.129
-713.718	-62.837	-0.430	-0.179
-712.704	-123.749	0.310	-0.049
-711.689	-109.251	-0.159	-0.034
-710.675	-118.565	0.103	-0.018
-709.660	-0.157	-0.349	-0.249
-708.645	65.557	0.291	-0.295
-707.631	406.416	-0.130	0.275
-706.616	285.833	0.062	0.112
-705.602	168.048	-0.034	0.048
-704.587	-74.051	0.361	-0.131
-703.572	331.681	-0.143	0.276
-702.558	158.249	-0.063	0.088
-701.543	-28.558	-0.178	0.103
-700.529	120.694	-0.230	-0.287
-699.514	800.000	0.084	0.257
-698.499	-200.000	0.042	-0.369
-697.485	80.014	0.014	0.015
-696.470	800.000	-0.058	-0.222
-695.456	-121.960	0.075	-0.012
-694.441	-200.000	0.029	-0.160
-693.426	212.717	0.123	0.195
-692.412	77.836	-0.212	0.226
-691.397	462.916	-0.117	0.262
-690.383	-200.000	-0.001	0.151
-689.368	800.000	-0.076	-0.278
-688.354	800.000	-0.076	-0.291
-687.339	800.000	0.068	-0.237
-686.324	-200.000	-0.075	0.415
-685.310	-92.817	-0.101	-0.028
-684.295	-74.246	0.403	-0.146
-683.281	-75.519	-0.421	0.150
-682.266	-60.323	-0.272	-0.116
-681.251	47.001	-0.140	0.131
-680.237	335.792	-0.081	0.158
-679.222	-65.634	0.235	-0.094
-678.208	-173.134	-0.418	0.013
-677.193	-200.000	-0.056	-0.423
-676.178	-200.000	-0.028	-0.305
-675.164	-68.459	-0.111	-0.043
-674.149	127.959	0.084	-0.107
-673.135	142.079	0.193	-0.257
-672.120	-21.027	-0.174	-0.107
-671.105	602.708	-0.095	-0.236
-670.091	-183.146	-0.137	-0.002
-669.076	-150.430	-0.127	-0.010
-668.062	-134.586	-0.265	-0.032
-667.047	-28.578	0.086	0.050
-666.032	-200.000	0.045	0.208
-665.018	686.867	-0.101	0.264
-664.003	8.951	0.086	0.065
-662.989	800.000	0.069	0.226
-661.974	-47.037	0.312	0.152
-660.959	-39.200	-0.271	-0.143
-659.945	75.964	-0.136	-0.144
-658.930	538.020	-0.152	0.362
-657.916	800.000	0.111	0.352
-656.901	299.092	0.168	-0.310
-655.886	5.066	-0.261	-0.192
-654.872	229.236	0.095	-0.154
-653.857	-143.245	-0.134	0.013
-652.843	41.047	0.200	-0.181
-651.828	-3.757	0.104	-0.072
-650.814	135.181	-0.175	-0.227
-649.799	83.099	0.202	-0.220
-648.784	800.000	0.066	-0.247
-647.770	-200.000	0.068	-0.400
-646.755	18.849	0.095	-0.076
-645.741	-200.000	-0.023	-0.251
-644.726	-91.730	-0.302	-0.086
-643.711	800.000	0.066	-0.220
-642.697	-135.348	-0.389	-0.047
-641.682	552.743	-0.184	0.443
-640.668	-200.000	0.052	-0.000
-639.653	239.068	-0.133	-0.221
-638.638	-108.238	0.115	-0.025
-637.624	-93.901	-0.035	-0.010
-636.609	193.240	0.090	0.136
-635.595	17.705	0.068	-0.054
-634.580	-144.845	0.182	-0.017
-633.565	97.572	-0.169	-0.194
-632.551	-108.982	-0.115	0.024
-631.536	-119.198	0.116	0.020
-630.522	-78.789	-0.355	0.121
-629.507	-47.788	0.181	0.088
-628.492	62.477	0.079	0.079
-627.478	-54.378	-0.139	-0.063
-626.463	800.000	-0.030	-0.089
-625.449	-119.577	-0.180	-0.031
-624.434	28.769	0.110	0.093
-623.419	78.563	0.031	0.033
-622.405	430.634	-0.076	-0.165
-621.390	-48.591	-0.061	0.029
-620.376	85.613	-0.183	-0.201
-619.361	124.576	-0.200	-0.252
-618.346	-93.681	-0.119	0.033
-617.332	1.918	-0.157	0.113
-616.317	-49.023	0.135	0.065
-615.303	248.574	0.048	-0.081
-614.288	-23.158	-0.196	0.118
-613.273	-9.313	0.418	0.279
-612.259	-85.000	0.085	-0.027
-611.244	22.115	-0.139	0.113
-610.230	219.058	-0.105	0.168
-609.215	-129.625	-0.207	-0.029
-608.201	82.147	0.241	-0.261
-607.186	-69.741	-0.485	0.185
-606.171	-0.922	0.113	-0.080
-605.157	54.652	0.151	0.146
-604.142	-16.611	0.176	-0.111
-603.128	105.783	-0.286	0.337
-602.113	559.083	-0.100	0.242
-601.098	-200.000	-0.005	-0.144
-600.084	800.000	0.073	-0.254
-599.069	485.850	-0.079	-0.179
-598.055	-192.837	-0.094	-0.001
-597.040	22.672	0.013	0.010
-596.025	-132.889	-0.298	-0.038
-595.011	666.565	0.034	0.089
-593.996	-123.384	0.068	0.011
-592.982	-157.523	0.341	0.020
-591.967	-200.000	-0.020	0.244
-590.952	20.435	0.239	-0.193
-589.938	-160.892	0.151	-0.008
-588.923	-200.000	0.009	0.263
-587.909	-114.032	-0.205	0.040
-586.894	-168.404	0.195	-0.007
-585.879	37.706	0.343	0.304
-584.865	-161.535	0.267	-0.014
-583.850	47.209	-0.185	0.172
-582.836	10.427	0.216	0.164
-581.821	-128.727	0.115	0.016
-580.806	-92.975	-0.168	-0.047
-579.792	-147.573	0.048	0.004
-578.777	-200.000	-0.005	-0.090
-577.763	192.560	0.042	-0.064
-576.748	-200.000	-0.008	-0.151
-575.733	-107.045	0.170	-0.037
-574.719	344.550	-0.102	0.199
-573.704	220.682	-0.096	-0.154
-572.690	173.063	0.193	0.277
-571.675	-92.529	-0.391	0.110
-570.661	800.000	-0.070	0.299
-569.646	30.793	0.163	-0.139
-568.631	277.741	-0.148	-0.263
-567.617	7.183	0.095	-0.071
-566.602	800.000	-0.051	0.184
-565.588	184.970	-0.153	-0.226
-564.573	-84.361	-0.021	-0.007
-563.558	-68.595	0.316	0.122
-562.544	800.000	-0.134	0.441
-561.529	19.673	0.141	0.113
-560.515	260.434	0.098	-0.169
-559.500	16.631	0.143	-0.113
-558.485	-124.992	-0.137	-0.021
-557.471	218.177	-0.083	0.132
-556.456	-200.000	-0.038	-0.210
-555.442	-101.570	-0.238	0.058
-554.427	-10.853	0.170	0.112
-553.412	-127.880	-0.167	0.024
-552.398	130.590	-0.151	0.193
-551.383	210.742	-0.179	-0.281
-550.369	13.077	-0.143	0.110
-549.354	-111.930	-0.133	-0.027
-548.339	-110.677	0.125	0.026
-547.325	-36.521	-0.380	0.204
-546.310	211.188	-0.222	0.347
-545.296	48.209	0.165	0.154
-544.281	207.025	0.087	-0.135
-543.266	-108.386	0.209	0.045
-542.252	134.476	0.212	-0.274
-541.237	800.000	0.090	0.373
-540.223	-159.754	-0.182	-0.010
-539.208	-79.015	0.272	0.092
-538.193	70.954	0.210	0.217
-537.179	612.164	-0.047	-0.117
-536.164	-84.797	0.214	0.067
-535.150	-200.000	0.014	0.178
-534.135	71.449	-0.270	-0.280
-533.121	-18.993	0.069	0.043
-532.106	30.086	-0.123	-0.105
-531.091	-41.679	0.179	-0.091
-530.077	-164.027	-0.354	-0.016
-529.062	286.785	-0.127	-0.229
-528.048	-135.539	0.304	-0.036
-527.033	-107.251	0.198	-0.043
-526.018	-61.924	-0.181	-0.075
-525.004	5.974	0.079	0.058
-523.989	-64.135	-0.089	0.036
-522.975	-4.703	-0.117	0.080
-521.960	166.608	-0.228	-0.321
-520.945	-200.000	-0.037	0.223
-519.931	-57.817	0.263	-0.115
-518.916	494.509	-0.048	0.110
-517.902	-200.000	0.014	-0.078
-516.887	-76.540	-0.268	0.094
-515.872	-119.573	-0.339	-0.058
-514.858	800.000	0.105	-0.350
-513.843	528.456	-0.168	-0.396
-512.829	174.067	-0.066	-0.094
-511.814	-20.409	-0.130	-0.080
-510.799	-200.000	0.000	0.057
-509.785	800.000	-0.080	-0.290
-508.770	338.604	0.122	0.236
-507.756	-18.655	-0.264	-0.164
-506.741	-174.044	0.520	0.015
-505.726	-200.000	0.021	-0.176
-504.712	-200.000	-0.006	-0.278
-503.697	-200.000	-0.024	-0.351
-502.683	-94.177	0.224	-0.061
-501.668	-112.220	-0.234	0.047
-500.653	-200.000	-0.036	-0.204
-499.639	2.403	0.124	-0.089
-498.624	-200.000	0.041	0.354
-497.610	-143.962	-0.188	0.018
-496.595	-200.000	-0.013	0.066
-495.581	-119.078	0.066	-0.011
-494.566	-14.281	-0.196	-0.125
-493.551	-200.000	0.012	-0.146
-492.537	184.568	0.127	-0.187
-491.522	-97.393	-0.077	0.020
-490.508	-200.000	0.028	0.150
-489.493	15.564	-0.257	0.201
-488.478	-96.992	0.156	-0.041
-487.464	-200.000	-0.020	-0.124
-486.449	-186.057	0.408	0.006
-485.435	-38.832	-0.111	0.058
-484.420	-55.388	-0.281	-0.125
-483.405	-119.968	0.151	-0.026
-482.391	258.508	-0.177	-0.304
-481.376	265.596	0.167	-0.289
-480.362	479.149	0.046	-0.104
-479.347	-100.153	-0.475	0.117
-478.332	110.098	-0.029	-0.035
-477.318	800.000	0.020	0.086
-476.303	-128.507	0.385	0.054
-475.289	55.126	-0.202	-0.194
-474.274	438.889	-0.091	-0.198
-473.259	-43.714	0.251	-0.126
-472.245	-156.877	-0.140	-0.009
-471.230	160.323	0.321	-0.445
-470.216	-200.000	0.059	0.392
-469.201	-200.000	-0.013	0.197
-468.186	176.371	0.105	0.152
-467.172	57.043	-0.160	-0.155
-466.157	-32.959	-0.067	-0.037
-465.143	64.123	0.174	0.174
-464.128	190.908	-0.276	0.412
-463.113	800.000	0.019	0.064
-462.099	202.382	0.124	-0.190
-461.084	252.030	-0.168	0.285
-460.070	-45.128	0.136	0.067
-459.055	-82.290	0.178	-0.057
-458.040	-78.769	0.367	-0.124
-457.026	-200.000	0.030	0.270
-456.011	-200.000	0.012	0.059
-454.997	-76.959	-0.196	-0.068
-453.982	-49.155	0.297	0.141
-452.968	-152.330	-0.353	-0.025
-451.953	-200.000	0.049	0.311
-450.938	-88.425	-0.117	0.035
-449.924	-200.000	-0.031	-0.305
-448.909	-200.000	0.045	0.206
-447.895	-200.000	0.006	0.084
-446.880	555.635	0.021	0.050
-445.865	-91.847	-0.294	-0.083
-444.851	800.000	0.104	0.395
-443.836	73.757	-0.193	0.201
-442.822	-16.356	0.157	-0.099
-441.807	216.377	0.101	0.160
-440.792	150.969	0.037	0.050
-439.778	49.482	0.117	-0.109
-438.763	-158.613	0.315	-0.018
-437.749	123.187	0.054	0.067
-436.734	-200.000	-0.059	0.384
-435.719	-46.592	0.182	0.089
-434.705	-40.915	-0.056	0.029
-433.690	427.312	0.097	0.208
-432.676	94.560	0.185	0.209
-431.661	-22.458	-0.085	0.051
-430.646	-85.924	0.315	0.097
-429.632	504.519	-0.064	-0.147
-428.617	-142.211	-0.028	-0.003
-427.603	-59.577	0.081	0.035
-426.588	-84.058	-0.406	0.128
-425.573	93.094	0.073	-0.082
-424.559	-200.000	-0.003	0.367
-423.544	132.392	-0.165	-0.211
-422.530	-60.403	-0.185	-0.078
-421.515	-17.965	-0.277	-0.172
-420.500	800.000	-0.058	-0.219
-419.486	5.694	0.084	-0.062
-418.471	118.789	0.297	0.364
-417.457	800.000	0.031	-0.103
-416.442	470.055	-0.258	-0.574
-415.428	89.481	-0.241	-0.267
-414.413	-12.499	0.109	-0.070
-413.398	317.505	-0.095	-0.178
-412.384	-153.869	-0.238	0.016
-411.369	-184.929	-0.178	-0.003
-410.355	800.000	0.029	0.102
-409.340	313.250	0.228	0.425
-408.325	365.296	0.097	-0.194
-407.311	-6.515	0.258	0.174
-406.296	494.012	0.069	0.157
-405.282	-50.159	-0.073	0.034
-404.267	-100.498	0.479	0.117
-403.252	-200.000	0.008	0.081
-402.238	-34.327	0.228	-0.124
-401.223	74.421	-0.233	-0.242
-400.209	20.120	-0.112	-0.090
-399.194	105.683	-0.146	0.170
-398.179	110.218	0.195	0.232
-397.165	-98.903	-0.300	-0.076
-396.150	-10.034	0.154	-0.101
-395.136	132.562	0.106	-0.135
-394.121	539.703	-0.087	0.204
-393.106	-60.479	0.292	0.123
-392.092	18.436	0.207	0.163
-391.077	-200.000	0.017	0.150
-390.063	60.190	0.134	0.131
-389.048	-102.511	0.192	0.045
-388.033	-200.000	-0.045	-0.232
-387.019	-200.000	-0.005	-0.128
-386.004	800.000	-0.029	-0.081
-384.990	109.094	-0.147	-0.174
-383.975	-123.556	-0.352	-0.055
-382.960	-65.847	-0.023	-0.009
-381.946	-5.841	-0.294	-0.200
-380.931	335.906	0.085	0.164
-379.917	640.884	-0.037	-0.092
-378.902	-144.858	-0.342	0.031
-377.888	-94.313	0.150	-0.041
-376.873	-58.897	0.076	0.032
-375.858	-43.783	-0.088	-0.044
-374.844	345.771	0.105	0.204
-373.829	249.374	0.093	0.157
-372.815	800.000	0.062	0.193
-371.800	-200.000	0.010	-0.429
-370.785	-161.147	-0.129	-0.007
-369.771	-200.000	-0.015	-0.092
-368.756	620.320	0.078	0.193
-367.742	356.906	-0.093	0.183
-366.727	-108.383	-0.013	-0.003
-365.712	192.081	0.099	-0.148
-364.698	-71.685	0.073	-0.027
-363.683	-200.000	0.003	-0.177
-362.669	-200.000	-0.023	-0.147
-361.654	-113.043	-0.160	-0.031
-360.639	800.000	-0.072	0.270
-359.625	-200.000	-0.002	0.306
-358.610	-200.000	-0.012	0.168
-357.596	-112.756	-0.435	0.085
-356.581	-97.914	0.197	-0.050
-355.566	-60.006	-0.206	0.087
-354.552	-200.000	-0.075	-0.370
-353.537	-192.326	-0.053	-0.000
-352.523	225.636	0.083	0.133
-351.508	-200.000	0.006	0.130
-350.493	33.354	-0.320	0.274
-349.479	-26.377	0.083	-0.048
-348.464	-110.696	-0.237	-0.048
-347.450	-86.487	0.287	-0.087
-346.435	34.161	0.171	0.148
-345.420	-21.902	-0.145	-0.087
-344.406	15.048	0.286	-0.222
-343.391	101.619	0.221	-0.254
-342.377	223.817	-0.100	0.160
-341.362	674.919	-0.077	0.198
-340.348	-200.000	0.031	-0.319
-339.333	800.000	0.125	0.345
-338.318	-79.456	0.330	-0.110
-337.304	47.058	-0.093	0.086
-336.289	139.233	-0.312	-0.406
-335.275	-105.886	0.176	-0.039
-334.260	-125.762	-0.245	-0.037
-333.245	800.000	-0.026	0.076
-332.231	381.771	0.039	-0.079
-331.216	155.016	-0.049	0.066
-330.202	800.000	-0.114	-0.349
-329.187	289.172	-0.048	0.086
-328.172	48.876	0.209	0.194
-327.158	-200.000	-0.031	-0.229
-326.143	800.000	-0.022	-0.061
-325.129	-67.315	0.378	0.147
-324.114	17.081	-0.200	-0.157
-323.099	73.376	0.160	0.165
-322.085	218.263	0.042	-0.066
-321.070	-200.000	0.018	0.307
-320.056	-171.932	-0.340	-0.011
-319.041	-39.832	0.224	0.115
-318.026	251.194	-0.075	-0.126
-317.012	-124.131	-0.108	0.017
-315.997	-58.291	-0.091	0.039
-314.983	800.000	0.093	-0.281
-313.968	-151.667	0.006	-0.000
-312.953	342.278	-0.025	-0.049
-311.939	-132.207	0.106	0.014
-310.924	598.759	0.045	0.109
-309.910	107.895	-0.327	-0.385
-308.895	270.693	0.148	0.257
-307.880	-200.000	0.047	-0.359
-306.866	565.002	0.045	0.107
-305.851	-200.000	0.023	0.152
-304.837	-103.620	-0.266	-0.062
-303.822	-119.376	-0.193	0.033
-302.807	-86.867	0.183	0.055
-301.793	-135.478	0.086	0.010
-300.778	507.971	0.159	0.365
-299.764	59.999	0.236	0.230
-298.749	-25.308	0.180	0.105
-297.735	382.901	-0.090	-0.183
-296.720	181.216	0.093	0.135
-295.705	523.932	0.114	0.264
-294.691	642.931	0.116	-0.291
-293.676	-157.075	-0.205	0.012
-292.662	-74.515	-0.166	-0.059
-291.647	17.076	0.197	0.154
-290.632	-200.000	0.004	0.045
-289.618	-155.793	-0.263	-0.017
-288.603	-156.536	-0.240	-0.015
-287.589	-200.000	-0.056	0.307
-286.574	-119.245	0.345	0.059
-285.559	100.978	-0.104	0.119
-284.545	-135.704	0.182	0.021
-283.530	800.000	-0.018	-0.071
-282.516	-38.157	0.077	0.040
-281.501	-27.390	-0.092	0.053
-280.486	195.547	0.047	-0.070
-279.472	800.000	-0.031	-0.121
-278.457	-25.377	-0.138	-0.081
-277.443	121.169	0.074	0.091
-276.428	-139.448	-0.377	0.040
-275.413	-7.126	0.193	0.129
-274.399	-77.190	0.369	-0.127
-273.384	49.800	-0.177	0.165
-272.370	-45.807	0.022	-0.011
-271.355	-26.364	-0.162	-0.094
-270.340	-64.620	0.119	0.047
-269.326	-200.000	-0.003	0.174
-268.311	-95.478	-0.186	-0.049
-267.297	-191.438	0.435	0.004
-266.282	114.437	-0.169	-0.202
-265.267	-200.000	0.051	0.393
-264.253	-77.974	-0.120	0.041
-263.238	-200.000	-0.004	-0.549
-262.224	197.214	-0.068	-0.102
-261.209	-200.000	-0.026	-0.323
-260.195	800.000	-0.034	0.126
-259.180	-16.556	0.050	0.031
-258.165	-92.746	-0.286	-0.079
-257.151	-200.000	0.005	0.406
-256.136	-200.000	0.022	0.454
-255.122	297.725	-0.127	0.229
-254.107	-1.441	-0.072	-0.050
-253.092	-159.690	-0.142	0.008
-252.078	-200.000	0.001	-0.059
-251.063	-200.000	0.061	0.288
-250.049	632.362	0.028	0.070
-249.034	306.109	0.035	-0.064
-248.019	-139.589	-0.045	0.005
-247.005	433.151	0.096	0.206
-245.990	32.451	-0.160	-0.136
-244.976	72.093	0.467	-0.479
-243.961	800.000	0.094	-0.400
-242.946	-3.125	-0.316	-0.217
-241.932	-63.208	0.184	0.075
-240.917	-186.689	-0.472	0.007
-239.903	-200.000	0.071	-0.472
-238.888	-10.578	0.091	0.059
-237.873	-41.490	0.343	0.174
-236.859	800.000	-0.086	-0.255
-235.844	-189.090	-0.160	0.002
-234.830	-200.000	0.005	-0.117
-233.815	-122.901	0.174	-0.028
-232.800	106.208	-0.128	-0.149
-231.786	-15.409	0.306	-0.192
-230.771	50.956	-0.223	-0.208
-229.757	800.000	0.097	-0.347
-228.742	-200.000	-0.023	0.257
-227.727	-200.000	-0.016	-0.147
-226.713	212.117	-0.157	0.244
-225.698	-37.081	0.158	-0.083
-224.684	265.142	0.110	-0.188
-223.669	-200.000	0.043	-0.263
-222.655	-200.000	0.405	0.000
-221.640	-100.683	0.130	0.032
-220.625	-99.972	0.107	-0.026
-219.611	130.095	-0.069	0.087
-218.596	-200.000	0.008	0.152
-217.582	207.151	0.088	0.134
-216.567	-167.875	-0.164	-0.006
-215.552	-22.043	-0.111	-0.066
-214.538	-111.521	-0.258	0.052
-213.523	800.000	0.085	0.265
-212.509	489.140	-0.137	0.309
-211.494	-74.523	0.164	0.058
-210.479	-200.000	0.010	-0.097
-209.465	-110.261	-0.199	-0.041
-208.450	-75.516	-0.304	0.106
-207.436	-152.201	-0.142	-0.010
-206.421	-193.595	-0.031	-0.000
-205.406	800.000	-0.077	0.264
-204.392	27.919	-0.182	0.150
-203.377	-200.000	-0.084	-0.437
-202.363	-112.315	0.047	0.009
-201.348	528.487	-0.073	0.169
-200.333	6.593	0.089	0.065
-199.319	12.689	-0.390	0.296
-198.304	55.458	0.141	-0.134
-197.290	800.000	0.061	0.238
-196.275	390.121	-0.028	0.058
-195.260	-200.000	-0.026	-0.160
-194.246	168.597	-0.236	0.330
-193.231	101.439	0.172	0.197
-192.217	-30.754	0.210	0.117
-191.202	214.986	0.145	-0.226
-190.187	-100.479	0.250	-0.061
-189.173	800.000	-0.051	-0.144
-188.158	374.709	-0.090	-0.181
-187.144	-134.482	-0.081	-0.010
-186.129	-55.975	0.432	-0.189
-185.114	-94.219	-0.209	0.056
-184.100	-61.438	0.393	-0.162
-183.085	131.241	0.164	-0.207
-182.071	35.108	-0.180	-0.155
-181.056	56.877	0.401	0.384
-180.042	-200.000	0.003	-0.179
-179.027	-138.824	-0.283	0.030
-178.012	-101.666	0.225	0.054
-176.998	67.582	-0.188	-0.189
-175.983	-108.193	0.102	-0.022
-174.969	-124.283	0.286	-0.044
-173.954	-60.640	-0.052	-0.022
-172.939	92.556	0.071	-0.079
-171.925	-200.000	0.005	-0.096
-170.910	-7.849	0.241	-0.160
-169.896	-38.840	-0.134	-0.069
-168.881	-78.574	0.172	0.058
-167.866	-200.000	-0.000	-0.144
-166.852	-200.000	-0.092	0.430
-165.837	232.452	0.164	0.264
-164.823	9.559	-0.159	0.118
-163.808	-6.299	-0.231	0.154
-162.793	569.502	0.080	0.192
-161.779	-64.389	0.159	-0.064
-160.764	147.949	0.095	-0.126
-159.750	3.679	0.185	-0.132
-158.735	-200.000	0.046	0.228
-157.720	63.471	0.161	0.159
-156.706	75.254	0.243	0.252
-155.691	759.172	0.103	-0.275
-154.677	-56.170	-0.181	-0.079
-153.662	-118.965	0.020	0.003
-152.647	-200.000	0.013	-0.386
-151.633	172.816	-0.152	-0.214
-150.618	-105.441	-0.184	-0.041
-149.604	-123.190	0.125	-0.020
-148.589	-200.000	0.058	0.374
-147.574	597.478	0.048	-0.116
-146.560	800.000	0.046	-0.144
-145.545	126.505	-0.222	-0.276
-144.531	-68.245	0.391	-0.149
-143.516	157.799	-0.088	-0.120
-142.502	-200.000	0.069	-0.397
-141.487	-51.408	-0.140	-0.064
-140.472	531.404	-0.119	0.277
-139.458	-200.000	-0.029	0.140
-138.443	-60.040	-0.253	-0.106
-137.429	350.355	0.181	-0.352
-136.414	435.997	-0.076	-0.161
-135.399	-200.000	-0.056	0.283
-134.385	-39.212	0.147	0.076
-133.370	-200.000	0.026	-0.295
-132.356	-40.786	-0.386	0.196
-131.341	800.000	0.132	-0.411
-130.326	140.310	-0.056	-0.072
-129.312	800.000	-0.041	-0.147
-128.297	-74.503	-0.210	0.074
-127.283	15.531	0.177	-0.136
-126.268	-130.393	-0.097	0.013
-125.253	-81.799	0.181	-0.058
-124.239	-200.000	0.012	0.150
-123.224	800.000	-0.022	-0.084
