DTS Sentinel unit serial number:	SN413079Multiplexer serial number:	ORYXHardware model number:	OX4-SRSoftware version number:	ORYX F/W v4.00 Oryx Data Collector v3.7.2.0data status	okinstallation	princeton_trtdifferential loss correction	single-endedforward channel	channel 4reverse channel	N/Adate	2019/09/15time	14:29:34forward acquisition time	60.00reverse acquisition time	0.00gamma	496.2192k internal	0.2288k external	0.2288temperature offset calibration	0.9992default loss term (dB/km)	0.3790temperature slope calibration	1.0000multiplexer offset coefficient	1.0000multiplexer slope coefficient	1.0000fibre end	0.00T internal ref (°C)	39.31T ext. ref 1 (°C)	4.93T ext. ref 2 (°C)	36.28length (m)	temperature (°C)	Stokes	anti-Stokes-747.200	-200.000	-0.017	0.105
-746.185	-152.863	-0.494	-0.036
-745.171	18.873	0.386	0.317
-744.156	191.611	0.159	0.246
-743.142	69.105	-0.191	0.202
-742.127	-200.000	0.028	0.362
-741.112	800.000	0.050	0.189
-740.098	63.840	-0.171	0.177
-739.083	-70.819	0.353	-0.137
-738.069	800.000	-0.076	-0.253
-737.054	-34.665	-0.164	-0.092
-736.039	0.103	-0.016	-0.012
-735.025	-10.312	0.110	-0.075
-734.010	73.196	0.209	-0.224
-732.996	-68.705	-0.432	-0.171
-731.981	800.000	-0.114	-0.338
-730.966	800.000	0.061	-0.210
-729.952	-62.070	-0.063	-0.027
-728.937	-173.606	0.175	0.005
-727.923	-200.000	-0.018	-0.251
-726.908	-200.000	-0.030	-0.210
-725.894	-200.000	0.017	-0.124
-724.879	-167.168	-0.270	-0.011
-723.864	70.934	0.147	-0.156
-722.850	-200.000	-0.018	-0.277
-721.835	489.880	-0.022	0.053
-720.821	-35.791	-0.121	0.067
-719.806	-45.992	0.327	0.165
-718.791	108.835	0.297	-0.364
-717.777	-95.174	-0.129	-0.036
-716.762	657.391	-0.048	0.127
-715.748	-200.000	-0.044	0.214
-714.733	310.575	0.060	-0.115
-713.718	476.380	0.064	-0.149
-712.704	800.000	-0.069	-0.248
-711.689	187.062	0.070	-0.108
-710.675	80.212	-0.253	0.279
-709.660	230.612	-0.160	0.268
-708.645	-150.192	-0.067	-0.005
-707.631	122.093	-0.119	-0.152
-706.616	53.947	0.118	-0.116
-705.602	-200.000	0.025	-0.281
-704.587	-125.097	0.256	-0.040
-703.572	800.000	-0.081	0.239
-702.558	507.829	-0.099	0.235
-701.543	-133.486	0.165	0.021
-700.529	18.202	0.177	-0.145
-699.514	-200.000	-0.036	-0.363
-698.499	186.250	-0.182	-0.277
-697.485	170.989	0.138	0.203
-696.470	285.863	0.063	-0.116
-695.456	77.629	-0.107	0.117
-694.441	655.060	0.073	0.192
-693.426	75.861	0.120	0.130
-692.412	433.130	-0.134	0.297
-691.397	-200.000	0.013	0.059
-690.383	149.071	-0.208	-0.288
-689.368	-200.000	-0.020	0.118
-688.354	-69.041	-0.494	-0.195
-687.339	-200.000	-0.033	-0.300
-686.324	-13.582	0.192	-0.127
-685.310	800.000	0.023	0.080
-684.295	-72.378	0.137	0.052
-683.281	86.715	0.130	-0.147
-682.266	-100.827	-0.102	-0.026
-681.251	-87.462	-0.273	0.084
-680.237	41.382	0.191	0.177
-679.222	155.537	0.002	0.002
-678.208	-53.545	0.223	-0.104
-677.193	-105.746	-0.224	0.052
-676.178	800.000	0.088	0.364
-675.164	-200.000	-0.066	0.362
-674.149	-91.907	-0.207	0.060
-673.135	676.772	-0.038	-0.102
-672.120	-186.717	-0.266	-0.004
-671.105	15.275	-0.131	0.105
-670.091	-200.000	0.018	-0.440
-669.076	324.609	0.142	-0.277
-668.062	800.000	-0.067	0.224
-667.047	-34.137	-0.183	-0.103
-666.032	-200.000	0.027	-0.177
-665.018	130.955	0.241	0.316
-664.003	-200.000	-0.014	0.066
-662.989	-157.976	0.356	-0.021
-661.974	-56.184	-0.199	0.091
-660.959	13.593	0.006	-0.005
-659.945	-141.387	-0.385	-0.040
-658.930	-31.666	-0.178	-0.102
-657.916	258.056	-0.083	0.145
-656.901	-200.000	-0.001	-0.477
-655.886	-150.561	-0.127	0.010
-654.872	-200.000	0.031	-0.159
-653.857	72.609	-0.147	-0.157
-652.843	-3.905	-0.178	-0.126
-651.828	-120.375	-0.244	0.042
-650.814	-27.804	-0.095	0.056
-649.799	-200.000	-0.000	-0.211
-648.784	-28.606	0.356	0.209
-647.770	264.458	0.106	-0.188
-646.755	-75.873	0.205	0.074
-645.741	-200.000	-0.007	0.107
-644.726	-200.000	-0.030	0.332
-643.711	-200.000	-0.039	0.207
-642.697	-119.791	-0.349	0.061
-641.682	93.794	-0.020	0.024
-640.668	503.836	0.035	0.084
-639.653	463.244	0.042	-0.096
-638.638	171.053	-0.153	0.225
-637.624	238.480	0.107	0.182
-636.609	-25.536	-0.090	-0.054
-635.595	188.439	-0.160	-0.244
-634.580	-1.426	0.217	0.157
-633.565	110.166	0.113	0.138
-632.551	-85.543	-0.245	-0.078
-631.536	98.009	-0.136	-0.160
-630.522	-12.893	0.195	-0.130
-629.507	102.540	0.081	0.097
-628.492	-11.310	0.158	-0.106
-627.478	510.909	-0.035	0.084
-626.463	229.322	-0.038	-0.063
-625.449	-200.000	0.050	0.293
-624.434	-169.809	0.468	-0.017
-623.419	-81.275	0.548	-0.184
-622.405	102.760	-0.252	0.301
-621.390	800.000	-0.146	0.450
-620.376	229.063	-0.087	-0.145
-619.361	-200.000	-0.015	-0.080
-618.346	-200.000	0.015	0.129
-617.332	717.669	0.018	0.050
-616.317	-117.923	-0.178	-0.033
-615.303	-16.509	0.277	-0.179
-614.288	145.078	-0.030	0.041
-613.273	1.062	0.051	-0.037
-612.259	-200.000	-0.029	-0.205
-611.244	-200.000	0.003	-0.086
-610.230	249.829	-0.148	0.255
-609.215	219.724	-0.024	-0.039
-608.201	337.238	-0.160	0.317
-607.186	-149.406	-0.155	-0.013
-606.171	800.000	0.085	-0.282
-605.157	75.394	0.183	0.197
-604.142	119.023	0.186	0.234
-603.128	111.188	0.193	0.237
-602.113	96.270	-0.193	0.225
-601.098	337.896	-0.169	0.335
-600.084	381.349	0.078	-0.164
-599.069	-32.048	0.054	0.031
-598.055	-86.798	-0.172	0.054
-597.040	-129.163	0.525	-0.075
-596.025	-200.000	0.017	-0.341
-595.011	-82.341	0.247	0.082
-593.996	-200.000	-0.014	-0.272
-592.982	-79.923	0.275	-0.094
-591.967	-107.848	-0.193	-0.043
-590.952	261.388	0.246	-0.435
-589.938	-88.833	-0.349	-0.106
-588.923	-54.048	-0.273	0.126
-587.909	800.000	-0.033	0.119
-586.894	800.000	-0.100	0.317
-585.879	-200.000	0.018	-0.165
-584.865	-44.231	-0.303	0.155
-583.850	-36.406	-0.117	0.064
-582.836	-145.909	-0.397	0.036
-581.821	-200.000	-0.043	-0.493
-580.806	-66.847	0.282	0.114
-579.792	-76.875	0.131	0.047
-578.777	-200.000	-0.029	-0.162
-577.763	800.000	-0.014	0.058
-576.748	-200.000	0.004	-0.152
-575.733	224.062	-0.108	-0.177
-574.719	79.765	-0.147	-0.161
-573.704	-89.033	-0.174	0.053
-572.690	181.967	0.126	0.189
-571.675	-36.568	-0.253	-0.139
-570.661	286.716	0.024	-0.044
-569.646	-40.728	-0.100	0.053
-568.631	55.977	0.139	0.138
-567.617	-200.000	0.005	0.474
-566.602	-125.140	-0.097	0.015
-565.588	-131.359	0.331	-0.045
-564.573	-200.000	0.014	-0.067
-563.558	-200.000	-0.046	-0.402
-562.544	14.360	-0.056	0.045
-561.529	129.118	0.266	0.346
-560.515	116.073	-0.086	0.108
-559.500	9.996	0.303	0.234
-558.485	375.978	0.046	-0.096
-557.471	31.533	0.022	0.019
-556.456	-138.843	0.174	0.019
-555.442	-200.000	0.019	0.109
-554.427	-63.474	-0.308	-0.129
-553.412	52.300	0.147	-0.143
-552.398	-200.000	-0.051	0.354
-551.383	-52.679	0.257	0.121
-550.369	-172.967	0.183	-0.006
-549.354	290.990	0.200	-0.370
-548.339	355.741	-0.129	0.261
-547.325	263.053	0.020	0.035
-546.310	-118.361	-0.296	0.053
-545.296	-200.000	-0.015	0.085
-544.281	-186.873	-0.159	0.002
-543.266	-200.000	0.046	0.392
-542.252	343.880	-0.061	-0.123
-541.237	-53.357	0.387	-0.180
-540.223	-200.000	0.017	0.234
-539.208	-91.491	-0.283	0.082
-538.193	-200.000	-0.073	-0.000
-537.179	-128.380	-0.237	-0.034
-536.164	43.164	0.085	0.079
-535.150	-200.000	0.018	0.255
-534.135	-167.385	0.210	-0.009
-533.121	-91.508	-0.374	0.109
-532.106	17.548	-0.124	0.100
-531.091	800.000	0.058	0.176
-530.077	155.123	0.215	0.301
-529.062	-175.431	0.396	0.011
-528.048	276.763	-0.081	0.146
-527.033	-135.191	0.054	-0.007
-526.018	-71.706	0.194	0.073
-525.004	68.806	0.147	0.154
-523.989	277.036	0.055	-0.099
-522.975	182.752	-0.016	-0.025
-521.960	24.474	-0.212	0.178
-520.945	800.000	0.044	0.162
-519.931	-200.000	-0.025	-0.161
-518.916	-200.000	0.034	0.344
-517.902	546.335	0.103	0.251
-516.887	-94.812	0.316	0.087
-515.872	313.536	-0.135	0.258
-514.858	-145.962	0.111	0.010
-513.843	357.007	-0.216	-0.437
-512.829	800.000	-0.056	-0.247
-511.814	-70.859	-0.110	0.042
-510.799	-27.815	0.147	0.087
-509.785	45.915	-0.130	-0.122
-508.770	492.363	0.097	-0.226
-507.756	169.300	-0.043	-0.063
-506.741	579.055	-0.025	-0.061
-505.726	193.962	-0.071	0.109
-504.712	-31.694	0.261	-0.149
-503.697	-119.121	-0.151	0.027
-502.683	233.678	-0.100	0.167
-501.668	584.597	0.044	-0.110
-500.653	-143.430	-0.356	-0.035
-499.639	-57.322	-0.099	0.044
-498.624	-200.000	0.014	-0.219
-497.610	-12.490	0.087	0.058
-496.595	45.609	-0.265	-0.248
-495.581	-200.000	-0.005	0.114
-494.566	343.447	-0.031	0.062
-493.551	359.697	-0.005	0.011
-492.537	-200.000	-0.009	-0.128
-491.522	197.873	0.077	0.119
-490.508	222.693	0.112	0.184
-489.493	-99.776	-0.134	0.034
-488.478	-35.597	0.236	0.130
-487.464	800.000	-0.047	-0.139
-486.449	17.315	0.173	-0.140
-485.435	800.000	0.089	-0.305
-484.420	-69.627	0.185	0.072
-483.405	-190.328	0.197	-0.002
-482.391	800.000	-0.115	0.322
-481.376	800.000	-0.069	0.234
-480.362	57.369	0.065	-0.065
-479.347	612.251	-0.158	-0.402
-478.332	-56.851	0.065	0.029
-477.318	-125.542	-0.187	-0.029
-476.303	-171.268	-0.001	0.000
-475.289	800.000	-0.038	-0.153
-474.274	119.709	-0.192	0.241
-473.259	-62.713	0.166	-0.070
-472.245	-200.000	-0.004	-0.085
-471.230	-165.184	-0.360	-0.016
-470.216	36.892	-0.082	0.074
-469.201	-14.309	-0.289	-0.189
-468.186	-34.282	0.157	-0.087
-467.172	-200.000	-0.039	0.210
-466.157	-77.394	-0.145	0.051
-465.143	225.622	-0.195	-0.321
-464.128	-76.981	0.227	-0.080
-463.113	-105.496	0.302	-0.070
-462.099	4.717	0.039	-0.029
-461.084	-153.907	-0.040	-0.003
-460.070	-5.918	-0.196	-0.136
-459.055	-100.510	-0.208	-0.052
-458.040	67.507	-0.019	-0.020
-457.026	31.069	0.116	0.101
-456.011	11.044	0.160	-0.124
-454.997	79.158	0.225	0.244
-453.982	800.000	-0.020	-0.070
-452.968	-53.131	-0.259	-0.121
-451.953	13.660	-0.044	-0.035
-450.938	388.027	0.111	-0.234
-449.924	-138.963	0.212	0.023
-448.909	267.487	-0.151	0.269
-447.895	61.907	0.179	-0.180
-446.880	3.135	0.232	0.171
-445.865	-44.999	-0.088	-0.044
-444.851	-126.156	0.245	0.037
-443.836	-58.182	0.207	-0.091
-442.822	800.000	-0.055	-0.178
-441.807	-62.083	-0.248	-0.105
-440.792	-200.000	-0.034	-0.208
-439.778	-106.772	-0.348	0.078
-438.763	523.267	-0.044	-0.105
-437.749	-200.000	0.432	0.002
-436.734	225.756	-0.112	-0.184
-435.719	114.540	-0.194	0.239
-434.705	-200.000	-0.015	-0.127
-433.690	49.206	-0.116	-0.110
-432.676	168.496	-0.044	-0.064
-431.661	-95.794	-0.226	-0.061
-430.646	37.966	0.129	0.116
-429.632	-78.303	-0.302	0.105
-428.617	41.270	-0.017	-0.016
-427.603	375.748	-0.091	-0.189
-426.588	755.774	0.058	0.158
-425.573	-51.961	-0.331	-0.156
-424.559	558.063	-0.147	-0.359
-423.544	81.551	-0.029	-0.032
-422.530	79.631	0.078	0.085
-421.515	-193.853	-0.039	0.000
-420.500	89.251	0.144	0.163
-419.486	-49.687	-0.364	-0.175
-418.471	161.293	-0.103	0.146
-417.457	263.821	-0.206	0.363
-416.442	-165.653	-0.277	-0.012
-415.428	-200.000	0.050	-0.232
-414.413	-8.931	0.245	-0.166
-413.398	-98.914	-0.010	-0.003
-412.384	-150.840	-0.460	-0.035
-411.369	136.351	0.178	0.235
-410.355	800.000	0.065	0.259
-409.340	31.226	-0.178	0.155
-408.325	-190.436	-0.105	-0.001
-407.311	402.967	-0.029	0.061
-406.296	800.000	-0.106	0.382
-405.282	-50.039	-0.093	-0.045
-404.267	229.929	0.181	0.300
-403.252	-2.897	0.055	0.039
-402.238	-53.814	0.069	0.032
-401.223	60.087	0.127	-0.127
-400.209	-117.519	-0.149	-0.027
-399.194	208.322	0.132	-0.209
-398.179	39.267	0.090	-0.082
-397.165	115.012	-0.069	0.085
-396.150	-17.644	0.142	-0.090
-395.136	-38.568	-0.160	-0.086
-394.121	-200.000	-0.076	-0.364
-393.106	337.930	-0.126	-0.247
-392.092	800.000	-0.101	-0.413
-391.077	116.433	0.172	0.213
-390.063	-15.015	-0.204	-0.132
-389.048	-200.000	0.001	-0.051
-388.033	-200.000	-0.001	0.019
-387.019	-58.215	0.049	-0.021
-386.004	20.070	-0.192	0.156
-384.990	61.491	-0.132	0.133
-383.975	-72.245	-0.517	-0.194
-382.960	342.823	-0.242	-0.478
-381.946	222.356	-0.187	0.304
-380.931	-200.000	0.041	0.182
-379.917	28.930	-0.230	-0.197
-378.902	-28.962	-0.138	0.080
-377.888	800.000	0.068	-0.233
-376.873	156.459	0.204	-0.284
-375.858	800.000	0.039	-0.132
-374.844	109.243	-0.119	0.144
-373.829	-50.684	-0.209	-0.099
-372.815	-200.000	-0.040	-0.198
-371.800	-72.632	0.216	0.080
-370.785	-105.699	0.226	0.052
-369.771	-200.000	0.016	0.189
-368.756	-190.073	0.102	-0.001
-367.742	-85.413	0.323	-0.102
-366.727	-73.289	-0.078	-0.029
-365.712	800.000	0.108	-0.356
-364.698	800.000	0.062	-0.208
-363.683	800.000	0.069	-0.268
-362.669	-110.243	-0.093	-0.020
-361.654	160.041	0.197	0.277
-360.639	12.693	0.160	0.125
-359.625	-17.106	-0.456	0.291
-358.610	510.379	-0.060	0.140
-357.596	-200.000	-0.006	-0.089
-356.581	6.050	-0.227	-0.170
-355.566	311.954	0.205	-0.388
-354.552	-133.797	-0.038	0.005
-353.537	441.327	0.064	-0.141
-352.523	-22.376	-0.182	-0.111
-351.508	-200.000	0.024	-0.191
-350.493	595.247	-0.075	0.187
-349.479	-88.066	0.210	0.064
-348.464	125.709	-0.058	0.074
-347.450	-55.113	-0.274	-0.125
-346.435	-200.000	0.050	0.308
-345.420	214.357	0.125	-0.199
-344.406	-76.928	0.053	0.019
-343.391	-200.000	-0.076	0.425
-342.377	-20.139	-0.217	-0.135
-341.362	-200.000	0.077	0.416
-340.348	-152.632	-0.333	-0.024
-339.333	410.057	0.069	0.147
-338.318	219.984	0.126	0.204
-337.304	28.924	0.341	0.292
-336.289	-118.853	-0.373	-0.066
-335.275	800.000	-0.042	-0.165
-334.260	-200.000	-0.049	-0.525
-333.245	32.640	-0.245	-0.214
-332.231	-40.670	0.327	0.171
-331.216	-105.664	0.271	-0.062
-330.202	570.194	-0.089	-0.217
-329.187	146.044	-0.033	-0.044
-328.172	-112.171	0.373	0.076
-327.158	-156.536	-0.192	0.012
-326.143	-87.564	0.314	-0.096
-325.129	10.253	-0.174	0.133
-324.114	581.066	0.060	-0.148
-323.099	-200.000	-0.064	-0.393
-322.085	-48.531	-0.124	0.060
-321.070	800.000	-0.063	-0.208
-320.056	-46.587	0.085	0.042
-319.041	-101.083	-0.010	0.002
-318.026	-196.407	0.276	-0.002
-317.012	-123.932	-0.158	-0.025
-315.997	-174.867	-0.053	0.002
-314.983	-200.000	-0.007	-0.176
-313.968	143.829	-0.134	0.180
-312.953	-200.000	0.026	0.146
-311.939	-6.631	0.215	-0.147
-310.924	-146.455	0.233	0.020
-309.910	-26.153	-0.136	-0.081
-308.895	-200.000	0.008	-0.172
-307.880	-200.000	-0.004	-0.081
-306.866	-23.501	0.102	0.061
-305.851	119.764	-0.047	0.059
-304.837	-40.394	0.237	-0.124
-303.822	31.883	0.192	0.166
-302.807	-128.444	-0.233	-0.033
-301.793	158.244	-0.154	0.215
-300.778	779.391	-0.102	0.280
-299.764	-200.000	0.015	0.070
-298.749	-200.000	0.020	-0.168
-297.735	85.206	-0.180	0.199
-296.720	-32.025	0.130	0.073
-295.705	-200.000	-0.045	0.250
-294.691	-52.144	-0.073	0.034
-293.676	683.417	0.010	-0.027
-292.662	-78.681	-0.252	-0.087
-291.647	306.861	-0.067	-0.125
-290.632	-19.994	-0.046	-0.028
-289.618	-131.360	0.430	0.057
-288.603	800.000	-0.016	-0.052
-287.589	-33.920	0.162	-0.090
-286.574	108.747	0.147	-0.177
-285.559	-178.407	0.309	-0.007
-284.545	207.518	-0.052	-0.081
-283.530	327.114	-0.052	0.100
-282.516	192.446	0.242	0.368
-281.501	-200.000	0.012	-0.136
-280.486	-139.228	0.397	0.043
-279.472	26.059	-0.241	-0.202
-278.457	-43.237	0.192	0.098
-277.443	193.134	-0.070	0.107
-276.428	-4.063	0.231	-0.162
-275.413	53.790	0.171	-0.165
-274.399	-0.817	-0.274	-0.196
-273.384	-23.155	0.210	0.127
-272.370	336.608	0.053	-0.103
-271.355	44.499	-0.263	-0.243
-270.340	-200.000	0.028	-0.145
-269.326	-200.000	0.046	0.305
-268.311	800.000	-0.072	0.228
-267.297	800.000	0.059	0.245
-266.282	-142.940	-0.206	0.020
-265.267	-25.175	-0.196	-0.117
-264.253	-200.000	-0.008	-0.369
-263.238	-183.968	-0.037	0.001
-262.224	-135.485	-0.058	0.007
-261.209	153.757	0.116	0.159
-260.195	535.469	-0.014	-0.035
-259.180	503.210	-0.101	-0.235
-258.165	136.627	-0.236	0.309
-257.151	38.132	0.103	0.092
-256.136	39.402	-0.222	0.200
-255.122	84.929	0.137	-0.152
-254.107	18.719	0.340	0.274
-253.092	-200.000	-0.015	-0.143
-252.078	-21.308	0.117	-0.072
-251.063	-169.060	-0.393	0.015
-250.049	800.000	0.086	-0.278
-249.034	-94.169	-0.291	0.080
-248.019	-200.000	-0.059	0.478
-247.005	375.968	-0.090	-0.185
-245.990	166.922	-0.103	-0.147
-244.976	-200.000	0.024	-0.143
-243.961	800.000	0.066	-0.254
-242.946	-23.576	0.069	0.042
-241.932	206.480	0.038	0.060
-240.917	96.024	0.116	-0.133
-239.903	-200.000	0.008	-0.391
-238.888	-123.655	0.312	-0.050
-237.873	247.483	0.073	0.123
-236.859	60.926	-0.219	0.218
-235.844	348.849	-0.187	0.371
-234.830	175.425	-0.152	0.221
-233.815	473.445	-0.097	0.219
-232.800	-46.017	0.348	-0.172
-231.786	-200.000	-0.005	-0.038
-230.771	51.702	-0.276	0.263
-229.757	-63.040	-0.110	0.046
-228.742	508.255	-0.054	-0.126
-227.727	-113.274	0.377	-0.074
-226.713	20.531	-0.152	-0.124
-225.698	63.805	-0.242	0.244
-224.684	-200.000	-0.020	0.111
-223.669	800.000	-0.079	-0.314
-222.655	-200.000	-0.001	0.048
-221.640	-145.162	-0.238	0.022
-220.625	311.770	0.192	-0.362
-219.611	-123.868	-0.343	0.054
-218.596	-200.000	0.013	0.092
-217.582	-200.000	0.001	0.506
-216.567	102.450	0.153	0.180
-215.552	-91.762	-0.297	-0.085
-214.538	-200.000	-0.041	0.273
-213.523	-93.011	0.322	0.090
-212.509	-192.205	0.307	-0.003
-211.494	800.000	-0.064	-0.210
-210.479	-200.000	-0.054	-0.250
-209.465	-74.363	0.169	-0.061
-208.450	-200.000	-0.030	-0.133
-207.436	335.469	0.123	-0.239
-206.421	-120.300	-0.225	0.038
-205.406	-13.098	-0.147	-0.096
-204.392	11.943	-0.187	-0.145
-203.377	452.675	-0.023	-0.052
-202.363	-74.141	0.500	-0.182
-201.348	95.597	0.237	-0.272
-200.333	-60.046	-0.174	-0.075
-199.319	-33.076	0.029	-0.016
-198.304	-104.969	0.484	0.111
-197.290	0.834	0.071	-0.051
-196.275	348.018	0.118	0.234
-195.260	474.885	-0.083	0.188
-194.246	-73.653	-0.280	0.102
-193.231	-104.516	0.128	0.030
-192.217	251.881	-0.011	-0.019
-191.202	197.926	0.084	0.130
-190.187	-93.079	-0.240	-0.067
-189.173	334.932	-0.115	-0.223
-188.158	262.044	0.261	-0.454
-187.144	-129.027	-0.084	0.012
-186.129	-47.080	-0.266	-0.130
-185.114	800.000	-0.078	0.254
-184.100	-0.951	0.127	-0.090
-183.085	3.376	-0.118	0.086
-182.071	-137.514	-0.114	-0.013
-181.056	-125.443	0.159	-0.024
-180.042	431.524	-0.081	0.176
-179.027	696.916	-0.208	0.549
-178.012	-200.000	-0.020	0.318
-176.998	-44.623	-0.132	0.066
-175.983	-126.308	0.135	0.020
-174.969	27.771	0.293	-0.247
-173.954	-79.429	0.149	-0.051
-172.939	-109.478	0.333	-0.071
-171.925	34.092	0.166	-0.145
-170.910	-119.217	-0.074	0.013
-169.896	-200.000	0.040	0.179
-168.881	-102.186	0.086	0.021
-167.866	29.474	0.160	-0.136
-166.852	-129.600	0.142	0.020
-165.837	198.010	-0.288	0.441
-164.823	219.940	0.087	0.140
-163.808	-200.000	0.013	0.321
-162.793	800.000	-0.041	0.140
-161.779	691.839	-0.080	0.211
-160.764	192.620	-0.077	0.116
-159.750	-84.309	-0.257	0.081
-158.735	37.625	0.217	-0.193
-157.720	-200.000	0.030	-0.144
-156.706	-75.896	0.584	-0.207
-155.691	-41.949	0.354	-0.182
-154.677	13.043	0.203	-0.157
-153.662	-200.000	0.044	-0.308
-152.647	-111.086	0.183	-0.037
-151.633	-200.000	0.047	-0.373
-150.618	-68.006	0.141	0.055
-149.604	153.925	0.204	0.280
-148.589	739.469	-0.171	0.461
-147.574	-200.000	0.000	0.007
-146.560	353.505	0.160	0.319
-145.545	-200.000	0.001	0.257
-144.531	41.218	-0.164	-0.149
-143.516	71.398	0.300	-0.312
-142.502	-125.532	0.377	-0.057
-141.487	-200.000	-0.006	0.314
-140.472	-200.000	-0.014	0.271
-139.458	31.692	0.217	0.187
-138.443	107.605	0.149	0.178
-137.429	-200.000	-0.003	0.117
-136.414	-200.000	0.009	0.149
-135.399	-53.572	0.256	-0.117
-134.385	800.000	0.031	-0.087
-133.370	20.443	-0.093	-0.075
-132.356	-3.508	-0.197	0.137
-131.341	-155.015	0.097	-0.006
-130.326	-60.965	-0.272	0.115
-129.312	120.286	-0.209	-0.260
-128.297	-142.429	0.272	-0.027
-127.283	-200.000	-0.017	0.253
-126.268	28.831	0.179	0.152
-125.253	-200.000	0.020	-0.254
-124.239	-133.248	0.082	-0.010
-123.224	-124.081	0.264	0.041
