DTS Sentinel unit serial number:	SN413079Multiplexer serial number:	ORYXHardware model number:	OX4-SRSoftware version number:	ORYX F/W v4.00 Oryx Data Collector v3.7.2.0data status	okinstallation	princeton_trtdifferential loss correction	single-endedforward channel	channel 4reverse channel	N/Adate	2019/09/12time	21:45:35forward acquisition time	60.00reverse acquisition time	0.00gamma	496.2192k internal	0.2314k external	0.2314temperature offset calibration	1.0170default loss term (dB/km)	0.3790temperature slope calibration	1.0000multiplexer offset coefficient	1.0000multiplexer slope coefficient	1.0000fibre end	0.00T internal ref (°C)	30.25T ext. ref 1 (°C)	3.69T ext. ref 2 (°C)	24.85length (m)	temperature (°C)	Stokes	anti-Stokes-747.200	-112.841	0.199	-0.040
-746.185	338.295	-0.109	0.215
-745.171	-66.214	0.238	-0.096
-744.156	800.000	0.052	0.211
-743.142	134.112	-0.031	-0.041
-742.127	800.000	-0.056	-0.168
-741.112	-84.489	0.156	-0.050
-740.098	800.000	0.071	0.270
-739.083	-200.000	-0.001	-0.178
-738.069	239.552	0.044	0.075
-737.054	-200.000	0.021	-0.203
-736.039	-200.000	-0.041	0.368
-735.025	-29.684	0.216	0.125
-734.010	-200.000	-0.011	0.373
-732.996	800.000	-0.048	0.145
-731.981	191.793	0.179	0.273
-730.966	-45.210	0.226	-0.114
-729.952	61.459	0.070	0.070
-728.937	-200.000	-0.015	-0.141
-727.923	-200.000	-0.020	0.182
-726.908	-6.068	0.330	0.229
-725.894	133.882	-0.048	0.062
-724.879	800.000	-0.009	-0.036
-723.864	-200.000	0.017	-0.206
-722.850	-145.471	-0.155	-0.014
-721.835	194.807	-0.075	-0.115
-720.821	10.133	-0.096	-0.074
-719.806	-200.000	-0.045	0.212
-718.791	214.664	0.056	0.090
-717.777	33.562	-0.259	0.228
-716.762	238.900	-0.111	-0.188
-715.748	162.909	0.173	-0.245
-714.733	-83.836	-0.210	-0.068
-713.718	-89.045	-0.350	-0.105
-712.704	-200.000	0.012	-0.083
-711.689	142.758	0.021	-0.028
-710.675	-98.481	-0.353	0.091
-709.660	-90.982	0.420	-0.122
-708.645	-112.327	0.291	0.059
-707.631	-200.000	0.015	-0.129
-706.616	-10.272	0.075	-0.051
-705.602	-81.858	-0.376	-0.125
-704.587	74.651	-0.063	-0.067
-703.572	47.680	-0.252	-0.238
-702.558	800.000	0.067	0.252
-701.543	178.115	-0.085	0.126
-700.529	-120.070	0.224	0.039
-699.514	-96.261	0.220	-0.059
-698.499	557.079	0.124	0.301
-697.485	119.955	-0.301	0.378
-696.470	800.000	-0.084	-0.246
-695.456	700.811	0.012	-0.032
-694.441	-14.333	-0.191	-0.125
-693.426	188.440	0.282	-0.427
-692.412	127.547	0.164	-0.210
-691.397	-52.618	-0.116	0.054
-690.383	190.464	0.079	-0.119
-689.368	800.000	0.069	-0.202
-688.354	-130.309	0.163	-0.022
-687.339	-22.693	-0.187	-0.114
-686.324	-90.836	0.317	-0.092
-685.310	-85.582	0.048	-0.015
-684.295	338.381	0.142	0.279
-683.281	-72.349	-0.206	-0.077
-682.266	-200.000	0.055	-0.429
-681.251	-200.000	-0.017	-0.097
-680.237	-85.059	-0.198	-0.063
-679.222	550.288	-0.063	0.152
-678.208	56.981	-0.084	0.083
-677.193	800.000	0.047	0.186
-676.178	-5.493	-0.197	-0.137
-675.164	249.860	0.133	0.227
-674.149	-116.256	-0.047	-0.009
-673.135	-200.000	0.021	-0.181
-672.120	-69.575	-0.092	0.036
-671.105	757.579	-0.121	-0.331
-670.091	-95.624	0.165	0.045
-669.076	287.224	-0.039	0.072
-668.062	-125.190	-0.162	0.025
-667.047	-3.211	0.212	-0.149
-666.032	-200.000	0.040	0.197
-665.018	442.082	-0.101	-0.223
-664.003	800.000	-0.092	0.318
-662.989	-47.305	0.209	-0.103
-661.974	-125.286	0.154	-0.024
-660.959	182.720	0.113	0.168
-659.945	-68.665	0.251	0.098
-658.930	800.000	0.040	0.159
-657.916	31.978	0.227	0.198
-656.901	343.713	0.165	-0.327
-655.886	106.705	0.118	0.142
-654.872	64.671	-0.197	0.200
-653.857	-114.905	0.172	0.033
-652.843	107.202	0.179	0.215
-651.828	-37.917	0.288	-0.155
-650.814	265.149	-0.087	-0.154
-649.799	339.185	-0.026	0.051
-648.784	-64.193	0.370	-0.152
-647.770	-99.263	0.220	0.056
-646.755	-134.503	-0.325	0.040
-645.741	-200.000	-0.021	-0.183
-644.726	0.960	-0.053	-0.038
-643.711	21.481	0.229	0.188
-642.697	90.614	-0.037	0.042
-641.682	94.974	-0.009	0.010
-640.668	-200.000	0.013	-0.155
-639.653	33.639	0.049	-0.043
-638.638	-67.533	-0.168	0.067
-637.624	121.344	0.246	-0.310
-636.609	77.265	0.126	-0.135
-635.595	56.511	-0.278	0.272
-634.580	7.537	-0.103	-0.078
-633.565	328.335	-0.098	-0.189
-632.551	416.740	0.092	-0.199
-631.536	22.873	0.075	-0.062
-630.522	14.119	0.231	0.182
-629.507	158.109	0.138	-0.192
-628.492	-128.353	-0.283	0.041
-627.478	188.382	-0.175	-0.264
-626.463	-156.589	-0.234	0.015
-625.449	-95.973	-0.064	0.017
-624.434	-200.000	-0.007	-0.081
-623.419	-81.381	-0.090	-0.030
-622.405	-38.751	0.118	0.063
-621.390	-93.759	0.544	0.151
-620.376	55.692	0.056	0.054
-619.361	6.974	0.197	0.148
-618.346	3.376	-0.201	-0.148
-617.332	-200.000	0.016	-0.202
-616.317	-39.451	-0.193	-0.102
-615.303	-69.587	0.231	-0.089
-614.288	-132.572	0.172	-0.022
-613.273	243.969	-0.182	-0.308
-612.259	-29.696	-0.316	-0.182
-611.244	291.790	0.140	-0.257
-610.230	-70.489	0.072	-0.027
-609.215	55.920	-0.164	0.160
-608.201	800.000	-0.088	-0.298
-607.186	156.393	0.080	0.112
-606.171	-36.080	-0.210	-0.114
-605.157	-147.116	-0.143	0.012
-604.142	25.901	0.126	0.106
-603.128	-79.660	-0.424	-0.144
-602.113	238.566	-0.037	0.063
-601.098	43.096	-0.117	0.107
-600.084	42.084	0.223	-0.204
-599.069	-200.000	0.036	-0.267
-598.055	-112.200	0.246	0.050
-597.040	42.262	-0.125	0.115
-596.025	800.000	-0.040	0.118
-595.011	800.000	0.061	0.237
-593.996	-30.762	0.055	0.032
-592.982	111.854	0.188	0.229
-591.967	104.895	0.032	-0.038
-590.952	-138.826	0.297	0.033
-589.938	-2.115	0.213	-0.151
-588.923	800.000	0.065	-0.248
-587.909	-119.601	-0.208	0.036
-586.894	20.096	0.218	0.177
-585.879	151.822	0.042	-0.058
-584.865	-24.456	-0.073	-0.044
-583.850	-52.475	0.112	-0.052
-582.836	-138.211	-0.306	0.034
-581.821	60.720	0.319	0.318
-580.806	141.527	-0.095	0.127
-579.792	800.000	-0.026	-0.088
-578.777	-51.744	-0.080	0.038
-577.763	-37.658	0.210	0.112
-576.748	800.000	-0.126	0.371
-575.733	-153.842	0.340	-0.023
-574.719	107.761	-0.063	-0.075
-573.704	-18.547	-0.154	0.097
-572.690	445.044	-0.064	-0.142
-571.675	-200.000	-0.002	-0.025
-570.661	-200.000	-0.009	-0.249
-569.646	-82.575	0.095	-0.031
-568.631	442.836	0.070	0.154
-567.617	-135.284	0.059	-0.007
-566.602	5.780	0.049	-0.037
-565.588	501.369	0.041	-0.094
-564.573	366.966	0.117	0.237
-563.558	-177.052	-0.096	-0.002
-562.544	-200.000	0.053	0.237
-561.529	0.786	0.176	0.127
-560.515	167.891	0.134	0.192
-559.500	61.979	-0.166	-0.166
-558.485	9.253	0.211	0.161
-557.471	179.040	-0.156	-0.230
-556.456	-200.000	-0.055	-0.265
-555.442	132.216	-0.170	-0.220
-554.427	50.781	-0.083	-0.079
-553.412	-99.131	-0.163	-0.041
-552.398	69.944	0.201	-0.208
-551.383	13.307	0.194	-0.151
-550.369	-66.894	-0.271	0.108
-549.354	800.000	-0.091	-0.265
-548.339	-200.000	0.006	0.109
-547.325	-163.941	0.205	0.010
-546.310	12.729	-0.150	-0.116
-545.296	-49.180	0.234	0.113
-544.281	340.801	0.099	0.195
-543.266	-41.460	-0.277	0.143
-542.252	800.000	0.024	-0.089
-541.237	204.929	0.057	0.089
-540.223	-74.783	0.293	-0.106
-539.208	101.688	-0.320	0.375
-538.193	-140.857	0.178	0.018
-537.179	45.742	0.220	-0.205
-536.164	5.586	0.141	0.105
-535.150	-84.039	0.119	-0.038
-534.135	1.785	-0.107	-0.078
-533.121	-200.000	-0.063	0.323
-532.106	-200.000	-0.006	0.458
-531.091	263.434	0.067	0.117
-530.077	-18.218	0.212	-0.134
-529.062	135.627	-0.125	-0.163
-528.048	3.206	-0.119	-0.087
-527.033	103.570	-0.172	-0.203
-526.018	238.757	-0.115	-0.192
-525.004	-200.000	-0.011	-0.410
-523.989	-200.000	-0.042	-0.327
-522.975	-99.358	-0.267	-0.068
-521.960	-89.065	0.052	-0.015
-520.945	9.316	0.120	0.091
-519.931	-200.000	-0.012	0.172
-518.916	-40.803	0.356	0.185
-517.902	-99.459	-0.127	0.032
-516.887	5.825	-0.041	-0.030
-515.872	-169.557	0.089	0.003
-514.858	209.224	0.187	-0.295
-513.843	-52.379	0.139	0.064
-512.829	-82.245	0.391	0.128
-511.814	-69.865	0.058	0.022
-510.799	-116.600	0.464	-0.086
-509.785	800.000	-0.025	0.102
-508.770	-170.667	-0.496	-0.017
-507.756	-23.852	0.087	-0.052
-506.741	493.222	0.123	-0.284
-505.726	-200.000	-0.003	0.244
-504.712	76.949	0.280	0.299
-503.697	-200.000	0.037	-0.234
-502.683	-200.000	-0.057	0.377
-501.668	800.000	-0.046	-0.155
-500.653	-200.000	-0.001	0.093
-499.639	66.356	0.283	-0.289
-498.624	-51.470	-0.209	0.098
-497.610	-129.724	-0.454	-0.063
-496.595	-200.000	-0.090	-0.402
-495.581	800.000	0.025	-0.081
-494.566	-3.515	-0.134	0.093
-493.551	800.000	-0.072	0.265
-492.537	-88.413	0.272	0.081
-491.522	-200.000	-0.011	-0.280
-490.508	-39.322	0.306	-0.161
-489.493	-167.182	-0.073	-0.003
-488.478	-31.654	-0.259	-0.146
-487.464	-0.632	-0.237	-0.169
-486.449	-21.168	-0.320	0.196
-485.435	-69.932	-0.070	0.027
-484.420	800.000	0.028	0.089
-483.405	-99.821	0.071	-0.018
-482.391	-74.279	-0.370	0.134
-481.376	-97.134	-0.176	-0.046
-480.362	70.417	-0.234	-0.243
-479.347	204.707	-0.081	-0.127
-478.332	-85.571	-0.359	-0.112
-477.318	800.000	-0.022	0.082
-476.303	-107.504	0.249	-0.055
-475.289	-200.000	0.000	0.204
-474.274	384.491	0.145	0.301
-473.259	-109.715	0.207	0.044
-472.245	-91.827	-0.163	-0.046
-471.230	202.265	0.235	-0.363
-470.216	-148.757	-0.179	-0.015
-469.201	-110.387	0.209	0.043
-468.186	-92.523	-0.317	0.089
-467.172	-122.774	0.302	0.049
-466.157	800.000	0.046	-0.132
-465.143	-200.000	-0.025	-0.112
-464.128	-96.076	0.262	-0.070
-463.113	-60.908	-0.082	-0.035
-462.099	-44.780	0.163	0.081
-461.084	29.467	-0.186	0.158
-460.070	11.796	-0.046	-0.035
-459.055	-78.540	-0.170	-0.058
-458.040	800.000	-0.110	0.415
-457.026	-64.993	-0.247	-0.100
-456.011	-118.057	-0.262	-0.047
-454.997	6.343	-0.159	0.118
-453.982	-47.265	0.336	-0.164
-452.968	95.173	0.121	-0.138
-451.953	71.359	-0.163	0.169
-450.938	3.224	-0.058	0.042
-449.924	-200.000	0.002	0.097
-448.909	-200.000	-0.035	-0.180
-447.895	-200.000	0.006	0.184
-446.880	21.875	-0.184	-0.150
-445.865	-200.000	-0.071	0.421
-444.851	-62.422	0.088	0.036
-443.836	144.314	-0.096	-0.129
-442.822	-84.904	0.230	-0.072
-441.807	-200.000	0.049	-0.284
-440.792	181.947	0.038	0.056
-439.778	56.242	-0.206	-0.200
-438.763	-17.911	0.248	-0.156
-437.749	123.777	-0.072	0.091
-436.734	-200.000	0.008	-0.051
-435.719	-57.286	0.064	-0.028
-434.705	-47.236	0.156	0.076
-433.690	146.947	-0.074	0.100
-432.676	-99.954	0.147	-0.037
-431.661	-59.668	0.186	-0.080
-430.646	740.022	-0.110	-0.297
-429.632	-173.310	0.203	0.006
-428.617	83.603	0.130	0.142
-427.603	664.341	-0.113	-0.291
-426.588	-117.655	0.182	0.033
-425.573	-157.602	-0.194	-0.012
-424.559	128.294	0.147	-0.188
-423.544	79.584	-0.165	-0.177
-422.530	26.319	0.264	0.221
-421.515	428.896	-0.070	0.152
-420.500	190.424	-0.014	-0.021
-419.486	-44.034	-0.150	-0.075
-418.471	43.650	-0.140	-0.128
-417.457	214.605	-0.269	-0.427
-416.442	800.000	0.115	0.477
-415.428	800.000	-0.063	0.221
-414.413	439.113	0.137	0.300
-413.398	800.000	-0.094	0.312
-412.384	42.183	-0.236	0.215
-411.369	-200.000	-0.012	0.063
-410.355	-200.000	0.021	0.234
-409.340	800.000	-0.026	0.110
-408.325	-117.519	0.296	-0.054
-407.311	420.893	-0.099	0.212
-406.296	196.270	0.036	0.055
-405.282	258.285	0.073	0.126
-404.267	-200.000	0.022	0.307
-403.252	522.494	0.110	0.258
-402.238	-200.000	0.019	-0.100
-401.223	-174.189	0.106	0.003
-400.209	-17.823	0.069	0.044
-399.194	323.530	-0.035	0.067
-398.179	-40.621	-0.336	-0.174
-397.165	800.000	-0.083	-0.317
-396.150	-190.172	-0.188	0.002
-395.136	-200.000	0.027	0.324
-394.121	-200.000	-0.014	0.138
-393.106	310.892	-0.052	0.098
-392.092	800.000	-0.140	-0.416
-391.077	227.173	-0.053	0.086
-390.063	53.792	-0.180	0.173
-389.048	131.164	0.172	-0.221
-388.033	-90.852	-0.282	0.081
-387.019	322.856	-0.178	-0.340
-386.004	7.097	0.101	-0.075
-384.990	-112.140	0.247	0.050
-383.975	-200.000	0.017	0.085
-382.960	317.836	-0.126	-0.238
-381.946	-5.118	0.116	0.079
-380.931	-119.960	-0.342	0.059
-379.917	214.185	0.283	0.448
-378.902	-104.032	0.121	-0.028
-377.888	800.000	-0.114	-0.316
-376.873	-9.283	-0.222	0.148
-375.858	800.000	-0.120	0.411
-374.844	800.000	0.085	-0.273
-373.829	302.054	-0.163	0.301
-372.815	-200.000	0.033	-0.193
-371.800	43.666	-0.063	-0.058
-370.785	167.677	-0.097	0.138
-369.771	337.844	-0.174	-0.337
-368.756	262.515	-0.047	-0.082
-367.742	-21.465	0.334	0.203
-366.727	-147.933	0.121	0.010
-365.712	-40.665	0.319	0.165
-364.698	-200.000	-0.032	-0.329
-363.683	-200.000	0.003	-0.200
-362.669	-80.896	-0.061	0.020
-361.654	800.000	0.006	-0.026
-360.639	677.184	-0.041	-0.108
-359.625	-5.527	-0.121	-0.083
-358.610	798.231	0.137	0.377
-357.596	-200.000	-0.003	-0.255
-356.581	-136.402	-0.146	0.017
-355.566	242.663	-0.034	0.056
-354.552	414.375	0.065	-0.138
-353.537	-17.048	-0.038	-0.024
-352.523	-200.000	0.000	-0.035
-351.508	293.362	-0.155	0.283
-350.493	-200.000	0.004	-0.157
-349.479	-86.075	0.188	0.058
-348.464	800.000	-0.050	0.159
-347.450	483.815	-0.191	0.434
-346.435	131.261	0.101	0.129
-345.420	-190.392	0.067	-0.001
-344.406	-94.935	0.252	0.068
-343.391	-151.639	0.292	-0.021
-342.377	-183.815	-0.081	-0.001
-341.362	-52.091	0.136	0.063
-340.348	-200.000	0.070	-0.326
-339.333	-151.097	-0.162	-0.012
-338.318	267.160	0.084	0.147
-337.304	47.715	0.102	0.095
-336.289	-200.000	-0.012	0.405
-335.275	-70.119	-0.474	0.180
-334.260	-200.000	-0.002	0.076
-333.245	353.267	-0.141	0.279
-332.231	-69.205	0.268	0.103
-331.216	-15.145	-0.085	0.055
-330.202	-149.790	-0.219	0.017
-329.187	-200.000	-0.003	-0.090
-328.172	-14.543	-0.266	-0.170
-327.158	92.799	0.049	-0.055
-326.143	-112.490	-0.233	0.046
-325.129	-200.000	0.019	-0.182
-324.114	-109.790	0.272	-0.057
-323.099	90.521	-0.131	-0.146
-322.085	-200.000	0.003	-0.136
-321.070	207.643	-0.119	-0.186
-320.056	11.829	-0.144	0.111
-319.041	505.568	0.079	-0.182
-318.026	-29.207	-0.401	-0.229
-317.012	-200.000	-0.080	0.381
-315.997	-116.741	0.340	-0.062
-314.983	21.931	0.141	-0.114
-313.968	138.381	0.159	-0.208
-312.953	800.000	0.085	-0.247
-311.939	-102.764	-0.154	-0.037
-310.924	183.010	0.010	-0.015
-309.910	-200.000	0.010	-0.074
-308.895	-21.721	-0.273	0.166
-307.880	266.843	0.043	0.076
-306.866	124.257	-0.095	-0.119
-305.851	79.535	0.237	0.253
-304.837	-59.656	0.304	-0.130
-303.822	-194.709	-0.090	0.001
-302.807	314.967	-0.201	0.377
-301.793	-200.000	0.004	0.174
-300.778	692.295	-0.067	0.175
-299.764	392.377	-0.143	-0.297
-298.749	205.990	-0.122	-0.190
-297.735	-47.115	0.056	0.027
-296.720	800.000	0.070	0.259
-295.705	-200.000	-0.042	0.367
-294.691	-31.562	-0.272	-0.152
-293.676	-200.000	-0.017	-0.129
-292.662	323.296	-0.022	0.041
-291.647	-105.776	0.227	-0.051
-290.632	-200.000	0.024	0.257
-289.618	-200.000	-0.032	0.224
-288.603	296.806	0.028	-0.051
-287.589	-108.437	0.138	0.030
-286.574	-200.000	0.023	-0.209
-285.559	-200.000	-0.023	-0.233
-284.545	-26.025	-0.169	-0.099
-283.530	-80.090	-0.114	-0.038
-282.516	371.461	0.101	-0.204
-281.501	-200.000	-0.001	0.061
-280.486	800.000	-0.014	-0.061
-279.472	46.754	0.066	0.061
-278.457	-50.453	-0.128	0.060
-277.443	-143.669	0.117	0.011
-276.428	-91.011	0.234	0.067
-275.413	36.333	0.124	0.109
-274.399	-68.579	-0.276	-0.106
-273.384	-200.000	0.029	0.231
-272.370	-200.000	0.005	0.061
-271.355	143.935	-0.275	-0.365
-270.340	-30.311	-0.112	0.063
-269.326	118.161	0.122	-0.150
-268.311	37.280	0.134	-0.118
-267.297	410.767	0.095	0.200
-266.282	800.000	0.054	-0.150
-265.267	96.605	-0.165	0.188
-264.253	-65.119	-0.108	0.043
-263.238	-200.000	0.011	0.091
-262.224	24.760	-0.222	0.183
-261.209	143.879	0.095	-0.126
-260.195	-174.781	0.110	-0.003
-259.180	124.601	-0.088	0.111
-258.165	-66.163	-0.199	-0.079
-257.151	101.750	-0.033	-0.038
-256.136	29.490	0.019	-0.016
-255.122	45.524	-0.178	0.163
-254.107	-64.024	-0.254	-0.103
-253.092	-41.715	0.115	-0.059
-252.078	-120.328	-0.117	0.020
-251.063	-62.465	0.023	0.009
-250.049	-60.599	0.533	0.225
-249.034	-28.458	-0.223	0.128
-248.019	218.449	0.080	0.127
-247.005	-150.876	0.253	-0.019
-245.990	-200.000	-0.022	-0.272
-244.976	-142.134	0.043	0.004
-243.961	-200.000	-0.039	0.216
-242.946	91.722	-0.145	-0.162
-241.932	-129.062	-0.152	-0.021
-240.917	295.823	0.083	-0.151
-239.903	508.920	-0.092	0.212
-238.888	200.628	0.138	0.211
-237.873	-97.774	-0.161	0.042
-236.859	-200.000	-0.011	0.198
-235.844	307.947	0.035	-0.064
-234.830	-81.410	0.286	0.094
-233.815	548.558	-0.022	-0.053
-232.800	-200.000	-0.002	0.410
-231.786	53.402	-0.117	-0.111
-230.771	-144.106	0.211	-0.020
-229.757	-77.428	0.131	0.045
-228.742	792.982	0.116	-0.316
-227.727	11.006	-0.216	-0.164
-226.713	-112.314	0.142	-0.028
-225.698	32.006	0.240	0.205
-224.684	37.994	-0.131	0.116
-223.669	800.000	0.044	0.154
-222.655	-70.465	0.097	0.036
-221.640	45.985	-0.241	0.221
-220.625	19.282	0.179	-0.142
-219.611	3.098	-0.248	0.179
-218.596	-200.000	0.007	0.243
-217.582	163.608	-0.136	0.190
-216.567	40.686	0.153	-0.137
-215.552	-62.569	-0.316	0.130
-214.538	231.644	-0.096	-0.156
-213.523	174.446	0.286	-0.410
-212.509	131.844	-0.058	-0.074
-211.494	-59.380	0.210	0.090
-210.479	106.769	-0.132	0.156
-209.465	-25.693	-0.180	-0.105
-208.450	-55.671	-0.134	0.060
-207.436	-200.000	-0.011	0.155
-206.421	-200.000	0.020	0.581
-205.406	800.000	-0.082	0.228
-204.392	57.807	0.112	-0.109
-203.377	800.000	-0.039	-0.130
-202.363	800.000	0.033	0.139
-201.348	173.887	-0.220	-0.316
-200.333	-12.000	-0.153	-0.099
-199.319	-25.249	0.104	-0.061
-198.304	-200.000	-0.020	-0.308
-197.290	86.783	-0.208	-0.228
-196.275	-190.811	-0.250	0.003
-195.260	-138.530	0.413	-0.045
-194.246	22.314	-0.057	0.046
-193.231	-77.068	-0.054	0.019
-192.217	-0.353	0.200	0.141
-191.202	-47.755	-0.067	0.032
-190.187	-200.000	-0.004	0.071
-189.173	-200.000	-0.010	0.137
-188.158	-114.117	0.344	0.066
-187.144	-173.465	0.218	0.007
-186.129	69.226	-0.085	-0.087
-185.114	800.000	0.099	-0.308
-184.100	-86.780	-0.196	0.059
-183.085	445.259	-0.061	0.133
-182.071	-21.982	0.130	0.079
-181.056	284.409	0.147	-0.261
-180.042	42.676	-0.214	-0.193
-179.027	173.016	0.105	-0.150
-178.012	145.435	0.155	-0.206
-176.998	-200.000	-0.031	0.212
-175.983	800.000	-0.056	-0.154
-174.969	-59.689	0.072	-0.031
-173.954	443.014	0.048	-0.104
-172.939	51.848	0.238	-0.224
-171.925	800.000	0.062	0.264
-170.910	28.035	-0.076	-0.064
-169.896	737.629	-0.118	-0.315
-168.881	-105.038	-0.109	0.025
-167.866	272.496	-0.133	0.233
-166.852	-136.837	0.281	-0.032
-165.837	-200.000	-0.016	0.327
-164.823	-200.000	-0.031	0.479
-163.808	281.562	0.060	0.107
-162.793	-200.000	0.021	-0.131
-161.779	800.000	0.114	0.339
-160.764	-200.000	0.047	-0.298
-159.750	-82.979	0.245	0.078
-158.735	800.000	0.063	-0.269
-157.720	381.906	-0.075	-0.152
-156.706	418.424	0.115	-0.244
-155.691	800.000	0.083	-0.344
-154.677	84.949	-0.146	-0.159
-153.662	-4.233	0.131	-0.090
-152.647	-200.000	-0.034	0.256
-151.633	-82.450	0.250	0.080
-150.618	97.646	-0.247	0.282
-149.604	-200.000	0.040	0.242
-148.589	81.200	-0.118	-0.126
-147.574	-9.959	0.208	0.137
-146.560	161.537	0.180	0.249
-145.545	800.000	0.099	0.342
-144.531	44.959	-0.142	0.129
-143.516	144.116	0.165	0.218
-142.502	-151.218	-0.078	0.006
-141.487	225.406	0.062	0.100
-140.472	65.486	-0.125	0.125
-139.458	-200.000	-0.018	-0.098
-138.443	10.437	-0.129	-0.097
-137.429	-138.999	-0.421	0.045
-136.414	-120.485	0.341	0.057
-135.399	-118.784	0.164	0.029
-134.385	112.833	0.136	0.163
-133.370	48.594	-0.385	0.357
-132.356	137.255	-0.159	0.205
-131.341	-68.519	-0.129	0.049
-130.326	107.041	-0.113	-0.133
-129.312	-200.000	0.002	0.169
-128.297	6.566	0.117	0.086
-127.283	-63.742	0.219	0.089
-126.268	-200.000	-0.029	0.252
-125.253	548.161	-0.034	0.080
-124.239	800.000	0.070	0.291
-123.224	240.575	0.213	0.351
-122.210	-200.000	-0.062	0.468
-121.195	-101.149	0.180	0.044
-120.180	-10.494	-0.131	-0.086
