DTS Sentinel unit serial number:	SN413079Multiplexer serial number:	ORYXHardware model number:	OX4-SRSoftware version number:	ORYX F/W v4.00 Oryx Data Collector v3.7.2.0data status	okinstallation	princeton_trtdifferential loss correction	single-endedforward channel	channel 4reverse channel	N/Adate	2019/09/15time	20:05:34forward acquisition time	60.00reverse acquisition time	0.00gamma	496.2192k internal	0.2309k external	0.2309temperature offset calibration	0.9930default loss term (dB/km)	0.3790temperature slope calibration	1.0000multiplexer offset coefficient	1.0000multiplexer slope coefficient	1.0000fibre end	0.00T internal ref (°C)	35.28T ext. ref 1 (°C)	7.60T ext. ref 2 (°C)	26.17length (m)	temperature (°C)	Stokes	anti-Stokes-747.200	157.982	-0.094	-0.132
-746.185	-200.000	-0.008	-0.090
-745.171	-64.413	0.397	-0.164
-744.156	-72.840	-0.146	0.054
-743.142	397.812	0.072	-0.152
-742.127	-200.000	0.019	-0.241
-741.112	62.654	0.217	0.221
-740.098	800.000	-0.045	0.128
-739.083	54.161	0.072	0.070
-738.069	-200.000	0.025	0.271
-737.054	736.082	0.047	-0.128
-736.039	-148.084	-0.243	-0.020
-735.025	44.355	0.191	0.178
-734.010	-38.952	0.140	-0.075
-732.996	-200.000	0.006	-0.069
-731.981	145.773	-0.110	-0.150
-730.966	800.000	-0.117	0.449
-729.952	-21.284	-0.011	0.007
-728.937	391.427	-0.159	-0.335
-727.923	113.358	0.022	0.027
-726.908	-200.000	-0.009	-0.345
-725.894	-127.522	0.351	0.052
-724.879	800.000	-0.045	-0.166
-723.864	455.434	-0.058	-0.131
-722.850	-150.191	-0.264	-0.021
-721.835	800.000	-0.059	0.231
-720.821	-86.238	-0.232	0.073
-719.806	2.132	-0.106	-0.078
-718.791	57.226	-0.146	0.145
-717.777	261.150	-0.107	0.188
-716.762	310.996	-0.049	0.094
-715.748	264.010	-0.107	0.190
-714.733	10.955	-0.087	-0.068
-713.718	800.000	0.072	-0.213
-712.704	-44.169	0.156	-0.080
-711.689	-200.000	-0.039	-0.313
-710.675	29.493	-0.018	0.015
-709.660	140.538	-0.214	0.286
-708.645	-14.727	-0.252	-0.164
-707.631	-200.000	0.006	-0.310
-706.616	287.643	-0.087	-0.161
-705.602	-93.562	0.094	-0.026
-704.587	-22.646	-0.093	0.057
-703.572	36.593	0.025	0.023
-702.558	-39.558	-0.282	-0.150
-701.543	456.323	0.125	0.282
-700.529	381.538	-0.067	0.139
-699.514	-137.104	-0.103	-0.012
-698.499	142.057	-0.103	0.138
-697.485	-78.935	-0.382	0.132
-696.470	800.000	-0.086	-0.324
-695.456	269.422	0.060	0.107
-694.441	-49.857	0.309	0.149
-693.426	-151.788	0.024	-0.002
-692.412	439.891	-0.052	-0.115
-691.397	-71.473	-0.268	0.102
-690.383	-151.875	-0.217	0.016
-689.368	67.020	-0.219	-0.226
-688.354	185.604	-0.049	0.074
-687.339	-44.380	0.093	-0.047
-686.324	22.277	-0.151	-0.125
-685.310	59.084	0.112	0.112
-684.295	-113.895	-0.200	-0.039
-683.281	-200.000	-0.013	-0.290
-682.266	212.747	-0.031	0.050
-681.251	-160.332	-0.212	0.012
-680.237	-36.144	-0.285	-0.156
-679.222	-50.364	-0.293	0.140
-678.208	-6.028	0.280	0.194
-677.193	-10.674	0.058	-0.039
-676.178	800.000	-0.072	-0.287
-675.164	25.838	-0.132	-0.111
-674.149	-183.422	0.235	0.004
-673.135	204.457	-0.152	-0.239
-672.120	-103.255	-0.123	-0.030
-671.105	769.243	-0.074	-0.205
-670.091	800.000	0.029	0.124
-669.076	120.558	0.214	0.269
-668.062	-96.799	0.027	-0.007
-667.047	-94.367	0.179	0.050
-666.032	-126.958	-0.331	0.049
-665.018	255.131	-0.151	-0.261
-664.003	-200.000	-0.023	0.184
-662.989	-77.557	0.138	0.048
-661.974	-200.000	-0.015	-0.072
-660.959	-200.000	0.035	0.211
-659.945	45.177	-0.302	-0.282
-658.930	800.000	-0.055	0.164
-657.916	-141.482	0.376	-0.039
-656.901	-200.000	-0.034	-0.158
-655.886	481.413	-0.127	-0.293
-654.872	772.347	-0.077	-0.212
-653.857	-200.000	-0.028	-0.159
-652.843	464.403	-0.103	0.233
-651.828	-20.198	0.143	0.089
-650.814	-86.935	0.140	-0.043
-649.799	-3.995	0.069	0.048
-648.784	21.290	0.169	-0.139
-647.770	273.629	0.240	0.429
-646.755	800.000	0.120	0.373
-645.741	800.000	-0.041	0.145
-644.726	273.602	-0.058	0.103
-643.711	-200.000	-0.013	-0.278
-642.697	-200.000	-0.011	0.231
-641.682	210.477	0.112	-0.178
-640.668	-200.000	0.034	0.177
-639.653	10.935	0.087	0.067
-638.638	800.000	0.042	0.177
-637.624	-200.000	-0.002	-0.353
-636.609	800.000	-0.063	-0.192
-635.595	-105.843	-0.351	0.080
-634.580	5.692	-0.334	0.250
-633.565	-33.890	-0.229	0.127
-632.551	37.280	-0.153	0.137
-631.536	-70.767	0.230	0.088
-630.522	199.861	-0.092	-0.144
-629.507	-200.000	-0.036	-0.478
-628.492	-50.010	0.244	-0.117
-627.478	-200.000	-0.021	-0.170
-626.463	8.739	0.201	-0.153
-625.449	743.208	-0.080	-0.217
-624.434	-139.128	-0.112	-0.012
-623.419	800.000	0.053	-0.201
-622.405	-128.096	0.182	-0.026
-621.390	-91.204	0.232	0.067
-620.376	354.469	-0.064	0.128
-619.361	256.346	-0.168	-0.292
-618.346	-135.713	-0.259	0.031
-617.332	134.360	0.166	-0.217
-616.317	505.197	0.125	0.294
-615.303	-99.240	0.177	-0.045
-614.288	229.086	0.135	0.223
-613.273	605.334	0.133	-0.335
-612.259	-116.129	0.107	-0.020
-611.244	-4.530	-0.097	0.068
-610.230	151.702	-0.353	-0.487
-609.215	182.455	0.051	0.076
-608.201	-200.000	0.010	0.219
-607.186	-68.624	-0.189	0.074
-606.171	-64.878	0.277	-0.113
-605.157	-200.000	-0.003	-0.045
-604.142	-118.607	0.528	0.094
-603.128	-84.848	-0.092	0.029
-602.113	66.565	0.168	0.172
-601.098	-200.000	-0.016	-0.175
-600.084	504.759	-0.173	-0.404
-599.069	60.054	0.094	0.094
-598.055	-200.000	0.022	0.246
-597.040	796.469	-0.033	-0.093
-596.025	800.000	-0.074	0.304
-595.011	2.505	0.322	-0.235
-593.996	-141.425	0.218	-0.022
-592.982	-190.125	-0.302	0.003
-591.967	-119.934	0.025	0.004
-590.952	318.919	-0.086	0.164
-589.938	-94.928	0.239	0.065
-588.923	-200.000	-0.029	0.145
-587.909	-155.603	-0.021	0.001
-586.894	-172.422	-0.061	-0.002
-585.879	705.434	0.014	0.038
-584.865	-54.270	-0.087	-0.040
-583.850	-200.000	0.184	0.001
-582.836	-101.474	-0.041	-0.010
-581.821	-200.000	-0.001	-0.267
-580.806	44.872	-0.124	-0.115
-579.792	33.222	0.221	0.193
-578.777	-14.437	0.285	-0.185
-577.763	-149.279	-0.186	0.015
-576.748	89.975	0.214	0.242
-575.733	363.262	-0.043	0.087
-574.719	-200.000	-0.081	-0.371
-573.704	73.324	-0.328	0.346
-572.690	613.461	-0.055	-0.140
-571.675	-23.838	-0.207	-0.125
-570.661	15.252	-0.457	-0.362
-569.646	-9.192	-0.318	-0.214
-568.631	-142.134	0.135	-0.014
-567.617	-74.838	-0.162	-0.059
-566.602	-200.000	-0.046	0.535
-565.588	-94.230	-0.419	-0.116
-564.573	11.724	0.043	-0.033
-563.558	62.651	-0.031	-0.032
-562.544	-200.000	0.017	-0.133
-561.529	295.747	-0.083	-0.153
-560.515	-144.803	0.120	-0.011
-559.500	623.792	0.029	0.073
-558.485	65.404	0.137	0.139
-557.471	52.589	0.113	0.109
-556.456	547.970	-0.115	-0.278
-555.442	-188.986	-0.144	-0.002
-554.427	-200.000	-0.059	0.269
-553.412	-15.496	0.128	-0.082
-552.398	800.000	0.043	-0.185
-551.383	326.451	-0.187	-0.360
-550.369	-18.508	0.222	0.140
-549.354	-99.977	-0.368	0.093
-548.339	-55.449	-0.154	0.070
-547.325	371.689	0.215	-0.441
-546.310	-131.523	0.470	0.063
-545.296	-134.284	-0.031	0.004
-544.281	24.456	0.063	0.053
-543.266	-7.883	-0.268	-0.182
-542.252	-200.000	0.058	-0.306
-541.237	-64.423	-0.287	0.118
-540.223	-127.615	-0.261	-0.038
-539.208	204.810	0.198	0.310
-538.193	-88.698	-0.187	-0.056
-537.179	800.000	-0.014	0.057
-536.164	-200.000	-0.011	0.082
-535.150	206.350	0.221	0.346
-534.135	77.659	0.166	0.178
-533.121	-78.299	0.198	-0.068
-532.106	-70.999	-0.041	-0.016
-531.091	800.000	0.026	-0.100
-530.077	594.667	-0.077	-0.191
-529.062	9.459	-0.118	0.090
-528.048	-46.154	-0.085	0.042
-527.033	-88.849	0.315	0.094
-526.018	-96.250	0.229	0.061
-525.004	11.414	-0.158	0.122
-523.989	-133.914	-0.313	-0.039
-522.975	-200.000	0.117	-0.700
-521.960	800.000	-0.057	0.224
-520.945	628.385	0.116	0.296
-519.931	-80.847	0.083	-0.028
-518.916	-136.310	-0.250	0.029
-517.902	-87.664	-0.052	0.016
-516.887	800.000	0.019	0.082
-515.872	-44.585	-0.179	-0.090
-514.858	353.213	0.153	0.305
-513.843	-148.858	0.457	-0.037
-512.829	360.367	0.057	0.115
-511.814	-15.649	0.095	0.061
-510.799	-57.368	0.064	0.028
-509.785	-4.980	-0.334	-0.232
-508.770	-84.271	0.053	0.017
-507.756	-200.000	0.010	-0.065
-506.741	-72.548	-0.056	0.021
-505.726	212.311	0.088	0.139
-504.712	228.758	-0.135	-0.221
-503.697	45.677	-0.227	-0.212
-502.683	800.000	0.017	0.056
-501.668	-59.654	-0.115	0.050
-500.653	800.000	0.050	-0.178
-499.639	-137.454	-0.281	0.032
-498.624	209.641	-0.089	-0.141
-497.610	344.715	-0.159	0.314
-496.595	-146.365	0.134	-0.012
-495.581	800.000	0.067	-0.227
-494.566	-140.391	-0.348	0.036
-493.551	-50.750	0.177	0.084
-492.537	-143.646	0.188	0.018
-491.522	74.787	0.144	-0.152
-490.508	-83.872	-0.113	-0.036
-489.493	-200.000	0.017	0.136
-488.478	-140.716	-0.233	0.024
-487.464	-200.000	-0.028	-0.558
-486.449	-85.104	0.044	0.014
-485.435	162.704	0.123	0.174
-484.420	32.377	-0.155	-0.134
-483.405	52.761	0.276	-0.265
-482.391	-200.000	-0.042	-0.353
-481.376	48.025	-0.035	0.033
-480.362	-131.002	-0.418	-0.056
-479.347	-47.357	-0.209	-0.102
-478.332	2.564	0.263	0.192
-477.318	-128.141	0.217	-0.031
-476.303	264.878	0.068	-0.118
-475.289	262.259	0.103	-0.180
-474.274	492.632	0.157	0.362
-473.259	-69.966	0.190	0.073
-472.245	9.450	0.385	-0.293
-471.230	-96.823	0.104	-0.028
-470.216	71.410	0.129	-0.135
-469.201	-75.746	0.354	0.126
-468.186	170.499	0.126	-0.182
-467.172	-200.000	-0.023	-0.111
-466.157	-111.012	-0.286	0.059
-465.143	-72.766	0.354	-0.131
-464.128	35.288	0.045	0.039
-463.113	-148.572	0.079	0.007
-462.099	-61.828	-0.148	0.062
-461.084	-200.000	-0.049	-0.239
-460.070	577.908	-0.145	-0.356
-459.055	385.181	0.051	-0.105
-458.040	-200.000	0.024	-0.217
-457.026	800.000	-0.123	-0.384
-456.011	88.812	0.087	-0.097
-454.997	3.825	0.099	0.072
-453.982	-78.901	-0.120	-0.041
-452.968	-200.000	0.014	0.070
-451.953	-119.157	0.118	-0.021
-450.938	36.930	-0.190	-0.169
-449.924	800.000	-0.078	0.340
-448.909	21.751	0.103	0.085
-447.895	-31.164	0.098	-0.056
-446.880	-119.114	-0.363	0.064
-445.865	106.456	-0.246	-0.293
-444.851	-163.551	0.068	0.003
-443.836	66.105	-0.184	-0.187
-442.822	800.000	-0.056	0.204
-441.807	-11.960	0.073	-0.048
-440.792	106.356	0.036	-0.043
-439.778	567.770	-0.170	-0.414
-438.763	-200.000	-0.017	-0.242
-437.749	800.000	-0.054	0.207
-436.734	-200.000	-0.016	-0.176
-435.719	405.965	0.093	0.197
-434.705	52.795	-0.090	0.086
-433.690	-157.437	0.116	0.007
-432.676	-123.262	-0.142	-0.023
-431.661	32.477	0.103	0.089
-430.646	544.763	-0.100	-0.239
-429.632	-37.626	-0.375	0.200
-428.617	-178.783	0.195	-0.004
-427.603	-82.152	-0.265	0.087
-426.588	93.784	-0.172	-0.195
-425.573	8.919	-0.033	-0.025
-424.559	-48.515	-0.067	0.032
-423.544	-151.605	-0.168	0.012
-422.530	529.759	0.203	0.481
-421.515	-43.822	-0.097	-0.049
-420.500	71.046	0.097	0.101
-419.486	-200.000	-0.005	0.301
-418.471	-68.110	0.234	0.092
-417.457	-200.000	0.045	-0.212
-416.442	-48.265	0.205	-0.099
-415.428	478.607	-0.086	-0.196
-414.413	13.896	0.082	0.064
-413.398	105.683	-0.088	0.104
-412.384	22.749	-0.030	-0.025
-411.369	66.818	0.217	-0.222
-410.355	-78.328	0.533	0.183
-409.340	640.622	0.062	-0.159
-408.325	-200.000	0.067	0.406
-407.311	44.340	-0.127	-0.117
-406.296	-200.000	-0.027	0.138
-405.282	800.000	0.024	-0.098
-404.267	-143.130	-0.302	0.029
-403.252	800.000	0.081	0.233
-402.238	-12.130	-0.164	-0.107
-401.223	150.765	-0.156	-0.212
-400.209	507.437	-0.056	0.129
-399.194	-91.169	-0.262	0.075
-398.179	224.103	0.199	-0.322
-397.165	-88.892	0.239	0.071
-396.150	113.877	-0.060	-0.073
-395.136	-13.710	-0.215	-0.140
-394.121	13.545	-0.411	-0.319
-393.106	800.000	-0.100	-0.337
-392.092	116.016	-0.048	-0.058
-391.077	587.229	-0.220	0.542
-390.063	-87.422	-0.062	0.019
-389.048	-123.950	-0.310	-0.049
-388.033	-200.000	-0.055	0.348
-387.019	-133.137	-0.161	0.020
-386.004	-142.266	-0.271	-0.027
-384.990	96.276	-0.189	0.217
-383.975	-14.840	0.298	0.192
-382.960	-48.212	0.308	0.149
-381.946	54.635	-0.167	0.162
-380.931	79.270	0.113	0.121
-379.917	339.788	-0.123	0.240
-378.902	-60.844	-0.381	-0.162
-377.888	99.578	-0.337	-0.390
-376.873	800.000	-0.034	0.130
-375.858	103.495	0.035	-0.041
-374.844	-20.401	-0.226	-0.139
-373.829	-132.121	-0.302	-0.039
-372.815	-200.000	0.039	-0.181
-371.800	145.683	-0.067	0.091
-370.785	-200.000	0.032	0.171
-369.771	-125.623	0.266	0.040
-368.756	-119.935	-0.335	-0.058
-367.742	11.411	-0.250	0.192
-366.727	800.000	-0.124	0.393
-365.712	446.341	-0.134	0.294
-364.698	230.125	-0.124	-0.203
-363.683	-200.000	0.012	-0.252
-362.669	249.847	0.159	-0.271
-361.654	-91.916	-0.246	0.070
-360.639	163.485	0.091	0.129
-359.625	-138.454	-0.178	-0.020
-358.610	17.228	-0.221	-0.176
-357.596	218.161	-0.100	-0.160
-356.581	-195.933	-0.122	-0.001
-355.566	800.000	-0.088	-0.328
-354.552	111.534	0.229	-0.276
-353.537	-200.000	0.013	-0.310
-352.523	-179.861	0.153	0.003
-351.508	202.883	-0.214	0.331
-350.493	-200.000	-0.007	-0.129
-349.479	800.000	-0.046	-0.165
-348.464	-83.261	0.278	-0.089
-347.450	-150.453	0.164	0.013
-346.435	-19.382	-0.092	-0.057
-345.420	-200.000	0.018	-0.417
-344.406	189.021	-0.100	0.150
-343.391	-53.961	-0.132	-0.060
-342.377	-200.000	0.015	-0.078
-341.362	-5.995	0.127	-0.087
-340.348	70.613	-0.025	-0.026
-339.333	42.095	0.211	-0.191
-338.318	4.433	0.391	0.287
-337.304	-185.455	-0.147	-0.002
-336.289	-125.058	-0.150	0.023
-335.275	-84.624	-0.187	0.059
-334.260	362.252	-0.086	-0.172
-333.245	-135.831	-0.191	-0.023
-332.231	149.328	0.031	-0.041
-331.216	94.988	-0.114	0.130
-330.202	-200.000	-0.031	-0.143
-329.187	575.702	-0.079	0.193
-328.172	-200.000	0.025	-0.215
-327.158	524.231	-0.034	0.080
-326.143	485.154	0.126	0.287
-325.129	141.016	-0.239	0.316
-324.114	-200.000	0.039	0.180
-323.099	70.035	0.155	0.160
-322.085	100.039	0.308	0.357
-321.070	215.291	-0.100	0.158
-320.056	800.000	0.044	-0.126
-319.041	-117.883	-0.062	-0.011
-318.026	85.229	-0.041	-0.045
-317.012	375.648	0.120	-0.244
-315.997	107.527	-0.155	0.185
-314.983	800.000	0.169	0.513
-313.968	-200.000	-0.004	0.030
-312.953	-96.794	0.158	0.041
-311.939	-5.524	0.182	-0.125
-310.924	-26.497	0.110	-0.064
-309.910	242.367	0.140	0.234
-308.895	800.000	0.096	-0.371
-307.880	-77.981	0.204	-0.070
-306.866	-48.159	0.082	-0.039
-305.851	-94.806	-0.097	0.026
-304.837	14.336	0.094	-0.073
-303.822	139.555	0.185	-0.243
-302.807	800.000	-0.032	0.125
-301.793	800.000	0.039	-0.126
-300.778	800.000	-0.058	0.182
-299.764	-79.086	0.037	0.013
-298.749	19.876	0.059	0.048
-297.735	55.535	-0.121	-0.117
-296.720	-58.376	0.405	0.176
-295.705	262.403	0.086	0.148
-294.691	-128.552	-0.124	-0.018
-293.676	-23.443	0.245	-0.147
-292.662	-51.958	-0.049	0.023
-291.647	308.767	0.080	-0.149
-290.632	475.154	-0.095	0.215
-289.618	134.145	0.112	0.145
-288.603	-78.345	0.053	0.018
-287.589	-110.213	-0.298	-0.062
-286.574	43.551	-0.182	-0.166
-285.559	457.061	0.079	-0.176
-284.545	238.274	-0.088	-0.146
-283.530	-112.982	-0.036	0.007
-282.516	2.710	0.070	0.051
-281.501	324.093	0.120	0.228
-280.486	-56.620	-0.141	-0.062
-279.472	350.405	0.263	-0.518
-278.457	-152.893	-0.227	-0.016
-277.443	800.000	-0.101	-0.283
-276.428	62.567	-0.169	0.168
-275.413	-200.000	-0.048	-0.212
-274.399	32.576	0.194	-0.167
-273.384	51.393	0.074	-0.070
-272.370	40.527	-0.306	-0.275
-271.355	-139.513	-0.220	0.023
-270.340	-108.646	-0.646	0.138
-269.326	-30.398	0.255	-0.144
-268.311	-100.758	0.399	-0.098
-267.297	-200.000	0.048	0.462
-266.282	800.000	-0.061	0.248
-265.267	52.687	0.267	0.255
-264.253	800.000	0.028	0.081
-263.238	-189.306	0.200	-0.002
-262.224	800.000	0.043	-0.158
-261.209	-116.978	-0.320	-0.058
-260.195	219.455	0.070	-0.111
-259.180	41.871	-0.303	0.274
-258.165	398.290	0.098	0.205
-257.151	-47.756	0.136	0.066
-256.136	300.835	-0.165	-0.304
-255.122	-19.644	0.147	0.091
-254.107	-142.001	-0.254	0.025
-253.092	39.901	-0.220	0.197
-252.078	-63.007	0.246	-0.101
-251.063	22.024	0.207	-0.168
-250.049	-58.172	0.111	0.048
-249.034	154.963	-0.038	0.052
-248.019	4.668	-0.232	-0.170
-247.005	-1.937	0.314	-0.220
-245.990	800.000	0.070	0.205
-244.976	-167.263	-0.045	0.002
-243.961	-2.386	0.230	0.160
-242.946	563.416	0.074	-0.178
-241.932	-101.256	0.114	0.028
-240.917	487.467	0.082	-0.187
-239.903	-50.592	-0.056	-0.026
-238.888	-188.130	-0.277	-0.004
-237.873	800.000	0.056	0.180
-236.859	15.210	0.127	-0.099
-235.844	78.325	-0.286	-0.304
-234.830	-200.000	0.031	-0.269
-233.815	-33.829	-0.200	-0.110
-232.800	-200.000	0.048	-0.281
-231.786	110.349	0.195	0.233
-230.771	-200.000	-0.048	0.411
-229.757	-33.571	0.232	-0.128
-228.742	-184.273	-0.053	-0.001
-227.727	141.515	0.297	0.391
-226.713	-27.582	0.140	0.081
-225.698	108.963	0.266	0.317
-224.684	283.400	-0.133	0.237
-223.669	11.373	-0.178	0.136
-222.655	-7.391	0.283	-0.191
-221.640	-200.000	-0.020	-0.173
-220.625	-75.532	-0.118	-0.042
-219.611	-150.696	0.389	0.029
-218.596	-200.000	-0.031	-0.134
-217.582	-69.759	0.115	0.044
-216.567	-27.178	-0.102	-0.059
-215.552	65.724	0.146	-0.147
-214.538	-200.000	0.027	0.220
-213.523	-113.612	-0.221	-0.043
-212.509	123.499	-0.143	0.179
-211.494	-55.746	0.266	0.119
-210.479	-200.000	-0.259	-0.001
-209.465	-142.175	-0.303	0.030
-208.450	646.965	0.034	0.086
-207.436	189.435	0.144	0.215
-206.421	119.343	-0.204	-0.252
-205.406	-62.359	-0.175	0.072
-204.392	-118.400	0.331	-0.058
-203.377	-200.000	0.006	0.110
-202.363	759.466	0.111	0.299
-201.348	-102.100	0.094	-0.022
-200.333	16.222	0.138	-0.108
-199.319	800.000	-0.026	0.094
-198.304	2.287	-0.136	0.098
-197.290	-8.982	-0.230	0.153
-196.275	12.341	0.285	0.218
-195.260	-200.000	-0.018	0.310
-194.246	-23.685	-0.181	0.108
-193.231	800.000	-0.028	0.118
-192.217	-200.000	-0.027	0.157
-191.202	170.621	-0.093	-0.133
-190.187	-130.111	0.266	-0.036
-189.173	603.505	-0.111	0.274
-188.158	24.848	0.216	0.178
-187.144	-84.249	0.149	0.047
-186.129	-46.531	-0.237	-0.116
-185.114	23.949	-0.037	-0.030
-184.100	119.932	-0.091	-0.112
-183.085	-95.936	0.424	0.112
-182.071	74.279	0.248	-0.259
-181.056	-115.668	-0.096	0.018
-180.042	765.898	-0.094	0.255
-179.027	-22.329	-0.140	0.084
-178.012	36.031	0.121	0.106
-176.998	93.717	0.108	0.122
-175.983	-200.000	0.000	0.025
-174.969	-108.372	0.208	0.045
-173.954	800.000	0.058	-0.180
-172.939	174.996	-0.035	0.050
-171.925	-200.000	0.025	0.239
-170.910	-2.332	0.207	0.144
-169.896	-200.000	0.043	0.290
-168.881	-200.000	-0.023	0.107
-167.866	800.000	0.020	0.083
-166.852	-84.666	0.139	-0.043
-165.837	800.000	-0.152	0.449
-164.823	374.702	-0.148	0.299
-163.808	-75.262	0.217	0.077
-162.793	-90.356	0.011	-0.003
-161.779	-57.922	0.312	-0.135
-160.764	-142.510	0.203	0.020
-159.750	800.000	-0.022	-0.085
-158.735	-200.000	-0.040	0.345
-157.720	-200.000	-0.056	0.524
-156.706	800.000	0.088	-0.282
-155.691	800.000	0.034	-0.127
-154.677	-18.078	0.159	-0.099
-153.662	-200.000	0.067	-0.315
-152.647	-200.000	-0.064	0.469
-151.633	-96.199	0.302	-0.080
-150.618	199.223	-0.055	0.084
-149.604	-148.426	-0.173	0.014
-148.589	309.842	-0.143	0.265
-147.574	-97.226	0.250	-0.065
-146.560	-75.645	-0.150	0.053
-145.545	-127.641	0.127	-0.018
-144.531	-200.000	-0.024	0.211
-143.516	-200.000	-0.064	-0.470
-142.502	14.157	0.345	-0.267
-141.487	164.657	0.138	0.194
-140.472	26.470	-0.031	-0.026
-139.458	214.568	0.216	-0.339
-138.443	-96.300	-0.485	-0.127
-137.429	194.434	0.044	-0.067
-136.414	-200.000	0.016	-0.089
-135.399	29.577	-0.164	-0.138
-134.385	-196.836	0.208	-0.001
-133.370	-12.090	-0.325	0.211
-132.356	-167.829	-0.185	0.007
-131.341	800.000	-0.030	-0.113
-130.326	-200.000	0.029	-0.194
-129.312	-200.000	0.007	0.326
-128.297	-10.646	-0.207	-0.136
-127.283	97.810	0.207	-0.237
-126.268	-85.599	-0.154	-0.047
-125.253	-200.000	0.086	0.413
-124.239	705.945	-0.176	0.462
-123.224	-93.829	-0.213	-0.058
-122.210	90.179	0.045	0.050
-121.195	-200.000	-0.009	0.060
