DTS Sentinel unit serial number:	SN413079Multiplexer serial number:	ORYXHardware model number:	OX4-SRSoftware version number:	ORYX F/W v4.00 Oryx Data Collector v3.7.2.0data status	okinstallation	princeton_trtdifferential loss correction	single-endedforward channel	channel 4reverse channel	N/Adate	2019/09/16time	15:41:35forward acquisition time	60.00reverse acquisition time	0.00gamma	496.2192k internal	0.2288k external	0.2288temperature offset calibration	0.9936default loss term (dB/km)	0.3790temperature slope calibration	1.0000multiplexer offset coefficient	1.0000multiplexer slope coefficient	1.0000fibre end	0.00T internal ref (°C)	41.19T ext. ref 1 (°C)	14.77T ext. ref 2 (°C)	36.53length (m)	temperature (°C)	Stokes	anti-Stokes-747.200	-123.269	-0.271	-0.044
-746.185	-22.690	0.099	0.061
-745.171	68.849	0.217	-0.229
-744.156	324.646	-0.086	-0.168
-743.142	-7.796	0.241	-0.167
-742.127	-200.000	0.019	0.233
-741.112	719.468	0.145	0.396
-740.098	403.603	0.192	0.413
-739.083	-26.891	0.157	-0.094
-738.069	-157.935	0.247	0.015
-737.054	-200.000	-0.005	0.247
-736.039	418.591	-0.064	-0.141
-735.025	800.000	0.047	0.187
-734.010	261.873	-0.113	0.201
-732.996	49.577	-0.223	-0.215
-731.981	6.629	-0.228	0.174
-730.966	702.747	0.112	-0.303
-729.952	-146.229	-0.100	0.009
-728.937	-45.498	-0.409	0.208
-727.923	460.809	-0.090	0.206
-726.908	-116.322	-0.349	0.066
-725.894	0.238	-0.137	0.100
-724.879	158.386	-0.114	-0.163
-723.864	-190.946	-0.224	-0.002
-722.850	305.604	-0.117	0.222
-721.835	-148.230	-0.292	0.025
-720.821	-37.040	0.267	0.147
-719.806	-46.097	-0.195	0.099
-718.791	202.086	-0.061	0.097
-717.777	184.690	0.113	-0.172
-716.762	32.652	-0.062	0.055
-715.748	298.739	-0.192	-0.362
-714.733	124.648	0.042	-0.054
-713.718	-200.000	0.001	-0.091
-712.704	-200.000	0.012	-0.104
-711.689	-41.108	-0.348	-0.184
-710.675	-200.000	-0.019	-0.164
-709.660	32.484	0.099	-0.088
-708.645	-132.376	-0.064	0.008
-707.631	113.195	0.212	-0.264
-706.616	-200.000	0.025	-0.276
-705.602	-31.697	0.098	-0.056
-704.587	-127.675	0.028	0.004
-703.572	616.842	0.095	-0.245
-702.558	-200.000	-0.055	-0.275
-701.543	101.055	-0.039	0.046
-700.529	800.000	0.059	-0.181
-699.514	14.899	-0.261	0.209
-698.499	-200.000	-0.003	0.069
-697.485	-180.811	-0.063	0.001
-696.470	-24.790	-0.117	-0.071
-695.456	51.537	-0.272	-0.265
-694.441	-200.000	0.016	-0.141
-693.426	-64.364	-0.314	-0.131
-692.412	604.335	0.137	-0.350
-691.397	-46.603	-0.240	0.120
-690.383	800.000	-0.036	0.157
-689.368	-178.008	-0.218	0.005
-688.354	233.919	-0.092	-0.155
-687.339	-86.431	-0.237	0.074
-686.324	530.747	0.059	0.143
-685.310	-53.701	0.192	0.089
-684.295	800.000	0.101	-0.297
-683.281	-109.649	-0.215	-0.046
-682.266	220.685	-0.073	0.119
-681.251	-200.000	0.024	-0.213
-680.237	-129.860	-0.073	0.010
-679.222	-46.819	0.283	0.141
-678.208	18.930	-0.183	-0.150
-677.193	645.975	0.128	0.333
-676.178	10.919	0.396	0.309
-675.164	-19.504	-0.141	0.089
-674.149	800.000	-0.046	0.169
-673.135	224.115	-0.065	-0.108
-672.120	98.087	0.076	0.089
-671.105	800.000	0.017	0.049
-670.091	-177.119	-0.145	-0.004
-669.076	-130.251	-0.466	-0.065
-668.062	-79.388	0.419	0.145
-667.047	-183.901	0.234	-0.004
-666.032	279.693	-0.121	0.220
-665.018	-33.640	0.266	-0.150
-664.003	-200.000	-0.006	0.472
-662.989	-200.000	0.048	-0.309
-661.974	-174.245	-0.185	0.005
-660.959	24.690	-0.073	0.062
-659.945	-200.000	-0.040	-0.291
-658.930	-124.882	0.138	0.022
-657.916	-125.508	-0.143	0.022
-656.901	-51.994	-0.233	-0.111
-655.886	70.852	-0.075	-0.079
-654.872	661.060	0.134	0.352
-653.857	178.787	0.100	-0.149
-652.843	256.498	0.078	0.138
-651.828	-24.513	-0.247	-0.150
-650.814	-140.037	0.259	-0.028
-649.799	793.380	0.093	-0.260
-648.784	97.296	0.132	0.154
-647.770	-200.000	0.011	-0.113
-646.755	-176.039	0.144	-0.004
-645.741	327.657	0.072	0.141
-644.726	-75.562	0.233	-0.085
-643.711	379.419	0.079	0.166
-642.697	-136.975	-0.132	-0.015
-641.682	-39.148	-0.190	-0.102
-640.668	-147.653	-0.076	0.006
-639.653	-45.664	0.255	-0.129
-638.638	-25.169	-0.380	-0.230
-637.624	-184.918	0.477	-0.008
-636.609	54.582	0.138	0.136
-635.595	-153.220	-0.058	0.004
-634.580	270.276	-0.063	-0.113
-633.565	800.000	-0.055	-0.156
-632.551	582.783	-0.074	0.186
-631.536	-26.516	-0.097	-0.058
-630.522	-150.319	0.355	0.028
-629.507	112.729	0.194	0.240
-628.492	-200.000	-0.030	0.274
-627.478	-143.235	-0.391	-0.038
-626.463	800.000	-0.027	0.122
-625.449	-62.260	-0.196	-0.083
-624.434	-157.837	0.089	-0.005
-623.419	-71.859	-0.365	0.139
-622.405	-129.817	0.364	0.051
-621.390	95.585	-0.035	-0.040
-620.376	111.882	-0.272	-0.336
-619.361	-19.442	0.254	-0.161
-618.346	295.054	-0.121	0.227
-617.332	49.405	0.142	-0.136
-616.317	58.784	-0.041	-0.041
-615.303	192.832	0.105	0.161
-614.288	-133.506	0.013	-0.002
-613.273	279.521	-0.182	0.331
-612.259	200.657	-0.162	-0.253
-611.244	-53.652	0.160	-0.075
-610.230	-3.780	-0.172	0.121
-609.215	-24.851	-0.291	0.176
-608.201	-33.868	0.067	-0.038
-607.186	-107.772	0.423	0.094
-606.171	-200.000	-0.031	0.211
-605.157	-105.276	-0.090	0.021
-604.142	-34.420	0.052	0.029
-603.128	-49.057	-0.139	0.068
-602.113	346.167	0.155	-0.310
-601.098	-104.954	-0.526	0.123
-600.084	800.000	0.066	-0.222
-599.069	247.825	-0.143	-0.246
-598.055	265.208	-0.081	-0.144
-597.040	-200.000	-0.000	0.072
-596.025	2.745	0.106	0.078
-595.011	-99.249	-0.195	-0.050
-593.996	504.714	-0.065	-0.154
-592.982	-200.000	-0.033	0.309
-591.967	187.342	0.201	0.306
-590.952	-113.660	-0.242	-0.048
-589.938	-100.349	0.289	0.073
-588.923	73.367	-0.126	-0.134
-587.909	-187.786	0.024	-0.000
-586.894	226.554	-0.036	0.059
-585.879	395.835	0.087	-0.185
-584.865	-128.696	0.231	0.033
-583.850	-99.520	0.261	0.067
-582.836	44.162	0.234	0.219
-581.821	473.074	0.062	0.142
-580.806	-152.108	0.242	-0.018
-579.792	128.009	-0.115	0.149
-578.777	-0.491	0.240	-0.174
-577.763	-200.000	-0.021	-0.256
-576.748	74.359	0.178	0.191
-575.733	-110.791	-0.235	0.049
-574.719	252.137	0.162	-0.281
-573.704	6.513	0.185	-0.140
-572.690	-69.809	0.164	-0.064
-571.675	-111.419	0.159	-0.033
-570.661	-8.397	0.053	0.036
-569.646	-82.639	0.257	0.085
-568.631	800.000	-0.007	0.024
-567.617	-200.000	0.040	0.186
-566.602	-96.262	-0.323	-0.087
-565.588	234.319	-0.144	-0.242
-564.573	284.365	-0.124	-0.227
-563.558	-125.891	-0.074	0.011
-562.544	159.940	-0.179	-0.254
-561.529	-173.489	0.255	0.008
-560.515	-200.000	0.029	0.297
-559.500	131.675	-0.103	-0.135
-558.485	167.145	-0.117	-0.170
-557.471	238.352	0.120	0.203
-556.456	91.161	-0.048	-0.055
-555.442	-82.031	0.113	0.038
-554.427	195.554	0.066	-0.102
-553.412	-58.626	-0.249	-0.110
-552.398	-200.000	-0.045	0.253
-551.383	98.331	-0.199	-0.233
-550.369	47.049	-0.124	-0.117
-549.354	-58.768	0.291	0.128
-548.339	-118.037	0.115	0.021
-547.325	800.000	-0.047	-0.177
-546.310	-57.878	0.153	-0.068
-545.296	386.734	0.063	-0.133
-544.281	-59.673	0.253	0.110
-543.266	10.679	-0.151	0.117
-542.252	-25.831	-0.178	0.107
-541.237	27.327	-0.101	0.086
-540.223	-200.000	-0.095	0.527
-539.208	-6.984	-0.106	-0.073
-538.193	392.049	0.038	-0.081
-537.179	-39.969	-0.201	-0.106
-536.164	-90.390	0.079	0.023
-535.150	-98.682	0.369	-0.096
-534.135	-200.000	-0.187	-0.000
-533.121	-200.000	-0.011	0.173
-532.106	-133.627	-0.161	0.020
-531.091	61.508	-0.173	0.175
-530.077	644.325	-0.080	0.206
-529.062	30.636	-0.033	0.028
-528.048	-200.000	0.018	-0.205
-527.033	-120.126	-0.343	-0.060
-526.018	-187.132	0.415	-0.006
-525.004	33.980	0.144	-0.127
-523.989	-86.247	-0.256	0.080
-522.975	339.168	0.067	-0.133
-521.960	-158.820	-0.138	-0.008
-520.945	-76.855	-0.192	-0.068
-519.931	741.441	0.134	0.367
-518.916	-103.713	-0.169	0.040
-517.902	-103.717	-0.328	0.078
-516.887	172.944	0.199	0.292
-515.872	-77.826	-0.073	-0.026
-514.858	27.944	0.185	0.158
-513.843	-200.000	0.008	-0.223
-512.829	128.318	0.120	0.155
-511.814	74.326	0.048	0.051
-510.799	654.676	-0.051	-0.134
-509.785	642.303	0.068	0.175
-508.770	293.039	-0.088	-0.162
-507.756	800.000	-0.091	0.368
-506.741	8.805	-0.217	0.166
-505.726	17.493	-0.125	-0.101
-504.712	-37.850	-0.203	0.110
-503.697	58.641	0.019	0.019
-502.683	-200.000	-0.045	-0.320
-501.668	-200.000	-0.023	0.248
-500.653	800.000	0.127	-0.380
-499.639	-63.135	-0.327	-0.137
-498.624	-41.442	-0.131	0.068
-497.610	149.506	-0.227	-0.312
-496.595	-8.147	-0.095	0.065
-495.581	-72.308	-0.101	-0.038
-494.566	-53.506	0.254	-0.118
-493.551	133.427	0.102	0.134
-492.537	-5.345	-0.217	0.152
-491.522	130.062	0.142	-0.184
-490.508	-200.000	-0.016	-0.194
-489.493	279.970	-0.090	0.163
-488.478	-44.829	0.131	-0.066
-487.464	-32.133	-0.191	0.109
-486.449	-9.731	0.117	0.079
-485.435	261.159	0.113	-0.199
-484.420	-51.148	0.132	-0.063
-483.405	-74.749	0.395	-0.144
-482.391	393.243	0.089	0.187
-481.376	151.422	-0.138	-0.191
-480.362	-200.000	0.009	-0.317
-479.347	38.150	0.069	-0.063
-478.332	-200.000	0.454	0.000
-477.318	-200.000	-0.247	0.001
-476.303	-30.752	0.178	-0.102
-475.289	55.611	0.072	-0.071
-474.274	196.127	0.104	-0.161
-473.259	233.203	0.148	-0.247
-472.245	-162.668	0.398	0.020
-471.230	72.141	0.155	-0.163
-470.216	-29.528	-0.402	-0.233
-469.201	-97.992	-0.031	0.008
-468.186	302.077	-0.077	0.144
-467.172	363.061	-0.078	0.160
-466.157	278.151	-0.074	0.133
-465.143	-41.402	-0.034	-0.018
-464.128	-7.681	-0.360	-0.247
-463.113	166.568	-0.149	-0.215
-462.099	-200.000	0.019	-0.109
-461.084	325.271	0.145	0.281
-460.070	235.756	0.098	0.164
-459.055	592.207	-0.109	-0.274
-458.040	9.561	0.078	0.060
-457.026	-200.000	-0.018	-0.174
-456.011	800.000	-0.099	0.416
-454.997	7.061	-0.167	-0.127
-453.982	152.355	0.113	-0.156
-452.968	-105.321	0.032	-0.007
-451.953	-139.363	-0.463	0.050
-450.938	-47.465	-0.038	-0.019
-449.924	-8.592	0.242	0.165
-448.909	-200.000	-0.022	0.159
-447.895	-23.118	0.318	0.194
-446.880	-200.000	0.010	0.052
-445.865	19.751	-0.216	0.176
-444.851	-107.928	-0.269	0.059
-443.836	192.864	0.055	-0.084
-442.822	139.422	-0.099	0.132
-441.807	-0.619	0.319	-0.229
-440.792	176.883	0.148	0.218
-439.778	-85.891	0.422	-0.132
-438.763	261.291	-0.068	0.120
-437.749	-112.818	0.316	0.064
-436.734	800.000	-0.034	-0.096
-435.719	44.136	0.150	0.139
-434.705	166.583	0.221	0.318
-433.690	96.068	0.286	0.331
-432.676	54.261	0.215	0.210
-431.661	752.694	0.062	-0.171
-430.646	-200.000	-0.005	-0.225
-429.632	-90.085	0.318	0.094
-428.617	187.910	-0.018	-0.027
-427.603	549.142	-0.063	-0.153
-426.588	-6.303	0.133	0.092
-425.573	221.914	0.049	-0.080
-424.559	-4.042	-0.152	-0.107
-423.544	-133.472	-0.236	0.030
-422.530	-65.105	0.255	-0.104
-421.515	43.267	-0.104	0.096
-420.500	-153.437	-0.268	-0.019
-419.486	-200.000	0.010	-0.392
-418.471	-1.831	-0.118	0.084
-417.457	-173.868	0.313	-0.009
-416.442	-91.585	-0.398	-0.115
-415.428	733.514	0.050	-0.134
-414.413	-5.672	0.248	-0.172
-413.398	569.128	-0.185	0.456
-412.384	280.628	-0.104	0.188
-411.369	246.527	-0.085	-0.146
-410.355	-94.337	0.121	-0.033
-409.340	-68.870	0.194	0.076
-408.325	130.390	-0.182	-0.235
-407.311	-105.929	-0.293	-0.067
-406.296	-60.118	0.230	-0.099
-405.282	-91.877	-0.218	-0.063
-404.267	315.151	-0.071	-0.135
-403.252	-7.201	0.113	-0.078
-402.238	-145.351	-0.321	-0.029
-401.223	92.357	-0.188	-0.214
-400.209	-102.805	-0.219	-0.053
-399.194	-51.445	0.298	0.141
-398.179	-200.000	-0.044	-0.263
-397.165	-200.000	0.010	-0.110
-396.150	-146.954	0.269	-0.023
-395.136	206.650	0.080	0.125
-394.121	-193.325	-0.302	0.003
-393.106	114.141	-0.206	0.253
-392.092	45.967	0.149	0.139
-391.077	-200.000	-0.019	-0.516
-390.063	17.001	-0.138	0.111
-389.048	-146.886	-0.210	-0.018
-388.033	-8.769	-0.228	0.154
-387.019	-151.496	-0.282	0.021
-386.004	-74.803	-0.319	0.116
-384.990	4.336	-0.058	0.043
-383.975	-92.442	-0.434	-0.123
-382.960	-200.000	-0.039	-0.283
-381.946	-144.608	0.397	0.037
-380.931	102.421	0.044	-0.052
-379.917	-134.453	0.207	0.026
-378.902	-200.000	-0.024	0.326
-377.888	45.494	0.298	0.278
-376.873	-125.012	-0.113	-0.018
-375.858	325.793	-0.072	-0.140
-374.844	-28.422	-0.284	0.166
-373.829	1.608	-0.168	0.122
-372.815	-24.489	-0.070	-0.042
-371.800	-200.000	-0.017	-0.134
-370.785	-32.572	0.252	-0.142
-369.771	-200.000	0.010	-0.116
-368.756	36.333	0.171	-0.153
-367.742	-32.485	0.059	0.033
-366.727	-70.407	-0.573	0.220
-365.712	-200.000	0.010	0.101
-364.698	-175.225	-0.137	0.004
-363.683	336.225	-0.038	0.075
-362.669	-200.000	0.018	-0.100
-361.654	-76.105	0.274	0.098
-360.639	28.665	-0.062	0.053
-359.625	-76.876	0.134	0.047
-358.610	230.081	-0.075	-0.123
-357.596	-81.982	-0.391	-0.129
-356.581	319.494	0.121	0.232
-355.566	-107.622	0.356	-0.079
-354.552	800.000	-0.050	-0.167
-353.537	196.771	0.080	0.123
-352.523	-31.749	-0.154	-0.087
-351.508	-200.000	0.006	0.210
-350.493	36.778	0.210	0.187
-349.479	147.008	-0.087	-0.118
-348.464	-105.782	-0.288	0.066
-347.450	252.381	0.122	-0.210
-346.435	119.110	-0.211	0.264
-345.420	-53.467	0.169	0.078
-344.406	123.048	0.244	0.309
-343.391	-200.000	0.019	0.111
-342.377	-142.133	0.287	0.029
-341.362	-166.446	0.088	0.004
-340.348	152.211	-0.211	0.291
-339.333	-200.000	-0.012	0.099
-338.318	-123.719	0.113	0.018
-337.304	-124.272	0.095	0.015
-336.289	29.064	-0.235	-0.201
-335.275	723.175	0.120	-0.322
-334.260	245.971	0.237	0.403
-333.245	-107.480	0.253	0.056
-332.231	401.494	-0.152	0.322
-331.216	52.750	-0.169	0.163
-330.202	-64.203	-0.388	-0.160
-329.187	-200.000	0.049	-0.286
-328.172	-200.000	-0.033	-0.146
-327.158	-37.331	-0.187	-0.101
-326.143	-136.525	0.157	0.018
-325.129	-1.148	0.196	-0.140
-324.114	-115.006	-0.366	0.070
-323.099	-46.232	0.102	0.051
-322.085	800.000	-0.018	0.065
-321.070	358.841	-0.076	0.153
-320.056	800.000	0.026	0.113
-319.041	8.538	-0.103	-0.078
-318.026	415.563	0.133	-0.286
-317.012	-166.765	0.374	0.016
-315.997	244.120	0.089	-0.151
-314.983	-200.000	0.038	-0.224
-313.968	110.669	0.106	0.129
-312.953	-104.055	0.157	0.037
-311.939	800.000	-0.013	-0.047
-310.924	426.826	-0.077	0.168
-309.910	158.489	0.112	0.156
-308.895	427.970	-0.064	0.139
-307.880	63.993	0.134	0.136
-306.866	-200.000	-0.012	0.077
-305.851	110.345	0.112	0.136
-304.837	72.002	-0.229	-0.240
-303.822	364.924	0.088	-0.179
-302.807	-197.241	0.047	0.000
-301.793	-200.000	0.080	0.473
-300.778	-200.000	0.016	0.232
-299.764	-200.000	0.069	-0.356
-298.749	713.145	-0.031	-0.084
-297.735	270.285	-0.069	-0.123
-296.720	122.215	0.102	-0.128
-295.705	-36.713	-0.367	0.198
-294.691	60.588	0.103	-0.103
-293.676	800.000	-0.121	-0.489
-292.662	246.462	0.059	0.101
-291.647	800.000	0.030	-0.133
-290.632	800.000	0.066	0.194
-289.618	441.893	0.107	0.236
-288.603	-90.411	-0.406	-0.119
-287.589	-200.000	-0.011	0.118
-286.574	-125.890	-0.071	-0.011
-285.559	-139.873	-0.125	0.013
-284.545	-200.000	-0.003	0.071
-283.530	800.000	0.092	0.406
-282.516	-50.707	-0.196	-0.093
-281.501	-117.337	0.574	0.105
-280.486	-200.000	0.042	-0.474
-279.472	800.000	0.040	0.133
-278.457	78.334	0.066	0.071
-277.443	109.993	-0.245	-0.297
-276.428	-131.466	0.029	-0.004
-275.413	-64.465	-0.049	0.020
-274.399	160.542	0.114	-0.160
-273.384	-111.291	-0.309	-0.063
-272.370	-79.447	-0.121	-0.041
-271.355	186.059	0.210	-0.315
-270.340	-200.000	-0.000	0.020
-269.326	135.970	-0.168	-0.221
-268.311	514.265	-0.072	0.170
-267.297	197.067	-0.197	-0.303
-266.282	519.960	-0.062	0.146
-265.267	-195.536	0.104	-0.001
-264.253	20.176	0.201	-0.163
-263.238	-24.294	0.169	-0.102
-262.224	-60.108	0.035	0.015
-261.209	-172.524	0.145	-0.005
-260.195	394.945	0.113	-0.237
-259.180	483.482	-0.072	-0.164
-258.165	-29.173	0.267	-0.154
-257.151	-200.000	0.004	-0.223
-256.136	-200.000	-0.013	-0.125
-255.122	-36.910	-0.357	-0.192
-254.107	-200.000	-0.006	0.208
-253.092	9.413	0.159	0.121
-252.078	260.941	-0.163	-0.284
-251.063	216.820	0.149	-0.239
-250.049	-130.737	0.123	-0.017
-249.034	-200.000	-0.029	0.188
-248.019	-47.448	0.269	0.132
-247.005	2.862	-0.142	0.104
-245.990	1.099	0.213	0.154
-244.976	-94.995	0.355	0.097
-243.961	188.046	-0.171	-0.257
-242.946	-82.421	-0.177	-0.058
-241.932	-200.000	0.020	0.198
-240.917	-200.000	0.025	-0.211
-239.903	181.713	0.153	-0.227
-238.888	-114.554	-0.195	0.038
-237.873	-91.281	-0.250	-0.072
-236.859	-55.400	-0.165	-0.074
-235.844	-103.954	0.330	0.078
-234.830	-34.512	0.151	0.083
-233.815	-101.835	-0.177	-0.043
-232.800	-169.259	0.175	0.006
-231.786	-200.000	-0.092	0.503
-230.771	-110.588	-0.305	-0.063
-229.757	319.598	-0.076	0.145
-228.742	67.174	0.141	0.145
-227.727	-4.327	0.200	-0.139
-226.713	-200.000	-0.024	-0.113
-225.698	-200.000	0.013	-0.318
-224.684	79.504	-0.041	-0.044
-223.669	317.303	0.059	0.111
-222.655	-118.476	0.210	0.037
-221.640	31.083	-0.218	-0.188
-220.625	234.426	-0.109	-0.181
-219.611	58.347	-0.096	0.094
-218.596	-6.362	0.373	0.255
-217.582	-13.730	0.172	0.112
-216.567	6.278	-0.321	0.239
-215.552	-200.000	0.016	-0.114
-214.538	800.000	0.101	-0.288
-213.523	-114.673	-0.217	0.042
-212.509	-25.883	-0.123	-0.073
-211.494	-175.254	-0.476	-0.013
-210.479	104.057	-0.075	0.088
-209.465	85.275	0.190	-0.209
-208.450	228.057	-0.100	-0.164
-207.436	-106.918	0.176	-0.039
-206.421	51.699	0.132	-0.126
-205.406	-134.277	0.493	0.061
-204.392	-200.000	0.009	0.162
-203.377	-200.000	0.006	0.149
-202.363	-99.429	-0.328	0.083
-201.348	722.475	0.106	0.284
-200.333	21.694	-0.262	0.214
-199.319	-37.221	0.348	0.187
-198.304	10.895	-0.086	-0.066
-197.290	-200.000	-0.005	0.297
-196.275	-27.905	-0.118	0.069
-195.260	-156.399	-0.222	0.014
-194.246	-99.919	0.258	0.065
-193.231	115.934	0.141	-0.173
-192.217	15.256	0.153	-0.120
-191.202	-200.000	-0.079	-0.391
-190.187	-97.208	0.188	0.049
-189.173	-200.000	-0.031	0.210
-188.158	215.748	-0.022	0.034
-187.144	192.700	0.182	0.276
-186.129	-200.000	-0.015	0.115
-185.114	-76.229	0.387	-0.137
-184.100	232.497	0.156	0.257
-183.085	21.624	0.058	0.047
-182.071	21.138	-0.188	0.153
-181.056	-200.000	0.026	-0.159
-180.042	14.429	0.114	-0.089
-179.027	-200.000	-0.002	0.202
-178.012	12.619	0.242	0.187
-176.998	577.679	0.025	-0.060
-175.983	-123.834	-0.212	0.034
-174.969	800.000	-0.093	0.302
-173.954	-114.760	0.155	0.030
-172.939	-85.359	-0.193	0.060
-171.925	-200.000	0.037	0.181
-170.910	-158.836	0.277	-0.016
-169.896	-2.043	-0.055	0.039
-168.881	19.039	-0.064	-0.051
-167.866	90.226	-0.071	0.080
-166.852	-78.628	-0.070	-0.024
-165.837	-195.004	-0.467	-0.004
-164.823	319.650	0.090	0.171
-163.808	-117.340	-0.279	0.051
-162.793	-200.000	-0.032	-0.153
-161.779	-148.703	0.375	-0.031
-160.764	-200.000	-0.003	-0.191
-159.750	-200.000	-0.037	-0.347
-158.735	-200.000	0.023	-0.146
-157.720	-197.703	-0.417	-0.003
-156.706	-32.160	-0.508	0.285
-155.691	798.012	-0.088	0.243
-154.677	-27.450	0.150	-0.088
-153.662	-200.000	0.017	-0.118
-152.647	-15.253	0.070	0.045
-151.633	-71.908	0.060	-0.022
-150.618	-200.000	-0.011	-0.176
-149.604	-107.900	-0.087	0.019
-148.589	234.452	-0.100	-0.166
-147.574	89.573	0.130	-0.145
-146.560	342.543	-0.102	-0.200
-145.545	-68.054	0.105	0.041
-144.531	-200.000	0.026	-0.200
-143.516	-165.232	0.388	0.017
-142.502	252.863	0.061	0.104
-141.487	800.000	0.032	-0.102
-140.472	-70.627	0.142	0.054
-139.458	88.414	-0.185	0.206
-138.443	-120.723	0.131	-0.022
-137.429	635.713	-0.148	-0.377
-136.414	-200.000	-0.010	-0.139
-135.399	-144.819	0.518	0.048
-134.385	474.189	0.102	-0.230
-133.370	800.000	0.077	-0.326
-132.356	-101.362	0.306	-0.075
-131.341	69.936	0.092	0.095
-130.326	82.535	0.196	-0.212
-129.312	287.632	0.165	-0.300
-128.297	-124.759	0.190	-0.029
-127.283	-78.834	-0.196	-0.067
-126.268	-97.896	-0.159	-0.041
-125.253	47.506	-0.101	0.094
-124.239	-71.546	-0.297	-0.111
-123.224	800.000	-0.063	-0.180
-122.210	205.916	0.038	-0.059
