DTS Sentinel unit serial number:	SN413079Multiplexer serial number:	ORYXHardware model number:	OX4-SRSoftware version number:	ORYX F/W v4.00 Oryx Data Collector v3.7.2.0data status	okinstallation	princeton_trtdifferential loss correction	single-endedforward channel	channel 4reverse channel	N/Adate	2019/09/15time	03:37:35forward acquisition time	60.00reverse acquisition time	0.00gamma	496.2192k internal	0.2310k external	0.2310temperature offset calibration	1.0031default loss term (dB/km)	0.3790temperature slope calibration	1.0000multiplexer offset coefficient	1.0000multiplexer slope coefficient	1.0000fibre end	0.00T internal ref (°C)	31.00T ext. ref 1 (°C)	4.61T ext. ref 2 (°C)	25.84length (m)	temperature (°C)	Stokes	anti-Stokes-747.200	-86.858	0.306	-0.095
-746.185	-200.000	-0.049	0.344
-745.171	-141.328	-0.181	-0.019
-744.156	-63.927	0.144	0.060
-743.142	-126.358	0.331	0.050
-742.127	-178.450	0.364	-0.009
-741.112	73.354	0.191	0.203
-740.098	-12.512	0.212	0.141
-739.083	246.916	0.041	0.070
-738.069	68.218	-0.485	0.504
-737.054	31.218	-0.070	-0.061
-736.039	-184.752	-0.365	-0.006
-735.025	558.665	0.081	0.199
-734.010	-82.676	-0.092	0.030
-732.996	12.185	-0.158	0.123
-731.981	4.032	-0.367	-0.272
-730.966	-53.718	0.187	-0.087
-729.952	-141.696	-0.246	0.025
-728.937	-11.230	0.375	-0.251
-727.923	103.980	0.153	-0.183
-726.908	43.695	-0.181	-0.168
-725.894	55.249	-0.165	0.162
-724.879	161.058	-0.199	-0.282
-723.864	380.256	-0.100	-0.208
-722.850	2.479	-0.232	-0.170
-721.835	800.000	0.067	-0.202
-720.821	423.445	0.108	0.235
-719.806	-200.000	0.029	0.209
-718.791	-22.663	-0.322	0.197
-717.777	800.000	-0.070	-0.285
-716.762	-200.000	0.016	-0.209
-715.748	-200.000	-0.078	0.428
-714.733	-0.467	0.260	-0.187
-713.718	342.629	0.198	-0.393
-712.704	-27.345	-0.290	-0.171
-711.689	26.246	0.071	-0.060
-710.675	549.006	0.187	-0.453
-709.660	-116.070	0.116	0.022
-708.645	-124.054	0.066	-0.011
-707.631	395.084	-0.160	0.337
-706.616	-56.078	0.028	-0.013
-705.602	-102.653	-0.381	0.092
-704.587	24.966	0.218	-0.183
-703.572	175.966	0.096	-0.141
-702.558	297.203	0.121	-0.226
-701.543	-92.818	0.251	0.071
-700.529	-32.782	0.328	0.185
-699.514	-184.953	0.343	0.005
-698.499	43.181	-0.135	-0.125
-697.485	-13.632	-0.398	-0.261
-696.470	-136.451	0.043	-0.005
-695.456	16.359	-0.228	0.182
-694.441	800.000	0.040	-0.145
-693.426	-139.547	0.229	-0.025
-692.412	247.111	-0.042	-0.072
-691.397	-77.296	-0.285	0.100
-690.383	233.207	0.075	0.125
-689.368	12.902	-0.182	0.143
-688.354	-182.391	0.356	0.007
-687.339	203.979	-0.092	0.145
-686.324	-157.729	0.153	0.009
-685.310	411.573	-0.037	-0.079
-684.295	713.038	-0.023	0.061
-683.281	-132.904	0.103	-0.013
-682.266	-200.000	-0.067	-0.531
-681.251	121.060	0.132	-0.166
-680.237	-151.609	-0.200	-0.015
-679.222	21.164	-0.118	-0.097
-678.208	-70.812	-0.466	0.178
-677.193	-14.541	-0.191	-0.125
-676.178	66.296	0.292	-0.300
-675.164	50.415	0.273	0.261
-674.149	-24.649	-0.101	-0.061
-673.135	-28.370	-0.072	-0.042
-672.120	800.000	0.080	-0.250
-671.105	222.344	-0.057	0.093
-670.091	-200.000	-0.004	0.065
-669.076	-71.453	0.094	-0.036
-668.062	-28.753	-0.145	-0.084
-667.047	455.573	0.054	-0.122
-666.032	-2.344	-0.194	0.137
-665.018	576.224	0.050	-0.123
-664.003	-169.532	0.125	0.005
-662.989	149.914	0.027	0.037
-661.974	800.000	0.088	0.278
-660.959	-0.014	-0.203	-0.146
-659.945	-109.897	-0.081	0.017
-658.930	593.771	0.078	0.196
-657.916	-141.096	0.175	0.018
-656.901	-67.369	0.186	0.074
-655.886	-33.827	0.096	-0.054
-654.872	800.000	0.036	-0.131
-653.857	-70.454	-0.217	-0.083
-652.843	140.845	-0.021	0.028
-651.828	-39.580	-0.235	0.124
-650.814	-49.218	0.131	0.063
-649.799	185.520	-0.095	-0.142
-648.784	-105.115	-0.244	0.056
-647.770	195.286	-0.120	0.184
-646.755	196.501	0.147	-0.226
-645.741	573.248	0.086	0.213
-644.726	776.917	-0.168	-0.463
-643.711	-147.063	0.146	0.013
-642.697	-200.000	-0.080	-0.364
-641.682	-129.673	-0.241	-0.034
-640.668	117.594	0.124	0.154
-639.653	163.627	-0.064	-0.091
-638.638	-40.611	-0.224	0.117
-637.624	222.457	0.071	0.115
-636.609	41.183	-0.105	0.096
-635.595	800.000	-0.049	0.203
-634.580	-23.517	-0.193	0.117
-633.565	-2.063	-0.023	-0.016
-632.551	53.161	0.198	-0.191
-631.536	-103.376	0.577	-0.137
-630.522	-128.245	-0.408	0.059
-629.507	800.000	-0.024	-0.069
-628.492	96.310	0.115	0.133
-627.478	166.663	-0.191	-0.274
-626.463	76.793	-0.037	0.040
-625.449	800.000	0.035	0.120
-624.434	-200.000	0.050	0.396
-623.419	173.841	0.087	-0.127
-622.405	-144.687	0.285	0.027
-621.390	23.940	0.097	-0.081
-620.376	20.970	0.136	-0.111
-619.361	-200.000	-0.005	-0.111
-618.346	-60.200	-0.095	0.041
-617.332	18.910	0.116	-0.094
-616.317	-56.982	-0.257	0.115
-615.303	800.000	-0.052	0.180
-614.288	800.000	-0.083	-0.279
-613.273	767.976	0.086	-0.236
-612.259	-89.410	-0.255	-0.076
-611.244	-140.884	-0.191	0.020
-610.230	800.000	0.003	0.015
-609.215	-99.192	-0.120	0.031
-608.201	152.990	0.180	0.249
-607.186	117.804	-0.102	0.126
-606.171	-40.058	0.108	-0.057
-605.157	-18.224	0.319	-0.202
-604.142	113.479	-0.106	0.130
-603.128	-200.000	-0.000	-0.070
-602.113	-50.851	-0.053	-0.025
-601.098	800.000	0.037	-0.156
-600.084	-27.737	0.101	0.059
-599.069	110.523	-0.183	-0.222
-598.055	16.116	0.180	-0.144
-597.040	-121.944	-0.580	-0.096
-596.025	-178.448	0.120	-0.003
-595.011	-147.995	0.216	0.018
-593.996	800.000	-0.068	0.251
-592.982	-150.785	-0.155	-0.012
-591.967	-160.106	-0.122	0.007
-590.952	-99.388	0.219	0.056
-589.938	-171.360	0.215	0.007
-588.923	-102.560	-0.465	-0.112
-587.909	49.241	0.125	-0.119
-586.894	800.000	-0.032	-0.091
-585.879	-54.361	0.194	-0.089
-584.865	-9.075	-0.382	0.258
-583.850	210.995	-0.124	0.197
-582.836	-200.000	-0.040	0.312
-581.821	84.843	0.296	0.327
-580.806	49.685	-0.122	0.116
-579.792	-22.343	0.165	-0.101
-578.777	12.028	0.103	0.080
-577.763	392.824	-0.080	0.168
-576.748	97.480	0.119	0.138
-575.733	-79.955	0.355	-0.120
-574.719	-61.956	-0.165	0.069
-573.704	-37.210	0.084	-0.045
-572.690	-29.624	-0.238	-0.137
-571.675	-35.176	0.234	0.129
-570.661	190.066	-0.082	-0.124
-569.646	-200.000	-0.019	0.179
-568.631	57.142	-0.180	0.177
-567.617	299.664	-0.096	-0.179
-566.602	-0.001	0.134	0.097
-565.588	-200.000	0.034	0.237
-564.573	195.039	-0.302	-0.462
-563.558	-40.958	0.214	-0.112
-562.544	-165.547	-0.250	0.011
-561.529	-104.136	-0.103	-0.024
-560.515	-123.129	0.164	0.027
-559.500	114.465	0.095	-0.116
-558.485	100.701	-0.149	-0.174
-557.471	19.180	-0.116	-0.094
-556.456	45.913	-0.160	-0.150
-555.442	105.146	0.134	-0.160
-554.427	800.000	-0.089	0.255
-553.412	-5.046	0.172	0.119
-552.398	-200.000	-0.021	-0.270
-551.383	-144.893	-0.212	0.020
-550.369	160.912	0.165	-0.232
-549.354	-200.000	-0.029	0.196
-548.339	-147.789	0.329	0.028
-547.325	-200.000	0.018	0.365
-546.310	-24.050	-0.344	-0.207
-545.296	-119.483	0.132	-0.023
-544.281	467.214	-0.063	-0.142
-543.266	93.000	0.172	-0.196
-542.252	122.996	-0.208	-0.262
-541.237	-14.127	0.153	-0.099
-540.223	513.217	-0.047	0.111
-539.208	800.000	-0.089	-0.260
-538.193	-81.960	-0.319	0.105
-537.179	-200.000	-0.001	-0.165
-536.164	-65.786	-0.121	-0.049
-535.150	37.920	-0.207	-0.185
-534.135	-124.362	0.203	0.032
-533.121	800.000	-0.032	-0.143
-532.106	124.900	0.136	-0.173
-531.091	-169.526	0.162	0.006
-530.077	-200.000	-0.013	-0.191
-529.062	-41.410	-0.064	-0.033
-528.048	-60.100	-0.157	-0.067
-527.033	17.746	-0.190	0.152
-526.018	-36.980	0.283	-0.153
-525.004	-200.000	0.015	0.138
-523.989	9.862	0.230	0.176
-522.975	564.492	0.143	0.349
-521.960	6.631	-0.072	-0.054
-520.945	-42.543	0.361	0.185
-519.931	-200.000	-0.033	0.463
-518.916	800.000	0.100	0.384
-517.902	-159.786	-0.091	-0.005
-516.887	-200.000	0.023	0.122
-515.872	-32.936	0.429	0.240
-514.858	-31.073	-0.189	0.107
-513.843	800.000	0.054	-0.161
-512.829	159.054	-0.177	-0.248
-511.814	-44.084	0.274	0.139
-510.799	-99.785	-0.132	-0.033
-509.785	-200.000	0.042	-0.302
-508.770	-200.000	0.059	-0.269
-507.756	-200.000	-0.032	-0.248
-506.741	-0.437	0.168	-0.120
-505.726	-200.000	-0.010	0.100
-504.712	-148.487	0.330	0.027
-503.697	30.487	0.242	-0.208
-502.683	-41.909	-0.257	-0.133
-501.668	-200.000	0.086	0.433
-500.653	800.000	0.071	0.203
-499.639	378.943	-0.094	0.193
-498.624	-71.575	0.230	-0.086
-497.610	-200.000	0.034	0.160
-496.595	-200.000	0.008	-0.052
-495.581	-20.546	0.227	-0.140
-494.566	-36.115	0.151	-0.082
-493.551	800.000	-0.036	-0.134
-492.537	174.480	-0.153	0.223
-491.522	320.244	0.030	0.058
-490.508	353.687	0.097	-0.193
-489.493	48.570	-0.102	-0.096
-488.478	-124.770	-0.139	-0.022
-487.464	-68.704	0.277	0.108
-486.449	250.074	-0.165	0.282
-485.435	-139.505	-0.047	-0.005
-484.420	-95.796	0.066	-0.018
-483.405	51.475	-0.092	0.087
-482.391	800.000	-0.080	0.296
-481.376	-52.461	0.385	0.179
-480.362	-200.000	0.027	-0.157
-479.347	296.624	0.151	0.278
-478.332	-200.000	-0.022	0.112
-477.318	35.269	-0.081	0.071
-476.303	-84.297	-0.192	0.061
-475.289	6.970	-0.266	-0.199
-474.274	-90.368	0.262	-0.076
-473.259	-23.854	-0.280	0.168
-472.245	-51.033	-0.158	0.075
-471.230	-129.111	0.326	0.046
-470.216	-52.336	-0.213	0.099
-469.201	800.000	-0.038	-0.114
-468.186	-200.000	-0.003	0.064
-467.172	143.143	-0.110	0.147
-466.157	156.054	-0.184	0.255
-465.143	49.514	-0.098	-0.092
-464.128	-10.306	-0.087	0.058
-463.113	29.206	-0.180	0.153
-462.099	25.616	-0.090	0.075
-461.084	213.410	-0.172	-0.273
-460.070	-132.601	-0.136	0.018
-459.055	215.278	0.188	0.299
-458.040	-162.322	-0.107	0.005
-457.026	774.041	0.085	-0.232
-456.011	-155.426	-0.210	-0.014
-454.997	-170.817	-0.181	0.006
-453.982	-157.925	0.252	-0.015
-452.968	-130.811	-0.250	-0.034
-451.953	-151.462	0.185	0.014
-450.938	-200.000	-0.008	0.048
-449.924	10.063	0.126	0.096
-448.909	800.000	-0.055	-0.189
-447.895	-115.618	0.206	0.039
-446.880	-126.653	0.150	0.022
-445.865	800.000	0.060	-0.239
-444.851	-15.912	-0.154	0.099
-443.836	-200.000	-0.020	-0.194
-442.822	225.431	0.222	-0.360
-441.807	-200.000	-0.014	0.136
-440.792	-85.044	0.060	0.019
-439.778	-200.000	0.020	0.091
-438.763	493.921	0.040	-0.092
-437.749	-93.211	-0.250	-0.070
-436.734	112.336	-0.044	-0.053
-435.719	-107.248	0.093	-0.021
-434.705	-53.636	-0.270	-0.124
-433.690	417.767	-0.023	-0.049
-432.676	23.768	-0.361	0.299
-431.661	-108.945	0.241	-0.052
-430.646	-69.884	0.157	-0.060
-429.632	-79.007	0.263	-0.090
-428.617	-200.000	-0.017	-0.094
-427.603	-108.458	0.119	0.026
-426.588	800.000	0.082	-0.345
-425.573	-74.499	-0.201	0.073
-424.559	-109.884	0.468	-0.098
-423.544	-77.865	-0.387	-0.134
-422.530	-100.930	-0.051	-0.012
-421.515	-32.471	0.116	-0.065
-420.500	-14.676	0.215	0.139
-419.486	-200.000	-0.009	0.101
-418.471	-7.322	-0.344	0.234
-417.457	92.952	0.112	0.126
-416.442	-200.000	-0.044	-0.235
-415.428	240.254	-0.098	0.164
-414.413	-200.000	-0.035	0.175
-413.398	247.236	0.095	0.161
-412.384	313.367	-0.080	0.152
-411.369	74.699	-0.192	-0.203
-410.355	-37.587	0.067	0.036
-409.340	425.139	-0.088	0.189
-408.325	-200.000	0.019	0.116
-407.311	156.049	0.179	-0.247
-406.296	-67.610	0.118	-0.046
-405.282	-96.418	0.148	-0.039
-404.267	-200.000	0.034	0.187
-403.252	107.112	0.120	-0.142
-402.238	195.503	0.303	-0.462
-401.223	132.735	-0.173	-0.224
-400.209	431.599	0.039	0.084
-399.194	-85.907	0.051	0.016
-398.179	-137.363	0.200	0.023
-397.165	-143.096	0.313	0.030
-396.150	727.625	0.042	-0.113
-395.136	-174.791	0.283	-0.008
-394.121	-200.000	-0.010	0.228
-393.106	800.000	0.007	-0.019
-392.092	-200.000	-0.034	0.159
-391.077	-54.650	-0.176	-0.080
-390.063	15.451	0.169	0.133
-389.048	800.000	0.080	0.228
-388.033	89.957	-0.092	-0.103
-387.019	-23.409	-0.127	-0.076
-386.004	265.707	0.098	0.172
-384.990	-35.727	0.390	-0.212
-383.975	114.231	0.110	0.134
-382.960	321.713	-0.095	0.181
-381.946	-144.086	0.409	0.038
-380.931	-139.829	0.467	0.050
-379.917	-200.000	0.015	0.145
-378.902	800.000	0.015	0.051
-377.888	-45.072	0.088	-0.044
-376.873	-61.698	-0.212	-0.089
-375.858	687.615	0.017	-0.044
-374.844	-19.445	0.086	0.053
-373.829	211.804	-0.181	0.286
-372.815	775.238	-0.040	0.108
-371.800	-36.143	0.156	0.084
-370.785	-94.590	-0.140	0.038
-369.771	1.772	0.037	0.027
-368.756	-31.731	0.130	0.073
-367.742	-200.000	0.042	0.186
-366.727	-132.954	0.386	-0.049
-365.712	95.116	0.254	0.289
-364.698	-128.323	-0.162	0.023
-363.683	-18.887	-0.159	-0.099
-362.669	277.786	-0.086	0.153
-361.654	494.394	0.052	0.119
-360.639	800.000	-0.043	0.133
-359.625	-85.610	-0.154	-0.048
-358.610	115.024	0.193	0.236
-357.596	257.657	-0.215	-0.369
-356.581	-44.666	-0.315	-0.157
-355.566	145.951	-0.110	-0.147
-354.552	102.911	-0.172	0.201
-353.537	-106.770	-0.300	0.067
-352.523	10.281	0.106	-0.081
-351.508	86.080	-0.169	-0.186
-350.493	-155.601	0.164	-0.011
-349.479	355.849	0.057	-0.113
-348.464	-39.994	-0.282	-0.147
-347.450	76.806	0.094	-0.099
-346.435	-138.554	0.190	-0.021
-345.420	-44.662	0.039	-0.019
-344.406	-91.007	-0.307	0.088
-343.391	800.000	0.059	-0.193
-342.377	289.085	0.161	0.292
-341.362	522.522	-0.057	0.135
-340.348	-63.155	-0.362	0.149
-339.333	200.078	-0.114	0.175
-338.318	-116.911	-0.178	0.032
-337.304	-200.000	0.030	-0.164
-336.289	-67.577	-0.173	0.068
-335.275	-200.000	-0.015	-0.161
-334.260	-200.000	0.042	0.238
-333.245	111.034	-0.061	-0.074
-332.231	-96.793	0.305	0.080
-331.216	-200.000	-0.029	-0.161
-330.202	-30.911	-0.177	-0.100
-329.187	-136.860	0.408	0.047
-328.172	-200.000	-0.005	0.114
-327.158	-91.482	0.240	-0.068
-326.143	61.888	-0.190	0.189
-325.129	-81.990	-0.173	-0.056
-324.114	122.355	-0.076	-0.095
-323.099	30.308	0.159	-0.136
-322.085	-50.483	0.114	-0.054
-321.070	3.521	0.214	-0.156
-320.056	800.000	0.078	0.277
-319.041	-76.476	-0.193	0.068
-318.026	800.000	0.014	-0.045
-317.012	-38.739	-0.017	0.009
-315.997	-143.781	-0.025	0.002
-314.983	-185.869	0.189	-0.003
-313.968	800.000	0.041	0.114
-312.953	-2.256	0.160	0.112
-311.939	15.089	0.160	-0.125
-310.924	-200.000	-0.009	-0.136
-309.910	-141.880	-0.116	-0.012
-308.895	176.818	0.163	-0.236
-307.880	-36.952	-0.292	-0.157
-306.866	-58.201	0.184	0.080
-305.851	163.498	-0.047	0.066
-304.837	378.117	0.055	-0.112
-303.822	-62.703	0.250	0.104
-302.807	-147.313	-0.350	0.030
-301.793	-11.427	0.242	-0.159
-300.778	-104.316	-0.326	0.075
-299.764	-179.724	-0.329	-0.007
-298.749	672.023	0.043	0.110
-297.735	130.521	0.064	0.082
-296.720	19.239	-0.201	-0.161
-295.705	-28.113	-0.221	-0.128
-294.691	56.842	0.255	-0.248
-293.676	-30.544	-0.284	0.161
-292.662	-200.000	0.030	0.228
-291.647	-200.000	0.011	-0.174
-290.632	-177.418	-0.345	0.008
-289.618	-200.000	0.009	-0.044
-288.603	115.717	0.252	0.308
-287.589	-97.335	0.108	0.028
-286.574	-19.723	0.089	0.055
-285.559	139.266	-0.175	-0.229
-284.545	-104.081	0.110	0.026
-283.530	-200.000	-0.033	0.183
-282.516	315.228	-0.045	-0.085
-281.501	-66.940	-0.286	0.113
-280.486	-41.850	-0.392	0.201
-279.472	-97.383	-0.442	-0.115
-278.457	-200.000	-0.046	0.259
-277.443	-200.000	-0.015	0.124
-276.428	-107.998	-0.087	0.019
-275.413	-53.894	-0.123	0.056
-274.399	-200.000	0.005	0.256
-273.384	-200.000	0.010	0.135
-272.370	-200.000	-0.004	-0.190
-271.355	-100.785	0.249	-0.061
-270.340	-6.953	0.233	0.157
-269.326	-200.000	-0.006	0.033
-268.311	-157.257	0.123	0.007
-267.297	68.265	0.147	-0.150
-266.282	238.017	-0.067	0.111
-265.267	137.259	0.027	0.036
-264.253	60.349	-0.398	-0.393
-263.238	89.962	-0.180	-0.201
-262.224	57.975	-0.188	-0.184
-261.209	102.647	0.331	-0.386
-260.195	410.212	-0.090	0.191
-259.180	-200.000	0.024	0.142
-258.165	-44.589	0.344	-0.171
-257.151	-110.921	0.126	0.026
-256.136	129.717	0.130	0.166
-255.122	659.426	0.098	0.252
-254.107	-200.000	-0.031	-0.220
-253.092	-200.000	-0.069	-0.412
-252.078	800.000	-0.040	-0.125
-251.063	180.229	0.067	0.098
-250.049	-35.985	0.140	0.075
-249.034	-147.545	-0.125	-0.011
-248.019	266.362	-0.202	0.352
-247.005	-18.726	0.108	-0.067
-245.990	255.904	0.064	-0.109
-244.976	-19.545	-0.224	-0.138
-243.961	800.000	-0.070	0.266
-242.946	240.125	-0.125	0.207
-241.932	-144.073	0.154	-0.014
-240.917	-70.929	0.313	-0.118
-239.903	800.000	0.028	-0.120
-238.888	292.483	0.155	0.280
-237.873	-200.000	-0.008	-0.393
-236.859	-39.746	0.165	-0.086
-235.844	117.455	0.144	0.177
-234.830	16.743	0.150	-0.118
-233.815	-200.000	-0.032	0.221
-232.800	-62.740	0.117	-0.048
-231.786	-200.000	0.008	-0.323
-230.771	-76.964	-0.308	0.107
-229.757	-58.264	-0.029	-0.012
-228.742	-22.465	0.202	0.122
-227.727	53.651	0.153	0.146
-226.713	114.470	-0.157	-0.190
-225.698	-158.840	0.152	0.009
-224.684	-200.000	0.005	0.063
-223.669	-74.332	0.202	-0.073
-222.655	-146.369	-0.286	0.025
-221.640	-21.229	-0.110	-0.067
-220.625	-138.175	-0.341	0.038
-219.611	184.730	-0.149	-0.220
-218.596	367.712	-0.080	-0.160
-217.582	26.962	-0.174	-0.145
-216.567	-200.000	0.177	0.001
-215.552	57.159	-0.069	0.067
-214.538	-200.000	0.028	0.137
-213.523	58.057	-0.183	0.178
-212.509	-18.294	0.324	-0.201
-211.494	-108.544	0.141	0.030
-210.479	11.704	0.123	-0.094
-209.465	-180.805	0.316	0.006
-208.450	-71.061	-0.146	-0.055
-207.436	-150.160	0.366	0.028
-206.421	169.117	-0.040	0.056
-205.406	-104.213	0.153	-0.035
-204.392	-44.807	0.422	-0.209
-203.377	90.568	-0.127	0.142
-202.363	3.948	-0.039	0.028
-201.348	14.006	0.139	-0.107
-200.333	21.173	0.328	-0.265
-199.319	14.015	0.026	0.020
-198.304	-200.000	0.007	-0.043
-197.290	395.940	0.063	0.130
-196.275	-43.825	-0.046	0.023
-195.260	280.822	-0.070	-0.124
-194.246	-63.165	-0.209	-0.086
-193.231	-200.000	0.048	0.218
-192.217	-117.104	-0.270	-0.049
-191.202	800.000	0.040	0.127
-190.187	673.642	-0.121	0.312
-189.173	-147.440	-0.347	-0.029
-188.158	800.000	0.036	-0.144
-187.144	412.333	-0.027	0.058
-186.129	679.026	0.119	-0.307
-185.114	-103.176	0.232	0.054
-184.100	514.921	-0.053	0.122
-183.085	-181.986	-0.433	-0.008
-182.071	-71.291	-0.260	0.097
-181.056	-59.635	-0.098	-0.042
-180.042	800.000	0.109	-0.333
-179.027	-26.320	0.288	0.168
-178.012	138.330	0.157	-0.204
-176.998	-1.272	-0.153	-0.108
-175.983	800.000	0.050	-0.192
-174.969	800.000	0.072	-0.199
-173.954	246.042	-0.049	-0.082
-172.939	-58.249	0.234	0.101
-171.925	124.337	-0.156	-0.195
-170.910	-155.694	-0.033	0.002
-169.896	181.836	-0.185	-0.270
-168.881	-107.882	-0.174	0.038
-167.866	117.900	-0.019	0.024
-166.852	172.497	-0.073	0.104
-165.837	99.189	-0.238	-0.274
-164.823	-200.000	-0.015	0.205
-163.808	46.827	-0.082	-0.076
-162.793	547.055	-0.053	-0.127
-161.779	-21.902	-0.181	0.109
-160.764	-200.000	0.023	0.158
-159.750	-104.305	-0.138	-0.032
-158.735	-200.000	0.039	0.319
-157.720	28.935	0.221	-0.186
-156.706	800.000	-0.025	0.089
-155.691	800.000	0.082	0.256
-154.677	205.279	0.227	0.349
-153.662	800.000	-0.021	-0.087
-152.647	10.759	-0.330	-0.250
-151.633	-125.712	-0.218	0.033
-150.618	161.357	0.074	-0.103
-149.604	-19.691	-0.171	-0.105
-148.589	111.278	-0.065	0.078
-147.574	92.813	-0.182	-0.204
-146.560	-93.374	-0.161	-0.044
-145.545	-32.020	0.147	-0.082
-144.531	-105.997	0.031	0.007
-143.516	55.871	0.152	0.147
-142.502	-80.759	-0.074	0.024
-141.487	-6.948	-0.153	-0.103
-140.472	-18.399	0.197	0.122
-139.458	233.452	0.148	-0.241
-138.443	800.000	-0.041	0.149
-137.429	-200.000	-0.040	-0.271
-136.414	-89.818	-0.325	-0.094
-135.399	40.260	0.203	0.181
-134.385	-60.989	0.122	-0.051
-133.370	-35.476	0.150	0.081
-132.356	25.512	-0.124	0.102
-131.341	-111.456	0.134	-0.027
-130.326	589.235	0.053	0.129
-129.312	-85.984	0.061	-0.019
-128.297	800.000	0.023	-0.089
-127.283	-82.236	-0.739	-0.239
-126.268	55.704	0.215	-0.207
-125.253	201.475	0.087	0.134
-124.239	247.853	0.154	0.258
-123.224	34.462	0.148	-0.128
-122.210	-200.000	-0.038	0.313
-121.195	800.000	-0.040	0.170
