DTS Sentinel unit serial number:	SN413079Multiplexer serial number:	ORYXHardware model number:	OX4-SRSoftware version number:	ORYX F/W v4.00 Oryx Data Collector v3.7.2.0data status	okinstallation	princeton_trtdifferential loss correction	single-endedforward channel	channel 4reverse channel	N/Adate	2019/09/12time	22:41:34forward acquisition time	60.00reverse acquisition time	0.00gamma	496.2192k internal	0.2316k external	0.2316temperature offset calibration	1.0176default loss term (dB/km)	0.3790temperature slope calibration	1.0000multiplexer offset coefficient	1.0000multiplexer slope coefficient	1.0000fibre end	0.00T internal ref (°C)	29.56T ext. ref 1 (°C)	3.73T ext. ref 2 (°C)	24.18length (m)	temperature (°C)	Stokes	anti-Stokes-747.200	-130.086	0.203	0.028
-746.185	130.153	-0.148	0.192
-745.171	-100.488	-0.123	0.031
-744.156	213.313	0.247	0.395
-743.142	-200.000	-0.012	0.136
-742.127	-146.358	0.103	0.009
-741.112	-162.436	0.056	0.003
-740.098	-200.000	-0.003	-0.118
-739.083	168.177	-0.035	-0.050
-738.069	-88.870	0.040	0.012
-737.054	20.459	0.075	0.062
-736.039	800.000	-0.118	-0.392
-735.025	-56.123	0.281	-0.127
-734.010	-1.134	-0.416	-0.298
-732.996	371.250	-0.068	0.140
-731.981	312.783	-0.207	-0.395
-730.966	-40.804	0.154	-0.081
-729.952	-15.225	0.259	0.168
-728.937	89.304	-0.201	-0.227
-727.923	800.000	0.093	-0.378
-726.908	162.058	-0.143	-0.203
-725.894	-39.077	-0.430	-0.229
-724.879	-200.000	-0.041	-0.307
-723.864	-159.065	0.286	-0.016
-722.850	0.589	-0.113	0.082
-721.835	800.000	-0.091	0.253
-720.821	-105.785	0.222	0.051
-719.806	-182.699	0.133	0.002
-718.791	81.011	0.133	0.145
-717.777	800.000	0.062	-0.177
-716.762	41.329	-0.235	0.215
-715.748	-85.763	-0.333	-0.105
-714.733	346.725	-0.103	0.205
-713.718	-200.000	0.046	-0.236
-712.704	-17.218	-0.157	-0.100
-711.689	-108.609	-0.300	-0.065
-710.675	372.748	0.044	0.091
-709.660	-45.446	-0.164	-0.082
-708.645	800.000	0.060	0.267
-707.631	-134.751	-0.255	-0.031
-706.616	58.865	-0.269	0.268
-705.602	158.328	0.106	-0.149
-704.587	-38.468	-0.204	-0.109
-703.572	-88.054	-0.081	0.025
-702.558	-200.000	0.058	-0.263
-701.543	-133.309	0.074	0.009
-700.529	-200.000	0.008	0.202
-699.514	800.000	-0.026	-0.095
-698.499	-85.976	0.018	-0.006
-697.485	259.803	-0.155	-0.271
-696.470	-9.857	-0.091	-0.062
-695.456	5.725	0.334	0.249
-694.441	-104.332	0.217	0.051
-693.426	800.000	0.082	0.242
-692.412	-200.000	0.005	-0.090
-691.397	-158.769	0.616	-0.036
-690.383	51.669	-0.154	0.148
-689.368	-63.555	-0.281	-0.117
-688.354	800.000	0.085	0.248
-687.339	-200.000	-0.037	-0.276
-686.324	251.431	0.168	-0.289
-685.310	676.036	-0.120	-0.314
-684.295	129.977	0.119	-0.154
-683.281	434.615	0.123	-0.269
-682.266	19.857	0.094	0.076
-681.251	570.938	-0.063	-0.154
-680.237	726.632	0.102	0.276
-679.222	800.000	-0.036	0.154
-678.208	-64.577	0.180	-0.074
-677.193	79.798	-0.106	0.115
-676.178	622.350	0.038	0.096
-675.164	-165.011	0.143	-0.006
-674.149	-200.000	-0.035	-0.253
-673.135	732.750	-0.061	-0.165
-672.120	235.454	-0.021	-0.035
-671.105	-98.217	-0.266	-0.069
-670.091	-54.884	-0.144	0.066
-669.076	-77.794	-0.185	-0.065
-668.062	116.955	0.190	0.235
-667.047	-48.162	-0.243	0.119
-666.032	-52.491	0.091	-0.043
-665.018	-111.657	-0.214	0.044
-664.003	452.658	-0.093	0.208
-662.989	-163.621	-0.446	0.021
-661.974	-46.988	-0.036	0.018
-660.959	686.396	-0.037	-0.096
-659.945	-27.222	0.167	0.098
-658.930	800.000	0.045	-0.147
-657.916	800.000	0.008	0.027
-656.901	-111.018	0.103	0.021
-655.886	7.249	-0.123	0.093
-654.872	-149.819	-0.245	0.019
-653.857	182.387	0.041	0.061
-652.843	-111.162	-0.370	-0.076
-651.828	294.112	0.118	0.218
-650.814	-79.989	-0.019	0.006
-649.799	-200.000	0.011	0.121
-648.784	44.364	-0.158	0.146
-647.770	-200.000	-0.016	0.150
-646.755	25.550	0.092	0.078
-645.741	-200.000	0.023	-0.163
-644.726	-136.772	0.220	-0.026
-643.711	-200.000	-0.054	0.431
-642.697	-121.960	-0.457	-0.076
-641.682	5.412	-0.172	-0.128
-640.668	-200.000	-0.010	0.119
-639.653	-200.000	0.021	-0.217
-638.638	-200.000	-0.001	-0.392
-637.624	149.451	-0.153	-0.209
-636.609	-200.000	-0.031	-0.382
-635.595	-43.605	-0.223	0.114
-634.580	-17.233	0.178	0.113
-633.565	-74.525	-0.178	0.065
-632.551	73.586	-0.186	-0.196
-631.536	-34.630	0.216	-0.119
-630.522	-51.249	-0.295	0.139
-629.507	-63.765	0.240	-0.099
-628.492	-200.000	-0.009	0.075
-627.478	104.747	0.219	0.260
-626.463	-110.444	-0.184	-0.038
-625.449	-46.168	-0.130	0.064
-624.434	134.589	-0.080	0.105
-623.419	-60.426	-0.204	-0.088
-622.405	-172.858	-0.121	0.004
-621.390	72.900	-0.296	0.312
-620.376	-200.000	-0.053	0.289
-619.361	-130.602	-0.347	0.047
-618.346	220.708	-0.038	0.062
-617.332	-176.264	-0.269	0.007
-616.317	370.952	-0.065	-0.132
-615.303	640.044	-0.053	-0.136
-614.288	-159.205	-0.192	0.011
-613.273	-151.979	-0.127	-0.009
-612.259	-24.472	-0.364	0.219
-611.244	88.170	0.104	0.116
-610.230	-200.000	0.054	-0.334
-609.215	-68.284	-0.213	-0.084
-608.201	107.791	-0.048	0.058
-607.186	143.985	0.081	0.109
-606.171	604.479	-0.020	0.051
-605.157	-8.483	-0.130	-0.088
-604.142	337.072	-0.023	0.045
-603.128	-167.384	-0.603	0.024
-602.113	170.039	-0.070	-0.101
-601.098	-200.000	-0.012	-0.078
-600.084	421.632	0.075	-0.162
-599.069	-60.392	0.076	0.033
-598.055	-142.800	0.184	0.018
-597.040	-0.095	0.167	-0.120
-596.025	-11.183	-0.245	0.163
-595.011	-110.344	0.270	0.057
-593.996	213.229	0.186	0.297
-592.982	-8.065	-0.271	-0.184
-591.967	-122.698	0.190	-0.031
-590.952	-174.278	-0.133	-0.004
-589.938	-69.403	-0.174	0.067
-588.923	-20.857	-0.165	0.102
-587.909	74.264	-0.298	-0.315
-586.894	19.061	0.194	0.157
-585.879	-200.000	-0.043	0.297
-584.865	800.000	0.068	-0.200
-583.850	110.964	-0.120	-0.146
-582.836	39.907	0.207	0.187
-581.821	800.000	-0.097	-0.273
-580.806	-16.211	0.077	-0.049
-579.792	-200.000	-0.036	0.297
-578.777	-47.790	0.111	0.054
-577.763	-200.000	-0.040	-0.255
-576.748	91.968	-0.037	-0.042
-575.733	227.815	-0.143	-0.234
-574.719	83.635	0.240	-0.264
-573.704	-52.665	0.191	0.089
-572.690	-200.000	-0.022	0.192
-571.675	354.422	0.171	0.342
-570.661	-200.000	-0.051	0.352
-569.646	350.008	-0.135	0.268
-568.631	-177.640	-0.181	0.004
-567.617	-146.206	0.106	-0.009
-566.602	23.743	-0.105	-0.087
-565.588	39.697	0.120	0.108
-564.573	-200.000	-0.035	0.214
-563.558	7.288	0.258	-0.194
-562.544	-167.409	-0.341	0.014
-561.529	-200.000	-0.015	-0.070
-560.515	-53.052	0.114	-0.053
-559.500	212.287	0.080	0.127
-558.485	100.026	0.137	0.160
-557.471	-200.000	-0.009	0.393
-556.456	48.974	0.094	0.088
-555.442	-108.315	-0.242	-0.053
-554.427	172.031	-0.109	0.157
-553.412	-72.894	0.239	-0.088
-552.398	117.872	-0.117	0.145
-551.383	161.015	0.070	0.099
-550.369	-194.688	-0.185	0.001
-549.354	-200.000	-0.015	-0.139
-548.339	-200.000	-0.034	0.164
-547.325	-59.601	0.120	0.052
-546.310	-132.348	0.162	-0.021
-545.296	-25.286	0.287	-0.171
-544.281	414.349	-0.030	-0.064
-543.266	-138.075	0.327	-0.037
-542.252	800.000	0.064	-0.207
-541.237	-140.974	-0.288	0.030
-540.223	116.532	-0.066	-0.081
-539.208	-200.000	-0.024	0.107
-538.193	-191.439	-0.100	0.001
-537.179	-200.000	0.040	0.352
-536.164	18.436	0.060	0.048
-535.150	-31.591	-0.037	0.021
-534.135	304.003	0.120	0.223
-533.121	68.274	0.096	-0.099
-532.106	-79.601	0.385	0.130
-531.091	800.000	0.085	0.290
-530.077	-200.000	-0.070	0.324
-529.062	49.107	-0.061	-0.058
-528.048	800.000	0.056	0.191
-527.033	800.000	0.066	-0.224
-526.018	-200.000	0.006	0.084
-525.004	800.000	-0.073	0.286
-523.989	98.445	-0.065	-0.075
-522.975	-200.000	-0.003	0.239
-521.960	-200.000	0.017	0.111
-520.945	378.314	-0.020	-0.041
-519.931	-200.000	0.042	-0.228
-518.916	-200.000	-0.025	0.215
-517.902	74.119	0.107	-0.113
-516.887	-64.942	0.207	0.084
-515.872	205.305	-0.171	-0.267
-514.858	197.748	-0.071	-0.109
-513.843	272.021	-0.039	0.070
-512.829	177.882	-0.084	0.123
-511.814	-36.659	0.146	-0.079
-510.799	-147.343	-0.107	0.009
-509.785	57.510	-0.132	0.129
-508.770	122.010	0.189	0.237
-507.756	-190.426	0.152	-0.002
-506.741	-153.431	0.254	0.018
-505.726	-200.000	-0.010	-0.411
-504.712	258.237	-0.047	-0.081
-503.697	-200.000	-0.113	-0.680
-502.683	-200.000	0.036	-0.354
-501.668	800.000	0.032	-0.110
-500.653	-200.000	-0.010	-0.072
-499.639	-119.356	0.081	0.014
-498.624	-22.258	0.285	0.173
-497.610	64.123	-0.138	0.139
-496.595	49.469	-0.181	0.171
-495.581	-200.000	0.044	-0.232
-494.566	800.000	0.093	-0.308
-493.551	144.717	0.097	-0.130
-492.537	218.646	-0.020	-0.033
-491.522	113.189	0.138	0.168
-490.508	324.465	0.092	-0.177
-489.493	-200.000	-0.024	-0.273
-488.478	277.375	0.152	-0.270
-487.464	-164.826	0.171	0.008
-486.449	248.908	0.147	-0.249
-485.435	134.201	-0.143	-0.186
-484.420	800.000	0.032	-0.115
-483.405	-29.216	0.092	-0.053
-482.391	-200.000	0.013	-0.334
-481.376	-25.347	0.075	-0.044
-480.362	126.833	0.182	-0.232
-479.347	-140.362	-0.183	-0.019
-478.332	-54.787	0.423	-0.191
-477.318	-158.320	0.168	-0.010
-476.303	90.694	0.064	-0.072
-475.289	-170.833	0.294	-0.010
-474.274	800.000	0.056	0.202
-473.259	104.467	0.177	-0.209
-472.245	800.000	-0.051	0.175
-471.230	800.000	-0.076	0.226
-470.216	-18.030	-0.269	0.169
-469.201	306.288	-0.080	-0.149
-468.186	-188.295	0.263	-0.003
-467.172	83.658	0.239	0.261
-466.157	-26.356	0.249	-0.146
-465.143	-99.206	-0.218	0.055
-464.128	49.588	0.234	0.221
-463.113	150.308	0.175	0.238
-462.099	332.124	-0.037	-0.072
-461.084	331.434	0.074	-0.143
-460.070	6.590	-0.224	-0.167
-459.055	-26.452	-0.325	0.191
-458.040	91.236	0.068	-0.076
-457.026	63.740	0.136	0.137
-456.011	-164.033	-0.145	-0.007
-454.997	674.107	0.083	0.216
-453.982	-141.825	-0.283	-0.028
-452.968	249.327	0.035	-0.060
-451.953	-16.823	0.131	-0.083
-450.938	29.566	0.136	0.116
-449.924	265.841	-0.060	0.104
-448.909	800.000	-0.034	0.143
-447.895	213.417	0.011	0.018
-446.880	-200.000	0.007	0.335
-445.865	-200.000	0.042	-0.400
-444.851	-9.146	0.166	0.111
-443.836	-25.612	0.154	0.091
-442.822	-10.401	0.127	0.085
-441.807	-200.000	0.001	0.137
-440.792	-200.000	0.064	0.000
-439.778	451.585	-0.016	0.036
-438.763	236.622	-0.125	-0.208
-437.749	242.081	0.099	-0.166
-436.734	354.618	-0.125	-0.249
-435.719	-200.000	0.001	-0.042
-434.705	-56.722	-0.363	-0.161
-433.690	-127.178	0.205	-0.030
-432.676	173.706	-0.055	-0.080
-431.661	-2.829	0.153	-0.107
-430.646	242.405	0.068	0.114
-429.632	-66.333	-0.150	-0.060
-428.617	162.966	-0.158	0.222
-427.603	800.000	0.030	0.112
-426.588	-151.823	0.127	0.009
-425.573	-147.206	0.142	0.012
-424.559	73.905	-0.132	0.138
-423.544	446.573	0.086	0.190
-422.530	-64.956	0.053	-0.022
-421.515	-200.000	0.016	-0.110
-420.500	-67.287	-0.069	-0.027
-419.486	-32.148	-0.019	-0.011
-418.471	176.776	0.088	0.127
-417.457	76.999	0.017	-0.018
-416.442	800.000	-0.032	-0.133
-415.428	14.142	-0.065	-0.051
-414.413	-4.778	0.123	0.085
-413.398	-200.000	0.015	0.076
-412.384	800.000	0.026	0.099
-411.369	-114.044	0.270	-0.052
-410.355	-174.836	0.206	-0.006
-409.340	240.943	-0.042	0.071
-408.325	-64.446	0.114	-0.046
-407.311	468.218	-0.128	-0.287
-406.296	-100.387	0.194	-0.048
-405.282	-5.167	-0.203	-0.140
-404.267	74.420	0.179	-0.188
-403.252	205.674	0.073	0.113
-402.238	-86.728	-0.251	0.077
-401.223	-51.550	-0.530	-0.247
-400.209	-68.968	-0.273	-0.105
-399.194	-24.503	-0.084	-0.050
-398.179	-78.932	-0.133	-0.045
-397.165	-200.000	0.020	-0.577
-396.150	-46.007	0.116	0.057
-395.136	-84.405	-0.119	0.038
-394.121	-90.957	-0.348	0.100
-393.106	403.465	0.047	0.099
-392.092	-92.407	-0.252	0.071
-391.077	-61.688	-0.522	0.219
-390.063	-69.806	0.147	0.056
-389.048	46.609	-0.115	-0.106
-388.033	5.906	-0.206	-0.153
-387.019	-83.437	0.417	0.133
-386.004	95.581	-0.174	0.198
-384.990	468.221	-0.035	-0.079
-383.975	800.000	-0.062	-0.246
-382.960	-18.698	-0.226	-0.141
-381.946	122.341	0.088	-0.110
-380.931	-133.144	-0.372	0.047
-379.917	59.673	0.212	-0.208
-378.902	-103.623	0.244	0.057
-377.888	24.396	-0.391	0.323
-376.873	182.409	0.111	-0.163
-375.858	0.076	-0.289	-0.206
-374.844	442.550	0.181	-0.396
-373.829	-200.000	-0.065	-0.440
-372.815	-26.233	-0.090	-0.053
-371.800	385.010	0.066	-0.136
-370.785	-200.000	-0.021	0.221
-369.771	-164.003	-0.095	0.004
-368.756	-71.950	-0.088	0.033
-367.742	-200.000	-0.132	-0.000
-366.727	161.762	0.161	0.225
-365.712	-48.025	0.291	0.141
-364.698	-200.000	0.047	-0.220
-363.683	151.920	-0.021	-0.029
-362.669	-200.000	0.024	-0.263
-361.654	26.477	-0.253	-0.211
-360.639	687.889	-0.077	0.202
-359.625	-114.027	0.107	0.021
-358.610	-200.000	0.028	0.170
-357.596	-21.170	0.124	-0.076
-356.581	93.367	-0.130	-0.146
-355.566	-104.407	0.223	-0.051
-354.552	271.929	-0.117	-0.205
-353.537	-200.000	-0.053	-0.429
-352.523	800.000	-0.056	0.201
-351.508	-200.000	-0.010	0.183
-350.493	22.803	0.186	0.152
-349.479	-142.403	0.172	-0.017
-348.464	652.481	0.126	0.322
-347.450	-56.351	-0.177	-0.078
-346.435	464.798	0.115	0.256
-345.420	-170.826	0.203	0.007
-344.406	358.468	-0.085	0.170
-343.391	-108.997	0.094	0.020
-342.377	184.546	-0.180	-0.265
-341.362	474.848	0.052	-0.117
-340.348	-104.412	-0.107	0.025
-339.333	96.165	-0.126	-0.144
-338.318	-200.000	0.003	-0.149
-337.304	800.000	-0.190	0.586
-336.289	77.446	-0.109	0.116
-335.275	800.000	0.075	0.315
-334.260	150.456	-0.207	-0.280
-333.245	-88.603	-0.579	0.172
-332.231	-47.731	-0.060	0.029
-331.216	-44.301	0.067	0.034
-330.202	178.407	-0.171	-0.249
-329.187	-130.636	-0.232	-0.031
-328.172	-137.923	0.128	-0.014
-327.158	-200.000	0.047	0.264
-326.143	-200.000	0.032	0.188
-325.129	-200.000	-0.013	-0.062
-324.114	-40.908	0.256	-0.132
-323.099	-200.000	0.007	-0.172
-322.085	-112.426	0.339	-0.068
-321.070	36.715	-0.224	-0.197
-320.056	-64.604	0.333	-0.135
-319.041	29.381	0.023	0.020
-318.026	-103.061	0.322	0.076
-317.012	-200.000	0.017	-0.185
-315.997	-141.341	-0.228	0.023
-314.983	-119.260	0.294	0.051
-313.968	648.245	-0.072	-0.184
-312.953	162.022	-0.243	0.339
-311.939	800.000	-0.079	-0.303
-310.924	-200.000	-0.043	0.211
-309.910	-143.837	0.169	-0.016
-308.895	-70.984	0.147	-0.055
-307.880	-6.816	0.213	-0.144
-306.866	141.324	-0.052	-0.069
-305.851	800.000	-0.093	-0.401
-304.837	-37.871	0.219	-0.116
-303.822	73.296	0.160	0.167
-302.807	-200.000	0.015	0.155
-301.793	800.000	-0.062	0.230
-300.778	540.120	-0.039	0.092
-299.764	734.583	-0.085	0.227
-298.749	86.320	-0.162	-0.178
-297.735	-142.709	0.078	-0.008
-296.720	615.917	0.159	-0.397
-295.705	800.000	-0.120	-0.413
-294.691	-147.943	-0.079	-0.007
-293.676	-200.000	-0.013	-0.237
-292.662	-200.000	-0.045	-0.380
-291.647	26.956	-0.110	-0.092
-290.632	70.049	0.164	-0.169
-289.618	-152.442	0.401	0.029
-288.603	-23.898	-0.181	-0.108
-287.589	48.536	-0.254	0.237
-286.574	-200.000	0.083	0.424
-285.559	-92.105	0.257	-0.072
-284.545	-200.000	-0.003	-0.194
-283.530	800.000	-0.037	0.154
-282.516	-200.000	0.023	-0.412
-281.501	185.421	-0.228	0.336
-280.486	106.005	0.091	-0.107
-279.472	79.822	-0.116	-0.124
-278.457	38.194	0.132	-0.117
-277.443	72.179	0.091	0.095
-276.428	684.443	-0.039	-0.102
-275.413	39.145	-0.168	-0.150
-274.399	0.762	0.059	-0.042
-273.384	-104.485	-0.239	-0.055
-272.370	18.472	0.110	0.087
-271.355	35.941	0.183	-0.160
-270.340	-59.498	-0.142	-0.061
-269.326	800.000	-0.123	0.500
-268.311	227.461	0.192	-0.310
-267.297	-24.995	0.277	0.163
-266.282	-200.000	0.005	0.022
-265.267	800.000	0.039	0.144
-264.253	33.987	-0.063	0.055
-263.238	-37.077	0.184	0.098
-262.224	23.763	0.125	0.102
-261.209	302.039	0.094	-0.173
-260.195	170.488	-0.138	-0.196
-259.180	161.237	0.114	0.158
-258.165	-76.267	0.217	-0.076
-257.151	143.779	-0.164	0.218
-256.136	245.868	-0.112	-0.187
-255.122	130.542	-0.159	0.202
-254.107	-88.864	0.171	0.051
-253.092	-130.674	0.165	0.022
-252.078	-200.000	-0.001	-0.233
-251.063	40.984	0.166	-0.149
-250.049	-24.118	-0.228	-0.136
-249.034	-200.000	0.041	0.200
-248.019	106.740	0.187	0.220
-247.005	-78.997	-0.286	-0.097
-245.990	-33.745	-0.161	0.088
-244.976	800.000	0.050	0.173
-243.961	-98.164	0.324	0.083
-242.946	800.000	0.049	0.148
-241.932	-91.497	0.155	-0.044
-240.917	150.220	-0.206	0.277
-239.903	800.000	0.074	-0.304
-238.888	11.768	0.417	-0.318
-237.873	-130.552	0.331	-0.044
-236.859	257.543	0.117	0.199
-235.844	-117.174	0.382	-0.069
-234.830	-111.978	0.171	0.034
-233.815	35.708	-0.089	0.077
-232.800	18.874	0.204	0.162
-231.786	217.617	-0.155	0.246
-230.771	83.485	-0.104	-0.113
-229.757	-153.133	0.230	-0.016
-228.742	-72.904	0.176	0.064
-227.727	-200.000	-0.002	0.020
-226.713	-13.457	-0.229	-0.148
-225.698	153.184	0.185	-0.251
-224.684	-29.704	-0.375	0.212
-223.669	213.063	0.086	0.135
-222.655	800.000	-0.125	0.384
-221.640	206.756	0.052	0.080
-220.625	5.970	0.343	-0.252
-219.611	-116.989	-0.196	0.036
-218.596	800.000	-0.031	-0.132
-217.582	138.328	-0.186	0.243
-216.567	-137.454	0.154	-0.017
-215.552	800.000	-0.092	0.285
-214.538	-106.757	-0.283	-0.062
-213.523	-47.994	-0.253	-0.121
-212.509	-186.554	-0.174	0.002
-211.494	38.146	0.151	-0.133
-210.479	-39.584	-0.196	-0.102
-209.465	-68.624	0.079	-0.030
-208.450	-26.511	0.176	0.102
-207.436	800.000	-0.078	0.227
-206.421	-5.577	0.330	-0.224
-205.406	46.443	-0.050	-0.046
-204.392	-200.000	0.013	-0.282
-203.377	-62.874	-0.193	-0.079
-202.363	123.863	-0.076	0.094
-201.348	-4.772	0.197	-0.135
-200.333	79.726	-0.036	-0.039
-199.319	30.890	0.128	0.109
-198.304	387.097	0.068	0.140
-197.290	-69.222	-0.070	-0.027
-196.275	254.183	-0.273	0.464
-195.260	101.917	-0.155	0.179
-194.246	7.245	0.093	-0.069
-193.231	319.703	0.035	0.066
-192.217	-200.000	0.039	-0.176
-191.202	44.221	0.189	0.172
-190.187	-122.318	-0.286	-0.046
-189.173	330.025	0.149	0.284
-188.158	-160.104	-0.155	-0.008
-187.144	-44.586	0.135	0.067
-186.129	27.523	-0.203	-0.169
-185.114	393.784	0.056	-0.115
-184.100	-20.962	-0.340	0.207
-183.085	-200.000	0.022	0.231
-182.071	-45.135	0.281	-0.138
-181.056	212.472	-0.103	-0.161
-180.042	-200.000	0.075	0.350
-179.027	-200.000	0.067	0.303
-178.012	91.950	-0.068	-0.076
-176.998	7.781	-0.106	-0.078
-175.983	74.679	0.178	0.186
-174.969	34.411	-0.164	-0.142
-173.954	-138.756	0.147	-0.016
-172.939	70.923	-0.159	-0.164
-171.925	38.705	-0.214	0.189
-170.910	-72.904	0.276	-0.101
-169.896	800.000	0.074	-0.262
-168.881	-176.572	0.016	0.000
-167.866	-200.000	-0.022	0.248
-166.852	154.998	0.092	-0.126
-165.837	-89.549	-0.255	-0.074
-164.823	128.810	0.050	0.063
-163.808	-159.732	0.056	-0.003
-162.793	166.237	-0.130	0.183
-161.779	-138.105	0.068	-0.007
-160.764	800.000	0.135	0.558
-159.750	-28.610	0.035	0.020
-158.735	25.085	0.112	0.092
-157.720	-189.275	-0.146	0.002
-156.706	-74.772	0.267	0.095
-155.691	113.319	-0.119	0.143
-154.677	159.032	0.107	0.147
-153.662	800.000	0.097	0.278
-152.647	400.543	0.122	-0.253
-151.633	-75.747	-0.260	-0.091
-150.618	800.000	0.068	-0.226
-149.604	-23.242	0.144	-0.086
-148.589	263.660	0.089	0.153
-147.574	-183.008	-0.088	-0.002
-146.560	-79.871	-0.215	0.071
-145.545	-200.000	-0.059	-0.281
-144.531	-60.237	0.154	0.065
-143.516	-82.130	-0.599	0.193
-142.502	-200.000	-0.003	0.260
-141.487	41.203	-0.195	0.174
-140.472	-200.000	0.019	0.195
-139.458	355.390	0.200	0.393
-138.443	-200.000	-0.022	0.186
-137.429	284.962	-0.050	-0.089
-136.414	-119.593	-0.348	0.060
-135.399	-10.094	-0.076	0.050
-134.385	800.000	-0.052	0.196
-133.370	536.600	0.161	-0.379
-132.356	38.942	-0.046	-0.040
-131.341	-32.457	-0.120	-0.066
-130.326	-45.445	0.120	-0.059
-129.312	17.056	0.165	-0.129
-128.297	2.954	0.182	0.131
-127.283	800.000	0.073	0.201
-126.268	-200.000	0.011	-0.135
-125.253	-37.910	-0.056	-0.029
-124.239	800.000	0.039	-0.168
-123.224	-11.236	-0.179	-0.116
-122.210	155.448	-0.012	-0.016
-121.195	-46.134	0.183	0.089
