DTS Sentinel unit serial number:	SN413079Multiplexer serial number:	ORYXHardware model number:	OX4-SRSoftware version number:	ORYX F/W v4.00 Oryx Data Collector v3.7.2.0data status	okinstallation	princeton_trtdifferential loss correction	single-endedforward channel	channel 4reverse channel	N/Adate	2019/09/16time	10:21:34forward acquisition time	60.00reverse acquisition time	0.00gamma	496.2192k internal	0.2300k external	0.2300temperature offset calibration	0.9958default loss term (dB/km)	0.3790temperature slope calibration	1.0000multiplexer offset coefficient	1.0000multiplexer slope coefficient	1.0000fibre end	0.00T internal ref (°C)	34.77T ext. ref 1 (°C)	12.52T ext. ref 2 (°C)	33.25length (m)	temperature (°C)	Stokes	anti-Stokes-747.200	91.727	0.114	0.131
-746.185	38.349	0.216	0.197
-745.171	800.000	0.054	0.161
-744.156	-200.000	-0.003	0.049
-743.142	167.975	0.196	0.284
-742.127	-98.275	0.235	0.062
-741.112	329.836	0.142	0.279
-740.098	280.076	-0.160	0.291
-739.083	248.761	-0.034	0.059
-738.069	58.125	-0.081	0.081
-737.054	504.446	-0.108	0.256
-736.039	-200.000	-0.041	0.286
-735.025	-92.234	0.099	-0.028
-734.010	800.000	-0.099	-0.402
-732.996	-185.345	0.229	0.004
-731.981	800.000	-0.036	-0.157
-730.966	-34.065	0.499	0.280
-729.952	49.991	-0.412	-0.396
-728.937	-8.793	-0.341	0.233
-727.923	-89.210	-0.366	-0.110
-726.908	-29.482	0.095	-0.055
-725.894	-138.859	-0.427	-0.047
-724.879	411.760	0.095	-0.206
-723.864	-90.273	0.122	0.036
-722.850	-200.000	-0.045	-0.223
-721.835	-141.202	0.231	0.024
-720.821	-21.066	-0.174	-0.109
-719.806	-104.572	-0.210	-0.049
-718.791	-27.850	0.123	-0.072
-717.777	-136.842	-0.281	0.033
-716.762	-42.946	-0.207	0.107
-715.748	17.387	-0.230	-0.186
-714.733	-79.930	-0.221	0.076
-713.718	79.864	-0.241	-0.264
-712.704	-100.624	-0.204	0.051
-711.689	-42.622	-0.134	0.070
-710.675	32.030	-0.112	0.098
-709.660	69.218	-0.237	-0.248
-708.645	-102.751	-0.264	-0.064
-707.631	3.082	-0.012	0.009
-706.616	-83.381	0.270	0.088
-705.602	-73.203	-0.105	-0.039
-704.587	-200.000	0.029	-0.134
-703.572	228.227	-0.079	0.130
-702.558	-108.365	0.144	-0.032
-701.543	461.719	0.002	-0.005
-700.529	37.291	0.239	-0.216
-699.514	121.306	0.076	0.097
-698.499	-114.736	-0.165	0.032
-697.485	196.284	-0.148	-0.230
-696.470	-200.000	0.014	0.242
-695.456	-34.954	-0.220	0.122
-694.441	-103.787	-0.269	0.064
-693.426	-157.573	-0.114	-0.007
-692.412	800.000	0.075	-0.320
-691.397	-58.430	-0.021	0.009
-690.383	70.197	-0.141	0.148
-689.368	67.528	-0.170	-0.176
-688.354	-64.969	0.378	-0.155
-687.339	760.673	-0.078	0.216
-686.324	800.000	0.068	0.290
-685.310	-116.614	-0.179	-0.034
-684.295	89.373	-0.198	-0.224
-683.281	-186.492	-0.104	0.002
-682.266	88.176	0.183	0.207
-681.251	4.375	-0.137	0.102
-680.237	-200.000	0.022	0.422
-679.222	770.638	-0.021	0.059
-678.208	-57.612	0.162	0.072
-677.193	564.580	-0.053	-0.131
-676.178	-61.221	0.102	0.044
-675.164	-27.058	-0.164	-0.097
-674.149	-200.000	0.013	-0.095
-673.135	800.000	0.045	-0.155
-672.120	-10.541	-0.326	0.219
-671.105	-106.723	-0.211	0.048
-670.091	-92.294	0.177	-0.051
-669.076	51.650	-0.142	0.137
-668.062	-16.529	0.289	-0.186
-667.047	-68.404	0.083	0.033
-666.032	-52.794	0.031	-0.014
-665.018	-143.027	0.140	-0.014
-664.003	-16.717	0.297	0.191
-662.989	-124.965	0.053	-0.008
-661.974	216.702	0.039	-0.063
-660.959	-52.431	0.017	-0.008
-659.945	225.858	0.022	-0.037
-658.930	357.898	-0.149	-0.303
-657.916	798.158	-0.061	-0.172
-656.901	71.401	0.121	0.127
-655.886	-200.000	-0.005	0.212
-654.872	800.000	-0.083	-0.335
-653.857	-122.935	-0.318	0.052
-652.843	172.305	-0.054	-0.078
-651.828	14.735	0.054	0.043
-650.814	202.397	-0.052	0.082
-649.799	-88.554	0.156	-0.047
-648.784	-9.479	0.102	-0.069
-647.770	132.428	-0.065	-0.085
-646.755	-113.466	-0.059	-0.012
-645.741	-28.596	0.132	0.077
-644.726	202.097	0.035	-0.055
-643.711	-200.000	-0.028	0.228
-642.697	26.148	0.036	0.031
-641.682	-88.221	-0.032	0.010
-640.668	29.243	-0.419	-0.361
-639.653	-87.877	-0.270	-0.083
-638.638	288.905	0.078	-0.144
-637.624	-113.325	0.050	-0.010
-636.609	-200.000	-0.037	-0.167
-635.595	15.209	-0.288	-0.229
-634.580	800.000	-0.050	-0.153
-633.565	-173.121	-0.156	-0.005
-632.551	-93.953	-0.115	-0.032
-631.536	-54.008	0.037	-0.017
-630.522	-200.000	0.015	-0.118
-629.507	0.093	0.070	-0.051
-628.492	16.845	-0.171	-0.137
-627.478	15.955	0.171	-0.137
-626.463	-200.000	-0.016	-0.221
-625.449	-191.358	-0.083	-0.001
-624.434	-51.094	-0.246	-0.117
-623.419	-171.705	0.474	-0.016
-622.405	159.390	-0.082	0.115
-621.390	-128.455	0.347	0.050
-620.376	-20.078	0.111	0.069
-619.361	800.000	0.095	0.291
-618.346	161.608	-0.061	0.087
-617.332	792.783	0.083	-0.231
-616.317	430.389	0.039	0.085
-615.303	-200.000	-0.006	0.322
-614.288	67.237	-0.123	-0.127
-613.273	-70.205	0.198	0.076
-612.259	-103.723	0.136	-0.032
-611.244	-160.428	0.017	0.001
-610.230	20.500	-0.064	0.053
-609.215	-130.803	0.205	0.028
-608.201	-115.051	0.110	0.021
-607.186	-67.720	0.081	0.032
-606.171	-149.223	0.262	0.021
-605.157	158.940	-0.274	-0.387
-604.142	20.664	-0.184	-0.151
-603.128	-68.921	-0.072	0.028
-602.113	-5.170	-0.059	-0.041
-601.098	17.901	0.084	-0.068
-600.084	-32.894	0.185	-0.104
-599.069	671.022	-0.098	-0.257
-598.055	-200.000	0.017	-0.225
-597.040	-200.000	0.028	0.172
-596.025	246.820	-0.052	0.090
-595.011	-190.256	-0.289	-0.003
-593.996	800.000	-0.073	0.214
-592.982	230.694	-0.021	-0.034
-591.967	289.694	0.125	-0.230
-590.952	-85.044	-0.130	-0.041
-589.938	-162.204	-0.254	-0.013
-588.923	-41.643	-0.060	0.031
-587.909	-107.245	0.040	-0.009
-586.894	-200.000	-0.007	0.220
-585.879	-200.000	0.011	0.162
-584.865	247.437	-0.063	0.108
-583.850	-111.717	0.223	-0.046
-582.836	-108.351	-0.041	0.009
-581.821	86.269	0.059	-0.066
-580.806	-21.888	0.083	0.051
-579.792	-200.000	0.126	0.000
-578.777	-200.000	0.013	-0.069
-577.763	-200.000	0.021	0.174
-576.748	-83.240	-0.275	-0.089
-575.733	-56.595	-0.163	-0.073
-574.719	19.999	-0.092	-0.075
-573.704	111.619	-0.197	0.241
-572.690	189.435	-0.024	0.037
-571.675	37.387	0.074	-0.066
-570.661	-200.000	0.068	0.398
-569.646	-200.000	0.017	0.107
-568.631	-68.914	0.183	0.071
-567.617	476.458	-0.108	-0.248
-566.602	-101.609	0.256	-0.063
-565.588	-200.000	-0.002	0.057
-564.573	-65.948	0.082	0.033
-563.558	106.129	0.119	-0.143
-562.544	-104.782	-0.209	-0.049
-561.529	-40.698	-0.217	0.114
-560.515	-97.594	0.024	0.006
-559.500	592.335	0.067	-0.168
-558.485	98.901	0.154	0.180
-557.471	141.063	-0.090	-0.121
-556.456	-26.084	0.165	0.098
-555.442	-200.000	-0.012	0.141
-554.427	90.166	0.207	-0.234
-553.412	121.716	-0.099	0.124
-552.398	39.135	0.366	0.332
-551.383	554.773	0.136	0.331
-550.369	29.511	-0.151	-0.130
-549.354	-200.000	0.002	-0.300
-548.339	123.602	-0.227	0.288
-547.325	6.021	0.211	-0.158
-546.310	121.551	0.264	-0.333
-545.296	158.094	0.113	-0.159
-544.281	-200.000	-0.026	0.407
-543.266	-137.967	-0.289	-0.033
-542.252	-78.223	-0.357	0.124
-541.237	330.045	-0.066	0.128
-540.223	2.205	-0.029	-0.021
-539.208	-174.154	-0.097	0.003
-538.193	-200.000	-0.015	-0.254
-537.179	215.255	-0.106	-0.170
-536.164	-4.128	-0.231	0.162
-535.150	-162.644	0.287	0.014
-534.135	-181.742	0.352	0.007
-533.121	-200.000	0.090	0.450
-532.106	-172.400	0.204	0.007
-531.091	-143.020	0.018	-0.002
-530.077	-200.000	-0.001	-0.103
-529.062	-0.459	-0.247	0.177
-528.048	-200.000	0.016	-0.153
-527.033	-72.662	0.107	-0.040
-526.018	76.902	-0.212	0.228
-525.004	-5.694	0.238	0.165
-523.989	-200.000	-0.014	0.096
-522.975	101.394	-0.211	0.249
-521.960	-90.309	-0.121	-0.036
-520.945	-19.542	0.317	-0.198
-519.931	-25.831	-0.306	-0.183
-518.916	268.263	-0.196	-0.348
-517.902	-107.288	0.170	-0.038
-516.887	156.106	0.110	0.153
-515.872	688.404	0.036	0.096
-514.858	-163.938	0.223	-0.010
-513.843	-200.000	0.011	0.160
-512.829	-74.035	-0.381	-0.140
-511.814	189.037	0.026	-0.040
-510.799	317.348	-0.082	0.157
-509.785	54.554	-0.116	0.113
-508.770	203.474	-0.216	-0.338
-507.756	404.138	0.144	-0.306
-506.741	49.630	-0.092	-0.088
-505.726	406.985	-0.106	-0.227
-504.712	160.092	0.096	-0.135
-503.697	-41.269	0.117	-0.061
-502.683	-80.065	0.116	-0.039
-501.668	-144.790	-0.267	0.025
-500.653	-10.256	0.203	-0.136
-499.639	75.163	-0.114	-0.122
-498.624	-200.000	0.059	0.278
-497.610	-136.937	-0.441	-0.051
-496.595	624.911	0.097	0.247
-495.581	-45.731	-0.236	0.118
-494.566	-200.000	-0.005	0.061
-493.551	254.435	-0.152	-0.262
-492.537	19.156	0.203	-0.164
-491.522	226.112	-0.148	0.242
-490.508	270.710	0.118	-0.209
-489.493	-27.427	0.187	0.110
-488.478	97.688	0.183	0.213
-487.464	-117.400	-0.391	0.071
-486.449	274.198	0.111	-0.198
-485.435	238.933	0.022	-0.037
-484.420	285.415	0.092	0.167
-483.405	-200.000	-0.013	-0.082
-482.391	-95.987	0.268	0.072
-481.376	-200.000	-0.016	-0.088
-480.362	-200.000	0.006	0.099
-479.347	-200.000	-0.340	0.001
-478.332	758.956	0.114	0.313
-477.318	-16.711	0.175	-0.112
-476.303	-169.709	-0.401	-0.015
-475.289	142.900	-0.078	-0.104
-474.274	222.650	0.024	0.039
-473.259	610.610	-0.120	0.302
-472.245	80.786	0.337	0.367
-471.230	-114.530	-0.339	-0.066
-470.216	413.105	0.078	-0.168
-469.201	9.509	-0.138	-0.105
-468.186	-164.538	0.513	-0.024
-467.172	800.000	0.048	-0.186
-466.157	800.000	-0.073	-0.233
-465.143	-6.433	0.293	-0.202
-464.128	-70.696	0.197	0.075
-463.113	618.375	0.105	-0.266
-462.099	-48.859	0.191	-0.092
-461.084	-43.385	-0.224	0.114
-460.070	-93.608	-0.093	-0.026
-459.055	-20.372	0.154	0.096
-458.040	-200.000	0.006	-0.162
-457.026	800.000	0.094	-0.265
-456.011	-19.222	-0.166	0.104
-454.997	-200.000	-0.025	0.215
-453.982	-11.674	0.448	-0.297
-452.968	-200.000	-0.005	0.031
-451.953	-98.808	0.218	0.056
-450.938	-200.000	0.051	-0.294
-449.924	198.185	-0.031	-0.048
-448.909	187.242	0.138	-0.207
-447.895	42.183	0.237	-0.217
-446.880	50.357	-0.305	-0.290
-445.865	-141.452	-0.072	-0.007
-444.851	53.146	0.087	0.084
-443.836	-124.588	0.066	0.010
-442.822	535.787	0.102	-0.243
-441.807	75.370	-0.138	-0.146
-440.792	-69.961	-0.107	-0.041
-439.778	-200.000	-0.029	-0.162
-438.763	25.689	0.382	-0.320
-437.749	238.517	-0.065	0.108
-436.734	-47.664	0.155	-0.076
-435.719	71.894	0.258	0.270
-434.705	48.286	-0.062	-0.058
-433.690	-56.838	-0.110	-0.049
-432.676	17.468	-0.281	-0.225
-431.661	800.000	0.030	0.120
-430.646	-200.000	0.003	-0.176
-429.632	-200.000	-0.005	-0.158
-428.617	21.725	-0.101	-0.083
-427.603	-71.964	-0.127	-0.048
-426.588	111.444	0.153	-0.185
-425.573	95.967	0.207	-0.238
-424.559	-136.115	-0.280	0.033
-423.544	10.818	-0.043	0.033
-422.530	184.684	-0.128	0.191
-421.515	594.508	-0.017	0.042
-420.500	-200.000	-0.015	0.241
-419.486	168.082	0.127	-0.182
-418.471	-65.729	0.240	-0.097
-417.457	260.611	0.125	-0.218
-416.442	-36.865	-0.191	0.103
-415.428	212.917	0.200	-0.319
-414.413	134.410	-0.115	0.150
-413.398	-200.000	0.025	0.125
-412.384	-200.000	-0.007	0.060
-411.369	256.328	0.038	-0.065
-410.355	-39.608	0.167	0.088
-409.340	203.362	0.071	0.110
-408.325	800.000	-0.063	0.201
-407.311	-200.000	0.009	-0.125
-406.296	202.674	0.043	0.067
-405.282	76.267	0.110	0.117
-404.267	405.292	0.098	-0.207
-403.252	496.327	-0.079	-0.183
-402.238	-37.937	0.563	0.301
-401.223	-138.518	-0.244	0.027
-400.209	-200.000	-0.101	0.481
-399.194	-92.263	-0.176	0.050
-398.179	-105.055	-0.167	-0.038
-397.165	-200.000	-0.014	0.140
-396.150	21.400	-0.178	0.145
-395.136	-126.721	-0.417	0.062
-394.121	-91.376	-0.210	-0.060
-393.106	-155.073	-0.086	0.006
-392.092	-200.000	-0.181	0.001
-391.077	67.447	0.085	-0.087
-390.063	334.304	0.108	-0.211
-389.048	294.123	0.112	0.206
-388.033	-27.930	0.175	0.102
-387.019	25.628	-0.222	-0.186
-386.004	-75.270	0.168	0.060
-384.990	-109.054	0.199	-0.043
-383.975	-200.000	-0.041	-0.258
-382.960	-200.000	-0.012	-0.145
-381.946	-43.466	0.446	-0.226
-380.931	79.743	0.249	-0.269
-379.917	22.141	0.313	-0.257
-378.902	-123.626	-0.042	-0.007
-377.888	211.165	-0.085	-0.134
-376.873	-200.000	-0.019	0.118
-375.858	18.747	0.043	0.034
-374.844	-200.000	-0.108	0.483
-373.829	76.099	-0.173	0.184
-372.815	121.974	0.176	0.220
-371.800	-115.845	0.229	0.043
-370.785	-86.851	-0.180	0.055
-369.771	395.747	-0.161	-0.337
-368.756	800.000	0.049	-0.144
-367.742	-133.317	-0.371	-0.047
-366.727	-200.000	-0.008	-0.348
-365.712	-10.061	-0.114	0.076
-364.698	-143.100	0.158	0.015
-363.683	88.885	0.093	-0.104
-362.669	585.080	0.104	0.256
-361.654	226.912	-0.139	0.227
-360.639	234.573	0.121	0.200
-359.625	211.564	-0.095	-0.151
-358.610	501.650	0.036	0.084
-357.596	-66.161	-0.149	0.060
-356.581	227.748	0.214	-0.349
-355.566	-19.823	-0.072	0.045
-354.552	81.395	-0.084	0.091
-353.537	-200.000	-0.056	0.275
-352.523	-110.168	-0.338	-0.071
-351.508	115.946	0.090	-0.111
-350.493	-200.000	-0.044	-0.223
-349.479	14.193	-0.064	0.050
-348.464	-75.678	-0.068	0.024
-347.450	-94.504	0.117	0.032
-346.435	779.216	-0.053	-0.146
-345.420	259.169	-0.089	-0.154
-344.406	-83.498	-0.321	0.103
-343.391	7.873	0.214	0.161
-342.377	795.659	-0.074	-0.205
-341.362	-7.749	0.606	0.411
-340.348	-17.178	-0.131	0.083
-339.333	800.000	-0.081	-0.235
-338.318	-14.255	-0.139	-0.090
-337.304	-116.590	0.361	0.067
-336.289	-11.056	0.072	-0.048
-335.275	800.000	0.053	0.171
-334.260	58.565	-0.233	-0.230
-333.245	-145.885	0.217	0.019
-332.231	238.964	-0.090	0.150
-331.216	-152.993	0.143	0.010
-330.202	-200.000	-0.033	-0.211
-329.187	-68.887	-0.271	-0.105
-328.172	-200.000	-0.041	-0.223
-327.158	294.384	-0.070	-0.128
-326.143	-200.000	0.024	-0.271
-325.129	-200.000	0.020	0.145
-324.114	-161.664	0.115	-0.006
-323.099	186.239	0.115	0.171
-322.085	-200.000	0.064	0.402
-321.070	800.000	-0.094	-0.279
-320.056	-200.000	-0.030	-0.206
-319.041	800.000	0.064	0.186
-318.026	25.427	-0.324	0.270
-317.012	96.396	-0.116	-0.133
-315.997	-200.000	-0.057	0.311
-314.983	38.279	0.228	0.204
-313.968	-200.000	-0.004	0.113
-312.953	95.538	-0.201	-0.230
-311.939	-43.173	0.355	-0.180
-310.924	-82.587	0.317	0.103
-309.910	-200.000	0.023	-0.293
-308.895	800.000	0.101	-0.283
-307.880	73.829	-0.101	-0.106
-306.866	51.682	0.180	0.172
-305.851	-135.191	-0.162	0.019
-304.837	-163.059	-0.030	-0.001
-303.822	21.672	-0.192	0.157
-302.807	16.945	0.232	0.184
-301.793	138.655	-0.053	0.070
-300.778	-29.484	-0.162	-0.093
-299.764	-92.473	-0.243	0.068
-298.749	750.774	-0.084	-0.227
-297.735	195.475	-0.109	0.166
-296.720	-200.000	-0.041	0.267
-295.705	-55.220	0.150	0.067
-294.691	-200.000	-0.044	0.313
-293.676	-200.000	-0.010	-0.110
-292.662	800.000	-0.036	0.123
-291.647	-147.678	-0.275	0.023
-290.632	255.454	-0.097	0.166
-289.618	-18.150	0.069	0.043
-288.603	-183.416	-0.083	-0.001
-287.589	262.285	0.071	-0.123
-286.574	-114.073	-0.195	-0.038
-285.559	-200.000	0.025	0.200
-284.545	-170.879	-0.178	0.006
-283.530	-175.183	0.258	0.007
-282.516	105.124	-0.075	-0.089
-281.501	55.425	0.100	-0.097
-280.486	703.791	-0.032	-0.084
-279.472	-200.000	0.015	0.338
-278.457	-125.956	0.163	-0.025
-277.443	23.029	-0.108	-0.089
-276.428	-200.000	-0.056	0.255
-275.413	-73.698	-0.066	0.024
-274.399	-158.790	0.047	0.003
-273.384	-200.000	0.029	0.208
-272.370	-118.479	0.184	0.033
-271.355	-106.800	-0.306	-0.068
-270.340	-65.422	-0.122	0.049
-269.326	-121.580	-0.234	0.039
-268.311	-17.839	0.217	-0.136
-267.297	55.048	-0.129	0.125
-266.282	-56.549	0.009	-0.004
-265.267	-153.199	-0.354	0.025
-264.253	-66.113	0.579	-0.231
-263.238	48.419	0.120	-0.112
-262.224	-42.382	0.117	-0.060
-261.209	579.030	0.059	-0.145
-260.195	800.000	0.097	-0.299
-259.180	800.000	0.054	-0.180
-258.165	-12.395	-0.148	0.097
-257.151	155.567	-0.140	0.193
-256.136	-110.006	0.281	-0.059
-255.122	395.528	-0.107	-0.224
-254.107	496.391	0.100	-0.230
-253.092	-90.512	-0.181	0.053
-252.078	-141.286	0.099	0.010
-251.063	45.408	-0.245	0.226
-250.049	108.218	0.056	-0.067
-249.034	2.437	0.194	-0.140
-248.019	-81.712	0.127	-0.042
-247.005	-49.281	-0.227	-0.108
-245.990	800.000	-0.039	0.125
-244.976	-105.606	-0.170	-0.039
-243.961	283.458	0.071	0.127
-242.946	420.475	-0.085	0.182
-241.932	561.922	-0.058	0.141
-240.917	-140.442	0.060	0.006
-239.903	28.526	-0.200	0.169
-238.888	653.454	0.057	0.146
-237.873	-23.891	-0.172	-0.103
-236.859	35.928	-0.063	-0.055
-235.844	109.970	-0.104	0.124
-234.830	-37.421	0.158	0.084
-233.815	50.746	-0.020	0.019
-232.800	-200.000	0.002	-0.034
-231.786	-92.461	-0.245	0.069
-230.771	-24.558	0.299	0.178
-229.757	-144.985	-0.275	0.025
-228.742	185.908	0.141	0.210
-227.727	-117.512	0.101	-0.018
-226.713	-81.256	-0.194	-0.064
-225.698	-200.000	-0.036	0.213
-224.684	-200.000	0.030	0.188
-223.669	-140.005	-0.549	0.058
-222.655	800.000	-0.050	0.197
-221.640	-15.167	-0.210	0.134
-220.625	-35.707	-0.081	0.044
-219.611	105.871	0.073	-0.087
-218.596	-148.863	-0.348	-0.028
-217.582	-36.154	0.307	0.166
-216.567	-190.157	0.217	0.002
-215.552	637.258	0.046	0.116
-214.538	800.000	-0.092	0.277
-213.523	94.952	-0.246	0.280
-212.509	331.308	-0.017	-0.033
-211.494	-138.506	0.208	0.023
-210.479	235.947	0.127	0.210
-209.465	-153.045	0.352	-0.025
-208.450	-61.761	-0.039	-0.016
-207.436	-143.919	0.259	0.024
-206.421	-52.716	-0.152	0.070
-205.406	-112.428	0.195	0.039
-204.392	129.352	-0.126	0.160
-203.377	13.314	-0.333	0.258
-202.363	546.696	-0.095	-0.226
-201.348	17.321	0.118	0.094
-200.333	278.030	-0.127	0.225
-199.319	-141.627	-0.258	0.026
-198.304	800.000	0.044	-0.155
-197.290	682.890	-0.084	-0.219
-196.275	-91.673	0.169	0.048
-195.260	-95.819	0.140	0.037
-194.246	-200.000	0.016	-0.401
-193.231	-81.818	-0.259	-0.085
-192.217	21.511	-0.092	-0.075
-191.202	48.792	0.149	-0.139
-190.187	-87.068	0.157	0.048
-189.173	-21.570	-0.184	-0.112
-188.158	596.630	-0.079	0.196
-187.144	-70.459	-0.166	0.063
-186.129	-70.240	0.141	0.053
-185.114	-56.496	-0.083	-0.037
-184.100	277.826	0.213	0.379
-183.085	171.969	0.119	0.171
-182.071	593.414	0.123	0.303
-181.056	723.107	-0.093	-0.247
-180.042	800.000	0.079	0.238
-179.027	800.000	0.056	0.212
-178.012	-26.611	-0.226	0.132
-176.998	-1.943	-0.155	-0.109
-175.983	-103.658	0.437	-0.102
-174.969	-3.350	0.139	-0.097
-173.954	-96.762	-0.359	0.094
-172.939	32.179	0.177	-0.152
-171.925	-103.102	0.459	-0.108
-170.910	800.000	0.057	0.192
-169.896	-148.841	0.141	-0.011
-168.881	429.217	-0.090	0.193
-167.866	450.712	0.100	0.221
-166.852	-54.444	0.521	-0.236
-165.837	61.394	0.122	0.121
-164.823	571.449	-0.087	0.212
-163.808	139.582	0.112	-0.146
-162.793	12.739	0.054	-0.042
-161.779	800.000	0.070	0.241
-160.764	800.000	-0.005	-0.019
-159.750	-181.798	-0.328	0.006
-158.735	201.016	-0.238	-0.365
-157.720	316.288	-0.042	0.079
-156.706	-138.706	-0.144	-0.016
-155.691	86.279	0.147	-0.162
-154.677	-113.388	0.428	-0.084
-153.662	41.833	-0.241	0.218
-152.647	-115.912	-0.517	0.096
-151.633	8.803	0.270	-0.203
-150.618	20.735	-0.179	0.145
-149.604	27.379	-0.194	-0.163
-148.589	47.885	0.135	-0.125
-147.574	43.736	-0.118	-0.108
-146.560	-75.458	-0.340	-0.121
-145.545	45.945	0.271	-0.250
-144.531	-91.201	0.320	-0.091
-143.516	272.197	-0.110	-0.194
-142.502	-200.000	0.019	-0.163
-141.487	94.318	-0.088	0.099
-140.472	45.187	-0.191	0.176
-139.458	499.871	0.126	-0.289
-138.443	34.186	-0.208	-0.181
-137.429	258.793	0.230	0.395
-136.414	-91.242	-0.340	0.097
-135.399	-126.160	0.070	-0.010
-134.385	-133.510	0.101	-0.013
-133.370	223.658	-0.123	-0.197
-132.356	145.684	0.085	-0.114
-131.341	-33.298	-0.458	0.252
-130.326	146.793	0.169	-0.226
-129.312	1.164	-0.316	0.226
-128.297	-118.956	-0.232	-0.041
-127.283	800.000	-0.110	0.366
-126.268	-41.574	-0.481	0.246
-125.253	800.000	0.098	-0.352
-124.239	-200.000	0.047	0.351
-123.224	800.000	-0.063	0.180
-122.210	-14.969	-0.116	-0.074
-121.195	-56.745	0.383	0.169
