DTS Sentinel unit serial number:	SN413079Multiplexer serial number:	ORYXHardware model number:	OX4-SRSoftware version number:	ORYX F/W v4.00 Oryx Data Collector v3.7.2.0data status	okinstallation	princeton_trtdifferential loss correction	single-endedforward channel	channel 4reverse channel	N/Adate	2019/09/18time	04:05:35forward acquisition time	60.00reverse acquisition time	0.00gamma	496.2192k internal	0.2333k external	0.2333temperature offset calibration	0.9994default loss term (dB/km)	0.3790temperature slope calibration	1.0000multiplexer offset coefficient	1.0000multiplexer slope coefficient	1.0000fibre end	0.00T internal ref (°C)	23.25T ext. ref 1 (°C)	0.17T ext. ref 2 (°C)	17.97length (m)	temperature (°C)	Stokes	anti-Stokes-747.200	-175.268	-0.068	0.002
-746.185	-66.703	-0.315	-0.126
-745.171	-83.308	0.150	0.048
-744.156	800.000	-0.123	0.351
-743.142	263.155	0.114	0.199
-742.127	106.478	-0.157	0.187
-741.112	-16.955	0.274	0.174
-740.098	556.030	0.059	0.143
-739.083	-140.532	0.121	-0.013
-738.069	395.016	-0.156	-0.327
-737.054	568.185	0.062	0.151
-736.039	-152.563	-0.174	-0.013
-735.025	-200.000	-0.037	0.326
-734.010	-12.818	-0.290	-0.190
-732.996	800.000	0.054	-0.210
-731.981	-42.031	0.061	-0.031
-730.966	588.747	0.098	0.242
-729.952	-63.502	-0.090	-0.037
-728.937	-25.784	0.210	0.125
-727.923	66.395	-0.212	0.217
-726.908	290.155	0.130	-0.238
-725.894	-139.789	-0.141	-0.015
-724.879	63.528	-0.110	-0.111
-723.864	-122.641	-0.230	0.037
-722.850	-136.008	0.059	-0.007
-721.835	800.000	-0.035	-0.147
-720.821	800.000	0.076	-0.294
-719.806	-88.936	0.249	-0.074
-718.791	-200.000	-0.012	-0.169
-717.777	422.787	-0.055	-0.119
-716.762	-200.000	-0.056	-0.345
-715.748	186.669	-0.189	0.283
-714.733	-11.584	0.123	0.081
-713.718	-33.613	0.170	0.094
-712.704	41.316	0.167	0.152
-711.689	83.316	-0.100	-0.110
-710.675	124.094	-0.221	0.279
-709.660	490.412	0.085	0.196
-708.645	-8.839	-0.040	0.027
-707.631	800.000	-0.039	-0.125
-706.616	-200.000	0.042	-0.222
-705.602	-23.933	0.092	-0.055
-704.587	-200.000	-0.482	0.002
-703.572	158.474	0.012	-0.017
-702.558	-63.074	0.355	-0.147
-701.543	-127.887	-0.397	-0.057
-700.529	-69.101	-0.045	-0.018
-699.514	606.030	-0.090	0.224
-698.499	758.412	0.038	0.104
-697.485	-200.000	-0.013	0.195
-696.470	-200.000	-0.059	-0.310
-695.456	581.283	-0.087	-0.213
-694.441	-63.737	0.218	-0.090
-693.426	-200.000	-0.007	0.316
-692.412	-50.023	-0.096	-0.046
-691.397	-81.367	-0.010	0.003
-690.383	-1.317	-0.088	0.062
-689.368	-44.340	-0.055	-0.028
-688.354	800.000	-0.058	0.196
-687.339	102.823	0.039	-0.046
-686.324	-98.661	-0.189	0.048
-685.310	409.864	-0.068	0.144
-684.295	268.523	-0.110	0.194
-683.281	-116.562	-0.105	-0.019
-682.266	-200.000	0.013	-0.190
-681.251	-200.000	-0.021	0.182
-680.237	111.001	0.140	0.169
-679.222	188.392	0.105	-0.158
-678.208	-200.000	-0.006	0.197
-677.193	-192.287	-0.351	0.003
-676.178	-26.947	-0.077	0.045
-675.164	-121.642	-0.345	0.057
-674.149	-123.342	0.137	-0.022
-673.135	27.114	0.017	0.015
-672.120	61.697	-0.061	-0.061
-671.105	-200.000	0.003	0.181
-670.091	-62.761	-0.276	0.115
-669.076	-101.435	-0.154	0.038
-668.062	-9.461	-0.086	0.057
-667.047	356.196	-0.171	0.342
-666.032	-83.676	0.319	0.102
-665.018	-94.091	-0.339	0.093
-664.003	-200.000	0.010	0.167
-662.989	37.149	0.241	-0.214
-661.974	-200.000	-0.020	0.217
-660.959	603.677	0.039	0.097
-659.945	-69.195	0.389	-0.150
-658.930	479.025	0.104	-0.236
-657.916	-115.741	-0.241	-0.045
-656.901	687.947	0.035	0.092
-655.886	-200.000	0.002	0.071
-654.872	57.622	-0.281	-0.275
-653.857	800.000	0.031	0.090
-652.843	-184.842	-0.451	-0.007
-651.828	-72.384	0.094	0.035
-650.814	184.986	-0.027	-0.040
-649.799	-200.000	0.033	-0.145
-648.784	422.209	0.093	0.200
-647.770	778.106	-0.092	-0.252
-646.755	800.000	-0.031	0.101
-645.741	160.092	0.217	-0.304
-644.726	-92.353	0.198	0.056
-643.711	178.481	-0.047	-0.068
-642.697	-200.000	0.040	0.312
-641.682	293.143	-0.068	-0.125
-640.668	633.214	0.019	-0.049
-639.653	156.280	0.107	0.147
-638.638	-116.094	-0.174	-0.032
-637.624	101.482	-0.173	-0.202
-636.609	800.000	-0.117	-0.357
-635.595	36.945	0.115	0.102
-634.580	77.036	-0.155	-0.165
-633.565	363.399	0.031	0.063
-632.551	176.868	-0.104	-0.152
-631.536	211.094	-0.014	0.021
-630.522	-128.312	0.464	-0.066
-629.507	-1.776	-0.221	0.156
-628.492	-95.924	-0.126	0.034
-627.478	-154.529	0.177	0.012
-626.463	-200.000	0.012	0.152
-625.449	-138.559	-0.124	0.014
-624.434	-200.000	-0.018	0.079
-623.419	351.634	0.078	0.155
-622.405	-200.000	-0.008	0.235
-621.390	-200.000	-0.065	-0.287
-620.376	-49.000	-0.157	0.075
-619.361	800.000	-0.060	-0.189
-618.346	800.000	0.019	-0.059
-617.332	-45.380	0.277	-0.137
-616.317	14.928	-0.188	0.147
-615.303	230.348	0.060	-0.098
-614.288	327.872	0.027	0.052
-613.273	-200.000	0.001	0.097
-612.259	-200.000	0.008	-0.235
-611.244	-70.000	0.288	-0.110
-610.230	-162.242	-0.292	0.015
-609.215	6.822	-0.049	-0.036
-608.201	-200.000	0.017	0.262
-607.186	203.224	0.139	-0.214
-606.171	77.932	0.122	0.130
-605.157	-200.000	-0.064	-0.420
-604.142	685.977	-0.085	-0.222
-603.128	49.154	-0.063	-0.059
-602.113	171.000	-0.079	-0.114
-601.098	82.714	-0.367	-0.398
-600.084	-200.000	0.029	-0.318
-599.069	35.633	-0.162	0.143
-598.055	-25.208	0.412	0.244
-597.040	800.000	-0.019	-0.058
-596.025	115.362	0.085	-0.103
-595.011	-200.000	-0.011	0.067
-593.996	364.035	0.131	-0.264
-592.982	183.453	-0.223	-0.329
-591.967	-40.070	0.200	-0.104
-590.952	393.711	0.050	0.105
-589.938	-200.000	0.037	0.206
-588.923	-155.351	-0.193	-0.012
-587.909	-24.710	0.191	0.114
-586.894	94.864	-0.044	-0.050
-585.879	175.111	-0.337	-0.488
-584.865	100.716	0.230	-0.267
-583.850	77.901	0.105	0.112
-582.836	-22.197	-0.415	0.252
-581.821	-120.767	-0.158	0.027
-580.806	15.752	0.164	0.129
-579.792	732.985	-0.094	-0.252
-578.777	552.021	-0.101	0.243
-577.763	-200.000	0.042	0.213
-576.748	256.514	-0.053	0.091
-575.733	115.564	0.203	-0.248
-574.719	238.859	0.099	-0.164
-573.704	360.834	-0.063	0.127
-572.690	334.595	0.112	0.217
-571.675	-200.000	0.015	0.212
-570.661	-108.388	0.157	0.034
-569.646	27.072	-0.307	0.258
-568.631	65.217	-0.088	0.089
-567.617	-200.000	0.044	0.326
-566.602	-35.385	-0.265	0.144
-565.588	7.257	-0.281	-0.209
-564.573	-71.500	-0.239	-0.089
-563.558	91.245	-0.146	0.164
-562.544	-200.000	0.016	0.138
-561.529	-200.000	0.006	-0.221
-560.515	-107.274	0.213	-0.047
-559.500	-110.657	0.298	-0.062
-558.485	42.457	0.201	-0.183
-557.471	83.286	-0.042	-0.045
-556.456	-45.887	0.222	-0.109
-555.442	129.797	0.144	-0.184
-554.427	61.420	-0.203	0.202
-553.412	-200.000	-0.017	0.078
-552.398	-133.474	-0.255	-0.032
-551.383	128.991	0.028	0.036
-550.369	-137.581	-0.233	0.026
-549.354	800.000	0.032	-0.117
-548.339	800.000	-0.120	0.345
-547.325	-108.074	-0.160	-0.035
-546.310	349.106	0.068	-0.134
-545.296	-200.000	-0.001	-0.055
-544.281	625.668	0.162	0.409
-543.266	-200.000	0.039	-0.360
-542.252	411.591	0.098	-0.208
-541.237	800.000	-0.020	-0.061
-540.223	800.000	-0.048	-0.206
-539.208	-200.000	0.013	0.227
-538.193	-26.565	0.094	-0.055
-537.179	-110.844	-0.105	0.022
-536.164	58.735	-0.072	-0.070
-535.150	11.978	0.204	-0.156
-534.135	-200.000	0.000	-0.177
-533.121	-42.636	0.240	-0.122
-532.106	67.875	0.146	0.149
-531.091	10.595	-0.094	-0.071
-530.077	221.777	0.105	0.168
-529.062	-200.000	0.039	0.256
-528.048	108.401	0.040	-0.047
-527.033	800.000	-0.075	0.218
-526.018	-200.000	-0.016	-0.183
-525.004	212.629	0.155	0.244
-523.989	259.293	-0.171	0.294
-522.975	-114.355	-0.264	-0.051
-521.960	-139.245	0.227	0.024
-520.945	196.362	-0.208	0.316
-519.931	-94.636	-0.445	0.121
-518.916	-96.202	0.079	0.021
-517.902	193.688	0.069	0.104
-516.887	-94.389	-0.218	-0.059
-515.872	-200.000	-0.025	0.278
-514.858	20.725	0.090	0.073
-513.843	91.174	0.165	0.184
-512.829	70.241	-0.219	-0.226
-511.814	-82.157	-0.116	0.038
-510.799	-12.300	-0.126	-0.082
-509.785	-43.573	0.141	0.071
-508.770	551.710	0.042	0.101
-507.756	53.023	-0.218	0.208
-506.741	377.018	-0.027	0.056
-505.726	-184.572	-0.136	0.002
-504.712	-200.000	0.002	0.216
-503.697	267.721	0.067	-0.116
-502.683	412.149	-0.206	0.436
-501.668	83.466	-0.113	-0.123
-500.653	-200.000	0.003	0.208
-499.639	-151.548	-0.181	-0.013
-498.624	50.432	-0.235	-0.222
-497.610	31.755	0.051	-0.043
-496.595	800.000	-0.068	0.191
-495.581	-37.085	-0.128	0.068
-494.566	73.153	-0.110	0.114
-493.551	-22.563	0.170	0.102
-492.537	11.414	0.294	0.224
-491.522	152.561	0.063	-0.086
-490.508	326.266	-0.107	-0.204
-489.493	-200.000	0.036	0.239
-488.478	-129.200	-0.136	-0.019
-487.464	230.336	-0.051	0.083
-486.449	-126.293	0.198	-0.029
-485.435	68.710	-0.033	0.034
-484.420	61.640	0.202	0.200
-483.405	-21.523	-0.260	0.158
-482.391	74.467	-0.104	0.109
-481.376	48.380	0.196	-0.182
-480.362	-133.459	0.202	0.025
-479.347	800.000	0.089	-0.282
-478.332	-82.015	0.190	-0.062
-477.318	800.000	0.043	0.136
-476.303	-49.576	0.190	0.090
-475.289	271.284	0.116	-0.204
-474.274	-200.000	0.015	0.204
-473.259	-200.000	-0.072	0.329
-472.245	-16.975	0.108	0.068
-471.230	-40.326	-0.304	-0.158
-470.216	-77.471	-0.081	-0.028
-469.201	-125.301	0.264	-0.040
-468.186	-200.000	0.010	0.080
-467.172	-105.886	-0.113	0.025
-466.157	-75.629	0.242	0.085
-465.143	-124.887	-0.166	-0.026
-464.128	-200.000	-0.040	0.199
-463.113	174.688	-0.103	-0.148
-462.099	800.000	-0.060	0.166
-461.084	43.380	0.119	0.108
-460.070	-23.395	-0.365	-0.218
-459.055	-76.983	-0.362	0.126
-458.040	-200.000	0.049	-0.263
-457.026	-200.000	-0.009	0.077
-456.011	302.443	-0.150	-0.275
-454.997	-200.000	0.003	-0.015
-453.982	-115.759	-0.085	0.016
-452.968	-2.396	0.271	0.189
-451.953	182.607	-0.104	0.153
-450.938	-83.985	-0.230	-0.073
-449.924	-200.000	0.025	-0.207
-448.909	3.733	-0.065	-0.047
-447.895	-200.000	-0.015	-0.209
-446.880	-125.065	-0.347	-0.053
-445.865	-93.311	0.079	0.022
-444.851	130.118	-0.206	0.262
-443.836	311.069	-0.168	0.313
-442.822	-73.686	0.119	-0.043
-441.807	-33.093	-0.277	0.153
-440.792	435.236	0.157	-0.340
-439.778	-59.294	-0.202	0.087
-438.763	-46.315	0.210	0.103
-437.749	-200.000	-0.023	0.423
-436.734	-58.887	0.072	-0.031
-435.719	-200.000	0.047	0.213
-434.705	-55.485	-0.301	0.134
-433.690	-98.221	0.413	0.105
-432.676	136.738	-0.115	0.149
-431.661	-200.000	-0.066	0.367
-430.646	-55.675	-0.417	-0.185
-429.632	143.786	-0.151	0.200
-428.617	-108.283	0.249	0.053
-427.603	-33.928	0.283	-0.155
-426.588	152.801	0.251	-0.341
-425.573	219.625	0.275	-0.437
-424.559	82.058	0.100	0.108
-423.544	-200.000	0.028	-0.129
-422.530	464.519	-0.114	-0.254
-421.515	-169.000	0.030	0.001
-420.500	-142.255	-0.153	-0.015
-419.486	591.782	0.084	0.206
-418.471	-3.799	-0.174	-0.120
-417.457	-69.830	-0.195	-0.074
-416.442	-102.246	0.143	-0.034
-415.428	800.000	-0.087	0.266
-414.413	117.971	0.206	0.252
-413.398	-199.607	-0.131	-0.001
-412.384	-36.232	0.269	-0.144
-411.369	185.904	-0.119	-0.175
-410.355	-200.000	-0.019	0.222
-409.340	104.388	-0.057	0.066
-408.325	-200.000	0.017	-0.294
-407.311	-112.109	-0.039	0.008
-406.296	386.235	0.062	0.128
-405.282	-20.278	-0.258	0.157
-404.267	-13.641	0.169	-0.108
-403.252	800.000	0.089	-0.277
-402.238	800.000	0.082	-0.343
-401.223	-129.590	-0.298	0.041
-400.209	88.961	-0.058	0.064
-399.194	-200.000	0.025	-0.129
-398.179	-200.000	0.005	0.271
-397.165	800.000	0.090	0.277
-396.150	-36.790	0.249	0.132
-395.136	-101.625	0.223	-0.054
-394.121	-200.000	-0.000	0.029
-393.106	-4.577	-0.034	-0.023
-392.092	-36.460	-0.108	-0.058
-391.077	-200.000	-0.032	-0.183
-390.063	-118.239	0.253	-0.045
-389.048	268.854	-0.011	0.018
-388.033	-144.797	-0.134	-0.012
-387.019	-133.135	0.096	0.012
-386.004	647.227	0.147	-0.372
-384.990	20.492	0.039	0.031
-383.975	-200.000	-0.038	-0.164
-382.960	-70.958	-0.102	0.038
-381.946	-200.000	-0.023	-0.109
-380.931	-124.249	0.276	-0.043
-379.917	52.200	-0.130	0.123
-378.902	368.951	0.115	0.231
-377.888	-156.458	0.365	-0.023
-376.873	58.055	-0.125	-0.121
-375.858	329.898	-0.113	0.215
-374.844	-156.195	0.103	0.006
-373.829	595.539	-0.079	0.195
-372.815	-127.912	-0.108	0.015
-371.800	19.373	0.184	-0.147
-370.785	256.284	0.067	0.114
-369.771	-101.667	-0.272	0.065
-368.756	1.768	0.244	-0.174
-367.742	-99.047	-0.261	0.066
-366.727	-122.080	0.189	-0.031
-365.712	-3.159	0.177	0.122
-364.698	800.000	-0.087	0.334
-363.683	-90.782	0.094	0.027
-362.669	-200.000	0.027	-0.323
-361.654	130.798	-0.171	-0.217
-360.639	-2.012	-0.361	0.252
-359.625	141.135	-0.153	-0.200
-358.610	201.246	0.068	0.104
-357.596	463.544	0.094	0.209
-356.581	228.639	0.023	-0.038
-355.566	-142.563	0.142	0.014
-354.552	61.187	0.160	-0.158
-353.537	-39.597	0.314	0.163
-352.523	89.795	0.236	0.261
-351.508	58.203	-0.114	-0.111
-350.493	-200.000	0.085	-0.373
-349.479	-200.000	-0.036	0.209
-348.464	-25.553	-0.128	0.075
-347.450	800.000	0.063	-0.190
-346.435	-68.495	0.140	-0.054
-345.420	800.000	-0.066	0.231
-344.406	800.000	0.061	0.208
-343.391	800.000	0.051	-0.183
-342.377	800.000	0.055	-0.213
-341.362	166.902	-0.164	0.231
-340.348	15.948	-0.141	-0.110
-339.333	29.395	-0.243	0.204
-338.318	-200.000	0.021	-0.264
-337.304	800.000	0.096	-0.369
-336.289	-36.106	0.111	-0.060
-335.275	-48.050	-0.139	0.066
-334.260	-200.000	0.010	0.159
-333.245	-51.657	0.201	0.093
-332.231	-110.138	-0.268	0.055
-331.216	-88.245	-0.221	0.065
-330.202	-200.000	0.009	-0.064
-329.187	-200.000	-0.034	0.172
-328.172	-45.286	-0.279	0.137
-327.158	800.000	0.057	-0.204
-326.143	-46.088	-0.188	-0.092
-325.129	-200.000	0.052	0.548
-324.114	129.185	-0.159	-0.201
-323.099	800.000	0.054	0.193
-322.085	121.434	-0.165	-0.203
-321.070	-135.359	-0.257	0.030
-320.056	-62.035	0.197	0.081
-319.041	431.535	0.037	-0.080
-318.026	-200.000	-0.010	0.284
-317.012	-169.005	0.067	0.002
-315.997	59.743	0.053	-0.051
-314.983	-200.000	-0.003	0.071
-313.968	-200.000	-0.014	-0.273
-312.953	57.996	0.233	-0.225
-311.939	183.657	-0.137	-0.201
-310.924	452.456	0.107	-0.233
-309.910	133.781	0.185	0.237
-308.895	800.000	0.009	-0.026
-307.880	-121.442	-0.457	0.075
-306.866	7.017	-0.097	0.071
-305.851	-107.418	-0.108	0.023
-304.837	-27.817	-0.116	-0.067
-303.822	540.019	0.064	0.151
-302.807	-200.000	0.003	0.076
-301.793	0.224	0.078	-0.055
-300.778	-153.593	0.301	0.021
-299.764	298.722	0.052	-0.094
-298.749	-153.403	0.196	0.013
-297.735	53.385	-0.078	0.073
-296.720	387.517	0.040	0.081
-295.705	162.378	0.024	-0.033
-294.691	49.314	-0.320	-0.298
-293.676	-200.000	-0.006	0.286
-292.662	67.583	-0.143	0.144
-291.647	-93.276	0.350	-0.096
-290.632	-137.993	0.080	-0.009
-289.618	361.416	-0.148	-0.293
-288.603	-200.000	-0.028	0.141
-287.589	-200.000	0.017	-0.111
-286.574	800.000	-0.038	0.151
-285.559	800.000	-0.063	-0.202
-284.545	-200.000	0.004	0.272
-283.530	-76.299	-0.127	0.044
-282.516	800.000	-0.063	0.246
-281.501	800.000	0.062	0.246
-280.486	169.853	0.388	0.548
-279.472	34.912	0.170	0.147
-278.457	24.454	-0.250	-0.204
-277.443	-188.630	-0.091	-0.001
-276.428	37.124	-0.192	0.168
-275.413	-14.157	0.036	0.023
-274.399	-55.337	0.176	-0.078
-273.384	90.457	-0.167	0.185
-272.370	-131.024	0.159	-0.021
-271.355	-200.000	-0.016	0.424
-270.340	800.000	-0.161	0.442
-269.326	-42.842	-0.097	-0.048
-268.311	-158.354	0.286	0.016
-267.297	164.055	-0.105	0.146
-266.282	-11.123	-0.181	0.118
-265.267	307.707	-0.109	-0.201
-264.253	-4.702	-0.170	0.116
-263.238	-91.652	-0.068	0.019
-262.224	409.160	0.204	-0.425
-261.209	154.189	0.231	0.313
-260.195	2.894	-0.187	-0.134
-259.180	79.665	-0.106	-0.112
-258.165	410.545	0.157	0.328
-257.151	-123.138	-0.278	0.044
-256.136	-58.690	0.148	-0.063
-255.122	589.229	0.071	-0.172
-254.107	181.599	-0.232	0.337
-253.092	431.759	0.057	-0.123
-252.078	-200.000	0.038	-0.256
-251.063	694.554	0.091	0.236
-250.049	-19.984	-0.199	0.121
-249.034	85.542	0.308	0.333
-248.019	-200.000	0.023	-0.124
-247.005	-200.000	-0.029	-0.147
-245.990	-181.719	-0.162	0.003
-244.976	800.000	0.085	-0.263
-243.961	208.888	0.194	-0.300
-242.946	487.678	0.040	-0.091
-241.932	141.583	0.149	0.194
-240.917	-24.951	0.255	-0.149
-239.903	101.571	-0.064	-0.073
-238.888	588.113	-0.022	-0.053
-237.873	-60.804	0.333	-0.139
-236.859	68.075	0.106	0.107
-235.844	652.145	0.089	0.224
-234.830	145.685	0.135	0.178
-233.815	453.941	-0.080	-0.174
-232.800	-34.948	-0.252	-0.136
-231.786	-200.000	0.037	0.311
-230.771	81.718	-0.088	0.093
-229.757	27.355	0.050	0.041
-228.742	35.947	0.177	-0.154
-227.727	-107.565	-0.273	0.059
-226.713	65.963	0.183	-0.183
-225.698	-66.213	0.250	-0.098
-224.684	-57.271	0.224	0.097
-223.669	7.114	0.256	-0.188
-222.655	-50.019	-0.169	-0.079
-221.640	230.620	0.111	0.179
-220.625	-11.567	-0.191	-0.124
-219.611	-173.133	0.099	-0.003
-218.596	800.000	0.049	-0.136
-217.582	-56.789	-0.196	0.086
-216.567	561.150	-0.047	-0.112
-215.552	-32.639	-0.103	0.057
-214.538	297.217	-0.216	-0.391
-213.523	-200.000	-0.082	-0.488
-212.509	-56.326	-0.259	0.114
-211.494	-34.655	0.241	-0.130
-210.479	-94.950	-0.090	0.024
-209.465	-143.173	0.082	0.008
-208.450	21.210	0.369	-0.295
-207.436	-158.525	-0.078	0.004
-206.421	208.496	-0.106	-0.163
-205.406	-29.826	-0.183	0.103
-204.392	-135.460	0.100	-0.012
-203.377	74.275	-0.073	0.075
-202.363	125.209	-0.216	-0.268
-201.348	-38.661	-0.141	0.073
-200.333	-200.000	-0.056	0.245
-199.319	-200.000	0.002	0.036
-198.304	-200.000	-0.019	-0.423
-197.290	-65.726	0.306	0.121
-196.275	-13.972	0.127	-0.081
-195.260	800.000	0.049	-0.158
-194.246	-137.821	0.067	0.007
-193.231	-44.086	0.471	-0.233
-192.217	-200.000	-0.043	-0.228
-191.202	-19.004	-0.158	0.097
-190.187	-200.000	-0.023	-0.101
-189.173	730.318	-0.091	0.240
-188.158	670.512	-0.083	-0.210
-187.144	-121.122	0.198	-0.033
-186.129	-153.420	0.274	-0.019
-185.114	-21.958	0.218	-0.131
-184.100	800.000	-0.035	-0.124
-183.085	11.473	0.335	-0.252
-182.071	131.472	0.099	0.125
-181.056	-200.000	-0.024	-0.198
-180.042	187.105	0.064	0.094
-179.027	-200.000	-0.012	-0.147
-178.012	282.934	0.033	-0.058
-176.998	800.000	0.052	-0.151
-175.983	-5.512	0.201	-0.136
-174.969	-200.000	0.029	-0.199
-173.954	-155.448	0.192	0.012
-172.939	800.000	0.118	-0.352
-171.925	-5.979	0.162	-0.109
-170.910	477.295	-0.025	0.056
-169.896	800.000	-0.054	0.150
-168.881	-93.253	-0.132	-0.036
-167.866	72.350	0.165	-0.170
-166.852	377.649	-0.059	0.118
-165.837	800.000	0.074	-0.200
-164.823	71.561	-0.062	0.063
-163.808	22.998	0.099	0.080
-162.793	120.624	0.219	-0.267
-161.779	-115.363	-0.278	0.052
-160.764	-90.414	-0.325	0.093
-159.750	-200.000	0.003	-0.166
-158.735	-37.830	-0.317	-0.166
-157.720	-102.517	0.198	-0.047
-156.706	114.185	-0.134	0.160
-155.691	657.514	-0.025	-0.064
-154.677	-3.213	0.199	0.136
-153.662	-200.000	0.050	0.259
-152.647	-115.838	0.043	0.008
-151.633	-3.875	0.070	-0.048
-150.618	535.550	0.133	0.311
-149.604	19.037	-0.262	0.207
-148.589	-200.000	-0.046	-0.254
-147.574	-200.000	0.030	-0.131
-146.560	407.505	0.111	-0.230
-145.545	194.060	-0.057	0.084
-144.531	-200.000	0.025	-0.466
-143.516	-197.610	0.037	-0.000
-142.502	800.000	-0.075	0.306
-141.487	-200.000	-0.011	0.159
-140.472	-57.956	0.316	-0.135
-139.458	246.093	-0.197	-0.325
-138.443	347.612	0.068	-0.132
-137.429	-83.275	0.307	0.097
-136.414	10.326	-0.369	0.276
-135.399	31.926	0.049	0.041
-134.385	170.193	0.151	0.212
-133.370	-131.329	-0.186	0.024
-132.356	-41.093	0.141	0.072
-131.341	603.715	-0.153	-0.375
-130.326	-187.177	-0.080	-0.001
-129.312	293.230	-0.042	0.076
-128.297	-200.000	0.067	0.418
-127.283	-161.727	-0.129	-0.006
-126.268	-124.087	-0.235	0.036
-125.253	2.908	-0.102	-0.073
-124.239	97.474	0.255	0.288
-123.224	-200.000	0.018	0.193
-122.210	-94.101	-0.155	0.042
-121.195	604.849	-0.090	0.219
