DTS Sentinel unit serial number:	SN413079Multiplexer serial number:	ORYXHardware model number:	OX4-SRSoftware version number:	ORYX F/W v4.00 Oryx Data Collector v3.7.2.0data status	okinstallation	princeton_trtdifferential loss correction	single-endedforward channel	channel 4reverse channel	N/Adate	2019/09/17time	09:37:35forward acquisition time	60.00reverse acquisition time	0.00gamma	496.2192k internal	0.2312k external	0.2312temperature offset calibration	0.9975default loss term (dB/km)	0.3790temperature slope calibration	1.0000multiplexer offset coefficient	1.0000multiplexer slope coefficient	1.0000fibre end	0.00T internal ref (°C)	29.16T ext. ref 1 (°C)	0.15T ext. ref 2 (°C)	25.44length (m)	temperature (°C)	Stokes	anti-Stokes-747.200	-155.264	0.312	0.021
-746.185	-186.960	-0.307	0.004
-745.171	-200.000	-0.030	0.161
-744.156	-88.020	-0.228	0.069
-743.142	22.330	0.269	0.223
-742.127	-108.234	-0.276	-0.061
-741.112	-200.000	0.004	0.048
-740.098	800.000	-0.078	0.274
-739.083	19.861	0.366	0.300
-738.069	103.072	-0.043	0.051
-737.054	-200.000	-0.073	0.358
-736.039	-90.993	-0.229	-0.067
-735.025	129.346	-0.125	0.162
-734.010	-117.206	-0.331	0.061
-732.996	-200.000	0.010	-0.179
-731.981	449.260	-0.076	-0.170
-730.966	-160.547	-0.153	0.008
-729.952	-60.678	-0.040	0.017
-728.937	97.073	0.189	-0.219
-727.923	-200.000	-0.040	-0.389
-726.908	800.000	-0.062	-0.208
-725.894	343.400	-0.100	-0.200
-724.879	160.996	-0.248	-0.352
-723.864	-200.000	0.030	-0.188
-722.850	389.449	-0.124	0.261
-721.835	431.133	0.043	0.094
-720.821	98.746	0.113	-0.132
-719.806	9.279	0.206	-0.158
-718.791	178.162	0.133	0.197
-717.777	800.000	-0.068	-0.279
-716.762	-58.339	-0.348	-0.153
-715.748	-59.008	-0.178	0.078
-714.733	-68.297	0.123	0.049
-713.718	-61.812	-0.429	-0.182
-712.704	134.766	-0.162	-0.213
-711.689	76.769	-0.138	-0.148
-710.675	-158.453	0.303	-0.018
-709.660	-200.000	0.062	-0.286
-708.645	97.363	-0.163	0.190
-707.631	-188.903	-0.435	0.005
-706.616	-53.960	-0.278	-0.129
-705.602	-26.142	-0.089	0.053
-704.587	3.680	-0.373	-0.276
-703.572	-103.009	0.257	-0.062
-702.558	-200.000	-0.004	-0.457
-701.543	-139.502	-0.252	0.027
-700.529	-55.869	0.263	-0.119
-699.514	800.000	0.020	0.067
-698.499	234.705	0.063	0.105
-697.485	-51.318	-0.402	-0.190
-696.470	-0.298	-0.294	0.212
-695.456	-200.000	0.016	0.157
-694.441	-9.820	0.153	-0.103
-693.426	337.172	0.005	0.010
-692.412	418.308	-0.097	-0.209
-691.397	-200.000	-0.004	-0.168
-690.383	300.030	-0.253	-0.473
-689.368	-200.000	-0.008	0.058
-688.354	90.713	-0.123	0.139
-687.339	254.492	0.080	0.139
-686.324	31.040	0.278	-0.241
-685.310	79.003	-0.074	-0.080
-684.295	-115.124	0.137	-0.026
-683.281	-200.000	-0.005	0.023
-682.266	175.280	-0.154	0.226
-681.251	800.000	0.036	-0.143
-680.237	-91.624	-0.386	-0.111
-679.222	7.621	-0.218	-0.165
-678.208	37.302	-0.159	-0.143
-677.193	223.271	0.112	0.183
-676.178	800.000	-0.058	-0.193
-675.164	-75.729	0.265	0.095
-674.149	31.260	-0.316	0.274
-673.135	-200.000	-0.008	0.122
-672.120	-200.000	-0.026	-0.129
-671.105	21.851	0.023	0.019
-670.091	24.803	-0.179	-0.150
-669.076	685.433	0.089	0.235
-668.062	226.981	0.030	0.049
-667.047	-174.910	-0.209	-0.006
-666.032	-200.000	-0.008	0.140
-665.018	-200.000	-0.025	0.422
-664.003	781.198	0.038	-0.106
-662.989	800.000	0.065	0.239
-661.974	-200.000	0.061	0.323
-660.959	-200.000	-0.019	-0.177
-659.945	-35.497	-0.282	0.155
-658.930	-200.000	-0.024	0.136
-657.916	-74.152	-0.213	0.078
-656.901	-160.164	-0.124	0.007
-655.886	-200.000	0.007	-0.146
-654.872	-200.000	0.056	0.340
-653.857	6.547	-0.182	0.137
-652.843	-103.021	0.090	0.022
-651.828	-25.300	-0.164	0.098
-650.814	99.087	0.169	-0.198
-649.799	356.978	-0.054	-0.110
-648.784	69.804	0.213	-0.222
-647.770	800.000	-0.061	0.188
-646.755	16.588	-0.040	0.032
-645.741	-116.242	0.129	0.024
-644.726	800.000	-0.024	-0.090
-643.711	800.000	0.053	-0.221
-642.697	-136.917	-0.147	-0.017
-641.682	-200.000	-0.021	-0.110
-640.668	-50.182	-0.311	-0.149
-639.653	800.000	0.054	0.236
-638.638	22.463	-0.129	-0.107
-637.624	-56.929	-0.167	-0.075
-636.609	53.362	0.185	0.179
-635.595	442.673	0.129	-0.285
-634.580	150.650	0.112	0.154
-633.565	-115.006	-0.186	0.036
-632.551	-39.688	-0.221	-0.117
-631.536	49.006	0.128	0.122
-630.522	145.052	-0.232	0.313
-629.507	-200.000	0.061	-0.388
-628.492	-108.995	0.217	-0.047
-627.478	137.332	-0.151	-0.200
-626.463	-200.000	-0.043	-0.203
-625.449	800.000	0.107	-0.352
-624.434	-200.000	0.005	-0.129
-623.419	-195.424	0.080	-0.001
-622.405	-4.450	0.065	-0.046
-621.390	154.739	0.124	0.172
-620.376	123.680	0.076	-0.096
-619.361	654.591	-0.135	-0.351
-618.346	-96.804	-0.418	0.111
-617.332	-46.404	-0.123	0.061
-616.317	145.607	0.089	0.120
-615.303	-200.000	0.010	0.122
-614.288	-200.000	-0.007	-0.142
-613.273	-65.883	0.261	-0.105
-612.259	-200.000	-0.050	0.250
-611.244	-200.000	-0.030	-0.214
-610.230	270.429	-0.192	-0.341
-609.215	-89.817	0.259	0.076
-608.201	800.000	0.119	-0.493
-607.186	-200.000	-0.027	0.135
-606.171	27.962	-0.178	-0.152
-605.157	-23.182	0.163	-0.099
-604.142	10.385	-0.026	-0.020
-603.128	-129.475	-0.363	-0.051
-602.113	205.611	0.018	-0.028
-601.098	-200.000	0.012	0.298
-600.084	800.000	-0.061	0.247
-599.069	73.447	0.057	-0.060
-598.055	166.429	0.128	-0.183
-597.040	-109.392	-0.269	0.058
-596.025	80.034	0.208	0.226
-595.011	31.867	-0.117	0.102
-593.996	-0.645	-0.117	-0.084
-592.982	-191.500	-0.074	-0.001
-591.967	-59.489	-0.182	0.079
-590.952	-161.791	0.277	0.014
-589.938	11.123	-0.278	-0.215
-588.923	-62.657	-0.370	0.155
-587.909	-26.564	-0.231	-0.137
-586.894	-4.830	-0.139	0.097
-585.879	104.504	0.085	0.100
-584.865	800.000	0.012	-0.035
-583.850	-200.000	-0.021	-0.245
-582.836	104.175	0.193	0.229
-581.821	800.000	0.041	0.151
-580.806	41.544	-0.246	0.225
-579.792	-200.000	0.055	-0.362
-578.777	-14.266	-0.109	0.071
-577.763	-135.460	0.298	-0.036
-576.748	31.737	-0.164	-0.142
-575.733	233.601	-0.084	-0.139
-574.719	-93.103	-0.339	0.095
-573.704	-65.036	-0.404	0.164
-572.690	36.856	-0.209	0.186
-571.675	-200.000	-0.022	0.208
-570.661	-167.562	0.151	0.006
-569.646	185.053	-0.072	0.108
-568.631	120.203	-0.144	-0.180
-567.617	-76.479	-0.189	-0.067
-566.602	-25.022	-0.383	-0.229
-565.588	103.281	-0.083	0.098
-564.573	-159.411	0.337	0.019
-563.558	800.000	-0.051	-0.168
-562.544	136.227	-0.251	0.330
-561.529	-200.000	0.040	0.375
-560.515	167.622	0.188	0.269
-559.500	467.965	0.093	-0.210
-558.485	-169.571	-0.158	0.006
-557.471	420.096	-0.094	0.203
-556.456	-175.145	0.319	-0.009
-555.442	103.822	-0.084	0.100
-554.427	11.824	0.250	-0.194
-553.412	-15.926	0.111	-0.071
-552.398	-200.000	0.002	0.023
-551.383	-200.000	0.003	0.354
-550.369	-102.577	-0.353	-0.085
-549.354	800.000	0.082	-0.255
-548.339	-108.976	0.195	0.042
-547.325	513.418	-0.209	0.490
-546.310	330.446	0.058	0.112
-545.296	11.186	-0.214	0.165
-544.281	800.000	-0.028	0.085
-543.266	-73.210	-0.244	0.090
-542.252	-200.000	-0.013	-0.103
-541.237	-196.646	0.244	0.002
-540.223	-44.438	0.284	-0.143
-539.208	131.238	0.117	-0.152
-538.193	17.544	0.349	-0.279
-537.179	-72.853	-0.119	0.044
-536.164	-73.377	0.117	-0.043
-535.150	-158.644	0.136	0.008
-534.135	-52.233	0.152	0.071
-533.121	12.955	-0.352	-0.274
-532.106	800.000	-0.033	0.094
-531.091	800.000	0.015	0.042
-530.077	-200.000	0.041	-0.224
-529.062	-122.771	0.257	0.042
-528.048	399.921	0.140	-0.295
-527.033	-98.354	0.163	-0.042
-526.018	52.955	-0.050	-0.048
-525.004	13.148	-0.211	0.165
-523.989	137.055	-0.067	0.087
-522.975	96.024	-0.096	0.111
-521.960	-39.491	0.204	0.107
-520.945	116.181	0.066	-0.082
-519.931	434.280	-0.081	0.177
-518.916	426.429	-0.040	-0.086
-517.902	-200.000	-0.056	-0.270
-516.887	-200.000	-0.002	0.149
-515.872	201.883	-0.052	-0.080
-514.858	256.469	0.153	-0.263
-513.843	-62.793	-0.139	0.058
-512.829	589.490	-0.045	-0.111
-511.814	-179.461	-0.490	0.011
-510.799	800.000	0.036	0.127
-509.785	-200.000	0.007	-0.081
-508.770	128.420	-0.308	-0.395
-507.756	210.473	-0.060	0.095
-506.741	-6.648	0.246	-0.169
-505.726	455.804	-0.007	-0.015
-504.712	18.355	-0.194	-0.156
-503.697	58.582	-0.211	-0.209
-502.683	269.138	0.036	0.063
-501.668	-200.000	0.014	-0.446
-500.653	-200.000	0.000	0.147
-499.639	-47.758	0.165	0.080
-498.624	221.433	-0.113	-0.183
-497.610	121.495	-0.207	0.259
-496.595	309.417	-0.052	-0.099
-495.581	-200.000	0.026	-0.301
-494.566	180.911	-0.168	-0.248
-493.551	90.695	-0.275	0.309
-492.537	-200.000	0.013	0.092
-491.522	-180.175	-0.217	-0.005
-490.508	-9.431	0.233	0.156
-489.493	-146.123	0.045	-0.004
-488.478	34.506	0.130	-0.114
-487.464	11.920	-0.032	0.024
-486.449	-62.796	-0.398	0.166
-485.435	41.666	-0.176	-0.160
-484.420	-200.000	0.018	-0.126
-483.405	800.000	-0.033	0.091
-482.391	43.493	-0.078	-0.072
-481.376	118.591	0.052	0.064
-480.362	0.674	-0.073	0.052
-479.347	16.556	0.081	-0.064
-478.332	-113.967	0.165	0.032
-477.318	-74.285	-0.116	-0.042
-476.303	-151.496	-0.046	-0.003
-475.289	-200.000	0.026	0.120
-474.274	-200.000	-0.008	-0.499
-473.259	-64.144	-0.356	-0.146
-472.245	-200.000	-0.014	0.284
-471.230	440.661	0.154	0.339
-470.216	220.117	-0.049	-0.079
-469.201	-151.650	-0.348	0.026
-468.186	312.022	-0.125	-0.235
-467.172	-31.623	-0.282	0.159
-466.157	274.658	-0.209	0.371
-465.143	-200.000	-0.048	0.215
-464.128	-200.000	-0.004	0.041
-463.113	21.445	0.261	0.213
-462.099	800.000	-0.059	-0.178
-461.084	390.899	0.161	0.336
-460.070	800.000	-0.094	0.287
-459.055	-60.574	0.093	0.039
-458.040	-65.979	0.091	-0.037
-457.026	-200.000	0.014	0.134
-456.011	-108.593	-0.028	-0.006
-454.997	-143.331	-0.094	-0.009
-453.982	-38.064	0.191	0.102
-452.968	78.454	0.166	0.178
-451.953	57.474	0.098	-0.096
-450.938	-200.000	-0.109	-0.000
-449.924	116.079	0.212	0.260
-448.909	-32.275	0.373	-0.209
-447.895	-200.000	0.026	0.296
-446.880	370.372	-0.048	0.098
-445.865	-107.775	-0.109	-0.024
-444.851	-110.980	0.233	-0.048
-443.836	-66.359	0.272	0.108
-442.822	-4.775	-0.203	-0.141
-441.807	40.223	-0.122	-0.110
-440.792	101.329	-0.141	-0.164
-439.778	-200.000	0.020	0.157
-438.763	573.495	-0.064	0.156
-437.749	-157.483	0.231	-0.014
-436.734	111.916	-0.213	0.258
-435.719	687.329	-0.142	-0.372
-434.705	-134.928	-0.287	-0.035
-433.690	-135.505	-0.015	-0.002
-432.676	-149.239	-0.263	-0.021
-431.661	800.000	0.034	0.142
-430.646	180.860	-0.083	0.123
-429.632	-142.859	-0.491	-0.048
-428.617	55.846	-0.162	0.157
-427.603	48.715	0.163	-0.153
-426.588	-28.245	0.295	0.171
-425.573	-172.824	0.185	0.006
-424.559	372.284	-0.057	0.116
-423.544	-63.451	0.085	-0.035
-422.530	-200.000	-0.004	-0.216
-421.515	-8.069	0.068	0.046
-420.500	-200.000	0.033	-0.295
-419.486	637.043	-0.079	-0.201
-418.471	800.000	0.030	-0.101
-417.457	-200.000	0.022	0.311
-416.442	-176.121	-0.107	0.003
-415.428	169.736	-0.065	0.093
-414.413	-59.456	-0.132	0.057
-413.398	-3.714	0.118	-0.082
-412.384	-61.555	0.354	-0.149
-411.369	800.000	0.056	0.206
-410.355	-69.183	-0.142	0.055
-409.340	-45.138	-0.100	0.050
-408.325	140.640	-0.159	0.210
-407.311	-200.000	-0.020	-0.173
-406.296	36.988	0.243	-0.216
-405.282	-12.915	0.231	-0.151
-404.267	-200.000	0.004	0.041
-403.252	-200.000	-0.046	0.252
-402.238	-139.626	0.038	-0.004
-401.223	97.483	0.312	-0.359
-400.209	-200.000	0.020	0.230
-399.194	14.231	-0.248	-0.194
-398.179	800.000	-0.071	-0.243
-397.165	-135.678	-0.216	0.026
-396.150	-46.140	-0.142	-0.070
-395.136	800.000	0.120	0.443
-394.121	-200.000	-0.021	0.102
-393.106	-99.912	0.091	0.023
-392.092	-59.272	0.233	-0.101
-391.077	219.408	-0.174	0.278
-390.063	317.285	-0.049	-0.092
-389.048	-91.057	-0.335	-0.096
-388.033	-200.000	-0.003	-0.077
-387.019	-200.000	-0.037	-0.201
-386.004	-121.756	-0.131	0.022
-384.990	-13.463	-0.402	-0.261
-383.975	-200.000	0.006	0.086
-382.960	470.590	-0.051	-0.114
-381.946	-107.030	0.152	-0.034
-380.931	435.586	0.207	0.451
-379.917	-200.000	0.047	0.259
-378.902	490.230	0.141	0.322
-377.888	485.325	-0.092	-0.211
-376.873	-200.000	-0.043	-0.254
-375.858	197.157	-0.086	-0.131
-374.844	-200.000	0.008	0.120
-373.829	-127.987	0.140	-0.020
-372.815	158.221	0.010	0.014
-371.800	-31.947	0.234	0.131
-370.785	-39.497	0.225	-0.118
-369.771	800.000	-0.077	0.216
-368.756	-28.661	0.448	-0.258
-367.742	-200.000	0.019	-0.085
-366.727	44.222	0.131	-0.121
-365.712	-123.674	0.168	-0.027
-364.698	-200.000	-0.027	0.155
-363.683	-200.000	0.279	0.001
-362.669	302.038	0.097	0.180
-361.654	262.817	0.106	-0.184
-360.639	-99.136	-0.167	0.042
-359.625	-64.140	-0.231	0.094
-358.610	91.754	0.198	-0.222
-357.596	-146.264	-0.434	-0.038
-356.581	-91.446	0.167	0.048
-355.566	-141.795	-0.246	0.025
-354.552	688.790	-0.008	-0.021
-353.537	56.694	-0.259	-0.252
-352.523	800.000	0.053	-0.196
-351.508	-22.937	0.136	-0.082
-350.493	-122.938	-0.251	-0.040
-349.479	576.222	0.120	-0.294
-348.464	-108.501	0.161	0.035
-347.450	-200.000	-0.023	-0.201
-346.435	504.670	0.083	-0.191
-345.420	-28.654	0.123	-0.071
-344.406	-171.569	0.144	0.005
-343.391	-183.299	0.246	-0.004
-342.377	-200.000	-0.007	0.136
-341.362	-56.903	-0.227	-0.100
-340.348	-9.465	-0.019	-0.012
-339.333	-200.000	0.000	0.005
-338.318	-200.000	-0.039	-0.192
-337.304	411.582	-0.045	-0.096
-336.289	800.000	0.004	-0.011
-335.275	-139.261	-0.396	-0.043
-334.260	182.026	-0.125	-0.183
-333.245	-103.333	0.305	-0.072
-332.231	-200.000	0.001	-0.072
-331.216	311.041	-0.041	-0.076
-330.202	-200.000	0.013	-0.158
-329.187	-45.947	0.162	-0.080
-328.172	-58.765	0.226	0.098
-327.158	89.753	-0.140	0.156
-326.143	82.731	-0.033	0.036
-325.129	-120.411	0.141	-0.024
-324.114	800.000	-0.096	0.277
-323.099	-37.732	-0.149	0.079
-322.085	-102.085	-0.142	0.034
-321.070	43.059	-0.187	0.170
-320.056	-150.586	0.254	-0.019
-319.041	-200.000	0.089	-0.401
-318.026	-92.794	-0.244	0.068
-317.012	43.717	-0.201	-0.184
-315.997	-62.732	0.226	-0.093
-314.983	-200.000	-0.004	0.079
-313.968	-97.456	0.177	0.046
-312.953	-85.414	0.083	0.026
-311.939	-46.667	-0.226	-0.110
-310.924	-200.000	0.013	-0.154
-309.910	-82.132	0.430	0.140
-308.895	181.162	0.144	0.211
-307.880	531.246	0.031	-0.074
-306.866	-200.000	-0.018	0.454
-305.851	402.751	0.102	0.213
-304.837	-41.331	0.200	0.103
-303.822	97.241	-0.172	0.197
-302.807	-65.732	0.355	0.142
-301.793	-148.800	-0.382	0.031
-300.778	-200.000	0.013	0.069
-299.764	221.458	-0.119	-0.190
-298.749	-200.000	-0.031	-0.154
-297.735	-144.367	0.429	0.040
-296.720	-82.109	0.280	-0.091
-295.705	-93.306	0.354	-0.098
-294.691	800.000	0.078	-0.262
-293.676	-71.500	0.359	0.134
-292.662	746.977	0.062	0.166
-291.647	-103.503	0.096	-0.023
-290.632	-47.502	-0.123	0.059
-289.618	-151.446	-0.294	0.022
-288.603	46.337	-0.435	0.402
-287.589	-161.505	0.136	-0.007
-286.574	90.948	-0.089	-0.099
-285.559	71.139	0.208	-0.215
-284.545	-73.672	-0.084	-0.031
-283.530	-81.737	0.131	-0.043
-282.516	-200.000	-0.024	0.159
-281.501	-11.942	0.041	0.027
-280.486	800.000	-0.063	-0.262
-279.472	-1.271	-0.114	0.080
-278.457	-121.577	0.204	-0.034
-277.443	106.159	0.233	-0.275
-276.428	-11.098	-0.111	-0.073
-275.413	-59.977	-0.349	-0.149
-274.399	-172.095	0.083	0.003
-273.384	800.000	0.026	0.077
-272.370	-200.000	0.067	0.336
-271.355	-56.597	-0.228	-0.100
-270.340	-97.344	0.362	-0.094
-269.326	374.174	-0.027	-0.055
-268.311	-200.000	-0.002	-0.099
-267.297	247.990	-0.149	0.250
-266.282	575.833	0.095	0.232
-265.267	162.950	0.245	-0.342
-264.253	800.000	0.044	0.165
-263.238	-135.522	0.100	-0.012
-262.224	351.702	0.025	-0.049
-261.209	202.690	-0.099	0.152
-260.195	800.000	-0.081	0.315
-259.180	510.204	0.040	0.093
-258.165	12.716	0.193	0.149
-257.151	86.761	0.189	-0.207
-256.136	-200.000	0.004	-0.097
-255.122	-51.336	0.028	0.013
-254.107	-0.606	-0.215	0.152
-253.092	329.467	-0.112	-0.215
-252.078	58.000	0.195	-0.190
-251.063	-200.000	-0.015	0.186
-250.049	-200.000	-0.058	-0.328
-249.034	47.063	-0.056	-0.052
-248.019	-11.041	-0.339	-0.223
-247.005	-200.000	0.009	0.173
-245.990	-156.963	0.326	-0.020
-244.976	-200.000	0.029	0.182
-243.961	800.000	0.022	0.071
-242.946	-22.297	-0.158	0.095
-241.932	-185.429	-0.214	-0.003
-240.917	149.385	-0.184	0.247
-239.903	-200.000	-0.003	-0.171
-238.888	-200.000	-0.058	0.459
-237.873	800.000	-0.101	0.295
-236.859	800.000	0.045	-0.175
-235.844	-8.408	0.137	0.092
-234.830	357.310	0.104	-0.207
-233.815	261.776	0.085	-0.147
-232.800	-200.000	-0.000	-0.272
-231.786	-48.486	-0.152	-0.073
-230.771	219.360	-0.108	0.171
-229.757	-82.418	0.142	-0.046
-228.742	-63.890	0.180	-0.073
-227.727	-42.112	-0.199	-0.101
-226.713	297.346	-0.141	0.258
-225.698	800.000	-0.060	-0.205
-224.684	-159.831	-0.206	-0.011
-223.669	162.031	-0.105	0.147
-222.655	-189.358	0.179	0.002
-221.640	-23.938	0.529	0.315
-220.625	-92.434	0.208	-0.058
-219.611	210.986	0.063	0.099
-218.596	-200.000	-0.010	0.270
-217.582	290.362	-0.080	-0.145
-216.567	-11.956	0.603	0.393
-215.552	-200.000	-0.054	0.295
-214.538	15.064	0.126	0.098
-213.523	314.011	-0.064	-0.121
-212.509	-15.102	0.104	-0.066
-211.494	198.763	-0.093	-0.142
-210.479	63.343	0.179	-0.179
-209.465	-200.000	-0.003	0.189
-208.450	134.926	0.016	-0.020
-207.436	32.452	0.197	-0.169
-206.421	184.294	0.063	0.093
-205.406	-98.312	0.159	-0.041
-204.392	60.996	0.394	0.388
-203.377	40.830	0.175	0.157
-202.363	114.041	-0.064	-0.077
-201.348	800.000	-0.073	0.240
-200.333	93.686	-0.390	-0.439
-199.319	-78.936	0.200	0.068
-198.304	-151.543	-0.070	-0.005
-197.290	86.955	0.121	0.133
-196.275	-91.853	0.327	0.092
-195.260	-2.920	0.248	0.172
-194.246	-68.555	-0.183	-0.070
-193.231	423.438	0.075	-0.161
-192.217	-200.000	-0.007	0.067
-191.202	206.913	0.147	-0.228
-190.187	-200.000	0.088	-0.458
-189.173	155.886	-0.054	0.073
-188.158	203.704	-0.174	0.267
-187.144	-117.477	0.318	-0.057
-186.129	800.000	0.040	0.171
-185.114	104.498	0.143	0.168
-184.100	-200.000	-0.003	0.084
-183.085	-92.350	0.285	-0.080
-182.071	24.096	0.293	0.240
-181.056	405.145	-0.019	0.039
-180.042	31.491	-0.201	-0.171
-179.027	258.873	0.145	-0.248
-178.012	800.000	-0.044	0.121
-176.998	-200.000	-0.032	0.176
-175.983	800.000	-0.058	-0.204
-174.969	-200.000	0.011	-0.319
-173.954	800.000	-0.102	-0.323
-172.939	-141.568	0.161	0.016
-171.925	91.522	-0.103	-0.115
-170.910	800.000	0.037	0.159
-169.896	-200.000	-0.331	0.001
-168.881	779.928	0.052	0.142
-167.866	81.591	0.263	0.282
-166.852	-200.000	-0.024	0.403
-165.837	-200.000	0.008	0.097
-164.823	470.001	-0.077	-0.171
-163.808	699.126	-0.093	-0.243
-162.793	-200.000	-0.071	-0.316
-161.779	800.000	-0.099	0.420
-160.764	-200.000	-0.034	0.196
-159.750	200.839	-0.096	-0.147
-158.735	-113.728	-0.354	0.068
-157.720	218.317	0.208	0.330
-156.706	-120.473	0.061	0.010
-155.691	-200.000	-0.000	0.233
-154.677	9.954	0.114	-0.086
-153.662	-200.000	0.216	0.000
-152.647	179.718	0.142	-0.206
-151.633	-38.614	-0.107	0.056
-150.618	-131.306	0.140	0.018
-149.604	-33.266	0.197	0.108
-148.589	2.283	0.109	-0.078
-147.574	97.792	0.218	0.249
-146.560	173.295	-0.321	0.459
-145.545	188.366	0.093	-0.138
-144.531	800.000	0.117	-0.393
-143.516	-100.226	-0.078	0.019
-142.502	313.372	-0.100	-0.187
-141.487	-43.963	0.268	-0.134
-140.472	-13.767	-0.068	-0.044
-139.458	-146.607	-0.164	0.014
-138.443	436.078	-0.022	0.048
-137.429	-200.000	-0.011	-0.050
-136.414	-126.025	0.171	-0.026
-135.399	-2.486	-0.399	-0.277
-134.385	173.247	0.117	-0.167
-133.370	17.626	-0.204	-0.161
-132.356	114.933	0.048	-0.058
-131.341	672.237	0.090	0.230
-130.326	-200.000	-0.084	0.390
-129.312	65.184	0.300	-0.300
-128.297	-20.067	0.141	-0.086
-127.283	-164.184	-0.477	-0.022
-126.268	518.753	0.076	-0.176
-125.253	212.185	0.134	-0.209
-124.239	800.000	-0.049	-0.205
-123.224	325.307	-0.128	0.243
-122.210	323.879	0.064	0.122
