DTS Sentinel unit serial number:	SN413079Multiplexer serial number:	ORYXHardware model number:	OX4-SRSoftware version number:	ORYX F/W v4.00 Oryx Data Collector v3.7.2.0data status	okinstallation	princeton_trtdifferential loss correction	single-endedforward channel	channel 4reverse channel	N/Adate	2019/09/15time	06:01:35forward acquisition time	60.00reverse acquisition time	0.00gamma	496.2192k internal	0.2311k external	0.2311temperature offset calibration	1.0034default loss term (dB/km)	0.3790temperature slope calibration	1.0000multiplexer offset coefficient	1.0000multiplexer slope coefficient	1.0000fibre end	0.00T internal ref (°C)	30.62T ext. ref 1 (°C)	4.85T ext. ref 2 (°C)	25.18length (m)	temperature (°C)	Stokes	anti-Stokes-747.200	-150.917	0.166	0.013
-746.185	-69.018	-0.170	-0.067
-745.171	33.718	-0.121	0.107
-744.156	-127.402	-0.304	0.045
-743.142	5.436	-0.312	0.234
-742.127	-40.687	-0.187	0.098
-741.112	800.000	-0.110	-0.344
-740.098	-109.541	0.360	-0.077
-739.083	560.580	-0.175	0.428
-738.069	-200.000	-0.053	-0.449
-737.054	800.000	0.009	-0.029
-736.039	-200.000	-0.003	-0.064
-735.025	-200.000	0.006	0.560
-734.010	190.598	-0.177	-0.269
-732.996	800.000	0.017	-0.077
-731.981	460.574	0.079	-0.178
-730.966	800.000	-0.186	-0.533
-729.952	-181.726	-0.457	-0.009
-728.937	-200.000	-0.371	0.001
-727.923	381.764	0.066	-0.137
-726.908	-135.719	-0.277	-0.033
-725.894	-200.000	0.023	-0.205
-724.879	-200.000	-0.056	0.269
-723.864	-70.780	-0.265	-0.101
-722.850	31.104	-0.216	0.188
-721.835	143.896	0.080	0.109
-720.821	-43.225	0.196	0.101
-719.806	-49.452	0.124	-0.060
-718.791	-200.000	-0.014	0.219
-717.777	-56.702	0.350	-0.157
-716.762	-71.853	-0.304	-0.115
-715.748	10.057	-0.141	-0.109
-714.733	405.638	0.052	0.110
-713.718	73.121	0.104	0.110
-712.704	-34.284	-0.238	-0.132
-711.689	-200.000	-0.032	-0.282
-710.675	-200.000	-0.045	-0.254
-709.660	-143.823	-0.249	0.024
-708.645	408.027	-0.139	0.298
-707.631	375.215	0.137	0.283
-706.616	178.662	0.154	-0.227
-705.602	33.081	-0.166	0.146
-704.587	-71.902	0.230	0.087
-703.572	-87.930	-0.186	-0.057
-702.558	800.000	-0.012	0.045
-701.543	800.000	0.054	-0.170
-700.529	136.268	0.218	-0.288
-699.514	-200.000	-0.024	0.347
-698.499	800.000	-0.024	-0.072
-697.485	-107.368	-0.223	-0.050
-696.470	35.346	-0.222	-0.197
-695.456	-114.459	-0.152	-0.030
-694.441	139.657	0.064	0.085
-693.426	-139.546	-0.203	-0.022
-692.412	-153.378	0.094	0.007
-691.397	-95.406	0.128	-0.035
-690.383	34.753	0.111	-0.098
-689.368	-200.000	-0.026	0.183
-688.354	27.239	0.056	0.048
-687.339	-200.000	-0.016	-0.218
-686.324	-200.000	-0.006	-0.151
-685.310	41.990	-0.103	0.094
-684.295	-161.906	-0.319	-0.016
-683.281	-46.067	0.165	0.082
-682.266	-200.000	0.002	0.053
-681.251	-200.000	-0.071	0.374
-680.237	-57.267	-0.098	0.044
-679.222	-117.341	-0.185	-0.034
-678.208	-200.000	-0.024	0.283
-677.193	-104.961	-0.392	0.091
-676.178	-4.635	-0.235	0.164
-675.164	800.000	0.004	-0.013
-674.149	73.307	-0.082	-0.086
-673.135	-200.000	-0.004	-0.334
-672.120	-200.000	0.390	-0.002
-671.105	-81.572	0.103	0.034
-670.091	-19.153	-0.266	0.167
-669.076	755.055	-0.068	-0.186
-668.062	-200.000	0.100	-0.512
-667.047	195.739	-0.174	-0.268
-666.032	176.257	-0.104	0.153
-665.018	144.942	0.059	0.079
-664.003	326.466	0.147	-0.285
-662.989	280.832	0.081	0.147
-661.974	-35.179	-0.114	-0.063
-660.959	-200.000	0.009	0.173
-659.945	-200.000	-0.017	0.189
-658.930	-26.940	0.338	0.200
-657.916	244.876	-0.299	-0.508
-656.901	-12.906	-0.064	-0.042
-655.886	-77.095	-0.102	0.036
-654.872	587.221	-0.189	-0.471
-653.857	181.398	0.133	0.198
-652.843	64.672	0.191	0.194
-651.828	-112.505	-0.200	0.040
-650.814	-145.998	0.238	0.021
-649.799	-51.619	0.097	-0.046
-648.784	-80.838	-0.370	-0.124
-647.770	800.000	-0.030	0.122
-646.755	5.656	-0.158	-0.118
-645.741	-110.181	-0.281	-0.059
-644.726	-40.485	0.236	0.124
-643.711	24.715	-0.317	0.266
-642.697	-118.889	0.104	-0.018
-641.682	800.000	0.093	0.287
-640.668	-85.814	-0.327	0.102
-639.653	-149.413	-0.194	-0.016
-638.638	196.298	0.089	-0.138
-637.624	-97.633	-0.098	-0.026
-636.609	-200.000	0.001	-0.068
-635.595	1.071	0.216	-0.157
-634.580	-67.195	0.081	-0.032
-633.565	-75.082	-0.413	-0.149
-632.551	-20.376	0.123	-0.077
-631.536	-124.935	0.228	-0.035
-630.522	546.569	-0.073	0.175
-629.507	0.486	-0.140	-0.101
-628.492	-63.213	-0.116	0.048
-627.478	-24.996	0.251	-0.151
-626.463	82.015	-0.130	-0.142
-625.449	-198.176	0.297	0.002
-624.434	-8.448	-0.109	-0.074
-623.419	101.802	0.179	-0.211
-622.405	159.670	-0.118	-0.166
-621.390	-141.922	0.274	-0.028
-620.376	-38.309	-0.186	0.099
-619.361	-44.025	-0.287	0.145
-618.346	-52.693	-0.160	0.075
-617.332	64.792	-0.079	0.080
-616.317	-141.852	0.254	-0.026
-615.303	-200.000	-0.035	-0.298
-614.288	-93.056	0.093	0.026
-613.273	-107.446	-0.220	0.049
-612.259	-71.608	-0.301	-0.114
-611.244	800.000	-0.049	-0.139
-610.230	355.650	0.062	-0.125
-609.215	-5.090	0.121	0.084
-608.201	57.975	-0.092	0.091
-607.186	-112.247	-0.321	-0.065
-606.171	-200.000	0.061	-0.381
-605.157	464.187	-0.085	0.191
-604.142	16.373	-0.062	0.050
-603.128	-110.940	-0.149	-0.031
-602.113	503.295	-0.032	-0.075
-601.098	-200.000	-0.027	0.134
-600.084	800.000	0.034	0.117
-599.069	51.670	0.116	0.112
-598.055	-114.555	-0.182	0.035
-597.040	193.586	0.054	0.082
-596.025	800.000	-0.024	-0.075
-595.011	-200.000	0.006	-0.196
-593.996	-13.775	-0.206	0.135
-592.982	528.710	0.095	-0.226
-591.967	-200.000	-0.023	0.206
-590.952	-103.188	0.110	0.026
-589.938	-200.000	0.050	-0.388
-588.923	568.941	-0.169	0.414
-587.909	-200.000	0.055	0.257
-586.894	-126.744	0.295	-0.044
-585.879	-200.000	0.023	-0.121
-584.865	300.393	0.076	-0.142
-583.850	-2.306	-0.164	0.116
-582.836	800.000	0.076	0.232
-581.821	-47.459	-0.236	-0.116
-580.806	45.422	-0.078	-0.073
-579.792	667.222	-0.134	-0.349
-578.777	-200.000	0.016	0.191
-577.763	-102.397	0.100	-0.024
-576.748	-119.372	0.210	-0.037
-575.733	-63.311	-0.339	-0.141
-574.719	-124.292	0.075	-0.012
-573.704	64.192	-0.112	-0.113
-572.690	-111.837	-0.066	0.013
-571.675	-72.192	0.071	-0.027
-570.661	800.000	0.088	-0.277
-569.646	183.645	-0.049	0.073
-568.631	-177.791	-0.268	0.007
-567.617	383.718	0.167	0.347
-566.602	-11.306	0.127	-0.084
-565.588	-200.000	-0.014	-0.284
-564.573	-59.657	-0.318	0.137
-563.558	-118.812	-0.103	0.018
-562.544	-89.265	-0.316	-0.094
-561.529	-66.001	-0.054	0.022
-560.515	-31.307	-0.348	0.197
-559.500	355.805	0.069	0.138
-558.485	41.766	0.350	0.320
-557.471	-19.110	0.168	-0.105
-556.456	-7.506	0.218	0.149
-555.442	589.750	-0.010	0.024
-554.427	99.919	0.080	-0.094
-553.412	-75.766	-0.281	-0.100
-552.398	-47.663	-0.115	-0.056
-551.383	-140.909	-0.149	0.015
-550.369	-4.230	-0.084	-0.059
-549.354	-176.301	-0.345	-0.009
-548.339	-113.613	-0.045	-0.009
-547.325	800.000	0.094	0.304
-546.310	800.000	-0.057	0.186
-545.296	-54.437	0.333	0.152
-544.281	-85.919	-0.089	0.028
-543.266	115.246	0.174	0.214
-542.252	71.795	0.233	-0.244
-541.237	-17.671	0.031	0.020
-540.223	200.986	0.151	-0.234
-539.208	-32.352	-0.173	0.097
-538.193	-127.502	-0.325	-0.047
-537.179	48.042	-0.236	-0.222
-536.164	800.000	-0.028	0.118
-535.150	362.722	0.061	0.123
-534.135	-2.755	-0.165	-0.116
-533.121	66.494	0.399	0.408
-532.106	-73.238	-0.122	0.045
-531.091	-131.026	-0.298	0.040
-530.077	20.142	0.043	0.035
-529.062	-200.000	-0.045	-0.270
-528.048	-200.000	0.043	-0.506
-527.033	-102.098	-0.149	-0.036
-526.018	733.340	-0.043	-0.116
-525.004	40.857	-0.076	0.069
-523.989	166.965	0.046	-0.066
-522.975	76.434	0.203	0.217
-521.960	-79.334	-0.172	0.059
-520.945	338.287	0.058	0.113
-519.931	-200.000	-0.032	0.343
-518.916	-200.000	0.028	0.172
-517.902	89.979	-0.096	-0.108
-516.887	134.592	0.155	-0.202
-515.872	-200.000	0.046	-0.407
-514.858	-43.318	-0.255	-0.130
-513.843	-33.095	0.072	0.040
-512.829	-40.492	-0.109	0.057
-511.814	-114.060	-0.151	0.029
-510.799	-67.972	0.413	0.162
-509.785	-118.991	-0.214	0.038
-508.770	172.653	0.194	-0.282
-507.756	189.026	0.008	0.012
-506.741	-200.000	0.040	-0.435
-505.726	-94.352	-0.217	-0.059
-504.712	-51.278	0.225	-0.106
-503.697	-200.000	0.019	-0.137
-502.683	-92.542	0.234	-0.066
-501.668	-200.000	0.002	0.071
-500.653	13.656	0.454	0.355
-499.639	-32.231	0.251	-0.141
-498.624	-200.000	-0.051	0.238
-497.610	-86.161	-0.056	-0.017
-496.595	21.912	0.086	0.070
-495.581	-43.907	0.132	-0.067
-494.566	179.175	0.082	-0.121
-493.551	162.432	0.109	-0.154
-492.537	23.063	-0.253	-0.209
-491.522	83.695	0.061	0.067
-490.508	95.001	-0.114	0.131
-489.493	190.301	-0.085	0.128
-488.478	-133.184	0.400	0.051
-487.464	116.294	0.027	0.033
-486.449	-129.571	-0.258	0.036
-485.435	-200.000	-0.014	-0.068
-484.420	-174.237	0.172	0.005
-483.405	199.027	-0.193	0.296
-482.391	-25.744	-0.364	-0.216
-481.376	-14.985	0.179	0.116
-480.362	-133.311	0.351	0.044
-479.347	5.062	-0.170	0.126
-478.332	-45.566	0.163	-0.081
-477.318	363.621	0.242	0.489
-476.303	156.994	0.199	0.277
-475.289	128.228	-0.363	-0.464
-474.274	196.769	-0.089	0.136
-473.259	-200.000	0.001	0.353
-472.245	-4.541	-0.103	-0.072
-471.230	800.000	0.057	-0.236
-470.216	345.839	0.096	-0.189
-469.201	-72.917	-0.049	-0.018
-468.186	-3.003	-0.245	0.171
-467.172	12.543	0.177	0.137
-466.157	-200.000	-0.008	0.233
-465.143	-95.960	-0.068	0.018
-464.128	-130.500	0.232	-0.031
-463.113	-131.280	0.166	-0.022
-462.099	-200.000	-0.005	0.052
-461.084	-120.950	0.251	0.042
-460.070	168.440	-0.178	-0.255
-459.055	-148.401	-0.137	-0.011
-458.040	800.000	0.113	-0.384
-457.026	233.178	-0.051	-0.085
-456.011	-169.323	-0.217	-0.008
-454.997	381.139	-0.130	0.268
-453.982	389.357	-0.189	0.393
-452.968	-200.000	0.011	-0.268
-451.953	47.057	0.027	0.025
-450.938	-77.914	-0.349	-0.121
-449.924	-200.000	-0.020	-0.092
-448.909	23.745	0.227	-0.187
-447.895	-200.000	-0.037	0.180
-446.880	-200.000	0.002	-0.129
-445.865	141.300	-0.004	-0.006
-444.851	-63.696	0.121	-0.050
-443.836	-161.530	0.478	-0.025
-442.822	273.500	-0.241	-0.427
-441.807	-200.000	-0.508	-0.002
-440.792	-149.018	0.410	-0.033
-439.778	698.064	-0.149	-0.393
-438.763	-123.225	-0.027	0.004
-437.749	-200.000	-0.034	0.162
-436.734	-126.979	0.310	-0.046
-435.719	-45.885	0.220	-0.109
-434.705	130.519	0.285	-0.366
-433.690	1.756	-0.437	0.316
-432.676	305.103	0.055	0.102
-431.661	204.141	0.098	0.152
-430.646	-200.000	-0.002	0.008
-429.632	-125.831	0.330	0.050
-428.617	-10.681	-0.084	0.056
-427.603	-23.358	-0.194	-0.117
-426.588	598.197	-0.029	0.071
-425.573	-68.590	0.053	0.020
-424.559	800.000	-0.023	-0.076
-423.544	-51.462	-0.231	-0.108
-422.530	-200.000	0.011	-0.167
-421.515	800.000	0.028	0.118
-420.500	121.299	0.123	-0.154
-419.486	-200.000	0.010	-0.122
-418.471	-105.438	0.155	-0.035
-417.457	-81.811	-0.072	0.024
-416.442	-123.446	-0.125	-0.020
-415.428	161.464	-0.093	0.130
-414.413	-124.553	0.386	0.060
-413.398	742.632	-0.029	0.078
-412.384	-100.567	0.275	-0.068
-411.369	-106.107	0.467	-0.105
-410.355	-108.728	-0.453	-0.097
-409.340	102.082	-0.186	0.218
-408.325	-200.000	0.007	0.196
-407.311	-63.437	-0.218	0.090
-406.296	-163.875	-0.259	0.012
-405.282	-200.000	0.002	0.260
-404.267	126.027	0.143	-0.181
-403.252	126.673	0.170	-0.216
-402.238	-151.382	-0.308	0.023
-401.223	-80.360	0.265	0.089
-400.209	800.000	0.111	-0.322
-399.194	22.929	-0.078	0.064
-398.179	-113.681	-0.105	0.021
-397.165	472.879	-0.060	0.134
-396.150	0.583	0.185	0.133
-395.136	-81.814	0.043	-0.014
-394.121	-200.000	-0.047	0.439
-393.106	155.423	0.143	0.197
-392.092	-200.000	-0.145	0.001
-391.077	-200.000	0.006	-0.217
-390.063	56.612	-0.245	0.238
-389.048	129.261	0.106	-0.136
-388.033	74.177	-0.216	0.227
-387.019	-200.000	0.287	-0.001
-386.004	800.000	-0.106	0.301
-384.990	800.000	0.096	0.320
-383.975	-189.813	0.119	-0.001
-382.960	-167.020	-0.094	0.004
-381.946	-68.029	0.191	-0.075
-380.931	-25.124	-0.247	-0.147
-379.917	244.376	0.146	-0.246
-378.902	21.965	0.109	-0.089
-377.888	-200.000	-0.004	0.274
-376.873	800.000	-0.065	-0.276
-375.858	-160.204	0.140	-0.008
-374.844	-185.691	-0.179	-0.003
-373.829	-0.884	0.064	-0.045
-372.815	-97.045	-0.105	0.027
-371.800	-200.000	0.017	-0.083
-370.785	-41.341	-0.301	-0.155
-369.771	800.000	-0.057	0.198
-368.756	-84.590	0.224	0.071
-367.742	380.643	-0.178	-0.364
-366.727	80.918	0.081	-0.087
-365.712	-64.878	0.301	-0.122
-364.698	-80.803	-0.265	-0.088
-363.683	121.386	0.096	-0.120
-362.669	-132.949	0.226	0.029
-361.654	-144.682	0.458	-0.042
-360.639	103.814	0.120	0.141
-359.625	342.617	0.074	-0.146
-358.610	241.899	-0.025	-0.042
-357.596	-72.457	0.254	-0.094
-356.581	319.181	-0.052	-0.099
-355.566	289.740	-0.014	-0.026
-354.552	388.932	-0.082	0.170
-353.537	82.475	-0.051	0.055
-352.523	584.088	-0.035	0.086
-351.508	23.618	-0.284	0.233
-350.493	-200.000	0.017	-0.469
-349.479	-200.000	-0.006	0.272
-348.464	-8.370	0.316	-0.213
-347.450	-88.603	-0.226	0.067
-346.435	-200.000	0.010	-0.250
-345.420	3.680	0.141	0.102
-344.406	-0.147	0.101	0.072
-343.391	800.000	0.042	0.150
-342.377	-200.000	-0.029	-0.194
-341.362	33.986	0.180	0.157
-340.348	115.795	-0.413	0.505
-339.333	488.402	-0.120	0.273
-338.318	-82.725	-0.194	-0.063
-337.304	198.379	-0.147	0.224
-336.289	440.412	0.141	0.308
-335.275	-16.620	-0.268	-0.169
-334.260	138.606	0.092	0.120
-333.245	-121.209	0.180	-0.030
-332.231	-86.778	0.082	0.025
-331.216	218.512	0.172	0.275
-330.202	21.895	-0.096	-0.078
-329.187	-8.017	-0.164	-0.110
-328.172	190.114	-0.109	0.163
-327.158	-200.000	0.000	0.089
-326.143	564.117	-0.018	0.044
-325.129	-200.000	-0.012	-0.074
-324.114	-74.542	0.091	-0.033
-323.099	-170.588	-0.360	-0.012
-322.085	47.898	-0.033	0.031
-321.070	800.000	0.053	-0.197
-320.056	-63.338	-0.053	0.022
-319.041	84.755	-0.320	0.349
-318.026	85.620	0.156	0.171
-317.012	-110.145	0.087	-0.018
-315.997	2.044	-0.060	-0.043
-314.983	18.174	-0.087	-0.069
-313.968	315.961	-0.104	-0.196
-312.953	-136.807	-0.188	0.022
-311.939	539.503	0.163	0.388
-310.924	10.617	0.254	-0.194
-309.910	800.000	-0.086	-0.284
-308.895	-121.945	0.166	0.027
-307.880	7.210	0.225	0.168
-306.866	504.343	-0.085	0.196
-305.851	-14.471	0.266	0.171
-304.837	800.000	0.071	-0.234
-303.822	-200.000	0.018	0.144
-302.807	-23.772	-0.086	0.051
-301.793	-200.000	-0.004	-0.047
-300.778	526.575	-0.231	-0.542
-299.764	800.000	0.080	0.257
-298.749	800.000	-0.085	0.334
-297.735	800.000	-0.002	-0.008
-296.720	52.508	0.439	-0.418
-295.705	-80.354	-0.220	-0.073
-294.691	-147.694	-0.218	0.018
-293.676	51.895	0.143	-0.136
-292.662	169.686	0.072	-0.102
-291.647	-200.000	0.073	-0.393
-290.632	-72.813	-0.160	-0.059
-289.618	-107.653	-0.107	0.023
-288.603	6.567	0.045	0.033
-287.589	-167.929	-0.041	0.002
-286.574	-129.616	0.362	-0.050
-285.559	-17.181	-0.245	-0.154
-284.545	-86.336	0.304	-0.093
-283.530	-200.000	0.049	0.384
-282.516	-200.000	0.010	-0.098
-281.501	45.010	0.118	0.108
-280.486	-21.781	0.265	0.161
-279.472	134.805	-0.028	-0.037
-278.457	-109.692	-0.261	-0.055
-277.443	-92.249	0.079	-0.022
-276.428	800.000	0.049	0.211
-275.413	-48.397	-0.148	-0.071
-274.399	-13.380	0.137	0.089
-273.384	-78.145	0.223	0.077
-272.370	-114.572	0.114	-0.022
-271.355	2.455	-0.183	-0.132
-270.340	229.682	0.171	-0.279
-269.326	800.000	-0.022	0.076
-268.311	-200.000	0.010	0.198
-267.297	519.918	-0.056	0.130
-266.282	-181.985	-0.124	0.002
-265.267	79.464	-0.222	0.238
-264.253	800.000	-0.057	0.181
-263.238	-200.000	-0.027	-0.201
-262.224	-108.558	-0.231	0.049
-261.209	242.455	-0.101	0.169
-260.195	246.808	0.035	-0.059
-259.180	195.247	0.067	0.102
-258.165	-107.835	0.202	0.044
-257.151	81.180	-0.218	-0.235
-256.136	800.000	0.064	0.268
-255.122	106.925	-0.056	-0.066
-254.107	-149.916	0.216	-0.017
-253.092	769.944	-0.023	0.063
-252.078	131.410	0.096	-0.123
-251.063	350.415	0.056	-0.111
-250.049	463.590	-0.086	-0.191
-249.034	116.070	0.148	0.181
-248.019	92.084	0.231	-0.259
-247.005	-115.697	-0.349	-0.065
-245.990	368.888	-0.020	-0.040
-244.976	-162.187	-0.288	0.014
-243.961	-200.000	0.015	0.246
-242.946	166.519	0.094	0.133
-241.932	351.699	-0.161	0.318
-240.917	1.470	0.228	0.163
-239.903	300.114	-0.104	0.190
-238.888	-49.659	0.315	-0.149
-237.873	-42.708	0.207	0.105
-236.859	101.094	0.048	0.055
-235.844	-75.178	-0.057	0.020
-234.830	-44.083	-0.261	0.130
-233.815	25.805	-0.175	0.145
-232.800	-93.803	0.332	0.091
-231.786	25.055	-0.074	0.061
-230.771	-200.000	0.004	-0.134
-229.757	388.504	0.046	0.094
-228.742	64.841	-0.226	-0.227
-227.727	191.831	-0.064	-0.096
-226.713	79.657	-0.212	0.226
-225.698	24.025	0.302	0.248
-224.684	-200.000	0.016	-0.317
-223.669	533.476	0.073	0.173
-222.655	-112.633	0.348	-0.069
-221.640	-200.000	0.001	-0.141
-220.625	-31.111	0.221	-0.124
-219.611	16.945	0.047	-0.037
-218.596	98.119	0.083	-0.095
-217.582	-200.000	0.008	-0.238
-216.567	-77.649	-0.184	-0.063
-215.552	-200.000	0.000	-0.003
-214.538	554.492	0.061	-0.146
-213.523	-200.000	0.035	-0.395
-212.509	387.466	-0.059	0.121
-211.494	-117.521	0.101	0.018
-210.479	144.040	0.135	0.179
-209.465	58.568	0.132	0.129
-208.450	-77.309	0.215	-0.074
-207.436	134.986	-0.184	-0.238
-206.421	-200.000	-0.006	-0.205
-205.406	-200.000	-0.041	-0.270
-204.392	-7.986	0.129	-0.087
-203.377	-200.000	-0.016	-0.113
-202.363	578.073	0.101	-0.244
-201.348	107.559	0.172	0.203
-200.333	800.000	-0.049	0.170
-199.319	-93.921	0.140	-0.038
-198.304	51.693	0.046	0.044
-197.290	649.125	-0.050	0.128
-196.275	-1.186	-0.130	-0.092
-195.260	143.132	0.147	0.194
-194.246	-77.580	-0.384	0.132
-193.231	-200.000	-0.015	0.176
-192.217	-169.672	0.363	-0.013
-191.202	-157.403	0.065	-0.004
-190.187	-65.556	0.302	0.121
-189.173	-34.142	0.128	0.070
-188.158	286.034	0.104	0.187
-187.144	161.535	-0.090	-0.126
-186.129	230.086	-0.093	-0.151
-185.114	192.708	0.106	0.160
-184.100	-200.000	-0.017	-0.165
-183.085	-34.580	-0.286	0.155
-182.071	-162.512	-0.139	0.007
-181.056	2.961	-0.235	0.169
-180.042	43.512	0.121	0.110
-179.027	-125.290	-0.168	0.025
-178.012	800.000	-0.091	0.271
-176.998	-200.000	0.015	0.291
-175.983	-200.000	0.066	-0.319
-174.969	35.147	0.126	-0.109
-173.954	800.000	-0.022	0.073
-172.939	54.600	0.066	-0.063
-171.925	-79.825	0.130	0.043
-170.910	-200.000	0.012	-0.246
-169.896	-18.218	-0.184	-0.114
-168.881	-69.141	-0.376	0.144
-167.866	-200.000	0.010	-0.143
-166.852	634.535	-0.031	-0.077
-165.837	-95.640	-0.018	-0.005
-164.823	161.063	-0.137	-0.190
-163.808	800.000	0.060	-0.197
-162.793	79.533	-0.203	-0.216
-161.779	20.953	-0.084	0.068
-160.764	23.857	-0.083	0.068
-159.750	-19.486	0.228	0.140
-158.735	800.000	0.009	0.025
-157.720	174.027	0.032	-0.046
-156.706	117.403	0.110	0.134
-155.691	-65.122	0.161	-0.064
-154.677	160.833	-0.055	0.076
-153.662	-104.109	0.331	-0.076
-152.647	194.301	0.074	-0.112
-151.633	-115.112	0.151	-0.028
-150.618	219.673	-0.198	-0.314
-149.604	-58.120	0.276	-0.119
-148.589	-57.833	0.105	-0.046
-147.574	58.367	0.194	-0.189
-146.560	-56.207	-0.281	-0.124
-145.545	-111.212	0.400	0.081
-144.531	800.000	-0.079	-0.224
-143.516	122.847	-0.009	-0.012
-142.502	-161.529	-0.152	-0.008
-141.487	43.808	0.238	-0.216
-140.472	-85.385	-0.309	-0.095
-139.458	574.487	0.090	-0.218
-138.443	800.000	0.076	0.254
-137.429	-10.008	0.087	-0.058
-136.414	800.000	0.024	-0.093
-135.399	548.145	-0.100	0.237
-134.385	-147.019	0.157	-0.013
-133.370	-44.290	-0.342	0.170
-132.356	-200.000	-0.022	-0.104
-131.341	577.404	0.114	-0.277
-130.326	56.371	-0.099	-0.095
-129.312	153.891	-0.072	-0.098
-128.297	-29.754	0.237	-0.134
-127.283	102.208	0.092	-0.107
-126.268	-24.844	-0.141	0.083
-125.253	-28.401	-0.156	0.089
-124.239	-6.346	0.316	0.214
-123.224	-108.551	-0.237	0.050
-122.210	-96.930	0.073	-0.019
