DTS Sentinel unit serial number:	SN413079Multiplexer serial number:	ORYXHardware model number:	OX4-SRSoftware version number:	ORYX F/W v4.00 Oryx Data Collector v3.7.2.0data status	okinstallation	princeton_trtdifferential loss correction	single-endedforward channel	channel 4reverse channel	N/Adate	2019/09/14time	01:09:35forward acquisition time	60.00reverse acquisition time	0.00gamma	496.2192k internal	0.2323k external	0.2323temperature offset calibration	1.0132default loss term (dB/km)	0.3790temperature slope calibration	1.0000multiplexer offset coefficient	1.0000multiplexer slope coefficient	1.0000fibre end	0.00T internal ref (°C)	26.37T ext. ref 1 (°C)	3.17T ext. ref 2 (°C)	21.43length (m)	temperature (°C)	Stokes	anti-Stokes-747.200	-200.000	-0.004	0.259
-746.185	486.576	0.070	0.161
-745.171	-35.071	-0.082	0.045
-744.156	591.451	-0.181	0.451
-743.142	-200.000	-0.012	0.081
-742.127	800.000	-0.068	-0.259
-741.112	-200.000	-0.029	-0.384
-740.098	-139.384	-0.226	-0.025
-739.083	800.000	-0.035	0.153
-738.069	800.000	-0.084	0.323
-737.054	-124.565	0.359	0.056
-736.039	529.571	-0.033	-0.078
-735.025	3.425	0.181	0.133
-734.010	1.440	-0.054	0.039
-732.996	-200.000	0.005	-0.220
-731.981	-25.536	-0.433	0.258
-730.966	-15.992	-0.162	0.104
-729.952	-78.403	0.202	-0.070
-728.937	47.557	0.092	-0.086
-727.923	-46.224	-0.081	-0.040
-726.908	-151.634	-0.276	0.021
-725.894	250.445	0.049	0.084
-724.879	-94.157	-0.299	-0.083
-723.864	-175.987	0.048	0.001
-722.850	800.000	-0.041	-0.122
-721.835	-139.848	-0.190	0.020
-720.821	-45.895	-0.106	-0.053
-719.806	-74.246	0.026	0.009
-718.791	-103.709	0.139	0.033
-717.777	800.000	-0.112	-0.425
-716.762	15.288	0.230	0.182
-715.748	196.455	0.086	-0.133
-714.733	-22.606	-0.107	-0.065
-713.718	135.122	-0.144	-0.189
-712.704	90.457	-0.114	0.129
-711.689	47.209	-0.102	-0.096
-710.675	800.000	-0.047	-0.162
-709.660	-124.838	-0.143	0.022
-708.645	-127.905	0.160	-0.023
-707.631	-61.543	-0.221	-0.093
-706.616	-38.673	0.308	-0.164
-705.602	37.758	0.184	0.165
-704.587	-200.000	0.013	0.290
-703.572	-200.000	-0.032	-0.277
-702.558	-200.000	-0.057	-0.266
-701.543	39.694	0.060	0.054
-700.529	10.510	0.123	-0.094
-699.514	-59.259	-0.184	0.080
-698.499	-56.651	-0.149	0.067
-697.485	-200.000	0.011	0.195
-696.470	723.087	-0.065	0.175
-695.456	324.734	0.173	-0.333
-694.441	265.253	0.041	0.072
-693.426	800.000	0.055	-0.187
-692.412	184.826	0.222	0.332
-691.397	800.000	-0.049	0.136
-690.383	800.000	0.011	-0.041
-689.368	-108.340	-0.219	0.048
-688.354	-4.841	-0.180	-0.125
-687.339	-160.347	0.147	0.008
-686.324	266.299	-0.117	-0.207
-685.310	-181.902	0.312	-0.006
-684.295	-44.282	0.315	-0.159
-683.281	-125.857	0.246	0.037
-682.266	14.442	-0.135	0.106
-681.251	14.597	0.417	0.328
-680.237	-96.628	0.274	-0.073
-679.222	800.000	-0.046	-0.149
-678.208	-137.058	0.201	0.023
-677.193	156.451	0.314	-0.437
-676.178	-14.755	0.125	0.081
-675.164	731.211	0.032	-0.086
-674.149	800.000	0.102	-0.355
-673.135	-77.708	0.259	-0.090
-672.120	-123.079	-0.380	-0.061
-671.105	-200.000	0.040	-0.187
-670.091	94.803	0.278	-0.318
-669.076	-13.182	0.266	-0.174
-668.062	341.177	-0.042	-0.083
-667.047	800.000	-0.075	0.222
-666.032	-200.000	-0.011	-0.233
-665.018	579.899	-0.041	-0.101
-664.003	-120.649	-0.227	0.039
-662.989	800.000	0.072	-0.278
-661.974	-200.000	0.062	0.322
-660.959	-182.829	-0.395	-0.007
-659.945	-200.000	-0.020	-0.181
-658.930	453.270	-0.093	-0.208
-657.916	800.000	-0.067	-0.279
-656.901	-200.000	-0.028	0.126
-655.886	-200.000	0.008	-0.335
-654.872	800.000	-0.071	-0.207
-653.857	800.000	-0.052	0.189
-652.843	800.000	-0.040	-0.168
-651.828	129.185	0.054	-0.069
-650.814	-80.151	-0.248	-0.084
-649.799	-13.395	-0.334	-0.218
-648.784	22.747	-0.166	-0.137
-647.770	-76.304	-0.431	0.153
-646.755	-200.000	0.008	0.278
-645.741	-200.000	-0.047	-0.294
-644.726	-97.739	-0.235	0.061
-643.711	461.023	0.038	-0.084
-642.697	-80.755	0.081	0.027
-641.682	-200.000	-0.004	0.037
-640.668	9.991	0.100	0.076
-639.653	-94.581	-0.545	-0.149
-638.638	129.316	0.115	-0.148
-637.624	159.491	0.081	-0.113
-636.609	12.764	-0.087	0.068
-635.595	5.674	-0.197	0.147
-634.580	-109.897	0.360	-0.076
-633.565	301.695	0.097	0.180
-632.551	-118.068	-0.216	0.039
-631.536	327.188	-0.097	-0.187
-630.522	-167.308	-0.107	-0.004
-629.507	-153.708	-0.256	-0.018
-628.492	520.617	-0.041	0.097
-627.478	262.832	-0.090	0.157
-626.463	347.642	-0.058	-0.115
-625.449	358.289	-0.117	-0.234
-624.434	450.886	-0.040	0.089
-623.419	-36.795	0.105	0.057
-622.405	-200.000	-0.081	-0.381
-621.390	-188.554	0.184	0.002
-620.376	14.280	-0.121	-0.094
-619.361	-136.701	0.119	0.014
-618.346	399.749	0.068	0.143
-617.332	117.074	-0.171	0.211
-616.317	-4.271	0.124	0.086
-615.303	-111.934	-0.104	-0.021
-614.288	-200.000	-0.014	0.268
-613.273	283.742	-0.101	-0.183
-612.259	-104.197	0.134	0.031
-611.244	700.375	-0.055	0.146
-610.230	16.442	-0.239	0.189
-609.215	-86.756	-0.082	0.025
-608.201	-200.000	-0.019	-0.146
-607.186	27.232	-0.116	0.098
-606.171	224.271	0.086	-0.139
-605.157	-96.897	-0.266	0.070
-604.142	647.122	-0.111	-0.284
-603.128	176.828	0.075	-0.110
-602.113	-151.232	0.151	-0.011
-601.098	-120.947	-0.193	-0.033
-600.084	-160.907	-0.220	-0.012
-599.069	18.140	0.214	-0.171
-598.055	51.262	-0.192	0.183
-597.040	-23.084	-0.098	-0.059
-596.025	-108.336	0.327	0.071
-595.011	-111.648	-0.253	0.052
-593.996	58.632	-0.211	-0.208
-592.982	-61.543	0.087	0.037
-591.967	691.729	-0.096	0.253
-590.952	363.835	0.020	0.040
-589.938	-151.877	0.130	0.010
-588.923	-119.836	-0.229	0.040
-587.909	221.102	0.022	-0.035
-586.894	148.946	-0.237	0.322
-585.879	-200.000	0.056	0.488
-584.865	-95.675	-0.225	-0.060
-583.850	-62.467	0.360	-0.150
-582.836	-162.857	0.077	-0.004
-581.821	387.193	-0.131	-0.272
-580.806	168.386	-0.049	-0.070
-579.792	800.000	0.010	0.033
-578.777	8.120	0.163	0.123
-577.763	-95.420	-0.280	0.075
-576.748	-55.692	0.123	0.055
-575.733	224.155	0.096	-0.155
-574.719	706.650	-0.131	-0.346
-573.704	113.909	0.140	-0.170
-572.690	-94.572	0.079	-0.022
-571.675	-102.496	0.110	0.026
-570.661	601.154	0.122	0.303
-569.646	-58.754	0.180	-0.078
-568.631	-44.553	-0.322	0.161
-567.617	385.430	-0.233	0.482
-566.602	192.461	-0.110	-0.166
-565.588	-200.000	-0.003	0.103
-564.573	800.000	-0.128	-0.361
-563.558	-77.544	-0.251	-0.087
-562.544	572.771	0.024	0.058
-561.529	97.071	-0.144	-0.166
-560.515	59.402	0.190	-0.188
-559.500	-124.256	-0.507	-0.080
-558.485	-200.000	-0.028	-0.367
-557.471	309.796	-0.176	0.330
-556.456	168.821	-0.127	0.181
-555.442	-89.267	-0.239	-0.071
-554.427	800.000	0.018	0.052
-553.412	-200.000	-0.076	-0.669
-552.398	800.000	-0.056	-0.189
-551.383	108.865	0.179	-0.214
-550.369	-73.659	-0.141	0.052
-549.354	-4.900	0.192	0.133
-548.339	-200.000	-0.478	0.001
-547.325	-131.213	-0.250	0.033
-546.310	-200.000	0.010	0.200
-545.296	14.752	0.125	-0.098
-544.281	-115.541	-0.144	-0.027
-543.266	-46.560	0.079	0.039
-542.252	-63.331	-0.185	-0.076
-541.237	-143.509	-0.241	-0.023
-540.223	250.591	0.208	-0.354
-539.208	-110.131	0.061	0.013
-538.193	45.174	0.270	0.249
-537.179	-200.000	0.062	-0.349
-536.164	800.000	-0.006	0.025
-535.150	-43.214	0.343	0.174
-534.135	46.751	0.137	-0.128
-533.121	-124.653	0.108	0.017
-532.106	-34.909	-0.169	-0.092
-531.091	-15.371	0.187	-0.120
-530.077	-200.000	-0.004	0.282
-529.062	800.000	0.093	-0.301
-528.048	18.435	0.260	-0.208
-527.033	146.136	0.031	-0.042
-526.018	15.289	0.194	-0.153
-525.004	234.886	-0.095	-0.157
-523.989	-21.589	-0.101	-0.062
-522.975	-200.000	0.141	-0.000
-521.960	-4.993	0.097	0.067
-520.945	-41.599	-0.124	-0.064
-519.931	-200.000	-0.008	0.059
-518.916	-158.421	0.239	0.014
-517.902	-70.076	-0.257	0.098
-516.887	-76.552	0.318	0.112
-515.872	800.000	0.081	-0.269
-514.858	19.963	0.321	0.259
-513.843	-200.000	0.002	-0.255
-512.829	-88.343	-0.173	0.052
-511.814	-33.187	0.129	0.072
-510.799	-112.100	-0.263	-0.053
-509.785	-200.000	-0.023	-0.172
-508.770	274.710	-0.101	0.179
-507.756	128.028	-0.227	-0.289
-506.741	59.886	-0.237	-0.234
-505.726	-112.285	0.147	-0.030
-504.712	44.418	-0.234	-0.215
-503.697	-41.065	0.178	-0.092
-502.683	76.371	0.092	0.098
-501.668	-53.965	0.149	0.068
-500.653	-33.743	-0.276	-0.152
-499.639	-104.220	0.356	0.083
-498.624	-112.327	0.069	0.014
-497.610	-71.778	-0.117	-0.044
-496.595	-48.067	0.323	-0.156
-495.581	-200.000	-0.019	-0.137
-494.566	195.251	0.095	-0.145
-493.551	112.180	-0.118	-0.142
-492.537	-200.000	0.025	-0.303
-491.522	39.552	-0.293	0.263
-490.508	-140.450	0.116	-0.012
-489.493	246.789	0.160	0.270
-488.478	-120.176	-0.124	0.021
-487.464	-32.444	-0.134	0.075
-486.449	66.801	0.094	0.096
-485.435	-94.052	0.088	0.024
-484.420	-84.270	-0.261	-0.083
-483.405	-167.706	-0.470	0.019
-482.391	-92.049	0.170	0.048
-481.376	60.759	0.122	-0.120
-480.362	-44.118	0.273	-0.137
-479.347	-200.000	0.020	0.342
-478.332	-184.898	0.163	-0.003
-477.318	-200.000	-0.003	-0.186
-476.303	122.467	0.111	-0.139
-475.289	683.072	0.058	-0.151
-474.274	-200.000	-0.015	-0.096
-473.259	-142.376	-0.451	0.044
-472.245	-200.000	-0.043	0.346
-471.230	-78.277	-0.120	-0.041
-470.216	18.900	-0.068	0.054
-469.201	-200.000	0.035	-0.467
-468.186	75.516	0.090	0.095
-467.172	347.779	-0.054	-0.105
-466.157	103.872	0.016	0.019
-465.143	-97.579	0.204	0.053
-464.128	72.202	-0.163	0.169
-463.113	-200.000	-0.087	0.462
-462.099	35.290	-0.026	-0.023
-461.084	-57.937	-0.131	0.057
-460.070	-200.000	-0.018	-0.097
-459.055	-129.944	0.194	-0.027
-458.040	-62.140	-0.216	-0.090
-457.026	-1.596	0.294	0.207
-456.011	-100.646	0.228	0.056
-454.997	800.000	0.106	-0.404
-453.982	-200.000	-0.045	-0.301
-452.968	-132.001	-0.374	-0.049
-451.953	37.666	0.342	0.304
-450.938	-161.739	0.045	-0.002
-449.924	-130.277	0.395	-0.054
-448.909	99.782	0.183	0.211
-447.895	474.338	0.030	0.069
-446.880	800.000	0.080	0.244
-445.865	-200.000	-0.040	-0.254
-444.851	-155.740	-0.208	0.013
-443.836	261.256	-0.101	0.175
-442.822	-24.806	-0.182	0.108
-441.807	226.916	-0.153	0.249
-440.792	-118.107	0.409	0.073
-439.778	-154.340	-0.107	0.007
-438.763	-26.772	0.198	0.116
-437.749	175.873	0.212	0.307
-436.734	800.000	0.075	-0.245
-435.719	6.125	-0.121	0.090
-434.705	-81.437	-0.025	-0.008
-433.690	-80.830	-0.402	0.133
-432.676	56.640	0.338	0.328
-431.661	-14.266	0.120	-0.077
-430.646	-28.042	0.259	-0.150
-429.632	-29.342	-0.261	-0.149
-428.617	602.187	-0.110	0.273
-427.603	670.707	0.090	-0.233
-426.588	-200.000	0.035	-0.271
-425.573	-77.076	0.172	0.060
-424.559	-66.904	0.157	-0.062
-423.544	-21.172	0.430	0.262
-422.530	-200.000	0.022	-0.189
-421.515	800.000	-0.025	0.092
-420.500	7.974	0.287	-0.215
-419.486	-142.610	0.259	-0.025
-418.471	-200.000	0.003	-0.213
-417.457	602.353	0.091	-0.225
-416.442	345.980	-0.083	0.163
-415.428	494.729	0.075	-0.171
-414.413	634.479	0.136	0.343
-413.398	38.649	-0.065	-0.057
-412.384	-200.000	0.009	0.089
-411.369	125.236	-0.031	-0.039
-410.355	39.928	0.296	0.265
-409.340	-40.072	0.117	0.061
-408.325	800.000	-0.039	0.115
-407.311	50.795	0.139	0.132
-406.296	-111.694	-0.142	-0.029
-405.282	-109.021	0.344	-0.073
-404.267	200.346	0.086	-0.132
-403.252	93.536	0.357	-0.403
-402.238	64.085	0.094	-0.094
-401.223	-140.916	0.174	-0.018
-400.209	-115.978	-0.202	-0.038
-399.194	800.000	0.055	-0.161
-398.179	-200.000	0.055	0.336
-397.165	373.518	0.087	-0.176
-396.150	67.186	0.080	0.081
-395.136	-177.147	-0.157	-0.004
-394.121	-113.507	0.050	-0.010
-393.106	-39.836	-0.381	-0.198
-392.092	17.612	0.040	0.031
-391.077	63.522	-0.258	0.258
-390.063	-141.237	0.122	0.012
-389.048	547.801	0.074	-0.176
-388.033	-96.340	-0.136	-0.036
-387.019	-89.112	-0.296	0.087
-386.004	191.588	0.040	-0.061
-384.990	-85.180	-0.449	0.140
-383.975	-138.034	-0.086	-0.010
-382.960	235.088	0.123	-0.202
-381.946	-112.426	0.139	0.028
-380.931	-200.000	0.007	0.088
-379.917	118.995	-0.201	0.247
-378.902	267.990	0.220	0.384
-377.888	1.073	-0.163	-0.116
-376.873	-13.157	0.181	0.117
-375.858	54.690	-0.191	0.183
-374.844	48.807	0.073	0.069
-373.829	195.623	-0.057	-0.087
-372.815	40.626	0.052	0.046
-371.800	724.967	-0.050	0.132
-370.785	-3.326	0.121	0.084
-369.771	-200.000	0.023	-0.432
-368.756	576.420	-0.158	0.384
-367.742	-76.840	-0.149	-0.052
-366.727	8.678	-0.093	-0.070
-365.712	795.414	-0.138	0.377
-364.698	-159.152	-0.196	-0.011
-363.683	-59.913	0.221	-0.094
-362.669	40.630	-0.202	0.181
-361.654	294.657	0.135	-0.245
-360.639	-132.305	-0.177	0.023
-359.625	-172.536	0.478	0.015
-358.610	447.124	0.089	0.194
-357.596	-49.454	0.143	-0.068
-356.581	116.772	-0.100	0.122
-355.566	-138.038	-0.114	0.013
-354.552	-12.952	-0.130	0.084
-353.537	434.640	-0.258	0.558
-352.523	-52.016	0.095	-0.044
-351.508	-200.000	0.007	0.140
-350.493	-200.000	0.007	-0.033
-349.479	-179.451	0.194	-0.004
-348.464	-148.828	0.121	0.010
-347.450	-94.217	-0.449	0.122
-346.435	743.636	-0.077	0.206
-345.420	92.726	-0.367	-0.412
-344.406	-120.456	-0.024	0.004
-343.391	-121.797	-0.138	0.023
-342.377	-56.204	0.223	-0.099
-341.362	-200.000	-0.035	0.199
-340.348	126.862	-0.167	-0.211
-339.333	-29.037	-0.234	-0.133
-338.318	-200.000	0.009	0.148
-337.304	-200.000	0.001	-0.100
-336.289	-164.864	0.091	-0.004
-335.275	-171.811	0.330	-0.011
-334.260	57.973	-0.247	-0.241
-333.245	405.134	-0.157	0.329
-332.231	-200.000	-0.011	0.108
-331.216	-91.012	0.166	-0.047
-330.202	45.313	-0.115	0.106
-329.187	-200.000	0.044	-0.305
-328.172	-92.920	0.222	-0.062
-327.158	329.176	-0.210	0.400
-326.143	54.671	-0.159	0.152
-325.129	120.763	0.010	0.013
-324.114	-85.831	0.374	0.115
-323.099	-200.000	0.039	-0.215
-322.085	-200.000	0.194	-0.001
-321.070	-72.511	-0.089	-0.033
-320.056	-3.791	-0.414	-0.285
-319.041	210.470	-0.060	-0.093
-318.026	-131.880	0.228	0.030
-317.012	-83.029	0.190	-0.061
-315.997	800.000	-0.048	-0.175
-314.983	506.347	-0.100	-0.230
-313.968	-69.692	-0.370	-0.140
-312.953	-160.264	0.372	0.020
-311.939	-21.864	-0.251	0.152
-310.924	26.406	0.135	-0.112
-309.910	159.027	0.217	0.299
-308.895	-200.000	0.048	0.321
-307.880	-139.141	-0.059	0.006
-306.866	-83.450	0.057	0.018
-305.851	225.680	0.100	0.162
-304.837	-90.867	0.190	0.054
-303.822	-75.196	-0.550	-0.195
-302.807	174.351	0.025	-0.036
-301.793	28.439	0.110	0.093
-300.778	-108.667	-0.319	0.068
-299.764	-86.390	-0.032	-0.010
-298.749	-174.807	0.262	0.007
-297.735	17.586	-0.092	-0.073
-296.720	800.000	-0.015	0.047
-295.705	-197.032	0.292	0.002
-294.691	-200.000	0.025	-0.319
-293.676	-200.000	0.001	0.124
-292.662	-20.886	0.213	-0.129
-291.647	-118.587	0.318	-0.056
-290.632	553.722	-0.129	-0.308
-289.618	55.218	-0.159	0.153
-288.603	-21.369	0.055	-0.034
-287.589	78.421	-0.107	-0.113
-286.574	40.995	0.121	0.109
-285.559	-34.891	0.152	0.082
-284.545	-200.000	0.039	0.202
-283.530	800.000	0.058	-0.226
-282.516	-108.604	-0.268	0.057
-281.501	-200.000	-0.015	-0.188
-280.486	-39.136	-0.171	-0.089
-279.472	-127.461	0.251	-0.036
-278.457	-136.524	0.092	-0.011
-277.443	108.955	-0.066	0.079
-276.428	-200.000	-0.019	0.294
-275.413	33.238	-0.239	0.206
-274.399	603.458	0.148	-0.364
-273.384	-54.898	0.082	-0.037
-272.370	151.974	-0.172	0.233
-271.355	-200.000	-0.026	-0.195
-270.340	-79.319	0.235	0.079
-269.326	401.662	-0.093	0.194
-268.311	308.660	0.012	-0.023
-267.297	-200.000	-0.017	0.149
-266.282	23.964	-0.337	-0.276
-265.267	743.453	0.135	0.361
-264.253	-171.052	0.403	-0.014
-263.238	12.501	0.249	-0.190
-262.224	71.978	0.155	-0.160
-261.209	-63.460	-0.255	0.104
-260.195	13.589	-0.165	0.127
-259.180	-5.383	0.269	0.183
-258.165	-38.817	-0.056	0.029
-257.151	114.707	0.190	0.229
-256.136	-91.752	0.126	0.035
-255.122	-58.386	0.564	0.243
-254.107	-129.824	0.128	0.017
-253.092	-175.512	-0.217	-0.006
-252.078	-164.943	0.126	0.006
-251.063	59.785	-0.039	0.038
-250.049	-79.081	0.099	0.033
-249.034	32.873	-0.172	0.147
-248.019	687.604	0.099	-0.256
-247.005	547.761	0.038	-0.090
-245.990	-133.439	-0.122	-0.015
-244.976	-200.000	-0.023	0.243
-243.961	120.355	-0.056	0.069
-242.946	-60.732	-0.172	-0.072
-241.932	-113.298	0.169	0.033
-240.917	-200.000	-0.017	0.105
-239.903	-43.708	-0.275	-0.137
-238.888	2.721	0.169	-0.121
-237.873	762.027	0.111	0.299
-236.859	-176.647	-0.121	0.003
-235.844	800.000	0.078	-0.267
-234.830	-200.000	-0.027	0.161
-233.815	-108.355	0.196	-0.042
-232.800	-94.752	-0.316	0.085
-231.786	21.719	-0.152	0.122
-230.771	800.000	0.064	-0.259
-229.757	-200.000	-0.019	0.289
-228.742	-110.315	-0.671	0.138
-227.727	27.980	0.124	-0.104
-226.713	-5.701	0.285	0.193
-225.698	-200.000	0.045	-0.414
-224.684	-130.721	0.149	0.020
-223.669	-200.000	0.005	-0.317
-222.655	255.308	0.117	0.199
-221.640	-5.453	0.327	-0.222
-220.625	800.000	0.047	0.147
-219.611	-200.000	-0.025	0.134
-218.596	280.568	-0.135	-0.239
-217.582	-133.577	0.180	0.022
-216.567	325.984	-0.116	-0.220
-215.552	20.880	0.028	-0.022
-214.538	446.146	0.112	-0.243
-213.523	-30.713	-0.031	-0.017
-212.509	-200.000	-0.022	0.259
-211.494	-71.434	0.346	0.128
-210.479	-51.517	-0.329	-0.152
-209.465	-200.000	-0.010	-0.113
-208.450	-103.053	-0.310	0.073
-207.436	483.768	0.163	0.367
-206.421	227.426	0.192	-0.309
-205.406	342.480	-0.056	0.108
-204.392	-36.699	0.198	-0.105
-203.377	800.000	-0.040	-0.161
-202.363	312.938	-0.217	0.403
-201.348	40.806	0.285	0.255
-200.333	369.913	-0.170	0.340
-199.319	60.003	-0.156	0.152
-198.304	712.207	0.105	-0.275
-197.290	232.813	0.076	-0.124
-196.275	-200.000	-0.033	0.256
-195.260	190.164	-0.138	0.205
-194.246	209.666	-0.144	-0.223
-193.231	380.687	0.024	-0.049
-192.217	141.913	0.061	0.080
-191.202	-200.000	0.005	-0.109
-190.187	17.513	-0.208	0.163
-189.173	-44.890	0.176	0.087
-188.158	275.672	0.081	-0.143
-187.144	53.832	-0.103	0.098
-186.129	-174.058	-0.198	0.006
-185.114	-200.000	-0.029	0.177
-184.100	-0.457	0.194	-0.136
-183.085	621.841	-0.091	0.227
-182.071	-200.000	0.085	0.381
-181.056	-77.001	-0.049	0.017
-180.042	800.000	-0.119	0.395
-179.027	467.667	0.062	0.137
-178.012	29.906	0.076	0.064
-176.998	405.322	0.153	-0.320
-175.983	800.000	-0.126	-0.486
-174.969	-46.994	-0.355	-0.171
-173.954	800.000	0.048	-0.142
-172.939	800.000	0.096	0.293
-171.925	-113.038	0.182	0.036
-170.910	263.120	0.173	0.297
-169.896	-200.000	-0.047	0.310
-168.881	7.758	0.123	-0.091
-167.866	230.526	-0.239	-0.387
-166.852	593.075	-0.088	0.214
-165.837	575.977	-0.098	-0.236
-164.823	-200.000	-0.000	0.034
-163.808	-73.525	0.425	-0.153
-162.793	18.326	0.130	0.102
-161.779	800.000	0.053	-0.165
-160.764	176.473	0.148	-0.212
-159.750	-200.000	0.032	-0.177
-158.735	-139.371	-0.281	-0.030
-157.720	-45.250	0.545	-0.267
-156.706	-161.936	0.111	0.006
-155.691	800.000	0.010	0.027
-154.677	342.855	0.117	0.226
-153.662	160.085	-0.107	-0.147
-152.647	-93.944	0.260	0.071
-151.633	800.000	-0.090	-0.282
-150.618	-18.118	-0.020	-0.012
-149.604	-64.046	0.217	-0.088
-148.589	-200.000	0.006	0.083
-147.574	408.817	0.075	-0.156
-146.560	800.000	-0.095	-0.270
-145.545	150.923	0.089	-0.119
-144.531	800.000	0.087	-0.238
-143.516	223.422	-0.027	0.044
-142.502	-200.000	-0.080	0.412
-141.487	220.616	0.060	0.094
-140.472	-131.168	0.268	-0.035
-139.458	-200.000	0.038	0.302
-138.443	54.787	-0.130	-0.124
-137.429	725.400	-0.032	-0.083
-136.414	-200.000	-0.023	-0.207
-135.399	141.308	0.027	-0.035
-134.385	-58.408	0.133	-0.057
-133.370	-75.343	-0.186	-0.065
-132.356	800.000	-0.090	0.336
-131.341	-200.000	-0.002	0.213
-130.326	-117.914	0.288	0.051
-129.312	81.585	0.094	0.100
-128.297	-114.371	0.086	0.016
-127.283	-3.968	0.085	-0.058
-126.268	-127.885	-0.218	-0.031
-125.253	-200.000	-0.004	-0.243
-124.239	-107.091	0.073	0.016
-123.224	643.138	0.120	-0.303
-122.210	-200.000	0.012	-0.154
-121.195	51.701	0.092	-0.087
