DTS Sentinel unit serial number:	SN413079Multiplexer serial number:	ORYXHardware model number:	OX4-SRSoftware version number:	ORYX F/W v4.00 Oryx Data Collector v3.7.2.0data status	okinstallation	princeton_trtdifferential loss correction	single-endedforward channel	channel 4reverse channel	N/Adate	2019/09/15time	16:37:34forward acquisition time	60.00reverse acquisition time	0.00gamma	496.2192k internal	0.2276k external	0.2276temperature offset calibration	0.9937default loss term (dB/km)	0.3790temperature slope calibration	1.0000multiplexer offset coefficient	1.0000multiplexer slope coefficient	1.0000fibre end	0.00T internal ref (°C)	44.06T ext. ref 1 (°C)	5.65T ext. ref 2 (°C)	40.20length (m)	temperature (°C)	Stokes	anti-Stokes-747.200	-11.895	-0.158	0.107
-746.185	-200.000	-0.091	0.438
-745.171	49.791	0.032	0.031
-744.156	800.000	-0.044	0.161
-743.142	-122.004	-0.138	0.023
-742.127	242.918	0.272	0.469
-741.112	-40.918	-0.251	0.134
-740.098	800.000	-0.021	-0.084
-739.083	-200.000	0.065	-0.507
-738.069	345.935	0.142	0.288
-737.054	305.311	0.025	-0.047
-736.039	-173.980	-0.499	0.015
-735.025	358.804	0.099	0.205
-734.010	326.410	-0.181	-0.357
-732.996	292.218	-0.028	-0.053
-731.981	118.116	-0.277	-0.352
-730.966	-200.000	0.032	-0.403
-729.952	-17.923	-0.088	-0.057
-728.937	241.408	-0.075	-0.129
-727.923	388.807	-0.076	-0.163
-726.908	107.052	-0.198	0.242
-725.894	640.886	-0.066	0.174
-724.879	257.674	-0.075	-0.133
-723.864	235.420	-0.046	-0.079
-722.850	800.000	0.085	-0.272
-721.835	16.383	-0.188	-0.153
-720.821	-46.428	-0.315	0.159
-719.806	12.950	-0.213	0.169
-718.791	-195.000	0.144	-0.001
-717.777	-200.000	0.000	0.285
-716.762	567.677	0.090	0.225
-715.748	79.980	-0.066	-0.073
-714.733	53.721	0.165	-0.163
-713.718	-26.629	0.247	0.149
-712.704	-142.501	-0.172	0.017
-711.689	-200.000	0.054	-0.434
-710.675	-71.147	0.162	-0.062
-709.660	-44.977	-0.305	-0.156
-708.645	-115.375	-0.247	-0.048
-707.631	-88.913	-0.257	0.079
-706.616	-127.029	-0.199	0.030
-705.602	-200.000	0.026	0.121
-704.587	-200.000	-0.000	0.045
-703.572	-34.175	-0.121	0.068
-702.558	-93.488	0.036	0.010
-701.543	-200.000	-0.037	0.418
-700.529	736.144	-0.125	-0.344
-699.514	-200.000	0.044	-0.250
-698.499	-31.734	-0.349	-0.201
-697.485	101.595	0.114	0.137
-696.470	-65.803	-0.130	0.054
-695.456	327.307	0.035	-0.069
-694.441	256.844	-0.130	-0.229
-693.426	11.879	0.196	0.155
-692.412	-200.000	0.012	-0.370
-691.397	297.402	-0.106	0.200
-690.383	800.000	-0.051	0.169
-689.368	-7.200	-0.175	-0.122
-688.354	-123.225	-0.484	0.080
-687.339	-24.542	-0.196	0.120
-686.324	-200.000	0.003	-0.092
-685.310	103.875	-0.069	0.083
-684.295	-22.624	-0.242	-0.150
-683.281	-70.480	-0.244	-0.095
-682.266	206.271	0.101	0.161
-681.251	153.302	-0.123	0.173
-680.237	61.856	-0.153	-0.157
-679.222	-46.397	0.185	0.093
-678.208	788.059	0.025	0.070
-677.193	-2.848	0.267	0.192
-676.178	237.562	0.198	-0.338
-675.164	-81.815	0.104	-0.035
-674.149	-200.000	0.015	0.318
-673.135	-200.000	-0.446	-0.001
-672.120	-200.000	-0.003	-0.039
-671.105	-121.418	0.407	-0.070
-670.091	-32.566	0.159	-0.091
-669.076	800.000	0.032	0.108
-668.062	431.603	0.114	-0.254
-667.047	-79.244	0.188	0.066
-666.032	258.647	0.155	-0.274
-665.018	132.352	0.054	-0.072
-664.003	141.893	-0.175	0.238
-662.989	8.497	-0.154	0.119
-661.974	800.000	-0.133	-0.426
-660.959	64.220	-0.163	-0.169
-659.945	-98.321	-0.268	-0.070
-658.930	-121.064	-0.294	-0.051
-657.916	-200.000	0.023	0.135
-656.901	-11.660	-0.137	0.093
-655.886	-37.736	0.164	-0.090
-654.872	45.567	-0.082	0.077
-653.857	-200.000	-0.005	-0.439
-652.843	190.733	-0.232	-0.358
-651.828	-40.810	0.045	0.024
-650.814	266.233	0.106	0.189
-649.799	0.513	-0.100	-0.073
-648.784	38.346	0.111	0.101
-647.770	-51.224	0.074	-0.036
-646.755	339.090	0.183	-0.366
-645.741	-158.618	-0.302	0.018
-644.726	91.297	-0.103	0.119
-643.711	33.656	-0.183	-0.164
-642.697	93.641	-0.223	-0.259
-641.682	-113.374	0.184	0.037
-640.668	212.473	0.252	0.408
-639.653	-200.000	0.039	-0.313
-638.638	753.790	-0.108	0.300
-637.624	42.028	-0.241	0.224
-636.609	-76.863	0.168	-0.060
-635.595	-200.000	-0.004	-0.222
-634.580	-25.355	-0.003	-0.002
-633.565	-200.000	0.026	-0.199
-632.551	-200.000	-0.025	-0.403
-631.536	14.595	-0.065	0.052
-630.522	-200.000	0.021	0.165
-629.507	800.000	-0.109	-0.423
-628.492	-200.000	-0.018	0.125
-627.478	213.749	0.149	0.242
-626.463	-9.679	0.083	-0.057
-625.449	180.630	-0.048	0.072
-624.434	-43.370	0.216	0.112
-623.419	-13.530	0.227	-0.151
-622.405	-90.083	-0.464	-0.139
-621.390	-113.744	0.272	-0.054
-620.376	8.704	-0.305	-0.236
-619.361	-63.284	0.311	-0.131
-618.346	-58.211	-0.067	-0.030
-617.332	188.186	0.193	0.295
-616.317	-200.000	-0.036	-0.266
-615.303	55.039	0.161	0.159
-614.288	68.158	0.185	-0.194
-613.273	-200.000	-0.009	0.199
-612.259	95.286	0.076	0.089
-611.244	-165.928	-0.188	-0.008
-610.230	-200.000	-0.014	-0.330
-609.215	-200.000	0.017	-0.281
-608.201	-164.263	0.123	0.006
-607.186	800.000	-0.069	-0.231
-606.171	-200.000	0.004	-0.115
-605.157	-23.325	-0.063	-0.039
-604.142	21.965	0.373	0.311
-603.128	230.452	0.206	-0.345
-602.113	199.499	-0.041	0.065
-601.098	-200.000	-0.108	0.550
-600.084	-28.506	0.191	-0.113
-599.069	-102.311	-0.302	-0.074
-598.055	-28.557	-0.241	-0.142
-597.040	92.855	0.149	-0.172
-596.025	19.761	0.154	0.127
-595.011	-200.000	0.012	-0.165
-593.996	30.885	-0.237	-0.208
-592.982	-137.348	-0.304	0.035
-591.967	-200.000	-0.011	-0.113
-590.952	234.632	-0.041	-0.070
-589.938	-200.000	0.004	0.122
-588.923	-77.923	-0.230	0.081
-587.909	-129.921	0.187	0.026
-586.894	251.658	-0.033	0.058
-585.879	486.413	0.103	0.241
-584.865	-117.972	-0.211	-0.039
-583.850	386.169	0.121	-0.256
-582.836	249.665	-0.109	0.189
-581.821	347.558	-0.164	0.330
-580.806	-0.156	0.101	0.074
-579.792	-200.000	0.135	0.000
-578.777	-200.000	-0.029	0.154
-577.763	37.474	-0.083	0.075
-576.748	-200.000	0.042	-0.207
-575.733	33.746	0.066	0.059
-574.719	77.304	-0.115	-0.125
-573.704	-106.081	-0.287	0.066
-572.690	-139.101	0.101	0.011
-571.675	800.000	-0.023	0.072
-570.661	365.948	-0.094	0.193
-569.646	105.825	-0.114	0.138
-568.631	-200.000	0.016	0.088
-567.617	-43.462	0.171	0.089
-566.602	-200.000	-0.028	-0.282
-565.588	99.282	-0.073	-0.087
-564.573	60.323	-0.230	0.233
-563.558	4.189	0.178	-0.133
-562.544	376.629	-0.164	0.343
-561.529	-183.441	0.158	-0.003
-560.515	-200.000	0.048	0.413
-559.500	-64.101	-0.094	0.039
-558.485	-50.670	-0.341	-0.164
-557.471	15.747	-0.056	0.045
-556.456	273.183	0.036	-0.066
-555.442	73.876	0.120	-0.129
-554.427	-12.328	-0.227	-0.152
-553.412	534.888	-0.066	-0.159
-552.398	315.366	-0.089	-0.171
-551.383	64.512	0.174	0.179
-550.369	499.762	0.053	0.124
-549.354	170.893	0.155	-0.228
-548.339	15.180	-0.258	-0.207
-547.325	130.249	0.070	0.092
-546.310	332.451	0.096	-0.189
-545.296	-65.779	0.063	0.026
-544.281	370.355	0.162	0.337
-543.266	-58.277	0.047	-0.021
-542.252	-91.268	0.149	0.044
-541.237	-55.113	-0.095	0.044
-540.223	75.169	-0.188	-0.203
-539.208	-91.773	0.239	0.070
-538.193	59.120	-0.121	-0.122
-537.179	-200.000	0.011	-0.087
-536.164	52.236	0.052	-0.050
-535.150	14.779	0.169	0.135
-534.135	-200.000	-0.045	0.265
-533.121	-1.560	-0.124	-0.089
-532.106	-112.975	-0.219	0.044
-531.091	70.407	0.043	0.045
-530.077	407.516	0.034	0.073
-529.062	-95.294	0.013	-0.004
-528.048	-105.871	-0.177	-0.041
-527.033	-151.806	-0.134	0.010
-526.018	-154.191	-0.095	0.007
-525.004	29.244	-0.107	0.093
-523.989	-68.795	-0.196	-0.077
-522.975	-41.741	-0.190	0.100
-521.960	-105.384	0.288	0.067
-520.945	800.000	0.028	0.083
-519.931	677.155	0.052	-0.138
-518.916	-200.000	0.230	-0.000
-517.902	322.042	-0.055	-0.107
-516.887	-36.856	0.126	-0.069
-515.872	67.394	-0.146	0.152
-514.858	-83.181	-0.237	-0.078
-513.843	147.521	-0.113	0.156
-512.829	-200.000	0.015	0.191
-511.814	1.609	-0.175	0.129
-510.799	145.284	-0.082	0.112
-509.785	-200.000	-0.014	-0.090
-508.770	-100.335	0.221	-0.056
-507.756	-35.540	-0.122	-0.068
-506.741	784.683	-0.076	0.212
-505.726	-3.251	0.231	0.164
-504.712	-46.237	-0.082	-0.041
-503.697	132.466	-0.179	-0.236
-502.683	-85.495	-0.068	0.021
-501.668	-200.000	-0.015	-0.161
-500.653	-74.393	-0.214	0.079
-499.639	-181.778	0.262	-0.005
-498.624	493.084	-0.126	0.295
-497.610	55.414	-0.206	-0.204
-496.595	-43.044	-0.062	0.032
-495.581	800.000	0.113	0.344
-494.566	639.381	0.063	0.163
-493.551	-46.018	-0.143	0.072
-492.537	51.696	-0.199	-0.194
-491.522	-200.000	-0.080	-0.474
-490.508	-200.000	0.006	0.446
-489.493	-121.507	0.364	0.062
-488.478	438.761	-0.131	-0.291
-487.464	800.000	-0.022	0.065
-486.449	121.231	-0.138	-0.175
-485.435	1.501	-0.252	0.185
-484.420	343.085	-0.146	-0.292
-483.405	407.864	-0.072	-0.156
-482.391	336.652	-0.044	0.087
-481.376	-107.509	0.092	-0.021
-480.362	-156.510	-0.353	0.022
-479.347	-200.000	-0.011	-0.240
-478.332	82.285	-0.192	0.212
-477.318	-143.521	0.153	-0.015
-476.303	225.058	0.237	-0.391
-475.289	196.664	-0.159	-0.248
-474.274	343.518	-0.062	0.125
-473.259	-168.499	0.188	0.007
-472.245	-83.339	-0.234	0.077
-471.230	33.452	-0.211	-0.187
-470.216	130.520	0.144	-0.188
-469.201	14.208	0.222	-0.176
-468.186	-16.340	-0.188	-0.122
-467.172	-100.978	0.129	0.032
-466.157	-29.114	-0.193	-0.113
-465.143	-200.000	-0.015	-0.237
-464.128	-200.000	0.060	0.286
-463.113	247.950	0.120	0.208
-462.099	-149.193	-0.171	0.014
-461.084	-200.000	-0.010	-0.199
-460.070	1.882	-0.109	0.080
-459.055	134.784	0.033	0.044
-458.040	237.939	-0.064	-0.109
-457.026	36.014	-0.127	0.114
-456.011	131.807	0.147	0.193
-454.997	301.839	-0.029	0.055
-453.982	622.330	0.075	-0.193
-452.968	-69.376	0.158	-0.062
-451.953	-200.000	-0.007	-0.195
-450.938	-37.627	0.147	0.080
-449.924	196.269	0.154	-0.239
-448.909	478.284	0.085	-0.196
-447.895	-20.566	0.175	0.110
-446.880	-200.000	0.042	-0.215
-445.865	-200.000	0.025	0.185
-444.851	-90.772	-0.069	-0.020
-443.836	181.627	0.297	0.446
-442.822	-66.916	-0.128	0.051
-441.807	-200.000	0.025	0.166
-440.792	-63.347	0.178	-0.075
-439.778	800.000	0.047	-0.184
-438.763	439.452	-0.088	-0.196
-437.749	45.500	0.228	-0.214
-436.734	31.454	0.058	-0.051
-435.719	201.321	-0.123	0.193
-434.705	-81.658	0.185	-0.062
-433.690	12.684	0.068	0.053
-432.676	332.986	-0.071	-0.140
-431.661	265.931	0.055	0.098
-430.646	-91.788	-0.167	-0.048
-429.632	-200.000	-0.056	-0.310
-428.617	-91.086	-0.108	0.031
-427.603	-98.725	-0.269	0.070
-426.588	800.000	0.027	-0.118
-425.573	-200.000	0.027	0.396
-424.559	106.631	0.113	-0.136
-423.544	59.049	0.145	0.145
-422.530	226.910	-0.155	-0.256
-421.515	-22.441	-0.179	-0.110
-420.500	-68.984	0.096	-0.038
-419.486	-68.684	0.118	-0.046
-418.471	57.490	-0.176	-0.175
-417.457	800.000	0.074	-0.269
-416.442	-16.571	0.197	-0.127
-415.428	214.020	-0.109	0.175
-414.413	124.147	0.135	-0.173
-413.398	-23.617	0.212	-0.130
-412.384	556.258	0.239	0.585
-411.369	-123.932	0.264	0.042
-410.355	800.000	-0.034	0.100
-409.340	163.002	-0.106	-0.152
-408.325	-41.143	-0.175	0.092
-407.311	38.093	-0.144	0.130
-406.296	202.724	0.068	0.107
-405.282	-52.989	0.230	0.108
-404.267	-67.958	-0.170	0.068
-403.252	-44.445	0.193	0.098
-402.238	63.969	0.250	-0.256
-401.223	563.551	0.022	0.055
-400.209	5.372	0.065	-0.048
-399.194	46.142	-0.052	-0.049
-398.179	8.999	0.148	0.114
-397.165	369.376	-0.070	-0.143
-396.150	-147.597	0.134	-0.012
-395.136	-200.000	0.002	0.154
-394.121	800.000	0.084	-0.333
-393.106	800.000	-0.012	0.045
-392.092	50.484	-0.126	-0.121
-391.077	222.213	0.046	-0.075
-390.063	352.582	-0.149	-0.301
-389.048	60.988	0.275	-0.278
-388.033	-107.174	-0.226	0.051
-387.019	192.530	-0.194	-0.297
-386.004	800.000	0.058	-0.177
-384.990	-178.191	0.309	-0.007
-383.975	203.649	-0.128	-0.201
-382.960	141.222	0.227	0.306
-381.946	-200.000	0.055	0.457
-380.931	111.976	0.096	0.118
-379.917	396.612	0.133	0.281
-378.902	800.000	-0.119	0.390
-377.888	605.831	-0.091	0.231
-376.873	-144.501	-0.334	-0.031
-375.858	-112.235	-0.292	-0.060
-374.844	-200.000	-0.039	-0.454
-373.829	-200.000	0.012	-0.253
-372.815	53.511	-0.263	-0.256
-371.800	53.413	-0.108	-0.105
-370.785	-124.345	-0.011	-0.002
-369.771	-122.743	0.202	-0.033
-368.756	-99.281	-0.138	0.035
-367.742	-167.107	-0.134	0.006
-366.727	152.864	-0.109	0.152
-365.712	-200.000	-0.017	0.092
-364.698	442.588	-0.101	-0.224
-363.683	-33.505	0.234	-0.131
-362.669	66.127	0.146	-0.151
-361.654	138.919	-0.077	0.102
-360.639	216.006	-0.196	0.317
-359.625	-9.857	-0.267	0.181
-358.610	729.652	-0.048	0.131
-357.596	-7.739	0.188	-0.129
-356.581	-179.948	-0.047	-0.001
-355.566	-200.000	0.005	-0.107
-354.552	800.000	-0.051	-0.211
-353.537	183.657	0.078	-0.118
-352.523	800.000	0.038	-0.117
-351.508	-146.220	0.352	-0.031
-350.493	-180.539	0.318	-0.007
-349.479	800.000	-0.093	0.321
-348.464	-32.760	-0.285	0.161
-347.450	40.537	0.287	0.262
-346.435	800.000	-0.055	0.190
-345.420	513.233	-0.075	-0.177
-344.406	-136.754	0.104	-0.012
-343.391	-200.000	0.039	-0.175
-342.377	-125.876	-0.324	-0.050
-341.362	149.978	0.183	0.252
-340.348	-200.000	-0.086	-0.494
-339.333	729.798	-0.035	0.096
-338.318	-43.845	0.255	0.130
-337.304	246.196	0.155	0.265
-336.289	301.061	0.137	-0.257
-335.275	-113.651	-0.178	0.035
-334.260	197.456	-0.124	0.192
-333.245	-200.000	0.024	0.474
-332.231	-97.517	0.225	-0.059
-331.216	-33.601	0.026	-0.014
-330.202	-161.044	-0.117	-0.006
-329.187	196.515	0.227	0.351
-328.172	-42.636	0.057	0.029
-327.158	23.517	-0.173	-0.145
-326.143	343.132	0.079	-0.156
-325.129	-138.648	0.456	-0.051
-324.114	230.364	-0.073	0.120
-323.099	-117.827	0.298	0.054
-322.085	-104.058	0.227	-0.053
-321.070	81.332	-0.238	0.261
-320.056	430.280	0.076	-0.167
-319.041	342.771	-0.168	-0.333
-318.026	-200.000	0.004	0.197
-317.012	728.737	0.095	-0.256
-315.997	40.111	0.280	-0.255
-314.983	471.808	0.106	0.241
-313.968	23.994	0.110	0.092
-312.953	470.861	-0.112	0.254
-311.939	-148.519	-0.118	0.010
-310.924	-200.000	0.009	-0.055
-309.910	-8.575	-0.190	0.130
-308.895	88.741	0.125	0.141
-307.880	452.337	0.122	0.274
-306.866	-200.000	0.019	0.098
-305.851	-75.166	-0.360	-0.130
-304.837	378.282	0.042	0.087
-303.822	-200.000	-0.034	0.181
-302.807	-94.051	-0.090	0.025
-301.793	-149.032	-0.198	-0.016
-300.778	-61.104	0.058	0.025
-299.764	-184.491	0.307	0.005
-298.749	-44.394	0.227	-0.115
-297.735	177.956	0.049	-0.073
-296.720	800.000	0.028	0.111
-295.705	-40.247	0.200	-0.106
-294.691	41.231	0.154	-0.141
-293.676	-147.628	0.223	0.019
-292.662	-81.059	-0.204	0.068
-291.647	278.044	0.129	0.233
-290.632	5.444	0.121	-0.090
-289.618	1.086	0.231	0.168
-288.603	-30.965	-0.272	0.155
-287.589	800.000	0.070	0.220
-286.574	800.000	0.029	-0.093
-285.559	-64.784	-0.169	0.069
-284.545	170.641	-0.070	0.101
-283.530	-34.680	-0.150	-0.083
-282.516	28.909	0.128	-0.110
-281.501	-200.000	0.033	-0.186
-280.486	67.268	0.178	0.184
-279.472	800.000	-0.026	-0.093
-278.457	-29.637	0.119	0.069
-277.443	42.247	0.066	0.060
-276.428	-200.000	-0.015	0.072
-275.413	800.000	0.043	-0.165
-274.399	-60.825	-0.112	-0.048
-273.384	53.225	0.192	0.186
-272.370	163.248	0.104	-0.147
-271.355	-95.053	-0.252	-0.069
-270.340	280.427	0.286	-0.517
-269.326	-200.000	0.094	-0.425
-268.311	289.425	-0.178	0.328
-267.297	-15.758	0.185	0.120
-266.282	800.000	-0.126	0.387
-265.267	-200.000	0.000	-0.490
-264.253	24.843	0.279	0.234
-263.238	-200.000	0.078	0.537
-262.224	645.762	0.078	0.203
-261.209	325.408	-0.123	0.238
-260.195	91.723	-0.160	-0.182
-259.180	51.619	-0.163	0.157
-258.165	-49.879	-0.239	-0.115
-257.151	-200.000	0.045	0.303
-256.136	800.000	-0.129	-0.378
-255.122	-200.000	0.050	0.336
-254.107	800.000	0.111	0.488
-253.092	-21.957	0.355	-0.218
-252.078	4.911	-0.135	-0.101
-251.063	-117.148	-0.383	0.071
-250.049	-100.236	-0.113	0.028
-249.034	89.779	-0.315	-0.356
-248.019	-99.278	-0.285	-0.073
-247.005	800.000	-0.107	-0.315
-245.990	-80.703	-0.061	-0.020
-244.976	260.127	0.129	-0.225
-243.961	800.000	0.067	-0.194
-242.946	225.942	-0.133	0.217
-241.932	79.301	0.063	-0.068
-240.917	92.402	0.192	-0.218
-239.903	-150.480	0.341	0.026
-238.888	-166.675	-0.294	0.012
-237.873	-200.000	-0.023	0.161
-236.859	157.635	-0.198	0.278
-235.844	800.000	-0.043	0.139
-234.830	-166.912	-0.236	0.010
-233.815	-88.538	-0.220	-0.066
-232.800	423.359	-0.073	0.159
-231.786	39.862	0.125	-0.114
-230.771	19.857	0.196	-0.160
-229.757	-200.000	-0.043	0.228
-228.742	40.964	-0.130	-0.119
-227.727	317.515	-0.119	0.227
-226.713	800.000	-0.058	-0.254
-225.698	-27.758	0.139	0.082
-224.684	800.000	0.063	-0.201
-223.669	800.000	-0.076	-0.335
-222.655	-84.761	-0.079	0.025
-221.640	-182.324	-0.453	0.008
-220.625	-90.027	-0.082	0.024
-219.611	195.678	0.115	-0.177
-218.596	-33.467	0.117	0.065
-217.582	-99.680	-0.127	-0.032
-216.567	800.000	0.066	-0.236
-215.552	-149.906	0.233	0.018
-214.538	-71.576	-0.199	0.075
-213.523	-78.366	0.113	0.039
-212.509	-64.185	0.216	-0.089
-211.494	-22.667	0.169	0.103
-210.479	800.000	-0.069	-0.292
-209.465	99.445	0.129	0.151
-208.450	-200.000	-0.002	0.131
-207.436	21.090	-0.027	0.022
-206.421	30.722	0.222	0.191
-205.406	-27.870	0.276	0.162
-204.392	227.617	0.101	-0.167
-203.377	-94.957	0.154	0.042
-202.363	800.000	-0.097	0.363
-201.348	800.000	0.024	0.101
-200.333	-36.564	0.070	-0.038
-199.319	800.000	0.059	-0.169
-198.304	-200.000	0.018	0.266
-197.290	-200.000	-0.037	0.349
-196.275	131.495	0.105	-0.137
-195.260	121.375	-0.047	0.059
-194.246	743.418	-0.106	0.288
-193.231	800.000	-0.055	0.242
-192.217	-200.000	0.008	-0.037
-191.202	-84.350	-0.092	-0.029
-190.187	-45.495	0.428	0.214
-189.173	-78.823	0.125	-0.043
-188.158	-16.191	-0.097	-0.062
-187.144	4.311	0.154	0.114
-186.129	-200.000	-0.021	-0.232
-185.114	-152.905	-0.178	-0.013
-184.100	-200.000	-0.041	0.373
-183.085	-122.847	-0.160	-0.026
-182.071	800.000	-0.097	-0.285
-181.056	-42.128	-0.259	-0.133
-180.042	-200.000	0.007	-0.033
-179.027	35.150	0.073	-0.065
-178.012	-200.000	0.027	-0.234
-176.998	4.877	-0.141	-0.105
-175.983	100.574	-0.108	0.127
-174.969	44.402	0.173	-0.160
-173.954	157.404	-0.129	0.180
-172.939	-64.548	-0.023	-0.009
-171.925	605.607	-0.091	-0.228
-170.910	-200.000	0.016	-0.073
-169.896	-31.186	-0.211	0.120
-168.881	334.705	0.091	0.178
-167.866	60.408	-0.022	-0.022
-166.852	61.514	-0.299	0.299
-165.837	16.525	0.173	0.138
-164.823	-200.000	0.036	-0.251
-163.808	-166.640	-0.297	-0.012
-162.793	390.755	0.086	0.179
-161.779	692.050	-0.096	-0.253
-160.764	-200.000	0.071	0.415
-159.750	800.000	-0.074	-0.264
-158.735	-200.000	0.048	-0.228
-157.720	-181.753	0.291	0.006
-156.706	147.709	0.201	0.273
-155.691	108.604	0.160	0.193
-154.677	-15.635	0.215	-0.138
-153.662	77.989	0.121	0.130
-152.647	524.510	-0.037	0.089
-151.633	123.379	-0.128	-0.162
-150.618	414.325	0.100	-0.214
-149.604	180.377	-0.167	-0.247
-148.589	-200.000	0.000	-0.246
-147.574	47.756	-0.146	0.137
-146.560	-156.546	-0.236	-0.015
-145.545	196.975	-0.090	0.139
-144.531	60.033	-0.152	0.152
-143.516	-200.000	-0.059	0.420
-142.502	-7.577	0.316	0.215
-141.487	-200.000	0.021	0.149
-140.472	168.450	-0.186	0.267
-139.458	-200.000	0.020	0.138
-138.443	131.013	-0.192	0.248
-137.429	-45.676	0.054	0.027
-136.414	357.139	-0.054	-0.108
-135.399	-91.029	-0.141	-0.041
-134.385	127.448	0.139	-0.178
-133.370	-200.000	0.020	-0.134
-132.356	-200.000	0.028	-0.180
-131.341	-126.178	-0.252	0.038
-130.326	8.027	-0.082	-0.062
-129.312	-200.000	-0.003	-0.101
-128.297	-12.168	0.157	0.103
-127.283	800.000	-0.091	-0.270
-126.268	0.130	0.114	0.082
-125.253	-200.000	0.008	-0.170
-124.239	172.399	0.112	0.162
-123.224	93.204	-0.048	-0.055
-122.210	-69.545	-0.148	0.057
-121.195	571.350	0.044	-0.109
-120.180	800.000	-0.099	0.362
