DTS Sentinel unit serial number:	SN413079Multiplexer serial number:	ORYXHardware model number:	OX4-SRSoftware version number:	ORYX F/W v4.00 Oryx Data Collector v3.7.2.0data status	okinstallation	princeton_trtdifferential loss correction	single-endedforward channel	channel 4reverse channel	N/Adate	2019/09/12time	13:19:11forward acquisition time	60.00reverse acquisition time	0.00gamma	496.2192k internal	0.2287k external	0.2287temperature offset calibration	1.0075default loss term (dB/km)	0.3790temperature slope calibration	1.0000multiplexer offset coefficient	1.0000multiplexer slope coefficient	1.0000fibre end	0.00T internal ref (°C)	41.00T ext. ref 1 (°C)	2.11T ext. ref 2 (°C)	36.97length (m)	temperature (°C)	Stokes	anti-Stokes-747.200	129.241	0.264	0.346
-746.185	310.708	0.223	0.428
-745.171	13.574	0.178	-0.141
-744.156	201.538	0.118	0.186
-743.142	184.942	0.200	0.304
-742.127	267.058	0.080	0.144
-741.112	-176.517	0.139	-0.004
-740.098	-10.259	-0.130	-0.089
-739.083	146.194	0.111	-0.153
-738.069	-10.579	-0.183	-0.124
-737.054	-41.123	0.172	-0.091
-736.039	334.636	-0.129	0.257
-735.025	-44.064	0.228	-0.117
-734.010	800.000	-0.030	-0.119
-732.996	-83.757	0.293	-0.096
-731.981	-200.000	-0.024	0.340
-730.966	-88.753	0.255	0.078
-729.952	194.800	-0.147	0.228
-728.937	-12.862	0.288	0.192
-727.923	-200.000	-0.008	0.164
-726.908	-200.000	0.008	0.239
-725.894	53.165	0.064	0.063
-724.879	104.593	0.137	-0.165
-723.864	-13.575	-0.119	0.079
-722.850	308.211	0.180	-0.345
-721.835	-200.000	0.020	0.112
-720.821	359.429	0.054	-0.111
-719.806	-138.957	-0.086	0.010
-718.791	-184.671	-0.173	0.003
-717.777	800.000	-0.070	0.238
-716.762	-200.000	-0.019	-0.226
-715.748	800.000	0.044	0.150
-714.733	-200.000	0.004	-0.163
-713.718	800.000	-0.128	0.398
-712.704	668.131	0.043	-0.115
-711.689	333.741	-0.194	-0.385
-710.675	-200.000	0.250	-0.001
-709.660	85.396	0.191	-0.215
-708.645	185.839	-0.205	-0.312
-707.631	25.398	-0.085	-0.073
-706.616	-102.624	0.115	-0.028
-705.602	800.000	-0.013	0.039
-704.587	-103.952	-0.085	-0.020
-703.572	448.639	-0.065	0.146
-702.558	295.672	0.152	0.286
-701.543	317.493	0.197	0.382
-700.529	-36.795	-0.120	0.066
-699.514	-78.838	0.157	-0.055
-698.499	134.839	-0.026	-0.035
-697.485	-84.022	-0.130	-0.042
-696.470	-11.682	0.225	-0.151
-695.456	-102.731	-0.186	0.045
-694.441	390.770	0.054	-0.114
-693.426	-198.976	0.165	-0.001
-692.412	-63.038	0.175	0.074
-691.397	800.000	-0.048	-0.162
-690.383	-40.334	0.182	-0.097
-689.368	93.424	0.051	0.059
-688.354	219.179	0.158	0.259
-687.339	123.270	0.174	0.224
-686.324	-153.034	-0.093	0.007
-685.310	-10.943	0.318	0.215
-684.295	9.855	-0.327	-0.254
-683.281	107.037	-0.071	-0.086
-682.266	-41.528	0.360	0.190
-681.251	-37.174	0.097	0.053
-680.237	-166.179	-0.172	0.007
-679.222	800.000	-0.051	-0.218
-678.208	-200.000	-0.027	-0.281
-677.193	-164.408	0.102	-0.005
-676.178	35.560	-0.227	0.204
-675.164	-90.870	-0.194	0.057
-674.149	-147.439	-0.508	0.044
-673.135	-21.651	-0.089	0.056
-672.120	-200.000	0.026	0.134
-671.105	-83.559	-0.282	0.092
-670.091	-109.275	-0.315	0.068
-669.076	-1.646	-0.282	0.203
-668.062	-104.240	-0.338	0.080
-667.047	426.749	-0.116	0.255
-666.032	-44.940	0.117	0.060
-665.018	-135.252	0.126	-0.015
-664.003	-71.551	-0.184	0.070
-662.989	-66.438	-0.048	-0.020
-661.974	71.788	-0.041	0.044
-660.959	20.254	0.079	0.065
-659.945	800.000	0.075	-0.249
-658.930	-200.000	-0.055	-0.347
-657.916	-200.000	0.027	0.171
-656.901	800.000	-0.078	-0.279
-655.886	-40.035	0.267	0.142
-654.872	592.398	-0.076	-0.192
-653.857	218.915	-0.066	0.108
-652.843	-61.622	-0.144	0.062
-651.828	96.554	0.024	-0.028
-650.814	115.739	0.084	-0.105
-649.799	18.202	-0.137	-0.111
-648.784	-28.904	-0.133	-0.078
-647.770	-97.617	-0.142	-0.038
-646.755	-200.000	0.052	-0.274
-645.741	-200.000	-0.039	0.281
-644.726	-200.000	0.009	0.276
-643.711	579.503	-0.202	-0.506
-642.697	-200.000	-0.041	-0.199
-641.682	-180.936	-0.131	0.003
-640.668	145.106	0.235	0.322
-639.653	379.460	-0.035	-0.072
-638.638	-54.528	0.189	0.087
-637.624	197.559	-0.168	0.261
-636.609	281.161	-0.039	0.071
-635.595	-200.000	-0.035	-0.229
-634.580	190.061	0.139	-0.213
-633.565	115.404	-0.147	-0.184
-632.551	-142.329	0.298	-0.030
-631.536	-150.016	-0.101	0.008
-630.522	-128.352	-0.328	-0.048
-629.507	-63.302	0.178	-0.075
-628.492	-57.420	-0.173	-0.078
-627.478	-122.049	-0.299	-0.050
-626.463	800.000	0.078	-0.277
-625.449	464.177	0.093	0.213
-624.434	800.000	0.043	-0.188
-623.419	-200.000	-0.016	-0.169
-622.405	-156.456	-0.242	0.015
-621.390	-21.154	-0.261	-0.163
-620.376	145.389	-0.197	0.269
-619.361	800.000	-0.157	0.457
-618.346	1.805	0.334	0.246
-617.332	800.000	0.048	-0.179
-616.317	20.590	-0.275	-0.227
-615.303	-106.748	-0.191	0.043
-614.288	-200.000	-0.010	0.178
-613.273	-40.424	0.138	-0.073
-612.259	412.949	-0.187	-0.407
-611.244	38.713	0.094	-0.086
-610.230	61.825	0.190	0.193
-609.215	187.557	-0.032	-0.049
-608.201	82.951	0.234	0.260
-607.186	-42.153	-0.194	-0.101
-606.171	185.953	-0.198	0.300
-605.157	800.000	0.043	-0.150
-604.142	83.817	0.036	0.040
-603.128	-29.540	-0.218	0.127
-602.113	501.686	-0.088	0.208
-601.098	-200.000	-0.068	0.350
-600.084	-49.205	0.120	-0.059
-599.069	353.975	0.109	-0.220
-598.055	661.147	0.118	-0.310
-597.040	-11.251	-0.306	0.205
-596.025	112.596	-0.112	-0.138
-595.011	5.016	0.228	0.171
-593.996	145.779	0.220	0.301
-592.982	-200.000	-0.002	-0.040
-591.967	-83.728	-0.062	0.020
-590.952	-192.505	0.263	-0.003
-589.938	681.275	-0.057	0.152
-588.923	-2.445	-0.162	0.116
-587.909	-133.093	0.358	-0.046
-586.894	111.004	0.071	-0.087
-585.879	-131.708	0.468	-0.063
-584.865	370.201	-0.087	-0.180
-583.850	73.512	0.094	-0.100
-582.836	-110.081	-0.423	-0.090
-581.821	147.004	-0.136	-0.187
-580.806	30.674	-0.168	-0.147
-579.792	-200.000	0.015	-0.230
-578.777	14.820	0.265	0.211
-577.763	-2.846	0.175	0.124
-576.748	-155.968	-0.199	-0.013
-575.733	8.243	0.220	-0.168
-574.719	111.787	0.027	-0.034
-573.704	356.572	-0.170	0.345
-572.690	173.393	0.208	0.305
-571.675	-200.000	-0.007	0.217
-570.661	-109.312	0.265	-0.057
-569.646	-128.103	0.278	-0.041
-568.631	-11.214	-0.178	-0.120
-567.617	15.022	-0.131	-0.104
-566.602	-48.419	0.037	-0.018
-565.588	511.135	0.076	-0.181
-564.573	189.173	0.079	-0.120
-563.558	298.864	0.061	0.114
-562.544	276.723	-0.099	0.179
-561.529	-141.769	-0.216	0.022
-560.515	-109.503	-0.396	0.085
-559.500	800.000	0.068	-0.244
-558.485	-200.000	0.060	-0.280
-557.471	77.956	-0.224	-0.244
-556.456	-21.531	0.403	-0.250
-555.442	82.176	0.259	-0.286
-554.427	800.000	-0.109	-0.411
-553.412	-86.260	0.131	0.041
-552.398	-200.000	0.002	0.108
-551.383	-87.799	-0.182	0.056
-550.369	621.866	0.150	-0.385
-549.354	-17.102	-0.228	-0.147
-548.339	64.993	-0.029	0.030
-547.325	-71.627	-0.201	0.076
-546.310	184.598	0.056	-0.085
-545.296	-47.582	0.234	0.116
-544.281	272.519	0.014	0.026
-543.266	-183.628	-0.163	-0.003
-542.252	-200.000	0.009	-0.323
-541.237	235.382	-0.051	-0.086
-540.223	10.744	-0.118	-0.092
-539.208	26.075	0.257	0.218
-538.193	800.000	0.031	-0.089
-537.179	800.000	0.080	-0.252
-536.164	-151.114	0.124	-0.009
-535.150	-200.000	0.014	-0.244
-534.135	-33.790	-0.061	-0.034
-533.121	-200.000	0.023	0.131
-532.106	690.617	0.047	-0.125
-531.091	774.757	0.075	0.208
-530.077	-200.000	0.032	-0.202
-529.062	800.000	-0.080	-0.258
-528.048	-200.000	0.029	0.165
-527.033	262.942	0.043	0.076
-526.018	673.146	-0.084	-0.222
-525.004	213.917	0.183	-0.295
-523.989	470.482	0.191	-0.437
-522.975	-143.752	0.310	-0.030
-521.960	-200.000	-0.048	0.357
-520.945	142.159	-0.079	-0.106
-519.931	-200.000	0.031	0.330
-518.916	64.896	0.073	0.075
-517.902	2.001	-0.124	-0.091
-516.887	9.791	-0.147	-0.114
-515.872	-200.000	0.000	-0.118
-514.858	92.419	-0.182	0.208
-513.843	-82.854	0.407	-0.134
-512.829	-98.523	0.484	0.126
-511.814	-200.000	0.013	-0.162
-510.799	-200.000	-0.062	0.393
-509.785	-139.003	-0.210	0.023
-508.770	28.968	-0.244	0.211
-507.756	-200.000	0.011	-0.174
-506.741	94.584	0.162	0.187
-505.726	-66.991	-0.025	-0.010
-504.712	-77.424	0.342	-0.121
-503.697	-200.000	0.015	0.079
-502.683	170.379	-0.107	0.156
-501.668	54.982	-0.068	0.067
-500.653	-200.000	0.012	-0.092
-499.639	-72.639	-0.298	-0.112
-498.624	-176.993	-0.336	0.009
-497.610	117.284	-0.103	0.129
-496.595	-31.702	0.147	0.084
-495.581	57.721	0.236	0.235
-494.566	-71.532	0.235	0.089
-493.551	-84.322	-0.348	-0.112
-492.537	-143.267	-0.239	-0.023
-491.522	-200.000	-0.001	-0.008
-490.508	464.420	0.060	0.137
-489.493	9.064	0.286	-0.220
-488.478	-110.620	0.253	0.053
-487.464	-20.507	0.314	-0.196
-486.449	85.188	0.138	0.154
-485.435	-92.987	0.076	-0.021
-484.420	-24.333	-0.131	-0.079
-483.405	-40.353	0.257	0.136
-482.391	-126.047	-0.327	-0.050
-481.376	-48.260	-0.094	-0.046
-480.362	24.152	-0.324	0.271
-479.347	-84.978	-0.229	0.073
-478.332	-200.000	0.012	-0.218
-477.318	176.353	0.244	-0.361
-476.303	-125.400	-0.364	0.056
-475.289	188.966	0.235	0.356
-474.274	325.280	-0.070	0.137
-473.259	-118.687	-0.291	-0.052
-472.245	-154.352	-0.224	0.015
-471.230	-200.000	-0.001	0.169
-470.216	172.764	0.396	0.579
-469.201	-72.403	0.122	0.046
-468.186	800.000	-0.067	0.286
-467.172	-147.917	-0.232	0.020
-466.157	-200.000	-0.001	-0.104
-465.143	-200.000	0.036	0.171
-464.128	-57.784	0.025	-0.011
-463.113	-105.665	-0.143	-0.033
-462.099	-132.947	-0.355	-0.046
-461.084	162.151	-0.153	-0.218
-460.070	110.848	0.174	-0.213
-459.055	-72.573	0.077	0.029
-458.040	99.159	0.202	0.237
-457.026	-200.000	0.001	-0.090
-456.011	-200.000	0.003	0.180
-454.997	102.978	-0.137	-0.162
-453.982	800.000	0.061	-0.215
-452.968	-78.900	-0.326	-0.113
-451.953	30.642	-0.415	-0.360
-450.938	-154.463	-0.123	0.008
-449.924	-200.000	0.075	-0.366
-448.909	800.000	0.033	-0.098
-447.895	800.000	0.049	0.171
-446.880	156.446	0.114	0.159
-445.865	800.000	-0.072	0.210
-444.851	-129.741	0.127	0.018
-443.836	32.541	-0.138	-0.121
-442.822	-164.125	0.127	0.006
-441.807	-112.324	-0.083	-0.017
-440.792	144.506	0.211	0.285
-439.778	-77.770	-0.484	0.170
-438.763	772.693	0.060	0.167
-437.749	629.067	0.041	-0.104
-436.734	75.157	0.047	0.050
-435.719	-200.000	-0.024	0.246
-434.705	227.261	-0.131	0.216
-433.690	177.472	-0.034	-0.050
-432.676	-200.000	0.037	0.319
-431.661	295.955	-0.077	0.142
-430.646	-94.149	-0.358	-0.099
-429.632	50.832	0.184	0.177
-428.617	-200.000	-0.002	0.038
-427.603	-57.083	-0.054	-0.024
-426.588	34.900	0.036	0.032
-425.573	-119.198	0.198	0.035
-424.559	87.786	-0.122	0.137
-423.544	-155.906	-0.189	-0.012
-422.530	-11.847	0.246	0.163
-421.515	-32.329	0.209	0.118
-420.500	-104.531	-0.200	-0.047
-419.486	-126.833	-0.263	0.039
-418.471	-200.000	0.077	0.383
-417.457	122.787	0.169	0.214
-416.442	-200.000	0.022	0.377
-415.428	-52.885	-0.181	0.084
-414.413	-76.293	0.211	-0.075
-413.398	-5.624	-0.107	-0.074
-412.384	524.847	-0.064	0.153
-411.369	-58.505	-0.246	-0.108
-410.355	-200.000	0.024	0.156
-409.340	-117.356	-0.134	-0.025
-408.325	8.269	-0.150	0.114
-407.311	58.900	0.092	0.091
-406.296	61.520	0.162	0.163
-405.282	525.538	0.074	-0.175
-404.267	59.652	0.139	0.139
-403.252	-39.901	-0.222	0.117
-402.238	95.202	-0.155	0.178
-401.223	26.364	0.190	0.161
-400.209	22.070	-0.269	-0.222
-399.194	-40.361	-0.235	-0.124
-398.179	394.548	-0.012	0.026
-397.165	497.014	0.018	-0.041
-396.150	-200.000	0.033	-0.203
-395.136	-200.000	0.009	-0.131
-394.121	800.000	-0.032	0.100
-393.106	-200.000	-0.024	-0.318
-392.092	-110.862	-0.061	0.013
-391.077	98.471	-0.159	0.186
-390.063	-34.108	-0.338	0.188
-389.048	40.453	0.097	-0.089
-388.033	144.725	0.069	0.093
-387.019	244.806	0.079	0.134
-386.004	-200.000	-0.011	-0.123
-384.990	-130.875	-0.120	0.016
-383.975	-185.967	0.376	-0.006
-382.960	-200.000	-0.006	-0.027
-381.946	-200.000	0.072	-0.450
-380.931	601.857	-0.047	-0.117
-379.917	463.956	-0.057	0.129
-378.902	-200.000	0.007	0.235
-377.888	800.000	0.148	0.426
-376.873	173.377	0.240	0.349
-375.858	-47.840	0.114	-0.056
-374.844	147.363	-0.181	0.247
-373.829	-200.000	-0.044	0.233
-372.815	800.000	-0.062	0.203
-371.800	-200.000	0.048	-0.280
-370.785	89.787	-0.156	-0.177
-369.771	107.924	-0.019	0.023
-368.756	-25.991	0.261	-0.155
-367.742	-106.827	0.165	-0.037
-366.727	-200.000	0.050	-0.285
-365.712	-8.860	0.278	-0.188
-364.698	-175.441	-0.096	0.003
-363.683	135.367	-0.294	-0.386
-362.669	170.027	-0.117	-0.168
-361.654	117.014	-0.192	0.238
-360.639	494.524	-0.067	-0.156
-359.625	317.642	-0.113	0.216
-358.610	717.243	0.078	-0.209
-357.596	-15.755	0.340	-0.219
-356.581	-200.000	-0.028	-0.173
-355.566	-102.687	0.442	-0.107
-354.552	-41.294	0.235	-0.122
-353.537	-76.458	-0.077	-0.027
-352.523	114.976	-0.081	0.099
-351.508	-26.524	0.246	-0.145
-350.493	-200.000	0.007	-0.031
-349.479	-15.329	-0.162	0.104
-348.464	-200.000	0.019	0.327
-347.450	-8.384	-0.154	-0.105
-346.435	-13.960	-0.276	0.180
-345.420	-86.523	0.373	-0.116
-344.406	800.000	-0.019	-0.064
-343.391	-70.093	-0.171	0.066
-342.377	463.111	-0.079	-0.178
-341.362	800.000	-0.069	0.235
-340.348	260.000	0.150	0.262
-339.333	124.550	-0.094	-0.120
-338.318	-9.033	0.285	-0.192
-337.304	14.781	0.351	0.277
-336.289	-6.613	0.155	-0.107
-335.275	23.867	-0.160	0.133
-334.260	-200.000	-0.049	-0.394
-333.245	23.951	0.095	0.079
-332.231	800.000	-0.051	0.165
-331.216	-24.728	0.150	0.090
-330.202	-18.084	-0.113	-0.072
-329.187	286.570	0.099	0.181
-328.172	-158.963	-0.419	0.024
-327.158	-85.536	0.236	0.074
-326.143	106.148	-0.298	0.356
-325.129	-93.333	0.296	0.083
-324.114	800.000	0.044	-0.157
-323.099	-176.249	-0.136	0.004
-322.085	-172.086	-0.206	-0.007
-321.070	116.303	-0.208	0.257
-320.056	-41.068	-0.133	-0.069
-319.041	-72.532	-0.069	0.026
-318.026	-65.354	0.140	-0.057
-317.012	-37.769	-0.183	-0.098
-315.997	-200.000	-0.032	0.230
-314.983	57.202	-0.233	-0.230
-313.968	55.681	0.176	0.172
-312.953	-200.000	0.004	0.136
-311.939	-200.000	0.031	-0.306
-310.924	205.150	-0.075	-0.118
-309.910	-76.646	0.506	0.179
-308.895	-200.000	0.017	-0.135
-307.880	800.000	0.075	0.239
-306.866	-200.000	-0.004	-0.146
-305.851	-104.186	-0.145	0.034
-304.837	-55.029	0.238	-0.108
-303.822	-200.000	0.023	0.168
-302.807	-113.118	0.044	0.009
-301.793	471.206	0.039	-0.088
-300.778	120.675	-0.088	0.111
-299.764	97.709	0.187	0.216
-298.749	320.446	-0.074	-0.141
-297.735	263.850	-0.036	-0.063
-296.720	800.000	0.082	-0.260
-295.705	800.000	-0.083	-0.353
-294.691	800.000	-0.014	-0.055
-293.676	-13.699	-0.112	0.073
-292.662	-38.463	0.568	-0.303
-291.647	-200.000	0.050	0.261
-290.632	658.264	0.123	0.318
-289.618	106.616	0.085	-0.101
-288.603	121.426	0.198	0.248
-287.589	800.000	-0.042	-0.141
-286.574	27.950	0.344	0.292
-285.559	135.217	0.067	-0.088
-284.545	199.690	-0.162	-0.250
-283.530	-76.629	0.219	-0.077
-282.516	-200.000	-0.014	0.127
-281.501	800.000	0.046	0.203
-280.486	-200.000	-0.002	-0.128
-279.472	800.000	-0.061	0.180
-278.457	20.300	-0.066	0.053
-277.443	-200.000	-0.013	-0.125
-276.428	-153.253	-0.177	-0.012
-275.413	-200.000	-0.037	0.328
-274.399	369.142	-0.237	0.483
-273.384	-145.216	0.178	-0.016
-272.370	-81.651	-0.352	-0.116
-271.355	45.124	-0.038	0.036
-270.340	390.304	-0.058	0.122
-269.326	-200.000	0.023	0.292
-268.311	216.595	-0.243	-0.390
-267.297	-12.219	0.305	-0.201
-266.282	-122.166	0.245	-0.040
-265.267	-200.000	0.014	0.168
-264.253	-171.452	-0.116	0.004
-263.238	-200.000	-0.020	-0.131
-262.224	172.778	0.136	-0.198
-261.209	-2.423	-0.194	0.137
-260.195	-102.222	0.359	-0.087
-259.180	24.626	-0.337	-0.281
-258.165	129.923	-0.232	-0.299
-257.151	-200.000	0.020	-0.367
-256.136	592.166	0.105	0.262
-255.122	-200.000	0.019	-0.171
-254.107	47.243	-0.096	0.090
-253.092	346.124	0.092	-0.181
-252.078	99.647	-0.162	-0.189
-251.063	-89.552	0.178	0.053
-250.049	-200.000	0.013	0.065
-249.034	-200.000	-0.030	-0.133
-248.019	-127.078	0.147	0.022
-247.005	-200.000	0.016	0.221
-245.990	104.815	-0.236	0.280
-244.976	17.034	-0.104	0.083
-243.961	35.901	-0.246	-0.218
-242.946	-6.768	-0.216	0.147
-241.932	-68.918	0.125	0.049
-240.917	-117.655	-0.281	0.051
-239.903	800.000	0.023	0.074
-238.888	-56.306	0.384	-0.172
-237.873	186.939	0.152	-0.228
-236.859	-89.208	0.132	-0.039
-235.844	-153.966	-0.072	0.005
-234.830	-200.000	-0.034	0.167
-233.815	-126.008	-0.095	0.014
-232.800	-200.000	0.006	-0.083
-231.786	97.787	-0.055	-0.064
-230.771	-200.000	0.017	-0.451
-229.757	198.628	0.138	-0.213
-228.742	-200.000	-0.031	0.000
-227.727	-200.000	0.012	-0.280
-226.713	-200.000	-0.050	0.239
-225.698	-200.000	0.019	0.172
-224.684	459.230	-0.153	-0.342
-223.669	97.413	-0.107	-0.123
-222.655	-65.937	0.173	-0.069
-221.640	109.920	-0.056	0.067
-220.625	-200.000	0.046	0.252
-219.611	570.382	-0.018	-0.044
-218.596	11.384	0.164	-0.126
-217.582	800.000	-0.021	0.071
-216.567	-82.583	-0.131	0.043
-215.552	159.900	-0.070	-0.098
-214.538	-200.000	0.018	0.090
-213.523	59.586	-0.160	-0.159
-212.509	36.206	0.114	0.101
-211.494	464.324	0.009	0.019
-210.479	-102.677	-0.052	-0.012
-209.465	-30.549	-0.155	-0.088
-208.450	-57.355	0.264	0.117
-207.436	-152.896	-0.018	-0.001
-206.421	232.125	0.111	-0.182
-205.406	-61.090	0.231	0.098
-204.392	-200.000	0.016	-0.094
-203.377	-100.671	0.168	-0.042
-202.363	41.888	0.154	-0.140
-201.348	184.344	-0.188	0.280
-200.333	-175.122	0.292	0.008
-199.319	800.000	0.023	0.088
-198.304	-74.645	-0.264	-0.095
-197.290	800.000	0.098	0.313
-196.275	-200.000	0.035	-0.473
-195.260	272.324	0.238	-0.421
-194.246	665.675	0.018	-0.048
-193.231	-92.654	0.433	0.122
-192.217	78.362	-0.094	-0.101
-191.202	170.010	-0.143	0.205
-190.187	-152.788	-0.169	-0.012
-189.173	-96.793	-0.415	-0.109
-188.158	-34.237	-0.383	-0.211
-187.144	-99.343	0.248	-0.063
-186.129	120.070	0.083	0.103
-185.114	481.526	-0.151	-0.344
-184.100	-107.046	0.100	0.022
-183.085	-200.000	-0.008	0.276
-182.071	-164.326	-0.204	-0.009
-181.056	-54.835	0.062	0.028
-180.042	15.562	0.254	0.200
-179.027	153.090	-0.052	0.071
-178.012	-98.137	-0.256	0.066
-176.998	-61.076	-0.161	0.068
-175.983	-200.000	-0.080	0.507
-174.969	37.475	0.112	0.100
-173.954	-7.860	-0.309	-0.209
-172.939	-6.188	0.117	-0.080
-171.925	203.405	0.150	-0.233
-170.910	-200.000	0.037	0.314
-169.896	-152.636	0.259	0.019
-168.881	-74.634	0.164	-0.059
-167.866	724.038	-0.079	-0.211
-166.852	-200.000	0.013	0.202
-165.837	-51.961	0.247	-0.115
-164.823	-120.583	0.170	-0.029
-163.808	800.000	0.013	0.058
-162.793	16.506	0.097	-0.077
-161.779	-4.984	0.281	0.194
-160.764	-200.000	-0.009	0.154
-159.750	800.000	0.073	-0.215
-158.735	463.436	-0.106	0.238
-157.720	-134.630	0.060	0.007
-156.706	-115.507	0.261	0.049
-155.691	-94.307	-0.178	0.049
-154.677	-200.000	0.004	-0.037
-153.662	47.005	-0.329	-0.307
-152.647	-8.234	0.167	0.113
-151.633	800.000	0.051	0.161
-150.618	800.000	0.065	-0.247
-149.604	4.512	0.225	0.165
-148.589	107.954	0.074	-0.089
-147.574	-176.878	0.054	-0.001
-146.560	-73.413	-0.161	-0.059
-145.545	24.830	-0.133	0.110
-144.531	20.268	0.180	0.146
-143.516	148.787	-0.214	0.291
-142.502	609.673	-0.044	-0.110
-141.487	-48.274	0.355	0.171
-140.472	54.244	-0.381	0.367
-139.458	-149.534	-0.234	0.019
-138.443	141.618	0.102	0.136
-137.429	26.329	-0.114	0.096
-136.414	80.358	0.056	0.061
-135.399	-54.838	0.085	0.039
-134.385	-135.332	-0.403	0.048
-133.370	800.000	0.102	0.398
-132.356	29.472	0.157	0.134
-131.341	-98.672	0.066	0.017
-130.326	50.445	0.085	0.080
-129.312	-200.000	-0.006	0.037
-128.297	268.906	-0.193	0.340
-127.283	-83.555	0.175	-0.056
-126.268	-93.611	0.126	0.035
-125.253	146.136	-0.160	0.214
-124.239	-149.614	0.286	0.023
-123.224	-82.574	0.268	0.087
-122.210	-200.000	0.012	0.207
-121.195	-96.216	0.183	0.048
