DTS Sentinel unit serial number:	SN413079Multiplexer serial number:	ORYXHardware model number:	OX4-SRSoftware version number:	ORYX F/W v4.00 Oryx Data Collector v3.7.2.0data status	okinstallation	princeton_trtdifferential loss correction	single-endedforward channel	channel 4reverse channel	N/Adate	2019/09/16time	18:33:35forward acquisition time	60.00reverse acquisition time	0.00gamma	496.2192k internal	0.2303k external	0.2303temperature offset calibration	0.9958default loss term (dB/km)	0.3790temperature slope calibration	1.0000multiplexer offset coefficient	1.0000multiplexer slope coefficient	1.0000fibre end	0.00T internal ref (°C)	36.50T ext. ref 1 (°C)	0.07T ext. ref 2 (°C)	29.94length (m)	temperature (°C)	Stokes	anti-Stokes-747.200	-120.796	0.294	-0.051
-746.185	-98.803	-0.386	0.100
-745.171	470.115	-0.024	0.056
-744.156	-117.623	-0.249	-0.046
-743.142	-19.555	0.432	-0.272
-742.127	124.906	0.154	0.198
-741.112	221.634	-0.149	-0.244
-740.098	-161.265	-0.285	-0.015
-739.083	-200.000	-0.015	-0.230
-738.069	-97.304	0.194	0.052
-737.054	-35.423	-0.108	-0.060
-736.039	-102.843	0.135	-0.033
-735.025	322.648	0.125	0.243
-734.010	41.165	-0.129	-0.119
-732.996	-108.058	-0.177	-0.039
-731.981	-200.000	0.276	-0.001
-730.966	62.557	0.176	0.179
-729.952	26.800	-0.229	0.196
-728.937	287.713	0.135	-0.248
-727.923	93.486	-0.084	-0.097
-726.908	69.287	-0.229	-0.240
-725.894	-200.000	-0.027	-0.135
-724.879	-147.574	-0.282	-0.024
-723.864	-3.386	-0.245	-0.174
-722.850	336.443	-0.097	0.192
-721.835	800.000	-0.089	0.364
-720.821	-200.000	-0.014	0.219
-719.806	-83.772	0.107	-0.035
-718.791	-63.508	-0.222	0.093
-717.777	-56.879	0.034	0.015
-716.762	-40.288	-0.187	-0.099
-715.748	499.423	-0.020	-0.046
-714.733	-144.838	-0.172	0.016
-713.718	-200.000	-0.074	-0.412
-712.704	-200.000	0.014	-0.250
-711.689	800.000	-0.033	0.125
-710.675	800.000	0.077	0.216
-709.660	117.340	0.080	0.100
-708.645	223.384	0.164	0.269
-707.631	509.517	0.145	0.343
-706.616	-64.224	-0.120	0.050
-705.602	326.288	0.101	-0.196
-704.587	-86.436	0.076	0.024
-703.572	-88.983	-0.073	0.022
-702.558	-16.445	0.131	-0.085
-701.543	119.801	0.289	-0.364
-700.529	-185.027	-0.194	-0.003
-699.514	-32.206	0.028	-0.016
-698.499	43.904	0.272	0.253
-697.485	-51.348	0.081	0.038
-696.470	-130.153	-0.363	0.050
-695.456	307.663	0.131	0.248
-694.441	294.107	0.159	0.295
-693.426	18.518	0.262	0.213
-692.412	-19.206	-0.031	0.020
-691.397	431.004	-0.236	-0.521
-690.383	-200.000	0.060	-0.314
-689.368	726.896	0.060	-0.163
-688.354	-94.083	-0.237	-0.066
-687.339	-130.677	-0.154	0.021
-686.324	-80.393	-0.401	0.136
-685.310	-113.450	0.132	-0.026
-684.295	800.000	0.025	-0.108
-683.281	-26.025	-0.109	-0.065
-682.266	-130.634	-0.313	-0.043
-681.251	-120.916	-0.226	0.039
-680.237	91.582	0.092	0.105
-679.222	181.701	0.058	0.087
-678.208	-200.000	0.021	-0.172
-677.193	-150.769	-0.280	-0.022
-676.178	37.464	-0.317	-0.285
-675.164	489.729	0.058	-0.134
-674.149	-57.248	0.302	-0.135
-673.135	1.495	-0.249	-0.182
-672.120	-160.994	0.245	0.013
-671.105	-79.237	-0.266	0.092
-670.091	423.209	-0.057	-0.125
-669.076	-200.000	-0.064	0.307
-668.062	-80.119	0.234	-0.080
-667.047	-94.671	-0.112	-0.031
-666.032	-123.934	-0.339	-0.054
-665.018	410.869	-0.065	-0.140
-664.003	18.831	-0.169	-0.138
-662.989	170.257	0.089	0.130
-661.974	-200.000	-0.045	-0.375
-660.959	-82.857	0.019	0.006
-659.945	-153.406	-0.158	-0.011
-658.930	661.056	-0.085	-0.222
-657.916	-200.000	-0.044	-0.237
-656.901	-123.426	-0.191	-0.031
-655.886	-84.700	-0.302	0.097
-654.872	209.608	0.068	-0.109
-653.857	-200.000	-0.010	0.113
-652.843	621.527	0.059	-0.151
-651.828	-91.395	-0.034	0.010
-650.814	299.882	-0.125	-0.233
-649.799	-77.368	0.198	-0.070
-648.784	59.921	-0.040	-0.040
-647.770	188.118	0.112	-0.170
-646.755	-155.291	0.143	-0.009
-645.741	-126.993	0.156	-0.023
-644.726	-200.000	0.004	-0.514
-643.711	800.000	0.028	0.116
-642.697	33.723	0.109	-0.096
-641.682	206.308	0.056	0.088
-640.668	-90.319	-0.122	0.036
-639.653	9.938	-0.348	0.268
-638.638	-55.372	-0.052	0.024
-637.624	-200.000	-0.029	-0.168
-636.609	-67.737	-0.144	-0.057
-635.595	-200.000	0.103	0.000
-634.580	221.983	-0.126	-0.205
-633.565	86.038	0.173	-0.193
-632.551	-200.000	0.009	-0.446
-631.536	-97.309	-0.153	0.041
-630.522	31.060	-0.148	0.129
-629.507	147.703	-0.076	-0.104
-628.492	494.314	-0.056	-0.129
-627.478	-85.321	-0.376	0.119
-626.463	-200.000	-0.029	-0.344
-625.449	-97.023	0.122	0.032
-624.434	-82.700	-0.376	-0.123
-623.419	-200.000	0.012	-0.119
-622.405	-116.932	0.099	0.018
-621.390	260.729	-0.154	-0.270
-620.376	-102.328	0.428	0.104
-619.361	612.732	0.092	0.233
-618.346	-200.000	0.008	-0.180
-617.332	164.736	-0.090	-0.129
-616.317	30.835	-0.065	-0.056
-615.303	32.920	-0.400	-0.351
-614.288	68.717	-0.231	-0.240
-613.273	800.000	-0.020	-0.077
-612.259	-161.545	-0.155	0.008
-611.244	-200.000	-0.034	0.176
-610.230	-175.093	-0.191	0.005
-609.215	-109.968	0.127	-0.027
-608.201	-56.115	-0.257	-0.116
-607.186	800.000	-0.057	0.184
-606.171	-120.756	0.083	0.014
-605.157	-200.000	0.009	0.052
-604.142	35.233	0.097	-0.086
-603.128	-81.608	0.304	0.101
-602.113	-200.000	-0.089	-0.000
-601.098	-200.000	-0.029	0.145
-600.084	629.835	-0.092	-0.236
-599.069	569.611	-0.081	0.200
-598.055	-200.000	0.052	-0.273
-597.040	-200.000	0.003	-0.101
-596.025	-81.706	-0.102	0.034
-595.011	141.800	-0.152	-0.204
-593.996	60.360	-0.295	-0.295
-592.982	-146.419	0.512	0.045
-591.967	237.982	0.028	0.047
-590.952	-132.764	-0.304	-0.039
-589.938	94.100	0.211	0.243
-588.923	38.054	-0.097	-0.087
-587.909	-200.000	0.022	0.198
-586.894	-53.718	-0.187	-0.087
-585.879	-91.941	-0.261	0.075
-584.865	-200.000	0.005	-0.134
-583.850	144.162	0.099	0.133
-582.836	-200.000	-0.024	-0.212
-581.821	-60.184	0.119	-0.051
-580.806	-29.033	0.088	0.051
-579.792	-20.913	0.092	-0.057
-578.777	-91.502	0.299	-0.086
-577.763	-90.307	-0.288	-0.085
-576.748	-127.223	0.210	-0.031
-575.733	-200.000	-0.043	-0.355
-574.719	-71.385	-0.411	-0.156
-573.704	162.216	-0.074	0.105
-572.690	13.111	0.178	0.140
-571.675	-200.000	0.000	0.130
-570.661	-200.000	-0.016	-0.163
-569.646	-200.000	-0.009	0.049
-568.631	-167.402	-0.117	-0.005
-567.617	781.111	-0.033	0.092
-566.602	-97.491	0.421	0.111
-565.588	-100.022	-0.157	-0.040
-564.573	-179.750	0.218	0.005
-563.558	-200.000	0.002	-0.224
-562.544	-85.405	-0.237	-0.075
-561.529	800.000	-0.065	-0.261
-560.515	49.450	0.087	-0.083
-559.500	14.985	0.064	0.051
-558.485	-87.299	-0.195	-0.060
-557.471	-122.597	0.186	0.030
-556.456	61.817	-0.086	0.087
-555.442	-59.858	0.073	0.032
-554.427	800.000	0.056	0.199
-553.412	-8.506	-0.100	0.068
-552.398	-200.000	-0.019	-0.448
-551.383	202.880	-0.130	-0.204
-550.369	-200.000	-0.017	0.252
-549.354	61.008	0.226	0.227
-548.339	-200.000	0.001	0.034
-547.325	-47.469	-0.369	0.181
-546.310	223.317	-0.041	-0.067
-545.296	446.716	0.061	0.135
-544.281	-200.000	-0.007	-0.260
-543.266	-200.000	0.021	0.276
-542.252	-193.476	0.273	0.002
-541.237	-137.668	-0.053	-0.006
-540.223	800.000	-0.082	-0.288
-539.208	-200.000	-0.021	0.101
-538.193	-200.000	0.049	-0.327
-537.179	-43.749	0.183	-0.093
-536.164	-74.936	0.188	-0.068
-535.150	-200.000	-0.004	0.082
-534.135	-97.617	-0.505	0.132
-533.121	-51.238	0.168	-0.079
-532.106	-194.029	0.247	-0.002
-531.091	3.015	0.231	0.170
-530.077	-158.380	-0.169	-0.010
-529.062	411.033	-0.099	-0.212
-528.048	110.633	-0.246	0.299
-527.033	-12.719	0.407	0.268
-526.018	-134.211	0.324	-0.040
-525.004	-91.920	-0.271	0.078
-523.989	-83.474	0.193	-0.062
-522.975	151.470	-0.084	0.116
-521.960	-146.860	0.174	0.015
-520.945	-77.097	-0.203	-0.071
-519.931	-34.288	-0.055	0.031
-518.916	205.423	-0.163	0.256
-517.902	-121.733	-0.305	-0.051
-516.887	-88.280	-0.252	-0.076
-515.872	403.434	-0.021	-0.044
-514.858	2.593	-0.256	0.188
-513.843	-35.035	-0.288	-0.158
-512.829	-93.511	0.364	-0.102
-511.814	-174.866	-0.261	-0.007
-510.799	-162.287	-0.331	0.017
-509.785	800.000	-0.007	-0.025
-508.770	409.151	-0.063	0.135
-507.756	-46.876	-0.309	-0.153
-506.741	661.943	0.084	0.220
-505.726	800.000	0.110	0.314
-504.712	87.250	0.055	0.062
-503.697	40.155	0.076	0.069
-502.683	-74.176	0.082	-0.030
-501.668	-3.028	-0.031	0.022
-500.653	41.444	0.278	0.254
-499.639	-29.090	-0.132	-0.076
-498.624	800.000	0.068	0.212
-497.610	148.952	0.183	-0.250
-496.595	-200.000	-0.013	0.150
-495.581	190.289	-0.212	0.321
-494.566	-200.000	0.000	-0.345
-493.551	-165.461	0.185	0.008
-492.537	120.439	-0.103	0.129
-491.522	23.605	0.120	0.100
-490.508	-200.000	0.011	-0.229
-489.493	-139.542	-0.212	0.023
-488.478	-103.220	0.610	0.145
-487.464	48.808	-0.057	0.054
-486.449	-88.294	-0.034	-0.010
-485.435	-49.366	0.099	0.048
-484.420	-162.084	0.203	0.010
-483.405	-60.209	-0.259	-0.111
-482.391	800.000	-0.084	0.292
-481.376	105.060	0.156	-0.186
-480.362	-200.000	0.008	0.076
-479.347	-200.000	-0.036	0.257
-478.332	169.105	0.197	-0.283
-477.318	-18.695	0.126	0.079
-476.303	662.447	-0.068	0.178
-475.289	215.791	-0.190	0.304
-474.274	-152.861	-0.297	-0.021
-473.259	89.365	0.093	0.105
-472.245	-128.921	0.476	-0.067
-471.230	-87.521	-0.287	-0.088
-470.216	-200.000	0.027	0.165
-469.201	104.872	0.171	-0.204
-468.186	-142.727	0.134	-0.013
-467.172	-200.000	-0.039	-0.374
-466.157	-105.889	-0.076	-0.017
-465.143	-179.550	-0.310	-0.007
-464.128	-119.294	-0.247	-0.043
-463.113	-38.943	0.110	-0.059
-462.099	463.869	-0.071	-0.160
-461.084	0.496	-0.347	-0.250
-460.070	157.815	-0.136	-0.190
-459.055	-134.953	0.205	-0.025
-458.040	-200.000	-0.081	0.424
-457.026	40.433	0.326	0.296
-456.011	-80.545	0.249	0.084
-454.997	-187.900	0.135	-0.002
-453.982	-200.000	0.007	-0.127
-452.968	-96.981	0.123	0.032
-451.953	800.000	0.067	-0.210
-450.938	313.611	-0.169	0.321
-449.924	-37.450	0.088	0.047
-448.909	-200.000	0.030	0.357
-447.895	453.924	-0.036	-0.080
-446.880	-200.000	0.426	-0.000
-445.865	-200.000	-0.039	0.292
-444.851	131.745	-0.130	-0.168
-443.836	159.896	0.219	-0.307
-442.822	-76.487	-0.145	-0.051
-441.807	188.821	0.184	-0.278
-440.792	549.337	0.100	-0.241
-439.778	-40.050	-0.327	0.172
-438.763	-55.965	-0.052	0.023
-437.749	800.000	-0.054	0.194
-436.734	-200.000	0.053	0.305
-435.719	-200.000	0.050	-0.242
-434.705	12.997	0.150	0.117
-433.690	-58.844	-0.106	0.046
-432.676	-20.597	-0.067	-0.042
-431.661	258.217	0.019	0.033
-430.646	-184.558	0.502	0.008
-429.632	-47.222	-0.273	0.134
-428.617	237.248	-0.137	0.229
-427.603	-127.916	0.386	-0.056
-426.588	-120.487	-0.221	-0.038
-425.573	-200.000	-0.019	0.257
-424.559	-87.216	0.260	-0.080
-423.544	-182.330	-0.058	0.001
-422.530	-37.626	-0.238	-0.128
-421.515	-23.506	0.139	0.084
-420.500	-200.000	-0.019	0.182
-419.486	-20.982	-0.067	-0.042
-418.471	85.793	0.095	0.105
-417.457	-144.688	0.210	0.019
-416.442	64.179	-0.146	-0.148
-415.428	-10.295	-0.088	-0.059
-414.413	800.000	0.019	-0.072
-413.398	110.200	-0.179	0.216
-412.384	-134.911	0.344	-0.042
-411.369	275.084	-0.043	-0.077
-410.355	-17.879	0.150	0.095
-409.340	800.000	-0.127	0.418
-408.325	-17.372	-0.211	0.134
-407.311	-200.000	-0.002	-0.075
-406.296	93.033	0.049	0.056
-405.282	-41.238	0.083	0.043
-404.267	94.445	-0.140	-0.160
-403.252	27.730	0.141	0.119
-402.238	-40.499	0.175	-0.091
-401.223	46.469	-0.034	-0.031
-400.209	-127.069	0.324	0.048
-399.194	800.000	0.091	-0.358
-398.179	-161.608	-0.547	-0.028
-397.165	800.000	0.071	0.268
-396.150	-83.227	-0.122	0.039
-395.136	-200.000	0.048	0.463
-394.121	-200.000	0.013	-0.384
-393.106	800.000	0.006	-0.019
-392.092	-183.083	0.092	0.002
-391.077	194.249	-0.125	0.190
-390.063	-172.375	-0.163	0.005
-389.048	800.000	0.075	0.229
-388.033	-73.282	0.354	0.130
-387.019	-121.574	-0.171	-0.028
-386.004	-200.000	0.012	-0.254
-384.990	-7.687	-0.133	0.090
-383.975	-123.007	0.231	0.037
-382.960	78.107	0.125	0.134
-381.946	-28.582	-0.247	-0.143
-380.931	161.031	0.114	0.160
-379.917	28.780	-0.130	0.111
-378.902	-130.401	0.120	-0.016
-377.888	34.684	0.147	0.129
-376.873	179.489	0.041	0.060
-375.858	-90.174	0.121	-0.035
-374.844	13.397	-0.045	0.035
-373.829	134.114	-0.020	0.026
-372.815	29.856	-0.284	-0.243
-371.800	-200.000	0.017	0.239
-370.785	-200.000	0.003	-0.053
-369.771	529.520	-0.065	-0.154
-368.756	-72.681	0.097	-0.036
-367.742	265.700	-0.067	0.118
-366.727	492.540	0.152	-0.349
-365.712	-81.568	-0.234	-0.077
-364.698	-36.497	-0.226	0.122
-363.683	140.762	-0.258	0.342
-362.669	-149.345	-0.153	0.012
-361.654	-138.219	-0.104	-0.012
-360.639	-77.906	0.084	-0.029
-359.625	30.760	0.207	-0.178
-358.610	-43.007	0.095	0.048
-357.596	156.012	-0.225	-0.311
-356.581	207.272	-0.106	0.167
-355.566	233.907	-0.058	0.096
-354.552	-33.832	0.284	0.157
-353.537	289.470	-0.127	0.230
-352.523	-27.683	0.195	0.114
-351.508	800.000	-0.052	0.176
-350.493	170.317	0.213	-0.306
-349.479	-200.000	-0.004	0.125
-348.464	-182.757	-0.071	-0.001
-347.450	-23.654	-0.275	0.165
-346.435	126.877	-0.170	-0.216
-345.420	-102.902	0.214	-0.051
-344.406	800.000	-0.040	-0.158
-343.391	-77.056	-0.075	-0.026
-342.377	800.000	-0.058	0.240
-341.362	800.000	0.075	0.229
-340.348	-28.007	0.145	-0.084
-339.333	-73.731	0.067	-0.024
-338.318	-169.091	0.144	0.005
-337.304	368.029	-0.058	-0.118
-336.289	-200.000	0.004	-0.234
-335.275	800.000	0.057	0.225
-334.260	-47.611	0.126	-0.061
-333.245	495.215	0.119	0.275
-332.231	-74.893	0.068	0.024
-331.216	130.212	-0.069	-0.089
-330.202	-86.242	0.010	0.003
-329.187	335.343	-0.143	0.277
-328.172	-36.499	0.222	-0.120
-327.158	-91.429	0.240	-0.069
-326.143	-94.700	-0.107	0.029
-325.129	426.362	-0.131	0.283
-324.114	23.210	-0.056	0.046
-323.099	106.303	-0.192	0.228
-322.085	800.000	0.029	-0.093
-321.070	-29.834	0.198	-0.113
-320.056	800.000	-0.018	-0.065
-319.041	-56.584	-0.114	-0.051
-318.026	800.000	-0.112	0.386
-317.012	800.000	0.052	0.147
-315.997	81.562	0.247	0.268
-314.983	606.151	-0.025	-0.062
-313.968	74.363	0.150	0.158
-312.953	-31.523	-0.125	0.071
-311.939	284.996	-0.108	-0.195
-310.924	159.272	-0.214	-0.298
-309.910	90.162	-0.186	0.208
-308.895	800.000	-0.042	0.119
-307.880	3.727	0.167	-0.122
-306.866	-200.000	-0.006	0.104
-305.851	-35.840	-0.194	-0.105
-304.837	-107.700	-0.126	-0.027
-303.822	-121.610	-0.198	0.033
-302.807	-12.250	0.147	-0.096
-301.793	-200.000	0.004	-0.077
-300.778	-200.000	0.006	0.088
-299.764	-38.474	0.266	0.141
-298.749	-200.000	0.025	0.162
-297.735	-200.000	-0.027	-0.132
-296.720	-39.412	-0.131	-0.069
-295.705	800.000	-0.060	-0.199
-294.691	-152.821	-0.255	0.018
-293.676	-128.997	-0.133	0.019
-292.662	54.277	0.066	-0.064
-291.647	-200.000	-0.005	0.107
-290.632	296.880	0.129	-0.237
-289.618	-143.889	-0.190	-0.018
-288.603	-24.993	0.194	-0.115
-287.589	800.000	-0.103	-0.296
-286.574	-200.000	-0.031	-0.197
-285.559	693.823	-0.050	-0.130
-284.545	103.127	-0.045	-0.053
-283.530	98.425	0.183	0.211
-282.516	-8.569	-0.159	-0.107
-281.501	149.483	0.239	-0.324
-280.486	-200.000	-0.023	0.263
-279.472	165.563	-0.080	0.114
-278.457	-200.000	0.032	0.508
-277.443	-200.000	0.015	0.272
-276.428	359.410	-0.138	-0.276
-275.413	-136.254	0.158	0.018
-274.399	74.345	0.054	-0.057
-273.384	-49.329	0.229	-0.109
-272.370	-11.608	0.182	-0.120
-271.355	188.204	-0.150	0.224
-270.340	-106.263	0.083	0.019
-269.326	-13.115	0.190	0.124
-268.311	-130.931	0.284	-0.038
-267.297	-46.876	-0.259	-0.126
-266.282	16.501	0.132	0.104
-265.267	68.303	-0.022	-0.023
-264.253	-165.365	-0.172	-0.008
-263.238	-200.000	-0.030	-0.174
-262.224	-4.065	0.117	0.081
-261.209	-200.000	-0.034	-0.169
-260.195	14.759	0.390	0.305
-259.180	-140.686	0.143	-0.015
-258.165	-106.512	0.339	0.076
-257.151	800.000	0.047	0.204
-256.136	-122.557	0.198	0.032
-255.122	24.503	0.174	-0.144
-254.107	495.573	-0.084	0.193
-253.092	-39.335	0.183	-0.096
-252.078	-47.797	-0.132	-0.064
-251.063	-82.427	0.126	0.041
-250.049	287.364	-0.087	-0.158
-249.034	-155.174	-0.447	-0.029
-248.019	689.749	0.187	-0.490
-247.005	77.787	0.095	0.101
-245.990	5.435	-0.117	-0.086
-244.976	261.060	-0.125	0.216
-243.961	42.457	0.246	0.223
-242.946	-200.000	-0.021	-0.097
-241.932	800.000	-0.074	-0.208
-240.917	-146.766	-0.257	0.022
-239.903	-125.445	-0.096	-0.015
-238.888	-200.000	-0.016	0.133
-237.873	-200.000	-0.038	-0.192
-236.859	275.994	0.029	-0.051
-235.844	-124.224	0.265	-0.041
-234.830	-139.008	-0.202	-0.022
-233.815	-200.000	0.085	0.445
-232.800	-140.532	-0.213	-0.022
-231.786	-44.713	-0.032	0.016
-230.771	800.000	0.094	-0.304
-229.757	230.624	0.054	0.088
-228.742	-32.257	0.182	-0.101
-227.727	112.984	-0.069	0.083
-226.713	800.000	0.027	-0.088
-225.698	-200.000	0.047	-0.212
-224.684	6.915	-0.281	-0.209
-223.669	800.000	-0.077	-0.274
-222.655	-200.000	0.003	0.148
-221.640	-200.000	0.010	-0.140
-220.625	-200.000	0.043	-0.233
-219.611	-34.388	-0.037	0.020
-218.596	107.028	0.146	0.173
-217.582	-95.591	0.379	0.101
-216.567	-89.795	0.063	-0.019
-215.552	157.578	0.091	-0.126
-214.538	-200.000	0.011	0.060
-213.523	258.783	-0.018	0.031
-212.509	547.017	0.111	-0.264
-211.494	787.181	0.042	-0.116
-210.479	-130.936	0.306	0.041
-209.465	204.289	0.055	0.086
-208.450	417.016	-0.144	0.307
-207.436	224.603	-0.079	0.128
-206.421	-4.000	-0.172	0.119
-205.406	-173.506	-0.217	-0.007
-204.392	-200.000	-0.003	0.195
-203.377	-78.752	0.158	-0.054
-202.363	115.254	-0.068	-0.083
-201.348	622.744	0.026	0.065
-200.333	-101.878	-0.039	-0.009
-199.319	-18.027	0.076	-0.048
-198.304	-200.000	0.042	0.482
-197.290	800.000	-0.079	0.239
-196.275	49.299	0.107	0.100
-195.260	71.151	-0.404	0.417
-194.246	-144.810	-0.181	0.017
-193.231	28.160	0.052	-0.044
-192.217	-52.644	0.064	0.030
-191.202	288.101	0.088	0.158
-190.187	42.680	-0.143	0.130
-189.173	131.599	-0.173	-0.221
-188.158	3.749	0.113	0.082
-187.144	800.000	-0.021	-0.065
-186.129	-56.263	-0.045	0.020
-185.114	-200.000	0.023	-0.248
-184.100	-45.243	0.278	-0.138
-183.085	-96.760	-0.267	-0.070
-182.071	524.276	0.090	-0.210
-181.056	-151.451	0.261	0.019
-180.042	44.426	0.138	0.126
-179.027	-17.195	-0.165	-0.104
-178.012	-200.000	-0.017	-0.161
-176.998	-62.311	0.129	0.054
-175.983	800.000	0.068	-0.245
-174.969	-200.000	0.015	0.210
-173.954	-88.507	-0.430	0.128
-172.939	-5.642	0.394	-0.269
-171.925	-5.700	-0.241	-0.164
-170.910	-136.978	0.144	0.016
-169.896	1.323	-0.146	-0.104
-168.881	-2.730	-0.091	-0.063
-167.866	-166.959	0.417	-0.017
-166.852	89.536	0.308	-0.343
-165.837	200.084	0.082	-0.125
-164.823	-144.475	-0.260	-0.024
-163.808	247.330	0.058	-0.098
-162.793	-161.715	0.131	-0.007
-161.779	-111.958	-0.085	-0.017
-160.764	674.068	-0.050	0.130
-159.750	500.874	-0.119	0.273
-158.735	800.000	0.096	0.379
-157.720	-98.743	0.323	0.082
-156.706	-167.106	-0.059	0.002
-155.691	140.866	0.337	-0.444
-154.677	-200.000	-0.038	-0.227
-153.662	-161.801	-0.253	0.013
-152.647	-74.283	-0.347	0.125
-151.633	123.788	-0.070	0.088
-150.618	-200.000	0.028	0.341
-149.604	-48.371	0.191	0.091
-148.589	-22.613	0.182	-0.110
-147.574	141.327	-0.043	-0.057
-146.560	63.239	0.262	-0.262
-145.545	-97.388	0.167	-0.043
-144.531	800.000	0.047	0.182
-143.516	-200.000	0.067	0.384
-142.502	71.196	0.129	-0.133
-141.487	800.000	0.024	-0.073
-140.472	-200.000	0.003	-0.136
-139.458	17.568	-0.259	-0.205
-138.443	-200.000	0.035	0.215
-137.429	66.192	0.137	0.138
-136.414	137.750	-0.084	-0.109
-135.399	800.000	0.058	0.175
-134.385	-200.000	0.062	0.422
-133.370	256.489	0.077	-0.131
-132.356	-71.398	-0.354	0.132
-131.341	126.912	-0.160	-0.202
-130.326	-200.000	-0.067	-0.426
-129.312	-61.737	-0.108	-0.045
-128.297	325.762	0.152	-0.290
-127.283	-200.000	0.013	0.224
-126.268	-200.000	-0.020	0.265
-125.253	-26.089	0.335	0.196
-124.239	800.000	-0.049	-0.177
-123.224	-40.084	0.347	-0.180
