DTS Sentinel unit serial number:	SN413079Multiplexer serial number:	ORYXHardware model number:	OX4-SRSoftware version number:	ORYX F/W v4.00 Oryx Data Collector v3.7.2.0data status	okinstallation	princeton_trtdifferential loss correction	single-endedforward channel	channel 4reverse channel	N/Adate	2019/09/14time	07:01:35forward acquisition time	60.00reverse acquisition time	0.00gamma	496.2192k internal	0.2323k external	0.2323temperature offset calibration	1.0137default loss term (dB/km)	0.3790temperature slope calibration	1.0000multiplexer offset coefficient	1.0000multiplexer slope coefficient	1.0000fibre end	0.00T internal ref (°C)	26.19T ext. ref 1 (°C)	3.41T ext. ref 2 (°C)	20.93length (m)	temperature (°C)	Stokes	anti-Stokes-747.200	-200.000	0.007	0.159
-746.185	-79.043	-0.142	0.049
-745.171	429.829	-0.052	0.114
-744.156	-80.050	0.235	-0.080
-743.142	-39.086	-0.068	0.036
-742.127	120.265	-0.207	0.259
-741.112	-39.880	-0.210	-0.111
-740.098	354.720	-0.290	-0.583
-739.083	-64.672	-0.180	-0.074
-738.069	64.650	-0.061	0.062
-737.054	313.311	-0.135	-0.256
-736.039	-99.197	-0.087	-0.022
-735.025	-200.000	0.119	0.547
-734.010	-25.364	0.042	-0.025
-732.996	-59.428	-0.220	-0.095
-731.981	-200.000	-0.007	-0.522
-730.966	-47.336	-0.321	-0.158
-729.952	144.766	0.079	0.107
-728.937	800.000	-0.104	0.403
-727.923	-200.000	-0.033	0.189
-726.908	318.274	0.108	0.206
-725.894	167.242	-0.024	0.035
-724.879	-200.000	-0.001	-0.037
-723.864	800.000	-0.101	-0.423
-722.850	800.000	-0.060	-0.207
-721.835	-14.630	0.119	-0.077
-720.821	237.383	0.161	0.269
-719.806	-59.536	-0.218	0.094
-718.791	407.697	-0.082	0.174
-717.777	800.000	0.045	0.153
-716.762	157.503	-0.148	-0.207
-715.748	65.232	0.080	0.082
-714.733	800.000	-0.076	-0.326
-713.718	533.059	-0.102	0.243
-712.704	-200.000	0.029	-0.167
-711.689	-80.686	-0.345	0.116
-710.675	-200.000	0.021	-0.285
-709.660	800.000	0.069	-0.267
-708.645	365.044	-0.133	-0.269
-707.631	216.475	-0.248	-0.398
-706.616	-122.048	0.367	0.061
-705.602	-93.174	0.117	0.033
-704.587	-200.000	0.032	-0.541
-703.572	18.622	-0.270	-0.218
-702.558	11.622	0.170	-0.132
-701.543	346.199	0.065	-0.128
-700.529	44.834	-0.192	-0.178
-699.514	745.053	-0.151	0.409
-698.499	-120.417	-0.214	0.037
-697.485	-45.186	-0.110	-0.055
-696.470	265.013	0.173	-0.304
-695.456	-118.331	-0.244	0.044
-694.441	55.110	0.149	0.145
-693.426	166.899	-0.151	-0.216
-692.412	130.042	0.262	-0.339
-691.397	2.362	0.274	-0.200
-690.383	108.218	0.122	-0.146
-689.368	-138.545	-0.352	0.039
-688.354	-1.020	-0.249	0.178
-687.339	-200.000	-0.001	-0.176
-686.324	14.612	-0.232	-0.183
-685.310	298.399	-0.079	-0.146
-684.295	175.769	-0.093	-0.136
-683.281	37.474	-0.159	0.142
-682.266	31.226	-0.298	-0.258
-681.251	-45.685	0.328	0.163
-680.237	-200.000	0.050	-0.362
-679.222	246.247	-0.239	-0.406
-678.208	-11.207	-0.283	-0.188
-677.193	800.000	-0.097	0.321
-676.178	132.592	0.059	-0.077
-675.164	-200.000	0.001	-0.078
-674.149	800.000	-0.053	-0.226
-673.135	-154.829	0.263	0.017
-672.120	-72.732	0.308	0.114
-671.105	-48.538	0.138	0.067
-670.091	165.158	-0.108	-0.154
-669.076	-96.158	0.192	-0.051
-668.062	728.843	-0.055	0.149
-667.047	196.892	-0.113	0.174
-666.032	262.589	-0.134	-0.234
-665.018	-105.224	0.317	-0.073
-664.003	-47.026	0.258	0.127
-662.989	8.670	0.230	-0.174
-661.974	264.887	-0.081	-0.141
-660.959	-8.607	0.426	0.288
-659.945	2.386	0.229	0.167
-658.930	-200.000	-0.028	-0.286
-657.916	567.710	-0.069	-0.168
-656.901	90.369	0.201	-0.226
-655.886	504.233	-0.060	0.140
-654.872	800.000	0.064	-0.178
-653.857	20.460	-0.161	0.131
-652.843	-97.069	-0.210	-0.055
-651.828	-51.966	0.203	-0.095
-650.814	247.997	-0.045	-0.077
-649.799	16.106	-0.125	-0.099
-648.784	105.781	0.136	-0.161
-647.770	219.596	-0.062	-0.099
-646.755	-105.757	0.140	0.032
-645.741	337.472	-0.116	-0.227
-644.726	430.754	-0.137	-0.299
-643.711	95.499	-0.232	-0.266
-642.697	-86.805	-0.298	0.091
-641.682	-13.172	-0.252	-0.164
-640.668	46.493	0.129	-0.121
-639.653	-118.381	-0.397	-0.071
-638.638	-94.402	-0.084	-0.023
-637.624	-131.622	-0.104	-0.014
-636.609	370.078	-0.111	-0.226
-635.595	151.223	-0.185	-0.253
-634.580	-30.602	-0.057	0.032
-633.565	18.223	-0.153	-0.123
-632.551	50.301	0.105	-0.099
-631.536	0.333	0.172	-0.123
-630.522	-66.403	-0.161	-0.064
-629.507	-70.658	-0.204	0.077
-628.492	800.000	-0.010	0.041
-627.478	-49.435	-0.268	-0.128
-626.463	800.000	-0.045	0.143
-625.449	-62.427	-0.334	-0.140
-624.434	14.264	-0.113	0.089
-623.419	624.096	-0.072	-0.183
-622.405	-104.677	-0.413	-0.096
-621.390	0.238	-0.015	-0.011
-620.376	501.112	-0.128	-0.297
-619.361	91.737	0.215	-0.243
-618.346	93.185	-0.066	0.075
-617.332	118.990	-0.202	0.251
-616.317	165.050	0.124	0.176
-615.303	204.994	-0.187	-0.291
-614.288	299.398	0.061	-0.113
-613.273	-14.719	0.316	0.204
-612.259	800.000	-0.130	-0.372
-611.244	69.854	-0.307	-0.318
-610.230	-200.000	0.049	-0.220
-609.215	-50.574	0.288	0.136
-608.201	-116.475	0.166	0.031
-607.186	-178.757	-0.158	0.004
-606.171	-147.363	0.197	-0.017
-605.157	48.195	0.218	0.205
-604.142	-65.533	0.081	0.032
-603.128	-200.000	0.001	-0.133
-602.113	-66.666	-0.313	-0.125
-601.098	-149.543	-0.253	-0.020
-600.084	-94.370	-0.215	-0.059
-599.069	131.723	0.012	0.015
-598.055	-103.625	0.355	0.084
-597.040	800.000	0.017	0.065
-596.025	800.000	0.085	0.330
-595.011	125.859	-0.202	0.256
-593.996	85.191	-0.027	0.030
-592.982	-102.978	0.292	0.069
-591.967	361.354	-0.058	-0.116
-590.952	-97.672	-0.218	0.057
-589.938	-113.167	-0.139	0.027
-588.923	348.286	0.062	-0.123
-587.909	1.495	-0.139	-0.100
-586.894	183.108	0.201	-0.298
-585.879	20.280	0.274	-0.222
-584.865	360.152	-0.069	0.139
-583.850	-200.000	-0.010	0.176
-582.836	-35.062	0.154	-0.084
-581.821	-49.553	0.158	0.075
-580.806	-11.519	-0.183	-0.121
-579.792	169.262	0.189	-0.270
-578.777	-26.256	0.123	-0.072
-577.763	-43.461	0.218	0.110
-576.748	-75.116	-0.054	-0.019
-575.733	46.503	0.272	-0.253
-574.719	200.973	-0.197	0.305
-573.704	123.325	0.163	0.205
-572.690	-62.555	0.188	-0.078
-571.675	-200.000	0.019	0.251
-570.661	13.005	-0.156	0.121
-569.646	52.695	-0.202	-0.193
-568.631	-47.605	-0.267	0.130
-567.617	-200.000	0.024	0.264
-566.602	-13.586	0.277	0.180
-565.588	-183.198	0.076	0.001
-564.573	-128.294	-0.353	-0.050
-563.558	356.272	0.082	0.164
-562.544	-36.355	0.171	0.092
-561.529	-112.612	-0.225	0.045
-560.515	800.000	-0.015	0.059
-559.500	800.000	-0.032	0.096
-558.485	-120.414	0.101	0.017
-557.471	104.084	0.192	-0.226
-556.456	136.459	0.123	0.161
-555.442	-200.000	0.007	0.129
-554.427	-3.251	0.234	0.164
-553.412	260.794	0.054	-0.093
-552.398	-24.588	-0.156	0.093
-551.383	-79.588	0.231	0.078
-550.369	800.000	-0.031	0.133
-549.354	-91.582	0.239	0.068
-548.339	61.503	0.051	-0.051
-547.325	-10.994	0.331	0.219
-546.310	-90.443	-0.192	0.056
-545.296	-62.411	-0.303	0.126
-544.281	-200.000	-0.063	0.464
-543.266	114.367	-0.088	-0.107
-542.252	-48.010	-0.463	0.224
-541.237	438.050	-0.066	-0.145
-540.223	-46.093	0.357	-0.176
-539.208	-200.000	-0.009	0.070
-538.193	-140.748	0.208	0.022
-537.179	-11.891	-0.151	0.099
-536.164	118.470	0.193	0.239
-535.150	-200.000	0.011	0.079
-534.135	-200.000	-0.004	0.311
-533.121	-94.890	-0.058	-0.016
-532.106	37.334	0.075	-0.067
-531.091	-110.979	0.025	0.005
-530.077	43.378	0.119	0.109
-529.062	94.191	0.177	-0.201
-528.048	-72.262	-0.406	-0.151
-527.033	-181.658	-0.352	-0.007
-526.018	238.234	0.079	-0.131
-525.004	103.543	0.267	-0.313
-523.989	-98.925	-0.266	-0.068
-522.975	800.000	-0.062	-0.185
-521.960	-69.353	0.293	0.112
-520.945	-90.117	-0.051	0.015
-519.931	-80.922	0.316	0.105
-518.916	-120.629	0.092	-0.016
-517.902	800.000	0.039	-0.127
-516.887	81.303	-0.026	-0.028
-515.872	-4.441	-0.293	0.203
-514.858	344.577	0.093	-0.182
-513.843	-90.424	-0.081	-0.023
-512.829	800.000	-0.138	0.438
-511.814	438.842	-0.091	0.199
-510.799	800.000	-0.065	-0.265
-509.785	-95.263	0.185	-0.050
-508.770	315.033	-0.153	0.289
-507.756	-1.948	-0.290	0.204
-506.741	-22.580	0.082	-0.049
-505.726	-200.000	-0.002	-0.212
-504.712	-125.320	-0.267	0.041
-503.697	191.818	-0.069	0.104
-502.683	3.226	-0.233	-0.170
-501.668	-172.413	0.356	0.011
-500.653	-26.608	0.094	0.055
-499.639	178.491	0.104	0.152
-498.624	530.091	0.136	-0.322
-497.610	800.000	0.057	-0.186
-496.595	198.607	0.078	-0.119
-495.581	-117.560	0.239	-0.043
-494.566	-200.000	0.039	-0.290
-493.551	-33.872	0.151	-0.083
-492.537	-200.000	0.011	0.140
-491.522	704.797	-0.065	-0.171
-490.508	800.000	0.154	0.462
-489.493	-5.232	-0.058	-0.040
-488.478	-7.771	0.128	-0.087
-487.464	-64.569	-0.090	-0.036
-486.449	-200.000	0.033	0.163
-485.435	-175.670	-0.184	0.005
-484.420	92.904	-0.108	0.122
-483.405	-84.810	0.458	0.144
-482.391	153.300	-0.197	0.269
-481.376	-118.209	0.050	-0.009
-480.362	292.619	0.070	-0.127
-479.347	-53.718	0.107	0.049
-478.332	-200.000	-0.048	-0.280
-477.318	-82.196	0.192	-0.063
-476.303	75.263	0.109	-0.115
-475.289	538.683	0.059	-0.140
-474.274	-191.389	0.147	0.001
-473.259	189.867	-0.116	-0.173
-472.245	-75.144	0.159	0.057
-471.230	-200.000	0.026	0.368
-470.216	176.171	0.128	-0.185
-469.201	-52.839	-0.081	0.037
-468.186	-116.448	0.071	0.013
-467.172	-115.236	0.382	0.072
-466.157	2.901	0.149	0.108
-465.143	-1.419	0.075	0.053
-464.128	101.998	-0.140	-0.163
-463.113	142.693	-0.170	-0.225
-462.099	-14.715	0.228	0.146
-461.084	194.791	-0.024	0.037
-460.070	-49.468	-0.166	-0.079
-459.055	200.647	0.158	-0.243
-458.040	-200.000	0.059	0.359
-457.026	336.458	-0.231	0.448
-456.011	-88.805	-0.263	0.078
-454.997	253.382	0.110	0.187
-453.982	-91.308	0.225	-0.064
-452.968	-19.999	-0.306	0.188
-451.953	279.327	0.087	0.154
-450.938	-200.000	0.004	-0.030
-449.924	800.000	-0.067	0.278
-448.909	800.000	-0.054	-0.163
-447.895	-119.275	0.082	0.014
-446.880	4.080	-0.395	-0.289
-445.865	196.315	-0.087	-0.132
-444.851	-24.080	0.246	0.147
-443.836	58.103	-0.136	0.133
-442.822	71.451	-0.108	0.112
-441.807	-150.940	-0.268	0.020
-440.792	-200.000	-0.047	-0.208
-439.778	114.259	-0.063	-0.077
-438.763	-107.543	0.201	-0.044
-437.749	161.772	-0.178	0.249
-436.734	-134.552	0.175	-0.021
-435.719	-200.000	0.055	0.260
-434.705	-118.211	0.183	0.033
-433.690	-200.000	-0.021	-0.118
-432.676	9.669	-0.230	-0.174
-431.661	119.267	0.126	-0.155
-430.646	-13.743	0.306	0.197
-429.632	60.367	0.186	0.184
-428.617	-200.000	-0.017	0.228
-427.603	800.000	-0.034	-0.113
-426.588	-118.032	0.237	0.042
-425.573	416.714	0.042	0.089
-424.559	2.549	0.411	0.297
-423.544	-109.647	0.091	0.019
-422.530	-70.584	0.252	0.095
-421.515	540.929	0.128	0.305
-420.500	-7.818	0.200	-0.134
-419.486	-115.684	-0.292	0.055
-418.471	78.710	-0.162	0.172
-417.457	367.450	0.151	0.303
-416.442	-42.451	0.126	0.064
-415.428	98.696	-0.217	0.249
-414.413	-30.251	-0.074	0.042
-413.398	1.718	0.260	-0.187
-412.384	-124.871	0.274	0.042
-411.369	-93.150	0.081	0.023
-410.355	-200.000	0.002	0.015
-409.340	24.136	-0.056	0.046
-408.325	-45.568	0.096	-0.047
-407.311	-1.039	0.265	0.187
-406.296	303.472	0.159	0.294
-405.282	360.680	-0.042	0.085
-404.267	-200.000	-0.045	-0.232
-403.252	-62.563	0.089	-0.037
-402.238	12.243	0.043	-0.033
-401.223	188.723	0.154	-0.230
-400.209	800.000	0.003	-0.011
-399.194	-144.557	0.037	0.003
-398.179	81.112	0.090	-0.097
-397.165	-125.880	-0.127	-0.019
-396.150	-137.362	-0.390	0.044
-395.136	433.153	-0.058	-0.126
-394.121	800.000	-0.043	-0.177
-393.106	-26.163	-0.051	-0.030
-392.092	-15.819	0.475	-0.301
-391.077	102.401	-0.135	-0.157
-390.063	50.883	0.124	-0.117
-389.048	113.989	0.184	0.223
-388.033	215.861	0.134	-0.211
-387.019	-19.924	0.253	0.156
-386.004	-200.000	-0.018	0.221
-384.990	-200.000	-0.005	-0.070
-383.975	-200.000	-0.049	-0.265
-382.960	800.000	-0.067	0.206
-381.946	618.757	-0.057	0.144
-380.931	25.650	0.162	-0.134
-379.917	196.568	-0.269	0.408
-378.902	-10.005	-0.141	0.094
-377.888	-13.204	-0.362	-0.234
-376.873	-38.004	-0.203	0.107
-375.858	-5.590	-0.214	0.146
-374.844	-53.872	-0.060	-0.027
-373.829	85.267	-0.060	-0.066
-372.815	800.000	-0.049	-0.186
-371.800	-170.368	0.240	-0.008
-370.785	-200.000	-0.025	-0.235
-369.771	-82.429	-0.144	-0.047
-368.756	800.000	0.050	-0.172
-367.742	800.000	0.047	0.178
-366.727	-200.000	-0.028	-0.238
-365.712	186.889	-0.122	0.180
-364.698	-126.716	-0.147	0.022
-363.683	-200.000	0.041	-0.244
-362.669	-156.799	0.317	0.019
-361.654	88.828	-0.041	-0.045
-360.639	110.857	0.160	0.192
-359.625	176.229	0.330	-0.477
-358.610	-146.420	0.235	-0.020
-357.596	-35.396	-0.149	0.081
-356.581	-22.902	-0.228	0.137
-355.566	-200.000	0.045	0.242
-354.552	311.919	-0.025	-0.046
-353.537	-200.000	0.026	0.198
-352.523	-0.883	-0.129	-0.091
-351.508	48.337	-0.036	0.034
-350.493	-90.018	0.093	0.027
-349.479	-200.000	-0.017	-0.198
-348.464	-200.000	-0.029	-0.245
-347.450	230.489	0.151	0.246
-346.435	99.000	0.048	-0.055
-345.420	647.806	-0.061	-0.155
-344.406	-200.000	0.043	0.281
-343.391	238.363	-0.122	0.202
-342.377	-192.740	-0.195	-0.002
-341.362	-153.334	0.155	0.011
-340.348	33.846	0.201	0.174
-339.333	-32.208	0.201	0.112
-338.318	800.000	0.097	-0.350
-337.304	-168.408	0.150	-0.006
-336.289	-200.000	0.017	0.151
-335.275	-106.235	-0.124	-0.028
-334.260	77.610	-0.223	-0.236
-333.245	-117.531	0.098	-0.018
-332.231	-94.658	0.271	0.073
-331.216	-67.881	0.041	0.016
-330.202	800.000	0.068	0.217
-329.187	167.454	0.028	0.039
-328.172	227.448	-0.114	0.184
-327.158	-134.806	0.175	0.021
-326.143	-31.982	0.149	-0.083
-325.129	556.597	-0.066	0.159
-324.114	388.253	0.084	0.173
-323.099	56.816	0.055	-0.053
-322.085	-24.646	-0.109	0.064
-321.070	12.800	-0.042	-0.032
-320.056	-200.000	-0.006	0.338
-319.041	-200.000	-0.039	-0.221
-318.026	211.906	-0.158	-0.247
-317.012	800.000	0.070	-0.243
-315.997	-49.588	-0.088	0.042
-314.983	-31.199	-0.006	0.003
-313.968	-12.299	0.330	-0.214
-312.953	306.882	-0.117	-0.216
-311.939	-88.502	-0.269	-0.080
-310.924	291.915	0.150	0.272
-309.910	-88.997	-0.225	0.066
-308.895	46.731	-0.234	0.215
-307.880	-12.906	0.249	0.161
-306.866	-144.361	-0.279	0.026
-305.851	-144.383	-0.558	0.051
-304.837	-200.000	-0.086	-0.415
-303.822	76.883	0.112	-0.118
-302.807	800.000	0.066	-0.288
-301.793	32.851	-0.104	-0.089
-300.778	135.891	0.169	-0.218
-299.764	-200.000	0.002	-0.162
-298.749	-200.000	0.060	-0.307
-297.735	217.372	-0.159	-0.252
-296.720	800.000	0.045	0.190
-295.705	-129.155	-0.025	-0.003
-294.691	-161.097	0.361	0.019
-293.676	-200.000	-0.010	0.085
-292.662	242.252	0.089	0.148
-291.647	-81.889	-0.026	0.008
-290.632	118.354	0.213	-0.261
-289.618	-73.138	-0.181	-0.066
-288.603	-59.003	-0.290	-0.124
-287.589	-102.168	0.267	0.064
-286.574	-36.945	-0.254	-0.135
-285.559	133.025	-0.284	-0.363
-284.545	-177.086	0.159	-0.004
-283.530	-2.278	0.120	0.083
-282.516	307.995	0.082	0.152
-281.501	800.000	-0.050	-0.182
-280.486	188.859	-0.113	0.167
-279.472	-200.000	-0.017	0.106
-278.457	-1.000	0.379	-0.266
-277.443	-131.633	-0.200	0.026
-276.428	503.500	0.047	-0.108
-275.413	217.499	-0.011	-0.017
-274.399	800.000	0.072	0.265
-273.384	-102.391	0.118	-0.028
-272.370	-200.000	-0.023	0.142
-271.355	-115.572	-0.151	-0.028
-270.340	-198.922	-0.098	-0.001
-269.326	-135.170	0.223	0.027
-268.311	-128.648	0.340	-0.048
-267.297	-200.000	-0.006	0.213
-266.282	32.922	-0.050	-0.043
-265.267	1.632	-0.189	-0.135
-264.253	-103.021	0.097	-0.023
-263.238	351.420	-0.051	0.101
-262.224	-200.000	0.046	0.234
-261.209	30.412	0.064	0.054
-260.195	-158.240	-0.250	0.014
-259.180	-200.000	0.030	0.162
-258.165	7.013	-0.189	-0.139
-257.151	-74.968	-0.209	0.074
-256.136	396.853	-0.147	0.303
-255.122	-109.619	0.288	-0.060
-254.107	-61.386	-0.391	0.163
-253.092	-142.907	-0.299	0.029
-252.078	83.531	0.163	0.176
-251.063	-200.000	0.020	-0.127
-250.049	-200.000	-0.022	0.102
-249.034	800.000	-0.050	-0.163
-248.019	-158.653	-0.106	-0.006
-247.005	-200.000	0.003	0.042
-245.990	-200.000	0.004	-0.047
-244.976	1.194	0.234	-0.166
-243.961	33.969	-0.156	-0.134
-242.946	-121.821	-0.260	0.042
-241.932	-140.487	-0.137	0.014
-240.917	86.992	-0.197	0.215
-239.903	-115.134	-0.323	0.061
-238.888	800.000	0.090	0.345
-237.873	185.454	-0.096	0.141
-236.859	-157.287	0.423	-0.025
-235.844	-177.171	-0.213	0.005
-234.830	20.595	0.195	-0.156
-233.815	370.490	-0.075	-0.151
-232.800	800.000	0.069	0.205
-231.786	-200.000	0.095	-0.461
-230.771	-61.369	0.065	-0.027
-229.757	296.219	-0.070	-0.127
-228.742	162.052	0.192	0.267
-227.727	274.716	-0.204	0.357
-226.713	800.000	-0.090	-0.294
-225.698	-116.446	0.209	0.038
-224.684	436.573	0.062	0.133
-223.669	106.387	0.112	-0.132
-222.655	20.799	0.332	-0.266
-221.640	58.768	0.176	-0.171
-220.625	27.074	-0.091	0.076
-219.611	-44.153	0.184	0.092
-218.596	-200.000	0.016	-0.169
-217.582	-200.000	-0.022	-0.205
-216.567	17.898	-0.174	0.137
-215.552	339.119	0.065	-0.125
-214.538	-31.723	-0.218	0.121
-213.523	-200.000	-0.028	0.244
-212.509	313.371	-0.105	-0.195
-211.494	0.988	0.161	0.114
-210.479	-22.359	0.103	-0.062
-209.465	800.000	0.061	0.185
-208.450	42.922	-0.124	0.112
-207.436	113.074	0.131	0.157
-206.421	-59.465	0.251	0.106
-205.406	-127.868	-0.221	0.031
-204.392	800.000	0.104	0.439
-203.377	7.529	0.149	-0.110
-202.363	38.248	-0.257	0.226
-201.348	-200.000	0.046	-0.202
-200.333	-200.000	-0.021	-0.304
-199.319	-200.000	-0.029	-0.153
-198.304	-200.000	0.026	0.195
-197.290	-200.000	-0.022	-0.124
-196.275	-77.663	0.201	-0.069
-195.260	103.727	0.073	0.084
-194.246	-125.099	-0.343	0.052
-193.231	12.187	0.177	-0.135
-192.217	-75.728	-0.190	0.067
-191.202	-80.830	0.213	-0.070
-190.187	-28.721	0.341	-0.194
-189.173	800.000	-0.024	0.078
-188.158	-200.000	-0.288	-0.000
-187.144	800.000	-0.020	-0.066
-186.129	36.393	-0.095	0.083
-185.114	54.088	0.045	-0.043
-184.100	-22.637	-0.095	-0.057
-183.085	-75.646	-0.282	0.099
-182.071	56.699	-0.149	-0.143
-181.056	-200.000	0.013	-0.221
-180.042	-116.624	0.373	-0.068
-179.027	546.098	0.123	0.290
-178.012	186.556	-0.128	-0.188
-176.998	72.274	0.092	-0.095
-175.983	-17.000	0.395	0.246
-174.969	-133.617	-0.397	0.049
-173.954	-157.175	-0.346	-0.021
-172.939	-13.026	0.179	-0.115
-171.925	-89.897	-0.406	0.117
-170.910	-195.809	0.117	-0.001
-169.896	353.626	-0.175	-0.344
-168.881	-169.348	-0.129	-0.005
-167.866	-6.249	-0.317	-0.214
-166.852	-96.293	-0.207	0.054
-165.837	-50.633	0.236	-0.110
-164.823	-45.480	-0.187	0.092
-163.808	25.441	0.270	-0.222
-162.793	-23.367	-0.064	0.038
-161.779	545.500	-0.083	0.195
-160.764	144.473	-0.065	-0.086
-159.750	297.948	-0.168	0.305
-158.735	15.135	0.145	0.112
-157.720	-200.000	-0.028	-0.261
-156.706	-98.439	-0.118	-0.030
-155.691	-35.142	0.143	-0.077
-154.677	-155.884	0.110	-0.007
-153.662	-200.000	-0.027	0.117
-152.647	26.930	-0.048	0.040
-151.633	-55.843	0.231	-0.102
-150.618	31.489	0.146	0.123
-149.604	-200.000	-0.035	0.209
-148.589	-67.630	-0.385	0.149
-147.574	115.741	0.198	-0.239
-146.560	-97.191	-0.368	0.095
-145.545	21.789	-0.044	-0.035
-144.531	619.086	0.067	0.167
-143.516	800.000	-0.057	-0.187
-142.502	-200.000	-0.022	0.140
-141.487	153.600	0.121	0.163
-140.472	38.013	-0.153	0.134
-139.458	398.187	-0.077	0.158
-138.443	-78.016	0.266	0.090
-137.429	105.396	-0.114	-0.132
-136.414	-200.000	-0.002	-0.231
-135.399	144.913	-0.068	-0.090
-134.385	-7.703	-0.251	0.167
-133.370	-92.232	0.180	0.050
-132.356	-200.000	0.004	0.365
-131.341	-11.763	0.232	-0.150
-130.326	210.954	0.166	-0.257
-129.312	-200.000	0.023	0.403
-128.297	59.379	-0.416	0.404
-127.283	134.102	-0.020	-0.025
-126.268	-91.538	0.240	-0.067
-125.253	-15.208	-0.144	-0.091
-124.239	-200.000	0.058	-0.448
-123.224	-200.000	0.016	0.175
-122.210	-69.138	-0.152	-0.058
-121.195	800.000	0.086	0.274
