DTS Sentinel unit serial number:	SN413079Multiplexer serial number:	ORYXHardware model number:	OX4-SRSoftware version number:	ORYX F/W v4.00 Oryx Data Collector v3.7.2.0data status	okinstallation	princeton_trtdifferential loss correction	single-endedforward channel	channel 4reverse channel	N/Adate	2019/09/16time	02:37:35forward acquisition time	60.00reverse acquisition time	0.00gamma	496.2192k internal	0.2320k external	0.2320temperature offset calibration	0.9975default loss term (dB/km)	0.3790temperature slope calibration	1.0000multiplexer offset coefficient	1.0000multiplexer slope coefficient	1.0000fibre end	0.00T internal ref (°C)	27.69T ext. ref 1 (°C)	10.30T ext. ref 2 (°C)	22.48length (m)	temperature (°C)	Stokes	anti-Stokes-747.200	800.000	-0.040	0.120
-746.185	230.664	-0.250	-0.414
-745.171	-200.000	0.007	0.098
-744.156	217.167	-0.220	0.354
-743.142	-141.050	0.209	-0.022
-742.127	245.786	-0.164	0.280
-741.112	69.399	-0.102	0.106
-740.098	-89.104	-0.126	0.038
-739.083	487.381	-0.054	0.124
-738.069	690.868	-0.118	0.313
-737.054	-8.189	-0.115	0.078
-736.039	18.089	-0.230	0.186
-735.025	373.519	-0.061	0.126
-734.010	-200.000	-0.054	-0.368
-732.996	80.470	-0.138	-0.150
-731.981	-200.000	-0.037	-0.184
-730.966	-40.845	0.059	0.031
-729.952	573.374	-0.095	0.234
-728.937	-121.218	-0.292	0.049
-727.923	599.778	-0.089	-0.224
-726.908	-200.000	0.015	-0.096
-725.894	-200.000	0.040	-0.234
-724.879	-5.523	-0.156	0.108
-723.864	-24.082	0.150	0.091
-722.850	-46.217	-0.331	-0.164
-721.835	27.748	0.181	-0.154
-720.821	189.128	-0.095	-0.143
-719.806	-161.740	-0.094	-0.005
-718.791	-94.545	0.189	0.052
-717.777	63.820	-0.075	0.077
-716.762	134.865	-0.102	-0.134
-715.748	143.363	-0.101	-0.135
-714.733	277.886	0.079	0.141
-713.718	-200.000	0.093	-0.438
-712.704	-185.678	-0.379	0.006
-711.689	-48.824	0.346	-0.167
-710.675	-119.007	0.134	0.024
-709.660	-3.331	0.195	0.137
-708.645	4.584	0.224	-0.166
-707.631	-54.095	0.312	-0.143
-706.616	34.408	-0.283	-0.250
-705.602	-83.922	0.246	-0.079
-704.587	63.511	-0.080	0.081
-703.572	-74.152	0.397	0.145
-702.558	-70.303	-0.176	-0.067
-701.543	110.344	-0.262	-0.318
-700.529	103.854	-0.083	-0.099
-699.514	112.030	-0.190	0.232
-698.499	800.000	-0.118	-0.478
-697.485	116.090	-0.080	-0.099
-696.470	-138.719	0.179	0.020
-695.456	-163.676	0.279	0.013
-694.441	-139.671	0.160	0.017
-693.426	-25.485	0.297	-0.177
-692.412	-122.062	-0.218	0.036
-691.397	249.221	0.176	-0.301
-690.383	626.616	-0.134	-0.341
-689.368	-92.820	-0.040	0.011
-688.354	-200.000	-0.026	-0.268
-687.339	662.476	-0.031	0.081
-686.324	-200.000	0.002	-0.080
-685.310	-19.699	-0.380	-0.237
-684.295	223.269	0.090	-0.146
-683.281	800.000	-0.165	-0.460
-682.266	126.077	-0.080	0.102
-681.251	-151.671	0.290	0.022
-680.237	-200.000	-0.012	0.090
-679.222	-200.000	0.028	-0.135
-678.208	-3.910	-0.140	0.098
-677.193	-71.552	-0.188	0.071
-676.178	-104.547	0.234	0.055
-675.164	-23.483	-0.144	-0.087
-674.149	-200.000	0.008	0.223
-673.135	-76.064	0.231	-0.082
-672.120	21.745	-0.010	-0.008
-671.105	-102.580	-0.123	-0.030
-670.091	-55.350	-0.288	-0.130
-669.076	61.387	-0.044	0.044
-668.062	-200.000	-0.012	-0.237
-667.047	-34.506	0.064	0.035
-666.032	150.406	-0.146	0.200
-665.018	-43.505	-0.291	-0.148
-664.003	-200.000	0.024	0.215
-662.989	199.856	-0.040	-0.062
-661.974	378.243	0.094	-0.194
-660.959	-200.000	-0.018	0.112
-659.945	113.937	-0.145	-0.177
-658.930	-53.877	-0.106	0.049
-657.916	-40.121	-0.186	0.098
-656.901	-64.133	0.287	0.118
-655.886	800.000	-0.107	0.303
-654.872	-44.221	-0.199	-0.101
-653.857	106.932	0.214	-0.256
-652.843	56.204	0.098	0.096
-651.828	150.071	-0.048	-0.065
-650.814	81.121	-0.178	0.194
-649.799	-84.201	0.128	-0.041
-648.784	-9.284	0.224	-0.151
-647.770	350.135	0.082	0.163
-646.755	-92.476	-0.048	0.014
-645.741	800.000	0.077	0.275
-644.726	-67.143	-0.167	-0.066
-643.711	112.178	-0.213	-0.259
-642.697	129.913	-0.148	0.190
-641.682	234.081	-0.067	0.112
-640.668	34.142	-0.202	0.177
-639.653	-2.951	-0.090	0.064
-638.638	420.998	0.044	-0.094
-637.624	-24.869	-0.227	0.136
-636.609	-12.461	-0.012	0.008
-635.595	-89.186	0.281	-0.084
-634.580	-45.632	0.246	0.122
-633.565	387.485	-0.071	0.149
-632.551	27.845	0.293	0.248
-631.536	-52.765	-0.087	0.040
-630.522	207.914	0.171	-0.270
-629.507	12.523	0.100	-0.077
-628.492	800.000	0.047	-0.178
-627.478	47.710	-0.144	-0.135
-626.463	-170.274	-0.194	0.007
-625.449	67.608	0.235	-0.242
-624.434	516.048	-0.026	0.061
-623.419	800.000	-0.018	-0.070
-622.405	234.741	0.192	-0.319
-621.390	-33.210	0.202	-0.113
-620.376	80.006	0.196	-0.212
-619.361	-200.000	0.003	-0.074
-618.346	-61.179	-0.289	-0.123
-617.332	-107.665	-0.179	0.039
-616.317	-83.007	-0.284	-0.092
-615.303	85.901	0.142	0.157
-614.288	89.158	0.103	-0.116
-613.273	523.468	0.109	-0.257
-612.259	-200.000	-0.037	-0.324
-611.244	-163.243	-0.283	-0.014
-610.230	177.378	-0.090	0.132
-609.215	-159.730	-0.137	-0.008
-608.201	292.730	-0.137	-0.252
-607.186	-79.302	0.385	-0.131
-606.171	-11.736	-0.090	-0.059
-605.157	-49.831	-0.060	0.029
-604.142	-58.955	0.188	-0.082
-603.128	800.000	0.103	0.323
-602.113	-102.605	0.248	0.060
-601.098	-200.000	-0.055	-0.444
-600.084	-172.753	0.553	0.017
-599.069	800.000	-0.022	0.079
-598.055	108.213	0.074	0.089
-597.040	82.755	0.170	0.186
-596.025	127.723	-0.183	0.234
-595.011	-200.000	0.064	-0.330
-593.996	-29.537	0.159	-0.091
-592.982	47.072	-0.091	0.086
-591.967	-127.622	-0.295	0.043
-590.952	-27.353	0.146	0.085
-589.938	458.702	-0.021	0.048
-588.923	-9.239	0.206	0.138
-587.909	-200.000	0.010	-0.052
-586.894	-200.000	0.052	-0.405
-585.879	-200.000	0.007	-0.110
-584.865	297.047	-0.137	-0.252
-583.850	431.918	-0.184	-0.400
-582.836	-78.295	0.199	-0.069
-581.821	221.335	0.093	0.150
-580.806	-64.794	-0.254	0.103
-579.792	63.983	-0.071	-0.072
-578.777	24.868	0.211	0.175
-577.763	-0.649	-0.126	-0.090
-576.748	-89.752	-0.121	0.036
-575.733	800.000	0.024	-0.093
-574.719	63.981	-0.147	0.148
-573.704	124.100	0.183	0.230
-572.690	-162.744	-0.193	0.009
-571.675	-147.333	0.096	0.008
-570.661	-58.939	0.247	0.107
-569.646	800.000	-0.043	0.134
-568.631	-54.270	-0.220	-0.100
-567.617	-73.220	-0.387	0.143
-566.602	-200.000	0.008	-0.243
-565.588	-51.104	-0.056	0.026
-564.573	-174.963	-0.096	-0.003
-563.558	-11.779	0.091	-0.060
-562.544	114.791	0.068	0.084
-561.529	59.908	0.108	0.107
-560.515	-58.616	-0.074	-0.032
-559.500	-200.000	-0.028	-0.407
-558.485	-160.458	0.234	0.013
-557.471	61.880	0.118	-0.118
-556.456	108.303	-0.095	0.114
-555.442	392.854	0.082	0.171
-554.427	-80.977	0.192	-0.064
-553.412	167.330	0.179	-0.255
-552.398	-82.994	-0.174	-0.056
-551.383	-200.000	0.013	0.146
-550.369	-85.683	0.025	-0.008
-549.354	-159.857	-0.233	-0.013
-548.339	-138.068	0.349	0.039
-547.325	800.000	-0.094	-0.287
-546.310	800.000	0.069	-0.290
-545.296	455.212	-0.075	0.167
-544.281	-152.033	-0.040	0.003
-543.266	-200.000	0.010	0.095
-542.252	800.000	0.079	0.298
-541.237	-115.610	0.117	0.022
-540.223	-101.913	-0.202	0.049
-539.208	-14.790	-0.088	-0.057
-538.193	290.460	0.081	-0.148
-537.179	800.000	0.017	-0.058
-536.164	154.784	0.102	0.141
-535.150	-30.860	-0.094	0.053
-534.135	34.553	0.193	0.169
-533.121	64.820	0.156	0.158
-532.106	-85.260	-0.181	-0.057
-531.091	-0.877	-0.199	-0.141
-530.077	175.527	0.044	0.064
-529.062	41.419	0.136	0.124
-528.048	163.642	0.158	0.223
-527.033	-83.434	-0.191	0.061
-526.018	-166.880	-0.324	-0.013
-525.004	-200.000	-0.011	0.070
-523.989	-52.305	-0.265	0.123
-522.975	-200.000	-0.027	0.199
-521.960	704.471	0.125	-0.329
-520.945	-54.518	0.244	0.111
-519.931	23.763	-0.161	-0.133
-518.916	-200.000	-0.102	-0.518
-517.902	-40.904	-0.068	0.035
-516.887	161.829	-0.119	0.166
-515.872	-18.777	0.137	-0.086
-514.858	-10.580	-0.243	0.161
-513.843	-7.301	-0.442	0.300
-512.829	726.817	0.020	-0.054
-511.814	-10.669	0.168	-0.111
-510.799	-142.070	-0.101	-0.010
-509.785	63.340	0.238	-0.239
-508.770	-200.000	0.066	-0.397
-507.756	-57.035	-0.239	-0.106
-506.741	227.194	-0.150	0.245
-505.726	19.136	-0.134	0.107
-504.712	22.589	0.143	0.117
-503.697	25.169	-0.131	-0.109
-502.683	800.000	0.079	0.247
-501.668	800.000	-0.097	-0.277
-500.653	-49.986	0.187	-0.089
-499.639	-200.000	0.004	0.312
-498.624	-200.000	-0.020	-0.165
-497.610	321.353	-0.067	-0.128
-496.595	-200.000	-0.026	-0.250
-495.581	-75.778	-0.354	-0.126
-494.566	2.193	0.324	0.234
-493.551	247.716	-0.075	0.126
-492.537	-200.000	0.003	-0.051
-491.522	-162.434	0.125	0.006
-490.508	-124.761	0.450	0.070
-489.493	800.000	0.171	0.476
-488.478	-51.072	-0.272	-0.128
-487.464	110.658	-0.237	-0.285
-486.449	800.000	0.099	-0.338
-485.435	4.619	-0.403	-0.296
-484.420	-55.068	-0.278	0.125
-483.405	-200.000	-0.068	-0.314
-482.391	62.769	-0.200	0.200
-481.376	800.000	-0.001	0.002
-480.362	-200.000	0.017	-0.128
-479.347	-107.081	-0.262	0.058
-478.332	56.479	0.254	-0.247
-477.318	800.000	0.167	0.471
-476.303	49.538	-0.078	0.073
-475.289	113.972	0.209	-0.254
-474.274	-33.002	0.136	0.075
-473.259	-200.000	-0.051	-0.358
-472.245	227.787	-0.187	-0.304
-471.230	431.172	-0.162	-0.351
-470.216	-122.504	0.221	-0.036
-469.201	44.330	-0.240	0.220
-468.186	-200.000	0.017	-0.088
-467.172	136.855	0.222	-0.290
-466.157	569.046	0.046	0.112
-465.143	-59.730	0.149	-0.064
-464.128	-28.537	-0.259	-0.150
-463.113	14.056	-0.200	-0.156
-462.099	800.000	-0.128	-0.369
-461.084	-99.055	0.197	-0.050
-460.070	122.015	-0.062	0.078
-459.055	21.918	0.187	0.153
-458.040	60.878	-0.056	-0.055
-457.026	31.525	-0.106	-0.091
-456.011	66.973	-0.164	0.168
-454.997	-200.000	-0.068	0.549
-453.982	260.133	0.086	-0.148
-452.968	-95.031	0.233	0.063
-451.953	-103.738	-0.351	-0.082
-450.938	-200.000	-0.009	0.207
-449.924	73.641	0.131	0.137
-448.909	-200.000	-0.028	-0.334
-447.895	800.000	0.073	-0.246
-446.880	-98.624	-0.246	-0.063
-445.865	147.358	-0.081	-0.108
-444.851	-200.000	-0.049	-0.269
-443.836	800.000	-0.134	-0.515
-442.822	800.000	-0.066	0.227
-441.807	76.684	-0.135	-0.144
-440.792	-70.995	-0.146	-0.055
-439.778	-200.000	0.032	-0.412
-438.763	800.000	0.073	-0.223
-437.749	-192.211	0.306	-0.003
-436.734	800.000	-0.023	0.073
-435.719	202.002	-0.159	0.246
-434.705	800.000	-0.033	0.107
-433.690	29.995	0.071	0.061
-432.676	-200.000	0.061	-0.409
-431.661	664.745	-0.144	-0.373
-430.646	-200.000	-0.033	-0.206
-429.632	54.662	-0.114	0.110
-428.617	-200.000	-0.009	-0.206
-427.603	-1.002	0.092	0.065
-426.588	317.495	0.053	-0.100
-425.573	-160.115	-0.135	0.007
-424.559	-162.628	-0.030	0.001
-423.544	26.901	0.206	-0.172
-422.530	-144.294	-0.107	-0.010
-421.515	188.875	-0.208	0.311
-420.500	-200.000	0.025	0.143
-419.486	800.000	-0.056	-0.229
-418.471	51.966	0.149	-0.141
-417.457	-168.855	0.238	0.009
-416.442	-15.927	-0.194	-0.123
-415.428	-200.000	-0.031	-0.242
-414.413	18.463	-0.384	0.307
-413.398	-200.000	0.006	0.122
-412.384	-104.841	0.209	-0.048
-411.369	-127.752	0.269	-0.039
-410.355	457.353	0.113	0.251
-409.340	515.060	0.132	0.307
-408.325	-60.064	0.279	0.119
-407.311	334.109	0.168	0.325
-406.296	800.000	-0.021	-0.090
-405.282	-200.000	-0.020	0.201
-404.267	-160.985	-0.108	-0.006
-403.252	103.486	0.105	0.123
-402.238	329.663	-0.156	-0.299
-401.223	-66.126	-0.590	-0.235
-400.209	800.000	-0.053	-0.169
-399.194	-75.742	0.004	-0.001
-398.179	-200.000	-0.005	-0.044
-397.165	-200.000	0.003	0.318
-396.150	-56.759	0.133	0.059
-395.136	-200.000	-0.050	0.330
-394.121	-200.000	-0.001	0.094
-393.106	-200.000	-0.306	0.000
-392.092	-73.953	-0.257	0.093
-391.077	-50.326	0.145	-0.069
-390.063	-185.065	-0.084	0.001
-389.048	-104.970	0.170	-0.039
-388.033	-86.016	0.124	0.038
-387.019	309.674	-0.086	0.160
-386.004	-12.023	-0.268	-0.175
-384.990	-57.586	0.167	0.073
-383.975	-56.777	0.411	-0.181
-382.960	-38.516	-0.146	-0.077
-381.946	-9.131	0.112	-0.075
-380.931	-56.661	0.289	-0.128
-379.917	295.732	-0.033	0.060
-378.902	800.000	0.028	-0.121
-377.888	1.587	-0.135	0.097
-376.873	102.329	-0.103	-0.120
-375.858	-24.598	0.060	0.036
-374.844	-18.497	0.109	-0.068
-373.829	-54.875	0.148	0.067
-372.815	-200.000	0.054	0.282
-371.800	-148.587	-0.259	0.021
-370.785	-38.247	-0.179	0.095
-369.771	-200.000	0.013	-0.228
-368.756	-5.746	-0.011	-0.008
-367.742	147.159	0.138	0.185
-366.727	-17.163	0.199	-0.125
-365.712	342.102	-0.054	0.105
-364.698	-10.413	-0.179	-0.118
-363.683	122.006	0.082	-0.102
-362.669	-200.000	0.008	-0.071
-361.654	-66.445	0.143	0.057
-360.639	167.554	-0.160	-0.227
-359.625	-130.422	-0.005	-0.001
-358.610	73.950	0.215	-0.225
-357.596	-47.656	-0.229	-0.111
-356.581	416.750	0.059	-0.125
-355.566	196.911	-0.085	0.130
-354.552	739.746	-0.188	0.504
-353.537	-43.471	-0.097	0.049
-352.523	-37.269	-0.183	0.097
-351.508	-60.951	-0.180	-0.076
-350.493	-94.787	-0.382	0.103
-349.479	19.753	0.227	0.182
-348.464	-150.519	0.389	0.030
-347.450	-126.162	-0.266	0.040
-346.435	-108.697	0.030	-0.006
-345.420	64.802	0.148	-0.149
-344.406	800.000	-0.095	-0.274
-343.391	-134.614	0.268	0.033
-342.377	-163.528	0.026	0.001
-341.362	48.131	0.084	-0.078
-340.348	800.000	-0.035	0.137
-339.333	491.929	-0.052	-0.118
-338.318	800.000	0.087	-0.369
-337.304	219.479	-0.016	-0.026
-336.289	-76.134	0.133	0.047
-335.275	-116.782	-0.399	0.073
-334.260	70.460	0.066	0.068
-333.245	-172.842	0.326	-0.010
-332.231	142.343	0.066	-0.087
-331.216	800.000	0.020	0.064
-330.202	217.980	0.172	0.272
-329.187	-155.344	0.301	-0.019
-328.172	-50.010	0.226	-0.107
-327.158	800.000	0.054	0.182
-326.143	-101.377	-0.210	0.051
-325.129	-54.822	-0.169	0.076
-324.114	-200.000	0.018	-0.187
-323.099	631.376	-0.165	0.416
-322.085	-200.000	-0.014	0.398
-321.070	-200.000	0.010	-0.063
-320.056	-102.117	0.024	0.006
-319.041	-8.866	0.075	0.050
-318.026	61.626	-0.223	0.221
-317.012	-75.528	0.142	-0.050
-315.997	442.457	0.015	0.034
-314.983	13.479	0.164	0.126
-313.968	66.260	0.063	-0.064
-312.953	12.141	-0.226	0.173
-311.939	-15.741	0.213	0.135
-310.924	800.000	-0.023	-0.069
-309.910	-200.000	-0.013	-0.085
-308.895	-169.235	-0.282	0.010
-307.880	-82.914	0.228	-0.073
-306.866	-186.640	-0.072	0.001
-305.851	-18.221	-0.207	0.129
-304.837	-53.629	-0.191	-0.087
-303.822	197.499	-0.016	0.025
-302.807	-128.474	0.434	0.061
-301.793	-31.355	0.156	-0.087
-300.778	85.030	0.147	-0.160
-299.764	800.000	0.065	0.267
-298.749	141.163	0.151	-0.198
-297.735	800.000	0.048	-0.143
-296.720	-85.655	0.343	-0.106
-295.705	-49.414	0.113	0.053
-294.691	543.937	-0.050	0.119
-293.676	-19.606	-0.185	0.114
-292.662	-128.799	-0.412	0.058
-291.647	800.000	-0.054	0.167
-290.632	554.249	-0.117	-0.279
-289.618	118.790	-0.175	-0.214
-288.603	-35.616	-0.358	0.193
-287.589	-54.342	-0.158	0.071
-286.574	474.561	-0.087	0.196
-285.559	-101.688	0.384	0.092
-284.545	-200.000	-0.025	-0.228
-283.530	148.866	0.121	0.163
-282.516	211.279	-0.155	0.242
-281.501	770.286	-0.039	0.105
-280.486	-44.226	0.307	-0.153
-279.472	-73.851	-0.236	-0.085
-278.457	-195.470	-0.286	-0.002
-277.443	67.796	-0.095	0.097
-276.428	-200.000	0.006	0.240
-275.413	64.321	0.095	0.095
-274.399	-139.840	-0.079	-0.008
-273.384	800.000	0.053	0.205
-272.370	-70.127	-0.071	-0.027
-271.355	313.405	0.113	0.211
-270.340	-171.524	0.242	0.008
-269.326	-84.688	-0.456	0.143
-268.311	110.171	0.137	-0.163
-267.297	-34.555	0.170	-0.092
-266.282	800.000	-0.051	-0.217
-265.267	-99.556	0.195	0.049
-264.253	-128.195	0.107	-0.015
-263.238	-200.000	0.004	-0.177
-262.224	800.000	0.133	0.436
-261.209	-200.000	0.027	0.238
-260.195	-36.381	-0.089	-0.047
-259.180	-119.539	0.369	0.063
-258.165	-200.000	-0.018	-0.186
-257.151	91.187	0.176	-0.196
-256.136	410.549	-0.099	0.208
-255.122	138.945	0.058	0.076
-254.107	-200.000	0.014	0.172
-253.092	311.564	0.029	0.054
-252.078	-119.008	0.130	-0.023
-251.063	62.673	-0.273	-0.271
-250.049	287.542	-0.115	-0.205
-249.034	663.581	0.076	-0.194
-248.019	45.781	0.029	0.027
-247.005	404.677	0.110	0.229
-245.990	-30.708	-0.338	-0.190
-244.976	-137.992	0.031	0.003
-243.961	27.355	-0.241	0.201
-242.946	7.734	0.104	-0.077
-241.932	-82.327	-0.098	-0.032
-240.917	-172.020	0.114	-0.004
-239.903	-83.645	0.263	-0.083
-238.888	-119.792	-0.124	-0.021
-237.873	-136.519	0.191	-0.022
-236.859	-200.000	-0.045	0.560
-235.844	-200.000	-0.064	0.284
-234.830	800.000	-0.048	-0.163
-233.815	-197.184	-0.231	0.001
-232.800	-90.075	0.093	0.027
-231.786	-200.000	0.054	-0.334
-230.771	-64.400	0.107	-0.043
-229.757	-33.447	-0.049	0.027
-228.742	800.000	0.062	0.253
-227.727	269.288	0.071	0.124
-226.713	-0.359	0.230	-0.162
-225.698	-90.597	0.208	0.060
-224.684	544.291	0.143	0.338
-223.669	-200.000	-0.026	0.166
-222.655	47.467	-0.117	0.108
-221.640	-72.098	0.267	-0.098
-220.625	73.808	-0.187	-0.195
-219.611	-115.966	0.225	-0.042
-218.596	-94.935	0.033	-0.009
-217.582	800.000	-0.052	-0.158
-216.567	-200.000	0.014	-0.130
-215.552	-34.252	0.196	-0.107
-214.538	414.064	0.158	0.333
-213.523	-149.278	0.263	-0.021
-212.509	319.078	-0.162	0.305
-211.494	216.379	0.052	0.082
-210.479	39.599	-0.154	-0.136
-209.465	-115.461	0.090	0.017
-208.450	15.852	-0.224	0.175
-207.436	-200.000	0.028	0.173
-206.421	96.287	0.067	-0.076
-205.406	13.199	-0.112	0.086
-204.392	223.493	0.204	-0.325
-203.377	-104.189	0.234	-0.054
-202.363	55.506	-0.040	0.039
-201.348	-129.949	-0.037	-0.005
-200.333	800.000	-0.099	-0.316
-199.319	-174.026	-0.346	0.010
-198.304	179.259	-0.248	0.359
-197.290	-40.725	0.129	0.066
-196.275	-147.124	-0.159	-0.013
-195.260	800.000	-0.029	-0.107
-194.246	33.110	0.202	-0.174
-193.231	232.558	0.216	-0.351
-192.217	182.448	-0.008	-0.012
-191.202	-26.911	0.214	-0.123
-190.187	4.309	-0.095	0.069
-189.173	800.000	0.116	0.488
-188.158	800.000	-0.040	0.145
-187.144	226.883	-0.047	0.076
-186.129	81.878	-0.266	0.285
-185.114	-34.199	0.178	0.097
-184.100	632.035	-0.084	0.211
-183.085	141.008	-0.099	0.129
-182.071	-200.000	-0.030	-0.144
-181.056	-62.958	0.052	0.021
-180.042	800.000	-0.077	-0.243
-179.027	-200.000	0.038	0.268
-178.012	125.420	0.141	0.176
-176.998	-179.963	0.226	-0.005
-175.983	-200.000	-0.064	0.330
-174.969	-200.000	-0.052	0.358
-173.954	-200.000	0.055	-0.330
-172.939	-119.116	-0.176	0.031
-171.925	-29.685	-0.140	0.079
-170.910	800.000	0.074	0.239
-169.896	-105.177	-0.382	0.086
-168.881	98.069	0.094	0.107
-167.866	24.971	-0.121	0.100
-166.852	194.124	-0.015	0.022
-165.837	-95.388	0.258	-0.068
-164.823	431.357	0.082	-0.176
-163.808	546.641	-0.086	0.203
-162.793	22.872	0.164	0.133
-161.779	-200.000	-0.024	0.149
-160.764	-86.777	0.251	-0.076
-159.750	240.638	-0.100	-0.165
-158.735	50.463	-0.190	0.178
-157.720	-70.881	0.456	0.170
-156.706	122.918	0.180	0.223
-155.691	-112.203	-0.121	-0.024
-154.677	1.636	-0.173	0.123
-153.662	-153.744	0.042	0.003
-152.647	-43.282	-0.091	0.046
-151.633	-200.000	-0.041	-0.202
-150.618	-200.000	-0.075	-0.361
-149.604	-88.800	-0.346	0.101
-148.589	-200.000	-0.050	0.313
-147.574	-95.242	-0.163	0.043
-146.560	-200.000	0.040	-0.231
-145.545	216.708	-0.148	0.233
-144.531	-138.234	-0.187	-0.020
-143.516	-200.000	-0.010	0.103
-142.502	313.826	0.061	0.112
-141.487	-24.701	-0.393	-0.231
-140.472	272.658	0.109	0.189
-139.458	-131.936	-0.217	-0.028
-138.443	-52.734	0.162	-0.074
-137.429	800.000	-0.083	0.279
-136.414	196.888	-0.133	-0.200
-135.399	-200.000	0.005	0.086
-134.385	335.896	-0.159	-0.304
-133.370	800.000	-0.047	0.178
-132.356	656.776	-0.087	-0.220
-131.341	-32.850	0.066	0.036
-130.326	800.000	-0.045	-0.129
-129.312	-140.944	0.332	0.034
-128.297	800.000	0.035	0.125
-127.283	-82.077	-0.274	0.088
-126.268	68.575	0.125	0.126
-125.253	-15.122	-0.233	-0.147
-124.239	350.719	-0.129	-0.251
-123.224	-43.098	-0.278	0.139
-122.210	-25.925	-0.144	0.084
-121.195	800.000	0.040	-0.117
