DTS Sentinel unit serial number:	SN413079Multiplexer serial number:	ORYXHardware model number:	OX4-SRSoftware version number:	ORYX F/W v4.00 Oryx Data Collector v3.7.2.0data status	okinstallation	princeton_trtdifferential loss correction	single-endedforward channel	channel 4reverse channel	N/Adate	2019/09/18time	23:37:35forward acquisition time	60.00reverse acquisition time	0.00gamma	496.2192k internal	0.2334k external	0.2334temperature offset calibration	1.0031default loss term (dB/km)	0.3790temperature slope calibration	1.0000multiplexer offset coefficient	1.0000multiplexer slope coefficient	1.0000fibre end	0.00T internal ref (°C)	23.53T ext. ref 1 (°C)	0.76T ext. ref 2 (°C)	16.44length (m)	temperature (°C)	Stokes	anti-Stokes-747.200	-51.038	0.147	0.069
-746.185	-200.000	0.044	0.602
-745.171	112.618	0.205	-0.249
-744.156	-200.000	-0.022	-0.129
-743.142	-200.000	-0.020	0.187
-742.127	-200.000	0.016	0.240
-741.112	-151.077	0.459	0.035
-740.098	-200.000	-0.010	-0.404
-739.083	25.297	0.161	0.134
-738.069	85.784	0.154	0.170
-737.054	28.206	-0.180	-0.152
-736.039	-200.000	0.076	0.390
-735.025	293.075	0.118	0.216
-734.010	-200.000	-0.047	-0.547
-732.996	-200.000	0.032	-0.145
-731.981	91.460	-0.399	-0.450
-730.966	-68.662	-0.145	0.056
-729.952	-200.000	0.016	-0.336
-728.937	-200.000	-0.004	-0.050
-727.923	168.187	0.152	-0.218
-726.908	-200.000	0.033	-0.231
-725.894	66.455	-0.190	-0.194
-724.879	107.090	-0.052	0.062
-723.864	-79.894	-0.196	-0.066
-722.850	-200.000	-0.428	-0.001
-721.835	140.782	0.121	-0.160
-720.821	-16.444	-0.098	0.063
-719.806	151.492	-0.182	-0.249
-718.791	-23.798	0.057	-0.034
-717.777	-82.338	-0.297	0.097
-716.762	402.300	0.134	-0.284
-715.748	41.348	-0.243	0.220
-714.733	-200.000	-0.018	0.289
-713.718	28.951	-0.229	0.195
-712.704	-1.367	0.267	0.189
-711.689	-60.415	0.189	-0.081
-710.675	800.000	-0.089	-0.322
-709.660	-65.918	-0.105	0.042
-708.645	-200.000	-0.001	-0.233
-707.631	646.177	0.089	-0.227
-706.616	255.725	0.047	-0.081
-705.602	539.895	-0.055	-0.132
-704.587	-37.873	0.119	0.063
-703.572	-114.541	0.202	-0.039
-702.558	127.144	-0.173	-0.220
-701.543	33.891	0.170	-0.149
-700.529	-200.000	0.004	-0.039
-699.514	-1.175	-0.288	-0.204
-698.499	-200.000	0.016	0.405
-697.485	-32.534	0.022	-0.012
-696.470	-156.292	0.363	0.023
-695.456	225.581	0.074	0.121
-694.441	-159.863	-0.048	0.003
-693.426	510.691	-0.121	-0.283
-692.412	151.287	0.077	-0.105
-691.397	800.000	0.044	0.152
-690.383	38.711	-0.089	0.079
-689.368	-22.328	0.229	0.139
-688.354	-8.909	0.196	0.132
-687.339	-99.230	-0.184	0.047
-686.324	-135.955	0.176	-0.021
-685.310	-200.000	0.008	0.134
-684.295	276.775	-0.081	0.145
-683.281	-171.388	-0.201	0.007
-682.266	-143.112	-0.089	-0.009
-681.251	361.515	-0.172	-0.346
-680.237	-53.501	-0.217	0.100
-679.222	87.666	-0.258	-0.286
-678.208	26.551	-0.078	-0.065
-677.193	-14.923	-0.266	-0.171
-676.178	-79.548	0.037	-0.013
-675.164	-163.981	-0.368	-0.017
-674.149	219.688	0.031	-0.050
-673.135	84.841	0.161	-0.177
-672.120	-29.869	0.058	0.033
-671.105	69.568	-0.095	-0.098
-670.091	-126.203	0.056	-0.008
-669.076	-24.471	0.270	-0.161
-668.062	-200.000	0.080	-0.366
-667.047	-67.304	0.069	0.027
-666.032	37.150	0.059	0.053
-665.018	266.315	-0.158	-0.276
-664.003	-200.000	0.017	-0.258
-662.989	-65.787	-0.169	-0.068
-661.974	-200.000	-0.046	-0.525
-660.959	-124.320	-0.115	-0.018
-659.945	800.000	-0.053	0.174
-658.930	-101.686	0.311	0.076
-657.916	-131.872	0.192	-0.025
-656.901	177.142	0.102	-0.148
-655.886	77.927	-0.309	-0.330
-654.872	-200.000	0.040	0.215
-653.857	260.372	0.058	0.100
-652.843	-32.261	0.094	0.052
-651.828	-200.000	0.097	-0.461
-650.814	-122.754	0.096	0.015
-649.799	3.642	-0.081	0.059
-648.784	261.385	0.152	-0.264
-647.770	-81.321	0.175	0.058
-646.755	-62.105	0.361	-0.151
-645.741	249.627	0.040	-0.068
-644.726	19.733	0.302	0.243
-643.711	466.763	0.109	-0.245
-642.697	-200.000	-0.026	-0.162
-641.682	-134.612	0.277	0.034
-640.668	-71.110	-0.148	-0.056
-639.653	-200.000	-0.047	-0.334
-638.638	800.000	-0.087	-0.244
-637.624	-46.850	0.163	0.080
-636.609	-89.592	0.162	0.048
-635.595	-200.000	0.024	-0.174
-634.580	-82.559	-0.243	-0.079
-633.565	800.000	0.081	-0.245
-632.551	-148.304	-0.165	0.014
-631.536	28.891	0.155	0.132
-630.522	378.907	0.069	0.142
-629.507	-58.322	0.190	-0.083
-628.492	-40.037	0.131	-0.068
-627.478	-200.000	0.035	-0.180
-626.463	420.502	0.030	0.063
-625.449	493.416	-0.098	-0.226
-624.434	-200.000	-0.022	-0.170
-623.419	63.709	0.091	0.091
-622.405	-103.600	-0.148	-0.035
-621.390	-103.805	-0.420	0.098
-620.376	142.443	0.036	-0.048
-619.361	156.000	0.166	-0.228
-618.346	162.162	0.025	-0.034
-617.332	800.000	-0.053	-0.182
-616.317	-74.480	-0.145	-0.052
-615.303	800.000	-0.038	-0.154
-614.288	800.000	-0.020	-0.083
-613.273	14.697	0.255	0.199
-612.259	-16.161	-0.395	-0.251
-611.244	134.984	-0.229	0.297
-610.230	-30.434	-0.234	0.133
-609.215	-6.485	0.073	-0.050
-608.201	-200.000	-0.016	-0.342
-607.186	410.042	-0.086	-0.181
-606.171	-163.682	0.219	-0.010
-605.157	44.445	-0.027	-0.025
-604.142	800.000	-0.057	0.245
-603.128	-200.000	0.047	0.505
-602.113	4.153	0.038	0.028
-601.098	196.499	-0.254	-0.387
-600.084	-200.000	0.019	-0.148
-599.069	-200.000	0.026	-0.318
-598.055	-77.865	-0.367	0.126
-597.040	-200.000	0.005	-0.058
-596.025	211.855	0.105	0.165
-595.011	-64.707	0.220	0.089
-593.996	800.000	0.058	-0.172
-592.982	120.869	-0.050	-0.062
-591.967	-152.712	0.062	-0.004
-590.952	260.951	0.174	0.301
-589.938	565.638	-0.031	0.075
-588.923	298.296	-0.125	-0.230
-587.909	-26.025	0.122	-0.072
-586.894	29.445	-0.225	-0.191
-585.879	183.210	0.066	0.097
-584.865	-15.997	-0.107	-0.068
-583.850	-200.000	0.028	-0.184
-582.836	800.000	0.070	-0.207
-581.821	800.000	0.052	0.173
-580.806	109.138	0.194	-0.232
-579.792	-170.896	-0.163	-0.006
-578.777	-28.146	-0.451	0.260
-577.763	138.647	0.145	-0.190
-576.748	-200.000	0.083	-0.567
-575.733	-200.000	0.017	0.192
-574.719	48.726	0.161	0.151
-573.704	-23.585	0.103	0.061
-572.690	73.149	-0.265	0.277
-571.675	-200.000	0.037	-0.220
-570.661	800.000	-0.037	-0.151
-569.646	-200.000	-0.021	-0.133
-568.631	56.591	0.175	0.170
-567.617	69.105	-0.186	-0.191
-566.602	138.591	-0.237	0.311
-565.588	-76.763	0.170	0.059
-564.573	-200.000	0.021	-0.093
-563.558	-200.000	-0.000	0.086
-562.544	-103.271	0.440	0.104
-561.529	800.000	0.063	0.189
-560.515	-44.665	-0.167	0.083
-559.500	-77.011	-0.193	0.067
-558.485	-200.000	0.051	-0.413
-557.471	-94.568	-0.288	-0.078
-556.456	-15.377	-0.253	0.162
-555.442	-100.859	-0.277	-0.068
-554.427	78.721	-0.164	0.175
-553.412	549.935	-0.046	0.109
-552.398	-17.330	-0.126	-0.079
-551.383	-143.941	-0.111	0.010
-550.369	-200.000	-0.015	0.116
-549.354	800.000	-0.026	0.082
-548.339	0.507	-0.388	0.277
-547.325	348.410	-0.101	0.199
-546.310	-102.538	0.090	0.022
-545.296	-154.549	-0.284	-0.019
-544.281	-50.039	0.149	0.071
-543.266	97.125	-0.118	0.135
-542.252	-124.188	0.038	-0.006
-541.237	11.147	-0.097	-0.074
-540.223	800.000	0.050	-0.187
-539.208	-111.507	-0.212	0.043
-538.193	230.407	0.076	-0.125
-537.179	70.755	-0.067	-0.070
-536.164	748.140	-0.050	-0.134
-535.150	61.214	0.248	-0.245
-534.135	253.164	0.145	-0.246
-533.121	19.265	0.128	-0.102
-532.106	93.876	0.180	0.204
-531.091	-119.508	-0.098	-0.017
-530.077	-44.032	0.085	0.043
-529.062	265.562	-0.170	-0.296
-528.048	50.805	-0.171	-0.162
-527.033	-200.000	-0.024	-0.126
-526.018	-44.756	-0.180	-0.089
-525.004	-200.000	0.035	0.323
-523.989	82.897	-0.029	0.031
-522.975	472.774	-0.114	0.256
-521.960	-200.000	-0.010	-0.083
-520.945	-168.615	-0.366	-0.014
-519.931	300.295	-0.175	-0.321
-518.916	175.555	0.036	-0.051
-517.902	18.245	-0.229	0.182
-516.887	-30.508	0.068	-0.038
-515.872	-70.643	-0.334	0.126
-514.858	166.194	0.024	0.034
-513.843	85.122	-0.150	-0.163
-512.829	-174.374	0.328	-0.009
-511.814	-112.783	-0.204	-0.040
-510.799	800.000	0.082	0.239
-509.785	155.550	-0.075	0.103
-508.770	-53.575	-0.349	0.159
-507.756	-129.206	0.150	-0.021
-506.741	106.733	0.094	0.111
-505.726	-124.070	0.238	-0.037
-504.712	-200.000	-0.006	0.243
-503.697	94.536	0.121	0.136
-502.683	-58.751	0.181	-0.078
-501.668	-64.588	-0.077	-0.031
-500.653	137.396	0.128	-0.167
-499.639	-106.177	-0.209	0.047
-498.624	800.000	0.050	-0.160
-497.610	-158.492	0.302	-0.017
-496.595	50.983	-0.170	0.160
-495.581	-22.734	0.243	0.146
-494.566	-92.608	0.126	-0.035
-493.551	96.609	0.255	0.291
-492.537	-200.000	-0.043	-0.295
-491.522	-88.521	0.295	-0.088
-490.508	109.205	0.249	-0.297
-489.493	800.000	-0.061	0.185
-488.478	103.560	0.233	0.272
-487.464	-20.620	0.265	0.162
-486.449	-89.320	0.447	-0.131
-485.435	800.000	0.099	-0.276
-484.420	389.274	-0.098	0.202
-483.405	-200.000	0.008	0.053
-482.391	-170.916	0.141	0.005
-481.376	-98.126	-0.279	-0.071
-480.362	-83.643	-0.235	0.075
-479.347	-20.712	-0.259	-0.158
-478.332	-35.243	0.128	-0.069
-477.318	-200.000	0.008	-0.092
-476.303	-200.000	0.023	-0.169
-475.289	800.000	0.074	-0.230
-474.274	-95.320	-0.191	-0.051
-473.259	322.439	-0.121	0.229
-472.245	-58.785	-0.150	-0.065
-471.230	-148.804	-0.203	-0.016
-470.216	-200.000	0.009	-0.105
-469.201	382.120	0.082	0.167
-468.186	480.797	-0.106	0.240
-467.172	254.667	0.144	-0.245
-466.157	-141.550	0.057	0.006
-465.143	-43.788	0.109	-0.055
-464.128	-23.104	0.241	-0.145
-463.113	155.333	0.139	-0.190
-462.099	108.196	-0.213	-0.253
-461.084	-200.000	-0.013	-0.233
-460.070	140.057	-0.216	0.283
-459.055	65.160	0.193	-0.194
-458.040	-111.195	0.266	0.054
-457.026	57.781	0.208	0.202
-456.011	282.915	-0.107	-0.192
-454.997	-200.000	0.069	-0.360
-453.982	-65.351	0.231	-0.092
-452.968	-131.710	0.420	0.055
-451.953	-200.000	-0.014	0.252
-450.938	-41.755	-0.121	0.062
-449.924	-200.000	-0.019	0.084
-448.909	26.751	0.160	-0.133
-447.895	60.656	-0.109	-0.107
-446.880	-150.637	-0.235	0.018
-445.865	39.813	-0.140	0.125
-444.851	800.000	0.070	0.292
-443.836	-80.095	0.225	0.075
-442.822	78.125	0.191	-0.202
-441.807	423.035	0.135	0.288
-440.792	-200.000	0.021	-0.217
-439.778	-4.539	0.177	0.122
-438.763	328.714	0.139	0.265
-437.749	-129.035	0.206	-0.029
-436.734	80.166	-0.079	0.084
-435.719	-0.097	0.351	0.248
-434.705	-130.296	0.120	-0.016
-433.690	7.403	-0.237	0.176
-432.676	-200.000	-0.001	0.011
-431.661	-198.084	0.217	-0.001
-430.646	727.095	-0.111	0.295
-429.632	800.000	-0.089	-0.312
-428.617	71.651	-0.185	0.191
-427.603	103.331	0.388	0.452
-426.588	73.911	-0.160	0.166
-425.573	-88.708	0.152	-0.045
-424.559	-4.674	-0.114	0.078
-423.544	235.712	-0.101	-0.166
-422.530	221.022	0.126	0.201
-421.515	38.308	0.259	0.229
-420.500	800.000	0.025	-0.072
-419.486	-200.000	0.020	-0.253
-418.471	-200.000	0.018	-0.214
-417.457	201.723	0.110	0.168
-416.442	-190.849	0.212	0.002
-415.428	800.000	-0.114	-0.456
-414.413	-66.125	0.176	-0.070
-413.398	165.937	-0.011	-0.015
-412.384	-66.489	0.191	0.075
-411.369	-27.607	-0.058	0.034
-410.355	185.686	-0.092	0.136
-409.340	149.586	0.083	0.112
-408.325	-56.997	-0.336	0.147
-407.311	270.355	-0.111	0.193
-406.296	800.000	0.090	-0.353
-405.282	-32.931	0.129	0.071
-404.267	-90.448	0.173	-0.050
-403.252	313.835	-0.113	-0.211
-402.238	-15.354	-0.320	0.203
-401.223	-200.000	0.012	0.123
-400.209	39.591	0.226	0.201
-399.194	4.397	0.150	-0.109
-398.179	85.873	-0.087	0.095
-397.165	-46.151	-0.139	0.068
-396.150	-186.201	-0.277	0.004
-395.136	313.804	-0.115	-0.214
-394.121	716.928	0.076	0.201
-393.106	800.000	0.024	-0.076
-392.092	-116.091	-0.140	-0.026
-391.077	278.686	-0.240	-0.424
-390.063	-125.244	0.205	-0.031
-389.048	800.000	-0.131	-0.519
-388.033	289.377	-0.199	0.357
-387.019	800.000	-0.058	0.204
-386.004	800.000	-0.182	0.518
-384.990	-91.933	-0.210	0.059
-383.975	800.000	-0.060	0.192
-382.960	174.810	-0.174	-0.250
-381.946	-151.357	0.376	-0.028
-380.931	-55.455	0.348	0.154
-379.917	138.033	-0.273	-0.354
-378.902	37.876	-0.177	0.156
-377.888	164.354	0.197	0.275
-376.873	-96.139	-0.317	0.083
-375.858	-200.000	0.013	-0.114
-374.844	-89.226	-0.093	-0.027
-373.829	8.850	0.154	0.115
-372.815	-200.000	0.025	-0.127
-371.800	800.000	-0.036	-0.151
-370.785	207.291	-0.155	-0.240
-369.771	56.447	0.109	0.105
-368.756	-200.000	0.016	0.222
-367.742	-183.828	-0.265	-0.004
-366.727	-102.413	0.097	0.023
-365.712	-55.194	0.171	-0.076
-364.698	-21.993	-0.112	0.067
-363.683	-55.683	-0.060	0.026
-362.669	800.000	0.027	0.073
-361.654	-37.115	0.212	0.112
-360.639	104.356	-0.172	-0.200
-359.625	110.838	0.123	-0.147
-358.610	2.740	0.225	0.161
-357.596	132.148	-0.199	0.253
-356.581	800.000	-0.072	-0.250
-355.566	227.153	0.123	-0.198
-354.552	-200.000	0.008	-0.094
-353.537	800.000	0.098	-0.369
-352.523	-29.010	0.171	0.097
-351.508	55.100	0.092	0.088
-350.493	-200.000	0.025	0.123
-349.479	-200.000	0.020	0.120
-348.464	-25.477	0.040	0.023
-347.450	27.780	0.251	0.209
-346.435	-68.446	0.261	-0.100
-345.420	59.273	0.209	-0.204
-344.406	-49.349	0.119	-0.056
-343.391	-133.689	-0.186	0.023
-342.377	800.000	0.080	0.296
-341.362	-43.816	0.045	0.022
-340.348	202.626	0.090	-0.137
-339.333	-200.000	0.049	-0.396
-338.318	-90.972	0.260	0.074
-337.304	800.000	-0.063	0.244
-336.289	-130.609	-0.341	-0.045
-335.275	800.000	-0.135	0.418
-334.260	-46.329	-0.268	0.130
-333.245	447.779	-0.048	-0.105
-332.231	31.695	0.218	0.186
-331.216	-122.931	-0.223	-0.036
-330.202	305.531	0.075	0.137
-329.187	800.000	-0.176	0.500
-328.172	800.000	0.084	-0.233
-327.158	401.319	-0.005	0.009
-326.143	-32.042	0.258	0.143
-325.129	25.303	-0.157	0.129
-324.114	285.262	-0.202	0.360
-323.099	800.000	-0.076	0.252
-322.085	800.000	-0.084	-0.273
-321.070	338.552	-0.137	0.263
-320.056	-72.363	0.120	-0.044
-319.041	129.017	0.142	0.179
-318.026	-149.759	-0.200	-0.016
-317.012	-34.905	-0.115	-0.062
-315.997	-89.286	0.188	0.055
-314.983	49.457	0.087	-0.081
-313.968	-200.000	-0.014	0.084
-312.953	-200.000	0.014	-0.422
-311.939	-173.142	0.100	0.003
-310.924	584.360	-0.081	-0.196
-309.910	55.969	0.120	0.115
-308.895	-111.081	-0.182	0.037
-307.880	-200.000	-0.002	0.418
-306.866	290.057	0.109	0.196
-305.851	-113.080	0.350	-0.068
-304.837	-135.770	0.112	-0.013
-303.822	800.000	-0.101	0.280
-302.807	244.870	0.081	0.135
-301.793	65.097	-0.342	-0.342
-300.778	57.695	0.139	-0.135
-299.764	143.833	0.079	-0.105
-298.749	800.000	-0.050	-0.154
-297.735	-97.530	-0.070	-0.018
-296.720	800.000	0.073	0.299
-295.705	-40.345	0.303	0.156
-294.691	-23.543	0.163	0.097
-293.676	276.507	0.090	0.158
-292.662	-180.485	0.225	-0.005
-291.647	37.395	-0.410	-0.359
-290.632	553.659	-0.131	-0.311
-289.618	62.915	-0.093	-0.092
-288.603	452.959	-0.110	0.240
-287.589	112.621	0.203	0.242
-286.574	-98.288	-0.501	-0.127
-285.559	-175.771	-0.098	0.003
-284.545	-6.392	0.302	-0.204
-283.530	546.807	-0.101	0.238
-282.516	-122.877	-0.164	-0.026
-281.501	-88.568	-0.272	-0.080
-280.486	36.441	-0.219	0.190
-279.472	-83.429	0.058	-0.018
-278.457	40.501	0.044	-0.039
-277.443	-112.734	0.127	0.025
-276.428	-200.000	0.080	0.445
-275.413	320.900	0.034	-0.063
-274.399	-146.228	-0.438	-0.038
-273.384	800.000	-0.127	-0.378
-272.370	180.004	-0.254	0.367
-271.355	-16.683	-0.219	0.137
-270.340	50.272	-0.240	-0.223
-269.326	237.281	-0.114	0.187
-268.311	199.155	-0.209	-0.316
-267.297	40.266	0.164	-0.145
-266.282	-13.354	-0.094	0.060
-265.267	234.025	-0.098	-0.160
-264.253	72.129	0.359	-0.368
-263.238	-200.000	-0.062	-0.382
-262.224	-55.792	-0.247	0.109
-261.209	-9.650	0.087	0.057
-260.195	-200.000	-0.026	0.355
-259.180	-111.879	0.076	-0.015
-258.165	148.132	0.148	0.198
-257.151	800.000	-0.071	-0.232
-256.136	8.422	0.213	0.158
-255.122	-65.941	-0.353	0.139
-254.107	-80.637	-0.292	-0.096
-253.092	407.776	0.045	0.094
-252.078	-174.367	-0.162	0.005
-251.063	-200.000	0.020	-0.090
-250.049	-157.939	0.235	-0.014
-249.034	-29.906	0.200	0.112
-248.019	143.833	-0.148	0.194
-247.005	800.000	0.058	0.251
-245.990	-143.233	0.136	0.013
-244.976	-122.705	-0.290	0.046
-243.961	247.219	0.276	-0.459
-242.946	102.188	-0.243	-0.280
-241.932	294.314	0.146	-0.263
-240.917	-200.000	0.005	0.381
-239.903	-3.674	0.180	0.123
-238.888	-114.490	-0.145	0.028
-237.873	800.000	0.013	-0.042
-236.859	403.377	0.072	0.149
-235.844	-134.459	-0.437	0.053
-234.830	-27.656	-0.183	-0.105
-233.815	-58.372	-0.104	-0.045
-232.800	558.359	0.120	0.285
-231.786	264.598	0.107	-0.183
-230.771	800.000	-0.036	-0.116
-229.757	-27.799	0.048	0.027
-228.742	62.418	-0.113	-0.111
-227.727	-200.000	-0.007	0.078
-226.713	240.130	0.011	0.017
-225.698	-99.951	0.155	0.038
-224.684	-55.428	-0.269	0.119
-223.669	245.187	0.159	-0.264
-222.655	-17.060	0.283	-0.176
-221.640	-66.794	-0.115	-0.045
-220.625	53.086	0.324	0.306
-219.611	510.499	-0.050	0.115
-218.596	-200.000	0.017	-0.265
-217.582	-200.000	0.036	-0.194
-216.567	273.850	-0.055	-0.096
-215.552	140.838	0.154	0.200
-214.538	-31.522	0.212	0.117
-213.523	-11.257	-0.508	-0.329
-212.509	426.259	0.019	0.040
-211.494	-54.980	0.128	0.057
-210.479	18.565	0.104	0.082
-209.465	-200.000	0.005	0.459
-208.450	-33.499	-0.218	0.119
-207.436	-98.605	-0.159	0.040
-206.421	-104.463	-0.145	-0.033
-205.406	800.000	-0.095	-0.278
-204.392	512.758	-0.104	0.239
-203.377	390.756	0.052	-0.106
-202.363	354.946	-0.101	-0.197
-201.348	800.000	0.020	0.083
-200.333	-73.845	-0.111	0.040
-199.319	-13.340	-0.190	0.121
-198.304	87.083	0.270	0.293
-197.290	50.006	-0.049	0.046
-196.275	-86.234	-0.204	0.062
-195.260	41.815	0.215	0.192
-194.246	45.814	0.424	0.385
-193.231	-200.000	0.437	0.000
-192.217	28.095	-0.042	-0.035
-191.202	-200.000	-0.046	-0.215
-190.187	-87.570	0.246	0.073
-189.173	-75.684	0.243	-0.085
-188.158	166.450	-0.061	0.085
-187.144	-200.000	0.009	0.060
-186.129	-200.000	0.011	0.309
-185.114	-200.000	0.054	-0.409
-184.100	800.000	-0.168	-0.508
-183.085	206.377	-0.312	-0.478
-182.071	-84.202	-0.113	-0.035
-181.056	229.257	0.108	0.173
-180.042	45.005	-0.106	0.096
-179.027	65.499	-0.144	0.143
-178.012	-141.531	-0.098	0.010
-176.998	-12.202	-0.144	-0.093
-175.983	78.903	0.082	-0.086
-174.969	-200.000	-0.008	0.037
-173.954	-200.000	-0.001	-0.021
-172.939	190.205	0.111	-0.164
-171.925	-200.000	-0.023	-0.176
-170.910	-125.157	-0.468	-0.070
-169.896	-77.175	0.112	0.038
-168.881	-155.986	0.233	0.015
-167.866	-103.312	-0.115	0.027
-166.852	320.481	-0.047	0.088
-165.837	42.959	0.022	0.020
-164.823	119.288	-0.095	-0.116
-163.808	-69.869	-0.332	-0.125
-162.793	235.521	0.135	0.219
-161.779	-65.025	0.259	-0.103
-160.764	-52.790	0.194	0.088
-159.750	-143.070	0.193	0.018
-158.735	-145.446	-0.164	0.015
-157.720	-200.000	-0.105	-0.514
-156.706	-200.000	0.028	0.402
-155.691	-200.000	-0.010	0.160
-154.677	-187.620	0.080	-0.001
-153.662	-87.779	0.670	0.198
-152.647	-60.082	0.124	-0.052
-151.633	-50.971	0.198	-0.091
-150.618	113.288	-0.082	0.098
-149.604	-128.774	-0.123	-0.017
-148.589	12.419	-0.326	0.247
-147.574	-200.000	-0.004	0.226
-146.560	800.000	0.074	0.273
-145.545	-84.030	0.253	-0.079
-144.531	-88.975	0.083	0.024
-143.516	-200.000	-0.017	-0.115
-142.502	-94.020	0.196	-0.053
-141.487	800.000	-0.062	0.238
-140.472	-200.000	-0.055	0.283
-139.458	-161.887	0.231	0.011
-138.443	-76.438	-0.114	0.039
-137.429	216.940	-0.066	0.104
-136.414	-85.770	-0.148	0.045
-135.399	-13.779	-0.071	0.045
-134.385	-200.000	-0.002	-0.075
-133.370	-73.504	0.218	0.078
-132.356	-161.805	-0.190	0.009
-131.341	-22.055	0.334	-0.199
-130.326	-23.180	0.177	-0.104
-129.312	2.458	0.183	0.130
-128.297	146.265	-0.069	-0.091
-127.283	150.992	0.055	-0.074
-126.268	-4.564	-0.093	-0.063
-125.253	800.000	0.050	-0.152
-124.239	-200.000	-0.003	-0.264
-123.224	97.649	-0.096	-0.108
-122.210	355.782	0.113	0.221
-121.195	-28.065	0.120	-0.068
