DTS Sentinel unit serial number:	SN413079Multiplexer serial number:	ORYXHardware model number:	OX4-SRSoftware version number:	ORYX F/W v4.00 Oryx Data Collector v3.7.2.0data status	okinstallation	princeton_trtdifferential loss correction	single-endedforward channel	channel 4reverse channel	N/Adate	2019/09/10time	22:27:10forward acquisition time	60.00reverse acquisition time	0.00gamma	496.2192k internal	0.2315k external	0.2315temperature offset calibration	0.9946default loss term (dB/km)	0.3790temperature slope calibration	1.0000multiplexer offset coefficient	1.0000multiplexer slope coefficient	1.0000fibre end	0.00T internal ref (°C)	30.37T ext. ref 1 (°C)	-0.32T ext. ref 2 (°C)	23.68length (m)	temperature (°C)	Stokes	anti-Stokes-747.200	233.437	0.053	-0.088
-746.185	-87.279	-0.432	-0.133
-745.171	-143.391	-0.057	0.006
-744.156	242.463	0.229	0.389
-743.142	-93.365	0.205	0.058
-742.127	-190.011	-0.281	-0.003
-741.112	-200.000	-0.010	0.101
-740.098	-54.896	-0.219	0.100
-739.083	-200.000	-0.063	-0.502
-738.069	492.076	0.026	0.061
-737.054	-200.000	0.020	0.162
-736.039	-91.734	-0.144	0.042
-735.025	800.000	0.064	0.272
-734.010	118.372	-0.089	0.111
-732.996	-200.000	-0.059	-0.387
-731.981	-143.931	0.203	-0.019
-730.966	800.000	0.043	0.183
-729.952	-46.487	0.125	0.062
-728.937	-138.395	-0.440	-0.049
-727.923	-29.795	0.303	-0.175
-726.908	-37.308	-0.387	0.210
-725.894	11.464	-0.264	-0.205
-724.879	-151.589	0.207	0.015
-723.864	267.744	0.093	-0.164
-722.850	370.559	0.033	-0.067
-721.835	-126.520	-0.188	-0.028
-720.821	755.962	-0.056	-0.154
-719.806	-98.332	-0.366	-0.095
-718.791	389.438	0.069	0.145
-717.777	-167.274	0.162	-0.007
-716.762	83.451	-0.074	0.082
-715.748	-111.344	-0.264	0.055
-714.733	-0.333	0.206	-0.148
-713.718	-128.118	-0.214	0.031
-712.704	-200.000	0.001	-0.160
-711.689	-19.051	0.259	-0.163
-710.675	11.811	-0.173	-0.134
-709.660	-20.062	0.135	-0.084
-708.645	-200.000	-0.031	0.287
-707.631	-106.449	-0.210	0.047
-706.616	344.667	0.077	-0.153
-705.602	-10.315	-0.173	0.116
-704.587	-200.000	0.057	-0.305
-703.572	81.959	0.213	-0.233
-702.558	47.040	-0.099	0.093
-701.543	45.725	0.188	0.176
-700.529	-103.670	0.408	0.097
-699.514	-58.023	-0.200	-0.088
-698.499	-86.845	0.098	-0.030
-697.485	48.796	0.230	-0.218
-696.470	-139.935	-0.225	0.024
-695.456	-28.925	0.038	-0.022
-694.441	143.770	0.083	0.112
-693.426	800.000	0.124	-0.408
-692.412	-85.494	0.066	0.021
-691.397	6.315	0.155	0.116
-690.383	780.079	-0.072	-0.200
-689.368	-200.000	-0.041	0.273
-688.354	-200.000	0.021	-0.313
-687.339	188.874	-0.284	-0.430
-686.324	-44.370	0.273	-0.138
-685.310	800.000	-0.103	-0.307
-684.295	285.595	0.087	0.159
-683.281	-105.348	-0.257	-0.059
-682.266	215.004	0.145	-0.233
-681.251	-9.764	0.121	-0.081
-680.237	800.000	-0.040	-0.144
-679.222	349.998	-0.079	0.158
-678.208	695.358	-0.118	-0.312
-677.193	-125.840	-0.314	0.048
-676.178	180.536	0.080	0.119
-675.164	-200.000	-0.030	0.141
-674.149	-99.058	-0.384	-0.098
-673.135	-171.350	0.278	0.009
-672.120	-151.879	-0.171	-0.013
-671.105	-87.304	0.359	-0.110
-670.091	294.701	-0.047	0.087
-669.076	-55.124	-0.312	-0.142
-668.062	703.282	0.077	0.206
-667.047	-150.325	-0.294	0.023
-666.032	-115.063	-0.108	0.021
-665.018	76.404	0.012	-0.013
-664.003	-89.012	0.149	-0.044
-662.989	-47.881	-0.127	-0.062
-661.974	-116.287	-0.218	0.041
-660.959	245.376	-0.152	-0.258
-659.945	324.053	0.153	-0.295
-658.930	-128.075	-0.254	-0.037
-657.916	204.001	-0.087	0.136
-656.901	-200.000	-0.057	0.325
-655.886	-148.657	-0.246	0.020
-654.872	43.648	0.168	-0.155
-653.857	11.194	0.178	-0.138
-652.843	489.079	-0.119	-0.275
-651.828	221.808	-0.084	0.136
-650.814	-200.000	0.055	0.266
-649.799	-110.309	0.182	-0.038
-648.784	-146.606	-0.185	-0.016
-647.770	7.485	-0.279	-0.210
-646.755	-36.876	-0.041	0.022
-645.741	-200.000	0.059	-0.526
-644.726	-148.798	0.251	0.021
-643.711	-107.464	0.075	0.017
-642.697	54.492	0.228	-0.222
-641.682	800.000	0.087	0.359
-640.668	-70.091	0.328	-0.126
-639.653	-155.613	0.013	-0.001
-638.638	-200.000	-0.021	-0.226
-637.624	319.972	0.006	0.012
-636.609	117.697	-0.120	-0.149
-635.595	70.495	-0.115	0.120
-634.580	-95.379	-0.179	-0.049
-633.565	74.137	0.119	-0.126
-632.551	-94.898	-0.116	0.032
-631.536	800.000	0.036	-0.102
-630.522	331.789	-0.045	-0.088
-629.507	-200.000	-0.037	0.248
-628.492	-25.140	-0.047	0.028
-627.478	-124.087	0.135	-0.021
-626.463	-165.642	0.171	-0.007
-625.449	-92.955	0.138	-0.039
-624.434	284.760	-0.160	0.290
-623.419	510.753	-0.186	0.435
-622.405	-200.000	-0.032	0.259
-621.390	-200.000	-0.007	-0.106
-620.376	-79.854	0.271	-0.092
-619.361	-71.286	-0.277	-0.105
-618.346	222.772	0.227	0.368
-617.332	13.820	-0.060	0.047
-616.317	800.000	0.027	-0.089
-615.303	-75.694	0.224	0.080
-614.288	185.323	-0.125	-0.187
-613.273	-86.044	-0.256	0.080
-612.259	107.116	-0.189	-0.227
-611.244	229.142	0.160	0.264
-610.230	-115.969	-0.068	0.013
-609.215	800.000	0.072	-0.305
-608.201	-200.000	-0.037	0.285
-607.186	-200.000	-0.006	0.169
-606.171	-31.834	0.081	-0.046
-605.157	-142.624	0.255	0.025
-604.142	-185.976	0.235	-0.003
-603.128	-126.981	0.403	0.060
-602.113	800.000	0.012	0.048
-601.098	202.821	-0.141	-0.219
-600.084	-132.219	0.266	0.035
-599.069	-146.705	-0.201	0.018
-598.055	-23.599	0.145	0.088
-597.040	256.614	-0.135	0.234
-596.025	4.771	0.148	-0.110
-595.011	-131.623	0.450	0.060
-593.996	-20.571	-0.337	0.209
-592.982	-83.521	0.365	-0.118
-591.967	184.353	-0.116	-0.173
-590.952	606.710	0.055	-0.138
-589.938	-114.711	-0.110	0.021
-588.923	-200.000	-0.018	-0.330
-587.909	800.000	-0.076	-0.312
-586.894	-48.741	-0.317	-0.153
-585.879	-200.000	0.022	0.173
-584.865	800.000	-0.070	0.255
-583.850	41.227	0.100	0.091
-582.836	-149.620	-0.089	-0.007
-581.821	112.534	0.128	-0.156
-580.806	-200.000	0.005	0.158
-579.792	-80.058	0.427	0.144
-578.777	45.897	-0.200	0.186
-577.763	41.886	-0.244	0.223
-576.748	127.657	-0.088	0.113
-575.733	100.392	0.186	-0.218
-574.719	-68.629	-0.285	0.111
-573.704	38.575	-0.079	0.071
-572.690	-30.350	0.295	0.169
-571.675	107.177	0.063	-0.076
-570.661	-200.000	0.020	0.208
-569.646	-42.583	-0.279	-0.143
-568.631	-200.000	0.038	0.202
-567.617	14.323	-0.244	-0.191
-566.602	69.195	0.279	0.289
-565.588	-149.159	-0.365	-0.029
-564.573	-170.657	-0.240	0.008
-563.558	228.890	0.113	0.186
-562.544	131.906	0.150	0.194
-561.529	220.625	-0.087	-0.140
-560.515	29.927	-0.214	0.183
-559.500	-36.592	-0.387	-0.209
-558.485	-149.798	0.209	0.017
-557.471	-155.022	-0.138	-0.009
-556.456	98.448	-0.243	0.282
-555.442	-140.777	0.429	-0.045
-554.427	295.993	0.058	-0.107
-553.412	-138.788	0.163	-0.018
-552.398	-95.895	-0.321	0.086
-551.383	296.242	0.044	0.081
-550.369	375.180	0.103	0.211
-549.354	-109.190	-0.092	0.020
-548.339	-183.314	0.181	0.003
-547.325	-17.996	0.101	0.064
-546.310	-93.935	-0.281	0.078
-545.296	-125.419	0.355	-0.054
-544.281	149.983	0.076	-0.104
-543.266	54.780	0.111	0.108
-542.252	-200.000	0.030	0.240
-541.237	-58.831	0.172	0.075
-540.223	-200.000	0.018	-0.175
-539.208	-200.000	-0.001	-0.058
-538.193	-145.819	-0.193	-0.017
-537.179	123.932	0.094	0.119
-536.164	-186.028	0.225	0.003
-535.150	-152.890	0.332	0.024
-534.135	-200.000	0.052	-0.407
-533.121	-28.803	-0.107	0.062
-532.106	51.346	-0.215	0.205
-531.091	-184.100	0.182	-0.003
-530.077	123.220	-0.068	-0.086
-529.062	169.836	-0.042	-0.060
-528.048	-15.902	-0.176	-0.112
-527.033	-97.170	-0.115	0.030
-526.018	-86.891	-0.090	0.028
-525.004	-200.000	-0.066	-0.468
-523.989	209.665	0.163	0.257
-522.975	800.000	-0.052	0.145
-521.960	404.828	-0.098	0.208
-520.945	-67.724	-0.085	0.033
-519.931	697.252	-0.108	0.286
-518.916	-110.407	-0.346	0.072
-517.902	-200.000	0.025	0.125
-516.887	70.577	-0.254	0.264
-515.872	489.755	-0.065	-0.149
-514.858	-200.000	0.008	0.122
-513.843	800.000	-0.012	0.041
-512.829	-65.171	-0.054	-0.022
-511.814	-200.000	0.039	0.384
-510.799	-78.058	-0.384	0.133
-509.785	-77.870	-0.145	-0.050
-508.770	-200.000	-0.100	-0.467
-507.756	383.028	-0.095	-0.196
-506.741	88.501	0.120	-0.134
-505.726	-47.642	-0.145	0.070
-504.712	-147.434	0.106	-0.009
-503.697	-52.098	-0.394	0.184
-502.683	41.502	-0.091	-0.083
-501.668	61.397	-0.161	-0.161
-500.653	-32.000	-0.170	0.096
-499.639	12.607	-0.300	-0.232
-498.624	-200.000	-0.061	-0.311
-497.610	-40.504	0.121	-0.063
-496.595	-200.000	0.022	-0.143
-495.581	-26.355	0.291	0.172
-494.566	199.051	-0.118	-0.181
-493.551	50.770	-0.349	-0.331
-492.537	203.104	0.188	0.291
-491.522	-200.000	0.015	0.238
-490.508	-93.223	0.202	0.056
-489.493	-200.000	0.039	-0.271
-488.478	-161.938	-0.256	0.013
-487.464	-128.974	0.078	-0.011
-486.449	-200.000	0.007	0.128
-485.435	-4.116	-0.142	-0.098
-484.420	-72.901	-0.106	-0.039
-483.405	-136.025	0.090	0.011
-482.391	-102.382	0.217	0.052
-481.376	-200.000	0.001	-0.173
-480.362	33.133	-0.318	-0.277
-479.347	-200.000	0.057	-0.316
-478.332	3.860	-0.068	0.050
-477.318	-150.792	0.093	-0.007
-476.303	65.164	0.215	0.218
-475.289	-90.107	0.252	-0.073
-474.274	-200.000	-0.015	0.109
-473.259	-105.656	0.096	-0.022
-472.245	183.585	0.024	-0.036
-471.230	40.434	0.230	-0.208
-470.216	-50.589	-0.334	-0.158
-469.201	800.000	0.050	-0.150
-468.186	-23.006	-0.214	-0.129
-467.172	21.323	0.293	-0.239
-466.157	-200.000	-0.012	0.084
-465.143	-35.519	-0.341	-0.186
-464.128	87.842	-0.078	0.087
-463.113	-54.933	-0.381	-0.172
-462.099	58.684	-0.156	0.153
-461.084	23.563	0.218	0.180
-460.070	-18.738	-0.128	0.080
-459.055	800.000	-0.006	0.021
-458.040	296.691	-0.074	-0.137
-457.026	76.017	-0.268	0.285
-456.011	-200.000	0.067	0.358
-454.997	-95.429	-0.261	-0.070
-453.982	-200.000	0.012	-0.095
-452.968	-200.000	-0.016	-0.202
-451.953	6.965	-0.150	0.112
-450.938	-200.000	0.014	0.105
-449.924	-97.853	-0.429	0.111
-448.909	-200.000	0.023	-0.265
-447.895	571.592	-0.103	0.252
-446.880	-78.080	-0.232	-0.080
-445.865	-64.861	0.105	0.042
-444.851	-62.147	0.442	-0.185
-443.836	295.983	0.126	-0.231
-442.822	800.000	0.057	0.180
-441.807	-139.133	-0.140	0.015
-440.792	301.532	-0.148	-0.273
-439.778	304.411	-0.031	0.057
-438.763	132.323	-0.139	-0.179
-437.749	264.146	-0.248	-0.432
-436.734	-200.000	0.051	-0.299
-435.719	-200.000	-0.023	0.143
-434.705	-6.778	0.306	-0.208
-433.690	-200.000	-0.002	-0.217
-432.676	-200.000	-0.058	-0.261
-431.661	-200.000	-0.020	-0.202
-430.646	-200.000	0.000	-0.320
-429.632	-136.864	-0.157	0.018
-428.617	-147.181	-0.258	0.022
-427.603	-200.000	-0.024	0.120
-426.588	-156.258	-0.379	-0.024
-425.573	-200.000	0.004	-0.285
-424.559	-48.391	-0.160	-0.077
-423.544	-111.467	0.154	0.031
-422.530	-194.624	0.252	0.002
-421.515	128.797	-0.066	0.085
-420.500	800.000	-0.005	-0.020
-419.486	-165.916	-0.219	0.009
-418.471	279.584	-0.153	-0.274
-417.457	9.146	0.091	-0.069
-416.442	-200.000	-0.034	0.227
-415.428	-46.231	0.142	0.070
-414.413	-33.430	-0.343	-0.190
-413.398	-34.123	0.174	0.096
-412.384	491.490	0.141	-0.324
-411.369	-41.647	0.178	-0.091
-410.355	-4.119	-0.084	0.058
-409.340	134.457	0.210	0.273
-408.325	182.475	0.105	0.155
-407.311	-52.634	-0.356	-0.164
-406.296	-200.000	-0.015	0.127
-405.282	800.000	-0.059	-0.219
-404.267	-25.955	0.047	-0.028
-403.252	77.749	-0.067	-0.072
-402.238	-149.600	-0.191	-0.015
-401.223	-129.934	-0.061	0.008
-400.209	-121.477	-0.399	-0.066
-399.194	699.686	0.028	0.073
-398.179	-200.000	-0.062	-0.280
-397.165	-8.120	-0.308	0.208
-396.150	673.703	0.144	0.373
-395.136	-200.000	0.004	0.029
-394.121	-96.252	-0.255	0.068
-393.106	800.000	0.052	0.208
-392.092	195.238	0.172	0.262
-391.077	-132.719	0.250	0.032
-390.063	-20.039	0.249	0.153
-389.048	-200.000	0.039	-0.310
-388.033	-89.210	-0.134	-0.040
-387.019	800.000	0.111	-0.399
-386.004	-69.190	0.021	-0.008
-384.990	-200.000	0.042	-0.277
-383.975	266.612	-0.200	-0.348
-382.960	61.031	-0.219	-0.217
-381.946	-200.000	-0.014	0.159
-380.931	568.747	0.098	-0.239
-379.917	118.707	-0.111	0.137
-378.902	-171.733	0.179	-0.006
-377.888	156.103	0.114	0.158
-376.873	29.272	0.140	-0.119
-375.858	-200.000	0.066	0.489
-374.844	-200.000	-0.066	-0.362
-373.829	420.749	-0.029	0.062
-372.815	149.209	0.105	0.142
-371.800	245.957	-0.188	-0.316
-370.785	-78.419	-0.235	0.081
-369.771	-200.000	0.052	0.246
-368.756	63.008	0.232	-0.232
-367.742	800.000	0.096	-0.275
-366.727	800.000	-0.032	-0.108
-365.712	-200.000	-0.039	0.254
-364.698	-200.000	-0.012	-0.076
-363.683	328.976	0.149	0.285
-362.669	800.000	-0.049	-0.176
-361.654	-63.833	-0.294	0.120
-360.639	40.819	0.093	0.084
-359.625	-200.000	0.056	0.293
-358.610	578.805	0.068	-0.167
-357.596	-158.882	0.111	0.006
-356.581	373.427	-0.107	-0.218
-355.566	-200.000	-0.069	0.421
-354.552	-42.967	0.196	0.099
-353.537	36.679	0.106	0.093
-352.523	-74.855	0.218	-0.078
-351.508	475.112	0.060	-0.136
-350.493	507.251	0.079	0.183
-349.479	578.346	-0.075	0.183
-348.464	-122.858	-0.297	-0.048
-347.450	-19.347	0.459	0.284
-346.435	6.152	-0.186	0.137
-345.420	-153.516	0.179	0.012
-344.406	800.000	-0.090	0.314
-343.391	-16.197	0.269	0.170
-342.377	-106.682	-0.114	-0.025
-341.362	-113.189	0.117	0.023
-340.348	-26.498	0.389	0.227
-339.333	133.681	0.021	-0.027
-338.318	-108.712	-0.208	0.044
-337.304	72.173	0.323	-0.335
-336.289	790.660	0.048	0.131
-335.275	800.000	-0.126	-0.439
-334.260	-200.000	-0.044	-0.331
-333.245	800.000	-0.083	-0.286
-332.231	78.682	-0.181	-0.192
-331.216	800.000	-0.098	0.404
-330.202	167.017	-0.036	-0.050
-329.187	-200.000	0.045	0.283
-328.172	-133.372	-0.105	0.013
-327.158	800.000	-0.046	-0.159
-326.143	-170.515	-0.352	0.012
-325.129	-95.124	0.281	0.076
-324.114	92.669	-0.067	-0.076
-323.099	-200.000	0.039	-0.284
-322.085	-32.140	0.122	-0.068
-321.070	-100.230	-0.217	-0.054
-320.056	-200.000	-0.027	0.345
-319.041	-137.111	0.381	-0.043
-318.026	31.734	-0.116	0.100
-317.012	80.650	-0.238	0.255
-315.997	-158.848	0.121	-0.007
-314.983	45.339	-0.076	-0.070
-313.968	800.000	0.092	0.293
-312.953	-101.106	0.165	-0.040
-311.939	-135.916	-0.055	-0.006
-310.924	-135.178	0.236	0.028
-309.910	186.048	0.108	0.159
-308.895	-200.000	0.015	-0.188
-307.880	-200.000	0.016	0.196
-306.866	25.599	0.208	-0.173
-305.851	-96.839	0.214	0.056
-304.837	-8.872	0.167	-0.112
-303.822	-75.278	-0.280	0.100
-302.807	-8.689	-0.072	0.048
-301.793	800.000	-0.042	-0.171
-300.778	72.829	0.158	0.164
-299.764	-151.268	0.390	-0.029
-298.749	123.044	0.058	-0.072
-297.735	202.735	0.135	-0.208
-296.720	800.000	-0.045	0.132
-295.705	-161.132	0.030	-0.002
-294.691	14.982	-0.086	-0.067
-293.676	800.000	-0.072	-0.274
-292.662	173.197	0.072	-0.103
-291.647	-200.000	-0.026	0.184
-290.632	-200.000	0.018	-0.334
-289.618	708.451	0.119	0.313
-288.603	-80.765	-0.135	-0.045
-287.589	-9.533	0.095	-0.063
-286.574	-66.130	0.157	0.062
-285.559	155.235	0.166	0.227
-284.545	-109.336	0.478	-0.101
-283.530	-23.296	-0.078	-0.046
-282.516	-170.785	0.132	0.005
-281.501	800.000	-0.048	0.179
-280.486	-200.000	0.002	0.155
-279.472	-82.373	-0.108	0.035
-278.457	-200.000	0.103	-0.499
-277.443	800.000	0.069	0.234
-276.428	-200.000	0.006	-0.288
-275.413	54.756	0.304	-0.291
-274.399	-110.354	-0.283	0.059
-273.384	-9.181	0.220	0.146
-272.370	-103.875	-0.152	0.035
-271.355	331.392	0.086	-0.164
-270.340	-200.000	0.050	-0.262
-269.326	693.332	0.044	-0.115
-268.311	34.810	0.076	0.066
-267.297	102.054	0.334	0.387
-266.282	-115.173	0.054	-0.010
-265.267	71.702	0.179	0.185
-264.253	800.000	-0.021	0.084
-263.238	126.517	-0.174	-0.219
-262.224	326.318	-0.088	-0.168
-261.209	-34.946	-0.225	-0.122
-260.195	202.117	0.035	0.053
-259.180	-74.813	-0.156	0.056
-258.165	73.104	-0.089	-0.093
-257.151	228.328	0.102	0.165
-256.136	518.260	0.160	-0.372
-255.122	800.000	0.092	-0.307
-254.107	800.000	0.096	0.372
-253.092	-25.099	-0.135	0.080
-252.078	460.618	-0.060	-0.133
-251.063	-100.652	-0.385	0.094
-250.049	-131.198	-0.469	-0.062
-249.034	-136.311	0.320	-0.037
-248.019	-91.608	-0.401	0.114
-247.005	-73.347	-0.047	0.017
-245.990	-152.642	0.413	0.029
-244.976	-200.000	0.003	0.063
-243.961	134.156	0.081	-0.105
-242.946	800.000	-0.052	0.163
-241.932	-200.000	0.009	0.410
-240.917	-63.692	0.161	-0.066
-239.903	800.000	0.111	-0.358
-238.888	-56.339	-0.366	-0.162
-237.873	84.782	-0.103	0.113
-236.859	214.752	-0.050	0.079
-235.844	-46.136	-0.366	-0.179
-234.830	-91.005	0.249	-0.071
-233.815	800.000	0.050	-0.146
-232.800	-200.000	0.003	-0.134
-231.786	800.000	0.042	0.179
-230.771	27.583	0.197	-0.165
-229.757	352.625	-0.031	0.061
-228.742	-73.780	0.043	0.016
-227.727	269.303	-0.196	-0.342
-226.713	800.000	0.058	0.223
-225.698	219.141	-0.098	-0.156
-224.684	399.025	-0.106	-0.220
-223.669	-132.514	0.355	0.045
-222.655	30.437	0.225	0.191
-221.640	-200.000	0.000	-0.218
-220.625	711.643	-0.056	0.146
-219.611	-72.223	-0.131	0.048
-218.596	448.075	0.095	0.208
-217.582	238.312	-0.176	0.291
-216.567	-91.195	0.114	0.032
-215.552	33.076	0.088	-0.076
-214.538	329.538	0.097	-0.184
-213.523	-153.881	-0.176	-0.012
-212.509	22.567	-0.122	0.099
-211.494	73.891	-0.214	-0.222
-210.479	-153.298	0.104	0.007
-209.465	43.256	-0.473	0.428
-208.450	-25.349	0.452	0.265
-207.436	-70.756	0.305	-0.114
-206.421	-200.000	0.003	0.047
-205.406	204.665	0.170	-0.262
-204.392	-73.173	-0.213	0.078
-203.377	-120.082	-0.270	0.046
-202.363	67.673	-0.060	0.061
-201.348	-110.584	0.295	0.061
-200.333	-18.752	0.144	0.089
-199.319	423.552	-0.057	0.121
-198.304	-32.910	0.178	0.098
-197.290	91.496	0.112	0.125
-196.275	-102.670	-0.171	0.041
-195.260	206.281	0.167	-0.258
-194.246	-99.124	0.159	-0.040
-193.231	-200.000	-0.003	-0.067
-192.217	290.785	-0.189	0.341
-191.202	800.000	-0.045	0.184
-190.187	-166.012	-0.065	0.003
-189.173	800.000	0.011	-0.042
-188.158	151.383	-0.157	0.212
-187.144	800.000	-0.036	0.144
-186.129	800.000	-0.007	0.021
-185.114	800.000	0.069	0.204
-184.100	-200.000	-0.043	-0.382
-183.085	194.875	-0.050	0.076
-182.071	690.941	0.136	0.354
-181.056	104.992	0.153	-0.179
-180.042	435.424	0.126	0.272
-179.027	-98.552	0.217	0.055
-178.012	601.806	0.056	0.138
-176.998	-52.601	0.289	0.132
-175.983	-39.508	-0.186	-0.097
-174.969	61.942	-0.090	0.088
-173.954	74.746	-0.085	-0.089
-172.939	159.321	-0.166	0.228
-171.925	-150.272	0.450	-0.034
-170.910	-119.804	-0.248	-0.042
-169.896	-137.709	0.287	0.032
-168.881	-200.000	0.034	0.209
-167.866	-200.000	-0.015	0.183
-166.852	-88.838	0.450	-0.132
-165.837	-200.000	0.019	-0.293
-164.823	-200.000	-0.044	0.313
-163.808	-160.780	-0.182	0.010
-162.793	54.974	0.189	0.181
-161.779	800.000	-0.022	-0.063
-160.764	-121.662	0.291	0.048
-159.750	-90.639	-0.192	0.055
-158.735	-67.165	0.042	-0.017
-157.720	415.314	0.106	-0.223
-156.706	13.363	0.066	0.051
-155.691	800.000	-0.059	0.212
-154.677	162.938	-0.067	-0.094
-153.662	185.992	-0.061	-0.089
-152.647	-85.985	-0.138	-0.042
-151.633	756.113	0.049	-0.130
-150.618	-158.209	0.037	-0.002
-149.604	568.892	0.104	0.251
-148.589	-179.163	-0.306	-0.007
-147.574	77.982	-0.105	0.111
-146.560	-200.000	0.030	0.211
-145.545	777.388	0.117	0.315
-144.531	84.704	-0.190	-0.206
-143.516	153.680	-0.139	-0.189
-142.502	216.227	0.072	0.113
-141.487	-62.546	-0.406	0.167
-140.472	140.055	-0.147	-0.192
-139.458	10.009	0.352	-0.265
-138.443	-185.289	0.179	0.003
-137.429	190.651	0.214	-0.318
-136.414	259.035	-0.100	0.171
-135.399	44.655	0.140	-0.128
-134.385	722.046	0.098	0.258
-133.370	-151.413	-0.075	0.006
-132.356	-200.000	-0.003	-0.058
-131.341	27.428	-0.287	0.238
-130.326	-33.725	0.081	0.044
-129.312	-121.478	-0.182	0.030
-128.297	-121.424	-0.115	0.019
-127.283	-107.112	0.318	-0.069
-126.268	-200.000	0.040	0.203
-125.253	64.148	-0.078	0.078
-124.239	-33.384	0.047	0.026
-123.224	-119.873	-0.290	0.049
-122.210	373.095	0.078	-0.157
