DTS Sentinel unit serial number:	SN413079Multiplexer serial number:	ORYXHardware model number:	OX4-SRSoftware version number:	ORYX F/W v4.00 Oryx Data Collector v3.7.2.0data status	okinstallation	princeton_trtdifferential loss correction	single-endedforward channel	channel 4reverse channel	N/Adate	2019/09/16time	14:53:35forward acquisition time	60.00reverse acquisition time	0.00gamma	496.2192k internal	0.2288k external	0.2288temperature offset calibration	0.9938default loss term (dB/km)	0.3790temperature slope calibration	1.0000multiplexer offset coefficient	1.0000multiplexer slope coefficient	1.0000fibre end	0.00T internal ref (°C)	41.31T ext. ref 1 (°C)	14.40T ext. ref 2 (°C)	35.81length (m)	temperature (°C)	Stokes	anti-Stokes-747.200	-53.266	0.258	0.121
-746.185	-200.000	0.069	0.380
-745.171	-145.538	0.225	-0.021
-744.156	29.296	-0.164	0.143
-743.142	-74.881	-0.193	0.071
-742.127	-108.489	-0.176	-0.039
-741.112	1.272	0.192	0.141
-740.098	212.834	-0.124	0.201
-739.083	-200.000	-0.029	0.139
-738.069	191.873	0.249	-0.385
-737.054	16.351	-0.135	0.110
-736.039	216.961	-0.043	0.071
-735.025	328.876	0.183	0.360
-734.010	242.179	-0.110	0.189
-732.996	33.550	-0.216	-0.193
-731.981	180.821	0.196	-0.295
-730.966	800.000	0.063	0.178
-729.952	-27.372	-0.216	-0.129
-728.937	-200.000	-0.028	0.448
-727.923	114.609	-0.155	-0.194
-726.908	-96.843	0.238	0.064
-725.894	-200.000	-0.057	-0.272
-724.879	-173.438	-0.571	0.018
-723.864	23.844	0.187	0.158
-722.850	-65.965	-0.244	-0.100
-721.835	-132.645	0.391	0.051
-720.821	-0.898	-0.194	-0.141
-719.806	-200.000	-0.058	-0.276
-718.791	116.374	-0.237	-0.297
-717.777	670.800	0.112	0.297
-716.762	140.620	-0.060	0.082
-715.748	96.849	0.208	0.245
-714.733	-84.987	0.158	-0.051
-713.718	-200.000	0.016	-0.230
-712.704	-122.368	-0.296	0.049
-711.689	-200.000	0.009	-0.272
-710.675	800.000	0.050	-0.200
-709.660	-50.073	0.267	0.129
-708.645	-5.152	-0.216	-0.152
-707.631	-66.555	0.108	-0.044
-706.616	97.685	-0.033	0.039
-705.602	-125.737	-0.218	-0.034
-704.587	-173.501	0.367	0.011
-703.572	-200.000	-0.017	0.084
-702.558	68.039	-0.271	0.284
-701.543	28.799	-0.159	-0.138
-700.529	-38.486	0.169	-0.092
-699.514	114.119	-0.215	-0.268
-698.499	-1.099	0.371	-0.268
-697.485	256.388	0.302	0.531
-696.470	-200.000	-0.058	-0.282
-695.456	-91.024	-0.084	-0.025
-694.441	341.668	0.139	0.278
-693.426	175.928	0.206	-0.306
-692.412	95.437	-0.087	0.102
-691.397	51.786	0.113	0.110
-690.383	-94.554	-0.167	0.046
-689.368	-38.211	-0.276	0.150
-688.354	800.000	0.087	0.386
-687.339	-200.000	-0.041	0.428
-686.324	19.702	0.131	-0.108
-685.310	-15.990	0.158	-0.103
-684.295	388.353	-0.061	0.130
-683.281	-79.763	-0.291	-0.100
-682.266	207.957	0.098	-0.157
-681.251	-109.411	0.039	0.009
-680.237	800.000	-0.129	0.417
-679.222	-47.295	0.128	-0.064
-678.208	52.454	0.187	0.183
-677.193	-200.000	0.062	-0.321
-676.178	-94.384	-0.439	0.122
-675.164	800.000	0.027	-0.117
-674.149	-39.998	0.252	-0.134
-673.135	-112.327	-0.345	-0.071
-672.120	-200.000	0.200	-0.001
-671.105	190.990	0.159	0.245
-670.091	-163.420	0.245	0.012
-669.076	279.689	-0.155	-0.283
-668.062	464.232	0.030	0.069
-667.047	-104.848	0.302	0.071
-666.032	800.000	-0.077	0.317
-665.018	-42.098	-0.157	0.082
-664.003	39.248	-0.112	0.102
-662.989	348.997	-0.041	0.082
-661.974	-136.230	-0.249	0.030
-660.959	29.451	0.268	-0.233
-659.945	-200.000	-0.032	-0.212
-658.930	-75.165	0.319	0.117
-657.916	-200.000	-0.017	-0.411
-656.901	-200.000	0.053	-0.259
-655.886	800.000	-0.071	-0.263
-654.872	204.911	-0.139	0.220
-653.857	-168.500	0.045	-0.002
-652.843	800.000	-0.025	-0.074
-651.828	-200.000	0.099	-0.485
-650.814	223.902	-0.090	-0.148
-649.799	-83.315	0.258	0.085
-648.784	23.171	0.127	-0.106
-647.770	225.312	-0.148	-0.244
-646.755	-200.000	-0.011	0.181
-645.741	800.000	0.092	0.385
-644.726	-200.000	0.017	-0.365
-643.711	30.518	0.100	-0.087
-642.697	-15.371	-0.207	0.135
-641.682	61.357	0.087	0.088
-640.668	-110.120	0.071	0.015
-639.653	-200.000	0.018	-0.114
-638.638	-200.000	0.089	-0.403
-637.624	800.000	-0.106	-0.459
-636.609	589.277	-0.096	-0.241
-635.595	3.325	0.030	0.022
-634.580	295.888	0.114	-0.213
-633.565	-200.000	-0.017	-0.179
-632.551	-200.000	0.003	0.082
-631.536	102.248	-0.149	-0.178
-630.522	-67.205	0.254	0.102
-629.507	-200.000	-0.010	0.166
-628.492	-41.957	-0.103	-0.054
-627.478	91.426	-0.112	-0.128
-626.463	336.482	0.101	0.200
-625.449	800.000	0.067	-0.280
-624.434	4.496	-0.239	-0.179
-623.419	-31.741	-0.288	0.165
-622.405	3.074	0.275	-0.204
-621.390	-200.000	-0.020	0.137
-620.376	66.269	-0.316	-0.328
-619.361	30.556	0.305	0.266
-618.346	-200.000	-0.003	0.032
-617.332	800.000	0.127	0.490
-616.317	-87.065	0.235	0.073
-615.303	-53.666	0.314	-0.146
-614.288	-95.422	-0.213	-0.058
-613.273	-111.769	-0.104	0.021
-612.259	-43.349	-0.149	-0.077
-611.244	-200.000	-0.041	-0.247
-610.230	450.995	0.067	-0.152
-609.215	503.808	-0.071	-0.168
-608.201	-3.908	-0.086	-0.061
-607.186	-41.906	0.279	0.146
-606.171	26.071	0.194	-0.165
-605.157	739.907	-0.165	0.451
-604.142	17.350	-0.037	-0.030
-603.128	-42.464	-0.366	-0.190
-602.113	-139.097	0.299	0.033
-601.098	24.151	0.092	-0.078
-600.084	316.620	0.177	-0.341
-599.069	-200.000	0.057	-0.330
-598.055	108.140	0.087	0.106
-597.040	-15.258	-0.135	-0.088
-596.025	-111.617	0.129	-0.027
-595.011	234.768	0.149	-0.251
-593.996	800.000	0.074	-0.212
-592.982	-200.000	-0.027	-0.197
-591.967	800.000	-0.031	-0.103
-590.952	426.945	-0.107	-0.235
-589.938	136.874	-0.282	-0.376
-588.923	776.621	-0.082	0.227
-587.909	204.529	-0.102	-0.161
-586.894	43.976	-0.068	0.063
-585.879	-200.000	0.007	-0.348
-584.865	-200.000	-0.040	0.234
-583.850	447.360	0.089	-0.200
-582.836	218.731	0.132	0.215
-581.821	-86.367	0.269	0.084
-580.806	800.000	0.038	-0.168
-579.792	217.396	0.088	0.143
-578.777	800.000	-0.071	-0.213
-577.763	-40.941	0.043	-0.023
-576.748	800.000	0.025	0.099
-575.733	174.894	0.095	0.140
-574.719	-166.073	-0.456	0.020
-573.704	-123.791	0.302	0.049
-572.690	322.469	-0.156	-0.302
-571.675	-200.000	-0.025	-0.417
-570.661	-24.163	-0.148	0.090
-569.646	58.466	-0.155	-0.155
-568.631	-3.359	-0.302	0.214
-567.617	-52.991	0.367	-0.172
-566.602	-69.688	0.168	0.065
-565.588	-17.887	0.154	-0.098
-564.573	-200.000	0.017	-0.241
-563.558	-131.800	0.248	-0.033
-562.544	-200.000	-0.012	0.309
-561.529	223.391	-0.131	0.215
-560.515	87.265	-0.056	0.063
-559.500	-100.444	0.279	-0.070
-558.485	800.000	0.078	0.268
-557.471	-67.275	-0.391	0.157
-556.456	-200.000	-0.015	0.117
-555.442	-129.385	-0.349	0.049
-554.427	701.928	-0.046	-0.124
-553.412	649.070	0.017	-0.045
-552.398	-154.372	-0.261	0.018
-551.383	141.929	-0.075	0.102
-550.369	800.000	0.040	-0.158
-549.354	800.000	0.085	0.341
-548.339	14.675	-0.294	0.234
-547.325	-200.000	0.003	0.129
-546.310	504.139	0.186	0.437
-545.296	-46.746	0.393	0.196
-544.281	478.525	-0.035	0.080
-543.266	162.748	-0.178	0.254
-542.252	608.569	-0.095	0.242
-541.237	334.458	-0.065	0.128
-540.223	-17.728	-0.104	-0.066
-539.208	289.592	0.055	0.102
-538.193	-200.000	-0.026	0.150
-537.179	-200.000	0.016	0.075
-536.164	199.978	0.310	0.483
-535.150	79.044	0.155	-0.169
-534.135	166.463	-0.034	-0.049
-533.121	18.723	-0.313	0.255
-532.106	375.915	-0.087	-0.181
-531.091	-160.405	-0.194	-0.011
-530.077	92.731	0.205	-0.236
-529.062	-200.000	0.016	0.168
-528.048	250.210	0.339	0.585
-527.033	9.465	0.082	0.063
-526.018	-2.604	-0.147	0.105
-525.004	291.301	0.064	0.118
-523.989	45.337	-0.203	0.191
-522.975	146.807	-0.102	0.139
-521.960	145.343	-0.207	-0.282
-520.945	101.495	-0.138	0.163
-519.931	-64.877	-0.126	0.052
-518.916	-129.264	0.224	-0.032
-517.902	-123.750	-0.297	0.048
-516.887	268.261	-0.084	-0.150
-515.872	-200.000	-0.047	-0.209
-514.858	-154.206	0.180	0.012
-513.843	-129.490	0.061	-0.009
-512.829	-200.000	-0.035	0.359
-511.814	-200.000	0.055	0.258
-510.799	193.620	-0.148	0.227
-509.785	59.106	0.114	0.114
-508.770	273.878	-0.066	-0.118
-507.756	-23.436	-0.325	-0.198
-506.741	-2.200	-0.075	0.054
-505.726	12.179	-0.038	0.029
-504.712	308.609	0.144	-0.274
-503.697	-90.495	-0.306	0.090
-502.683	-55.698	-0.090	0.041
-501.668	-140.344	-0.156	0.017
-500.653	800.000	0.050	-0.220
-499.639	656.091	0.069	-0.181
-498.624	18.979	0.045	0.036
-497.610	-39.148	-0.380	0.203
-496.595	-40.951	0.076	-0.040
-495.581	800.000	0.022	-0.079
-494.566	83.158	-0.067	-0.074
-493.551	-43.579	-0.169	0.087
-492.537	-122.263	-0.277	-0.046
-491.522	-53.975	0.155	0.072
-490.508	-200.000	0.053	0.253
-489.493	-60.678	0.105	-0.045
-488.478	66.672	-0.041	-0.043
-487.464	81.342	0.283	0.310
-486.449	34.591	-0.019	-0.017
-485.435	-29.618	-0.215	-0.125
-484.420	-57.656	-0.235	0.105
-483.405	191.413	0.103	-0.158
-482.391	-117.594	-0.240	0.044
-481.376	-200.000	0.015	-0.108
-480.362	-200.000	-0.104	-0.576
-479.347	135.118	0.059	-0.078
-478.332	78.753	-0.021	0.023
-477.318	370.790	0.083	-0.170
-476.303	-45.683	-0.238	-0.119
-475.289	-200.000	0.038	-0.204
-474.274	791.519	0.162	-0.452
-473.259	41.424	-0.065	-0.059
-472.245	-171.180	0.332	-0.011
-471.230	1.390	0.318	-0.232
-470.216	-200.000	-0.016	-0.235
-469.201	-59.814	-0.110	0.048
-468.186	-200.000	0.017	0.119
-467.172	-92.799	-0.151	0.043
-466.157	-200.000	-0.049	0.243
-465.143	-200.000	0.016	-0.320
-464.128	-72.507	0.083	-0.031
-463.113	-200.000	0.003	0.169
-462.099	-12.382	-0.041	0.027
-461.084	-124.889	0.182	0.029
-460.070	-48.746	-0.114	0.056
-459.055	-52.124	0.272	-0.128
-458.040	-109.377	-0.270	-0.058
-457.026	800.000	0.101	0.358
-456.011	42.376	0.129	-0.119
-454.997	155.598	0.026	-0.036
-453.982	800.000	0.070	0.208
-452.968	-141.458	-0.179	-0.018
-451.953	-134.017	0.277	0.035
-450.938	-88.959	-0.103	0.031
-449.924	68.690	-0.297	0.309
-448.909	-107.914	0.408	-0.090
-447.895	-171.289	-0.233	-0.008
-446.880	-200.000	-0.015	0.330
-445.865	-102.901	-0.045	-0.011
-444.851	128.205	0.185	-0.238
-443.836	-12.358	0.241	-0.159
-442.822	-53.871	-0.148	0.068
-441.807	-133.965	0.174	-0.022
-440.792	-54.397	-0.064	-0.029
-439.778	-200.000	0.079	0.379
-438.763	-73.055	0.363	0.135
-437.749	123.914	-0.202	-0.257
-436.734	-200.000	-0.027	0.279
-435.719	13.409	0.203	-0.159
-434.705	72.568	-0.108	-0.114
-433.690	-200.000	0.009	-0.077
-432.676	-200.000	-0.003	-0.143
-431.661	-200.000	-0.011	0.174
-430.646	416.143	0.094	0.203
-429.632	-200.000	0.005	0.082
-428.617	-200.000	0.004	0.358
-427.603	53.137	0.093	-0.090
-426.588	74.173	0.283	-0.301
-425.573	-134.579	0.177	0.022
-424.559	721.441	0.127	-0.343
-423.544	154.839	-0.099	-0.137
-422.530	-20.543	0.055	0.034
-421.515	-150.678	-0.518	-0.040
-420.500	175.497	0.023	0.033
-419.486	800.000	0.063	-0.197
-418.471	80.873	0.131	-0.143
-417.457	-13.750	-0.126	-0.083
-416.442	317.675	-0.138	-0.265
-415.428	-135.233	-0.188	-0.023
-414.413	-120.303	-0.449	0.077
-413.398	-74.010	-0.115	0.042
-412.384	-115.171	0.152	0.029
-411.369	-122.062	-0.211	0.035
-410.355	-11.224	-0.180	0.120
-409.340	-47.940	-0.339	-0.166
-408.325	800.000	-0.066	-0.214
-407.311	-139.541	0.182	0.020
-406.296	478.957	0.142	-0.325
-405.282	640.630	-0.100	-0.258
-404.267	-51.936	0.206	0.097
-403.252	-120.844	0.350	0.060
-402.238	800.000	0.079	0.314
-401.223	306.294	0.146	-0.275
-400.209	603.508	-0.144	-0.361
-399.194	203.368	0.130	0.204
-398.179	-92.407	0.160	0.046
-397.165	395.975	-0.117	0.247
-396.150	38.234	0.234	0.211
-395.136	13.137	-0.138	-0.108
-394.121	-93.464	0.061	-0.017
-393.106	80.799	-0.180	-0.197
-392.092	-130.622	0.210	-0.029
-391.077	78.963	-0.193	-0.209
-390.063	110.516	-0.239	-0.291
-389.048	-52.876	0.081	-0.038
-388.033	-112.872	0.112	-0.022
-387.019	411.064	-0.171	0.366
-386.004	54.906	-0.157	0.153
-384.990	-200.000	-0.006	0.102
-383.975	-26.672	-0.207	-0.122
-382.960	-169.550	-0.461	0.017
-381.946	-170.380	-0.497	-0.018
-380.931	88.371	0.196	0.220
-379.917	321.656	-0.097	-0.186
-378.902	800.000	0.020	-0.067
-377.888	185.521	0.155	-0.232
-376.873	207.460	0.085	-0.134
-375.858	-200.000	0.041	0.367
-374.844	315.869	-0.134	0.256
-373.829	-122.826	-0.083	-0.014
-372.815	-119.650	-0.432	-0.075
-371.800	-200.000	0.008	-0.131
-370.785	-200.000	0.007	0.087
-369.771	-11.921	0.135	-0.090
-368.756	-113.605	-0.126	0.025
-367.742	-200.000	-0.041	-0.216
-366.727	-200.000	0.010	0.148
-365.712	-111.263	0.328	-0.068
-364.698	177.235	0.273	0.401
-363.683	370.502	0.015	-0.031
-362.669	800.000	0.041	0.145
-361.654	4.098	-0.239	0.177
-360.639	-104.950	0.438	-0.101
-359.625	-200.000	-0.017	0.109
-358.610	156.526	-0.168	-0.234
-357.596	187.959	-0.105	-0.158
-356.581	-118.575	0.128	-0.023
-355.566	52.551	-0.192	0.185
-354.552	800.000	0.077	-0.303
-353.537	274.205	-0.066	-0.117
-352.523	426.089	-0.026	0.056
-351.508	-98.337	-0.254	-0.066
-350.493	279.224	0.148	-0.266
-349.479	175.595	-0.062	-0.090
-348.464	324.257	0.128	-0.247
-347.450	-66.039	-0.306	-0.123
-346.435	62.274	0.138	-0.140
-345.420	-28.649	0.123	-0.072
-344.406	437.200	0.137	0.302
-343.391	350.688	-0.033	0.066
-342.377	32.261	-0.082	-0.071
-341.362	-126.511	-0.032	-0.005
-340.348	-174.229	-0.235	-0.007
-339.333	-17.233	-0.225	0.143
-338.318	-200.000	-0.006	0.056
-337.304	-40.650	0.435	0.228
-336.289	-136.541	-0.148	-0.017
-335.275	800.000	-0.027	0.116
-334.260	-94.850	-0.194	0.053
-333.245	-129.929	0.083	0.011
-332.231	-92.259	-0.151	0.043
-331.216	800.000	-0.112	0.335
-330.202	-63.169	-0.295	0.123
-329.187	800.000	-0.080	0.228
-328.172	62.245	0.065	0.065
-327.158	113.017	0.139	-0.170
-326.143	95.328	-0.100	-0.115
-325.129	800.000	-0.065	-0.249
-324.114	-81.685	0.228	-0.076
-323.099	-200.000	-0.005	0.145
-322.085	3.539	-0.254	0.187
-321.070	87.993	-0.114	-0.128
-320.056	800.000	0.027	-0.105
-319.041	-24.705	-0.161	0.096
-318.026	69.258	0.307	-0.319
-317.012	800.000	-0.127	-0.508
-315.997	-200.000	0.005	0.028
-314.983	41.685	0.203	0.185
-313.968	89.623	0.210	0.236
-312.953	800.000	-0.081	0.338
-311.939	63.337	-0.112	-0.113
-310.924	-129.552	0.290	0.040
-309.910	800.000	0.076	-0.241
-308.895	-145.543	0.327	0.030
-307.880	-200.000	-0.023	0.159
-306.866	-180.989	0.317	0.006
-305.851	-100.371	-0.155	0.039
-304.837	92.416	0.284	0.323
-303.822	-76.764	-0.193	-0.068
-302.807	-91.730	0.298	0.085
-301.793	495.899	0.007	-0.017
-300.778	410.456	0.086	0.184
-299.764	391.927	-0.030	0.062
-298.749	-34.181	-0.326	0.180
-297.735	141.934	-0.213	-0.285
-296.720	442.309	0.075	-0.166
-295.705	-200.000	0.002	-0.112
-294.691	648.060	-0.084	-0.217
-293.676	136.135	-0.258	0.339
-292.662	-144.717	-0.031	0.003
-291.647	255.671	0.124	0.214
-290.632	21.220	0.296	-0.242
-289.618	40.987	-0.104	-0.095
-288.603	53.751	-0.132	0.128
-287.589	153.406	0.195	0.269
-286.574	681.186	0.081	0.213
-285.559	145.459	0.127	0.172
-284.545	-200.000	-0.068	0.351
-283.530	77.701	0.165	0.177
-282.516	-196.446	0.244	0.002
-281.501	-200.000	0.006	-0.120
-280.486	-69.383	-0.022	-0.009
-279.472	424.832	-0.139	0.302
-278.457	795.274	-0.062	-0.171
-277.443	-200.000	0.043	0.253
-276.428	183.772	0.139	-0.208
-275.413	141.011	0.266	0.354
-274.399	800.000	0.140	0.448
-273.384	207.200	-0.195	-0.305
-272.370	-81.799	0.183	-0.060
-271.355	458.024	0.113	0.254
-270.340	589.923	-0.065	0.161
-269.326	-158.638	0.188	-0.011
-268.311	367.901	0.133	-0.270
-267.297	-129.650	0.139	0.019
-266.282	-80.222	-0.271	-0.091
-265.267	-72.017	0.084	-0.031
-264.253	263.812	0.165	0.288
-263.238	446.576	-0.142	-0.313
-262.224	490.376	0.173	-0.397
-261.209	-80.757	-0.207	0.069
-260.195	-179.092	-0.324	0.007
-259.180	-88.464	-0.100	-0.030
-258.165	740.031	0.021	-0.057
-257.151	800.000	-0.022	0.085
-256.136	102.435	-0.058	-0.069
-255.122	61.618	-0.178	-0.178
-254.107	514.791	0.170	-0.399
-253.092	1.701	0.105	0.076
-252.078	305.091	-0.145	-0.272
-251.063	-200.000	0.008	-0.043
-250.049	-118.288	-0.333	-0.060
-249.034	-200.000	0.009	-0.058
-248.019	178.898	0.113	-0.166
-247.005	27.788	-0.346	0.293
-245.990	-140.346	0.147	0.015
-244.976	53.893	-0.105	0.101
-243.961	-200.000	-0.049	-0.419
-242.946	-200.000	-0.002	-0.276
-241.932	252.368	0.224	0.384
-240.917	35.929	0.170	-0.150
-239.903	-142.793	-0.335	-0.033
-238.888	216.202	0.182	0.291
-237.873	-33.158	0.251	-0.140
-236.859	-200.000	-0.008	-0.203
-235.844	-66.750	0.134	0.053
-234.830	-200.000	-0.027	0.251
-233.815	-200.000	0.026	0.448
-232.800	-110.195	-0.181	-0.038
-231.786	800.000	-0.041	-0.165
-230.771	-200.000	0.030	-0.207
-229.757	253.003	0.201	-0.344
-228.742	-61.522	-0.098	0.041
-227.727	335.266	0.032	-0.061
-226.713	-176.121	0.227	-0.006
-225.698	56.142	-0.129	0.126
-224.684	42.380	-0.094	-0.086
-223.669	-200.000	-0.008	0.112
-222.655	-200.000	0.001	0.077
-221.640	17.404	-0.163	-0.130
-220.625	-200.000	0.082	0.390
-219.611	290.820	0.067	0.122
-218.596	-155.993	0.171	0.011
-217.582	283.775	-0.158	0.285
-216.567	201.299	0.125	0.194
-215.552	271.732	0.126	0.222
-214.538	-200.000	-0.004	-0.328
-213.523	-148.292	-0.349	-0.029
-212.509	-9.522	-0.059	-0.039
-211.494	-165.266	0.192	0.008
-210.479	210.001	0.073	-0.115
-209.465	-4.075	0.221	0.153
-208.450	-54.734	0.161	-0.073
-207.436	-62.677	-0.393	0.164
-206.421	800.000	0.034	-0.100
-205.406	800.000	-0.093	-0.334
-204.392	-183.851	-0.188	0.003
-203.377	-172.511	0.062	0.002
-202.363	-200.000	0.009	-0.363
-201.348	-72.575	0.166	-0.062
-200.333	800.000	-0.069	0.220
-199.319	-95.646	-0.063	0.017
-198.304	130.240	-0.087	0.112
-197.290	436.746	0.088	-0.192
-196.275	-140.129	-0.255	-0.027
-195.260	62.243	-0.026	-0.026
-194.246	-59.115	0.281	0.122
-193.231	-9.124	-0.245	0.165
-192.217	168.152	-0.113	0.161
-191.202	84.252	-0.082	-0.090
-190.187	-96.613	0.068	-0.018
-189.173	-76.192	0.065	0.023
-188.158	800.000	-0.032	-0.112
-187.144	272.202	0.150	0.266
-186.129	800.000	-0.020	-0.060
-185.114	-200.000	-0.060	0.316
-184.100	128.706	0.223	0.285
-183.085	-200.000	-0.074	-0.407
-182.071	-60.742	-0.050	-0.021
-181.056	800.000	-0.081	-0.322
-180.042	-89.714	0.352	0.103
-179.027	327.817	-0.124	-0.239
-178.012	-48.330	0.105	0.051
-176.998	-124.305	0.049	-0.008
-175.983	283.526	0.249	0.448
-174.969	34.129	0.057	0.050
-173.954	-156.193	0.297	-0.019
-172.939	277.752	0.134	-0.240
-171.925	-200.000	-0.060	0.385
-170.910	-22.280	-0.186	-0.113
-169.896	-4.645	0.108	0.075
-168.881	150.879	0.147	0.200
-167.866	-37.450	0.228	-0.122
-166.852	70.031	-0.085	0.088
-165.837	212.160	-0.111	-0.175
-164.823	-95.214	0.243	-0.066
-163.808	-200.000	0.005	0.380
-162.793	23.871	0.081	-0.067
-161.779	-70.916	-0.066	-0.025
-160.764	-184.496	0.121	0.002
-159.750	67.596	0.132	0.135
-158.735	75.386	-0.113	0.120
-157.720	216.373	-0.103	-0.163
-156.706	186.450	0.034	0.050
-155.691	83.601	0.091	0.100
-154.677	47.576	0.231	0.216
-153.662	-110.924	-0.246	-0.051
-152.647	27.761	0.155	-0.130
-151.633	-200.000	0.074	0.386
-150.618	574.323	0.067	-0.164
-149.604	-200.000	0.012	0.129
-148.589	-200.000	0.065	0.401
-147.574	178.983	0.104	-0.152
-146.560	-107.229	0.194	-0.043
-145.545	-200.000	0.020	0.144
-144.531	-3.309	0.012	0.009
-143.516	-200.000	-0.001	-0.145
-142.502	404.459	-0.175	0.369
-141.487	-107.560	0.232	0.051
-140.472	-77.530	0.144	0.050
-139.458	-76.275	-0.249	0.088
-138.443	21.568	-0.317	0.258
-137.429	-70.022	-0.108	0.041
-136.414	-156.135	0.364	-0.023
-135.399	-200.000	-0.004	-0.186
-134.385	800.000	0.022	-0.064
-133.370	103.732	-0.241	-0.283
-132.356	-94.935	-0.297	0.080
-131.341	184.051	-0.141	0.209
-130.326	392.417	-0.063	0.130
-129.312	-98.428	0.230	-0.059
-128.297	-35.590	-0.228	-0.124
-127.283	-121.858	-0.275	-0.045
-126.268	-6.012	0.224	0.153
-125.253	800.000	-0.060	-0.215
-124.239	-200.000	-0.018	0.291
-123.224	800.000	-0.041	0.176
-122.210	-36.344	0.225	0.121
-121.195	-114.485	0.095	0.018
