DTS Sentinel unit serial number:	SN413079Multiplexer serial number:	ORYXHardware model number:	OX4-SRSoftware version number:	ORYX F/W v4.00 Oryx Data Collector v3.7.2.0data status	okinstallation	princeton_trtdifferential loss correction	single-endedforward channel	channel 4reverse channel	N/Adate	2019/09/13time	06:25:35forward acquisition time	60.00reverse acquisition time	0.00gamma	496.2192k internal	0.2323k external	0.2323temperature offset calibration	1.0200default loss term (dB/km)	0.3790temperature slope calibration	1.0000multiplexer offset coefficient	1.0000multiplexer slope coefficient	1.0000fibre end	0.00T internal ref (°C)	26.06T ext. ref 1 (°C)	4.09T ext. ref 2 (°C)	20.72length (m)	temperature (°C)	Stokes	anti-Stokes-747.200	800.000	0.046	0.202
-746.185	-89.302	-0.188	-0.056
-745.171	17.747	0.042	0.034
-744.156	800.000	0.076	-0.299
-743.142	800.000	-0.088	-0.327
-742.127	117.038	0.079	0.098
-741.112	-200.000	0.002	-0.260
-740.098	-200.000	-0.066	0.479
-739.083	45.908	0.116	-0.109
-738.069	800.000	-0.074	0.264
-737.054	-127.103	-0.111	0.016
-736.039	-144.369	-0.145	-0.014
-735.025	59.349	0.244	0.243
-734.010	187.756	-0.108	-0.163
-732.996	234.406	0.109	-0.181
-731.981	800.000	-0.040	-0.157
-730.966	-29.710	-0.332	-0.191
-729.952	-200.000	0.041	-0.253
-728.937	-200.000	0.001	0.030
-727.923	-200.000	0.006	0.112
-726.908	-200.000	-0.013	-0.178
-725.894	-200.000	-0.282	0.000
-724.879	125.490	0.046	-0.058
-723.864	-32.530	-0.070	-0.039
-722.850	-108.267	0.166	0.036
-721.835	-35.614	0.123	-0.067
-720.821	32.723	0.173	-0.151
-719.806	-25.732	0.010	-0.006
-718.791	-200.000	0.006	0.129
-717.777	-23.451	-0.131	0.079
-716.762	-69.835	0.407	-0.157
-715.748	246.520	-0.155	0.263
-714.733	800.000	0.060	-0.184
-713.718	-200.000	-0.010	-0.252
-712.704	35.474	-0.048	-0.042
-711.689	800.000	-0.050	-0.165
-710.675	-71.902	-0.080	0.030
-709.660	-62.074	0.134	0.056
-708.645	-200.000	-0.010	-0.138
-707.631	148.273	0.088	-0.120
-706.616	-200.000	0.020	0.116
-705.602	-50.089	0.181	0.087
-704.587	679.381	-0.050	-0.132
-703.572	-200.000	-0.012	-0.139
-702.558	282.713	-0.051	-0.093
-701.543	-27.033	-0.239	0.141
-700.529	-127.075	0.247	-0.036
-699.514	-31.567	-0.184	-0.104
-698.499	51.001	-0.200	-0.191
-697.485	123.984	0.244	0.309
-696.470	-200.000	0.005	-0.271
-695.456	22.272	-0.151	0.124
-694.441	800.000	0.107	0.309
-693.426	-200.000	-0.007	0.444
-692.412	-200.000	0.008	-0.053
-691.397	121.368	-0.098	0.123
-690.383	-116.397	0.179	0.033
-689.368	-136.502	-0.154	-0.018
-688.354	238.716	0.103	0.173
-687.339	676.703	0.100	-0.261
-686.324	688.092	0.048	-0.127
-685.310	-200.000	-0.025	-0.315
-684.295	407.713	-0.184	0.391
-683.281	-28.685	0.152	-0.088
-682.266	71.138	0.221	-0.231
-681.251	-166.048	-0.078	-0.003
-680.237	32.510	-0.250	-0.218
-679.222	-94.740	0.119	0.033
-678.208	800.000	0.036	0.148
-677.193	137.130	0.114	-0.150
-676.178	722.708	0.231	-0.620
-675.164	-1.211	-0.162	-0.115
-674.149	-134.910	0.273	-0.033
-673.135	-200.000	-0.032	-0.251
-672.120	-115.616	-0.068	-0.013
-671.105	-171.123	0.363	0.012
-670.091	15.621	0.184	-0.145
-669.076	-116.837	-0.234	0.043
-668.062	-86.471	0.250	0.077
-667.047	-108.385	-0.054	-0.012
-666.032	54.774	0.021	0.021
-665.018	67.244	-0.363	-0.373
-664.003	539.328	0.072	0.173
-662.989	142.589	0.115	-0.153
-661.974	-61.063	-0.269	-0.114
-660.959	479.856	0.142	-0.323
-659.945	239.755	0.093	0.156
-658.930	-200.000	-0.139	-0.000
-657.916	41.786	-0.068	0.062
-656.901	-75.381	-0.344	0.123
-655.886	-91.838	0.170	-0.049
-654.872	572.964	-0.127	-0.312
-653.857	-200.000	0.012	-0.112
-652.843	-121.360	-0.113	-0.019
-651.828	-86.467	-0.234	-0.072
-650.814	364.919	0.052	0.106
-649.799	41.469	-0.044	-0.040
-648.784	-65.214	-0.315	-0.128
-647.770	430.152	-0.071	-0.154
-646.755	-144.183	-0.231	-0.022
-645.741	-132.402	-0.257	0.033
-644.726	-134.922	-0.179	0.022
-643.711	-200.000	0.011	-0.219
-642.697	-27.657	0.330	0.193
-641.682	-128.918	-0.265	0.037
-640.668	-200.000	-0.007	-0.049
-639.653	-41.152	0.227	-0.118
-638.638	264.975	-0.119	0.209
-637.624	517.728	0.017	0.039
-636.609	786.009	0.050	0.138
-635.595	131.727	-0.309	-0.400
-634.580	-78.595	-0.237	-0.081
-633.565	165.279	0.074	0.105
-632.551	781.387	0.097	0.266
-631.536	0.012	-0.019	0.014
-630.522	205.174	-0.201	-0.314
-629.507	-76.751	0.049	0.017
-628.492	129.283	-0.064	-0.082
-627.478	38.107	0.128	0.114
-626.463	-119.163	-0.423	-0.074
-625.449	275.567	0.136	0.242
-624.434	126.843	-0.142	-0.181
-623.419	-45.753	-0.257	0.128
-622.405	51.162	-0.155	0.148
-621.390	-84.100	0.399	-0.127
-620.376	260.959	-0.129	-0.225
-619.361	-122.645	0.398	-0.065
-618.346	-38.490	-0.238	-0.127
-617.332	55.122	-0.163	-0.158
-616.317	-200.000	-0.002	0.187
-615.303	-123.099	0.241	-0.039
-614.288	109.392	-0.199	-0.240
-613.273	-90.666	0.209	-0.061
-612.259	-22.169	0.278	0.170
-611.244	-77.285	-0.207	0.072
-610.230	196.083	-0.120	-0.183
-609.215	800.000	0.082	0.308
-608.201	-191.860	0.189	-0.002
-607.186	33.397	0.272	-0.237
-606.171	-200.000	0.019	0.255
-605.157	166.589	-0.137	0.196
-604.142	-200.000	0.023	0.378
-603.128	-110.145	0.040	-0.008
-602.113	62.303	0.109	-0.109
-601.098	264.831	-0.039	0.068
-600.084	-166.155	0.096	0.004
-599.069	343.812	-0.074	-0.146
-598.055	-130.021	-0.137	-0.019
-597.040	47.667	0.215	-0.202
-596.025	-200.000	-0.021	0.407
-595.011	-14.037	-0.262	-0.170
-593.996	190.736	0.110	-0.166
-592.982	800.000	0.056	0.177
-591.967	-45.690	-0.459	-0.228
-590.952	140.475	-0.075	-0.100
-589.938	-49.132	-0.379	-0.182
-588.923	800.000	0.037	-0.148
-587.909	49.026	-0.162	0.153
-586.894	800.000	-0.192	-0.569
-585.879	67.510	0.113	0.116
-584.865	-100.301	0.193	0.048
-583.850	718.628	-0.029	-0.078
-582.836	-8.528	-0.228	0.154
-581.821	-44.475	0.268	-0.135
-580.806	-200.000	-0.053	-0.425
-579.792	61.285	-0.332	-0.331
-578.777	-200.000	-0.101	-0.565
-577.763	-142.163	-0.242	0.024
-576.748	-40.542	-0.019	-0.010
-575.733	-200.000	0.016	-0.276
-574.719	-91.826	0.129	-0.037
-573.704	-200.000	0.065	-0.326
-572.690	-46.375	-0.110	-0.054
-571.675	800.000	-0.014	0.058
-570.661	320.104	-0.080	-0.152
-569.646	329.032	-0.133	-0.257
-568.631	-200.000	0.019	0.149
-567.617	-90.143	0.197	-0.058
-566.602	-139.996	-0.391	0.041
-565.588	182.812	0.258	-0.381
-564.573	5.146	-0.249	-0.184
-563.558	-11.365	0.090	-0.059
-562.544	-133.525	0.283	0.036
-561.529	-200.000	-0.013	0.278
-560.515	-155.093	0.379	0.025
-559.500	177.266	0.139	-0.202
-558.485	111.461	0.133	-0.161
-557.471	164.840	0.125	0.177
-556.456	-200.000	-0.012	0.152
-555.442	38.784	0.213	-0.191
-554.427	-98.605	-0.137	-0.035
-553.412	82.295	0.227	0.247
-552.398	-93.790	-0.099	-0.027
-551.383	-37.056	0.196	0.105
-550.369	-200.000	-0.037	-0.262
-549.354	42.341	-0.296	-0.269
-548.339	-200.000	0.072	0.413
-547.325	643.410	0.132	-0.338
-546.310	113.959	0.075	-0.092
-545.296	800.000	-0.061	0.213
-544.281	-200.000	-0.028	-0.233
-543.266	-39.636	-0.100	0.052
-542.252	-156.283	0.095	-0.006
-541.237	-53.044	-0.121	0.056
-540.223	-62.681	0.146	-0.061
-539.208	800.000	-0.033	0.126
-538.193	-75.336	0.094	0.034
-537.179	-6.267	0.067	-0.046
-536.164	-179.911	-0.040	0.001
-535.150	-40.512	0.168	0.087
-534.135	85.027	-0.111	-0.121
-533.121	-50.562	-0.091	-0.043
-532.106	527.650	-0.084	-0.198
-531.091	401.254	0.077	0.161
-530.077	-79.563	0.162	-0.055
-529.062	38.134	0.170	-0.152
-528.048	-200.000	0.009	-0.123
-527.033	319.944	-0.120	-0.229
-526.018	-200.000	-0.063	0.322
-525.004	-80.193	-0.113	-0.038
-523.989	-200.000	-0.048	0.281
-522.975	15.358	-0.181	-0.142
-521.960	-56.044	-0.189	0.084
-520.945	-200.000	-0.003	-0.096
-519.931	-200.000	-0.031	0.249
-518.916	-200.000	-0.009	0.205
-517.902	-200.000	-0.044	0.246
-516.887	87.633	0.132	-0.147
-515.872	-22.618	-0.286	-0.173
-514.858	-51.263	0.070	-0.033
-513.843	-200.000	0.004	0.163
-512.829	-152.460	-0.098	-0.007
-511.814	68.820	-0.223	-0.229
-510.799	-0.814	-0.207	0.147
-509.785	50.552	0.206	0.195
-508.770	742.995	-0.043	-0.116
-507.756	-86.186	-0.339	0.104
-506.741	136.373	0.152	-0.199
-505.726	800.000	-0.059	-0.233
-504.712	52.956	0.132	-0.127
-503.697	-20.155	-0.242	0.149
-502.683	800.000	-0.057	0.175
-501.668	800.000	-0.025	0.095
-500.653	203.826	0.113	0.174
-499.639	-200.000	0.069	0.402
-498.624	800.000	-0.038	-0.138
-497.610	-200.000	0.001	-0.066
-496.595	-200.000	0.015	-0.104
-495.581	358.806	0.093	0.185
-494.566	3.896	0.076	-0.055
-493.551	-115.351	0.208	0.039
-492.537	-100.338	-0.024	-0.006
-491.522	-138.814	-0.283	0.031
-490.508	-118.716	0.411	0.072
-489.493	17.809	-0.123	0.098
-488.478	274.543	0.107	0.190
-487.464	-70.036	0.225	-0.086
-486.449	-89.726	0.316	0.093
-485.435	-183.226	-0.176	0.003
-484.420	-12.096	-0.049	-0.032
-483.405	-6.111	0.120	-0.082
-482.391	800.000	0.064	0.239
-481.376	-22.618	-0.110	-0.067
-480.362	1.545	0.290	-0.209
-479.347	-200.000	-0.022	-0.151
-478.332	-143.018	-0.246	-0.024
-477.318	-55.459	0.052	0.023
-476.303	3.138	-0.093	0.068
-475.289	-121.740	0.133	-0.022
-474.274	-19.950	-0.315	-0.194
-473.259	-21.298	0.207	0.126
-472.245	-200.000	-0.012	-0.174
-471.230	24.396	0.033	0.028
-470.216	17.430	-0.227	-0.180
-469.201	486.118	0.049	0.111
-468.186	-103.085	0.165	-0.039
-467.172	800.000	-0.020	0.076
-466.157	-154.699	0.220	0.015
-465.143	-151.013	-0.317	-0.024
-464.128	-200.000	-0.066	0.299
-463.113	-200.000	-0.001	0.196
-462.099	578.434	0.056	0.137
-461.084	-87.731	-0.289	-0.087
-460.070	47.637	0.209	-0.194
-459.055	-112.258	0.369	0.074
-458.040	-91.564	-0.075	-0.021
-457.026	-114.496	0.226	-0.043
-456.011	193.687	0.176	-0.265
-454.997	19.367	0.144	0.115
-453.982	268.141	-0.225	0.394
-452.968	-15.773	-0.090	0.057
-451.953	65.380	0.189	0.191
-450.938	-43.893	0.225	0.113
-449.924	-41.427	-0.143	0.073
-448.909	45.348	0.210	-0.193
-447.895	-200.000	0.052	-0.288
-446.880	104.454	-0.101	0.119
-445.865	632.187	-0.069	0.173
-444.851	46.034	-0.233	-0.216
-443.836	-167.435	0.294	-0.012
-442.822	800.000	0.061	-0.172
-441.807	-33.329	-0.117	-0.065
-440.792	184.075	-0.140	0.206
-439.778	70.073	-0.214	-0.221
-438.763	-83.252	0.198	0.064
-437.749	375.686	0.060	0.121
-436.734	-100.498	0.263	-0.065
-435.719	57.815	-0.184	-0.180
-434.705	-120.049	-0.342	-0.058
-433.690	-90.102	0.048	0.014
-432.676	-200.000	0.013	-0.193
-431.661	-63.708	0.097	0.040
-430.646	-200.000	-0.078	0.386
-429.632	373.873	-0.085	-0.172
-428.617	-200.000	0.043	-0.202
-427.603	-77.147	0.229	-0.080
-426.588	421.466	0.104	-0.222
-425.573	-82.250	0.169	-0.055
-424.559	800.000	0.068	-0.206
-423.544	-149.197	0.051	0.004
-422.530	-40.246	0.194	0.101
-421.515	800.000	0.040	0.143
-420.500	-21.256	0.312	-0.190
-419.486	-61.608	-0.111	-0.046
-418.471	-103.852	-0.365	-0.085
-417.457	-74.915	-0.138	-0.049
-416.442	800.000	-0.098	0.405
-415.428	-200.000	-0.045	-0.298
-414.413	201.978	0.171	0.263
-413.398	-200.000	0.030	0.137
-412.384	8.484	0.229	-0.172
-411.369	240.945	-0.073	-0.122
-410.355	-194.577	0.191	-0.002
-409.340	-77.763	-0.165	-0.057
-408.325	-22.440	0.149	-0.090
-407.311	-105.770	-0.433	-0.097
-406.296	-59.867	-0.277	-0.118
-405.282	103.279	-0.046	-0.054
-404.267	-81.992	-0.170	0.055
-403.252	-131.213	0.295	-0.039
-402.238	-36.543	-0.188	-0.101
-401.223	-66.237	0.228	0.090
-400.209	-109.422	-0.275	-0.058
-399.194	800.000	0.037	0.116
-398.179	346.228	0.062	0.122
-397.165	-200.000	-0.033	0.391
-396.150	-51.967	0.214	-0.099
-395.136	-135.807	-0.499	0.059
-394.121	117.770	0.143	-0.176
-393.106	474.222	-0.127	-0.285
-392.092	-55.713	-0.143	-0.064
-391.077	-200.000	-0.027	-0.118
-390.063	800.000	-0.091	0.330
-389.048	-60.769	0.423	0.178
-388.033	800.000	-0.050	-0.137
-387.019	22.836	0.184	-0.150
-386.004	-200.000	-0.042	-0.289
-384.990	-60.015	0.298	-0.127
-383.975	-200.000	-0.011	0.115
-382.960	215.717	0.099	-0.156
-381.946	240.478	0.064	-0.106
-380.931	-70.790	0.052	-0.020
-379.917	800.000	0.085	0.262
-378.902	-128.708	-0.150	-0.021
-377.888	800.000	-0.032	-0.137
-376.873	-110.502	0.069	-0.014
-375.858	367.981	0.103	0.207
-374.844	52.303	0.241	0.228
-373.829	-32.861	0.150	-0.083
-372.815	-48.519	-0.179	-0.086
-371.800	112.570	-0.124	0.149
-370.785	138.194	-0.126	0.165
-369.771	70.197	-0.269	-0.276
-368.756	-200.000	0.026	-0.241
-367.742	-153.796	-0.150	-0.010
-366.727	-200.000	0.024	0.120
-365.712	82.493	0.115	-0.124
-364.698	-33.511	-0.343	-0.188
-363.683	-38.350	-0.276	-0.145
-362.669	-200.000	0.053	0.322
-361.654	156.389	-0.249	0.341
-360.639	455.786	0.123	0.272
-359.625	-79.376	-0.200	0.067
-358.610	-138.185	-0.096	0.011
-357.596	-35.118	-0.119	-0.065
-356.581	-61.566	0.204	-0.085
-355.566	382.989	0.130	0.265
-354.552	-104.674	0.174	0.040
-353.537	-200.000	0.086	-0.392
-352.523	-91.639	-0.226	0.064
-351.508	331.551	0.139	0.267
-350.493	-58.764	-0.097	-0.042
-349.479	491.475	-0.206	-0.468
-348.464	106.657	-0.144	0.170
-347.450	43.713	0.016	-0.015
-346.435	448.316	-0.027	-0.058
-345.420	-117.191	-0.016	-0.003
-344.406	-200.000	-0.035	-0.272
-343.391	10.408	-0.312	0.236
-342.377	-200.000	0.013	-0.191
-341.362	69.234	0.087	-0.089
-340.348	12.875	0.311	-0.239
-339.333	-120.636	-0.094	-0.016
-338.318	-200.000	0.016	0.157
-337.304	-110.994	-0.151	0.031
-336.289	-200.000	-0.015	-0.134
-335.275	-200.000	-0.004	-0.068
-334.260	800.000	-0.045	-0.136
-333.245	-81.840	0.171	0.056
-332.231	63.691	-0.123	-0.122
-331.216	-200.000	-0.023	0.260
-330.202	89.213	0.102	-0.113
-329.187	800.000	0.031	-0.132
-328.172	-200.000	-0.045	0.273
-327.158	97.728	0.119	0.136
-326.143	-129.182	-0.229	-0.032
-325.129	-41.717	0.181	-0.092
-324.114	-200.000	-0.019	0.121
-323.099	3.660	0.249	0.180
-322.085	49.824	0.199	-0.186
-321.070	-200.000	-0.013	0.140
-320.056	13.693	0.108	-0.083
-319.041	419.602	-0.079	-0.168
-318.026	215.249	0.168	-0.265
-317.012	-28.350	0.308	-0.177
-315.997	2.066	-0.094	0.068
-314.983	-132.810	-0.302	0.038
-313.968	-20.528	0.169	-0.103
-312.953	175.984	0.279	0.402
-311.939	-42.301	-0.454	0.230
-310.924	800.000	-0.064	0.193
-309.910	460.967	-0.072	0.159
-308.895	-78.178	0.195	0.067
-307.880	-137.585	0.271	0.030
-306.866	112.324	-0.173	0.207
-305.851	-97.643	0.511	0.131
-304.837	182.055	-0.052	0.075
-303.822	-79.791	0.247	0.082
-302.807	-116.901	0.116	0.021
-301.793	-139.990	0.278	0.029
-300.778	543.115	0.084	-0.200
-299.764	-115.517	-0.209	-0.039
-298.749	9.571	0.182	0.137
-297.735	17.129	-0.071	0.056
-296.720	-200.000	-0.029	0.264
-295.705	-178.525	0.307	0.007
-294.691	-51.822	0.205	-0.095
-293.676	29.457	0.314	0.265
-292.662	34.741	-0.250	-0.217
-291.647	-70.015	0.229	0.086
-290.632	11.260	0.237	-0.180
-289.618	173.621	-0.030	0.043
-288.603	800.000	-0.070	0.209
-287.589	-200.000	0.026	-0.333
-286.574	-99.015	0.158	0.040
-285.559	-200.000	0.066	0.390
-284.545	30.899	0.139	-0.118
-283.530	800.000	0.096	-0.331
-282.516	-145.236	-0.241	0.022
-281.501	-52.750	-0.167	0.076
-280.486	352.912	-0.037	0.072
-279.472	-122.660	-0.339	-0.054
-278.457	226.648	0.085	-0.136
-277.443	-80.994	0.143	-0.047
-276.428	129.260	0.172	-0.218
-275.413	151.442	-0.120	-0.162
-274.399	-200.000	-0.028	-0.131
-273.384	-132.070	0.067	-0.009
-272.370	-29.990	-0.150	-0.085
-271.355	104.593	0.138	-0.161
-270.340	-117.456	0.211	0.038
-269.326	67.207	-0.142	0.144
-268.311	230.689	-0.067	-0.109
-267.297	54.963	-0.068	0.065
-266.282	714.655	0.065	-0.171
-265.267	-67.259	-0.071	-0.028
-264.253	-95.547	0.478	-0.127
-263.238	366.396	0.109	-0.218
-262.224	-184.903	-0.285	-0.004
-261.209	769.676	-0.023	-0.062
-260.195	-120.447	-0.438	0.074
-259.180	-184.262	-0.032	-0.001
-258.165	-73.020	-0.150	0.055
-257.151	494.076	-0.124	0.282
-256.136	-200.000	0.075	0.390
-255.122	800.000	0.078	0.243
-254.107	800.000	-0.023	0.085
-253.092	-75.114	-0.180	0.064
-252.078	-200.000	-0.018	0.240
-251.063	-63.945	-0.325	-0.132
-250.049	-200.000	0.042	0.255
-249.034	791.703	-0.107	0.292
-248.019	37.352	0.165	0.145
-247.005	364.048	-0.124	0.247
-245.990	-200.000	0.003	0.103
-244.976	-87.182	0.190	-0.057
-243.961	-200.000	0.029	0.245
-242.946	316.920	0.076	0.142
-241.932	-190.277	-0.216	0.002
-240.917	800.000	-0.083	0.334
-239.903	-117.352	0.429	0.077
-238.888	-67.043	-0.229	-0.089
-237.873	51.354	0.141	-0.132
-236.859	800.000	-0.030	0.115
-235.844	800.000	0.021	-0.074
-234.830	508.428	0.017	-0.039
-233.815	-141.861	-0.420	0.042
-232.800	-200.000	0.014	0.156
-231.786	-8.627	0.235	0.156
-230.771	16.143	0.185	-0.144
-229.757	717.797	-0.125	0.329
-228.742	176.688	0.147	0.212
-227.727	377.392	-0.135	-0.272
-226.713	-147.560	0.468	0.039
-225.698	4.303	-0.166	-0.121
-224.684	242.111	-0.168	0.278
-223.669	-122.143	0.060	0.010
-222.655	-200.000	0.018	-0.482
-221.640	329.655	0.171	-0.326
-220.625	-91.526	-0.353	-0.100
-219.611	-200.000	0.018	0.133
-218.596	-22.245	-0.207	0.124
-217.582	-4.379	0.090	-0.061
-216.567	800.000	0.092	0.324
-215.552	585.057	-0.122	0.296
-214.538	119.074	-0.212	0.259
-213.523	308.266	-0.201	0.371
-212.509	-200.000	-0.006	-0.267
-211.494	271.510	-0.126	0.219
-210.479	24.278	0.109	0.089
-209.465	-14.463	-0.139	0.089
-208.450	-35.174	0.049	-0.026
-207.436	32.716	0.160	0.137
-206.421	-54.119	0.145	0.065
-205.406	395.345	-0.040	0.083
-204.392	-98.165	0.189	-0.048
-203.377	97.655	0.055	0.063
-202.363	-117.571	0.187	-0.033
-201.348	-119.450	-0.070	-0.012
-200.333	800.000	-0.016	0.058
-199.319	10.456	0.201	-0.152
-198.304	34.713	0.166	-0.144
-197.290	-98.459	0.132	0.033
-196.275	-193.793	0.151	0.001
-195.260	-200.000	-0.072	0.314
-194.246	-172.489	0.187	-0.006
-193.231	-200.000	0.003	-0.071
-192.217	220.308	-0.079	0.125
-191.202	-123.945	0.231	-0.036
-190.187	-119.371	-0.100	0.017
-189.173	112.835	0.138	0.166
-188.158	-200.000	0.011	-0.069
-187.144	-66.634	-0.373	-0.146
-186.129	-39.590	-0.076	0.040
-185.114	162.650	-0.087	-0.121
-184.100	-200.000	0.053	0.257
-183.085	-67.228	0.245	-0.095
-182.071	-51.374	-0.283	-0.131
-181.056	-120.418	0.243	-0.041
-180.042	-173.513	-0.142	0.004
-179.027	-200.000	-0.025	0.157
-178.012	-94.676	-0.233	0.063
-176.998	-200.000	0.040	-0.190
-175.983	185.848	-0.073	0.108
-174.969	-68.203	0.027	-0.010
-173.954	800.000	0.047	0.131
-172.939	-123.418	0.249	0.039
-171.925	26.595	-0.065	0.053
-170.910	211.210	-0.125	-0.194
-169.896	35.253	0.402	0.348
-168.881	76.743	-0.066	-0.069
-167.866	488.133	0.107	0.242
-166.852	440.454	-0.241	-0.520
-165.837	800.000	-0.025	-0.078
-164.823	669.885	-0.037	0.094
-163.808	-88.984	-0.206	0.060
-162.793	41.438	-0.147	-0.131
-161.779	800.000	-0.046	0.134
-160.764	121.084	0.223	0.274
-159.750	-140.277	-0.103	0.011
-158.735	800.000	0.071	-0.251
-157.720	269.598	-0.156	0.270
-156.706	73.120	-0.088	0.091
-155.691	-23.561	0.290	-0.172
-154.677	-48.043	-0.056	0.027
-153.662	-87.269	-0.219	-0.066
-152.647	53.740	-0.002	-0.002
-151.633	-176.075	0.276	-0.007
-150.618	800.000	0.095	0.307
-149.604	321.529	-0.028	0.052
-148.589	800.000	0.084	0.258
-147.574	-200.000	-0.085	-0.393
-146.560	85.770	0.171	0.186
-145.545	47.721	-0.199	0.183
-144.531	92.293	-0.102	0.113
-143.516	-125.151	0.228	-0.034
-142.502	-200.000	-0.051	-0.223
-141.487	-200.000	0.057	-0.309
-140.472	-200.000	0.025	0.213
-139.458	349.225	-0.078	-0.152
-138.443	-200.000	-0.011	0.195
-137.429	37.796	0.089	0.078
-136.414	800.000	0.078	-0.263
-135.399	-78.541	-0.295	0.099
-134.385	-127.476	-0.093	0.013
-133.370	-83.270	0.160	-0.051
-132.356	357.271	-0.040	0.079
-131.341	155.900	0.166	0.225
-130.326	-158.966	0.113	0.006
-129.312	-157.373	-0.261	-0.015
-128.297	129.573	0.319	-0.401
-127.283	117.790	-0.063	-0.076
-126.268	41.634	0.137	0.122
-125.253	428.799	0.151	0.321
-124.239	-73.090	-0.122	-0.044
-123.224	-83.849	0.146	0.046
-122.210	-200.000	0.053	-0.383
