DTS Sentinel unit serial number:	SN413079Multiplexer serial number:	ORYXHardware model number:	OX4-SRSoftware version number:	ORYX F/W v4.00 Oryx Data Collector v3.7.2.0data status	okinstallation	princeton_trtdifferential loss correction	single-endedforward channel	channel 4reverse channel	N/Adate	2019/09/19time	04:25:35forward acquisition time	60.00reverse acquisition time	0.00gamma	496.2192k internal	0.2340k external	0.2340temperature offset calibration	1.0029default loss term (dB/km)	0.3790temperature slope calibration	1.0000multiplexer offset coefficient	1.0000multiplexer slope coefficient	1.0000fibre end	0.00T internal ref (°C)	20.19T ext. ref 1 (°C)	0.62T ext. ref 2 (°C)	13.26length (m)	temperature (°C)	Stokes	anti-Stokes-747.200	-124.439	0.133	-0.021
-746.185	-78.991	0.149	-0.051
-745.171	57.354	-0.016	0.015
-744.156	-200.000	0.002	0.069
-743.142	377.060	0.071	0.146
-742.127	800.000	-0.063	0.242
-741.112	-110.605	-0.057	0.012
-740.098	-200.000	0.030	0.205
-739.083	-103.132	0.196	0.046
-738.069	800.000	0.064	0.197
-737.054	-106.776	-0.261	0.058
-736.039	415.504	-0.030	-0.065
-735.025	800.000	-0.098	0.342
-734.010	65.315	-0.209	0.212
-732.996	550.501	-0.121	0.290
-731.981	-200.000	-0.003	-0.233
-730.966	260.622	0.059	-0.103
-729.952	23.851	0.123	0.102
-728.937	-37.896	-0.166	-0.088
-727.923	-200.000	-0.005	0.199
-726.908	449.766	-0.139	-0.307
-725.894	-200.000	-0.057	0.283
-724.879	44.297	-0.126	-0.115
-723.864	-5.145	-0.200	0.138
-722.850	99.383	0.052	-0.060
-721.835	-91.439	0.142	-0.041
-720.821	-90.480	-0.387	-0.112
-719.806	-200.000	0.022	-0.210
-718.791	800.000	-0.098	0.368
-717.777	-123.222	0.363	-0.058
-716.762	205.789	0.142	-0.221
-715.748	-107.448	-0.262	-0.058
-714.733	800.000	0.057	-0.173
-713.718	-200.000	-0.062	0.304
-712.704	-118.762	-0.090	0.016
-711.689	-25.164	-0.235	-0.140
-710.675	52.990	0.067	-0.064
-709.660	57.748	-0.379	0.371
-708.645	-68.714	0.043	0.017
-707.631	84.762	-0.062	-0.068
-706.616	-200.000	0.003	0.153
-705.602	-125.124	0.131	-0.020
-704.587	495.209	0.033	0.076
-703.572	-128.434	-0.241	-0.034
-702.558	278.657	0.114	-0.203
-701.543	800.000	-0.083	0.293
-700.529	120.616	0.254	0.316
-699.514	195.728	-0.078	-0.119
-698.499	-31.427	-0.301	-0.169
-697.485	800.000	-0.092	-0.342
-696.470	30.398	-0.170	-0.145
-695.456	-175.281	-0.072	-0.002
-694.441	-80.399	-0.075	-0.025
-693.426	-129.926	-0.072	-0.010
-692.412	316.585	0.147	-0.278
-691.397	33.453	-0.223	0.194
-690.383	-18.369	0.392	-0.245
-689.368	-149.245	-0.452	0.036
-688.354	-114.453	0.032	0.006
-687.339	800.000	0.087	0.344
-686.324	447.389	-0.025	0.055
-685.310	-2.650	0.443	0.310
-684.295	800.000	0.047	-0.204
-683.281	-102.442	0.295	-0.071
-682.266	-88.753	0.131	-0.039
-681.251	670.195	-0.028	0.073
-680.237	800.000	-0.050	-0.163
-679.222	-155.728	-0.182	0.012
-678.208	60.747	-0.021	0.021
-677.193	-41.239	-0.107	-0.055
-676.178	634.779	0.024	-0.060
-675.164	-200.000	0.055	-0.309
-674.149	82.788	-0.227	0.247
-673.135	-69.861	0.216	-0.082
-672.120	-200.000	-0.012	0.096
-671.105	126.546	0.118	-0.150
-670.091	68.745	-0.125	-0.128
-669.076	-56.682	0.216	-0.095
-668.062	-200.000	-0.025	0.193
-667.047	307.135	-0.099	0.185
-666.032	54.083	0.092	-0.088
-665.018	-200.000	0.061	-0.300
-664.003	66.831	0.137	-0.139
-662.989	-33.028	0.097	0.054
-661.974	328.522	-0.187	0.360
-660.959	69.598	-0.127	-0.131
-659.945	-200.000	-0.019	-0.169
-658.930	220.037	-0.103	-0.165
-657.916	779.838	0.079	-0.215
-656.901	-173.251	0.270	-0.008
-655.886	-186.121	-0.222	0.003
-654.872	36.588	-0.227	0.201
-653.857	-17.535	-0.102	-0.064
-652.843	800.000	-0.012	-0.037
-651.828	27.771	-0.216	0.181
-650.814	-200.000	0.040	-0.204
-649.799	179.151	-0.134	-0.197
-648.784	390.823	0.127	-0.264
-647.770	-200.000	-0.003	0.115
-646.755	-200.000	0.016	-0.138
-645.741	800.000	0.157	0.471
-644.726	166.360	0.142	-0.201
-643.711	-27.068	-0.173	-0.101
-642.697	-200.000	0.016	-0.136
-641.682	267.727	-0.095	0.165
-640.668	84.690	-0.111	-0.122
-639.653	-200.000	-0.009	0.079
-638.638	184.021	-0.239	0.354
-637.624	-200.000	-0.054	-0.245
-636.609	-111.891	0.344	0.069
-635.595	-46.965	-0.238	0.116
-634.580	29.007	0.286	0.242
-633.565	28.944	0.180	-0.153
-632.551	800.000	0.083	0.337
-631.536	-200.000	-0.018	-0.152
-630.522	-84.775	-0.018	-0.006
-629.507	-122.103	-0.147	-0.024
-628.492	-200.000	-0.052	0.431
-627.478	-32.459	-0.340	0.189
-626.463	108.722	-0.123	-0.147
-625.449	448.396	0.066	-0.145
-624.434	9.393	-0.388	-0.293
-623.419	-200.000	-0.037	0.301
-622.405	-200.000	0.012	0.162
-621.390	-200.000	0.051	-0.275
-620.376	196.303	-0.121	0.184
-619.361	-113.697	0.173	0.034
-618.346	651.943	-0.154	0.394
-617.332	-131.608	-0.318	0.042
-616.317	-200.000	0.005	-0.288
-615.303	70.036	0.096	-0.099
-614.288	-58.295	-0.282	-0.122
-613.273	422.751	0.091	-0.195
-612.259	14.401	0.141	-0.110
-611.244	349.616	-0.215	-0.423
-610.230	-24.346	-0.065	-0.039
-609.215	321.319	-0.163	0.309
-608.201	-200.000	-0.020	-0.139
-607.186	486.410	0.149	0.338
-606.171	198.565	-0.027	0.041
-605.157	32.964	-0.251	0.217
-604.142	67.433	-0.218	-0.222
-603.128	205.008	0.095	0.147
-602.113	-200.000	-0.041	0.184
-601.098	-200.000	0.006	0.068
-600.084	-167.654	0.265	0.010
-599.069	800.000	0.168	-0.478
-598.055	149.587	-0.086	0.116
-597.040	800.000	-0.064	-0.248
-596.025	-200.000	-0.028	-0.122
-595.011	30.094	-0.277	0.236
-593.996	-154.224	0.157	-0.011
-592.982	-55.253	0.257	0.115
-591.967	-56.530	0.215	-0.095
-590.952	800.000	0.067	-0.238
-589.938	-59.267	0.348	-0.149
-588.923	44.945	0.207	0.190
-587.909	800.000	0.039	-0.145
-586.894	-200.000	-0.054	-0.276
-585.879	-167.092	-0.277	0.011
-584.865	171.421	-0.187	0.268
-583.850	-199.546	-0.415	-0.002
-582.836	-200.000	-0.013	-0.059
-581.821	93.560	0.111	-0.125
-580.806	82.450	0.088	-0.095
-579.792	-200.000	-0.028	-0.135
-578.777	-125.610	0.292	-0.044
-577.763	-200.000	-0.095	-0.523
-576.748	800.000	-0.045	0.154
-575.733	-9.940	0.076	-0.050
-574.719	386.489	-0.127	-0.262
-573.704	122.793	-0.188	0.235
-572.690	-4.325	-0.257	-0.177
-571.675	75.484	0.248	0.261
-570.661	-200.000	-0.024	0.165
-569.646	51.723	-0.371	-0.352
-568.631	122.267	0.099	0.123
-567.617	-200.000	-0.023	0.156
-566.602	25.835	-0.044	0.036
-565.588	-200.000	-0.001	-0.020
-564.573	367.076	-0.074	-0.149
-563.558	-100.557	-0.480	-0.118
-562.544	-200.000	0.024	-0.180
-561.529	18.594	0.120	0.096
-560.515	168.265	-0.090	0.128
-559.500	47.971	-0.201	0.187
-558.485	800.000	-0.025	0.073
-557.471	350.889	0.077	0.152
-556.456	187.830	0.019	-0.028
-555.442	75.053	0.230	-0.241
-554.427	-46.387	0.366	-0.179
-553.412	-156.194	0.053	-0.003
-552.398	800.000	0.076	0.315
-551.383	-92.102	-0.350	0.098
-550.369	391.717	0.102	-0.211
-549.354	-84.474	0.092	-0.029
-548.339	151.805	0.058	0.079
-547.325	-50.380	0.292	-0.137
-546.310	-200.000	-0.031	-0.167
-545.296	80.214	0.145	-0.155
-544.281	78.098	-0.218	-0.231
-543.266	-190.953	-0.165	0.002
-542.252	-118.862	-0.353	-0.062
-541.237	-54.724	-0.397	-0.179
-540.223	482.776	0.101	-0.228
-539.208	406.580	-0.152	-0.320
-538.193	63.108	-0.254	0.253
-537.179	-121.609	0.074	0.012
-536.164	551.496	0.143	-0.342
-535.150	127.398	0.235	0.297
-534.135	-59.784	0.272	0.116
-533.121	127.885	-0.064	-0.081
-532.106	283.982	-0.118	-0.212
-531.091	77.226	-0.095	0.100
-530.077	17.155	0.319	0.252
-529.062	-200.000	0.034	0.253
-528.048	480.836	-0.028	-0.064
-527.033	726.757	0.057	0.151
-526.018	-69.942	-0.321	-0.122
-525.004	-33.280	-0.045	-0.025
-523.989	-200.000	-0.047	0.416
-522.975	210.040	-0.084	-0.130
-521.960	586.963	-0.084	-0.207
-520.945	302.057	0.055	0.101
-519.931	800.000	0.049	0.161
-518.916	-74.829	-0.231	-0.082
-517.902	493.250	0.120	0.274
-516.887	-79.189	0.345	0.116
-515.872	-150.024	-0.180	-0.014
-514.858	37.868	0.320	0.283
-513.843	-116.827	0.208	-0.038
-512.829	-200.000	-0.017	0.251
-511.814	-66.390	0.191	-0.075
-510.799	-135.722	0.118	-0.014
-509.785	34.774	-0.072	0.062
-508.770	-200.000	0.007	0.379
-507.756	195.212	-0.165	-0.249
-506.741	-54.027	0.111	0.050
-505.726	26.413	0.134	0.111
-504.712	-200.000	-0.027	-0.382
-503.697	-64.655	-0.499	-0.201
-502.683	-200.000	0.021	0.235
-501.668	800.000	0.100	0.277
-500.653	79.988	-0.205	0.219
-499.639	-95.247	0.265	0.071
-498.624	463.479	0.126	-0.280
-497.610	-121.629	-0.291	0.048
-496.595	-163.487	-0.389	0.018
-495.581	-200.000	0.396	0.002
-494.566	-114.464	-0.203	0.039
-493.551	57.728	0.209	-0.203
-492.537	-200.000	0.018	0.184
-491.522	800.000	-0.031	-0.086
-490.508	263.560	-0.122	-0.210
-489.493	-200.000	-0.010	0.172
-488.478	-200.000	-0.043	-0.290
-487.464	-10.822	-0.203	0.133
-486.449	-153.109	-0.293	0.020
-485.435	-86.497	-0.250	-0.076
-484.420	-62.601	-0.158	0.065
-483.405	800.000	-0.076	-0.320
-482.391	-106.719	-0.070	0.016
-481.376	800.000	-0.032	0.111
-480.362	-57.429	-0.278	-0.121
-479.347	-58.313	0.149	-0.064
-478.332	-200.000	0.015	0.286
-477.318	208.427	0.181	0.281
-476.303	762.560	0.063	0.170
-475.289	-200.000	0.055	-0.271
-474.274	14.505	0.265	-0.205
-473.259	20.148	-0.140	0.112
-472.245	40.152	-0.023	-0.021
-471.230	-143.376	0.103	0.010
-470.216	18.640	0.214	0.170
-469.201	99.034	0.058	0.066
-468.186	-4.550	-0.210	0.144
-467.172	-200.000	-0.032	-0.305
-466.157	-107.163	0.064	-0.014
-465.143	-67.537	-0.232	0.090
-464.128	278.919	0.161	0.284
-463.113	115.347	-0.191	0.231
-462.099	9.183	-0.368	-0.276
-461.084	-128.717	-0.275	0.038
-460.070	800.000	0.033	0.137
-459.055	171.708	0.098	0.139
-458.040	453.019	-0.095	0.209
-457.026	178.431	-0.067	-0.097
-456.011	430.400	0.026	-0.056
-454.997	-14.258	-0.228	0.146
-453.982	-113.637	-0.297	0.058
-452.968	800.000	-0.107	0.414
-451.953	51.011	0.033	0.031
-450.938	116.804	-0.126	0.153
-449.924	-180.474	0.308	0.006
-448.909	-99.034	0.106	-0.027
-447.895	57.501	0.255	-0.247
-446.880	-200.000	-0.003	0.090
-445.865	443.824	0.126	0.273
-444.851	-116.013	0.207	0.038
-443.836	800.000	-0.036	0.147
-442.822	-39.035	0.260	0.135
-441.807	143.621	0.183	-0.241
-440.792	-200.000	0.003	0.100
-439.778	89.759	0.159	0.176
-438.763	117.911	-0.146	0.178
-437.749	157.263	-0.151	-0.206
-436.734	-102.652	0.230	0.054
-435.719	800.000	-0.035	-0.125
-434.705	11.706	0.078	-0.059
-433.690	10.199	-0.356	0.269
-432.676	-80.786	-0.177	0.058
-431.661	-15.655	0.233	-0.147
-430.646	-149.147	0.453	-0.036
-429.632	800.000	0.044	-0.159
-428.617	47.243	-0.060	0.055
-427.603	410.823	0.153	0.322
-426.588	-86.024	-0.211	0.065
-425.573	-98.974	0.104	0.026
-424.559	67.391	-0.085	-0.085
-423.544	-160.129	-0.128	-0.007
-422.530	-200.000	0.011	-0.060
-421.515	-200.000	-0.046	-0.377
-420.500	-62.846	-0.092	0.038
-419.486	-115.752	-0.196	0.036
-418.471	-200.000	0.008	-0.056
-417.457	-200.000	-0.081	-0.463
-416.442	-81.055	0.201	0.066
-415.428	800.000	0.100	-0.416
-414.413	-106.328	-0.328	-0.073
-413.398	114.957	0.079	-0.095
-412.384	-106.560	-0.081	0.018
-411.369	217.960	0.134	-0.212
-410.355	111.971	-0.180	-0.215
-409.340	-39.045	0.441	-0.230
-408.325	178.467	-0.085	0.122
-407.311	51.171	-0.091	0.086
-406.296	22.831	-0.185	0.150
-405.282	-76.914	-0.220	0.076
-404.267	106.720	0.172	0.202
-403.252	-125.590	0.146	0.022
-402.238	-26.715	-0.187	0.108
-401.223	800.000	0.061	0.173
-400.209	-149.950	-0.202	-0.016
-399.194	-37.293	-0.226	-0.120
-398.179	800.000	0.055	-0.206
-397.165	-74.108	0.140	-0.050
-396.150	800.000	0.071	-0.267
-395.136	61.682	0.119	-0.118
-394.121	-28.900	-0.162	0.092
-393.106	-200.000	-0.002	-0.132
-392.092	18.744	0.139	-0.110
-391.077	203.685	0.168	-0.258
-390.063	407.641	-0.137	0.287
-389.048	3.562	-0.113	-0.081
-388.033	800.000	-0.053	-0.204
-387.019	172.545	-0.118	0.168
-386.004	-170.368	0.244	-0.008
-384.990	44.197	0.136	0.123
-383.975	-200.000	-0.017	-0.083
-382.960	239.385	0.163	-0.268
-381.946	-200.000	-0.016	0.215
-380.931	-38.013	0.262	-0.137
-379.917	44.950	0.241	-0.219
-378.902	389.806	0.136	0.279
-377.888	136.255	-0.087	-0.112
-376.873	-3.414	0.214	-0.147
-375.858	800.000	-0.083	0.327
-374.844	-157.688	0.132	0.008
-373.829	-93.544	0.214	0.059
-372.815	57.929	-0.203	0.196
-371.800	-33.215	-0.254	-0.139
-370.785	-163.575	-0.113	0.005
-369.771	-54.890	-0.240	0.107
-368.756	72.426	-0.042	0.043
-367.742	800.000	0.112	0.347
-366.727	-115.851	-0.443	-0.082
-365.712	-27.332	-0.270	0.155
-364.698	280.637	-0.073	-0.129
-363.683	767.021	0.124	0.334
-362.669	91.773	-0.109	0.121
-361.654	-7.805	-0.429	-0.286
-360.639	78.744	0.120	-0.127
-359.625	-79.825	0.222	-0.074
-358.610	-93.654	0.268	0.073
-357.596	-105.453	0.354	-0.079
-356.581	35.719	-0.182	-0.158
-355.566	-200.000	-0.053	-0.261
-354.552	23.169	-0.141	-0.114
-353.537	-1.862	0.202	-0.140
-352.523	-200.000	-0.013	0.367
-351.508	-96.960	0.238	0.062
-350.493	174.104	-0.050	0.071
-349.479	-200.000	-0.019	0.090
-348.464	800.000	-0.109	0.338
-347.450	116.572	-0.060	0.072
-346.435	-200.000	-0.066	-0.287
-345.420	-160.545	-0.059	0.003
-344.406	170.986	-0.106	-0.149
-343.391	94.176	0.172	0.192
-342.377	136.553	-0.199	-0.256
-341.362	-200.000	0.005	0.167
-340.348	456.498	0.160	-0.351
-339.333	350.018	-0.003	-0.006
-338.318	124.894	-0.057	0.071
-337.304	716.139	0.134	0.351
-336.289	59.312	-0.051	0.050
-335.275	800.000	-0.070	-0.287
-334.260	800.000	-0.065	-0.213
-333.245	27.375	-0.433	-0.359
-332.231	148.200	0.341	0.455
-331.216	12.612	-0.046	0.035
-330.202	-11.878	-0.210	-0.136
-329.187	21.274	0.269	-0.215
-328.172	-80.909	-0.183	-0.060
-327.158	356.414	-0.091	0.179
-326.143	-65.378	0.114	-0.045
-325.129	-5.521	-0.196	-0.133
-324.114	69.579	0.126	-0.128
-323.099	-200.000	0.005	-0.025
-322.085	72.330	-0.233	0.239
-321.070	-200.000	-0.015	0.129
-320.056	-33.605	0.263	0.143
-319.041	-200.000	0.049	-0.247
-318.026	31.707	-0.064	-0.055
-317.012	-60.742	-0.161	-0.067
-315.997	800.000	-0.039	0.148
-314.983	-94.555	0.116	0.031
-313.968	9.143	-0.319	-0.237
-312.953	57.316	-0.143	0.138
-311.939	-200.000	0.082	0.381
-310.924	-200.000	0.011	-0.056
-309.910	-17.665	0.414	-0.257
-308.895	263.389	-0.107	-0.183
-307.880	-135.867	-0.121	0.014
-306.866	145.891	0.246	-0.325
-305.851	86.222	0.226	-0.246
-304.837	-155.528	0.100	0.006
-303.822	-200.000	-0.061	-0.268
-302.807	225.410	0.043	0.069
-301.793	734.571	0.096	0.254
-300.778	309.974	0.092	-0.169
-299.764	-60.861	0.160	-0.067
-298.749	156.174	0.241	0.328
-297.735	-105.378	0.176	0.040
-296.720	-200.000	0.011	0.202
-295.705	113.503	-0.320	0.383
-294.691	85.031	0.202	0.218
-293.676	-115.487	0.069	0.013
-292.662	-29.105	0.272	-0.154
-291.647	362.028	0.156	0.309
-290.632	315.296	0.168	-0.312
-289.618	-86.430	-0.127	-0.038
-288.603	-16.514	0.127	0.079
-287.589	-63.469	-0.163	0.066
-286.574	-126.543	-0.189	0.028
-285.559	-113.646	-0.008	-0.002
-284.545	-200.000	-0.018	-0.108
-283.530	-200.000	0.009	-0.051
-282.516	-200.000	-0.018	0.259
-281.501	-49.627	0.127	0.059
-280.486	354.492	-0.173	-0.338
-279.472	-200.000	0.009	0.050
-278.457	148.329	0.087	-0.116
-277.443	-74.777	0.395	0.140
-276.428	-90.766	-0.332	-0.094
-275.413	408.383	0.136	-0.283
-274.399	-67.406	0.273	0.106
-273.384	242.223	0.207	-0.341
-272.370	-47.760	0.146	0.070
-271.355	127.536	-0.198	0.248
-270.340	56.771	-0.082	-0.079
-269.326	-79.274	0.095	-0.032
-268.311	145.979	0.348	-0.459
-267.297	111.931	0.149	-0.177
-266.282	-17.100	-0.271	-0.168
-265.267	32.703	0.108	-0.092
-264.253	-105.521	0.288	0.064
-263.238	-117.133	-0.267	-0.048
-262.224	-200.000	-0.041	0.225
-261.209	-28.682	0.188	0.107
-260.195	-124.847	0.639	0.097
-259.180	-88.618	-0.309	0.090
-258.165	134.583	-0.165	-0.211
-257.151	37.463	0.072	0.063
-256.136	115.028	0.135	0.163
-255.122	29.186	0.152	0.127
-254.107	229.556	0.074	-0.118
-253.092	-132.134	0.088	0.011
-252.078	-200.000	0.002	0.138
-251.063	155.646	-0.155	0.210
-250.049	51.601	0.207	-0.194
-249.034	433.494	0.124	0.265
-248.019	-187.850	-0.221	-0.003
-247.005	123.736	-0.093	0.115
-245.990	800.000	-0.053	0.195
-244.976	-148.352	0.240	0.019
-243.961	-56.815	-0.284	-0.123
-242.946	92.698	0.252	-0.280
-241.932	-200.000	-0.006	-0.166
-240.917	37.412	-0.276	-0.241
-239.903	313.425	0.129	-0.239
-238.888	-10.389	-0.090	-0.059
-237.873	67.272	-0.156	0.156
-236.859	-200.000	0.062	0.349
-235.844	-200.000	-0.044	0.284
-234.830	14.640	0.298	0.228
-233.815	-130.475	-0.016	-0.002
-232.800	-200.000	-0.021	-0.337
-231.786	537.514	-0.115	-0.268
-230.771	8.424	0.270	0.200
-229.757	-176.961	-0.185	0.005
-228.742	800.000	-0.065	0.264
-227.727	-68.183	-0.257	0.098
-226.713	703.398	-0.038	0.098
-225.698	-30.045	-0.075	-0.042
-224.684	40.895	-0.080	-0.071
-223.669	-69.922	0.295	0.110
-222.655	-8.579	0.233	-0.154
-221.640	-162.780	0.078	-0.004
-220.625	632.491	-0.105	-0.261
-219.611	-200.000	-0.053	0.231
-218.596	398.170	0.067	-0.137
-217.582	800.000	0.074	0.292
-216.567	-42.935	-0.229	-0.114
-215.552	-67.560	-0.177	-0.068
-214.538	-87.153	0.292	0.087
-213.523	800.000	-0.052	0.217
-212.509	133.886	-0.079	-0.100
-211.494	-75.201	-0.038	0.013
-210.479	91.667	-0.082	0.090
-209.465	-200.000	0.065	-0.438
-208.450	-57.345	-0.281	-0.121
-207.436	-69.161	0.150	0.057
-206.421	-75.024	0.326	0.115
-205.406	-54.449	-0.202	0.090
-204.392	-40.602	0.284	0.144
-203.377	153.915	0.094	-0.126
-202.363	55.521	0.139	-0.132
-201.348	268.386	0.183	-0.315
-200.333	-68.554	-0.367	0.140
-199.319	-200.000	-0.013	0.075
-198.304	-61.740	0.224	0.092
-197.290	-79.837	0.321	-0.106
-196.275	800.000	-0.040	-0.121
-195.260	235.600	-0.068	0.110
-194.246	-38.240	-0.154	-0.080
-193.231	-200.000	-0.012	-0.230
-192.217	343.565	-0.054	0.103
-191.202	333.418	0.119	-0.227
-190.187	115.173	0.028	0.034
-189.173	-71.884	0.307	-0.112
-188.158	-122.296	-0.257	0.041
-187.144	-118.766	0.275	-0.048
-186.129	-200.000	0.027	-0.499
-185.114	-200.000	0.012	-0.102
-184.100	46.966	0.058	0.053
-183.085	137.250	-0.075	-0.096
-182.071	-12.287	-0.099	0.064
-181.056	76.512	0.276	0.287
-180.042	-200.000	-0.021	0.253
-179.027	-109.550	0.215	-0.045
-178.012	-200.000	0.000	0.008
-176.998	34.762	0.135	0.116
-175.983	-117.904	-0.264	-0.046
-174.969	-200.000	-0.039	0.169
-173.954	-136.953	0.189	-0.021
-172.939	-200.000	-0.032	0.172
-171.925	264.000	0.051	-0.087
-170.910	437.836	-0.266	-0.569
-169.896	-29.227	-0.359	0.202
-168.881	49.672	0.229	0.212
-167.866	-125.726	0.412	-0.061
-166.852	58.968	0.227	0.219
-165.837	800.000	-0.091	0.336
-164.823	-61.995	-0.177	-0.073
-163.808	-153.882	-0.123	-0.008
-162.793	-121.630	0.259	0.042
-161.779	-200.000	-0.015	0.146
-160.764	332.111	-0.192	0.364
-159.750	172.879	-0.091	0.128
-158.735	26.185	-0.211	0.173
-157.720	-119.055	0.431	0.074
-156.706	-81.119	-0.100	-0.032
-155.691	-113.462	-0.283	0.054
-154.677	-127.588	-0.021	0.003
-153.662	800.000	0.022	0.081
-152.647	728.949	-0.100	-0.261
-151.633	-35.614	0.116	0.062
-150.618	-54.010	-0.428	0.191
-149.604	-200.000	0.051	0.244
-148.589	-4.332	-0.081	-0.055
-147.574	-200.000	0.034	0.147
-146.560	8.613	-0.271	-0.200
-145.545	-53.574	-0.170	0.076
-144.531	340.946	-0.085	-0.163
-143.516	58.250	-0.118	-0.113
-142.502	-200.000	0.021	0.281
-141.487	-200.000	0.001	0.192
-140.472	-123.313	0.162	-0.025
-139.458	-200.000	0.007	0.477
-138.443	-200.000	0.003	0.137
-137.429	-50.525	0.027	0.012
-136.414	321.564	0.226	-0.422
-135.399	33.625	0.073	0.062
-134.385	-134.829	0.183	-0.022
-133.370	65.493	-0.207	0.205
-132.356	123.685	-0.289	0.355
-131.341	-61.191	-0.179	-0.074
-130.326	60.486	0.242	0.234
-129.312	38.535	-0.043	-0.037
-128.297	-55.442	-0.022	0.010
-127.283	-147.285	0.074	-0.006
-126.268	800.000	-0.101	0.278
-125.253	-51.780	-0.263	-0.120
-124.239	399.718	0.142	0.292
-123.224	-56.327	-0.289	-0.125
-122.210	86.974	0.037	0.040
-121.195	-108.952	0.129	-0.027
