DTS Sentinel unit serial number:	SN413079Multiplexer serial number:	ORYXHardware model number:	OX4-SRSoftware version number:	ORYX F/W v4.00 Oryx Data Collector v3.7.2.0data status	okinstallation	princeton_trtdifferential loss correction	single-endedforward channel	channel 4reverse channel	N/Adate	2019/09/19time	10:25:35forward acquisition time	60.00reverse acquisition time	0.00gamma	496.2192k internal	0.2329k external	0.2329temperature offset calibration	1.0015default loss term (dB/km)	0.3790temperature slope calibration	1.0000multiplexer offset coefficient	1.0000multiplexer slope coefficient	1.0000fibre end	0.00T internal ref (°C)	24.28T ext. ref 1 (°C)	0.70T ext. ref 2 (°C)	19.86length (m)	temperature (°C)	Stokes	anti-Stokes-747.200	-117.240	-0.193	-0.035
-746.185	6.337	0.245	0.183
-745.171	-8.163	0.127	0.086
-744.156	-200.000	-0.055	0.480
-743.142	-7.304	-0.224	0.153
-742.127	668.474	-0.215	0.559
-741.112	-200.000	0.036	0.290
-740.098	800.000	0.042	0.152
-739.083	66.308	-0.149	-0.152
-738.069	-32.763	-0.264	0.148
-737.054	-100.719	-0.099	-0.025
-736.039	-200.000	0.009	-0.203
-735.025	-200.000	0.007	0.126
-734.010	-164.280	-0.215	0.010
-732.996	89.491	-0.163	0.183
-731.981	800.000	-0.155	-0.461
-730.966	196.692	-0.072	0.110
-729.952	-11.349	0.102	-0.068
-728.937	-129.556	-0.336	-0.047
-727.923	800.000	0.013	0.048
-726.908	800.000	0.062	0.212
-725.894	67.337	0.068	0.070
-724.879	-80.036	0.131	-0.044
-723.864	134.939	-0.132	-0.173
-722.850	169.812	-0.296	-0.426
-721.835	64.799	0.241	0.245
-720.821	800.000	0.081	0.248
-719.806	800.000	-0.068	0.211
-718.791	-64.522	-0.138	-0.056
-717.777	393.181	-0.011	0.023
-716.762	89.823	0.199	0.224
-715.748	27.413	-0.308	0.261
-714.733	-9.385	-0.091	-0.061
-713.718	121.834	-0.022	-0.027
-712.704	356.961	-0.102	0.205
-711.689	-200.000	-0.001	0.121
-710.675	-151.769	-0.105	0.008
-709.660	-110.047	-0.156	0.033
-708.645	-36.560	0.229	-0.124
-707.631	-40.728	-0.254	0.132
-706.616	-41.618	-0.195	-0.101
-705.602	-1.555	0.182	0.129
-704.587	249.583	-0.128	0.219
-703.572	-23.714	0.200	-0.121
-702.558	-34.921	-0.096	-0.053
-701.543	-200.000	-0.017	0.371
-700.529	-200.000	-0.046	-0.255
-699.514	2.073	-0.118	-0.086
-698.499	-97.444	-0.152	-0.040
-697.485	800.000	-0.101	0.404
-696.470	-200.000	0.017	0.143
-695.456	207.147	-0.105	0.164
-694.441	-11.706	-0.205	0.136
-693.426	355.426	-0.097	-0.194
-692.412	39.755	-0.331	-0.299
-691.397	-200.000	-0.005	-0.082
-690.383	-200.000	-0.008	-0.565
-689.368	-96.900	-0.193	0.051
-688.354	-118.294	-0.162	-0.029
-687.339	77.966	-0.123	0.132
-686.324	-186.975	-0.431	-0.006
-685.310	-86.209	0.223	0.069
-684.295	-200.000	-0.377	0.002
-683.281	-74.261	-0.221	-0.080
-682.266	450.771	0.051	0.113
-681.251	57.047	-0.068	-0.067
-680.237	-100.780	0.433	-0.107
-679.222	-19.472	0.418	-0.260
-678.208	-161.866	-0.109	-0.006
-677.193	-141.329	-0.289	-0.030
-676.178	6.773	-0.239	-0.179
-675.164	-162.381	-0.324	0.016
-674.149	-164.688	0.469	-0.021
-673.135	-200.000	-0.015	-0.090
-672.120	-93.010	0.084	-0.023
-671.105	800.000	-0.090	-0.314
-670.091	-114.430	-0.105	0.020
-669.076	-200.000	-0.022	0.131
-668.062	275.305	-0.256	-0.455
-667.047	-38.441	-0.085	-0.045
-666.032	173.089	0.068	-0.098
-665.018	16.559	-0.028	0.022
-664.003	14.642	-0.279	-0.219
-662.989	-116.446	-0.215	0.040
-661.974	800.000	0.045	-0.151
-660.959	-200.000	-0.072	0.509
-659.945	-111.456	0.129	0.026
-658.930	73.472	-0.092	0.096
-657.916	800.000	0.022	-0.082
-656.901	0.455	-0.209	-0.150
-655.886	-200.000	0.005	0.086
-654.872	-200.000	0.009	0.118
-653.857	800.000	0.024	0.103
-652.843	-200.000	-0.029	-0.217
-651.828	-103.611	-0.408	0.096
-650.814	-127.684	-0.111	-0.016
-649.799	-200.000	-0.030	0.293
-648.784	-200.000	-0.011	-0.110
-647.770	-159.932	-0.179	-0.010
-646.755	-20.645	-0.125	-0.077
-645.741	-200.000	-0.058	0.320
-644.726	72.669	-0.147	-0.154
-643.711	800.000	0.049	-0.189
-642.697	-47.012	0.282	-0.138
-641.682	800.000	-0.021	-0.074
-640.668	-97.429	0.233	0.061
-639.653	-68.179	0.438	0.171
-638.638	800.000	0.040	-0.147
-637.624	-52.552	0.158	-0.073
-636.609	109.862	0.127	0.153
-635.595	90.546	0.120	-0.135
-634.580	-37.138	0.265	-0.142
-633.565	-22.190	0.169	0.103
-632.551	-182.350	0.375	-0.007
-631.536	33.731	-0.256	-0.224
-630.522	-200.000	0.020	-0.123
-629.507	-169.123	-0.368	-0.014
-628.492	557.151	-0.066	-0.160
-627.478	800.000	0.107	0.301
-626.463	-23.866	0.300	0.180
-625.449	323.697	-0.077	-0.148
-624.434	-200.000	-0.020	-0.404
-623.419	-73.827	0.088	0.032
-622.405	-200.000	0.003	0.131
-621.390	800.000	0.021	-0.084
-620.376	-55.005	0.275	-0.124
-619.361	-38.440	-0.120	0.063
-618.346	252.759	-0.172	0.295
-617.332	84.341	0.123	0.135
-616.317	6.835	-0.096	0.071
-615.303	-200.000	-0.024	-0.189
-614.288	231.112	-0.249	0.409
-613.273	-45.356	0.258	-0.128
-612.259	-200.000	0.034	-0.300
-611.244	-115.431	-0.267	0.050
-610.230	-25.028	0.108	0.064
-609.215	213.087	0.112	-0.178
-608.201	-112.442	0.292	0.059
-607.186	22.687	0.196	-0.161
-606.171	180.657	0.129	-0.189
-605.157	-26.578	-0.100	-0.059
-604.142	-75.811	-0.244	0.087
-603.128	-30.171	0.191	-0.109
-602.113	268.850	0.063	0.111
-601.098	800.000	-0.045	0.133
-600.084	800.000	-0.022	-0.078
-599.069	-200.000	-0.194	0.000
-598.055	-33.283	0.094	0.052
-597.040	800.000	0.025	0.094
-596.025	58.271	0.111	0.109
-595.011	-200.000	0.019	-0.156
-593.996	800.000	0.097	-0.311
-592.982	244.473	0.078	0.131
-591.967	29.132	-0.148	0.126
-590.952	24.747	0.181	0.150
-589.938	781.785	-0.081	0.223
-588.923	800.000	-0.014	-0.055
-587.909	14.097	-0.146	0.114
-586.894	-200.000	0.001	0.409
-585.879	51.415	-0.149	-0.142
-584.865	800.000	0.078	-0.225
-583.850	101.574	0.168	-0.196
-582.836	11.700	-0.208	-0.160
-581.821	-102.658	0.336	0.080
-580.806	-132.667	0.258	0.033
-579.792	476.698	-0.159	0.359
-578.777	83.411	0.167	0.182
-577.763	303.823	-0.069	-0.127
-576.748	-28.065	0.049	0.029
-575.733	228.040	0.136	-0.222
-574.719	596.215	-0.063	-0.155
-573.704	177.256	-0.054	0.079
-572.690	10.031	-0.192	0.146
-571.675	-103.413	0.182	0.043
-570.661	-33.742	-0.083	0.046
-569.646	289.799	-0.100	-0.181
-568.631	4.449	-0.071	-0.052
-567.617	-34.366	-0.059	-0.032
-566.602	-105.756	0.402	-0.091
-565.588	-86.950	-0.165	-0.050
-564.573	-144.347	0.248	-0.023
-563.558	46.149	0.134	-0.124
-562.544	-151.170	-0.175	0.013
-561.529	-200.000	-0.074	-0.350
-560.515	96.157	0.098	-0.112
-559.500	143.669	0.285	0.379
-558.485	-40.558	0.241	0.125
-557.471	766.538	-0.051	0.138
-556.456	-84.827	-0.238	-0.075
-555.442	-53.292	-0.085	0.039
-554.427	800.000	0.061	-0.181
-553.412	-170.857	0.165	-0.006
-552.398	-200.000	-0.089	-0.400
-551.383	-63.302	0.315	-0.130
-550.369	-171.183	-0.301	0.010
-549.354	37.317	0.177	0.157
-548.339	19.427	0.388	-0.311
-547.325	800.000	-0.030	-0.106
-546.310	-186.034	0.196	-0.003
-545.296	40.224	-0.020	0.018
-544.281	-115.950	-0.204	0.038
-543.266	-200.000	0.002	-0.341
-542.252	800.000	-0.085	-0.252
-541.237	60.764	-0.278	-0.275
-540.223	144.678	-0.257	-0.343
-539.208	-200.000	-0.021	0.240
-538.193	55.324	-0.172	-0.167
-537.179	38.477	-0.200	-0.178
-536.164	95.473	0.204	-0.233
-535.150	-64.817	0.173	0.070
-534.135	387.892	0.188	-0.388
-533.121	567.201	-0.084	-0.205
-532.106	56.324	0.279	0.271
-531.091	-38.242	0.072	-0.038
-530.077	-200.000	-0.082	0.506
-529.062	-71.383	0.531	-0.199
-528.048	-91.294	-0.447	-0.128
-527.033	112.412	0.125	-0.151
-526.018	-175.734	-0.412	0.011
-525.004	194.405	0.107	-0.163
-523.989	-49.991	0.151	-0.071
-522.975	75.220	-0.158	0.166
-521.960	-57.625	0.339	0.148
-520.945	741.002	-0.074	0.198
-519.931	-131.219	0.297	0.039
-518.916	204.036	0.064	-0.100
-517.902	10.377	0.208	-0.158
-516.887	-21.399	-0.372	-0.227
-515.872	-154.035	-0.102	0.007
-514.858	-22.935	-0.496	-0.299
-513.843	-200.000	-0.039	-0.198
-512.829	-200.000	-0.018	0.109
-511.814	415.821	0.165	-0.352
-510.799	-41.871	0.218	-0.112
-509.785	88.363	-0.241	-0.267
-508.770	-59.075	0.201	-0.087
-507.756	-0.240	-0.197	-0.140
-506.741	-200.000	0.044	-0.304
-505.726	-74.084	-0.070	-0.025
-504.712	-71.394	-0.277	0.103
-503.697	96.872	0.099	-0.113
-502.683	-20.254	0.241	0.148
-501.668	66.097	0.044	-0.045
-500.653	67.434	0.189	0.192
-499.639	-81.025	0.278	0.092
-498.624	-134.060	0.082	-0.010
-497.610	-102.160	0.347	0.083
-496.595	-155.706	-0.107	-0.007
-495.581	-101.866	0.443	-0.107
-494.566	-162.089	0.301	0.015
-493.551	419.973	0.146	-0.312
-492.537	161.287	0.076	-0.106
-491.522	-6.790	0.078	0.053
-490.508	197.089	0.057	-0.087
-489.493	-200.000	-0.059	-0.595
-488.478	72.017	-0.132	0.137
-487.464	462.311	-0.053	0.117
-486.449	112.165	-0.164	-0.197
-485.435	553.640	-0.073	0.174
-484.420	92.699	-0.233	0.263
-483.405	-159.441	0.140	0.008
-482.391	-200.000	0.046	-0.215
-481.376	242.881	0.113	0.188
-480.362	295.086	0.125	0.228
-479.347	-55.499	0.475	-0.212
-478.332	-0.026	-0.047	0.033
-477.318	92.802	0.061	0.069
-476.303	47.713	-0.243	0.226
-475.289	-99.912	-0.077	0.019
-474.274	-200.000	-0.025	-0.331
-473.259	-36.615	-0.210	0.113
-472.245	-44.459	-0.019	-0.010
-471.230	9.578	0.190	0.143
-470.216	267.878	0.046	0.080
-469.201	-139.063	-0.133	0.014
-468.186	118.880	-0.120	0.148
-467.172	115.870	-0.089	0.108
-466.157	-178.539	0.070	0.002
-465.143	-38.347	-0.075	0.040
-464.128	-38.457	-0.101	-0.053
-463.113	-11.460	-0.298	0.195
-462.099	124.901	0.147	-0.185
-461.084	1.569	0.036	-0.026
-460.070	-38.185	-0.212	0.112
-459.055	171.656	-0.030	0.042
-458.040	-200.000	-0.001	-0.356
-457.026	-13.360	-0.248	-0.160
-456.011	800.000	-0.021	0.082
-454.997	-200.000	-0.009	0.087
-453.982	-200.000	-0.045	-0.281
-452.968	397.444	0.113	0.234
-451.953	23.355	0.198	0.162
-450.938	232.349	0.037	-0.061
-449.924	-116.581	-0.417	0.076
-448.909	-200.000	-0.026	-0.119
-447.895	63.448	-0.065	0.065
-446.880	-200.000	-0.046	0.461
-445.865	800.000	-0.071	0.218
-444.851	800.000	0.024	-0.095
-443.836	800.000	0.014	0.045
-442.822	-200.000	0.014	0.180
-441.807	800.000	0.089	0.382
-440.792	-133.088	0.167	-0.021
-439.778	369.252	0.204	0.410
-438.763	-9.239	-0.361	0.240
-437.749	-142.422	-0.445	-0.044
-436.734	-200.000	-0.019	-0.246
-435.719	-142.255	-0.265	-0.026
-434.705	-200.000	-0.022	-0.103
-433.690	144.487	-0.112	0.148
-432.676	283.316	-0.083	0.148
-431.661	-155.275	0.275	0.018
-430.646	800.000	0.066	0.276
-429.632	-21.499	-0.147	-0.089
-428.617	-66.731	-0.267	-0.105
-427.603	51.332	0.245	0.232
-426.588	-21.872	-0.195	0.118
-425.573	53.951	0.103	-0.099
-424.559	29.673	-0.101	-0.086
-423.544	-139.962	-0.328	-0.034
-422.530	800.000	0.019	-0.076
-421.515	7.381	-0.126	-0.094
-420.500	23.066	-0.130	-0.106
-419.486	609.721	-0.043	0.108
-418.471	-82.656	-0.213	0.069
-417.457	9.268	-0.017	-0.013
-416.442	385.164	0.115	0.236
-415.428	98.054	-0.173	0.198
-414.413	800.000	0.062	-0.191
-413.398	-23.698	-0.417	-0.249
-412.384	-144.985	-0.127	-0.011
-411.369	-66.020	-0.242	0.096
-410.355	-200.000	-0.010	0.461
-409.340	-131.082	-0.225	-0.030
-408.325	255.910	-0.125	-0.214
-407.311	-117.864	0.154	-0.027
-406.296	237.650	-0.083	0.136
-405.282	-40.485	-0.342	-0.177
-404.267	244.881	-0.094	-0.157
-403.252	-124.461	-0.271	0.042
-402.238	800.000	0.168	0.486
-401.223	-170.664	0.181	0.006
-400.209	-192.734	-0.140	0.001
-399.194	-139.868	-0.117	-0.012
-398.179	-43.907	-0.092	0.046
-397.165	-86.745	-0.140	-0.043
-396.150	42.359	0.091	-0.082
-395.136	15.444	-0.214	0.167
-394.121	-200.000	-0.043	0.259
-393.106	55.265	-0.270	0.260
-392.092	288.211	-0.065	0.117
-391.077	-16.470	-0.059	-0.037
-390.063	-200.000	-0.036	-0.244
-389.048	800.000	0.062	-0.225
-388.033	800.000	-0.031	0.101
-387.019	-0.779	0.059	0.042
-386.004	82.608	0.244	-0.263
-384.990	275.802	0.069	-0.122
-383.975	-24.129	-0.155	-0.092
-382.960	-200.000	-0.069	-0.374
-381.946	-82.143	0.073	0.024
-380.931	-97.683	-0.200	0.051
-379.917	-36.567	0.243	-0.130
-378.902	800.000	0.058	0.200
-377.888	139.155	-0.326	0.426
-376.873	25.835	0.208	0.172
-375.858	-200.000	0.039	-0.180
-374.844	23.983	-0.102	0.083
-373.829	-155.026	0.165	0.011
-372.815	234.884	0.012	0.020
-371.800	800.000	-0.051	-0.151
-370.785	60.414	-0.054	-0.054
-369.771	216.044	-0.127	-0.201
-368.756	-200.000	-0.001	0.024
-367.742	-34.069	0.239	0.130
-366.727	-84.034	-0.301	-0.095
-365.712	-130.536	0.235	-0.031
-364.698	265.561	0.032	0.055
-363.683	-91.441	-0.196	-0.056
-362.669	800.000	-0.072	-0.213
-361.654	76.100	0.124	0.130
-360.639	78.362	0.232	0.246
-359.625	93.678	0.041	0.046
-358.610	-109.138	-0.447	-0.094
-357.596	85.295	0.275	0.299
-356.581	-82.983	0.233	-0.074
-355.566	48.784	-0.279	0.260
-354.552	-92.509	-0.340	0.095
-353.537	-123.013	0.428	0.068
-352.523	-47.889	-0.076	-0.037
-351.508	800.000	0.097	0.302
-350.493	622.983	-0.125	-0.312
-349.479	-138.999	0.287	-0.031
-348.464	258.558	0.217	-0.371
-347.450	-200.000	0.053	-0.299
-346.435	-45.431	0.138	-0.068
-345.420	-99.671	-0.149	0.037
-344.406	-200.000	0.045	-0.214
-343.391	165.050	-0.253	-0.355
-342.377	63.513	-0.284	0.283
-341.362	49.542	0.132	-0.123
-340.348	-200.000	-0.041	0.261
-339.333	-200.000	0.036	0.255
-338.318	-26.767	0.179	-0.104
-337.304	-200.000	-0.040	-0.197
-336.289	-114.308	-0.375	-0.072
-335.275	577.730	0.072	0.176
-334.260	-189.152	-0.302	-0.004
-333.245	-200.000	0.039	-0.328
-332.231	-59.141	0.323	-0.138
-331.216	16.281	-0.131	-0.102
-330.202	-58.617	0.337	0.145
-329.187	800.000	0.105	0.302
-328.172	-200.000	0.043	-0.206
-327.158	447.136	-0.018	0.039
-326.143	-48.392	-0.237	-0.113
-325.129	-43.428	-0.161	-0.080
-324.114	-156.377	0.179	0.011
-323.099	-13.895	0.229	-0.147
-322.085	24.769	0.196	0.161
-321.070	-21.790	0.204	0.123
-320.056	291.758	0.183	-0.331
-319.041	-200.000	-0.002	0.221
-318.026	-146.242	-0.326	-0.028
-317.012	-116.658	-0.192	0.035
-315.997	-200.000	0.037	0.166
-314.983	-200.000	-0.015	0.151
-313.968	-35.838	-0.163	-0.087
-312.953	-200.000	0.017	-0.202
-311.939	33.250	0.399	-0.342
-310.924	4.755	-0.230	-0.168
-309.910	279.043	0.128	-0.226
-308.895	30.175	0.072	0.061
-307.880	70.781	-0.051	-0.052
-306.866	680.244	-0.024	0.062
-305.851	42.645	0.235	-0.212
-304.837	163.462	-0.183	-0.255
-303.822	210.965	-0.294	0.458
-302.807	74.281	-0.179	0.186
-301.793	-173.580	-0.280	-0.008
-300.778	28.849	0.150	-0.126
-299.764	-182.806	0.233	-0.004
-298.749	22.882	0.094	0.077
-297.735	-200.000	0.003	-0.013
-296.720	-200.000	0.009	-0.075
-295.705	-28.113	0.274	0.157
-294.691	-200.000	0.019	-0.260
-293.676	18.316	0.171	0.135
-292.662	123.616	-0.066	-0.082
-291.647	-78.554	0.156	-0.053
-290.632	76.413	-0.220	-0.231
-289.618	-200.000	0.008	0.154
-288.603	-200.000	-0.002	0.101
-287.589	117.086	0.377	0.458
-286.574	-10.306	-0.081	0.053
-285.559	173.642	0.079	0.113
-284.545	104.273	-0.125	0.145
-283.530	-119.064	-0.269	0.047
-282.516	-34.798	0.178	-0.096
-281.501	624.572	0.035	0.087
-280.486	-152.967	-0.133	-0.009
-279.472	408.736	-0.094	0.196
-278.457	342.506	0.075	0.146
-277.443	-200.000	0.028	-0.187
-276.428	35.515	-0.148	0.129
-275.413	-125.083	0.191	0.029
-274.399	552.715	-0.044	-0.104
-273.384	-200.000	0.028	-0.182
-272.370	385.197	0.028	0.056
-271.355	140.519	-0.285	0.371
-270.340	97.262	-0.228	-0.258
-269.326	108.676	-0.109	-0.129
-268.311	-68.167	-0.281	-0.108
-267.297	800.000	-0.144	0.426
-266.282	-171.437	-0.182	-0.006
-265.267	106.944	-0.177	0.208
-264.253	-101.368	-0.007	-0.002
-263.238	101.151	-0.182	0.209
-262.224	800.000	-0.052	0.196
-261.209	213.405	0.213	0.333
-260.195	-200.000	0.053	0.410
-259.180	-200.000	0.048	0.354
-258.165	270.952	0.172	0.300
-257.151	-100.486	-0.216	0.053
-256.136	174.672	-0.164	-0.234
-255.122	139.766	0.096	-0.125
-254.107	780.912	0.131	-0.354
-253.092	17.660	-0.172	-0.135
-252.078	57.685	0.185	-0.179
-251.063	-57.744	0.136	0.059
-250.049	-149.736	-0.155	-0.012
-249.034	274.101	-0.159	-0.279
-248.019	-75.208	-0.173	0.061
-247.005	800.000	-0.040	-0.164
-245.990	37.484	0.112	-0.098
-244.976	41.805	-0.381	0.341
-243.961	77.044	0.300	0.315
-242.946	339.366	-0.119	0.228
-241.932	428.685	-0.027	-0.058
-240.917	106.587	0.159	0.186
-239.903	-7.714	0.072	-0.048
-238.888	-160.970	0.420	0.022
-237.873	-10.750	0.204	0.133
-236.859	372.746	-0.025	-0.051
-235.844	-110.172	0.130	0.027
-234.830	-73.020	-0.228	-0.083
-233.815	-177.689	-0.176	-0.004
-232.800	800.000	0.101	0.317
-231.786	-138.272	-0.180	-0.020
-230.771	559.915	-0.066	0.156
-229.757	-79.220	-0.365	-0.122
-228.742	-42.066	-0.235	0.119
-227.727	-29.160	-0.117	-0.066
-226.713	-109.952	0.200	-0.041
-225.698	-200.000	0.030	0.232
-224.684	-55.131	0.040	-0.018
-223.669	428.182	0.097	0.207
-222.655	410.079	-0.168	-0.352
-221.640	44.799	0.184	0.167
-220.625	-200.000	-0.008	0.083
-219.611	-200.000	0.027	0.162
-218.596	-30.552	0.167	-0.094
-217.582	9.955	0.177	0.132
-216.567	-200.000	0.043	-0.283
-215.552	-164.345	-0.172	0.008
-214.538	-200.000	0.046	0.217
-213.523	228.670	0.101	0.162
-212.509	95.147	0.170	-0.191
-211.494	-43.581	-0.236	0.117
-210.479	361.365	0.040	0.080
-209.465	-200.000	0.027	-0.135
-208.450	-1.626	0.094	0.065
-207.436	-200.000	-0.002	0.017
-206.421	363.631	-0.084	-0.166
-205.406	-113.425	-0.199	0.038
-204.392	510.925	0.112	0.257
-203.377	-64.204	0.233	0.094
-202.363	-200.000	0.003	-0.184
-201.348	-122.617	-0.359	0.057
-200.333	-200.000	-0.025	0.175
-199.319	56.734	-0.184	0.177
-198.304	312.814	-0.033	-0.061
-197.290	377.048	0.109	0.220
-196.275	800.000	-0.049	0.182
-195.260	-122.255	0.136	-0.022
-194.246	48.703	0.056	0.052
-193.231	-54.060	-0.108	0.049
-192.217	-10.737	-0.104	0.068
-191.202	-124.441	-0.459	-0.070
-190.187	-200.000	0.140	-0.795
-189.173	-86.695	0.315	0.095
-188.158	-22.690	0.096	-0.057
-187.144	122.111	-0.058	0.071
-186.129	800.000	-0.030	0.128
-185.114	-14.807	-0.046	0.029
-184.100	800.000	-0.064	-0.223
-183.085	-69.483	-0.025	0.009
-182.071	-160.047	-0.138	0.007
-181.056	14.943	0.211	-0.163
-180.042	4.496	0.208	-0.150
-179.027	163.774	-0.110	0.152
-178.012	800.000	0.081	0.233
-176.998	-25.977	0.267	0.155
-175.983	591.904	0.045	-0.108
-174.969	-38.735	-0.161	0.084
-173.954	779.044	0.121	0.326
-172.939	800.000	-0.040	-0.130
-171.925	-200.000	0.031	0.377
-170.910	-200.000	0.025	-0.119
-169.896	800.000	0.017	-0.049
-168.881	-159.963	-0.200	0.011
-167.866	-132.796	0.389	0.049
-166.852	800.000	-0.013	0.044
-165.837	294.453	-0.129	-0.232
-164.823	48.370	-0.152	-0.140
-163.808	6.697	0.308	0.226
-162.793	6.428	-0.231	-0.169
-161.779	-100.190	0.176	-0.043
-160.764	52.899	0.107	0.101
-159.750	-49.532	0.046	-0.022
-158.735	522.902	0.145	-0.334
-157.720	-67.904	0.223	-0.086
-156.706	109.720	0.187	0.220
-155.691	297.401	0.019	0.034
-154.677	-49.692	0.093	-0.043
-153.662	-109.367	-0.103	0.021
-152.647	-200.000	0.022	-0.164
-151.633	243.652	0.109	-0.180
-150.618	39.690	-0.169	-0.149
-149.604	9.666	0.132	-0.098
-148.589	28.867	-0.032	0.027
-147.574	-170.306	0.081	0.003
-146.560	800.000	0.024	-0.086
-145.545	242.848	0.048	0.079
-144.531	597.423	0.133	0.324
-143.516	285.769	0.216	-0.383
-142.502	-80.534	-0.310	-0.102
-141.487	-200.000	0.008	0.264
-140.472	-22.312	-0.274	0.163
-139.458	-70.320	0.011	0.004
-138.443	-131.442	0.277	-0.036
-137.429	70.378	-0.192	0.195
-136.414	72.918	-0.207	0.213
-135.399	49.374	-0.153	-0.142
-134.385	139.701	-0.197	0.255
-133.370	188.219	-0.041	0.060
-132.356	-200.000	0.010	0.210
-131.341	-87.906	0.185	-0.055
-130.326	-18.677	0.291	-0.179
-129.312	-158.533	-0.139	-0.008
-128.297	303.785	-0.034	0.063
-127.283	-200.000	0.040	-0.262
-126.268	174.857	0.123	0.175
-125.253	800.000	0.151	0.412
-124.239	1.284	0.194	0.137
-123.224	208.502	-0.122	0.187
-122.210	299.445	-0.121	0.219
-121.195	-200.000	0.014	0.128
