DTS Sentinel unit serial number:	SN413079Multiplexer serial number:	ORYXHardware model number:	OX4-SRSoftware version number:	ORYX F/W v4.00 Oryx Data Collector v3.7.2.0data status	okinstallation	princeton_trtdifferential loss correction	single-endedforward channel	channel 4reverse channel	N/Adate	2019/09/19time	02:01:34forward acquisition time	60.00reverse acquisition time	0.00gamma	496.2192k internal	0.2339k external	0.2339temperature offset calibration	1.0029default loss term (dB/km)	0.3790temperature slope calibration	1.0000multiplexer offset coefficient	1.0000multiplexer slope coefficient	1.0000fibre end	0.00T internal ref (°C)	21.25T ext. ref 1 (°C)	0.67T ext. ref 2 (°C)	14.84length (m)	temperature (°C)	Stokes	anti-Stokes-747.200	-183.810	-0.325	-0.006
-746.185	75.531	0.040	0.043
-745.171	39.815	-0.056	0.051
-744.156	-200.000	0.008	0.105
-743.142	-84.711	0.051	0.016
-742.127	201.649	-0.203	-0.314
-741.112	-200.000	-0.008	0.090
-740.098	800.000	0.123	0.360
-739.083	-120.559	0.167	-0.028
-738.069	-129.638	0.129	0.018
-737.054	17.695	0.406	-0.324
-736.039	45.044	-0.266	-0.245
-735.025	72.909	0.190	0.199
-734.010	-200.000	-0.007	-0.334
-732.996	-41.583	0.079	-0.041
-731.981	327.749	0.199	-0.382
-730.966	-200.000	0.030	-0.490
-729.952	-75.586	0.278	-0.099
-728.937	-25.196	-0.238	-0.141
-727.923	-200.000	-0.061	-0.266
-726.908	-200.000	0.045	-0.310
-725.894	-180.703	0.128	0.003
-724.879	767.682	0.061	0.165
-723.864	-113.150	0.030	0.006
-722.850	-99.797	-0.182	0.046
-721.835	131.498	0.116	0.150
-720.821	-53.932	-0.167	-0.076
-719.806	800.000	-0.057	-0.227
-718.791	89.400	0.166	-0.185
-717.777	402.160	0.234	-0.492
-716.762	-69.023	-0.317	-0.122
-715.748	-62.493	-0.235	-0.098
-714.733	-45.471	-0.338	0.168
-713.718	-56.719	0.140	-0.062
-712.704	61.700	-0.261	0.260
-711.689	-93.528	-0.025	-0.007
-710.675	234.253	0.084	-0.138
-709.660	78.800	-0.086	0.092
-708.645	-132.311	-0.207	0.027
-707.631	-200.000	-0.009	-0.345
-706.616	-184.097	0.104	0.002
-705.602	62.883	0.142	0.143
-704.587	36.958	0.110	-0.098
-703.572	327.633	0.110	-0.212
-702.558	800.000	0.050	0.170
-701.543	671.397	-0.059	0.154
-700.529	-200.000	-0.007	-0.053
-699.514	-142.876	-0.084	-0.008
-698.499	13.738	-0.170	0.132
-697.485	770.902	0.039	0.107
-696.470	-162.877	0.250	-0.012
-695.456	-155.299	0.113	0.007
-694.441	534.082	0.006	-0.015
-693.426	203.011	-0.150	-0.232
-692.412	-25.827	-0.120	0.071
-691.397	-200.000	0.038	-0.170
-690.383	-61.709	0.275	-0.115
-689.368	182.416	-0.212	-0.312
-688.354	-200.000	-0.003	-0.036
-687.339	25.931	-0.214	0.178
-686.324	-9.456	-0.160	0.107
-685.310	-79.260	0.138	0.047
-684.295	800.000	-0.118	0.485
-683.281	800.000	-0.058	-0.215
-682.266	-49.994	0.187	-0.089
-681.251	90.338	0.047	0.053
-680.237	-200.000	0.014	-0.197
-679.222	318.769	-0.080	0.151
-678.208	-134.491	-0.543	-0.066
-677.193	295.442	0.104	0.191
-676.178	-200.000	-0.021	0.125
-675.164	-200.000	-0.067	0.382
-674.149	31.192	0.100	0.086
-673.135	511.953	0.075	0.176
-672.120	-100.377	0.090	-0.022
-671.105	82.053	-0.140	0.152
-670.091	22.103	-0.177	-0.144
-669.076	-200.000	0.043	-0.385
-668.062	-161.719	-0.042	-0.002
-667.047	800.000	0.163	-0.536
-666.032	800.000	0.068	-0.197
-665.018	-10.080	0.106	-0.070
-664.003	189.933	-0.200	-0.299
-662.989	347.520	0.202	-0.397
-661.974	-19.501	-0.113	0.070
-660.959	800.000	-0.062	-0.223
-659.945	800.000	-0.142	0.410
-658.930	148.506	-0.177	-0.238
-657.916	-171.550	-0.155	0.005
-656.901	85.584	-0.362	-0.398
-655.886	658.874	0.026	-0.067
-654.872	437.040	0.111	0.241
-653.857	-80.109	0.020	-0.007
-652.843	-13.984	-0.257	0.166
-651.828	-37.058	-0.394	-0.211
-650.814	-108.998	0.210	-0.045
-649.799	227.021	-0.132	0.214
-648.784	286.580	-0.077	-0.140
-647.770	145.707	-0.037	-0.050
-646.755	-165.995	-0.308	0.013
-645.741	79.954	-0.152	-0.163
-644.726	-92.624	-0.260	-0.073
-643.711	447.427	0.085	-0.187
-642.697	800.000	0.116	0.396
-641.682	-174.714	0.339	0.010
-640.668	-145.051	-0.248	-0.023
-639.653	203.821	-0.142	-0.219
-638.638	46.298	0.138	0.127
-637.624	144.551	0.062	-0.082
-636.609	-67.876	-0.329	0.128
-635.595	158.293	0.233	0.323
-634.580	195.992	0.047	0.072
-633.565	-200.000	-0.004	0.197
-632.551	-104.360	-0.242	-0.056
-631.536	355.167	-0.061	0.120
-630.522	-192.049	0.329	-0.003
-629.507	260.142	0.052	-0.090
-628.492	-200.000	0.004	-0.084
-627.478	3.787	-0.265	0.193
-626.463	124.530	0.046	-0.057
-625.449	-200.000	0.037	0.331
-624.434	-42.820	0.293	0.149
-623.419	-200.000	-0.017	0.258
-622.405	24.167	-0.170	-0.140
-621.390	800.000	0.037	0.150
-620.376	800.000	-0.033	-0.122
-619.361	-200.000	0.002	0.093
-618.346	-200.000	-0.006	-0.086
-617.332	800.000	-0.099	0.348
-616.317	109.695	0.161	0.192
-615.303	-141.379	-0.515	0.052
-614.288	800.000	0.004	-0.012
-613.273	25.612	0.021	0.017
-612.259	-14.978	-0.169	-0.108
-611.244	85.293	0.176	-0.193
-610.230	246.378	-0.050	-0.083
-609.215	-34.598	0.163	-0.089
-608.201	-15.595	0.107	0.068
-607.186	-145.523	0.371	-0.033
-606.171	8.206	-0.026	0.020
-605.157	163.747	0.084	0.118
-604.142	19.844	-0.225	-0.181
-603.128	247.974	0.215	-0.362
-602.113	-200.000	-0.015	0.153
-601.098	668.566	-0.069	-0.177
-600.084	112.512	-0.213	0.257
-599.069	3.063	0.484	-0.351
-598.055	51.910	0.050	0.047
-597.040	-4.601	0.239	0.164
-596.025	-25.297	-0.291	0.172
-595.011	275.649	0.067	0.118
-593.996	-192.268	-0.668	0.006
-592.982	-94.941	0.410	-0.111
-591.967	44.984	0.186	0.171
-590.952	-20.912	0.081	0.049
-589.938	436.339	0.069	-0.149
-588.923	343.551	-0.168	0.328
-587.909	-54.463	-0.169	-0.077
-586.894	-141.030	0.217	-0.022
-585.879	-3.769	-0.138	0.096
-584.865	-30.764	-0.319	0.180
-583.850	115.687	0.226	0.276
-582.836	-117.666	-0.328	0.059
-581.821	5.099	-0.155	0.114
-580.806	-168.504	-0.172	-0.007
-579.792	-200.000	0.057	0.317
-578.777	168.557	0.165	-0.235
-577.763	-7.627	0.146	0.099
-576.748	-87.588	-0.398	0.120
-575.733	-5.522	-0.214	0.146
-574.719	-25.846	-0.237	-0.139
-573.704	297.432	-0.211	0.386
-572.690	-200.000	0.015	0.110
-571.675	-200.000	0.002	-0.032
-570.661	600.963	-0.057	0.142
-569.646	384.625	0.037	-0.076
-568.631	-24.159	-0.238	-0.141
-567.617	318.383	-0.218	-0.411
-566.602	-200.000	0.025	-0.281
-565.588	10.863	0.162	0.123
-564.573	44.181	-0.182	0.166
-563.558	-18.778	0.194	-0.120
-562.544	-157.598	-0.155	-0.009
-561.529	-200.000	0.044	0.396
-560.515	-112.410	0.257	0.051
-559.500	-22.722	-0.124	0.075
-558.485	800.000	-0.032	-0.105
-557.471	800.000	-0.068	-0.244
-556.456	-89.331	-0.226	-0.066
-555.442	37.195	-0.220	-0.194
-554.427	800.000	-0.090	0.369
-553.412	-200.000	0.026	0.141
-552.398	-92.861	-0.061	0.017
-551.383	101.161	-0.176	0.204
-550.369	-8.149	-0.283	0.190
-549.354	163.359	0.045	0.062
-548.339	795.765	-0.006	-0.017
-547.325	68.632	0.055	-0.056
-546.310	-29.165	-0.238	-0.136
-545.296	-187.458	-0.126	-0.002
-544.281	-12.498	-0.033	0.021
-543.266	-32.534	-0.302	0.168
-542.252	378.065	-0.174	-0.355
-541.237	5.130	-0.053	0.039
-540.223	127.568	-0.052	0.066
-539.208	-179.678	0.183	0.004
-538.193	-200.000	0.013	0.194
-537.179	-134.845	0.202	0.024
-536.164	-83.320	-0.188	-0.060
-535.150	-200.000	-0.036	-0.161
-534.135	-147.495	-0.375	-0.031
-533.121	169.447	-0.136	-0.193
-532.106	5.474	0.074	-0.054
-531.091	-200.000	-0.029	-0.459
-530.077	164.267	-0.031	0.044
-529.062	-200.000	0.025	-0.143
-528.048	-169.411	0.245	-0.009
-527.033	155.586	-0.073	-0.101
-526.018	800.000	-0.046	-0.190
-525.004	126.772	0.225	-0.284
-523.989	111.118	-0.085	0.101
-522.975	-152.989	0.257	-0.018
-521.960	120.258	0.199	0.245
-520.945	98.859	-0.083	0.095
-519.931	-200.000	0.046	0.411
-518.916	800.000	0.072	-0.228
-517.902	-80.673	0.396	-0.131
-516.887	-137.998	0.166	-0.018
-515.872	-200.000	0.035	-0.267
-514.858	780.085	0.012	-0.034
-513.843	55.399	0.031	-0.030
-512.829	42.495	0.202	0.183
-511.814	685.432	0.101	0.261
-510.799	-10.141	-0.248	-0.164
-509.785	-200.000	0.003	-0.351
-508.770	-45.714	0.322	-0.158
-507.756	-200.000	-0.019	-0.222
-506.741	-66.682	-0.329	-0.130
-505.726	26.299	0.338	-0.280
-504.712	800.000	-0.084	-0.338
-503.697	800.000	0.054	-0.185
-502.683	-200.000	0.014	0.271
-501.668	98.556	-0.034	0.038
-500.653	9.934	0.166	0.125
-499.639	87.510	-0.105	-0.116
-498.624	11.307	0.189	-0.144
-497.610	229.448	-0.113	-0.184
-496.595	-96.937	-0.025	0.007
-495.581	-4.761	0.187	-0.128
-494.566	-200.000	0.059	0.340
-493.551	155.263	-0.029	0.039
-492.537	2.448	0.131	-0.094
-491.522	-54.256	-0.284	-0.128
-490.508	82.517	-0.095	-0.102
-489.493	800.000	-0.025	-0.089
-488.478	800.000	0.133	-0.491
-487.464	800.000	0.078	0.222
-486.449	-55.936	-0.131	0.058
-485.435	800.000	0.103	-0.351
-484.420	-200.000	0.006	0.091
-483.405	-200.000	0.050	0.249
-482.391	368.688	-0.150	-0.300
-481.376	169.841	0.050	-0.070
-480.362	-98.347	-0.228	0.058
-479.347	399.066	-0.130	-0.270
-478.332	495.833	-0.064	-0.145
-477.318	67.782	0.147	0.150
-476.303	216.396	-0.069	0.108
-475.289	-85.618	-0.110	0.034
-474.274	28.773	-0.180	0.151
-473.259	294.277	-0.158	0.286
-472.245	251.448	0.056	0.095
-471.230	36.851	-0.214	-0.188
-470.216	-12.267	-0.102	-0.066
-469.201	800.000	-0.133	0.370
-468.186	122.392	-0.114	0.141
-467.172	-165.871	0.194	0.008
-466.157	-54.678	-0.222	0.099
-465.143	-100.359	0.223	-0.055
-464.128	-73.708	0.196	0.071
-463.113	800.000	-0.071	0.291
-462.099	-61.174	-0.223	-0.093
-461.084	224.574	0.184	-0.296
-460.070	-200.000	0.021	0.329
-459.055	37.637	0.209	0.184
-458.040	-200.000	-0.004	0.050
-457.026	417.359	-0.152	0.323
-456.011	-46.468	0.072	-0.035
-454.997	22.189	0.128	-0.103
-453.982	-181.220	0.161	-0.003
-452.968	-86.162	0.144	-0.044
-451.953	-16.320	-0.075	-0.047
-450.938	-200.000	-0.036	-0.385
-449.924	-80.818	0.290	-0.095
-448.909	54.733	-0.127	-0.121
-447.895	413.698	0.093	-0.195
-446.880	244.076	0.067	-0.112
-445.865	45.592	-0.063	0.057
-444.851	508.010	-0.165	-0.380
-443.836	83.305	0.113	-0.122
-442.822	-107.118	0.166	-0.036
-441.807	-36.310	0.239	0.128
-440.792	800.000	-0.043	0.182
-439.778	-200.000	-0.034	-0.209
-438.763	-200.000	0.022	-0.215
-437.749	-44.867	-0.190	-0.094
-436.734	83.557	0.211	0.228
-435.719	-200.000	0.056	0.314
-434.705	800.000	0.093	-0.319
-433.690	-100.694	-0.136	0.033
-432.676	-62.669	-0.153	-0.063
-431.661	-17.297	-0.145	-0.090
-430.646	234.387	-0.188	0.306
-429.632	461.979	0.059	-0.131
-428.617	27.346	0.126	-0.105
-427.603	573.731	0.140	0.337
-426.588	-59.613	0.052	0.022
-425.573	-47.684	-0.057	0.028
-424.559	181.395	-0.015	0.022
-423.544	-39.352	-0.105	0.055
-422.530	159.122	0.033	0.045
-421.515	800.000	-0.052	-0.199
-420.500	168.720	0.133	-0.188
-419.486	6.696	-0.149	-0.110
-418.471	800.000	0.059	0.207
-417.457	-200.000	0.008	0.226
-416.442	-43.436	-0.219	0.109
-415.428	-114.594	0.325	-0.062
-414.413	320.262	-0.216	-0.406
-413.398	800.000	-0.038	0.151
-412.384	-87.376	-0.197	0.059
-411.369	86.488	0.217	0.237
-410.355	110.092	0.139	0.165
-409.340	-13.392	0.328	0.210
-408.325	55.095	-0.085	0.081
-407.311	738.365	-0.065	0.173
-406.296	543.746	0.090	-0.213
-405.282	-51.181	-0.110	0.051
-404.267	-147.262	-0.409	-0.034
-403.252	93.015	-0.061	-0.069
-402.238	-138.025	0.386	0.042
-401.223	163.322	-0.077	0.107
-400.209	-23.507	-0.526	0.313
-399.194	-27.194	0.187	-0.108
-398.179	-77.119	0.255	-0.088
-397.165	267.079	-0.119	0.206
-396.150	602.563	0.191	0.470
-395.136	-39.421	0.276	0.143
-394.121	-1.678	-0.083	0.058
-393.106	-135.524	-0.211	0.025
-392.092	552.522	-0.121	0.288
-391.077	113.477	0.013	0.016
-390.063	-93.156	0.059	-0.016
-389.048	3.860	0.149	0.108
-388.033	139.272	0.071	0.092
-387.019	800.000	-0.037	-0.129
-386.004	-91.873	-0.305	0.085
-384.990	800.000	-0.090	0.332
-383.975	-86.417	0.203	0.062
-382.960	800.000	0.014	0.053
-381.946	-180.982	0.323	-0.006
-380.931	-200.000	-0.016	-0.334
-379.917	110.421	-0.134	0.159
-378.902	427.455	0.053	-0.114
-377.888	-147.781	0.155	-0.013
-376.873	-97.529	0.273	0.070
-375.858	-8.511	-0.146	0.097
-374.844	-36.584	0.222	0.118
-373.829	-73.169	0.101	0.036
-372.815	143.896	0.226	-0.298
-371.800	-111.770	0.140	-0.028
-370.785	289.676	0.122	-0.218
-369.771	31.377	0.071	-0.060
-368.756	268.952	-0.086	0.150
-367.742	383.980	-0.073	0.150
-366.727	7.446	-0.198	0.146
-365.712	-137.138	-0.361	-0.041
-364.698	-200.000	0.004	0.247
-363.683	-6.130	0.114	-0.077
-362.669	-8.378	0.026	-0.017
-361.654	-129.868	0.098	0.013
-360.639	-17.274	-0.132	0.082
-359.625	800.000	0.146	-0.436
-358.610	453.938	-0.099	0.216
-357.596	493.257	0.134	0.303
-356.581	-200.000	-0.088	-0.392
-355.566	-55.027	0.034	0.015
-354.552	-87.699	0.097	-0.029
-353.537	800.000	-0.085	0.264
-352.523	-93.252	0.227	-0.062
-351.508	800.000	-0.079	0.302
-350.493	147.548	-0.118	-0.157
-349.479	588.640	0.129	0.314
-348.464	27.268	-0.254	-0.211
-347.450	124.784	-0.289	-0.360
-346.435	18.239	-0.310	0.245
-345.420	277.684	0.114	0.200
-344.406	225.414	-0.031	-0.050
-343.391	-163.096	-0.351	0.017
-342.377	373.433	0.021	-0.042
-341.362	-15.888	-0.161	0.101
-340.348	654.264	0.084	-0.214
-339.333	372.489	0.084	0.168
-338.318	-40.884	-0.069	0.035
-337.304	-200.000	0.020	-0.368
-336.289	-200.000	-0.073	0.369
-335.275	-132.775	-0.418	-0.053
-334.260	-200.000	-0.021	-0.103
-333.245	-107.967	0.210	-0.045
-332.231	741.639	-0.013	-0.034
-331.216	-27.845	-0.230	-0.131
-330.202	-200.000	0.021	0.196
-329.187	-37.075	0.146	0.077
-328.172	-51.784	-0.148	-0.068
-327.158	-155.682	-0.243	0.015
-326.143	168.911	0.127	0.179
-325.129	800.000	-0.119	0.358
-324.114	800.000	0.010	-0.042
-323.099	-52.518	0.158	0.072
-322.085	312.314	-0.102	0.189
-321.070	219.311	-0.128	0.202
-320.056	-168.493	-0.281	-0.011
-319.041	35.237	-0.097	0.084
-318.026	-200.000	-0.020	-0.174
-317.012	-149.672	-0.306	-0.024
-315.997	98.111	0.092	-0.104
-314.983	167.773	-0.125	0.175
-313.968	450.469	0.066	-0.143
-312.953	800.000	0.057	-0.180
-311.939	-138.810	-0.085	0.009
-310.924	67.772	-0.125	-0.126
-309.910	-50.071	-0.039	0.018
-308.895	-100.701	-0.018	-0.004
-307.880	-2.056	0.115	0.080
-306.866	-63.801	0.288	0.116
-305.851	-200.000	-0.023	0.136
-304.837	308.940	-0.052	0.096
-303.822	-200.000	-0.027	0.209
-302.807	-200.000	0.065	-0.280
-301.793	124.440	-0.063	0.078
-300.778	-200.000	-0.001	-0.296
-299.764	78.888	0.219	0.231
-298.749	-108.183	-0.238	0.051
-297.735	-71.134	0.129	-0.048
-296.720	-200.000	-0.004	0.040
-295.705	-78.558	0.173	0.058
-294.691	58.625	0.172	0.166
-293.676	-200.000	-0.022	-0.119
-292.662	228.773	0.168	-0.271
-291.647	0.150	0.320	-0.224
-290.632	30.400	-0.118	0.099
-289.618	-200.000	-0.019	0.239
-288.603	-74.335	0.235	-0.084
-287.589	-28.027	0.062	-0.036
-286.574	20.623	-0.045	0.036
-285.559	-200.000	-0.027	0.232
-284.545	-200.000	-0.005	0.249
-283.530	645.013	0.145	0.365
-282.516	346.175	-0.185	-0.359
-281.501	-200.000	-0.008	0.190
-280.486	138.902	-0.135	-0.175
-279.472	163.504	-0.017	0.023
-278.457	51.551	0.111	-0.104
-277.443	800.000	-0.025	0.088
-276.428	782.708	0.098	0.265
-275.413	-200.000	-0.012	-0.171
-274.399	510.963	-0.062	-0.142
-273.384	9.640	0.233	0.174
-272.370	0.008	-0.360	-0.252
-271.355	277.746	-0.044	0.077
-270.340	94.574	0.272	-0.304
-269.326	800.000	-0.081	-0.331
-268.311	44.417	0.174	0.157
-267.297	76.781	0.142	-0.149
-266.282	-72.719	0.269	-0.097
-265.267	54.998	0.124	-0.118
-264.253	-51.373	0.318	-0.146
-263.238	216.192	0.302	-0.472
-262.224	123.960	-0.261	0.322
-261.209	-119.270	0.211	0.036
-260.195	-140.189	-0.217	-0.022
-259.180	-133.604	0.242	-0.030
-258.165	800.000	-0.072	-0.206
-257.151	-200.000	-0.011	0.082
-256.136	-46.129	0.301	0.146
-255.122	234.462	-0.053	-0.085
-254.107	-134.277	0.271	-0.033
-253.092	-200.000	0.077	-0.354
-252.078	127.462	0.278	-0.347
-251.063	124.701	0.186	-0.230
-250.049	7.598	0.184	-0.136
-249.034	-55.047	-0.214	-0.095
-248.019	-147.851	0.279	0.023
-247.005	-59.515	-0.240	-0.101
-245.990	-100.709	0.249	0.060
-244.976	141.540	0.163	-0.212
-243.961	-27.908	0.284	0.162
-242.946	95.745	0.092	0.103
-241.932	47.669	-0.148	-0.136
-240.917	-90.316	-0.339	-0.097
-239.903	-79.864	-0.214	0.071
-238.888	94.972	0.100	0.111
-237.873	800.000	-0.062	0.261
-236.859	42.408	0.088	-0.079
-235.844	-40.359	0.261	0.134
-234.830	10.074	-0.094	-0.070
-233.815	-21.049	-0.413	-0.249
-232.800	-200.000	-0.037	0.315
-231.786	48.984	0.131	-0.121
-230.771	96.809	0.122	0.138
-229.757	-14.791	-0.273	0.172
-228.742	-71.010	-0.058	-0.021
-227.727	-200.000	-0.013	0.101
-226.713	-48.278	-0.363	-0.172
-225.698	800.000	0.076	-0.236
-224.684	305.637	-0.137	-0.251
-223.669	235.721	-0.197	-0.319
-222.655	249.002	0.121	0.202
-221.640	315.540	0.076	0.140
-220.625	800.000	-0.077	-0.223
-219.611	39.994	0.181	0.160
-218.596	800.000	0.078	0.330
-217.582	1.183	-0.163	-0.115
-216.567	-1.471	-0.180	-0.124
-215.552	40.473	0.256	-0.226
-214.538	-103.504	0.187	0.043
-213.523	147.103	-0.275	-0.363
-212.509	100.369	0.185	-0.211
-211.494	-171.674	0.153	-0.005
-210.479	-111.780	-0.077	0.015
-209.465	-19.922	0.220	0.134
-208.450	-131.428	0.628	0.081
-207.436	-35.774	0.434	-0.231
-206.421	-84.290	-0.211	0.065
-205.406	-95.902	-0.363	0.095
-204.392	-200.000	-0.029	-0.314
-203.377	148.827	-0.040	-0.053
-202.363	-80.294	-0.073	0.024
-201.348	-82.692	0.157	-0.050
-200.333	-101.251	0.154	-0.037
-199.319	67.754	-0.263	0.264
-198.304	459.601	0.102	0.223
-197.290	-138.249	0.272	-0.030
-196.275	-129.802	-0.260	0.035
-195.260	69.221	0.069	0.069
-194.246	57.585	0.096	-0.092
-193.231	-136.083	0.566	-0.065
-192.217	-200.000	0.060	-0.273
-191.202	-81.831	0.283	-0.091
-190.187	-144.163	-0.167	-0.015
-189.173	24.430	0.050	-0.041
-188.158	216.698	0.176	-0.275
-187.144	-96.278	-0.311	0.081
-186.129	1.635	0.138	0.098
-185.114	109.888	-0.157	0.184
-184.100	-200.000	0.046	-0.205
-183.085	-200.000	-0.019	0.148
-182.071	-200.000	-0.021	-0.094
-181.056	421.255	-0.010	-0.021
-180.042	44.482	0.174	-0.157
-179.027	3.179	-0.354	-0.253
-178.012	713.761	0.083	-0.216
-176.998	178.631	-0.195	-0.279
-175.983	126.542	-0.146	-0.181
-174.969	21.008	-0.111	-0.088
-173.954	-191.635	-0.218	-0.002
-172.939	387.358	-0.121	0.246
-171.925	-200.000	0.023	0.124
-170.910	-68.552	-0.215	-0.082
-169.896	7.394	0.091	0.067
-168.881	-58.206	0.044	0.019
-167.866	-15.384	-0.202	0.127
-166.852	207.488	0.189	0.289
-165.837	800.000	0.040	-0.139
-164.823	-21.216	-0.111	0.067
-163.808	-45.063	-0.155	-0.076
-162.793	272.726	-0.068	-0.118
-161.779	-64.059	0.077	-0.031
-160.764	-68.038	0.277	0.106
-159.750	59.178	0.165	0.159
-158.735	20.397	0.055	-0.043
-157.720	-43.789	0.096	0.047
-156.706	-13.373	0.108	0.069
-155.691	-200.000	0.013	0.077
-154.677	-134.665	0.182	-0.022
-153.662	800.000	0.046	0.147
-152.647	35.226	-0.241	-0.207
-151.633	-129.005	0.238	0.033
-150.618	-162.178	-0.207	0.010
-149.604	-200.000	0.038	0.387
-148.589	-112.701	-0.265	0.052
-147.574	-200.000	0.028	-0.223
-146.560	800.000	0.080	0.250
-145.545	-132.585	-0.258	0.032
-144.531	146.388	-0.128	-0.169
-143.516	-200.000	-0.042	-0.434
-142.502	-200.000	0.029	0.283
-141.487	-1.221	-0.320	-0.222
-140.472	34.258	-0.083	0.071
-139.458	-13.342	-0.293	-0.186
-138.443	-200.000	0.042	0.230
-137.429	-200.000	0.003	-0.220
-136.414	34.297	0.273	0.233
-135.399	800.000	-0.144	0.408
-134.385	-200.000	0.009	-0.072
-133.370	69.767	-0.253	-0.255
-132.356	-120.483	0.291	-0.048
-131.341	77.100	-0.038	0.039
-130.326	-126.728	0.262	0.038
-129.312	-31.477	-0.314	-0.173
-128.297	-143.784	-0.183	-0.017
-127.283	-70.776	0.099	0.037
-126.268	-152.177	0.350	-0.025
-125.253	-109.651	0.044	-0.009
-124.239	-57.873	-0.386	0.165
-123.224	244.967	-0.033	0.054
-122.210	155.652	0.086	-0.116
-121.195	225.513	-0.199	-0.315
-120.180	6.424	0.183	0.133
