DTS Sentinel unit serial number:	SN413079Multiplexer serial number:	ORYXHardware model number:	OX4-SRSoftware version number:	ORYX F/W v4.00 Oryx Data Collector v3.7.2.0data status	okinstallation	princeton_trtdifferential loss correction	single-endedforward channel	channel 4reverse channel	N/Adate	2019/09/18time	20:45:34forward acquisition time	60.00reverse acquisition time	0.00gamma	496.2192k internal	0.2327k external	0.2327temperature offset calibration	1.0040default loss term (dB/km)	0.3790temperature slope calibration	1.0000multiplexer offset coefficient	1.0000multiplexer slope coefficient	1.0000fibre end	0.00T internal ref (°C)	27.36T ext. ref 1 (°C)	1.03T ext. ref 2 (°C)	18.51length (m)	temperature (°C)	Stokes	anti-Stokes-747.200	-200.000	-0.032	0.379
-746.185	-100.447	-0.171	0.043
-745.171	-103.055	-0.136	-0.033
-744.156	-66.678	-0.323	0.129
-743.142	-200.000	0.000	0.183
-742.127	-200.000	-0.043	0.306
-741.112	-200.000	0.026	-0.206
-740.098	-48.418	0.411	-0.200
-739.083	-200.000	0.001	0.359
-738.069	99.854	0.153	0.178
-737.054	-146.954	-0.227	-0.020
-736.039	-200.000	0.006	-0.093
-735.025	-16.911	0.239	0.152
-734.010	-87.234	-0.149	-0.045
-732.996	-48.701	0.106	0.052
-731.981	-135.323	-0.177	-0.021
-730.966	-152.442	0.204	-0.015
-729.952	81.698	0.238	-0.260
-728.937	87.265	0.125	0.140
-727.923	-36.302	0.141	-0.076
-726.908	146.242	-0.134	0.181
-725.894	654.730	-0.143	-0.370
-724.879	-96.434	-0.360	-0.096
-723.864	571.726	-0.033	0.081
-722.850	-200.000	-0.055	-0.332
-721.835	-49.191	0.322	-0.155
-720.821	42.967	-0.130	0.119
-719.806	-95.559	0.356	0.096
-718.791	-32.842	-0.169	-0.095
-717.777	-87.391	0.207	-0.063
-716.762	-75.582	0.338	-0.121
-715.748	66.523	0.183	-0.187
-714.733	-187.137	0.113	-0.002
-713.718	48.380	-0.097	-0.092
-712.704	-121.600	0.178	-0.030
-711.689	421.699	-0.148	-0.320
-710.675	82.720	-0.220	0.241
-709.660	446.228	-0.189	-0.417
-708.645	-200.000	0.007	0.146
-707.631	-70.244	0.302	0.115
-706.616	-53.842	0.224	-0.103
-705.602	-179.330	-0.252	-0.006
-704.587	-149.411	-0.344	0.027
-703.572	9.723	0.163	-0.124
-702.558	116.109	-0.120	0.148
-701.543	43.362	0.189	-0.174
-700.529	48.515	-0.250	0.236
-699.514	-131.687	-0.284	-0.037
-698.499	408.686	0.053	0.113
-697.485	-158.601	-0.218	0.013
-696.470	-167.462	0.285	0.011
-695.456	800.000	0.171	0.486
-694.441	-56.882	-0.191	-0.085
-693.426	-103.620	0.158	-0.037
-692.412	-200.000	-0.022	0.126
-691.397	-200.000	0.013	-0.293
-690.383	-98.705	0.420	0.108
-689.368	-119.846	-0.458	-0.079
-688.354	-53.388	0.032	0.015
-687.339	-200.000	0.042	-0.188
-686.324	-55.318	-0.136	-0.062
-685.310	117.782	-0.032	-0.040
-684.295	-111.853	-0.151	0.031
-683.281	265.813	-0.131	-0.230
-682.266	-54.294	-0.320	-0.146
-681.251	-200.000	-0.014	0.314
-680.237	-200.000	-0.008	0.316
-679.222	25.689	0.140	0.117
-678.208	-200.000	-0.218	-0.001
-677.193	-200.000	0.017	0.142
-676.178	-33.596	0.136	0.075
-675.164	-95.549	0.234	0.063
-674.149	-141.097	-0.234	-0.024
-673.135	-200.000	0.027	0.190
-672.120	200.817	-0.158	-0.245
-671.105	800.000	-0.082	-0.258
-670.091	-93.806	0.221	-0.061
-669.076	-1.151	0.179	-0.127
-668.062	-200.000	-0.007	-0.091
-667.047	-9.781	-0.328	0.219
-666.032	447.545	0.052	-0.115
-665.018	389.853	-0.037	-0.078
-664.003	-53.750	0.118	-0.054
-662.989	800.000	-0.123	0.525
-661.974	-98.204	-0.236	0.061
-660.959	800.000	-0.151	0.633
-659.945	309.681	-0.137	0.257
-658.930	-200.000	0.003	-0.246
-657.916	-200.000	0.049	-0.270
-656.901	-82.124	-0.104	0.034
-655.886	-124.826	0.234	0.036
-654.872	244.926	-0.202	-0.341
-653.857	-20.393	-0.145	0.089
-652.843	268.778	-0.240	-0.423
-651.828	682.147	0.087	-0.228
-650.814	800.000	0.121	-0.396
-649.799	1.234	-0.324	-0.233
-648.784	-38.783	0.090	0.047
-647.770	475.221	0.170	-0.385
-646.755	226.177	-0.130	0.212
-645.741	-5.604	-0.224	0.155
-644.726	-200.000	-0.063	-0.362
-643.711	-27.419	0.265	0.155
-642.697	115.100	0.058	0.071
-641.682	285.120	-0.079	0.142
-640.668	304.980	0.082	-0.154
-639.653	220.069	0.133	0.214
-638.638	-58.506	0.294	-0.128
-637.624	-8.227	-0.149	-0.101
-636.609	-24.967	-0.063	-0.037
-635.595	800.000	0.072	-0.249
-634.580	800.000	0.102	-0.357
-633.565	-200.000	0.097	-0.489
-632.551	167.651	0.138	0.197
-631.536	100.576	0.255	0.297
-630.522	-200.000	-0.010	0.423
-629.507	174.084	-0.181	0.263
-628.492	-82.506	0.130	-0.042
-627.478	-125.166	-0.176	-0.027
-626.463	-200.000	-0.038	-0.170
-625.449	800.000	-0.149	-0.493
-624.434	-23.926	0.216	-0.130
-623.419	-107.586	-0.346	-0.076
-622.405	-44.496	-0.250	-0.125
-621.390	39.657	-0.309	-0.278
-620.376	-168.185	0.148	-0.006
-619.361	213.252	0.120	-0.190
-618.346	216.222	-0.008	-0.013
-617.332	-174.494	-0.224	0.006
-616.317	-94.785	-0.075	-0.020
-615.303	-156.287	-0.135	-0.009
-614.288	800.000	0.027	-0.081
-613.273	118.378	-0.297	0.368
-612.259	88.339	0.191	-0.213
-611.244	-200.000	0.031	0.219
-610.230	-97.936	0.286	-0.074
-609.215	800.000	-0.034	-0.145
-608.201	-200.000	-0.004	-0.061
-607.186	54.092	-0.193	0.186
-606.171	-70.706	-0.364	-0.138
-605.157	-59.245	-0.058	-0.025
-604.142	23.157	-0.130	0.107
-603.128	-200.000	0.014	0.202
-602.113	-3.081	0.258	-0.181
-601.098	183.548	0.062	-0.092
-600.084	88.341	0.141	-0.157
-599.069	-200.000	0.048	-0.283
-598.055	184.510	0.145	-0.215
-597.040	259.962	0.158	-0.273
-596.025	276.541	0.143	-0.255
-595.011	800.000	0.050	0.214
-593.996	-152.693	0.409	-0.029
-592.982	-51.014	0.073	0.034
-591.967	-200.000	-0.041	-0.314
-590.952	800.000	-0.117	-0.350
-589.938	-16.512	0.285	0.181
-588.923	-63.687	-0.331	0.136
-587.909	-94.371	-0.325	0.089
-586.894	45.502	0.135	-0.125
-585.879	-144.164	-0.259	-0.024
-584.865	268.262	-0.126	0.222
-583.850	-91.296	-0.351	0.101
-582.836	-200.000	-0.004	-0.336
-581.821	-90.953	-0.184	-0.053
-580.806	295.206	0.232	0.426
-579.792	348.371	-0.010	0.020
-578.777	-79.844	-0.189	0.064
-577.763	-200.000	-0.013	-0.181
-576.748	220.024	0.082	0.131
-575.733	220.253	0.085	-0.137
-574.719	-4.600	0.132	-0.092
-573.704	101.285	0.093	0.109
-572.690	-154.069	0.481	-0.033
-571.675	-200.000	-0.029	-0.351
-570.661	275.899	-0.067	-0.119
-569.646	570.151	0.033	0.080
-568.631	238.996	-0.056	-0.094
-567.617	-150.386	0.190	-0.015
-566.602	202.583	-0.244	0.377
-565.588	-70.763	-0.286	0.108
-564.573	800.000	-0.085	0.263
-563.558	-120.032	-0.213	0.036
-562.544	-200.000	0.034	0.353
-561.529	59.955	0.057	0.057
-560.515	-200.000	-0.001	0.434
-559.500	81.825	0.247	0.268
-558.485	-96.586	-0.043	-0.011
-557.471	186.641	-0.173	0.259
-556.456	-200.000	0.047	0.444
-555.442	119.093	-0.208	-0.258
-554.427	29.962	-0.051	-0.043
-553.412	800.000	0.099	0.276
-552.398	391.945	-0.018	-0.038
-551.383	800.000	0.022	-0.073
-550.369	800.000	0.053	0.205
-549.354	-110.137	-0.069	0.014
-548.339	-185.192	0.148	0.002
-547.325	81.228	-0.136	0.147
-546.310	380.142	-0.025	0.052
-545.296	-142.328	0.286	0.028
-544.281	-140.894	0.035	0.004
-543.266	-70.295	0.060	0.023
-542.252	-200.000	-0.003	-0.196
-541.237	41.877	-0.156	-0.141
-540.223	55.180	0.149	-0.144
-539.208	90.585	0.146	-0.164
-538.193	616.007	-0.111	-0.278
-537.179	-120.392	0.061	0.010
-536.164	254.778	-0.121	0.207
-535.150	-200.000	-0.015	0.114
-534.135	86.207	0.091	0.101
-533.121	-200.000	-0.009	-0.159
-532.106	118.320	-0.140	0.173
-531.091	58.067	-0.097	-0.095
-530.077	-200.000	0.019	0.446
-529.062	176.850	0.079	-0.115
-528.048	53.551	-0.121	-0.116
-527.033	265.786	-0.114	0.199
-526.018	-38.094	0.244	-0.129
-525.004	-25.375	-0.114	0.067
-523.989	-63.130	0.109	-0.045
-522.975	83.693	0.200	-0.218
-521.960	-200.000	-0.021	-0.105
-520.945	-114.804	0.113	-0.022
-519.931	14.632	-0.017	-0.013
-518.916	800.000	-0.123	-0.345
-517.902	800.000	0.034	0.106
-516.887	-200.000	0.088	0.455
-515.872	-10.773	0.238	-0.157
-514.858	77.043	0.210	0.222
-513.843	545.905	0.097	0.232
-512.829	45.928	0.162	-0.150
-511.814	800.000	0.076	0.267
-510.799	-56.036	-0.108	0.048
-509.785	-70.138	-0.046	0.018
-508.770	-37.837	0.206	0.109
-507.756	-60.026	0.080	0.034
-506.741	-12.023	-0.173	0.113
-505.726	566.827	-0.043	-0.103
-504.712	464.543	0.125	-0.279
-503.697	-97.626	-0.277	0.072
-502.683	-55.758	-0.243	-0.108
-501.668	-38.505	0.409	-0.216
-500.653	244.572	-0.020	0.033
-499.639	62.959	0.175	0.175
-498.624	-58.089	0.126	0.055
-497.610	-116.765	0.212	-0.039
-496.595	800.000	-0.049	0.146
-495.581	800.000	-0.060	-0.246
-494.566	508.021	-0.042	-0.098
-493.551	94.680	0.166	0.189
-492.537	20.959	-0.132	0.106
-491.522	237.147	-0.086	0.143
-490.508	-69.257	-0.108	-0.041
-489.493	-141.767	0.381	-0.038
-488.478	-77.133	-0.123	-0.043
-487.464	409.605	0.158	0.333
-486.449	103.820	0.365	0.428
-485.435	-33.382	-0.328	0.181
-484.420	-200.000	-0.010	0.064
-483.405	175.180	-0.103	-0.149
-482.391	-65.860	-0.060	0.024
-481.376	258.337	-0.158	-0.271
-480.362	-31.890	-0.116	-0.065
-479.347	-8.209	0.091	-0.061
-478.332	297.491	-0.101	-0.185
-477.318	434.530	-0.085	0.185
-476.303	25.598	-0.240	0.200
-475.289	-47.175	0.189	0.092
-474.274	381.355	-0.163	0.333
-473.259	217.377	-0.091	-0.144
-472.245	272.671	-0.171	-0.301
-471.230	40.462	-0.226	-0.203
-470.216	-200.000	0.001	-0.059
-469.201	-41.036	-0.277	0.143
-468.186	118.897	-0.139	-0.171
-467.172	800.000	0.057	-0.212
-466.157	-200.000	-0.066	0.332
-465.143	800.000	0.083	0.232
-464.128	473.606	-0.108	0.242
-463.113	91.437	-0.028	-0.031
-462.099	112.463	-0.264	0.319
-461.084	-65.372	0.226	-0.091
-460.070	-87.048	0.133	-0.040
-459.055	-200.000	-0.007	-0.153
-458.040	118.676	0.131	0.161
-457.026	153.808	0.160	-0.219
-456.011	38.163	-0.183	0.162
-454.997	-39.283	-0.125	-0.065
-453.982	-200.000	0.017	-0.173
-452.968	55.713	-0.114	-0.111
-451.953	800.000	0.068	0.213
-450.938	169.281	0.108	0.154
-449.924	800.000	0.045	-0.147
-448.909	150.654	-0.052	-0.071
-447.895	-200.000	0.050	-0.304
-446.880	215.074	-0.123	0.195
-445.865	-200.000	-0.013	0.182
-444.851	-200.000	-0.246	-0.000
-443.836	41.852	0.126	0.114
-442.822	800.000	-0.149	-0.439
-441.807	-27.950	0.230	-0.133
-440.792	-34.477	-0.154	-0.084
-439.778	-64.441	0.162	0.065
-438.763	323.836	-0.107	0.203
-437.749	800.000	-0.045	-0.134
-436.734	292.231	-0.068	-0.124
-435.719	236.816	0.046	0.076
-434.705	-136.603	-0.142	-0.016
-433.690	26.345	0.280	0.233
-432.676	-75.780	-0.358	-0.127
-431.661	-139.861	0.140	-0.015
-430.646	322.044	-0.141	0.267
-429.632	-23.525	0.123	-0.073
-428.617	800.000	-0.067	-0.189
-427.603	-44.105	0.090	0.045
-426.588	134.941	-0.186	-0.240
-425.573	800.000	0.092	0.311
-424.559	-200.000	0.016	-0.379
-423.544	-200.000	-0.005	-0.170
-422.530	-200.000	0.041	-0.283
-421.515	158.921	-0.220	-0.304
-420.500	138.694	-0.239	0.313
-419.486	800.000	-0.049	-0.198
-418.471	-51.085	-0.163	-0.076
-417.457	-200.000	0.002	-0.260
-416.442	-200.000	-0.005	0.280
-415.428	332.454	0.053	0.102
-414.413	44.534	0.086	-0.078
-413.398	-200.000	0.065	0.305
-412.384	-42.361	0.227	-0.115
-411.369	-83.555	-0.108	-0.035
-410.355	-152.461	0.339	0.024
-409.340	-100.527	-0.424	-0.104
-408.325	-19.121	-0.034	-0.021
-407.311	-38.467	0.090	0.047
-406.296	800.000	-0.109	0.459
-405.282	-48.762	-0.043	0.020
-404.267	-33.048	-0.190	0.105
-403.252	-200.000	0.026	-0.220
-402.238	-3.792	-0.224	0.155
-401.223	168.329	0.230	0.325
-400.209	-200.000	-0.050	-0.220
-399.194	-49.163	0.034	0.016
-398.179	-6.085	-0.189	-0.128
-397.165	-124.253	-0.157	-0.024
-396.150	311.861	-0.210	-0.392
-395.136	87.209	0.131	0.144
-394.121	-197.106	-0.383	0.002
-393.106	45.605	-0.079	0.072
-392.092	-30.530	0.135	-0.076
-391.077	257.521	0.092	-0.157
-390.063	19.827	-0.024	0.019
-389.048	110.414	-0.175	0.209
-388.033	-24.178	-0.223	-0.133
-387.019	-85.697	-0.473	0.146
-386.004	237.475	0.127	0.210
-384.990	-200.000	-0.024	0.169
-383.975	126.667	0.107	-0.135
-382.960	-200.000	0.025	-0.170
-381.946	288.985	0.045	-0.081
-380.931	-148.717	-0.398	-0.032
-379.917	-38.097	0.206	-0.109
-378.902	72.193	-0.218	-0.226
-377.888	94.869	-0.097	0.110
-376.873	-200.000	-0.029	-0.315
-375.858	-43.454	0.191	-0.096
-374.844	91.551	0.037	-0.041
-373.829	-44.879	0.093	0.046
-372.815	297.866	0.182	0.332
-371.800	-15.969	-0.135	-0.085
-370.785	-132.655	0.136	0.017
-369.771	709.903	0.035	0.093
-368.756	800.000	0.061	0.229
-367.742	55.148	0.054	-0.052
-366.727	-43.625	0.082	-0.041
-365.712	-200.000	-0.007	-0.214
-364.698	32.663	-0.253	0.217
-363.683	-200.000	-0.013	-0.077
-362.669	254.599	0.250	-0.425
-361.654	-173.127	-0.352	0.011
-360.639	800.000	-0.054	-0.167
-359.625	-200.000	-0.009	0.168
-358.610	-106.875	-0.283	-0.062
-357.596	107.084	0.213	-0.251
-356.581	-148.311	0.509	-0.042
-355.566	-200.000	-0.018	-0.458
-354.552	140.888	-0.141	-0.185
-353.537	-200.000	0.044	0.246
-352.523	800.000	0.022	-0.085
-351.508	785.828	0.088	-0.239
-350.493	-200.000	-0.012	0.080
-349.479	-200.000	-0.020	0.159
-348.464	15.670	0.092	0.072
-347.450	800.000	0.038	0.126
-346.435	-9.585	-0.227	-0.150
-345.420	138.753	0.066	0.086
-344.406	284.182	-0.061	-0.110
-343.391	-73.219	0.370	0.135
-342.377	778.168	-0.077	0.210
-341.362	-166.556	-0.303	0.013
-340.348	-15.341	-0.074	0.047
-339.333	-200.000	-0.005	0.259
-338.318	59.990	-0.129	0.127
-337.304	-150.981	-0.260	-0.019
-336.289	-200.000	-0.085	0.459
-335.275	-28.842	0.339	0.193
-334.260	766.952	0.083	-0.225
-333.245	280.400	-0.059	-0.105
-332.231	37.451	-0.115	0.101
-331.216	-200.000	0.002	0.437
-330.202	-46.970	-0.191	0.093
-329.187	-200.000	-0.006	-0.094
-328.172	-136.477	-0.124	0.014
-327.158	-136.022	0.263	-0.031
-326.143	-139.916	-0.314	0.033
-325.129	-200.000	0.020	-0.156
-324.114	-200.000	0.023	-0.176
-323.099	32.501	-0.209	-0.179
-322.085	-200.000	-0.008	0.100
-321.070	34.875	-0.168	0.146
-320.056	-46.070	-0.349	0.170
-319.041	51.958	0.129	0.122
-318.026	11.993	0.159	-0.121
-317.012	-200.000	-0.022	-0.280
-315.997	800.000	-0.044	-0.140
-314.983	-163.846	0.219	0.010
-313.968	-95.371	0.321	0.085
-312.953	800.000	-0.097	-0.354
-311.939	287.713	0.108	-0.193
-310.924	120.031	0.086	-0.106
-309.910	-133.217	-0.263	0.033
-308.895	551.677	0.082	-0.195
-307.880	15.449	0.065	0.051
-306.866	112.713	0.174	0.209
-305.851	285.052	-0.039	0.070
-304.837	-110.707	0.067	-0.014
-303.822	39.079	0.092	-0.081
-302.807	16.968	-0.208	0.164
-301.793	137.944	-0.006	-0.008
-300.778	-52.749	-0.161	-0.074
-299.764	713.765	0.145	-0.381
-298.749	-200.000	-0.044	0.236
-297.735	-29.361	0.093	-0.053
-296.720	509.428	-0.030	-0.070
-295.705	9.386	0.237	-0.177
-294.691	-200.000	0.003	-0.094
-293.676	-87.987	-0.424	0.126
-292.662	-200.000	-0.004	0.341
-291.647	153.309	0.057	0.077
-290.632	-94.917	0.049	0.013
-289.618	-173.386	0.231	-0.007
-288.603	155.550	0.142	0.194
-287.589	-200.000	0.015	-0.159
-286.574	-190.622	-0.398	0.004
-285.559	-152.269	-0.267	-0.019
-284.545	385.231	0.076	0.155
-283.530	-66.002	-0.107	0.042
-282.516	-86.736	0.108	0.033
-281.501	28.815	0.192	0.161
-280.486	29.281	-0.131	0.110
-279.472	-178.107	0.197	0.005
-278.457	-77.812	0.180	0.062
-277.443	37.847	-0.080	0.071
-276.428	-56.271	0.242	-0.107
-275.413	109.205	-0.183	-0.216
-274.399	-200.000	0.011	0.145
-273.384	60.123	0.085	0.083
-272.370	224.247	-0.085	-0.136
-271.355	-74.906	0.416	0.148
-270.340	-93.746	0.289	-0.079
-269.326	327.617	0.038	0.072
-268.311	-200.000	0.049	0.237
-267.297	-73.905	-0.088	0.032
-266.282	104.986	0.112	-0.131
-265.267	-52.837	-0.226	-0.103
-264.253	800.000	-0.096	-0.361
-263.238	-200.000	-0.002	-0.014
-262.224	-20.487	0.063	0.038
-261.209	-200.000	-0.003	-0.089
-260.195	188.141	0.150	0.222
-259.180	388.378	-0.061	0.125
-258.165	-109.561	-0.251	-0.052
-257.151	79.531	-0.153	-0.163
-256.136	-37.706	-0.117	0.062
-255.122	-200.000	0.032	0.327
-254.107	800.000	-0.046	0.132
-253.092	125.811	-0.085	-0.107
-252.078	-200.000	-0.002	-0.027
-251.063	-200.000	-0.018	0.370
-250.049	0.265	-0.078	0.055
-249.034	725.840	0.046	-0.120
-248.019	-11.525	-0.338	-0.220
-247.005	128.157	-0.257	-0.323
-245.990	657.463	-0.135	0.342
-244.976	15.535	-0.181	0.141
-243.961	-200.000	0.006	0.079
-242.946	-200.000	0.039	-0.190
-241.932	256.073	0.112	-0.191
-240.917	132.064	-0.102	0.130
-239.903	539.033	0.068	0.160
-238.888	-165.341	-0.171	0.007
-237.873	800.000	0.051	-0.183
-236.859	84.978	0.261	0.283
-235.844	65.271	-0.093	0.093
-234.830	-30.205	-0.078	0.044
-233.815	414.776	0.083	-0.174
-232.800	54.678	0.034	-0.032
-231.786	-124.057	0.194	-0.030
-230.771	-200.000	0.032	-0.260
-229.757	348.574	-0.076	0.149
-228.742	374.969	-0.083	0.168
-227.727	-134.061	0.477	0.058
-226.713	-2.096	0.123	0.085
-225.698	256.408	0.308	-0.523
-224.684	-200.000	0.004	-0.233
-223.669	-92.243	0.232	-0.065
-222.655	101.377	0.348	0.400
-221.640	595.822	-0.080	0.196
-220.625	117.438	0.283	-0.344
-219.611	-200.000	0.044	0.212
-218.596	-111.774	0.139	0.028
-217.582	200.725	-0.113	0.172
-216.567	74.926	0.121	0.126
-215.552	653.363	0.098	0.247
-214.538	-77.751	-0.075	0.026
-213.523	288.130	-0.218	-0.390
-212.509	800.000	0.028	0.096
-211.494	-200.000	-0.036	0.329
-210.479	-59.156	0.229	0.098
-209.465	-200.000	-0.006	-0.112
-208.450	205.010	0.140	-0.215
-207.436	-174.426	-0.133	0.004
-206.421	548.470	-0.055	-0.130
-205.406	120.022	0.042	-0.051
-204.392	-69.107	0.159	-0.060
-203.377	-41.179	-0.089	0.045
-202.363	800.000	-0.050	0.190
-201.348	800.000	0.146	-0.468
-200.333	-76.957	-0.295	-0.102
-199.319	203.503	-0.092	0.141
-198.304	-200.000	0.023	-0.189
-197.290	-200.000	0.091	0.422
-196.275	206.170	-0.074	0.113
-195.260	800.000	-0.055	-0.152
-194.246	-107.233	0.128	-0.028
-193.231	13.837	0.221	-0.170
-192.217	-88.399	-0.092	-0.027
-191.202	-79.561	0.269	-0.090
-190.187	-51.373	0.134	0.062
-189.173	74.376	0.176	-0.183
-188.158	7.167	0.192	-0.141
-187.144	-51.067	-0.121	-0.056
-186.129	53.457	-0.174	-0.165
-185.114	-101.771	0.250	0.060
-184.100	-33.666	0.079	-0.043
-183.085	800.000	-0.086	0.305
-182.071	0.154	0.301	0.212
-181.056	67.990	-0.076	-0.077
-180.042	96.446	-0.224	0.252
-179.027	-125.959	0.266	-0.040
-178.012	-17.135	0.211	0.132
-176.998	368.087	0.052	-0.103
-175.983	318.305	-0.050	-0.094
-174.969	-200.000	0.017	-0.225
-173.954	-19.622	-0.231	0.141
-172.939	-95.484	-0.261	-0.069
-171.925	-137.798	0.212	-0.023
-170.910	662.868	-0.080	-0.204
-169.896	-75.773	0.164	-0.057
-168.881	800.000	0.043	-0.135
-167.866	269.350	0.085	-0.148
-166.852	-105.524	0.192	0.043
-165.837	-90.604	-0.196	-0.056
-164.823	-77.750	0.190	0.065
-163.808	-147.706	-0.089	-0.007
-162.793	626.683	0.078	0.195
-161.779	127.396	-0.073	0.091
-160.764	46.659	-0.248	0.227
-159.750	135.281	0.102	0.130
-158.735	-27.823	0.183	-0.105
-157.720	500.095	-0.075	0.170
-156.706	-69.770	0.675	0.254
-155.691	13.977	-0.319	-0.245
-154.677	-142.627	-0.048	-0.005
-153.662	-18.108	0.068	0.042
-152.647	67.911	0.049	-0.050
-151.633	137.370	0.304	0.392
-150.618	508.458	-0.062	-0.142
-149.604	62.405	0.232	-0.228
-148.589	67.540	-0.172	0.173
-147.574	-144.566	-0.228	-0.021
-146.560	577.434	0.084	0.202
-145.545	43.795	-0.048	-0.043
-144.531	210.361	0.148	0.228
-143.516	76.207	-0.106	-0.111
-142.502	-1.539	-0.075	-0.052
-141.487	-164.073	0.165	-0.008
-140.472	618.289	-0.109	-0.270
-139.458	-200.000	-0.065	-0.366
-138.443	-200.000	-0.016	0.298
-137.429	401.852	0.111	0.230
-136.414	-200.000	0.056	0.393
-135.399	610.788	0.055	0.135
-134.385	-134.327	-0.400	-0.048
-133.370	-92.515	0.098	0.027
-132.356	800.000	-0.050	-0.147
-131.341	800.000	-0.066	0.272
-130.326	37.434	0.174	0.152
-129.312	92.337	-0.215	-0.238
-128.297	-86.902	-0.014	-0.004
-127.283	350.799	-0.139	-0.270
-126.268	-200.000	0.000	0.017
-125.253	-21.893	0.165	-0.099
-124.239	-60.113	-0.198	-0.083
-123.224	18.273	0.073	0.058
-122.210	800.000	-0.134	-0.404
