DTS Sentinel unit serial number:	SN413079Multiplexer serial number:	ORYXHardware model number:	OX4-SRSoftware version number:	ORYX F/W v4.00 Oryx Data Collector v3.7.2.0data status	okinstallation	princeton_trtdifferential loss correction	single-endedforward channel	channel 4reverse channel	N/Adate	2019/09/15time	06:33:34forward acquisition time	60.00reverse acquisition time	0.00gamma	496.2192k internal	0.2311k external	0.2311temperature offset calibration	1.0031default loss term (dB/km)	0.3790temperature slope calibration	1.0000multiplexer offset coefficient	1.0000multiplexer slope coefficient	1.0000fibre end	0.00T internal ref (°C)	30.50T ext. ref 1 (°C)	4.80T ext. ref 2 (°C)	25.38length (m)	temperature (°C)	Stokes	anti-Stokes-747.200	-200.000	0.016	-0.127
-746.185	-24.235	0.218	-0.132
-745.171	-11.111	-0.190	-0.127
-744.156	800.000	0.123	0.398
-743.142	17.839	-0.183	0.148
-742.127	21.251	-0.325	0.268
-741.112	82.192	0.074	-0.082
-740.098	800.000	0.046	0.180
-739.083	389.888	0.164	0.344
-738.069	-82.125	-0.129	0.043
-737.054	82.656	0.303	0.334
-736.039	-200.000	-0.030	-0.249
-735.025	-109.895	0.112	0.024
-734.010	634.198	0.102	-0.263
-732.996	13.533	0.162	0.128
-731.981	-121.299	0.497	0.084
-730.966	105.007	-0.120	-0.143
-729.952	336.967	-0.303	0.597
-728.937	-200.000	-0.046	-0.380
-727.923	-40.620	-0.415	0.218
-726.908	-104.813	0.221	0.052
-725.894	800.000	0.083	-0.249
-724.879	-116.872	-0.336	-0.062
-723.864	-104.949	-0.254	-0.059
-722.850	-85.274	-0.396	0.125
-721.835	800.000	0.089	-0.261
-720.821	77.650	0.026	-0.028
-719.806	315.187	-0.123	-0.236
-718.791	800.000	0.043	-0.131
-717.777	224.285	-0.120	-0.197
-716.762	-117.339	-0.227	-0.042
-715.748	-105.279	0.337	-0.078
-714.733	-39.617	0.206	-0.109
-713.718	800.000	0.041	-0.172
-712.704	-62.428	-0.285	0.120
-711.689	57.579	0.049	-0.048
-710.675	-200.000	-0.030	0.208
-709.660	-200.000	0.043	0.294
-708.645	-76.117	-0.356	-0.127
-707.631	-200.000	-0.012	-0.074
-706.616	161.058	-0.136	-0.193
-705.602	-98.466	-0.258	-0.067
-704.587	-182.946	0.303	0.005
-703.572	-200.000	-0.022	0.135
-702.558	-164.315	0.242	-0.011
-701.543	-25.964	-0.435	0.260
-700.529	-85.152	0.029	0.009
-699.514	800.000	0.058	0.252
-698.499	-91.288	-0.222	-0.064
-697.485	276.488	0.105	0.190
-696.470	205.938	0.132	-0.208
-695.456	-153.344	0.324	-0.023
-694.441	467.012	-0.148	-0.336
-693.426	-95.526	-0.299	-0.081
-692.412	154.095	-0.290	-0.403
-691.397	-132.821	-0.041	0.005
-690.383	-84.846	-0.047	-0.015
-689.368	-63.780	0.172	-0.071
-688.354	-113.900	-0.102	-0.020
-687.339	291.297	0.100	0.184
-686.324	650.194	-0.129	-0.334
-685.310	716.649	-0.057	0.153
-684.295	134.277	-0.071	0.093
-683.281	-200.000	0.020	0.199
-682.266	37.702	-0.061	-0.054
-681.251	800.000	0.044	0.191
-680.237	289.297	-0.064	-0.117
-679.222	-133.911	0.234	-0.029
-678.208	96.792	0.137	0.159
-677.193	200.420	-0.088	-0.136
-676.178	66.212	-0.185	-0.191
-675.164	800.000	0.061	0.207
-674.149	-26.265	0.132	-0.079
-673.135	-90.603	-0.134	-0.039
-672.120	-200.000	0.395	0.002
-671.105	-51.829	-0.310	-0.146
-670.091	634.633	0.151	-0.389
-669.076	-161.077	0.246	0.013
-668.062	-95.665	0.161	-0.044
-667.047	-51.363	-0.208	0.098
-666.032	-0.030	-0.336	-0.242
-665.018	-43.983	-0.158	-0.080
-664.003	-200.000	-0.081	-0.498
-662.989	-200.000	-0.005	-0.173
-661.974	-155.001	-0.230	-0.015
-660.959	-18.974	-0.293	0.184
-659.945	237.351	0.063	-0.105
-658.930	515.019	0.083	0.196
-657.916	-123.352	-0.218	0.035
-656.901	8.183	0.344	0.261
-655.886	419.519	-0.071	0.155
-654.872	-121.250	0.729	0.123
-653.857	-71.247	-0.287	-0.109
-652.843	-106.510	0.159	-0.036
-651.828	-53.848	0.045	0.021
-650.814	-87.228	-0.424	-0.130
-649.799	-200.000	-0.041	-0.246
-648.784	14.224	-0.352	-0.278
-647.770	1.709	-0.132	0.096
-646.755	-200.000	0.038	-0.275
-645.741	-91.824	0.199	-0.057
-644.726	118.768	-0.186	0.233
-643.711	800.000	0.098	0.354
-642.697	-91.862	0.328	-0.094
-641.682	-163.417	0.213	0.010
-640.668	-200.000	0.003	-0.434
-639.653	468.406	0.222	-0.504
-638.638	-41.868	0.163	-0.084
-637.624	-200.000	0.059	-0.380
-636.609	-32.072	-0.202	-0.114
-635.595	52.986	-0.050	0.049
-634.580	-80.154	0.158	0.053
-633.565	59.732	-0.231	-0.230
-632.551	-104.922	-0.047	0.011
-631.536	48.127	-0.122	-0.115
-630.522	-200.000	0.063	-0.380
-629.507	-200.000	-0.037	0.283
-628.492	-200.000	0.054	0.315
-627.478	-130.030	-0.136	-0.019
-626.463	298.534	-0.083	-0.155
-625.449	-200.000	-0.023	0.279
-624.434	-134.567	0.130	0.016
-623.419	24.907	-0.388	0.325
-622.405	-50.101	0.169	-0.081
-621.390	-190.704	0.358	0.004
-620.376	151.043	-0.225	-0.309
-619.361	-16.624	0.340	0.217
-618.346	800.000	-0.204	-0.612
-617.332	9.128	0.094	0.071
-616.317	-99.396	-0.104	-0.026
-615.303	-26.585	0.318	-0.188
-614.288	109.023	0.131	-0.158
-613.273	532.574	0.102	-0.245
-612.259	-131.791	-0.214	0.028
-611.244	3.281	0.116	0.085
-610.230	-150.025	0.186	0.015
-609.215	-92.168	-0.267	0.076
-608.201	-200.000	0.030	0.197
-607.186	47.418	-0.339	0.319
-606.171	-200.000	0.014	-0.273
-605.157	-200.000	-0.008	-0.335
-604.142	-142.601	0.107	-0.011
-603.128	87.154	-0.212	0.237
-602.113	29.237	0.107	0.092
-601.098	-83.721	-0.388	-0.125
-600.084	238.273	0.077	-0.129
-599.069	-151.261	-0.169	0.013
-598.055	-1.970	0.163	0.116
-597.040	468.229	-0.040	0.090
-596.025	6.385	0.192	0.144
-595.011	262.663	-0.075	0.131
-593.996	800.000	0.078	0.223
-592.982	-188.637	-0.107	0.001
-591.967	-119.008	0.147	0.026
-590.952	800.000	-0.015	0.058
-589.938	-200.000	-0.037	-0.235
-588.923	260.038	0.039	0.068
-587.909	-114.172	-0.224	-0.044
-586.894	-44.092	-0.100	0.051
-585.879	-82.935	-0.128	-0.042
-584.865	-200.000	-0.022	-0.138
-583.850	-83.208	0.129	-0.042
-582.836	-75.481	-0.140	-0.050
-581.821	-56.280	-0.099	-0.044
-580.806	362.770	-0.146	-0.295
-579.792	-147.139	-0.320	-0.028
-578.777	426.633	-0.069	-0.149
-577.763	-21.151	0.108	0.067
-576.748	-200.000	-0.022	-0.203
-575.733	-200.000	-0.012	-0.134
-574.719	-120.923	-0.106	-0.018
-573.704	800.000	0.042	-0.119
-572.690	-63.320	0.180	-0.075
-571.675	-98.156	0.171	0.044
-570.661	-200.000	-0.031	-0.148
-569.646	800.000	0.027	-0.108
-568.631	218.511	0.053	-0.085
-567.617	-200.000	-0.009	0.285
-566.602	-59.094	0.165	-0.072
-565.588	39.198	0.119	-0.108
-564.573	93.885	-0.136	-0.155
-563.558	-52.041	0.031	0.015
-562.544	-200.000	-0.048	-0.218
-561.529	-29.141	-0.004	-0.002
-560.515	-200.000	0.034	0.396
-559.500	62.541	0.167	0.168
-558.485	-62.434	-0.094	-0.040
-557.471	-200.000	-0.038	-0.202
-556.456	17.036	-0.114	-0.091
-555.442	-112.225	-0.270	0.055
-554.427	82.123	0.184	0.201
-553.412	399.914	0.082	-0.173
-552.398	289.244	-0.089	-0.163
-551.383	116.803	0.170	0.210
-550.369	800.000	-0.089	0.292
-549.354	-31.734	-0.229	-0.130
-548.339	671.529	0.082	-0.215
-547.325	-77.777	-0.293	-0.102
-546.310	-106.829	-0.198	0.044
-545.296	800.000	-0.135	0.490
-544.281	-90.147	0.483	0.142
-543.266	-122.107	-0.120	0.020
-542.252	-200.000	0.007	0.164
-541.237	128.428	-0.126	0.161
-540.223	88.590	0.426	0.477
-539.208	186.577	0.056	0.084
-538.193	-171.001	-0.346	-0.012
-537.179	95.947	-0.026	0.030
-536.164	-200.000	0.002	-0.200
-535.150	409.264	-0.174	-0.370
-534.135	800.000	-0.081	0.267
-533.121	189.155	-0.164	0.247
-532.106	-200.000	0.019	-0.377
-531.091	-61.378	-0.438	0.185
-530.077	226.605	-0.152	0.249
-529.062	-104.001	0.212	-0.050
-528.048	-31.146	-0.116	-0.066
-527.033	-200.000	-0.001	0.009
-526.018	-69.962	-0.132	0.051
-525.004	9.461	-0.104	0.080
-523.989	525.557	0.204	-0.483
-522.975	-200.000	-0.013	0.079
-521.960	-61.565	-0.006	-0.003
-520.945	800.000	0.060	-0.206
-519.931	-200.000	-0.025	-0.349
-518.916	496.595	0.052	-0.121
-517.902	-0.377	0.360	-0.257
-516.887	15.580	-0.221	0.175
-515.872	8.123	-0.175	-0.132
-514.858	-200.000	-0.009	-0.085
-513.843	197.458	0.218	-0.335
-512.829	800.000	0.079	-0.283
-511.814	-120.564	0.212	-0.036
-510.799	-200.000	-0.065	-0.433
-509.785	-29.662	0.170	0.098
-508.770	-169.541	-0.093	-0.003
-507.756	-103.707	-0.155	-0.037
-506.741	64.892	0.232	0.235
-505.726	408.479	0.181	0.384
-504.712	800.000	0.075	0.310
-503.697	30.553	-0.218	-0.187
-502.683	-200.000	0.061	-0.328
-501.668	-176.434	0.250	0.007
-500.653	-2.767	-0.384	-0.270
-499.639	-173.375	-0.238	-0.007
-498.624	-103.190	0.255	-0.060
-497.610	800.000	0.008	0.032
-496.595	207.841	0.095	0.149
-495.581	-133.470	0.285	0.036
-494.566	-200.000	0.030	0.288
-493.551	-51.882	-0.314	0.147
-492.537	-56.512	0.112	0.050
-491.522	74.745	0.052	0.055
-490.508	6.623	0.249	-0.186
-489.493	-200.000	-0.058	-0.275
-488.478	244.576	-0.096	0.163
-487.464	-200.000	-0.047	0.227
-486.449	86.924	-0.365	0.405
-485.435	-200.000	-0.046	0.266
-484.420	57.784	-0.146	0.143
-483.405	-13.236	0.165	-0.108
-482.391	125.555	-0.246	0.311
-481.376	205.425	-0.285	-0.445
-480.362	-122.419	-0.312	0.051
-479.347	121.056	-0.047	0.059
-478.332	800.000	0.071	-0.271
-477.318	-200.000	0.001	-0.132
-476.303	-83.947	-0.101	0.032
-475.289	-26.011	-0.045	-0.026
-474.274	-74.521	-0.056	-0.020
-473.259	94.477	0.059	0.067
-472.245	-200.000	-0.043	-0.225
-471.230	-18.995	-0.187	-0.117
-470.216	157.362	0.239	0.331
-469.201	-2.832	-0.401	0.281
-468.186	376.391	0.116	-0.238
-467.172	178.294	0.149	0.219
-466.157	-200.000	-0.027	-0.461
-465.143	-200.000	-0.007	0.048
-464.128	56.104	0.089	0.087
-463.113	-200.000	0.018	-0.220
-462.099	85.143	-0.283	-0.312
-461.084	21.679	0.044	-0.036
-460.070	344.296	-0.080	0.158
-459.055	-37.127	-0.228	0.123
-458.040	-147.498	0.252	-0.021
-457.026	355.972	0.049	0.099
-456.011	-200.000	0.045	0.309
-454.997	246.352	0.077	-0.130
-453.982	-95.247	0.496	-0.134
-452.968	166.321	0.075	0.107
-451.953	278.258	-0.164	0.293
-450.938	-84.859	-0.197	0.062
-449.924	-200.000	0.013	0.058
-448.909	-32.669	-0.337	-0.188
-447.895	52.845	-0.171	0.164
-446.880	309.718	0.103	0.192
-445.865	-200.000	0.048	-0.216
-444.851	150.015	0.164	-0.224
-443.836	143.518	0.127	-0.170
-442.822	37.105	-0.262	-0.233
-441.807	-109.674	0.128	-0.027
-440.792	-129.215	0.104	0.015
-439.778	-115.710	0.332	0.062
-438.763	-55.207	0.329	0.148
-437.749	532.470	0.125	-0.296
-436.734	-122.764	0.228	-0.037
-435.719	800.000	0.079	-0.231
-434.705	635.502	-0.089	-0.227
-433.690	800.000	0.032	0.134
-432.676	25.062	0.133	-0.111
-431.661	-48.663	-0.207	0.100
-430.646	-27.853	0.202	0.118
-429.632	20.640	0.133	0.108
-428.617	58.193	-0.069	0.068
-427.603	-3.978	0.245	0.170
-426.588	-200.000	-0.006	-0.253
-425.573	-52.802	0.172	-0.079
-424.559	126.538	0.109	0.139
-423.544	20.524	-0.213	0.173
-422.530	79.103	0.150	0.161
-421.515	-144.932	-0.220	-0.020
-420.500	33.643	-0.216	-0.188
-419.486	-200.000	-0.014	0.146
-418.471	-34.362	0.347	-0.191
-417.457	133.431	-0.123	-0.160
-416.442	-108.409	-0.206	0.044
-415.428	799.582	0.076	-0.209
-414.413	100.124	0.095	0.110
-413.398	800.000	0.084	0.328
-412.384	86.525	0.081	-0.089
-411.369	58.631	0.194	0.191
-410.355	800.000	0.027	0.082
-409.340	-30.562	-0.033	0.019
-408.325	-200.000	0.002	0.190
-407.311	-200.000	0.016	0.205
-406.296	132.885	-0.184	-0.237
-405.282	51.680	-0.246	-0.234
-404.267	734.331	0.147	-0.394
-403.252	35.916	-0.124	-0.110
-402.238	188.415	-0.080	-0.120
-401.223	800.000	0.034	-0.109
-400.209	-133.101	-0.231	-0.029
-399.194	-133.563	-0.305	-0.038
-398.179	44.782	-0.023	-0.021
-397.165	800.000	0.088	0.282
-396.150	-200.000	-0.013	0.259
-395.136	-161.530	-0.360	-0.019
-394.121	1.623	0.110	-0.079
-393.106	-200.000	0.026	-0.222
-392.092	-200.000	-0.002	0.024
-391.077	158.491	0.244	0.339
-390.063	68.706	-0.157	-0.161
-389.048	800.000	0.111	0.431
-388.033	-18.692	-0.152	0.095
-387.019	-200.000	-0.051	-0.465
-386.004	59.907	0.125	0.124
-384.990	-200.000	0.059	0.343
-383.975	-18.368	0.112	0.070
-382.960	203.403	0.124	0.193
-381.946	-119.283	0.152	-0.027
-380.931	195.197	-0.125	0.190
-379.917	-200.000	0.015	-0.130
-378.902	218.442	0.180	-0.288
-377.888	207.353	-0.035	0.054
-376.873	-200.000	-0.022	-0.107
-375.858	-200.000	-0.023	0.166
-374.844	323.436	-0.159	-0.303
-373.829	-50.086	0.079	0.037
-372.815	-200.000	-0.427	0.000
-371.800	-200.000	0.019	0.371
-370.785	-66.100	-0.286	-0.114
-369.771	-8.526	-0.192	-0.129
-368.756	197.839	-0.154	0.235
-367.742	800.000	-0.014	0.043
-366.727	800.000	0.104	0.369
-365.712	-200.000	-0.042	0.269
-364.698	89.246	0.162	0.180
-363.683	218.197	0.252	-0.403
-362.669	419.722	-0.053	0.113
-361.654	-98.357	-0.212	0.054
-360.639	-200.000	0.031	-0.220
-359.625	-200.000	0.038	-0.197
-358.610	26.408	-0.199	0.167
-357.596	60.617	-0.174	0.173
-356.581	-4.387	0.341	-0.236
-355.566	-2.945	-0.207	0.144
-354.552	325.124	-0.081	-0.155
-353.537	33.113	-0.286	0.248
-352.523	-200.000	0.037	0.228
-351.508	-40.741	0.230	0.119
-350.493	-64.470	-0.231	0.094
-349.479	-63.412	-0.039	0.016
-348.464	741.200	0.101	-0.271
-347.450	800.000	0.047	-0.150
-346.435	12.371	-0.153	-0.118
-345.420	117.727	-0.111	-0.136
-344.406	-200.000	0.010	0.251
-343.391	800.000	0.056	0.240
-342.377	800.000	-0.086	-0.328
-341.362	-46.053	-0.079	0.039
-340.348	800.000	-0.037	0.117
-339.333	-62.903	-0.274	-0.113
-338.318	800.000	-0.036	0.139
-337.304	146.886	0.125	-0.168
-336.289	-135.084	0.047	0.006
-335.275	-115.422	0.139	0.026
-334.260	-142.711	0.219	0.021
-333.245	-200.000	-0.026	0.149
-332.231	-145.222	0.249	0.023
-331.216	-200.000	0.017	0.210
-330.202	-40.007	-0.288	0.150
-329.187	-7.190	-0.077	-0.052
-328.172	-119.770	-0.102	0.017
-327.158	123.806	-0.214	0.269
-326.143	86.351	-0.126	0.138
-325.129	76.318	0.055	0.058
-324.114	-11.658	0.165	-0.108
-323.099	200.608	0.059	-0.090
-322.085	-2.421	0.185	0.129
-321.070	59.906	-0.424	-0.418
-320.056	-200.000	-0.037	0.223
-319.041	800.000	0.135	0.452
-318.026	111.780	-0.056	0.068
-317.012	-200.000	-0.016	-0.421
-315.997	800.000	-0.013	-0.054
-314.983	-73.540	0.314	-0.114
-313.968	-161.009	-0.393	0.021
-312.953	-200.000	-0.016	0.182
-311.939	-99.654	0.114	-0.028
-310.924	-68.575	-0.163	-0.063
-309.910	301.555	0.124	0.228
-308.895	-26.839	-0.257	0.150
-307.880	88.397	0.083	-0.092
-306.866	800.000	0.118	-0.384
-305.851	84.826	0.057	-0.063
-304.837	-200.000	-0.020	-0.093
-303.822	-110.276	-0.072	0.015
-302.807	559.002	-0.089	-0.215
-301.793	-76.698	-0.098	-0.034
-300.778	35.095	0.256	0.224
-299.764	123.924	0.041	0.051
-298.749	-71.439	0.130	-0.048
-297.735	527.591	0.080	0.188
-296.720	-200.000	0.026	0.227
-295.705	-69.561	0.188	0.072
-294.691	259.817	0.140	0.240
-293.676	71.041	-0.103	-0.106
-292.662	-130.393	-0.341	0.046
-291.647	485.674	-0.120	0.273
-290.632	148.286	0.211	0.284
-289.618	16.506	-0.075	-0.059
-288.603	-145.245	0.527	0.048
-287.589	26.207	-0.125	0.104
-286.574	-166.118	-0.291	0.012
-285.559	31.863	0.099	0.085
-284.545	-104.998	0.202	0.046
-283.530	77.661	0.011	0.012
-282.516	255.699	0.131	-0.223
-281.501	-30.850	0.092	-0.052
-280.486	-200.000	-0.025	-0.154
-279.472	-73.251	-0.338	-0.123
-278.457	4.656	0.084	0.062
-277.443	-200.000	0.020	0.139
-276.428	800.000	0.030	0.118
-275.413	-200.000	-0.002	0.218
-274.399	321.571	0.114	-0.217
-273.384	-76.886	0.322	-0.112
-272.370	-124.219	0.094	0.015
-271.355	-200.000	-0.062	-0.303
-270.340	21.909	0.180	0.146
-269.326	-60.899	-0.269	0.113
-268.311	-200.000	0.071	-0.397
-267.297	590.716	0.059	0.146
-266.282	208.235	0.044	-0.068
-265.267	240.004	0.170	-0.283
-264.253	-76.898	0.197	-0.068
-263.238	35.446	-0.075	0.066
-262.224	-159.478	0.246	0.014
-261.209	-200.000	-0.074	0.345
-260.195	94.910	0.083	0.094
-259.180	112.496	-0.020	-0.024
-258.165	-26.941	0.191	-0.111
-257.151	134.982	0.062	0.080
-256.136	408.141	0.016	0.034
-255.122	-200.000	0.022	-0.127
-254.107	-54.971	0.233	0.104
-253.092	-79.827	0.108	0.036
-252.078	-200.000	0.026	-0.154
-251.063	-64.799	0.409	0.165
-250.049	-198.990	-0.246	-0.001
-249.034	42.212	0.067	-0.060
-248.019	71.094	0.206	0.212
-247.005	800.000	0.046	0.147
-245.990	-89.243	-0.392	0.115
-244.976	-141.463	0.247	0.025
-243.961	151.630	0.172	0.233
-242.946	505.736	0.170	0.391
-241.932	102.650	-0.287	-0.335
-240.917	-200.000	-0.015	-0.255
-239.903	-49.677	0.030	-0.014
-238.888	230.183	0.042	0.069
-237.873	605.653	-0.053	0.131
-236.859	452.933	-0.054	-0.119
-235.844	10.765	0.126	-0.096
-234.830	122.168	-0.122	-0.152
-233.815	800.000	0.029	-0.116
-232.800	-27.388	0.101	-0.058
-231.786	-28.981	0.176	0.101
-230.771	-165.843	0.146	-0.006
-229.757	-72.230	-0.142	-0.052
-228.742	-123.545	-0.222	0.035
-227.727	181.891	0.212	-0.311
-226.713	295.710	0.112	-0.205
-225.698	-35.923	-0.048	-0.026
-224.684	-48.997	0.343	-0.163
-223.669	800.000	0.023	-0.068
-222.655	73.235	-0.090	-0.093
-221.640	309.473	0.071	0.132
-220.625	56.513	0.109	-0.105
-219.611	26.569	-0.134	0.112
-218.596	-19.298	-0.168	-0.104
-217.582	65.593	0.157	-0.158
-216.567	-200.000	-0.063	0.331
-215.552	444.883	-0.123	0.269
-214.538	167.692	0.087	-0.124
-213.523	86.212	0.264	0.289
-212.509	31.743	-0.084	-0.072
-211.494	800.000	-0.057	0.236
-210.479	-136.135	0.094	-0.011
-209.465	54.215	-0.045	-0.043
-208.450	-200.000	-0.022	0.248
-207.436	1.172	-0.134	-0.095
-206.421	106.011	-0.128	0.150
-205.406	226.240	-0.025	0.041
-204.392	380.544	-0.145	-0.296
-203.377	-62.112	-0.175	0.072
-202.363	-200.000	-0.015	0.217
-201.348	64.100	-0.089	0.089
-200.333	-138.300	0.586	-0.064
-199.319	-176.734	0.398	0.010
-198.304	-200.000	0.033	-0.190
-197.290	42.169	-0.078	-0.070
-196.275	-6.960	0.118	0.079
-195.260	256.353	-0.180	0.306
-194.246	-69.423	-0.155	-0.059
-193.231	-76.754	-0.369	-0.129
-192.217	-200.000	0.036	0.255
-191.202	-127.230	0.067	0.010
-190.187	-89.901	0.129	0.037
-189.173	-66.902	0.194	0.076
-188.158	800.000	0.043	0.141
-187.144	800.000	0.052	-0.146
-186.129	-16.061	-0.189	0.120
-185.114	-126.152	0.140	0.021
-184.100	162.918	0.182	-0.254
-183.085	-81.505	-0.193	-0.063
-182.071	-51.696	0.343	-0.159
-181.056	151.085	0.071	0.096
-180.042	-97.905	-0.156	-0.040
-179.027	-29.619	-0.128	-0.073
-178.012	-142.367	-0.235	0.023
-176.998	-200.000	-0.000	0.162
-175.983	-200.000	0.003	-0.028
-174.969	800.000	0.028	0.088
-173.954	-51.562	-0.345	0.160
-172.939	724.293	0.063	0.166
-171.925	53.431	-0.214	-0.204
-170.910	-53.641	-0.064	0.029
-169.896	-161.333	0.392	-0.020
-168.881	41.450	-0.243	-0.218
-167.866	-200.000	-0.005	-0.095
-166.852	68.035	-0.094	0.096
-165.837	63.311	-0.050	-0.050
-164.823	-200.000	-0.110	-0.000
-163.808	77.026	0.249	0.263
-162.793	-148.194	0.107	-0.009
-161.779	-200.000	0.013	-0.147
-160.764	-200.000	0.023	0.116
-159.750	79.848	0.139	0.148
-158.735	-200.000	-0.110	0.491
-157.720	-145.877	-0.157	-0.014
-156.706	-114.414	0.054	0.010
-155.691	389.217	-0.074	-0.153
-154.677	-108.574	0.159	-0.034
-153.662	378.312	0.127	-0.258
-152.647	10.540	0.042	-0.032
-151.633	800.000	-0.056	0.186
-150.618	800.000	0.043	-0.150
-149.604	800.000	0.123	-0.371
-148.589	-177.749	0.217	-0.005
-147.574	-42.946	-0.166	-0.084
-146.560	148.375	-0.122	0.163
-145.545	121.163	-0.182	-0.225
-144.531	800.000	-0.051	-0.193
-143.516	-20.884	0.238	-0.145
-142.502	-114.000	-0.408	-0.078
-141.487	-113.505	-0.367	-0.071
-140.472	327.095	-0.081	0.154
-139.458	176.959	-0.038	-0.054
-138.443	54.122	-0.179	-0.171
-137.429	-200.000	-0.019	-0.129
-136.414	161.705	-0.169	0.235
-135.399	-21.502	0.107	0.065
-134.385	-76.002	0.223	-0.078
-133.370	-45.601	-0.091	-0.045
-132.356	376.285	0.096	-0.193
-131.341	37.335	0.158	0.139
-130.326	131.415	-0.231	-0.294
-129.312	800.000	-0.146	-0.447
-128.297	103.635	0.104	0.121
-127.283	26.274	-0.108	-0.090
-126.268	-32.394	0.189	-0.104
-125.253	-200.000	0.027	-0.224
-124.239	-16.809	-0.354	-0.222
-123.224	-61.157	0.177	-0.074
-122.210	-102.166	-0.090	-0.021
-121.195	262.881	-0.088	-0.151
