DTS Sentinel unit serial number:	SN413079Multiplexer serial number:	ORYXHardware model number:	OX4-SRSoftware version number:	ORYX F/W v4.00 Oryx Data Collector v3.7.2.0data status	okinstallation	princeton_trtdifferential loss correction	single-endedforward channel	channel 4reverse channel	N/Adate	2019/09/10time	23:19:10forward acquisition time	60.00reverse acquisition time	0.00gamma	496.2192k internal	0.2316k external	0.2316temperature offset calibration	0.9947default loss term (dB/km)	0.3790temperature slope calibration	1.0000multiplexer offset coefficient	1.0000multiplexer slope coefficient	1.0000fibre end	0.00T internal ref (°C)	29.81T ext. ref 1 (°C)	-0.31T ext. ref 2 (°C)	23.38length (m)	temperature (°C)	Stokes	anti-Stokes-747.200	135.488	0.094	0.123
-746.185	-134.503	-0.480	-0.059
-745.171	-38.647	0.220	0.117
-744.156	800.000	-0.092	0.325
-743.142	-200.000	0.251	-0.001
-742.127	-200.000	-0.010	0.074
-741.112	-4.770	0.138	0.097
-740.098	-200.000	-0.045	0.252
-739.083	754.231	-0.081	-0.222
-738.069	-200.000	-0.364	-0.001
-737.054	236.825	-0.126	-0.212
-736.039	-104.028	0.118	-0.028
-735.025	-102.485	0.069	-0.017
-734.010	76.387	-0.187	-0.201
-732.996	113.313	0.128	-0.157
-731.981	-52.007	0.327	-0.154
-730.966	16.235	0.156	-0.125
-729.952	-65.736	-0.089	0.036
-728.937	43.911	0.209	0.193
-727.923	800.000	-0.045	-0.145
-726.908	134.718	-0.141	-0.185
-725.894	323.912	0.097	-0.187
-724.879	-68.499	-0.280	-0.110
-723.864	-196.683	-0.373	0.003
-722.850	220.229	-0.149	0.242
-721.835	-67.294	-0.147	0.059
-720.821	347.562	0.018	-0.036
-719.806	-17.711	-0.312	0.198
-718.791	-200.000	-0.035	0.200
-717.777	800.000	0.001	-0.003
-716.762	21.931	0.088	-0.073
-715.748	631.172	-0.098	-0.252
-714.733	-200.000	0.008	-0.069
-713.718	-99.538	-0.529	0.135
-712.704	-19.793	-0.072	0.045
-711.689	-97.358	-0.203	0.053
-710.675	29.581	-0.112	-0.097
-709.660	626.940	0.124	-0.318
-708.645	347.180	0.136	-0.271
-707.631	485.996	0.181	-0.417
-706.616	-36.952	0.245	-0.133
-705.602	336.647	0.035	0.070
-704.587	-33.973	-0.055	-0.030
-703.572	800.000	-0.022	-0.067
-702.558	-58.990	0.219	0.096
-701.543	-90.924	0.295	0.086
-700.529	-200.000	0.030	-0.206
-699.514	458.229	-0.138	-0.310
-698.499	800.000	-0.061	0.223
-697.485	800.000	-0.031	0.118
-696.470	-200.000	0.066	-0.335
-695.456	219.910	-0.233	-0.377
-694.441	-72.145	0.076	0.029
-693.426	800.000	0.016	0.059
-692.412	-18.165	0.251	0.159
-691.397	89.696	-0.092	0.104
-690.383	-200.000	-0.001	0.085
-689.368	-54.653	0.198	-0.090
-688.354	-117.639	-0.367	-0.067
-687.339	800.000	-0.067	-0.290
-686.324	800.000	-0.032	-0.115
-685.310	41.524	-0.128	0.117
-684.295	568.010	-0.056	-0.138
-683.281	-40.315	0.390	-0.205
-682.266	78.603	0.105	-0.114
-681.251	203.540	-0.276	-0.431
-680.237	-89.715	0.393	0.116
-679.222	-3.900	0.092	-0.064
-678.208	-0.434	-0.144	-0.103
-677.193	-35.436	-0.083	-0.046
-676.178	425.861	-0.049	0.108
-675.164	-37.384	-0.161	-0.087
-674.149	-78.095	-0.086	0.030
-673.135	321.233	-0.227	0.435
-672.120	-51.376	0.272	-0.128
-671.105	-200.000	0.024	0.197
-670.091	-200.000	0.048	0.297
-669.076	-12.468	-0.175	-0.115
-668.062	-200.000	0.050	0.395
-667.047	-140.182	-0.284	-0.030
-666.032	-94.853	-0.178	0.049
-665.018	-48.554	-0.219	0.106
-664.003	-47.897	0.063	-0.031
-662.989	22.509	0.057	0.047
-661.974	-148.227	-0.435	0.036
-660.959	-149.754	0.047	-0.004
-659.945	-108.202	-0.146	-0.032
-658.930	-162.120	-0.120	0.006
-657.916	-44.096	-0.136	0.069
-656.901	94.490	0.160	0.183
-655.886	-76.631	-0.103	-0.037
-654.872	800.000	0.068	-0.240
-653.857	800.000	-0.060	0.190
-652.843	-153.456	0.265	0.019
-651.828	-5.819	0.398	0.275
-650.814	87.647	0.092	-0.103
-649.799	48.583	-0.224	0.211
-648.784	800.000	0.039	-0.160
-647.770	68.489	-0.061	-0.063
-646.755	-98.796	-0.289	0.074
-645.741	-140.355	-0.161	0.017
-644.726	67.627	0.223	0.230
-643.711	-200.000	0.116	0.590
-642.697	-53.914	-0.410	-0.189
-641.682	-58.008	0.250	-0.110
-640.668	-187.566	-0.353	0.005
-639.653	-16.548	0.213	-0.136
-638.638	-200.000	0.012	-0.150
-637.624	220.062	-0.059	-0.096
-636.609	-68.322	0.466	-0.182
-635.595	-80.474	-0.295	-0.099
-634.580	64.221	-0.153	0.156
-633.565	51.017	-0.094	0.090
-632.551	-39.401	-0.092	0.048
-631.536	-113.239	0.094	-0.019
-630.522	250.457	-0.085	-0.145
-629.507	216.685	0.109	0.175
-628.492	350.400	-0.077	-0.154
-627.478	-44.835	0.225	0.113
-626.463	-200.000	-0.011	0.104
-625.449	302.422	0.074	0.137
-624.434	-48.240	0.288	0.140
-623.419	51.043	-0.204	0.195
-622.405	800.000	0.093	-0.372
-621.390	-5.472	0.175	-0.121
-620.376	-90.258	-0.349	-0.102
-619.361	122.392	0.164	0.206
-618.346	45.044	-0.332	0.308
-617.332	800.000	-0.044	-0.135
-616.317	-200.000	0.022	-0.401
-615.303	800.000	0.070	0.269
-614.288	59.107	-0.361	0.358
-613.273	147.022	0.257	-0.349
-612.259	-200.000	-0.031	-0.264
-611.244	-134.461	-0.310	-0.038
-610.230	-66.030	0.144	-0.058
-609.215	-200.000	-0.041	-0.501
-608.201	276.150	-0.129	-0.230
-607.186	24.977	-0.121	0.101
-606.171	-200.000	0.070	0.367
-605.157	88.792	0.114	-0.128
-604.142	-144.641	0.108	0.010
-603.128	173.307	-0.135	-0.197
-602.113	228.351	-0.023	-0.038
-601.098	-56.639	0.113	-0.051
-600.084	154.760	0.111	-0.154
-599.069	-42.589	0.174	0.089
-598.055	-31.042	-0.219	0.124
-597.040	800.000	-0.061	0.172
-596.025	800.000	-0.027	-0.088
-595.011	-119.905	0.224	-0.039
-593.996	232.706	0.124	0.205
-592.982	-200.000	0.037	-0.173
-591.967	-1.876	-0.048	-0.034
-590.952	-200.000	-0.027	0.367
-589.938	-175.861	-0.348	-0.009
-588.923	-200.000	0.031	0.248
-587.909	-41.876	-0.313	-0.161
-586.894	193.599	-0.174	0.265
-585.879	-13.335	0.215	0.141
-584.865	17.269	0.108	0.087
-583.850	-99.631	-0.224	-0.057
-582.836	20.396	-0.251	-0.204
-581.821	163.562	-0.176	0.250
-580.806	-200.000	-0.032	0.193
-579.792	-116.267	0.266	0.050
-578.777	-40.810	-0.249	0.130
-577.763	-26.562	-0.309	-0.182
-576.748	-12.983	-0.248	0.162
-575.733	-23.473	-0.173	-0.104
-574.719	-92.463	0.259	-0.073
-573.704	-200.000	0.029	-0.217
-572.690	464.334	0.051	-0.114
-571.675	-24.679	-0.139	0.083
-570.661	-16.450	0.427	0.272
-569.646	-135.152	0.192	0.023
-568.631	-95.260	-0.138	0.037
-567.617	631.116	0.079	-0.201
-566.602	800.000	-0.084	-0.327
-565.588	-200.000	-0.010	0.044
-564.573	-134.538	0.167	-0.021
-563.558	-200.000	-0.006	-0.236
-562.544	-38.937	-0.181	0.096
-561.529	-65.590	-0.037	0.015
-560.515	-47.074	-0.177	-0.087
-559.500	313.987	-0.116	-0.220
-558.485	-65.561	0.150	0.060
-557.471	269.762	0.140	-0.247
-556.456	-47.940	-0.188	-0.092
-555.442	-41.465	0.376	0.194
-554.427	-45.927	-0.046	0.023
-553.412	5.229	-0.398	0.295
-552.398	-85.158	0.016	-0.005
-551.383	-82.811	-0.125	0.040
-550.369	-103.584	0.171	-0.040
-549.354	99.402	0.131	0.153
-548.339	-91.073	-0.203	0.059
-547.325	-84.488	-0.162	0.051
-546.310	-141.324	0.195	-0.020
-545.296	800.000	0.085	-0.376
-544.281	235.988	-0.175	-0.290
-543.266	50.202	0.186	-0.176
-542.252	622.919	-0.013	-0.033
-541.237	-39.823	-0.071	-0.037
-540.223	-78.640	-0.105	-0.036
-539.208	35.094	-0.397	0.350
-538.193	-100.711	0.137	-0.034
-537.179	94.639	0.059	-0.067
-536.164	-85.179	-0.182	-0.057
-535.150	-123.869	0.162	-0.026
-534.135	-2.956	0.461	-0.324
-533.121	-200.000	0.032	0.176
-532.106	151.727	0.131	-0.179
-531.091	-69.807	0.097	0.037
-530.077	102.444	-0.237	0.279
-529.062	103.722	0.069	-0.081
-528.048	-200.000	0.007	0.047
-527.033	124.151	-0.150	0.189
-526.018	-148.127	-0.293	-0.024
-525.004	-101.666	0.184	-0.045
-523.989	-187.753	-0.118	0.002
-522.975	75.884	-0.218	-0.232
-521.960	-152.287	-0.318	-0.023
-520.945	-64.224	-0.085	0.035
-519.931	800.000	0.020	0.058
-518.916	-104.478	0.060	0.014
-517.902	-200.000	-0.075	-0.449
-516.887	16.542	0.365	-0.289
-515.872	-200.000	-0.004	-0.065
-514.858	-52.182	-0.222	-0.103
-513.843	-194.583	0.178	-0.001
-512.829	-111.476	0.392	0.080
-511.814	-103.578	-0.063	-0.015
-510.799	800.000	-0.071	0.308
-509.785	1.642	0.042	0.031
-508.770	126.488	0.147	0.187
-507.756	271.940	-0.030	0.053
-506.741	-108.738	0.184	0.040
-505.726	-87.150	0.168	-0.051
-504.712	-147.844	-0.214	0.018
-503.697	403.788	-0.009	-0.019
-502.683	136.107	0.099	0.129
-501.668	-53.853	0.210	0.096
-500.653	14.217	-0.084	-0.066
-499.639	-130.066	-0.333	0.046
-498.624	68.024	-0.200	0.205
-497.610	-110.136	0.044	-0.009
-496.595	800.000	0.085	-0.340
-495.581	4.486	0.060	-0.044
-494.566	-128.909	0.130	0.018
-493.551	549.026	-0.100	0.241
-492.537	-8.306	0.160	-0.108
-491.522	143.510	-0.050	-0.067
-490.508	-161.681	0.223	-0.011
-489.493	590.961	-0.057	0.141
-488.478	-81.791	0.083	0.027
-487.464	-80.560	0.113	0.038
-486.449	159.391	-0.064	0.089
-485.435	31.383	0.184	-0.158
-484.420	800.000	0.128	0.470
-483.405	-153.894	0.159	-0.011
-482.391	-91.510	-0.250	-0.072
-481.376	-4.050	0.122	-0.084
-480.362	403.419	0.076	-0.161
-479.347	195.207	0.109	-0.166
-478.332	-200.000	0.041	-0.201
-477.318	-200.000	-0.002	0.030
-476.303	218.307	0.260	0.415
-475.289	-200.000	-0.076	0.414
-474.274	44.346	-0.223	-0.205
-473.259	449.944	-0.098	0.216
-472.245	800.000	-0.095	-0.265
-471.230	-27.690	0.127	0.074
-470.216	-150.777	-0.337	0.026
-469.201	-115.837	-0.145	0.027
-468.186	-18.112	0.193	-0.121
-467.172	-200.000	-0.009	-0.171
-466.157	-200.000	-0.012	0.182
-465.143	191.499	0.202	-0.304
-464.128	-200.000	-0.039	-0.352
-463.113	-76.101	-0.319	-0.113
-462.099	118.599	0.177	0.218
-461.084	-200.000	-0.027	-0.200
-460.070	-200.000	0.024	-0.185
-459.055	-200.000	-0.028	-0.336
-458.040	-200.000	0.004	0.063
-457.026	84.038	0.099	-0.109
-456.011	9.720	0.106	-0.081
-454.997	-168.204	0.434	-0.017
-453.982	153.957	-0.163	-0.224
-452.968	800.000	-0.039	-0.157
-451.953	-200.000	0.018	-0.352
-450.938	545.862	-0.122	0.292
-449.924	10.621	-0.129	-0.098
-448.909	-93.633	-0.268	0.074
-447.895	-200.000	0.054	0.259
-446.880	364.728	0.071	-0.143
-445.865	65.638	0.045	-0.046
-444.851	31.002	-0.258	0.221
-443.836	-17.010	-0.199	-0.126
-442.822	233.539	0.083	-0.137
-441.807	800.000	0.021	0.091
-440.792	-110.708	0.109	0.022
-439.778	109.874	0.224	0.269
-438.763	-38.954	0.122	-0.064
-437.749	-26.724	-0.071	0.041
-436.734	288.046	0.026	-0.047
-435.719	112.540	-0.048	-0.058
-434.705	193.192	0.131	0.199
-433.690	48.952	-0.179	0.168
-432.676	256.608	0.178	-0.306
-431.661	-84.232	-0.244	0.077
-430.646	-71.974	-0.167	0.062
-429.632	422.215	0.140	-0.301
-428.617	-200.000	0.017	-0.318
-427.603	6.978	-0.184	0.137
-426.588	-200.000	-0.024	-0.131
-425.573	-136.875	0.224	0.026
-424.559	-18.193	-0.208	0.130
-423.544	313.997	0.163	0.307
-422.530	30.880	-0.190	0.163
-421.515	800.000	-0.120	-0.372
-420.500	13.566	-0.118	0.092
-419.486	-200.000	0.060	0.286
-418.471	208.396	0.171	0.268
-417.457	-176.183	0.344	0.009
-416.442	-200.000	-0.011	-0.218
-415.428	528.938	-0.084	0.198
-414.413	-200.000	0.045	0.215
-413.398	-63.303	0.158	-0.065
-412.384	-200.000	0.009	0.050
-411.369	264.528	-0.131	0.227
-410.355	14.562	-0.134	0.104
-409.340	-66.681	-0.132	0.052
-408.325	-22.434	-0.330	0.200
-407.311	-9.035	0.232	-0.155
-406.296	-168.819	-0.419	-0.016
-405.282	-129.183	0.122	-0.017
-404.267	82.833	0.104	-0.113
-403.252	800.000	-0.003	-0.010
-402.238	-200.000	0.022	0.203
-401.223	-33.915	0.194	-0.107
-400.209	800.000	0.129	-0.435
-399.194	-162.759	0.349	0.017
-398.179	-144.944	0.230	0.021
-397.165	-72.007	0.140	-0.052
-396.150	800.000	-0.152	0.461
-395.136	107.595	-0.102	-0.121
-394.121	94.769	0.131	-0.149
-393.106	52.662	0.104	0.099
-392.092	800.000	-0.112	0.487
-391.077	510.156	-0.090	0.209
-390.063	-57.056	0.105	0.046
-389.048	-81.973	-0.247	-0.081
-388.033	374.724	-0.008	-0.016
-387.019	800.000	0.014	0.047
-386.004	12.528	-0.158	-0.122
-384.990	-200.000	0.064	0.290
-383.975	-58.638	-0.077	-0.033
-382.960	-3.164	0.254	-0.177
-381.946	-35.439	0.443	-0.240
-380.931	-55.539	-0.237	-0.106
-379.917	-200.000	-0.002	0.153
-378.902	-200.000	0.049	0.346
-377.888	571.655	-0.113	0.275
-376.873	-108.720	0.379	-0.081
-375.858	-29.187	-0.205	0.117
-374.844	534.953	0.114	0.271
-373.829	-11.327	0.269	-0.177
-372.815	-200.000	-0.015	-0.119
-371.800	-7.877	0.091	0.062
-370.785	-9.231	-0.229	-0.153
-369.771	-200.000	0.002	0.025
-368.756	-200.000	0.037	0.174
-367.742	-61.321	0.285	0.120
-366.727	256.421	0.087	-0.149
-365.712	800.000	-0.050	-0.183
-364.698	364.426	0.139	0.280
-363.683	-66.461	-0.222	0.088
-362.669	800.000	-0.026	-0.096
-361.654	-114.343	-0.172	-0.033
-360.639	-94.757	-0.134	-0.036
-359.625	-89.767	0.218	-0.064
-358.610	209.524	-0.060	0.093
-357.596	47.763	0.054	-0.050
-356.581	800.000	-0.091	0.318
-355.566	-158.699	-0.299	0.017
-354.552	-176.269	-0.040	-0.001
-353.537	-94.399	0.109	-0.030
-352.523	111.126	-0.127	0.153
-351.508	800.000	0.052	0.145
-350.493	108.267	-0.127	0.151
-349.479	-48.428	-0.181	-0.087
-348.464	-83.225	-0.193	0.062
-347.450	-200.000	0.029	0.285
-346.435	-43.774	0.370	0.186
-345.420	-152.554	0.147	-0.010
-344.406	94.761	-0.246	0.279
-343.391	-176.875	-0.168	-0.004
-342.377	87.609	0.200	-0.221
-341.362	-200.000	0.019	-0.201
-340.348	5.090	-0.199	0.146
-339.333	17.285	-0.145	0.115
-338.318	-200.000	0.025	0.205
-337.304	-86.366	-0.263	-0.081
-336.289	602.906	0.053	0.131
-335.275	-63.401	-0.125	-0.051
-334.260	11.965	-0.163	-0.125
-333.245	-88.914	-0.197	0.058
-332.231	-200.000	-0.016	-0.290
-331.216	-200.000	-0.014	-0.146
-330.202	-112.512	0.306	-0.061
-329.187	130.273	-0.195	0.249
-328.172	800.000	-0.049	0.196
-327.158	27.684	0.158	-0.132
-326.143	61.507	-0.171	0.170
-325.129	-52.424	0.201	0.093
-324.114	-200.000	-0.037	-0.308
-323.099	33.050	0.295	-0.255
-322.085	-21.508	0.236	0.143
-321.070	-119.172	0.150	0.026
-320.056	94.035	-0.196	0.221
-319.041	-80.173	-0.192	0.064
-318.026	-38.705	0.087	-0.046
-317.012	-12.008	0.320	-0.209
-315.997	-200.000	-0.041	0.271
-314.983	-164.226	0.257	0.012
-313.968	-139.018	-0.237	0.026
-312.953	-199.199	0.127	-0.001
-311.939	-31.620	-0.077	-0.043
-310.924	-59.426	-0.048	-0.020
-309.910	80.386	-0.172	0.185
-308.895	-27.891	-0.042	0.024
-307.880	-127.968	-0.324	0.046
-306.866	-102.888	-0.314	0.074
-305.851	800.000	-0.046	0.150
-304.837	289.979	-0.054	0.098
-303.822	-0.265	0.137	0.097
-302.807	48.958	-0.138	0.129
-301.793	58.972	0.182	-0.178
-300.778	-49.526	-0.314	0.149
-299.764	173.948	-0.159	0.228
-298.749	40.598	0.184	0.165
-297.735	646.432	0.042	0.107
-296.720	171.955	-0.143	-0.205
-295.705	-200.000	-0.027	-0.264
-294.691	271.402	-0.154	-0.271
-293.676	-200.000	-0.002	0.013
-292.662	58.305	0.221	-0.215
-291.647	-196.211	0.151	-0.001
-290.632	-102.034	-0.181	-0.043
-289.618	169.002	-0.174	0.247
-288.603	62.141	0.063	0.063
-287.589	-5.399	0.285	-0.195
-286.574	800.000	-0.077	0.242
-285.559	-200.000	-0.021	-0.170
-284.545	800.000	-0.026	0.109
-283.530	-200.000	0.041	0.251
-282.516	-66.078	-0.272	-0.108
-281.501	-116.600	0.237	0.043
-280.486	49.023	0.201	-0.187
-279.472	-200.000	0.024	-0.118
-278.457	-200.000	0.046	0.243
-277.443	-149.598	-0.151	0.012
-276.428	-158.243	-0.208	0.012
-275.413	100.721	0.167	0.193
-274.399	68.005	-0.172	-0.175
-273.384	246.362	0.078	-0.130
-272.370	125.547	0.124	-0.156
-271.355	0.967	-0.250	0.178
-270.340	-68.559	0.197	-0.076
-269.326	129.611	0.151	-0.192
-268.311	-74.288	0.270	0.097
-267.297	-200.000	0.048	-0.260
-266.282	109.422	-0.144	0.171
-265.267	-10.773	-0.107	0.071
-264.253	-3.229	0.237	-0.164
-263.238	8.656	0.032	-0.024
-262.224	143.594	-0.035	-0.047
-261.209	267.578	0.090	-0.156
-260.195	115.102	0.214	-0.260
-259.180	34.290	0.121	0.105
-258.165	-67.362	-0.075	-0.029
-257.151	150.248	0.106	-0.143
-256.136	-200.000	0.005	-0.163
-255.122	-200.000	0.003	-0.056
-254.107	800.000	0.032	0.100
-253.092	-200.000	0.089	-0.593
-252.078	174.032	-0.073	0.105
-251.063	800.000	-0.060	0.193
-250.049	800.000	0.065	-0.184
-249.034	375.957	0.141	0.287
-248.019	144.574	-0.093	0.123
-247.005	-125.769	0.336	-0.050
-245.990	800.000	0.030	-0.122
-244.976	144.905	0.254	0.338
-243.961	-19.159	0.073	-0.045
-242.946	800.000	0.150	-0.451
-241.932	-200.000	0.038	0.358
-240.917	173.502	0.054	-0.078
-239.903	-200.000	0.040	0.214
-238.888	-137.711	-0.274	-0.031
-237.873	111.514	0.266	0.319
-236.859	-89.604	-0.139	0.041
-235.844	-180.971	-0.182	-0.004
-234.830	70.103	0.162	-0.166
-233.815	-45.559	-0.410	0.202
-232.800	-200.000	0.019	-0.110
-231.786	-174.798	-0.320	0.009
-230.771	294.593	-0.064	-0.115
-229.757	198.455	-0.099	-0.151
-228.742	800.000	-0.046	0.163
-227.727	800.000	0.119	-0.383
-226.713	-4.163	-0.015	0.011
-225.698	112.565	0.149	-0.179
-224.684	51.178	-0.031	0.029
-223.669	512.326	-0.078	-0.180
-222.655	316.992	0.018	-0.035
-221.640	-83.542	0.104	0.033
-220.625	107.047	-0.061	0.072
-219.611	-49.753	0.112	0.053
-218.596	-39.705	0.138	-0.072
-217.582	326.564	0.089	-0.170
-216.567	800.000	0.045	-0.172
-215.552	-200.000	-0.015	0.187
-214.538	651.790	0.034	-0.086
-213.523	577.361	0.190	0.462
-212.509	-46.453	0.176	0.086
-211.494	387.160	-0.044	-0.090
-210.479	133.526	0.173	-0.221
-209.465	98.977	0.384	-0.440
-208.450	249.448	-0.109	0.183
-207.436	-200.000	-0.016	-0.163
-206.421	-200.000	-0.015	0.159
-205.406	191.807	-0.179	-0.267
-204.392	125.608	0.018	0.022
-203.377	-40.157	-0.133	0.069
-202.363	-146.241	-0.087	0.008
-201.348	173.520	0.136	0.194
-200.333	128.518	-0.108	-0.137
-199.319	222.219	-0.133	0.213
-198.304	146.918	0.083	0.110
-197.290	-112.551	0.353	0.070
-196.275	800.000	0.042	0.137
-195.260	-200.000	-0.024	0.185
-194.246	-200.000	-0.023	-0.138
-193.231	-82.821	-0.015	0.005
-192.217	56.291	0.473	-0.455
-191.202	-25.878	0.153	0.089
-190.187	-200.000	0.033	0.172
-189.173	109.802	0.045	-0.053
-188.158	-63.749	-0.229	-0.093
-187.144	-200.000	0.038	0.259
-186.129	-26.481	0.069	0.040
-185.114	-76.800	-0.283	-0.098
-184.100	-200.000	-0.003	0.051
-183.085	10.209	0.217	0.163
-182.071	800.000	-0.059	-0.247
-181.056	-200.000	0.070	0.488
-180.042	-72.330	-0.234	0.086
-179.027	-80.962	0.177	-0.058
-178.012	-200.000	0.024	0.214
-176.998	-200.000	-0.005	-0.267
-175.983	-53.117	0.015	0.007
-174.969	316.784	-0.074	-0.139
-173.954	-200.000	0.018	-0.387
-172.939	91.581	0.085	0.094
-171.925	-200.000	0.004	-0.070
-170.910	1.158	-0.150	-0.106
-169.896	38.739	0.039	0.035
-168.881	108.812	-0.081	0.096
-167.866	-75.605	0.104	-0.037
-166.852	670.335	-0.095	-0.244
-165.837	409.299	0.167	-0.351
-164.823	75.843	-0.070	-0.074
-163.808	12.099	-0.143	-0.109
-162.793	-38.495	-0.233	-0.122
-161.779	-159.761	-0.421	0.023
-160.764	51.640	-0.121	0.114
-159.750	11.976	0.099	0.075
-158.735	133.029	0.146	-0.186
-157.720	-200.000	0.020	0.246
-156.706	26.549	0.231	-0.192
-155.691	96.437	0.137	-0.155
-154.677	-129.472	0.218	0.030
-153.662	434.387	-0.099	0.213
-152.647	163.712	0.112	-0.157
-151.633	-59.637	-0.224	0.095
-150.618	800.000	-0.070	0.212
-149.604	191.541	0.041	-0.061
-148.589	339.734	-0.135	-0.260
-147.574	-200.000	-0.183	0.001
-146.560	-91.649	-0.212	-0.060
-145.545	53.596	0.102	0.097
-144.531	800.000	0.078	0.295
-143.516	765.156	0.089	0.241
-142.502	701.731	-0.013	-0.034
-141.487	800.000	0.031	0.129
-140.472	85.353	0.122	0.133
-139.458	87.573	-0.151	-0.165
-138.443	-200.000	-0.056	-0.262
-137.429	-200.000	-0.003	-0.043
-136.414	-200.000	-0.020	0.204
-135.399	244.597	-0.124	-0.206
-134.385	-200.000	0.025	-0.161
-133.370	-22.728	0.024	-0.014
-132.356	-200.000	0.019	0.096
-131.341	731.838	-0.093	0.247
-130.326	-200.000	-0.016	-0.343
-129.312	84.012	-0.354	-0.383
-128.297	211.085	0.163	0.254
-127.283	-5.514	0.098	0.067
-126.268	-45.399	0.234	-0.115
-125.253	7.116	-0.072	-0.053
-124.239	34.403	0.358	-0.309
-123.224	-54.014	0.152	-0.068
-122.210	-200.000	0.029	0.240
-121.195	-23.053	0.267	-0.159
