DTS Sentinel unit serial number:	SN413079Multiplexer serial number:	ORYXHardware model number:	OX4-SRSoftware version number:	ORYX F/W v4.00 Oryx Data Collector v3.7.2.0data status	okinstallation	princeton_trtdifferential loss correction	single-endedforward channel	channel 4reverse channel	N/Adate	2019/09/10time	22:15:11forward acquisition time	60.00reverse acquisition time	0.00gamma	496.2192k internal	0.2315k external	0.2315temperature offset calibration	0.9944default loss term (dB/km)	0.3790temperature slope calibration	1.0000multiplexer offset coefficient	1.0000multiplexer slope coefficient	1.0000fibre end	0.00T internal ref (°C)	30.52T ext. ref 1 (°C)	-0.32T ext. ref 2 (°C)	23.87length (m)	temperature (°C)	Stokes	anti-Stokes-747.200	-85.711	0.157	0.049
-746.185	39.802	-0.080	-0.073
-745.171	57.503	0.169	-0.168
-744.156	-131.449	0.334	0.045
-743.142	800.000	0.023	0.063
-742.127	454.916	-0.042	0.093
-741.112	-200.000	-0.005	0.110
-740.098	224.637	0.083	0.136
-739.083	-116.007	0.309	-0.058
-738.069	-200.000	-0.051	0.250
-737.054	-199.395	0.305	0.002
-736.039	33.984	-0.162	-0.143
-735.025	53.864	0.247	0.241
-734.010	38.519	0.161	-0.146
-732.996	-136.941	-0.139	0.016
-731.981	188.702	-0.183	-0.278
-730.966	349.522	0.156	-0.312
-729.952	-114.774	-0.156	0.030
-728.937	-44.037	-0.404	-0.206
-727.923	54.176	-0.063	0.061
-726.908	-154.988	0.163	-0.011
-725.894	78.222	-0.165	-0.178
-724.879	-200.000	0.023	-0.134
-723.864	-95.310	0.056	-0.015
-722.850	16.793	-0.070	-0.056
-721.835	-36.180	-0.206	-0.113
-720.821	26.731	-0.281	-0.238
-719.806	361.287	-0.050	0.102
-718.791	-34.468	-0.269	0.149
-717.777	800.000	0.010	-0.031
-716.762	-59.677	-0.341	0.148
-715.748	-200.000	-0.019	-0.310
-714.733	800.000	-0.031	0.126
-713.718	-21.810	0.150	0.092
-712.704	-79.764	0.313	0.107
-711.689	800.000	0.027	0.107
-710.675	-73.972	0.063	-0.023
-709.660	130.238	-0.152	-0.197
-708.645	14.051	0.106	0.084
-707.631	-200.000	-0.025	0.167
-706.616	371.218	0.099	-0.204
-705.602	-102.857	-0.195	-0.047
-704.587	-200.000	0.055	-0.371
-703.572	-200.000	0.012	-0.259
-702.558	-29.281	0.032	-0.019
-701.543	-179.558	-0.104	-0.002
-700.529	-200.000	-0.023	-0.196
-699.514	-160.001	0.326	-0.018
-698.499	-4.448	0.135	0.095
-697.485	95.552	-0.261	0.301
-696.470	800.000	-0.019	-0.076
-695.456	-35.975	-0.130	0.071
-694.441	-18.281	0.159	0.100
-693.426	800.000	0.017	0.066
-692.412	-200.000	-0.018	-0.125
-691.397	-43.131	-0.183	0.094
-690.383	118.440	-0.141	-0.176
-689.368	554.783	0.120	0.292
-688.354	-168.646	0.258	0.010
-687.339	-22.361	-0.166	0.102
-686.324	-13.368	-0.249	0.164
-685.310	-1.652	-0.140	0.099
-684.295	41.664	-0.095	0.087
-683.281	-99.814	0.124	-0.031
-682.266	-200.000	0.035	0.256
-681.251	-157.615	0.232	-0.014
-680.237	-137.136	-0.413	-0.048
-679.222	-101.876	-0.089	-0.022
-678.208	-131.034	-0.213	-0.029
-677.193	115.793	0.088	0.108
-676.178	-0.738	0.071	0.051
-675.164	-43.619	-0.187	0.096
-674.149	375.070	0.212	-0.437
-673.135	-143.299	-0.115	-0.011
-672.120	598.479	-0.062	0.155
-671.105	274.579	0.081	-0.145
-670.091	224.387	-0.115	0.189
-669.076	735.459	0.093	0.253
-668.062	109.428	0.132	-0.160
-667.047	82.700	-0.088	0.097
-666.032	200.212	-0.124	0.192
-665.018	81.666	-0.215	0.235
-664.003	-200.000	0.004	-0.185
-662.989	-169.546	0.131	0.005
-661.974	-126.961	-0.310	-0.046
-660.959	-123.905	0.240	-0.038
-659.945	-112.545	0.284	-0.057
-658.930	-35.242	0.111	0.061
-657.916	-200.000	-0.114	-0.671
-656.901	356.394	0.073	-0.147
-655.886	-9.167	-0.194	-0.131
-654.872	-99.050	0.032	-0.008
-653.857	82.392	-0.213	0.234
-652.843	359.297	-0.139	0.281
-651.828	208.435	0.041	-0.064
-650.814	800.000	-0.115	0.346
-649.799	81.226	-0.293	0.319
-648.784	97.901	-0.174	0.202
-647.770	252.778	-0.047	0.081
-646.755	-18.268	-0.146	-0.092
-645.741	-14.123	0.120	-0.078
-644.726	-110.739	0.134	0.028
-643.711	92.664	0.298	-0.339
-642.697	-200.000	0.046	0.431
-641.682	-49.677	0.251	-0.120
-640.668	-57.301	-0.354	0.157
-639.653	136.843	-0.112	-0.148
-638.638	-200.000	-0.019	0.113
-637.624	-143.293	0.225	0.022
-636.609	154.598	0.063	0.088
-635.595	175.344	-0.149	-0.218
-634.580	64.313	-0.166	-0.169
-633.565	392.512	-0.141	-0.296
-632.551	-148.335	-0.380	0.032
-631.536	-182.563	-0.410	-0.008
-630.522	68.787	-0.047	0.048
-629.507	-75.987	0.110	0.039
-628.492	80.715	-0.180	-0.195
-627.478	-200.000	-0.026	0.401
-626.463	196.940	-0.093	0.144
-625.449	224.639	0.063	-0.103
-624.434	-184.849	-0.384	-0.006
-623.419	336.951	0.068	-0.133
-622.405	258.760	0.109	0.189
-621.390	95.403	0.140	-0.161
-620.376	-200.000	0.003	-0.150
-619.361	-117.969	-0.268	0.048
-618.346	-61.449	-0.223	0.094
-617.332	331.975	0.155	-0.302
-616.317	-134.496	-0.287	0.035
-615.303	43.675	-0.193	0.178
-614.288	120.162	0.166	0.207
-613.273	-1.523	0.031	-0.022
-612.259	-108.494	0.029	-0.006
-611.244	-148.171	0.082	0.007
-610.230	99.874	-0.305	0.357
-609.215	-68.233	-0.296	0.116
-608.201	-144.164	0.361	0.034
-607.186	-34.318	-0.170	0.094
-606.171	77.847	0.071	-0.077
-605.157	474.480	-0.098	-0.223
-604.142	-200.000	0.007	-0.345
-603.128	800.000	0.051	-0.160
-602.113	81.290	0.033	-0.036
-601.098	104.587	-0.193	-0.229
-600.084	-200.000	-0.010	-0.198
-599.069	-200.000	-0.018	-0.370
-598.055	208.393	-0.132	-0.209
-597.040	470.316	-0.099	-0.224
-596.025	-200.000	0.078	0.452
-595.011	209.481	-0.205	0.323
-593.996	155.477	-0.190	0.264
-592.982	-200.000	-0.039	-0.228
-591.967	-200.000	0.007	-0.087
-590.952	242.513	-0.171	0.288
-589.938	800.000	-0.064	0.239
-588.923	329.074	-0.092	-0.178
-587.909	-200.000	0.006	-0.404
-586.894	-200.000	0.007	-0.111
-585.879	-77.903	-0.080	-0.028
-584.865	-200.000	0.013	-0.370
-583.850	800.000	0.107	-0.316
-582.836	106.805	-0.146	-0.174
-581.821	800.000	-0.053	0.199
-580.806	57.687	-0.221	0.217
-579.792	800.000	-0.043	-0.184
-578.777	-46.362	-0.265	-0.131
-577.763	41.100	-0.136	-0.124
-576.748	-181.799	-0.053	0.001
-575.733	40.698	-0.300	-0.272
-574.719	-132.684	-0.282	0.036
-573.704	-113.638	0.107	-0.021
-572.690	-200.000	0.003	-0.300
-571.675	-104.346	-0.178	0.041
-570.661	-200.000	0.049	0.376
-569.646	67.097	0.033	0.034
-568.631	800.000	-0.062	-0.202
-567.617	800.000	0.068	-0.275
-566.602	6.272	0.225	-0.168
-565.588	-200.000	0.017	0.147
-564.573	151.897	-0.116	-0.159
-563.558	380.762	0.108	-0.223
-562.544	-200.000	0.005	0.119
-561.529	2.488	0.078	0.057
-560.515	-200.000	0.031	0.141
-559.500	-200.000	-0.010	0.158
-558.485	6.438	0.083	0.062
-557.471	-98.305	-0.165	0.042
-556.456	-11.699	-0.213	0.141
-555.442	-41.866	-0.303	-0.156
-554.427	-35.498	-0.097	-0.053
-553.412	712.123	0.055	0.148
-552.398	800.000	0.033	0.137
-551.383	235.796	-0.080	0.133
-550.369	-139.756	0.325	0.035
-549.354	52.105	-0.356	0.341
-548.339	-78.328	0.142	-0.049
-547.325	-13.978	-0.280	-0.182
-546.310	-200.000	0.001	-0.194
-545.296	249.484	-0.064	-0.110
-544.281	53.242	0.115	0.110
-543.266	85.717	0.239	-0.264
-542.252	-200.000	0.010	-0.082
-541.237	-114.900	-0.149	0.029
-540.223	-200.000	0.004	-0.061
-539.208	800.000	0.066	-0.246
-538.193	-200.000	-0.033	0.154
-537.179	31.658	0.121	-0.105
-536.164	-200.000	0.003	-0.201
-535.150	800.000	-0.012	0.051
-534.135	-142.883	0.261	0.025
-533.121	-42.177	-0.036	-0.018
-532.106	-200.000	-0.094	-0.421
-531.091	427.288	0.087	0.189
-530.077	-81.066	0.355	0.118
-529.062	-200.000	-0.003	-0.205
-528.048	800.000	-0.090	0.292
-527.033	-132.972	-0.285	-0.036
-526.018	-151.218	0.067	0.005
-525.004	3.220	0.141	0.103
-523.989	-142.839	0.225	-0.022
-522.975	462.125	-0.097	0.218
-521.960	-200.000	-0.003	-0.083
-520.945	625.918	-0.040	0.100
-519.931	-149.635	-0.269	0.021
-518.916	-200.000	-0.035	-0.175
-517.902	-81.470	0.044	0.015
-516.887	-200.000	0.011	-0.439
-515.872	95.579	0.130	-0.149
-514.858	-160.315	0.360	0.019
-513.843	-188.519	0.380	-0.005
-512.829	-127.067	-0.012	0.002
-511.814	-122.739	-0.194	0.032
-510.799	318.108	0.084	0.159
-509.785	-200.000	0.012	0.094
-508.770	-182.944	-0.317	-0.006
-507.756	-132.502	-0.194	0.025
-506.741	-39.805	0.223	0.117
-505.726	-19.630	0.317	-0.197
-504.712	800.000	-0.075	-0.213
-503.697	-77.301	0.172	-0.060
-502.683	-69.406	0.259	0.100
-501.668	39.197	-0.027	-0.024
-500.653	-200.000	0.011	-0.073
-499.639	-148.028	0.035	0.003
-498.624	800.000	0.057	0.206
-497.610	-16.937	0.167	-0.106
-496.595	30.638	-0.101	-0.086
-495.581	-14.301	0.199	0.129
-494.566	170.242	-0.159	-0.228
-493.551	-11.230	-0.151	-0.100
-492.537	-12.909	-0.077	0.050
-491.522	-167.247	0.427	0.017
-490.508	226.748	0.067	-0.109
-489.493	-80.347	0.117	0.039
-488.478	187.393	0.101	-0.151
-487.464	-61.889	0.482	0.202
-486.449	385.394	0.071	-0.146
-485.435	-200.000	0.001	-0.224
-484.420	-8.898	-0.320	0.215
-483.405	-120.096	0.065	0.011
-482.391	44.760	-0.276	-0.255
-481.376	339.506	0.058	-0.113
-480.362	96.140	0.143	-0.164
-479.347	-200.000	0.031	-0.137
-478.332	-117.769	0.343	0.062
-477.318	-84.840	-0.249	-0.078
-476.303	-108.333	0.113	0.025
-475.289	171.011	-0.051	0.073
-474.274	-200.000	-0.021	0.145
-473.259	181.789	-0.039	0.057
-472.245	-112.006	-0.116	-0.023
-471.230	82.243	-0.094	-0.102
-470.216	137.293	0.159	-0.209
-469.201	-36.413	-0.381	0.206
-468.186	-200.000	-0.000	0.034
-467.172	800.000	0.077	0.316
-466.157	-200.000	-0.031	0.391
-465.143	800.000	-0.067	-0.229
-464.128	-200.000	0.007	0.074
-463.113	-110.101	0.408	0.086
-462.099	-47.959	0.294	-0.143
-461.084	10.233	0.061	-0.047
-460.070	-143.391	-0.380	0.036
-459.055	556.502	0.132	0.320
-458.040	60.628	-0.228	0.226
-457.026	-55.347	-0.254	-0.114
-456.011	-167.253	0.152	-0.006
-454.997	-78.082	0.254	-0.088
-453.982	-17.891	0.135	-0.085
-452.968	136.227	-0.084	-0.110
-451.953	-65.504	0.110	-0.044
-450.938	-49.596	-0.193	0.092
-449.924	437.070	0.109	-0.237
-448.909	-200.000	0.019	-0.475
-447.895	-111.816	0.268	-0.054
-446.880	-67.739	0.277	0.108
-445.865	126.450	0.040	0.051
-444.851	800.000	-0.061	0.239
-443.836	31.881	-0.079	-0.068
-442.822	-29.269	-0.320	0.184
-441.807	-25.590	-0.182	-0.108
-440.792	-99.747	-0.123	0.031
-439.778	-146.434	0.235	0.021
-438.763	171.654	-0.104	-0.150
-437.749	-97.920	-0.212	-0.055
-436.734	-42.262	0.301	-0.154
-435.719	-87.080	0.225	0.069
-434.705	-47.667	0.190	0.092
-433.690	96.297	-0.105	0.121
-432.676	-63.567	-0.318	-0.131
-431.661	-9.604	0.117	-0.078
-430.646	-140.122	0.100	-0.011
-429.632	-152.279	0.081	0.006
-428.617	27.399	-0.096	0.081
-427.603	-200.000	-0.023	0.189
-426.588	-47.833	0.100	0.048
-425.573	800.000	-0.035	-0.123
-424.559	336.595	-0.080	0.156
-423.544	94.280	-0.283	0.322
-422.530	140.784	0.108	-0.143
-421.515	140.101	-0.067	0.089
-420.500	-200.000	0.009	0.130
-419.486	230.825	0.078	-0.128
-418.471	-71.470	-0.090	0.034
-417.457	-200.000	-0.053	0.234
-416.442	96.418	-0.293	-0.335
-415.428	-121.642	0.205	0.034
-414.413	-200.000	0.023	0.345
-413.398	305.917	0.119	0.222
-412.384	492.645	0.186	-0.426
-411.369	-200.000	-0.006	0.117
-410.355	-143.375	0.293	-0.028
-409.340	-16.430	0.354	0.225
-408.325	495.808	-0.060	-0.139
-407.311	-200.000	0.018	-0.153
-406.296	800.000	-0.045	-0.155
-405.282	-7.469	0.081	-0.055
-404.267	-78.999	-0.224	0.076
-403.252	43.944	-0.129	0.118
-402.238	719.661	-0.066	0.174
-401.223	280.672	-0.058	-0.103
-400.209	-13.998	-0.152	-0.098
-399.194	-27.435	0.517	0.301
-398.179	800.000	-0.049	0.165
-397.165	219.916	-0.110	-0.176
-396.150	197.602	-0.133	-0.202
-395.136	113.292	0.294	0.357
-394.121	240.519	-0.105	0.175
-393.106	-10.897	-0.116	0.077
-392.092	20.510	-0.142	-0.115
-391.077	800.000	0.052	0.183
-390.063	-120.105	-0.108	-0.019
-389.048	267.293	0.177	0.309
-388.033	158.198	-0.068	-0.095
-387.019	325.631	0.221	-0.422
-386.004	-183.130	-0.176	0.003
-384.990	-29.403	-0.072	-0.041
-383.975	192.454	0.190	-0.287
-382.960	22.845	-0.182	0.149
-381.946	380.434	0.167	0.342
-380.931	-200.000	-0.039	-0.356
-379.917	237.433	0.161	-0.267
-378.902	-79.405	-0.128	-0.043
-377.888	800.000	0.094	0.385
-376.873	-7.408	-0.085	-0.057
-375.858	-75.061	0.144	0.052
-374.844	261.308	0.030	-0.051
-373.829	-178.601	-0.129	-0.003
-372.815	733.637	-0.072	-0.194
-371.800	211.949	-0.052	0.082
-370.785	99.014	-0.201	-0.232
-369.771	685.767	0.112	0.292
-368.756	-49.066	-0.085	-0.041
-367.742	520.807	0.146	-0.342
-366.727	800.000	0.022	0.086
-365.712	-200.000	0.028	-0.130
-364.698	-200.000	0.010	0.072
-363.683	99.911	0.056	0.065
-362.669	-93.292	-0.519	0.144
-361.654	-200.000	-0.016	0.279
-360.639	141.582	0.069	-0.092
-359.625	-200.000	0.070	-0.312
-358.610	3.469	0.056	0.041
-357.596	800.000	0.077	0.259
-356.581	-200.000	-0.043	0.224
-355.566	-200.000	-0.014	-0.170
-354.552	-87.797	-0.092	0.028
-353.537	593.526	-0.119	0.293
-352.523	-13.708	-0.338	-0.218
-351.508	5.496	-0.089	0.066
-350.493	800.000	-0.045	0.188
-349.479	68.500	0.132	0.135
-348.464	800.000	-0.030	0.090
-347.450	17.261	-0.119	-0.095
-346.435	-200.000	0.003	0.016
-345.420	800.000	-0.052	0.193
-344.406	-200.000	-0.009	-0.211
-343.391	4.145	0.415	0.303
-342.377	-200.000	0.052	0.229
-341.362	800.000	0.080	0.221
-340.348	31.849	0.224	0.193
-339.333	800.000	-0.051	-0.183
-338.318	-37.987	0.165	0.087
-337.304	-21.441	0.033	-0.020
-336.289	176.311	-0.271	-0.393
-335.275	800.000	0.085	-0.246
-334.260	18.496	-0.316	-0.252
-333.245	-101.190	-0.189	0.046
-332.231	8.433	0.210	-0.157
-331.216	334.689	0.205	0.395
-330.202	-130.958	0.141	-0.019
-329.187	724.395	-0.045	-0.120
-328.172	243.653	0.190	0.318
-327.158	-162.166	-0.288	-0.014
-326.143	-62.346	0.062	0.026
-325.129	-200.000	-0.026	-0.274
-324.114	-200.000	0.052	-0.343
-323.099	-200.000	0.021	-0.103
-322.085	34.461	0.160	0.140
-321.070	-122.527	-0.165	0.027
-320.056	800.000	0.076	-0.222
-319.041	-67.098	0.351	-0.138
-318.026	56.541	-0.091	0.088
-317.012	-22.414	0.292	0.176
-315.997	-28.286	0.187	-0.107
-314.983	-150.756	-0.411	-0.031
-313.968	-36.734	0.261	0.140
-312.953	-66.584	0.244	-0.097
-311.939	76.699	0.134	-0.142
-310.924	-63.427	-0.180	0.074
-309.910	-99.380	0.167	-0.042
-308.895	-49.548	-0.227	0.108
-307.880	800.000	-0.038	0.113
-306.866	-26.559	0.203	-0.118
-305.851	376.593	0.061	-0.124
-304.837	251.024	0.165	0.279
-303.822	-200.000	-0.009	0.046
-302.807	-111.894	0.332	-0.067
-301.793	-116.337	0.386	-0.071
-300.778	-49.600	0.098	-0.046
-299.764	-51.556	0.365	-0.170
-298.749	-71.533	0.216	-0.080
-297.735	17.924	-0.301	-0.238
-296.720	-17.225	-0.119	0.075
-295.705	133.338	0.242	0.311
-294.691	155.371	0.090	0.123
-293.676	-104.184	0.318	0.074
-292.662	174.632	-0.081	-0.117
-291.647	-200.000	0.027	-0.318
-290.632	-156.016	0.171	0.011
-289.618	30.073	-0.167	-0.142
-288.603	431.978	-0.112	0.241
-287.589	5.885	-0.151	0.112
-286.574	353.955	-0.062	0.123
-285.559	-200.000	0.012	-0.100
-284.545	-28.645	-0.069	0.040
-283.530	-200.000	-0.034	-0.381
-282.516	129.671	-0.142	0.181
-281.501	-100.947	0.325	-0.079
-280.486	80.991	-0.242	0.260
-279.472	-10.027	-0.145	-0.096
-278.457	-172.600	0.222	0.007
-277.443	-167.546	-0.132	-0.005
-276.428	-200.000	0.011	-0.278
-275.413	-93.974	0.273	-0.075
-274.399	-133.930	0.058	-0.007
-273.384	-125.603	-0.367	0.055
-272.370	-95.728	-0.053	0.014
-271.355	-200.000	0.002	0.108
-270.340	72.848	0.220	0.229
-269.326	114.812	-0.198	0.241
-268.311	267.789	-0.140	-0.243
-267.297	106.447	0.274	-0.323
-266.282	-200.000	0.029	-0.396
-265.267	307.892	0.195	-0.361
-264.253	-22.078	-0.038	-0.023
-263.238	282.259	0.038	0.067
-262.224	-95.368	-0.170	-0.045
-261.209	-140.597	-0.142	0.015
-260.195	26.972	-0.313	0.261
-259.180	24.705	0.186	0.153
-258.165	800.000	-0.072	0.263
-257.151	-200.000	0.039	0.218
-256.136	-65.975	0.144	0.057
-255.122	-56.269	0.175	0.077
-254.107	-200.000	0.004	-0.056
-253.092	-6.798	0.205	0.138
-252.078	198.382	-0.213	-0.324
-251.063	652.674	0.049	-0.125
-250.049	-171.641	-0.090	0.003
-249.034	-200.000	0.047	0.323
-248.019	800.000	0.091	0.272
-247.005	381.918	-0.113	0.231
-245.990	605.083	0.058	0.143
-244.976	242.532	0.121	-0.202
-243.961	183.125	0.151	-0.221
-242.946	-4.775	-0.139	-0.096
-241.932	-86.504	-0.205	-0.063
-240.917	-152.579	-0.189	0.013
-239.903	-169.127	0.297	-0.011
-238.888	129.382	0.101	-0.128
-237.873	-22.115	0.286	0.172
-236.859	-83.992	0.035	-0.011
-235.844	109.736	-0.097	0.116
-234.830	-200.000	-0.054	0.366
-233.815	-59.587	-0.265	0.113
-232.800	118.002	-0.327	0.400
-231.786	-119.236	0.136	-0.024
-230.771	-89.592	0.306	0.089
-229.757	231.670	-0.196	0.320
-228.742	-154.863	-0.250	0.016
-227.727	-200.000	0.041	-0.406
-226.713	129.248	0.083	-0.105
-225.698	-200.000	-0.032	-0.158
-224.684	87.700	-0.131	-0.144
-223.669	-153.931	-0.046	-0.003
-222.655	399.516	0.018	0.038
-221.640	800.000	0.089	0.311
-220.625	50.629	-0.297	0.279
-219.611	-59.343	-0.135	-0.058
-218.596	-200.000	0.031	0.259
-217.582	-21.789	-0.263	-0.159
-216.567	190.807	0.219	-0.327
-215.552	100.708	0.144	0.166
-214.538	22.531	0.268	0.218
-213.523	-101.100	0.173	-0.042
-212.509	-117.990	0.278	0.049
-211.494	-42.203	-0.336	0.170
-210.479	-131.192	-0.108	-0.014
-209.465	-97.486	0.463	0.119
-208.450	97.664	-0.070	-0.080
-207.436	65.022	-0.190	0.190
-206.421	256.553	-0.062	-0.106
-205.406	-116.275	-0.168	0.031
-204.392	-61.681	-0.347	-0.145
-203.377	-200.000	-0.011	-0.263
-202.363	449.393	0.073	0.161
-201.348	11.094	-0.247	-0.187
-200.333	-91.049	0.189	0.054
-199.319	241.501	-0.054	0.089
-198.304	-6.448	-0.097	-0.065
-197.290	357.532	-0.146	0.289
-196.275	-156.703	0.187	0.011
-195.260	81.187	-0.034	0.036
-194.246	800.000	0.039	0.140
-193.231	800.000	0.036	0.101
-192.217	107.528	-0.144	0.170
-191.202	328.434	-0.051	-0.096
-190.187	800.000	-0.057	-0.179
-189.173	-132.587	-0.054	-0.007
-188.158	800.000	0.051	0.183
-187.144	118.550	0.251	0.307
-186.129	-200.000	0.050	-0.524
-185.114	291.693	-0.040	-0.072
-184.100	73.418	0.164	-0.170
-183.085	-26.156	-0.184	0.107
-182.071	735.232	0.152	-0.405
-181.056	-200.000	0.014	-0.080
-180.042	299.608	-0.051	-0.094
-179.027	155.098	0.088	0.121
-178.012	326.399	0.033	0.064
-176.998	509.230	-0.060	0.139
-175.983	800.000	0.008	0.024
-174.969	-55.020	0.060	0.027
-173.954	-195.947	-0.370	0.003
-172.939	-103.717	0.354	-0.082
-171.925	-200.000	-0.038	0.226
-170.910	-155.412	-0.157	0.010
-169.896	800.000	-0.050	0.199
-168.881	17.102	-0.059	-0.047
-167.866	-43.268	0.321	-0.161
-166.852	-58.018	0.224	0.097
-165.837	-71.376	-0.122	-0.045
-164.823	-200.000	0.031	0.178
-163.808	800.000	-0.053	0.196
-162.793	177.303	-0.049	-0.071
-161.779	113.633	0.020	0.024
-160.764	98.596	0.179	0.204
-159.750	-200.000	-0.041	0.324
-158.735	-159.347	-0.126	-0.007
-157.720	-38.032	0.158	0.083
-156.706	-23.089	-0.130	-0.078
-155.691	-63.100	0.149	0.061
-154.677	38.008	-0.133	0.117
-153.662	-105.609	-0.122	-0.027
-152.647	-108.065	0.354	0.076
-151.633	222.090	0.187	-0.298
-150.618	238.345	0.059	0.097
-149.604	-111.983	-0.073	-0.015
-148.589	-72.363	-0.193	-0.071
-147.574	301.586	0.112	0.205
-146.560	143.651	0.028	0.037
-145.545	-200.000	0.047	-0.214
-144.531	-21.230	-0.122	-0.074
-143.516	162.627	-0.156	-0.217
-142.502	618.035	0.057	-0.142
-141.487	-38.760	-0.103	-0.054
-140.472	25.237	0.283	0.233
-139.458	2.891	0.084	0.060
-138.443	-63.235	0.271	0.111
-137.429	-13.871	0.226	-0.144
-136.414	-17.606	0.005	-0.003
-135.399	235.144	-0.282	0.461
-134.385	-0.067	0.327	0.231
-133.370	321.368	-0.210	0.395
-132.356	-200.000	0.007	-0.167
-131.341	26.473	0.310	0.256
-130.326	800.000	-0.118	0.342
-129.312	-200.000	0.018	0.310
-128.297	-146.850	-0.186	-0.016
-127.283	600.406	0.072	-0.178
-126.268	-24.979	0.171	-0.101
-125.253	-47.020	-0.306	0.148
-124.239	118.216	-0.120	0.147
-123.224	324.778	0.019	0.036
-122.210	-58.337	-0.248	-0.107
-121.195	-35.043	0.114	-0.061
