DTS Sentinel unit serial number:	SN413079Multiplexer serial number:	ORYXHardware model number:	OX4-SRSoftware version number:	ORYX F/W v4.00 Oryx Data Collector v3.7.2.0data status	okinstallation	princeton_trtdifferential loss correction	single-endedforward channel	channel 4reverse channel	N/Adate	2019/09/10time	16:31:10forward acquisition time	60.00reverse acquisition time	0.00gamma	496.2192k internal	0.2295k external	0.2295temperature offset calibration	0.9939default loss term (dB/km)	0.3790temperature slope calibration	1.0000multiplexer offset coefficient	1.0000multiplexer slope coefficient	1.0000fibre end	0.00T internal ref (°C)	38.03T ext. ref 1 (°C)	-0.26T ext. ref 2 (°C)	30.17length (m)	temperature (°C)	Stokes	anti-Stokes-747.200	-181.645	-0.084	0.002
-746.185	15.828	-0.175	0.141
-745.171	-91.078	0.165	0.048
-744.156	800.000	0.089	0.297
-743.142	119.572	-0.172	0.218
-742.127	137.238	0.269	0.360
-741.112	-74.839	-0.084	-0.031
-740.098	-200.000	0.036	0.353
-739.083	-44.429	0.283	0.145
-738.069	-56.918	0.236	-0.106
-737.054	-200.000	-0.024	-0.223
-736.039	-114.854	0.142	-0.028
-735.025	-23.671	0.085	-0.052
-734.010	-20.970	0.103	0.065
-732.996	-20.163	-0.408	0.257
-731.981	-97.547	-0.490	-0.130
-730.966	-200.000	0.019	-0.098
-729.952	-54.381	-0.196	0.091
-728.937	267.584	0.026	-0.047
-727.923	56.086	-0.069	-0.069
-726.908	800.000	0.063	-0.189
-725.894	-108.010	-0.185	-0.041
-724.879	244.929	-0.127	-0.218
-723.864	-84.615	0.128	-0.041
-722.850	28.887	0.110	0.096
-721.835	-128.514	-0.112	-0.016
-720.821	-80.314	0.339	0.116
-719.806	-29.671	0.150	-0.088
-718.791	173.239	0.055	0.081
-717.777	219.633	-0.013	0.022
-716.762	148.607	0.268	-0.370
-715.748	181.445	-0.268	-0.403
-714.733	-50.544	0.223	-0.107
-713.718	-31.142	0.229	-0.132
-712.704	-30.151	-0.193	-0.112
-711.689	80.943	0.227	-0.250
-710.675	-17.578	0.028	0.018
-709.660	-128.418	0.238	-0.035
-708.645	256.620	0.026	-0.046
-707.631	-200.000	0.020	0.134
-706.616	-200.000	0.003	0.139
-705.602	-64.386	0.249	0.104
-704.587	-25.542	-0.253	0.152
-703.572	123.082	0.118	0.151
-702.558	-119.665	0.262	-0.046
-701.543	136.326	-0.091	0.121
-700.529	362.434	-0.072	-0.148
-699.514	-25.140	0.384	-0.232
-698.499	-200.000	0.032	0.307
-697.485	361.692	0.155	0.317
-696.470	-102.061	-0.129	-0.032
-695.456	-58.888	-0.320	0.141
-694.441	800.000	0.022	-0.083
-693.426	230.578	-0.290	-0.484
-692.412	302.650	0.218	0.412
-691.397	-20.046	0.233	-0.147
-690.383	-14.223	0.116	0.076
-689.368	-175.239	-0.393	0.011
-688.354	-70.334	0.328	-0.127
-687.339	-4.840	-0.377	0.265
-686.324	-200.000	-0.017	0.095
-685.310	-160.316	-0.234	0.013
-684.295	-153.858	0.199	-0.014
-683.281	143.198	0.095	0.128
-682.266	-172.999	-0.159	-0.005
-681.251	-50.282	0.085	0.041
-680.237	-127.860	0.435	0.064
-679.222	-200.000	-0.015	0.212
-678.208	96.794	-0.198	-0.231
-677.193	693.173	-0.096	-0.258
-676.178	368.800	0.168	0.347
-675.164	511.208	-0.016	0.038
-674.149	56.911	-0.188	0.186
-673.135	-44.367	0.293	0.150
-672.120	800.000	0.107	0.304
-671.105	-200.000	0.003	-0.151
-670.091	800.000	-0.032	-0.130
-669.076	186.645	0.122	0.185
-668.062	-145.051	0.072	-0.007
-667.047	-200.000	-0.077	-0.392
-666.032	800.000	0.067	-0.209
-665.018	-53.064	0.377	0.176
-664.003	-200.000	-0.030	0.203
-662.989	-6.588	-0.098	0.068
-661.974	169.276	-0.038	-0.055
-660.959	800.000	0.068	-0.215
-659.945	180.014	0.211	0.316
-658.930	356.868	-0.061	-0.125
-657.916	245.565	0.034	-0.058
-656.901	163.711	-0.106	-0.152
-655.886	-200.000	-0.013	-0.198
-654.872	-127.590	0.394	0.058
-653.857	-200.000	-0.006	0.185
-652.843	-200.000	-0.005	-0.205
-651.828	-200.000	0.046	-0.414
-650.814	-200.000	-0.027	0.156
-649.799	800.000	-0.045	0.142
-648.784	-75.235	0.034	0.013
-647.770	-200.000	0.018	-0.126
-646.755	-45.081	0.148	-0.075
-645.741	-67.180	-0.221	-0.089
-644.726	682.483	0.192	-0.510
-643.711	-178.737	-0.109	0.003
-642.697	-107.731	0.257	-0.057
-641.682	-18.710	0.243	-0.154
-640.668	148.408	-0.021	-0.029
-639.653	-200.000	-0.002	-0.161
-638.638	-66.836	0.191	-0.077
-637.624	-126.929	-0.120	0.018
-636.609	224.661	0.138	0.227
-635.595	181.902	0.143	-0.214
-634.580	573.741	0.030	0.075
-633.565	299.026	0.226	-0.423
-632.551	-200.000	-0.014	0.180
-631.536	-115.183	-0.510	-0.098
-630.522	49.025	0.416	-0.398
-629.507	303.932	-0.147	0.278
-628.492	800.000	-0.043	0.160
-627.478	-119.455	-0.388	0.069
-626.463	-178.253	0.102	-0.002
-625.449	55.806	-0.150	-0.148
-624.434	214.411	0.150	-0.241
-623.419	67.657	0.092	-0.096
-622.405	-200.000	-0.010	0.196
-621.390	-200.000	-0.010	-0.158
-620.376	251.155	-0.110	-0.191
-619.361	-14.378	0.277	0.181
-618.346	-200.000	-0.069	-0.426
-617.332	-143.356	0.298	-0.029
-616.317	800.000	-0.095	0.280
-615.303	8.688	-0.214	-0.164
-614.288	646.833	0.037	0.097
-613.273	800.000	0.120	0.365
-612.259	1.098	0.063	0.046
-611.244	-98.194	-0.258	-0.067
-610.230	154.828	0.155	-0.217
-609.215	468.705	0.148	-0.338
-608.201	-9.136	-0.331	0.225
-607.186	-131.619	-0.048	0.006
-606.171	353.312	-0.099	-0.200
-605.157	800.000	0.030	-0.089
-604.142	95.765	0.224	0.260
-603.128	800.000	0.072	0.239
-602.113	47.540	0.086	-0.082
-601.098	-200.000	0.005	0.150
-600.084	-49.469	0.146	0.071
-599.069	35.462	0.284	-0.253
-598.055	-31.665	-0.060	-0.034
-597.040	-43.833	-0.269	-0.138
-596.025	43.105	-0.012	0.011
-595.011	241.925	-0.131	-0.222
-593.996	-200.000	-0.009	-0.059
-592.982	-56.823	0.080	0.036
-591.967	302.514	-0.019	-0.035
-590.952	-200.000	-0.008	0.055
-589.938	96.977	-0.224	0.261
-588.923	-129.485	-0.138	0.019
-587.909	-81.662	0.134	-0.045
-586.894	144.729	0.116	-0.158
-585.879	10.851	-0.176	0.136
-584.865	-200.000	0.024	-0.399
-583.850	-159.067	-0.243	-0.014
-582.836	149.493	0.131	-0.180
-581.821	-29.610	0.148	-0.086
-580.806	100.578	-0.304	0.359
-579.792	-92.348	-0.107	0.031
-578.777	-49.014	-0.194	-0.094
-577.763	228.182	-0.055	-0.092
-576.748	-129.319	0.164	-0.023
-575.733	439.370	0.064	0.141
-574.719	-23.070	0.149	0.091
-573.704	-97.006	-0.063	-0.017
-572.690	392.258	0.113	0.239
-571.675	152.583	0.127	-0.176
-570.661	800.000	0.151	-0.467
-569.646	-200.000	0.030	0.160
-568.631	-12.608	-0.259	0.172
-567.617	800.000	-0.029	0.128
-566.602	101.352	0.065	-0.076
-565.588	88.975	0.117	-0.132
-564.573	-174.800	0.165	-0.005
-563.558	38.067	0.238	0.215
-562.544	328.092	-0.151	-0.293
-561.529	-200.000	0.006	-0.075
-560.515	55.504	0.146	0.143
-559.500	800.000	-0.007	0.027
-558.485	475.317	-0.218	-0.500
-557.471	30.644	0.062	-0.054
-556.456	452.891	0.095	-0.214
-555.442	-14.958	-0.352	-0.229
-554.427	-116.952	0.281	0.052
-553.412	-200.000	0.024	-0.276
-552.398	-200.000	-0.076	0.355
-551.383	38.428	-0.139	-0.126
-550.369	-173.079	-0.047	-0.001
-549.354	135.676	0.033	-0.044
-548.339	-122.950	0.290	-0.047
-547.325	-172.924	0.058	-0.002
-546.310	-200.000	-0.034	-0.221
-545.296	800.000	-0.046	-0.169
-544.281	-200.000	0.018	-0.126
-543.266	-137.171	0.110	0.013
-542.252	800.000	-0.056	-0.174
-541.237	639.158	0.056	0.144
-540.223	100.883	0.250	0.295
-539.208	800.000	0.074	0.247
-538.193	-200.000	0.019	0.144
-537.179	800.000	0.058	-0.185
-536.164	18.870	0.141	-0.114
-535.150	-174.491	0.095	0.003
-534.135	-101.314	-0.277	0.069
-533.121	800.000	-0.041	0.124
-532.106	242.877	-0.091	0.155
-531.091	-32.044	-0.205	0.116
-530.077	275.927	-0.092	-0.165
-529.062	366.919	-0.084	-0.171
-528.048	-97.170	0.414	-0.110
-527.033	-87.546	-0.431	-0.132
-526.018	62.861	0.163	-0.165
-525.004	98.156	0.073	0.085
-523.989	800.000	-0.019	0.057
-522.975	529.776	-0.103	-0.246
-521.960	132.414	0.171	-0.224
-520.945	135.093	-0.123	0.162
-519.931	15.376	0.254	0.202
-518.916	51.188	-0.233	0.224
-517.902	800.000	0.047	0.188
-516.887	800.000	-0.028	-0.115
-515.872	-62.948	0.259	0.109
-514.858	113.893	-0.264	0.326
-513.843	800.000	0.052	0.224
-512.829	800.000	-0.037	-0.124
-511.814	497.759	-0.036	-0.085
-510.799	93.516	0.156	0.179
-509.785	324.530	-0.085	-0.165
-508.770	-119.649	-0.116	0.020
-507.756	9.720	0.208	-0.160
-506.741	62.079	0.208	0.210
-505.726	-200.000	0.018	0.160
-504.712	-200.000	-0.003	0.062
-503.697	47.703	-0.315	-0.297
-502.683	-74.822	-0.350	0.127
-501.668	-112.462	0.130	-0.026
-500.653	208.997	-0.141	-0.223
-499.639	252.630	-0.082	0.141
-498.624	121.461	0.126	0.159
-497.610	-118.439	0.152	-0.027
-496.595	188.643	0.118	0.178
-495.581	-95.118	-0.185	-0.051
-494.566	79.900	0.147	0.160
-493.551	38.912	-0.049	-0.045
-492.537	-82.374	0.180	-0.059
-491.522	336.301	0.191	0.375
-490.508	-48.593	0.080	0.039
-489.493	-95.575	-0.439	-0.119
-488.478	800.000	-0.140	-0.403
-487.464	-200.000	0.000	-0.685
-486.449	-83.497	-0.345	0.112
-485.435	-200.000	0.012	-0.120
-484.420	800.000	0.075	-0.258
-483.405	-171.311	0.298	0.010
-482.391	800.000	-0.065	-0.281
-481.376	800.000	0.078	-0.258
-480.362	140.402	-0.214	0.285
-479.347	113.567	-0.178	0.219
-478.332	40.367	-0.192	-0.175
-477.318	-200.000	-0.022	-0.194
-476.303	-3.139	-0.115	-0.081
-475.289	-200.000	-0.026	0.376
-474.274	17.571	0.284	0.228
-473.259	375.689	-0.052	0.106
-472.245	-80.852	0.260	0.087
-471.230	107.008	0.075	-0.090
-470.216	294.349	0.129	0.238
-469.201	-186.739	0.085	0.001
-468.186	539.658	-0.034	-0.081
-467.172	562.724	0.038	0.094
-466.157	-114.515	0.138	0.027
-465.143	-142.254	0.184	0.018
-464.128	730.969	-0.092	0.250
-463.113	800.000	0.072	0.299
-462.099	5.692	0.092	-0.069
-461.084	246.375	-0.164	0.280
-460.070	9.257	0.110	0.084
-459.055	-32.603	0.282	0.158
-458.040	19.916	-0.198	0.161
-457.026	800.000	0.074	-0.279
-456.011	-200.000	0.039	-0.227
-454.997	212.284	0.125	0.199
-453.982	-25.727	0.119	0.071
-452.968	70.817	-0.231	0.242
-451.953	-200.000	0.025	-0.129
-450.938	-112.959	0.274	0.055
-449.924	-67.840	-0.098	-0.039
-448.909	-200.000	-0.024	0.187
-447.895	-57.828	0.155	-0.069
-446.880	-16.386	-0.176	0.113
-445.865	53.820	-0.100	-0.097
-444.851	-177.250	0.439	0.011
-443.836	-137.375	-0.176	0.020
-442.822	-179.324	0.140	0.003
-441.807	-138.240	-0.072	0.008
-440.792	66.890	-0.142	0.146
-439.778	-200.000	-0.027	-0.155
-438.763	-200.000	0.024	0.118
-437.749	-22.965	-0.109	-0.066
-436.734	800.000	-0.038	0.146
-435.719	-108.981	-0.128	-0.028
-434.705	145.117	-0.142	-0.191
-433.690	-15.465	0.368	-0.238
-432.676	1.878	-0.184	-0.134
-431.661	665.730	0.062	0.162
-430.646	798.571	-0.090	0.251
-429.632	-200.000	0.021	0.422
-428.617	-200.000	-0.023	0.177
-427.603	-26.592	-0.230	-0.136
-426.588	613.316	-0.046	0.116
-425.573	-103.435	0.202	-0.048
-424.559	-200.000	-0.029	0.286
-423.544	89.620	-0.071	0.080
-422.530	68.299	0.060	0.062
-421.515	-200.000	-0.045	-0.206
-420.500	-145.586	0.026	-0.002
-419.486	-61.498	-0.251	-0.107
-418.471	-74.367	-0.168	0.061
-417.457	-50.047	-0.138	-0.066
-416.442	-71.727	0.050	-0.019
-415.428	73.262	-0.225	0.237
-414.413	105.755	-0.176	-0.210
-413.398	192.250	-0.117	0.179
-412.384	77.190	0.108	0.116
-411.369	-48.310	-0.047	-0.023
-410.355	-9.682	-0.187	-0.126
-409.340	421.859	0.061	-0.132
-408.325	590.566	0.104	-0.258
-407.311	606.403	-0.006	-0.016
-406.296	-3.891	-0.091	0.063
-405.282	-35.491	0.089	0.049
-404.267	-132.161	0.269	-0.035
-403.252	19.459	0.335	0.271
-402.238	17.018	0.178	0.142
-401.223	-200.000	-0.018	-0.294
-400.209	10.028	0.123	0.094
-399.194	-129.408	-0.331	0.046
-398.179	-74.560	0.027	-0.010
-397.165	253.851	0.092	0.159
-396.150	-14.276	-0.070	-0.045
-395.136	-129.057	-0.148	0.021
-394.121	395.133	-0.197	-0.415
-393.106	104.206	0.152	-0.180
-392.092	-36.599	0.209	0.113
-391.077	9.869	-0.161	0.123
-390.063	-99.431	0.288	-0.073
-389.048	54.331	0.167	0.162
-388.033	-200.000	-0.048	0.286
-387.019	-100.874	0.312	-0.077
-386.004	-48.242	-0.159	0.077
-384.990	-177.859	0.088	-0.002
-383.975	-200.000	0.009	-0.348
-382.960	-200.000	-0.012	-0.510
-381.946	-176.821	0.179	-0.005
-380.931	103.256	0.074	0.088
-379.917	-200.000	0.005	-0.068
-378.902	265.610	-0.220	-0.388
-377.888	-48.558	-0.260	-0.126
-376.873	252.482	-0.212	-0.364
-375.858	-200.000	0.037	-0.167
-374.844	39.773	0.152	0.137
-373.829	-0.039	0.095	-0.068
-372.815	224.208	-0.077	-0.125
-371.800	-119.400	-0.195	0.034
-370.785	800.000	0.071	-0.215
-369.771	-3.717	0.128	0.090
-368.756	-54.866	0.436	0.198
-367.742	800.000	-0.089	-0.325
-366.727	50.108	-0.316	-0.301
-365.712	12.014	0.365	-0.283
-364.698	-61.185	0.231	0.098
-363.683	693.784	-0.021	0.057
-362.669	-41.641	-0.015	-0.008
-361.654	-125.424	-0.195	0.030
-360.639	238.309	-0.073	0.123
-359.625	-104.129	0.152	-0.036
-358.610	10.779	0.246	-0.189
-357.596	16.149	0.214	-0.170
-356.581	-77.717	-0.159	-0.055
-355.566	-200.000	0.012	-0.092
-354.552	-58.394	0.131	-0.057
-353.537	800.000	-0.015	0.053
-352.523	157.881	0.156	0.217
-351.508	-88.018	0.248	-0.075
-350.493	172.079	0.174	0.252
-349.479	31.977	-0.353	-0.306
-348.464	-79.956	-0.177	-0.060
-347.450	800.000	-0.021	0.063
-346.435	212.755	-0.212	-0.337
-345.420	-117.566	0.456	-0.083
-344.406	-200.000	-0.051	0.286
-343.391	-58.645	-0.152	-0.066
-342.377	70.535	-0.103	0.107
-341.362	-200.000	-0.082	-0.477
-340.348	96.739	0.268	0.309
-339.333	-131.356	0.255	-0.034
-338.318	41.117	-0.125	0.113
-337.304	-200.000	-0.030	0.326
-336.289	-37.216	0.366	-0.197
-335.275	592.915	-0.105	-0.261
-334.260	-200.000	-0.068	-0.433
-333.245	-105.434	0.148	-0.034
-332.231	-200.000	0.004	-0.203
-331.216	93.450	0.185	0.211
-330.202	299.396	0.057	0.106
-329.187	-34.906	0.063	-0.034
-328.172	-95.219	-0.306	-0.083
-327.158	-5.967	-0.371	0.255
-326.143	18.104	0.156	0.125
-325.129	262.381	0.104	0.181
-324.114	-134.018	-0.481	0.060
-323.099	-200.000	0.020	0.181
-322.085	800.000	0.126	-0.361
-321.070	-63.033	-0.220	0.091
-320.056	-86.582	0.263	0.081
-319.041	468.423	-0.028	0.062
-318.026	50.811	-0.244	0.232
-317.012	-129.603	-0.041	0.006
-315.997	-200.000	0.047	-0.507
-314.983	-127.438	-0.231	-0.034
-313.968	800.000	0.087	-0.258
-312.953	800.000	-0.061	0.174
-311.939	-87.994	0.192	0.058
-310.924	-200.000	-0.030	0.272
-309.910	-200.000	0.049	0.296
-308.895	344.336	-0.084	0.166
-307.880	-40.912	0.116	-0.061
-306.866	220.080	-0.074	-0.119
-305.851	800.000	-0.083	-0.272
-304.837	-39.039	-0.136	0.072
-303.822	-16.671	0.254	0.161
-302.807	-81.446	0.457	-0.151
-301.793	-132.738	-0.211	0.027
-300.778	-200.000	-0.046	0.273
-299.764	-61.507	-0.199	-0.084
-298.749	40.086	0.170	-0.154
-297.735	-200.000	-0.012	0.506
-296.720	249.530	-0.088	0.150
-295.705	-200.000	0.012	-0.135
-294.691	-200.000	0.007	-0.222
-293.676	7.532	-0.274	0.206
-292.662	274.383	0.132	0.234
-291.647	-0.205	0.267	-0.191
-290.632	4.102	-0.136	-0.100
-289.618	-57.755	-0.159	-0.070
-288.603	-200.000	-0.012	0.434
-287.589	-200.000	0.019	0.153
-286.574	-112.603	-0.074	0.015
-285.559	790.760	0.133	-0.367
-284.545	-200.000	-0.046	-0.323
-283.530	-113.931	0.150	-0.029
-282.516	-200.000	0.008	-0.161
-281.501	-134.701	-0.316	0.039
-280.486	800.000	0.055	0.220
-279.472	113.107	-0.322	0.392
-278.457	462.439	0.062	0.139
-277.443	397.176	-0.094	0.197
-276.428	-200.000	0.021	0.453
-275.413	114.941	0.075	-0.092
-274.399	10.926	0.171	-0.131
-273.384	-87.674	-0.351	0.106
-272.370	103.645	-0.030	0.036
-271.355	150.211	0.067	-0.091
-270.340	-48.073	-0.127	-0.062
-269.326	180.909	-0.183	-0.269
-268.311	-38.089	0.122	-0.065
-267.297	-30.721	-0.530	0.301
-266.282	-200.000	0.028	0.380
-265.267	-118.020	-0.100	0.018
-264.253	-200.000	-0.044	-0.238
-263.238	6.099	0.072	0.053
-262.224	-160.109	-0.207	0.011
-261.209	-98.226	-0.415	-0.107
-260.195	800.000	-0.038	0.118
-259.180	62.403	-0.192	-0.192
-258.165	-22.151	-0.053	-0.032
-257.151	-79.362	-0.007	-0.002
-256.136	-133.094	-0.242	0.031
-255.122	-52.386	-0.087	0.040
-254.107	-77.951	0.108	-0.037
-253.092	-40.613	-0.169	0.088
-252.078	-86.011	-0.022	0.007
-251.063	-33.389	-0.134	0.075
-250.049	414.948	-0.095	-0.204
-249.034	120.615	0.152	0.189
-248.019	-165.331	0.236	0.010
-247.005	99.369	-0.079	0.092
-245.990	-77.212	0.463	0.162
-244.976	-200.000	0.048	0.322
-243.961	219.481	0.137	-0.219
-242.946	-33.924	0.044	-0.025
-241.932	-65.875	0.096	-0.039
-240.917	-34.236	0.097	-0.054
-239.903	447.008	-0.018	-0.039
-238.888	-200.000	0.036	0.180
-237.873	348.611	-0.040	0.078
-236.859	-200.000	0.007	-0.064
-235.844	-200.000	0.016	0.110
-234.830	76.892	-0.112	-0.119
-233.815	-95.923	0.055	0.015
-232.800	-141.186	0.163	-0.017
-231.786	-8.738	-0.055	0.037
-230.771	-200.000	0.028	0.407
-229.757	-0.120	-0.144	0.103
-228.742	-85.800	0.316	-0.098
-227.727	-43.988	-0.234	-0.118
-226.713	154.546	-0.189	-0.260
-225.698	17.036	-0.264	0.209
-224.684	-36.109	0.185	-0.100
-223.669	113.719	0.104	0.127
-222.655	558.634	0.127	-0.307
-221.640	-200.000	0.033	-0.260
-220.625	-200.000	-0.003	-0.059
-219.611	126.667	0.040	0.051
-218.596	620.045	0.067	0.168
-217.582	18.311	0.126	-0.101
-216.567	-32.702	-0.094	-0.052
-215.552	-200.000	0.011	0.125
-214.538	142.403	-0.191	-0.253
-213.523	-200.000	0.006	-0.145
-212.509	485.002	0.176	-0.401
-211.494	101.746	-0.168	0.196
-210.479	-59.257	0.246	0.106
-209.465	-131.509	0.428	0.056
-208.450	46.143	-0.140	0.129
-207.436	-65.390	-0.276	0.111
-206.421	-164.809	-0.051	0.002
-205.406	-200.000	0.153	-0.000
-204.392	-200.000	0.004	0.177
-203.377	-76.879	-0.211	0.074
-202.363	-133.345	-0.103	-0.013
-201.348	-160.688	-0.346	0.018
-200.333	-33.083	0.054	-0.030
-199.319	-122.478	-0.425	0.069
-198.304	800.000	-0.022	-0.069
-197.290	-40.986	-0.263	-0.136
-196.275	301.184	0.046	0.086
-195.260	17.395	0.215	0.171
-194.246	45.281	-0.080	0.074
-193.231	552.815	-0.153	0.367
-192.217	-27.782	0.441	0.256
-191.202	-92.957	-0.178	0.050
-190.187	-74.376	0.073	0.026
-189.173	-200.000	0.009	0.044
-188.158	306.725	-0.110	-0.205
-187.144	-200.000	0.009	-0.438
-186.129	9.373	-0.242	-0.183
-185.114	521.515	-0.087	0.203
-184.100	18.728	-0.047	-0.038
-183.085	19.777	-0.315	0.253
-182.071	-137.015	0.335	-0.038
-181.056	800.000	0.060	0.172
-180.042	-200.000	0.009	0.176
-179.027	-159.457	-0.237	0.013
-178.012	-71.581	0.174	-0.065
-176.998	518.906	0.107	-0.251
-175.983	1.760	0.233	0.168
-174.969	-200.000	-0.007	0.280
-173.954	9.383	0.312	0.236
-172.939	-153.051	-0.360	-0.025
-171.925	370.203	0.084	0.169
-170.910	-63.353	-0.201	-0.083
-169.896	554.032	0.062	0.148
-168.881	94.587	-0.054	-0.061
-167.866	-200.000	-0.019	0.142
-166.852	407.338	0.066	0.138
-165.837	0.435	0.155	-0.110
-164.823	416.658	0.074	0.158
-163.808	800.000	0.143	0.423
-162.793	101.743	0.100	0.117
-161.779	-135.715	-0.386	0.046
-160.764	800.000	-0.044	-0.161
-159.750	156.176	0.199	0.274
-158.735	-92.282	-0.117	-0.033
-157.720	13.785	-0.114	-0.089
-156.706	116.481	0.122	0.150
-155.691	-101.033	0.222	-0.054
-154.677	-41.019	-0.115	-0.059
-153.662	123.788	-0.029	-0.037
-152.647	199.299	0.071	-0.109
-151.633	211.088	0.136	0.213
-150.618	-16.337	0.181	0.114
-149.604	-112.126	0.128	0.026
-148.589	800.000	-0.079	-0.300
-147.574	198.774	-0.134	0.205
-146.560	72.953	0.112	-0.116
-145.545	252.147	-0.201	0.342
-144.531	-117.918	0.577	-0.103
-143.516	183.605	0.130	0.192
-142.502	196.088	-0.096	0.146
-141.487	-200.000	0.001	0.011
-140.472	-95.427	-0.133	0.036
-139.458	-18.992	0.185	0.115
-138.443	-54.722	0.183	0.083
-137.429	484.486	-0.080	0.182
-136.414	-40.376	-0.128	0.067
-135.399	-26.361	0.229	-0.134
-134.385	-143.282	0.279	0.027
-133.370	106.333	-0.045	-0.053
-132.356	-44.255	0.289	-0.145
-131.341	800.000	0.005	0.021
-130.326	-200.000	-0.010	0.280
-129.312	145.416	0.123	0.165
-128.297	224.696	-0.078	0.126
-127.283	-113.685	-0.373	0.073
-126.268	-92.716	-0.133	-0.037
-125.253	-178.695	0.341	0.008
-124.239	266.823	-0.076	-0.132
-123.224	149.977	0.059	-0.079
-122.210	800.000	-0.034	0.140
-121.195	-200.000	0.002	-0.142
