DTS Sentinel unit serial number:	SN413079Multiplexer serial number:	ORYXHardware model number:	OX4-SRSoftware version number:	ORYX F/W v4.00 Oryx Data Collector v3.7.2.0data status	okinstallation	princeton_trtdifferential loss correction	single-endedforward channel	channel 4reverse channel	N/Adate	2019/09/13time	01:41:35forward acquisition time	60.00reverse acquisition time	0.00gamma	496.2192k internal	0.2318k external	0.2318temperature offset calibration	1.0177default loss term (dB/km)	0.3790temperature slope calibration	1.0000multiplexer offset coefficient	1.0000multiplexer slope coefficient	1.0000fibre end	0.00T internal ref (°C)	27.72T ext. ref 1 (°C)	3.79T ext. ref 2 (°C)	22.39length (m)	temperature (°C)	Stokes	anti-Stokes-747.200	800.000	0.114	-0.393
-746.185	-12.568	-0.374	0.247
-745.171	-200.000	-0.105	0.510
-744.156	-30.799	0.205	0.117
-743.142	-157.379	-0.068	0.004
-742.127	148.359	-0.059	0.081
-741.112	47.394	0.216	0.204
-740.098	800.000	-0.034	0.123
-739.083	19.313	0.196	0.160
-738.069	800.000	-0.122	0.366
-737.054	147.758	-0.067	0.091
-736.039	91.524	0.053	0.060
-735.025	800.000	0.033	0.102
-734.010	800.000	0.136	-0.405
-732.996	42.693	0.173	-0.159
-731.981	800.000	0.055	-0.180
-730.966	-200.000	-0.318	0.001
-729.952	-162.409	0.073	0.004
-728.937	-22.333	-0.292	-0.179
-727.923	558.742	-0.031	-0.075
-726.908	316.279	-0.182	-0.347
-725.894	-40.616	0.204	0.107
-724.879	-191.346	-0.531	0.005
-723.864	-42.777	0.150	0.077
-722.850	58.591	0.105	-0.104
-721.835	112.168	-0.206	-0.251
-720.821	-200.000	0.022	-0.102
-719.806	-200.000	-0.039	-0.515
-718.791	-46.546	-0.237	-0.118
-717.777	142.014	0.252	0.337
-716.762	-86.519	0.096	0.030
-715.748	72.300	0.161	-0.169
-714.733	226.659	-0.211	-0.347
-713.718	-69.205	-0.461	-0.179
-712.704	-118.359	0.294	-0.053
-711.689	-64.779	0.032	0.013
-710.675	-70.140	-0.255	0.098
-709.660	299.231	0.155	-0.288
-708.645	332.074	-0.096	-0.187
-707.631	-126.462	-0.238	0.036
-706.616	346.843	-0.120	-0.238
-705.602	-17.403	-0.126	-0.080
-704.587	8.966	0.058	0.044
-703.572	227.764	-0.087	-0.144
-702.558	-91.286	-0.147	0.042
-701.543	70.596	-0.067	-0.070
-700.529	-99.519	0.406	0.103
-699.514	-84.110	-0.217	-0.070
-698.499	383.512	0.106	-0.221
-697.485	-200.000	0.016	-0.334
-696.470	-8.618	0.379	0.257
-695.456	-72.490	-0.250	-0.093
-694.441	800.000	-0.147	-0.419
-693.426	-153.779	0.117	0.008
-692.412	-38.696	0.130	-0.069
-691.397	-200.000	0.014	-0.140
-690.383	-42.219	-0.051	0.026
-689.368	228.991	0.058	-0.096
-688.354	800.000	-0.035	-0.114
-687.339	-200.000	-0.055	-0.374
-686.324	-17.687	0.259	0.164
-685.310	487.128	-0.231	0.532
-684.295	-46.652	-0.116	-0.057
-683.281	257.707	0.113	0.197
-682.266	82.835	0.147	0.161
-681.251	-200.000	0.007	-0.061
-680.237	64.645	-0.175	0.178
-679.222	205.087	-0.133	-0.209
-678.208	112.163	-0.072	0.087
-677.193	170.884	-0.199	-0.287
-676.178	-200.000	0.038	-0.246
-675.164	800.000	-0.068	-0.249
-674.149	-32.328	0.092	0.052
-673.135	676.242	0.069	-0.181
-672.120	227.567	0.146	0.239
-671.105	800.000	-0.083	-0.240
-670.091	42.076	-0.163	-0.149
-669.076	365.872	-0.173	-0.352
-668.062	41.502	0.149	0.137
-667.047	-200.000	-0.014	0.289
-666.032	209.928	-0.051	0.081
-665.018	-95.478	0.520	-0.141
-664.003	-145.504	-0.316	0.029
-662.989	43.715	0.205	-0.190
-661.974	-70.165	-0.257	-0.099
-660.959	-94.390	0.412	0.113
-659.945	56.615	-0.068	-0.067
-658.930	-196.667	-0.097	-0.001
-657.916	520.719	-0.112	-0.264
-656.901	42.369	0.192	-0.176
-655.886	-49.060	0.047	-0.023
-654.872	51.068	0.259	-0.248
-653.857	800.000	0.034	0.115
-652.843	786.988	-0.050	-0.139
-651.828	44.069	-0.138	-0.128
-650.814	-30.310	-0.337	0.193
-649.799	-162.283	-0.222	-0.011
-648.784	-121.060	-0.105	-0.018
-647.770	-14.738	-0.297	0.192
-646.755	145.002	0.104	0.140
-645.741	103.955	-0.032	-0.038
-644.726	129.181	-0.260	0.334
-643.711	-200.000	0.017	0.147
-642.697	-132.050	-0.119	0.016
-641.682	-200.000	0.011	-0.149
-640.668	20.313	-0.271	-0.220
-639.653	-106.527	0.354	-0.080
-638.638	31.058	0.348	0.301
-637.624	-27.193	0.174	-0.102
-636.609	301.304	0.162	-0.301
-635.595	116.145	0.063	-0.078
-634.580	-200.000	-0.002	0.020
-633.565	24.230	0.076	0.064
-632.551	19.575	-0.239	0.194
-631.536	507.786	-0.077	-0.179
-630.522	-12.960	-0.157	0.103
-629.507	263.548	0.081	-0.142
-628.492	-200.000	-0.010	-0.152
-627.478	-58.696	-0.162	0.071
-626.463	157.643	0.031	0.043
-625.449	219.723	0.032	0.052
-624.434	-97.678	-0.238	-0.062
-623.419	87.035	0.118	-0.131
-622.405	-116.755	-0.104	0.019
-621.390	-101.698	-0.064	-0.016
-620.376	786.558	0.044	-0.121
-619.361	232.647	-0.257	-0.426
-618.346	70.193	-0.102	-0.106
-617.332	-200.000	-0.064	-0.426
-616.317	800.000	0.061	-0.198
-615.303	19.039	-0.341	-0.275
-614.288	-104.400	-0.065	0.015
-613.273	69.686	-0.129	-0.133
-612.259	-42.940	-0.122	0.062
-611.244	-31.490	0.232	-0.131
-610.230	-134.343	0.251	0.031
-609.215	13.179	-0.268	-0.209
-608.201	-189.047	0.214	-0.003
-607.186	-63.421	0.345	-0.143
-606.171	-52.561	0.190	0.088
-605.157	119.281	0.048	-0.059
-604.142	-2.748	0.158	-0.111
-603.128	88.211	0.114	-0.127
-602.113	-160.337	-0.212	0.012
-601.098	-200.000	0.012	-0.099
-600.084	-59.477	-0.204	-0.088
-599.069	256.170	-0.005	0.009
-598.055	251.965	0.195	0.335
-597.040	313.967	-0.213	0.404
-596.025	56.537	0.204	-0.200
-595.011	800.000	-0.129	-0.461
-593.996	-103.650	-0.196	-0.046
-592.982	395.568	0.050	0.105
-591.967	40.739	0.312	-0.283
-590.952	-99.175	0.494	-0.126
-589.938	-95.389	0.138	-0.037
-588.923	-200.000	-0.038	-0.271
-587.909	800.000	0.018	-0.072
-586.894	61.048	0.192	-0.191
-585.879	776.109	-0.157	0.431
-584.865	-98.393	0.236	-0.061
-583.850	56.551	0.050	0.049
-582.836	140.472	0.309	0.410
-581.821	560.752	0.044	-0.107
-580.806	571.298	0.207	-0.507
-579.792	20.758	-0.166	0.135
-578.777	52.321	0.060	0.057
-577.763	153.280	0.221	-0.305
-576.748	108.598	-0.105	0.126
-575.733	-83.700	0.249	-0.080
-574.719	-200.000	0.025	-0.136
-573.704	800.000	-0.058	0.181
-572.690	360.309	0.051	0.103
-571.675	-200.000	-0.046	0.292
-570.661	-65.015	-0.304	-0.123
-569.646	-81.430	-0.090	0.030
-568.631	-103.537	-0.207	-0.049
-567.617	800.000	0.021	0.093
-566.602	-31.690	0.029	0.017
-565.588	-24.573	-0.161	-0.097
-564.573	-200.000	0.014	-0.526
-563.558	-200.000	0.000	-0.288
-562.544	547.741	-0.139	-0.333
-561.529	-151.894	-0.257	-0.019
-560.515	-111.792	0.171	0.035
-559.500	-115.037	-0.204	-0.039
-558.485	-70.611	-0.402	-0.153
-557.471	-81.960	0.157	-0.052
-556.456	-159.112	0.170	-0.010
-555.442	472.992	-0.105	-0.237
-554.427	-63.955	0.269	-0.111
-553.412	-56.018	0.081	-0.036
-552.398	220.818	0.072	-0.116
-551.383	-200.000	0.003	0.111
-550.369	174.111	0.134	-0.195
-549.354	178.461	-0.091	0.134
-548.339	734.372	0.060	0.162
-547.325	-200.000	-0.002	-0.179
-546.310	-200.000	-0.067	0.429
-545.296	800.000	-0.070	-0.309
-544.281	468.800	0.083	-0.186
-543.266	-115.137	-0.132	-0.025
-542.252	-83.418	-0.103	-0.033
-541.237	-200.000	-0.068	0.364
-540.223	128.372	0.202	-0.259
-539.208	520.096	0.192	0.452
-538.193	-108.570	0.135	-0.029
-537.179	-140.738	0.281	0.029
-536.164	800.000	0.079	0.238
-535.150	-12.103	-0.185	0.121
-534.135	-200.000	0.080	-0.386
-533.121	-200.000	0.010	-0.059
-532.106	-166.528	-0.290	0.012
-531.091	800.000	-0.023	-0.092
-530.077	-58.824	-0.163	0.071
-529.062	51.707	0.268	0.256
-528.048	-13.919	0.111	0.072
-527.033	-200.000	0.068	-0.349
-526.018	33.588	0.107	0.093
-525.004	-146.506	-0.079	0.007
-523.989	-104.530	-0.307	-0.071
-522.975	-200.000	0.023	0.104
-521.960	176.622	-0.081	0.118
-520.945	-122.743	0.203	0.033
-519.931	-200.000	-0.009	0.109
-518.916	-36.851	-0.054	0.029
-517.902	-200.000	0.036	0.263
-516.887	-200.000	0.033	-0.247
-515.872	-24.963	-0.485	-0.288
-514.858	800.000	0.027	-0.112
-513.843	206.065	-0.076	-0.118
-512.829	199.493	-0.076	0.117
-511.814	-200.000	-0.018	0.181
-510.799	-65.364	0.172	-0.069
-509.785	-200.000	-0.013	-0.137
-508.770	800.000	0.096	0.306
-507.756	239.114	0.110	0.183
-506.741	-28.688	-0.192	0.111
-505.726	-74.818	-0.337	0.121
-504.712	-9.463	0.315	0.211
-503.697	56.215	-0.190	0.185
-502.683	-60.620	0.146	0.062
-501.668	34.859	-0.114	0.100
-500.653	-200.000	0.001	-0.260
-499.639	146.834	0.162	0.219
-498.624	299.091	0.092	-0.170
-497.610	-115.598	-0.155	0.029
-496.595	-63.654	-0.298	-0.122
-495.581	3.215	0.222	0.162
-494.566	-200.000	-0.004	-0.113
-493.551	-200.000	0.004	-0.097
-492.537	10.126	0.257	0.196
-491.522	286.247	0.108	-0.195
-490.508	-71.933	-0.299	0.111
-489.493	-156.288	-0.077	0.005
-488.478	125.746	-0.157	0.199
-487.464	58.732	0.161	-0.158
-486.449	-71.759	0.101	0.038
-485.435	-24.961	0.173	0.103
-484.420	-44.840	0.131	-0.065
-483.405	-89.362	-0.299	0.088
-482.391	-57.454	0.207	-0.091
-481.376	-200.000	-0.029	-0.142
-480.362	-73.423	0.067	-0.025
-479.347	1.430	-0.129	0.093
-478.332	800.000	-0.023	0.063
-477.318	-39.650	0.357	0.187
-476.303	800.000	-0.062	0.242
-475.289	601.309	0.101	0.251
-474.274	-140.549	-0.093	-0.010
-473.259	800.000	-0.007	0.025
-472.245	3.767	0.141	0.103
-471.230	-79.575	0.258	-0.087
-470.216	-88.004	-0.415	-0.125
-469.201	-200.000	-0.032	-0.181
-468.186	-119.523	-0.095	0.017
-467.172	19.417	-0.068	-0.055
-466.157	56.349	0.160	0.155
-465.143	771.035	0.213	0.580
-464.128	-200.000	-0.015	-0.148
-463.113	-200.000	-0.065	0.298
-462.099	800.000	0.070	0.278
-461.084	304.594	0.119	-0.221
-460.070	759.180	-0.016	-0.043
-459.055	-200.000	-0.008	-0.187
-458.040	-90.679	-0.283	-0.082
-457.026	449.069	0.068	0.150
-456.011	-35.910	-0.222	0.120
-454.997	800.000	-0.049	0.161
-453.982	800.000	-0.034	-0.140
-452.968	214.567	-0.117	0.185
-451.953	-72.839	-0.160	0.059
-450.938	-32.037	-0.174	0.097
-449.924	259.195	0.105	0.181
-448.909	-60.304	-0.219	0.093
-447.895	-1.369	0.085	0.060
-446.880	800.000	0.078	0.241
-445.865	-200.000	0.024	-0.124
-444.851	-111.725	0.073	-0.015
-443.836	-70.850	-0.283	0.107
-442.822	-9.073	0.189	0.127
-441.807	260.380	-0.052	-0.090
-440.792	-200.000	-0.006	0.289
-439.778	-151.739	0.096	0.007
-438.763	-131.592	-0.060	0.008
-437.749	800.000	0.019	-0.078
-436.734	-200.000	-0.052	-0.315
-435.719	49.017	-0.147	-0.138
-434.705	-200.000	-0.038	0.435
-433.690	657.306	-0.024	0.062
-432.676	-160.116	-0.095	0.005
-431.661	263.279	0.081	0.140
-430.646	-26.210	0.344	-0.202
-429.632	-96.157	0.356	0.094
-428.617	136.810	-0.145	0.190
-427.603	-101.319	-0.039	-0.010
-426.588	-200.000	0.001	-0.193
-425.573	-106.253	-0.270	0.060
-424.559	-12.713	-0.058	-0.038
-423.544	410.250	-0.095	-0.202
-422.530	-200.000	0.003	-0.199
-421.515	-200.000	-0.058	0.326
-420.500	165.914	-0.318	-0.449
-419.486	-94.182	-0.327	0.089
-418.471	-83.205	0.230	0.074
-417.457	72.434	0.242	-0.252
-416.442	235.006	0.181	-0.299
-415.428	-62.904	-0.242	-0.100
-414.413	137.865	-0.105	-0.137
-413.398	772.508	-0.171	0.465
-412.384	25.818	-0.189	-0.157
-411.369	299.948	-0.121	-0.223
-410.355	-200.000	0.058	0.330
-409.340	800.000	0.090	0.337
-408.325	438.595	0.114	0.249
-407.311	-44.476	-0.251	-0.125
-406.296	172.961	-0.034	0.049
-405.282	-166.092	0.148	-0.006
-404.267	-80.016	-0.302	-0.101
-403.252	-186.900	0.389	-0.005
-402.238	-45.244	0.281	0.139
-401.223	-172.934	-0.371	-0.011
-400.209	273.362	0.080	-0.142
-399.194	449.062	0.126	0.278
-398.179	90.637	0.154	-0.172
-397.165	154.060	-0.187	0.256
-396.150	92.784	-0.143	0.161
-395.136	-200.000	0.056	0.338
-394.121	-26.139	-0.166	0.097
-393.106	-130.106	0.280	0.038
-392.092	-20.043	0.093	0.057
-391.077	-36.053	0.204	0.110
-390.063	32.848	0.124	-0.107
-389.048	-52.701	0.412	-0.190
-388.033	-25.695	-0.308	-0.181
-387.019	-71.025	-0.091	-0.034
-386.004	-67.562	0.167	0.065
-384.990	48.028	0.122	-0.114
-383.975	58.050	-0.161	0.158
-382.960	284.451	0.110	0.197
-381.946	285.707	-0.168	-0.303
-380.931	-162.035	0.291	0.015
-379.917	223.183	-0.072	-0.116
-378.902	-200.000	0.002	-0.324
-377.888	34.769	0.107	0.094
-376.873	606.334	0.028	0.070
-375.858	122.333	0.111	0.138
-374.844	349.266	-0.137	0.270
-373.829	-200.000	0.033	0.201
-372.815	-66.638	0.138	0.054
-371.800	-200.000	-0.018	0.166
-370.785	680.891	-0.076	0.197
-369.771	46.215	0.166	-0.153
-368.756	-200.000	0.013	-0.235
-367.742	-200.000	0.000	-0.292
-366.727	156.407	0.092	0.127
-365.712	-200.000	0.027	0.186
-364.698	-200.000	-0.020	-0.344
-363.683	188.605	-0.089	0.133
-362.669	-83.491	0.154	0.049
-361.654	-102.520	0.175	0.042
-360.639	67.652	0.028	-0.029
-359.625	-20.991	-0.042	-0.026
-358.610	507.321	0.027	0.063
-357.596	-136.317	-0.218	-0.025
-356.581	628.459	0.069	-0.174
-355.566	-200.000	-0.024	-0.207
-354.552	-200.000	0.051	-0.329
-353.537	154.075	-0.202	-0.276
-352.523	-200.000	-0.041	0.239
-351.508	-200.000	0.003	-0.101
-350.493	-25.539	-0.163	-0.096
-349.479	55.928	-0.238	0.230
-348.464	-200.000	-0.031	-0.209
-347.450	-200.000	0.001	-0.007
-346.435	34.798	0.045	-0.040
-345.420	800.000	0.046	0.128
-344.406	-53.532	-0.148	-0.067
-343.391	12.876	-0.296	0.228
-342.377	165.292	-0.164	0.231
-341.362	-149.495	0.158	-0.012
-340.348	-13.247	-0.038	0.025
-339.333	800.000	0.151	-0.535
-338.318	402.593	-0.071	-0.149
-337.304	-10.529	-0.083	-0.055
-336.289	-62.411	-0.058	-0.024
-335.275	-60.452	-0.353	0.149
-334.260	-41.327	-0.295	0.151
-333.245	245.017	0.131	0.220
-332.231	-155.286	0.043	0.003
-331.216	461.849	-0.098	-0.217
-330.202	179.903	-0.053	-0.078
-329.187	41.553	0.150	0.135
-328.172	32.066	-0.100	0.086
-327.158	56.522	0.077	0.075
-326.143	-72.940	0.552	0.202
-325.129	-114.850	0.324	-0.062
-324.114	-0.756	-0.266	-0.188
-323.099	6.419	0.136	0.101
-322.085	-78.642	-0.306	-0.104
-321.070	-9.030	-0.113	-0.075
-320.056	-84.042	0.103	-0.033
-319.041	-193.953	0.105	0.001
-318.026	333.691	-0.154	-0.296
-317.012	800.000	-0.027	-0.095
-315.997	-200.000	0.014	0.099
-314.983	56.455	-0.094	-0.091
-313.968	800.000	0.079	-0.242
-312.953	1.292	-0.380	-0.271
-311.939	196.735	-0.233	-0.354
-310.924	-200.000	-0.093	-0.423
-309.910	9.742	0.115	0.087
-308.895	-111.309	-0.411	0.084
-307.880	-87.806	0.126	0.038
-306.866	13.231	0.089	0.068
-305.851	575.085	0.054	-0.132
-304.837	83.724	0.123	0.133
-303.822	89.030	-0.177	0.197
-302.807	800.000	-0.040	-0.166
-301.793	-16.774	0.134	0.084
-300.778	-200.000	-0.004	0.082
-299.764	-49.048	-0.265	0.126
-298.749	-171.342	0.134	-0.004
-297.735	-200.000	-0.058	0.286
-296.720	-77.636	0.272	0.094
-295.705	-27.666	0.120	-0.069
-294.691	-20.420	0.370	0.226
-293.676	77.087	0.057	0.060
-292.662	-47.978	-0.308	-0.148
-291.647	-101.519	-0.138	-0.033
-290.632	-45.655	0.127	-0.062
-289.618	23.704	-0.256	-0.209
-288.603	213.962	-0.280	-0.440
-287.589	-18.606	0.244	0.151
-286.574	100.581	-0.233	0.269
-285.559	131.233	-0.149	-0.190
-284.545	-44.409	0.170	0.084
-283.530	66.384	-0.186	-0.188
-282.516	800.000	0.083	-0.359
-281.501	-98.588	-0.380	0.096
-280.486	377.875	0.113	0.229
-279.472	-30.088	0.225	0.127
-278.457	194.159	-0.236	0.355
-277.443	18.649	0.594	-0.472
-276.428	-117.836	-0.132	0.024
-275.413	8.583	-0.176	-0.132
-274.399	403.386	0.112	0.233
-273.384	-23.213	-0.016	-0.010
-272.370	-200.000	0.052	0.289
-271.355	124.813	0.215	-0.269
-270.340	-136.521	0.349	0.040
-269.326	9.026	0.094	0.070
-268.311	236.567	0.059	0.097
-267.297	189.529	0.287	0.427
-266.282	-200.000	0.024	0.195
-265.267	178.465	0.094	-0.136
-264.253	467.743	-0.108	0.241
-263.238	-200.000	0.016	-0.308
-262.224	-200.000	0.028	0.136
-261.209	54.155	0.118	-0.112
-260.195	103.284	0.023	0.027
-259.180	-30.210	-0.025	-0.014
-258.165	-200.000	-0.055	-0.246
-257.151	-96.248	0.114	0.030
-256.136	-200.000	-0.030	-0.417
-255.122	-71.943	-0.332	0.123
-254.107	-73.788	-0.331	0.119
-253.092	-42.205	-0.028	-0.014
-252.078	457.268	0.053	0.117
-251.063	699.940	0.047	-0.122
-250.049	57.737	-0.154	-0.150
-249.034	-200.000	0.014	-0.214
-248.019	-170.989	-0.148	0.005
-247.005	-138.292	0.139	0.015
-245.990	79.491	-0.211	0.225
-244.976	752.646	-0.093	0.248
-243.961	168.908	0.237	-0.335
-242.946	800.000	-0.070	0.217
-241.932	-47.401	-0.277	0.134
-240.917	121.722	0.218	-0.269
-239.903	24.361	-0.339	0.278
-238.888	84.878	0.051	0.055
-237.873	28.641	-0.074	0.062
-236.859	-33.683	0.053	-0.029
-235.844	-92.065	-0.179	0.050
-234.830	230.207	-0.085	0.137
-233.815	-200.000	0.002	0.024
-232.800	-41.064	0.267	0.137
-231.786	604.075	-0.048	0.119
-230.771	800.000	0.044	0.146
-229.757	95.653	0.120	0.136
-228.742	-85.974	-0.154	0.047
-227.727	-200.000	0.006	0.067
-226.713	160.156	0.039	-0.054
-225.698	-16.021	-0.302	0.191
-224.684	-10.174	-0.077	-0.051
-223.669	800.000	-0.066	-0.202
-222.655	800.000	0.048	0.135
-221.640	-200.000	0.046	0.376
-220.625	116.352	0.133	-0.162
-219.611	-45.195	-0.109	0.054
-218.596	12.881	0.260	0.199
-217.582	264.072	0.095	0.163
-216.567	-15.137	0.257	0.163
-215.552	-200.000	-0.018	0.111
-214.538	-16.130	0.079	0.050
-213.523	-145.558	0.262	-0.023
-212.509	-200.000	-0.037	0.477
-211.494	-176.667	0.081	0.002
-210.479	-33.359	-0.033	-0.018
-209.465	754.681	0.175	-0.469
-208.450	-49.545	-0.180	-0.085
-207.436	-57.774	0.106	-0.046
-206.421	300.373	-0.081	-0.147
-205.406	-200.000	-0.062	0.268
-204.392	-100.270	-0.073	0.018
-203.377	54.327	0.195	0.186
-202.363	-87.014	0.242	0.073
-201.348	-45.687	0.302	-0.148
-200.333	75.803	-0.146	0.153
-199.319	355.272	0.039	0.078
-198.304	95.243	-0.191	-0.215
-197.290	268.388	-0.154	0.267
-196.275	90.915	0.158	0.175
-195.260	-26.307	-0.076	0.044
-194.246	361.509	-0.088	0.175
-193.231	800.000	0.084	0.360
-192.217	40.955	0.069	0.062
-191.202	-6.267	-0.268	0.181
-190.187	-59.120	0.301	-0.128
-189.173	-21.996	0.014	-0.008
-188.158	699.860	0.145	-0.377
-187.144	-98.336	-0.077	-0.019
-186.129	-48.954	0.126	0.060
-185.114	263.650	-0.084	-0.144
-184.100	-113.209	-0.245	-0.048
-183.085	-200.000	0.042	0.525
-182.071	-77.752	0.077	0.026
-181.056	-135.060	0.228	-0.027
-180.042	-19.641	-0.211	-0.129
-179.027	800.000	0.055	0.207
-178.012	-200.000	-0.033	0.225
-176.998	511.148	-0.111	0.255
-175.983	760.477	-0.084	0.226
-174.969	-8.506	0.264	-0.176
-173.954	-43.434	0.170	-0.085
-172.939	-200.000	0.003	0.138
-171.925	-200.000	0.037	0.187
-170.910	-60.590	0.292	-0.122
-169.896	-74.756	0.215	-0.077
-168.881	10.233	-0.199	-0.149
-167.866	167.254	-0.262	-0.367
-166.852	67.875	0.210	0.213
-165.837	-36.677	-0.325	-0.173
-164.823	-126.005	0.064	-0.010
-163.808	148.725	-0.123	-0.165
-162.793	53.369	0.021	0.020
-161.779	800.000	-0.075	-0.319
-160.764	800.000	-0.072	-0.266
-159.750	800.000	0.115	-0.348
-158.735	64.150	0.161	-0.160
-157.720	800.000	-0.089	-0.334
-156.706	-9.667	0.188	-0.124
-155.691	-200.000	0.034	-0.340
-154.677	-107.000	0.307	0.067
-153.662	-200.000	0.018	0.256
-152.647	-45.505	0.153	-0.075
-151.633	78.253	-0.127	0.134
-150.618	-106.753	0.347	0.076
-149.604	-159.596	-0.017	-0.001
-148.589	-163.799	-0.147	0.007
-147.574	78.913	0.247	0.261
-146.560	800.000	0.020	0.076
-145.545	-102.042	-0.256	0.061
-144.531	138.283	0.129	0.167
-143.516	775.564	-0.150	0.405
-142.502	-157.508	0.300	-0.018
-141.487	121.166	-0.217	0.266
-140.472	-129.897	-0.188	0.025
-139.458	101.087	-0.052	0.060
-138.443	-124.921	-0.219	0.033
-137.429	-200.000	0.010	-0.045
-136.414	36.915	-0.293	0.256
-135.399	-164.492	-0.258	-0.012
-134.385	101.947	0.050	-0.058
-133.370	-14.257	0.208	-0.132
-132.356	-27.758	0.314	0.180
-131.341	-62.109	-0.231	0.095
-130.326	-94.895	0.227	-0.061
-129.312	226.794	0.096	0.155
-128.297	-11.163	0.222	-0.144
-127.283	23.335	0.240	0.195
-126.268	316.274	0.155	0.288
-125.253	-57.320	-0.326	0.142
-124.239	-200.000	0.002	0.059
-123.224	323.301	-0.060	0.114
-122.210	-26.594	0.070	-0.040
-121.195	63.446	0.103	-0.102
-120.180	-167.811	-0.206	-0.008
