DTS Sentinel unit serial number:	SN413079Multiplexer serial number:	ORYXHardware model number:	OX4-SRSoftware version number:	ORYX F/W v4.00 Oryx Data Collector v3.7.2.0data status	okinstallation	princeton_trtdifferential loss correction	single-endedforward channel	channel 4reverse channel	N/Adate	2019/09/15time	00:33:35forward acquisition time	60.00reverse acquisition time	0.00gamma	496.2192k internal	0.2306k external	0.2306temperature offset calibration	1.0043default loss term (dB/km)	0.3790temperature slope calibration	1.0000multiplexer offset coefficient	1.0000multiplexer slope coefficient	1.0000fibre end	0.00T internal ref (°C)	32.12T ext. ref 1 (°C)	4.57T ext. ref 2 (°C)	27.15length (m)	temperature (°C)	Stokes	anti-Stokes-747.200	388.350	-0.080	0.167
-746.185	697.670	0.111	0.297
-745.171	-200.000	-0.015	0.101
-744.156	-200.000	-0.012	0.107
-743.142	-91.263	-0.161	-0.047
-742.127	556.184	0.097	-0.238
-741.112	431.718	0.158	0.349
-740.098	-21.744	0.167	-0.104
-739.083	198.339	-0.123	-0.192
-738.069	-75.193	-0.098	-0.035
-737.054	-133.751	0.125	-0.016
-736.039	-200.000	0.055	-0.470
-735.025	28.379	0.123	0.106
-734.010	360.797	-0.126	-0.256
-732.996	325.643	-0.147	0.287
-731.981	-88.945	-0.139	0.042
-730.966	52.469	0.048	0.046
-729.952	-30.093	-0.171	-0.099
-728.937	158.063	-0.075	0.105
-727.923	12.634	-0.140	0.110
-726.908	347.078	0.059	-0.119
-725.894	800.000	0.063	0.214
-724.879	-85.972	0.267	-0.084
-723.864	531.720	-0.128	-0.309
-722.850	-200.000	-0.046	0.290
-721.835	-86.210	0.102	-0.032
-720.821	286.543	0.052	-0.095
-719.806	113.618	-0.286	-0.353
-718.791	-200.000	0.041	-0.398
-717.777	-43.315	-0.227	0.117
-716.762	-200.000	0.037	0.196
-715.748	755.003	0.063	0.172
-714.733	-164.555	0.306	-0.014
-713.718	-200.000	-0.022	-0.129
-712.704	-78.739	0.185	0.064
-711.689	800.000	-0.083	-0.335
-710.675	800.000	-0.047	-0.196
-709.660	-138.647	-0.255	-0.028
-708.645	-52.120	-0.406	-0.191
-707.631	-58.256	-0.265	-0.117
-706.616	-200.000	0.005	-0.193
-705.602	436.056	0.018	-0.039
-704.587	202.299	-0.086	0.134
-703.572	21.866	-0.045	0.038
-702.558	-200.000	-0.052	-0.306
-701.543	-68.674	0.256	-0.101
-700.529	-22.828	0.040	0.024
-699.514	800.000	0.118	-0.410
-698.499	83.390	-0.332	0.368
-697.485	-144.305	0.221	0.021
-696.470	-19.311	-0.174	-0.110
-695.456	171.933	-0.108	-0.158
-694.441	-6.851	-0.179	0.124
-693.426	-111.718	0.215	0.044
-692.412	800.000	-0.072	-0.219
-691.397	-200.000	0.017	-0.364
-690.383	-88.223	-0.190	-0.058
-689.368	58.328	0.183	0.182
-688.354	-200.000	0.072	-0.455
-687.339	103.693	0.139	-0.166
-686.324	-6.591	-0.182	0.126
-685.310	174.851	-0.103	-0.151
-684.295	-74.355	-0.290	0.106
-683.281	-200.000	-0.018	0.155
-682.266	-107.065	-0.176	-0.039
-681.251	-21.277	-0.135	-0.083
-680.237	58.544	-0.130	-0.129
-679.222	800.000	0.066	0.202
-678.208	-47.291	-0.136	0.067
-677.193	800.000	0.009	0.034
-676.178	-74.396	-0.273	-0.100
-675.164	-51.559	-0.286	0.135
-674.149	-89.690	0.184	-0.055
-673.135	-5.825	0.064	0.045
-672.120	-85.168	0.196	-0.062
-671.105	61.873	-0.200	0.202
-670.091	-95.992	-0.139	-0.038
-669.076	-29.910	0.187	0.108
-668.062	768.111	0.048	-0.132
-667.047	143.261	-0.272	-0.367
-666.032	-141.234	0.109	0.011
-665.018	-180.992	-0.085	0.002
-664.003	-200.000	0.011	0.219
-662.989	800.000	-0.083	0.237
-661.974	23.323	0.152	-0.127
-660.959	-112.504	-0.348	-0.070
-659.945	-21.605	0.126	-0.078
-658.930	13.363	0.240	-0.189
-657.916	800.000	0.028	-0.097
-656.901	227.989	-0.056	0.092
-655.886	-200.000	-0.055	-0.269
-654.872	78.664	0.115	0.125
-653.857	186.177	-0.127	-0.191
-652.843	14.716	0.285	-0.226
-651.828	14.765	-0.133	-0.106
-650.814	132.498	0.026	-0.034
-649.799	-8.203	-0.361	-0.246
-648.784	-14.289	0.266	0.174
-647.770	-20.834	-0.148	0.092
-646.755	-54.591	-0.173	-0.079
-645.741	-117.690	0.236	-0.043
-644.726	-1.853	0.169	-0.120
-643.711	-116.580	-0.234	-0.044
-642.697	-200.000	0.033	-0.190
-641.682	-2.698	-0.195	0.138
-640.668	-149.401	0.252	0.020
-639.653	104.518	-0.137	-0.164
-638.638	-77.353	-0.085	-0.030
-637.624	-70.991	0.291	-0.111
-636.609	689.304	-0.102	-0.270
-635.595	553.371	-0.047	-0.114
-634.580	87.200	-0.110	-0.123
-633.565	-13.160	0.191	-0.126
-632.551	-143.917	-0.064	-0.006
-631.536	300.661	-0.060	0.113
-630.522	410.806	0.084	-0.179
-629.507	-107.901	-0.161	-0.035
-628.492	-158.962	0.266	-0.015
-627.478	-3.148	-0.207	-0.146
-626.463	-44.229	0.192	-0.098
-625.449	-97.178	-0.130	0.034
-624.434	-200.000	-0.010	-0.336
-623.419	3.307	-0.087	0.064
-622.405	-84.210	-0.248	0.080
-621.390	303.329	-0.107	-0.201
-620.376	147.568	-0.244	-0.332
-619.361	9.941	0.205	-0.158
-618.346	-110.346	-0.193	0.041
-617.332	-47.673	-0.466	-0.229
-616.317	269.122	0.064	0.113
-615.303	352.252	-0.151	-0.303
-614.288	1.439	0.089	0.065
-613.273	800.000	0.061	0.207
-612.259	800.000	-0.112	-0.326
-611.244	800.000	-0.075	0.326
-610.230	139.274	0.174	0.232
-609.215	74.912	0.047	-0.050
-608.201	1.010	0.487	-0.354
-607.186	53.997	-0.193	-0.188
-606.171	-84.193	0.166	0.053
-605.157	-54.648	0.039	0.018
-604.142	656.530	-0.081	-0.211
-603.128	-6.258	-0.232	-0.160
-602.113	-109.569	-0.059	-0.013
-601.098	103.754	-0.198	0.235
-600.084	-200.000	-0.022	0.181
-599.069	800.000	0.097	-0.301
-598.055	424.281	0.158	0.343
-597.040	800.000	-0.082	-0.230
-596.025	-133.595	-0.241	0.030
-595.011	292.589	-0.051	-0.094
-593.996	-15.375	0.029	-0.019
-592.982	-74.686	-0.393	0.143
-591.967	-200.000	-0.018	0.197
-590.952	371.747	0.080	0.163
-589.938	22.777	0.068	0.056
-588.923	48.170	-0.062	0.059
-587.909	-200.000	0.003	0.304
-586.894	-200.000	-0.048	0.484
-585.879	104.233	0.122	0.146
-584.865	-200.000	0.016	0.185
-583.850	-177.651	-0.089	0.002
-582.836	75.958	-0.147	-0.157
-581.821	-93.616	0.126	0.035
-580.806	-82.882	0.118	0.039
-579.792	-58.003	-0.029	-0.013
-578.777	-200.000	0.000	0.219
-577.763	-35.999	-0.141	-0.077
-576.748	299.582	0.045	-0.083
-575.733	-64.325	-0.108	-0.044
-574.719	-170.513	0.215	-0.008
-573.704	-130.168	-0.032	-0.004
-572.690	-200.000	0.028	-0.170
-571.675	-21.715	0.125	-0.077
-570.661	105.503	0.202	0.241
-569.646	121.635	-0.133	0.168
-568.631	24.726	-0.019	-0.016
-567.617	212.715	-0.187	0.299
-566.602	742.829	-0.056	0.153
-565.588	-89.744	-0.222	-0.066
-564.573	37.507	0.266	0.238
-563.558	233.203	0.117	-0.195
-562.544	59.524	0.157	0.157
-561.529	-29.968	-0.183	0.106
-560.515	412.044	0.083	-0.179
-559.500	-100.976	-0.325	0.081
-558.485	-38.683	-0.376	-0.200
-557.471	50.658	0.173	0.166
-556.456	-200.000	-0.022	-0.187
-555.442	800.000	0.059	-0.248
-554.427	-15.724	-0.170	-0.109
-553.412	800.000	0.109	-0.336
-552.398	-200.000	0.055	-0.253
-551.383	-85.993	-0.011	-0.003
-550.369	-68.104	-0.193	-0.076
-549.354	49.240	-0.114	-0.108
-548.339	460.892	-0.194	-0.436
-547.325	-178.392	0.288	0.007
-546.310	-155.994	-0.215	0.014
-545.296	-131.110	0.202	-0.027
-544.281	144.567	0.164	-0.221
-543.266	126.474	0.124	0.158
-542.252	52.909	0.244	-0.236
-541.237	-115.482	-0.163	0.031
-540.223	-74.511	0.157	0.057
-539.208	599.694	0.164	0.411
-538.193	-105.234	-0.206	-0.047
-537.179	800.000	-0.103	0.379
-536.164	-74.676	0.133	0.048
-535.150	-113.251	0.041	-0.008
-534.135	20.032	-0.122	-0.099
-533.121	62.809	-0.028	-0.028
-532.106	41.379	0.148	-0.135
-531.091	-5.083	0.264	0.183
-530.077	-200.000	0.009	-0.040
-529.062	800.000	0.126	0.370
-528.048	19.673	-0.123	0.100
-527.033	120.122	-0.119	-0.149
-526.018	697.734	-0.124	0.328
-525.004	129.200	-0.152	-0.196
-523.989	-200.000	-0.025	0.115
-522.975	-150.808	-0.229	-0.018
-521.960	6.316	0.079	-0.059
-520.945	104.197	0.050	-0.059
-519.931	-56.310	-0.256	0.115
-518.916	324.139	-0.128	-0.246
-517.902	-110.919	0.186	-0.039
-516.887	-200.000	-0.019	0.419
-515.872	80.616	0.127	-0.138
-514.858	-200.000	0.017	0.266
-513.843	-77.886	-0.088	0.031
-512.829	-29.336	0.054	0.031
-511.814	-116.194	0.193	0.036
-510.799	-1.075	0.227	-0.162
-509.785	-26.561	-0.147	0.087
-508.770	-117.718	-0.242	-0.044
-507.756	247.392	0.104	-0.177
-506.741	89.529	-0.204	-0.229
-505.726	7.517	0.200	-0.151
-504.712	135.695	0.041	-0.054
-503.697	393.949	0.025	-0.052
-502.683	800.000	-0.019	-0.055
-501.668	-60.817	0.117	0.050
-500.653	-41.047	-0.061	0.032
-499.639	-200.000	0.058	0.293
-498.624	-128.335	0.155	-0.022
-497.610	-200.000	-0.022	-0.283
-496.595	800.000	0.054	0.160
-495.581	-9.472	-0.037	0.025
-494.566	84.827	0.227	0.250
-493.551	87.638	0.073	0.081
-492.537	53.534	-0.280	0.271
-491.522	-108.590	-0.123	-0.027
-490.508	-6.790	0.024	-0.016
-489.493	-200.000	-0.066	-0.407
-488.478	-31.345	0.263	-0.149
-487.464	226.594	0.206	0.337
-486.449	23.014	-0.072	-0.059
-485.435	108.990	-0.248	0.298
-484.420	-147.104	-0.124	-0.011
-483.405	-199.286	-0.218	0.001
-482.391	55.631	0.349	-0.340
-481.376	-56.069	-0.135	0.061
-480.362	96.750	0.163	0.188
-479.347	464.586	0.076	-0.171
-478.332	-154.295	-0.184	-0.012
-477.318	-143.616	0.233	-0.022
-476.303	88.952	0.163	0.183
-475.289	56.677	-0.181	0.177
-474.274	-21.132	0.249	0.153
-473.259	-29.997	0.173	-0.099
-472.245	-52.643	-0.082	0.038
-471.230	-88.772	0.063	0.019
-470.216	-3.903	0.352	-0.246
-469.201	108.804	0.107	-0.129
-468.186	-123.066	-0.059	0.010
-467.172	-36.035	0.270	-0.147
-466.157	-40.643	0.321	0.167
-465.143	-200.000	0.015	0.144
-464.128	-200.000	0.042	-0.208
-463.113	800.000	0.085	0.357
-462.099	-79.607	0.135	0.046
-461.084	-135.967	0.186	0.022
-460.070	800.000	0.050	-0.212
-459.055	-200.000	0.001	0.062
-458.040	-87.871	0.024	-0.007
-457.026	219.785	-0.196	0.316
-456.011	-50.621	0.028	0.013
-454.997	-200.000	0.004	-0.322
-453.982	-6.056	0.131	0.090
-452.968	482.911	0.065	0.150
-451.953	-141.857	-0.355	0.036
-450.938	-146.544	-0.200	-0.018
-449.924	76.844	0.085	-0.091
-448.909	-139.942	-0.381	0.040
-447.895	-80.089	-0.415	0.140
-446.880	646.325	0.064	0.165
-445.865	-200.000	0.000	0.043
-444.851	-80.509	-0.075	-0.025
-443.836	109.916	-0.090	0.109
-442.822	23.133	-0.147	-0.121
-441.807	609.658	0.168	-0.423
-440.792	-92.978	0.258	-0.072
-439.778	62.930	-0.163	-0.164
-438.763	192.512	-0.212	-0.321
-437.749	179.436	-0.250	-0.368
-436.734	-120.880	0.170	0.029
-435.719	800.000	0.111	-0.353
-434.705	-200.000	0.001	-0.082
-433.690	312.353	0.121	-0.229
-432.676	-149.720	0.307	0.024
-431.661	535.716	-0.049	-0.116
-430.646	481.883	-0.075	-0.171
-429.632	-132.260	0.207	0.027
-428.617	-200.000	0.007	0.228
-427.603	-156.965	0.209	0.013
-426.588	-200.000	-0.005	0.185
-425.573	-50.381	0.046	0.022
-424.559	148.919	0.150	0.204
-423.544	-200.000	0.033	-0.218
-422.530	604.741	-0.030	0.074
-421.515	33.759	-0.044	0.039
-420.500	-22.912	-0.174	0.106
-419.486	800.000	-0.048	-0.178
-418.471	-200.000	-0.057	-0.273
-417.457	277.147	0.103	-0.184
-416.442	-163.903	0.126	0.006
-415.428	65.282	-0.188	-0.191
-414.413	-137.236	0.170	0.019
-413.398	-11.284	-0.403	0.266
-412.384	-82.192	0.152	0.050
-411.369	-24.492	0.220	0.132
-410.355	-103.082	0.067	0.016
-409.340	-76.588	0.153	0.054
-408.325	-36.293	-0.246	0.133
-407.311	274.104	0.098	0.174
-406.296	5.450	0.215	0.159
-405.282	23.727	-0.170	-0.140
-404.267	-200.000	-0.060	-0.326
-403.252	-98.241	0.425	-0.110
-402.238	-122.385	-0.095	-0.016
-401.223	249.444	0.055	0.094
-400.209	0.643	-0.340	-0.244
-399.194	-200.000	0.005	0.170
-398.179	-0.908	-0.310	-0.220
-397.165	-101.106	-0.293	-0.072
-396.150	91.644	-0.224	-0.252
-395.136	298.156	0.067	0.123
-394.121	800.000	-0.063	-0.189
-393.106	509.686	-0.053	-0.123
-392.092	57.171	0.059	0.058
-391.077	800.000	-0.070	-0.215
-390.063	-114.428	0.196	0.038
-389.048	-200.000	-0.014	0.078
-388.033	800.000	0.036	0.119
-387.019	307.174	-0.139	0.259
-386.004	800.000	-0.082	0.293
-384.990	84.406	0.091	-0.100
-383.975	-68.127	0.204	0.080
-382.960	-200.000	-0.013	-0.259
-381.946	230.773	-0.078	-0.128
-380.931	-56.826	-0.064	0.028
-379.917	800.000	0.096	0.420
-378.902	236.076	0.099	0.165
-377.888	-200.000	0.009	0.191
-376.873	800.000	-0.036	-0.114
-375.858	-200.000	0.005	-0.042
-374.844	-200.000	-0.006	-0.146
-373.829	596.369	0.077	0.190
-372.815	800.000	0.073	-0.264
-371.800	127.939	-0.229	0.292
-370.785	97.149	-0.102	0.117
-369.771	800.000	-0.044	0.157
-368.756	20.098	-0.217	0.175
-367.742	193.057	0.250	-0.378
-366.727	-176.691	-0.137	0.004
-365.712	98.614	0.208	-0.240
-364.698	202.594	-0.140	-0.217
-363.683	-62.471	-0.122	0.051
-362.669	-144.021	0.129	0.012
-361.654	4.836	-0.219	0.162
-360.639	272.358	0.070	0.123
-359.625	656.495	-0.089	0.229
-358.610	61.379	-0.086	-0.086
-357.596	-82.729	0.284	0.092
-356.581	525.417	0.052	0.122
-355.566	-95.815	-0.197	0.053
-354.552	313.685	-0.086	-0.162
-353.537	57.949	0.057	0.056
-352.523	-51.483	0.069	-0.032
-351.508	800.000	-0.052	-0.189
-350.493	-125.812	0.340	0.051
-349.479	159.739	-0.193	-0.269
-348.464	-83.360	0.070	0.023
-347.450	565.222	-0.048	-0.118
-346.435	-84.684	0.029	-0.009
-345.420	111.434	-0.072	0.086
-344.406	151.575	0.038	0.051
-343.391	-79.721	-0.083	-0.028
-342.377	-4.105	0.066	0.046
-341.362	690.786	0.044	0.116
-340.348	-200.000	-0.023	-0.112
-339.333	65.877	-0.296	0.301
-338.318	-27.505	-0.233	0.135
-337.304	-200.000	-0.009	0.109
-336.289	-24.887	0.304	0.181
-335.275	133.633	0.036	-0.047
-334.260	55.413	-0.153	-0.148
-333.245	224.149	0.169	-0.274
-332.231	-35.043	0.122	0.066
-331.216	800.000	0.088	0.316
-330.202	-200.000	0.002	0.048
-329.187	-78.479	0.211	-0.072
-328.172	256.926	-0.282	0.486
-327.158	781.713	0.011	0.031
-326.143	151.921	-0.097	0.132
-325.129	-142.564	0.208	0.020
-324.114	-200.000	0.017	-0.134
-323.099	800.000	0.058	-0.180
-322.085	-47.275	-0.326	-0.159
-321.070	38.935	-0.345	0.308
-320.056	-2.793	-0.186	0.130
-319.041	542.481	-0.106	-0.252
-318.026	800.000	-0.053	-0.181
-317.012	137.740	0.287	-0.376
-315.997	134.651	0.111	-0.144
-314.983	-25.311	-0.183	-0.108
-313.968	60.550	-0.195	-0.193
-312.953	-123.675	-0.243	0.039
-311.939	-175.142	-0.245	0.007
-310.924	-200.000	-0.041	-0.229
-309.910	-200.000	0.002	0.084
-308.895	-82.286	0.207	0.067
-307.880	33.047	-0.167	-0.145
-306.866	-200.000	0.398	-0.002
-305.851	17.077	-0.291	0.230
-304.837	284.284	-0.211	0.380
-303.822	67.518	0.240	-0.245
-302.807	-200.000	-0.041	-0.198
-301.793	-200.000	-0.037	-0.268
-300.778	69.061	0.062	0.064
-299.764	26.080	-0.098	0.082
-298.749	-123.446	-0.180	0.029
-297.735	187.656	0.120	0.179
-296.720	-200.000	0.004	0.245
-295.705	56.203	0.135	0.131
-294.691	-92.548	-0.251	-0.071
-293.676	244.727	-0.201	0.338
-292.662	629.247	-0.017	-0.042
-291.647	-11.270	-0.165	0.109
-290.632	159.134	-0.200	-0.278
-289.618	437.505	-0.055	0.119
-288.603	224.255	0.144	0.233
-287.589	30.050	-0.111	0.095
-286.574	-171.089	-0.176	-0.006
-285.559	-104.725	0.247	0.057
-284.545	-103.719	0.265	0.062
-283.530	-84.605	-0.203	-0.064
-282.516	-200.000	0.024	0.233
-281.501	659.068	-0.023	-0.059
-280.486	-80.309	-0.075	0.025
-279.472	171.751	0.109	-0.156
-278.457	44.170	0.101	-0.093
-277.443	-82.300	0.269	0.088
-276.428	-87.011	0.180	0.055
-275.413	-113.148	0.083	0.016
-274.399	-164.082	0.193	-0.009
-273.384	-70.147	-0.147	-0.056
-272.370	-61.841	-0.330	-0.138
-271.355	84.919	-0.048	-0.053
-270.340	-60.638	-0.393	0.166
-269.326	55.025	0.195	0.188
-268.311	395.681	-0.171	-0.355
-267.297	44.811	-0.135	-0.124
-266.282	800.000	0.048	-0.156
-265.267	-14.276	0.263	-0.169
-264.253	-34.557	0.112	0.061
-263.238	-50.692	0.094	-0.044
-262.224	8.876	0.160	0.120
-261.209	-74.624	0.172	0.062
-260.195	-195.591	0.119	0.001
-259.180	-169.423	0.394	-0.014
-258.165	103.890	0.218	0.255
-257.151	-131.770	0.568	0.074
-256.136	765.970	0.061	0.167
-255.122	23.973	-0.094	-0.077
-254.107	-24.673	0.354	0.210
-253.092	20.087	0.089	0.071
-252.078	-164.509	0.192	0.009
-251.063	80.638	0.152	0.164
-250.049	28.674	-0.241	-0.203
-249.034	178.149	-0.086	-0.125
-248.019	800.000	0.135	-0.540
-247.005	-66.114	0.085	0.034
-245.990	-15.845	0.286	0.182
-244.976	27.937	-0.077	-0.065
-243.961	-6.102	0.158	0.108
-242.946	-76.026	0.210	0.074
-241.932	27.671	0.204	0.171
-240.917	800.000	0.104	-0.300
-239.903	800.000	-0.047	-0.204
-238.888	-200.000	-0.014	0.107
-237.873	156.946	0.085	-0.117
-236.859	-35.783	0.251	0.136
-235.844	62.552	0.133	-0.132
-234.830	-36.306	0.132	-0.071
-233.815	6.108	0.211	-0.156
-232.800	-156.430	0.095	0.006
-231.786	149.327	0.197	0.266
-230.771	-119.529	-0.376	0.065
-229.757	-200.000	0.007	-0.095
-228.742	-42.522	-0.176	-0.089
-227.727	-102.047	-0.456	0.110
-226.713	-66.217	-0.164	0.065
-225.698	-141.727	0.166	-0.017
-224.684	237.573	-0.061	-0.101
-223.669	7.588	-0.124	-0.092
-222.655	51.370	0.086	-0.082
-221.640	92.126	-0.169	-0.189
-220.625	-200.000	-0.062	0.325
-219.611	321.551	0.176	0.333
-218.596	712.786	0.080	-0.211
-217.582	800.000	-0.090	-0.331
-216.567	-127.244	-0.128	-0.019
-215.552	-200.000	-0.034	0.188
-214.538	800.000	-0.075	0.216
-213.523	-26.692	0.248	0.145
-212.509	-51.014	-0.229	-0.107
-211.494	-153.842	0.230	0.016
-210.479	591.888	-0.068	-0.168
-209.465	800.000	0.034	-0.102
-208.450	800.000	0.041	-0.145
-207.436	-75.176	-0.266	0.095
-206.421	-77.804	0.196	0.067
-205.406	237.964	0.094	-0.156
-204.392	800.000	-0.097	0.278
-203.377	98.073	0.057	-0.065
-202.363	7.339	-0.308	-0.229
-201.348	-126.131	-0.265	-0.040
-200.333	800.000	-0.048	0.164
-199.319	-200.000	0.018	0.083
-198.304	98.548	-0.047	0.054
-197.290	-17.755	0.116	-0.072
-196.275	-200.000	-0.034	0.234
-195.260	71.952	-0.134	0.138
-194.246	800.000	0.031	-0.119
-193.231	-32.220	0.214	0.119
-192.217	135.963	-0.064	-0.083
-191.202	800.000	-0.042	0.153
-190.187	-134.635	-0.102	-0.012
-189.173	122.797	0.149	0.186
-188.158	-79.958	-0.297	0.099
-187.144	-200.000	0.013	0.237
-186.129	345.139	0.054	-0.106
-185.114	-179.817	0.188	-0.004
-184.100	34.757	0.140	0.122
-183.085	67.103	-0.262	0.266
-182.071	-146.107	-0.249	-0.022
-181.056	-129.119	0.203	0.028
-180.042	99.092	-0.126	0.145
-179.027	-51.467	-0.124	0.058
-178.012	103.067	-0.193	-0.225
-176.998	138.474	-0.183	-0.239
-175.983	800.000	0.118	0.370
-174.969	130.323	0.090	-0.115
-173.954	20.774	0.144	-0.116
-172.939	-200.000	0.003	-0.058
-171.925	-200.000	-0.061	0.366
-170.910	113.457	0.045	0.054
-169.896	26.826	-0.140	0.117
-168.881	-200.000	0.033	0.221
-167.866	-27.328	0.174	-0.101
-166.852	134.335	0.058	0.075
-165.837	223.659	0.078	-0.125
-164.823	-104.638	0.234	0.054
-163.808	-88.017	-0.112	0.033
-162.793	-156.207	0.152	-0.010
-161.779	162.843	-0.111	0.154
-160.764	232.615	0.115	-0.188
-159.750	-68.776	-0.246	0.095
-158.735	-82.759	0.337	0.108
-157.720	-97.698	-0.273	0.070
-156.706	-170.107	0.089	-0.003
-155.691	-30.364	0.215	0.121
-154.677	211.686	-0.114	-0.179
-153.662	-12.232	-0.153	0.099
-152.647	800.000	0.025	0.080
-151.633	73.597	0.165	-0.172
-150.618	365.875	0.055	0.111
-149.604	434.022	-0.030	0.066
-148.589	127.903	0.211	0.266
-147.574	-87.233	-0.073	-0.022
-146.560	-57.781	-0.086	-0.037
-145.545	296.651	0.142	-0.258
-144.531	800.000	0.066	-0.190
-143.516	66.853	0.228	-0.231
-142.502	764.975	0.044	-0.118
-141.487	-29.453	-0.028	-0.016
-140.472	-129.977	0.338	-0.046
-139.458	-200.000	-0.038	0.183
-138.443	-109.437	0.161	0.034
-137.429	-83.872	-0.176	0.056
-136.414	162.533	-0.157	-0.219
-135.399	-33.540	0.085	-0.047
-134.385	169.774	-0.113	0.161
-133.370	-200.000	-0.034	-0.428
-132.356	800.000	0.035	-0.105
-131.341	413.443	-0.085	0.180
-130.326	-105.303	-0.418	0.095
-129.312	116.816	0.097	-0.118
-128.297	-200.000	-0.007	0.316
-127.283	-200.000	-0.003	-0.015
-126.268	-200.000	0.050	0.224
-125.253	-200.000	0.027	0.236
-124.239	236.277	0.106	0.174
-123.224	-136.206	-0.324	0.038
-122.210	-51.783	0.114	-0.053
-121.195	-45.961	0.157	-0.077
-120.180	561.148	0.051	0.122
