DTS Sentinel unit serial number:	SN413079Multiplexer serial number:	ORYXHardware model number:	OX4-SRSoftware version number:	ORYX F/W v4.00 Oryx Data Collector v3.7.2.0data status	okinstallation	princeton_trtdifferential loss correction	single-endedforward channel	channel 4reverse channel	N/Adate	2019/09/15time	13:21:34forward acquisition time	60.00reverse acquisition time	0.00gamma	496.2192k internal	0.2292k external	0.2292temperature offset calibration	0.9999default loss term (dB/km)	0.3790temperature slope calibration	1.0000multiplexer offset coefficient	1.0000multiplexer slope coefficient	1.0000fibre end	0.00T internal ref (°C)	37.31T ext. ref 1 (°C)	4.93T ext. ref 2 (°C)	34.22length (m)	temperature (°C)	Stokes	anti-Stokes-747.200	-200.000	-0.005	0.117
-746.185	302.903	-0.275	0.521
-745.171	280.651	0.181	0.332
-744.156	-84.190	-0.040	0.013
-743.142	-127.395	0.141	0.021
-742.127	800.000	-0.054	0.199
-741.112	-17.164	0.121	-0.078
-740.098	146.816	-0.167	0.229
-739.083	-200.000	-0.008	-0.191
-738.069	398.704	0.199	0.426
-737.054	37.974	0.239	0.217
-736.039	338.139	-0.096	-0.190
-735.025	190.186	-0.211	-0.324
-734.010	-105.099	-0.349	-0.082
-732.996	-52.886	0.271	0.128
-731.981	-78.682	0.125	0.044
-730.966	667.324	-0.045	0.120
-729.952	327.478	-0.120	0.235
-728.937	-179.473	-0.067	-0.002
-727.923	76.370	-0.102	0.110
-726.908	-7.079	-0.164	-0.114
-725.894	-27.315	0.400	-0.238
-724.879	-5.727	-0.034	-0.024
-723.864	-134.232	-0.531	-0.067
-722.850	-73.088	-0.283	0.106
-721.835	-50.809	-0.136	0.065
-720.821	0.756	0.205	-0.150
-719.806	-200.000	0.006	-0.359
-718.791	-130.619	-0.030	-0.004
-717.777	-131.566	0.278	-0.037
-716.762	800.000	-0.067	0.231
-715.748	172.632	0.131	-0.193
-714.733	10.441	-0.205	-0.160
-713.718	-200.000	0.005	0.085
-712.704	138.491	-0.169	0.226
-711.689	-157.522	-0.161	-0.010
-710.675	259.157	0.138	0.243
-709.660	-106.534	-0.324	0.074
-708.645	17.526	0.193	0.157
-707.631	106.141	-0.095	-0.114
-706.616	492.831	0.151	-0.355
-705.602	-192.109	0.190	0.002
-704.587	-58.656	-0.168	0.074
-703.572	-169.827	-0.212	0.008
-702.558	179.372	0.191	-0.286
-701.543	100.055	-0.188	-0.223
-700.529	128.502	0.082	0.106
-699.514	-200.000	-0.003	0.019
-698.499	-200.000	-0.004	-0.080
-697.485	107.351	-0.128	-0.156
-696.470	231.880	0.230	0.386
-695.456	105.807	-0.055	0.067
-694.441	-200.000	0.004	-0.068
-693.426	34.986	0.094	-0.084
-692.412	348.000	-0.047	-0.095
-691.397	369.719	-0.202	0.417
-690.383	-200.000	0.046	-0.285
-689.368	52.771	-0.427	-0.417
-688.354	-200.000	-0.031	0.230
-687.339	309.103	-0.033	-0.064
-686.324	309.129	-0.046	-0.089
-685.310	71.750	0.078	-0.082
-684.295	-102.146	0.339	0.083
-683.281	202.279	0.179	0.282
-682.266	-200.000	0.012	0.339
-681.251	-36.365	-0.033	0.018
-680.237	-200.000	0.032	-0.154
-679.222	-136.681	-0.088	-0.010
-678.208	-81.898	-0.192	0.064
-677.193	119.748	0.215	0.273
-676.178	257.688	-0.091	0.159
-675.164	-185.293	-0.175	0.003
-674.149	204.028	-0.032	-0.051
-673.135	-200.000	-0.004	-0.139
-672.120	-200.000	-0.100	-0.475
-671.105	-55.719	-0.051	-0.023
-670.091	-115.462	-0.285	0.055
-669.076	800.000	-0.107	0.385
-668.062	122.882	0.067	0.086
-667.047	-200.000	-0.032	-0.217
-666.032	150.867	0.096	0.134
-665.018	-200.000	-0.064	0.308
-664.003	111.237	-0.135	0.166
-662.989	-10.313	0.217	-0.147
-661.974	-48.251	-0.087	-0.043
-660.959	-30.081	-0.186	-0.108
-659.945	416.361	0.045	0.098
-658.930	-25.746	0.215	0.129
-657.916	-109.533	0.480	0.103
-656.901	-113.439	0.088	0.018
-655.886	38.686	0.105	-0.096
-654.872	-186.572	0.239	-0.003
-653.857	558.308	-0.045	-0.110
-652.843	30.774	-0.162	0.142
-651.828	-31.526	-0.321	0.184
-650.814	-49.337	0.213	0.104
-649.799	247.756	-0.132	0.227
-648.784	-88.869	0.134	0.040
-647.770	-74.728	-0.319	0.117
-646.755	-22.933	0.124	0.076
-645.741	-108.501	0.211	0.046
-644.726	-123.131	0.021	-0.003
-643.711	-19.349	-0.309	-0.196
-642.697	-86.091	-0.210	-0.066
-641.682	324.930	0.140	0.273
-640.668	800.000	-0.082	0.327
-639.653	167.881	-0.121	0.176
-638.638	26.126	-0.101	-0.086
-637.624	-72.289	0.204	-0.077
-636.609	-18.021	0.183	0.117
-635.595	-200.000	-0.005	-0.083
-634.580	109.622	0.135	0.165
-633.565	296.117	-0.205	-0.383
-632.551	-3.323	-0.177	0.125
-631.536	528.581	-0.015	0.036
-630.522	-200.000	0.028	-0.148
-629.507	408.255	-0.110	0.238
-628.492	229.529	-0.049	-0.082
-627.478	-200.000	-0.009	0.039
-626.463	-71.350	-0.204	0.078
-625.449	-200.000	0.010	0.196
-624.434	229.065	0.079	-0.132
-623.419	145.405	0.188	-0.257
-622.405	33.574	-0.131	0.116
-621.390	-200.000	0.055	-0.469
-620.376	-200.000	-0.020	-0.156
-619.361	-141.811	-0.056	0.006
-618.346	-71.226	0.327	0.125
-617.332	800.000	-0.014	0.060
-616.317	-200.000	0.041	-0.449
-615.303	52.716	-0.007	-0.007
-614.288	459.807	0.052	-0.118
-613.273	800.000	-0.153	-0.571
-612.259	184.883	-0.070	-0.106
-611.244	154.458	0.240	-0.336
-610.230	-88.488	-0.197	-0.060
-609.215	2.506	0.137	-0.101
-608.201	-117.892	-0.284	-0.052
-607.186	22.845	-0.062	0.052
-606.171	-48.921	0.196	0.096
-605.157	-142.557	-0.324	-0.032
-604.142	800.000	0.090	-0.286
-603.128	-20.637	0.127	-0.079
-602.113	54.538	-0.076	-0.074
-601.098	-200.000	-0.030	0.271
-600.084	-157.036	0.335	-0.021
-599.069	-3.806	-0.324	0.229
-598.055	615.735	0.082	0.210
-597.040	800.000	0.041	-0.134
-596.025	51.424	0.244	0.235
-595.011	-86.173	0.338	-0.106
-593.996	168.873	-0.267	0.388
-592.982	-119.696	0.096	0.017
-591.967	800.000	-0.094	0.367
-590.952	-107.712	-0.416	0.092
-589.938	800.000	0.063	-0.232
-588.923	38.099	-0.159	-0.144
-587.909	136.605	-0.274	-0.364
-586.894	130.180	0.176	-0.229
-585.879	-103.851	0.187	0.045
-584.865	595.514	-0.051	-0.129
-583.850	38.265	-0.205	0.186
-582.836	-9.218	-0.091	-0.062
-581.821	92.639	0.243	0.279
-580.806	-13.010	0.116	-0.077
-579.792	-200.000	0.007	0.068
-578.777	-200.000	-0.046	0.322
-577.763	-14.958	-0.123	0.080
-576.748	-133.182	-0.271	-0.035
-575.733	-200.000	0.024	0.116
-574.719	-83.290	-0.224	0.073
-573.704	-133.662	-0.607	-0.077
-572.690	-200.000	-0.019	-0.211
-571.675	-13.772	-0.161	0.106
-570.661	-134.911	-0.140	-0.017
-569.646	-97.470	0.184	0.049
-568.631	69.099	-0.144	-0.150
-567.617	-163.798	-0.272	-0.013
-566.602	800.000	0.089	-0.309
-565.588	800.000	0.043	0.141
-564.573	529.855	0.144	0.345
-563.558	44.127	0.240	0.223
-562.544	-200.000	-0.005	0.088
-561.529	-93.010	0.058	-0.017
-560.515	316.479	0.165	0.317
-559.500	-68.436	0.161	-0.064
-558.485	259.105	0.040	-0.071
-557.471	74.263	-0.228	0.243
-556.456	-99.597	-0.063	0.016
-555.442	-136.040	0.105	-0.013
-554.427	127.618	-0.177	0.229
-553.412	-88.327	0.350	-0.106
-552.398	355.335	0.169	0.341
-551.383	800.000	-0.016	0.070
-550.369	130.329	-0.109	-0.141
-549.354	-200.000	0.049	0.227
-548.339	-200.000	0.082	-0.386
-547.325	-166.570	-0.272	0.012
-546.310	-180.457	0.423	-0.009
-545.296	-134.490	0.169	-0.021
-544.281	-49.746	-0.164	-0.079
-543.266	-41.298	0.221	0.116
-542.252	61.396	-0.173	0.174
-541.237	-200.000	-0.011	0.122
-540.223	800.000	-0.049	0.136
-539.208	-200.000	0.028	0.297
-538.193	-153.454	-0.423	0.030
-537.179	-31.925	-0.113	-0.064
-536.164	-115.822	0.305	-0.058
-535.150	498.165	-0.145	-0.339
-534.135	-45.872	-0.231	-0.116
-533.121	178.975	0.245	0.364
-532.106	-200.000	0.016	0.090
-531.091	-200.000	-0.076	-0.475
-530.077	-121.820	-0.269	0.045
-529.062	-15.541	-0.125	0.081
-528.048	-1.264	-0.087	-0.062
-527.033	-70.700	0.249	-0.095
-526.018	-20.431	0.471	-0.294
-525.004	800.000	0.097	0.293
-523.989	-24.903	0.246	0.148
-522.975	-200.000	-0.046	-0.326
-521.960	-200.000	-0.055	-0.285
-520.945	28.930	-0.238	0.205
-519.931	-196.913	-0.295	-0.002
-518.916	0.197	-0.070	0.051
-517.902	48.513	-0.224	0.213
-516.887	-74.490	-0.094	0.034
-515.872	110.779	0.133	-0.162
-514.858	-179.443	0.355	-0.008
-513.843	175.352	0.116	-0.171
-512.829	309.868	0.078	-0.148
-511.814	-200.000	0.095	-0.472
-510.799	-71.428	-0.198	-0.075
-509.785	26.331	0.053	-0.045
-508.770	274.384	0.130	-0.233
-507.756	-28.992	0.043	0.025
-506.741	-95.396	-0.160	0.044
-505.726	345.213	0.094	-0.187
-504.712	-69.681	-0.236	0.091
-503.697	252.352	0.091	0.158
-502.683	-39.608	0.177	-0.094
-501.668	-148.263	-0.330	-0.028
-500.653	157.093	-0.124	-0.173
-499.639	-105.888	0.232	0.053
-498.624	-200.000	0.072	0.363
-497.610	-200.000	-0.010	0.110
-496.595	-200.000	-0.040	-0.369
-495.581	-68.314	0.260	-0.103
-494.566	121.437	-0.225	-0.284
-493.551	-180.972	0.517	-0.011
-492.537	-92.193	-0.149	0.043
-491.522	-193.694	0.089	-0.001
-490.508	11.462	-0.204	0.158
-489.493	12.342	-0.446	-0.349
-488.478	199.949	0.039	0.060
-487.464	-91.626	0.081	-0.023
-486.449	129.875	0.210	-0.273
-485.435	-200.000	0.014	-0.097
-484.420	800.000	0.044	-0.191
-483.405	104.743	0.050	0.060
-482.391	303.190	-0.196	-0.368
-481.376	-200.000	-0.004	-0.180
-480.362	-20.963	-0.243	-0.151
-479.347	124.352	-0.155	-0.198
-478.332	-26.494	0.129	-0.077
-477.318	160.033	-0.090	0.128
-476.303	-200.000	-0.012	0.282
-475.289	-200.000	0.019	0.386
-474.274	-103.854	0.447	0.106
-473.259	-33.205	0.069	-0.039
-472.245	389.841	0.063	0.133
-471.230	37.134	-0.274	0.245
-470.216	-108.134	0.225	-0.049
-469.201	-35.449	-0.042	0.023
-468.186	-59.426	0.171	-0.074
-467.172	-155.714	-0.281	0.018
-466.157	265.771	-0.150	0.265
-465.143	-74.628	-0.209	0.076
-464.128	-58.992	-0.019	-0.008
-463.113	-40.247	-0.203	-0.107
-462.099	-6.612	-0.273	0.188
-461.084	371.740	-0.057	0.116
-460.070	-200.000	0.000	-0.243
-459.055	-200.000	-0.034	-0.253
-458.040	-100.310	-0.160	0.040
-457.026	-200.000	0.018	0.124
-456.011	-65.705	0.206	-0.084
-454.997	-200.000	0.029	-0.256
-453.982	81.589	0.138	-0.151
-452.968	-49.353	-0.160	0.077
-451.953	-171.069	-0.154	0.005
-450.938	-85.061	0.243	-0.077
-449.924	147.205	-0.049	-0.067
-448.909	67.748	0.161	0.166
-447.895	156.263	0.049	0.069
-446.880	31.469	0.227	0.198
-445.865	7.721	-0.071	-0.054
-444.851	617.738	0.095	0.242
-443.836	99.418	0.076	0.089
-442.822	-25.836	-0.230	0.137
-441.807	1.487	0.375	-0.273
-440.792	-99.818	-0.298	-0.075
-439.778	-126.135	0.180	-0.027
-438.763	800.000	0.103	0.306
-437.749	63.493	0.171	-0.174
-436.734	42.803	0.168	0.155
-435.719	-200.000	-0.045	-0.226
-434.705	-90.831	-0.157	-0.046
-433.690	432.312	-0.169	0.371
-432.676	66.578	0.086	-0.089
-431.661	800.000	0.060	-0.255
-430.646	-15.304	0.240	0.155
-429.632	-70.747	-0.149	-0.057
-428.617	5.935	0.174	-0.130
-427.603	-72.097	0.221	0.083
-426.588	70.220	0.185	0.193
-425.573	12.207	0.154	0.120
-424.559	-106.429	0.143	-0.032
-423.544	800.000	-0.112	-0.343
-422.530	509.453	0.067	-0.157
-421.515	-61.553	0.253	-0.107
-420.500	649.152	-0.206	-0.534
-419.486	26.339	-0.180	-0.152
-418.471	122.250	0.080	0.101
-417.457	-175.459	0.385	0.011
-416.442	-81.487	-0.187	0.062
-415.428	-133.620	0.305	-0.039
-414.413	117.290	0.022	-0.027
-413.398	800.000	-0.068	0.239
-412.384	-97.755	0.256	0.067
-411.369	-200.000	-0.046	0.466
-410.355	-200.000	-0.031	-0.218
-409.340	138.494	0.157	0.208
-408.325	-200.000	-0.078	-0.417
-407.311	-23.592	0.221	-0.134
-406.296	-3.703	-0.211	0.148
-405.282	-135.053	-0.234	-0.029
-404.267	-74.630	0.262	-0.095
-403.252	38.743	-0.197	0.177
-402.238	479.384	0.049	0.112
-401.223	-65.012	0.268	-0.109
-400.209	-62.255	-0.097	0.041
-399.194	615.405	0.067	0.170
-398.179	-27.441	-0.232	0.136
-397.165	798.708	-0.029	0.081
-396.150	62.442	0.128	-0.130
-395.136	-200.000	-0.011	-0.146
-394.121	-95.850	0.260	-0.070
-393.106	266.473	0.093	-0.164
-392.092	-113.269	-0.220	-0.044
-391.077	-92.473	0.191	0.054
-390.063	483.080	0.163	-0.373
-389.048	-76.639	-0.471	-0.167
-388.033	800.000	0.159	0.577
-387.019	499.329	0.126	-0.294
-386.004	125.124	0.104	0.132
-384.990	190.677	-0.125	0.189
-383.975	-200.000	-0.011	0.395
-382.960	-6.215	-0.133	0.092
-381.946	-18.855	0.176	-0.111
-380.931	-35.351	-0.096	0.053
-379.917	78.724	-0.031	-0.034
-378.902	207.331	0.055	0.086
-377.888	-70.377	-0.136	0.052
-376.873	139.155	-0.032	0.042
-375.858	-49.363	-0.240	-0.116
-374.844	-109.759	0.186	0.039
-373.829	-200.000	0.006	0.186
-372.815	164.892	0.133	-0.190
-371.800	167.999	-0.030	0.044
-370.785	-118.387	0.232	0.042
-369.771	-80.583	0.273	0.092
-368.756	-46.951	0.159	-0.078
-367.742	287.022	0.145	0.264
-366.727	62.694	-0.387	0.391
-365.712	69.450	0.183	-0.190
-364.698	-164.588	0.430	0.020
-363.683	181.861	0.077	-0.115
-362.669	434.013	-0.102	0.224
-361.654	-80.164	0.231	0.078
-360.639	-92.063	0.138	0.039
-359.625	87.723	0.235	0.263
-358.610	-46.030	-0.183	-0.091
-357.596	87.596	-0.141	-0.157
-356.581	-35.656	0.109	-0.059
-355.566	72.534	0.166	-0.174
-354.552	-111.053	-0.159	0.033
-353.537	-181.456	-0.427	0.008
-352.523	259.266	0.130	-0.225
-351.508	401.396	0.071	0.149
-350.493	-170.006	-0.196	0.007
-349.479	-200.000	0.000	-0.178
-348.464	-200.000	-0.016	-0.266
-347.450	653.800	-0.082	0.211
-346.435	91.953	-0.047	0.053
-345.420	-25.029	0.369	-0.221
-344.406	-89.186	-0.042	0.012
-343.391	80.556	0.247	0.269
-342.377	-49.953	0.178	0.085
-341.362	-117.683	0.086	0.016
-340.348	54.779	-0.280	0.273
-339.333	-60.262	0.506	-0.217
-338.318	-200.000	0.003	-0.422
-337.304	-125.495	-0.463	0.071
-336.289	121.493	0.088	0.110
-335.275	-200.000	0.048	-0.215
-334.260	34.502	0.202	0.177
-333.245	-155.081	0.094	0.006
-332.231	-71.920	-0.294	-0.110
-331.216	-200.000	0.018	0.094
-330.202	-97.817	-0.144	0.037
-329.187	703.688	-0.066	0.174
-328.172	800.000	-0.011	-0.041
-327.158	146.734	-0.148	-0.201
-326.143	208.284	-0.081	-0.127
-325.129	-169.746	0.497	0.018
-324.114	644.563	0.080	0.205
-323.099	460.670	-0.084	-0.189
-322.085	72.158	-0.060	0.063
-321.070	13.388	-0.155	0.121
-320.056	566.857	-0.018	0.044
-319.041	177.778	-0.104	-0.152
-318.026	-151.834	-0.343	0.025
-317.012	-200.000	0.018	0.115
-315.997	159.296	0.065	0.091
-314.983	-200.000	-0.001	0.184
-313.968	51.735	0.068	0.065
-312.953	-200.000	-0.027	0.147
-311.939	138.316	-0.246	-0.325
-310.924	-135.369	0.334	-0.040
-309.910	800.000	-0.071	0.274
-308.895	140.972	0.147	0.195
-307.880	-27.075	-0.256	0.150
-306.866	103.901	-0.192	-0.227
-305.851	-33.554	-0.164	-0.091
-304.837	465.010	-0.083	0.187
-303.822	-113.102	-0.467	0.093
-302.807	-3.241	0.214	0.150
-301.793	-74.494	-0.379	0.137
-300.778	15.504	0.210	-0.166
-299.764	-25.539	-0.071	-0.042
-298.749	173.648	0.129	-0.187
-297.735	312.526	0.032	-0.060
-296.720	-50.918	-0.137	0.065
-295.705	-156.251	0.048	0.003
-294.691	148.467	0.220	0.298
-293.676	100.720	0.078	-0.092
-292.662	-187.384	-0.064	0.001
-291.647	-200.000	0.024	-0.119
-290.632	37.856	-0.345	-0.308
-289.618	-110.615	0.136	0.028
-288.603	-200.000	0.006	-0.044
-287.589	-89.301	0.554	0.164
-286.574	800.000	-0.046	-0.182
-285.559	-59.789	0.239	0.103
-284.545	-140.883	-0.285	-0.030
-283.530	800.000	0.029	-0.100
-282.516	-153.749	0.111	0.008
-281.501	-41.929	-0.167	0.086
-280.486	695.125	0.112	0.297
-279.472	-200.000	-0.017	0.256
-278.457	11.571	-0.283	0.218
-277.443	-200.000	-0.041	0.223
-276.428	231.182	0.046	0.076
-275.413	-200.000	0.030	-0.167
-274.399	800.000	-0.047	0.160
-273.384	29.245	0.101	-0.086
-272.370	691.531	-0.097	-0.256
-271.355	656.714	0.115	0.297
-270.340	68.274	0.228	0.234
-269.326	-200.000	-0.040	-0.183
-268.311	24.517	0.311	-0.258
-267.297	-200.000	0.047	0.328
-266.282	145.968	0.136	0.183
-265.267	256.136	0.040	-0.068
-264.253	45.908	0.222	-0.206
-263.238	-124.707	0.193	-0.030
-262.224	18.071	-0.132	0.106
-261.209	-96.782	-0.201	0.053
-260.195	-112.246	-0.330	0.067
-259.180	18.398	0.118	0.095
-258.165	-200.000	0.035	0.213
-257.151	373.310	0.120	0.245
-256.136	-200.000	0.028	-0.169
-255.122	294.771	0.147	-0.270
-254.107	-107.533	0.114	0.025
-253.092	381.551	0.106	-0.218
-252.078	-61.395	0.427	-0.181
-251.063	279.354	-0.099	-0.177
-250.049	84.330	-0.163	0.178
-249.034	-100.228	0.123	-0.031
-248.019	-153.547	-0.328	0.023
-247.005	215.436	-0.088	-0.140
-245.990	87.164	-0.056	-0.063
-244.976	117.077	0.140	-0.173
-243.961	-121.434	-0.159	0.027
-242.946	800.000	-0.004	-0.013
-241.932	-4.528	0.144	0.100
-240.917	-3.820	-0.036	-0.025
-239.903	-38.181	-0.140	-0.075
-238.888	28.481	-0.111	-0.094
-237.873	222.235	-0.063	0.101
-236.859	-126.138	-0.226	-0.034
-235.844	569.398	-0.121	0.294
-234.830	72.072	0.041	-0.043
-233.815	-39.828	-0.230	0.121
-232.800	-200.000	0.020	0.341
-231.786	-129.877	-0.318	-0.044
-230.771	23.341	-0.225	0.186
-229.757	-122.415	-0.164	-0.027
-228.742	2.515	-0.200	-0.146
-227.727	281.034	-0.169	0.303
-226.713	-157.770	-0.228	0.014
-225.698	134.469	-0.072	-0.094
-224.684	148.138	-0.046	0.063
-223.669	564.066	0.057	-0.138
-222.655	-200.000	-0.007	-0.087
-221.640	-70.568	0.231	0.088
-220.625	-11.113	0.219	-0.145
-219.611	46.608	0.113	0.106
-218.596	-2.615	-0.108	0.076
-217.582	71.326	0.049	-0.051
-216.567	800.000	-0.055	-0.207
-215.552	409.695	0.039	0.082
-214.538	-200.000	0.022	0.244
-213.523	-70.471	-0.276	-0.105
-212.509	-136.593	-0.232	-0.027
-211.494	-191.714	0.242	-0.002
-210.479	76.699	-0.104	0.111
-209.465	-200.000	0.038	0.212
-208.450	23.655	-0.213	-0.176
-207.436	61.763	0.213	-0.212
-206.421	-38.469	0.220	-0.117
-205.406	-136.461	-0.322	-0.038
-204.392	-6.407	0.255	-0.174
-203.377	800.000	-0.018	-0.076
-202.363	800.000	-0.052	-0.158
-201.348	-200.000	0.024	-0.161
-200.333	-200.000	0.032	0.152
-199.319	-104.285	-0.150	0.035
-198.304	46.686	-0.260	-0.242
-197.290	-145.194	-0.351	-0.032
-196.275	800.000	-0.036	0.148
-195.260	-71.192	0.225	0.084
-194.246	107.198	-0.127	0.151
-193.231	-162.047	0.233	-0.012
-192.217	-103.422	-0.083	-0.019
-191.202	337.541	0.020	-0.039
-190.187	-57.501	-0.138	0.061
-189.173	-43.815	0.098	-0.049
-188.158	268.240	0.115	-0.202
-187.144	5.316	0.040	-0.030
-186.129	800.000	-0.110	-0.439
-185.114	622.582	-0.083	0.210
-184.100	-74.360	-0.269	-0.097
-183.085	26.786	-0.327	0.274
-182.071	198.467	0.231	-0.354
-181.056	-12.416	0.198	-0.129
-180.042	-200.000	0.002	-0.140
-179.027	169.565	0.092	-0.132
-178.012	-194.057	0.280	0.002
-176.998	-77.125	0.126	0.044
-175.983	-61.769	0.213	0.089
-174.969	-147.759	0.245	0.021
-173.954	800.000	-0.065	0.182
-172.939	-200.000	0.022	-0.217
-171.925	-99.528	0.357	0.090
-170.910	293.051	-0.041	0.075
-169.896	754.340	0.096	-0.260
-168.881	800.000	-0.051	0.220
-167.866	-200.000	0.035	0.213
-166.852	-107.531	-0.355	0.078
-165.837	-150.270	0.260	0.020
-164.823	24.746	0.260	0.215
-163.808	-54.367	-0.198	-0.090
-162.793	-159.491	-0.373	-0.021
-161.779	12.175	0.156	0.120
-160.764	-80.485	0.243	-0.081
-159.750	50.259	0.120	0.114
-158.735	60.758	0.100	-0.100
-157.720	67.192	-0.203	0.207
-156.706	28.643	-0.109	-0.092
-155.691	-200.000	0.010	-0.114
-154.677	518.040	-0.118	-0.276
-153.662	-200.000	0.020	-0.167
-152.647	800.000	-0.069	0.208
-151.633	-86.672	-0.201	0.062
-150.618	-47.097	0.136	0.066
-149.604	-179.598	0.406	0.009
-148.589	-135.291	-0.275	-0.033
-147.574	86.570	0.204	0.225
-146.560	800.000	-0.057	0.218
-145.545	-36.440	-0.108	0.058
-144.531	800.000	0.039	0.148
-143.516	-55.323	-0.199	0.089
-142.502	171.311	-0.142	0.204
-141.487	10.773	0.315	0.240
-140.472	-14.128	-0.378	0.244
-139.458	136.039	0.090	0.117
-138.443	800.000	0.112	-0.355
-137.429	586.429	0.165	-0.406
-136.414	546.291	-0.117	-0.280
-135.399	88.402	0.224	-0.248
-134.385	45.907	0.303	0.280
-133.370	-37.041	0.291	0.156
-132.356	107.714	0.169	-0.201
-131.341	-80.756	-0.170	0.056
-130.326	800.000	-0.044	0.167
-129.312	-89.334	0.470	-0.138
-128.297	-14.775	-0.087	-0.056
-127.283	32.962	-0.015	-0.013
-126.268	570.827	-0.115	-0.281
-125.253	-51.274	0.354	0.166
-124.239	-13.813	0.368	0.238
-123.224	199.030	0.180	-0.276
-122.210	561.728	-0.099	0.240
-121.195	96.890	-0.174	-0.199
