DTS Sentinel unit serial number:	SN413079Multiplexer serial number:	ORYXHardware model number:	OX4-SRSoftware version number:	ORYX F/W v4.00 Oryx Data Collector v3.7.2.0data status	okinstallation	princeton_trtdifferential loss correction	single-endedforward channel	channel 4reverse channel	N/Adate	2019/09/17time	11:09:35forward acquisition time	60.00reverse acquisition time	0.00gamma	496.2192k internal	0.2309k external	0.2309temperature offset calibration	0.9976default loss term (dB/km)	0.3790temperature slope calibration	1.0000multiplexer offset coefficient	1.0000multiplexer slope coefficient	1.0000fibre end	0.00T internal ref (°C)	30.41T ext. ref 1 (°C)	0.22T ext. ref 2 (°C)	26.08length (m)	temperature (°C)	Stokes	anti-Stokes-747.200	593.280	0.104	-0.261
-746.185	800.000	-0.138	0.463
-745.171	-21.173	0.106	-0.066
-744.156	-3.226	0.192	0.136
-743.142	-200.000	-0.005	-0.024
-742.127	-136.975	-0.208	0.024
-741.112	800.000	0.092	-0.292
-740.098	543.505	0.128	0.309
-739.083	363.718	0.137	0.279
-738.069	297.788	0.040	0.074
-737.054	264.338	-0.079	-0.140
-736.039	-158.269	-0.142	-0.008
-735.025	76.699	0.261	-0.281
-734.010	-94.458	-0.066	-0.018
-732.996	-200.000	-0.026	-0.126
-731.981	-140.297	-0.286	-0.030
-730.966	52.811	0.223	-0.216
-729.952	-77.116	0.159	-0.056
-728.937	800.000	-0.113	-0.443
-727.923	28.360	-0.186	0.159
-726.908	-67.947	-0.238	-0.095
-725.894	82.472	-0.258	-0.284
-724.879	-44.906	0.134	0.068
-723.864	-132.638	0.124	0.016
-722.850	-154.096	0.315	0.022
-721.835	-15.651	0.177	-0.114
-720.821	-28.789	-0.213	0.125
-719.806	-184.699	0.257	0.004
-718.791	-34.312	-0.245	-0.137
-717.777	589.821	-0.039	-0.098
-716.762	72.097	-0.335	-0.354
-715.748	-60.564	0.044	-0.019
-714.733	752.620	-0.057	-0.156
-713.718	-136.214	-0.405	-0.048
-712.704	-12.457	0.155	0.103
-711.689	115.113	-0.126	0.156
-710.675	-74.786	0.142	-0.052
-709.660	-1.868	0.173	-0.123
-708.645	800.000	-0.061	-0.194
-707.631	24.691	-0.204	-0.172
-706.616	-160.748	-0.194	0.010
-705.602	141.803	0.133	0.178
-704.587	106.101	-0.133	-0.160
-703.572	34.659	-0.106	0.094
-702.558	-200.000	0.029	-0.216
-701.543	-200.000	-0.029	0.318
-700.529	800.000	-0.073	0.290
-699.514	-136.644	-0.181	-0.021
-698.499	-200.000	-0.010	-0.279
-697.485	187.735	-0.081	-0.123
-696.470	77.073	0.031	0.033
-695.456	-75.869	-0.123	-0.044
-694.441	21.896	0.246	-0.203
-693.426	-200.000	-0.036	0.196
-692.412	718.555	-0.058	0.156
-691.397	21.586	-0.144	-0.119
-690.383	800.000	0.077	0.228
-689.368	800.000	0.042	0.119
-688.354	198.420	-0.128	-0.199
-687.339	253.190	-0.048	0.084
-686.324	47.193	0.189	0.179
-685.310	177.186	0.090	0.133
-684.295	228.955	0.216	-0.357
-683.281	38.189	-0.320	-0.289
-682.266	-112.847	0.180	0.036
-681.251	-132.592	0.293	-0.038
-680.237	-50.314	0.131	-0.063
-679.222	-200.000	0.021	-0.253
-678.208	85.142	-0.208	-0.232
-677.193	800.000	-0.099	-0.284
-676.178	-104.734	0.261	-0.061
-675.164	-200.000	-0.008	0.047
-674.149	126.666	0.195	-0.251
-673.135	372.511	-0.080	-0.165
-672.120	-200.000	-0.009	-0.139
-671.105	-162.503	-0.391	0.020
-670.091	-200.000	0.011	-0.126
-669.076	49.715	0.270	0.258
-668.062	644.460	0.065	0.168
-667.047	245.368	0.094	0.160
-666.032	64.440	0.117	-0.119
-665.018	-109.449	0.651	-0.139
-664.003	-158.297	-0.039	0.002
-662.989	-200.000	0.021	0.409
-661.974	280.046	0.016	-0.028
-660.959	-114.567	0.224	-0.043
-659.945	-200.000	0.054	0.383
-658.930	72.854	0.072	-0.076
-657.916	-59.914	0.131	-0.057
-656.901	154.004	-0.213	0.295
-655.886	68.291	-0.151	-0.156
-654.872	-133.262	0.203	-0.026
-653.857	54.332	0.040	-0.039
-652.843	-184.307	0.118	0.002
-651.828	-91.427	-0.110	0.032
-650.814	-200.000	0.018	0.229
-649.799	-52.221	0.237	-0.111
-648.784	-106.039	0.256	0.058
-647.770	-200.000	-0.005	-0.115
-646.755	-5.305	-0.156	-0.109
-645.741	50.786	-0.180	0.172
-644.726	225.344	0.082	0.134
-643.711	184.423	0.193	0.289
-642.697	126.223	-0.119	0.153
-641.682	23.012	0.138	0.114
-640.668	-152.730	-0.276	-0.020
-639.653	252.611	-0.143	0.247
-638.638	-155.990	-0.170	-0.011
-637.624	-174.708	0.246	-0.007
-636.609	9.336	0.255	-0.195
-635.595	-13.828	-0.170	0.111
-634.580	93.400	0.180	-0.206
-633.565	-67.816	0.042	0.017
-632.551	297.144	-0.083	0.154
-631.536	95.174	0.114	-0.132
-630.522	223.089	-0.276	0.450
-629.507	-79.514	-0.181	0.062
-628.492	-167.866	-0.057	0.002
-627.478	-200.000	-0.050	-0.251
-626.463	-144.889	0.189	-0.017
-625.449	-39.041	-0.153	-0.082
-624.434	-200.000	-0.021	-0.296
-623.419	-37.790	-0.096	0.052
-622.405	800.000	0.071	0.284
-621.390	-200.000	-0.062	0.317
-620.376	30.683	-0.076	-0.066
-619.361	-115.026	-0.171	0.033
-618.346	-121.239	0.171	-0.029
-617.332	-200.000	0.002	0.392
-616.317	-42.614	0.185	-0.095
-615.303	36.751	0.158	0.141
-614.288	77.821	-0.130	-0.140
-613.273	-113.831	-0.245	-0.048
-612.259	485.573	-0.076	-0.175
-611.244	-38.279	-0.082	-0.044
-610.230	-160.279	-0.491	-0.027
-609.215	-67.809	-0.349	0.138
-608.201	2.138	-0.230	0.168
-607.186	757.499	-0.014	-0.039
-606.171	31.298	-0.093	0.081
-605.157	37.316	-0.084	-0.075
-604.142	-36.190	-0.237	0.129
-603.128	-142.801	0.133	-0.013
-602.113	398.234	-0.105	0.223
-601.098	1.156	0.123	0.089
-600.084	-200.000	0.025	-0.117
-599.069	115.136	0.108	0.133
-598.055	-200.000	-0.020	0.390
-597.040	-98.818	-0.226	-0.058
-596.025	800.000	0.057	0.203
-595.011	-161.115	-0.263	-0.014
-593.996	-98.408	0.183	0.047
-592.982	-200.000	-0.016	-0.107
-591.967	-149.574	-0.097	0.008
-590.952	800.000	-0.047	-0.163
-589.938	-134.493	0.305	-0.038
-588.923	-151.203	0.203	-0.015
-587.909	800.000	-0.116	0.344
-586.894	-200.000	0.017	-0.210
-585.879	-200.000	0.102	-0.461
-584.865	61.815	0.085	-0.085
-583.850	-115.177	0.085	0.016
-582.836	67.421	0.186	0.191
-581.821	30.139	-0.051	-0.044
-580.806	-200.000	0.016	-0.147
-579.792	-200.000	-0.010	0.282
-578.777	25.125	0.276	-0.231
-577.763	127.942	-0.088	-0.113
-576.748	388.217	-0.121	-0.252
-575.733	-103.616	0.125	0.030
-574.719	-200.000	0.044	-0.259
-573.704	25.598	0.068	0.057
-572.690	-70.926	0.178	0.068
-571.675	48.061	-0.170	0.160
-570.661	51.166	0.051	-0.049
-569.646	-145.231	-0.446	-0.041
-568.631	209.676	-0.077	0.121
-567.617	-20.825	-0.076	-0.047
-566.602	-200.000	0.012	-0.204
-565.588	-166.275	-0.272	0.012
-564.573	654.526	-0.040	-0.102
-563.558	-200.000	-0.015	-0.326
-562.544	-200.000	-0.018	-0.141
-561.529	-124.323	-0.315	-0.050
-560.515	507.016	0.223	-0.521
-559.500	266.821	0.201	-0.354
-558.485	182.427	0.144	0.215
-557.471	-200.000	-0.064	0.351
-556.456	-170.963	-0.325	0.011
-555.442	-123.155	0.119	-0.019
-554.427	-44.896	-0.246	-0.123
-553.412	440.458	-0.055	0.122
-552.398	-52.319	-0.110	0.051
-551.383	-109.128	-0.164	-0.035
-550.369	-42.497	-0.091	0.047
-549.354	166.476	0.009	-0.012
-548.339	-200.000	-0.079	0.472
-547.325	343.559	0.209	-0.414
-546.310	800.000	-0.053	0.172
-545.296	12.366	-0.165	0.128
-544.281	-126.546	-0.402	0.060
-543.266	-89.728	0.438	-0.129
-542.252	-200.000	-0.073	-0.444
-541.237	-200.000	-0.003	0.211
-540.223	-200.000	0.071	-0.326
-539.208	-46.726	-0.190	0.094
-538.193	16.977	0.154	0.123
-537.179	140.073	0.249	0.331
-536.164	-71.255	0.237	0.090
-535.150	-109.323	-0.362	0.077
-534.135	620.074	0.101	0.255
-533.121	85.542	0.103	0.114
-532.106	-116.252	0.093	-0.017
-531.091	-200.000	-0.043	0.266
-530.077	524.169	-0.048	-0.113
-529.062	64.183	0.151	0.153
-528.048	-65.236	0.251	0.102
-527.033	-177.824	-0.256	-0.006
-526.018	800.000	0.061	0.205
-525.004	620.364	0.051	-0.130
-523.989	-159.372	-0.312	0.018
-522.975	-200.000	0.023	0.106
-521.960	248.665	-0.125	-0.212
-520.945	295.671	0.057	0.105
-519.931	-136.988	0.255	0.029
-518.916	-200.000	0.035	-0.199
-517.902	-200.000	0.005	-0.048
-516.887	479.846	-0.032	-0.074
-515.872	-107.564	-0.237	-0.052
-514.858	-200.000	-0.027	-0.286
-513.843	800.000	0.085	-0.254
-512.829	-96.077	0.193	0.052
-511.814	-200.000	-0.021	0.192
-510.799	270.692	0.058	0.102
-509.785	-116.345	-0.155	0.029
-508.770	126.074	0.093	0.118
-507.756	300.328	-0.188	0.349
-506.741	-48.141	-0.185	0.090
-505.726	-200.000	0.002	0.158
-504.712	-133.543	0.240	0.030
-503.697	8.622	0.132	-0.100
-502.683	160.398	-0.175	-0.246
-501.668	800.000	-0.086	-0.335
-500.653	-123.183	-0.244	0.039
-499.639	17.018	-0.076	0.061
-498.624	-135.010	-0.091	0.011
-497.610	-165.792	-0.193	-0.008
-496.595	-175.871	-0.126	-0.003
-495.581	-200.000	0.019	-0.253
-494.566	-82.147	0.193	0.063
-493.551	184.376	-0.167	-0.249
-492.537	-77.907	0.020	-0.007
-491.522	9.241	-0.068	-0.051
-490.508	-83.169	0.204	-0.066
-489.493	79.601	0.075	-0.081
-488.478	-15.086	0.291	-0.187
-487.464	170.254	0.061	-0.088
-486.449	85.417	0.102	-0.113
-485.435	86.177	-0.124	0.137
-484.420	115.607	-0.045	0.055
-483.405	31.752	0.086	0.074
-482.391	-83.405	-0.263	0.085
-481.376	-96.931	0.197	-0.052
-480.362	-150.322	-0.268	0.021
-479.347	-200.000	0.035	0.259
-478.332	800.000	-0.029	0.105
-477.318	-11.662	0.178	0.118
-476.303	-200.000	0.050	0.437
-475.289	257.248	-0.099	-0.172
-474.274	223.350	0.114	0.185
-473.259	-132.991	0.096	0.012
-472.245	5.596	0.342	-0.254
-471.230	-200.000	0.031	0.183
-470.216	-164.658	0.368	-0.017
-469.201	50.662	0.127	-0.121
-468.186	-32.885	-0.168	0.094
-467.172	79.659	0.192	0.207
-466.157	252.875	0.031	-0.053
-465.143	208.512	-0.228	0.358
-464.128	-153.103	-0.109	-0.008
-463.113	-22.346	0.118	0.072
-462.099	800.000	-0.036	0.141
-461.084	95.913	0.113	-0.129
-460.070	100.523	-0.267	-0.312
-459.055	-179.775	-0.065	0.001
-458.040	-117.079	0.162	0.030
-457.026	800.000	0.041	-0.176
-456.011	145.268	0.297	0.399
-454.997	-7.022	-0.116	-0.079
-453.982	-200.000	-0.019	-0.086
-452.968	119.756	0.191	0.238
-451.953	-25.051	-0.048	0.029
-450.938	800.000	-0.024	-0.092
-449.924	273.936	0.112	-0.198
-448.909	-99.513	-0.274	0.069
-447.895	1.764	-0.014	-0.010
-446.880	-151.015	-0.326	-0.025
-445.865	-89.520	-0.153	-0.045
-444.851	41.180	0.234	0.212
-443.836	108.542	-0.197	0.237
-442.822	41.595	-0.264	0.240
-441.807	-200.000	0.005	-0.178
-440.792	800.000	0.006	-0.016
-439.778	476.957	0.132	0.300
-438.763	-38.697	0.129	-0.068
-437.749	56.236	-0.091	-0.089
-436.734	48.397	-0.297	0.279
-435.719	108.179	-0.119	-0.143
-434.705	19.053	0.159	-0.128
-433.690	-129.361	0.196	-0.027
-432.676	65.870	0.179	-0.182
-431.661	416.025	-0.070	0.149
-430.646	248.783	-0.071	0.120
-429.632	-50.929	-0.084	-0.040
-428.617	11.604	0.210	-0.162
-427.603	299.190	-0.068	0.126
-426.588	-62.627	0.413	-0.172
-425.573	365.782	-0.051	-0.103
-424.559	238.972	0.248	0.414
-423.544	-4.912	0.117	-0.081
-422.530	-23.944	0.254	-0.153
-421.515	64.297	0.250	0.252
-420.500	-68.056	-0.072	-0.028
-419.486	474.803	0.078	-0.177
-418.471	10.147	-0.140	0.107
-417.457	-172.923	0.177	0.006
-416.442	-101.268	0.364	-0.089
-415.428	177.127	-0.166	0.243
-414.413	-120.407	-0.029	-0.005
-413.398	-105.423	-0.172	-0.039
-412.384	204.229	0.147	-0.228
-411.369	-148.949	-0.218	0.018
-410.355	-35.851	0.189	0.103
-409.340	-62.819	0.322	0.134
-408.325	-200.000	-0.043	0.247
-407.311	-68.846	0.076	-0.030
-406.296	-6.991	0.366	0.249
-405.282	84.528	-0.071	-0.078
-404.267	-153.410	-0.201	0.014
-403.252	103.472	-0.136	-0.160
-402.238	-200.000	-0.027	-0.155
-401.223	6.448	0.198	-0.147
-400.209	-200.000	-0.010	-0.284
-399.194	455.709	-0.045	-0.100
-398.179	800.000	0.059	0.230
-397.165	-97.215	0.211	-0.055
-396.150	-200.000	0.006	0.043
-395.136	17.230	-0.290	-0.231
-394.121	738.303	0.122	-0.328
-393.106	-46.086	-0.350	0.173
-392.092	800.000	0.014	0.046
-391.077	575.095	0.106	0.260
-390.063	151.946	-0.277	0.379
-389.048	240.189	-0.035	0.058
-388.033	-34.042	0.207	-0.114
-387.019	-200.000	0.015	-0.129
-386.004	331.627	0.205	0.395
-384.990	404.595	0.086	0.181
-383.975	601.781	-0.024	-0.059
-382.960	-71.381	0.202	0.076
-381.946	99.638	0.096	0.111
-380.931	6.514	0.046	0.034
-379.917	-13.594	0.151	-0.098
-378.902	177.483	0.122	0.179
-377.888	170.429	-0.203	-0.290
-376.873	80.803	-0.224	-0.241
-375.858	-40.053	0.257	0.134
-374.844	800.000	0.049	-0.210
-373.829	287.722	-0.104	0.188
-372.815	-175.639	0.476	-0.013
-371.800	-15.891	0.291	0.185
-370.785	-200.000	-0.002	0.080
-369.771	-8.905	0.248	-0.167
-368.756	-200.000	-0.035	0.229
-367.742	-23.694	0.203	-0.122
-366.727	61.198	-0.129	0.129
-365.712	-5.172	-0.364	0.250
-364.698	800.000	0.039	-0.159
-363.683	-86.336	0.213	-0.066
-362.669	-82.097	-0.116	-0.038
-361.654	224.964	-0.128	0.208
-360.639	387.261	-0.120	-0.248
-359.625	656.264	0.054	-0.138
-358.610	800.000	-0.054	-0.152
-357.596	42.411	0.148	-0.135
-356.581	266.126	-0.160	-0.280
-355.566	-200.000	-0.001	0.046
-354.552	800.000	-0.045	-0.176
-353.537	800.000	0.076	0.214
-352.523	-26.325	0.051	0.030
-351.508	-70.377	0.159	0.060
-350.493	1.945	-0.053	0.038
-349.479	-76.288	-0.315	-0.111
-348.464	-67.515	0.209	0.082
-347.450	-200.000	0.009	-0.160
-346.435	415.815	0.121	-0.259
-345.420	-106.890	0.203	0.045
-344.406	-77.084	0.155	-0.054
-343.391	158.330	-0.127	-0.177
-342.377	-200.000	0.015	0.100
-341.362	-81.136	0.037	0.012
-340.348	-200.000	0.020	-0.211
-339.333	279.723	0.107	0.191
-338.318	-43.888	0.370	0.186
-337.304	-100.343	-0.398	0.099
-336.289	-70.937	-0.153	-0.058
-335.275	-56.853	-0.270	0.119
-334.260	145.485	0.135	-0.181
-333.245	800.000	-0.056	0.227
-332.231	-200.000	-0.034	0.240
-331.216	70.970	0.113	-0.117
-330.202	-200.000	0.022	-0.329
-329.187	160.309	0.068	-0.095
-328.172	-200.000	-0.029	-0.266
-327.158	-123.649	-0.030	0.005
-326.143	176.730	-0.098	0.143
-325.129	-200.000	0.046	0.209
-324.114	-112.156	0.218	-0.044
-323.099	67.471	-0.080	-0.081
-322.085	-52.611	0.241	-0.111
-321.070	-200.000	-0.022	0.171
-320.056	230.078	-0.019	-0.031
-319.041	-70.625	-0.290	-0.110
-318.026	-103.306	0.452	-0.107
-317.012	129.742	0.080	-0.103
-315.997	20.133	0.167	0.135
-314.983	-200.000	0.052	-0.278
-313.968	-200.000	-0.031	0.208
-312.953	62.239	0.138	0.138
-311.939	-122.745	-0.248	-0.040
-310.924	-77.013	0.169	-0.059
-309.910	800.000	0.081	0.248
-308.895	-200.000	0.043	0.293
-307.880	54.622	0.149	-0.143
-306.866	237.279	-0.049	0.081
-305.851	15.129	-0.186	0.146
-304.837	-200.000	-0.057	0.271
-303.822	-92.910	0.208	-0.058
-302.807	-16.886	-0.176	0.111
-301.793	264.750	-0.040	0.070
-300.778	-165.450	-0.124	0.005
-299.764	-200.000	-0.035	-0.214
-298.749	367.205	-0.209	-0.421
-297.735	-200.000	-0.018	0.202
-296.720	342.539	-0.119	0.232
-295.705	-83.816	0.406	0.129
-294.691	-200.000	0.006	0.052
-293.676	228.247	0.201	-0.327
-292.662	-143.676	-0.356	-0.034
-291.647	-200.000	0.022	0.138
-290.632	800.000	0.142	0.415
-289.618	-200.000	0.027	-0.313
-288.603	17.659	0.331	-0.262
-287.589	140.465	0.048	-0.063
-286.574	800.000	-0.048	0.191
-285.559	30.590	0.054	-0.046
-284.545	-8.904	0.203	-0.136
-283.530	-109.160	0.157	0.033
-282.516	-143.781	0.155	-0.015
-281.501	-2.440	-0.326	0.228
-280.486	-200.000	-0.017	0.106
-279.472	-88.309	-0.228	-0.068
-278.457	-93.871	0.226	0.062
-277.443	-10.218	0.271	-0.179
-276.428	280.056	-0.225	-0.401
-275.413	800.000	-0.077	0.224
-274.399	95.852	-0.214	-0.244
-273.384	-200.000	0.005	-0.248
-272.370	-107.161	-0.300	-0.066
-271.355	-121.082	0.011	0.002
-270.340	89.018	-0.123	-0.137
-269.326	-153.079	-0.430	0.030
-268.311	-123.796	0.033	-0.005
-267.297	-158.624	-0.125	0.007
-266.282	-123.694	0.127	-0.020
-265.267	-200.000	0.007	-0.118
-264.253	-18.275	0.214	-0.133
-263.238	-21.649	0.248	-0.151
-262.224	-187.125	0.104	-0.001
-261.209	-200.000	0.010	0.087
-260.195	-45.067	0.137	0.068
-259.180	17.581	0.059	0.047
-258.165	-86.860	0.191	-0.058
-257.151	8.924	-0.125	-0.094
-256.136	312.918	-0.147	0.275
-255.122	79.616	-0.161	-0.172
-254.107	-200.000	0.011	-0.300
-253.092	149.149	0.061	0.082
-252.078	115.411	-0.135	-0.164
-251.063	-47.804	-0.288	-0.139
-250.049	316.724	0.052	0.098
-249.034	-27.363	0.172	0.100
-248.019	-84.929	0.188	-0.059
-247.005	-160.962	0.115	-0.006
-245.990	-167.520	-0.229	0.009
-244.976	-77.497	0.135	-0.047
-243.961	98.096	0.235	0.270
-242.946	-53.290	0.276	0.126
-241.932	-47.201	-0.086	0.042
-240.917	-75.828	-0.315	0.111
-239.903	-6.029	0.326	-0.222
-238.888	448.245	-0.154	0.339
-237.873	-130.642	0.125	-0.017
-236.859	181.031	-0.030	0.044
-235.844	-121.631	-0.142	-0.024
-234.830	-157.221	0.231	0.014
-233.815	-155.099	-0.322	-0.021
-232.800	69.012	-0.081	-0.083
-231.786	-123.198	-0.120	0.019
-230.771	800.000	0.043	-0.119
-229.757	-5.512	0.069	-0.047
-228.742	258.133	-0.149	-0.255
-227.727	-200.000	0.034	-0.232
-226.713	800.000	-0.016	-0.061
-225.698	-8.196	0.263	-0.176
-224.684	-175.611	0.326	0.009
-223.669	-17.411	-0.158	-0.099
-222.655	800.000	0.050	-0.145
-221.640	16.176	-0.239	0.187
-220.625	-96.765	-0.129	0.034
-219.611	-179.588	-0.440	0.010
-218.596	-140.231	-0.424	0.044
-217.582	252.082	-0.007	-0.012
-216.567	-133.669	0.226	0.028
-215.552	-15.856	-0.105	-0.066
-214.538	-73.555	0.211	-0.077
-213.523	-146.235	-0.125	-0.011
-212.509	-200.000	-0.042	0.207
-211.494	30.336	-0.086	-0.073
-210.479	663.054	0.074	-0.189
-209.465	-200.000	-0.003	-0.331
-208.450	107.323	-0.178	-0.210
-207.436	800.000	0.116	0.439
-206.421	-111.545	0.080	0.016
-205.406	-113.085	-0.101	0.020
-204.392	-22.662	0.297	-0.179
-203.377	341.007	0.052	-0.101
-202.363	282.395	-0.100	-0.178
-201.348	-112.568	-0.320	0.064
-200.333	14.524	-0.196	0.152
-199.319	118.183	-0.050	-0.062
-198.304	62.881	-0.184	0.183
-197.290	-159.799	0.139	0.008
-196.275	62.587	0.198	-0.197
-195.260	183.693	0.070	-0.103
-194.246	-200.000	-0.041	0.244
-193.231	-200.000	-0.076	-0.437
-192.217	49.744	-0.146	0.136
-191.202	221.095	0.251	0.400
-190.187	45.279	-0.083	-0.076
-189.173	155.492	-0.127	-0.173
-188.158	149.214	0.142	-0.190
-187.144	-24.302	0.377	0.223
-186.129	-15.481	-0.302	0.192
-185.114	56.657	-0.169	-0.163
-184.100	-122.302	0.286	-0.046
-183.085	-35.867	0.161	0.087
-182.071	-32.890	-0.064	0.036
-181.056	-200.000	-0.012	-0.118
-180.042	95.893	-0.213	-0.241
-179.027	60.186	0.059	0.058
-178.012	800.000	-0.048	0.209
-176.998	-133.463	0.234	-0.029
-175.983	-48.909	-0.339	-0.161
-174.969	20.835	-0.235	-0.189
-173.954	121.688	-0.164	-0.203
-172.939	23.927	0.081	-0.066
-171.925	-194.560	-0.222	-0.002
-170.910	-36.985	0.211	0.113
-169.896	187.902	0.134	0.199
-168.881	-104.092	-0.294	0.068
-167.866	-200.000	0.002	0.192
-166.852	59.998	0.142	-0.139
-165.837	-151.658	0.247	0.018
-164.823	-68.627	-0.358	0.138
-163.808	800.000	-0.083	0.263
-162.793	-77.694	-0.331	-0.114
-161.779	-113.584	0.146	0.028
-160.764	319.890	0.055	-0.104
-159.750	-180.706	-0.089	0.002
-158.735	-57.649	-0.045	0.020
-157.720	-200.000	0.017	-0.104
-156.706	-200.000	0.038	0.212
-155.691	81.674	0.063	-0.068
-154.677	273.312	-0.208	-0.364
-153.662	-96.698	0.055	0.014
-152.647	260.718	0.068	0.117
-151.633	186.816	-0.062	-0.091
-150.618	21.559	-0.262	0.212
-149.604	14.476	-0.119	0.092
-148.589	800.000	-0.063	0.173
-147.574	-200.000	0.044	-0.246
-146.560	250.328	0.023	0.039
-145.545	-200.000	0.064	-0.297
-144.531	18.940	-0.137	0.109
-143.516	531.787	0.206	0.483
-142.502	-200.000	0.042	0.185
-141.487	-94.688	0.307	-0.083
-140.472	91.411	-0.061	-0.068
-139.458	-34.512	-0.052	-0.028
-138.443	-43.580	-0.169	-0.084
-137.429	-93.378	0.074	-0.020
-136.414	-200.000	-0.061	-0.485
-135.399	-93.289	-0.080	0.022
-134.385	601.085	-0.013	-0.032
-133.370	100.564	-0.176	0.202
-132.356	-200.000	-0.004	0.225
-131.341	-200.000	-0.016	-0.153
-130.326	-168.088	0.217	-0.008
-129.312	-137.043	0.098	0.011
-128.297	211.327	0.126	0.197
-127.283	-33.350	0.227	0.125
-126.268	-200.000	0.023	0.126
-125.253	-140.430	-0.350	0.036
-124.239	148.060	0.169	0.226
-123.224	-73.041	0.229	0.083
-122.210	92.496	-0.288	-0.322
