DTS Sentinel unit serial number:	SN413079Multiplexer serial number:	ORYXHardware model number:	OX4-SRSoftware version number:	ORYX F/W v4.00 Oryx Data Collector v3.7.2.0data status	okinstallation	princeton_trtdifferential loss correction	single-endedforward channel	channel 4reverse channel	N/Adate	2019/09/13time	05:41:35forward acquisition time	60.00reverse acquisition time	0.00gamma	496.2192k internal	0.2323k external	0.2323temperature offset calibration	1.0194default loss term (dB/km)	0.3790temperature slope calibration	1.0000multiplexer offset coefficient	1.0000multiplexer slope coefficient	1.0000fibre end	0.00T internal ref (°C)	26.19T ext. ref 1 (°C)	4.03T ext. ref 2 (°C)	20.87length (m)	temperature (°C)	Stokes	anti-Stokes-747.200	-89.135	0.181	-0.054
-746.185	-200.000	0.027	0.189
-745.171	-114.682	0.095	0.018
-744.156	-95.274	0.151	-0.041
-743.142	-106.888	0.219	-0.049
-742.127	-160.243	-0.292	0.016
-741.112	154.262	0.157	-0.218
-740.098	626.223	-0.084	0.213
-739.083	-132.572	0.271	-0.035
-738.069	-21.115	-0.191	0.118
-737.054	12.820	-0.274	0.214
-736.039	-102.394	0.167	0.041
-735.025	157.679	0.162	0.226
-734.010	116.874	-0.207	-0.257
-732.996	524.901	0.181	-0.431
-731.981	-114.025	-0.339	0.066
-730.966	-118.794	0.212	-0.038
-729.952	-200.000	0.007	0.245
-728.937	800.000	0.089	-0.303
-727.923	56.227	0.124	-0.121
-726.908	-200.000	-0.011	-0.079
-725.894	-59.789	0.151	-0.065
-724.879	-200.000	0.038	-0.299
-723.864	43.952	0.062	0.057
-722.850	190.964	0.146	-0.221
-721.835	-49.847	-0.163	-0.078
-720.821	-185.841	-0.011	-0.000
-719.806	-46.887	-0.289	0.143
-718.791	44.554	0.157	-0.146
-717.777	26.073	-0.124	-0.105
-716.762	-28.680	-0.024	0.014
-715.748	-150.829	0.477	0.037
-714.733	-56.713	0.282	0.126
-713.718	50.453	0.117	0.112
-712.704	59.926	-0.234	0.233
-711.689	-3.852	0.041	-0.029
-710.675	143.371	0.085	-0.114
-709.660	-200.000	0.002	0.014
-708.645	-114.067	0.515	0.100
-707.631	-200.000	-0.001	-0.337
-706.616	215.124	0.090	-0.145
-705.602	626.071	-0.105	0.268
-704.587	-18.336	0.144	-0.091
-703.572	-18.165	0.115	-0.073
-702.558	-43.794	0.015	0.007
-701.543	-94.345	0.290	0.080
-700.529	239.555	-0.043	0.072
-699.514	-200.000	-0.048	-0.220
-698.499	-129.226	-0.101	-0.014
-697.485	552.352	0.159	0.384
-696.470	679.497	0.171	-0.447
-695.456	-64.590	0.476	0.195
-694.441	-82.989	-0.177	0.057
-693.426	6.197	0.217	-0.163
-692.412	-9.220	-0.085	0.057
-691.397	-200.000	-0.043	-0.206
-690.383	-16.975	-0.315	-0.200
-689.368	-59.176	0.303	0.132
-688.354	263.087	0.150	-0.263
-687.339	-200.000	0.015	0.096
-686.324	87.228	0.074	-0.082
-685.310	131.663	-0.161	-0.208
-684.295	-100.045	0.159	-0.040
-683.281	800.000	-0.101	-0.344
-682.266	-15.215	0.215	-0.139
-681.251	-108.654	-0.363	0.078
-680.237	-200.000	-0.068	-0.349
-679.222	488.007	-0.033	-0.077
-678.208	379.268	-0.100	-0.207
-677.193	-143.258	0.105	0.010
-676.178	42.384	0.166	0.152
-675.164	232.805	0.084	0.139
-674.149	63.938	-0.108	0.109
-673.135	-188.896	-0.284	0.003
-672.120	-117.175	-0.501	0.092
-671.105	-77.204	0.125	-0.044
-670.091	-78.766	0.431	0.148
-669.076	30.727	-0.298	-0.257
-668.062	800.000	0.074	0.323
-667.047	99.218	0.229	-0.267
-666.032	364.092	0.109	-0.222
-665.018	-59.338	0.317	-0.137
-664.003	800.000	-0.013	0.036
-662.989	214.436	-0.081	0.129
-661.974	-200.000	0.048	-0.263
-660.959	-85.414	-0.176	0.055
-659.945	800.000	0.040	-0.150
-658.930	157.730	-0.163	-0.227
-657.916	-11.034	0.208	-0.138
-656.901	800.000	0.093	-0.266
-655.886	318.785	0.042	-0.081
-654.872	-200.000	0.006	-0.091
-653.857	800.000	-0.107	-0.360
-652.843	-200.000	-0.019	0.115
-651.828	-176.043	0.251	-0.007
-650.814	-154.788	-0.453	0.030
-649.799	800.000	-0.072	0.215
-648.784	-46.022	-0.247	0.122
-647.770	-14.562	0.211	0.137
-646.755	-57.966	0.069	-0.030
-645.741	15.214	-0.341	0.269
-644.726	-200.000	0.028	0.168
-643.711	-200.000	-0.004	-0.132
-642.697	800.000	-0.139	0.423
-641.682	-146.416	-0.140	0.012
-640.668	722.842	0.107	0.285
-639.653	800.000	-0.081	0.319
-638.638	-69.545	0.122	0.047
-637.624	800.000	-0.077	-0.229
-636.609	800.000	0.073	0.218
-635.595	-106.539	0.144	-0.032
-634.580	-44.719	-0.104	0.052
-633.565	-59.220	0.218	-0.094
-632.551	57.479	-0.104	-0.103
-631.536	-70.123	0.059	-0.023
-630.522	247.047	0.018	-0.030
-629.507	191.916	-0.116	0.177
-628.492	-4.184	-0.052	0.036
-627.478	-59.635	0.137	-0.059
-626.463	89.680	0.182	0.204
-625.449	-52.827	0.128	0.059
-624.434	90.022	-0.137	0.154
-623.419	-78.416	0.046	0.016
-622.405	-70.646	-0.412	0.156
-621.390	199.115	-0.188	0.290
-620.376	44.916	-0.188	-0.174
-619.361	-200.000	0.030	0.217
-618.346	319.879	0.168	-0.321
-617.332	175.088	-0.065	0.095
-616.317	-144.792	-0.076	0.007
-615.303	-42.905	-0.134	-0.068
-614.288	-200.000	0.047	0.209
-613.273	-45.151	0.069	0.035
-612.259	-56.947	-0.028	0.012
-611.244	-101.718	0.074	-0.018
-610.230	-126.653	0.277	0.041
-609.215	800.000	0.143	-0.423
-608.201	-200.000	0.015	0.101
-607.186	426.184	-0.072	0.157
-606.171	-128.539	0.076	-0.011
-605.157	1.466	-0.222	-0.160
-604.142	85.211	0.277	0.305
-603.128	-175.054	-0.382	-0.011
-602.113	-200.000	-0.001	-0.224
-601.098	66.803	-0.207	0.212
-600.084	144.098	0.147	-0.197
-599.069	800.000	0.077	-0.265
-598.055	-31.554	-0.278	0.157
-597.040	-55.615	-0.258	-0.116
-596.025	-1.825	-0.069	-0.049
-595.011	2.258	-0.142	-0.103
-593.996	-200.000	-0.003	0.289
-592.982	800.000	-0.099	-0.289
-591.967	-200.000	0.045	0.331
-590.952	-38.936	0.152	-0.080
-589.938	-200.000	0.009	-0.092
-588.923	-88.613	-0.186	0.056
-587.909	-131.802	0.056	0.007
-586.894	252.574	-0.097	0.167
-585.879	18.527	0.197	0.158
-584.865	-200.000	-0.010	0.250
-583.850	311.582	0.034	-0.065
-582.836	800.000	-0.089	-0.249
-581.821	200.951	-0.129	0.200
-580.806	-138.795	-0.215	-0.024
-579.792	-200.000	-0.037	0.165
-578.777	507.522	-0.127	0.296
-577.763	800.000	-0.166	0.543
-576.748	215.233	0.081	0.129
-575.733	-185.514	-0.159	0.002
-574.719	718.715	0.172	0.458
-573.704	-113.885	0.064	0.013
-572.690	-128.909	0.152	0.021
-571.675	800.000	0.076	0.244
-570.661	564.694	0.170	-0.413
-569.646	-68.481	0.301	-0.117
-568.631	33.338	-0.121	0.106
-567.617	8.081	0.211	0.159
-566.602	243.058	-0.195	-0.327
-565.588	-75.087	-0.105	0.038
-564.573	-200.000	-0.009	-0.059
-563.558	-75.199	-0.388	-0.139
-562.544	-46.284	-0.063	0.031
-561.529	-200.000	-0.053	0.315
-560.515	158.899	0.134	-0.187
-559.500	-115.933	-0.359	-0.067
-558.485	-200.000	-0.006	0.231
-557.471	800.000	0.029	-0.088
-556.456	390.750	0.215	-0.447
-555.442	31.072	-0.212	-0.182
-554.427	99.388	0.231	0.268
-553.412	-56.506	-0.162	0.072
-552.398	-75.426	-0.133	0.048
-551.383	-7.501	-0.094	0.064
-550.369	-0.298	0.299	0.213
-549.354	-86.927	-0.231	0.071
-548.339	220.355	0.098	0.157
-547.325	-171.068	0.172	0.006
-546.310	-108.342	-0.277	0.060
-545.296	162.309	0.067	0.094
-544.281	-124.331	0.174	0.027
-543.266	172.421	0.193	-0.278
-542.252	689.456	-0.026	-0.068
-541.237	-200.000	0.004	-0.225
-540.223	684.251	-0.174	0.456
-539.208	-131.021	-0.174	-0.023
-538.193	-5.607	0.105	0.072
-537.179	-51.564	-0.389	0.182
-536.164	800.000	0.035	0.121
-535.150	89.941	-0.126	0.141
-534.135	-26.166	-0.121	0.071
-533.121	-79.099	0.316	0.108
-532.106	-16.104	-0.221	0.141
-531.091	792.861	-0.043	0.118
-530.077	158.468	-0.007	-0.010
-529.062	419.997	0.042	-0.089
-528.048	-200.000	-0.074	0.384
-527.033	63.526	-0.100	0.100
-526.018	-84.938	-0.221	-0.069
-525.004	800.000	0.073	-0.320
-523.989	-200.000	0.064	-0.359
-522.975	-130.134	-0.600	0.082
-521.960	-19.232	0.321	0.199
-520.945	-55.310	-0.198	0.089
-519.931	29.598	0.166	0.142
-518.916	316.046	0.076	-0.143
-517.902	9.528	0.098	-0.074
-516.887	83.001	0.243	-0.264
-515.872	259.141	0.211	-0.364
-514.858	621.507	-0.129	0.326
-513.843	30.683	0.155	0.133
-512.829	565.753	-0.119	0.288
-511.814	-24.836	-0.282	0.167
-510.799	-9.549	0.259	0.173
-509.785	237.433	-0.177	0.293
-508.770	58.706	0.134	-0.132
-507.756	572.229	-0.071	0.174
-506.741	-15.724	-0.176	-0.112
-505.726	40.124	0.132	-0.118
-504.712	46.626	-0.166	-0.154
-503.697	-37.684	-0.249	-0.133
-502.683	-12.380	-0.337	0.220
-501.668	-105.300	0.175	-0.040
-500.653	29.165	-0.140	-0.119
-499.639	-200.000	0.018	-0.145
-498.624	-124.604	-0.401	0.062
-497.610	-80.567	0.462	-0.154
-496.595	-85.734	0.058	0.018
-495.581	48.093	-0.079	-0.074
-494.566	-200.000	0.018	-0.155
-493.551	297.555	-0.123	0.226
-492.537	648.856	0.054	0.137
-491.522	-200.000	-0.030	-0.241
-490.508	-59.013	-0.192	-0.083
-489.493	-39.682	-0.074	0.039
-488.478	92.410	0.242	0.273
-487.464	-200.000	-0.042	0.229
-486.449	36.641	-0.174	-0.154
-485.435	150.294	0.141	-0.192
-484.420	220.009	0.194	-0.311
-483.405	800.000	-0.089	-0.373
-482.391	247.614	0.191	-0.322
-481.376	4.948	-0.221	-0.163
-480.362	-107.627	0.304	0.066
-479.347	-73.617	-0.134	0.049
-478.332	-200.000	0.072	0.539
-477.318	25.000	0.234	0.194
-476.303	331.626	0.142	-0.274
-475.289	-99.050	-0.113	0.029
-474.274	800.000	0.072	0.214
-473.259	800.000	-0.011	-0.049
-472.245	-200.000	-0.072	-0.443
-471.230	800.000	0.058	-0.174
-470.216	189.732	-0.230	-0.345
-469.201	-165.853	-0.152	0.007
-468.186	-200.000	0.049	-0.258
-467.172	800.000	-0.080	0.232
-466.157	30.437	0.137	-0.117
-465.143	-87.017	0.261	-0.079
-464.128	-83.738	-0.202	0.065
-463.113	30.799	0.265	-0.226
-462.099	-0.095	0.222	-0.158
-461.084	70.981	0.236	0.244
-460.070	-200.000	0.020	0.136
-459.055	28.967	-0.156	0.132
-458.040	800.000	0.003	0.014
-457.026	-74.233	0.206	-0.074
-456.011	27.895	0.037	0.031
-454.997	800.000	-0.031	0.096
-453.982	-30.895	0.292	-0.165
-452.968	40.105	0.213	0.191
-451.953	69.821	0.224	-0.231
-450.938	-200.000	-0.052	-0.231
-449.924	-37.247	-0.357	-0.191
-448.909	62.929	-0.346	-0.345
-447.895	-25.482	-0.291	-0.172
-446.880	58.024	0.114	-0.111
-445.865	-143.614	0.229	0.022
-444.851	37.840	0.095	0.084
-443.836	-76.326	0.193	-0.068
-442.822	80.062	0.013	0.014
-441.807	-198.856	0.362	0.002
-440.792	-79.844	-0.116	-0.039
-439.778	57.986	0.146	0.143
-438.763	3.225	0.294	-0.213
-437.749	-41.760	-0.163	0.084
-436.734	-200.000	0.004	0.274
-435.719	-200.000	0.009	-0.088
-434.705	-6.963	-0.093	-0.063
-433.690	119.723	-0.160	-0.197
-432.676	171.306	0.071	-0.102
-431.661	-69.897	-0.281	-0.107
-430.646	-19.765	-0.087	-0.054
-429.632	-138.038	0.113	0.013
-428.617	-4.797	-0.040	0.028
-427.603	584.575	-0.094	0.231
-426.588	-88.523	0.214	0.064
-425.573	-200.000	0.017	0.176
-424.559	-43.255	-0.141	0.071
-423.544	-85.843	0.305	-0.094
-422.530	4.626	-0.239	0.175
-421.515	464.803	-0.001	0.003
-420.500	-133.256	0.178	-0.022
-419.486	108.772	-0.094	-0.112
-418.471	157.454	0.109	-0.150
-417.457	-106.605	0.225	-0.050
-416.442	-200.000	-0.310	0.001
-415.428	-103.709	0.358	0.084
-414.413	22.924	0.012	0.010
-413.398	-152.755	0.078	0.006
-412.384	-200.000	0.022	-0.287
-411.369	364.472	0.117	-0.235
-410.355	209.988	0.039	0.062
-409.340	625.195	-0.164	-0.411
-408.325	78.102	0.135	-0.144
-407.311	-200.000	-0.016	-0.122
-406.296	-47.360	0.273	-0.132
-405.282	-92.530	0.153	-0.043
-404.267	66.175	-0.230	0.232
-403.252	-87.064	-0.237	-0.072
-402.238	800.000	-0.145	-0.417
-401.223	43.382	-0.104	0.094
-400.209	151.776	0.097	0.131
-399.194	800.000	-0.027	0.116
-398.179	777.965	0.068	-0.186
-397.165	800.000	-0.032	0.124
-396.150	-63.116	-0.144	-0.059
-395.136	-184.765	-0.209	0.003
-394.121	227.123	0.113	-0.183
-393.106	800.000	-0.048	0.168
-392.092	752.999	-0.129	0.347
-391.077	-71.876	0.037	-0.014
-390.063	347.218	0.067	-0.131
-389.048	128.458	0.203	-0.257
-388.033	-200.000	-0.015	0.216
-387.019	800.000	0.086	-0.307
-386.004	35.917	-0.076	-0.067
-384.990	-46.144	0.201	0.098
-383.975	-63.978	-0.077	0.031
-382.960	-48.328	0.207	-0.099
-381.946	407.630	-0.073	0.153
-380.931	655.635	-0.078	-0.199
-379.917	-57.778	-0.198	0.086
-378.902	547.441	-0.071	0.168
-377.888	496.369	-0.119	-0.273
-376.873	-59.348	-0.251	0.108
-375.858	-139.928	-0.382	-0.040
-374.844	-56.419	0.176	0.078
-373.829	-39.161	-0.245	-0.128
-372.815	203.019	0.093	0.143
-371.800	610.094	-0.105	0.260
-370.785	69.678	0.114	-0.116
-369.771	-200.000	-0.009	-0.166
-368.756	-200.000	0.008	-0.100
-367.742	172.647	0.096	0.137
-366.727	-28.141	-0.041	0.024
-365.712	-200.000	0.021	-0.171
-364.698	57.477	-0.135	-0.131
-363.683	-159.202	0.172	-0.010
-362.669	-200.000	-0.005	-0.182
-361.654	396.404	0.163	-0.339
-360.639	800.000	-0.083	-0.291
-359.625	-27.528	-0.361	0.209
-358.610	-200.000	-0.015	0.372
-357.596	-122.252	0.208	0.034
-356.581	-115.354	-0.146	-0.027
-355.566	674.894	-0.084	0.217
-354.552	-46.991	0.329	0.160
-353.537	-200.000	0.039	-0.394
-352.523	-34.111	0.160	0.088
-351.508	401.035	0.058	0.121
-350.493	183.328	-0.085	-0.125
-349.479	-102.155	0.255	0.061
-348.464	445.760	0.124	-0.271
-347.450	-123.999	-0.114	-0.018
-346.435	409.216	0.127	-0.268
-345.420	338.400	-0.192	0.371
-344.406	206.158	0.081	-0.125
-343.391	464.945	-0.060	0.133
-342.377	219.200	-0.052	-0.083
-341.362	-200.000	-0.008	-0.325
-340.348	-41.772	0.367	-0.187
-339.333	567.157	0.049	-0.118
-338.318	800.000	0.035	-0.123
-337.304	67.973	0.286	0.291
-336.289	-200.000	0.016	0.140
-335.275	-38.160	-0.145	0.076
-334.260	73.095	0.098	-0.101
-333.245	94.597	-0.190	0.215
-332.231	158.228	-0.129	0.178
-331.216	-200.000	0.007	0.035
-330.202	-74.497	-0.115	-0.041
-329.187	-200.000	-0.004	-0.112
-328.172	-41.451	0.040	-0.021
-327.158	800.000	0.096	-0.337
-326.143	-87.540	-0.026	-0.008
-325.129	331.936	-0.219	-0.420
-324.114	73.881	0.026	0.027
-323.099	-80.421	-0.155	-0.051
-322.085	5.194	0.104	-0.076
-321.070	130.034	0.153	0.195
-320.056	593.871	0.019	-0.048
-319.041	63.675	0.200	0.200
-318.026	-43.032	0.005	-0.002
-317.012	-200.000	-0.009	-0.433
-315.997	-22.766	-0.134	0.080
-314.983	-3.598	0.245	0.169
-313.968	-200.000	-0.017	-0.263
-312.953	95.511	0.084	-0.095
-311.939	-61.393	-0.172	-0.072
-310.924	-200.000	-0.012	0.070
-309.910	-23.010	0.074	0.044
-308.895	265.791	-0.050	-0.087
-307.880	-200.000	-0.032	-0.236
-306.866	172.374	-0.096	-0.137
-305.851	-170.930	0.540	0.018
-304.837	166.946	-0.047	0.066
-303.822	-144.711	0.084	-0.008
-302.807	800.000	0.119	-0.344
-301.793	219.492	-0.127	0.202
-300.778	171.455	-0.031	0.044
-299.764	-200.000	-0.057	0.272
-298.749	217.031	0.140	-0.221
-297.735	-29.996	0.281	0.159
-296.720	-72.786	-0.206	0.075
-295.705	607.804	0.078	-0.193
-294.691	-144.914	0.258	0.023
-293.676	-137.926	0.073	0.008
-292.662	56.558	-0.152	-0.147
-291.647	-114.912	-0.226	-0.043
-290.632	563.058	0.033	-0.080
-289.618	-150.358	-0.075	-0.006
-288.603	-197.759	0.268	0.002
-287.589	-200.000	0.016	0.177
-286.574	-58.505	-0.365	-0.157
-285.559	85.236	-0.039	-0.043
-284.545	-28.045	0.095	-0.055
-283.530	-50.396	0.285	0.133
-282.516	111.285	-0.070	-0.084
-281.501	3.840	-0.049	0.035
-280.486	498.636	-0.132	0.303
-279.472	90.495	-0.269	0.299
-278.457	-65.602	-0.245	-0.097
-277.443	368.732	0.167	0.335
-276.428	144.888	-0.083	-0.109
-275.413	800.000	-0.118	-0.335
-274.399	-45.981	0.219	0.107
-273.384	190.233	-0.094	-0.139
-272.370	-200.000	-0.041	0.190
-271.355	-200.000	-0.040	-0.228
-270.340	-200.000	-0.022	0.150
-269.326	-200.000	-0.001	-0.034
-268.311	-21.988	-0.451	0.272
-267.297	-73.909	-0.188	0.068
-266.282	-95.740	0.055	-0.015
-265.267	-200.000	0.033	0.289
-264.253	-118.770	0.293	0.051
-263.238	404.012	-0.130	-0.272
-262.224	-131.793	0.484	0.063
-261.209	-200.000	0.009	-0.141
-260.195	9.335	-0.166	-0.124
-259.180	206.008	-0.165	0.255
-258.165	372.549	0.103	0.207
-257.151	208.060	0.094	0.145
-256.136	260.403	-0.207	-0.354
-255.122	646.287	-0.053	-0.134
-254.107	-59.591	0.339	-0.144
-253.092	-84.017	-0.218	-0.069
-252.078	525.133	0.009	0.020
-251.063	-55.544	-0.259	0.115
-250.049	490.806	0.115	-0.260
-249.034	762.925	-0.069	0.187
-248.019	6.986	0.124	0.092
-247.005	-157.182	0.100	-0.006
-245.990	134.306	0.227	-0.292
-244.976	151.357	0.057	0.077
-243.961	-200.000	-0.002	0.131
-242.946	16.402	-0.104	-0.081
-241.932	-200.000	0.020	0.110
-240.917	103.384	0.201	0.234
-239.903	-75.673	0.082	0.029
-238.888	-39.643	0.216	0.112
-237.873	61.395	-0.141	0.138
-236.859	-133.235	0.120	0.015
-235.844	42.729	-0.135	0.122
-234.830	800.000	0.031	-0.105
-233.815	123.476	0.152	-0.189
-232.800	-200.000	-0.027	-0.311
-231.786	-50.954	0.092	0.043
-230.771	-96.810	-0.137	-0.036
-229.757	3.819	-0.143	0.104
-228.742	-59.239	0.063	-0.027
-227.727	465.110	0.114	0.252
-226.713	34.402	0.114	0.098
-225.698	-27.656	-0.191	-0.110
-224.684	-200.000	-0.010	-0.243
-223.669	-175.690	-0.189	0.005
-222.655	-91.460	0.331	-0.094
-221.640	-33.551	0.065	-0.036
-220.625	-33.701	-0.194	0.106
-219.611	-73.012	-0.267	0.097
-218.596	277.920	0.100	0.177
-217.582	-70.200	-0.341	-0.128
-216.567	800.000	-0.037	0.128
-215.552	447.344	0.059	0.128
-214.538	-17.420	0.012	0.007
-213.523	245.592	0.152	-0.253
-212.509	800.000	0.099	0.282
-211.494	-108.947	-0.061	0.013
-210.479	-200.000	0.031	-0.348
-209.465	-153.220	0.497	-0.034
-208.450	-64.005	-0.138	-0.056
-207.436	328.422	0.198	0.376
-206.421	229.511	0.154	0.249
-205.406	800.000	-0.083	0.276
-204.392	-200.000	-0.010	0.081
-203.377	-99.047	0.131	-0.033
-202.363	-112.611	0.291	0.057
-201.348	-14.220	0.062	0.040
-200.333	-104.863	0.448	-0.102
-199.319	-112.583	0.278	0.055
-198.304	122.801	0.059	-0.072
-197.290	59.148	0.067	-0.065
-196.275	-200.000	-0.051	-0.305
-195.260	644.659	0.094	0.236
-194.246	-62.524	0.355	-0.146
-193.231	-134.060	-0.080	-0.010
-192.217	800.000	0.058	-0.225
-191.202	236.163	0.026	0.042
-190.187	-19.958	-0.168	0.102
-189.173	2.829	0.364	-0.261
-188.158	-28.145	-0.285	-0.163
-187.144	567.798	0.015	0.037
-186.129	-80.332	-0.099	-0.033
-185.114	-54.282	-0.242	0.108
-184.100	-9.125	0.041	0.027
-183.085	-77.917	-0.190	0.065
-182.071	800.000	-0.069	-0.285
-181.056	-47.717	-0.112	-0.054
-180.042	-86.191	0.231	0.070
-179.027	-200.000	-0.041	0.312
-178.012	-111.848	0.173	-0.034
-176.998	-200.000	-0.010	-0.263
-175.983	-79.934	-0.174	-0.058
-174.969	-200.000	0.020	-0.200
-173.954	49.060	-0.340	0.315
-172.939	-109.941	-0.076	-0.016
-171.925	-200.000	0.024	-0.237
-170.910	-200.000	0.005	-0.108
-169.896	-45.675	-0.403	-0.197
-168.881	15.137	0.174	0.135
-167.866	800.000	-0.047	0.176
-166.852	363.687	0.105	0.208
-165.837	-185.640	0.175	-0.003
-164.823	153.689	0.106	0.143
-163.808	555.017	0.118	0.281
-162.793	-4.257	-0.124	-0.085
-161.779	59.456	0.135	0.131
-160.764	-74.257	0.277	-0.099
-159.750	-51.467	-0.185	-0.085
-158.735	-80.980	0.067	0.022
-157.720	-119.153	0.075	0.013
-156.706	116.239	-0.244	-0.295
-155.691	-17.318	-0.261	-0.162
-154.677	448.518	-0.034	-0.073
-153.662	-13.357	-0.144	0.092
-152.647	-100.215	0.158	-0.039
-151.633	43.777	-0.219	0.198
-150.618	203.746	-0.124	-0.190
-149.604	45.304	0.199	0.181
-148.589	-41.289	-0.070	0.036
-147.574	477.258	0.103	-0.231
-146.560	-200.000	0.011	0.252
-145.545	281.890	0.168	0.297
-144.531	-40.935	-0.314	0.160
-143.516	209.287	0.180	0.277
-142.502	412.040	-0.060	-0.126
-141.487	14.767	0.140	-0.108
-140.472	32.388	0.140	-0.119
-139.458	-160.693	0.327	-0.017
-138.443	-90.263	0.158	0.045
-137.429	-62.422	0.239	-0.098
-136.414	10.848	-0.139	-0.105
-135.399	20.943	0.409	0.327
-134.385	-200.000	0.002	0.173
-133.370	132.694	-0.192	0.245
-132.356	-128.747	-0.073	-0.010
-131.341	734.302	-0.144	-0.381
-130.326	-48.492	-0.348	-0.165
-129.312	-131.570	0.270	0.035
-128.297	-200.000	-0.022	-0.160
-127.283	800.000	-0.011	0.030
-126.268	-200.000	-0.044	-0.357
-125.253	800.000	0.027	0.081
-124.239	-200.000	0.003	-0.023
-123.224	-200.000	0.022	-0.132
-122.210	800.000	-0.021	0.082
-121.195	-200.000	0.009	0.288
-120.180	150.557	0.010	-0.013
