DTS Sentinel unit serial number:	SN413079Multiplexer serial number:	ORYXHardware model number:	OX4-SRSoftware version number:	ORYX F/W v4.00 Oryx Data Collector v3.7.2.0data status	okinstallation	princeton_trtdifferential loss correction	single-endedforward channel	channel 4reverse channel	N/Adate	2019/09/14time	06:01:34forward acquisition time	60.00reverse acquisition time	0.00gamma	496.2192k internal	0.2322k external	0.2322temperature offset calibration	1.0135default loss term (dB/km)	0.3790temperature slope calibration	1.0000multiplexer offset coefficient	1.0000multiplexer slope coefficient	1.0000fibre end	0.00T internal ref (°C)	26.81T ext. ref 1 (°C)	3.40T ext. ref 2 (°C)	21.03length (m)	temperature (°C)	Stokes	anti-Stokes-747.200	-3.567	-0.060	0.042
-746.185	-96.965	-0.369	-0.098
-745.171	-200.000	0.019	0.136
-744.156	-200.000	-0.045	0.267
-743.142	-95.445	0.202	0.055
-742.127	207.704	0.129	0.203
-741.112	-35.408	-0.156	-0.086
-740.098	800.000	0.046	-0.133
-739.083	50.427	-0.046	0.044
-738.069	-105.246	-0.377	-0.087
-737.054	335.233	-0.197	0.385
-736.039	5.750	-0.205	0.153
-735.025	170.810	0.167	0.241
-734.010	-43.488	-0.107	-0.055
-732.996	-16.951	-0.286	-0.182
-731.981	-33.698	-0.208	0.116
-730.966	-83.506	0.481	-0.155
-729.952	379.256	0.086	0.178
-728.937	62.817	-0.078	-0.079
-727.923	-94.523	-0.392	-0.108
-726.908	800.000	0.093	-0.398
-725.894	-200.000	0.020	-0.190
-724.879	800.000	0.062	-0.253
-723.864	45.016	-0.127	-0.118
-722.850	77.250	-0.162	0.174
-721.835	-200.000	-0.017	0.092
-720.821	21.794	-0.321	0.264
-719.806	390.821	0.043	0.090
-718.791	441.538	-0.056	0.124
-717.777	-95.795	0.055	-0.015
-716.762	-107.416	0.160	0.035
-715.748	-65.715	-0.241	0.097
-714.733	-103.558	-0.181	-0.043
-713.718	-79.803	-0.191	0.065
-712.704	-200.000	0.011	-0.162
-711.689	-54.533	0.148	-0.068
-710.675	-107.310	-0.090	0.020
-709.660	40.952	-0.062	-0.056
-708.645	-1.744	-0.147	-0.104
-707.631	-150.695	-0.078	-0.006
-706.616	20.501	-0.208	-0.170
-705.602	-4.549	0.126	-0.088
-704.587	-6.336	-0.093	-0.064
-703.572	127.826	0.023	0.029
-702.558	225.939	0.157	0.257
-701.543	12.981	-0.337	-0.263
-700.529	287.555	0.089	0.163
-699.514	786.790	0.122	-0.338
-698.499	800.000	-0.065	-0.282
-697.485	-200.000	-0.018	0.126
-696.470	64.234	-0.136	0.139
-695.456	193.403	-0.240	0.366
-694.441	3.912	-0.168	-0.124
-693.426	434.325	0.017	0.037
-692.412	-168.008	0.112	0.004
-691.397	45.772	-0.108	0.101
-690.383	-200.000	0.015	0.538
-689.368	-200.000	-0.014	0.137
-688.354	800.000	0.107	-0.364
-687.339	64.916	0.066	0.067
-686.324	800.000	-0.085	-0.283
-685.310	-40.725	0.129	-0.067
-684.295	800.000	0.028	-0.113
-683.281	548.840	-0.117	0.282
-682.266	125.723	-0.211	-0.268
-681.251	800.000	-0.058	0.180
-680.237	-121.622	0.232	-0.039
-679.222	21.419	-0.221	0.181
-678.208	207.890	0.070	0.110
-677.193	713.616	0.040	0.108
-676.178	-200.000	-0.039	0.206
-675.164	222.705	0.279	-0.452
-674.149	78.675	0.237	-0.255
-673.135	-63.380	-0.290	-0.120
-672.120	-81.940	0.153	-0.050
-671.105	-200.000	0.025	-0.270
-670.091	-200.000	-0.007	0.121
-669.076	-105.042	-0.073	-0.017
-668.062	338.459	-0.041	0.080
-667.047	-157.430	0.400	0.024
-666.032	-99.591	0.100	0.025
-665.018	31.361	-0.101	-0.088
-664.003	-200.000	-0.073	0.355
-662.989	151.590	-0.067	-0.091
-661.974	330.463	-0.175	-0.340
-660.959	-200.000	-0.007	-0.092
-659.945	-22.714	0.132	0.080
-658.930	-200.000	0.056	-0.274
-657.916	115.065	0.171	-0.211
-656.901	-63.424	-0.222	-0.092
-655.886	800.000	0.045	-0.149
-654.872	-62.570	-0.211	0.088
-653.857	465.372	-0.175	0.393
-652.843	114.004	-0.081	-0.099
-651.828	124.266	0.158	0.200
-650.814	471.803	0.088	-0.199
-649.799	144.572	-0.045	-0.061
-648.784	36.064	0.124	-0.109
-647.770	-146.657	-0.503	-0.044
-646.755	-37.528	-0.156	-0.084
-645.741	81.881	-0.256	-0.279
-644.726	-51.349	0.361	-0.170
-643.711	-112.918	-0.402	0.080
-642.697	-79.579	0.167	-0.057
-641.682	-59.914	-0.303	-0.130
-640.668	684.148	0.070	0.184
-639.653	-9.946	-0.132	-0.088
-638.638	800.000	0.105	0.315
-637.624	-159.330	0.179	-0.010
-636.609	-77.150	0.328	0.115
-635.595	-200.000	0.011	-0.306
-634.580	75.413	0.101	-0.108
-633.565	-153.743	-0.298	-0.021
-632.551	12.814	-0.139	-0.108
-631.536	244.183	-0.122	-0.207
-630.522	215.282	0.136	-0.217
-629.507	110.762	0.060	0.072
-628.492	20.334	0.100	-0.081
-627.478	24.494	0.274	0.228
-626.463	29.978	0.093	0.079
-625.449	-200.000	0.023	0.234
-624.434	-64.936	0.082	0.033
-623.419	800.000	-0.101	-0.298
-622.405	800.000	0.054	0.215
-621.390	-200.000	0.010	-0.195
-620.376	-200.000	0.005	0.362
-619.361	-200.000	0.015	0.167
-618.346	129.999	-0.080	0.103
-617.332	226.949	-0.131	0.214
-616.317	-200.000	0.006	0.172
-615.303	50.033	0.181	0.171
-614.288	331.663	-0.143	-0.278
-613.273	200.185	0.161	0.249
-612.259	501.218	0.069	-0.160
-611.244	-87.124	0.175	0.054
-610.230	392.891	-0.074	-0.155
-609.215	-98.976	-0.176	-0.045
-608.201	165.474	0.109	-0.155
-607.186	-200.000	-0.040	-0.231
-606.171	-51.838	-0.339	-0.159
-605.157	42.593	-0.255	0.233
-604.142	88.776	0.087	-0.097
-603.128	-143.058	-0.083	-0.008
-602.113	0.996	0.226	-0.163
-601.098	-65.161	0.172	0.069
-600.084	41.696	-0.239	0.217
-599.069	303.491	0.051	-0.095
-598.055	800.000	0.049	0.176
-597.040	433.297	0.113	-0.246
-596.025	9.740	0.108	-0.082
-595.011	-144.660	-0.086	0.008
-593.996	-106.129	-0.114	-0.026
-592.982	698.917	0.077	-0.203
-591.967	800.000	-0.021	-0.074
-590.952	-200.000	-0.018	-0.116
-589.938	-108.698	0.235	0.051
-588.923	-75.507	-0.392	-0.140
-587.909	-42.300	-0.064	0.033
-586.894	-110.222	0.084	-0.018
-585.879	-45.952	0.146	-0.072
-584.865	168.021	-0.062	-0.089
-583.850	-46.106	0.290	-0.143
-582.836	800.000	-0.052	0.201
-581.821	-89.529	-0.128	-0.038
-580.806	253.660	-0.071	0.122
-579.792	-200.000	-0.025	-0.209
-578.777	-80.386	-0.044	-0.015
-577.763	146.862	0.158	-0.214
-576.748	-13.804	-0.331	-0.215
-575.733	800.000	0.107	-0.304
-574.719	408.083	-0.052	0.111
-573.704	-200.000	-0.001	-0.170
-572.690	50.895	-0.133	0.126
-571.675	355.322	-0.078	-0.155
-570.661	60.767	-0.077	-0.077
-569.646	-200.000	0.042	0.262
-568.631	800.000	0.043	-0.142
-567.617	594.672	0.179	0.445
-566.602	-200.000	-0.222	0.001
-565.588	559.539	-0.047	-0.114
-564.573	800.000	0.135	-0.415
-563.558	-160.261	0.117	-0.006
-562.544	-200.000	0.045	-0.253
-561.529	-79.807	0.133	-0.045
-560.515	164.886	-0.107	-0.151
-559.500	-200.000	0.016	0.129
-558.485	-200.000	0.014	0.186
-557.471	-200.000	0.058	-0.255
-556.456	750.190	0.061	-0.166
-555.442	353.370	-0.042	-0.084
-554.427	200.974	0.087	-0.134
-553.412	-90.145	0.304	-0.089
-552.398	513.642	-0.074	-0.174
-551.383	800.000	-0.043	-0.135
-550.369	-200.000	-0.047	0.459
-549.354	800.000	-0.046	-0.139
-548.339	-41.166	-0.153	0.079
-547.325	800.000	-0.053	0.229
-546.310	-163.342	-0.195	-0.009
-545.296	-145.241	-0.269	-0.024
-544.281	88.027	0.113	0.126
-543.266	800.000	0.055	0.159
-542.252	-106.264	0.042	0.009
-541.237	55.173	0.249	0.241
-540.223	28.051	0.323	-0.273
-539.208	-19.762	-0.274	-0.170
-538.193	43.069	0.054	0.050
-537.179	-200.000	0.028	0.150
-536.164	-200.000	-0.061	0.399
-535.150	182.098	-0.176	-0.259
-534.135	-66.553	-0.228	0.091
-533.121	-83.411	-0.292	-0.094
-532.106	-96.178	0.174	0.046
-531.091	425.100	0.173	-0.374
-530.077	-84.044	0.134	0.043
-529.062	166.884	-0.127	-0.181
-528.048	107.612	0.167	0.199
-527.033	-200.000	-0.008	-0.037
-526.018	47.728	-0.132	0.124
-525.004	800.000	-0.029	-0.083
-523.989	-129.042	-0.276	-0.039
-522.975	-57.244	-0.224	0.099
-521.960	70.020	0.241	-0.249
-520.945	-0.792	0.203	-0.144
-519.931	-89.331	-0.123	-0.036
-518.916	-50.455	-0.107	-0.051
-517.902	66.857	0.082	-0.083
-516.887	291.223	-0.262	-0.478
-515.872	-26.217	-0.158	-0.093
-514.858	-50.502	-0.132	0.062
-513.843	800.000	0.047	0.161
-512.829	80.190	0.108	-0.116
-511.814	-200.000	0.019	0.196
-510.799	-130.293	0.087	-0.012
-509.785	14.046	0.362	-0.282
-508.770	800.000	0.111	-0.343
-507.756	-200.000	0.045	0.402
-506.741	446.408	-0.155	0.341
-505.726	-46.831	-0.409	0.200
-504.712	-60.505	0.240	-0.102
-503.697	73.912	0.165	0.173
-502.683	-91.738	-0.085	0.024
-501.668	-12.124	-0.226	-0.148
-500.653	73.053	0.048	0.051
-499.639	461.337	-0.010	-0.022
-498.624	789.880	-0.155	0.426
-497.610	195.144	-0.090	-0.137
-496.595	-194.212	-0.066	-0.001
-495.581	286.971	-0.065	0.118
-494.566	-200.000	0.010	0.134
-493.551	-105.227	-0.248	-0.057
-492.537	-35.083	-0.220	-0.120
-491.522	764.632	-0.091	-0.248
-490.508	13.656	0.118	0.092
-489.493	170.269	-0.047	-0.067
-488.478	135.211	0.061	-0.079
-487.464	800.000	-0.049	0.157
-486.449	-3.692	-0.075	0.052
-485.435	350.767	0.157	0.311
-484.420	26.567	0.300	0.251
-483.405	-200.000	-0.041	0.401
-482.391	134.359	0.102	0.132
-481.376	82.238	0.185	-0.201
-480.362	94.048	-0.116	-0.131
-479.347	-173.758	-0.144	0.004
-478.332	-118.630	-0.093	0.017
-477.318	-200.000	0.001	-0.224
-476.303	206.980	-0.131	0.204
-475.289	335.297	-0.158	0.305
-474.274	51.750	-0.277	0.264
-473.259	-100.672	-0.248	0.061
-472.245	-200.000	-0.018	0.203
-471.230	471.110	0.068	0.153
-470.216	243.754	0.094	-0.158
-469.201	-102.654	-0.053	0.013
-468.186	-64.753	-0.076	0.031
-467.172	-88.257	-0.031	0.009
-466.157	563.687	0.065	-0.157
-465.143	-111.355	0.060	0.012
-464.128	83.933	0.047	0.051
-463.113	-200.000	0.000	0.090
-462.099	-51.191	-0.234	-0.110
-461.084	76.488	0.057	0.060
-460.070	-113.884	0.108	-0.021
-459.055	204.971	-0.010	-0.016
-458.040	-96.194	-0.058	0.015
-457.026	-36.971	-0.131	0.070
-456.011	-158.094	-0.143	-0.008
-454.997	35.582	-0.316	0.277
-453.982	-177.311	-0.278	0.007
-452.968	-94.467	-0.238	-0.065
-451.953	15.823	-0.054	-0.042
-450.938	-118.152	0.283	-0.050
-449.924	-75.567	-0.250	0.089
-448.909	-88.788	-0.118	-0.035
-447.895	-200.000	0.014	-0.295
-446.880	-125.655	-0.287	0.043
-445.865	-121.036	-0.167	0.028
-444.851	245.150	-0.003	-0.005
-443.836	263.748	0.167	0.290
-442.822	-200.000	-0.033	0.236
-441.807	-38.796	-0.137	0.072
-440.792	-200.000	0.077	-0.365
-439.778	-17.005	-0.179	-0.113
-438.763	622.811	0.092	-0.232
-437.749	-126.923	-0.491	0.072
-436.734	-162.465	0.299	0.015
-435.719	-2.270	0.228	0.159
-434.705	-200.000	-0.010	0.309
-433.690	-47.864	-0.125	0.060
-432.676	-40.322	-0.194	0.100
-431.661	182.183	0.128	0.188
-430.646	-139.206	0.306	0.033
-429.632	-31.356	0.274	-0.154
-428.617	-89.117	0.193	0.057
-427.603	-200.000	-0.019	0.327
-426.588	800.000	0.079	-0.242
-425.573	-16.252	-0.174	0.110
-424.559	-11.596	-0.050	-0.033
-423.544	-200.000	-0.000	0.018
-422.530	-34.808	0.276	0.151
-421.515	392.439	-0.151	0.314
-420.500	56.794	-0.296	-0.287
-419.486	800.000	0.084	-0.255
-418.471	343.055	0.104	-0.203
-417.457	-77.941	-0.126	0.043
-416.442	149.913	0.180	0.243
-415.428	-60.898	0.222	0.094
-414.413	97.451	-0.075	0.086
-413.398	-43.112	-0.076	-0.038
-412.384	-86.445	0.315	-0.097
-411.369	-77.854	-0.235	0.081
-410.355	-106.513	0.205	-0.046
-409.340	-113.223	-0.151	0.030
-408.325	-200.000	0.006	0.141
-407.311	800.000	-0.061	0.226
-406.296	-200.000	0.012	-0.076
-405.282	23.972	-0.273	-0.225
-404.267	800.000	0.101	-0.281
-403.252	7.145	-0.076	0.057
-402.238	-200.000	-0.008	0.213
-401.223	560.749	0.062	0.150
-400.209	-200.000	0.003	-0.060
-399.194	-42.868	-0.181	-0.092
-398.179	-142.640	0.111	-0.011
-397.165	-200.000	0.089	0.446
-396.150	181.964	-0.285	-0.418
-395.136	-135.591	0.287	-0.034
-394.121	78.867	0.186	0.198
-393.106	3.579	-0.294	-0.213
-392.092	-17.127	0.020	-0.012
-391.077	-50.584	-0.353	0.166
-390.063	-118.434	-0.168	-0.030
-389.048	-200.000	-0.009	0.148
-388.033	127.175	-0.107	-0.136
-387.019	254.884	0.073	-0.125
-386.004	-102.945	0.115	-0.027
-384.990	-95.965	0.162	-0.043
-383.975	93.479	0.340	-0.383
-382.960	800.000	0.086	-0.246
-381.946	191.333	-0.230	0.345
-380.931	-200.000	0.031	-0.251
-379.917	-101.001	-0.208	0.051
-378.902	-79.403	0.302	-0.102
-377.888	-72.589	0.229	0.084
-376.873	-27.668	-0.343	0.199
-375.858	89.557	0.229	-0.255
-374.844	794.993	0.060	0.165
-373.829	149.609	0.131	-0.177
-372.815	2.677	-0.116	0.084
-371.800	-21.825	0.154	0.094
-370.785	-52.205	0.233	-0.108
-369.771	-32.141	-0.111	-0.062
-368.756	-200.000	0.009	-0.169
-367.742	-200.000	0.033	-0.195
-366.727	180.810	0.065	0.096
-365.712	194.253	0.116	0.174
-364.698	152.207	0.085	-0.116
-363.683	639.512	0.039	-0.098
-362.669	114.289	-0.180	-0.219
-361.654	187.490	-0.136	-0.202
-360.639	-108.979	0.310	0.066
-359.625	-200.000	0.025	0.191
-358.610	800.000	0.041	0.129
-357.596	353.134	0.104	0.204
-356.581	-138.073	-0.080	-0.009
-355.566	-3.945	0.224	0.154
-354.552	24.743	0.358	-0.295
-353.537	-122.041	-0.212	0.035
-352.523	143.433	0.121	-0.160
-351.508	800.000	-0.049	-0.193
-350.493	648.156	-0.050	-0.128
-349.479	26.645	-0.167	0.139
-348.464	-15.990	-0.200	0.127
-347.450	323.744	0.051	0.096
-346.435	-86.476	0.231	-0.071
-345.420	800.000	0.106	0.392
-344.406	800.000	0.031	-0.090
-343.391	800.000	-0.080	-0.241
-342.377	-118.937	0.270	0.047
-341.362	-20.638	0.065	0.039
-340.348	-25.592	0.132	-0.077
-339.333	-15.141	-0.131	-0.083
-338.318	154.977	-0.093	0.128
-337.304	800.000	0.034	0.121
-336.289	337.546	-0.024	-0.046
-335.275	42.771	-0.264	0.240
-334.260	-23.186	0.161	0.096
-333.245	219.121	0.168	-0.266
-332.231	800.000	-0.009	-0.037
-331.216	-6.079	-0.211	-0.143
-330.202	800.000	0.053	0.148
-329.187	800.000	-0.076	0.317
-328.172	-59.849	-0.182	-0.077
-327.158	354.800	-0.092	0.182
-326.143	-35.726	-0.130	0.070
-325.129	181.944	-0.136	0.200
-324.114	97.139	0.205	-0.234
-323.099	800.000	0.093	-0.352
-322.085	-57.441	-0.146	-0.064
-321.070	200.677	-0.085	-0.129
-320.056	156.543	0.139	0.191
-319.041	-200.000	-0.004	0.089
-318.026	101.120	0.154	-0.178
-317.012	-123.454	-0.207	0.033
-315.997	-200.000	0.030	-0.511
-314.983	-73.703	0.124	0.045
-313.968	-200.000	0.016	-0.158
-312.953	-63.691	-0.128	0.052
-311.939	67.095	-0.153	-0.155
-310.924	61.549	0.244	-0.241
-309.910	-117.308	-0.431	0.078
-308.895	241.032	0.028	0.047
-307.880	545.873	-0.233	0.553
-306.866	21.810	0.055	0.044
-305.851	-55.184	0.212	0.095
-304.837	-150.813	0.046	-0.003
-303.822	-44.776	0.281	-0.139
-302.807	800.000	-0.025	-0.085
-301.793	-32.889	-0.134	-0.074
-300.778	16.850	-0.120	-0.095
-299.764	238.198	0.118	0.194
-298.749	-200.000	0.005	-0.075
-297.735	5.394	0.349	0.256
-296.720	-20.801	0.272	-0.166
-295.705	-200.000	0.019	0.127
-294.691	-186.571	0.261	0.004
-293.676	14.744	-0.009	-0.007
-292.662	-50.123	0.295	-0.139
-291.647	556.037	-0.010	0.024
-290.632	-79.807	0.086	0.029
-289.618	-200.000	0.046	-0.210
-288.603	164.355	0.133	-0.186
-287.589	-6.303	-0.137	-0.093
-286.574	143.910	-0.205	-0.271
-285.559	-79.329	0.084	0.028
-284.545	-76.447	-0.164	-0.057
-283.530	-44.889	0.137	-0.068
-282.516	-200.000	-0.072	0.328
-281.501	800.000	-0.071	0.303
-280.486	-164.485	0.121	0.005
-279.472	8.073	0.413	-0.307
-278.457	800.000	-0.032	-0.114
-277.443	-200.000	-0.048	-0.232
-276.428	262.953	0.029	0.050
-275.413	266.077	-0.165	0.285
-274.399	-200.000	-0.001	-0.045
-273.384	130.577	-0.040	0.050
-272.370	-134.484	-0.109	-0.013
-271.355	-60.616	-0.274	-0.115
-270.340	-40.542	0.211	-0.108
-269.326	136.634	0.080	-0.104
-268.311	235.090	0.233	0.382
-267.297	-120.394	-0.254	0.043
-266.282	-200.000	0.008	0.342
-265.267	-66.458	-0.153	0.060
-264.253	800.000	-0.044	0.123
-263.238	192.411	-0.135	0.202
-262.224	-140.020	0.207	-0.022
-261.209	56.806	-0.014	0.014
-260.195	36.964	0.418	0.366
-259.180	-117.501	0.220	0.039
-258.165	-60.400	0.244	-0.103
-257.151	746.714	0.057	0.152
-256.136	-98.574	-0.147	0.037
-255.122	29.394	-0.191	-0.161
-254.107	-71.602	-0.289	-0.107
-253.092	-16.317	-0.066	0.042
-252.078	131.138	0.145	0.184
-251.063	17.528	-0.191	0.150
-250.049	341.534	-0.039	0.076
-249.034	-200.000	0.007	-0.067
-248.019	-200.000	-0.017	0.218
-247.005	71.730	-0.241	0.248
-245.990	-83.365	-0.106	-0.034
-244.976	-31.259	0.220	-0.123
-243.961	158.895	-0.075	-0.103
-242.946	-142.754	-0.197	-0.019
-241.932	-56.682	-0.136	0.060
-240.917	800.000	0.027	-0.107
-239.903	48.725	0.153	-0.142
-238.888	-88.381	0.336	-0.100
-237.873	-200.000	-0.058	0.282
-236.859	-98.197	0.091	-0.023
-235.844	-24.214	-0.116	0.069
-234.830	267.675	0.074	0.128
-233.815	39.186	0.136	0.120
-232.800	-21.691	-0.234	-0.141
-231.786	100.323	0.157	0.181
-230.771	429.397	0.111	-0.238
-229.757	-72.156	0.213	-0.078
-228.742	538.111	0.057	0.135
-227.727	288.560	0.126	0.226
-226.713	696.922	-0.053	-0.139
-225.698	266.542	-0.118	-0.204
-224.684	-29.329	-0.339	-0.192
-223.669	248.167	-0.018	0.029
-222.655	-118.657	0.243	-0.042
-221.640	-32.141	-0.193	-0.107
-220.625	515.409	0.116	0.269
-219.611	-200.000	0.002	-0.187
-218.596	-87.670	0.290	-0.087
-217.582	-200.000	0.061	0.309
-216.567	-200.000	-0.001	0.179
-215.552	-200.000	-0.049	-0.339
-214.538	125.659	-0.197	0.246
-213.523	-119.237	0.330	0.057
-212.509	-94.296	-0.299	0.081
-211.494	193.370	0.105	-0.157
-210.479	-200.000	-0.030	-0.148
-209.465	11.189	0.015	-0.011
-208.450	17.358	-0.094	-0.074
-207.436	-200.000	0.008	-0.213
-206.421	6.297	-0.166	0.122
-205.406	-200.000	-0.082	-0.573
-204.392	-200.000	0.012	0.135
-203.377	-200.000	-0.012	0.218
-202.363	-82.496	-0.140	-0.045
-201.348	800.000	-0.096	0.310
-200.333	-120.873	-0.193	0.032
-199.319	42.930	0.101	-0.091
-198.304	-4.294	-0.200	0.137
-197.290	-137.855	-0.531	-0.059
-196.275	-51.867	0.155	-0.071
-195.260	-80.759	0.091	0.030
-194.246	-68.478	0.097	-0.037
-193.231	-49.683	0.095	-0.045
-192.217	100.631	0.136	0.156
-191.202	-6.889	0.165	-0.111
-190.187	-107.245	0.210	-0.046
-189.173	-85.938	0.347	-0.106
-188.158	-35.913	-0.038	0.021
-187.144	-61.749	-0.082	-0.034
-186.129	780.838	0.078	-0.211
-185.114	-85.387	0.281	0.087
-184.100	15.928	0.283	-0.221
-183.085	58.202	-0.461	0.446
-182.071	-38.055	-0.111	0.058
-181.056	-82.878	0.062	0.020
-180.042	-36.809	-0.177	0.094
-179.027	78.338	0.101	-0.107
-178.012	164.868	-0.080	0.111
-176.998	800.000	0.071	0.266
-175.983	-121.047	0.300	0.050
-174.969	-200.000	-0.073	-0.401
-173.954	800.000	-0.055	0.207
-172.939	74.183	-0.091	0.095
-171.925	-200.000	-0.014	0.158
-170.910	800.000	-0.035	-0.110
-169.896	-77.004	0.136	0.047
-168.881	-79.312	0.230	-0.077
-167.866	-102.054	0.212	0.050
-166.852	10.853	-0.081	-0.061
-165.837	296.826	0.131	0.238
-164.823	-49.103	0.242	0.114
-163.808	139.137	0.111	0.144
-162.793	35.949	0.040	-0.035
-161.779	214.858	0.059	-0.092
-160.764	-115.795	0.145	-0.027
-159.750	-200.000	-0.025	-0.235
-158.735	-183.249	0.147	-0.003
-157.720	800.000	-0.093	0.272
-156.706	174.046	0.121	0.173
-155.691	-200.000	0.009	-0.103
-154.677	800.000	0.090	-0.364
-153.662	-22.201	-0.050	-0.030
-152.647	-200.000	0.010	0.098
-151.633	-200.000	-0.013	0.085
-150.618	800.000	-0.156	0.533
-149.604	800.000	-0.049	-0.148
-148.589	-36.671	0.326	0.173
-147.574	-3.669	-0.186	-0.127
-146.560	17.966	-0.100	-0.078
-145.545	-92.023	0.154	0.043
-144.531	213.423	-0.141	0.219
-143.516	-94.342	0.061	-0.016
-142.502	-13.268	0.038	0.024
-141.487	142.921	0.103	0.135
-140.472	-179.732	-0.173	0.004
-139.458	-75.052	0.123	-0.044
-138.443	-44.601	0.135	0.067
-137.429	95.995	-0.246	-0.277
-136.414	-135.935	-0.231	-0.027
-135.399	-49.709	0.182	0.085
-134.385	40.797	0.054	0.048
-133.370	139.705	0.129	0.168
-132.356	367.292	0.086	0.171
-131.341	-155.709	-0.385	0.024
-130.326	800.000	0.053	0.156
-129.312	-200.000	-0.136	0.000
-128.297	105.646	-0.175	-0.204
-127.283	-68.175	0.225	-0.086
-126.268	-120.891	0.343	-0.057
-125.253	-106.086	-0.136	-0.030
-124.239	800.000	-0.035	-0.105
-123.224	-5.935	-0.348	0.235
-122.210	651.858	0.074	-0.187
-121.195	17.522	0.251	0.197
