DTS Sentinel unit serial number:	SN413079Multiplexer serial number:	ORYXHardware model number:	OX4-SRSoftware version number:	ORYX F/W v4.00 Oryx Data Collector v3.7.2.0data status	okinstallation	princeton_trtdifferential loss correction	single-endedforward channel	channel 4reverse channel	N/Adate	2019/09/12time	13:23:11forward acquisition time	60.00reverse acquisition time	0.00gamma	496.2192k internal	0.2287k external	0.2287temperature offset calibration	1.0074default loss term (dB/km)	0.3790temperature slope calibration	1.0000multiplexer offset coefficient	1.0000multiplexer slope coefficient	1.0000fibre end	0.00T internal ref (°C)	41.06T ext. ref 1 (°C)	2.12T ext. ref 2 (°C)	37.91length (m)	temperature (°C)	Stokes	anti-Stokes-747.200	6.568	-0.185	0.141
-746.185	-200.000	-0.013	0.434
-745.171	-200.000	-0.056	0.349
-744.156	413.837	0.194	0.423
-743.142	-30.339	0.025	0.015
-742.127	111.622	-0.137	0.169
-741.112	-200.000	0.026	-0.170
-740.098	-96.684	-0.158	-0.043
-739.083	800.000	0.048	0.183
-738.069	-44.709	-0.321	0.165
-737.054	-30.522	-0.186	0.108
-736.039	6.983	0.244	0.187
-735.025	-95.640	0.049	0.013
-734.010	-169.966	-0.274	-0.010
-732.996	52.987	-0.418	-0.410
-731.981	1.640	0.146	0.108
-730.966	-126.915	-0.247	0.037
-729.952	4.535	-0.312	-0.234
-728.937	-74.950	-0.125	0.046
-727.923	45.860	-0.200	-0.190
-726.908	-200.000	0.032	-0.250
-725.894	78.788	-0.275	-0.302
-724.879	-19.033	-0.313	0.200
-723.864	800.000	0.101	0.396
-722.850	67.100	-0.228	-0.238
-721.835	410.389	-0.161	-0.351
-720.821	-69.148	0.168	-0.066
-719.806	35.974	0.083	0.075
-718.791	-29.664	0.083	0.049
-717.777	181.502	0.096	0.144
-716.762	800.000	0.108	0.314
-715.748	-130.181	-0.049	0.007
-714.733	30.261	-0.163	0.143
-713.718	800.000	-0.071	-0.249
-712.704	19.302	-0.240	-0.197
-711.689	103.410	-0.100	0.121
-710.675	-110.192	0.090	-0.019
-709.660	120.806	0.158	0.201
-708.645	198.150	-0.147	0.229
-707.631	-200.000	0.020	-0.211
-706.616	-168.906	0.358	0.014
-705.602	392.166	-0.215	0.457
-704.587	-134.063	-0.274	0.035
-703.572	607.346	-0.061	-0.157
-702.558	404.138	-0.102	-0.220
-701.543	-200.000	0.002	-0.131
-700.529	155.113	0.122	0.171
-699.514	-200.000	0.029	-0.155
-698.499	-100.355	0.126	-0.032
-697.485	800.000	0.046	0.205
-696.470	-69.233	0.144	0.057
-695.456	-79.378	-0.076	0.026
-694.441	-193.317	-0.131	-0.001
-693.426	13.520	0.098	0.078
-692.412	-200.000	0.014	0.128
-691.397	800.000	0.074	-0.256
-690.383	-13.731	-0.122	0.081
-689.368	27.335	0.211	0.181
-688.354	800.000	0.106	0.320
-687.339	66.563	-0.199	0.207
-686.324	510.889	-0.149	-0.355
-685.310	-128.610	0.199	0.029
-684.295	-200.000	0.009	0.299
-683.281	-200.000	-0.029	0.246
-682.266	-37.379	0.090	-0.049
-681.251	727.220	0.039	0.107
-680.237	3.714	0.218	0.163
-679.222	-54.300	-0.144	-0.067
-678.208	800.000	-0.058	-0.169
-677.193	282.792	0.183	-0.336
-676.178	117.203	-0.075	-0.095
-675.164	30.261	-0.078	0.068
-674.149	-139.338	-0.031	0.003
-673.135	-200.000	-0.009	0.202
-672.120	120.796	0.315	-0.400
-671.105	795.810	0.112	0.316
-670.091	-140.770	-0.114	0.012
-669.076	74.364	-0.206	-0.221
-668.062	-100.055	-0.216	-0.055
-667.047	-200.000	0.050	0.375
-666.032	154.172	-0.304	-0.427
-665.018	-128.054	-0.149	0.022
-664.003	109.587	-0.063	-0.077
-662.989	-198.030	-0.319	0.002
-661.974	48.440	-0.132	0.127
-660.959	-61.364	-0.254	-0.109
-659.945	530.055	0.100	-0.240
-658.930	-57.308	-0.113	-0.051
-657.916	-200.000	-0.006	0.121
-656.901	-200.000	-0.000	0.170
-655.886	48.856	0.281	-0.270
-654.872	-126.275	-0.100	-0.015
-653.857	218.494	-0.102	-0.167
-652.843	800.000	-0.093	0.402
-651.828	77.307	-0.097	0.106
-650.814	384.298	0.026	-0.055
-649.799	344.776	-0.216	-0.434
-648.784	90.741	-0.114	0.131
-647.770	119.285	0.132	-0.167
-646.755	55.438	0.110	-0.109
-645.741	-200.000	-0.004	-0.055
-644.726	152.845	-0.117	0.164
-643.711	-36.927	-0.112	-0.062
-642.697	-115.631	-0.118	0.023
-641.682	-2.775	0.152	0.108
-640.668	-196.480	0.298	-0.002
-639.653	41.558	-0.053	-0.049
-638.638	7.974	-0.349	0.267
-637.624	-100.388	0.310	0.079
-636.609	-96.715	-0.042	0.011
-635.595	445.969	-0.076	-0.171
-634.580	-134.682	-0.337	-0.042
-633.565	1.169	0.044	0.033
-632.551	-168.034	-0.438	0.017
-631.536	71.320	-0.047	0.050
-630.522	392.606	-0.146	-0.310
-629.507	-200.000	-0.044	0.253
-628.492	-88.671	0.192	0.058
-627.478	800.000	0.089	-0.349
-626.463	800.000	0.056	-0.182
-625.449	-64.885	-0.241	-0.099
-624.434	-2.630	0.137	-0.098
-623.419	13.827	-0.165	0.131
-622.405	-200.000	0.008	-0.410
-621.390	-200.000	0.014	-0.228
-620.376	-126.273	-0.198	-0.030
-619.361	-200.000	-0.003	-0.045
-618.346	139.483	-0.259	-0.348
-617.332	-200.000	-0.000	-0.121
-616.317	173.450	-0.118	-0.173
-615.303	-48.027	0.105	-0.052
-614.288	-200.000	0.048	-0.282
-613.273	34.524	0.145	-0.129
-612.259	73.420	0.073	-0.078
-611.244	800.000	-0.060	0.237
-610.230	-200.000	-0.038	0.173
-609.215	-4.814	-0.311	-0.219
-608.201	-9.036	0.453	0.309
-607.186	-122.347	0.072	-0.012
-606.171	175.875	0.051	-0.076
-605.157	427.640	-0.152	0.335
-604.142	-168.221	0.101	-0.004
-603.128	-52.725	0.063	0.030
-602.113	45.321	-0.143	0.134
-601.098	-200.000	0.035	0.317
-600.084	-62.802	-0.070	0.030
-599.069	-200.000	0.043	-0.250
-598.055	-200.000	-0.041	-0.414
-597.040	-200.000	0.008	-0.420
-596.025	800.000	0.045	-0.171
-595.011	-200.000	-0.087	-0.474
-593.996	39.006	0.069	0.063
-592.982	-200.000	0.002	0.060
-591.967	181.088	-0.173	-0.259
-590.952	-200.000	-0.036	0.204
-589.938	-200.000	-0.028	0.390
-588.923	47.465	0.141	-0.134
-587.909	-177.928	0.122	0.003
-586.894	-167.375	0.162	-0.007
-585.879	-200.000	-0.031	0.196
-584.865	-137.496	0.131	0.015
-583.850	-101.623	0.386	0.096
-582.836	149.820	-0.103	-0.142
-581.821	97.945	0.103	-0.121
-580.806	-200.000	-0.085	0.392
-579.792	95.452	-0.101	0.118
-578.777	-1.137	-0.205	0.148
-577.763	7.379	-0.139	0.106
-576.748	-200.000	0.000	0.291
-575.733	-8.139	-0.043	0.029
-574.719	-56.607	0.287	0.129
-573.704	260.811	0.180	-0.317
-572.690	138.805	0.157	-0.210
-571.675	-59.598	-0.046	0.020
-570.661	-94.555	-0.398	-0.110
-569.646	-82.070	-0.192	0.064
-568.631	-99.502	0.283	0.073
-567.617	-57.440	0.056	-0.025
-566.602	-147.272	-0.145	0.013
-565.588	-68.559	-0.100	0.039
-564.573	114.519	0.136	-0.169
-563.558	-132.601	-0.276	0.036
-562.544	-12.459	-0.210	-0.140
-561.529	-53.497	0.183	0.085
-560.515	36.794	-0.293	-0.264
-559.500	294.291	-0.122	0.228
-558.485	144.370	0.032	-0.044
-557.471	-58.884	0.252	-0.111
-556.456	-28.676	-0.141	-0.083
-555.442	147.750	0.093	0.127
-554.427	-164.737	0.222	-0.010
-553.412	-119.326	-0.233	-0.041
-552.398	-7.690	0.038	-0.026
-551.383	456.309	-0.026	0.059
-550.369	-21.176	-0.242	0.151
-549.354	-200.000	0.009	-0.160
-548.339	-149.333	-0.159	0.013
-547.325	30.950	-0.145	0.126
-546.310	98.683	0.101	0.118
-545.296	-38.803	-0.135	-0.072
-544.281	-3.663	0.062	0.044
-543.266	510.540	0.177	0.419
-542.252	800.000	0.043	0.124
-541.237	251.261	0.107	0.185
-540.223	800.000	-0.059	0.215
-539.208	306.077	0.054	0.102
-538.193	-117.948	0.301	-0.055
-537.179	164.055	0.099	0.141
-536.164	-200.000	-0.035	0.181
-535.150	733.498	0.072	-0.197
-534.135	-94.132	-0.207	0.058
-533.121	269.947	-0.217	-0.389
-532.106	-183.811	0.162	-0.003
-531.091	-82.418	0.111	-0.037
-530.077	153.446	-0.208	-0.289
-529.062	-200.000	-0.035	0.353
-528.048	-200.000	-0.006	-0.105
-527.033	100.186	-0.066	-0.078
-526.018	-25.770	-0.270	0.162
-525.004	-88.800	0.060	-0.018
-523.989	-109.186	-0.130	-0.028
-522.975	10.161	-0.083	0.064
-521.960	84.059	0.112	0.124
-520.945	524.224	-0.119	0.285
-519.931	800.000	-0.024	0.072
-518.916	-200.000	0.013	-0.189
-517.902	800.000	0.090	-0.302
-516.887	800.000	0.038	-0.140
-515.872	-141.795	-0.258	-0.026
-514.858	-151.137	-0.320	0.024
-513.843	40.093	-0.060	0.055
-512.829	-78.877	-0.473	-0.164
-511.814	39.310	-0.447	0.407
-510.799	-59.626	0.046	-0.020
-509.785	107.980	-0.095	0.115
-508.770	567.694	0.048	0.118
-507.756	-101.031	-0.381	0.095
-506.741	97.030	0.043	-0.050
-505.726	239.734	0.044	-0.075
-504.712	234.735	-0.125	0.210
-503.697	-95.526	0.200	-0.054
-502.683	205.067	0.245	0.386
-501.668	-47.315	0.224	0.111
-500.653	157.021	0.121	0.169
-499.639	-130.184	-0.026	0.004
-498.624	247.235	0.038	0.065
-497.610	800.000	-0.022	0.081
-496.595	729.568	0.070	-0.190
-495.581	-200.000	-0.074	-0.333
-494.566	-200.000	-0.016	0.156
-493.551	222.061	-0.132	0.216
-492.537	-106.479	0.235	-0.053
-491.522	18.510	0.163	-0.132
-490.508	-13.459	-0.200	-0.132
-489.493	-168.461	-0.038	0.001
-488.478	-46.563	0.201	-0.100
-487.464	-5.518	-0.312	-0.217
-486.449	-77.484	-0.392	0.138
-485.435	144.616	0.223	0.302
-484.420	-200.000	0.007	-0.047
-483.405	800.000	0.058	-0.203
-482.391	263.788	-0.040	-0.071
-481.376	650.630	0.027	-0.070
-480.362	3.032	-0.186	-0.137
-479.347	3.929	-0.042	-0.031
-478.332	144.949	0.161	-0.219
-477.318	190.195	0.032	-0.048
-476.303	323.055	-0.130	-0.251
-475.289	40.747	0.152	-0.140
-474.274	60.147	-0.082	-0.082
-473.259	98.010	0.140	-0.164
-472.245	51.916	-0.250	0.242
-471.230	-52.105	0.231	0.109
-470.216	172.276	0.102	-0.148
-469.201	-200.000	0.010	0.070
-468.186	-73.637	-0.061	-0.022
-467.172	-200.000	-0.003	-0.230
-466.157	-200.000	-0.038	-0.411
-465.143	-25.101	-0.156	0.094
-464.128	-200.000	-0.003	-0.083
-463.113	242.314	0.314	0.533
-462.099	55.806	0.045	0.045
-461.084	-112.944	0.083	0.017
-460.070	-200.000	-0.003	-0.057
-459.055	-165.036	-0.331	0.015
-458.040	222.791	-0.103	-0.169
-457.026	-54.863	-0.124	0.057
-456.011	183.419	-0.057	0.086
-454.997	15.517	0.167	-0.133
-453.982	295.776	0.098	0.182
-452.968	166.057	-0.048	0.069
-451.953	58.587	0.279	0.278
-450.938	-63.049	-0.224	0.094
-449.924	443.996	-0.070	0.156
-448.909	-38.982	0.504	-0.269
-447.895	-200.000	0.002	0.185
-446.880	14.653	-0.100	-0.079
-445.865	-81.649	-0.481	-0.160
-444.851	800.000	-0.037	-0.146
-443.836	-86.313	0.227	0.071
-442.822	-109.744	-0.396	-0.084
-441.807	-96.576	-0.046	-0.012
-440.792	-16.168	0.300	0.193
-439.778	-89.491	0.130	-0.039
-438.763	-77.439	-0.029	-0.010
-437.749	158.876	0.063	0.089
-436.734	800.000	0.066	0.190
-435.719	102.843	-0.078	-0.092
-434.705	-60.146	0.264	-0.114
-433.690	-38.445	0.096	0.052
-432.676	-74.898	0.249	0.090
-431.661	-26.645	-0.171	0.102
-430.646	19.812	0.033	-0.027
-429.632	-21.266	0.251	0.156
-428.617	-130.951	0.022	-0.003
-427.603	-4.211	0.182	-0.128
-426.588	-127.685	-0.171	-0.025
-425.573	-200.000	0.040	-0.223
-424.559	116.065	0.154	0.191
-423.544	-12.909	-0.320	0.211
-422.530	-17.042	-0.143	-0.092
-421.515	267.307	0.138	0.244
-420.500	8.582	-0.293	-0.223
-419.486	-101.394	0.248	0.061
-418.471	-94.315	-0.043	0.012
-417.457	15.985	-0.200	0.160
-416.442	800.000	-0.053	-0.184
-415.428	172.768	-0.083	0.121
-414.413	-200.000	0.033	0.230
-413.398	-200.000	0.104	0.462
-412.384	91.744	-0.171	-0.195
-411.369	51.929	0.083	-0.080
-410.355	51.543	-0.243	0.234
-409.340	-200.000	0.001	-0.069
-408.325	7.425	-0.315	0.239
-407.311	97.913	0.054	0.063
-406.296	-200.000	-0.034	0.313
-405.282	-18.124	-0.359	-0.227
-404.267	-100.662	0.070	-0.017
-403.252	41.500	0.126	-0.115
-402.238	216.134	0.170	0.274
-401.223	48.665	-0.136	0.129
-400.209	-145.352	-0.269	-0.025
-399.194	-21.584	0.279	-0.172
-398.179	-73.529	0.188	0.070
-397.165	155.196	0.103	-0.144
-396.150	-18.207	0.104	-0.066
-395.136	7.166	-0.162	0.122
-394.121	-1.766	0.056	0.040
-393.106	126.172	-0.136	0.175
-392.092	30.877	-0.160	-0.139
-391.077	8.276	-0.154	-0.117
-390.063	800.000	0.076	0.278
-389.048	573.673	0.098	-0.243
-388.033	-200.000	0.002	0.013
-387.019	118.298	-0.116	-0.144
-386.004	800.000	0.009	-0.042
-384.990	-105.949	0.143	-0.033
-383.975	-142.728	-0.108	-0.011
-382.960	431.645	-0.102	-0.223
-381.946	620.534	0.062	0.158
-380.931	-56.391	0.338	0.152
-379.917	111.036	0.087	-0.106
-378.902	-180.308	0.049	-0.001
-377.888	78.430	-0.322	-0.348
-376.873	-76.809	0.113	0.040
-375.858	120.921	-0.084	0.106
-374.844	7.594	0.231	0.175
-373.829	491.432	0.090	-0.208
-372.815	-200.000	-0.001	-0.399
-371.800	113.599	0.180	-0.220
-370.785	22.299	-0.274	0.226
-369.771	-91.777	0.230	0.066
-368.756	-126.298	-0.111	0.017
-367.742	-37.705	0.315	0.169
-366.727	106.839	-0.075	-0.090
-365.712	-200.000	0.024	-0.139
-364.698	168.363	-0.284	-0.409
-363.683	-33.118	0.277	-0.155
-362.669	76.050	-0.103	0.110
-361.654	800.000	0.055	0.196
-360.639	-200.000	-0.005	0.207
-359.625	-98.353	0.150	-0.039
-358.610	800.000	0.057	-0.176
-357.596	12.848	0.216	-0.169
-356.581	-162.413	-0.050	-0.003
-355.566	-101.477	-0.192	-0.047
-354.552	-56.242	0.455	0.205
-353.537	-200.000	0.018	0.149
-352.523	-4.432	-0.113	-0.079
-351.508	-200.000	-0.034	0.232
-350.493	48.244	0.205	0.194
-349.479	-48.178	0.090	0.044
-348.464	-86.674	-0.122	0.038
-347.450	-40.569	-0.228	0.119
-346.435	-57.818	-0.270	-0.119
-345.420	-160.099	0.326	-0.018
-344.406	-200.000	0.013	-0.142
-343.391	-182.198	0.298	0.006
-342.377	36.086	0.227	0.202
-341.362	4.544	-0.148	-0.110
-340.348	-200.000	-0.008	0.346
-339.333	-14.328	-0.203	0.132
-338.318	800.000	-0.045	-0.167
-337.304	34.715	-0.223	0.197
-336.289	178.878	0.090	-0.133
-335.275	-63.216	0.092	0.038
-334.260	-41.069	-0.232	0.121
-333.245	-77.158	-0.473	0.166
-332.231	428.149	-0.073	-0.160
-331.216	800.000	0.050	-0.140
-330.202	-77.276	-0.182	-0.064
-329.187	-200.000	-0.059	0.312
-328.172	-200.000	-0.062	0.321
-327.158	31.242	0.264	0.229
-326.143	52.572	-0.049	-0.047
-325.129	-126.036	0.481	0.073
-324.114	19.496	-0.129	0.105
-323.099	-200.000	-0.031	-0.361
-322.085	-37.729	0.198	-0.106
-321.070	800.000	0.094	-0.314
-320.056	738.276	0.059	-0.160
-319.041	800.000	-0.126	-0.468
-318.026	-113.115	-0.218	-0.043
-317.012	-109.077	-0.111	0.024
-315.997	704.893	0.137	0.365
-314.983	208.983	0.108	-0.170
-313.968	-97.502	-0.173	-0.045
-312.953	312.716	-0.056	-0.106
-311.939	-70.227	0.297	0.114
-310.924	57.662	0.214	0.211
-309.910	80.091	-0.105	-0.114
-308.895	-200.000	-0.026	0.121
-307.880	-200.000	0.003	0.025
-306.866	-200.000	-0.209	0.000
-305.851	10.608	0.211	-0.162
-304.837	-171.247	0.183	-0.006
-303.822	-200.000	0.023	-0.202
-302.807	392.000	0.021	0.045
-301.793	-102.111	-0.232	-0.056
-300.778	14.484	-0.321	0.253
-299.764	-200.000	0.026	-0.199
-298.749	467.772	0.069	-0.156
-297.735	490.977	-0.034	-0.078
-296.720	-200.000	-0.004	-0.199
-295.705	-128.296	0.112	0.016
-294.691	47.282	-0.121	-0.113
-293.676	109.818	-0.263	0.318
-292.662	63.510	0.180	0.182
-291.647	75.447	0.072	-0.076
-290.632	20.649	-0.198	-0.162
-289.618	-200.000	0.074	-0.377
-288.603	57.740	0.165	0.163
-287.589	800.000	0.051	-0.178
-286.574	-51.217	-0.150	0.071
-285.559	-124.800	0.078	0.012
-284.545	478.024	0.067	-0.153
-283.530	-63.792	-0.096	-0.039
-282.516	628.215	0.139	-0.355
-281.501	-74.593	-0.302	-0.110
-280.486	90.583	-0.044	0.050
-279.472	46.831	0.167	-0.156
-278.457	96.253	-0.209	0.241
-277.443	382.925	-0.157	0.325
-276.428	-200.000	0.020	0.193
-275.413	43.164	-0.090	0.082
-274.399	-117.374	0.265	-0.048
-273.384	800.000	0.048	-0.157
-272.370	17.434	0.277	-0.221
-271.355	-91.895	-0.226	-0.065
-270.340	-66.677	0.200	0.080
-269.326	-62.684	0.216	-0.090
-268.311	800.000	0.054	0.208
-267.297	536.445	0.041	0.099
-266.282	-197.253	0.164	0.001
-265.267	-23.962	-0.217	0.131
-264.253	800.000	0.130	0.372
-263.238	-35.893	0.171	-0.093
-262.224	57.748	-0.133	0.131
-261.209	-22.079	0.106	0.065
-260.195	41.089	-0.109	0.099
-259.180	-200.000	-0.007	0.269
-258.165	-127.326	0.347	-0.051
-257.151	11.926	0.102	0.079
-256.136	-69.320	0.366	0.142
-255.122	248.235	-0.097	0.165
-254.107	-15.023	0.130	0.084
-253.092	-200.000	-0.019	0.159
-252.078	249.555	-0.124	-0.212
-251.063	569.213	-0.132	-0.323
-250.049	800.000	0.062	0.180
-249.034	-155.866	0.092	-0.006
-248.019	800.000	0.068	-0.292
-247.005	238.256	0.189	-0.315
-245.990	-90.039	-0.196	-0.058
-244.976	28.450	0.132	-0.112
-243.961	-200.000	0.001	-0.009
-242.946	-199.056	-0.165	0.001
-241.932	-104.542	0.292	0.068
-240.917	-57.222	0.472	-0.209
-239.903	83.961	0.137	-0.150
-238.888	-39.604	0.179	0.094
-237.873	-74.000	0.146	0.053
-236.859	205.138	0.092	-0.144
-235.844	-200.000	-0.036	0.399
-234.830	242.635	0.017	0.028
-233.815	99.179	-0.184	-0.214
-232.800	-157.456	0.333	-0.020
-231.786	-25.247	-0.301	-0.179
-230.771	-74.726	0.139	0.050
-229.757	-111.365	0.322	-0.066
-228.742	-73.258	0.052	-0.019
-227.727	800.000	0.070	0.276
-226.713	132.947	0.106	0.138
-225.698	-150.175	-0.270	0.021
-224.684	140.861	0.157	0.208
-223.669	-200.000	-0.128	0.591
-222.655	-93.707	-0.194	-0.054
-221.640	41.628	-0.232	0.212
-220.625	800.000	0.063	0.202
-219.611	-4.291	-0.122	0.085
-218.596	297.991	0.079	-0.145
-217.582	-200.000	-0.042	0.275
-216.567	54.618	-0.166	0.161
-215.552	204.206	-0.036	0.055
-214.538	181.493	-0.132	-0.195
-213.523	-88.649	0.248	0.074
-212.509	-88.613	-0.090	0.027
-211.494	91.556	-0.276	-0.311
-210.479	168.874	0.161	-0.230
-209.465	-200.000	0.026	-0.435
-208.450	800.000	0.097	-0.403
-207.436	130.758	-0.142	0.183
-206.421	202.630	-0.092	0.142
-205.406	800.000	0.091	-0.325
-204.392	800.000	-0.044	0.181
-203.377	97.638	0.153	0.177
-202.363	-200.000	-0.048	0.255
-201.348	-47.245	0.078	-0.038
-200.333	111.679	0.028	-0.034
-199.319	-156.268	-0.117	-0.007
-198.304	-108.991	0.235	0.050
-197.290	-75.946	-0.219	-0.078
-196.275	-55.374	-0.031	0.014
-195.260	245.613	-0.111	-0.187
-194.246	-102.604	0.447	0.107
-193.231	-200.000	-0.011	0.240
-192.217	284.131	-0.056	0.101
-191.202	503.307	-0.061	-0.141
-190.187	496.009	0.094	0.217
-189.173	-200.000	-0.042	-0.237
-188.158	-120.625	0.114	0.019
-187.144	-147.982	-0.200	-0.017
-186.129	76.576	-0.147	-0.157
-185.114	75.884	0.072	0.077
-184.100	-200.000	0.032	0.211
-183.085	-177.799	-0.251	0.006
-182.071	255.954	-0.113	0.194
-181.056	-43.122	0.180	-0.092
-180.042	-2.705	-0.098	-0.069
-179.027	209.149	0.071	-0.111
-178.012	194.011	-0.056	-0.085
-176.998	5.079	0.360	-0.266
-175.983	61.955	0.077	0.077
-174.969	66.723	0.141	0.144
-173.954	493.386	0.117	-0.269
-172.939	-200.000	0.026	-0.140
-171.925	290.154	-0.044	0.080
-170.910	-131.671	0.127	-0.017
-169.896	17.793	0.169	-0.135
-168.881	-200.000	0.005	-0.170
-167.866	-135.078	0.219	-0.026
-166.852	131.539	-0.121	-0.156
-165.837	279.816	-0.059	0.105
-164.823	36.154	-0.157	0.139
-163.808	265.905	0.112	0.196
-162.793	-115.777	0.160	-0.030
-161.779	-18.880	0.041	-0.026
-160.764	268.168	-0.148	0.259
-159.750	-96.227	-0.074	-0.020
-158.735	-76.549	-0.126	-0.044
-157.720	-119.597	0.491	0.085
-156.706	-103.071	0.108	-0.026
-155.691	-49.626	-0.145	0.069
-154.677	-18.578	-0.257	0.160
-153.662	-200.000	0.009	0.122
-152.647	-58.759	0.106	-0.046
-151.633	36.421	-0.139	-0.123
-150.618	-125.240	-0.312	0.048
-149.604	155.956	0.293	0.405
-148.589	-126.811	0.098	-0.014
-147.574	-155.534	0.288	-0.019
-146.560	13.238	-0.167	-0.129
-145.545	432.777	0.029	-0.062
-144.531	800.000	0.050	0.141
-143.516	-18.617	-0.183	0.114
-142.502	800.000	-0.028	0.078
-141.487	-139.556	-0.365	0.039
-140.472	-75.652	0.022	0.008
-139.458	230.958	-0.176	0.289
-138.443	460.533	-0.145	-0.324
-137.429	690.591	-0.150	0.393
-136.414	-125.312	0.286	-0.044
-135.399	-200.000	0.033	-0.393
-134.385	104.655	-0.142	0.168
-133.370	800.000	0.058	0.209
-132.356	-200.000	-0.036	0.216
-131.341	-6.362	-0.298	-0.203
-130.326	21.386	-0.337	0.274
-129.312	-117.669	0.232	0.042
-128.297	602.378	-0.097	-0.241
-127.283	-123.163	0.221	-0.035
-126.268	132.792	-0.162	-0.209
-125.253	-88.073	0.036	-0.011
-124.239	-200.000	0.098	0.491
-123.224	25.920	-0.373	-0.312
-122.210	-200.000	-0.021	-0.131
-121.195	14.122	0.212	0.165
-120.180	-200.000	-0.001	-0.221
