DTS Sentinel unit serial number:	SN413079Multiplexer serial number:	ORYXHardware model number:	OX4-SRSoftware version number:	ORYX F/W v4.00 Oryx Data Collector v3.7.2.0data status	okinstallation	princeton_trtdifferential loss correction	single-endedforward channel	channel 4reverse channel	N/Adate	2019/09/15time	03:45:35forward acquisition time	60.00reverse acquisition time	0.00gamma	496.2192k internal	0.2309k external	0.2309temperature offset calibration	1.0031default loss term (dB/km)	0.3790temperature slope calibration	1.0000multiplexer offset coefficient	1.0000multiplexer slope coefficient	1.0000fibre end	0.00T internal ref (°C)	30.94T ext. ref 1 (°C)	4.61T ext. ref 2 (°C)	25.92length (m)	temperature (°C)	Stokes	anti-Stokes-747.200	-161.897	-0.148	0.008
-746.185	-33.515	0.065	-0.037
-745.171	-200.000	-0.035	0.178
-744.156	-52.306	0.152	0.071
-743.142	-200.000	0.012	0.266
-742.127	45.213	0.147	0.138
-741.112	-170.682	0.424	0.015
-740.098	748.010	-0.009	-0.026
-739.083	-200.000	0.025	-0.230
-738.069	-149.057	0.131	0.011
-737.054	-78.769	0.101	-0.035
-736.039	33.312	0.049	-0.043
-735.025	-16.335	-0.251	0.162
-734.010	800.000	-0.056	0.237
-732.996	-4.360	0.098	-0.069
-731.981	314.424	-0.172	-0.328
-730.966	-200.000	-0.015	0.113
-729.952	426.246	-0.084	0.185
-728.937	-95.052	-0.335	-0.092
-727.923	39.145	0.169	-0.154
-726.908	800.000	-0.092	0.302
-725.894	-75.595	-0.185	-0.067
-724.879	163.965	-0.093	0.132
-723.864	-56.599	-0.172	-0.078
-722.850	32.935	0.017	0.015
-721.835	60.326	-0.210	-0.211
-720.821	7.415	-0.172	0.130
-719.806	-74.160	-0.201	0.074
-718.791	-200.000	-0.042	-0.276
-717.777	725.026	-0.071	0.191
-716.762	174.718	-0.099	0.146
-715.748	64.260	-0.254	0.260
-714.733	-25.055	-0.106	0.064
-713.718	-60.046	0.201	-0.087
-712.704	534.570	-0.031	-0.073
-711.689	142.367	-0.197	-0.265
-710.675	-200.000	0.046	-0.259
-709.660	-101.468	-0.279	-0.069
-708.645	-200.000	0.056	0.364
-707.631	-131.741	0.312	0.042
-706.616	800.000	-0.133	-0.382
-705.602	-67.532	-0.110	0.044
-704.587	-31.906	-0.210	-0.119
-703.572	51.453	-0.211	-0.204
-702.558	15.748	-0.040	0.032
-701.543	-140.448	0.219	-0.023
-700.529	398.313	0.012	0.025
-699.514	647.663	-0.146	-0.378
-698.499	-68.357	0.101	0.040
-697.485	286.793	-0.073	0.134
-696.470	-200.000	-0.001	-0.144
-695.456	644.956	0.101	-0.262
-694.441	-78.716	-0.122	-0.042
-693.426	-39.017	-0.106	0.057
-692.412	530.382	-0.051	-0.123
-691.397	-32.657	-0.375	0.212
-690.383	134.921	0.270	0.356
-689.368	-200.000	0.027	-0.214
-688.354	173.761	-0.111	-0.162
-687.339	-200.000	0.024	0.246
-686.324	298.140	0.145	0.270
-685.310	-184.385	-0.116	-0.002
-684.295	-139.522	0.294	-0.032
-683.281	14.130	-0.208	-0.164
-682.266	-61.763	-0.123	0.052
-681.251	-125.747	-0.070	-0.011
-680.237	-71.501	-0.228	-0.086
-679.222	233.009	-0.090	0.151
-678.208	61.436	-0.050	-0.050
-677.193	46.687	0.181	-0.170
-676.178	-21.237	0.045	-0.028
-675.164	-117.684	0.132	-0.024
-674.149	185.473	-0.093	0.140
-673.135	-200.000	0.014	0.184
-672.120	-14.252	0.047	-0.031
-671.105	596.004	-0.175	0.439
-670.091	-104.819	-0.070	-0.016
-669.076	206.815	-0.168	0.265
-668.062	-33.632	-0.101	0.057
-667.047	366.838	0.091	-0.186
-666.032	-4.307	-0.113	-0.079
-665.018	-27.064	0.132	0.078
-664.003	72.480	-0.208	0.220
-662.989	116.562	-0.095	-0.118
-661.974	-66.030	0.262	0.106
-660.959	-91.080	-0.200	0.058
-659.945	76.920	-0.151	0.162
-658.930	800.000	0.069	-0.273
-657.916	-200.000	0.007	0.089
-656.901	109.455	0.058	-0.070
-655.886	-200.000	0.037	-0.296
-654.872	40.112	0.127	0.115
-653.857	-200.000	0.005	0.143
-652.843	272.141	-0.168	0.301
-651.828	-126.026	-0.449	0.068
-650.814	-72.085	0.158	0.059
-649.799	800.000	0.102	-0.319
-648.784	-26.402	-0.261	-0.155
-647.770	71.598	-0.106	-0.111
-646.755	800.000	0.082	-0.326
-645.741	-49.713	0.184	-0.089
-644.726	71.160	-0.148	0.155
-643.711	40.284	0.151	-0.137
-642.697	-13.355	-0.131	0.086
-641.682	-200.000	0.238	-0.001
-640.668	528.378	-0.098	-0.234
-639.653	-177.547	0.208	-0.005
-638.638	800.000	0.049	-0.198
-637.624	30.780	-0.210	0.182
-636.609	-161.462	-0.176	0.009
-635.595	193.898	0.045	-0.069
-634.580	399.677	0.063	0.133
-633.565	271.891	-0.141	-0.251
-632.551	48.879	-0.210	0.199
-631.536	-200.000	-0.002	0.244
-630.522	-200.000	0.007	0.159
-629.507	26.571	0.128	-0.108
-628.492	13.451	-0.055	0.043
-627.478	98.316	0.109	0.127
-626.463	97.910	0.069	-0.080
-625.449	-84.104	0.207	0.066
-624.434	724.121	0.081	-0.219
-623.419	-200.000	0.030	-0.242
-622.405	170.919	-0.186	-0.270
-621.390	800.000	-0.027	-0.078
-620.376	-200.000	-0.056	-0.268
-619.361	22.206	-0.242	0.200
-618.346	-200.000	-0.029	-0.357
-617.332	123.312	0.166	0.211
-616.317	-28.996	-0.043	0.025
-615.303	-49.960	-0.127	0.061
-614.288	-74.826	-0.342	0.124
-613.273	439.368	0.041	0.091
-612.259	232.920	-0.095	0.158
-611.244	284.371	-0.030	-0.054
-610.230	-114.190	0.267	0.052
-609.215	154.089	0.092	0.128
-608.201	-29.860	-0.100	0.057
-607.186	786.126	0.044	0.121
-606.171	136.383	0.187	-0.247
-605.157	-138.177	-0.472	-0.053
-604.142	-200.000	-0.036	0.249
-603.128	-200.000	-0.014	-0.353
-602.113	35.824	-0.215	-0.191
-601.098	120.026	-0.152	-0.191
-600.084	155.994	0.095	0.133
-599.069	-100.416	0.058	-0.015
-598.055	222.376	-0.162	0.263
-597.040	166.198	0.085	0.122
-596.025	174.907	-0.070	-0.102
-595.011	86.342	0.029	0.033
-593.996	-83.816	0.152	0.049
-592.982	88.387	-0.120	0.135
-591.967	-74.499	0.066	0.024
-590.952	40.600	-0.308	-0.281
-589.938	-80.488	0.232	-0.078
-588.923	-200.000	-0.048	0.252
-587.909	-57.986	-0.151	-0.067
-586.894	-117.731	0.245	0.045
-585.879	19.024	0.191	-0.154
-584.865	-183.757	-0.160	-0.003
-583.850	-134.951	0.360	0.044
-582.836	275.848	-0.074	-0.133
-581.821	246.330	-0.147	-0.251
-580.806	-33.054	-0.204	-0.114
-579.792	252.884	0.059	0.101
-578.777	389.791	0.053	-0.110
-577.763	30.317	-0.456	-0.393
-576.748	-124.389	0.353	0.055
-575.733	-115.203	-0.494	-0.094
-574.719	309.819	0.186	-0.352
-573.704	-129.659	-0.197	-0.027
-572.690	-114.757	0.294	-0.057
-571.675	-13.843	0.410	-0.268
-570.661	-4.240	0.233	-0.163
-569.646	-98.931	-0.091	-0.023
-568.631	-27.594	0.082	-0.048
-567.617	68.974	-0.098	0.101
-566.602	486.666	0.094	0.216
-565.588	-9.120	0.047	0.032
-564.573	-200.000	0.076	0.524
-563.558	-167.997	0.154	0.006
-562.544	67.088	0.136	-0.140
-561.529	-200.000	0.012	-0.137
-560.515	-200.000	-0.036	-0.237
-559.500	13.464	0.286	0.223
-558.485	473.122	0.076	-0.174
-557.471	8.125	0.062	-0.047
-556.456	-98.673	-0.168	-0.043
-555.442	-200.000	-0.007	0.276
-554.427	-137.107	-0.315	0.036
-553.412	-88.219	-0.064	-0.019
-552.398	86.875	-0.152	-0.170
-551.383	72.072	-0.117	-0.123
-550.369	800.000	0.051	-0.216
-549.354	316.030	-0.027	0.052
-548.339	176.076	0.224	0.328
-547.325	-200.000	-0.053	-0.570
-546.310	-181.371	-0.250	0.005
-545.296	-50.473	0.329	-0.157
-544.281	367.608	-0.043	-0.088
-543.266	73.309	-0.172	-0.181
-542.252	-61.707	-0.298	0.126
-541.237	108.551	0.004	0.005
-540.223	-141.213	-0.203	0.021
-539.208	19.188	0.114	0.092
-538.193	82.119	0.156	0.171
-537.179	-40.936	-0.275	-0.143
-536.164	-122.335	0.171	-0.028
-535.150	-200.000	-0.024	0.200
-534.135	800.000	-0.065	0.190
-533.121	46.448	-0.161	-0.150
-532.106	-200.000	-0.001	-0.073
-531.091	-90.343	-0.124	-0.036
-530.077	568.746	-0.133	-0.327
-529.062	-200.000	-0.001	-0.110
-528.048	-101.138	0.104	-0.026
-527.033	-200.000	0.076	0.369
-526.018	800.000	-0.070	-0.305
-525.004	-60.103	0.120	0.052
-523.989	-61.181	0.275	-0.117
-522.975	-200.000	0.016	-0.192
-521.960	75.995	-0.176	0.187
-520.945	676.927	0.131	-0.342
-519.931	-46.242	0.050	0.025
-518.916	129.686	0.030	0.039
-517.902	-48.846	-0.121	-0.058
-516.887	214.061	0.191	-0.305
-515.872	-200.000	0.257	0.001
-514.858	-86.605	0.197	-0.061
-513.843	-11.292	-0.192	0.127
-512.829	20.271	-0.361	-0.294
-511.814	-200.000	-0.016	0.121
-510.799	-102.784	0.143	0.034
-509.785	319.976	-0.059	-0.112
-508.770	-16.240	-0.196	0.125
-507.756	-125.617	0.070	-0.011
-506.741	-121.324	0.037	0.006
-505.726	165.505	-0.160	0.227
-504.712	223.128	-0.174	0.282
-503.697	-200.000	0.025	0.238
-502.683	357.579	0.016	0.033
-501.668	-25.552	-0.238	-0.142
-500.653	-36.159	0.241	0.131
-499.639	-200.000	-0.031	-0.149
-498.624	-132.087	0.188	0.025
-497.610	13.695	0.409	0.320
-496.595	70.691	0.274	-0.285
-495.581	13.322	-0.220	-0.172
-494.566	240.636	-0.128	0.215
-493.551	47.664	-0.074	-0.069
-492.537	2.860	-0.166	0.121
-491.522	325.430	-0.015	0.029
-490.508	461.180	0.123	-0.276
-489.493	115.274	0.163	-0.201
-488.478	-200.000	-0.014	0.065
-487.464	800.000	-0.077	-0.236
-486.449	-131.293	-0.296	0.039
-485.435	800.000	0.039	-0.123
-484.420	-200.000	0.026	-0.256
-483.405	141.530	0.220	-0.293
-482.391	800.000	-0.100	0.370
-481.376	-13.632	-0.194	-0.126
-480.362	-152.214	0.342	0.025
-479.347	-63.790	0.228	0.094
-478.332	-75.056	-0.150	-0.054
-477.318	24.700	0.130	-0.108
-476.303	247.570	-0.255	0.433
-475.289	-93.312	-0.242	-0.068
-474.274	-134.472	0.351	-0.043
-473.259	-137.184	0.120	0.014
-472.245	-50.559	-0.287	-0.136
-471.230	332.257	-0.118	-0.229
-470.216	-101.462	-0.724	-0.177
-469.201	-159.585	-0.150	0.008
-468.186	-40.008	-0.347	0.182
-467.172	-6.678	0.172	0.118
-466.157	796.379	0.046	0.128
-465.143	-200.000	-0.008	-0.268
-464.128	-21.676	0.298	0.183
-463.113	89.957	-0.166	0.187
-462.099	148.274	-0.122	-0.165
-461.084	-200.000	-0.011	0.269
-460.070	-200.000	0.021	-0.133
-459.055	-200.000	0.028	0.327
-458.040	-200.000	0.263	0.000
-457.026	73.113	-0.102	0.107
-456.011	101.485	0.056	0.065
-454.997	-62.905	-0.126	-0.052
-453.982	67.800	0.155	0.159
-452.968	271.709	-0.091	0.161
-451.953	218.739	0.217	0.348
-450.938	-131.738	-0.192	0.025
-449.924	562.520	0.125	-0.304
-448.909	-58.607	0.212	-0.092
-447.895	-13.071	-0.164	0.107
-446.880	-54.519	-0.112	0.051
-445.865	37.387	-0.171	0.152
-444.851	327.927	0.149	0.287
-443.836	800.000	-0.053	0.199
-442.822	275.837	-0.067	-0.119
-441.807	-23.396	-0.112	0.068
-440.792	-184.866	-0.043	-0.001
-439.778	-189.207	-0.299	-0.004
-438.763	1.299	0.288	0.208
-437.749	-21.641	-0.237	-0.145
-436.734	800.000	-0.111	0.373
-435.719	-200.000	-0.007	-0.114
-434.705	22.046	0.199	0.163
-433.690	800.000	0.028	0.110
-432.676	-130.023	-0.090	-0.012
-431.661	28.228	0.027	0.023
-430.646	-58.753	-0.156	0.068
-429.632	-51.308	0.185	0.087
-428.617	800.000	-0.141	0.420
-427.603	20.668	0.234	0.190
-426.588	-180.185	-0.234	0.005
-425.573	19.736	-0.193	0.156
-424.559	-1.906	0.308	0.217
-423.544	-101.185	0.242	0.059
-422.530	-200.000	0.069	-0.316
-421.515	-142.305	-0.236	-0.023
-420.500	331.978	-0.017	-0.034
-419.486	129.842	-0.102	0.130
-418.471	409.685	-0.112	0.238
-417.457	-116.240	0.316	0.059
-416.442	-41.223	-0.065	-0.034
-415.428	800.000	-0.038	-0.151
-414.413	-99.580	-0.314	-0.079
-413.398	-127.881	0.284	0.041
-412.384	-31.254	-0.110	-0.062
-411.369	341.350	-0.105	0.206
-410.355	76.465	0.082	-0.087
-409.340	-200.000	0.001	-0.023
-408.325	232.978	-0.246	-0.405
-407.311	-200.000	-0.004	-0.437
-406.296	-80.696	0.240	0.080
-405.282	-200.000	0.099	-0.000
-404.267	-147.844	-0.189	-0.016
-403.252	-101.364	0.160	-0.039
-402.238	2.693	0.110	0.080
-401.223	32.155	0.160	-0.138
-400.209	105.516	-0.066	-0.078
-399.194	166.501	-0.103	0.147
-398.179	791.853	0.071	-0.194
-397.165	-200.000	-0.020	-0.091
-396.150	-200.000	0.024	-0.116
-395.136	73.160	0.068	0.071
-394.121	95.856	0.083	0.095
-393.106	-22.081	-0.217	0.132
-392.092	-73.099	0.157	0.058
-391.077	129.960	0.071	0.092
-390.063	40.358	0.100	-0.090
-389.048	740.936	-0.078	-0.210
-388.033	800.000	0.102	-0.345
-387.019	-127.498	0.323	-0.047
-386.004	745.963	-0.067	0.182
-384.990	-163.175	0.366	0.018
-383.975	97.278	0.117	-0.134
-382.960	229.230	-0.304	-0.498
-381.946	554.774	-0.057	-0.137
-380.931	2.348	-0.302	-0.219
-379.917	18.753	-0.240	-0.193
-378.902	18.886	-0.031	-0.025
-377.888	-54.068	-0.118	-0.054
-376.873	-148.984	0.222	0.018
-375.858	-101.385	-0.266	0.065
-374.844	-200.000	-0.013	-0.232
-373.829	714.603	-0.042	0.111
-372.815	0.633	-0.072	-0.052
-371.800	-68.958	0.090	-0.035
-370.785	-58.000	-0.199	0.087
-369.771	-62.540	-0.255	-0.106
-368.756	16.504	-0.076	-0.060
-367.742	-178.087	0.204	-0.005
-366.727	388.519	0.093	0.192
-365.712	-109.802	0.243	-0.051
-364.698	-200.000	0.026	-0.265
-363.683	445.066	0.203	0.446
-362.669	-112.857	0.408	-0.081
-361.654	-42.933	-0.146	0.074
-360.639	323.570	-0.057	-0.108
-359.625	800.000	0.024	-0.074
-358.610	-143.307	-0.128	-0.012
-357.596	-30.176	0.434	0.247
-356.581	-43.901	-0.181	-0.091
-355.566	159.384	0.128	0.178
-354.552	-125.306	-0.393	0.060
-353.537	353.245	-0.237	0.470
-352.523	464.774	-0.019	-0.042
-351.508	-200.000	-0.016	0.121
-350.493	597.939	-0.050	0.123
-349.479	-60.708	-0.143	-0.061
-348.464	800.000	0.134	0.559
-347.450	208.348	0.045	0.071
-346.435	69.262	-0.134	0.138
-345.420	-168.502	0.258	-0.010
-344.406	-29.889	0.179	-0.102
-343.391	312.975	-0.106	0.200
-342.377	100.520	0.175	-0.203
-341.362	-200.000	-0.037	0.202
-340.348	143.801	0.200	0.267
-339.333	-62.749	-0.128	0.053
-338.318	800.000	-0.016	0.049
-337.304	-200.000	-0.017	0.234
-336.289	519.212	-0.072	-0.170
-335.275	-20.635	0.152	-0.093
-334.260	-121.960	-0.269	-0.044
-333.245	-143.844	-0.317	-0.030
-332.231	-146.127	-0.323	-0.028
-331.216	-200.000	0.014	-0.164
-330.202	43.246	0.204	0.186
-329.187	-195.598	0.297	-0.002
-328.172	-200.000	-0.026	-0.242
-327.158	-119.277	-0.164	0.029
-326.143	-49.359	-0.192	0.092
-325.129	760.713	0.130	-0.353
-324.114	800.000	0.185	0.580
-323.099	-200.000	0.026	0.204
-322.085	-190.181	0.295	-0.003
-321.070	-62.983	-0.183	-0.076
-320.056	800.000	0.048	0.204
-319.041	-64.480	-0.163	-0.066
-318.026	93.945	0.124	-0.140
-317.012	-102.201	-0.131	-0.032
-315.997	-107.827	0.193	0.042
-314.983	339.521	-0.036	0.070
-313.968	-26.174	0.136	-0.080
-312.953	-200.000	-0.041	-0.246
-311.939	-4.952	-0.063	0.043
-310.924	180.799	-0.188	0.276
-309.910	-200.000	-0.000	-0.178
-308.895	-141.762	0.311	0.031
-307.880	-200.000	0.024	0.228
-306.866	-200.000	-0.002	-0.063
-305.851	-58.434	-0.097	-0.042
-304.837	-200.000	-0.017	0.145
-303.822	-200.000	0.013	0.173
-302.807	-200.000	-0.013	0.121
-301.793	289.815	-0.083	-0.151
-300.778	-200.000	-0.026	0.218
-299.764	122.098	0.076	-0.095
-298.749	50.813	-0.092	0.087
-297.735	67.397	-0.190	0.194
-296.720	10.182	0.090	0.068
-295.705	800.000	-0.026	0.103
-294.691	238.929	-0.021	0.035
-293.676	-5.154	0.174	-0.119
-292.662	-81.263	-0.261	0.086
-291.647	387.189	-0.088	-0.181
-290.632	-22.353	-0.249	-0.150
-289.618	11.474	-0.083	0.063
-288.603	136.906	0.231	0.301
-287.589	-128.173	0.189	-0.027
-286.574	-200.000	0.021	0.348
-285.559	-200.000	-0.054	0.351
-284.545	-86.299	0.109	0.033
-283.530	118.930	0.130	0.161
-282.516	800.000	-0.033	-0.100
-281.501	-179.804	0.552	-0.012
-280.486	6.158	0.256	-0.189
-279.472	-1.767	-0.115	0.081
-278.457	-143.472	0.174	-0.017
-277.443	446.102	-0.103	0.225
-276.428	-80.374	-0.203	0.068
-275.413	-143.147	-0.148	-0.014
-274.399	800.000	-0.010	-0.042
-273.384	180.594	0.035	0.052
-272.370	800.000	-0.052	-0.211
-271.355	-78.394	0.271	-0.093
-270.340	16.236	-0.091	0.071
-269.326	-200.000	0.019	-0.209
-268.311	-148.301	-0.158	-0.013
-267.297	14.286	0.181	0.141
-266.282	-200.000	-0.126	0.561
-265.267	-107.551	-0.281	-0.061
-264.253	-72.685	0.103	0.038
-263.238	46.949	0.187	-0.173
-262.224	-50.947	-0.391	-0.183
-261.209	-77.771	-0.088	0.030
-260.195	112.765	0.228	0.276
-259.180	-50.487	0.282	-0.133
-258.165	800.000	0.036	-0.116
-257.151	-21.624	-0.220	0.133
-256.136	225.494	0.071	0.115
-255.122	-62.628	0.208	-0.086
-254.107	-200.000	-0.037	-0.335
-253.092	181.759	0.148	0.217
-252.078	10.409	-0.158	0.120
-251.063	800.000	-0.004	-0.012
-250.049	-50.258	-0.273	-0.128
-249.034	800.000	0.020	0.069
-248.019	445.076	-0.026	0.056
-247.005	-151.878	0.581	-0.042
-245.990	-200.000	-0.002	0.276
-244.976	4.281	0.151	0.110
-243.961	-131.039	0.242	0.032
-242.946	52.649	-0.193	-0.184
-241.932	305.145	0.108	-0.200
-240.917	-81.550	-0.311	0.102
-239.903	800.000	0.056	0.175
-238.888	71.646	-0.039	-0.040
-237.873	133.387	0.279	0.359
-236.859	4.494	-0.145	0.106
-235.844	375.241	0.077	0.156
-234.830	-200.000	-0.057	0.319
-233.815	15.902	0.121	-0.095
-232.800	13.024	0.107	0.082
-231.786	14.590	0.244	-0.190
-230.771	-192.723	0.162	0.001
-229.757	-119.332	0.130	-0.022
-228.742	-200.000	0.011	-0.051
-227.727	-19.512	-0.334	-0.206
-226.713	-137.943	0.145	-0.016
-225.698	743.495	-0.050	0.135
-224.684	-200.000	-0.037	-0.292
-223.669	40.544	0.190	-0.170
-222.655	2.218	-0.165	0.119
-221.640	800.000	0.061	-0.190
-220.625	800.000	0.032	0.117
-219.611	16.646	-0.114	-0.089
-218.596	-90.586	0.293	-0.084
-217.582	800.000	-0.043	0.148
-216.567	-104.662	0.067	0.015
-215.552	-200.000	-0.025	-0.297
-214.538	800.000	-0.037	0.159
-213.523	-87.833	-0.276	-0.083
-212.509	54.971	0.091	0.088
-211.494	-55.059	-0.288	-0.129
-210.479	-200.000	-0.016	-0.202
-209.465	800.000	0.049	-0.203
-208.450	148.050	-0.082	0.110
-207.436	800.000	-0.102	0.354
-206.421	-200.000	-0.014	0.222
-205.406	-180.118	-0.082	-0.002
-204.392	-31.994	0.130	0.073
-203.377	-31.578	-0.164	0.092
-202.363	765.719	0.043	-0.116
-201.348	-88.319	0.197	-0.058
-200.333	-39.799	-0.246	-0.128
-199.319	-200.000	-0.009	0.049
-198.304	-92.610	0.214	0.060
-197.290	-93.477	0.099	0.027
-196.275	-200.000	0.035	-0.208
-195.260	17.485	-0.019	-0.015
-194.246	220.575	0.161	0.257
-193.231	247.469	-0.112	0.188
-192.217	-6.973	0.143	0.096
-191.202	22.646	0.080	-0.065
-190.187	-116.142	0.205	-0.038
-189.173	-200.000	-0.018	-0.143
-188.158	-113.056	0.328	-0.064
-187.144	-109.033	0.133	-0.028
-186.129	-20.809	-0.175	0.107
-185.114	800.000	0.039	-0.140
-184.100	800.000	-0.105	0.437
-183.085	-10.137	0.120	-0.079
-182.071	-200.000	-0.026	0.197
-181.056	19.163	0.200	0.160
-180.042	-141.443	0.237	0.024
-179.027	-200.000	-0.042	-0.386
-178.012	-167.156	-0.367	0.015
-176.998	-115.526	0.256	-0.048
-175.983	37.558	-0.079	-0.069
-174.969	-200.000	0.009	-0.073
-173.954	-167.434	0.130	-0.005
-172.939	-127.834	0.145	0.021
-171.925	800.000	0.014	-0.055
-170.910	638.866	-0.040	-0.100
-169.896	-200.000	0.000	0.057
-168.881	-200.000	0.048	0.221
-167.866	800.000	-0.048	0.177
-166.852	-47.801	0.283	-0.136
-165.837	295.270	-0.152	0.276
-164.823	-180.976	0.071	-0.001
-163.808	800.000	-0.072	-0.208
-162.793	-51.849	-0.100	-0.046
-161.779	-200.000	0.068	-0.423
-160.764	-101.544	0.110	-0.027
-159.750	-38.307	-0.161	-0.084
-158.735	-200.000	-0.003	-0.195
-157.720	-200.000	-0.004	0.129
-156.706	-200.000	0.000	-0.082
-155.691	-200.000	0.003	-0.034
-154.677	92.833	-0.064	-0.072
-153.662	12.310	-0.346	-0.264
-152.647	800.000	0.067	-0.205
-151.633	33.541	-0.201	0.174
-150.618	-200.000	-0.048	-0.514
-149.604	205.381	-0.054	-0.083
-148.589	-200.000	0.005	0.260
-147.574	-200.000	-0.010	0.161
-146.560	172.671	0.110	0.157
-145.545	396.190	-0.062	0.129
-144.531	264.194	-0.140	0.241
-143.516	-200.000	0.023	-0.130
-142.502	-158.382	0.287	-0.017
-141.487	282.380	0.151	-0.269
-140.472	695.315	0.032	-0.084
-139.458	71.977	-0.171	-0.176
-138.443	-181.695	0.500	-0.010
-137.429	800.000	-0.139	-0.403
-136.414	41.826	0.058	0.052
-135.399	365.691	-0.118	0.235
-134.385	-58.166	-0.115	0.050
-133.370	-122.667	0.223	-0.036
-132.356	-126.941	-0.235	-0.034
-131.341	-44.265	0.106	-0.053
-130.326	-71.841	-0.269	0.099
-129.312	-200.000	-0.021	0.274
-128.297	9.582	0.203	0.152
-127.283	800.000	0.090	0.357
-126.268	-5.318	-0.169	0.115
-125.253	10.018	0.252	0.190
-124.239	-48.084	0.202	0.097
-123.224	75.722	-0.112	-0.118
-122.210	39.867	0.336	0.299
