DTS Sentinel unit serial number:	SN413079Multiplexer serial number:	ORYXHardware model number:	OX4-SRSoftware version number:	ORYX F/W v4.00 Oryx Data Collector v3.7.2.0data status	okinstallation	princeton_trtdifferential loss correction	single-endedforward channel	channel 4reverse channel	N/Adate	2019/09/11time	19:27:11forward acquisition time	60.00reverse acquisition time	0.00gamma	496.2192k internal	0.2293k external	0.2293temperature offset calibration	1.0039default loss term (dB/km)	0.3790temperature slope calibration	1.0000multiplexer offset coefficient	1.0000multiplexer slope coefficient	1.0000fibre end	0.00T internal ref (°C)	40.62T ext. ref 1 (°C)	1.31T ext. ref 2 (°C)	32.93length (m)	temperature (°C)	Stokes	anti-Stokes-747.200	-200.000	-0.020	-0.155
-746.185	-137.510	0.224	0.026
-745.171	246.373	-0.142	0.246
-744.156	-69.931	-0.282	0.110
-743.142	80.983	-0.169	-0.187
-742.127	800.000	-0.036	-0.120
-741.112	129.696	-0.151	-0.197
-740.098	437.269	-0.249	0.556
-739.083	296.137	0.094	0.176
-738.069	255.451	0.074	0.129
-737.054	129.479	0.209	-0.273
-736.039	-200.000	-0.086	0.608
-735.025	760.186	-0.048	0.133
-734.010	-51.256	-0.122	0.058
-732.996	-119.848	-0.345	0.061
-731.981	460.948	-0.129	-0.293
-730.966	32.938	0.108	0.096
-729.952	-200.000	-0.049	-0.306
-728.937	-105.104	-0.191	-0.045
-727.923	-11.467	-0.123	-0.083
-726.908	-60.325	0.074	0.032
-725.894	-200.000	0.006	-0.192
-724.879	-200.000	0.001	-0.149
-723.864	-148.924	0.391	-0.032
-722.850	-11.337	0.135	0.091
-721.835	526.456	0.063	-0.151
-720.821	800.000	-0.017	0.075
-719.806	26.446	0.243	0.207
-718.791	589.470	0.097	0.245
-717.777	-200.000	-0.016	-0.153
-716.762	-172.863	0.431	0.014
-715.748	193.382	-0.102	0.158
-714.733	-134.745	0.079	0.010
-713.718	-107.222	-0.196	0.044
-712.704	316.742	0.024	-0.047
-711.689	44.434	0.070	0.065
-710.675	18.686	-0.054	-0.044
-709.660	325.342	-0.066	-0.129
-708.645	3.836	0.181	-0.135
-707.631	443.139	0.044	0.098
-706.616	-200.000	-0.023	0.409
-705.602	-51.106	0.069	0.033
-704.587	114.129	-0.303	-0.376
-703.572	224.103	-0.077	0.126
-702.558	150.671	-0.143	0.198
-701.543	5.038	0.281	-0.211
-700.529	800.000	-0.077	0.229
-699.514	800.000	-0.088	0.375
-698.499	-200.000	0.014	-0.101
-697.485	445.581	0.018	-0.041
-696.470	-44.837	0.170	0.087
-695.456	-145.901	0.303	0.027
-694.441	39.039	0.206	-0.188
-693.426	-71.076	0.262	0.101
-692.412	800.000	0.101	0.363
-691.397	-13.374	0.307	0.203
-690.383	-143.795	0.124	-0.012
-689.368	109.522	-0.048	-0.058
-688.354	166.836	-0.059	0.085
-687.339	461.553	0.123	0.279
-686.324	-200.000	0.008	-0.068
-685.310	-18.195	0.125	-0.080
-684.295	337.445	0.114	-0.226
-683.281	198.637	-0.120	0.188
-682.266	-97.270	-0.026	-0.007
-681.251	-81.993	-0.551	0.184
-680.237	47.943	0.214	-0.204
-679.222	43.566	-0.098	0.092
-678.208	7.485	0.093	-0.071
-677.193	-200.000	-0.077	0.394
-676.178	281.671	0.019	0.034
-675.164	-53.811	-0.316	-0.147
-674.149	-200.000	-0.071	-0.393
-673.135	164.340	0.130	0.187
-672.120	-150.274	0.260	0.021
-671.105	-27.282	-0.068	-0.041
-670.091	-200.000	-0.027	-0.187
-669.076	-21.719	-0.220	0.137
-668.062	144.176	0.168	0.228
-667.047	455.524	-0.061	-0.139
-666.032	-200.000	-0.004	-0.220
-665.018	-9.254	-0.243	-0.166
-664.003	-3.931	-0.150	-0.106
-662.989	-27.772	-0.144	-0.085
-661.974	243.551	-0.152	-0.260
-660.959	-87.319	-0.178	0.055
-659.945	48.734	-0.123	-0.118
-658.930	345.572	-0.148	-0.297
-657.916	800.000	0.117	-0.480
-656.901	-200.000	0.073	-0.560
-655.886	92.083	0.149	0.171
-654.872	-64.130	0.233	-0.097
-653.857	-84.655	-0.066	-0.021
-652.843	-15.306	-0.317	0.207
-651.828	-108.067	-0.439	0.097
-650.814	-44.252	0.235	-0.120
-649.799	-67.234	-0.359	0.144
-648.784	132.976	-0.010	0.013
-647.770	242.727	-0.058	-0.099
-646.755	109.823	0.196	0.239
-645.741	-6.013	-0.177	-0.123
-644.726	517.629	-0.107	0.255
-643.711	-170.341	0.367	-0.013
-642.697	92.825	0.160	0.184
-641.682	-200.000	-0.002	-0.221
-640.668	36.710	0.132	0.119
-639.653	-94.203	-0.137	0.038
-638.638	197.264	-0.107	0.167
-637.624	275.645	0.254	-0.459
-636.609	189.488	0.167	0.255
-635.595	535.859	0.086	-0.208
-634.580	-134.892	-0.040	-0.005
-633.565	70.522	-0.091	-0.095
-632.551	800.000	-0.103	0.339
-631.536	-200.000	0.037	0.196
-630.522	-200.000	0.041	0.195
-629.507	-200.000	-0.025	0.117
-628.492	8.306	-0.178	0.136
-627.478	-19.827	0.187	0.118
-626.463	213.860	0.268	-0.431
-625.449	-200.000	0.002	0.314
-624.434	-200.000	0.070	-0.337
-623.419	144.870	0.059	0.081
-622.405	-190.183	-0.255	0.003
-621.390	154.922	0.043	0.060
-620.376	-98.615	0.065	-0.017
-619.361	-88.517	-0.219	-0.066
-618.346	529.471	0.069	-0.167
-617.332	-200.000	-0.002	-0.046
-616.317	-9.105	0.078	0.053
-615.303	134.480	0.175	0.231
-614.288	74.081	0.076	0.081
-613.273	358.179	0.086	0.174
-612.259	-2.687	0.253	0.180
-611.244	800.000	-0.082	-0.256
-610.230	509.497	0.049	-0.116
-609.215	169.885	0.188	-0.273
-608.201	224.585	-0.053	0.088
-607.186	-8.026	-0.090	0.062
-606.171	-200.000	-0.014	0.158
-605.157	38.758	-0.204	-0.186
-604.142	-45.117	-0.183	-0.093
-603.128	-65.886	0.175	-0.071
-602.113	-89.306	-0.344	0.103
-601.098	423.963	0.042	-0.091
-600.084	82.175	-0.085	-0.094
-599.069	-200.000	-0.010	-0.109
-598.055	-200.000	0.070	-0.396
-597.040	120.533	-0.111	0.140
-596.025	49.354	-0.175	-0.167
-595.011	29.766	0.155	0.135
-593.996	-200.000	0.017	0.086
-592.982	123.871	0.106	-0.135
-591.967	800.000	0.012	-0.052
-590.952	800.000	-0.039	0.154
-589.938	-137.397	0.025	-0.003
-588.923	753.929	0.007	-0.018
-587.909	-91.838	0.146	-0.042
-586.894	-78.590	-0.028	0.010
-585.879	-38.707	-0.163	0.087
-584.865	13.848	0.267	0.211
-583.850	32.844	-0.245	-0.215
-582.836	-200.000	-0.006	-0.119
-581.821	-200.000	0.018	-0.156
-580.806	800.000	-0.017	0.061
-579.792	-43.044	-0.224	-0.115
-578.777	-81.371	0.240	-0.080
-577.763	620.621	-0.089	-0.226
-576.748	800.000	0.052	0.199
-575.733	92.238	0.021	0.023
-574.719	-200.000	0.002	-0.157
-573.704	-70.193	-0.129	0.050
-572.690	4.258	-0.153	-0.114
-571.675	-200.000	-0.120	0.000
-570.661	-166.903	-0.144	0.006
-569.646	43.385	0.190	-0.176
-568.631	190.804	0.059	0.090
-567.617	-200.000	-0.017	0.190
-566.602	800.000	0.080	-0.251
-565.588	371.266	-0.227	-0.468
-564.573	-46.758	0.100	-0.050
-563.558	304.366	-0.049	0.092
-562.544	424.641	0.098	0.214
-561.529	181.417	-0.130	-0.194
-560.515	-29.009	-0.295	-0.172
-559.500	-120.953	-0.193	-0.033
-558.485	-200.000	-0.005	0.472
-557.471	-141.578	0.248	0.025
-556.456	61.362	-0.119	-0.120
-555.442	-138.770	0.104	0.011
-554.427	4.942	-0.191	0.142
-553.412	-133.757	0.262	0.033
-552.398	54.478	0.146	-0.143
-551.383	-96.970	-0.133	0.035
-550.369	163.593	-0.245	0.349
-549.354	-200.000	0.000	-0.234
-548.339	23.631	-0.196	0.164
-547.325	277.245	-0.053	0.095
-546.310	204.113	0.105	0.165
-545.296	-51.781	-0.144	0.068
-544.281	139.062	-0.052	0.069
-543.266	153.183	0.162	-0.225
-542.252	337.696	0.086	-0.170
-541.237	-200.000	-0.024	-0.135
-540.223	-140.577	0.157	0.017
-539.208	-106.205	0.286	-0.065
-538.193	370.057	0.068	0.140
-537.179	385.653	0.035	-0.073
-536.164	78.100	-0.278	-0.301
-535.150	82.656	-0.178	0.196
-534.135	-200.000	0.015	0.215
-533.121	-97.624	0.213	0.056
-532.106	-200.000	0.020	-0.164
-531.091	-47.251	-0.024	0.012
-530.077	201.243	-0.162	-0.254
-529.062	62.224	0.135	0.136
-528.048	-200.000	-0.008	0.144
-527.033	-60.008	0.122	0.053
-526.018	464.133	0.099	0.224
-525.004	40.784	0.160	0.146
-523.989	-82.377	-0.078	0.026
-522.975	-98.297	-0.211	0.055
-521.960	-21.249	0.257	-0.159
-520.945	-117.816	0.166	0.030
-519.931	349.727	-0.074	-0.148
-518.916	195.972	0.104	0.160
-517.902	-200.000	0.027	-0.316
-516.887	106.635	0.162	-0.195
-515.872	-3.770	-0.073	0.051
-514.858	207.395	0.051	-0.081
-513.843	800.000	-0.087	0.373
-512.829	-25.801	-0.185	-0.111
-511.814	195.407	-0.068	-0.105
-510.799	500.560	0.090	0.211
-509.785	27.931	-0.269	-0.230
-508.770	800.000	-0.073	0.263
-507.756	-132.673	0.079	-0.010
-506.741	-200.000	0.037	-0.188
-505.726	-5.120	-0.191	0.133
-504.712	-200.000	0.032	-0.152
-503.697	800.000	-0.101	-0.409
-502.683	-12.578	-0.195	-0.129
-501.668	219.992	-0.108	-0.176
-500.653	800.000	-0.065	-0.190
-499.639	-200.000	-0.008	-0.113
-498.624	-85.764	-0.190	0.060
-497.610	6.668	0.214	0.161
-496.595	-37.904	-0.051	-0.028
-495.581	174.670	0.163	-0.240
-494.566	-69.346	-0.108	0.042
-493.551	1.187	0.190	-0.138
-492.537	51.321	0.278	0.268
-491.522	800.000	-0.090	0.381
-490.508	107.337	0.067	0.080
-489.493	250.460	0.048	-0.082
-488.478	107.385	0.026	0.031
-487.464	-61.893	0.392	0.166
-486.449	-65.366	-0.313	0.128
-485.435	-8.918	0.075	-0.051
-484.420	-200.000	-0.042	-0.195
-483.405	-94.840	0.021	0.006
-482.391	-102.304	0.249	-0.060
-481.376	125.035	0.029	-0.037
-480.362	800.000	-0.081	0.276
-479.347	-163.764	0.392	-0.019
-478.332	-152.058	0.379	-0.028
-477.318	-9.361	0.091	0.061
-476.303	132.262	0.104	-0.136
-475.289	30.747	0.172	0.149
-474.274	800.000	-0.017	0.054
-473.259	413.208	0.122	-0.263
-472.245	-19.013	0.292	-0.184
-471.230	-76.264	0.201	-0.072
-470.216	-200.000	-0.000	0.329
-469.201	-109.040	-0.200	0.043
-468.186	-11.064	-0.077	-0.051
-467.172	539.884	0.033	-0.079
-466.157	-200.000	-0.018	-0.197
-465.143	-200.000	0.048	-0.232
-464.128	108.073	0.124	0.149
-463.113	-131.424	0.303	0.041
-462.099	-48.498	-0.208	0.101
-461.084	-200.000	-0.021	0.275
-460.070	800.000	-0.044	-0.154
-459.055	800.000	-0.073	0.218
-458.040	56.293	-0.225	-0.221
-457.026	-200.000	-0.022	0.439
-456.011	800.000	-0.038	-0.165
-454.997	-83.719	-0.257	0.083
-453.982	800.000	-0.052	-0.163
-452.968	-124.339	0.077	0.012
-451.953	-141.417	0.135	0.014
-450.938	-200.000	-0.037	-0.238
-449.924	-132.297	-0.435	-0.057
-448.909	-25.330	0.098	0.059
-447.895	126.993	-0.139	0.178
-446.880	255.082	0.077	0.133
-445.865	113.839	0.178	-0.219
-444.851	76.705	-0.060	0.064
-443.836	107.053	0.111	0.133
-442.822	387.809	-0.038	-0.080
-441.807	249.556	-0.244	-0.418
-440.792	-200.000	0.010	-0.326
-439.778	245.728	0.263	0.447
-438.763	800.000	-0.078	-0.260
-437.749	709.274	-0.113	-0.302
-436.734	286.702	-0.055	-0.100
-435.719	188.562	0.096	-0.145
-434.705	800.000	-0.032	0.130
-433.690	354.432	-0.108	0.216
-432.676	1.225	-0.185	0.134
-431.661	68.086	-0.133	0.137
-430.646	578.143	0.146	-0.362
-429.632	-71.644	0.300	-0.113
-428.617	198.178	0.142	0.219
-427.603	-200.000	0.010	-0.386
-426.588	-200.000	-0.024	-0.346
-425.573	-50.346	0.139	0.066
-424.559	-75.643	0.221	0.079
-423.544	109.979	-0.065	0.079
-422.530	-174.072	0.158	-0.005
-421.515	53.369	-0.150	-0.145
-420.500	-200.000	0.025	-0.173
-419.486	66.037	0.176	-0.180
-418.471	11.317	-0.123	-0.095
-417.457	-21.179	-0.348	-0.215
-416.442	72.405	-0.241	-0.254
-415.428	-56.149	-0.060	0.027
-414.413	-200.000	-0.050	-0.417
-413.398	277.223	0.066	0.119
-412.384	303.699	-0.337	0.631
-411.369	-117.748	0.368	0.067
-410.355	141.648	-0.188	-0.252
-409.340	11.986	-0.208	0.162
-408.325	-140.029	-0.102	0.011
-407.311	756.542	0.103	0.280
-406.296	-99.301	0.285	0.073
-405.282	-3.702	-0.226	-0.158
-404.267	-101.933	0.213	-0.052
-403.252	-112.491	0.324	0.065
-402.238	49.545	-0.127	0.121
-401.223	-139.179	0.208	-0.023
-400.209	150.981	0.163	0.224
-399.194	-33.441	0.171	0.095
-398.179	-200.000	-0.008	-0.297
-397.165	-190.747	-0.171	0.002
-396.150	111.800	-0.178	0.217
-395.136	-2.617	-0.123	0.087
-394.121	55.476	-0.092	-0.090
-393.106	755.345	0.195	0.532
-392.092	4.413	-0.227	-0.168
-391.077	-14.336	0.084	0.054
-390.063	-137.009	0.165	0.019
-389.048	-200.000	-0.001	-0.012
-388.033	216.884	-0.046	0.074
-387.019	105.033	-0.072	0.086
-386.004	-64.626	0.026	0.011
-384.990	-164.660	0.095	0.004
-383.975	236.079	0.056	0.093
-382.960	777.817	-0.036	-0.100
-381.946	800.000	0.027	0.084
-380.931	84.422	-0.044	0.049
-379.917	81.816	-0.193	0.210
-378.902	-200.000	-0.006	0.058
-377.888	-16.135	0.414	-0.265
-376.873	503.676	-0.103	0.239
-375.858	51.136	-0.029	-0.028
-374.844	-41.090	0.057	-0.030
-373.829	-25.690	-0.333	-0.198
-372.815	-2.159	0.187	0.132
-371.800	668.389	0.005	0.014
-370.785	78.989	0.045	-0.049
-369.771	-67.288	-0.111	0.044
-368.756	-20.848	-0.167	-0.103
-367.742	-11.705	0.132	0.088
-366.727	800.000	0.037	0.129
-365.712	800.000	0.018	0.062
-364.698	586.642	0.074	-0.184
-363.683	566.357	-0.255	0.623
-362.669	11.382	0.070	-0.054
-361.654	-200.000	-0.059	0.289
-360.639	133.600	-0.156	0.203
-359.625	-72.944	0.163	0.061
-358.610	25.787	-0.209	-0.175
-357.596	611.224	-0.039	-0.098
-356.581	28.920	0.167	-0.143
-355.566	58.421	-0.302	0.298
-354.552	-200.000	-0.005	0.064
-353.537	131.393	-0.025	0.033
-352.523	-24.146	-0.124	-0.075
-351.508	800.000	0.135	0.414
-350.493	-148.696	-0.290	0.024
-349.479	800.000	0.034	0.147
-348.464	654.020	-0.047	0.121
-347.450	-91.949	-0.126	-0.036
-346.435	-21.554	0.038	0.023
-345.420	213.622	0.086	0.137
-344.406	-200.000	-0.000	0.442
-343.391	800.000	-0.072	0.278
-342.377	-200.000	-0.020	-0.135
-341.362	72.429	-0.181	-0.190
-340.348	-6.278	-0.160	-0.110
-339.333	-199.751	0.273	0.001
-338.318	-133.504	-0.277	-0.035
-337.304	-35.248	0.233	0.128
-336.289	-145.541	0.025	0.002
-335.275	636.865	-0.112	-0.286
-334.260	129.640	0.071	-0.092
-333.245	-200.000	-0.015	-0.085
-332.231	-25.655	0.141	-0.084
-331.216	29.497	-0.051	-0.044
-330.202	-80.270	0.113	-0.038
-329.187	324.677	-0.213	0.409
-328.172	-56.777	-0.153	-0.068
-327.158	-200.000	0.075	0.358
-326.143	-200.000	0.091	0.454
-325.129	-81.736	-0.160	0.053
-324.114	-200.000	0.011	0.058
-323.099	62.262	-0.125	-0.126
-322.085	62.503	0.087	0.087
-321.070	-200.000	0.004	-0.161
-320.056	-56.046	-0.292	-0.131
-319.041	-200.000	0.017	0.145
-318.026	-200.000	-0.020	0.230
-317.012	-125.109	-0.170	-0.026
-315.997	800.000	-0.032	0.123
-314.983	-81.772	0.350	0.116
-313.968	-50.803	0.240	-0.113
-312.953	784.623	0.096	0.265
-311.939	-59.029	-0.257	-0.112
-310.924	-93.534	0.261	0.073
-309.910	1.336	-0.236	0.171
-308.895	167.927	-0.060	0.086
-307.880	303.083	0.146	0.271
-306.866	484.905	-0.122	-0.278
-305.851	5.871	-0.226	0.168
-304.837	-75.085	-0.164	-0.059
-303.822	-85.244	-0.483	0.152
-302.807	-89.380	-0.564	0.167
-301.793	-50.226	0.087	0.041
-300.778	-200.000	0.044	-0.244
-299.764	-3.460	-0.186	0.130
-298.749	-15.462	0.243	0.156
-297.735	-68.188	-0.320	0.125
-296.720	18.160	-0.219	-0.175
-295.705	192.001	-0.177	-0.269
-294.691	-94.326	0.061	-0.017
-293.676	372.179	0.085	0.174
-292.662	297.618	0.112	0.207
-291.647	159.966	-0.102	0.143
-290.632	-32.635	-0.368	-0.206
-289.618	45.032	0.277	-0.256
-288.603	-31.612	-0.307	0.173
-287.589	31.363	-0.371	-0.320
-286.574	-131.614	-0.192	0.025
-285.559	-200.000	-0.016	-0.411
-284.545	118.690	0.308	-0.382
-283.530	-76.443	-0.093	0.033
-282.516	-5.028	-0.119	0.082
-281.501	-62.310	0.261	-0.109
-280.486	406.048	0.112	-0.238
-279.472	-11.452	0.253	-0.167
-278.457	-200.000	-0.009	0.329
-277.443	-200.000	0.001	-0.214
-276.428	407.587	-0.199	-0.423
-275.413	-200.000	0.022	-0.134
-274.399	-23.417	-0.310	0.187
-273.384	83.048	0.188	-0.205
-272.370	493.001	0.199	0.459
-271.355	29.357	0.109	0.093
-270.340	800.000	0.064	0.221
-269.326	142.989	-0.274	0.365
-268.311	-200.000	0.006	0.077
-267.297	320.179	0.191	-0.365
-266.282	-109.332	-0.337	0.072
-265.267	248.854	0.217	0.369
-264.253	-103.509	0.226	0.053
-263.238	-0.901	0.177	-0.126
-262.224	-80.117	-0.131	0.044
-261.209	-2.570	-0.292	0.205
-260.195	800.000	0.029	-0.129
-259.180	-200.000	0.074	-0.365
-258.165	-200.000	-0.001	-0.305
-257.151	-137.521	0.322	0.037
-256.136	158.653	0.132	-0.184
-255.122	17.739	-0.098	-0.078
-254.107	-200.000	-0.043	0.271
-253.092	10.483	-0.366	-0.279
-252.078	741.657	0.053	-0.144
-251.063	-200.000	-0.007	0.149
-250.049	85.296	-0.132	0.146
-249.034	257.037	0.169	0.292
-248.019	-4.398	0.064	-0.044
-247.005	159.615	0.253	-0.353
-245.990	-0.208	0.186	0.132
-244.976	46.257	0.012	0.012
-243.961	86.080	-0.123	-0.136
-242.946	-26.810	0.113	0.066
-241.932	301.671	-0.045	-0.084
-240.917	117.866	-0.149	-0.184
-239.903	800.000	0.085	0.293
-238.888	-200.000	-0.010	0.200
-237.873	-76.006	-0.229	-0.081
-236.859	74.446	-0.022	-0.023
-235.844	800.000	0.029	-0.096
-234.830	-200.000	-0.007	0.076
-233.815	-36.289	-0.133	-0.072
-232.800	-200.000	0.007	-0.086
-231.786	-200.000	-0.021	-0.099
-230.771	-134.185	-0.468	-0.058
-229.757	338.112	0.169	-0.330
-228.742	-3.983	0.279	-0.194
-227.727	-200.000	0.079	-0.400
-226.713	-118.576	0.333	-0.059
-225.698	182.892	0.120	0.177
-224.684	-80.722	0.207	-0.069
-223.669	16.485	0.193	0.153
-222.655	-200.000	-0.035	-0.222
-221.640	22.814	0.176	0.145
-220.625	-128.965	0.019	-0.003
-219.611	-200.000	-0.002	-0.080
-218.596	-33.016	0.196	-0.109
-217.582	45.175	0.176	-0.162
-216.567	535.727	0.055	0.130
-215.552	800.000	-0.086	-0.275
-214.538	-200.000	0.005	0.195
-213.523	71.302	0.055	-0.057
-212.509	-200.000	-0.006	-0.170
-211.494	-138.035	0.350	-0.039
-210.479	-2.772	-0.048	-0.033
-209.465	-125.029	0.203	0.031
-208.450	800.000	0.086	-0.252
-207.436	192.487	-0.031	-0.048
-206.421	-24.077	-0.128	0.077
-205.406	800.000	0.130	-0.383
-204.392	39.431	0.236	0.212
-203.377	-200.000	0.043	0.234
-202.363	-12.199	0.168	-0.110
-201.348	-48.699	0.225	-0.108
-200.333	-6.492	0.135	-0.092
-199.319	800.000	0.061	-0.202
-198.304	-105.470	-0.150	-0.034
-197.290	-96.108	-0.343	0.091
-196.275	770.394	-0.043	0.118
-195.260	-120.524	0.348	0.059
-194.246	53.641	0.227	0.218
-193.231	-200.000	0.012	-0.162
-192.217	800.000	-0.070	0.286
-191.202	800.000	0.091	-0.259
-190.187	-200.000	-0.009	-0.091
-189.173	224.667	0.170	0.276
-188.158	-160.335	0.169	0.009
-187.144	-64.407	-0.249	0.101
-186.129	46.147	0.156	-0.144
-185.114	-59.795	-0.382	-0.164
-184.100	-200.000	-0.032	0.320
-183.085	225.550	0.129	-0.210
-182.071	117.667	0.071	-0.088
-181.056	800.000	-0.123	-0.376
-180.042	237.012	-0.096	-0.158
-179.027	-62.853	0.212	-0.088
-178.012	32.656	-0.392	0.339
-176.998	-79.081	0.268	-0.091
-175.983	-123.892	0.319	0.050
-174.969	21.465	0.027	-0.022
-173.954	-82.442	0.036	0.012
-172.939	800.000	-0.059	-0.227
-171.925	-200.000	0.008	0.104
-170.910	139.397	-0.186	0.244
-169.896	-200.000	-0.008	0.135
-168.881	-200.000	0.019	0.513
-167.866	-200.000	-0.005	-0.127
-166.852	-31.545	-0.182	0.102
-165.837	-76.225	0.422	0.149
-164.823	-100.304	-0.278	0.069
-163.808	-86.469	-0.139	-0.043
-162.793	558.586	-0.099	-0.240
-161.779	-107.808	-0.287	0.063
-160.764	71.841	-0.237	0.246
-159.750	800.000	-0.032	-0.120
-158.735	-200.000	-0.024	0.236
-157.720	532.490	0.147	-0.349
-156.706	-200.000	0.044	-0.260
-155.691	67.888	-0.232	-0.237
-154.677	474.812	0.024	0.054
-153.662	611.247	0.145	0.363
-152.647	-93.787	0.252	0.069
-151.633	28.023	-0.269	0.226
-150.618	800.000	-0.043	-0.172
-149.604	138.408	0.190	0.249
-148.589	-4.122	0.287	0.199
-147.574	-200.000	-0.058	0.290
-146.560	266.078	-0.017	0.030
-145.545	154.118	0.088	-0.121
-144.531	32.823	0.230	-0.199
-143.516	-44.380	0.201	-0.101
-142.502	-77.250	0.285	-0.099
-141.487	137.105	-0.271	0.353
-140.472	-0.278	-0.242	0.172
-139.458	496.772	-0.086	0.197
-138.443	278.653	-0.237	0.421
-137.429	-139.583	0.098	0.010
-136.414	591.182	-0.057	-0.141
-135.399	-200.000	-0.013	-0.273
-134.385	-132.362	-0.224	-0.029
-133.370	-200.000	0.103	0.478
-132.356	-133.221	0.310	-0.039
-131.341	199.025	-0.066	0.101
-130.326	-200.000	0.044	-0.206
-129.312	800.000	0.037	0.160
-128.297	4.885	-0.084	0.062
-127.283	-200.000	0.055	0.264
-126.268	-18.849	0.355	-0.220
-125.253	-66.597	0.246	0.097
-124.239	507.786	-0.186	0.430
-123.224	469.746	0.040	-0.089
-122.210	-200.000	0.042	-0.201
-121.195	27.032	0.152	0.128
-120.180	-84.600	0.115	-0.036
